DTS Sentinel unit serial number:	SN410029Multiplexer serial number:	ORYXHardware model number:	OX2-SRSoftware version number:	ORYX F/W v4,00 Oryx Data Collector v3.7.2.0data status	okinstallation	B5 Nyhavnadifferential loss correction	single-endedforward channel	channel 2reverse channel	N/Adate	2023/12/12time	06:47:13forward acquisition time	300,00reverse acquisition time	0,00gamma	499,1914k internal	0,3157k external	0,3157temperature offset calibration	1,0000default loss term (dB/km)	0,3820temperature slope calibration	1,0000multiplexer offset coefficient	1,0000multiplexer slope coefficient	1,0000fibre end	0,00T internal ref (°C)	15,19T ext. ref 1 (°C)	-1,14T ext. ref 2 (°C)	-1,43length (m)	temperature (°C)	Stokes	anti-Stokes-744,400	437,500	0,033	-0,054
-743,385	-69,727	-0,222	-0,062
-742,371	323,807	0,029	0,041
-741,356	-150,745	-0,117	0,006
-740,342	20,291	0,104	0,062
-739,327	-126,831	-0,261	0,028
-738,312	800,000	0,047	-0,108
-737,298	-118,936	-0,379	-0,048
-736,283	-200,000	0,019	0,128
-735,269	-86,166	-0,401	0,090
-734,254	44,375	0,130	0,088
-733,239	-82,095	-0,395	-0,094
-732,225	-119,461	0,171	-0,022
-731,210	544,614	-0,012	0,022
-730,196	-57,950	-0,056	-0,018
-729,181	800,000	0,037	0,084
-728,167	-9,915	0,060	-0,029
-727,152	344,611	-0,049	-0,071
-726,137	384,956	-0,083	-0,127
-725,123	-130,808	-0,182	-0,018
-724,108	-13,550	-0,114	-0,054
-723,094	-80,564	-0,071	-0,017
-722,079	249,979	0,024	0,031
-721,064	-200,000	0,026	-0,108
-720,050	124,345	0,039	0,037
-719,035	208,168	-0,023	-0,027
-718,021	-25,362	-0,076	0,033
-717,006	296,840	-0,056	0,075
-715,991	-120,624	-0,074	-0,009
-714,977	-185,090	-0,132	0,001
-713,962	-200,000	-0,016	-0,121
-712,948	16,902	-0,025	0,015
-711,933	14,664	0,024	-0,014
-710,918	-125,613	-0,109	0,012
-709,904	800,000	0,041	0,088
-708,889	-183,028	0,087	-0,001
-707,875	800,000	-0,065	-0,177
-706,860	-200,000	-0,028	-0,199
-705,845	-200,000	-0,014	0,055
-704,831	-200,000	-0,013	-0,051
-703,816	-200,000	0,016	0,109
-702,802	25,319	-0,176	-0,108
-701,787	-151,322	-0,073	-0,004
-700,772	113,566	-0,068	-0,061
-699,758	134,753	0,053	-0,050
-698,743	596,329	-0,074	-0,135
-697,729	727,170	-0,021	0,042
-696,714	27,941	-0,053	-0,033
-695,699	79,346	0,018	-0,014
-694,685	43,566	0,024	-0,016
-693,670	-129,313	-0,067	0,007
-692,656	7,286	-0,024	0,013
-691,641	-200,000	-0,002	-0,020
-690,627	-161,567	-0,221	0,008
-689,612	-200,000	-0,049	0,169
-688,597	-200,000	0,020	-0,115
-687,583	33,734	-0,074	-0,047
-686,568	-104,705	0,022	0,004
-685,554	192,184	0,045	-0,050
-684,539	-52,662	-0,082	-0,028
-683,524	-23,935	0,056	0,024
-682,510	-10,249	0,065	0,032
-681,495	-200,000	-0,017	-0,077
-680,481	27,762	-0,124	-0,077
-679,466	103,763	0,018	-0,015
-678,451	-200,000	0,001	-0,017
-677,437	-200,000	-0,011	0,049
-676,422	800,000	0,031	-0,090
-675,408	-70,159	-0,150	0,042
-674,393	45,772	-0,031	-0,021
-673,378	-79,444	-0,160	-0,039
-672,364	800,000	-0,034	-0,077
-671,349	-57,092	-0,061	-0,020
-670,335	359,946	0,053	0,078
-669,320	770,733	0,012	-0,023
-668,305	365,198	-0,022	-0,033
-667,291	-200,000	0,013	-0,098
-666,276	-7,596	-0,160	-0,079
-665,262	800,000	-0,029	-0,085
-664,247	202,115	-0,057	-0,065
-663,232	-8,694	0,054	0,026
-662,218	-200,000	-0,017	0,129
-661,203	295,309	0,076	-0,103
-660,189	-91,972	-0,072	-0,015
-659,174	800,000	-0,022	-0,056
-658,159	71,717	-0,030	-0,023
-657,145	153,245	-0,099	-0,099
-656,130	-70,029	-0,059	0,016
-655,116	-8,534	-0,114	0,056
-654,101	-200,000	0,008	0,131
-653,086	-200,000	0,035	-0,218
-652,072	-49,924	-0,140	0,048
-651,057	198,038	-0,059	0,067
-650,043	245,008	0,052	-0,065
-649,028	-22,424	0,039	-0,017
-648,014	272,694	-0,015	0,019
-646,999	22,774	0,105	-0,063
-645,984	451,853	0,033	0,054
-644,970	-200,000	-0,014	-0,063
-643,955	-18,666	-0,102	0,047
-642,941	93,326	-0,021	-0,018
-641,926	-200,000	-0,014	0,150
-640,911	172,732	0,016	-0,017
-639,897	-200,000	-0,020	0,102
-638,882	168,935	0,046	-0,048
-637,868	-123,612	0,055	0,006
-636,853	800,000	0,014	-0,031
-635,838	214,186	-0,046	0,053
-634,824	-200,000	0,024	-0,095
-633,809	468,745	0,103	-0,171
-632,795	54,648	-0,175	0,124
-631,780	-107,098	0,065	0,010
-630,765	91,861	0,044	-0,037
-629,751	136,172	-0,115	0,111
-628,736	800,000	-0,013	0,042
-627,722	-138,882	0,019	0,001
-626,707	-200,000	0,009	0,216
-625,692	201,431	0,121	-0,137
-624,678	136,176	-0,074	-0,070
-623,663	-160,438	0,105	0,004
-622,649	472,908	-0,017	-0,027
-621,634	614,385	0,090	-0,166
-620,619	116,462	0,004	0,004
-619,605	-200,000	0,011	0,121
-618,590	61,239	-0,029	-0,021
-617,576	355,473	-0,051	0,074
-616,561	-173,290	-0,160	0,003
-615,546	-143,867	-0,089	-0,006
-614,532	239,241	0,063	0,077
-613,517	-126,170	-0,162	0,018
-612,503	716,352	0,024	-0,046
-611,488	-88,522	-0,023	0,005
-610,474	-200,000	0,010	0,046
-609,459	-26,765	0,046	0,020
-608,444	-84,798	-0,107	0,025
-607,430	61,955	-0,060	-0,044
-606,415	42,621	0,062	-0,041
-605,401	800,000	-0,043	-0,122
-604,386	234,867	-0,047	-0,057
-603,371	800,000	0,025	0,067
-602,357	-14,232	-0,047	-0,022
-601,342	348,615	-0,052	-0,075
-600,328	273,299	0,069	-0,090
-599,313	-200,000	-0,008	-0,081
-598,298	76,376	0,074	0,058
-597,284	13,573	0,040	-0,023
-596,269	-27,459	-0,093	0,039
-595,255	309,615	-0,026	-0,036
-594,240	-24,830	-0,083	-0,036
-593,225	-20,407	0,026	0,012
-592,211	-200,000	0,026	0,137
-591,196	108,593	0,087	0,076
-590,182	-110,174	-0,140	-0,021
-589,167	111,018	0,042	-0,037
-588,152	-37,728	0,052	-0,020
-587,138	-200,000	0,024	-0,211
-586,123	800,000	0,030	-0,062
-585,109	-200,000	0,006	0,032
-584,094	114,816	0,012	0,011
-583,079	-155,294	0,029	0,001
-582,065	-103,351	-0,082	-0,014
-581,050	800,000	-0,034	0,098
-580,036	800,000	-0,034	-0,076
-579,021	368,237	0,017	-0,026
-578,006	-54,220	-0,098	0,032
-576,992	-200,000	0,007	-0,076
-575,977	-200,000	-0,018	-0,105
-574,963	-41,574	0,105	-0,039
-573,948	-26,646	0,028	0,012
-572,934	382,490	0,074	-0,112
-571,919	-200,000	0,020	-0,128
-570,904	-200,000	0,009	-0,083
-569,890	228,480	0,056	-0,066
-568,875	0,715	-0,103	0,054
-567,861	-200,000	0,009	-0,042
-566,846	781,365	-0,037	-0,075
-565,831	-53,522	0,021	0,007
-564,817	-200,000	-0,032	0,143
-563,802	-200,000	-0,028	-0,104
-562,788	36,822	-0,211	-0,136
-561,773	-82,390	0,020	-0,005
-560,758	800,000	-0,059	0,183
-559,744	-103,213	0,003	0,001
-558,729	-200,000	-0,002	0,076
-557,715	800,000	-0,055	0,132
-556,700	118,787	-0,031	0,028
-555,685	-150,944	-0,034	0,002
-554,671	101,158	0,060	-0,051
-553,656	-200,000	-0,007	-0,140
-552,642	-88,451	0,014	-0,003
-551,627	-98,569	-0,047	0,009
-550,612	-68,422	-0,068	0,019
-549,598	45,431	0,008	-0,005
-548,583	-200,000	0,044	-0,155
-547,569	-200,000	-0,014	-0,078
-546,554	69,483	0,010	-0,008
-545,539	-200,000	0,028	0,146
-544,525	-200,000	-0,005	0,077
-543,510	-200,000	-0,020	-0,127
-542,496	10,270	0,161	-0,089
-541,481	800,000	-0,048	-0,147
-540,466	-54,042	0,133	-0,044
-539,452	-123,262	0,040	-0,005
-538,437	354,258	-0,037	0,054
-537,423	-110,950	-0,092	0,014
-536,408	61,768	0,102	-0,074
-535,393	-200,000	-0,007	-0,061
-534,379	-50,277	-0,085	-0,029
-533,364	613,726	-0,072	-0,132
-532,350	-200,000	0,005	-0,068
-531,335	-200,000	0,036	0,119
-530,321	514,623	-0,042	-0,072
-529,306	212,458	-0,085	0,098
-528,291	-200,000	0,018	0,057
-527,277	-102,151	-0,095	-0,017
-526,262	-113,481	0,083	-0,012
-525,248	-68,940	0,095	-0,027
-524,233	-200,000	-0,023	0,160
-523,218	800,000	0,067	0,138
-522,204	-53,594	-0,074	0,025
-521,189	-200,000	0,016	-0,090
-520,175	-7,643	0,022	-0,011
-519,160	-132,348	-0,092	0,009
-518,145	178,169	0,078	0,083
-517,131	213,149	0,137	0,158
-516,116	-200,000	-0,003	0,011
-515,102	-200,000	-0,012	0,042
-514,087	-20,251	0,110	-0,049
-513,072	110,836	-0,111	0,098
-512,058	-200,000	-0,005	-0,076
-511,043	-200,000	0,020	0,072
-510,029	4,733	-0,035	0,019
-509,014	62,546	0,030	-0,022
-507,999	691,246	-0,030	0,058
-506,985	525,533	-0,058	-0,100
-505,970	527,085	0,041	0,071
-504,956	-200,000	0,017	0,150
-503,941	229,564	0,052	0,062
-502,926	800,000	0,029	-0,094
-501,912	737,456	0,057	0,112
-500,897	679,051	-0,009	0,017
-499,883	-70,141	-0,041	-0,011
-498,868	297,483	-0,053	-0,072
-497,853	278,587	-0,033	0,043
-496,839	800,000	0,028	-0,085
-495,824	-19,037	0,051	0,023
-494,810	242,006	0,115	0,140
-493,795	151,954	-0,028	-0,027
-492,781	-1,683	0,146	-0,075
-491,766	9,908	-0,084	0,047
-490,751	-200,000	-0,074	-0,000
-489,737	272,793	0,069	0,089
-488,722	52,912	-0,034	0,024
-487,708	-200,000	0,002	0,155
-486,693	-200,000	0,020	-0,080
-485,678	322,204	-0,035	0,048
-484,664	-200,000	0,018	-0,064
-483,649	-39,996	0,079	0,030
-482,635	-200,000	-0,002	0,092
-481,620	-92,128	0,072	-0,015
-480,605	74,017	-0,044	0,034
-479,591	36,332	0,121	-0,078
-478,576	-183,343	-0,084	-0,001
-477,562	147,798	-0,130	-0,128
-476,547	-100,223	-0,047	-0,008
-475,532	-200,000	0,025	-0,142
-474,518	343,485	0,014	0,020
-473,503	-200,000	0,015	-0,069
-472,489	800,000	-0,015	0,043
-471,474	800,000	0,053	0,129
-470,459	485,777	-0,051	0,086
-469,445	135,170	-0,038	-0,036
-468,430	11,949	0,037	-0,020
-467,416	800,000	-0,024	0,051
-466,401	178,549	0,057	0,061
-465,386	-200,000	-0,024	0,149
-464,372	800,000	0,007	-0,020
-463,357	350,162	0,036	-0,053
-462,343	386,511	-0,078	-0,118
-461,328	124,024	0,104	-0,095
-460,313	800,000	-0,035	-0,106
-459,299	568,771	0,068	-0,121
-458,284	57,756	0,089	0,063
-457,270	800,000	-0,043	0,100
-456,255	-200,000	-0,014	0,122
-455,241	139,342	-0,093	0,089
-454,226	-134,856	0,026	-0,002
-453,211	-41,233	-0,018	0,007
-452,197	-102,238	0,092	-0,016
-451,182	800,000	-0,036	-0,082
-450,168	-200,000	0,011	0,159
-449,153	-200,000	-0,032	-0,112
-448,138	-200,000	-0,026	-0,099
-447,124	730,059	0,073	-0,143
-446,109	800,000	-0,032	0,077
-445,095	750,057	-0,021	0,042
-444,080	-44,939	0,076	0,028
-443,065	321,779	-0,093	0,130
-442,051	189,906	-0,056	0,062
-441,036	-8,686	-0,032	-0,016
-440,022	204,026	-0,026	0,030
-439,007	-56,521	-0,075	0,024
-437,992	50,176	-0,063	-0,043
-436,978	-200,000	0,043	-0,161
-435,963	-200,000	-0,001	0,134
-434,949	-200,000	-0,004	-0,023
-433,934	800,000	0,026	-0,074
-432,919	292,733	-0,142	-0,189
-431,905	-200,000	0,007	-0,095
-430,890	136,097	0,065	0,061
-429,876	800,000	0,034	0,089
-428,861	-132,387	0,139	0,013
-427,846	-142,775	-0,041	0,003
-426,832	-26,333	-0,088	-0,038
-425,817	787,988	-0,060	-0,121
-424,803	-98,393	-0,149	-0,027
-423,788	-150,737	-0,054	0,003
-422,773	-84,247	-0,037	-0,008
-421,759	137,985	0,145	0,139
-420,744	-2,494	-0,054	-0,028
-419,730	-68,131	0,105	-0,030
-418,715	-34,992	-0,100	0,039
-417,701	-61,558	-0,078	-0,024
-416,686	-200,000	0,022	0,100
-415,671	68,324	0,122	0,091
-414,657	-200,000	-0,009	0,102
-413,642	80,541	-0,033	-0,026
-412,628	-200,000	-0,004	-0,016
-411,613	12,537	-0,040	0,023
-410,598	329,377	-0,056	-0,079
-409,584	113,149	0,018	-0,016
-408,569	-76,154	-0,055	-0,014
-407,555	-8,050	0,070	0,034
-406,540	-23,843	0,067	-0,029
-405,525	5,590	-0,042	0,022
-404,511	-58,963	-0,152	-0,047
-403,496	425,022	0,104	-0,163
-402,482	800,000	0,044	0,098
-401,467	-94,951	0,026	-0,005
-400,452	-200,000	0,020	0,207
-399,438	-23,486	0,109	-0,047
-398,423	610,285	-0,041	0,074
-397,409	-120,613	-0,086	-0,010
-396,394	261,184	-0,082	-0,103
-395,379	190,089	-0,009	-0,010
-394,365	72,102	0,100	-0,076
-393,350	6,278	0,126	-0,068
-392,336	800,000	-0,061	0,132
-391,321	-164,878	-0,015	0,000
-390,306	-64,100	-0,028	-0,008
-389,292	-200,000	0,006	0,136
-388,277	60,678	0,078	0,056
-387,263	-200,000	-0,005	-0,032
-386,248	8,500	0,073	-0,040
-385,233	-200,000	0,032	0,131
-384,219	-200,000	0,011	0,037
-383,204	800,000	-0,070	-0,161
-382,190	-36,315	0,066	0,026
-381,175	-77,506	-0,084	-0,021
-380,160	800,000	0,014	0,045
-379,146	151,362	0,032	0,031
-378,131	-200,000	-0,001	0,139
-377,117	-144,496	0,038	0,003
-376,102	800,000	-0,055	-0,133
-375,088	85,742	0,030	0,024
-374,073	95,460	-0,041	0,034
-373,058	800,000	0,027	0,059
-372,044	409,448	0,095	0,147
-371,029	-50,699	0,041	0,014
-370,015	109,596	-0,023	0,020
-369,000	-200,000	-0,013	0,132
-367,985	554,280	-0,030	-0,053
-366,971	-200,000	0,013	-0,102
-365,956	441,721	0,054	-0,087
-364,942	316,987	-0,068	-0,094
-363,927	-128,557	0,064	-0,007
-362,912	-200,000	-0,027	0,139
-361,898	-86,128	-0,076	0,017
-360,883	-200,000	-0,005	0,157
-359,869	-98,896	0,068	0,012
-358,854	-200,000	0,013	-0,048
-357,839	-50,273	-0,030	0,010
-356,825	224,093	-0,068	0,080
-355,810	38,626	0,055	0,036
-354,796	-200,000	-0,008	0,043
-353,781	-110,502	-0,181	-0,027
-352,766	800,000	0,053	-0,108
-351,752	-200,000	0,005	-0,031
-350,737	38,917	0,068	-0,044
-349,723	49,090	0,176	0,120
-348,708	-42,701	-0,073	0,027
-347,693	-200,000	0,014	-0,152
-346,679	87,138	0,071	-0,057
-345,664	-200,000	-0,001	-0,045
-344,650	337,780	0,067	-0,095
-343,635	-200,000	-0,001	-0,135
-342,620	-200,000	-0,005	-0,025
-341,606	50,618	0,072	0,050
-340,591	-103,420	0,020	-0,003
-339,577	430,850	0,061	0,096
-338,562	189,382	0,064	-0,069
-337,548	104,359	-0,131	-0,112
-336,533	514,073	0,035	-0,060
-335,518	345,764	-0,050	-0,072
-334,504	-19,481	0,148	0,066
-333,489	-130,288	0,088	0,009
-332,475	-200,000	-0,036	-0,115
-331,460	-200,000	0,018	-0,074
-330,445	147,495	-0,054	-0,053
-329,431	-61,997	0,048	0,014
-328,416	101,577	0,072	0,061
-327,402	318,539	-0,095	0,131
-326,387	-200,000	-0,000	0,030
-325,372	-200,000	0,012	0,070
-324,358	-177,565	-0,096	0,002
-323,343	161,188	0,021	0,022
-322,329	510,686	0,062	-0,105
-321,314	-28,620	-0,033	0,014
-320,299	-60,002	0,133	0,041
-319,285	-200,000	-0,036	0,146
-318,270	707,993	-0,065	-0,125
-317,256	800,000	0,029	0,077
-316,241	106,622	-0,044	0,038
-315,226	800,000	0,024	-0,066
-314,212	-31,148	0,141	0,057
-313,197	46,765	0,083	0,056
-312,183	35,463	0,043	0,027
-311,168	-41,009	0,112	-0,042
-310,153	800,000	0,011	-0,033
-309,139	-200,000	-0,014	0,065
-308,124	-1,115	-0,054	0,027
-307,110	-200,000	-0,010	0,034
-306,095	-200,000	0,004	0,062
-305,080	-200,000	0,010	0,140
-304,066	6,504	-0,115	-0,062
-303,051	-200,000	-0,021	-0,170
-302,037	385,078	-0,045	0,067
-301,022	-50,868	-0,099	0,034
-300,008	-200,000	-0,021	-0,078
-298,993	-61,644	0,076	0,023
-297,978	-134,650	-0,220	-0,019
-296,964	-200,000	-0,015	-0,122
-295,949	108,646	-0,103	0,089
-294,935	153,751	-0,009	0,009
-293,920	-32,744	0,186	0,075
-292,905	-176,671	-0,014	-0,000
-291,891	-48,269	0,091	0,032
-290,876	131,257	0,052	-0,049
-289,862	-200,000	-0,005	-0,026
-288,847	-200,000	0,027	-0,201
-287,832	-38,971	-0,125	0,047
-286,818	-20,333	-0,056	-0,025
-285,803	800,000	0,009	-0,022
-284,789	-72,683	0,161	0,043
-283,774	-200,000	0,018	0,132
-282,759	388,101	-0,087	-0,130
-281,745	-28,217	0,075	0,031
-280,730	742,582	0,059	0,114
-279,716	163,260	-0,044	0,044
-278,701	-200,000	0,019	0,104
-277,686	-25,890	-0,069	-0,029
-276,672	-200,000	-0,024	0,105
-275,657	215,407	-0,045	-0,052
-274,643	32,380	-0,194	-0,121
-273,628	3,577	-0,134	-0,071
-272,613	800,000	0,069	-0,141
-271,599	800,000	-0,042	0,120
-270,584	67,996	0,097	0,072
-269,570	-200,000	0,018	-0,118
-268,555	-59,286	-0,101	0,031
-267,540	-200,000	0,014	0,052
-266,526	287,356	-0,056	0,073
-265,511	-22,516	0,050	-0,022
-264,497	-200,000	0,019	-0,078
-263,482	-200,000	-0,024	0,101
-262,467	-200,000	0,024	0,127
-261,453	-200,000	0,001	0,082
-260,438	800,000	-0,027	0,060
-259,424	-74,265	0,152	-0,040
-258,409	135,673	-0,043	-0,040
-257,395	39,144	0,098	0,063
-256,380	44,630	0,116	-0,077
-255,365	-0,313	-0,109	-0,056
-254,351	77,522	-0,058	-0,045
-253,336	-200,000	0,000	-0,052
-252,322	340,324	0,082	-0,116
-251,307	-200,000	0,017	-0,061
-250,292	596,463	0,023	-0,041
-249,278	-200,000	0,019	-0,093
-248,263	-200,000	-0,024	0,145
-247,249	800,000	-0,051	-0,151
-246,234	-200,000	0,027	-0,088
-245,219	78,756	-0,109	-0,084
-244,205	800,000	-0,022	-0,053
-243,190	76,313	-0,071	0,054
-242,176	352,072	0,042	-0,061
-241,161	-131,028	0,049	0,005
-240,146	-69,195	-0,057	-0,016
-239,132	-200,000	0,006	-0,026
-238,117	303,105	-0,020	0,027
-237,103	152,355	0,056	-0,056
-236,088	-74,395	0,068	-0,018
-235,073	9,338	0,030	-0,016
-234,059	105,022	-0,034	-0,029
-233,044	-87,353	0,060	-0,013
-232,030	6,264	0,027	0,015
-231,015	116,131	0,092	0,081
-230,000	466,678	0,035	0,058
-228,986	-200,000	0,005	0,039
-227,971	387,837	-0,032	0,048
-226,957	18,590	-0,080	0,046
-225,942	-200,000	0,012	0,073
-224,927	-49,749	-0,062	-0,021
-223,913	119,578	-0,122	-0,109
-222,898	-20,286	0,091	0,041
-221,884	46,767	-0,153	0,102
-220,869	733,416	0,077	0,150
-219,855	54,970	0,051	0,035
-218,840	159,216	-0,157	-0,158
-217,825	800,000	0,020	0,055
-216,811	294,338	0,042	0,056
-215,796	-77,806	-0,069	-0,017
-214,782	-101,997	-0,080	0,014
-213,767	800,000	-0,031	-0,085
-212,752	-200,000	0,017	0,061
-211,738	-200,000	-0,016	0,075
-210,723	513,573	0,050	0,084
-209,709	-61,530	-0,078	0,024
-208,694	469,912	0,064	-0,104
-207,679	800,000	0,083	-0,167
-206,665	68,578	-0,114	-0,084
-205,650	690,846	0,015	0,028
-204,636	-200,000	-0,015	-0,055
-203,621	800,000	-0,024	0,066
-202,606	105,967	0,047	0,040
-201,592	-200,000	-0,019	-0,183
-200,577	-200,000	-0,029	-0,139
-199,563	89,936	0,031	-0,025
-198,548	-200,000	-0,007	0,123
-197,533	-44,323	-0,112	0,040
-196,519	-200,000	0,004	0,100
-195,504	120,205	-0,037	0,033
-194,490	-200,000	-0,019	0,063
-193,475	-200,000	-0,009	-0,030
-192,460	474,400	0,056	-0,092
-191,446	800,000	0,025	0,072
-190,431	-200,000	0,002	-0,110
-189,417	68,893	-0,014	0,010
-188,402	-23,268	0,116	0,050
-187,387	-147,133	0,079	-0,005
-186,373	800,000	0,035	0,080
-185,358	575,338	-0,012	0,020
-184,344	-200,000	0,006	0,111
-183,329	-200,000	-0,004	0,086
-182,315	98,908	-0,030	-0,025
-181,300	-200,000	0,007	-0,022
-180,285	-89,337	0,094	0,020
-179,271	-200,000	0,009	-0,151
-178,256	-200,000	0,007	-0,071
-177,242	-200,000	-0,018	0,064
-176,227	-74,335	0,042	-0,011
-175,212	-108,906	0,074	0,011
-174,198	-13,967	0,122	0,057
-173,183	-200,000	-0,013	-0,080
-172,169	173,411	-0,113	-0,117
-171,154	20,946	-0,075	0,044
-170,139	201,246	-0,046	0,051
-169,125	-200,000	0,034	0,137
-168,110	111,003	0,062	-0,054
-167,096	-150,262	0,153	0,008
-166,081	-145,509	-0,059	-0,004
-165,066	-200,000	0,006	-0,058
-164,052	212,775	-0,055	0,062
-163,037	-200,000	0,008	-0,156
-162,023	800,000	0,018	-0,039
-161,008	-33,221	-0,099	0,039
-159,993	184,202	0,103	0,110
-158,979	19,635	-0,136	0,078
-157,964	36,538	-0,072	0,046
-156,950	664,517	0,045	-0,085
-155,935	-139,209	-0,010	0,001
-154,920	-94,771	0,084	-0,016
-153,906	800,000	0,030	0,082
-152,891	-200,000	0,014	0,089
-151,877	364,925	0,041	-0,060
-150,862	296,132	0,045	-0,059
-149,847	334,931	-0,014	0,020
-148,833	112,967	-0,023	0,020
-147,818	426,323	0,064	-0,100
-146,804	93,282	-0,031	-0,025
-145,789	-200,000	0,047	0,191
-144,775	800,000	0,009	-0,025
-143,760	12,575	0,044	0,025
-142,745	13,179	-0,045	-0,025
-141,731	350,930	0,084	0,121
-140,716	325,318	0,071	-0,098
-139,702	413,352	0,024	0,037
-138,687	274,664	0,014	-0,018
-137,672	66,266	-0,168	-0,122
-136,658	104,014	-0,112	-0,095
-135,643	-200,000	0,005	0,057
-134,629	264,031	-0,088	-0,110
-133,614	800,000	-0,012	0,029
-132,599	800,000	0,046	0,134
-131,585	-200,000	-0,027	0,105
-130,570	125,708	0,085	0,077
-129,556	-200,000	-0,011	-0,083
-128,541	-200,000	0,013	-0,051
-127,526	800,000	0,021	-0,055
-126,512	800,000	-0,019	-0,059
-125,497	-200,000	0,005	0,038
-124,483	-113,449	-0,083	-0,012
-123,468	-200,000	-0,036	0,154
-122,453	4,824	0,067	-0,035
-121,439	-126,574	0,066	0,007
-120,424	-200,000	-0,006	-0,044
