DTS Sentinel unit serial number:	SN410029Multiplexer serial number:	ORYXHardware model number:	OX2-SRSoftware version number:	ORYX F/W v4,00 Oryx Data Collector v3.7.2.0data status	okinstallation	B5 Nyhavnadifferential loss correction	single-endedforward channel	channel 2reverse channel	N/Adate	2023/12/12time	09:37:13forward acquisition time	300,00reverse acquisition time	0,00gamma	499,1914k internal	0,3158k external	0,3158temperature offset calibration	1,0000default loss term (dB/km)	0,3820temperature slope calibration	1,0000multiplexer offset coefficient	1,0000multiplexer slope coefficient	1,0000fibre end	0,00T internal ref (°C)	15,00T ext. ref 1 (°C)	-1,33T ext. ref 2 (°C)	-1,64length (m)	temperature (°C)	Stokes	anti-Stokes-744,400	800,000	0,018	0,052
-743,385	-101,300	-0,292	0,052
-742,371	-120,995	0,074	0,009
-741,356	-104,574	-0,222	0,037
-740,342	-200,000	0,021	0,183
-739,327	-40,529	-0,220	0,084
-738,312	-56,148	0,072	0,023
-737,298	-183,241	-0,399	-0,005
-736,283	-108,640	0,112	-0,017
-735,269	-53,171	-0,199	0,067
-734,254	-112,677	0,053	0,008
-733,239	1,763	-0,417	-0,221
-732,225	-143,620	0,205	-0,014
-731,210	-200,000	0,002	0,021
-730,196	-166,803	-0,061	-0,002
-729,181	89,987	-0,101	-0,083
-728,167	-8,298	0,076	0,038
-727,152	581,204	-0,057	0,104
-726,137	-200,000	-0,039	0,152
-725,123	138,673	-0,119	0,115
-724,108	-120,485	-0,086	-0,011
-723,094	-200,000	-0,030	-0,190
-722,079	402,119	0,071	-0,110
-721,064	136,993	-0,068	0,066
-720,050	-70,127	-0,051	-0,014
-719,035	611,438	-0,067	-0,123
-718,021	-200,000	-0,012	-0,203
-717,006	-124,468	-0,053	-0,006
-715,991	313,456	-0,110	-0,153
-714,977	12,661	-0,160	-0,091
-713,962	-81,816	0,119	0,029
-712,948	-129,788	0,040	0,004
-711,933	375,758	-0,024	-0,036
-710,918	-200,000	-0,013	0,059
-709,904	-200,000	0,006	-0,145
-708,889	175,889	-0,049	0,053
-707,875	426,003	0,018	-0,028
-706,860	57,915	-0,030	-0,021
-705,845	-200,000	-0,001	0,048
-704,831	800,000	0,010	-0,027
-703,816	800,000	-0,051	-0,148
-702,802	5,650	0,059	-0,032
-701,787	687,475	-0,053	-0,102
-700,772	-200,000	-0,042	-0,177
-699,758	-200,000	0,053	-0,195
-698,743	-50,389	0,072	-0,025
-697,729	105,761	-0,056	0,049
-696,714	-44,794	-0,118	0,043
-695,699	291,362	-0,064	0,086
-694,685	648,421	-0,048	-0,091
-693,670	790,584	-0,065	-0,132
-692,656	-200,000	-0,001	-0,227
-691,641	800,000	-0,028	-0,081
-690,627	-81,149	0,067	-0,016
-689,612	-49,068	-0,037	-0,013
-688,597	262,266	-0,099	-0,127
-687,583	-200,000	0,008	-0,163
-686,568	392,206	-0,160	-0,245
-685,554	-200,000	0,012	-0,083
-684,539	-200,000	0,016	-0,173
-683,524	-35,905	0,069	0,027
-682,510	267,632	0,017	-0,022
-681,495	-18,282	-0,066	-0,030
-680,481	-200,000	-0,009	-0,101
-679,466	-200,000	-0,005	0,092
-678,451	388,151	-0,018	0,027
-677,437	776,642	0,008	-0,016
-676,422	-57,724	0,055	-0,017
-675,408	13,208	-0,046	-0,026
-674,393	145,248	-0,122	0,120
-673,378	-200,000	0,001	0,024
-672,364	166,391	0,095	-0,099
-671,349	636,606	0,073	-0,137
-670,335	85,835	-0,015	-0,012
-669,320	31,049	0,265	0,167
-668,305	-67,068	-0,264	-0,076
-667,291	-9,618	0,066	0,032
-666,276	255,062	-0,075	0,095
-665,262	487,588	-0,030	0,050
-664,247	800,000	-0,047	0,097
-663,232	-200,000	-0,015	0,079
-662,218	800,000	0,010	-0,022
-661,203	-66,103	-0,077	-0,023
-660,189	-37,351	-0,041	0,016
-659,174	-112,840	0,049	-0,007
-658,159	-200,000	0,007	-0,029
-657,145	135,688	-0,161	-0,154
-656,130	-132,945	0,061	0,006
-655,116	-200,000	-0,019	0,066
-654,101	628,335	0,006	-0,010
-653,086	-139,347	-0,049	0,004
-652,072	-200,000	0,002	-0,019
-651,057	62,707	-0,070	0,051
-650,043	800,000	0,064	-0,138
-649,028	-113,227	-0,196	0,028
-648,014	800,000	0,044	0,106
-646,999	-200,000	-0,014	0,075
-645,984	0,938	-0,054	0,029
-644,970	-200,000	0,000	-0,040
-643,955	-81,510	0,026	0,006
-642,941	800,000	0,036	-0,112
-641,926	-200,000	0,006	-0,037
-640,911	131,235	0,047	0,044
-639,897	800,000	-0,008	-0,018
-638,882	-200,000	0,025	-0,108
-637,868	559,158	-0,073	-0,130
-636,853	16,816	0,138	-0,080
-635,838	-53,839	-0,193	-0,064
-634,824	90,536	-0,031	-0,026
-633,809	-13,707	0,080	0,038
-632,795	236,135	0,035	-0,043
-631,780	398,077	-0,023	-0,035
-630,765	800,000	0,024	-0,055
-629,751	255,462	-0,065	-0,082
-628,736	-18,671	-0,104	-0,048
-627,722	434,738	0,072	0,114
-626,707	-161,447	0,107	-0,004
-625,692	710,720	-0,057	-0,110
-624,678	180,010	0,012	0,013
-623,663	42,377	-0,071	-0,047
-622,649	483,344	-0,049	-0,083
-621,634	11,457	0,043	-0,024
-620,619	59,372	-0,036	0,026
-619,605	172,786	0,086	0,091
-618,590	-87,060	-0,108	-0,024
-617,576	127,654	0,129	0,120
-616,561	800,000	-0,028	0,089
-615,546	-50,993	-0,073	-0,025
-614,532	49,647	-0,070	0,048
-613,517	-200,000	0,011	-0,038
-612,503	33,561	-0,066	-0,042
-611,488	-200,000	0,044	-0,189
-610,474	65,715	0,059	-0,044
-609,459	113,998	0,050	-0,044
-608,444	526,861	-0,082	-0,143
-607,430	280,849	0,040	-0,052
-606,415	449,560	-0,026	0,042
-605,401	403,097	0,042	0,064
-604,386	503,345	-0,067	0,114
-603,371	69,733	0,040	0,030
-602,357	-104,802	-0,147	0,025
-601,342	-65,388	-0,035	-0,010
-600,328	-154,487	-0,044	-0,002
-599,313	-68,035	-0,182	0,052
-598,298	-65,386	-0,073	0,021
-597,284	61,290	0,131	0,095
-596,269	-200,000	0,018	0,089
-595,255	-39,003	0,060	0,023
-594,240	22,315	0,043	-0,026
-593,225	800,000	-0,066	-0,138
-592,211	-35,452	-0,042	-0,017
-591,196	47,960	0,056	0,038
-590,182	-46,401	-0,046	0,016
-589,167	-28,623	-0,009	0,004
-588,152	-62,360	-0,063	-0,019
-587,138	-147,940	0,053	-0,003
-586,123	19,395	-0,091	-0,054
-585,109	-35,334	-0,056	-0,022
-584,094	122,795	0,062	0,057
-583,079	55,113	0,092	0,065
-582,065	151,614	-0,125	-0,125
-581,050	-200,000	-0,012	-0,084
-580,036	-144,574	0,065	-0,004
-579,021	127,468	-0,184	-0,172
-578,006	-200,000	0,041	-0,227
-576,992	800,000	-0,047	-0,151
-575,977	-144,288	0,146	0,010
-574,963	-80,798	-0,147	-0,035
-573,948	800,000	0,079	0,162
-572,934	342,639	-0,096	0,139
-571,919	-144,288	0,081	0,005
-570,904	-200,000	0,016	-0,063
-569,890	-200,000	0,017	-0,194
-568,875	800,000	0,016	0,045
-567,861	-200,000	-0,007	-0,119
-566,846	-200,000	-0,008	0,044
-565,831	207,429	-0,058	-0,066
-564,817	800,000	0,051	0,158
-563,802	-101,457	-0,116	-0,020
-562,788	-119,310	-0,052	-0,007
-561,773	221,340	-0,068	0,080
-560,758	-41,476	0,171	-0,064
-559,744	-200,000	0,007	0,078
-558,729	-200,000	-0,004	-0,021
-557,715	-79,897	-0,110	-0,027
-556,700	-90,940	-0,187	-0,039
-555,685	800,000	-0,036	0,087
-554,671	-56,446	-0,044	0,014
-553,656	129,594	-0,044	-0,041
-552,642	15,262	0,049	0,028
-551,627	-97,874	-0,201	0,038
-550,612	-10,817	-0,072	-0,035
-549,598	800,000	-0,033	-0,081
-548,583	-200,000	0,018	0,110
-547,569	58,161	-0,107	0,077
-546,554	800,000	-0,008	-0,025
-545,539	-200,000	0,000	-0,053
-544,525	234,636	0,062	-0,075
-543,510	800,000	-0,017	-0,037
-542,496	-120,007	0,108	0,013
-541,481	341,859	-0,083	-0,119
-540,466	282,800	0,101	0,133
-539,452	-200,000	0,054	0,183
-538,437	13,936	-0,105	-0,060
-537,423	-123,784	0,135	-0,015
-536,408	28,505	-0,039	-0,024
-535,393	-99,409	0,009	-0,002
-534,379	5,827	-0,069	-0,037
-533,364	-200,000	-0,004	-0,033
-532,350	-152,338	0,086	0,004
-531,335	460,540	0,072	0,117
-530,321	-52,306	0,124	-0,042
-529,306	-96,393	0,062	0,012
-528,291	-200,000	-0,009	-0,085
-527,277	-200,000	-0,019	0,162
-526,262	-4,870	-0,068	-0,034
-525,248	-120,425	-0,043	0,005
-524,233	-37,322	-0,055	0,021
-523,218	30,150	-0,062	0,038
-522,204	-92,323	0,095	0,019
-521,189	-177,981	-0,109	0,002
-520,175	-200,000	0,012	-0,223
-519,160	492,128	0,084	-0,141
-518,145	464,649	0,044	-0,073
-517,131	155,178	0,091	-0,092
-516,116	156,563	-0,029	0,029
-515,102	-200,000	-0,030	0,111
-514,087	-200,000	-0,005	-0,107
-513,072	224,565	-0,083	-0,099
-512,058	-69,294	0,083	0,023
-511,043	-200,000	0,002	-0,093
-510,029	-80,476	0,082	0,020
-509,014	-128,837	0,110	0,011
-507,999	800,000	0,070	0,188
-506,985	-68,707	0,017	-0,005
-505,970	800,000	-0,062	-0,149
-504,956	141,792	0,163	0,158
-503,941	234,374	0,060	0,072
-502,926	303,273	0,004	-0,005
-501,912	-200,000	0,014	-0,052
-500,897	-200,000	0,002	-0,045
-499,883	-81,225	0,034	-0,008
-498,868	-135,190	-0,056	-0,005
-497,853	-200,000	-0,004	0,073
-496,839	-200,000	-0,017	0,058
-495,824	662,741	0,070	0,132
-494,810	-30,536	0,096	-0,039
-493,795	-66,783	0,014	-0,004
-492,781	714,926	-0,017	-0,033
-491,766	-200,000	-0,008	-0,109
-490,751	-200,000	-0,010	-0,045
-489,737	-39,738	-0,047	-0,018
-488,722	-200,000	-0,007	0,085
-487,708	-200,000	0,002	0,074
-486,693	-200,000	-0,036	0,125
-485,678	19,819	0,072	-0,043
-484,664	-87,646	-0,036	-0,008
-483,649	-172,182	-0,003	0,000
-482,635	-95,098	0,049	0,010
-481,620	-200,000	0,006	0,048
-480,605	54,077	-0,064	0,045
-479,591	183,921	-0,068	0,073
-478,576	-142,936	-0,038	-0,003
-477,562	25,975	-0,038	0,023
-476,547	84,482	0,087	0,069
-475,532	-200,000	-0,024	-0,096
-474,518	-133,299	0,099	-0,009
-473,503	647,439	-0,011	0,021
-472,489	-200,000	-0,021	-0,083
-471,474	358,909	-0,058	-0,085
-470,459	-200,000	-0,027	-0,211
-469,445	24,334	-0,082	-0,049
-468,430	-174,342	0,057	-0,001
-467,416	-32,355	-0,059	-0,024
-466,401	-136,803	-0,067	0,006
-465,386	800,000	0,045	0,111
-464,372	-200,000	-0,001	0,035
-463,357	-17,881	0,086	0,039
-462,343	133,813	-0,096	-0,090
-461,328	111,652	-0,058	0,051
-460,313	-41,550	-0,095	-0,036
-459,299	-200,000	0,019	0,159
-458,284	-200,000	0,019	0,112
-457,270	-200,000	0,006	-0,046
-456,255	-99,685	-0,183	-0,033
-455,241	-200,000	0,006	0,025
-454,226	-33,658	-0,037	-0,015
-453,211	61,172	-0,033	0,024
-452,197	209,521	-0,079	-0,090
-451,182	-200,000	0,008	0,182
-450,168	-152,445	-0,042	-0,002
-449,153	-200,000	-0,018	0,110
-448,138	-101,900	0,038	-0,007
-447,124	-69,471	-0,047	0,013
-446,109	268,357	0,047	-0,061
-445,095	179,888	0,068	-0,073
-444,080	-200,000	0,002	0,027
-443,065	-12,267	-0,015	0,007
-442,051	44,525	-0,083	-0,055
-441,036	195,233	0,078	0,086
-440,022	-56,543	-0,052	-0,017
-439,007	-200,000	0,035	0,115
-437,992	-126,391	0,043	0,005
-436,978	-25,762	0,124	0,053
-435,963	-131,012	0,185	0,018
-434,949	-111,970	-0,095	-0,014
-433,934	57,809	-0,050	-0,036
-432,919	357,115	0,017	0,024
-431,905	109,547	-0,031	0,027
-430,890	-200,000	-0,006	-0,117
-429,876	179,596	0,066	0,071
-428,861	162,033	0,073	-0,075
-427,846	39,311	0,074	-0,048
-426,832	138,287	-0,071	-0,067
-425,817	-114,252	0,152	0,021
-424,803	-147,311	-0,115	-0,007
-423,788	-97,451	0,125	-0,023
-422,773	61,885	0,090	0,065
-421,759	-200,000	0,053	0,172
-420,744	-200,000	-0,004	0,102
-419,730	-200,000	-0,022	-0,073
-418,715	-44,655	0,122	-0,044
-417,701	-83,477	0,107	0,025
-416,686	-104,941	-0,098	-0,016
-415,671	-89,251	0,114	0,024
-414,657	-200,000	0,016	-0,052
-413,642	800,000	0,063	0,201
-412,628	16,788	-0,105	0,060
-411,613	-200,000	-0,002	-0,159
-410,598	439,305	0,040	-0,064
-409,584	47,421	0,083	0,056
-408,569	800,000	0,048	0,107
-407,555	544,653	0,021	-0,036
-406,540	800,000	0,044	0,142
-405,525	7,084	-0,024	0,013
-404,511	48,338	0,031	-0,021
-403,496	-78,855	-0,106	0,026
-402,482	-200,000	-0,006	-0,211
-401,467	-89,070	-0,099	-0,021
-400,452	65,125	0,061	0,045
-399,438	447,704	0,016	-0,026
-398,423	800,000	-0,033	-0,067
-397,409	133,868	0,054	-0,051
-396,394	122,759	0,097	0,089
-395,379	800,000	-0,017	0,036
-394,365	-157,184	0,085	0,004
-393,350	384,471	-0,045	0,067
-392,336	133,190	0,140	-0,131
-391,321	201,549	0,122	-0,136
-390,306	-26,495	0,010	0,004
-389,292	508,496	0,078	0,132
-388,277	-200,000	0,005	-0,090
-387,263	800,000	0,019	0,048
-386,248	-125,555	0,153	-0,017
-385,233	800,000	0,017	-0,053
-384,219	704,491	0,038	-0,073
-383,204	66,276	-0,087	-0,064
-382,190	512,874	0,035	-0,060
-381,175	343,688	-0,035	0,050
-380,160	800,000	0,032	0,083
-379,146	352,010	0,044	0,064
-378,131	800,000	0,009	-0,027
-377,117	597,458	0,026	-0,048
-376,102	-140,463	-0,059	-0,004
-375,088	800,000	-0,028	-0,061
-374,073	-153,790	-0,074	-0,004
-373,058	-154,540	-0,154	0,007
-372,044	-20,799	-0,053	0,023
-371,029	-75,922	0,096	0,025
-370,015	800,000	0,035	-0,077
-369,000	113,957	-0,103	-0,091
-367,985	-200,000	0,020	-0,107
-366,971	196,060	0,058	0,064
-365,956	98,762	0,032	0,027
-364,942	-200,000	-0,018	-0,060
-363,927	800,000	-0,036	0,108
-362,912	-200,000	0,020	0,143
-361,898	-200,000	0,028	0,101
-360,883	-153,876	-0,048	-0,002
-359,869	-200,000	-0,016	-0,089
-358,854	164,539	0,131	0,135
-357,839	-177,837	-0,011	-0,000
-356,825	312,744	0,007	0,009
-355,810	-200,000	0,039	0,218
-354,796	-33,279	0,124	-0,050
-353,781	-157,756	-0,143	0,006
-352,766	-200,000	-0,001	-0,077
-351,752	-200,000	0,032	0,124
-350,737	800,000	0,047	0,104
-349,723	-200,000	0,007	-0,056
-348,708	61,286	-0,029	0,021
-347,693	800,000	0,005	-0,014
-346,679	-57,894	-0,155	-0,049
-345,664	642,351	0,062	0,115
-344,650	381,036	0,046	0,068
-343,635	42,184	0,086	-0,057
-342,620	53,004	0,064	0,045
-341,606	-200,000	-0,013	-0,066
-340,591	-79,360	-0,068	0,017
-339,577	-15,339	-0,099	-0,046
-338,562	108,982	-0,021	0,018
-337,548	-200,000	0,004	-0,065
-336,533	-200,000	-0,012	0,058
-335,518	-200,000	-0,013	-0,042
-334,504	800,000	0,065	-0,134
-333,489	-1,239	-0,043	-0,022
-332,475	-114,250	-0,037	-0,005
-331,460	800,000	0,023	-0,069
-330,445	674,797	0,025	-0,047
-329,431	-200,000	-0,005	0,156
-328,416	476,354	0,078	0,129
-327,402	-200,000	-0,018	-0,103
-326,387	-200,000	0,014	0,098
-325,372	-28,220	-0,029	-0,012
-324,358	256,588	0,046	-0,057
-323,343	80,185	0,058	-0,045
-322,329	245,318	0,072	-0,088
-321,314	-200,000	0,008	0,109
-320,299	-69,678	-0,023	-0,006
-319,285	256,421	0,092	-0,115
-318,270	-52,767	0,047	0,015
-317,256	-79,916	0,071	-0,017
-316,241	-200,000	-0,030	0,107
-315,226	17,763	0,024	-0,014
-314,212	800,000	0,029	0,071
-313,197	-200,000	0,001	0,085
-312,183	59,473	-0,052	0,037
-311,168	37,488	-0,038	-0,024
-310,153	-55,033	-0,142	0,046
-309,139	411,085	0,044	0,067
-308,124	59,203	-0,020	0,014
-307,110	-0,119	0,066	0,034
-306,095	176,711	0,072	0,075
-305,080	-200,000	0,036	0,141
-304,066	-132,234	-0,113	0,010
-303,051	71,514	-0,040	-0,030
-302,037	-128,276	-0,124	-0,013
-301,022	-200,000	0,029	-0,242
-300,008	-48,061	0,098	0,034
-298,993	-200,000	0,033	0,154
-297,978	-200,000	0,023	0,146
-296,964	-25,766	-0,074	0,031
-295,949	-200,000	-0,021	-0,102
-294,935	-199,980	-0,052	-0,000
-293,920	-200,000	-0,036	-0,117
-292,905	-200,000	-0,007	0,029
-291,891	800,000	-0,024	0,060
-290,876	-106,111	0,156	0,025
-289,862	-123,984	0,071	-0,008
-288,847	239,307	-0,098	-0,119
-287,832	-200,000	-0,003	-0,092
-286,818	-200,000	0,001	0,163
-285,803	-95,768	0,104	0,020
-284,789	-82,183	-0,076	0,018
-283,774	94,715	-0,023	-0,019
-282,759	800,000	-0,036	-0,088
-281,745	-3,380	-0,111	0,056
-280,730	245,344	-0,060	0,073
-279,716	-200,000	0,005	-0,062
-278,701	-200,000	-0,011	0,050
-277,686	445,968	0,088	-0,140
-276,672	359,513	-0,038	0,055
-275,657	800,000	-0,041	0,111
-274,643	-58,876	-0,106	-0,033
-273,628	800,000	0,042	0,092
-272,613	201,643	-0,111	0,125
-271,599	-194,772	0,135	-0,001
-270,584	153,518	-0,018	0,018
-269,570	-200,000	0,007	0,064
-268,555	-200,000	0,009	0,053
-267,540	49,142	-0,094	-0,064
-266,526	33,576	-0,026	-0,016
-265,511	-5,094	-0,052	-0,026
-264,497	-200,000	0,011	0,056
-263,482	-200,000	-0,019	0,104
-262,467	-200,000	-0,015	0,096
-261,453	-139,190	-0,072	0,006
-260,438	-200,000	-0,005	-0,027
-259,424	329,735	0,049	-0,069
-258,409	-200,000	-0,013	-0,128
-257,395	337,097	0,039	-0,054
-256,380	-17,629	0,050	0,023
-255,365	800,000	-0,016	-0,036
-254,351	297,247	-0,027	-0,036
-253,336	-30,606	0,057	-0,023
-252,322	-69,010	-0,072	-0,020
-251,307	-200,000	0,023	0,086
-250,292	-22,194	0,097	-0,042
-249,278	-140,541	0,080	-0,006
-248,263	54,299	0,139	0,097
-247,249	-156,978	-0,055	0,002
-246,234	99,781	-0,088	-0,073
-245,219	-200,000	-0,019	-0,129
-244,205	-85,043	0,032	-0,007
-243,190	-200,000	-0,003	0,026
-242,176	-21,549	0,084	0,037
-241,161	-200,000	0,029	0,099
-240,146	231,573	0,095	0,112
-239,132	-200,000	0,023	0,155
-238,117	800,000	-0,068	-0,160
-237,103	506,528	-0,012	-0,020
-236,088	800,000	-0,035	-0,085
-235,073	-67,803	-0,063	-0,018
-234,059	262,180	0,067	0,084
-233,044	-200,000	0,029	0,103
-232,030	-40,791	-0,043	-0,016
-231,015	344,807	-0,099	-0,141
-230,000	336,688	-0,062	0,087
-228,986	184,192	-0,097	0,104
-227,971	315,490	0,022	-0,030
-226,957	183,571	0,055	-0,058
-225,942	800,000	0,008	0,025
-224,927	-200,000	0,024	-0,093
-223,913	-188,585	-0,054	0,000
-222,898	800,000	0,030	-0,085
-221,884	-200,000	0,064	0,000
-220,869	-200,000	0,011	0,036
-219,855	58,410	0,052	0,037
-218,840	-128,917	0,044	-0,004
-217,825	5,798	-0,041	0,022
-216,811	-32,576	0,077	0,031
-215,796	-200,000	-0,017	-0,066
-214,782	472,470	-0,038	0,062
-213,767	127,033	-0,115	0,105
-212,752	-200,000	-0,003	0,226
-211,738	-200,000	-0,038	0,130
-210,723	-104,133	-0,011	0,002
-209,709	-16,947	0,041	-0,019
-208,694	298,757	-0,106	-0,141
-207,679	85,533	-0,100	-0,080
-206,665	-109,755	-0,049	-0,007
-205,650	800,000	0,045	-0,122
-204,636	15,274	-0,095	0,054
-203,621	800,000	0,072	0,145
-202,606	-27,906	-0,055	0,023
-201,592	107,491	0,034	0,029
-200,577	76,000	0,036	-0,027
-199,563	-200,000	0,001	-0,066
-198,548	71,233	0,069	0,052
-197,533	407,244	-0,041	0,062
-196,519	-200,000	0,027	0,114
-195,504	-92,590	-0,117	0,023
-194,490	-200,000	0,023	-0,147
-193,475	24,773	-0,101	-0,060
-192,460	461,433	0,034	-0,055
-191,446	-200,000	-0,007	-0,058
-190,431	-125,903	0,103	-0,011
-189,417	800,000	-0,025	0,059
-188,402	-109,869	0,060	-0,009
-187,387	800,000	0,032	0,074
-186,373	800,000	0,075	-0,183
-185,358	-200,000	-0,004	0,053
-184,344	-138,545	0,080	-0,006
-183,329	115,613	0,030	-0,026
-182,315	379,616	-0,053	0,079
-181,300	-200,000	0,001	0,040
-180,285	-107,432	0,017	0,003
-179,271	411,491	-0,073	-0,112
-178,256	211,151	0,017	0,019
-177,242	-200,000	0,000	-0,019
-176,227	-99,316	0,095	-0,017
-175,212	19,947	-0,057	-0,033
-174,198	-85,528	-0,144	-0,032
-173,183	-23,413	-0,124	0,054
-172,169	298,937	-0,053	-0,071
-171,154	-120,821	-0,064	-0,008
-170,139	122,382	0,043	0,039
-169,125	268,974	0,039	-0,049
-168,110	359,956	0,047	0,069
-167,096	45,630	-0,006	-0,004
-166,081	-88,176	-0,025	0,005
-165,066	-149,135	0,028	-0,002
-164,052	350,260	0,046	0,066
-163,037	-200,000	-0,055	-0,176
-162,023	13,960	0,132	-0,074
-161,008	-200,000	0,013	-0,073
-159,993	-56,753	-0,061	-0,019
-158,979	-72,678	-0,080	0,021
-157,964	0,978	0,053	0,027
-156,950	594,006	0,048	-0,086
-155,935	-200,000	0,003	-0,062
-154,920	-107,603	0,056	-0,009
-153,906	-6,874	0,114	0,056
-152,891	459,056	-0,025	0,040
-151,877	800,000	-0,045	-0,095
-150,862	-182,220	-0,134	0,002
-149,847	-98,821	0,140	-0,025
-148,833	-4,655	-0,040	-0,020
-147,818	428,230	-0,029	0,045
-146,804	155,403	0,041	0,041
-145,789	241,895	0,065	0,079
-144,775	-99,667	0,093	0,017
-143,760	482,109	-0,087	-0,143
-142,745	360,567	-0,094	-0,136
-141,731	-61,742	0,059	-0,018
-140,716	142,153	-0,098	0,094
-139,702	800,000	0,028	0,075
-138,687	491,126	-0,060	0,100
-137,672	-102,217	-0,049	0,008
-136,658	-107,259	-0,075	0,012
-135,643	212,525	-0,090	-0,102
-134,629	-76,002	-0,096	0,024
-133,614	-72,927	-0,063	0,016
-132,599	-24,050	0,021	-0,009
-131,585	191,330	0,082	0,089
-130,570	800,000	-0,033	-0,100
-129,556	561,853	-0,059	-0,104
-128,541	9,546	-0,133	-0,073
-127,526	438,451	-0,098	-0,154
-126,512	800,000	-0,006	0,013
-125,497	-126,508	-0,095	0,010
-124,483	800,000	0,031	-0,068
-123,468	179,994	-0,047	-0,050
-122,453	-68,479	-0,091	0,025
-121,439	-200,000	0,014	-0,146
