DTS Sentinel unit serial number:	SN410029Multiplexer serial number:	ORYXHardware model number:	OX2-SRSoftware version number:	ORYX F/W v4,00 Oryx Data Collector v3.7.2.0data status	okinstallation	B5 Nyhavnadifferential loss correction	single-endedforward channel	channel 2reverse channel	N/Adate	2023/12/12time	11:57:13forward acquisition time	300,00reverse acquisition time	0,00gamma	499,1914k internal	0,3158k external	0,3158temperature offset calibration	1,0000default loss term (dB/km)	0,3820temperature slope calibration	1,0000multiplexer offset coefficient	1,0000multiplexer slope coefficient	1,0000fibre end	0,00T internal ref (°C)	15,16T ext. ref 1 (°C)	-0,92T ext. ref 2 (°C)	-1,14length (m)	temperature (°C)	Stokes	anti-Stokes-744,400	153,736	0,032	-0,032
-743,385	-18,355	-0,271	0,124
-742,371	800,000	0,050	0,121
-741,356	62,171	-0,168	0,123
-740,342	220,380	-0,043	0,051
-739,327	-178,834	-0,224	0,004
-738,312	18,823	0,033	-0,019
-737,298	-32,295	-0,349	-0,143
-736,283	-60,909	0,147	0,045
-735,269	-44,891	-0,277	-0,101
-734,254	128,310	-0,107	-0,100
-733,239	14,160	-0,499	-0,286
-732,225	-4,502	0,159	0,081
-731,210	-68,780	0,060	0,017
-730,196	-28,441	-0,025	0,011
-729,181	-95,324	0,169	0,033
-728,167	-67,282	0,060	0,017
-727,152	84,464	0,039	0,031
-726,137	15,701	-0,063	0,036
-725,123	-122,093	-0,094	-0,011
-724,108	-39,398	-0,207	-0,080
-723,094	-200,000	-0,010	-0,035
-722,079	-92,858	-0,173	-0,035
-721,064	77,136	-0,143	0,112
-720,050	800,000	0,041	-0,086
-719,035	28,934	-0,026	-0,016
-718,021	-110,739	-0,021	0,003
-717,006	230,620	-0,078	-0,094
-715,991	216,897	0,037	-0,044
-714,977	301,274	-0,012	0,016
-713,962	-200,000	0,015	-0,063
-712,948	96,571	-0,073	0,061
-711,933	141,612	-0,058	-0,057
-710,918	-200,000	-0,000	0,006
-709,904	30,794	-0,073	-0,046
-708,889	-200,000	0,010	-0,051
-707,875	118,285	0,055	-0,050
-706,860	-200,000	0,003	-0,078
-705,845	406,018	-0,040	-0,063
-704,831	-132,382	-0,063	-0,006
-703,816	-84,767	-0,150	-0,034
-702,802	297,854	-0,112	-0,152
-701,787	-44,169	0,096	0,035
-700,772	22,940	-0,063	-0,038
-699,758	-158,356	0,142	-0,006
-698,743	-200,000	0,006	0,028
-697,729	-24,615	0,071	-0,031
-696,714	-90,323	-0,060	0,013
-695,699	800,000	0,024	0,063
-694,685	-200,000	-0,009	-0,122
-693,670	718,913	0,033	0,064
-692,656	-200,000	0,026	-0,123
-691,641	94,601	0,089	0,075
-690,627	195,397	0,017	0,019
-689,612	-200,000	-0,012	0,077
-688,597	-200,000	-0,046	-0,160
-687,583	345,625	-0,056	0,082
-686,568	17,952	-0,071	-0,042
-685,554	800,000	-0,017	0,037
-684,539	-200,000	0,001	-0,080
-683,524	-26,041	-0,006	0,003
-682,510	800,000	0,015	-0,032
-681,495	-7,968	-0,079	0,039
-680,481	334,051	0,053	-0,076
-679,466	-200,000	0,003	-0,067
-678,451	-200,000	-0,004	-0,060
-677,437	124,012	-0,086	-0,080
-676,422	55,680	0,081	-0,058
-675,408	-200,000	0,007	0,076
-674,393	108,199	-0,090	-0,079
-673,378	15,358	0,079	-0,045
-672,364	-111,223	-0,133	0,020
-671,349	0,278	-0,153	-0,080
-670,335	-50,318	0,021	0,007
-669,320	301,046	0,043	-0,059
-668,305	152,624	-0,089	-0,089
-667,291	238,113	-0,072	-0,088
-666,276	-55,257	-0,093	-0,031
-665,262	268,185	0,019	-0,024
-664,247	-121,507	-0,021	-0,003
-663,232	628,053	0,109	0,204
-662,218	-18,610	-0,068	0,031
-661,203	-40,087	-0,063	-0,024
-660,189	-200,000	-0,031	-0,133
-659,174	-38,209	0,023	0,009
-658,159	-66,565	0,065	-0,019
-657,145	40,971	-0,166	-0,110
-656,130	223,274	-0,046	-0,054
-655,116	-200,000	0,000	-0,031
-654,101	-89,673	0,073	0,016
-653,086	-151,301	-0,034	-0,002
-652,072	165,958	-0,043	-0,044
-651,057	253,798	0,015	0,018
-650,043	51,019	-0,070	0,049
-649,028	-200,000	0,019	-0,074
-648,014	-200,000	-0,004	-0,113
-646,999	395,182	0,036	-0,056
-645,984	-87,569	-0,109	-0,024
-644,970	800,000	-0,039	-0,083
-643,955	11,403	-0,055	-0,031
-642,941	168,697	-0,127	-0,133
-641,926	-200,000	0,002	-0,159
-640,911	-39,641	-0,073	-0,028
-639,897	-123,371	0,047	0,005
-638,882	117,513	0,017	-0,015
-637,868	-11,091	-0,034	0,016
-636,853	167,961	-0,069	-0,072
-635,838	0,332	-0,084	-0,044
-634,824	800,000	0,065	-0,135
-633,809	182,625	-0,053	-0,057
-632,795	-200,000	-0,005	0,094
-631,780	270,666	0,030	0,039
-630,765	610,244	-0,025	0,047
-629,751	6,887	0,108	-0,059
-628,736	-200,000	0,007	0,047
-627,722	286,290	-0,025	-0,033
-626,707	486,421	-0,013	-0,022
-625,692	-77,759	-0,166	0,042
-624,678	-200,000	-0,003	-0,055
-623,663	-123,831	0,097	-0,011
-622,649	-18,372	0,036	-0,016
-621,634	-94,152	-0,085	0,017
-620,619	217,474	-0,050	0,059
-619,605	-200,000	-0,013	-0,055
-618,590	53,552	0,094	-0,066
-617,576	-157,039	-0,081	0,004
-616,561	367,301	-0,044	0,065
-615,546	-76,566	-0,082	-0,021
-614,532	-200,000	0,031	-0,180
-613,517	-200,000	0,002	-0,054
-612,503	539,113	0,007	0,013
-611,488	253,967	-0,061	0,077
-610,474	-43,245	0,229	0,085
-609,459	534,517	0,011	-0,020
-608,444	345,449	0,020	0,029
-607,430	214,767	-0,092	-0,107
-606,415	17,131	-0,138	-0,080
-605,401	266,069	0,091	-0,117
-604,386	800,000	0,009	-0,020
-603,371	106,090	0,151	0,131
-602,357	-76,142	-0,104	0,027
-601,342	-62,955	-0,144	-0,043
-600,328	-200,000	-0,005	-0,049
-599,313	199,819	0,026	-0,030
-598,298	6,004	0,013	0,007
-597,284	240,616	0,039	0,048
-596,269	407,105	-0,058	-0,090
-595,255	80,344	-0,099	0,078
-594,240	608,804	-0,049	-0,089
-593,225	261,503	-0,068	0,087
-592,211	-82,412	0,034	-0,008
-591,196	400,558	-0,061	0,094
-590,182	-200,000	-0,005	-0,042
-589,167	162,912	-0,058	-0,060
-588,152	-200,000	0,010	-0,041
-587,138	800,000	-0,038	0,078
-586,123	-200,000	-0,015	-0,050
-585,109	117,843	-0,067	-0,061
-584,094	-45,065	-0,150	0,054
-583,079	237,082	0,070	-0,085
-582,065	-44,679	-0,071	-0,026
-581,050	-61,650	0,049	-0,015
-580,036	-54,688	0,143	-0,047
-579,021	207,022	-0,042	-0,048
-578,006	745,570	-0,019	0,038
-576,992	105,088	0,022	-0,019
-575,977	800,000	0,061	0,136
-574,963	-51,983	-0,049	0,017
-573,948	-200,000	0,009	-0,055
-572,934	-200,000	-0,030	0,110
-571,919	610,260	0,058	0,106
-570,904	-200,000	-0,013	-0,045
-569,890	-22,470	-0,045	-0,020
-568,875	-122,897	0,042	-0,005
-567,861	31,498	0,048	0,030
-566,846	-115,220	-0,111	-0,015
-565,831	800,000	-0,036	-0,081
-564,817	15,413	-0,100	0,057
-563,802	353,148	-0,046	-0,067
-562,788	475,862	-0,042	0,070
-561,773	627,800	-0,032	-0,059
-560,758	463,704	-0,036	0,059
-559,744	2,296	0,071	-0,037
-558,729	800,000	-0,016	-0,037
-557,715	-80,544	-0,036	-0,009
-556,700	800,000	-0,015	-0,036
-555,685	-200,000	0,033	-0,118
-554,671	-43,375	-0,139	0,051
-553,656	800,000	0,043	0,138
-552,642	18,433	-0,078	0,046
-551,627	-200,000	0,017	0,086
-550,612	9,151	-0,058	-0,032
-549,598	25,918	-0,053	-0,032
-548,583	556,064	-0,015	-0,027
-547,569	6,423	-0,055	0,030
-546,554	-96,448	0,126	0,024
-545,539	800,000	0,061	0,127
-544,525	-41,734	0,114	0,043
-543,510	91,598	-0,146	-0,120
-542,496	-65,766	-0,062	0,018
-541,481	-118,827	-0,057	0,007
-540,466	-142,612	-0,138	0,010
-539,452	-140,630	0,120	-0,009
-538,437	-200,000	0,014	0,050
-537,423	-33,419	-0,080	0,032
-536,408	-200,000	0,012	0,051
-535,393	238,733	-0,024	0,029
-534,379	-109,063	0,060	0,009
-533,364	90,138	-0,175	0,143
-532,350	12,267	-0,111	0,063
-531,335	485,681	-0,077	-0,128
-530,321	-57,815	-0,109	0,035
-529,306	-97,170	0,131	0,025
-528,291	611,366	0,080	0,147
-527,277	106,723	0,075	-0,065
-526,262	-200,000	-0,032	0,115
-525,248	-100,164	-0,077	-0,014
-524,233	92,111	0,072	-0,059
-523,218	503,369	-0,014	-0,024
-522,204	-93,073	-0,108	0,022
-521,189	43,567	0,119	0,080
-520,175	800,000	-0,063	-0,134
-519,160	190,431	-0,080	-0,088
-518,145	361,966	0,047	0,070
-517,131	231,781	-0,071	0,086
-516,116	14,832	0,088	-0,050
-515,102	-78,829	-0,082	0,020
-514,087	27,430	0,048	0,030
-513,072	117,848	-0,113	-0,102
-512,058	17,408	-0,023	-0,013
-511,043	-200,000	-0,014	-0,129
-510,029	-200,000	0,018	-0,101
-509,014	-200,000	-0,001	0,033
-507,999	-200,000	-0,021	0,097
-506,985	-200,000	0,003	-0,131
-505,970	800,000	0,055	-0,129
-504,956	-200,000	0,004	0,019
-503,941	-55,323	0,123	0,040
-502,926	-6,544	0,117	0,058
-501,912	-200,000	-0,003	-0,025
-500,897	-169,584	-0,142	-0,004
-499,883	-200,000	0,002	0,035
-498,868	-145,442	0,049	-0,003
-497,853	82,540	-0,031	-0,024
-496,839	-200,000	0,007	-0,070
-495,824	800,000	-0,027	0,074
-494,810	521,821	0,064	0,111
-493,795	-200,000	0,001	0,079
-492,781	800,000	0,024	-0,071
-491,766	800,000	0,052	0,109
-490,751	-200,000	0,002	-0,084
-489,737	800,000	0,052	0,116
-488,722	243,703	0,035	0,043
-487,708	-113,817	-0,117	0,016
-486,693	97,808	-0,097	0,081
-485,678	-66,727	-0,082	-0,024
-484,664	-35,032	0,121	-0,048
-483,649	117,872	0,060	-0,054
-482,635	-200,000	-0,003	0,193
-481,620	-44,946	0,041	-0,015
-480,605	-28,796	0,075	-0,031
-479,591	-28,316	0,072	0,030
-478,576	-200,000	0,138	0,000
-477,562	-200,000	0,035	-0,113
-476,547	-53,407	0,052	-0,017
-475,532	800,000	0,006	0,021
-474,518	800,000	-0,046	0,120
-473,503	152,244	0,142	-0,142
-472,489	-200,000	-0,017	0,105
-471,474	-125,432	-0,138	-0,015
-470,459	800,000	-0,026	-0,078
-469,445	131,860	-0,095	-0,090
-468,430	-137,596	0,109	0,009
-467,416	68,826	0,070	0,053
-466,401	558,796	-0,081	0,144
-465,386	138,903	-0,086	-0,083
-464,372	491,686	-0,022	0,038
-463,357	75,890	0,152	0,117
-462,343	133,359	0,083	0,078
-461,328	12,593	-0,088	-0,050
-460,313	-144,178	0,122	0,008
-459,299	2,201	-0,051	0,027
-458,284	-200,000	0,028	0,098
-457,270	-200,000	-0,028	0,094
-456,255	123,673	-0,018	0,017
-455,241	215,524	-0,071	-0,083
-454,226	-84,389	-0,179	-0,041
-453,211	-172,131	0,033	-0,001
-452,197	800,000	-0,032	-0,076
-451,182	24,516	-0,054	0,033
-450,168	-33,474	-0,076	0,031
-449,153	-26,490	-0,069	-0,029
-448,138	108,392	-0,046	-0,040
-447,124	99,763	0,094	-0,079
-446,109	-200,000	0,024	-0,110
-445,095	-38,175	-0,008	0,003
-444,080	-172,373	-0,100	-0,002
-443,065	-199,997	0,093	-0,000
-442,051	-140,654	0,182	-0,014
-441,036	38,923	0,017	-0,011
-440,022	-23,612	-0,041	-0,018
-439,007	136,829	0,061	0,058
-437,992	-104,560	0,057	0,009
-436,978	-28,228	0,061	0,026
-435,963	-67,006	0,043	0,012
-434,949	182,270	0,046	0,050
-433,934	129,605	0,083	-0,077
-432,919	-135,612	-0,027	0,002
-431,905	800,000	-0,001	-0,001
-430,890	4,076	0,125	0,066
-429,876	229,838	0,063	-0,075
-428,861	196,052	0,106	0,118
-427,846	-200,000	0,016	0,091
-426,832	-200,000	0,015	-0,132
-425,817	12,639	-0,148	-0,083
-424,803	800,000	0,015	-0,037
-423,788	217,766	0,060	0,070
-422,773	96,486	-0,094	0,079
-421,759	-106,703	0,046	0,007
-420,744	-182,248	0,032	0,000
-419,730	-200,000	0,009	-0,041
-418,715	60,230	-0,139	-0,100
-417,701	-40,895	-0,152	0,057
-416,686	-200,000	0,025	0,119
-415,671	-200,000	-0,006	0,084
-414,657	800,000	0,064	0,169
-413,642	800,000	-0,041	0,090
-412,628	-107,884	-0,025	0,004
-411,613	-44,211	0,214	0,078
-410,598	-144,622	-0,060	-0,004
-409,584	213,898	0,064	0,073
-408,569	800,000	0,006	-0,018
-407,555	-200,000	0,010	0,081
-406,540	-200,000	-0,014	0,086
-405,525	92,132	0,057	-0,046
-404,511	800,000	-0,037	-0,112
-403,496	303,209	0,073	-0,099
-402,482	59,240	0,070	-0,050
-401,467	450,972	-0,017	0,028
-400,452	457,216	0,016	0,026
-399,438	58,964	0,037	-0,027
-398,423	-58,342	0,049	0,016
-397,409	-159,879	-0,100	-0,004
-396,394	-3,019	0,091	-0,046
-395,379	-200,000	0,024	-0,105
-394,365	41,210	0,082	0,054
-393,350	-171,313	0,019	-0,000
-392,336	146,477	0,085	-0,083
-391,321	80,771	-0,048	-0,038
-390,306	-200,000	-0,028	-0,100
-389,292	56,179	0,027	0,019
-388,277	184,553	0,073	-0,078
-387,263	-200,000	0,011	0,037
-386,248	223,509	0,041	0,049
-385,233	-200,000	-0,010	0,145
-384,219	542,296	0,036	0,063
-383,204	598,735	-0,034	-0,061
-382,190	-0,893	-0,124	-0,064
-381,175	-200,000	0,004	-0,016
-380,160	-5,538	-0,053	0,026
-379,146	453,295	0,028	-0,045
-378,131	-200,000	0,026	0,129
-377,117	-49,928	0,135	0,046
-376,102	104,256	-0,148	-0,127
-375,088	-200,000	-0,047	-0,170
-374,073	-60,947	-0,004	0,001
-373,058	-200,000	-0,021	0,095
-372,044	-200,000	-0,019	0,089
-371,029	436,382	0,092	0,146
-370,015	-200,000	-0,014	0,142
-369,000	236,684	0,105	0,126
-367,985	-151,160	-0,115	-0,006
-366,971	427,770	0,071	0,111
-365,956	-143,703	0,051	-0,003
-364,942	128,870	0,092	-0,086
-363,927	-200,000	-0,016	0,107
-362,912	-64,896	-0,089	0,026
-361,898	-200,000	-0,036	0,136
-360,883	-152,128	-0,058	0,003
-359,869	74,285	-0,111	-0,084
-358,854	-140,583	0,035	0,003
-357,839	460,976	-0,047	-0,076
-356,825	565,627	-0,029	-0,051
-355,810	800,000	-0,023	0,073
-354,796	-90,694	0,092	0,019
-353,781	30,288	-0,133	-0,082
-352,766	-133,143	-0,134	0,012
-351,752	23,239	0,128	0,076
-350,737	800,000	-0,046	0,122
-349,723	-93,606	0,071	-0,014
-348,708	-104,231	0,121	0,020
-347,693	-80,725	0,018	0,004
-346,679	7,430	-0,083	0,045
-345,664	12,260	-0,095	-0,053
-344,650	-99,458	0,128	0,023
-343,635	154,296	0,101	0,100
-342,620	162,320	0,135	0,138
-341,606	800,000	-0,028	0,087
-340,591	401,937	-0,042	-0,064
-339,577	-200,000	-0,005	-0,147
-338,562	-200,000	-0,002	0,091
-337,548	22,183	0,072	0,043
-336,533	-200,000	-0,019	0,102
-335,518	800,000	-0,052	0,110
-334,504	481,252	-0,030	-0,049
-333,489	-200,000	0,001	-0,136
-332,475	-200,000	-0,015	-0,069
-331,460	-200,000	0,029	-0,145
-330,445	32,346	-0,080	-0,050
-329,431	-200,000	0,013	0,108
-328,416	103,580	0,039	0,033
-327,402	-66,375	0,086	-0,025
-326,387	-200,000	0,003	-0,202
-325,372	745,925	0,014	-0,028
-324,358	117,208	-0,029	0,026
-323,343	-22,152	0,035	0,015
-322,329	572,951	-0,047	-0,084
-321,314	62,328	0,102	-0,074
-320,299	37,930	0,022	-0,014
-319,285	-200,000	-0,032	0,108
-318,270	-153,712	-0,201	-0,010
-317,256	624,734	0,040	-0,074
-316,241	-101,079	-0,106	-0,019
-315,226	-35,635	-0,102	-0,040
-314,212	-34,890	0,103	0,041
-313,197	105,104	-0,057	-0,049
-312,183	-6,917	-0,025	0,013
-311,168	130,512	-0,087	-0,081
-310,153	-157,361	0,133	0,006
-309,139	-111,891	-0,095	-0,014
-308,124	9,160	0,046	-0,025
-307,110	-200,000	0,032	0,120
-306,095	20,727	0,040	-0,023
-305,080	-165,796	0,085	0,003
-304,066	131,564	-0,051	-0,047
-303,051	-200,000	0,133	-0,000
-302,037	-200,000	-0,013	-0,065
-301,022	44,932	-0,108	-0,072
-300,008	-71,969	0,081	-0,022
-298,993	-200,000	0,010	0,053
-297,978	53,922	-0,073	-0,051
-296,964	-42,914	0,194	0,071
-295,949	-49,261	-0,139	0,048
-294,935	125,998	-0,072	-0,066
-293,920	122,746	-0,126	0,114
-292,905	800,000	-0,012	-0,027
-291,891	-200,000	-0,022	0,077
-290,876	605,901	0,080	-0,145
-289,862	-200,000	0,008	0,026
-288,847	-18,298	-0,088	-0,040
-287,832	800,000	-0,010	-0,025
-286,818	542,303	0,026	-0,046
-285,803	55,993	0,070	-0,049
-284,789	800,000	0,045	0,138
-283,774	25,191	0,038	0,023
-282,759	-200,000	-0,004	0,013
-281,745	-43,267	0,066	-0,024
-280,730	-200,000	0,024	-0,159
-279,716	-14,176	-0,076	-0,035
-278,701	60,653	0,092	-0,066
-277,686	272,081	-0,047	0,060
-276,672	800,000	0,045	0,097
-275,657	660,009	-0,016	0,031
-274,643	342,700	0,021	0,029
-273,628	-200,000	-0,015	-0,097
-272,613	-82,199	0,206	-0,048
-271,599	-200,000	-0,015	-0,064
-270,584	-51,903	-0,025	0,009
-269,570	104,424	0,081	0,069
-268,555	-200,000	-0,017	0,058
-267,540	284,792	-0,023	-0,029
-266,526	361,840	0,036	-0,053
-265,511	198,933	0,112	-0,125
-264,497	142,189	-0,065	-0,063
-263,482	-200,000	-0,004	-0,040
-262,467	215,951	0,066	0,076
-261,453	-200,000	-0,031	-0,109
-260,438	112,710	0,080	-0,070
-259,424	46,859	0,070	0,047
-258,409	177,644	0,082	0,086
-257,395	800,000	0,041	-0,115
-256,380	191,301	-0,026	-0,029
-255,365	-200,000	-0,002	-0,080
-254,351	800,000	0,064	0,156
-253,336	-200,000	0,015	-0,078
-252,322	111,323	-0,072	-0,063
-251,307	-49,746	0,044	-0,015
-250,292	126,864	-0,069	-0,063
-249,278	-79,884	0,078	-0,019
-248,263	800,000	-0,042	0,095
-247,249	-200,000	0,038	0,122
-246,234	-200,000	-0,013	-0,084
-245,219	421,285	-0,021	-0,033
-244,205	-189,072	-0,064	0,001
-243,190	800,000	0,035	-0,077
-242,176	-200,000	0,011	0,045
-241,161	108,034	0,129	0,111
-240,146	-200,000	0,001	0,094
-239,132	89,480	0,030	-0,025
-238,117	800,000	0,017	0,046
-237,103	-72,132	0,049	0,013
-236,088	544,752	-0,070	-0,121
-235,073	148,927	-0,118	0,116
-234,059	800,000	-0,060	-0,141
-233,044	-200,000	-0,000	-0,007
-232,030	-26,353	0,091	-0,038
-231,015	47,851	0,115	-0,077
-230,000	-200,000	-0,023	0,159
-228,986	-131,163	0,033	-0,003
-227,971	-200,000	0,037	0,000
-226,957	570,607	-0,014	0,024
-225,942	395,524	0,063	-0,095
-224,927	800,000	-0,040	-0,095
-223,913	-200,000	0,019	-0,192
-222,898	458,488	-0,120	-0,193
-221,884	26,187	0,083	0,050
-220,869	312,238	-0,049	0,066
-219,855	109,700	0,059	0,051
-218,840	-200,000	-0,004	0,021
-217,825	800,000	0,068	0,135
-216,811	-200,000	0,008	-0,101
-215,796	-22,674	0,087	-0,038
-214,782	164,063	0,067	-0,069
-213,767	-86,181	-0,093	-0,021
-212,752	-117,857	0,080	0,010
-211,738	-12,556	0,115	0,054
-210,723	266,444	0,081	0,103
-209,709	800,000	0,029	0,080
-208,694	-200,000	0,021	-0,144
-207,679	344,767	0,021	-0,029
-206,665	711,490	-0,053	0,102
-205,650	-200,000	0,005	0,079
-204,636	-200,000	0,022	0,098
-203,621	125,656	0,060	-0,055
-202,606	800,000	-0,032	0,101
-201,592	54,651	-0,080	-0,056
-200,577	-12,834	-0,073	-0,034
-199,563	500,548	0,029	0,048
-198,548	-200,000	0,013	0,060
-197,533	169,397	-0,048	0,050
-196,519	800,000	-0,044	0,088
-195,504	21,501	0,043	-0,025
-194,490	-4,460	-0,133	0,066
-193,475	29,820	-0,051	-0,031
-192,460	321,144	-0,056	-0,076
-191,446	-104,896	0,047	0,008
-190,431	316,302	-0,029	-0,039
-189,417	800,000	0,036	0,074
-188,402	539,793	-0,061	-0,105
-187,387	306,290	-0,041	-0,055
-186,373	-80,056	-0,146	-0,035
-185,358	26,215	-0,105	-0,063
-184,344	-200,000	-0,015	0,116
-183,329	156,289	-0,000	0,000
-182,315	800,000	-0,072	0,181
-181,300	-96,109	-0,015	-0,003
-180,285	514,538	-0,040	-0,068
-179,271	163,857	0,034	-0,034
-178,256	204,321	-0,022	-0,024
-177,242	-155,238	0,098	-0,005
-176,227	-29,827	0,072	0,029
-175,212	-39,548	-0,059	-0,022
-174,198	-200,000	0,004	0,128
-173,183	-62,168	0,086	-0,026
-172,169	202,427	-0,071	0,079
-171,154	218,688	0,044	0,051
-170,139	261,295	-0,027	-0,034
-169,125	-101,777	0,084	0,014
-168,110	-146,743	0,142	0,009
-167,096	-17,722	-0,143	-0,064
-166,081	-124,596	0,214	0,024
-165,066	-200,000	0,010	-0,116
-164,052	-75,843	-0,019	0,005
-163,037	158,126	0,015	-0,015
-162,023	790,488	-0,012	-0,025
-161,008	-200,000	-0,024	0,136
-159,993	111,140	-0,130	0,113
-158,979	407,563	-0,023	-0,035
-157,964	34,667	-0,151	0,095
-156,950	430,491	0,033	-0,052
-155,935	-56,192	0,067	0,021
-154,920	713,926	0,016	-0,030
-153,906	777,155	0,057	0,113
-152,891	124,688	0,057	0,052
-151,877	-15,303	-0,087	-0,040
-150,862	124,302	-0,050	-0,046
-149,847	182,642	-0,068	-0,072
-148,833	120,501	-0,085	-0,076
-147,818	-82,349	-0,125	0,029
-146,804	325,006	-0,063	0,087
-145,789	11,902	0,100	0,055
-144,775	80,959	-0,050	0,039
-143,760	1,315	0,047	0,024
-142,745	102,741	0,103	0,087
-141,731	61,910	-0,033	-0,024
-140,716	800,000	0,020	-0,046
-139,702	60,576	0,072	0,052
-138,687	-200,000	-0,014	0,074
-137,672	-200,000	-0,032	0,124
-136,658	64,392	-0,143	-0,104
-135,643	-34,994	-0,124	-0,048
-134,629	-200,000	-0,008	-0,088
-133,614	448,321	0,055	0,088
-132,599	-33,980	-0,074	-0,029
-131,585	800,000	0,038	0,114
-130,570	0,995	-0,187	-0,096
-129,556	424,663	-0,062	-0,096
-128,541	210,957	-0,081	-0,092
-127,526	319,958	-0,024	-0,032
-126,512	-200,000	0,009	0,081
-125,497	-200,000	0,002	-0,044
-124,483	-200,000	-0,020	-0,072
-123,468	-200,000	-0,001	0,049
-122,453	380,328	0,081	-0,120
-121,439	20,467	0,035	-0,020
-120,424	216,615	-0,035	0,040
-119,410	245,027	0,092	-0,112
