DTS Sentinel unit serial number:	SN410029Multiplexer serial number:	ORYXHardware model number:	OX2-SRSoftware version number:	ORYX F/W v4,00 Oryx Data Collector v3.7.2.0data status	okinstallation	B5 Nyhavnadifferential loss correction	single-endedforward channel	channel 2reverse channel	N/Adate	2023/12/13time	11:27:13forward acquisition time	300,00reverse acquisition time	0,00gamma	499,1914k internal	0,3161k external	0,3161temperature offset calibration	1,0000default loss term (dB/km)	0,3820temperature slope calibration	1,0000multiplexer offset coefficient	1,0000multiplexer slope coefficient	1,0000fibre end	0,00T internal ref (°C)	13,77T ext. ref 1 (°C)	-2,24T ext. ref 2 (°C)	-2,53length (m)	temperature (°C)	Stokes	anti-Stokes-744,400	800,000	0,048	0,148
-743,385	-89,508	-0,357	-0,077
-742,371	397,137	0,022	-0,034
-741,356	-84,585	-0,265	0,061
-740,342	64,738	0,067	0,050
-739,327	-104,609	-0,361	-0,061
-738,312	-141,870	0,133	-0,010
-737,298	-94,863	-0,300	-0,059
-736,283	-63,541	0,047	0,014
-735,269	-94,394	-0,233	0,046
-734,254	-69,663	0,158	-0,044
-733,239	-96,137	-0,465	-0,090
-732,225	-64,345	0,133	0,040
-731,210	-34,796	0,081	0,032
-730,196	800,000	0,042	0,112
-729,181	6,956	-0,049	0,027
-728,167	148,837	-0,024	-0,024
-727,152	615,473	0,020	-0,037
-726,137	-200,000	-0,010	0,035
-725,123	-200,000	-0,010	-0,052
-724,108	28,901	-0,146	0,091
-723,094	23,714	-0,146	-0,088
-722,079	184,916	0,051	-0,056
-721,064	-200,000	0,007	-0,065
-720,050	141,696	-0,039	-0,038
-719,035	-200,000	0,002	-0,036
-718,021	439,987	0,023	0,036
-717,006	800,000	0,008	-0,022
-715,991	-27,074	-0,139	-0,059
-714,977	-200,000	-0,000	-0,054
-713,962	-200,000	-0,001	-0,072
-712,948	-200,000	-0,004	0,085
-711,933	157,863	0,043	0,044
-710,918	434,637	0,093	0,149
-709,904	39,755	-0,141	0,093
-708,889	-200,000	-0,013	-0,046
-707,875	-200,000	-0,022	-0,078
-706,860	-82,225	-0,060	0,014
-705,845	-81,144	0,148	0,036
-704,831	139,110	0,105	-0,102
-703,816	308,624	0,047	0,064
-702,802	618,902	-0,023	0,043
-701,787	-200,000	-0,011	-0,102
-700,772	570,615	0,034	0,060
-699,758	-143,837	-0,026	0,002
-698,743	-100,191	-0,061	-0,011
-697,729	-92,297	-0,082	0,017
-696,714	75,615	-0,109	0,085
-695,699	31,574	-0,182	0,115
-694,685	-200,000	0,003	0,090
-693,670	-200,000	-0,007	-0,069
-692,656	50,634	0,086	0,060
-691,641	-80,270	-0,072	0,017
-690,627	61,870	0,072	0,052
-689,612	37,078	-0,086	-0,056
-688,597	-7,809	-0,022	0,011
-687,583	305,638	-0,065	-0,089
-686,568	-117,970	-0,022	0,003
-685,554	-200,000	0,003	0,028
-684,539	679,040	-0,066	0,127
-683,524	189,508	-0,062	0,069
-682,510	-27,183	-0,140	0,060
-681,495	713,252	-0,045	-0,087
-680,481	-81,748	-0,099	0,024
-679,466	306,534	-0,112	-0,154
-678,451	-62,968	-0,059	-0,018
-677,437	-12,657	0,046	0,022
-676,422	-200,000	-0,015	0,084
-675,408	-63,993	-0,067	0,020
-674,393	35,541	-0,102	-0,065
-673,378	800,000	-0,023	0,073
-672,364	-82,039	-0,141	-0,033
-671,349	58,892	0,074	0,054
-670,335	5,925	0,029	0,016
-669,320	-29,941	0,069	0,029
-668,305	-133,211	0,047	0,004
-667,291	15,109	0,081	-0,047
-666,276	-104,405	-0,047	-0,008
-665,262	-100,787	-0,055	0,010
-664,247	-79,177	0,004	0,001
-663,232	-63,965	-0,120	-0,036
-662,218	61,930	-0,015	-0,011
-661,203	800,000	0,041	-0,132
-660,189	18,751	0,043	0,025
-659,174	436,896	-0,041	0,066
-658,159	-200,000	0,015	0,078
-657,145	168,859	-0,034	-0,036
-656,130	394,271	0,045	-0,068
-655,116	-169,694	0,031	-0,001
-654,101	-129,643	0,134	-0,013
-653,086	-139,249	0,102	-0,008
-652,072	-58,714	-0,150	-0,047
-651,057	-200,000	-0,150	0,000
-650,043	26,586	-0,140	-0,086
-649,028	-200,000	0,002	0,027
-648,014	122,010	0,078	0,071
-646,999	78,825	-0,085	-0,067
-645,984	-36,424	0,143	-0,056
-644,970	-75,862	-0,132	0,034
-643,955	-200,000	0,023	0,180
-642,941	66,610	-0,158	-0,118
-641,926	-169,423	0,024	-0,001
-640,911	800,000	0,027	-0,070
-639,897	-79,964	0,106	-0,026
-638,882	800,000	-0,047	-0,132
-637,868	-82,716	-0,053	-0,013
-636,853	-200,000	0,022	0,165
-635,838	800,000	0,063	-0,140
-634,824	649,796	0,022	0,042
-633,809	800,000	0,015	0,043
-632,795	-58,614	0,057	-0,018
-631,780	601,870	-0,049	-0,089
-630,765	-65,541	0,073	-0,021
-629,751	213,834	0,082	-0,096
-628,736	191,095	-0,031	-0,034
-627,722	-200,000	-0,003	-0,017
-626,707	-178,329	0,113	0,002
-625,692	458,296	0,080	0,132
-624,678	-200,000	-0,012	0,061
-623,663	443,121	-0,104	0,168
-622,649	40,499	-0,119	-0,079
-621,634	-87,620	-0,114	0,025
-620,619	800,000	0,066	0,143
-619,605	-200,000	0,025	0,216
-618,590	-51,950	0,077	-0,026
-617,576	195,281	-0,081	0,090
-616,561	-87,603	0,037	0,008
-615,546	285,937	0,027	0,035
-614,532	527,184	-0,037	-0,064
-613,517	800,000	0,030	-0,089
-612,503	72,979	-0,093	0,071
-611,488	-200,000	0,031	0,129
-610,474	800,000	-0,023	0,047
-609,459	239,938	0,022	0,026
-608,444	78,781	-0,039	-0,030
-607,430	-200,000	0,005	-0,111
-606,415	366,120	0,108	-0,159
-605,401	301,757	0,049	0,067
-604,386	306,902	0,038	-0,053
-603,371	-83,454	0,094	-0,022
-602,357	47,633	-0,024	-0,017
-601,342	-20,494	0,110	-0,049
-600,328	287,143	-0,050	-0,066
-599,313	38,131	-0,100	-0,065
-598,298	-200,000	-0,000	-0,031
-597,284	-14,480	0,068	-0,032
-596,269	59,400	0,138	-0,100
-595,255	308,932	-0,048	-0,066
-594,240	-200,000	-0,013	-0,139
-593,225	-157,322	-0,094	-0,004
-592,211	258,738	-0,024	-0,030
-591,196	29,845	0,156	0,097
-590,182	30,773	-0,045	-0,028
-589,167	-200,000	0,013	0,140
-588,152	20,245	-0,146	0,086
-587,138	-66,120	-0,152	0,044
-586,123	54,400	0,032	-0,022
-585,109	-54,144	0,076	0,025
-584,094	-115,047	-0,073	-0,010
-583,079	-45,181	0,032	-0,012
-582,065	-200,000	0,004	-0,064
-581,050	2,650	-0,093	0,049
-580,036	-200,000	-0,013	0,090
-579,021	-157,513	0,028	0,001
-578,006	-54,660	-0,147	-0,048
-576,992	-57,425	0,054	-0,017
-575,977	253,789	0,045	-0,056
-574,963	-200,000	-0,031	-0,111
-573,948	-200,000	0,035	-0,173
-572,934	787,704	0,029	-0,058
-571,919	54,312	0,016	-0,011
-570,904	63,941	0,025	-0,018
-569,890	-38,076	-0,023	-0,009
-568,875	336,318	0,090	0,128
-567,861	37,504	-0,045	0,029
-566,846	-118,717	0,143	-0,018
-565,831	28,495	0,099	0,061
-564,817	87,889	-0,070	-0,056
-563,802	-80,911	0,059	0,014
-562,788	-200,000	-0,010	-0,132
-561,773	-139,213	0,042	-0,003
-560,758	698,841	0,054	0,105
-559,744	45,125	0,024	-0,016
-558,729	800,000	-0,036	0,091
-557,715	800,000	-0,082	0,182
-556,700	-102,351	-0,122	-0,021
-555,685	800,000	-0,054	-0,153
-554,671	-19,841	-0,126	0,057
-553,656	-139,542	0,197	-0,015
-552,642	52,863	-0,080	0,056
-551,627	-162,469	0,133	0,005
-550,612	-79,663	0,161	0,039
-549,598	239,953	0,062	-0,076
-548,583	-43,605	-0,111	0,041
-547,569	274,119	-0,016	-0,020
-546,554	-200,000	0,019	-0,076
-545,539	-116,860	0,134	-0,018
-544,525	132,327	-0,061	-0,057
-543,510	232,173	0,031	0,037
-542,496	-200,000	-0,013	0,092
-541,481	-101,884	-0,179	0,031
-540,466	800,000	-0,019	0,053
-539,452	98,006	0,083	-0,070
-538,437	800,000	-0,021	-0,043
-537,423	272,963	0,054	0,070
-536,408	154,512	-0,102	0,102
-535,393	688,643	0,059	-0,113
-534,379	60,605	-0,070	-0,051
-533,364	89,723	0,024	-0,020
-532,350	222,831	-0,052	-0,061
-531,335	384,631	-0,060	0,091
-530,321	80,597	-0,084	-0,066
-529,306	800,000	-0,052	0,141
-528,291	-179,613	0,056	0,001
-527,277	-200,000	-0,017	-0,118
-526,262	-78,996	0,092	-0,023
-525,248	-173,469	0,062	-0,001
-524,233	-200,000	-0,035	-0,142
-523,218	78,942	-0,043	0,033
-522,204	-58,595	-0,046	-0,014
-521,189	137,760	-0,022	-0,021
-520,175	222,272	-0,044	-0,051
-519,160	186,905	-0,051	0,056
-518,145	-95,652	-0,046	-0,009
-517,131	-200,000	-0,024	0,138
-516,116	-46,861	-0,104	-0,037
-515,102	-23,183	0,082	0,036
-514,087	-200,000	-0,029	0,115
-513,072	-200,000	0,010	-0,039
-512,058	-200,000	-0,005	-0,022
-511,043	-30,033	-0,093	0,039
-510,029	-138,387	0,063	0,005
-509,014	159,996	-0,037	-0,038
-507,999	111,025	-0,139	0,122
-506,985	800,000	0,061	-0,148
-505,970	800,000	-0,039	-0,126
-504,956	-78,927	0,030	-0,007
-503,941	-200,000	0,002	0,087
-502,926	-89,468	-0,020	-0,004
-501,912	800,000	0,049	-0,105
-500,897	335,589	-0,040	-0,057
-499,883	81,826	-0,076	0,060
-498,868	-38,749	-0,016	-0,006
-497,853	800,000	-0,045	-0,100
-496,839	-200,000	0,016	-0,102
-495,824	341,066	0,029	0,041
-494,810	-200,000	-0,001	-0,032
-493,795	-98,382	0,169	0,031
-492,781	-51,981	-0,175	-0,059
-491,766	84,638	0,088	-0,070
-490,751	-68,618	-0,084	-0,024
-489,737	-131,666	0,233	-0,022
-488,722	587,169	-0,027	-0,049
-487,708	69,107	0,057	0,043
-486,693	300,668	0,072	0,098
-485,678	42,326	-0,032	0,021
-484,664	578,702	-0,044	-0,079
-483,649	800,000	-0,033	-0,095
-482,635	36,817	-0,140	-0,090
-481,620	453,269	-0,098	0,159
-480,605	0,974	0,086	0,045
-479,591	-119,153	-0,065	-0,008
-478,576	-93,019	-0,099	0,020
-477,562	-40,080	-0,033	-0,013
-476,547	20,779	0,064	0,038
-475,532	287,056	-0,039	0,052
-474,518	533,223	0,030	0,052
-473,503	-200,000	-0,036	-0,158
-472,489	-119,238	0,110	-0,014
-471,474	-200,000	0,009	-0,045
-470,459	-18,798	-0,091	0,041
-469,445	-2,547	-0,112	0,057
-468,430	-55,874	0,115	0,037
-467,416	-200,000	0,018	-0,075
-466,401	-200,000	0,021	0,090
-465,386	693,082	0,024	0,046
-464,372	-47,428	-0,046	0,016
-463,357	-200,000	0,012	0,052
-462,343	719,807	-0,054	0,105
-461,328	-110,652	0,065	-0,010
-460,313	275,923	0,039	-0,051
-459,299	169,737	-0,015	0,015
-458,284	397,396	0,042	0,064
-457,270	-200,000	-0,027	0,107
-456,255	375,966	-0,044	0,066
-455,241	-200,000	0,002	0,005
-454,226	-200,000	0,009	0,111
-453,211	-200,000	0,016	0,068
-452,197	92,048	0,057	0,047
-451,182	286,350	-0,023	0,031
-450,168	800,000	-0,072	0,148
-449,153	-27,527	-0,073	0,031
-448,138	800,000	-0,055	-0,133
-447,124	-1,660	-0,124	0,064
-446,109	800,000	-0,044	-0,101
-445,095	-18,860	0,099	0,045
-444,080	800,000	0,033	0,102
-443,065	-200,000	-0,031	-0,162
-442,051	418,762	0,026	-0,041
-441,036	18,751	-0,048	-0,028
-440,022	45,213	-0,117	-0,079
-439,007	-29,836	0,071	-0,029
-437,992	-158,667	0,046	-0,002
-436,978	57,290	0,073	0,052
-435,963	-56,566	-0,092	0,030
-434,949	-200,000	0,043	-0,171
-433,934	-65,774	-0,145	0,042
-432,919	800,000	0,052	-0,123
-431,905	-200,000	0,008	-0,082
-430,890	-88,674	-0,140	0,030
-429,876	800,000	0,026	0,062
-428,861	-200,000	0,022	0,185
-427,846	94,052	0,086	0,071
-426,832	-18,763	-0,094	0,042
-425,817	26,374	0,037	-0,022
-424,803	120,580	0,067	-0,061
-423,788	622,605	0,019	0,035
-422,773	-15,538	0,064	-0,030
-421,759	-53,729	0,037	-0,012
-420,744	-200,000	-0,007	0,031
-419,730	-200,000	0,040	-0,171
-418,715	709,949	0,034	-0,066
-417,701	15,863	0,012	-0,007
-416,686	-153,645	0,090	0,004
-415,671	-200,000	0,002	-0,151
-414,657	187,881	0,065	0,071
-413,642	-87,141	-0,057	-0,012
-412,628	37,286	0,213	-0,137
-411,613	63,945	-0,083	-0,061
-410,598	196,368	0,062	0,069
-409,584	-72,897	0,133	0,035
-408,569	-109,758	-0,176	-0,027
-407,555	15,050	-0,150	0,085
-406,540	800,000	0,042	0,131
-405,525	233,378	-0,043	0,052
-404,511	-142,294	0,072	-0,005
-403,496	-200,000	-0,016	-0,182
-402,482	-200,000	-0,010	0,133
-401,467	-92,123	0,098	0,020
-400,452	386,353	-0,083	0,125
-399,438	128,817	0,038	0,036
-398,423	165,288	-0,100	-0,103
-397,409	-54,864	0,014	0,005
-396,394	-12,673	-0,072	0,034
-395,379	800,000	0,027	-0,062
-394,365	69,088	0,014	-0,010
-393,350	70,430	0,047	0,035
-392,336	800,000	0,020	-0,062
-391,321	250,828	0,058	0,072
-390,306	-128,261	-0,184	-0,019
-389,292	109,131	0,067	0,058
-388,277	135,527	0,073	-0,069
-387,263	168,741	0,095	0,099
-386,248	-10,715	0,206	-0,099
-385,233	-200,000	-0,000	0,160
-384,219	80,497	-0,124	0,097
-383,204	-161,895	-0,109	0,004
-382,190	-139,928	0,037	0,003
-381,175	-200,000	-0,001	-0,035
-380,160	-75,096	0,237	0,061
-379,146	-13,457	-0,069	-0,032
-378,131	800,000	0,040	0,095
-377,117	800,000	-0,034	0,069
-376,102	200,144	-0,103	0,115
-375,088	57,988	-0,010	0,007
-374,073	-188,191	-0,095	-0,001
-373,058	138,963	0,100	0,095
-372,044	800,000	-0,013	-0,037
-371,029	-150,915	0,053	-0,003
-370,015	12,516	0,089	0,050
-369,000	-49,751	-0,243	0,083
-367,985	-68,360	-0,079	-0,022
-366,971	48,163	-0,095	0,064
-365,956	261,592	-0,126	-0,159
-364,942	-41,363	0,049	0,018
-363,927	15,845	-0,114	-0,065
-362,912	-40,430	-0,110	0,041
-361,898	800,000	0,021	0,060
-360,883	104,542	-0,117	0,100
-359,869	73,405	-0,119	0,090
-358,854	-97,179	0,007	0,001
-357,839	-200,000	-0,037	0,122
-356,825	461,786	0,048	0,077
-355,810	-0,412	-0,049	-0,025
-354,796	391,430	-0,082	0,124
-353,781	43,718	0,049	-0,033
-352,766	308,467	-0,117	-0,159
-351,752	-200,000	0,003	0,040
-350,737	62,926	-0,075	0,054
-349,723	-200,000	0,026	0,167
-348,708	800,000	0,051	-0,122
-347,693	-19,250	-0,087	-0,039
-346,679	670,322	-0,067	-0,126
-345,664	800,000	-0,010	0,029
-344,650	-35,718	0,032	0,013
-343,635	800,000	-0,042	-0,087
-342,620	-68,544	0,115	0,032
-341,606	800,000	0,012	-0,024
-340,591	-6,934	-0,180	-0,088
-339,577	800,000	-0,072	-0,163
-338,562	-99,275	-0,134	-0,024
-337,548	27,253	0,063	-0,038
-336,533	78,064	0,043	-0,033
-335,518	496,318	-0,048	0,080
-334,504	800,000	0,023	0,052
-333,489	-123,954	0,110	0,012
-332,475	358,439	0,111	-0,161
-331,460	142,179	-0,015	-0,015
-330,445	-126,755	0,011	-0,001
-329,431	201,983	0,056	0,062
-328,416	63,306	0,020	-0,015
-327,402	654,207	0,047	-0,087
-326,387	326,386	-0,089	0,124
-325,372	-200,000	-0,005	-0,051
-324,358	-64,861	-0,068	-0,020
-323,343	-200,000	-0,024	-0,092
-322,329	141,951	0,048	-0,046
-321,314	246,078	-0,078	-0,096
-320,299	10,065	0,073	0,040
-319,285	800,000	0,049	-0,156
-318,270	-13,975	0,092	-0,043
-317,256	784,443	0,066	0,131
-316,241	-113,991	0,163	-0,023
-315,226	395,667	0,051	-0,077
-314,212	-200,000	-0,010	-0,036
-313,197	-49,934	0,083	-0,028
-312,183	416,629	-0,059	0,091
-311,168	-120,739	0,122	0,015
-310,153	564,427	-0,048	0,084
-309,139	-141,024	0,089	0,006
-308,124	-51,647	0,025	-0,008
-307,110	800,000	-0,039	0,084
-306,095	-137,448	0,163	0,013
-305,080	-200,000	-0,007	0,051
-304,066	197,506	-0,129	-0,142
-303,051	-200,000	-0,022	-0,105
-302,037	226,626	-0,029	0,034
-301,022	81,464	0,012	-0,009
-300,008	118,861	0,118	-0,105
-298,993	-200,000	0,000	0,124
-297,978	-84,948	-0,032	-0,007
-296,964	61,195	-0,073	-0,052
-295,949	-200,000	-0,028	-0,103
-294,935	16,079	0,088	0,050
-293,920	800,000	0,026	-0,072
-292,905	-12,164	0,072	0,034
-291,891	-200,000	0,008	-0,054
-290,876	800,000	-0,052	-0,143
-289,862	44,984	-0,051	0,034
-288,847	107,890	-0,107	0,093
-287,832	800,000	0,041	-0,098
-286,818	-200,000	0,023	-0,175
-285,803	-200,000	0,005	-0,058
-284,789	-121,451	-0,102	0,012
-283,774	-200,000	-0,012	0,082
-282,759	64,384	-0,028	0,020
-281,745	800,000	0,061	-0,152
-280,730	-117,876	0,083	0,011
-279,716	-100,493	0,071	0,013
-278,701	-114,084	0,119	-0,017
-277,686	474,470	-0,019	0,031
-276,672	99,273	-0,159	0,133
-275,657	8,606	-0,085	0,046
-274,643	206,146	-0,037	-0,042
-273,628	800,000	-0,032	-0,098
-272,613	-104,923	0,051	-0,008
-271,599	-46,236	-0,032	-0,011
-270,584	-200,000	0,007	0,110
-269,570	29,956	0,124	0,076
-268,555	-21,310	-0,144	-0,063
-267,540	800,000	-0,010	-0,031
-266,526	-200,000	-0,006	-0,167
-265,511	-37,177	0,053	-0,020
-264,497	100,614	0,135	0,113
-263,482	-79,021	0,254	0,062
-262,467	-200,000	0,004	0,038
-261,453	-119,392	0,113	0,014
-260,438	34,824	-0,088	-0,055
-259,424	-200,000	-0,038	-0,152
-258,409	800,000	-0,044	-0,092
-257,395	-200,000	0,027	-0,130
-256,380	-127,285	0,071	0,007
-255,365	59,779	0,071	-0,051
-254,351	-200,000	0,007	0,076
-253,336	227,656	0,050	0,059
-252,322	154,244	-0,074	-0,074
-251,307	90,774	0,027	0,022
-250,292	-200,000	0,046	-0,000
-249,278	231,395	0,030	-0,036
-248,263	-200,000	-0,001	0,085
-247,249	-82,219	-0,189	-0,044
-246,234	377,516	0,022	-0,033
-245,219	214,594	-0,044	-0,051
-244,205	-120,059	0,066	-0,008
-243,190	800,000	-0,033	0,104
-242,176	606,369	-0,019	0,034
-241,161	-200,000	0,014	0,159
-240,146	800,000	0,019	-0,049
-239,132	-36,988	0,025	-0,010
-238,117	-55,895	-0,141	-0,045
-237,103	-200,000	0,049	0,162
-236,088	-200,000	-0,015	0,089
-235,073	-200,000	0,001	0,072
-234,059	170,391	-0,062	0,064
-233,044	133,375	0,044	0,041
-232,030	-104,023	-0,005	0,001
-231,015	800,000	0,013	0,040
-230,000	550,985	-0,045	-0,078
-228,986	-200,000	0,003	-0,123
-227,971	497,679	0,061	-0,102
-226,957	-117,132	0,155	0,020
-225,942	589,035	0,024	-0,044
-224,927	-142,968	-0,079	0,005
-223,913	12,399	-0,035	0,020
-222,898	-200,000	0,023	0,083
-221,884	-200,000	0,000	-0,080
-220,869	-38,267	-0,029	0,011
-219,855	-23,510	0,093	0,040
-218,840	38,222	0,125	0,080
-217,825	-200,000	-0,008	-0,138
-216,811	-200,000	0,006	-0,059
-215,796	-200,000	-0,029	-0,127
-214,782	16,629	-0,099	-0,056
-213,767	800,000	-0,025	-0,066
-212,752	-200,000	0,016	0,065
-211,738	-112,250	0,048	0,007
-210,723	-6,067	-0,084	-0,041
-209,709	-94,190	-0,120	-0,023
-208,694	84,805	-0,068	0,053
-207,679	-200,000	0,009	0,110
-206,665	-133,278	-0,120	0,011
-205,650	157,639	0,099	0,099
-204,636	108,995	0,150	0,129
-203,621	175,208	0,062	-0,065
-202,606	-200,000	-0,020	0,068
-201,592	-9,542	0,004	0,002
-200,577	-109,004	-0,049	0,008
-199,563	20,807	0,057	0,033
-198,548	-73,792	0,120	0,031
-197,533	61,709	-0,022	-0,015
-196,519	-42,639	0,019	0,007
-195,504	11,754	0,114	0,063
-194,490	11,444	-0,091	0,050
-193,475	-92,814	-0,079	-0,016
-192,460	21,007	0,068	0,040
-191,446	125,242	-0,044	0,040
-190,431	800,000	0,022	0,057
-189,417	179,846	-0,058	-0,061
-188,402	108,680	-0,032	0,028
-187,387	-200,000	0,013	0,095
-186,373	8,948	0,056	0,030
-185,358	23,768	0,079	0,047
-184,344	-92,304	0,120	0,024
-183,329	800,000	0,034	-0,090
-182,315	-200,000	0,024	0,103
-181,300	-135,031	-0,049	-0,004
-180,285	-65,337	-0,043	-0,012
-179,271	-41,340	0,052	-0,019
-178,256	-160,068	0,071	-0,003
-177,242	99,868	-0,063	0,053
-176,227	-200,000	-0,004	0,067
-175,212	57,885	0,052	-0,036
-174,198	-9,164	-0,136	-0,065
-173,183	800,000	-0,067	-0,156
-172,169	-41,247	-0,014	-0,005
-171,154	-139,562	0,086	0,006
-170,139	473,517	0,050	0,081
-169,125	3,070	0,011	0,006
-168,110	-75,247	0,117	0,030
-167,096	800,000	-0,071	0,221
-166,081	78,169	0,067	0,052
-165,066	-200,000	-0,027	-0,142
-164,052	133,968	-0,112	-0,105
-163,037	800,000	0,024	-0,064
-162,023	122,577	0,050	-0,045
-161,008	331,554	0,064	0,089
-159,993	59,248	-0,065	0,046
-158,979	290,986	-0,026	-0,035
-157,964	-200,000	-0,021	0,076
-156,950	800,000	-0,027	-0,057
-155,935	-200,000	-0,015	-0,063
-154,920	-82,194	0,104	-0,024
-153,906	-139,741	-0,052	0,004
-152,891	-108,288	-0,066	0,010
-151,877	-56,951	0,092	0,029
-150,862	249,694	-0,081	-0,099
-149,847	800,000	0,018	-0,049
-148,833	-101,343	-0,146	-0,025
-147,818	-200,000	0,023	0,087
-146,804	106,064	0,131	0,112
-145,789	376,355	0,037	0,055
-144,775	92,166	-0,122	0,099
-143,760	-200,000	0,038	-0,123
-142,745	-200,000	-0,001	-0,214
-141,731	-24,005	0,108	0,046
-140,716	800,000	0,010	0,025
-139,702	-52,690	-0,082	0,027
-138,687	-52,774	0,156	-0,051
-137,672	-109,032	-0,122	-0,019
-136,658	615,829	0,037	-0,068
-135,643	800,000	-0,053	-0,107
-134,629	-200,000	0,018	0,077
-133,614	-9,077	-0,007	-0,003
-132,599	800,000	-0,060	0,138
-131,585	-200,000	0,003	-0,112
-130,570	800,000	-0,039	0,080
-129,556	113,222	-0,077	-0,067
-128,541	47,852	0,116	0,078
-127,526	49,460	-0,053	0,035
-126,512	-200,000	0,003	0,099
-125,497	-200,000	0,021	-0,071
-124,483	85,270	-0,079	0,062
-123,468	517,636	-0,018	0,031
-122,453	-200,000	0,031	0,102
-121,439	99,049	0,112	-0,093
-120,424	8,573	-0,058	-0,031
-119,410	320,037	-0,016	-0,023
-118,395	-73,747	0,126	0,033
