DTS Sentinel unit serial number:	SN410029Multiplexer serial number:	ORYXHardware model number:	OX2-SRSoftware version number:	ORYX F/W v4,00 Oryx Data Collector v3.7.2.0data status	okinstallation	B5 Nyhavnadifferential loss correction	single-endedforward channel	channel 2reverse channel	N/Adate	2023/12/12time	14:27:13forward acquisition time	300,00reverse acquisition time	0,00gamma	499,1914k internal	0,3156k external	0,3156temperature offset calibration	1,0000default loss term (dB/km)	0,3820temperature slope calibration	1,0000multiplexer offset coefficient	1,0000multiplexer slope coefficient	1,0000fibre end	0,00T internal ref (°C)	15,85T ext. ref 1 (°C)	-0,32T ext. ref 2 (°C)	-0,59length (m)	temperature (°C)	Stokes	anti-Stokes-744,400	145,094	0,045	0,045
-743,385	-88,101	-0,374	0,082
-742,371	-127,400	0,134	-0,014
-741,356	-102,628	-0,189	-0,033
-740,342	-71,077	0,153	-0,042
-739,327	84,982	-0,256	0,207
-738,312	-20,680	0,156	0,070
-737,298	-45,427	-0,310	0,113
-736,283	-72,306	0,127	-0,035
-735,269	-91,541	-0,355	0,074
-734,254	800,000	0,043	-0,124
-733,239	-99,024	-0,430	-0,080
-732,225	106,318	0,100	-0,087
-731,210	-200,000	0,025	0,105
-730,196	800,000	-0,025	-0,065
-729,181	-97,482	-0,215	0,041
-728,167	-200,000	0,020	0,120
-727,152	163,956	0,034	-0,035
-726,137	613,848	-0,057	-0,105
-725,123	-89,483	-0,115	-0,025
-724,108	-66,215	-0,075	-0,022
-723,094	27,143	-0,050	0,031
-722,079	32,697	-0,089	0,057
-721,064	-136,524	0,174	0,015
-720,050	-200,000	-0,021	-0,155
-719,035	2,056	-0,111	-0,059
-718,021	22,314	-0,073	0,044
-717,006	-200,000	0,015	-0,082
-715,991	474,213	-0,086	-0,144
-714,977	-1,464	-0,067	-0,035
-713,962	38,430	-0,138	0,091
-712,948	58,178	0,074	-0,053
-711,933	4,877	0,082	-0,044
-710,918	85,101	-0,103	-0,083
-709,904	-47,061	-0,038	0,014
-708,889	178,786	-0,107	-0,115
-707,875	-44,859	-0,118	-0,043
-706,860	126,531	-0,093	-0,087
-705,845	-200,000	-0,029	0,096
-704,831	222,735	-0,007	0,008
-703,816	183,341	0,029	0,031
-702,802	260,372	-0,060	0,077
-701,787	-117,314	-0,133	0,018
-700,772	-200,000	0,003	-0,018
-699,758	800,000	-0,041	-0,084
-698,743	171,578	0,071	-0,075
-697,729	-83,996	-0,106	-0,025
-696,714	-200,000	-0,017	-0,057
-695,699	211,895	0,020	0,023
-694,685	-71,983	0,181	-0,049
-693,670	-28,021	-0,047	-0,020
-692,656	50,272	-0,106	-0,073
-691,641	-200,000	-0,020	0,149
-690,627	394,697	-0,043	-0,067
-689,612	328,113	0,030	-0,042
-688,597	250,565	0,016	-0,020
-687,583	-168,114	-0,137	-0,004
-686,568	-21,723	-0,055	-0,024
-685,554	-77,445	0,098	-0,025
-684,539	253,623	0,096	0,121
-683,524	372,552	-0,015	0,022
-682,510	50,097	-0,074	0,052
-681,495	569,499	-0,040	-0,072
-680,481	-200,000	0,019	-0,247
-679,466	6,740	0,101	-0,055
-678,451	-90,871	-0,084	-0,018
-677,437	800,000	0,010	-0,025
-676,422	627,580	0,022	0,041
-675,408	-200,000	0,004	0,016
-674,393	-200,000	0,024	-0,081
-673,378	351,604	0,037	-0,054
-672,364	-102,130	-0,258	-0,045
-671,349	-162,018	-0,165	-0,006
-670,335	-200,000	0,014	0,095
-669,320	-52,119	0,049	-0,016
-668,305	-190,843	0,036	0,000
-667,291	800,000	0,019	-0,047
-666,276	-18,688	-0,130	-0,059
-665,262	710,983	0,028	-0,055
-664,247	172,204	-0,079	-0,084
-663,232	800,000	-0,027	0,073
-662,218	-44,813	0,083	0,030
-661,203	111,771	-0,056	-0,050
-660,189	-200,000	0,004	-0,113
-659,174	-77,253	0,033	-0,008
-658,159	800,000	0,010	0,022
-657,145	266,587	-0,083	-0,107
-656,130	-200,000	-0,008	0,070
-655,116	800,000	-0,022	0,047
-654,101	399,543	0,093	0,144
-653,086	324,401	0,061	-0,086
-652,072	118,598	-0,055	-0,050
-651,057	61,479	-0,179	0,131
-650,043	-200,000	-0,009	-0,069
-649,028	-200,000	-0,013	-0,089
-648,014	348,201	-0,049	0,071
-646,999	-200,000	-0,005	-0,028
-645,984	800,000	-0,009	-0,023
-644,970	179,006	-0,143	-0,154
-643,955	213,112	-0,008	-0,009
-642,941	800,000	-0,042	-0,123
-641,926	-73,805	-0,072	-0,019
-640,911	800,000	0,042	0,086
-639,897	-200,000	0,001	0,126
-638,882	800,000	0,031	0,086
-637,868	-77,127	-0,095	-0,024
-636,853	-101,111	0,058	-0,010
-635,838	-200,000	0,008	-0,106
-634,824	-35,143	-0,099	-0,039
-633,809	-31,316	0,064	-0,027
-632,795	800,000	-0,026	0,072
-631,780	274,247	0,037	-0,048
-630,765	470,202	-0,041	-0,068
-629,751	180,964	-0,146	-0,157
-628,736	-200,000	-0,008	-0,078
-627,722	-200,000	0,047	-0,185
-626,707	-36,879	-0,031	0,012
-625,692	-45,213	0,167	-0,061
-624,678	196,918	-0,018	-0,020
-623,663	157,185	-0,107	0,109
-622,649	37,462	0,062	0,041
-621,634	-126,661	0,085	0,009
-620,619	116,786	0,037	0,034
-619,605	-200,000	-0,005	0,055
-618,590	11,953	-0,154	-0,087
-617,576	800,000	-0,053	0,127
-616,561	-200,000	0,008	0,179
-615,546	800,000	-0,031	-0,081
-614,532	503,166	0,044	-0,076
-613,517	-166,135	0,034	-0,001
-612,503	-82,087	0,059	0,014
-611,488	-200,000	-0,018	0,074
-610,474	-34,671	-0,063	0,025
-609,459	-139,338	-0,051	-0,004
-608,444	-80,872	0,150	0,036
-607,430	105,960	0,043	0,038
-606,415	466,493	-0,018	-0,029
-605,401	-200,000	0,002	-0,070
-604,386	-45,423	-0,158	-0,057
-603,371	30,121	-0,053	-0,033
-602,357	-27,754	-0,060	-0,025
-601,342	-200,000	0,014	0,183
-600,328	800,000	0,016	0,045
-599,313	-46,018	-0,122	-0,044
-598,298	-200,000	0,004	-0,103
-597,284	-200,000	-0,015	-0,064
-596,269	800,000	0,042	0,090
-595,255	201,701	0,066	0,074
-594,240	-200,000	0,054	-0,175
-593,225	59,358	-0,062	0,045
-592,211	198,084	0,070	-0,078
-591,196	800,000	-0,013	-0,027
-590,182	37,757	-0,005	0,003
-589,167	-48,274	0,041	-0,015
-588,152	-200,000	0,000	-0,013
-587,138	-200,000	0,010	0,079
-586,123	-200,000	-0,053	0,201
-585,109	-200,000	-0,013	-0,133
-584,094	-200,000	-0,022	0,073
-583,079	800,000	-0,072	-0,171
-582,065	69,814	-0,097	0,073
-581,050	800,000	-0,021	-0,064
-580,036	-200,000	0,013	-0,140
-579,021	-200,000	-0,016	0,095
-578,006	-200,000	-0,006	-0,111
-576,992	316,353	0,010	-0,014
-575,977	-200,000	-0,020	0,084
-574,963	196,134	-0,065	0,072
-573,948	290,016	0,019	-0,026
-572,934	-200,000	0,003	-0,085
-571,919	800,000	-0,032	0,086
-570,904	-200,000	-0,004	-0,107
-569,890	-200,000	0,017	0,058
-568,875	25,905	0,063	0,038
-567,861	-88,296	-0,063	0,014
-566,846	282,728	0,064	0,085
-565,831	252,839	-0,085	0,106
-564,817	46,355	-0,125	-0,085
-563,802	-200,000	-0,013	-0,156
-562,788	216,100	-0,037	-0,043
-561,773	-200,000	-0,011	0,123
-560,758	124,551	0,048	0,044
-559,744	-200,000	-0,007	0,202
-558,729	800,000	0,020	-0,044
-557,715	5,345	-0,175	-0,094
-556,700	151,394	-0,092	-0,092
-555,685	-200,000	-0,013	0,063
-554,671	-96,516	0,051	-0,010
-553,656	-46,261	-0,062	0,022
-552,642	-108,976	0,102	-0,016
-551,627	-200,000	-0,006	-0,042
-550,612	273,198	-0,092	0,119
-549,598	290,773	0,033	0,043
-548,583	-85,091	0,117	0,027
-547,569	-71,402	-0,048	0,013
-546,554	-88,675	0,122	-0,026
-545,539	656,846	0,044	-0,083
-544,525	800,000	-0,063	0,133
-543,510	-58,038	-0,093	0,029
-542,496	-200,000	0,006	-0,059
-541,481	264,679	-0,045	0,057
-540,466	-47,985	0,100	-0,035
-539,452	800,000	-0,019	0,047
-538,437	-142,923	0,110	-0,008
-537,423	80,156	-0,135	0,107
-536,408	800,000	-0,016	-0,036
-535,393	800,000	0,030	-0,085
-534,379	-200,000	-0,028	-0,130
-533,364	-200,000	-0,016	0,097
-532,350	-40,994	0,018	-0,007
-531,335	-90,380	-0,164	-0,035
-530,321	800,000	-0,016	-0,051
-529,306	312,505	0,079	0,109
-528,291	11,794	-0,080	-0,045
-527,277	800,000	-0,084	-0,235
-526,262	-200,000	-0,009	-0,095
-525,248	312,862	0,074	-0,102
-524,233	132,015	0,057	0,054
-523,218	67,173	0,050	-0,037
-522,204	-80,397	-0,072	-0,017
-521,189	507,345	0,057	-0,097
-520,175	615,322	0,044	-0,082
-519,160	-22,940	0,105	0,046
-518,145	-64,299	0,055	-0,016
-517,131	-200,000	0,027	-0,133
-516,116	166,819	0,040	0,042
-515,102	-26,811	0,032	0,014
-514,087	-200,000	0,019	-0,103
-513,072	-200,000	-0,011	-0,089
-512,058	-14,694	-0,105	0,049
-511,043	39,412	-0,122	-0,080
-510,029	800,000	0,040	0,103
-509,014	-173,569	0,104	-0,002
-507,999	-110,180	0,040	-0,006
-506,985	-88,827	0,025	-0,005
-505,970	52,457	-0,068	-0,047
-504,956	63,500	-0,172	-0,126
-503,941	50,769	0,075	-0,052
-502,926	800,000	0,037	0,105
-501,912	-9,973	-0,053	0,025
-500,897	220,742	0,069	0,081
-499,883	39,443	-0,093	-0,061
-498,868	-115,631	0,064	0,009
-497,853	-200,000	0,005	0,060
-496,839	800,000	0,046	0,116
-495,824	91,293	0,116	0,095
-494,810	104,463	-0,074	0,064
-493,795	-93,718	0,117	0,023
-492,781	128,741	0,109	0,101
-491,766	800,000	-0,042	0,104
-490,751	-83,144	-0,116	0,027
-489,737	-157,390	-0,046	-0,002
-488,722	-103,703	0,052	-0,009
-487,708	-32,057	-0,119	0,048
-486,693	31,636	0,072	-0,045
-485,678	-13,553	0,153	0,072
-484,664	118,625	-0,070	0,063
-483,649	800,000	0,032	0,098
-482,635	146,904	0,099	0,098
-481,620	102,020	0,124	0,106
-480,605	800,000	0,101	0,211
-479,591	713,167	-0,090	0,175
-478,576	-53,928	-0,161	0,053
-477,562	542,202	0,060	0,104
-476,547	-128,473	-0,117	0,012
-475,532	800,000	0,018	0,049
-474,518	-200,000	0,006	0,107
-473,503	551,173	0,034	0,060
-472,489	76,135	0,131	0,101
-471,474	-200,000	-0,023	-0,099
-470,459	800,000	-0,040	-0,090
-469,445	172,436	-0,040	-0,042
-468,430	376,053	-0,025	0,037
-467,416	-13,558	-0,068	0,032
-466,401	325,241	-0,020	0,028
-465,386	800,000	0,032	0,075
-464,372	398,736	-0,153	0,235
-463,357	-63,337	-0,042	0,013
-462,343	232,700	-0,047	-0,056
-461,328	-97,948	0,037	-0,007
-460,313	-143,989	0,117	0,008
-459,299	-16,904	-0,092	-0,042
-458,284	794,633	0,072	0,146
-457,270	-200,000	-0,001	0,095
-456,255	-200,000	-0,036	-0,147
-455,241	800,000	-0,009	-0,026
-454,226	36,824	-0,073	0,047
-453,211	67,028	0,036	0,026
-452,197	800,000	0,028	0,065
-451,182	48,726	-0,064	0,043
-450,168	800,000	0,056	0,114
-449,153	-94,906	-0,060	-0,012
-448,138	273,708	-0,031	0,041
-447,124	-17,240	-0,082	-0,038
-446,109	800,000	0,023	-0,062
-445,095	207,573	-0,107	-0,122
-444,080	-200,000	-0,001	-0,016
-443,065	-200,000	0,023	0,141
-442,051	329,336	-0,024	-0,034
-441,036	-94,682	0,053	-0,010
-440,022	57,028	-0,082	-0,058
-439,007	800,000	-0,016	0,034
-437,992	17,506	0,098	0,057
-436,978	-54,910	-0,147	0,048
-435,963	-200,000	0,003	0,075
-434,949	-200,000	0,008	-0,081
-433,934	-189,498	-0,113	-0,001
-432,919	25,165	-0,094	-0,057
-431,905	-200,000	0,005	-0,159
-430,890	122,532	-0,083	-0,075
-429,876	-67,310	0,216	0,061
-428,861	316,562	-0,097	0,134
-427,846	635,405	-0,021	-0,039
-426,832	46,107	-0,050	0,034
-425,817	-134,314	-0,095	-0,008
-424,803	-127,327	0,057	0,006
-423,788	-200,000	-0,028	0,223
-422,773	107,306	0,079	0,068
-421,759	28,570	0,059	0,036
-420,744	-95,168	-0,080	0,016
-419,730	69,167	-0,033	-0,025
-418,715	-166,499	-0,158	0,005
-417,701	513,115	0,070	-0,120
-416,686	127,987	0,028	-0,026
-415,671	49,384	-0,067	-0,046
-414,657	-200,000	-0,010	0,121
-413,642	-42,642	0,026	0,010
-412,628	-100,636	0,060	0,011
-411,613	800,000	-0,082	0,203
-410,598	25,744	0,044	0,027
-409,584	-102,642	0,066	0,011
-408,569	-64,462	-0,053	-0,016
-407,555	800,000	0,037	0,097
-406,540	-200,000	-0,006	-0,057
-405,525	-155,778	-0,100	0,005
-404,511	-164,002	-0,064	0,002
-403,496	800,000	-0,030	-0,074
-402,482	73,865	-0,081	0,062
-401,467	-200,000	-0,017	0,115
-400,452	-31,747	0,084	0,034
-399,438	134,965	-0,042	0,039
-398,423	-200,000	0,010	-0,079
-397,409	-200,000	-0,021	-0,133
-396,394	-142,153	-0,030	0,002
-395,379	-146,300	0,205	0,013
-394,365	-26,142	0,115	-0,049
-393,350	137,063	0,093	-0,089
-392,336	800,000	-0,030	0,084
-391,321	-38,135	-0,084	0,032
-390,306	-120,266	-0,124	0,015
-389,292	-18,548	-0,115	-0,052
-388,277	-95,334	0,112	0,022
-387,263	41,753	-0,133	-0,087
-386,248	568,363	0,067	0,119
-385,233	-99,283	-0,103	0,019
-384,219	513,638	0,027	0,047
-383,204	7,991	-0,125	-0,068
-382,190	-200,000	-0,000	0,029
-381,175	296,660	-0,036	-0,049
-380,160	526,295	-0,065	0,111
-379,146	800,000	-0,032	0,080
-378,131	193,448	0,126	-0,139
-377,117	134,574	-0,020	-0,019
-376,102	-124,896	0,095	-0,011
-375,088	340,691	-0,030	0,043
-374,073	-200,000	-0,023	-0,134
-373,058	205,872	0,117	0,132
-372,044	125,687	-0,077	0,070
-371,029	264,611	0,119	-0,151
-370,015	291,381	0,066	0,087
-369,000	16,509	0,068	0,039
-367,985	-111,811	-0,144	0,021
-366,971	-200,000	0,010	-0,066
-365,956	-36,712	0,110	-0,043
-364,942	-69,838	-0,123	-0,034
-363,927	-43,559	0,093	0,034
-362,912	187,511	-0,093	0,101
-361,898	48,911	0,077	0,053
-360,883	800,000	-0,012	-0,028
-359,869	-152,966	-0,164	-0,008
-358,854	-200,000	-0,009	-0,086
-357,839	90,939	-0,008	0,007
-356,825	54,227	-0,091	0,063
-355,810	800,000	0,028	-0,063
-354,796	28,616	-0,102	0,062
-353,781	71,703	-0,041	0,031
-352,766	82,118	0,194	-0,152
-351,752	105,019	-0,035	-0,030
-350,737	302,252	0,059	-0,079
-349,723	-106,541	0,019	-0,003
-348,708	-200,000	-0,009	0,032
-347,693	-200,000	0,055	-0,208
-346,679	-126,977	0,108	0,011
-345,664	105,849	-0,061	0,053
-344,650	-139,697	-0,043	-0,003
-343,635	-200,000	0,006	0,044
-342,620	-62,205	-0,113	0,034
-341,606	-200,000	0,005	0,072
-340,591	-4,620	0,057	-0,029
-339,577	37,668	-0,030	-0,019
-338,562	-200,000	0,017	-0,068
-337,548	-116,907	-0,039	-0,005
-336,533	131,516	0,054	-0,050
-335,518	112,041	0,061	0,053
-334,504	771,325	0,049	-0,098
-333,489	-161,554	-0,149	0,005
-332,475	-23,238	0,113	0,049
-331,460	258,958	0,044	-0,055
-330,445	256,265	-0,055	0,069
-329,431	92,646	0,079	-0,064
-328,416	800,000	-0,020	0,053
-327,402	-200,000	0,003	0,143
-326,387	28,958	0,162	-0,099
-325,372	-165,120	-0,125	-0,004
-324,358	174,037	-0,082	-0,086
-323,343	800,000	-0,028	-0,065
-322,329	-200,000	0,004	0,074
-321,314	-34,407	-0,102	-0,041
-320,299	-200,000	0,005	-0,021
-319,285	243,291	0,056	0,069
-318,270	-75,876	-0,130	0,033
-317,256	160,258	0,070	-0,071
-316,241	1,035	-0,113	-0,059
-315,226	266,071	0,059	-0,075
-314,212	94,570	-0,037	0,030
-313,197	-142,546	0,237	-0,017
-312,183	37,097	0,092	-0,059
-311,168	310,049	0,091	-0,124
-310,153	-200,000	0,010	-0,096
-309,139	-45,097	0,071	-0,025
-308,124	296,936	0,021	0,028
-307,110	-95,931	0,065	0,012
-306,095	88,038	-0,109	0,088
-305,080	800,000	0,042	0,088
-304,066	157,858	-0,022	0,022
-303,051	-200,000	0,017	-0,087
-302,037	-200,000	0,024	-0,255
-301,022	-66,466	-0,014	-0,004
-300,008	-200,000	0,009	0,173
-298,993	-200,000	0,010	0,050
-297,978	627,993	0,075	0,138
-296,964	-133,706	-0,031	-0,003
-295,949	-200,000	0,001	0,022
-294,935	-179,699	-0,145	0,002
-293,920	-114,414	0,155	-0,021
-292,905	64,858	0,042	-0,031
-291,891	-200,000	-0,035	0,167
-290,876	-97,913	0,145	0,027
-289,862	-47,508	-0,090	0,031
-288,847	-200,000	-0,003	-0,053
-287,832	443,488	0,047	0,075
-286,818	125,663	-0,108	-0,099
-285,803	-200,000	0,007	-0,092
-284,789	194,440	0,046	0,050
-283,774	33,112	-0,122	0,077
-282,759	778,125	0,035	-0,069
-281,745	192,493	-0,102	-0,111
-280,730	33,982	0,088	-0,055
-279,716	800,000	0,040	-0,087
-278,701	800,000	0,022	-0,050
-277,686	58,645	0,079	-0,056
-276,672	-200,000	-0,019	0,119
-275,657	800,000	0,025	0,079
-274,643	-200,000	-0,015	-0,176
-273,628	-153,085	-0,036	-0,002
-272,613	355,619	0,012	0,018
-271,599	-22,504	0,046	-0,020
-270,584	-90,325	0,188	0,039
-269,570	46,121	0,075	0,050
-268,555	133,770	0,071	-0,066
-267,540	-82,968	0,107	0,025
-266,526	-154,236	0,082	-0,004
-265,511	-200,000	0,135	0,000
-264,497	514,026	0,086	0,146
-263,482	-73,291	0,129	-0,034
-262,467	-200,000	0,019	-0,062
-261,453	25,424	0,046	-0,028
-260,438	497,111	-0,012	-0,021
-259,424	-200,000	0,001	-0,119
-258,409	23,904	0,118	-0,070
-257,395	59,713	-0,015	-0,011
-256,380	-142,267	-0,059	0,004
-255,365	-48,615	0,164	-0,057
-254,351	347,985	-0,016	-0,023
-253,336	-73,903	-0,055	-0,014
-252,322	-43,860	-0,030	0,011
-251,307	16,325	0,052	-0,029
-250,292	89,248	-0,089	0,072
-249,278	-200,000	0,003	-0,024
-248,263	-15,952	-0,007	0,003
-247,249	-106,201	0,119	-0,019
-246,234	194,113	-0,073	0,080
-245,219	-124,994	0,122	0,013
-244,205	-66,297	-0,101	-0,029
-243,190	-200,000	-0,013	-0,041
-242,176	800,000	0,034	0,099
-241,161	376,274	0,052	-0,078
-240,146	-200,000	-0,000	0,189
-239,132	729,325	0,036	0,071
-238,117	122,402	-0,026	0,023
-237,103	96,887	-0,017	-0,014
-236,088	437,110	-0,044	-0,070
-235,073	-85,398	0,159	0,035
-234,059	800,000	-0,035	0,106
-233,044	-200,000	-0,006	0,068
-232,030	172,835	-0,089	-0,093
-231,015	-50,530	0,064	-0,022
-230,000	-200,000	-0,021	-0,145
-228,986	421,085	0,035	-0,055
-227,971	658,076	-0,020	-0,037
-226,957	60,692	0,062	-0,044
-225,942	-200,000	0,003	0,051
-224,927	800,000	0,013	-0,040
-223,913	-127,709	-0,096	0,010
-222,898	189,458	0,077	0,084
-221,884	20,177	-0,113	0,066
-220,869	-200,000	0,000	-0,163
-219,855	-200,000	-0,038	0,147
-218,840	474,968	0,046	0,075
-217,825	-20,837	-0,029	-0,013
-216,811	-200,000	-0,007	0,095
-215,796	193,416	0,007	0,008
-214,782	-200,000	0,025	-0,081
-213,767	31,890	0,041	-0,026
-212,752	733,696	0,089	0,173
-211,738	265,000	-0,092	-0,116
-210,723	800,000	-0,051	-0,146
-209,709	800,000	-0,057	-0,167
-208,694	494,646	0,084	-0,140
-207,679	-10,475	0,108	-0,052
-206,665	-74,611	-0,071	0,018
-205,650	185,199	0,065	-0,070
-204,636	-200,000	-0,007	0,072
-203,621	-200,000	-0,013	0,041
-202,606	580,406	-0,051	0,091
-201,592	567,122	-0,016	0,029
-200,577	-74,869	0,105	0,027
-199,563	800,000	0,024	-0,062
-198,548	761,438	-0,044	0,087
-197,533	-123,448	0,098	0,011
-196,519	800,000	0,020	0,058
-195,504	-168,057	0,049	-0,001
-194,490	-23,448	-0,217	-0,094
-193,475	-200,000	-0,004	0,073
-192,460	-175,201	0,219	-0,004
-191,446	800,000	-0,028	-0,077
-190,431	-200,000	-0,004	-0,048
-189,417	-37,386	0,080	0,031
-188,402	-178,465	0,090	-0,001
-187,387	-14,591	0,044	-0,020
-186,373	173,962	-0,033	0,034
-185,358	186,960	0,058	0,062
-184,344	95,247	-0,021	0,017
-183,329	301,320	-0,017	0,023
-182,315	-119,715	-0,023	0,003
-181,300	-138,649	-0,015	-0,001
-180,285	200,112	-0,090	0,100
-179,271	131,198	-0,093	-0,086
-178,256	-200,000	0,014	-0,132
-177,242	156,966	0,051	-0,051
-176,227	-121,920	-0,096	0,011
-175,212	548,820	-0,033	-0,057
-174,198	-200,000	-0,011	-0,085
-173,183	-54,966	0,113	-0,037
-172,169	-123,598	0,042	-0,005
-171,154	94,621	0,050	0,041
-170,139	-200,000	-0,035	-0,173
-169,125	800,000	-0,013	0,035
-168,110	-200,000	0,028	0,127
-167,096	99,880	0,064	-0,053
-166,081	358,756	0,088	-0,128
-165,066	357,217	-0,111	-0,160
-164,052	800,000	0,053	-0,151
-163,037	-200,000	0,025	0,114
-162,023	132,769	-0,112	0,104
-161,008	223,469	-0,041	0,047
-159,993	-166,079	-0,052	0,002
-158,979	77,467	0,040	-0,031
-157,964	800,000	-0,029	-0,086
-156,950	163,952	-0,020	0,021
-155,935	-200,000	0,018	-0,115
-154,920	213,759	0,036	0,041
-153,906	-58,461	-0,021	0,007
-152,891	185,902	0,048	0,051
-151,877	-9,817	-0,091	-0,043
-150,862	120,443	-0,050	0,045
-149,847	353,200	0,046	-0,066
-148,833	16,467	-0,043	0,025
-147,818	312,009	-0,058	0,079
-146,804	800,000	-0,025	0,055
-145,789	-200,000	0,001	0,150
-144,775	29,305	0,061	0,037
-143,760	-200,000	0,021	-0,118
-142,745	-77,798	-0,015	-0,004
-141,731	-200,000	0,045	0,154
-140,716	-200,000	-0,012	-0,066
-139,702	800,000	-0,011	-0,029
-138,687	-200,000	-0,011	0,044
-137,672	205,406	0,038	-0,043
-136,658	-47,427	0,077	0,027
-135,643	544,444	0,024	-0,042
-134,629	68,372	0,024	-0,018
-133,614	426,214	-0,009	0,015
-132,599	26,948	-0,058	-0,035
-131,585	-153,616	0,103	-0,005
-130,570	777,577	-0,055	0,108
-129,556	-9,336	-0,103	0,049
-128,541	232,182	-0,106	-0,125
-127,526	-200,000	0,017	-0,081
-126,512	-113,912	0,041	-0,006
-125,497	800,000	-0,017	0,043
-124,483	-200,000	-0,015	0,193
-123,468	4,347	0,104	0,055
-122,453	140,693	-0,093	0,089
-121,439	-86,091	-0,047	0,010
-120,424	740,053	0,043	-0,084
