DTS Sentinel unit serial number:	SN410029Multiplexer serial number:	ORYXHardware model number:	OX2-SRSoftware version number:	ORYX F/W v4,00 Oryx Data Collector v3.7.2.0data status	okinstallation	B5 Nyhavnadifferential loss correction	single-endedforward channel	channel 2reverse channel	N/Adate	2023/12/14time	01:12:13forward acquisition time	300,00reverse acquisition time	0,00gamma	499,1914k internal	0,3155k external	0,3155temperature offset calibration	1,0000default loss term (dB/km)	0,3820temperature slope calibration	1,0000multiplexer offset coefficient	1,0000multiplexer slope coefficient	1,0000fibre end	0,00T internal ref (°C)	8,69T ext. ref 1 (°C)	-7,14T ext. ref 2 (°C)	-7,14length (m)	temperature (°C)	Stokes	anti-Stokes-744,400	59,097	0,060	0,044
-743,385	-107,560	-0,517	-0,083
-742,371	-189,468	0,300	0,003
-741,356	-43,916	-0,338	-0,125
-740,342	645,708	0,073	0,138
-739,327	-71,390	-0,329	-0,090
-738,312	-52,320	0,097	0,033
-737,298	-45,066	-0,419	-0,153
-736,283	-162,108	0,255	-0,009
-735,269	-87,421	-0,251	0,056
-734,254	800,000	0,015	0,041
-733,239	-69,972	-0,609	-0,170
-732,225	59,343	0,224	0,163
-731,210	582,653	-0,050	0,091
-730,196	-200,000	0,005	0,078
-729,181	28,712	-0,094	0,059
-728,167	-58,597	0,071	0,023
-727,152	-85,621	-0,136	0,031
-726,137	-26,425	-0,040	0,017
-725,123	73,997	0,055	0,043
-724,108	-200,000	0,008	0,117
-723,094	-49,162	-0,105	-0,037
-722,079	-164,613	-0,263	-0,009
-721,064	186,280	0,083	0,091
-720,050	30,850	-0,145	0,091
-719,035	-110,736	0,116	0,017
-718,021	-9,557	-0,038	0,018
-717,006	-200,000	0,049	-0,212
-715,991	207,863	-0,078	-0,090
-714,977	48,325	0,158	-0,109
-713,962	-70,733	-0,018	-0,005
-712,948	-7,953	0,105	-0,052
-711,933	791,285	0,046	0,094
-710,918	-47,182	-0,030	0,011
-709,904	133,731	0,111	0,106
-708,889	255,999	-0,047	-0,060
-707,875	-200,000	0,005	-0,066
-706,860	274,363	-0,078	-0,102
-705,845	800,000	-0,034	-0,093
-704,831	-200,000	0,037	0,184
-703,816	800,000	0,017	-0,051
-702,802	108,233	-0,112	0,099
-701,787	-20,610	-0,089	-0,040
-700,772	776,138	-0,076	-0,154
-699,758	-200,000	0,002	-0,071
-698,743	-103,508	0,050	-0,009
-697,729	-196,883	-0,110	-0,001
-696,714	800,000	-0,064	0,156
-695,699	-200,000	0,030	-0,121
-694,685	171,835	0,057	-0,060
-693,670	72,467	-0,062	-0,048
-692,656	102,231	0,115	-0,099
-691,641	800,000	0,050	-0,125
-690,627	37,283	0,146	-0,095
-689,612	320,815	-0,066	0,093
-688,597	206,723	0,025	0,029
-687,583	-77,810	-0,082	-0,021
-686,568	-25,144	0,178	0,077
-685,554	576,060	0,030	-0,053
-684,539	-200,000	0,022	-0,076
-683,524	394,280	0,033	-0,050
-682,510	27,970	0,085	-0,053
-681,495	-200,000	0,006	-0,075
-680,481	-200,000	-0,018	-0,110
-679,466	-17,728	-0,146	-0,067
-678,451	800,000	-0,058	0,150
-677,437	44,924	0,112	-0,076
-676,422	-23,444	0,025	-0,011
-675,408	459,577	-0,037	0,061
-674,393	-200,000	-0,003	-0,082
-673,378	-200,000	0,025	-0,185
-672,364	-200,000	0,001	-0,169
-671,349	-24,891	-0,183	0,080
-670,335	800,000	0,029	0,088
-669,320	493,012	-0,049	-0,083
-668,305	118,347	0,094	0,085
-667,291	800,000	0,019	-0,044
-666,276	14,666	-0,138	-0,079
-665,262	-64,595	-0,085	-0,025
-664,247	386,575	0,053	0,081
-663,232	-63,884	0,050	0,015
-662,218	-85,986	0,040	-0,009
-661,203	-131,661	-0,125	-0,012
-660,189	167,679	-0,088	0,092
-659,174	312,911	-0,059	-0,081
-658,159	-55,040	-0,008	0,003
-657,145	-200,000	0,008	-0,119
-656,130	-170,979	-0,045	0,001
-655,116	800,000	0,008	0,020
-654,101	-200,000	-0,040	0,133
-653,086	98,181	-0,083	0,070
-652,072	-164,672	-0,103	0,003
-651,057	-200,000	0,016	-0,089
-650,043	573,987	-0,035	-0,063
-649,028	634,471	0,057	-0,107
-648,014	-10,942	-0,119	0,058
-646,999	-200,000	0,042	0,148
-645,984	-85,327	-0,033	-0,007
-644,970	217,481	-0,082	-0,097
-643,955	-137,470	0,056	-0,005
-642,941	-112,029	0,083	0,012
-641,926	-200,000	-0,010	-0,067
-640,911	49,991	0,122	0,084
-639,897	35,291	-0,094	0,060
-638,882	275,482	-0,045	0,058
-637,868	-200,000	-0,001	-0,090
-636,853	800,000	-0,031	-0,082
-635,838	-87,922	-0,142	-0,031
-634,824	200,381	-0,106	0,120
-633,809	86,281	0,054	0,044
-632,795	479,002	0,034	0,057
-631,780	-200,000	0,011	0,077
-630,765	-200,000	0,006	-0,136
-629,751	800,000	-0,034	-0,094
-628,736	800,000	0,062	-0,143
-627,722	159,584	0,089	-0,091
-626,707	796,516	-0,023	0,046
-625,692	800,000	-0,023	0,065
-624,678	379,722	0,052	0,078
-623,663	-200,000	0,009	0,146
-622,649	-137,564	-0,228	0,019
-621,634	-200,000	0,009	0,109
-620,619	800,000	-0,038	-0,097
-619,605	-36,950	0,150	0,059
-618,590	102,200	-0,030	-0,026
-617,576	-20,403	0,085	0,038
-616,561	-80,479	-0,037	0,009
-615,546	22,803	-0,120	-0,072
-614,532	-200,000	-0,037	-0,159
-613,517	328,774	0,105	-0,148
-612,503	-25,604	-0,117	0,050
-611,488	800,000	-0,029	-0,074
-610,474	8,517	0,081	0,045
-609,459	133,251	-0,062	0,059
-608,444	180,848	-0,079	-0,086
-607,430	-3,147	-0,079	0,041
-606,415	-200,000	0,005	-0,030
-605,401	623,078	0,051	-0,094
-604,386	-134,860	-0,048	0,004
-603,371	-200,000	-0,002	-0,024
-602,357	-116,944	-0,050	-0,007
-601,342	150,835	-0,014	0,014
-600,328	-103,923	0,056	-0,009
-599,313	61,958	-0,083	0,061
-598,298	-122,008	-0,105	0,013
-597,284	-2,509	-0,088	0,045
-596,269	800,000	0,024	-0,068
-595,255	-200,000	-0,004	-0,159
-594,240	800,000	-0,003	-0,006
-593,225	494,344	-0,011	0,019
-592,211	-182,121	-0,135	-0,002
-591,196	-67,606	-0,120	0,034
-590,182	800,000	-0,017	-0,040
-589,167	-111,677	0,069	-0,010
-588,152	-54,213	0,104	-0,035
-587,138	299,967	0,031	-0,043
-586,123	-200,000	0,011	-0,082
-585,109	-200,000	0,014	-0,123
-584,094	-155,781	0,060	-0,003
-583,079	-107,774	0,078	-0,012
-582,065	800,000	0,087	0,210
-581,050	-200,000	0,006	-0,069
-580,036	156,844	0,057	-0,058
-579,021	-68,908	-0,064	0,018
-578,006	241,671	-0,099	0,121
-576,992	-200,000	0,013	-0,178
-575,977	83,421	-0,067	-0,053
-574,963	800,000	-0,017	-0,037
-573,948	-122,649	-0,047	0,006
-572,934	350,337	0,094	0,137
-571,919	37,804	-0,086	-0,056
-570,904	-32,187	0,095	-0,039
-569,890	360,494	0,111	-0,163
-568,875	-200,000	0,019	-0,110
-567,861	-200,000	0,017	-0,124
-566,846	-200,000	0,002	-0,049
-565,831	525,249	-0,013	0,023
-564,817	11,103	-0,176	-0,098
-563,802	323,596	0,012	-0,017
-562,788	-135,130	-0,023	-0,002
-561,773	26,828	-0,139	-0,085
-560,758	-114,507	-0,077	-0,011
-559,744	156,014	0,078	0,079
-558,729	-53,308	-0,126	0,042
-557,715	15,081	-0,068	-0,039
-556,700	181,455	-0,026	0,028
-555,685	56,930	-0,080	-0,057
-554,671	0,214	-0,084	-0,043
-553,656	-200,000	0,011	0,103
-552,642	-200,000	0,022	0,155
-551,627	-142,574	-0,126	-0,009
-550,612	-116,130	-0,080	0,011
-549,598	-200,000	-0,004	0,065
-548,583	800,000	-0,032	-0,094
-547,569	-88,648	0,170	-0,037
-546,554	-0,691	0,083	-0,043
-545,539	361,424	-0,123	0,181
-544,525	213,228	0,071	0,083
-543,510	800,000	-0,012	-0,032
-542,496	97,323	-0,205	-0,172
-541,481	-200,000	0,017	-0,089
-540,466	800,000	-0,015	-0,046
-539,452	608,801	0,038	0,069
-538,437	-200,000	0,013	0,113
-537,423	246,531	0,074	-0,091
-536,408	95,542	0,019	0,016
-535,393	-200,000	-0,010	0,100
-534,379	-41,494	0,106	-0,040
-533,364	18,459	0,037	-0,022
-532,350	153,249	-0,038	0,038
-531,335	693,995	0,036	0,069
-530,321	-114,672	-0,088	0,012
-529,306	-200,000	0,001	-0,106
-528,291	-200,000	0,002	-0,136
-527,277	253,951	-0,053	-0,066
-526,262	261,424	0,046	0,059
-525,248	800,000	0,007	0,020
-524,233	571,803	0,082	0,148
-523,218	-200,000	0,009	0,045
-522,204	-66,789	0,079	0,023
-521,189	115,126	0,059	0,052
-520,175	404,749	-0,106	-0,164
-519,160	-174,084	0,019	-0,000
-518,145	158,918	0,073	0,075
-517,131	374,663	-0,031	-0,046
-516,116	-61,766	-0,019	0,006
-515,102	607,987	-0,041	0,076
-514,087	-14,219	0,023	0,011
-513,072	298,479	-0,062	-0,084
-512,058	85,135	0,106	0,085
-511,043	800,000	0,026	-0,060
-510,029	120,356	-0,027	0,025
-509,014	308,853	0,018	-0,024
-507,999	489,357	0,066	0,111
-506,985	800,000	-0,033	-0,105
-505,970	-200,000	-0,011	-0,085
-504,956	800,000	-0,030	-0,065
-503,941	-200,000	0,006	-0,072
-502,926	45,270	0,062	0,042
-501,912	158,040	0,028	0,028
-500,897	706,912	0,016	-0,031
-499,883	-200,000	-0,010	-0,067
-498,868	52,749	-0,086	-0,060
-497,853	163,759	-0,057	-0,058
-496,839	800,000	0,048	-0,140
-495,824	-66,293	-0,139	0,040
-494,810	254,941	-0,080	-0,100
-493,795	16,461	0,044	0,025
-492,781	344,532	-0,031	-0,044
-491,766	2,899	-0,068	-0,036
-490,751	427,245	0,061	-0,096
-489,737	-61,401	-0,068	-0,021
-488,722	-81,582	-0,061	0,014
-487,708	42,207	0,090	0,060
-486,693	-110,560	-0,156	0,023
-485,678	800,000	0,020	0,063
-484,664	800,000	0,058	-0,124
-483,649	-200,000	0,001	-0,059
-482,635	800,000	-0,029	-0,086
-481,620	-150,997	0,129	-0,007
-480,605	148,786	-0,034	-0,034
-479,591	-200,000	0,006	0,159
-478,576	130,309	0,030	0,029
-477,562	234,015	0,042	-0,050
-476,547	554,423	-0,047	0,082
-475,532	-52,120	0,268	-0,090
-474,518	-2,082	0,121	0,062
-473,503	65,257	0,060	0,044
-472,489	-14,526	0,060	0,028
-471,474	-200,000	0,037	0,121
-470,459	-17,853	0,064	0,029
-469,445	237,877	0,026	-0,032
-468,430	-200,000	0,000	0,028
-467,416	61,328	-0,013	-0,009
-466,401	-167,970	0,047	0,001
-465,386	577,598	0,020	0,036
-464,372	-200,000	0,002	-0,044
-463,357	-200,000	-0,005	0,051
-462,343	800,000	0,019	0,043
-461,328	87,113	0,006	0,005
-460,313	-98,259	0,015	0,003
-459,299	361,040	0,068	-0,100
-458,284	302,912	0,048	0,065
-457,270	72,710	0,024	-0,018
-456,255	9,022	0,119	-0,065
-455,241	-103,122	-0,110	-0,019
-454,226	-90,098	-0,009	0,002
-453,211	-55,842	0,118	0,038
-452,197	-200,000	0,017	0,073
-451,182	-11,679	-0,021	-0,010
-450,168	32,390	-0,052	0,032
-449,153	800,000	-0,024	-0,073
-448,138	156,642	-0,062	0,062
-447,124	36,819	-0,060	-0,038
-446,109	-200,000	-0,002	0,018
-445,095	-200,000	-0,006	-0,055
-444,080	168,715	-0,071	0,074
-443,065	-117,331	0,105	0,014
-442,051	157,098	0,016	-0,016
-441,036	136,965	0,124	-0,118
-440,022	-200,000	-0,020	0,104
-439,007	-72,322	0,091	-0,024
-437,992	800,000	0,017	0,050
-436,978	314,024	0,114	-0,157
-435,963	-200,000	-0,013	0,117
-434,949	-200,000	-0,004	-0,146
-433,934	-200,000	-0,025	-0,142
-432,919	513,617	-0,026	0,044
-431,905	-35,394	0,161	0,064
-430,890	87,153	-0,038	0,030
-429,876	537,530	0,050	-0,086
-428,861	-65,262	0,137	0,040
-427,846	-80,512	-0,144	0,035
-426,832	32,742	-0,096	-0,060
-425,817	304,343	0,012	-0,017
-424,803	-123,575	0,182	-0,021
-423,788	71,118	0,118	0,089
-422,773	-200,000	-0,010	0,072
-421,759	23,932	0,039	0,023
-420,744	-200,000	0,005	-0,110
-419,730	-77,014	-0,072	-0,018
-418,715	800,000	0,020	-0,058
-417,701	67,083	-0,071	0,053
-416,686	-85,443	0,068	0,015
-415,671	800,000	-0,050	-0,131
-414,657	105,822	-0,034	0,029
-413,642	800,000	-0,078	0,169
-412,628	63,008	-0,127	-0,092
-411,613	-77,404	0,141	0,035
-410,598	-96,384	-0,096	0,018
-409,584	212,496	0,116	0,134
-408,569	-112,797	-0,110	0,016
-407,555	183,098	-0,012	-0,012
-406,540	234,151	-0,082	0,099
-405,525	800,000	0,017	0,052
-404,511	282,640	0,065	-0,085
-403,496	220,123	0,033	0,038
-402,482	191,120	0,020	0,022
-401,467	-88,449	-0,058	-0,012
-400,452	800,000	-0,046	0,093
-399,438	-18,869	0,077	-0,035
-398,423	638,202	-0,037	0,069
-397,409	-142,753	-0,051	0,004
-396,394	-200,000	-0,012	0,077
-395,379	800,000	0,070	0,155
-394,365	-49,775	0,119	0,041
-393,350	360,194	-0,055	-0,080
-392,336	-186,762	-0,096	-0,001
-391,321	261,999	-0,064	-0,081
-390,306	-102,933	-0,083	-0,014
-389,292	-200,000	-0,012	-0,045
-388,277	251,816	-0,004	0,005
-387,263	-26,234	0,108	0,046
-386,248	196,528	0,053	0,058
-385,233	-85,250	0,086	0,019
-384,219	240,287	0,120	-0,145
-383,204	45,473	-0,061	0,041
-382,190	800,000	0,037	-0,084
-381,175	12,409	0,132	-0,074
-380,160	150,786	-0,095	0,094
-379,146	506,766	-0,029	0,049
-378,131	-72,152	0,085	-0,023
-377,117	800,000	0,046	0,099
-376,102	800,000	-0,042	0,087
-375,088	9,059	-0,053	-0,029
-374,073	-200,000	0,041	-0,134
-373,058	54,487	0,077	0,054
-372,044	-200,000	0,016	0,116
-371,029	48,218	-0,063	-0,043
-370,015	800,000	-0,075	0,181
-369,000	210,300	-0,071	0,081
-367,985	243,792	-0,091	0,111
-366,971	-137,399	0,120	0,010
-365,956	-200,000	0,030	0,253
-364,942	34,530	0,083	0,053
-363,927	39,442	-0,016	0,010
-362,912	-154,548	0,044	0,002
-361,898	384,606	0,033	0,049
-360,883	-82,748	-0,067	-0,016
-359,869	545,681	-0,031	0,054
-358,854	-200,000	0,021	0,146
-357,839	9,164	-0,075	0,041
-356,825	123,007	0,075	0,068
-355,810	-200,000	-0,020	-0,160
-354,796	-116,510	-0,112	0,015
-353,781	-149,905	-0,091	0,005
-352,766	-200,000	0,000	0,115
-351,752	86,794	0,100	-0,080
-350,737	171,136	-0,077	0,080
-349,723	-61,391	0,157	0,048
-348,708	449,829	-0,146	0,235
-347,693	773,632	-0,038	-0,075
-346,679	10,379	-0,047	0,026
-345,664	800,000	0,017	0,040
-344,650	800,000	0,056	0,146
-343,635	-25,085	-0,165	0,071
-342,620	415,837	0,056	0,087
-341,606	800,000	0,048	0,110
-340,591	-35,037	0,026	-0,010
-339,577	433,958	-0,081	-0,128
-338,562	75,936	0,080	-0,062
-337,548	800,000	0,056	0,127
-336,533	-200,000	0,030	0,108
-335,518	-200,000	0,038	0,147
-334,504	800,000	0,043	0,099
-333,489	-130,702	-0,121	-0,012
-332,475	-97,942	0,040	-0,007
-331,460	84,559	-0,043	-0,034
-330,445	800,000	0,039	0,116
-329,431	114,107	0,045	0,040
-328,416	-87,764	0,128	0,028
-327,402	11,226	0,041	0,023
-326,387	-181,899	-0,046	-0,001
-325,372	304,532	-0,039	0,053
-324,358	-200,000	0,030	-0,175
-323,343	154,339	-0,057	-0,057
-322,329	-175,924	0,107	-0,002
-321,314	247,388	0,046	0,057
-320,299	33,421	-0,134	0,084
-319,285	-32,996	-0,002	0,001
-318,270	-200,000	0,006	0,023
-317,256	-143,931	0,106	0,007
-316,241	-99,480	0,043	0,008
-315,226	-2,894	-0,095	-0,048
-314,212	-16,717	0,094	0,043
-313,197	-3,698	-0,088	0,044
-312,183	729,644	-0,036	-0,070
-311,168	629,522	-0,058	-0,108
-310,153	657,643	0,032	0,060
-309,139	-93,815	-0,060	0,012
-308,124	-59,909	-0,128	-0,039
-307,110	-200,000	0,006	-0,096
-306,095	706,571	0,049	-0,093
-305,080	-171,502	0,040	-0,001
-304,066	-24,868	0,057	-0,024
-303,051	-116,268	-0,155	0,021
-302,037	800,000	-0,040	-0,085
-301,022	-31,827	0,060	-0,024
-300,008	-54,820	-0,058	0,019
-298,993	129,502	0,113	0,104
-297,978	-52,452	0,078	0,026
-296,964	-61,271	0,152	-0,046
-295,949	-74,445	-0,119	-0,031
-294,935	-63,135	-0,078	-0,023
-293,920	-200,000	0,025	0,142
-292,905	800,000	0,029	-0,075
-291,891	800,000	0,049	0,150
-290,876	-200,000	0,003	-0,078
-289,862	-200,000	-0,005	0,033
-288,847	168,661	-0,002	0,003
-287,832	800,000	-0,011	-0,027
-286,818	88,034	-0,077	-0,062
-285,803	2,843	0,082	0,043
-284,789	48,243	0,063	-0,043
-283,774	-5,388	-0,042	0,021
-282,759	-200,000	0,004	0,081
-281,745	108,496	-0,045	0,039
-280,730	-200,000	0,009	0,100
-279,716	-200,000	-0,000	-0,098
-278,701	342,569	-0,059	-0,085
-277,686	202,842	0,042	-0,047
-276,672	169,575	-0,062	0,065
-275,657	318,871	-0,004	0,006
-274,643	-200,000	0,028	0,146
-273,628	5,820	-0,152	0,081
-272,613	-200,000	0,007	-0,062
-271,599	-115,151	0,146	-0,020
-270,584	46,418	0,066	0,045
-269,570	-137,763	0,060	0,005
-268,555	-44,600	0,050	-0,018
-267,540	-200,000	0,018	-0,129
-266,526	-163,778	-0,179	0,006
-265,511	-116,994	0,086	-0,011
-264,497	-200,000	0,011	-0,067
-263,482	800,000	0,006	-0,020
-262,467	-44,756	-0,029	0,010
-261,453	-14,064	0,044	-0,020
-260,438	339,171	-0,026	-0,037
-259,424	800,000	-0,026	0,061
-258,409	346,727	-0,091	-0,130
-257,395	-86,866	-0,022	-0,005
-256,380	-108,495	0,086	-0,013
-255,365	-200,000	0,039	-0,128
-254,351	-90,002	0,098	0,020
-253,336	-170,896	-0,164	-0,004
-252,322	800,000	-0,060	-0,121
-251,307	-200,000	-0,016	-0,092
-250,292	-126,380	0,132	-0,014
-249,278	-13,548	-0,109	-0,051
-248,263	-2,240	0,068	0,035
-247,249	-136,689	-0,034	0,003
-246,234	372,178	0,026	0,038
-245,219	407,132	-0,035	-0,053
-244,205	-200,000	0,003	0,054
-243,190	-200,000	0,010	0,078
-242,176	-200,000	-0,016	0,063
-241,161	-140,275	0,131	0,010
-240,146	-200,000	-0,016	0,105
-239,132	103,890	-0,118	0,100
-238,117	170,771	0,038	-0,040
-237,103	-93,268	-0,183	0,037
-236,088	800,000	-0,034	0,076
-235,073	800,000	-0,008	-0,023
-234,059	-118,195	0,089	0,011
-233,044	-101,726	-0,044	0,008
-232,030	-39,578	0,059	0,022
-231,015	159,912	-0,008	0,009
-230,000	-200,000	-0,007	-0,183
-228,986	281,464	0,087	0,113
-227,971	270,050	-0,038	-0,048
-226,957	538,765	0,078	0,135
-225,942	113,883	-0,055	-0,048
-224,927	31,904	-0,085	-0,053
-223,913	-200,000	-0,022	0,096
-222,898	436,105	-0,116	-0,184
-221,884	800,000	0,037	-0,097
-220,869	40,478	-0,070	0,045
-219,855	20,383	0,082	-0,048
-218,840	800,000	-0,020	-0,060
-217,825	189,760	0,076	0,083
-216,811	91,799	-0,089	-0,072
-215,796	-5,734	-0,100	0,049
-214,782	-200,000	-0,020	-0,135
-213,767	21,277	0,048	0,028
-212,752	800,000	-0,051	0,105
-211,738	-200,000	0,015	0,061
-210,723	380,939	-0,023	0,034
-209,709	-112,376	-0,199	-0,028
-208,694	150,696	0,063	0,062
-207,679	-117,483	-0,162	-0,021
-206,665	-44,206	-0,086	0,031
-205,650	124,656	-0,014	-0,013
-204,636	65,251	0,038	0,027
-203,621	-200,000	-0,003	0,023
-202,606	89,021	0,014	0,012
-201,592	275,362	0,007	0,009
-200,577	36,957	-0,112	0,072
-199,563	-153,300	0,117	-0,006
-198,548	-105,395	0,113	-0,018
-197,533	134,049	-0,033	-0,031
-196,519	76,859	-0,011	-0,008
-195,504	24,901	0,055	-0,033
-194,490	800,000	-0,028	-0,057
-193,475	353,451	-0,138	-0,198
-192,460	-67,740	0,061	0,017
-191,446	650,363	0,033	0,062
-190,431	115,950	0,061	-0,054
-189,417	394,180	-0,079	0,119
-188,402	-200,000	0,011	-0,042
-187,387	129,882	-0,038	-0,035
-186,373	-200,000	-0,011	-0,155
-185,358	-200,000	-0,010	0,130
-184,344	130,198	0,117	-0,108
-183,329	76,779	0,042	0,032
-182,315	613,680	0,059	-0,107
-181,300	-200,000	0,002	-0,098
-180,285	353,728	0,095	-0,137
-179,271	-200,000	-0,005	0,053
-178,256	-200,000	0,132	0,000
-177,242	-200,000	-0,024	0,085
-176,227	-19,993	0,047	0,021
-175,212	-10,304	0,125	0,060
-174,198	-200,000	0,018	-0,119
-173,183	-67,932	-0,188	-0,053
-172,169	221,798	-0,034	0,039
-171,154	-200,000	-0,008	-0,134
-170,139	-26,853	-0,026	0,011
-169,125	25,830	-0,073	0,044
-168,110	-132,436	0,107	-0,010
-167,096	-200,000	0,014	0,094
-166,081	800,000	0,059	-0,141
-165,066	800,000	0,037	-0,083
-164,052	-200,000	-0,011	0,062
-163,037	-200,000	-0,035	0,135
-162,023	43,855	-0,032	0,021
-161,008	-109,235	0,159	-0,024
-159,993	800,000	-0,067	-0,166
-158,979	-47,561	0,120	-0,042
-157,964	-113,896	-0,039	0,005
-156,950	800,000	-0,013	0,037
-155,935	681,535	0,107	-0,201
-154,920	310,633	0,077	0,105
-153,906	171,552	-0,100	0,104
-152,891	-27,471	0,039	-0,016
-151,877	248,959	-0,100	-0,123
-150,862	164,117	0,100	-0,102
-149,847	-143,870	-0,180	-0,012
-148,833	-200,000	0,012	-0,117
-147,818	104,731	0,030	0,025
-146,804	-200,000	0,025	0,110
-145,789	-200,000	0,021	-0,101
-144,775	551,437	-0,031	-0,054
-143,760	32,942	0,116	0,072
-142,745	300,436	-0,087	0,115
-141,731	120,646	-0,112	0,101
-140,716	-167,023	0,117	0,003
-139,702	1,160	0,083	0,043
-138,687	-79,734	0,109	0,026
-137,672	-76,018	0,024	0,006
-136,658	586,195	-0,051	-0,091
-135,643	-200,000	-0,028	-0,171
-134,629	-200,000	-0,048	-0,180
-133,614	10,200	0,063	-0,034
-132,599	61,279	0,113	0,081
-131,585	-153,310	-0,110	0,005
-130,570	-200,000	0,005	-0,032
-129,556	800,000	-0,051	0,106
-128,541	211,110	0,056	-0,063
-127,526	209,694	-0,090	0,102
-126,512	-17,832	0,131	0,059
-125,497	122,722	0,106	0,096
-124,483	800,000	0,057	0,160
-123,468	-200,000	-0,001	0,016
-122,453	544,290	-0,046	-0,079
-121,439	800,000	-0,035	-0,093
-120,424	15,419	0,080	-0,045
-119,410	-154,717	0,097	0,005
-118,395	-140,023	0,145	0,011
