DTS Sentinel unit serial number:	SN410029Multiplexer serial number:	ORYXHardware model number:	OX2-SRSoftware version number:	ORYX F/W v4,00 Oryx Data Collector v3.7.2.0data status	okinstallation	B5 Nyhavnadifferential loss correction	single-endedforward channel	channel 2reverse channel	N/Adate	2023/12/13time	05:22:13forward acquisition time	300,00reverse acquisition time	0,00gamma	499,1914k internal	0,3160k external	0,3160temperature offset calibration	1,0000default loss term (dB/km)	0,3820temperature slope calibration	1,0000multiplexer offset coefficient	1,0000multiplexer slope coefficient	1,0000fibre end	0,00T internal ref (°C)	13,87T ext. ref 1 (°C)	-2,57T ext. ref 2 (°C)	-2,89length (m)	temperature (°C)	Stokes	anti-Stokes-744,400	105,656	0,024	0,021
-743,385	-65,440	-0,356	-0,105
-742,371	474,606	0,081	0,135
-741,356	-166,059	-0,234	0,007
-740,342	-98,660	0,120	-0,022
-739,327	56,612	-0,160	0,114
-738,312	69,317	0,149	0,113
-737,298	-12,870	-0,335	-0,160
-736,283	33,319	0,098	0,062
-735,269	-104,900	-0,254	0,043
-734,254	-126,822	0,132	0,014
-733,239	-6,905	-0,436	-0,217
-732,225	-130,971	0,190	0,018
-731,210	325,221	-0,079	0,111
-730,196	-200,000	-0,005	-0,100
-729,181	673,932	-0,030	0,057
-728,167	325,407	0,038	-0,053
-727,152	65,611	-0,036	-0,027
-726,137	-200,000	-0,014	-0,076
-725,123	652,403	-0,017	0,032
-724,108	259,164	0,040	0,051
-723,094	102,988	-0,061	-0,053
-722,079	614,405	0,038	-0,070
-721,064	429,024	-0,054	-0,087
-720,050	131,446	0,040	-0,038
-719,035	800,000	0,036	-0,103
-718,021	110,563	0,114	-0,101
-717,006	487,413	-0,039	-0,066
-715,991	800,000	-0,066	-0,156
-714,977	-200,000	-0,017	-0,122
-713,962	296,023	0,028	0,038
-712,948	800,000	0,018	0,054
-711,933	341,687	0,053	0,076
-710,918	192,351	0,041	0,045
-709,904	-23,607	-0,103	-0,045
-708,889	-47,186	0,038	0,013
-707,875	-100,541	-0,180	0,032
-706,860	110,052	0,060	0,053
-705,845	585,659	0,028	-0,051
-704,831	800,000	-0,015	0,045
-703,816	-30,623	-0,094	0,039
-702,802	-87,631	-0,044	0,010
-701,787	-200,000	-0,025	-0,195
-700,772	733,492	-0,032	-0,064
-699,758	-54,342	0,042	0,014
-698,743	-24,437	0,093	0,041
-697,729	259,415	0,089	0,113
-696,714	800,000	0,068	0,144
-695,699	-200,000	0,010	-0,049
-694,685	72,456	0,077	0,059
-693,670	757,409	-0,038	0,075
-692,656	-11,513	0,018	0,009
-691,641	30,088	-0,150	-0,094
-690,627	-99,318	-0,030	-0,006
-689,612	420,411	0,045	0,071
-688,597	-89,863	0,085	-0,018
-687,583	-55,608	-0,024	-0,008
-686,568	-67,638	-0,078	-0,022
-685,554	-200,000	0,015	-0,104
-684,539	800,000	0,043	0,098
-683,524	-161,347	-0,109	-0,004
-682,510	-200,000	-0,016	0,072
-681,495	-200,000	0,016	-0,102
-680,481	800,000	-0,039	-0,106
-679,466	-200,000	0,003	0,054
-678,451	120,437	-0,087	-0,079
-677,437	118,584	0,015	0,014
-676,422	175,005	0,019	0,020
-675,408	-200,000	0,017	-0,066
-674,393	624,658	-0,042	-0,079
-673,378	-24,052	0,022	0,010
-672,364	800,000	-0,047	-0,113
-671,349	-200,000	0,002	0,062
-670,335	-154,159	-0,099	0,005
-669,320	-200,000	0,017	-0,059
-668,305	334,373	-0,021	0,030
-667,291	220,224	0,063	0,075
-666,276	-200,000	-0,004	-0,073
-665,262	324,361	-0,125	-0,176
-664,247	401,317	-0,075	-0,116
-663,232	81,951	0,123	-0,097
-662,218	-53,810	0,049	-0,016
-661,203	-200,000	-0,006	0,055
-660,189	-151,109	-0,120	-0,007
-659,174	-200,000	0,041	-0,167
-658,159	-200,000	-0,001	-0,240
-657,145	800,000	-0,022	-0,048
-656,130	-51,180	0,172	-0,059
-655,116	370,143	-0,055	0,082
-654,101	800,000	0,032	-0,072
-653,086	-28,785	-0,097	-0,041
-652,072	800,000	0,043	-0,124
-651,057	470,674	0,092	-0,153
-650,043	-169,573	-0,072	-0,002
-649,028	-60,386	-0,121	0,037
-648,014	8,935	-0,095	0,052
-646,999	-85,314	-0,059	0,013
-645,984	800,000	0,094	0,232
-644,970	219,316	-0,048	0,057
-643,955	-122,951	0,055	-0,006
-642,941	-122,220	-0,032	-0,004
-641,926	-117,629	-0,032	0,004
-640,911	18,825	-0,056	0,033
-639,897	-200,000	-0,013	0,136
-638,882	-6,942	-0,043	-0,021
-637,868	3,385	0,019	-0,010
-636,853	-2,957	-0,094	-0,048
-635,838	85,705	-0,101	-0,082
-634,824	-131,863	-0,049	-0,005
-633,809	32,585	-0,023	0,015
-632,795	499,815	0,041	0,070
-631,780	120,666	0,068	0,062
-630,765	6,869	0,021	0,012
-629,751	-200,000	-0,001	-0,197
-628,736	789,055	-0,037	-0,074
-627,722	271,091	0,054	0,070
-626,707	300,909	-0,066	0,089
-625,692	-178,747	0,095	-0,002
-624,678	-200,000	-0,006	-0,118
-623,663	800,000	-0,029	-0,061
-622,649	783,158	-0,090	-0,181
-621,634	800,000	-0,025	-0,069
-620,619	171,548	-0,070	0,074
-619,605	126,009	0,060	0,056
-618,590	91,744	0,047	-0,039
-617,576	-200,000	-0,006	0,053
-616,561	-200,000	-0,009	0,063
-615,546	-109,977	-0,039	-0,006
-614,532	-200,000	0,022	-0,117
-613,517	-13,404	0,121	0,057
-612,503	800,000	-0,037	-0,118
-611,488	-16,580	-0,082	-0,038
-610,474	-29,449	0,077	0,032
-609,459	317,739	-0,068	-0,094
-608,444	67,941	-0,043	-0,033
-607,430	800,000	0,058	-0,122
-606,415	-178,310	-0,094	-0,002
-605,401	-200,000	0,023	-0,103
-604,386	315,476	0,095	-0,132
-603,371	-55,183	-0,065	0,021
-602,357	451,316	-0,028	-0,045
-601,342	143,488	0,059	-0,058
-600,328	800,000	-0,059	-0,179
-599,313	68,380	0,025	-0,019
-598,298	-200,000	0,006	-0,041
-597,284	-200,000	-0,010	0,119
-596,269	-90,406	0,038	-0,008
-595,255	-79,551	0,065	-0,016
-594,240	-165,893	-0,104	-0,003
-593,225	-155,070	0,058	-0,003
-592,211	-103,160	-0,061	-0,011
-591,196	32,187	-0,044	0,028
-590,182	-37,725	-0,095	0,037
-589,167	-200,000	0,025	0,116
-588,152	63,624	0,099	-0,073
-587,138	-112,845	-0,122	0,018
-586,123	-200,000	-0,022	-0,085
-585,109	-42,421	0,059	0,022
-584,094	-109,458	-0,075	-0,012
-583,079	143,826	0,118	0,115
-582,065	-200,000	0,031	-0,152
-581,050	-29,376	0,045	-0,019
-580,036	18,965	-0,117	0,068
-579,021	110,835	-0,079	0,069
-578,006	-61,399	0,025	0,008
-576,992	-63,809	-0,133	0,040
-575,977	-200,000	-0,030	-0,161
-574,963	-200,000	-0,008	0,102
-573,948	-200,000	-0,004	-0,024
-572,934	800,000	-0,003	-0,008
-571,919	-58,286	0,031	-0,010
-570,904	-200,000	-0,003	-0,090
-569,890	-85,277	0,034	-0,008
-568,875	-142,830	0,055	0,004
-567,861	800,000	0,035	0,097
-566,846	-200,000	0,005	0,039
-565,831	346,492	0,017	0,025
-564,817	-200,000	0,049	-0,186
-563,802	-38,951	-0,102	-0,039
-562,788	-43,843	-0,072	-0,026
-561,773	-20,888	-0,092	0,041
-560,758	-200,000	-0,003	-0,031
-559,744	250,026	-0,134	0,166
-558,729	193,052	0,030	-0,033
-557,715	69,758	-0,070	-0,052
-556,700	-200,000	0,033	-0,129
-555,685	-66,432	-0,056	-0,016
-554,671	-200,000	0,001	-0,060
-553,656	-175,405	0,108	-0,002
-552,642	-127,517	0,101	-0,011
-551,627	-30,200	-0,045	-0,019
-550,612	800,000	-0,012	0,027
-549,598	-125,338	-0,143	0,016
-548,583	-200,000	-0,015	0,130
-547,569	-200,000	-0,005	0,046
-546,554	-75,971	0,048	-0,012
-545,539	500,361	0,043	0,072
-544,525	31,931	0,112	-0,070
-543,510	-200,000	-0,049	-0,168
-542,496	800,000	-0,055	-0,149
-541,481	-71,189	-0,089	-0,024
-540,466	-200,000	-0,009	-0,082
-539,452	800,000	-0,029	0,081
-538,437	146,875	0,027	-0,026
-537,423	434,708	-0,059	0,094
-536,408	-87,744	-0,080	-0,017
-535,393	140,523	-0,097	0,094
-534,379	335,805	-0,014	0,020
-533,364	-185,524	-0,115	-0,001
-532,350	-146,400	0,096	0,006
-531,335	-69,750	-0,048	-0,013
-530,321	-200,000	-0,002	0,027
-529,306	-200,000	0,013	-0,118
-528,291	800,000	0,044	0,109
-527,277	-7,094	0,102	0,051
-526,262	-91,966	0,035	-0,007
-525,248	440,086	-0,070	0,112
-524,233	468,488	0,039	0,065
-523,218	800,000	-0,020	-0,041
-522,204	-200,000	-0,021	-0,079
-521,189	199,959	0,080	-0,090
-520,175	800,000	0,039	-0,083
-519,160	67,968	0,070	-0,052
-518,145	-200,000	-0,021	0,126
-517,131	140,236	0,095	-0,091
-516,116	800,000	0,023	0,056
-515,102	168,739	0,078	-0,082
-514,087	-200,000	-0,012	-0,059
-513,072	160,654	-0,048	-0,049
-512,058	-102,511	-0,088	-0,015
-511,043	-46,716	0,117	-0,042
-510,029	-200,000	0,004	-0,030
-509,014	146,266	-0,084	0,082
-507,999	-22,242	0,027	0,012
-506,985	635,052	-0,040	-0,074
-505,970	-88,087	-0,026	-0,006
-504,956	532,265	0,025	-0,043
-503,941	36,970	0,092	-0,059
-502,926	-130,752	-0,017	-0,002
-501,912	36,387	-0,096	-0,062
-500,897	79,545	-0,067	0,053
-499,883	58,567	-0,041	-0,029
-498,868	19,292	0,068	-0,040
-497,853	-43,683	-0,045	0,016
-496,839	86,981	0,018	-0,015
-495,824	-28,686	-0,057	-0,024
-494,810	522,982	0,039	-0,068
-493,795	-42,199	-0,032	-0,012
-492,781	282,169	0,062	-0,081
-491,766	-92,145	-0,188	-0,038
-490,751	382,968	0,024	-0,037
-489,737	-200,000	0,002	-0,007
-488,722	-196,780	0,152	-0,001
-487,708	-60,536	-0,036	0,011
-486,693	140,101	0,077	0,074
-485,678	305,980	-0,106	-0,144
-484,664	62,879	0,159	0,116
-483,649	-200,000	0,030	-0,104
-482,635	183,280	0,053	-0,057
-481,620	-200,000	-0,003	0,078
-480,605	51,447	0,047	0,033
-479,591	-200,000	0,017	0,059
-478,576	354,286	-0,044	0,064
-477,562	247,587	-0,046	-0,057
-476,547	254,452	0,055	0,069
-475,532	-13,472	0,000	0,000
-474,518	-77,334	0,089	-0,022
-473,503	290,875	-0,058	0,077
-472,489	-200,000	0,000	0,173
-471,474	2,951	0,097	0,051
-470,459	95,513	0,045	-0,038
-469,445	-200,000	0,022	-0,127
-468,430	7,500	-0,072	0,039
-467,416	-56,301	0,061	-0,020
-466,401	-12,840	-0,099	0,047
-465,386	-48,775	0,079	-0,027
-464,372	-9,033	0,090	-0,044
-463,357	800,000	0,042	-0,112
-462,343	59,089	-0,134	-0,096
-461,328	383,653	-0,034	0,051
-460,313	715,313	-0,059	0,114
-459,299	200,530	0,065	-0,073
-458,284	-103,514	0,070	0,012
-457,270	-128,549	-0,143	-0,015
-456,255	79,549	0,051	0,040
-455,241	124,202	-0,132	-0,121
-454,226	800,000	-0,037	-0,093
-453,211	-200,000	0,044	0,147
-452,197	134,933	0,058	0,055
-451,182	-31,279	0,092	0,038
-450,168	-61,766	0,143	-0,043
-449,153	-144,671	-0,153	-0,010
-448,138	-38,672	-0,121	0,046
-447,124	-92,536	0,106	-0,021
-446,109	-30,310	-0,086	-0,036
-445,095	-30,326	0,012	0,005
-444,080	16,069	-0,120	0,069
-443,065	-77,684	0,051	0,013
-442,051	67,702	-0,080	0,060
-441,036	465,521	0,037	0,061
-440,022	103,692	0,018	-0,015
-439,007	49,051	-0,061	0,041
-437,992	53,369	0,116	0,081
-436,978	577,826	0,039	0,069
-435,963	-153,045	0,151	0,008
-434,949	195,587	0,071	0,079
-433,934	6,314	0,017	-0,009
-432,919	39,486	0,057	-0,037
-431,905	-200,000	-0,007	-0,187
-430,890	44,274	0,042	-0,028
-429,876	110,984	0,083	0,072
-428,861	-200,000	0,005	0,106
-427,846	800,000	-0,041	-0,087
-426,832	-140,754	-0,135	0,010
-425,817	-71,315	-0,174	0,047
-424,803	-132,784	0,080	-0,007
-423,788	-88,438	0,128	0,028
-422,773	800,000	0,046	-0,101
-421,759	-200,000	-0,000	0,071
-420,744	-178,914	0,016	-0,000
-419,730	-96,064	0,177	-0,034
-418,715	47,976	-0,048	0,033
-417,701	800,000	0,024	-0,062
-416,686	42,785	-0,014	0,009
-415,671	-13,363	0,069	0,033
-414,657	-152,673	0,128	-0,007
-413,642	-200,000	0,012	0,067
-412,628	10,300	-0,062	-0,034
-411,613	800,000	0,046	-0,110
-410,598	-143,495	-0,135	-0,009
-409,584	677,647	0,049	0,094
-408,569	-71,035	0,073	0,020
-407,555	159,890	-0,045	0,046
-406,540	-19,152	-0,104	-0,047
-405,525	4,299	-0,103	0,055
-404,511	-32,491	-0,103	-0,041
-403,496	800,000	-0,031	-0,097
-402,482	-200,000	-0,013	-0,052
-401,467	-200,000	-0,002	0,105
-400,452	615,529	0,097	0,177
-399,438	800,000	0,044	-0,097
-398,423	-88,372	-0,062	-0,013
-397,409	427,974	-0,049	-0,077
-396,394	-77,139	-0,120	0,030
-395,379	-200,000	0,011	0,037
-394,365	-156,948	-0,033	-0,001
-393,350	-200,000	-0,016	-0,083
-392,336	67,803	0,149	-0,111
-391,321	-200,000	-0,020	-0,118
-390,306	89,859	0,062	-0,051
-389,292	222,711	-0,031	0,037
-388,277	2,817	0,088	0,046
-387,263	196,369	0,071	0,079
-386,248	-200,000	0,013	-0,064
-385,233	171,386	0,068	0,070
-384,219	66,473	-0,134	0,099
-383,204	332,571	-0,092	-0,130
-382,190	114,951	-0,056	-0,050
-381,175	502,785	-0,027	-0,046
-380,160	396,631	0,039	0,059
-379,146	-200,000	0,005	0,051
-378,131	-200,000	0,004	0,032
-377,117	-200,000	0,007	-0,045
-376,102	35,213	-0,057	0,036
-375,088	306,296	0,051	0,069
-374,073	-110,223	-0,096	0,014
-373,058	800,000	0,019	0,046
-372,044	800,000	0,046	0,112
-371,029	-28,204	0,091	-0,038
-370,015	360,561	-0,027	-0,039
-369,000	800,000	0,017	-0,050
-367,985	-66,252	-0,084	0,024
-366,971	-63,892	-0,079	0,023
-365,956	199,736	0,057	0,064
-364,942	800,000	0,058	0,137
-363,927	-146,016	0,088	0,006
-362,912	-200,000	-0,016	-0,182
-361,898	-150,994	-0,236	0,013
-360,883	75,459	-0,030	-0,023
-359,869	-127,571	-0,036	0,004
-358,854	-18,595	0,103	0,046
-357,839	800,000	-0,042	-0,135
-356,825	800,000	-0,038	-0,084
-355,810	-88,846	-0,073	-0,015
-354,796	-200,000	0,002	-0,042
-353,781	547,129	0,027	0,047
-352,766	-183,320	-0,179	0,002
-351,752	49,828	0,100	0,068
-350,737	719,017	0,043	-0,083
-349,723	135,904	-0,092	0,087
-348,708	-147,987	-0,032	-0,002
-347,693	-35,714	0,023	-0,009
-346,679	415,261	0,026	-0,040
-345,664	539,103	-0,053	-0,092
-344,650	179,553	-0,121	0,129
-343,635	-40,810	0,025	-0,009
-342,620	-137,076	0,097	-0,008
-341,606	-41,073	0,111	-0,042
-340,591	731,481	-0,039	-0,077
-339,577	195,684	0,127	0,140
-338,562	800,000	-0,063	-0,170
-337,548	713,460	0,054	-0,103
-336,533	795,185	-0,019	-0,038
-335,518	-30,297	0,044	0,018
-334,504	800,000	0,014	0,035
-333,489	11,584	0,114	-0,063
-332,475	-55,894	-0,105	-0,034
-331,460	-37,116	-0,059	0,023
-330,445	209,160	0,087	-0,099
-329,431	-34,326	0,091	0,036
-328,416	100,195	0,110	0,092
-327,402	-200,000	0,014	-0,164
-326,387	800,000	-0,002	0,005
-325,372	-44,528	0,024	0,009
-324,358	-200,000	-0,002	0,043
-323,343	-200,000	-0,024	-0,094
-322,329	168,372	0,047	-0,048
-321,314	-200,000	0,036	0,236
-320,299	347,135	0,090	0,128
-319,285	-99,146	0,085	0,015
-318,270	389,604	-0,075	0,113
-317,256	-200,000	-0,003	-0,165
-316,241	-200,000	-0,013	0,086
-315,226	14,640	0,021	-0,012
-314,212	275,981	0,048	-0,062
-313,197	-163,986	-0,155	-0,005
-312,183	544,691	-0,034	0,059
-311,168	201,376	0,086	0,096
-310,153	113,872	-0,090	-0,079
-309,139	-200,000	-0,011	-0,059
-308,124	-200,000	-0,035	0,114
-307,110	-133,931	0,180	-0,016
-306,095	-200,000	0,004	0,016
-305,080	-61,231	0,130	0,039
-304,066	-1,650	0,088	-0,045
-303,051	-153,921	-0,123	-0,006
-302,037	-200,000	-0,025	-0,087
-301,022	-124,159	-0,100	0,011
-300,008	129,957	0,051	-0,047
-298,993	97,854	0,071	0,059
-297,978	31,602	-0,025	0,016
-296,964	81,734	0,050	-0,039
-295,949	-104,673	-0,094	0,016
-294,935	135,176	0,024	-0,023
-293,920	-27,974	-0,017	-0,007
-292,905	-200,000	0,002	0,009
-291,891	800,000	0,039	0,080
-290,876	313,741	-0,024	0,032
-289,862	-26,816	0,062	-0,026
-288,847	-115,686	-0,098	0,013
-287,832	352,780	-0,040	0,058
-286,818	174,203	0,104	0,109
-285,803	-2,578	0,053	-0,027
-284,789	68,517	0,067	0,050
-283,774	-34,868	0,015	-0,006
-282,759	56,325	-0,010	-0,007
-281,745	-200,000	0,001	0,033
-280,730	20,962	-0,187	-0,110
-279,716	-156,419	-0,077	0,003
-278,701	800,000	0,043	-0,092
-277,686	-25,552	-0,054	-0,023
-276,672	-200,000	0,013	0,090
-275,657	-200,000	0,018	-0,079
-274,643	-84,866	0,034	0,008
-273,628	425,248	0,058	-0,091
-272,613	-200,000	-0,003	-0,144
-271,599	-35,281	0,116	0,046
-270,584	113,284	-0,088	0,077
-269,570	800,000	-0,027	0,071
-268,555	35,285	0,115	0,073
-267,540	102,648	-0,048	0,040
-266,526	-200,000	-0,021	-0,176
-265,511	800,000	0,042	0,114
-264,497	-200,000	0,033	0,129
-263,482	-200,000	0,000	-0,014
-262,467	-41,916	0,052	-0,019
-261,453	580,155	-0,066	0,117
-260,438	195,244	-0,045	0,049
-259,424	345,616	-0,077	-0,109
-258,409	800,000	0,066	-0,165
-257,395	494,507	-0,032	-0,054
-256,380	-191,188	-0,170	-0,001
-255,365	564,201	0,076	0,134
-254,351	5,159	-0,024	0,013
-253,336	35,027	0,045	0,029
-252,322	18,185	-0,132	-0,076
-251,307	-200,000	-0,002	-0,079
-250,292	-200,000	-0,001	0,047
-249,278	23,047	0,092	0,055
-248,263	-200,000	-0,026	0,123
-247,249	-39,394	-0,010	0,004
-246,234	-200,000	-0,023	0,083
-245,219	-183,053	0,125	0,002
-244,205	-200,000	-0,034	0,108
-243,190	-63,336	0,169	0,050
-242,176	-34,795	0,029	0,012
-241,161	324,012	-0,091	0,126
-240,146	147,523	-0,020	0,019
-239,132	800,000	-0,033	0,069
-238,117	-200,000	0,000	0,090
-237,103	140,061	-0,085	-0,081
-236,088	40,471	-0,101	-0,065
-235,073	800,000	-0,041	-0,092
-234,059	58,523	-0,106	-0,075
-233,044	-200,000	-0,010	0,107
-232,030	-66,887	-0,024	-0,007
-231,015	-99,898	-0,116	-0,021
-230,000	748,033	-0,006	-0,013
-228,986	37,737	0,038	0,024
-227,971	69,041	0,040	0,029
-226,957	340,900	0,111	0,157
-225,942	-86,494	0,040	0,009
-224,927	14,506	-0,069	-0,039
-223,913	-143,634	-0,057	-0,004
-222,898	121,018	-0,073	0,066
-221,884	196,740	0,028	0,031
-220,869	-200,000	-0,014	-0,049
-219,855	800,000	0,041	0,089
-218,840	800,000	-0,051	0,126
-217,825	-200,000	-0,018	0,155
-216,811	12,865	-0,054	-0,030
-215,796	800,000	-0,010	-0,032
-214,782	377,207	-0,036	-0,053
-213,767	158,272	0,074	0,074
-212,752	24,992	0,118	0,070
-211,738	800,000	0,030	-0,068
-210,723	66,102	0,092	-0,068
-209,709	116,229	0,105	-0,093
-208,694	-4,163	-0,122	-0,061
-207,679	-64,187	-0,061	-0,018
-206,665	272,816	0,106	-0,135
-205,650	-200,000	-0,021	0,101
-204,636	103,295	0,053	0,045
-203,621	697,260	-0,059	0,112
-202,606	-200,000	0,003	0,048
-201,592	72,753	-0,139	-0,105
-200,577	161,619	0,056	-0,057
-199,563	800,000	-0,067	-0,162
-198,548	134,136	0,109	-0,102
-197,533	-200,000	-0,006	-0,049
-196,519	-200,000	-0,054	0,188
-195,504	-200,000	-0,002	0,112
-194,490	289,454	0,054	0,071
-193,475	107,893	-0,091	-0,078
-192,460	539,729	0,070	0,121
-191,446	395,591	0,059	0,089
-190,431	-14,990	0,052	-0,024
-189,417	800,000	0,048	0,099
-188,402	493,132	0,042	-0,070
-187,387	-95,481	-0,058	0,011
-186,373	-41,249	-0,100	-0,037
-185,358	-200,000	0,017	0,057
-184,344	375,995	0,075	0,111
-183,329	73,209	0,118	0,088
-182,315	261,775	-0,040	0,050
-181,300	689,732	0,006	-0,011
-180,285	-111,789	0,065	0,009
-179,271	14,433	-0,076	0,043
-178,256	190,244	0,070	0,076
-177,242	113,739	0,036	-0,031
-176,227	147,054	0,132	0,128
-175,212	-31,135	0,105	0,042
-174,198	-132,200	0,070	-0,006
-173,183	-55,934	-0,064	-0,020
-172,169	-200,000	-0,016	-0,120
-171,154	-200,000	0,003	-0,111
-170,139	99,401	0,028	0,024
-169,125	-60,055	0,108	0,033
-168,110	-200,000	0,002	0,176
-167,096	-118,882	-0,071	-0,009
-166,081	-167,359	-0,017	0,000
-165,066	-106,717	-0,121	-0,019
-164,052	800,000	0,006	0,019
-163,037	-200,000	-0,013	-0,054
-162,023	-200,000	-0,024	0,099
-161,008	-200,000	0,004	-0,022
-159,993	658,841	0,050	-0,094
-158,979	-200,000	-0,016	-0,054
-157,964	-126,126	-0,081	0,009
-156,950	37,151	0,117	-0,074
-155,935	-200,000	-0,007	-0,023
-154,920	-54,635	0,143	-0,046
-153,906	8,834	0,109	0,059
-152,891	800,000	-0,012	0,036
-151,877	262,090	0,015	0,019
-150,862	265,705	-0,133	-0,168
-149,847	655,902	-0,047	-0,087
-148,833	-101,940	0,120	0,021
-147,818	122,709	0,092	0,083
-146,804	-180,540	0,117	0,002
-145,789	-28,942	-0,073	0,030
-144,775	203,657	0,074	0,083
-143,760	119,808	0,038	-0,034
-142,745	-200,000	0,023	-0,169
-141,731	58,649	-0,046	-0,033
-140,716	800,000	-0,044	-0,105
-139,702	-125,787	-0,063	0,007
-138,687	-18,120	-0,054	0,024
-137,672	-125,534	0,143	-0,015
-136,658	800,000	-0,033	0,095
-135,643	38,531	0,134	0,086
-134,629	-130,085	0,071	0,007
-133,614	138,721	-0,048	0,045
-132,599	-116,632	0,065	-0,009
-131,585	66,293	-0,060	0,044
-130,570	800,000	0,018	0,054
-129,556	486,970	-0,043	-0,071
-128,541	-200,000	-0,015	-0,117
-127,526	488,927	-0,052	-0,085
-126,512	669,429	-0,059	0,111
-125,497	-200,000	0,019	0,077
-124,483	-16,176	-0,287	-0,131
-123,468	601,205	0,025	0,045
-122,453	-126,519	0,085	0,009
-121,439	800,000	0,042	0,115
-120,424	-200,000	-0,009	0,058
-119,410	-200,000	0,015	-0,092
