DTS Sentinel unit serial number:	SN410029Multiplexer serial number:	ORYXHardware model number:	OX2-SRSoftware version number:	ORYX F/W v4,00 Oryx Data Collector v3.7.2.0data status	okinstallation	B5 Nyhavnadifferential loss correction	single-endedforward channel	channel 2reverse channel	N/Adate	2023/12/14time	00:32:13forward acquisition time	300,00reverse acquisition time	0,00gamma	499,1914k internal	0,3155k external	0,3155temperature offset calibration	1,0000default loss term (dB/km)	0,3820temperature slope calibration	1,0000multiplexer offset coefficient	1,0000multiplexer slope coefficient	1,0000fibre end	0,00T internal ref (°C)	8,67T ext. ref 1 (°C)	-7,28T ext. ref 2 (°C)	-7,33length (m)	temperature (°C)	Stokes	anti-Stokes-744,400	799,915	0,049	0,101
-743,385	-57,581	-0,304	-0,098
-742,371	-13,748	0,228	0,108
-741,356	-92,701	-0,365	0,075
-740,342	506,783	0,075	0,129
-739,327	-54,239	-0,319	-0,106
-738,312	-200,000	0,012	0,070
-737,298	-97,002	-0,328	-0,063
-736,283	12,677	0,171	0,097
-735,269	-46,036	-0,445	-0,161
-734,254	-13,389	0,234	0,112
-733,239	-41,204	-0,639	-0,242
-732,225	0,799	0,299	0,158
-731,210	-175,836	0,124	0,002
-730,196	29,370	-0,090	0,056
-729,181	-200,000	-0,011	-0,194
-728,167	-164,020	-0,016	0,001
-727,152	-200,000	0,016	0,071
-726,137	22,933	0,018	-0,011
-725,123	800,000	0,037	0,080
-724,108	113,644	-0,152	-0,136
-723,094	-200,000	0,025	-0,263
-722,079	-200,000	0,011	-0,115
-721,064	-124,897	0,112	0,013
-720,050	-59,797	-0,071	0,022
-719,035	-165,969	-0,181	-0,006
-718,021	-200,000	0,008	-0,103
-717,006	800,000	-0,054	-0,170
-715,991	-60,898	-0,146	-0,045
-714,977	87,011	0,088	-0,072
-713,962	-128,485	-0,136	0,014
-712,948	-37,484	-0,041	-0,016
-711,933	104,048	0,089	-0,077
-710,918	-112,622	-0,158	0,023
-709,904	398,896	-0,024	0,037
-708,889	-200,000	0,041	-0,166
-707,875	-200,000	-0,008	-0,087
-706,860	-139,890	-0,090	0,007
-705,845	165,350	-0,015	0,015
-704,831	-159,301	-0,064	0,003
-703,816	-68,832	0,056	0,016
-702,802	800,000	-0,050	-0,147
-701,787	800,000	0,037	-0,109
-700,772	-11,695	0,062	0,030
-699,758	-33,267	-0,145	0,059
-698,743	50,602	0,024	0,017
-697,729	-53,739	-0,127	-0,042
-696,714	-188,270	0,045	-0,000
-695,699	60,848	0,049	-0,036
-694,685	455,045	-0,081	-0,132
-693,670	29,415	-0,031	-0,019
-692,656	800,000	-0,024	-0,074
-691,641	94,522	0,005	0,004
-690,627	-200,000	-0,003	-0,021
-689,612	-74,198	0,108	0,029
-688,597	84,116	-0,059	-0,048
-687,583	-76,778	0,064	0,016
-686,568	91,282	-0,067	-0,055
-685,554	-137,477	0,146	-0,012
-684,539	-50,663	-0,112	-0,039
-683,524	-35,970	-0,041	0,016
-682,510	-200,000	0,009	-0,053
-681,495	-28,621	-0,082	-0,035
-680,481	97,482	-0,080	-0,068
-679,466	4,050	-0,055	-0,029
-678,451	800,000	0,007	-0,018
-677,437	275,119	-0,039	0,051
-676,422	-35,603	0,059	-0,024
-675,408	58,390	0,111	-0,080
-674,393	-62,248	-0,052	-0,016
-673,378	250,442	-0,114	-0,143
-672,364	-83,663	0,089	0,021
-671,349	223,778	-0,059	-0,070
-670,335	-98,240	-0,124	0,023
-669,320	800,000	0,063	-0,183
-668,305	135,463	0,064	-0,062
-667,291	-37,291	-0,102	0,040
-666,276	-6,709	0,026	-0,013
-665,262	-34,846	0,084	-0,034
-664,247	-48,932	-0,111	0,039
-663,232	300,768	0,081	-0,111
-662,218	294,760	-0,068	0,091
-661,203	-200,000	0,030	-0,101
-660,189	-80,594	-0,115	-0,028
-659,174	-180,457	-0,122	-0,002
-658,159	-200,000	0,002	-0,007
-657,145	800,000	-0,048	-0,143
-656,130	800,000	-0,040	-0,094
-655,116	-200,000	-0,006	0,070
-654,101	473,487	0,037	0,062
-653,086	-139,880	-0,032	-0,002
-652,072	-42,216	-0,173	0,065
-651,057	475,886	-0,065	-0,108
-650,043	-200,000	-0,003	-0,171
-649,028	654,958	-0,010	-0,020
-648,014	-43,769	0,076	-0,028
-646,999	233,917	0,096	0,116
-645,984	800,000	-0,008	0,017
-644,970	800,000	-0,068	-0,138
-643,955	800,000	0,031	-0,078
-642,941	-73,649	-0,118	-0,031
-641,926	-82,186	-0,068	0,016
-640,911	800,000	0,057	-0,158
-639,897	-68,960	0,046	-0,013
-638,882	800,000	-0,029	0,079
-637,868	45,568	0,071	0,048
-636,853	-4,273	-0,106	-0,054
-635,838	64,205	0,058	-0,043
-634,824	221,524	0,016	-0,019
-633,809	346,774	0,052	0,075
-632,795	321,500	-0,028	-0,039
-631,780	156,542	-0,124	0,126
-630,765	800,000	-0,019	-0,051
-629,751	-200,000	0,000	-0,047
-628,736	-200,000	0,004	0,095
-627,722	-200,000	0,029	0,148
-626,707	153,701	-0,041	0,042
-625,692	-51,062	-0,065	0,022
-624,678	304,302	0,067	0,092
-623,663	-200,000	0,008	-0,064
-622,649	65,472	0,054	0,040
-621,634	-200,000	0,001	-0,037
-620,619	329,470	0,036	0,051
-619,605	-62,042	0,139	0,042
-618,590	20,946	-0,100	0,059
-617,576	-43,800	0,198	0,073
-616,561	-200,000	-0,005	0,018
-615,546	800,000	0,041	-0,102
-614,532	-77,424	-0,146	-0,037
-613,517	-172,514	0,070	-0,002
-612,503	46,867	-0,111	0,075
-611,488	492,577	-0,058	0,098
-610,474	75,807	-0,111	-0,086
-609,459	312,548	0,021	-0,028
-608,444	-139,125	-0,047	-0,004
-607,430	334,779	-0,057	-0,081
-606,415	-101,346	-0,112	0,020
-605,401	139,169	0,031	0,030
-604,386	-133,369	0,053	-0,005
-603,371	446,073	-0,032	0,052
-602,357	-200,000	0,024	0,133
-601,342	595,633	-0,037	-0,067
-600,328	282,574	-0,044	-0,058
-599,313	-49,524	0,120	-0,042
-598,298	800,000	-0,013	0,027
-597,284	36,260	0,026	0,017
-596,269	-98,866	-0,110	0,020
-595,255	-64,394	0,077	0,023
-594,240	243,780	0,044	0,054
-593,225	-90,372	0,092	-0,019
-592,211	-8,723	0,108	0,053
-591,196	50,326	0,025	0,017
-590,182	-116,528	0,120	-0,016
-589,167	639,405	-0,012	0,022
-588,152	212,829	-0,074	0,085
-587,138	759,705	-0,053	0,105
-586,123	152,672	-0,102	-0,102
-585,109	-66,185	-0,177	-0,051
-584,094	-100,188	-0,100	-0,018
-583,079	227,500	-0,027	0,033
-582,065	-200,000	-0,029	0,099
-581,050	96,553	0,067	-0,056
-580,036	-10,622	0,019	-0,009
-579,021	-142,361	-0,200	-0,014
-578,006	487,400	-0,022	-0,037
-576,992	-53,847	-0,120	-0,040
-575,977	122,116	0,117	-0,107
-574,963	-38,579	0,090	0,035
-573,948	-200,000	-0,000	0,027
-572,934	800,000	0,021	0,062
-571,919	-79,723	-0,075	-0,018
-570,904	273,390	-0,099	-0,129
-569,890	-30,691	0,034	-0,014
-568,875	-76,785	0,091	0,023
-567,861	-200,000	-0,011	-0,079
-566,846	597,936	-0,084	0,153
-565,831	-71,252	0,079	-0,021
-564,817	800,000	-0,029	-0,064
-563,802	230,200	0,028	-0,034
-562,788	407,104	0,029	0,046
-561,773	-200,000	0,003	0,024
-560,758	-200,000	0,022	0,146
-559,744	-200,000	-0,023	-0,096
-558,729	144,990	-0,123	0,121
-557,715	-156,665	0,063	0,003
-556,700	800,000	0,043	-0,088
-555,685	-9,670	-0,210	0,102
-554,671	37,394	-0,138	-0,089
-553,656	-106,289	0,243	-0,039
-552,642	-200,000	-0,020	0,087
-551,627	-200,000	0,016	0,099
-550,612	51,031	-0,096	0,067
-549,598	660,979	0,050	-0,094
-548,583	512,281	0,052	0,089
-547,569	800,000	0,044	-0,099
-546,554	165,153	0,028	0,029
-545,539	246,229	0,052	-0,065
-544,525	800,000	-0,076	-0,174
-543,510	-79,509	-0,053	-0,013
-542,496	-79,565	-0,137	0,033
-541,481	-83,680	0,073	0,017
-540,466	552,582	0,041	-0,073
-539,452	800,000	-0,028	0,075
-538,437	728,688	0,027	0,053
-537,423	-200,000	-0,006	-0,094
-536,408	6,041	0,048	0,026
-535,393	-13,895	0,061	0,029
-534,379	800,000	0,054	-0,115
-533,364	800,000	0,019	0,058
-532,350	800,000	0,022	-0,057
-531,335	800,000	0,076	0,223
-530,321	-200,000	-0,001	0,041
-529,306	26,981	-0,088	-0,054
-528,291	-200,000	0,001	-0,168
-527,277	-149,428	-0,013	-0,001
-526,262	-200,000	-0,004	0,204
-525,248	-135,297	-0,065	-0,006
-524,233	-62,737	-0,013	-0,004
-523,218	-200,000	-0,006	0,061
-522,204	315,472	-0,048	-0,067
-521,189	745,776	0,012	-0,023
-520,175	240,223	-0,096	-0,117
-519,160	-200,000	0,002	-0,037
-518,145	-92,927	-0,074	0,015
-517,131	233,763	0,028	-0,034
-516,116	220,511	-0,043	-0,050
-515,102	-128,801	-0,031	0,003
-514,087	-0,865	-0,059	-0,031
-513,072	298,210	-0,073	-0,098
-512,058	80,686	-0,077	0,061
-511,043	-200,000	-0,003	-0,095
-510,029	-200,000	0,001	0,049
-509,014	33,769	-0,064	0,040
-507,999	-28,272	-0,143	0,060
-506,985	376,511	-0,044	-0,066
-505,970	127,842	0,116	0,108
-504,956	800,000	0,050	-0,102
-503,941	-200,000	0,009	-0,092
-502,926	800,000	0,065	0,188
-501,912	-77,192	0,120	0,030
-500,897	38,624	0,102	0,066
-499,883	-25,344	-0,099	-0,043
-498,868	-200,000	-0,003	-0,011
-497,853	-22,720	0,031	-0,014
-496,839	160,549	0,070	-0,071
-495,824	63,598	0,076	0,056
-494,810	-200,000	-0,019	0,076
-493,795	172,717	-0,045	-0,047
-492,781	243,847	0,040	0,050
-491,766	800,000	-0,012	-0,039
-490,751	-200,000	-0,001	-0,079
-489,737	225,385	0,064	0,075
-488,722	-200,000	0,004	0,176
-487,708	800,000	0,054	0,152
-486,693	800,000	0,038	-0,096
-485,678	800,000	0,022	-0,066
-484,664	312,344	0,023	-0,031
-483,649	-200,000	-0,018	-0,103
-482,635	38,180	0,038	0,025
-481,620	-157,771	-0,116	-0,005
-480,605	17,221	-0,072	0,042
-479,591	-3,133	-0,089	0,045
-478,576	-58,546	-0,078	-0,024
-477,562	283,450	-0,020	-0,026
-476,547	496,723	-0,010	0,017
-475,532	288,758	-0,078	0,103
-474,518	-92,306	0,048	-0,010
-473,503	-200,000	0,001	-0,185
-472,489	800,000	-0,043	0,118
-471,474	32,977	0,085	-0,054
-470,459	519,600	-0,032	-0,056
-469,445	17,031	-0,142	-0,082
-468,430	14,787	0,118	0,067
-467,416	-85,330	-0,083	-0,019
-466,401	-200,000	-0,018	0,128
-465,386	-99,083	0,113	0,021
-464,372	133,482	-0,103	-0,098
-463,357	639,680	0,015	-0,028
-462,343	-41,493	0,033	-0,012
-461,328	-200,000	0,017	-0,074
-460,313	606,973	-0,062	0,113
-459,299	-145,147	0,255	0,017
-458,284	115,649	-0,049	-0,043
-457,270	-124,306	0,094	0,011
-456,255	246,826	-0,030	-0,037
-455,241	417,589	-0,058	-0,090
-454,226	800,000	-0,019	-0,057
-453,211	30,561	0,094	0,059
-452,197	-200,000	-0,045	0,191
-451,182	-130,989	0,169	0,016
-450,168	218,414	-0,047	0,055
-449,153	-91,292	-0,122	0,025
-448,138	356,700	-0,060	-0,087
-447,124	92,311	0,049	-0,040
-446,109	-200,000	-0,027	-0,100
-445,095	-200,000	0,020	-0,065
-444,080	-73,896	0,104	0,027
-443,065	40,939	0,122	0,080
-442,051	-84,789	-0,072	-0,016
-441,036	75,823	-0,095	-0,073
-440,022	-200,000	-0,007	-0,136
-439,007	390,109	-0,084	0,127
-437,992	-196,053	0,106	-0,001
-436,978	74,443	-0,074	-0,056
-435,963	3,895	-0,065	-0,034
-434,949	169,334	0,069	-0,072
-433,934	-200,000	-0,004	-0,038
-432,919	-200,000	0,001	0,051
-431,905	800,000	-0,053	-0,118
-430,890	800,000	0,038	0,092
-429,876	-200,000	-0,031	0,138
-428,861	800,000	0,033	0,089
-427,846	32,901	-0,138	-0,087
-426,832	800,000	0,014	0,029
-425,817	-82,756	-0,042	-0,010
-424,803	-127,716	0,101	-0,010
-423,788	220,002	0,081	-0,094
-422,773	-121,146	-0,117	-0,014
-421,759	356,010	0,021	0,031
-420,744	-166,100	-0,054	0,002
-419,730	-9,023	-0,099	-0,048
-418,715	391,463	-0,027	0,041
-417,701	-123,832	-0,079	-0,009
-416,686	800,000	-0,016	-0,033
-415,671	24,348	0,062	0,037
-414,657	160,195	0,040	0,041
-413,642	464,784	-0,083	-0,135
-412,628	48,345	0,115	-0,079
-411,613	-200,000	0,013	-0,117
-410,598	623,551	-0,056	-0,102
-409,584	610,441	0,054	-0,099
-408,569	-200,000	-0,003	-0,095
-407,555	-200,000	-0,002	0,047
-406,540	-200,000	-0,004	-0,104
-405,525	-58,721	-0,092	0,029
-404,511	12,339	-0,039	0,022
-403,496	91,501	0,101	-0,083
-402,482	-200,000	0,018	-0,064
-401,467	800,000	-0,038	0,084
-400,452	-52,230	0,068	-0,023
-399,438	-54,158	0,040	-0,013
-398,423	800,000	0,029	-0,069
-397,409	-200,000	0,001	-0,127
-396,394	546,389	-0,033	-0,058
-395,379	121,174	0,146	-0,132
-394,365	-200,000	-0,003	-0,020
-393,350	126,379	0,028	-0,026
-392,336	-200,000	0,001	0,081
-391,321	-63,001	-0,108	-0,032
-390,306	-94,071	0,091	0,018
-389,292	800,000	-0,015	0,041
-388,277	-200,000	0,016	0,095
-387,263	372,135	0,074	0,110
-386,248	173,107	-0,059	-0,062
-385,233	-200,000	0,015	0,118
-384,219	304,013	-0,123	0,167
-383,204	81,801	-0,037	-0,029
-382,190	800,000	0,018	0,057
-381,175	407,186	0,048	0,074
-380,160	545,616	-0,044	0,077
-379,146	387,741	0,045	0,068
-378,131	27,098	-0,063	0,038
-377,117	93,896	0,062	-0,051
-376,102	800,000	0,029	-0,087
-375,088	-200,000	-0,011	0,150
-374,073	-18,110	-0,057	0,026
-373,058	800,000	-0,018	0,045
-372,044	166,211	0,060	0,062
-371,029	355,648	0,074	0,107
-370,015	-200,000	-0,010	0,088
-369,000	312,109	0,080	0,109
-367,985	-25,034	-0,123	0,053
-366,971	-200,000	0,015	-0,115
-365,956	-200,000	0,105	0,000
-364,942	69,546	0,096	0,072
-363,927	800,000	0,079	0,166
-362,912	-200,000	-0,032	0,113
-361,898	-189,996	-0,153	0,001
-360,883	-14,248	0,026	-0,012
-359,869	-200,000	-0,008	0,103
-358,854	-87,476	0,039	-0,009
-357,839	93,356	-0,021	-0,017
-356,825	800,000	0,086	0,201
-355,810	644,307	0,089	0,165
-354,796	-89,588	-0,128	0,027
-353,781	322,223	0,067	-0,092
-352,766	-71,367	-0,061	0,017
-351,752	-200,000	-0,010	-0,052
-350,737	-124,792	0,095	-0,011
-349,723	-143,428	0,112	-0,008
-348,708	38,816	-0,105	0,068
-347,693	800,000	-0,022	-0,047
-346,679	12,375	0,143	-0,080
-345,664	-114,584	0,044	0,006
-344,650	-22,840	0,121	-0,053
-343,635	-95,929	0,200	-0,038
-342,620	110,370	0,114	-0,100
-341,606	765,049	0,041	-0,081
-340,591	800,000	0,036	0,082
-339,577	-88,878	-0,048	-0,010
-338,562	665,650	-0,026	-0,049
-337,548	61,074	-0,113	-0,081
-336,533	583,967	-0,062	0,112
-335,518	-200,000	-0,015	0,060
-334,504	185,844	-0,042	0,046
-333,489	135,093	0,056	-0,053
-332,475	-129,980	0,071	0,007
-331,460	-31,789	-0,051	0,021
-330,445	629,245	-0,057	-0,106
-329,431	383,184	0,033	0,049
-328,416	167,568	-0,035	0,037
-327,402	-29,689	0,131	0,054
-326,387	-40,182	-0,085	0,032
-325,372	147,748	-0,046	-0,045
-324,358	39,420	-0,072	-0,046
-323,343	114,457	0,102	0,091
-322,329	-200,000	-0,003	0,057
-321,314	16,696	-0,060	-0,034
-320,299	-15,443	0,085	-0,039
-319,285	-4,609	-0,120	0,060
-318,270	-200,000	0,008	-0,088
-317,256	-1,951	-0,086	0,044
-316,241	800,000	0,008	-0,018
-315,226	150,741	-0,054	0,053
-314,212	210,487	-0,053	0,060
-313,197	-200,000	-0,006	0,039
-312,183	-200,000	-0,025	0,130
-311,168	-52,992	-0,080	-0,027
-310,153	102,718	-0,102	0,087
-309,139	172,917	-0,020	0,021
-308,124	800,000	-0,039	0,096
-307,110	26,176	-0,119	0,072
-306,095	-200,000	0,005	-0,054
-305,080	281,482	0,028	0,036
-304,066	-90,736	0,121	0,025
-303,051	-200,000	-0,023	-0,099
-302,037	-200,000	-0,012	-0,077
-301,022	-23,318	0,088	0,038
-300,008	-200,000	0,009	0,150
-298,993	255,150	0,059	0,074
-297,978	648,973	0,103	0,193
-296,964	800,000	0,008	-0,019
-295,949	483,743	-0,041	0,067
-294,935	369,978	0,056	0,083
-293,920	74,409	0,059	0,045
-292,905	800,000	0,052	-0,106
-291,891	28,937	0,083	0,051
-290,876	159,606	0,040	-0,040
-289,862	-200,000	0,096	0,000
-288,847	490,132	0,019	-0,032
-287,832	75,084	-0,031	0,024
-286,818	-200,000	-0,020	0,095
-285,803	129,395	0,089	-0,082
-284,789	240,520	0,126	-0,152
-283,774	522,820	-0,011	-0,020
-282,759	-200,000	-0,023	0,073
-281,745	-200,000	-0,008	-0,038
-280,730	-77,367	-0,150	-0,037
-279,716	41,436	-0,024	-0,016
-278,701	-184,796	0,046	-0,001
-277,686	-200,000	0,003	0,046
-276,672	0,369	0,091	-0,047
-275,657	-200,000	-0,036	-0,165
-274,643	-118,096	-0,092	-0,012
-273,628	800,000	-0,039	-0,086
-272,613	-200,000	-0,000	-0,070
-271,599	-200,000	-0,031	0,148
-270,584	195,195	0,108	-0,119
-269,570	278,834	0,080	-0,104
-268,555	-40,536	-0,095	-0,036
-267,540	352,201	-0,053	-0,076
-266,526	-200,000	0,003	-0,015
-265,511	-200,000	0,040	-0,155
-264,497	-200,000	0,005	-0,081
-263,482	-40,002	0,111	0,042
-262,467	-200,000	-0,031	0,205
-261,453	157,986	0,082	-0,082
-260,438	49,221	-0,097	-0,066
-259,424	-200,000	0,012	-0,097
-258,409	-200,000	0,010	-0,049
-257,395	-143,382	-0,130	0,009
-256,380	-200,000	-0,010	-0,070
-255,365	11,617	0,039	0,022
-254,351	-181,343	-0,079	0,001
-253,336	800,000	0,046	-0,106
-252,322	-200,000	0,001	-0,033
-251,307	800,000	-0,017	-0,044
-250,292	223,546	0,075	-0,088
-249,278	-200,000	0,006	-0,022
-248,263	800,000	-0,020	0,055
-247,249	-200,000	-0,003	-0,029
-246,234	800,000	-0,035	0,077
-245,219	-133,726	-0,115	0,010
-244,205	-11,921	-0,117	-0,055
-243,190	-82,670	0,135	0,031
-242,176	206,567	0,067	0,076
-241,161	-120,978	0,066	0,008
-240,146	-27,891	-0,064	-0,027
-239,132	107,332	0,105	0,091
-238,117	-72,613	0,089	0,024
-237,103	800,000	-0,027	-0,056
-236,088	-85,754	0,131	0,029
-235,073	-80,238	0,044	0,011
-234,059	-75,312	0,025	0,006
-233,044	800,000	-0,033	0,083
-232,030	800,000	0,034	-0,076
-231,015	172,671	-0,106	-0,111
-230,000	-83,654	-0,102	0,023
-228,986	800,000	0,064	0,132
-227,971	26,832	0,068	0,041
-226,957	7,102	-0,075	-0,040
-225,942	800,000	0,043	-0,091
-224,927	2,444	-0,065	-0,034
-223,913	800,000	0,004	0,014
-222,898	-69,007	-0,029	0,008
-221,884	800,000	-0,061	-0,138
-220,869	75,249	0,092	0,070
-219,855	192,098	-0,108	0,118
-218,840	-32,227	0,094	0,038
-217,825	61,425	0,033	0,024
-216,811	-200,000	-0,046	0,179
-215,796	-200,000	-0,008	0,088
-214,782	520,067	-0,070	-0,120
-213,767	545,838	0,081	-0,140
-212,752	-141,491	0,066	-0,005
-211,738	267,991	0,028	-0,036
-210,723	-33,351	-0,005	-0,002
-209,709	-20,434	-0,171	0,076
-208,694	211,178	0,051	-0,058
-207,679	-200,000	0,044	-0,149
-206,665	-200,000	-0,003	0,130
-205,650	800,000	0,031	0,080
-204,636	253,952	-0,074	0,091
-203,621	-79,513	0,041	-0,010
-202,606	-139,657	-0,134	-0,010
-201,592	800,000	-0,021	0,049
-200,577	41,350	0,154	0,100
-199,563	800,000	-0,043	-0,112
-198,548	800,000	0,017	0,050
-197,533	629,423	0,030	0,055
-196,519	800,000	0,050	-0,114
-195,504	-200,000	-0,020	-0,213
-194,490	-200,000	-0,015	-0,172
-193,475	-10,915	0,184	0,088
-192,460	-200,000	-0,004	0,037
-191,446	-200,000	0,009	0,076
-190,431	587,870	0,044	0,078
-189,417	-78,488	0,215	-0,053
-188,402	-200,000	0,000	0,024
-187,387	-14,650	-0,099	0,046
-186,373	58,530	0,072	-0,051
-185,358	-200,000	-0,014	-0,155
-184,344	430,245	-0,100	-0,157
-183,329	23,628	-0,155	-0,092
-182,315	-198,634	0,107	-0,000
-181,300	461,176	0,045	0,072
-180,285	149,612	-0,073	-0,071
-179,271	-12,105	-0,139	-0,066
-178,256	-200,000	-0,003	-0,022
-177,242	800,000	0,031	0,066
-176,227	35,915	0,019	-0,012
-175,212	-35,308	-0,050	-0,020
-174,198	800,000	-0,049	0,098
-173,183	-200,000	-0,033	0,127
-172,169	-200,000	0,000	-0,067
-171,154	27,772	-0,052	-0,032
-170,139	-200,000	0,004	-0,057
-169,125	-16,677	0,144	0,066
-168,110	-155,131	-0,098	0,005
-167,096	800,000	0,063	-0,195
-166,081	-200,000	-0,005	-0,082
-165,066	337,412	-0,032	0,045
-164,052	21,878	-0,019	-0,011
-163,037	57,136	0,174	0,122
-162,023	178,399	0,076	-0,080
-161,008	-200,000	-0,022	-0,080
-159,993	80,933	0,054	0,042
-158,979	15,010	-0,031	-0,018
-157,964	-72,390	-0,096	-0,025
-156,950	-77,837	-0,076	0,019
-155,935	47,416	-0,109	-0,073
-154,920	652,442	-0,037	0,069
-153,906	-117,233	0,043	0,006
-152,891	-135,320	-0,085	-0,007
-151,877	39,720	0,091	-0,059
-150,862	-32,012	-0,112	0,045
-149,847	188,040	0,067	-0,072
-148,833	-200,000	0,011	-0,075
-147,818	245,336	-0,017	-0,020
-146,804	800,000	0,019	-0,057
-145,789	390,772	-0,055	-0,083
-144,775	-40,075	0,078	-0,029
-143,760	800,000	0,024	-0,051
-142,745	-200,000	0,013	-0,056
-141,731	548,390	-0,045	-0,078
-140,716	-200,000	0,008	-0,066
-139,702	-76,679	-0,151	-0,038
-138,687	216,144	0,019	0,022
-137,672	77,656	0,014	-0,011
-136,658	69,982	-0,101	-0,075
-135,643	-95,791	0,035	0,007
-134,629	25,010	0,038	0,022
-133,614	125,140	-0,038	0,035
-132,599	-200,000	-0,000	0,012
-131,585	4,082	0,114	0,060
-130,570	-34,558	-0,034	-0,013
-129,556	207,783	0,036	-0,041
-128,541	391,359	0,013	-0,020
-127,526	93,491	-0,077	-0,063
-126,512	198,496	0,047	-0,051
-125,497	527,301	-0,015	0,025
-124,483	619,377	0,017	0,030
-123,468	-200,000	0,015	0,105
-122,453	16,902	-0,126	-0,072
-121,439	180,410	0,053	0,056
-120,424	-148,807	-0,129	-0,007
-119,410	267,528	-0,053	0,067
