DTS Sentinel unit serial number:	SN410029Multiplexer serial number:	ORYXHardware model number:	OX2-SRSoftware version number:	ORYX F/W v4,00 Oryx Data Collector v3.7.2.0data status	okinstallation	B5 Nyhavnadifferential loss correction	single-endedforward channel	channel 2reverse channel	N/Adate	2023/12/12time	16:22:13forward acquisition time	300,00reverse acquisition time	0,00gamma	499,1914k internal	0,3156k external	0,3156temperature offset calibration	1,0000default loss term (dB/km)	0,3820temperature slope calibration	1,0000multiplexer offset coefficient	1,0000multiplexer slope coefficient	1,0000fibre end	0,00T internal ref (°C)	15,87T ext. ref 1 (°C)	-0,59T ext. ref 2 (°C)	-0,93length (m)	temperature (°C)	Stokes	anti-Stokes-744,400	3,243	-0,018	0,009
-743,385	-85,419	-0,367	0,084
-742,371	-47,985	0,049	-0,017
-741,356	-114,519	-0,370	0,052
-740,342	26,062	0,043	-0,027
-739,327	-3,099	-0,372	0,191
-738,312	278,750	-0,054	0,071
-737,298	1,299	-0,238	-0,126
-736,283	26,766	0,069	0,043
-735,269	71,869	-0,185	0,141
-734,254	720,938	0,025	0,050
-733,239	-56,941	-0,441	-0,143
-732,225	-114,783	0,222	-0,031
-731,210	-200,000	0,011	0,083
-730,196	98,890	0,025	0,021
-729,181	-200,000	0,002	-0,097
-728,167	-200,000	0,026	-0,096
-727,152	800,000	0,024	-0,050
-726,137	-200,000	-0,022	-0,077
-725,123	-69,521	-0,126	-0,035
-724,108	246,455	-0,152	-0,190
-723,094	432,335	-0,046	-0,074
-722,079	800,000	-0,068	-0,172
-721,064	-200,000	0,008	-0,252
-720,050	800,000	-0,065	0,133
-719,035	385,396	-0,077	0,117
-718,021	236,894	-0,036	-0,044
-717,006	-4,016	-0,112	-0,057
-715,991	-6,905	-0,077	0,039
-714,977	-181,415	-0,122	-0,002
-713,962	-200,000	-0,003	-0,025
-712,948	255,010	0,061	0,077
-711,933	-47,751	0,140	-0,050
-710,918	-200,000	-0,008	-0,062
-709,904	50,239	-0,079	-0,055
-708,889	-200,000	0,002	-0,139
-707,875	614,933	-0,051	-0,095
-706,860	-25,109	-0,031	0,014
-705,845	564,465	0,038	0,069
-704,831	-200,000	-0,000	-0,014
-703,816	118,409	0,082	0,075
-702,802	-123,015	-0,042	-0,005
-701,787	-112,912	0,100	0,014
-700,772	-3,634	-0,048	-0,024
-699,758	-30,893	0,149	-0,062
-698,743	-200,000	0,016	0,073
-697,729	357,704	-0,039	0,057
-696,714	11,632	0,061	-0,035
-695,699	502,752	-0,073	-0,125
-694,685	-123,422	-0,027	-0,003
-693,670	-107,575	0,050	-0,008
-692,656	243,824	0,124	0,154
-691,641	-200,000	0,007	-0,121
-690,627	90,162	-0,033	-0,028
-689,612	295,816	-0,035	0,048
-688,597	-109,155	0,020	0,003
-687,583	558,817	0,045	-0,080
-686,568	55,911	0,096	0,068
-685,554	-28,076	-0,109	-0,046
-684,539	-117,840	0,096	-0,013
-683,524	-136,079	-0,134	-0,011
-682,510	-200,000	-0,007	-0,048
-681,495	-87,917	0,117	-0,026
-680,481	-200,000	-0,006	-0,078
-679,466	800,000	-0,026	-0,058
-678,451	79,618	0,075	0,059
-677,437	21,983	-0,124	-0,074
-676,422	800,000	-0,044	-0,108
-675,408	-87,573	0,070	-0,015
-674,393	-100,462	0,019	0,003
-673,378	75,804	0,005	-0,004
-672,364	800,000	-0,044	-0,135
-671,349	68,955	-0,130	0,098
-670,335	-83,926	-0,056	0,013
-669,320	-200,000	-0,005	0,119
-668,305	249,849	-0,036	0,045
-667,291	-200,000	-0,021	-0,105
-666,276	-118,203	0,078	0,010
-665,262	-115,152	-0,243	0,034
-664,247	8,343	-0,036	-0,020
-663,232	383,310	-0,003	0,005
-662,218	491,982	-0,077	0,130
-661,203	398,140	0,093	0,143
-660,189	-114,043	-0,060	0,008
-659,174	190,542	0,058	0,065
-658,159	162,787	-0,072	-0,075
-657,145	164,414	-0,116	0,120
-656,130	316,704	0,055	-0,077
-655,116	-200,000	0,003	-0,049
-654,101	-200,000	0,001	0,093
-653,086	-200,000	0,017	0,074
-652,072	-150,112	-0,152	0,009
-651,057	-200,000	0,015	-0,200
-650,043	-40,335	-0,044	-0,017
-649,028	224,648	-0,064	-0,076
-648,014	271,588	0,033	-0,042
-646,999	-161,467	-0,056	-0,002
-645,984	15,069	-0,041	-0,023
-644,970	800,000	-0,011	-0,032
-643,955	203,448	-0,113	-0,128
-642,941	-63,160	-0,036	-0,011
-641,926	-52,726	-0,029	-0,010
-640,911	-200,000	-0,011	-0,056
-639,897	-44,166	0,137	0,050
-638,882	-200,000	-0,004	-0,040
-637,868	5,523	-0,148	-0,080
-636,853	-200,000	-0,011	0,062
-635,838	3,374	-0,031	-0,016
-634,824	-139,615	-0,043	-0,003
-633,809	224,433	-0,067	0,079
-632,795	-56,537	0,060	-0,019
-631,780	-200,000	0,003	-0,129
-630,765	383,024	0,117	-0,177
-629,751	800,000	-0,039	-0,092
-628,736	607,016	0,044	-0,081
-627,722	-149,423	0,015	0,001
-626,707	15,759	-0,089	0,051
-625,692	63,704	0,134	0,099
-624,678	-200,000	-0,006	0,027
-623,663	-122,869	-0,102	-0,012
-622,649	800,000	-0,041	0,109
-621,634	106,812	0,081	-0,071
-620,619	95,122	-0,047	0,039
-619,605	-200,000	0,017	0,060
-618,590	-64,827	0,077	-0,023
-617,576	-200,000	0,009	-0,030
-616,561	-200,000	0,025	-0,126
-615,546	89,411	0,047	-0,038
-614,532	-59,897	-0,115	-0,036
-613,517	-109,496	-0,026	-0,004
-612,503	-200,000	-0,019	0,095
-611,488	-165,573	0,097	-0,003
-610,474	188,616	0,057	0,063
-609,459	461,064	0,082	0,134
-608,444	-200,000	0,020	-0,080
-607,430	800,000	-0,033	-0,098
-606,415	33,042	-0,039	0,025
-605,401	238,456	-0,036	-0,044
-604,386	-93,161	0,055	0,011
-603,371	85,042	-0,086	0,069
-602,357	349,649	0,064	0,093
-601,342	-172,014	-0,130	-0,003
-600,328	-48,885	-0,124	-0,043
-599,313	304,553	-0,018	-0,025
-598,298	-30,253	0,112	0,047
-597,284	477,142	-0,056	-0,093
-596,269	-200,000	0,026	0,111
-595,255	-200,000	-0,010	0,053
-594,240	387,516	0,011	0,017
-593,225	-200,000	-0,000	0,038
-592,211	-18,660	0,147	-0,067
-591,196	-200,000	-0,032	0,192
-590,182	800,000	-0,061	0,135
-589,167	356,060	0,097	0,142
-588,152	-200,000	0,041	-0,161
-587,138	-198,220	0,077	-0,000
-586,123	65,268	-0,121	-0,089
-585,109	98,082	0,035	-0,029
-584,094	89,709	-0,145	-0,118
-583,079	-200,000	-0,005	-0,022
-582,065	128,709	0,060	0,056
-581,050	-61,469	-0,096	0,029
-580,036	137,142	0,054	0,052
-579,021	-41,823	0,075	0,028
-578,006	3,408	0,085	-0,045
-576,992	-64,702	-0,031	-0,009
-575,977	108,898	-0,012	-0,011
-574,963	-78,376	-0,036	0,009
-573,948	800,000	0,017	0,035
-572,934	255,629	-0,069	-0,087
-571,919	216,332	-0,039	-0,046
-570,904	393,447	-0,058	0,089
-569,890	800,000	-0,047	-0,132
-568,875	-200,000	-0,003	0,061
-567,861	291,960	-0,065	0,087
-566,846	-200,000	0,003	-0,021
-565,831	541,072	-0,018	0,032
-564,817	705,030	0,031	0,061
-563,802	-38,465	-0,063	0,024
-562,788	-200,000	-0,009	-0,086
-561,773	8,431	0,097	-0,053
-560,758	7,388	-0,047	-0,026
-559,744	140,302	0,038	0,037
-558,729	-23,858	0,060	0,026
-557,715	-200,000	-0,007	-0,103
-556,700	-12,491	-0,107	-0,051
-555,685	-74,590	0,031	-0,008
-554,671	360,037	-0,035	0,052
-553,656	-200,000	-0,001	0,106
-552,642	164,045	0,115	0,118
-551,627	-10,048	0,062	-0,030
-550,612	-155,551	-0,095	-0,004
-549,598	87,960	0,038	-0,031
-548,583	79,982	0,030	0,023
-547,569	-172,655	0,099	0,002
-546,554	800,000	-0,003	0,006
-545,539	130,420	0,059	0,055
-544,525	240,529	-0,022	-0,027
-543,510	-58,988	-0,122	0,038
-542,496	800,000	-0,026	0,064
-541,481	-90,392	-0,102	-0,021
-540,466	786,896	-0,007	0,014
-539,452	-19,549	0,017	0,008
-538,437	-11,100	0,022	0,011
-537,423	-98,543	-0,101	-0,019
-536,408	81,972	0,124	-0,098
-535,393	2,647	-0,164	-0,087
-534,379	-200,000	0,001	-0,067
-533,364	134,785	-0,061	0,058
-532,350	10,542	0,117	-0,065
-531,335	-1,283	-0,029	-0,015
-530,321	-200,000	0,022	-0,209
-529,306	800,000	-0,018	0,046
-528,291	482,651	0,036	-0,060
-527,277	-200,000	0,001	-0,103
-526,262	800,000	-0,040	-0,096
-525,248	-123,179	0,084	0,010
-524,233	-0,698	-0,068	0,035
-523,218	-9,288	0,111	0,054
-522,204	71,220	0,063	0,048
-521,189	103,364	-0,059	-0,051
-520,175	70,798	-0,099	-0,075
-519,160	-107,607	0,210	-0,033
-518,145	68,866	0,013	0,009
-517,131	192,399	-0,077	0,085
-516,116	75,536	-0,087	0,067
-515,102	-124,270	-0,012	0,001
-514,087	48,960	-0,072	0,049
-513,072	-65,959	-0,025	-0,007
-512,058	-200,000	-0,020	-0,077
-511,043	-29,966	0,108	0,045
-510,029	-200,000	0,007	0,102
-509,014	167,747	0,054	-0,056
-507,999	-88,185	0,077	0,017
-506,985	-43,427	0,042	0,015
-505,970	125,038	-0,083	-0,077
-504,956	460,605	0,045	-0,074
-503,941	-170,675	0,092	-0,002
-502,926	-200,000	-0,029	0,095
-501,912	176,788	0,063	0,067
-500,897	800,000	-0,043	0,104
-499,883	-200,000	-0,023	0,082
-498,868	-200,000	-0,037	0,154
-497,853	415,466	-0,039	-0,061
-496,839	-17,937	0,190	0,087
-495,824	800,000	0,035	0,108
-494,810	-9,256	0,076	0,037
-493,795	246,838	0,080	0,099
-492,781	-172,498	-0,021	-0,000
-491,766	315,789	-0,039	-0,054
-490,751	-114,967	0,056	0,008
-489,737	-142,694	-0,108	-0,008
-488,722	32,367	0,071	0,045
-487,708	36,636	-0,122	-0,078
-486,693	269,802	0,032	0,041
-485,678	148,443	-0,073	-0,072
-484,664	66,565	-0,074	-0,055
-483,649	58,889	-0,100	-0,072
-482,635	-77,025	-0,081	0,020
-481,620	-7,883	0,084	-0,041
-480,605	4,122	-0,017	0,009
-479,591	22,950	0,072	-0,043
-478,576	-200,000	-0,008	-0,073
-477,562	800,000	0,029	0,076
-476,547	-200,000	-0,005	-0,110
-475,532	-112,867	-0,079	0,011
-474,518	390,410	0,119	0,181
-473,503	-100,651	0,169	0,030
-472,489	-118,174	-0,124	0,016
-471,474	163,051	0,037	-0,038
-470,459	397,785	-0,026	0,040
-469,445	192,302	-0,018	-0,020
-468,430	-47,189	-0,137	-0,048
-467,416	182,193	0,035	0,038
-466,401	-91,944	0,204	0,042
-465,386	-200,000	0,037	0,180
-464,372	-74,686	-0,098	0,025
-463,357	-200,000	-0,044	0,153
-462,343	-24,258	0,075	-0,033
-461,328	28,330	0,063	-0,039
-460,313	800,000	-0,038	0,086
-459,299	-200,000	0,016	0,090
-458,284	46,478	-0,103	0,069
-457,270	195,757	-0,025	-0,028
-456,255	14,000	-0,109	-0,061
-455,241	-18,636	-0,064	-0,029
-454,226	-145,907	-0,036	-0,002
-453,211	-76,309	0,124	-0,032
-452,197	-200,000	0,010	0,145
-451,182	288,584	0,058	0,077
-450,168	-136,020	0,064	-0,005
-449,153	-59,480	0,082	0,025
-448,138	105,902	-0,106	0,092
-447,124	-200,000	-0,003	-0,145
-446,109	322,779	-0,093	-0,130
-445,095	147,986	0,047	-0,047
-444,080	153,392	0,074	-0,074
-443,065	-200,000	-0,001	0,038
-442,051	511,597	0,024	-0,041
-441,036	-200,000	-0,007	-0,035
-440,022	-151,888	0,051	0,003
-439,007	155,255	-0,060	-0,060
-437,992	-48,411	0,103	-0,036
-436,978	800,000	-0,006	0,019
-435,963	300,459	-0,062	0,084
-434,949	-200,000	0,010	-0,074
-433,934	-62,991	0,115	0,035
-432,919	2,860	-0,028	-0,015
-431,905	160,241	-0,070	0,071
-430,890	-200,000	-0,045	0,152
-429,876	-200,000	-0,016	0,143
-428,861	-200,000	0,022	0,086
-427,846	8,254	0,019	-0,011
-426,832	-12,425	-0,037	0,018
-425,817	-200,000	0,005	0,020
-424,803	-200,000	0,004	-0,016
-423,788	103,490	0,090	-0,077
-422,773	-200,000	-0,045	0,180
-421,759	-125,173	-0,031	-0,003
-420,744	215,134	-0,065	-0,075
-419,730	641,559	-0,040	-0,075
-418,715	-44,361	-0,066	0,024
-417,701	800,000	0,008	0,018
-416,686	-200,000	-0,001	-0,002
-415,671	347,960	0,021	0,030
-414,657	800,000	0,032	0,078
-413,642	-46,448	0,056	0,020
-412,628	-47,679	0,086	0,030
-411,613	-12,260	0,072	0,034
-410,598	-95,424	-0,049	-0,009
-409,584	90,013	0,074	-0,060
-408,569	-31,975	-0,092	0,037
-407,555	14,299	0,091	0,052
-406,540	-94,733	-0,119	0,023
-405,525	89,132	0,065	0,053
-404,511	-30,647	-0,126	-0,052
-403,496	800,000	0,027	0,080
-402,482	-177,555	0,056	-0,001
-401,467	-48,975	0,064	0,022
-400,452	-200,000	0,029	-0,116
-399,438	-52,431	-0,104	0,035
-398,423	-54,430	0,112	0,037
-397,409	154,885	-0,072	-0,072
-396,394	38,829	-0,032	-0,021
-395,379	-50,193	-0,112	0,038
-394,365	63,785	0,048	0,035
-393,350	-200,000	0,029	-0,215
-392,336	-90,458	-0,128	0,027
-391,321	442,883	-0,057	0,091
-390,306	-120,082	-0,111	-0,014
-389,292	29,676	-0,099	-0,061
-388,277	34,038	0,055	0,035
-387,263	-112,699	0,074	0,011
-386,248	229,738	0,135	0,160
-385,233	-168,264	0,017	-0,000
-384,219	135,051	-0,022	0,020
-383,204	-15,221	0,082	-0,038
-382,190	-200,000	0,023	-0,216
-381,175	121,107	-0,090	0,082
-380,160	502,509	-0,021	-0,036
-379,146	-107,010	0,124	-0,020
-378,131	341,035	0,064	-0,091
-377,117	800,000	0,017	0,045
-376,102	24,548	-0,094	-0,057
-375,088	-200,000	-0,000	-0,186
-374,073	394,534	-0,065	-0,099
-373,058	800,000	0,065	-0,148
-372,044	-44,920	0,141	0,051
-371,029	-143,126	-0,165	0,011
-370,015	23,541	0,039	0,023
-369,000	-152,132	-0,091	0,005
-367,985	158,098	-0,089	-0,089
-366,971	-46,949	0,085	-0,030
-365,956	-68,698	-0,052	0,014
-364,942	800,000	-0,021	-0,043
-363,927	12,824	0,039	-0,022
-362,912	253,225	0,034	0,042
-361,898	500,693	0,076	0,127
-360,883	23,307	0,038	0,023
-359,869	-38,260	-0,121	-0,047
-358,854	800,000	-0,024	-0,057
-357,839	-200,000	0,037	0,131
-356,825	564,804	0,094	0,165
-355,810	-200,000	0,000	0,085
-354,796	142,887	0,018	0,017
-353,781	66,893	0,089	-0,065
-352,766	50,211	-0,095	-0,065
-351,752	800,000	0,032	0,086
-350,737	-78,799	0,037	-0,009
-349,723	13,836	-0,102	-0,057
-348,708	-200,000	-0,019	0,095
-347,693	-200,000	0,007	0,094
-346,679	800,000	-0,023	-0,056
-345,664	800,000	0,018	-0,040
-344,650	-3,273	0,087	0,044
-343,635	-200,000	-0,035	0,143
-342,620	-111,457	0,144	0,021
-341,606	-135,122	-0,104	-0,009
-340,591	800,000	-0,058	0,157
-339,577	128,132	0,027	0,025
-338,562	-200,000	-0,007	-0,073
-337,548	489,927	0,013	0,022
-336,533	-200,000	-0,033	-0,142
-335,518	4,235	0,149	0,079
-334,504	-11,076	-0,048	0,023
-333,489	-200,000	-0,012	0,051
-332,475	800,000	0,023	-0,062
-331,460	-138,574	0,018	0,001
-330,445	234,443	-0,066	0,079
-329,431	-174,227	0,089	-0,002
-328,416	-200,000	-0,003	-0,067
-327,402	227,811	-0,034	0,040
-326,387	800,000	0,046	0,102
-325,372	-200,000	0,011	-0,070
-324,358	-94,996	-0,077	-0,015
-323,343	5,006	0,131	-0,070
-322,329	-57,408	-0,016	-0,005
-321,314	-200,000	0,040	0,133
-320,299	-200,000	0,032	0,109
-319,285	-1,667	0,046	-0,023
-318,270	203,143	0,043	-0,048
-317,256	-200,000	-0,004	-0,028
-316,241	36,381	-0,057	-0,036
-315,226	800,000	0,022	0,053
-314,212	-12,140	0,058	0,027
-313,197	70,856	0,057	-0,043
-312,183	-61,400	0,193	-0,059
-311,168	31,713	0,105	-0,065
-310,153	-70,082	-0,164	-0,045
-309,139	212,930	-0,069	0,079
-308,124	-200,000	0,047	0,155
-307,110	-200,000	-0,001	0,033
-306,095	25,139	-0,027	-0,016
-305,080	-200,000	-0,000	0,094
-304,066	-142,389	-0,148	-0,010
-303,051	-200,000	0,011	0,143
-302,037	177,145	0,048	-0,051
-301,022	261,447	0,111	-0,140
-300,008	-120,140	0,141	0,017
-298,993	-200,000	-0,018	0,069
-297,978	547,897	0,048	-0,083
-296,964	-39,800	0,145	-0,055
-295,949	120,286	-0,087	0,079
-294,935	-78,429	-0,122	0,030
-293,920	-61,010	0,067	0,020
-292,905	216,809	0,030	0,035
-291,891	-106,841	0,049	0,008
-290,876	646,698	0,072	-0,133
-289,862	83,705	-0,036	0,028
-288,847	-12,441	-0,080	-0,038
-287,832	79,761	-0,036	0,028
-286,818	800,000	0,056	-0,116
-285,803	800,000	-0,039	-0,082
-284,789	207,379	0,059	-0,067
-283,774	107,901	0,020	0,017
-282,759	-31,305	-0,093	-0,038
-281,745	76,720	0,016	-0,012
-280,730	800,000	0,038	0,103
-279,716	-113,017	0,085	0,012
-278,701	-200,000	0,004	0,059
-277,686	-200,000	-0,010	0,081
-276,672	-160,529	-0,074	0,003
-275,657	-200,000	0,007	-0,123
-274,643	800,000	-0,026	-0,055
-273,628	-110,298	-0,142	0,021
-272,613	342,833	-0,109	-0,155
-271,599	-200,000	0,024	-0,093
-270,584	70,650	0,017	0,013
-269,570	-8,564	0,130	0,063
-268,555	211,425	0,071	0,081
-267,540	84,119	0,095	0,075
-266,526	800,000	-0,017	-0,049
-265,511	604,403	-0,020	-0,037
-264,497	-200,000	0,043	0,156
-263,482	-200,000	-0,002	-0,024
-262,467	-53,292	-0,044	-0,015
-261,453	-6,780	-0,072	0,035
-260,438	800,000	-0,033	-0,089
-259,424	-200,000	-0,001	0,005
-258,409	-200,000	-0,008	-0,084
-257,395	592,179	0,059	-0,106
-256,380	-200,000	-0,011	0,038
-255,365	-47,697	0,157	0,055
-254,351	120,196	-0,087	0,078
-253,336	-23,811	-0,039	-0,017
-252,322	800,000	0,033	-0,098
-251,307	293,281	-0,029	0,039
-250,292	-105,565	0,082	-0,013
-249,278	61,182	-0,032	-0,023
-248,263	61,106	-0,036	0,026
-247,249	29,359	-0,081	0,050
-246,234	800,000	-0,011	-0,029
-245,219	-168,866	0,100	0,003
-244,205	-156,416	-0,148	-0,007
-243,190	-19,712	-0,051	0,023
-242,176	800,000	0,045	-0,093
-241,161	716,967	-0,012	-0,024
-240,146	712,079	-0,061	0,117
-239,132	800,000	-0,016	0,045
-238,117	-200,000	0,022	-0,079
-237,103	702,611	-0,032	-0,061
-236,088	-200,000	-0,018	0,072
-235,073	288,724	-0,025	0,033
-234,059	544,970	0,073	-0,127
-233,044	94,882	0,086	0,071
-232,030	59,558	-0,018	0,013
-231,015	-67,013	-0,091	-0,026
-230,000	800,000	0,024	-0,065
-228,986	-200,000	-0,032	-0,106
-227,971	-200,000	-0,007	0,077
-226,957	68,494	0,060	0,044
-225,942	-200,000	-0,007	-0,109
-224,927	-200,000	0,010	-0,048
-223,913	449,677	-0,060	-0,095
-222,898	-35,311	-0,136	0,053
-221,884	107,823	0,114	-0,098
-220,869	-200,000	-0,017	0,161
-219,855	-200,000	0,003	0,174
-218,840	51,307	0,078	-0,053
-217,825	160,844	0,042	-0,043
-216,811	417,733	-0,044	-0,068
-215,796	-52,764	0,101	0,033
-214,782	331,727	0,045	-0,063
-213,767	-130,636	-0,058	-0,006
-212,752	-26,909	0,148	-0,062
-211,738	179,297	-0,065	0,069
-210,723	-78,010	0,052	-0,013
-209,709	-200,000	-0,014	0,097
-208,694	-113,775	0,087	0,012
-207,679	-14,457	0,045	-0,021
-206,665	-200,000	-0,017	0,073
-205,650	800,000	0,070	0,204
-204,636	-200,000	0,002	-0,070
-203,621	5,628	-0,057	-0,030
-202,606	43,622	0,057	-0,038
-201,592	-51,614	-0,088	-0,029
-200,577	10,960	-0,083	-0,046
-199,563	-21,685	0,095	-0,042
-198,548	110,838	-0,082	0,071
-197,533	-133,556	0,090	-0,008
-196,519	-151,372	-0,060	-0,003
-195,504	-200,000	0,028	-0,095
-194,490	-34,416	-0,061	0,024
-193,475	800,000	-0,044	-0,128
-192,460	-8,402	-0,056	-0,027
-191,446	-200,000	0,007	0,023
-190,431	-48,204	-0,034	-0,012
-189,417	79,329	-0,022	0,017
-188,402	800,000	-0,062	-0,128
-187,387	-200,000	-0,018	-0,076
-186,373	-200,000	-0,005	0,136
-185,358	-200,000	-0,013	-0,115
-184,344	800,000	0,052	0,151
-183,329	47,628	-0,067	0,045
-182,315	12,205	-0,172	-0,095
-181,300	258,004	0,053	-0,066
-180,285	-114,056	-0,070	-0,010
-179,271	21,103	-0,021	0,012
-178,256	-87,177	-0,068	0,015
-177,242	184,904	-0,033	0,036
-176,227	96,725	0,047	-0,039
-175,212	57,866	-0,072	0,051
-174,198	41,417	0,022	-0,015
-173,183	135,224	-0,050	0,047
-172,169	685,409	-0,093	-0,176
-171,154	-76,269	-0,116	-0,029
-170,139	49,310	0,093	0,063
-169,125	-169,212	0,083	-0,002
-168,110	314,707	0,027	0,037
-167,096	388,536	-0,084	-0,126
-166,081	287,549	-0,040	-0,052
-165,066	800,000	0,027	0,075
-164,052	115,539	-0,065	-0,057
-163,037	-67,632	0,142	-0,040
-162,023	-158,665	0,124	0,005
-161,008	800,000	-0,034	0,081
-159,993	31,706	-0,172	-0,106
-158,979	89,039	0,036	-0,029
-157,964	13,759	-0,082	-0,046
-156,950	800,000	-0,017	-0,034
-155,935	-43,295	-0,053	-0,019
-154,920	14,967	0,080	0,045
-153,906	27,257	0,054	0,033
-152,891	51,034	0,062	-0,042
-151,877	-128,893	0,041	0,004
-150,862	800,000	-0,062	-0,178
-149,847	489,959	0,056	-0,092
-148,833	104,455	-0,034	0,029
-147,818	602,277	-0,057	-0,103
-146,804	-10,828	-0,078	-0,037
-145,789	89,960	0,108	0,087
-144,775	-200,000	-0,013	-0,088
-143,760	-135,013	-0,047	0,004
-142,745	-46,527	0,128	-0,045
-141,731	-200,000	0,001	-0,060
-140,716	-200,000	0,015	-0,087
-139,702	-200,000	-0,011	0,089
-138,687	-200,000	-0,024	0,083
-137,672	-38,551	0,201	-0,076
-136,658	800,000	-0,044	-0,092
-135,643	361,672	0,066	-0,096
-134,629	246,714	-0,038	0,046
-133,614	800,000	0,034	0,094
-132,599	-61,209	-0,075	0,023
-131,585	137,044	-0,039	-0,037
-130,570	559,033	-0,033	-0,058
-129,556	-200,000	-0,020	-0,115
-128,541	-7,837	-0,062	-0,030
-127,526	-13,911	0,091	-0,042
-126,512	630,212	0,024	0,044
-125,497	-200,000	0,007	-0,046
-124,483	107,100	0,072	-0,061
-123,468	-71,730	0,177	0,047
-122,453	-200,000	0,004	-0,063
-121,439	-165,354	0,099	-0,003
-120,424	-16,652	0,056	-0,026
-119,410	-62,361	0,017	0,005
