DTS Sentinel unit serial number:	SN410029Multiplexer serial number:	ORYXHardware model number:	OX2-SRSoftware version number:	ORYX F/W v4,00 Oryx Data Collector v3.7.2.0data status	okinstallation	B5 Nyhavnadifferential loss correction	single-endedforward channel	channel 2reverse channel	N/Adate	2023/12/13time	01:07:13forward acquisition time	300,00reverse acquisition time	0,00gamma	499,1914k internal	0,3159k external	0,3159temperature offset calibration	1,0000default loss term (dB/km)	0,3820temperature slope calibration	1,0000multiplexer offset coefficient	1,0000multiplexer slope coefficient	1,0000fibre end	0,00T internal ref (°C)	14,15T ext. ref 1 (°C)	-2,38T ext. ref 2 (°C)	-2,69length (m)	temperature (°C)	Stokes	anti-Stokes-744,400	499,396	-0,029	0,049
-743,385	-129,012	-0,208	0,021
-742,371	-29,050	0,198	0,083
-741,356	-143,592	-0,278	-0,019
-740,342	-102,024	0,197	0,035
-739,327	-165,427	-0,221	-0,007
-738,312	226,591	0,062	0,075
-737,298	-187,411	-0,397	0,004
-736,283	17,886	0,093	-0,055
-735,269	-134,147	-0,285	-0,026
-734,254	-10,842	0,140	0,068
-733,239	-23,498	-0,476	-0,209
-732,225	-200,000	0,014	0,070
-731,210	-200,000	-0,002	0,126
-730,196	217,976	0,046	-0,054
-729,181	-200,000	-0,011	-0,065
-728,167	49,742	-0,021	-0,015
-727,152	-34,073	0,063	0,026
-726,137	448,362	0,021	0,034
-725,123	-200,000	0,001	0,092
-724,108	-117,556	-0,188	-0,025
-723,094	-200,000	-0,010	-0,132
-722,079	-200,000	-0,008	-0,158
-721,064	-87,445	-0,038	0,008
-720,050	-123,128	0,071	0,008
-719,035	600,801	-0,026	-0,048
-718,021	-200,000	0,003	-0,037
-717,006	397,046	0,024	-0,036
-715,991	-200,000	0,030	-0,140
-714,977	-76,006	-0,045	-0,012
-713,962	-200,000	-0,076	-0,254
-712,948	134,372	0,101	-0,096
-711,933	-32,050	0,063	0,026
-710,918	-57,058	0,105	0,034
-709,904	-0,293	-0,029	0,015
-708,889	113,272	-0,133	-0,119
-707,875	253,650	0,081	0,102
-706,860	-131,254	0,027	0,003
-705,845	76,585	0,092	0,072
-704,831	-46,305	0,091	-0,033
-703,816	120,193	-0,066	0,060
-702,802	322,485	0,055	0,078
-701,787	-71,608	0,022	-0,006
-700,772	541,313	-0,031	-0,054
-699,758	39,376	-0,130	-0,085
-698,743	-200,000	0,060	0,211
-697,729	558,935	-0,032	-0,058
-696,714	23,505	-0,026	0,016
-695,699	800,000	0,045	-0,097
-694,685	-200,000	0,021	-0,095
-693,670	-56,669	-0,115	0,037
-692,656	715,491	-0,016	-0,032
-691,641	226,278	-0,056	-0,066
-690,627	-200,000	-0,013	0,072
-689,612	800,000	0,029	-0,060
-688,597	-15,869	-0,168	-0,078
-687,583	-57,006	-0,006	0,002
-686,568	651,771	0,056	-0,106
-685,554	340,162	-0,017	-0,024
-684,539	800,000	-0,055	-0,117
-683,524	129,852	-0,055	0,052
-682,510	45,142	-0,179	0,121
-681,495	-173,225	-0,051	-0,001
-680,481	-200,000	0,058	-0,198
-679,466	-200,000	-0,018	-0,224
-678,451	113,375	-0,078	-0,069
-677,437	41,718	0,046	0,031
-676,422	-44,437	-0,008	0,003
-675,408	366,488	0,054	0,081
-674,393	405,393	-0,041	-0,063
-673,378	800,000	0,023	-0,063
-672,364	800,000	-0,075	-0,153
-671,349	185,728	-0,090	-0,098
-670,335	-89,473	-0,014	-0,003
-669,320	75,300	0,042	-0,033
-668,305	-116,323	-0,078	-0,011
-667,291	800,000	-0,064	0,182
-666,276	12,578	-0,112	0,063
-665,262	174,920	-0,064	-0,068
-664,247	234,575	-0,053	-0,064
-663,232	743,289	-0,058	0,115
-662,218	-135,796	-0,043	0,004
-661,203	-200,000	-0,130	0,000
-660,189	184,215	0,103	0,112
-659,174	-126,700	0,076	-0,008
-658,159	800,000	-0,053	-0,134
-657,145	42,232	-0,162	-0,108
-656,130	325,401	0,059	-0,083
-655,116	407,097	0,101	-0,158
-654,101	-200,000	-0,044	0,000
-653,086	-200,000	0,029	0,130
-652,072	-103,797	-0,102	0,017
-651,057	677,680	0,038	-0,073
-650,043	-200,000	-0,001	0,042
-649,028	-200,000	0,021	0,071
-648,014	800,000	0,017	0,042
-646,999	181,383	-0,101	-0,109
-645,984	-25,329	0,064	0,028
-644,970	-19,469	0,032	-0,014
-643,955	-200,000	-0,001	-0,192
-642,941	417,688	-0,088	-0,139
-641,926	298,201	-0,044	-0,059
-640,911	-80,982	-0,097	0,023
-639,897	-142,322	-0,078	-0,006
-638,882	800,000	-0,014	-0,029
-637,868	-200,000	0,009	0,055
-636,853	416,183	-0,022	-0,035
-635,838	-22,199	-0,093	0,041
-634,824	-36,779	0,098	0,038
-633,809	800,000	-0,041	0,120
-632,795	-113,862	0,198	-0,028
-631,780	-44,198	-0,048	-0,017
-630,765	189,955	-0,085	-0,094
-629,751	103,256	0,095	-0,082
-628,736	-6,481	-0,080	0,040
-627,722	337,035	0,035	-0,050
-626,707	108,638	0,082	-0,072
-625,692	-34,578	0,040	-0,016
-624,678	-100,330	0,152	0,027
-623,663	-200,000	-0,014	-0,050
-622,649	148,874	-0,091	-0,091
-621,634	800,000	-0,083	-0,195
-620,619	800,000	-0,021	-0,049
-619,605	761,275	-0,009	0,018
-618,590	245,037	-0,047	-0,058
-617,576	287,233	-0,029	0,038
-616,561	-200,000	-0,004	-0,040
-615,546	-200,000	-0,023	0,141
-614,532	666,096	0,105	-0,201
-613,517	-200,000	0,025	-0,248
-612,503	-200,000	-0,017	-0,082
-611,488	-200,000	0,045	-0,204
-610,474	800,000	0,023	-0,064
-609,459	-46,377	-0,076	-0,027
-608,444	-200,000	-0,010	-0,130
-607,430	373,329	-0,046	0,068
-606,415	-80,364	-0,021	-0,005
-605,401	-72,356	0,080	0,021
-604,386	217,804	-0,049	-0,057
-603,371	-200,000	-0,018	0,070
-602,357	143,889	-0,088	0,086
-601,342	-74,978	0,110	0,029
-600,328	-200,000	-0,022	-0,169
-599,313	800,000	0,048	-0,097
-598,298	368,039	-0,014	-0,021
-597,284	248,053	0,136	0,169
-596,269	800,000	0,020	0,057
-595,255	-10,346	-0,113	0,055
-594,240	-200,000	-0,021	-0,118
-593,225	763,781	-0,011	0,022
-592,211	-136,795	-0,049	0,004
-591,196	-103,240	0,089	0,015
-590,182	-33,318	0,083	-0,034
-589,167	15,511	-0,064	-0,037
-588,152	-17,002	0,097	0,045
-587,138	420,130	0,093	-0,147
-586,123	800,000	0,037	-0,113
-585,109	-200,000	-0,005	-0,101
-584,094	224,518	0,069	-0,082
-583,079	7,381	-0,017	0,009
-582,065	-200,000	-0,005	0,044
-581,050	139,784	-0,071	0,068
-580,036	59,759	0,078	0,056
-579,021	169,357	-0,031	-0,032
-578,006	1,307	-0,057	-0,030
-576,992	-125,155	0,159	0,018
-575,977	-200,000	0,006	0,057
-574,963	-50,608	0,069	0,024
-573,948	-37,419	-0,072	-0,028
-572,934	-191,220	-0,095	0,001
-571,919	-70,099	-0,124	-0,034
-570,904	-200,000	-0,021	-0,080
-569,890	295,786	0,066	-0,089
-568,875	-200,000	0,032	-0,110
-567,861	-81,654	-0,085	-0,020
-566,846	-110,177	0,045	-0,007
-565,831	29,433	-0,091	0,057
-564,817	-74,508	0,142	0,037
-563,802	16,484	-0,031	0,018
-562,788	-95,388	-0,162	-0,032
-561,773	320,892	0,103	-0,144
-560,758	19,826	-0,029	-0,017
-559,744	34,392	-0,023	0,015
-558,729	-76,764	-0,079	0,020
-557,715	-89,856	-0,074	0,016
-556,700	800,000	0,036	-0,094
-555,685	-72,097	-0,148	0,040
-554,671	800,000	0,017	0,047
-553,656	388,441	-0,025	0,038
-552,642	-9,858	-0,048	0,023
-551,627	164,235	-0,075	0,077
-550,612	-34,905	0,026	0,010
-549,598	52,196	-0,067	-0,047
-548,583	-37,479	0,042	-0,016
-547,569	-111,604	0,028	0,004
-546,554	-200,000	-0,029	-0,134
-545,539	-200,000	-0,023	0,075
-544,525	18,299	0,102	0,060
-543,510	800,000	-0,029	0,067
-542,496	-147,757	0,069	-0,004
-541,481	-34,540	-0,048	0,019
-540,466	81,999	-0,014	-0,011
-539,452	-200,000	0,042	0,154
-538,437	-40,605	-0,076	0,029
-537,423	573,765	-0,023	0,042
-536,408	117,554	-0,063	0,057
-535,393	-200,000	0,043	0,141
-534,379	-137,098	-0,163	0,013
-533,364	65,311	-0,137	0,101
-532,350	800,000	0,019	-0,047
-531,335	-200,000	0,023	0,086
-530,321	-200,000	-0,010	0,040
-529,306	-200,000	0,043	0,156
-528,291	23,360	-0,017	0,010
-527,277	148,458	-0,056	-0,055
-526,262	134,378	-0,120	0,113
-525,248	287,849	0,024	-0,032
-524,233	-116,545	0,026	0,004
-523,218	-48,126	-0,092	-0,032
-522,204	800,000	-0,017	-0,043
-521,189	-154,670	-0,107	-0,005
-520,175	-200,000	0,002	-0,154
-519,160	800,000	0,033	0,099
-518,145	-200,000	0,007	0,079
-517,131	196,017	-0,028	0,032
-516,116	77,843	0,038	0,029
-515,102	473,601	-0,029	0,048
-514,087	-43,816	-0,103	-0,038
-513,072	800,000	-0,066	-0,181
-512,058	-200,000	0,005	0,141
-511,043	109,433	0,107	0,094
-510,029	-68,414	0,182	0,051
-509,014	-200,000	-0,006	-0,080
-507,999	10,086	-0,093	0,051
-506,985	731,655	-0,051	0,100
-505,970	800,000	0,024	-0,071
-504,956	382,835	-0,027	-0,041
-503,941	193,959	-0,078	0,086
-502,926	725,738	0,048	0,093
-501,912	28,618	0,107	0,066
-500,897	31,566	-0,076	-0,047
-499,883	800,000	-0,010	0,030
-498,868	162,919	-0,133	0,136
-497,853	471,370	-0,045	0,074
-496,839	-108,331	0,045	-0,007
-495,824	420,035	0,039	-0,062
-494,810	-200,000	0,015	0,093
-493,795	50,517	0,113	0,078
-492,781	-200,000	0,009	-0,115
-491,766	-48,689	-0,052	0,018
-490,751	423,628	0,064	-0,100
-489,737	-200,000	0,022	-0,097
-488,722	-45,340	0,106	0,038
-487,708	580,389	0,065	0,116
-486,693	800,000	-0,040	0,088
-485,678	55,436	0,048	-0,034
-484,664	-147,812	-0,028	0,002
-483,649	-76,292	-0,114	0,029
-482,635	-200,000	0,065	0,000
-481,620	-91,255	-0,081	-0,017
-480,605	-36,227	-0,019	0,008
-479,591	377,221	0,085	0,126
-478,576	-3,524	0,082	-0,042
-477,562	176,992	0,088	-0,094
-476,547	-85,876	-0,110	0,025
-475,532	-70,982	-0,115	-0,031
-474,518	-100,510	0,076	-0,014
-473,503	58,106	-0,075	0,054
-472,489	505,676	0,105	-0,178
-471,474	-23,728	-0,069	0,030
-470,459	439,369	-0,048	-0,077
-469,445	-103,529	0,054	0,009
-468,430	-96,614	0,089	-0,017
-467,416	-66,530	-0,114	-0,033
-466,401	322,529	0,083	0,116
-465,386	-200,000	-0,004	0,097
-464,372	-79,035	0,138	-0,034
-463,357	44,181	-0,091	-0,061
-462,343	185,904	0,044	0,048
-461,328	-27,516	-0,046	0,020
-460,313	-51,638	0,116	-0,039
-459,299	-103,974	-0,093	0,016
-458,284	-37,308	0,071	0,027
-457,270	37,682	0,017	-0,011
-456,255	15,316	-0,083	-0,047
-455,241	56,882	-0,076	0,054
-454,226	800,000	-0,026	-0,061
-453,211	194,447	0,034	-0,038
-452,197	-99,245	0,139	0,025
-451,182	800,000	-0,035	-0,091
-450,168	-95,585	0,077	-0,015
-449,153	84,891	0,055	0,044
-448,138	358,063	-0,094	-0,137
-447,124	800,000	-0,027	-0,084
-446,109	-200,000	0,002	-0,029
-445,095	-12,587	-0,055	-0,026
-444,080	224,546	0,102	-0,121
-443,065	-94,731	-0,035	-0,007
-442,051	16,949	-0,075	0,043
-441,036	-200,000	-0,147	0,000
-440,022	-136,006	0,072	0,006
-439,007	578,643	-0,069	-0,123
-437,992	-120,503	0,250	-0,030
-436,978	31,609	0,023	-0,014
-435,963	800,000	0,025	-0,077
-434,949	-200,000	0,012	0,142
-433,934	187,277	-0,131	-0,142
-432,919	7,460	-0,111	-0,060
-431,905	-200,000	-0,007	-0,074
-430,890	-200,000	-0,012	0,171
-429,876	-200,000	0,007	0,044
-428,861	-106,327	0,126	0,020
-427,846	800,000	0,060	-0,135
-426,832	42,617	-0,081	-0,054
-425,817	-6,669	-0,095	-0,047
-424,803	-52,657	0,089	0,030
-423,788	-200,000	-0,006	0,038
-422,773	52,829	0,085	-0,059
-421,759	250,101	-0,043	0,053
-420,744	-200,000	-0,017	0,167
-419,730	-68,129	-0,118	-0,033
-418,715	1,980	-0,147	-0,077
-417,701	52,404	-0,072	-0,050
-416,686	800,000	0,043	-0,115
-415,671	-84,951	0,045	-0,010
-414,657	194,761	0,099	-0,110
-413,642	800,000	0,024	0,074
-412,628	800,000	-0,030	0,068
-411,613	474,125	-0,078	-0,129
-410,598	-18,079	0,079	0,036
-409,584	-200,000	-0,001	0,037
-408,569	-86,231	0,200	0,045
-407,555	-143,691	-0,074	0,005
-406,540	-169,515	0,127	0,003
-405,525	88,111	-0,060	0,049
-404,511	-200,000	-0,012	-0,090
-403,496	-86,589	0,191	-0,042
-402,482	269,174	-0,033	-0,043
-401,467	269,989	-0,074	-0,095
-400,452	800,000	0,067	0,151
-399,438	91,089	-0,178	0,146
-398,423	-200,000	-0,024	-0,086
-397,409	800,000	0,038	-0,120
-396,394	12,715	0,051	-0,028
-395,379	118,054	0,115	-0,103
-394,365	-200,000	0,005	0,042
-393,350	-30,641	-0,101	0,042
-392,336	-94,251	-0,074	0,015
-391,321	-200,000	0,004	-0,072
-390,306	337,843	0,023	-0,033
-389,292	800,000	0,015	-0,037
-388,277	-71,476	-0,036	0,010
-387,263	-31,712	0,035	-0,014
-386,248	219,034	-0,069	0,080
-385,233	71,322	-0,042	0,031
-384,219	39,163	0,043	0,028
-383,204	-13,219	-0,098	-0,046
-382,190	-200,000	0,005	-0,079
-381,175	244,807	-0,053	-0,065
-380,160	800,000	-0,014	0,040
-379,146	-90,013	0,092	0,019
-378,131	-200,000	-0,010	0,095
-377,117	800,000	0,039	-0,081
-376,102	-200,000	0,015	-0,051
-375,088	-200,000	0,013	-0,065
-374,073	101,591	-0,091	-0,077
-373,058	125,761	0,078	-0,072
-372,044	-98,164	-0,113	-0,021
-371,029	-75,735	0,026	0,007
-370,015	98,304	0,101	0,085
-369,000	800,000	-0,049	0,114
-367,985	-200,000	0,022	-0,086
-366,971	-200,000	-0,006	-0,126
-365,956	-34,984	-0,126	-0,050
-364,942	-200,000	0,033	0,139
-363,927	678,594	-0,029	0,054
-362,912	-68,093	-0,148	-0,042
-361,898	50,704	-0,086	0,059
-360,883	3,653	0,056	0,030
-359,869	800,000	0,030	-0,069
-358,854	600,680	0,094	0,171
-357,839	800,000	0,047	0,113
-356,825	-200,000	-0,005	0,063
-355,810	36,864	0,134	-0,086
-354,796	-121,913	0,080	0,009
-353,781	-200,000	0,015	0,078
-352,766	-200,000	0,001	-0,103
-351,752	-165,154	0,053	-0,002
-350,737	24,104	0,104	-0,062
-349,723	800,000	0,020	-0,059
-348,708	800,000	0,038	-0,121
-347,693	-200,000	0,026	-0,124
-346,679	-200,000	-0,013	-0,177
-345,664	-200,000	0,011	-0,059
-344,650	669,057	-0,063	-0,118
-343,635	82,185	0,117	-0,092
-342,620	-58,301	0,055	0,017
-341,606	-63,850	0,098	-0,029
-340,591	126,942	-0,025	-0,023
-339,577	-124,949	-0,019	0,002
-338,562	-200,000	0,002	0,042
-337,548	429,921	0,047	0,074
-336,533	83,815	0,064	-0,051
-335,518	-200,000	-0,045	0,169
-334,504	11,915	-0,122	0,068
-333,489	-68,452	-0,034	-0,009
-332,475	-151,683	-0,097	-0,005
-331,460	-51,380	0,103	-0,035
-330,445	-200,000	-0,025	0,100
-329,431	-68,750	-0,116	-0,032
-328,416	-16,023	0,079	-0,036
-327,402	250,977	-0,071	-0,088
-326,387	552,612	0,038	-0,067
-325,372	800,000	0,062	0,136
-324,358	59,695	-0,047	0,034
-323,343	-46,370	0,017	0,006
-322,329	31,960	0,043	0,027
-321,314	-13,009	-0,036	-0,017
-320,299	-200,000	-0,014	0,142
-319,285	-200,000	0,023	0,099
-318,270	-50,229	0,052	-0,018
-317,256	-28,315	-0,082	0,034
-316,241	-200,000	-0,006	0,032
-315,226	-117,449	-0,080	0,010
-314,212	687,019	-0,081	0,154
-313,197	800,000	-0,058	0,139
-312,183	-200,000	0,035	0,113
-311,168	-200,000	0,038	-0,125
-310,153	266,125	-0,026	-0,033
-309,139	276,736	0,053	-0,069
-308,124	-200,000	-0,001	0,064
-307,110	-70,082	0,085	-0,023
-306,095	800,000	0,030	0,085
-305,080	-53,801	0,040	0,013
-304,066	-26,397	0,075	-0,032
-303,051	-72,091	-0,073	-0,019
-302,037	-200,000	0,054	0,178
-301,022	81,558	-0,083	0,065
-300,008	-200,000	0,022	0,153
-298,993	-200,000	0,005	0,132
-297,978	-97,630	0,032	0,006
-296,964	-200,000	-0,008	-0,084
-295,949	-39,245	-0,130	0,049
-294,935	-200,000	-0,035	0,217
-293,920	800,000	0,024	-0,051
-292,905	800,000	0,022	0,066
-291,891	-200,000	0,024	0,165
-290,876	23,488	-0,068	0,040
-289,862	603,904	-0,030	-0,055
-288,847	-125,418	-0,051	0,006
-287,832	176,198	-0,092	-0,096
-286,818	800,000	-0,018	0,051
-285,803	-200,000	0,037	0,218
-284,789	-78,293	-0,048	-0,012
-283,774	-73,943	0,039	0,010
-282,759	800,000	-0,047	0,145
-281,745	-200,000	0,004	0,115
-280,730	393,630	0,065	0,098
-279,716	549,653	-0,012	-0,021
-278,701	-46,313	-0,014	0,005
-277,686	304,469	0,034	0,046
-276,672	766,913	0,079	-0,157
-275,657	800,000	0,014	0,040
-274,643	223,931	0,033	0,039
-273,628	-96,389	-0,142	-0,027
-272,613	672,551	0,058	-0,109
-271,599	-200,000	0,006	-0,040
-270,584	10,465	0,060	-0,033
-269,570	-200,000	0,021	-0,103
-268,555	-5,553	0,104	-0,051
-267,540	-191,941	0,053	-0,000
-266,526	-150,446	-0,054	-0,003
-265,511	-200,000	-0,012	0,090
-264,497	105,354	0,051	0,043
-263,482	47,993	0,034	-0,023
-262,467	92,007	-0,071	0,057
-261,453	-200,000	-0,014	-0,044
-260,438	-7,922	-0,044	-0,021
-259,424	225,300	-0,015	-0,017
-258,409	71,289	-0,078	-0,058
-257,395	50,668	0,099	0,067
-256,380	800,000	-0,021	-0,056
-255,365	-163,420	0,175	0,006
-254,351	229,861	-0,035	0,042
-253,336	-200,000	0,008	0,047
-252,322	800,000	0,093	-0,239
-251,307	800,000	0,024	0,055
-250,292	-154,080	-0,129	0,006
-249,278	-53,069	-0,046	0,015
-248,263	765,970	0,004	-0,007
-247,249	-85,739	-0,199	0,044
-246,234	-15,302	0,062	0,029
-245,219	-200,000	0,012	0,057
-244,205	-34,601	0,077	-0,030
-243,190	-200,000	-0,033	-0,111
-242,176	-200,000	0,009	0,074
-241,161	323,876	0,064	0,089
-240,146	-138,255	0,102	-0,008
-239,132	-135,440	-0,043	0,004
-238,117	-200,000	0,017	-0,109
-237,103	-200,000	0,006	-0,059
-236,088	-136,781	-0,131	0,011
-235,073	-200,000	0,011	0,130
-234,059	492,590	0,017	0,028
-233,044	85,687	0,136	-0,108
-232,030	299,156	0,047	-0,062
-231,015	-172,072	0,098	0,002
-230,000	525,365	-0,038	-0,065
-228,986	-35,709	0,028	-0,011
-227,971	800,000	-0,045	0,130
-226,957	3,747	-0,058	0,030
-225,942	-200,000	-0,005	0,026
-224,927	-110,855	0,091	0,013
-223,913	307,869	-0,041	-0,056
-222,898	-200,000	-0,026	-0,088
-221,884	81,747	-0,067	0,052
-220,869	800,000	0,027	0,083
-219,855	-121,267	0,063	-0,008
-218,840	789,599	-0,031	0,063
-217,825	800,000	0,025	-0,080
-216,811	800,000	-0,044	0,095
-215,796	157,237	0,025	-0,025
-214,782	-200,000	-0,008	-0,042
-213,767	-149,524	0,078	0,004
-212,752	-191,219	0,080	-0,001
-211,738	-200,000	-0,011	0,048
-210,723	-200,000	0,000	0,077
-209,709	-200,000	-0,011	0,041
-208,694	8,595	-0,076	-0,041
-207,679	-8,158	0,117	0,057
-206,665	-169,441	-0,057	0,001
-205,650	800,000	0,046	0,096
-204,636	-98,181	0,141	-0,026
-203,621	-200,000	-0,006	0,033
-202,606	800,000	0,020	-0,044
-201,592	263,296	-0,063	0,079
-200,577	-13,351	-0,061	-0,029
-199,563	37,412	-0,206	-0,131
-198,548	-46,418	0,062	-0,022
-197,533	24,479	0,043	-0,025
-196,519	-200,000	0,011	0,173
-195,504	37,838	-0,044	0,028
-194,490	66,622	-0,033	-0,024
-193,475	-80,550	-0,101	-0,024
-192,460	193,197	-0,042	0,046
-191,446	-19,686	0,074	-0,033
-190,431	608,404	-0,010	0,018
-189,417	-147,885	0,028	-0,002
-188,402	108,141	0,052	0,045
-187,387	294,069	-0,057	-0,076
-186,373	36,128	0,064	0,040
-185,358	22,952	0,056	-0,033
-184,344	-95,590	-0,015	-0,003
-183,329	-200,000	-0,002	-0,028
-182,315	-98,842	0,110	-0,020
-181,300	160,467	0,095	-0,096
-180,285	-106,007	-0,130	-0,021
-179,271	218,965	0,031	0,035
-178,256	-200,000	-0,003	0,044
-177,242	30,768	0,126	0,078
-176,227	230,545	0,111	0,131
-175,212	272,423	0,064	0,082
-174,198	-22,455	-0,063	0,027
-173,183	-124,197	0,169	0,019
-172,169	-90,217	-0,119	-0,025
-171,154	-27,798	0,051	-0,021
-170,139	378,812	0,085	0,125
-169,125	800,000	0,008	-0,016
-168,110	331,156	-0,035	0,049
-167,096	27,419	0,030	0,018
-166,081	627,668	-0,005	0,009
-165,066	-81,228	-0,037	-0,009
-164,052	-200,000	-0,002	-0,095
-163,037	-175,084	0,047	-0,001
-162,023	-200,000	-0,025	0,079
-161,008	-85,777	0,078	0,017
-159,993	84,496	-0,167	0,132
-158,979	-18,274	-0,049	0,022
-157,964	-200,000	0,011	-0,054
-156,950	-200,000	0,013	-0,058
-155,935	332,233	0,067	-0,093
-154,920	12,827	-0,098	-0,054
-153,906	214,335	-0,074	0,084
-152,891	-200,000	-0,037	0,128
-151,877	-200,000	0,006	-0,160
-150,862	492,517	-0,066	-0,109
-149,847	-25,055	0,137	-0,058
-148,833	-89,143	-0,005	-0,001
-147,818	122,093	0,019	-0,017
-146,804	-200,000	0,055	0,215
-145,789	800,000	-0,026	0,054
-144,775	-200,000	-0,026	0,129
-143,760	-200,000	0,008	-0,043
-142,745	51,444	-0,081	-0,055
-141,731	-13,898	0,148	-0,069
-140,716	-102,557	-0,071	0,012
-139,702	-120,878	-0,060	-0,007
-138,687	800,000	0,073	-0,164
-137,672	151,865	0,046	-0,045
-136,658	-21,854	-0,055	-0,024
-135,643	800,000	0,068	-0,155
-134,629	800,000	-0,026	-0,055
-133,614	-89,081	0,126	0,027
-132,599	800,000	-0,075	0,168
-131,585	-117,254	0,056	-0,007
-130,570	-200,000	0,025	-0,096
-129,556	-200,000	-0,015	-0,048
-128,541	14,216	0,125	-0,070
-127,526	135,628	0,020	0,018
-126,512	-52,141	0,034	0,011
-125,497	800,000	0,075	0,152
-124,483	-200,000	-0,009	0,054
-123,468	544,523	-0,037	-0,064
-122,453	800,000	-0,038	-0,115
-121,439	458,412	-0,071	0,114
-120,424	800,000	-0,041	0,085
-119,410	30,145	0,086	0,052
