DTS Sentinel unit serial number:	SN410029Multiplexer serial number:	ORYXHardware model number:	OX2-SRSoftware version number:	ORYX F/W v4,00 Oryx Data Collector v3.7.2.0data status	okinstallation	B5 Nyhavnadifferential loss correction	single-endedforward channel	channel 2reverse channel	N/Adate	2023/12/14time	14:52:13forward acquisition time	300,00reverse acquisition time	0,00gamma	499,1914k internal	0,3157k external	0,3157temperature offset calibration	1,0000default loss term (dB/km)	0,3820temperature slope calibration	1,0000multiplexer offset coefficient	1,0000multiplexer slope coefficient	1,0000fibre end	0,00T internal ref (°C)	7,97T ext. ref 1 (°C)	-8,15T ext. ref 2 (°C)	-8,19length (m)	temperature (°C)	Stokes	anti-Stokes-744,400	-97,367	0,229	-0,044
-743,385	60,471	-0,341	-0,248
-742,371	-1,957	0,230	0,119
-741,356	-61,805	-0,207	-0,063
-740,342	34,245	0,224	0,144
-739,327	-143,901	-0,434	-0,030
-738,312	603,400	0,036	0,067
-737,298	71,106	-0,263	-0,200
-736,283	264,239	0,100	0,128
-735,269	-114,524	-0,414	-0,058
-734,254	800,000	0,062	0,196
-733,239	-81,307	-0,574	-0,139
-732,225	159,415	0,176	0,181
-731,210	800,000	0,008	-0,017
-730,196	-200,000	-0,004	-0,119
-729,181	-200,000	0,000	-0,126
-728,167	122,388	0,033	0,030
-727,152	-128,933	-0,143	-0,015
-726,137	-200,000	-0,001	-0,105
-725,123	209,763	-0,061	0,071
-724,108	-57,772	0,059	-0,019
-723,094	800,000	-0,069	-0,148
-722,079	-59,881	-0,212	-0,066
-721,064	414,699	-0,010	-0,016
-720,050	800,000	0,044	-0,133
-719,035	88,101	0,072	0,059
-718,021	618,067	-0,038	-0,070
-717,006	-60,596	0,025	-0,008
-715,991	800,000	-0,055	-0,135
-714,977	-200,000	0,005	-0,193
-713,962	40,658	-0,142	-0,094
-712,948	-59,073	-0,093	0,029
-711,933	800,000	0,041	-0,096
-710,918	-200,000	0,019	-0,141
-709,904	-114,407	-0,083	-0,012
-708,889	-81,487	-0,008	-0,002
-707,875	306,902	0,068	-0,093
-706,860	244,815	0,116	-0,144
-705,845	-139,936	-0,087	0,007
-704,831	800,000	0,033	0,087
-703,816	150,881	0,059	-0,059
-702,802	-86,476	-0,071	0,016
-701,787	-115,205	-0,226	0,031
-700,772	-101,388	0,177	-0,032
-699,758	-36,259	0,102	0,040
-698,743	362,546	0,073	0,109
-697,729	-200,000	0,016	0,088
-696,714	-79,446	-0,065	0,016
-695,699	-200,000	-0,002	0,037
-694,685	-83,031	-0,209	0,049
-693,670	-90,424	0,045	0,010
-692,656	372,411	-0,069	-0,103
-691,641	-104,516	-0,067	0,011
-690,627	242,193	-0,117	-0,144
-689,612	130,484	-0,103	-0,097
-688,597	-200,000	-0,031	-0,130
-687,583	800,000	-0,032	-0,088
-686,568	-200,000	-0,036	0,122
-685,554	-200,000	0,003	0,037
-684,539	60,720	0,042	-0,030
-683,524	-85,465	-0,096	0,022
-682,510	-200,000	0,005	0,022
-681,495	680,775	-0,036	-0,068
-680,481	4,478	-0,072	-0,039
-679,466	-200,000	-0,039	-0,151
-678,451	612,871	-0,049	-0,091
-677,437	-67,886	0,085	0,024
-676,422	-146,970	-0,073	0,005
-675,408	-90,166	-0,069	-0,015
-674,393	88,688	-0,066	-0,054
-673,378	-40,212	0,103	-0,039
-672,364	368,185	-0,033	-0,048
-671,349	200,115	-0,064	-0,072
-670,335	558,963	-0,092	-0,164
-669,320	-200,000	0,003	-0,022
-668,305	-45,878	0,128	-0,046
-667,291	-50,143	-0,121	-0,042
-666,276	-119,132	0,059	0,007
-665,262	-6,103	-0,101	0,050
-664,247	-69,706	-0,124	0,035
-663,232	-66,982	-0,019	-0,006
-662,218	-21,345	0,057	0,025
-661,203	523,567	-0,040	0,070
-660,189	-40,028	-0,110	-0,042
-659,174	-200,000	0,016	0,063
-658,159	24,296	0,123	-0,075
-657,145	-134,044	0,016	0,001
-656,130	-161,835	-0,106	-0,004
-655,116	110,270	0,029	0,026
-654,101	-19,094	0,095	-0,043
-653,086	163,869	-0,077	0,080
-652,072	-200,000	-0,017	0,073
-651,057	37,063	-0,111	0,072
-650,043	241,210	-0,026	0,033
-649,028	-90,610	-0,103	0,022
-648,014	393,770	-0,074	-0,114
-646,999	-200,000	0,001	-0,029
-645,984	800,000	0,041	0,085
-644,970	-200,000	0,084	0,000
-643,955	-32,232	-0,049	-0,020
-642,941	99,031	-0,112	-0,095
-641,926	60,930	0,047	-0,034
-640,911	-71,713	-0,012	-0,003
-639,897	204,075	0,144	0,165
-638,882	131,980	0,066	0,062
-637,868	333,531	0,046	-0,066
-636,853	-200,000	-0,019	-0,098
-635,838	95,085	0,038	-0,032
-634,824	-200,000	0,005	0,053
-633,809	96,545	-0,072	-0,061
-632,795	-54,253	-0,111	-0,037
-631,780	149,263	0,033	0,033
-630,765	200,416	-0,075	-0,085
-629,751	-19,891	-0,129	-0,058
-628,736	-113,349	-0,108	-0,015
-627,722	-154,524	-0,042	-0,002
-626,707	-200,000	-0,002	0,021
-625,692	-102,015	-0,104	0,018
-624,678	44,876	-0,061	-0,041
-623,663	-200,000	0,035	-0,122
-622,649	800,000	0,024	-0,051
-621,634	-67,546	-0,139	0,040
-620,619	60,196	0,015	-0,011
-619,605	0,752	-0,086	-0,045
-618,590	-17,250	-0,140	-0,064
-617,576	-200,000	-0,001	0,071
-616,561	145,464	0,064	0,063
-615,546	-53,260	-0,099	0,033
-614,532	-200,000	0,019	-0,066
-613,517	54,178	0,025	0,018
-612,503	800,000	0,069	0,213
-611,488	-85,877	-0,168	-0,038
-610,474	700,055	0,032	0,063
-609,459	-95,025	0,109	0,022
-608,444	143,983	-0,060	-0,059
-607,430	800,000	-0,063	-0,152
-606,415	-50,299	0,056	-0,019
-605,401	-147,010	-0,054	0,003
-604,386	-11,955	0,100	0,048
-603,371	-200,000	0,000	0,068
-602,357	-200,000	-0,019	0,064
-601,342	700,754	0,031	0,061
-600,328	-200,000	-0,004	-0,048
-599,313	676,313	-0,029	-0,056
-598,298	-200,000	-0,009	-0,085
-597,284	800,000	0,037	0,081
-596,269	-200,000	-0,008	0,117
-595,255	698,588	-0,128	-0,248
-594,240	98,983	-0,045	-0,038
-593,225	800,000	0,008	0,025
-592,211	-79,698	-0,033	-0,008
-591,196	-200,000	-0,007	0,026
-590,182	-141,542	0,077	-0,006
-589,167	800,000	0,041	0,109
-588,152	-180,962	0,150	-0,002
-587,138	101,875	0,041	-0,035
-586,123	-133,135	-0,093	-0,009
-585,109	-8,698	0,104	-0,051
-584,094	9,429	-0,115	0,064
-583,079	244,800	0,130	-0,160
-582,065	12,904	0,085	-0,048
-581,050	465,233	0,054	0,090
-580,036	24,259	-0,114	0,069
-579,021	-120,374	0,182	-0,022
-578,006	37,413	-0,137	0,089
-576,992	348,144	0,083	-0,120
-575,977	245,055	0,077	-0,095
-574,963	-146,052	0,058	0,004
-573,948	-102,779	-0,051	0,009
-572,934	245,002	0,106	-0,131
-571,919	-120,061	-0,153	0,019
-570,904	51,712	-0,058	0,040
-569,890	-200,000	-0,002	-0,043
-568,875	101,492	-0,010	-0,009
-567,861	-30,567	-0,045	0,019
-566,846	-106,130	0,101	0,016
-565,831	253,151	0,042	0,052
-564,817	-200,000	-0,023	-0,162
-563,802	-200,000	-0,021	-0,097
-562,788	11,575	-0,102	0,057
-561,773	1,265	0,055	-0,029
-560,758	-169,430	0,073	-0,002
-559,744	29,059	0,234	0,145
-558,729	800,000	-0,029	0,092
-557,715	800,000	0,062	-0,151
-556,700	-200,000	0,008	-0,086
-555,685	-32,362	-0,129	-0,053
-554,671	0,517	0,092	0,048
-553,656	-200,000	0,000	0,083
-552,642	6,705	0,157	0,085
-551,627	-87,171	-0,143	-0,032
-550,612	-200,000	-0,003	0,020
-549,598	-200,000	0,014	-0,069
-548,583	20,572	0,075	0,044
-547,569	123,621	-0,066	-0,060
-546,554	28,084	0,088	-0,054
-545,539	195,013	-0,064	0,071
-544,525	-42,696	0,049	0,018
-543,510	-53,111	-0,048	0,016
-542,496	306,444	0,033	0,045
-541,481	38,545	-0,099	-0,065
-540,466	-37,803	0,071	-0,028
-539,452	303,519	0,046	0,062
-538,437	-125,538	0,051	-0,006
-537,423	-200,000	0,001	-0,034
-536,408	363,873	-0,017	0,025
-535,393	276,549	0,013	0,017
-534,379	176,115	-0,077	-0,082
-533,364	-79,535	-0,049	-0,012
-532,350	-183,947	-0,070	-0,001
-531,335	-47,752	0,060	-0,021
-530,321	-200,000	0,019	0,121
-529,306	108,565	-0,116	-0,101
-528,291	-200,000	-0,003	-0,034
-527,277	-90,462	-0,095	0,020
-526,262	70,029	-0,040	0,030
-525,248	127,585	-0,059	-0,055
-524,233	800,000	0,015	0,045
-523,218	109,710	0,119	0,104
-522,204	188,755	-0,052	0,057
-521,189	54,344	0,061	0,043
-520,175	-90,098	-0,117	-0,025
-519,160	-200,000	-0,001	0,007
-518,145	23,699	0,099	0,059
-517,131	527,932	-0,014	-0,025
-516,116	411,057	0,008	-0,012
-515,102	-200,000	0,002	0,024
-514,087	702,748	-0,057	-0,110
-513,072	800,000	0,062	-0,192
-512,058	-69,258	0,037	-0,010
-511,043	-112,434	-0,125	-0,018
-510,029	-200,000	-0,004	-0,099
-509,014	68,318	-0,056	0,042
-507,999	101,452	-0,027	0,023
-506,985	18,084	-0,076	0,044
-505,970	222,713	0,077	-0,090
-504,956	-19,204	-0,139	-0,063
-503,941	-79,534	0,079	0,019
-502,926	188,636	0,063	0,069
-501,912	211,894	-0,052	-0,060
-500,897	460,980	0,019	-0,031
-499,883	-200,000	0,003	0,035
-498,868	466,579	-0,021	-0,035
-497,853	-76,690	-0,038	0,010
-496,839	583,099	-0,037	0,066
-495,824	128,633	0,089	0,082
-494,810	776,205	-0,065	0,131
-493,795	69,709	0,121	0,091
-492,781	684,757	-0,024	0,045
-491,766	-19,827	-0,109	0,049
-490,751	800,000	0,040	0,122
-489,737	-200,000	0,008	0,123
-488,722	46,981	0,145	0,098
-487,708	-200,000	0,011	-0,079
-486,693	800,000	0,038	0,110
-485,678	43,097	-0,091	0,061
-484,664	-48,368	0,022	-0,008
-483,649	800,000	-0,036	-0,080
-482,635	678,902	0,049	-0,094
-481,620	106,846	-0,056	-0,048
-480,605	-96,251	0,068	-0,013
-479,591	-200,000	-0,001	0,044
-478,576	-200,000	-0,020	-0,115
-477,562	-66,857	0,141	-0,040
-476,547	318,243	0,032	0,044
-475,532	245,522	-0,111	0,136
-474,518	256,916	0,024	-0,030
-473,503	76,439	-0,083	-0,064
-472,489	-200,000	-0,034	-0,128
-471,474	-200,000	-0,030	-0,140
-470,459	-200,000	-0,014	-0,078
-469,445	-200,000	0,010	-0,087
-468,430	-200,000	-0,004	-0,169
-467,416	-112,223	0,077	-0,011
-466,401	-200,000	0,010	0,071
-465,386	-47,880	0,043	-0,015
-464,372	800,000	-0,032	0,072
-463,357	41,304	-0,076	0,050
-462,343	-145,519	-0,124	-0,008
-461,328	115,787	-0,118	0,105
-460,313	144,415	-0,129	-0,126
-459,299	-156,038	-0,019	-0,001
-458,284	-200,000	-0,017	-0,081
-457,270	-200,000	-0,002	-0,017
-456,255	-59,963	-0,020	0,006
-455,241	245,693	0,082	-0,100
-454,226	-70,074	0,103	-0,029
-453,211	-44,852	0,062	0,022
-452,197	97,286	-0,003	0,003
-451,182	-150,047	0,164	-0,009
-450,168	89,000	0,052	-0,042
-449,153	-171,740	-0,217	0,005
-448,138	-200,000	-0,004	-0,088
-447,124	55,971	0,103	-0,072
-446,109	-200,000	0,020	-0,134
-445,095	180,485	0,025	0,027
-444,080	208,062	-0,069	0,078
-443,065	-10,381	0,111	-0,054
-442,051	37,637	-0,076	0,049
-441,036	106,573	-0,076	-0,065
-440,022	-68,740	-0,078	0,022
-439,007	-200,000	-0,005	0,070
-437,992	302,782	0,041	0,056
-436,978	404,332	-0,036	0,055
-435,963	88,201	0,068	-0,055
-434,949	290,064	0,068	0,090
-433,934	-200,000	0,028	0,135
-432,919	-71,503	-0,033	-0,009
-431,905	-57,017	0,193	0,062
-430,890	-188,023	0,038	0,000
-429,876	-200,000	-0,005	0,040
-428,861	16,523	-0,045	-0,026
-427,846	-74,525	-0,052	0,013
-426,832	-200,000	0,001	-0,013
-425,817	44,205	-0,131	-0,087
-424,803	800,000	0,051	-0,131
-423,788	-29,715	-0,013	0,005
-422,773	-200,000	0,003	-0,013
-421,759	57,138	0,045	-0,032
-420,744	-56,673	-0,083	-0,026
-419,730	5,974	-0,070	-0,038
-418,715	354,010	-0,023	0,033
-417,701	-200,000	-0,021	-0,096
-416,686	-200,000	-0,006	-0,085
-415,671	-73,463	-0,002	-0,001
-414,657	-200,000	-0,022	-0,097
-413,642	169,999	0,082	-0,086
-412,628	-150,820	0,093	-0,005
-411,613	-132,387	0,061	-0,006
-410,598	-69,052	-0,080	-0,022
-409,584	553,818	0,035	0,062
-408,569	-27,419	0,098	0,041
-407,555	-27,648	-0,031	-0,013
-406,540	404,575	-0,034	-0,053
-405,525	800,000	0,032	-0,079
-404,511	217,727	0,023	-0,026
-403,496	-200,000	-0,016	-0,112
-402,482	32,251	0,117	-0,073
-401,467	-129,527	-0,072	-0,007
-400,452	800,000	-0,020	-0,041
-399,438	256,456	0,043	-0,054
-398,423	-11,293	-0,097	0,046
-397,409	-200,000	-0,033	-0,136
-396,394	800,000	-0,037	-0,092
-395,379	-200,000	0,003	0,023
-394,365	-169,393	-0,026	0,001
-393,350	-63,119	0,096	0,029
-392,336	134,131	0,088	0,083
-391,321	-143,851	-0,102	0,007
-390,306	-108,667	-0,144	-0,022
-389,292	800,000	-0,023	-0,074
-388,277	-200,000	0,012	-0,045
-387,263	535,852	0,050	0,086
-386,248	401,575	0,053	0,082
-385,233	-200,000	0,018	0,104
-384,219	-200,000	-0,019	-0,090
-383,204	-200,000	0,026	0,118
-382,190	-131,919	-0,107	-0,010
-381,175	-97,616	-0,098	-0,018
-380,160	-200,000	-0,006	0,099
-379,146	4,877	0,037	-0,020
-378,131	192,988	0,028	-0,031
-377,117	-42,508	0,065	-0,024
-376,102	138,218	-0,075	-0,072
-375,088	800,000	0,072	-0,154
-374,073	-56,538	-0,070	0,022
-373,058	-25,005	0,089	0,038
-372,044	67,960	0,032	-0,023
-371,029	-200,000	0,000	-0,036
-370,015	-85,237	0,021	-0,005
-369,000	56,408	-0,123	-0,087
-367,985	153,759	-0,056	0,056
-366,971	251,815	0,056	-0,069
-365,956	158,964	0,106	0,107
-364,942	732,106	0,071	0,138
-363,927	296,872	0,099	0,132
-362,912	-60,715	0,103	-0,031
-361,898	800,000	0,014	0,046
-360,883	265,909	-0,068	0,086
-359,869	25,581	-0,089	-0,054
-358,854	158,665	0,102	-0,103
-357,839	-200,000	-0,004	-0,116
-356,825	-200,000	0,010	-0,034
-355,810	-118,843	-0,140	0,018
-354,796	-200,000	0,011	-0,071
-353,781	706,531	-0,020	0,039
-352,766	800,000	0,060	-0,165
-351,752	52,972	0,074	0,051
-350,737	96,556	-0,048	0,040
-349,723	-135,127	0,072	0,006
-348,708	-155,140	-0,086	-0,004
-347,693	90,390	0,103	0,083
-346,679	18,703	-0,115	-0,067
-345,664	-43,437	-0,021	-0,008
-344,650	575,325	-0,022	0,040
-343,635	101,238	0,038	-0,032
-342,620	-200,000	-0,014	0,094
-341,606	800,000	0,087	0,183
-340,591	-200,000	-0,031	-0,155
-339,577	800,000	0,062	-0,145
-338,562	800,000	0,033	-0,094
-337,548	202,124	0,061	-0,068
-336,533	-200,000	-0,003	0,012
-335,518	107,652	0,125	0,108
-334,504	91,172	0,094	0,076
-333,489	800,000	-0,022	-0,050
-332,475	800,000	0,048	0,108
-331,460	800,000	-0,047	-0,127
-330,445	419,231	-0,044	-0,069
-329,431	139,705	-0,041	0,040
-328,416	-200,000	-0,040	0,171
-327,402	602,836	-0,025	-0,045
-326,387	800,000	0,009	0,024
-325,372	-66,920	-0,007	-0,002
-324,358	800,000	-0,035	-0,099
-323,343	-200,000	-0,012	-0,039
-322,329	390,567	0,072	-0,108
-321,314	181,222	0,103	0,110
-320,299	-65,008	0,066	-0,019
-319,285	-8,462	0,055	0,027
-318,270	-52,823	0,035	0,012
-317,256	2,341	0,074	-0,039
-316,241	800,000	-0,043	-0,104
-315,226	-133,769	-0,049	0,004
-314,212	86,058	-0,060	0,048
-313,197	150,016	-0,110	-0,108
-312,183	92,552	0,099	0,081
-311,168	19,842	0,072	-0,042
-310,153	-106,860	-0,061	0,010
-309,139	-200,000	-0,043	0,206
-308,124	-55,218	-0,183	0,059
-307,110	-25,115	-0,052	0,022
-306,095	-200,000	-0,000	0,099
-305,080	-108,843	-0,064	-0,010
-304,066	-58,617	-0,056	0,018
-303,051	9,227	-0,105	0,058
-302,037	179,605	-0,071	-0,075
-301,022	-143,834	0,079	0,005
-300,008	-35,087	0,032	-0,013
-298,993	-200,000	-0,019	0,080
-297,978	800,000	0,054	0,110
-296,964	-3,053	-0,032	0,016
-295,949	14,663	-0,038	0,021
-294,935	-200,000	0,003	-0,103
-293,920	-200,000	-0,007	0,053
-292,905	-200,000	0,007	0,131
-291,891	-17,215	0,107	0,048
-290,876	-55,710	-0,056	0,018
-289,862	142,868	-0,112	0,108
-288,847	800,000	-0,035	0,087
-287,832	7,905	0,048	-0,026
-286,818	152,347	-0,023	-0,023
-285,803	192,948	0,062	0,068
-284,789	-6,906	0,059	0,029
-283,774	-83,841	0,054	0,012
-282,759	118,649	0,035	-0,031
-281,745	-24,717	-0,177	0,076
-280,730	160,420	0,038	-0,038
-279,716	-164,888	0,085	-0,003
-278,701	91,754	-0,055	0,045
-277,686	23,334	-0,019	0,011
-276,672	722,599	-0,059	0,115
-275,657	-200,000	-0,006	0,099
-274,643	800,000	-0,024	-0,064
-273,628	234,843	-0,112	-0,134
-272,613	549,418	-0,078	0,136
-271,599	-176,465	0,159	-0,003
-270,584	800,000	-0,003	-0,011
-269,570	-200,000	0,060	0,203
-268,555	-151,104	0,062	-0,003
-267,540	181,498	-0,077	0,082
-266,526	-12,611	-0,061	0,029
-265,511	125,286	0,047	0,043
-264,497	800,000	0,030	0,088
-263,482	800,000	0,020	0,055
-262,467	31,144	-0,029	0,018
-261,453	10,576	0,141	-0,078
-260,438	-200,000	0,005	0,023
-259,424	161,288	-0,053	0,053
-258,409	110,518	0,101	0,088
-257,395	800,000	-0,013	0,032
-256,380	-152,319	0,095	0,005
-255,365	-200,000	0,003	0,105
-254,351	-163,965	0,069	0,002
-253,336	-200,000	0,013	-0,051
-252,322	293,536	-0,057	0,076
-251,307	-7,783	-0,110	-0,053
-250,292	102,397	0,091	-0,077
-249,278	-72,095	0,196	0,052
-248,263	-138,220	0,152	0,012
-247,249	201,841	0,039	-0,043
-246,234	800,000	0,042	0,095
-245,219	196,231	-0,090	0,099
-244,205	75,990	0,060	-0,046
-243,190	-142,240	-0,041	-0,003
-242,176	800,000	0,046	0,095
-241,161	800,000	0,010	0,029
-240,146	112,578	-0,022	0,020
-239,132	-108,259	0,031	0,005
-238,117	-200,000	0,016	-0,127
-237,103	655,436	0,020	-0,037
-236,088	-200,000	-0,003	-0,024
-235,073	-164,145	0,040	-0,001
-234,059	711,172	0,051	0,098
-233,044	15,887	0,074	0,042
-232,030	-79,817	-0,048	0,011
-231,015	-70,478	-0,083	-0,023
-230,000	216,295	0,047	-0,054
-228,986	694,224	-0,035	-0,066
-227,971	96,560	-0,092	-0,076
-226,957	9,842	0,093	-0,051
-225,942	-111,711	-0,074	-0,011
-224,927	499,896	0,064	0,107
-223,913	-80,971	-0,049	-0,012
-222,898	-200,000	-0,026	-0,138
-221,884	646,522	-0,011	0,020
-220,869	59,574	0,097	0,069
-219,855	-43,540	-0,036	-0,013
-218,840	-200,000	0,013	-0,108
-217,825	-52,617	-0,222	0,074
-216,811	216,184	-0,045	-0,052
-215,796	-121,268	-0,132	0,016
-214,782	133,185	0,057	-0,053
-213,767	78,974	0,101	-0,078
-212,752	132,543	-0,019	0,017
-211,738	420,157	0,065	-0,101
-210,723	-47,473	-0,048	0,017
-209,709	-8,325	-0,015	-0,007
-208,694	426,921	-0,069	-0,108
-207,679	-72,767	0,070	-0,018
-206,665	-10,606	0,120	-0,057
-205,650	156,202	0,070	-0,070
-204,636	568,955	-0,028	-0,049
-203,621	570,824	0,017	0,030
-202,606	126,646	-0,049	0,045
-201,592	7,054	-0,038	-0,020
-200,577	-200,000	-0,020	0,161
-199,563	800,000	-0,048	-0,098
-198,548	-116,261	0,083	0,011
-197,533	745,652	-0,075	0,146
-196,519	220,364	0,009	-0,010
-195,504	270,940	-0,023	-0,030
-194,490	43,577	-0,120	-0,079
-193,475	282,733	0,035	0,045
-192,460	800,000	0,016	0,038
-191,446	17,975	0,033	0,019
-190,431	68,305	0,080	0,059
-189,417	532,717	-0,113	0,194
-188,402	-200,000	0,027	0,093
-187,387	-189,005	-0,066	0,001
-186,373	-106,336	0,097	-0,016
-185,358	1,064	0,056	0,029
-184,344	258,729	0,133	0,166
-183,329	-116,441	0,071	-0,009
-182,315	-200,000	0,023	0,130
-181,300	-200,000	-0,006	0,072
-180,285	-54,448	-0,124	-0,040
-179,271	-200,000	0,023	0,132
-178,256	714,748	0,095	-0,182
-177,242	-93,419	-0,078	-0,016
-176,227	-200,000	0,047	0,186
-175,212	253,505	-0,109	0,135
-174,198	298,349	0,110	0,147
-173,183	-200,000	0,012	-0,117
-172,169	800,000	0,033	-0,090
-171,154	-200,000	0,002	-0,153
-170,139	749,547	-0,035	-0,068
-169,125	800,000	0,054	0,127
-168,110	221,047	0,021	0,024
-167,096	325,223	-0,055	0,076
-166,081	502,901	0,066	0,111
-165,066	188,282	-0,136	-0,147
-164,052	-200,000	0,007	-0,024
-163,037	124,032	-0,124	-0,112
-162,023	53,662	-0,035	0,024
-161,008	-82,132	0,127	-0,030
-159,993	-200,000	0,005	0,033
-158,979	7,206	-0,073	0,039
-157,964	800,000	-0,013	-0,037
-156,950	781,917	-0,082	-0,162
-155,935	45,415	0,095	-0,063
-154,920	293,212	-0,020	0,026
-153,906	800,000	0,057	0,130
-152,891	38,556	-0,060	0,039
-151,877	-29,221	-0,061	-0,025
-150,862	55,353	0,032	0,022
-149,847	-200,000	-0,012	-0,072
-148,833	800,000	-0,036	-0,093
-147,818	-200,000	-0,010	0,078
-146,804	64,491	0,075	0,054
-145,789	43,763	-0,038	0,025
-144,775	-200,000	0,003	0,031
-143,760	-200,000	-0,008	0,080
-142,745	-185,283	0,082	0,001
-141,731	470,221	-0,031	0,051
-140,716	79,392	0,131	-0,101
-139,702	-200,000	-0,011	0,036
-138,687	-42,267	0,040	0,015
-137,672	43,665	0,090	-0,059
-136,658	-28,687	-0,178	0,074
-135,643	-200,000	0,005	-0,096
-134,629	-83,464	0,092	-0,021
-133,614	-200,000	-0,030	0,127
-132,599	-200,000	-0,021	0,091
-131,585	-133,116	0,020	0,002
-130,570	590,287	0,064	0,114
-129,556	42,472	-0,069	-0,045
-128,541	-20,583	0,055	-0,024
-127,526	800,000	0,036	-0,076
-126,512	27,037	0,062	0,037
-125,497	79,458	-0,143	0,110
-124,483	-200,000	0,018	0,105
-123,468	18,942	-0,025	-0,014
-122,453	-31,499	0,114	-0,046
-121,439	800,000	-0,010	0,031
-120,424	302,147	-0,049	-0,066
-119,410	28,935	0,084	-0,051
-118,395	141,017	-0,023	-0,022
