DTS Sentinel unit serial number:	SN410029Multiplexer serial number:	ORYXHardware model number:	OX2-SRSoftware version number:	ORYX F/W v4,00 Oryx Data Collector v3.7.2.0data status	okinstallation	B5 Nyhavnadifferential loss correction	single-endedforward channel	channel 2reverse channel	N/Adate	2023/12/12time	22:27:13forward acquisition time	300,00reverse acquisition time	0,00gamma	499,1914k internal	0,3158k external	0,3158temperature offset calibration	1,0000default loss term (dB/km)	0,3820temperature slope calibration	1,0000multiplexer offset coefficient	1,0000multiplexer slope coefficient	1,0000fibre end	0,00T internal ref (°C)	14,66T ext. ref 1 (°C)	-1,92T ext. ref 2 (°C)	-2,24length (m)	temperature (°C)	Stokes	anti-Stokes-744,400	-200,000	0,121	0,000
-743,385	-107,407	-0,280	0,045
-742,371	4,761	0,172	0,093
-741,356	-165,814	-0,266	-0,008
-740,342	-69,894	0,202	-0,056
-739,327	-156,830	-0,423	-0,019
-738,312	34,453	0,119	0,077
-737,298	-162,945	-0,346	0,012
-736,283	-166,321	0,130	0,004
-735,269	-90,849	-0,355	0,075
-734,254	-130,431	0,055	-0,005
-733,239	-81,922	-0,523	-0,125
-732,225	35,890	0,116	-0,075
-731,210	-200,000	-0,020	0,069
-730,196	-200,000	0,006	-0,051
-729,181	615,473	-0,030	0,055
-728,167	800,000	-0,017	0,035
-727,152	-200,000	-0,003	-0,020
-726,137	-160,949	-0,129	-0,005
-725,123	726,408	0,026	-0,052
-724,108	-59,363	-0,125	-0,039
-723,094	121,212	0,069	-0,063
-722,079	75,252	-0,111	-0,086
-721,064	-8,845	0,092	0,045
-720,050	-140,132	-0,197	-0,015
-719,035	800,000	0,015	-0,036
-718,021	-19,571	0,021	-0,009
-717,006	-113,664	-0,045	-0,006
-715,991	-200,000	-0,005	-0,081
-714,977	-124,998	-0,161	-0,018
-713,962	800,000	0,015	0,045
-712,948	746,547	-0,054	0,107
-711,933	800,000	0,042	-0,100
-710,918	800,000	-0,029	0,071
-709,904	-200,000	-0,023	-0,133
-708,889	27,129	0,037	-0,023
-707,875	-200,000	-0,017	-0,082
-706,860	-200,000	0,002	0,075
-705,845	-200,000	-0,005	0,065
-704,831	603,292	-0,035	0,064
-703,816	-200,000	0,003	-0,099
-702,802	310,725	-0,046	0,063
-701,787	-112,628	-0,074	0,011
-700,772	448,122	0,013	0,021
-699,758	-200,000	0,006	-0,056
-698,743	202,657	0,072	-0,082
-697,729	182,131	0,006	-0,007
-696,714	473,339	-0,046	0,076
-695,699	-114,621	0,100	0,014
-694,685	-200,000	-0,046	-0,211
-693,670	-200,000	0,010	-0,119
-692,656	628,064	0,019	-0,035
-691,641	595,380	-0,033	-0,060
-690,627	141,835	0,017	-0,017
-689,612	483,126	-0,055	0,093
-688,597	-11,365	-0,047	-0,023
-687,583	-143,647	-0,100	0,007
-686,568	225,294	-0,056	0,067
-685,554	164,677	-0,039	-0,040
-684,539	16,800	-0,046	0,027
-683,524	-200,000	0,013	0,193
-682,510	-62,316	0,038	-0,012
-681,495	-33,231	-0,052	-0,021
-680,481	-156,174	-0,049	-0,002
-679,466	664,323	0,034	0,064
-678,451	-61,504	-0,087	0,027
-677,437	800,000	-0,008	0,021
-676,422	194,626	0,046	-0,052
-675,408	22,866	-0,069	0,042
-674,393	-200,000	0,006	0,131
-673,378	-160,741	-0,095	0,004
-672,364	-27,112	0,095	-0,040
-671,349	-44,205	-0,071	-0,026
-670,335	794,322	-0,046	0,094
-669,320	-153,949	-0,021	0,001
-668,305	-74,732	0,022	0,006
-667,291	112,553	0,048	0,042
-666,276	52,163	-0,052	-0,037
-665,262	769,864	0,037	-0,074
-664,247	-200,000	0,003	0,040
-663,232	-154,381	-0,081	-0,004
-662,218	-200,000	-0,034	0,205
-661,203	-58,966	-0,089	-0,028
-660,189	275,624	-0,035	-0,046
-659,174	88,623	-0,034	-0,028
-658,159	-109,076	-0,049	0,008
-657,145	800,000	0,013	-0,034
-656,130	121,774	0,052	0,048
-655,116	363,700	-0,080	0,119
-654,101	195,948	0,019	-0,021
-653,086	345,699	0,029	-0,042
-652,072	-200,000	-0,007	0,034
-651,057	-4,219	-0,042	-0,021
-650,043	800,000	-0,029	0,068
-649,028	74,203	-0,104	0,080
-648,014	11,699	0,051	0,028
-646,999	-138,876	0,057	-0,004
-645,984	-50,056	-0,163	0,056
-644,970	-115,562	-0,076	-0,010
-643,955	162,237	-0,014	0,014
-642,941	759,646	0,081	-0,162
-641,926	800,000	-0,038	-0,081
-640,911	-19,483	-0,040	-0,018
-639,897	-200,000	0,016	-0,173
-638,882	-200,000	-0,040	-0,189
-637,868	-37,664	-0,065	-0,025
-636,853	-200,000	0,015	-0,091
-635,838	15,128	-0,111	0,064
-634,824	-200,000	-0,027	0,136
-633,809	7,899	0,058	0,032
-632,795	-34,260	0,104	0,042
-631,780	800,000	0,021	0,045
-630,765	360,398	0,087	0,128
-629,751	75,868	0,095	-0,074
-628,736	501,755	0,036	-0,061
-627,722	-135,910	0,051	-0,004
-626,707	115,401	0,119	0,107
-625,692	-45,499	-0,111	-0,040
-624,678	800,000	0,058	0,171
-623,663	-11,911	0,138	0,066
-622,649	-198,499	0,068	0,000
-621,634	-10,812	-0,022	0,011
-620,619	-200,000	0,037	0,000
-619,605	706,612	0,049	0,096
-618,590	-102,873	0,034	-0,006
-617,576	130,622	0,046	0,043
-616,561	-138,078	-0,105	0,008
-615,546	152,203	0,077	-0,077
-614,532	73,657	-0,187	-0,143
-613,517	-109,901	-0,096	0,015
-612,503	-91,722	-0,092	-0,019
-611,488	118,165	0,081	0,074
-610,474	-61,533	-0,069	-0,021
-609,459	800,000	0,028	0,081
-608,444	-102,884	-0,148	0,026
-607,430	68,218	0,161	-0,121
-606,415	-146,932	-0,147	-0,009
-605,401	-200,000	0,009	-0,073
-604,386	53,984	-0,051	0,036
-603,371	-15,547	0,081	0,038
-602,357	362,431	0,070	0,103
-601,342	-19,177	0,093	-0,042
-600,328	135,439	-0,075	0,072
-599,313	-200,000	-0,006	0,085
-598,298	800,000	-0,036	0,084
-597,284	23,640	-0,024	0,015
-596,269	88,923	0,136	0,111
-595,255	-200,000	0,061	-0,246
-594,240	716,140	-0,027	-0,054
-593,225	365,698	-0,040	0,059
-592,211	800,000	-0,048	-0,116
-591,196	54,547	-0,141	-0,100
-590,182	262,083	-0,050	-0,063
-589,167	-72,241	0,053	0,014
-588,152	-59,198	-0,028	-0,009
-587,138	-95,984	0,160	0,031
-586,123	156,528	-0,104	-0,105
-585,109	121,158	-0,045	-0,041
-584,094	800,000	0,054	0,133
-583,079	-200,000	0,018	0,114
-582,065	567,537	0,028	0,050
-581,050	-200,000	0,014	0,080
-580,036	10,788	-0,074	-0,042
-579,021	-127,132	-0,162	-0,017
-578,006	354,121	0,081	-0,118
-576,992	208,853	-0,091	0,105
-575,977	-100,732	0,058	0,010
-574,963	621,705	-0,010	-0,019
-573,948	-200,000	0,009	0,077
-572,934	-124,251	-0,113	-0,013
-571,919	-200,000	0,001	-0,035
-570,904	394,360	-0,072	-0,110
-569,890	-26,649	-0,112	-0,048
-568,875	72,808	0,067	0,051
-567,861	175,809	0,060	-0,064
-566,846	466,584	0,080	0,131
-565,831	255,220	-0,158	0,198
-564,817	73,993	-0,079	-0,061
-563,802	65,350	-0,078	-0,058
-562,788	-8,608	-0,080	-0,039
-561,773	325,184	0,086	0,121
-560,758	-200,000	0,001	0,129
-559,744	-200,000	0,011	0,081
-558,729	204,343	0,080	0,091
-557,715	229,419	-0,124	-0,149
-556,700	189,927	-0,078	-0,086
-555,685	-57,821	-0,024	0,008
-554,671	23,374	-0,059	0,036
-553,656	124,184	-0,014	-0,013
-552,642	-102,852	0,130	0,022
-551,627	-200,000	-0,008	0,119
-550,612	474,891	0,022	-0,036
-549,598	-64,618	-0,110	0,033
-548,583	800,000	0,052	-0,122
-547,569	103,276	0,014	0,012
-546,554	220,651	0,017	-0,020
-545,539	361,351	-0,066	0,097
-544,525	73,980	-0,036	-0,027
-543,510	-128,140	0,020	-0,002
-542,496	-200,000	-0,015	-0,071
-541,481	-120,846	-0,149	0,018
-540,466	800,000	0,038	-0,115
-539,452	-35,907	-0,042	-0,016
-538,437	128,320	0,102	0,095
-537,423	84,960	0,186	0,149
-536,408	-69,425	0,063	0,018
-535,393	-200,000	0,013	-0,071
-534,379	-115,638	0,125	0,017
-533,364	293,976	0,045	-0,060
-532,350	800,000	0,055	0,114
-531,335	66,935	0,076	-0,056
-530,321	-190,774	-0,081	-0,001
-529,306	192,011	0,120	0,132
-528,291	165,952	-0,091	0,094
-527,277	800,000	-0,053	-0,138
-526,262	-200,000	0,011	-0,050
-525,248	475,427	-0,049	-0,082
-524,233	-37,750	0,103	0,040
-523,218	394,053	-0,068	-0,103
-522,204	208,641	0,011	0,013
-521,189	101,704	-0,070	-0,060
-520,175	800,000	-0,018	0,045
-519,160	-119,400	-0,123	0,015
-518,145	117,462	0,118	-0,106
-517,131	83,766	-0,077	0,061
-516,116	200,614	0,048	0,054
-515,102	54,787	-0,086	0,061
-514,087	-79,561	-0,068	0,017
-513,072	-69,589	0,031	0,009
-512,058	-200,000	-0,017	-0,070
-511,043	696,762	0,011	0,021
-510,029	743,770	0,027	-0,053
-509,014	29,857	-0,113	-0,070
-507,999	-200,000	0,008	0,096
-506,985	-99,241	0,054	-0,010
-505,970	-156,959	-0,088	-0,004
-504,956	-200,000	0,006	-0,106
-503,941	-200,000	-0,007	-0,068
-502,926	800,000	-0,023	-0,056
-501,912	800,000	0,054	0,110
-500,897	-200,000	-0,007	0,057
-499,883	800,000	-0,056	0,130
-498,868	477,778	0,032	0,053
-497,853	53,796	0,033	-0,023
-496,839	-34,965	0,094	-0,037
-495,824	155,994	-0,086	0,087
-494,810	203,089	0,087	0,099
-493,795	-165,688	-0,048	-0,001
-492,781	800,000	-0,030	0,062
-491,766	-200,000	0,012	-0,047
-490,751	-200,000	-0,012	-0,125
-489,737	-67,664	0,082	-0,023
-488,722	502,323	0,017	-0,029
-487,708	-200,000	-0,027	-0,096
-486,693	470,037	-0,052	0,085
-485,678	186,049	-0,005	0,005
-484,664	86,862	-0,040	-0,032
-483,649	568,801	-0,048	-0,085
-482,635	500,508	0,006	0,010
-481,620	271,110	0,091	0,117
-480,605	-39,692	0,049	0,019
-479,591	75,254	0,032	-0,024
-478,576	-151,525	-0,023	-0,001
-477,562	199,472	-0,042	0,047
-476,547	175,930	0,036	0,038
-475,532	-130,033	0,041	0,004
-474,518	-101,335	-0,022	0,004
-473,503	108,707	0,058	-0,050
-472,489	559,266	-0,105	-0,186
-471,474	27,466	-0,092	0,056
-470,459	-200,000	0,003	0,021
-469,445	11,370	0,068	0,038
-468,430	2,287	-0,152	0,080
-467,416	242,709	0,041	-0,050
-466,401	1,593	0,062	0,032
-465,386	539,661	0,014	-0,024
-464,372	40,783	0,090	-0,059
-463,357	80,173	0,066	-0,052
-462,343	-15,742	0,050	-0,023
-461,328	-129,610	0,071	0,007
-460,313	70,679	-0,068	0,051
-459,299	-200,000	-0,009	0,052
-458,284	99,132	0,064	0,054
-457,270	-89,435	-0,124	0,026
-456,255	-200,000	0,017	-0,070
-455,241	-10,580	0,047	0,023
-454,226	-130,439	-0,008	-0,001
-453,211	-200,000	-0,000	-0,027
-452,197	6,106	0,016	0,009
-451,182	-200,000	0,006	0,078
-450,168	-58,999	-0,065	0,020
-449,153	659,676	0,037	0,070
-448,138	-0,515	-0,025	-0,013
-447,124	460,911	-0,034	-0,055
-446,109	-33,673	-0,072	0,029
-445,095	-120,137	0,118	0,015
-444,080	253,051	0,064	0,079
-443,065	-143,154	0,072	0,005
-442,051	-200,000	0,018	-0,113
-441,036	-86,198	-0,099	0,022
-440,022	-107,486	-0,079	-0,012
-439,007	-200,000	-0,012	0,139
-437,992	-200,000	-0,003	0,086
-436,978	-200,000	0,001	0,065
-435,963	485,189	0,055	0,091
-434,949	-88,031	0,169	-0,037
-433,934	-85,750	-0,119	0,027
-432,919	193,986	-0,014	0,016
-431,905	16,134	0,056	0,032
-430,890	123,171	0,064	-0,058
-429,876	-42,832	0,098	-0,036
-428,861	34,477	0,025	0,016
-427,846	65,070	0,102	-0,075
-426,832	138,315	-0,115	0,110
-425,817	-31,240	-0,039	-0,016
-424,803	626,694	0,082	0,152
-423,788	800,000	0,027	0,059
-422,773	210,991	-0,051	0,058
-421,759	-103,140	-0,178	0,030
-420,744	-120,161	-0,162	0,020
-419,730	-200,000	-0,020	-0,072
-418,715	188,466	0,048	-0,053
-417,701	800,000	0,058	-0,129
-416,686	-72,426	-0,102	0,027
-415,671	144,909	0,139	0,135
-414,657	63,871	0,061	0,045
-413,642	-72,294	0,010	-0,003
-412,628	-200,000	0,021	0,096
-411,613	52,307	-0,090	-0,062
-410,598	800,000	-0,066	-0,134
-409,584	256,582	0,025	-0,031
-408,569	-200,000	-0,026	0,090
-407,555	800,000	-0,061	0,147
-406,540	17,887	-0,112	0,065
-405,525	-200,000	0,031	-0,133
-404,511	-200,000	0,014	-0,044
-403,496	533,824	0,060	-0,104
-402,482	-200,000	-0,002	-0,035
-401,467	247,687	-0,065	-0,080
-400,452	-11,184	-0,032	-0,015
-399,438	104,435	-0,007	-0,006
-398,423	-200,000	0,026	0,122
-397,409	240,220	-0,052	-0,063
-396,394	-67,943	-0,105	-0,030
-395,379	58,869	0,154	0,110
-394,365	92,550	0,025	0,020
-393,350	800,000	0,045	-0,096
-392,336	-200,000	-0,031	-0,134
-391,321	-50,138	-0,120	0,041
-390,306	-200,000	0,001	-0,018
-389,292	328,199	-0,062	-0,087
-388,277	-39,182	-0,083	-0,032
-387,263	800,000	0,035	-0,096
-386,248	-152,007	0,144	-0,008
-385,233	-118,010	0,213	0,027
-384,219	-60,017	0,044	-0,014
-383,204	-74,501	-0,066	0,017
-382,190	-21,387	-0,245	-0,108
-381,175	-144,416	0,159	0,011
-380,160	800,000	-0,013	0,027
-379,146	-55,634	0,035	0,011
-378,131	451,668	-0,066	-0,106
-377,117	-32,461	-0,047	-0,019
-376,102	256,977	-0,081	0,101
-375,088	-39,452	-0,084	-0,032
-374,073	764,754	-0,015	-0,031
-373,058	260,451	-0,061	0,077
-372,044	739,297	0,076	0,149
-371,029	-200,000	-0,008	-0,069
-370,015	-200,000	-0,002	-0,096
-369,000	173,238	-0,098	0,103
-367,985	173,333	-0,023	-0,024
-366,971	8,083	0,102	-0,056
-365,956	800,000	0,072	0,150
-364,942	-200,000	0,002	0,044
-363,927	-200,000	-0,022	-0,086
-362,912	83,748	-0,079	0,062
-361,898	158,647	-0,095	-0,096
-360,883	800,000	-0,010	-0,025
-359,869	436,234	0,059	-0,093
-358,854	-200,000	-0,008	0,119
-357,839	-39,307	0,085	-0,032
-356,825	254,315	-0,009	0,012
-355,810	47,041	0,103	-0,069
-354,796	-200,000	0,022	-0,118
-353,781	800,000	0,019	0,057
-352,766	-200,000	-0,020	-0,083
-351,752	800,000	-0,043	-0,119
-350,737	36,955	0,090	-0,058
-349,723	-29,342	0,135	-0,056
-348,708	-200,000	0,004	0,090
-347,693	0,263	0,044	0,023
-346,679	-158,047	-0,027	-0,001
-345,664	410,382	0,086	-0,132
-344,650	-66,509	-0,067	-0,019
-343,635	312,587	0,022	0,030
-342,620	160,209	0,112	0,113
-341,606	800,000	0,049	-0,109
-340,591	22,938	0,083	0,049
-339,577	485,621	0,063	-0,104
-338,562	-200,000	-0,042	-0,145
-337,548	32,988	-0,083	0,052
-336,533	-30,997	0,056	0,023
-335,518	-17,872	0,222	0,100
-334,504	-115,869	0,074	-0,010
-333,489	-17,938	-0,042	0,019
-332,475	-200,000	0,010	-0,166
-331,460	71,460	-0,158	-0,119
-330,445	800,000	0,040	0,127
-329,431	-113,361	0,192	-0,027
-328,416	219,522	0,013	-0,015
-327,402	99,347	-0,085	-0,072
-326,387	-200,000	-0,005	0,143
-325,372	186,433	-0,036	0,039
-324,358	-38,624	-0,064	-0,024
-323,343	223,844	-0,072	-0,084
-322,329	800,000	0,040	0,113
-321,314	-62,388	0,046	-0,014
-320,299	395,375	-0,022	-0,034
-319,285	400,341	-0,037	-0,057
-318,270	37,215	0,168	0,108
-317,256	-110,037	0,047	-0,007
-316,241	800,000	-0,004	-0,013
-315,226	-200,000	-0,005	-0,059
-314,212	-142,126	0,187	0,013
-313,197	-200,000	0,012	0,067
-312,183	6,040	0,040	-0,022
-311,168	-7,193	-0,116	0,057
-310,153	-200,000	-0,002	0,123
-309,139	-118,683	0,075	-0,009
-308,124	784,843	0,067	0,134
-307,110	110,625	-0,040	0,035
-306,095	800,000	0,005	0,015
-305,080	-82,953	0,031	0,007
-304,066	28,030	-0,030	0,018
-303,051	-117,304	0,064	-0,008
-302,037	-200,000	0,010	-0,033
-301,022	-32,853	0,037	-0,015
-300,008	-167,427	0,070	-0,002
-298,993	43,104	-0,128	0,084
-297,978	-94,174	-0,122	0,024
-296,964	144,314	-0,063	-0,061
-295,949	-77,177	0,110	0,027
-294,935	-95,725	-0,060	0,012
-293,920	94,642	0,082	0,068
-292,905	800,000	0,079	0,189
-291,891	-200,000	0,006	-0,052
-290,876	436,615	-0,015	-0,024
-289,862	-43,476	-0,075	-0,027
-288,847	-170,371	-0,055	-0,001
-287,832	800,000	0,039	0,084
-286,818	-46,457	-0,102	-0,036
-285,803	56,381	0,078	-0,055
-284,789	-33,269	0,084	-0,033
-283,774	-200,000	-0,009	-0,118
-282,759	-200,000	0,002	-0,039
-281,745	225,655	-0,043	0,050
-280,730	-200,000	-0,032	-0,103
-279,716	33,250	-0,035	-0,022
-278,701	85,516	-0,062	0,049
-277,686	-200,000	-0,009	0,035
-276,672	-100,359	0,149	-0,027
-275,657	-54,238	-0,039	0,013
-274,643	614,274	-0,068	-0,123
-273,628	-17,190	-0,069	-0,031
-272,613	-134,370	-0,055	0,005
-271,599	-200,000	-0,001	-0,115
-270,584	-155,067	0,082	0,004
-269,570	800,000	-0,039	0,104
-268,555	170,634	0,037	0,038
-267,540	355,808	-0,056	-0,080
-266,526	86,131	0,044	-0,035
-265,511	272,849	-0,054	-0,069
-264,497	247,450	-0,065	0,079
-263,482	159,468	0,045	0,045
-262,467	800,000	0,057	0,129
-261,453	36,581	0,096	0,061
-260,438	233,697	-0,031	0,037
-259,424	-2,029	-0,108	-0,055
-258,409	13,120	0,020	0,011
-257,395	-200,000	0,012	-0,042
-256,380	-59,649	0,124	0,038
-255,365	-136,639	-0,071	-0,006
-254,351	800,000	-0,049	0,111
-253,336	-23,046	0,061	-0,026
-252,322	-116,941	0,037	-0,005
-251,307	-130,237	0,163	-0,016
-250,292	-200,000	0,013	0,067
-249,278	83,244	-0,056	-0,044
-248,263	-66,294	-0,072	-0,020
-247,249	-44,701	0,125	0,045
-246,234	-200,000	-0,011	-0,111
-245,219	22,152	-0,093	-0,055
-244,205	-83,567	0,161	-0,037
-243,190	-200,000	-0,029	-0,092
-242,176	8,811	0,117	-0,063
-241,161	800,000	-0,045	0,116
-240,146	88,502	-0,071	0,057
-239,132	-118,272	0,102	0,013
-238,117	263,672	-0,050	-0,062
-237,103	800,000	0,036	-0,077
-236,088	-200,000	0,010	0,054
-235,073	134,643	0,085	-0,080
-234,059	283,513	-0,036	0,047
-233,044	-200,000	-0,127	-0,000
-232,030	-172,407	-0,088	0,002
-231,015	640,044	0,030	-0,055
-230,000	-200,000	-0,002	-0,030
-228,986	-200,000	-0,025	0,086
-227,971	-113,851	0,071	0,010
-226,957	-161,399	0,066	0,002
-225,942	-5,215	0,095	0,047
-224,927	21,533	0,099	0,058
-223,913	-25,587	-0,094	-0,040
-222,898	232,500	-0,096	-0,114
-221,884	800,000	-0,052	-0,107
-220,869	-39,051	0,084	0,032
-219,855	-200,000	-0,010	0,188
-218,840	156,143	-0,040	-0,039
-217,825	800,000	-0,040	-0,117
-216,811	387,262	0,064	0,095
-215,796	2,647	-0,160	-0,084
-214,782	178,877	-0,019	-0,020
-213,767	-200,000	0,010	-0,095
-212,752	229,295	-0,022	0,026
-211,738	-7,271	-0,008	0,004
-210,723	-200,000	0,016	0,127
-209,709	-70,492	-0,121	-0,033
-208,694	-3,282	0,062	-0,031
-207,679	-112,895	-0,110	0,016
-206,665	711,221	-0,027	-0,051
-205,650	-200,000	-0,006	-0,083
-204,636	800,000	-0,024	-0,054
-203,621	-200,000	-0,015	0,101
-202,606	-200,000	0,026	0,101
-201,592	-34,868	-0,146	-0,057
-200,577	10,161	-0,134	0,074
-199,563	29,272	0,119	-0,073
-198,548	-200,000	0,004	-0,113
-197,533	7,579	-0,108	-0,058
-196,519	-125,317	0,038	-0,004
-195,504	65,527	-0,037	-0,027
-194,490	800,000	-0,064	-0,178
-193,475	-53,798	-0,104	-0,034
-192,460	347,220	0,123	-0,175
-191,446	-200,000	-0,014	-0,066
-190,431	-161,959	-0,026	-0,001
-189,417	-93,271	0,071	0,014
-188,402	800,000	0,059	0,145
-187,387	-28,048	-0,109	-0,045
-186,373	-150,335	-0,096	0,005
-185,358	-13,301	-0,057	0,027
-184,344	-200,000	-0,027	-0,180
-183,329	60,354	0,137	0,097
-182,315	800,000	0,053	0,119
-181,300	-22,565	0,040	0,017
-180,285	-200,000	0,007	-0,148
-179,271	734,848	-0,079	0,153
-178,256	77,963	0,066	-0,051
-177,242	213,735	0,079	0,090
-176,227	295,347	0,011	-0,015
-175,212	-200,000	-0,004	0,081
-174,198	86,954	-0,171	0,136
-173,183	800,000	-0,077	0,176
-172,169	-200,000	-0,002	-0,058
-171,154	42,208	0,080	0,052
-170,139	145,845	0,036	-0,034
-169,125	-200,000	0,022	-0,090
-168,110	30,232	0,092	0,056
-167,096	-79,433	-0,137	0,033
-166,081	-186,547	-0,060	0,001
-165,066	-145,070	-0,124	0,008
-164,052	-200,000	0,010	-0,074
-163,037	209,184	-0,029	-0,033
-162,023	60,629	0,120	0,086
-161,008	-200,000	-0,009	-0,175
-159,993	174,093	0,057	0,059
-158,979	84,187	0,029	-0,023
-157,964	-62,672	-0,154	0,046
-156,950	-171,724	0,064	-0,001
-155,935	-129,580	0,113	-0,011
-154,920	697,719	0,045	-0,085
-153,906	36,853	0,130	0,083
-152,891	-59,999	0,071	0,022
-151,877	-46,378	-0,081	0,029
-150,862	-43,913	-0,039	0,014
-149,847	-68,542	-0,264	0,073
-148,833	800,000	0,042	0,093
-147,818	18,957	-0,026	0,015
-146,804	800,000	0,005	0,015
-145,789	-200,000	-0,007	0,046
-144,775	328,482	-0,060	-0,083
-143,760	800,000	-0,011	-0,035
-142,745	-200,000	0,003	-0,124
-141,731	-167,781	-0,115	0,003
-140,716	-108,228	-0,158	0,024
-139,702	22,647	0,160	-0,094
-138,687	156,393	0,119	0,118
-137,672	-82,997	-0,058	-0,013
-136,658	-200,000	-0,045	-0,172
-135,643	-200,000	0,011	-0,042
-134,629	-65,709	0,129	-0,037
-133,614	-115,484	0,117	-0,016
-132,599	-121,305	0,098	0,012
-131,585	-23,044	-0,105	-0,045
-130,570	40,110	-0,102	-0,066
-129,556	163,853	0,009	0,009
-128,541	227,599	0,044	0,052
-127,526	161,955	-0,096	-0,097
-126,512	-72,686	-0,056	0,015
-125,497	186,175	0,050	-0,053
-124,483	579,175	0,090	0,160
-123,468	800,000	0,002	0,004
-122,453	580,509	-0,021	-0,038
-121,439	-121,250	-0,072	0,009
-120,424	-200,000	0,023	0,075
-119,410	-200,000	0,005	0,028
