DTS Sentinel unit serial number:	SN410029Multiplexer serial number:	ORYXHardware model number:	OX2-SRSoftware version number:	ORYX F/W v4,00 Oryx Data Collector v3.7.2.0data status	okinstallation	B5 Nyhavnadifferential loss correction	single-endedforward channel	channel 2reverse channel	N/Adate	2023/12/13time	05:37:13forward acquisition time	300,00reverse acquisition time	0,00gamma	499,1914k internal	0,3159k external	0,3159temperature offset calibration	1,0000default loss term (dB/km)	0,3820temperature slope calibration	1,0000multiplexer offset coefficient	1,0000multiplexer slope coefficient	1,0000fibre end	0,00T internal ref (°C)	13,83T ext. ref 1 (°C)	-2,58T ext. ref 2 (°C)	-2,89length (m)	temperature (°C)	Stokes	anti-Stokes-744,400	-154,206	0,057	0,003
-743,385	-61,364	-0,338	-0,104
-742,371	36,577	0,093	0,060
-741,356	-189,533	-0,195	0,002
-740,342	-57,515	0,132	0,043
-739,327	-127,174	-0,255	0,027
-738,312	-200,000	0,002	0,008
-737,298	-111,360	-0,347	0,052
-736,283	249,395	0,080	0,100
-735,269	-2,684	-0,255	0,131
-734,254	-25,555	0,157	-0,068
-733,239	-49,454	-0,444	-0,155
-732,225	-51,230	0,122	0,042
-731,210	-90,336	0,068	-0,014
-730,196	78,364	0,139	0,109
-729,181	800,000	-0,028	-0,068
-728,167	104,618	0,074	-0,064
-727,152	326,492	-0,064	0,090
-726,137	428,652	0,052	0,083
-725,123	-122,189	-0,231	0,028
-724,108	-200,000	-0,007	-0,289
-723,094	-9,363	-0,030	-0,015
-722,079	200,808	-0,059	0,067
-721,064	-200,000	-0,008	-0,079
-720,050	-200,000	0,020	0,088
-719,035	-49,507	-0,196	0,068
-718,021	438,851	-0,068	-0,110
-717,006	65,346	-0,069	-0,051
-715,991	-189,180	-0,036	0,000
-714,977	644,445	-0,111	-0,210
-713,962	-200,000	0,007	-0,045
-712,948	74,390	0,086	-0,066
-711,933	-79,504	-0,183	0,045
-710,918	-62,720	-0,178	0,054
-709,904	800,000	-0,073	-0,168
-708,889	-15,537	-0,043	0,020
-707,875	-28,948	-0,113	-0,048
-706,860	-200,000	-0,009	-0,034
-705,845	-122,703	0,095	-0,011
-704,831	-200,000	-0,026	0,133
-703,816	-110,569	-0,041	-0,006
-702,802	-99,536	-0,045	0,008
-701,787	-100,605	-0,115	-0,021
-700,772	-31,517	0,050	-0,020
-699,758	-37,634	0,127	-0,049
-698,743	-3,852	0,065	0,033
-697,729	172,482	-0,030	0,032
-696,714	-3,420	0,019	0,010
-695,699	800,000	-0,017	-0,049
-694,685	-200,000	0,020	-0,115
-693,670	800,000	-0,063	-0,193
-692,656	800,000	-0,012	-0,026
-691,641	64,094	0,005	0,003
-690,627	602,208	0,057	0,105
-689,612	48,318	0,049	0,034
-688,597	-56,396	-0,138	0,045
-687,583	-200,000	0,006	-0,059
-686,568	-200,000	-0,010	-0,045
-685,554	-72,389	0,071	0,019
-684,539	-200,000	-0,021	0,098
-683,524	706,565	0,033	-0,064
-682,510	-157,346	-0,097	-0,004
-681,495	800,000	-0,066	-0,165
-680,481	-200,000	-0,023	-0,090
-679,466	-200,000	-0,044	-0,200
-678,451	73,794	-0,086	0,066
-677,437	-200,000	-0,000	-0,061
-676,422	-200,000	0,036	0,155
-675,408	125,129	0,094	0,087
-674,393	231,294	-0,056	-0,068
-673,378	-10,130	-0,122	-0,059
-672,364	-200,000	0,000	-0,004
-671,349	294,044	-0,031	-0,041
-670,335	202,884	0,081	0,092
-669,320	-11,734	0,117	0,056
-668,305	-200,000	0,000	-0,029
-667,291	311,591	-0,071	-0,098
-666,276	-200,000	0,014	-0,147
-665,262	622,691	0,018	-0,033
-664,247	-15,329	-0,124	0,058
-663,232	-200,000	-0,017	-0,074
-662,218	-66,780	-0,183	0,053
-661,203	95,844	-0,092	0,077
-660,189	158,282	-0,013	-0,013
-659,174	0,836	-0,102	-0,053
-658,159	-200,000	0,021	-0,114
-657,145	-196,156	0,062	0,000
-656,130	-24,186	-0,062	-0,027
-655,116	-200,000	0,001	-0,015
-654,101	186,670	0,088	-0,097
-653,086	-116,983	-0,080	-0,011
-652,072	-200,000	0,009	0,093
-651,057	-200,000	-0,027	-0,158
-650,043	80,815	0,042	-0,033
-649,028	351,616	-0,033	-0,048
-648,014	99,580	-0,033	-0,028
-646,999	60,694	-0,115	-0,083
-645,984	-47,509	-0,012	0,004
-644,970	-46,620	0,079	-0,028
-643,955	4,813	-0,017	0,009
-642,941	-119,504	-0,075	0,009
-641,926	33,212	0,051	0,033
-640,911	800,000	-0,014	0,034
-639,897	-200,000	0,022	0,203
-638,882	161,696	0,125	-0,128
-637,868	800,000	-0,027	0,079
-636,853	344,680	-0,068	-0,099
-635,838	-200,000	0,005	-0,020
-634,824	-200,000	-0,012	-0,049
-633,809	-200,000	0,002	-0,104
-632,795	-78,417	-0,243	0,061
-631,780	-152,264	-0,205	0,011
-630,765	68,021	-0,035	-0,026
-629,751	50,428	-0,147	0,102
-628,736	-200,000	-0,000	-0,026
-627,722	395,009	0,044	-0,068
-626,707	-31,707	0,064	0,026
-625,692	755,175	-0,116	0,230
-624,678	-39,320	0,063	-0,024
-623,663	800,000	0,046	-0,105
-622,649	-86,825	-0,018	-0,004
-621,634	800,000	-0,011	-0,027
-620,619	47,246	-0,026	-0,018
-619,605	-200,000	0,022	-0,121
-618,590	-200,000	-0,068	0,000
-617,576	84,696	0,042	0,033
-616,561	-112,772	-0,166	0,024
-615,546	237,679	-0,041	-0,050
-614,532	30,199	-0,049	-0,030
-613,517	-200,000	-0,006	-0,091
-612,503	323,880	-0,099	-0,138
-611,488	406,654	-0,028	0,044
-610,474	-92,362	0,039	0,008
-609,459	70,323	-0,025	-0,019
-608,444	-200,000	-0,015	0,085
-607,430	-200,000	-0,019	-0,090
-606,415	-200,000	-0,032	-0,117
-605,401	-30,871	0,029	0,012
-604,386	-90,604	-0,030	0,006
-603,371	-200,000	0,006	0,057
-602,357	108,966	0,064	0,056
-601,342	-200,000	-0,007	-0,042
-600,328	-52,562	-0,091	-0,031
-599,313	-200,000	-0,009	-0,064
-598,298	800,000	0,011	-0,025
-597,284	-200,000	0,001	0,008
-596,269	-4,300	0,093	0,047
-595,255	-109,325	0,079	0,012
-594,240	57,086	-0,107	-0,076
-593,225	6,235	0,141	-0,076
-592,211	525,931	-0,026	-0,044
-591,196	207,620	-0,047	-0,054
-590,182	-200,000	-0,011	-0,069
-589,167	668,139	0,047	0,090
-588,152	-63,942	0,063	0,019
-587,138	267,571	-0,045	0,058
-586,123	84,341	-0,057	-0,045
-585,109	0,440	-0,086	-0,045
-584,094	99,779	0,034	0,029
-583,079	166,691	-0,122	0,127
-582,065	-200,000	-0,015	0,054
-581,050	-200,000	0,009	0,059
-580,036	800,000	-0,046	-0,108
-579,021	-6,315	0,109	0,054
-578,006	631,717	-0,023	0,043
-576,992	-91,976	0,124	-0,025
-575,977	-79,200	-0,050	-0,012
-574,963	-200,000	-0,003	0,175
-573,948	374,698	0,047	-0,071
-572,934	800,000	-0,063	0,151
-571,919	206,420	-0,071	0,081
-570,904	-200,000	0,012	-0,093
-569,890	793,582	-0,083	0,168
-568,875	-200,000	-0,005	-0,024
-567,861	-200,000	0,024	-0,078
-566,846	87,903	0,041	0,033
-565,831	-89,466	-0,158	-0,034
-564,817	-200,000	0,002	0,038
-563,802	292,885	0,023	-0,031
-562,788	408,747	-0,090	-0,139
-561,773	-103,230	0,037	-0,006
-560,758	22,453	0,142	-0,084
-559,744	-200,000	0,005	0,022
-558,729	-112,245	-0,074	0,011
-557,715	-55,337	0,043	0,014
-556,700	57,958	0,079	-0,056
-555,685	800,000	-0,015	-0,032
-554,671	17,518	0,033	-0,019
-553,656	131,852	0,048	0,045
-552,642	-106,729	0,069	-0,011
-551,627	-200,000	0,008	-0,069
-550,612	-8,031	-0,128	-0,063
-549,598	800,000	0,039	-0,105
-548,583	-125,484	0,122	0,013
-547,569	-200,000	-0,038	-0,168
-546,554	-200,000	-0,009	-0,046
-545,539	-100,036	0,105	0,019
-544,525	336,042	0,053	0,075
-543,510	-200,000	0,021	-0,070
-542,496	800,000	-0,033	-0,082
-541,481	261,803	0,094	-0,119
-540,466	800,000	0,018	-0,040
-539,452	-200,000	-0,011	-0,059
-538,437	800,000	-0,009	-0,023
-537,423	-47,251	0,020	0,007
-536,408	63,755	-0,104	-0,076
-535,393	784,144	-0,039	-0,079
-534,379	800,000	0,026	-0,061
-533,364	443,411	0,029	0,046
-532,350	14,691	0,043	-0,025
-531,335	-200,000	0,010	-0,057
-530,321	472,577	0,078	0,129
-529,306	3,889	-0,075	-0,040
-528,291	-200,000	-0,000	0,031
-527,277	800,000	0,018	-0,041
-526,262	-200,000	0,016	-0,054
-525,248	151,865	-0,015	0,015
-524,233	403,945	0,036	-0,056
-523,218	800,000	0,025	0,058
-522,204	-38,336	-0,062	-0,024
-521,189	800,000	-0,068	-0,147
-520,175	227,030	-0,073	-0,087
-519,160	-50,620	-0,045	-0,016
-518,145	-25,067	-0,005	0,002
-517,131	484,372	0,078	0,131
-516,116	800,000	-0,053	-0,121
-515,102	313,710	0,059	-0,082
-514,087	-200,000	-0,003	-0,038
-513,072	117,744	-0,047	-0,042
-512,058	-46,906	0,096	-0,034
-511,043	-95,923	0,041	0,008
-510,029	-119,301	0,119	-0,015
-509,014	-200,000	0,028	0,114
-507,999	16,938	0,042	0,024
-506,985	719,165	-0,016	0,032
-505,970	432,399	0,040	0,063
-504,956	155,916	-0,008	0,009
-503,941	-32,353	0,113	-0,046
-502,926	800,000	0,053	0,151
-501,912	-80,108	0,043	0,010
-500,897	-200,000	-0,016	0,068
-499,883	307,117	0,045	-0,062
-498,868	104,710	-0,120	-0,103
-497,853	-62,296	-0,088	-0,027
-496,839	-70,869	-0,047	-0,013
-495,824	525,485	0,027	0,046
-494,810	-27,704	0,091	0,038
-493,795	-97,634	0,077	0,014
-492,781	-200,000	0,030	0,113
-491,766	477,884	0,056	-0,093
-490,751	800,000	0,076	0,169
-489,737	-200,000	-0,025	0,084
-488,722	-50,783	0,076	0,026
-487,708	640,307	-0,028	0,051
-486,693	310,975	0,016	-0,022
-485,678	-200,000	0,002	-0,052
-484,664	335,111	-0,044	-0,063
-483,649	-200,000	0,015	-0,083
-482,635	-110,063	0,095	-0,014
-481,620	-110,701	0,117	-0,017
-480,605	-115,948	0,133	0,018
-479,591	-86,039	0,121	-0,027
-478,576	444,646	0,100	-0,161
-477,562	-168,048	0,089	-0,002
-476,547	122,205	-0,099	-0,091
-475,532	316,996	0,088	0,122
-474,518	-156,805	-0,036	0,002
-473,503	-200,000	0,022	0,084
-472,489	800,000	0,042	0,085
-471,474	642,223	0,062	-0,115
-470,459	800,000	0,046	-0,101
-469,445	-200,000	0,014	0,096
-468,430	800,000	-0,038	0,080
-467,416	-100,633	0,142	0,025
-466,401	586,102	0,056	0,101
-465,386	-200,000	-0,008	0,170
-464,372	40,256	0,059	0,038
-463,357	800,000	-0,055	0,113
-462,343	-21,627	-0,058	0,025
-461,328	800,000	-0,055	-0,162
-460,313	-71,506	-0,140	0,038
-459,299	-77,367	0,053	0,013
-458,284	13,302	0,059	-0,033
-457,270	-75,701	0,022	0,006
-456,255	160,959	0,099	0,100
-455,241	-126,420	0,082	-0,009
-454,226	-68,062	-0,116	-0,033
-453,211	-169,018	0,085	0,002
-452,197	384,149	0,100	0,151
-451,182	4,290	0,085	0,045
-450,168	-49,374	-0,074	-0,026
-449,153	-120,981	0,042	0,005
-448,138	-159,348	-0,086	0,003
-447,124	42,184	0,039	0,025
-446,109	-105,980	0,199	0,032
-445,095	-170,438	-0,052	-0,001
-444,080	-2,838	-0,018	0,009
-443,065	-0,132	0,064	0,033
-442,051	-41,018	-0,074	-0,028
-441,036	-200,000	-0,023	-0,124
-440,022	-5,984	0,074	0,036
-439,007	800,000	-0,046	0,141
-437,992	37,973	-0,058	-0,037
-436,978	-19,491	-0,074	-0,033
-435,963	-27,103	-0,110	0,047
-434,949	-200,000	0,034	0,122
-433,934	-200,000	0,012	0,090
-432,919	-200,000	-0,013	-0,096
-431,905	800,000	-0,018	-0,049
-430,890	780,647	0,028	0,056
-429,876	370,857	-0,064	0,095
-428,861	-44,076	-0,075	-0,027
-427,846	106,237	0,003	-0,002
-426,832	-175,924	-0,091	0,002
-425,817	-186,451	0,030	0,000
-424,803	424,835	-0,077	-0,121
-423,788	800,000	-0,026	0,077
-422,773	800,000	0,055	0,138
-421,759	-200,000	0,013	-0,086
-420,744	-16,813	-0,058	-0,026
-419,730	-200,000	-0,000	-0,091
-418,715	200,598	0,085	-0,095
-417,701	-118,334	0,052	-0,007
-416,686	-200,000	-0,038	0,147
-415,671	-174,943	0,109	-0,002
-414,657	-200,000	-0,023	0,140
-413,642	-133,362	-0,088	0,008
-412,628	-200,000	0,021	-0,137
-411,613	800,000	-0,033	-0,102
-410,598	-200,000	0,007	-0,074
-409,584	2,595	-0,054	0,028
-408,569	-200,000	-0,011	-0,065
-407,555	-172,382	0,114	0,003
-406,540	-107,552	0,075	-0,012
-405,525	800,000	-0,020	0,044
-404,511	-21,888	-0,030	-0,013
-403,496	-26,057	-0,059	-0,025
-402,482	-200,000	0,028	-0,097
-401,467	-200,000	0,001	0,141
-400,452	698,747	-0,022	0,043
-399,438	-130,119	0,165	-0,016
-398,423	29,436	-0,108	-0,067
-397,409	42,497	-0,105	0,070
-396,394	-75,322	-0,037	0,010
-395,379	360,402	-0,090	0,131
-394,365	800,000	0,044	0,135
-393,350	-200,000	0,003	-0,057
-392,336	-200,000	0,004	-0,070
-391,321	-91,230	0,095	-0,020
-390,306	-103,161	0,099	0,017
-389,292	-200,000	0,000	0,016
-388,277	800,000	-0,008	-0,023
-387,263	243,773	0,076	0,093
-386,248	227,851	-0,045	-0,053
-385,233	-60,159	0,037	0,011
-384,219	-8,330	0,106	0,052
-383,204	286,359	0,064	-0,084
-382,190	-200,000	-0,006	-0,062
-381,175	73,291	-0,081	-0,061
-380,160	115,003	0,087	0,077
-379,146	-200,000	-0,012	0,099
-378,131	5,086	-0,004	-0,002
-377,117	800,000	0,004	0,011
-376,102	-79,381	0,055	0,013
-375,088	-50,104	-0,087	0,030
-374,073	106,955	0,035	0,030
-373,058	-168,315	0,190	-0,005
-372,044	177,703	-0,096	0,102
-371,029	30,920	0,096	0,060
-370,015	-200,000	-0,011	-0,070
-369,000	195,152	0,084	-0,093
-367,985	612,136	0,032	-0,059
-366,971	800,000	0,066	-0,142
-365,956	-173,678	-0,077	-0,002
-364,942	412,199	-0,078	-0,121
-363,927	800,000	0,034	0,098
-362,912	92,458	0,056	0,046
-361,898	800,000	0,021	0,060
-360,883	30,634	0,077	0,048
-359,869	-48,803	-0,062	-0,021
-358,854	-200,000	0,031	0,105
-357,839	-110,615	-0,116	0,017
-356,825	8,966	0,148	-0,081
-355,810	159,724	0,082	-0,083
-354,796	31,781	-0,094	-0,059
-353,781	717,154	-0,037	-0,072
-352,766	235,030	-0,079	-0,095
-351,752	81,233	-0,087	0,068
-350,737	-200,000	-0,048	0,161
-349,723	-200,000	0,022	-0,097
-348,708	-196,044	-0,113	-0,001
-347,693	223,267	-0,086	0,100
-346,679	-200,000	0,002	0,041
-345,664	-7,270	-0,149	-0,073
-344,650	-67,017	0,059	-0,017
-343,635	-5,475	0,034	0,017
-342,620	26,304	-0,065	0,039
-341,606	800,000	-0,058	0,168
-340,591	146,794	0,038	-0,037
-339,577	800,000	-0,048	-0,112
-338,562	-200,000	-0,009	-0,053
-337,548	-101,894	-0,050	0,009
-336,533	43,081	0,081	-0,054
-335,518	-95,071	0,078	0,015
-334,504	-200,000	0,008	-0,025
-333,489	280,102	0,056	0,072
-332,475	156,789	0,019	-0,019
-331,460	-100,407	0,062	-0,011
-330,445	33,412	-0,207	0,130
-329,431	52,665	0,075	-0,052
-328,416	-191,693	0,235	-0,002
-327,402	-95,305	0,056	0,011
-326,387	10,092	0,029	-0,016
-325,372	11,990	0,076	-0,042
-324,358	-170,783	0,085	-0,002
-323,343	-192,275	0,097	0,001
-322,329	-200,000	-0,004	-0,027
-321,314	800,000	-0,027	-0,071
-320,299	-200,000	0,012	-0,118
-319,285	174,233	-0,063	0,066
-318,270	-63,198	-0,076	-0,022
-317,256	335,731	-0,044	0,061
-316,241	-7,503	-0,099	-0,049
-315,226	90,891	-0,031	-0,025
-314,212	30,641	-0,122	0,076
-313,197	-21,967	-0,040	0,018
-312,183	-21,618	0,079	0,035
-311,168	283,980	0,025	0,033
-310,153	800,000	-0,050	-0,117
-309,139	-87,668	0,105	0,023
-308,124	-76,376	-0,119	-0,030
-307,110	-35,611	0,234	0,092
-306,095	800,000	0,037	0,089
-305,080	418,044	-0,057	0,088
-304,066	-200,000	-0,009	0,093
-303,051	40,257	-0,144	0,094
-302,037	800,000	0,056	-0,142
-301,022	800,000	0,006	0,015
-300,008	800,000	-0,026	-0,066
-298,993	335,055	0,080	0,113
-297,978	578,008	0,014	0,026
-296,964	-200,000	-0,014	0,061
-295,949	95,306	-0,049	-0,041
-294,935	-200,000	-0,030	-0,100
-293,920	-8,625	-0,031	-0,015
-292,905	-143,427	-0,062	-0,004
-291,891	-108,131	-0,077	-0,012
-290,876	-29,946	-0,035	-0,014
-289,862	69,431	-0,143	0,106
-288,847	-150,320	-0,112	-0,006
-287,832	800,000	0,045	-0,129
-286,818	128,612	-0,072	-0,066
-285,803	-61,083	0,043	0,013
-284,789	-162,488	0,074	-0,003
-283,774	86,993	-0,067	0,053
-282,759	-93,827	0,125	0,025
-281,745	800,000	0,016	-0,049
-280,730	149,634	0,042	0,041
-279,716	296,122	0,012	-0,016
-278,701	-200,000	0,003	0,031
-277,686	800,000	0,044	-0,097
-276,672	800,000	-0,061	-0,168
-275,657	611,820	-0,030	-0,055
-274,643	190,158	0,060	-0,065
-273,628	-200,000	0,012	-0,040
-272,613	-200,000	-0,022	0,085
-271,599	274,774	0,072	0,093
-270,584	28,932	-0,049	0,030
-269,570	273,499	0,064	0,082
-268,555	326,443	0,026	-0,036
-267,540	-47,432	-0,057	0,020
-266,526	-200,000	-0,007	-0,073
-265,511	91,757	0,030	-0,024
-264,497	-106,674	-0,132	0,021
-263,482	19,325	0,136	0,079
-262,467	-34,262	0,073	0,029
-261,453	-200,000	0,001	0,074
-260,438	800,000	-0,006	0,017
-259,424	-91,926	-0,067	0,014
-258,409	157,252	-0,034	0,034
-257,395	605,143	-0,111	-0,201
-256,380	-200,000	0,019	0,134
-255,365	-200,000	-0,004	0,069
-254,351	-200,000	-0,002	-0,050
-253,336	800,000	0,029	-0,065
-252,322	-88,242	-0,205	-0,044
-251,307	-28,052	-0,128	0,053
-250,292	-122,080	0,086	0,010
-249,278	45,021	0,157	0,104
-248,263	-97,131	-0,332	0,062
-247,249	210,247	0,027	-0,030
-246,234	39,225	0,040	-0,026
-245,219	-57,373	-0,164	0,052
-244,205	-185,707	-0,062	-0,001
-243,190	501,705	-0,094	-0,157
-242,176	285,692	0,031	0,040
-241,161	-184,142	-0,035	0,000
-240,146	122,171	-0,100	-0,091
-239,132	168,253	-0,046	0,047
-238,117	120,872	0,147	-0,132
-237,103	129,409	-0,119	-0,110
-236,088	-200,000	0,013	-0,164
-235,073	8,574	0,086	0,046
-234,059	-200,000	0,004	0,172
-233,044	279,584	-0,021	0,027
-232,030	-116,742	0,084	-0,011
-231,015	-200,000	-0,000	-0,020
-230,000	44,814	-0,038	0,025
-228,986	-200,000	-0,029	-0,127
-227,971	10,748	0,021	0,012
-226,957	-200,000	-0,008	0,213
-225,942	151,695	0,065	-0,064
-224,927	-200,000	0,009	0,139
-223,913	-200,000	-0,000	-0,096
-222,898	-147,843	-0,093	-0,006
-221,884	-84,236	0,046	0,010
-220,869	-5,256	0,110	0,054
-219,855	125,867	0,119	0,108
-218,840	133,220	0,092	0,086
-217,825	-187,675	-0,023	0,000
-216,811	-200,000	0,020	-0,098
-215,796	-200,000	-0,020	0,171
-214,782	-200,000	0,013	0,098
-213,767	138,538	-0,130	-0,123
-212,752	-125,981	0,182	0,020
-211,738	-200,000	-0,002	0,134
-210,723	800,000	-0,053	0,125
-209,709	-200,000	-0,007	-0,164
-208,694	-200,000	-0,009	0,217
-207,679	-51,684	-0,040	0,013
-206,665	27,127	-0,020	-0,012
-205,650	-33,148	0,128	0,051
-204,636	800,000	-0,062	0,149
-203,621	190,364	-0,103	0,112
-202,606	-200,000	-0,005	-0,086
-201,592	184,666	-0,033	-0,035
-200,577	-200,000	-0,003	-0,053
-199,563	18,845	-0,135	-0,078
-198,548	-200,000	0,017	-0,090
-197,533	34,592	0,043	-0,027
-196,519	-200,000	-0,003	0,069
-195,504	153,484	-0,154	-0,152
-194,490	-1,377	0,044	0,022
-193,475	156,262	-0,067	-0,067
-192,460	800,000	0,032	-0,098
-191,446	277,064	-0,062	0,079
-190,431	146,031	0,083	0,081
-189,417	-78,638	-0,163	0,040
-188,402	-29,241	-0,106	-0,044
-187,387	96,748	-0,047	-0,039
-186,373	91,536	-0,028	-0,023
-185,358	24,433	-0,087	0,052
-184,344	-70,981	0,063	0,017
-183,329	-106,701	0,036	-0,006
-182,315	-200,000	-0,030	0,144
-181,300	62,301	-0,056	-0,040
-180,285	800,000	-0,013	-0,036
-179,271	800,000	0,046	0,118
-178,256	-129,796	-0,151	-0,015
-177,242	-66,401	0,154	0,044
-176,227	9,600	0,200	0,109
-175,212	153,538	-0,067	-0,066
-174,198	-1,358	-0,018	0,009
-173,183	-200,000	-0,012	-0,066
-172,169	-42,318	0,093	0,034
-171,154	120,026	0,058	-0,052
-170,139	326,537	0,030	-0,041
-169,125	-103,310	0,104	0,017
-168,110	727,837	0,058	-0,111
-167,096	-70,104	-0,188	-0,051
-166,081	800,000	-0,042	0,099
-165,066	-200,000	0,018	0,071
-164,052	-82,359	-0,144	0,033
-163,037	-200,000	-0,004	-0,029
-162,023	-0,784	0,098	0,050
-161,008	128,411	0,070	-0,064
-159,993	-0,652	0,110	-0,056
-158,979	800,000	-0,053	-0,108
-157,964	800,000	0,044	-0,101
-156,950	102,270	-0,028	0,024
-155,935	316,892	0,082	0,112
-154,920	-200,000	-0,003	0,078
-153,906	35,527	0,070	0,044
-152,891	-10,114	-0,066	0,032
-151,877	-167,109	-0,091	-0,003
-150,862	114,530	-0,110	-0,097
-149,847	-33,381	0,151	-0,060
-148,833	572,277	0,038	-0,067
-147,818	183,960	-0,118	0,126
-146,804	-44,626	-0,150	-0,054
-145,789	674,961	0,064	0,120
-144,775	-86,865	-0,016	0,003
-143,760	-97,855	0,107	-0,020
-142,745	350,904	-0,077	-0,109
-141,731	25,630	0,089	-0,053
-140,716	800,000	0,055	0,113
-139,702	517,188	0,067	0,114
-138,687	-12,598	-0,078	-0,037
-137,672	-200,000	0,009	0,034
-136,658	60,313	-0,063	-0,045
-135,643	48,307	-0,145	-0,098
-134,629	719,638	0,094	0,181
-133,614	-200,000	-0,015	0,114
-132,599	174,597	-0,011	0,012
-131,585	-200,000	0,031	0,104
-130,570	319,877	0,042	-0,058
-129,556	-41,211	-0,061	0,022
-128,541	-200,000	0,015	-0,123
-127,526	800,000	-0,006	0,014
-126,512	13,769	-0,103	-0,057
-125,497	-61,581	0,095	0,029
-124,483	-200,000	0,004	0,027
-123,468	800,000	0,061	0,188
-122,453	28,446	-0,054	0,033
-121,439	91,743	-0,138	0,112
-120,424	262,255	-0,072	0,090
-119,410	-55,614	0,090	0,029
