DTS Sentinel unit serial number:	SN410029Multiplexer serial number:	ORYXHardware model number:	OX2-SRSoftware version number:	ORYX F/W v4,00 Oryx Data Collector v3.7.2.0data status	okinstallation	B5 Nyhavnadifferential loss correction	single-endedforward channel	channel 2reverse channel	N/Adate	2023/12/14time	10:32:13forward acquisition time	300,00reverse acquisition time	0,00gamma	499,1914k internal	0,3161k external	0,3161temperature offset calibration	1,0000default loss term (dB/km)	0,3820temperature slope calibration	1,0000multiplexer offset coefficient	1,0000multiplexer slope coefficient	1,0000fibre end	0,00T internal ref (°C)	6,94T ext. ref 1 (°C)	-8,67T ext. ref 2 (°C)	-8,77length (m)	temperature (°C)	Stokes	anti-Stokes-744,400	-137,754	0,093	0,008
-743,385	-105,339	-0,293	-0,049
-742,371	174,035	0,158	0,169
-741,356	-59,987	-0,214	0,067
-740,342	74,923	0,154	0,119
-739,327	-146,372	-0,407	-0,026
-738,312	800,000	0,086	0,182
-737,298	52,423	-0,303	-0,213
-736,283	25,723	0,214	0,131
-735,269	-90,357	-0,464	-0,098
-734,254	131,085	0,178	0,168
-733,239	22,411	-0,576	-0,346
-732,225	138,704	0,290	0,280
-731,210	105,457	-0,026	0,023
-730,196	800,000	-0,005	-0,012
-729,181	800,000	0,026	0,070
-728,167	307,798	0,018	0,025
-727,152	115,500	-0,126	-0,113
-726,137	-71,508	-0,159	-0,043
-725,123	340,764	0,036	0,052
-724,108	800,000	-0,116	-0,249
-723,094	800,000	0,080	-0,216
-722,079	800,000	-0,093	-0,260
-721,064	138,625	-0,045	0,044
-720,050	-195,699	0,052	0,000
-719,035	-108,663	-0,052	-0,008
-718,021	-39,967	-0,137	-0,052
-717,006	-200,000	-0,038	-0,202
-715,991	116,947	-0,089	0,080
-714,977	-101,817	0,069	0,012
-713,962	-57,158	-0,099	-0,032
-712,948	186,262	0,029	-0,032
-711,933	-53,040	-0,097	0,033
-710,918	-36,483	0,152	0,060
-709,904	-89,398	-0,090	-0,019
-708,889	93,185	-0,009	-0,007
-707,875	-200,000	-0,038	-0,174
-706,860	419,576	-0,029	-0,045
-705,845	657,280	0,077	0,146
-704,831	-200,000	-0,006	0,022
-703,816	33,229	-0,100	0,064
-702,802	198,440	-0,082	-0,092
-701,787	800,000	-0,100	-0,225
-700,772	62,624	0,090	-0,066
-699,758	-200,000	-0,006	-0,027
-698,743	800,000	-0,010	0,029
-697,729	-12,174	0,058	-0,028
-696,714	-129,612	0,156	0,016
-695,699	-43,987	-0,112	-0,041
-694,685	27,728	-0,053	0,033
-693,670	-200,000	0,002	-0,023
-692,656	44,326	0,104	0,070
-691,641	-18,314	-0,068	-0,031
-690,627	-71,775	0,070	0,019
-689,612	34,197	-0,123	0,079
-688,597	-200,000	-0,006	0,038
-687,583	38,436	-0,113	-0,074
-686,568	-7,558	-0,093	-0,046
-685,554	-157,856	-0,191	0,008
-684,539	19,995	-0,124	0,073
-683,524	-71,963	0,075	-0,020
-682,510	490,462	0,031	-0,052
-681,495	800,000	-0,060	-0,173
-680,481	53,910	-0,125	-0,088
-679,466	-200,000	0,009	0,042
-678,451	-61,662	0,079	0,024
-677,437	-47,283	-0,022	-0,008
-676,422	800,000	-0,023	0,055
-675,408	377,221	-0,042	0,063
-674,393	308,217	-0,009	0,012
-673,378	411,187	-0,050	0,078
-672,364	-154,462	-0,132	-0,006
-671,349	-160,538	0,094	0,004
-670,335	370,464	0,055	-0,081
-669,320	-200,000	0,002	0,038
-668,305	181,453	-0,056	0,060
-667,291	566,079	0,042	-0,074
-666,276	-200,000	0,008	-0,140
-665,262	800,000	0,055	-0,156
-664,247	-29,688	-0,087	-0,036
-663,232	800,000	0,013	0,041
-662,218	-200,000	-0,019	0,114
-661,203	-200,000	0,000	0,129
-660,189	142,660	0,085	-0,083
-659,174	154,473	-0,036	-0,037
-658,159	-5,601	-0,069	0,035
-657,145	-88,753	-0,118	0,026
-656,130	246,812	0,065	0,080
-655,116	-136,307	-0,112	0,009
-654,101	800,000	0,037	0,086
-653,086	288,092	-0,055	-0,073
-652,072	-31,276	-0,176	-0,072
-651,057	345,328	-0,039	0,056
-650,043	-200,000	-0,009	-0,068
-649,028	17,413	-0,055	0,032
-648,014	-200,000	0,028	0,098
-646,999	212,820	0,012	-0,014
-645,984	-200,000	-0,018	0,203
-644,970	800,000	0,042	0,096
-643,955	80,956	0,037	-0,029
-642,941	41,402	-0,145	-0,096
-641,926	800,000	0,028	0,079
-640,911	-99,276	-0,073	0,013
-639,897	-106,631	-0,071	-0,012
-638,882	406,500	-0,033	0,052
-637,868	-200,000	0,010	0,038
-636,853	-102,941	-0,154	-0,027
-635,838	-72,289	-0,078	0,021
-634,824	-200,000	0,023	0,134
-633,809	295,231	0,065	-0,088
-632,795	73,746	-0,041	0,031
-631,780	-116,334	0,121	-0,016
-630,765	-200,000	-0,014	-0,055
-629,751	-115,350	-0,149	0,020
-628,736	-24,400	-0,067	0,029
-627,722	-177,426	-0,092	0,002
-626,707	25,053	0,132	-0,080
-625,692	-200,000	0,025	0,164
-624,678	-200,000	0,004	-0,029
-623,663	800,000	0,004	-0,008
-622,649	-2,841	0,044	-0,023
-621,634	-200,000	-0,034	-0,167
-620,619	53,982	0,076	0,053
-619,605	-8,152	-0,160	0,079
-618,590	-200,000	-0,009	0,045
-617,576	100,265	-0,047	0,040
-616,561	-200,000	-0,024	-0,119
-615,546	53,763	-0,059	-0,041
-614,532	175,990	0,074	-0,078
-613,517	29,497	-0,081	0,050
-612,503	317,741	0,052	-0,072
-611,488	141,490	-0,015	-0,014
-610,474	204,829	0,127	0,145
-609,459	-200,000	-0,025	0,084
-608,444	67,068	0,122	-0,091
-607,430	800,000	-0,016	-0,036
-606,415	-200,000	-0,012	-0,194
-605,401	-200,000	0,013	-0,080
-604,386	215,424	-0,061	0,071
-603,371	243,355	-0,052	-0,064
-602,357	244,526	-0,063	0,078
-601,342	48,437	-0,036	0,025
-600,328	800,000	-0,029	0,063
-599,313	82,797	-0,023	0,018
-598,298	800,000	0,046	0,121
-597,284	29,792	-0,015	-0,010
-596,269	225,659	0,037	0,044
-595,255	-200,000	0,017	0,080
-594,240	175,629	-0,070	-0,075
-593,225	104,768	-0,090	-0,077
-592,211	483,062	-0,013	-0,022
-591,196	800,000	0,027	0,066
-590,182	800,000	-0,026	0,071
-589,167	-179,790	-0,077	-0,001
-588,152	677,246	-0,072	-0,137
-587,138	-200,000	0,008	-0,046
-586,123	496,172	-0,062	-0,104
-585,109	76,679	0,055	-0,043
-584,094	-41,285	0,074	0,028
-583,079	800,000	-0,032	-0,085
-582,065	-120,632	0,055	0,007
-581,050	-155,820	0,155	-0,007
-580,036	88,578	-0,077	-0,063
-579,021	-200,000	0,008	-0,104
-578,006	-94,447	-0,195	0,038
-576,992	-192,225	0,048	0,000
-575,977	-29,312	-0,166	-0,069
-574,963	-200,000	-0,021	-0,089
-573,948	-200,000	-0,011	0,107
-572,934	-159,775	-0,172	0,007
-571,919	800,000	-0,050	-0,146
-570,904	295,519	-0,059	0,079
-569,890	-200,000	0,003	-0,032
-568,875	407,813	-0,063	0,098
-567,861	45,134	0,129	0,087
-566,846	77,929	0,142	0,110
-565,831	130,664	-0,114	0,107
-564,817	-165,043	-0,088	0,003
-563,802	123,515	-0,031	-0,029
-562,788	-54,983	0,019	-0,006
-561,773	84,623	0,030	-0,024
-560,758	800,000	0,008	0,025
-559,744	800,000	-0,037	0,081
-558,729	-161,950	0,140	0,005
-557,715	-200,000	-0,007	0,046
-556,700	-28,906	-0,114	-0,048
-555,685	43,932	-0,041	-0,027
-554,671	65,666	0,092	0,068
-553,656	46,882	-0,010	-0,007
-552,642	278,649	-0,045	0,059
-551,627	-200,000	0,022	0,145
-550,612	-81,979	-0,079	-0,019
-549,598	-200,000	-0,036	-0,171
-548,583	183,233	-0,083	0,090
-547,569	-200,000	0,003	-0,061
-546,554	800,000	-0,031	-0,079
-545,539	288,905	0,075	0,099
-544,525	20,389	0,045	0,027
-543,510	-200,000	0,010	-0,129
-542,496	-200,000	-0,001	0,051
-541,481	265,587	-0,035	-0,044
-540,466	141,101	0,072	-0,069
-539,452	108,790	-0,009	-0,008
-538,437	152,998	0,026	-0,026
-537,423	-200,000	-0,019	0,130
-536,408	106,823	0,077	-0,067
-535,393	-157,585	-0,042	-0,002
-534,379	-59,906	-0,066	0,020
-533,364	-118,698	0,172	0,022
-532,350	-200,000	-0,005	0,046
-531,335	-67,039	0,086	-0,025
-530,321	-200,000	0,002	0,195
-529,306	8,789	0,137	0,075
-528,291	-14,630	-0,067	0,031
-527,277	-200,000	0,007	0,041
-526,262	258,358	-0,051	-0,065
-525,248	-111,780	-0,073	-0,011
-524,233	-200,000	0,051	0,167
-523,218	4,084	0,074	0,039
-522,204	800,000	0,024	-0,050
-521,189	704,301	0,028	-0,055
-520,175	-122,830	0,045	0,005
-519,160	142,412	-0,032	0,031
-518,145	267,181	0,076	0,097
-517,131	360,014	0,028	-0,041
-516,116	63,825	0,039	-0,029
-515,102	-162,075	0,187	0,007
-514,087	371,373	-0,007	-0,011
-513,072	-74,634	-0,054	-0,014
-512,058	-142,727	0,169	-0,012
-511,043	788,195	0,063	0,126
-510,029	-47,776	0,110	0,039
-509,014	800,000	0,008	0,024
-507,999	800,000	0,030	-0,074
-506,985	32,937	-0,026	0,016
-505,970	224,014	-0,144	-0,170
-504,956	-200,000	0,010	-0,083
-503,941	3,074	-0,047	0,025
-502,926	-200,000	0,005	0,017
-501,912	785,952	-0,031	0,063
-500,897	-129,992	-0,041	-0,004
-499,883	-200,000	-0,001	-0,081
-498,868	-131,276	-0,047	0,004
-497,853	-54,370	0,138	-0,045
-496,839	-192,746	-0,142	-0,001
-495,824	36,559	0,096	-0,062
-494,810	272,009	0,048	0,062
-493,795	-200,000	0,011	0,046
-492,781	-200,000	-0,011	0,070
-491,766	87,871	-0,050	0,040
-490,751	800,000	-0,031	0,072
-489,737	2,976	0,125	-0,066
-488,722	8,044	0,015	0,008
-487,708	309,568	-0,041	0,056
-486,693	130,099	-0,091	0,085
-485,678	-52,046	0,031	-0,010
-484,664	-200,000	-0,033	-0,162
-483,649	62,578	-0,064	-0,047
-482,635	-136,815	-0,093	-0,008
-481,620	800,000	-0,062	0,135
-480,605	-127,585	0,084	-0,009
-479,591	-200,000	-0,039	0,130
-478,576	-173,211	-0,047	0,001
-477,562	-200,000	-0,010	0,034
-476,547	102,314	-0,039	-0,033
-475,532	-200,000	-0,020	0,079
-474,518	295,639	0,120	-0,160
-473,503	158,222	-0,047	0,048
-472,489	-87,290	-0,065	-0,014
-471,474	-39,806	-0,150	0,057
-470,459	156,497	0,066	0,067
-469,445	0,242	0,128	0,066
-468,430	800,000	-0,039	-0,120
-467,416	90,077	-0,067	-0,054
-466,401	109,499	-0,059	-0,052
-465,386	86,984	0,089	-0,072
-464,372	-133,035	0,162	-0,015
-463,357	-20,562	-0,162	0,072
-462,343	521,226	0,065	-0,112
-461,328	69,115	-0,203	0,152
-460,313	-172,868	0,076	0,002
-459,299	82,191	0,084	0,066
-458,284	800,000	0,011	-0,025
-457,270	372,326	-0,060	0,089
-456,255	-189,224	0,019	-0,000
-455,241	-200,000	0,009	-0,055
-454,226	-200,000	0,016	-0,057
-453,211	152,520	0,068	-0,068
-452,197	-57,957	0,054	-0,017
-451,182	473,095	-0,045	-0,075
-450,168	61,455	-0,072	-0,052
-449,153	800,000	0,019	-0,055
-448,138	336,545	-0,124	-0,175
-447,124	69,011	-0,078	0,058
-446,109	800,000	0,022	0,052
-445,095	-22,221	0,103	-0,045
-444,080	1,092	-0,066	0,035
-443,065	-200,000	0,005	0,022
-442,051	-14,803	0,093	-0,043
-441,036	46,986	-0,103	-0,070
-440,022	318,260	-0,049	0,068
-439,007	-200,000	0,097	-0,000
-437,992	800,000	-0,048	0,126
-436,978	141,556	0,090	0,087
-435,963	-200,000	-0,006	-0,118
-434,949	800,000	-0,061	-0,129
-433,934	-200,000	-0,002	-0,126
-432,919	-10,134	0,120	-0,058
-431,905	168,118	0,092	0,096
-430,890	-170,172	0,090	0,002
-429,876	-200,000	-0,020	0,119
-428,861	-75,461	0,125	-0,032
-427,846	-200,000	-0,042	-0,176
-426,832	-44,921	-0,025	-0,009
-425,817	53,000	-0,118	-0,082
-424,803	800,000	-0,013	-0,034
-423,788	150,942	-0,064	-0,063
-422,773	800,000	-0,030	0,091
-421,759	432,429	0,021	0,033
-420,744	50,258	0,226	-0,155
-419,730	-8,806	0,097	-0,047
-418,715	100,880	0,027	0,023
-417,701	800,000	-0,012	-0,035
-416,686	119,393	0,062	-0,056
-415,671	-200,000	0,003	0,051
-414,657	800,000	0,044	0,101
-413,642	-94,161	-0,059	0,012
-412,628	-200,000	0,007	0,067
-411,613	38,966	-0,102	0,066
-410,598	-200,000	-0,059	-0,193
-409,584	-79,467	0,006	-0,001
-408,569	9,810	0,034	0,018
-407,555	800,000	0,082	0,188
-406,540	-35,172	0,089	0,035
-405,525	385,400	0,041	-0,061
-404,511	-21,666	-0,164	-0,072
-403,496	-200,000	0,003	0,034
-402,482	30,691	0,136	-0,084
-401,467	-91,947	0,074	0,015
-400,452	744,680	-0,018	0,036
-399,438	-47,783	-0,132	-0,046
-398,423	800,000	0,039	0,111
-397,409	-200,000	0,012	-0,052
-396,394	800,000	-0,020	-0,042
-395,379	8,442	-0,111	0,061
-394,365	-200,000	0,057	0,194
-393,350	409,209	0,056	-0,086
-392,336	800,000	0,055	0,116
-391,321	141,634	-0,055	-0,053
-390,306	115,557	-0,205	-0,182
-389,292	-200,000	-0,003	-0,123
-388,277	-42,393	-0,044	0,016
-387,263	800,000	0,065	0,146
-386,248	800,000	-0,025	0,067
-385,233	-148,302	0,076	0,004
-384,219	-96,953	0,135	-0,025
-383,204	-8,717	-0,154	-0,075
-382,190	-108,079	-0,128	0,020
-381,175	389,873	0,026	-0,039
-380,160	-44,438	0,042	-0,015
-379,146	-200,000	0,009	0,182
-378,131	800,000	-0,034	0,078
-377,117	-1,903	-0,015	-0,007
-376,102	-42,234	0,111	-0,041
-375,088	-200,000	-0,029	0,120
-374,073	103,314	0,075	-0,064
-373,058	2,248	0,067	-0,035
-372,044	-200,000	0,049	0,167
-371,029	-18,156	-0,017	-0,008
-370,015	363,078	0,059	-0,086
-369,000	-200,000	-0,021	0,113
-367,985	512,288	-0,087	-0,148
-366,971	-79,169	-0,123	-0,030
-365,956	-200,000	0,009	-0,139
-364,942	-92,718	0,106	0,021
-363,927	3,990	-0,116	0,061
-362,912	21,123	-0,035	-0,020
-361,898	-200,000	0,009	-0,063
-360,883	-200,000	0,011	-0,187
-359,869	-107,896	0,029	0,005
-358,854	800,000	-0,017	0,043
-357,839	-38,470	0,034	0,013
-356,825	347,816	0,042	0,060
-355,810	-200,000	0,035	0,115
-354,796	-121,620	-0,106	0,013
-353,781	-200,000	0,030	0,121
-352,766	-75,663	-0,102	-0,026
-351,752	94,134	-0,030	0,025
-350,737	-200,000	-0,007	0,023
-349,723	-30,916	0,041	-0,017
-348,708	-130,316	0,089	-0,009
-347,693	-200,000	0,017	0,091
-346,679	56,151	-0,106	0,074
-345,664	357,457	-0,071	-0,103
-344,650	-200,000	-0,015	-0,052
-343,635	43,278	0,033	-0,021
-342,620	-33,353	-0,048	-0,019
-341,606	800,000	-0,047	0,129
-340,591	-29,508	0,056	-0,023
-339,577	-59,473	0,048	-0,015
-338,562	-200,000	0,000	-0,054
-337,548	2,865	-0,097	-0,051
-336,533	800,000	-0,104	0,220
-335,518	-137,939	-0,024	0,002
-334,504	-200,000	0,005	-0,033
-333,489	-160,424	-0,051	0,002
-332,475	92,968	-0,105	0,086
-331,460	-71,545	-0,023	0,006
-330,445	-58,524	0,073	-0,023
-329,431	138,702	-0,063	-0,060
-328,416	397,905	0,065	0,099
-327,402	25,701	0,064	0,039
-326,387	212,615	0,057	0,066
-325,372	738,264	0,037	-0,072
-324,358	800,000	-0,064	-0,192
-323,343	-9,581	0,156	0,075
-322,329	341,352	-0,023	-0,033
-321,314	800,000	0,026	-0,081
-320,299	-153,538	0,047	0,002
-319,285	95,655	-0,121	-0,100
-318,270	114,185	-0,073	-0,064
-317,256	229,944	-0,044	-0,052
-316,241	-3,072	-0,079	0,040
-315,226	800,000	-0,035	0,083
-314,212	-19,847	0,040	0,018
-313,197	343,815	0,108	0,154
-312,183	514,135	0,047	-0,080
-311,168	215,606	-0,063	-0,073
-310,153	-112,967	-0,054	-0,008
-309,139	-108,770	-0,025	-0,004
-308,124	-200,000	-0,016	0,103
-307,110	-200,000	0,035	-0,115
-306,095	136,306	0,080	0,075
-305,080	175,619	0,017	-0,018
-304,066	-131,309	-0,062	0,006
-303,051	-200,000	-0,004	-0,131
-302,037	-33,116	0,047	-0,019
-301,022	35,911	0,076	-0,049
-300,008	-200,000	0,032	0,169
-298,993	-74,846	0,072	-0,019
-297,978	-200,000	-0,017	0,102
-296,964	-43,996	0,111	0,040
-295,949	-200,000	-0,008	0,048
-294,935	-123,634	-0,047	-0,005
-293,920	554,037	-0,066	-0,115
-292,905	-87,385	0,067	-0,014
-291,891	281,632	0,082	0,107
-290,876	-25,721	-0,142	-0,060
-289,862	516,541	-0,032	0,054
-288,847	-200,000	0,007	-0,134
-287,832	-122,730	0,162	-0,019
-286,818	-200,000	-0,015	-0,089
-285,803	218,560	0,021	0,024
-284,789	-200,000	-0,011	-0,054
-283,774	-200,000	0,006	0,136
-282,759	149,201	0,095	-0,093
-281,745	26,246	-0,083	-0,050
-280,730	-43,149	-0,143	0,052
-279,716	-200,000	0,010	-0,182
-278,701	800,000	-0,083	0,197
-277,686	444,594	0,020	-0,031
-276,672	693,362	-0,037	-0,071
-275,657	250,657	-0,042	0,051
-274,643	-155,889	0,095	-0,004
-273,628	443,595	-0,039	-0,062
-272,613	-23,992	0,045	-0,019
-271,599	101,349	0,049	-0,041
-270,584	-7,586	-0,084	0,041
-269,570	-200,000	-0,015	-0,047
-268,555	-24,521	-0,057	0,025
-267,540	76,458	0,113	-0,087
-266,526	-200,000	0,025	0,224
-265,511	-109,853	-0,055	0,008
-264,497	-20,905	0,040	-0,018
-263,482	-77,376	0,049	0,012
-262,467	-143,607	0,010	0,001
-261,453	-55,256	0,034	0,011
-260,438	3,766	-0,131	-0,069
-259,424	133,925	0,057	-0,054
-258,409	-51,896	-0,045	0,015
-257,395	105,062	0,094	0,080
-256,380	-40,778	-0,019	0,007
-255,365	200,552	0,052	0,058
-254,351	419,292	0,068	-0,106
-253,336	56,472	-0,160	0,112
-252,322	210,567	-0,027	-0,031
-251,307	-46,213	-0,062	-0,022
-250,292	170,852	0,033	-0,034
-249,278	21,640	0,096	0,056
-248,263	90,841	-0,089	0,072
-247,249	53,497	-0,103	0,072
-246,234	312,798	-0,040	-0,054
-245,219	-200,000	-0,025	-0,089
-244,205	606,165	-0,015	-0,026
-243,190	8,445	0,064	-0,035
-242,176	182,151	-0,111	-0,118
-241,161	367,504	0,034	-0,049
-240,146	-106,208	-0,096	0,015
-239,132	-110,096	0,133	-0,020
-238,117	-200,000	0,018	-0,108
-237,103	245,126	0,041	-0,050
-236,088	-200,000	0,022	-0,075
-235,073	-85,802	0,155	-0,035
-234,059	22,176	0,131	0,077
-233,044	800,000	-0,070	0,191
-232,030	800,000	-0,062	0,128
-231,015	-120,572	-0,078	-0,009
-230,000	-200,000	0,002	0,018
-228,986	415,338	0,040	-0,061
-227,971	-200,000	-0,015	0,059
-226,957	164,482	-0,064	-0,065
-225,942	-89,141	0,161	0,034
-224,927	-95,075	-0,025	-0,005
-223,913	-200,000	-0,020	-0,157
-222,898	-200,000	-0,045	-0,144
-221,884	218,479	0,029	-0,034
-220,869	800,000	0,046	0,116
-219,855	-200,000	0,008	0,108
-218,840	206,982	-0,015	-0,017
-217,825	-200,000	0,016	0,059
-216,811	-24,874	0,066	0,028
-215,796	-125,678	-0,027	-0,003
-214,782	-153,359	0,187	-0,009
-213,767	-70,061	-0,032	-0,009
-212,752	-200,000	-0,020	0,162
-211,738	-200,000	0,020	0,094
-210,723	-200,000	0,004	-0,088
-209,709	800,000	0,023	0,071
-208,694	800,000	0,032	-0,065
-207,679	-200,000	-0,008	-0,070
-206,665	178,821	-0,047	0,049
-205,650	-52,184	0,044	0,015
-204,636	-34,936	0,140	0,055
-203,621	-200,000	0,009	0,075
-202,606	-134,648	0,087	-0,008
-201,592	-126,999	-0,125	0,013
-200,577	-200,000	0,018	-0,079
-199,563	5,463	-0,101	0,053
-198,548	387,970	0,016	-0,023
-197,533	153,260	0,059	0,059
-196,519	-102,204	0,049	-0,008
-195,504	88,573	0,031	0,025
-194,490	800,000	0,034	0,079
-193,475	352,809	-0,064	-0,092
-192,460	315,012	-0,050	-0,069
-191,446	-200,000	-0,022	0,159
-190,431	742,263	-0,030	0,058
-189,417	609,040	-0,065	-0,117
-188,402	-200,000	-0,005	0,047
-187,387	-126,303	-0,159	-0,017
-186,373	429,893	-0,071	-0,111
-185,358	-200,000	-0,033	-0,127
-184,344	8,707	0,054	0,029
-183,329	566,964	0,047	-0,083
-182,315	109,413	0,058	-0,050
-181,300	15,725	0,022	0,012
-180,285	95,061	0,034	0,027
-179,271	800,000	-0,024	-0,057
-178,256	285,207	0,034	0,045
-177,242	800,000	-0,036	0,105
-176,227	-200,000	-0,013	-0,048
-175,212	118,531	0,028	-0,025
-174,198	139,698	0,066	0,062
-173,183	-200,000	0,013	-0,053
-172,169	-127,872	-0,139	0,014
-171,154	89,292	0,150	-0,120
-170,139	71,691	-0,010	0,007
-169,125	3,635	0,105	-0,055
-168,110	800,000	-0,041	-0,115
-167,096	191,483	0,075	-0,082
-166,081	-122,882	0,031	-0,004
-165,066	-200,000	0,034	-0,220
-164,052	-63,236	0,180	-0,053
-163,037	21,490	0,129	-0,075
-162,023	-170,342	0,129	-0,003
-161,008	-57,810	0,083	-0,026
-159,993	75,989	-0,080	0,061
-158,979	-73,069	-0,044	0,012
-157,964	410,859	0,012	-0,018
-156,950	-200,000	0,019	0,098
-155,935	-79,406	-0,108	-0,026
-154,920	-144,457	0,168	0,011
-153,906	800,000	-0,058	0,163
-152,891	166,682	-0,106	0,109
-151,877	-158,459	0,049	-0,002
-150,862	774,530	0,016	0,032
-149,847	-114,886	0,038	-0,005
-148,833	62,311	0,053	-0,038
-147,818	800,000	0,041	-0,092
-146,804	-116,273	0,075	0,010
-145,789	274,371	0,027	-0,034
-144,775	151,056	0,031	0,031
-143,760	-200,000	-0,012	0,051
-142,745	15,847	0,155	-0,087
-141,731	-109,456	0,077	-0,012
-140,716	126,255	0,049	0,045
-139,702	-200,000	0,012	0,146
-138,687	-103,348	0,045	0,008
-137,672	-31,736	-0,057	0,023
-136,658	-84,312	-0,123	-0,028
-135,643	-39,106	-0,065	0,025
-134,629	589,830	0,006	-0,011
-133,614	-130,596	0,172	-0,016
-132,599	-75,805	-0,026	-0,007
-131,585	-200,000	0,014	0,050
-130,570	73,744	-0,076	0,057
-129,556	-200,000	0,001	-0,027
-128,541	333,495	-0,070	-0,097
-127,526	36,145	-0,040	0,025
-126,512	-200,000	-0,003	-0,086
-125,497	169,728	-0,080	0,082
-124,483	280,528	-0,037	0,047
-123,468	27,193	0,139	0,084
-122,453	800,000	0,069	-0,188
-121,439	-69,782	-0,031	0,009
-120,424	304,604	-0,060	-0,081
-119,410	-200,000	-0,022	-0,070
