DTS Sentinel unit serial number:	SN410029Multiplexer serial number:	ORYXHardware model number:	OX2-SRSoftware version number:	ORYX F/W v4,00 Oryx Data Collector v3.7.2.0data status	okinstallation	B5 Nyhavnadifferential loss correction	single-endedforward channel	channel 2reverse channel	N/Adate	2023/12/14time	11:07:13forward acquisition time	300,00reverse acquisition time	0,00gamma	499,1914k internal	0,3160k external	0,3160temperature offset calibration	1,0000default loss term (dB/km)	0,3820temperature slope calibration	1,0000multiplexer offset coefficient	1,0000multiplexer slope coefficient	1,0000fibre end	0,00T internal ref (°C)	7,23T ext. ref 1 (°C)	-8,05T ext. ref 2 (°C)	-8,11length (m)	temperature (°C)	Stokes	anti-Stokes-744,400	800,000	0,038	0,097
-743,385	-133,015	-0,464	-0,043
-742,371	75,452	0,260	0,202
-741,356	-94,136	-0,269	-0,054
-740,342	284,788	0,162	0,215
-739,327	-130,944	-0,377	-0,037
-738,312	-32,763	0,142	0,058
-737,298	-62,554	-0,432	-0,131
-736,283	24,110	0,148	0,090
-735,269	-59,960	-0,401	-0,125
-734,254	-29,722	0,134	0,056
-733,239	5,260	-0,616	-0,334
-732,225	-15,733	0,316	0,148
-731,210	-45,460	0,128	0,046
-730,196	-90,710	-0,055	-0,012
-729,181	-200,000	0,006	-0,072
-728,167	78,643	-0,115	-0,091
-727,152	-173,104	0,100	-0,002
-726,137	-139,750	-0,041	-0,003
-725,123	-112,105	-0,102	0,015
-724,108	31,835	-0,045	-0,029
-723,094	-113,613	-0,085	-0,012
-722,079	-143,845	-0,078	0,005
-721,064	68,998	0,087	0,066
-720,050	-91,749	0,080	-0,017
-719,035	567,851	0,008	0,014
-718,021	148,926	0,087	0,087
-717,006	772,538	0,008	-0,016
-715,991	800,000	-0,012	0,033
-714,977	-200,000	0,003	0,042
-713,962	-200,000	-0,018	-0,113
-712,948	131,346	0,003	-0,003
-711,933	-200,000	-0,015	0,155
-710,918	59,799	-0,067	-0,049
-709,904	-200,000	0,033	-0,187
-708,889	90,599	0,078	-0,064
-707,875	800,000	-0,038	-0,096
-706,860	219,376	0,080	-0,094
-705,845	800,000	0,091	0,197
-704,831	-38,355	-0,085	-0,033
-703,816	-175,671	-0,079	-0,002
-702,802	-200,000	-0,044	-0,154
-701,787	145,460	-0,100	-0,099
-700,772	-3,636	0,187	-0,096
-699,758	-98,305	-0,024	-0,004
-698,743	-141,810	0,089	0,006
-697,729	203,926	0,097	0,111
-696,714	-157,514	0,086	0,004
-695,699	222,278	-0,046	-0,055
-694,685	123,376	0,041	0,038
-693,670	-133,764	-0,086	0,008
-692,656	128,943	0,104	-0,097
-691,641	-200,000	-0,012	-0,085
-690,627	-19,001	0,084	-0,038
-689,612	-200,000	0,003	-0,016
-688,597	134,956	-0,025	-0,024
-687,583	81,711	0,078	-0,062
-686,568	-200,000	-0,015	-0,103
-685,554	110,646	-0,092	0,081
-684,539	-132,847	-0,078	-0,007
-683,524	800,000	-0,023	0,057
-682,510	39,804	-0,061	0,040
-681,495	-182,568	-0,159	-0,002
-680,481	160,756	-0,019	-0,019
-679,466	222,414	-0,092	-0,109
-678,451	-200,000	0,013	-0,137
-677,437	239,196	0,094	0,115
-676,422	577,305	0,011	-0,020
-675,408	65,324	-0,092	-0,068
-674,393	-200,000	-0,000	0,036
-673,378	-36,751	-0,187	0,073
-672,364	402,651	-0,016	0,025
-671,349	-200,000	-0,003	-0,043
-670,335	648,290	0,041	-0,077
-669,320	-90,580	0,080	0,017
-668,305	-200,000	0,005	0,036
-667,291	41,521	-0,083	-0,055
-666,276	49,440	-0,122	0,084
-665,262	-200,000	-0,024	-0,098
-664,247	800,000	0,009	0,025
-663,232	-14,969	0,074	-0,035
-662,218	51,148	-0,098	0,068
-661,203	115,253	-0,110	-0,099
-660,189	256,527	0,043	-0,054
-659,174	-140,348	-0,081	0,006
-658,159	592,119	0,020	-0,036
-657,145	121,316	0,132	-0,121
-656,130	-42,675	0,007	-0,003
-655,116	218,853	-0,097	0,114
-654,101	-91,101	0,077	0,016
-653,086	-200,000	0,022	0,102
-652,072	-62,581	-0,126	-0,038
-651,057	-126,221	-0,060	-0,007
-650,043	94,594	-0,033	0,028
-649,028	-84,134	0,031	-0,007
-648,014	128,129	0,122	-0,114
-646,999	-200,000	0,002	0,007
-645,984	591,440	-0,084	0,152
-644,970	42,502	0,019	0,012
-643,955	732,717	0,019	0,037
-642,941	-200,000	-0,025	-0,133
-641,926	277,023	0,113	-0,148
-640,911	-6,241	-0,085	0,043
-639,897	35,024	0,087	0,056
-638,882	-9,438	-0,104	-0,051
-637,868	-36,057	-0,106	0,042
-636,853	-91,327	-0,077	-0,016
-635,838	-42,973	-0,022	-0,008
-634,824	8,205	0,061	-0,033
-633,809	-107,199	-0,013	0,002
-632,795	160,782	0,084	0,087
-631,780	-53,297	-0,021	-0,007
-630,765	-193,266	-0,143	-0,001
-629,751	310,953	0,041	-0,057
-628,736	-200,000	-0,029	-0,102
-627,722	300,692	-0,031	-0,042
-626,707	-98,567	0,078	0,015
-625,692	89,125	0,028	0,023
-624,678	-176,956	-0,151	-0,003
-623,663	119,418	-0,028	-0,026
-622,649	394,797	-0,091	-0,140
-621,634	107,266	-0,084	-0,073
-620,619	444,605	-0,010	-0,016
-619,605	-200,000	-0,021	-0,095
-618,590	48,689	0,167	0,115
-617,576	-75,641	-0,131	0,034
-616,561	800,000	0,049	0,143
-615,546	-200,000	0,002	-0,050
-614,532	-84,365	-0,093	-0,021
-613,517	-200,000	0,037	-0,136
-612,503	136,345	-0,051	-0,049
-611,488	-88,810	0,118	-0,026
-610,474	-200,000	-0,010	-0,104
-609,459	124,761	-0,062	0,057
-608,444	-200,000	-0,008	-0,114
-607,430	245,431	-0,103	-0,127
-606,415	800,000	-0,044	-0,122
-605,401	47,501	0,074	0,050
-604,386	145,236	0,039	-0,039
-603,371	-94,100	0,136	-0,027
-602,357	104,490	-0,064	0,056
-601,342	-109,096	-0,067	-0,010
-600,328	15,112	-0,088	-0,050
-599,313	800,000	0,050	0,131
-598,298	-119,608	-0,057	0,007
-597,284	234,663	0,110	-0,133
-596,269	0,890	-0,139	0,073
-595,255	283,448	-0,091	0,120
-594,240	8,634	-0,112	0,062
-593,225	800,000	-0,026	0,079
-592,211	26,819	0,055	0,034
-591,196	-32,564	0,055	0,022
-590,182	800,000	-0,043	-0,118
-589,167	-71,325	0,114	-0,031
-588,152	-200,000	0,003	0,027
-587,138	51,250	-0,069	-0,048
-586,123	126,544	-0,032	-0,030
-585,109	24,619	-0,038	0,023
-584,094	20,094	0,070	-0,041
-583,079	697,517	0,069	0,133
-582,065	18,880	0,071	0,042
-581,050	-200,000	-0,033	-0,136
-580,036	-200,000	-0,009	0,076
-579,021	-113,634	-0,053	0,008
-578,006	-70,543	-0,062	-0,017
-576,992	-200,000	0,003	0,038
-575,977	-119,038	0,097	-0,012
-574,963	-62,546	-0,043	0,013
-573,948	-200,000	-0,001	0,071
-572,934	189,423	-0,082	-0,090
-571,919	76,658	-0,094	-0,073
-570,904	63,034	-0,053	-0,039
-569,890	800,000	0,032	0,075
-568,875	23,502	-0,061	0,037
-567,861	-111,464	0,043	-0,006
-566,846	267,749	-0,030	-0,038
-565,831	-200,000	0,041	0,155
-564,817	-200,000	-0,018	0,167
-563,802	731,334	0,025	-0,049
-562,788	-38,367	-0,039	-0,015
-561,773	800,000	0,048	-0,125
-560,758	-94,655	0,188	-0,037
-559,744	54,133	-0,092	-0,065
-558,729	-200,000	0,021	0,141
-557,715	-55,683	-0,078	0,025
-556,700	-77,500	0,104	-0,026
-555,685	-83,111	0,022	0,005
-554,671	576,224	-0,042	-0,075
-553,656	800,000	0,035	0,082
-552,642	-200,000	0,020	-0,145
-551,627	-50,268	-0,101	0,035
-550,612	-200,000	-0,004	-0,059
-549,598	-50,094	0,107	-0,037
-548,583	-94,260	0,123	0,024
-547,569	-7,332	-0,111	0,055
-546,554	-74,359	0,029	-0,008
-545,539	-8,944	0,177	0,086
-544,525	-54,554	0,037	0,012
-543,510	675,597	-0,049	0,093
-542,496	800,000	0,037	-0,107
-541,481	644,233	-0,020	0,038
-540,466	-200,000	-0,004	-0,035
-539,452	153,902	0,047	-0,047
-538,437	-200,000	-0,005	0,052
-537,423	800,000	0,048	0,128
-536,408	110,738	-0,075	-0,066
-535,393	209,959	-0,123	0,141
-534,379	257,616	0,048	-0,061
-533,364	184,169	0,071	0,077
-532,350	800,000	0,066	0,164
-531,335	-121,264	-0,069	-0,008
-530,321	-85,341	0,120	0,027
-529,306	147,799	-0,019	-0,018
-528,291	-200,000	-0,006	-0,174
-527,277	46,371	-0,058	-0,039
-526,262	-200,000	-0,027	-0,097
-525,248	155,914	-0,028	0,028
-524,233	800,000	-0,016	0,040
-523,218	336,581	0,030	-0,043
-522,204	-200,000	-0,002	0,021
-521,189	-200,000	0,005	-0,054
-520,175	369,212	-0,059	-0,088
-519,160	58,560	-0,075	-0,054
-518,145	-155,190	0,080	-0,004
-517,131	-153,028	-0,045	-0,002
-516,116	-200,000	-0,026	0,136
-515,102	-200,000	-0,013	-0,064
-514,087	-200,000	0,001	-0,070
-513,072	36,818	0,028	-0,018
-512,058	800,000	-0,017	-0,037
-511,043	118,031	-0,086	0,078
-510,029	-200,000	0,013	-0,042
-509,014	800,000	0,024	-0,070
-507,999	82,164	0,054	0,043
-506,985	-17,858	0,028	0,013
-505,970	171,638	-0,079	0,083
-504,956	800,000	-0,047	-0,113
-503,941	-200,000	-0,002	-0,063
-502,926	-127,588	-0,038	0,004
-501,912	764,012	0,059	-0,117
-500,897	-200,000	-0,011	-0,061
-499,883	-57,063	-0,112	-0,036
-498,868	493,593	0,028	0,047
-497,853	-200,000	0,015	-0,083
-496,839	-138,441	0,111	0,009
-495,824	800,000	0,056	-0,140
-494,810	800,000	0,041	-0,098
-493,795	458,831	0,008	0,013
-492,781	-200,000	0,000	0,093
-491,766	742,316	0,024	0,048
-490,751	-200,000	-0,009	0,038
-489,737	144,846	0,052	-0,050
-488,722	800,000	-0,051	0,129
-487,708	33,510	0,073	0,046
-486,693	187,929	0,066	-0,072
-485,678	82,958	-0,049	0,039
-484,664	21,765	0,054	0,032
-483,649	185,742	0,084	0,092
-482,635	-40,354	-0,092	-0,035
-481,620	-104,614	0,109	0,018
-480,605	800,000	-0,068	0,157
-479,591	800,000	-0,027	0,080
-478,576	93,602	0,133	0,109
-477,562	259,900	-0,046	0,058
-476,547	-63,313	-0,131	-0,039
-475,532	188,255	0,063	-0,069
-474,518	253,162	0,070	-0,087
-473,503	45,186	-0,112	0,075
-472,489	-115,987	0,084	-0,011
-471,474	-67,286	-0,103	-0,029
-470,459	800,000	0,065	0,141
-469,445	-200,000	-0,012	0,095
-468,430	800,000	0,026	-0,071
-467,416	-32,141	0,094	-0,038
-466,401	261,328	0,182	0,230
-465,386	-19,821	-0,103	0,046
-464,372	260,019	0,095	0,120
-463,357	-116,985	0,096	-0,013
-462,343	-142,935	-0,084	-0,006
-461,328	-200,000	-0,000	0,042
-460,313	11,401	-0,039	-0,022
-459,299	747,031	0,007	-0,014
-458,284	-80,611	0,188	0,045
-457,270	783,919	0,023	0,046
-456,255	-82,229	-0,072	0,017
-455,241	800,000	-0,044	-0,092
-454,226	341,598	0,070	-0,100
-453,211	389,181	0,091	0,137
-452,197	784,466	0,063	0,127
-451,182	-200,000	-0,012	0,042
-450,168	-3,542	-0,109	0,055
-449,153	800,000	0,033	-0,094
-448,138	175,526	-0,151	-0,160
-447,124	-200,000	-0,002	0,063
-446,109	-200,000	0,007	-0,072
-445,095	-200,000	0,001	0,039
-444,080	800,000	0,020	0,043
-443,065	-200,000	-0,002	0,143
-442,051	800,000	0,007	0,024
-441,036	256,425	-0,044	-0,056
-440,022	456,759	0,054	-0,088
-439,007	-200,000	0,002	-0,084
-437,992	438,089	0,076	0,121
-436,978	-200,000	-0,002	0,014
-435,963	800,000	-0,032	-0,092
-434,949	-152,760	-0,114	-0,006
-433,934	583,352	0,094	0,169
-432,919	176,335	-0,125	-0,133
-431,905	-200,000	-0,001	0,015
-430,890	800,000	0,026	0,072
-429,876	156,915	0,144	0,145
-428,861	-105,110	0,083	0,014
-427,846	-81,537	-0,040	0,010
-426,832	-200,000	-0,008	-0,081
-425,817	-137,994	-0,076	-0,006
-424,803	-200,000	-0,009	-0,046
-423,788	219,202	0,066	0,077
-422,773	800,000	-0,051	0,120
-421,759	-200,000	-0,010	0,043
-420,744	-22,539	0,181	-0,079
-419,730	-200,000	0,010	-0,079
-418,715	-129,996	-0,086	-0,008
-417,701	-200,000	0,006	-0,055
-416,686	-114,538	-0,067	0,009
-415,671	253,192	0,056	-0,069
-414,657	800,000	0,036	0,113
-413,642	85,873	-0,022	0,018
-412,628	-38,363	0,014	-0,005
-411,613	-9,382	0,036	0,017
-410,598	-108,730	-0,106	0,016
-409,584	-109,678	0,010	-0,002
-408,569	17,906	0,161	0,093
-407,555	40,676	0,025	-0,016
-406,540	-69,838	0,124	0,034
-405,525	60,720	-0,080	-0,057
-404,511	126,594	0,031	-0,028
-403,496	-200,000	0,005	-0,093
-402,482	-78,024	-0,013	0,003
-401,467	-200,000	0,003	0,023
-400,452	209,459	-0,038	-0,043
-399,438	151,099	0,131	-0,130
-398,423	800,000	-0,033	0,098
-397,409	800,000	0,011	0,023
-396,394	46,261	0,021	0,014
-395,379	143,404	-0,009	-0,008
-394,365	116,756	0,111	-0,099
-393,350	133,415	0,142	0,134
-392,336	745,038	-0,050	0,097
-391,321	-126,246	0,064	0,007
-390,306	66,525	0,066	-0,049
-389,292	108,887	0,140	0,121
-388,277	308,386	0,082	0,112
-387,263	272,709	0,015	0,020
-386,248	-200,000	0,006	0,076
-385,233	-200,000	0,009	0,049
-384,219	580,073	0,056	0,100
-383,204	-200,000	0,024	-0,081
-382,190	45,880	0,099	-0,066
-381,175	32,120	-0,095	-0,059
-380,160	197,849	-0,044	-0,049
-379,146	-200,000	-0,003	-0,017
-378,131	528,529	-0,051	0,088
-377,117	-127,097	0,119	-0,013
-376,102	91,227	-0,116	-0,095
-375,088	60,103	-0,067	0,048
-374,073	-200,000	-0,013	-0,087
-373,058	73,391	0,025	0,019
-372,044	-200,000	-0,000	0,037
-371,029	-96,780	0,183	0,035
-370,015	158,963	0,071	0,072
-369,000	275,835	0,053	-0,068
-367,985	8,819	0,082	-0,045
-366,971	61,195	-0,021	0,015
-365,956	-89,164	0,026	-0,006
-364,942	-175,763	0,152	0,003
-363,927	154,043	-0,172	0,171
-362,912	564,256	-0,082	0,145
-361,898	37,288	-0,029	0,019
-360,883	-52,302	-0,158	-0,053
-359,869	-18,072	0,136	0,062
-358,854	483,140	0,049	0,081
-357,839	800,000	0,035	0,087
-356,825	-80,837	-0,061	0,015
-355,810	350,787	0,032	0,045
-354,796	800,000	-0,019	-0,059
-353,781	-115,917	-0,108	-0,014
-352,766	-60,812	-0,029	-0,009
-351,752	-20,196	-0,085	-0,038
-350,737	800,000	0,055	0,141
-349,723	-200,000	-0,009	0,043
-348,708	-20,279	-0,070	-0,031
-347,693	-200,000	-0,010	0,141
-346,679	593,918	-0,040	0,071
-345,664	655,075	-0,009	0,017
-344,650	452,662	0,069	-0,111
-343,635	68,589	-0,040	0,030
-342,620	800,000	0,065	0,140
-341,606	-200,000	0,022	0,130
-340,591	-200,000	-0,032	-0,116
-339,577	-60,271	0,069	0,021
-338,562	-200,000	-0,018	0,106
-337,548	31,985	0,072	-0,045
-336,533	-108,758	0,121	-0,019
-335,518	125,336	0,059	0,054
-334,504	81,420	-0,093	-0,073
-333,489	54,252	0,018	-0,013
-332,475	174,954	-0,009	-0,010
-331,460	-19,032	-0,037	0,016
-330,445	-52,661	-0,081	0,027
-329,431	-136,239	-0,080	0,007
-328,416	800,000	-0,003	0,008
-327,402	-40,664	0,059	0,022
-326,387	800,000	-0,055	-0,163
-325,372	161,541	-0,078	-0,079
-324,358	-156,962	-0,065	-0,003
-323,343	-59,037	-0,084	-0,026
-322,329	-47,476	0,144	-0,050
-321,314	126,580	-0,055	0,051
-320,299	399,905	0,100	-0,152
-319,285	347,796	0,061	-0,088
-318,270	461,902	0,029	0,047
-317,256	-200,000	0,020	-0,076
-316,241	-42,893	-0,080	0,029
-315,226	-52,725	0,055	-0,018
-314,212	-200,000	0,021	-0,128
-313,197	-128,967	-0,069	-0,007
-312,183	-5,687	0,027	0,014
-311,168	-166,225	-0,175	0,005
-310,153	800,000	0,036	-0,114
-309,139	-19,589	-0,090	0,040
-308,124	471,871	-0,080	0,131
-307,110	-200,000	-0,003	0,061
-306,095	-200,000	0,055	0,186
-305,080	800,000	0,007	-0,017
-304,066	96,975	0,074	-0,062
-303,051	800,000	-0,053	-0,131
-302,037	800,000	0,027	0,072
-301,022	75,203	-0,050	-0,038
-300,008	-143,259	0,138	-0,009
-298,993	-4,713	0,100	0,050
-297,978	159,745	-0,066	-0,067
-296,964	-138,739	-0,135	-0,011
-295,949	-73,441	-0,113	-0,030
-294,935	-94,646	-0,053	0,010
-293,920	36,470	0,079	0,050
-292,905	679,234	0,046	0,087
-291,891	237,875	-0,114	-0,137
-290,876	-40,928	0,185	0,069
-289,862	-7,130	-0,012	-0,006
-288,847	-200,000	-0,029	-0,095
-287,832	-9,057	-0,097	-0,047
-286,818	100,084	0,116	0,097
-285,803	-73,338	0,095	0,025
-284,789	800,000	0,025	0,070
-283,774	800,000	0,050	-0,120
-282,759	-200,000	-0,018	0,091
-281,745	-95,010	-0,133	0,026
-280,730	339,252	-0,061	-0,086
-279,716	-14,168	-0,063	-0,029
-278,701	800,000	-0,024	0,074
-277,686	-124,466	0,151	0,017
-276,672	800,000	-0,007	0,020
-275,657	800,000	-0,028	0,077
-274,643	-58,578	0,043	0,013
-273,628	-200,000	0,009	0,042
-272,613	-200,000	0,013	-0,107
-271,599	144,442	-0,019	0,019
-270,584	79,153	-0,064	-0,050
-269,570	739,499	-0,017	0,033
-268,555	-175,443	-0,064	-0,001
-267,540	14,520	-0,088	0,050
-266,526	800,000	0,048	-0,116
-265,511	797,532	0,016	0,031
-264,497	46,199	-0,089	0,059
-263,482	-200,000	0,025	0,088
-262,467	-200,000	0,010	0,113
-261,453	574,138	0,014	0,025
-260,438	-200,000	-0,007	-0,028
-259,424	-200,000	-0,009	-0,086
-258,409	-200,000	0,008	-0,193
-257,395	-116,998	0,112	0,015
-256,380	248,777	-0,095	0,117
-255,365	-200,000	-0,001	-0,049
-254,351	800,000	0,003	0,009
-253,336	503,626	0,032	-0,053
-252,322	-200,000	0,006	-0,114
-251,307	97,870	0,053	-0,044
-250,292	146,284	0,061	-0,059
-249,278	-200,000	-0,028	-0,148
-248,263	-1,105	0,116	-0,059
-247,249	13,005	-0,160	0,089
-246,234	-200,000	-0,007	-0,039
-245,219	-88,971	-0,100	-0,021
-244,205	-200,000	0,002	-0,031
-243,190	-41,607	-0,065	-0,024
-242,176	-200,000	-0,003	0,063
-241,161	-200,000	-0,000	-0,032
-240,146	800,000	0,029	-0,088
-239,132	800,000	0,013	-0,040
-238,117	32,952	-0,130	0,081
-237,103	-82,473	0,041	0,009
-236,088	-84,313	0,032	-0,007
-235,073	-200,000	-0,031	0,134
-234,059	183,287	-0,084	-0,089
-233,044	-27,320	0,128	-0,053
-232,030	-17,013	-0,109	0,050
-231,015	290,190	-0,067	-0,088
-230,000	-113,518	-0,095	0,013
-228,986	800,000	0,025	-0,054
-227,971	-200,000	-0,021	-0,130
-226,957	43,786	0,147	0,097
-225,942	117,451	-0,190	0,169
-224,927	-200,000	0,004	0,031
-223,913	-37,775	-0,167	-0,064
-222,898	50,275	-0,049	-0,033
-221,884	135,989	0,038	-0,035
-220,869	262,146	0,073	0,091
-219,855	800,000	0,052	0,129
-218,840	291,081	-0,055	-0,073
-217,825	-57,654	-0,040	0,013
-216,811	-200,000	-0,003	0,015
-215,796	248,759	-0,061	-0,075
-214,782	800,000	0,006	0,019
-213,767	-200,000	-0,026	-0,118
-212,752	-200,000	-0,008	-0,146
-211,738	-129,255	0,094	0,009
-210,723	-99,838	-0,070	-0,012
-209,709	-200,000	-0,014	0,154
-208,694	-200,000	-0,006	-0,103
-207,679	3,573	-0,034	0,018
-206,665	122,836	0,103	-0,093
-205,650	-200,000	0,012	0,061
-204,636	800,000	0,056	0,120
-203,621	-53,151	-0,101	0,033
-202,606	8,591	-0,097	-0,053
-201,592	203,003	0,074	-0,082
-200,577	97,566	-0,113	0,094
-199,563	540,017	-0,054	-0,092
-198,548	800,000	0,029	0,090
-197,533	66,846	-0,146	0,107
-196,519	-200,000	0,009	0,046
-195,504	800,000	0,029	-0,064
-194,490	524,397	-0,051	0,088
-193,475	334,308	0,068	0,095
-192,460	-200,000	0,016	-0,079
-191,446	-154,719	0,121	0,006
-190,431	-200,000	-0,010	-0,123
-189,417	-1,663	0,033	-0,017
-188,402	455,893	-0,035	-0,056
-187,387	226,057	-0,017	-0,020
-186,373	-97,445	-0,071	0,013
-185,358	-200,000	-0,040	0,152
-184,344	-200,000	0,006	0,018
-183,329	-54,295	0,148	0,048
-182,315	167,570	0,119	0,122
-181,300	580,337	-0,023	0,041
-180,285	349,056	0,047	-0,067
-179,271	-200,000	0,016	-0,136
-178,256	682,461	-0,069	-0,130
-177,242	-19,080	0,044	-0,020
-176,227	-110,041	-0,089	-0,013
-175,212	71,554	0,113	0,085
-174,198	-200,000	-0,011	-0,056
-173,183	800,000	0,057	-0,118
-172,169	-117,527	-0,152	0,020
-171,154	-200,000	0,004	0,066
-170,139	25,232	0,057	-0,034
-169,125	-111,301	0,118	0,017
-168,110	432,085	-0,044	-0,070
-167,096	-47,272	-0,118	0,041
-166,081	-200,000	-0,009	-0,074
-165,066	-135,925	0,032	0,003
-164,052	-20,408	-0,054	0,024
-163,037	662,516	0,058	-0,109
-162,023	92,051	0,050	0,040
-161,008	-200,000	0,035	-0,238
-159,993	-200,000	-0,000	0,035
-158,979	-74,955	-0,128	-0,033
-157,964	-200,000	0,006	0,075
-156,950	83,079	-0,156	-0,122
-155,935	392,393	-0,042	-0,063
-154,920	-200,000	0,011	0,110
-153,906	-200,000	-0,008	-0,048
-152,891	-131,649	0,087	0,008
-151,877	650,020	-0,007	-0,013
-150,862	-200,000	-0,015	-0,157
-149,847	-51,912	0,026	-0,009
-148,833	-64,019	-0,068	0,020
-147,818	569,898	0,045	0,079
-146,804	703,493	0,030	0,056
-145,789	221,185	-0,026	-0,030
-144,775	74,092	-0,032	-0,024
-143,760	-200,000	-0,041	-0,133
-142,745	285,036	0,032	0,041
-141,731	800,000	0,015	-0,043
-140,716	-138,325	0,082	-0,006
-139,702	78,990	-0,064	0,049
-138,687	187,682	0,117	-0,126
-137,672	800,000	0,027	0,079
-136,658	126,990	0,055	-0,050
-135,643	-200,000	0,008	-0,086
-134,629	209,689	-0,013	-0,015
-133,614	-200,000	0,008	0,069
-132,599	-200,000	0,039	0,186
-131,585	-165,424	0,151	-0,005
-130,570	235,553	0,060	0,072
-129,556	47,699	-0,081	0,054
-128,541	3,212	-0,028	-0,015
-127,526	-167,771	0,080	0,002
-126,512	-200,000	0,001	0,007
-125,497	-91,476	0,016	0,003
-124,483	787,790	-0,039	0,078
-123,468	25,978	0,112	0,067
-122,453	627,837	0,058	-0,106
-121,439	77,918	-0,057	-0,044
-120,424	-200,000	0,037	-0,181
-119,410	-168,716	0,108	0,003
