DTS Sentinel unit serial number:	SN410029Multiplexer serial number:	ORYXHardware model number:	OX2-SRSoftware version number:	ORYX F/W v4,00 Oryx Data Collector v3.7.2.0data status	okinstallation	B5 Nyhavnadifferential loss correction	single-endedforward channel	channel 2reverse channel	N/Adate	2023/12/14time	18:07:13forward acquisition time	300,00reverse acquisition time	0,00gamma	499,1914k internal	0,3156k external	0,3156temperature offset calibration	1,0000default loss term (dB/km)	0,3820temperature slope calibration	1,0000multiplexer offset coefficient	1,0000multiplexer slope coefficient	1,0000fibre end	0,00T internal ref (°C)	8,37T ext. ref 1 (°C)	-6,97T ext. ref 2 (°C)	-7,00length (m)	temperature (°C)	Stokes	anti-Stokes-744,400	-8,669	0,140	0,069
-743,385	-141,626	-0,425	-0,031
-742,371	10,795	0,317	0,178
-741,356	-162,511	-0,191	0,007
-740,342	75,263	0,177	0,137
-739,327	-83,267	-0,351	-0,082
-738,312	800,000	-0,023	0,060
-737,298	-101,790	-0,190	-0,034
-736,283	169,815	0,106	0,112
-735,269	-110,184	-0,315	-0,048
-734,254	-14,070	0,140	0,066
-733,239	13,425	-0,433	-0,247
-732,225	43,753	0,227	0,153
-731,210	293,802	-0,092	0,124
-730,196	675,181	-0,088	-0,170
-729,181	-200,000	0,020	-0,089
-728,167	800,000	0,046	0,116
-727,152	800,000	0,040	-0,095
-726,137	94,343	-0,091	-0,076
-725,123	198,973	-0,035	-0,040
-724,108	628,940	-0,059	-0,110
-723,094	200,563	-0,044	0,050
-722,079	52,757	0,062	-0,044
-721,064	-7,645	0,075	-0,037
-720,050	-200,000	0,019	-0,102
-719,035	-49,244	-0,058	0,020
-718,021	-200,000	-0,011	0,102
-717,006	-200,000	-0,011	-0,060
-715,991	-15,771	-0,052	-0,024
-714,977	800,000	-0,075	-0,193
-713,962	68,155	-0,089	-0,067
-712,948	800,000	-0,053	-0,123
-711,933	-200,000	-0,017	0,105
-710,918	-70,776	-0,124	0,034
-709,904	13,335	-0,045	-0,026
-708,889	-133,922	-0,104	0,009
-707,875	800,000	0,029	0,082
-706,860	366,278	-0,073	-0,109
-705,845	200,843	-0,073	0,083
-704,831	-101,626	0,080	0,014
-703,816	-47,575	0,013	-0,005
-702,802	309,773	0,066	-0,091
-701,787	-51,651	-0,128	0,044
-700,772	-115,218	0,029	0,004
-699,758	201,616	0,030	0,034
-698,743	390,603	0,067	0,103
-697,729	30,480	0,099	-0,062
-696,714	246,282	0,031	-0,038
-695,699	-52,534	0,029	-0,010
-694,685	-13,034	-0,075	-0,036
-693,670	276,350	-0,027	-0,036
-692,656	800,000	0,013	-0,030
-691,641	87,770	0,116	0,094
-690,627	-200,000	-0,014	0,137
-689,612	75,865	0,084	-0,065
-688,597	712,683	0,042	0,082
-687,583	87,712	-0,054	-0,044
-686,568	-200,000	0,032	0,000
-685,554	98,971	-0,037	0,032
-684,539	31,438	0,197	-0,124
-683,524	-134,925	0,063	0,006
-682,510	105,733	-0,131	0,114
-681,495	-155,599	-0,080	-0,004
-680,481	113,700	-0,037	-0,033
-679,466	140,718	-0,194	-0,188
-678,451	-123,382	-0,097	0,011
-677,437	44,655	0,160	-0,108
-676,422	503,378	-0,085	0,146
-675,408	77,748	-0,045	-0,036
-674,393	54,814	0,039	0,028
-673,378	-62,431	-0,100	-0,030
-672,364	800,000	0,039	-0,113
-671,349	800,000	-0,020	-0,057
-670,335	523,890	-0,042	0,073
-669,320	-200,000	-0,022	0,088
-668,305	-35,004	-0,074	-0,029
-667,291	432,260	0,009	0,015
-666,276	-200,000	-0,019	-0,115
-665,262	-200,000	0,023	0,085
-664,247	88,135	-0,031	0,025
-663,232	-6,871	0,125	-0,062
-662,218	418,818	-0,082	-0,130
-661,203	215,536	-0,031	-0,036
-660,189	800,000	0,035	-0,087
-659,174	681,604	-0,034	-0,066
-658,159	-91,163	-0,139	-0,029
-657,145	-200,000	0,012	-0,150
-656,130	48,936	-0,028	0,019
-655,116	-34,861	0,039	0,016
-654,101	800,000	0,006	0,015
-653,086	-200,000	-0,006	-0,113
-652,072	800,000	0,083	-0,171
-651,057	744,196	-0,032	-0,063
-650,043	77,910	0,063	-0,049
-649,028	-159,832	0,064	0,003
-648,014	-200,000	-0,008	-0,032
-646,999	210,814	-0,109	-0,126
-645,984	-200,000	-0,020	0,107
-644,970	89,819	-0,026	0,021
-643,955	-6,592	-0,113	-0,057
-642,941	-200,000	0,025	0,091
-641,926	-131,026	-0,050	-0,005
-640,911	-200,000	-0,003	0,057
-639,897	-200,000	-0,012	-0,061
-638,882	-200,000	-0,004	0,040
-637,868	-200,000	0,018	-0,137
-636,853	-58,041	-0,168	0,054
-635,838	4,993	-0,029	-0,016
-634,824	-200,000	0,004	-0,066
-633,809	355,386	0,049	0,072
-632,795	150,245	-0,048	0,048
-631,780	571,156	-0,048	0,087
-630,765	-175,123	-0,095	-0,002
-629,751	-16,696	-0,013	0,006
-628,736	47,153	-0,032	-0,022
-627,722	-200,000	0,008	-0,094
-626,707	9,651	-0,161	-0,090
-625,692	-200,000	-0,015	0,070
-624,678	776,634	-0,022	-0,045
-623,663	221,807	-0,067	-0,079
-622,649	-45,567	0,086	0,031
-621,634	-200,000	0,000	-0,029
-620,619	-5,627	-0,049	0,024
-619,605	213,877	0,029	0,034
-618,590	171,420	0,054	-0,057
-617,576	128,795	-0,099	0,092
-616,561	82,363	-0,066	-0,052
-615,546	-45,551	0,071	0,026
-614,532	-200,000	-0,014	-0,151
-613,517	800,000	-0,061	-0,146
-612,503	164,394	-0,012	0,012
-611,488	-200,000	0,015	-0,054
-610,474	-200,000	-0,010	-0,087
-609,459	-200,000	0,023	0,083
-608,444	-176,664	-0,197	0,004
-607,430	-200,000	0,030	-0,155
-606,415	349,275	-0,054	-0,078
-605,401	603,955	0,066	-0,122
-604,386	398,066	-0,011	0,017
-603,371	800,000	-0,065	-0,151
-602,357	149,003	0,027	0,027
-601,342	154,858	-0,053	-0,053
-600,328	165,407	-0,071	0,074
-599,313	-200,000	0,044	-0,185
-598,298	-134,761	0,026	0,002
-597,284	497,602	-0,032	0,055
-596,269	-200,000	0,015	0,050
-595,255	226,393	-0,096	0,114
-594,240	288,794	-0,062	-0,083
-593,225	800,000	0,021	-0,061
-592,211	75,924	-0,088	-0,068
-591,196	324,250	0,035	-0,050
-590,182	66,107	-0,044	0,033
-589,167	800,000	-0,037	0,081
-588,152	-137,871	-0,137	0,011
-587,138	-169,734	-0,062	-0,002
-586,123	800,000	-0,038	0,085
-585,109	-31,730	-0,107	-0,044
-584,094	-28,653	0,123	-0,052
-583,079	800,000	-0,023	-0,057
-582,065	-110,908	0,077	-0,011
-581,050	614,938	0,038	0,069
-580,036	-48,516	0,149	-0,052
-579,021	-135,817	-0,124	0,011
-578,006	-200,000	-0,014	-0,115
-576,992	-195,754	0,166	-0,001
-575,977	-161,012	0,027	-0,001
-574,963	-200,000	-0,025	0,110
-573,948	800,000	-0,027	0,065
-572,934	134,581	0,088	-0,083
-571,919	-200,000	-0,023	0,152
-570,904	39,915	-0,056	0,037
-569,890	118,693	-0,089	-0,080
-568,875	752,498	-0,026	0,051
-567,861	800,000	-0,038	0,089
-566,846	492,361	0,017	-0,029
-565,831	800,000	0,029	-0,092
-564,817	452,256	-0,082	-0,134
-563,802	-200,000	-0,019	-0,083
-562,788	-178,317	-0,057	-0,001
-561,773	249,258	-0,009	0,012
-560,758	149,972	0,060	0,060
-559,744	-200,000	0,058	0,201
-558,729	192,364	-0,019	0,021
-557,715	168,051	-0,030	-0,031
-556,700	800,000	-0,030	-0,089
-555,685	-200,000	0,004	0,033
-554,671	104,433	0,044	-0,038
-553,656	191,389	-0,006	0,007
-552,642	165,843	-0,078	0,081
-551,627	87,081	-0,051	-0,042
-550,612	367,329	-0,021	-0,031
-549,598	800,000	-0,033	0,081
-548,583	-5,124	-0,107	0,054
-547,569	378,631	-0,061	0,092
-546,554	145,065	0,135	0,132
-545,539	-183,350	-0,117	-0,001
-544,525	131,952	0,128	0,121
-543,510	188,311	-0,055	0,061
-542,496	-200,000	0,018	-0,080
-541,481	-51,133	0,131	0,045
-540,466	800,000	-0,039	0,101
-539,452	-200,000	-0,033	0,128
-538,437	215,568	0,133	0,155
-537,423	57,888	-0,080	-0,057
-536,408	156,991	-0,021	-0,021
-535,393	-200,000	-0,024	-0,215
-534,379	800,000	-0,090	-0,185
-533,364	-199,156	0,158	0,001
-532,350	-200,000	-0,038	0,127
-531,335	800,000	0,039	0,085
-530,321	-2,256	0,106	0,054
-529,306	42,731	-0,015	0,010
-528,291	407,082	0,092	-0,143
-527,277	-13,997	-0,111	-0,052
-526,262	-189,271	-0,062	-0,001
-525,248	-162,337	-0,047	0,002
-524,233	486,652	-0,030	0,050
-523,218	-42,510	0,066	0,024
-522,204	109,972	-0,112	0,098
-521,189	126,157	0,092	-0,085
-520,175	672,537	0,022	-0,041
-519,160	348,102	0,059	-0,085
-518,145	-48,298	-0,050	-0,018
-517,131	-200,000	0,034	0,120
-516,116	800,000	-0,046	0,126
-515,102	-58,738	0,032	0,010
-514,087	271,085	-0,065	0,084
-513,072	512,251	-0,075	-0,128
-512,058	-200,000	-0,003	0,088
-511,043	15,069	0,104	0,059
-510,029	-70,300	0,110	0,030
-509,014	-58,812	0,064	0,020
-507,999	550,930	-0,026	0,045
-506,985	25,007	-0,091	0,055
-505,970	800,000	-0,051	-0,120
-504,956	-99,336	-0,146	-0,027
-503,941	800,000	-0,022	-0,058
-502,926	800,000	-0,029	-0,088
-501,912	416,990	0,080	0,125
-500,897	-200,000	0,015	0,055
-499,883	229,522	0,101	-0,121
-498,868	-200,000	-0,021	-0,085
-497,853	173,161	-0,041	-0,043
-496,839	-122,855	0,087	0,010
-495,824	-45,948	0,050	0,018
-494,810	277,290	-0,013	0,017
-493,795	238,187	-0,097	-0,117
-492,781	6,225	-0,062	-0,034
-491,766	-95,753	0,142	-0,027
-490,751	-200,000	0,006	-0,099
-489,737	438,139	-0,028	0,045
-488,722	-125,662	0,193	-0,021
-487,708	265,415	0,023	0,029
-486,693	-120,100	-0,107	0,013
-485,678	800,000	-0,030	0,062
-484,664	-82,339	-0,199	-0,047
-483,649	-200,000	0,028	-0,101
-482,635	-185,535	0,114	-0,001
-481,620	800,000	0,032	0,084
-480,605	-200,000	-0,025	0,106
-479,591	800,000	0,033	-0,070
-478,576	800,000	-0,022	-0,063
-477,562	800,000	0,073	0,161
-476,547	-43,143	0,031	-0,011
-475,532	300,847	-0,053	-0,072
-474,518	54,903	0,143	0,100
-473,503	800,000	0,034	0,097
-472,489	-200,000	0,000	0,143
-471,474	181,991	0,050	0,054
-470,459	-3,630	-0,060	-0,030
-469,445	322,329	-0,066	-0,092
-468,430	146,413	0,055	-0,054
-467,416	-200,000	-0,004	-0,094
-466,401	109,720	0,099	0,087
-465,386	-200,000	-0,002	-0,073
-464,372	-200,000	-0,004	-0,071
-463,357	-81,520	-0,040	0,010
-462,343	-200,000	-0,039	0,136
-461,328	43,199	-0,049	0,032
-460,313	256,948	0,053	-0,067
-459,299	94,639	0,028	0,023
-458,284	800,000	0,038	-0,106
-457,270	394,168	-0,024	0,037
-456,255	800,000	-0,024	0,069
-455,241	-196,849	0,043	-0,000
-454,226	-200,000	-0,027	-0,090
-453,211	-114,372	0,113	0,016
-452,197	7,601	-0,044	-0,024
-451,182	-55,314	-0,111	0,036
-450,168	-163,099	-0,071	0,002
-449,153	155,707	-0,055	0,055
-448,138	56,243	-0,079	0,056
-447,124	-8,763	-0,029	-0,014
-446,109	422,734	0,038	-0,059
-445,095	210,301	0,082	0,094
-444,080	145,586	-0,029	0,028
-443,065	188,136	0,105	-0,115
-442,051	56,606	0,116	-0,082
-441,036	-200,000	0,001	0,053
-440,022	163,862	-0,007	-0,007
-439,007	174,777	-0,035	-0,037
-437,992	126,260	-0,023	-0,021
-436,978	151,928	0,132	-0,131
-435,963	-151,916	-0,028	0,001
-434,949	-59,318	-0,081	-0,025
-433,934	399,274	0,051	-0,078
-432,919	-200,000	-0,015	0,112
-431,905	-200,000	-0,057	0,195
-430,890	18,642	0,052	-0,030
-429,876	800,000	-0,051	0,153
-428,861	800,000	0,064	-0,140
-427,846	33,514	-0,107	-0,068
-426,832	-47,367	-0,071	0,025
-425,817	268,760	0,032	-0,041
-424,803	245,724	-0,067	-0,082
-423,788	360,851	-0,006	0,008
-422,773	-200,000	-0,003	0,014
-421,759	800,000	0,010	-0,020
-420,744	389,139	0,048	-0,073
-419,730	-28,883	0,106	0,044
-418,715	-200,000	-0,068	-0,275
-417,701	-64,253	-0,108	0,032
-416,686	-49,477	-0,022	-0,007
-415,671	-92,327	0,086	0,017
-414,657	-7,927	-0,165	-0,081
-413,642	800,000	0,040	0,091
-412,628	-200,000	0,046	0,176
-411,613	-200,000	-0,020	-0,130
-410,598	-200,000	0,023	0,088
-409,584	176,028	0,093	-0,099
-408,569	-200,000	0,027	-0,116
-407,555	-17,171	0,087	0,040
-406,540	210,073	0,060	0,068
-405,525	-200,000	-0,003	0,042
-404,511	-155,483	-0,066	0,003
-403,496	-11,894	0,023	0,011
-402,482	800,000	0,013	0,030
-401,467	-4,752	0,119	0,060
-400,452	39,650	-0,065	0,042
-399,438	-200,000	0,012	0,051
-398,423	800,000	-0,006	-0,015
-397,409	-200,000	0,031	0,126
-396,394	-200,000	0,005	0,029
-395,379	-95,114	0,093	-0,018
-394,365	-131,048	0,092	-0,009
-393,350	-56,918	0,159	0,051
-392,336	-0,901	-0,177	-0,091
-391,321	-165,105	-0,090	-0,003
-390,306	-99,368	0,128	-0,023
-389,292	-200,000	-0,004	-0,110
-388,277	-200,000	0,007	0,186
-387,263	-110,598	0,053	-0,008
-386,248	-200,000	0,018	0,136
-385,233	-56,856	0,030	0,010
-384,219	-200,000	0,002	0,108
-383,204	-200,000	-0,047	-0,189
-382,190	800,000	0,035	-0,078
-381,175	-200,000	0,001	-0,195
-380,160	800,000	-0,050	-0,140
-379,146	-143,404	-0,020	-0,001
-378,131	-200,000	-0,007	0,088
-377,117	-200,000	-0,005	0,016
-376,102	800,000	0,029	-0,058
-375,088	-161,770	-0,165	-0,006
-374,073	163,197	-0,056	0,057
-373,058	-200,000	-0,030	-0,101
-372,044	800,000	0,023	0,067
-371,029	-200,000	0,006	0,026
-370,015	-200,000	0,038	0,170
-369,000	589,836	0,045	0,081
-367,985	-200,000	0,002	0,050
-366,971	-200,000	-0,031	-0,163
-365,956	-79,513	-0,069	-0,017
-364,942	-22,029	-0,049	-0,022
-363,927	800,000	-0,069	0,167
-362,912	-200,000	0,008	-0,037
-361,898	164,014	0,068	-0,070
-360,883	-32,133	-0,093	-0,037
-359,869	-200,000	-0,029	-0,144
-358,854	-109,621	0,094	-0,014
-357,839	-200,000	-0,002	-0,118
-356,825	800,000	0,045	-0,102
-355,810	206,752	0,064	0,073
-354,796	226,960	0,037	0,044
-353,781	-33,577	0,189	0,076
-352,766	-9,238	-0,073	-0,035
-351,752	-103,944	-0,085	-0,014
-350,737	-86,181	0,096	-0,021
-349,723	-35,690	0,053	-0,021
-348,708	-36,847	-0,045	-0,017
-347,693	-61,403	-0,052	0,016
-346,679	108,403	-0,087	-0,075
-345,664	-5,411	0,183	0,091
-344,650	379,160	-0,079	-0,119
-343,635	800,000	0,007	-0,023
-342,620	800,000	0,045	0,124
-341,606	-21,042	0,146	0,065
-340,591	-200,000	0,020	-0,097
-339,577	800,000	0,065	-0,152
-338,562	133,315	-0,062	-0,058
-337,548	-139,733	0,042	-0,003
-336,533	-200,000	0,002	0,078
-335,518	-182,454	-0,034	0,000
-334,504	800,000	-0,025	0,062
-333,489	140,683	-0,104	0,100
-332,475	4,716	0,081	-0,043
-331,460	-143,513	-0,107	-0,007
-330,445	-200,000	0,006	-0,056
-329,431	73,864	0,051	-0,039
-328,416	-200,000	0,007	0,091
-327,402	-200,000	0,002	0,117
-326,387	-40,801	0,098	-0,037
-325,372	306,471	0,009	-0,013
-324,358	265,099	-0,062	0,078
-323,343	237,822	-0,095	0,114
-322,329	-88,700	0,108	-0,023
-321,314	384,920	0,088	0,132
-320,299	-9,848	0,038	0,018
-319,285	-154,221	0,101	0,005
-318,270	800,000	-0,039	0,096
-317,256	121,865	-0,073	0,066
-316,241	280,610	0,090	-0,116
-315,226	-77,839	-0,100	-0,025
-314,212	-72,516	-0,016	0,004
-313,197	21,731	0,050	0,029
-312,183	-200,000	0,012	0,052
-311,168	5,127	0,071	0,038
-310,153	173,787	-0,096	-0,101
-309,139	195,887	0,052	0,058
-308,124	-13,110	-0,019	0,009
-307,110	58,529	0,106	0,075
-306,095	26,514	-0,048	0,029
-305,080	-68,044	0,116	-0,033
-304,066	160,697	0,035	0,035
-303,051	800,000	0,020	-0,046
-302,037	-200,000	-0,002	-0,024
-301,022	-152,039	0,044	0,002
-300,008	15,617	-0,033	0,019
-298,993	380,012	0,031	0,045
-297,978	-200,000	-0,005	-0,019
-296,964	-88,263	-0,092	0,020
-295,949	436,738	0,049	-0,077
-294,935	800,000	-0,040	-0,098
-293,920	800,000	-0,041	-0,088
-292,905	800,000	0,009	-0,023
-291,891	132,973	0,138	0,129
-290,876	-30,275	-0,154	-0,063
-289,862	-200,000	0,023	-0,087
-288,847	117,510	-0,039	0,035
-287,832	-200,000	0,010	-0,142
-286,818	-200,000	0,000	-0,036
-285,803	1,188	-0,062	-0,032
-284,789	54,679	0,138	0,096
-283,774	-76,168	-0,040	0,010
-282,759	205,993	0,037	-0,042
-281,745	-129,245	-0,065	0,006
-280,730	-170,094	0,009	0,000
-279,716	-200,000	-0,005	-0,035
-278,701	-38,301	-0,042	0,016
-277,686	-5,447	0,030	-0,015
-276,672	-4,258	0,174	0,087
-275,657	-84,571	0,086	-0,019
-274,643	-200,000	-0,017	-0,066
-273,628	132,487	-0,099	-0,092
-272,613	250,596	-0,036	0,044
-271,599	-115,237	-0,058	-0,008
-270,584	11,725	-0,087	0,048
-269,570	699,076	0,056	0,107
-268,555	800,000	0,064	0,136
-267,540	-200,000	-0,003	-0,018
-266,526	-29,468	-0,102	-0,042
-265,511	81,179	0,042	0,033
-264,497	764,412	0,049	0,096
-263,482	-7,686	0,110	-0,054
-262,467	800,000	-0,052	0,110
-261,453	800,000	-0,024	0,068
-260,438	59,759	0,132	0,094
-259,424	109,752	0,168	0,146
-258,409	-50,906	-0,068	-0,023
-257,395	91,765	-0,057	0,046
-256,380	6,839	-0,009	-0,005
-255,365	-200,000	-0,005	0,148
-254,351	800,000	-0,018	-0,043
-253,336	-44,217	0,065	-0,023
-252,322	-200,000	0,008	-0,030
-251,307	-152,449	-0,100	-0,005
-250,292	-150,409	-0,023	-0,001
-249,278	800,000	0,073	0,150
-248,263	-108,343	-0,101	0,016
-247,249	800,000	0,012	-0,031
-246,234	-200,000	0,001	0,096
-245,219	693,823	0,037	-0,071
-244,205	273,331	0,096	-0,124
-243,190	62,061	0,167	0,120
-242,176	-200,000	0,004	-0,016
-241,161	800,000	-0,040	0,115
-240,146	-41,313	0,067	-0,025
-239,132	-51,195	-0,138	-0,046
-238,117	364,392	0,037	-0,054
-237,103	-34,618	-0,088	-0,035
-236,088	82,119	-0,007	-0,006
-235,073	80,211	0,080	-0,063
-234,059	99,766	-0,064	0,053
-233,044	592,568	0,019	-0,035
-232,030	800,000	0,017	-0,036
-231,015	91,365	0,065	-0,053
-230,000	65,286	0,022	-0,016
-228,986	320,080	-0,041	-0,056
-227,971	516,537	-0,034	-0,058
-226,957	131,469	-0,029	-0,027
-225,942	-146,000	0,074	0,005
-224,927	33,184	0,061	0,038
-223,913	14,878	0,042	-0,024
-222,898	13,485	-0,112	0,062
-221,884	364,118	-0,080	0,116
-220,869	8,231	-0,062	0,034
-219,855	-200,000	0,011	0,064
-218,840	-130,099	-0,046	-0,004
-217,825	276,085	0,038	0,049
-216,811	-200,000	-0,001	-0,090
-215,796	15,879	-0,040	-0,023
-214,782	-200,000	-0,020	0,070
-213,767	-200,000	0,014	-0,101
-212,752	-200,000	-0,002	-0,062
-211,738	68,381	0,125	0,092
-210,723	499,451	-0,052	0,087
-209,709	800,000	-0,042	-0,100
-208,694	176,864	-0,072	-0,076
-207,679	-200,000	0,025	-0,157
-206,665	800,000	0,028	-0,072
-205,650	-145,789	0,075	-0,005
-204,636	0,584	-0,129	0,066
-203,621	-96,426	-0,072	-0,014
-202,606	0,800	-0,074	0,038
-201,592	167,406	-0,066	-0,068
-200,577	-182,054	0,077	-0,001
-199,563	56,323	-0,073	-0,051
-198,548	-22,659	0,038	0,017
-197,533	30,847	-0,100	0,062
-196,519	87,495	0,077	0,062
-195,504	470,252	-0,055	-0,090
-194,490	-129,254	-0,079	-0,008
-193,475	42,884	-0,108	-0,071
-192,460	-111,059	0,153	0,022
-191,446	-23,930	0,056	0,024
-190,431	-3,328	0,085	0,042
-189,417	133,483	-0,063	-0,059
-188,402	-200,000	0,050	0,202
-187,387	26,132	-0,072	-0,043
-186,373	234,571	0,048	0,057
-185,358	45,549	0,044	-0,030
-184,344	581,226	-0,017	0,030
-183,329	-133,864	-0,005	-0,000
-182,315	800,000	0,116	0,237
-181,300	134,021	0,062	0,058
-180,285	-200,000	0,028	0,090
-179,271	225,458	0,118	-0,138
-178,256	-86,783	0,213	-0,047
-177,242	17,864	0,146	0,084
-176,227	-200,000	0,004	0,019
-175,212	-1,265	-0,111	-0,056
-174,198	-200,000	-0,025	-0,085
-173,183	-13,094	-0,105	-0,049
-172,169	-123,505	0,100	-0,011
-171,154	65,889	-0,056	-0,041
-170,139	129,443	0,064	0,059
-169,125	-37,463	0,165	-0,063
-168,110	-200,000	0,012	-0,053
-167,096	-200,000	0,004	0,046
-166,081	-200,000	-0,013	0,069
-165,066	134,035	-0,108	-0,101
-164,052	122,445	-0,099	0,089
-163,037	-55,591	-0,032	0,010
-162,023	400,547	0,027	-0,042
-161,008	-200,000	-0,004	-0,038
-159,993	-61,577	0,063	-0,019
-158,979	53,748	0,069	-0,048
-157,964	-92,450	-0,057	-0,011
-156,950	354,670	0,065	0,093
-155,935	-56,540	0,083	-0,026
-154,920	800,000	-0,015	-0,036
-153,906	800,000	-0,033	0,081
-152,891	-111,371	-0,105	0,015
-151,877	712,086	-0,036	0,070
-150,862	124,540	0,027	0,025
-149,847	631,058	0,048	-0,088
-148,833	-118,967	0,129	-0,016
-147,818	215,686	-0,084	0,096
-146,804	220,755	-0,053	0,061
-145,789	-7,386	-0,118	-0,057
-144,775	800,000	0,036	0,105
-143,760	79,480	-0,091	0,070
-142,745	-200,000	0,023	-0,127
-141,731	-88,604	-0,051	0,011
-140,716	-200,000	0,013	0,066
-139,702	-49,690	0,093	-0,032
-138,687	800,000	0,027	0,061
-137,672	46,666	0,084	-0,056
-136,658	112,563	-0,054	-0,047
-135,643	-142,387	0,135	0,009
-134,629	106,873	0,158	-0,135
-133,614	800,000	0,052	0,152
-132,599	766,193	-0,046	-0,091
-131,585	206,306	-0,055	-0,062
-130,570	-200,000	0,050	0,000
-129,556	-141,161	-0,098	-0,007
-128,541	45,484	-0,054	0,036
-127,526	-200,000	-0,015	-0,055
-126,512	-37,330	0,148	-0,057
-125,497	328,304	-0,068	0,094
-124,483	316,662	0,042	0,057
-123,468	-149,309	-0,049	0,003
-122,453	1,280	0,030	0,016
-121,439	-200,000	-0,022	-0,105
-120,424	-66,642	-0,012	0,003
-119,410	800,000	0,079	0,185
