DTS Sentinel unit serial number:	SN410029Multiplexer serial number:	ORYXHardware model number:	OX2-SRSoftware version number:	ORYX F/W v4,00 Oryx Data Collector v3.7.2.0data status	okinstallation	B5 Nyhavnadifferential loss correction	single-endedforward channel	channel 2reverse channel	N/Adate	2023/12/14time	15:42:13forward acquisition time	300,00reverse acquisition time	0,00gamma	499,1914k internal	0,3157k external	0,3157temperature offset calibration	1,0000default loss term (dB/km)	0,3820temperature slope calibration	1,0000multiplexer offset coefficient	1,0000multiplexer slope coefficient	1,0000fibre end	0,00T internal ref (°C)	7,87T ext. ref 1 (°C)	-8,12T ext. ref 2 (°C)	-8,14length (m)	temperature (°C)	Stokes	anti-Stokes-744,400	511,561	-0,048	0,083
-743,385	-5,271	-0,247	0,125
-742,371	-151,676	0,163	-0,009
-741,356	-90,062	-0,318	0,068
-740,342	-200,000	0,072	0,258
-739,327	-187,955	-0,481	-0,004
-738,312	63,990	0,062	0,046
-737,298	16,722	-0,269	-0,156
-736,283	391,624	0,113	0,174
-735,269	-168,964	-0,338	0,009
-734,254	-82,439	0,221	0,052
-733,239	39,500	-0,464	-0,306
-732,225	-11,168	0,165	0,080
-731,210	-200,000	0,029	0,187
-730,196	-22,700	-0,045	0,020
-729,181	-44,069	-0,123	0,045
-728,167	691,092	-0,015	-0,029
-727,152	18,945	-0,127	0,075
-726,137	7,408	-0,108	-0,059
-725,123	126,127	-0,006	0,005
-724,108	77,187	-0,086	-0,067
-723,094	-200,000	0,013	-0,110
-722,079	136,351	-0,040	-0,039
-721,064	545,702	0,019	0,033
-720,050	28,527	0,120	0,074
-719,035	-101,757	-0,059	-0,010
-718,021	800,000	-0,016	-0,051
-717,006	-93,464	-0,132	0,027
-715,991	-38,291	-0,098	-0,038
-714,977	-14,217	-0,088	0,042
-713,962	-200,000	0,013	0,065
-712,948	800,000	-0,044	-0,135
-711,933	800,000	0,056	-0,125
-710,918	43,618	0,038	0,026
-709,904	-74,055	-0,188	-0,050
-708,889	800,000	0,067	-0,139
-707,875	580,423	-0,042	-0,076
-706,860	-200,000	-0,006	0,054
-705,845	-200,000	-0,033	-0,115
-704,831	-200,000	0,009	-0,046
-703,816	108,597	-0,092	0,081
-702,802	395,325	-0,111	-0,171
-701,787	362,353	-0,080	-0,118
-700,772	36,543	-0,088	0,057
-699,758	-200,000	-0,004	0,054
-698,743	800,000	-0,050	-0,114
-697,729	178,652	0,118	0,127
-696,714	360,747	0,034	0,050
-695,699	-200,000	0,002	-0,028
-694,685	-63,662	-0,083	-0,025
-693,670	344,574	0,030	0,044
-692,656	-6,173	-0,130	0,065
-691,641	800,000	0,020	0,048
-690,627	-200,000	0,007	-0,168
-689,612	-128,428	0,061	0,006
-688,597	93,556	-0,056	0,047
-687,583	326,652	-0,069	0,098
-686,568	800,000	-0,045	-0,126
-685,554	-24,975	-0,059	-0,026
-684,539	-134,951	0,149	-0,013
-683,524	-6,930	0,069	0,034
-682,510	2,968	-0,025	0,013
-681,495	139,999	0,105	-0,102
-680,481	222,479	-0,133	-0,158
-679,466	-200,000	-0,004	-0,081
-678,451	-200,000	0,027	-0,104
-677,437	800,000	0,035	-0,108
-676,422	-200,000	-0,014	-0,052
-675,408	-81,582	-0,117	0,028
-674,393	24,418	-0,045	0,027
-673,378	405,212	0,063	0,098
-672,364	519,724	-0,010	0,017
-671,349	-200,000	0,008	-0,121
-670,335	10,234	0,037	0,021
-669,320	-62,242	-0,087	-0,026
-668,305	24,590	0,055	-0,034
-667,291	642,822	-0,077	-0,144
-666,276	338,065	-0,056	-0,081
-665,262	-16,812	-0,089	0,041
-664,247	18,669	-0,140	0,082
-663,232	-40,192	0,056	-0,021
-662,218	-200,000	0,020	0,112
-661,203	-141,548	0,124	0,009
-660,189	-75,671	0,053	0,014
-659,174	-200,000	0,007	-0,090
-658,159	-200,000	0,002	0,055
-657,145	-135,319	-0,201	0,017
-656,130	80,690	0,081	-0,064
-655,116	-11,131	-0,103	0,050
-654,101	-33,964	0,113	-0,045
-653,086	98,978	-0,058	-0,049
-652,072	161,354	0,177	-0,182
-651,057	-25,159	-0,074	-0,032
-650,043	90,231	-0,083	-0,068
-649,028	-200,000	-0,003	0,069
-648,014	-200,000	0,010	-0,033
-646,999	-200,000	0,030	-0,191
-645,984	-98,289	-0,060	0,011
-644,970	94,903	-0,103	0,086
-643,955	-33,285	-0,034	-0,014
-642,941	-200,000	-0,010	-0,105
-641,926	-200,000	-0,029	-0,129
-640,911	800,000	-0,042	0,098
-639,897	-131,970	-0,074	-0,007
-638,882	83,806	0,096	-0,077
-637,868	122,573	-0,028	0,026
-636,853	-9,020	-0,093	-0,046
-635,838	35,498	0,120	-0,077
-634,824	-200,000	0,012	-0,104
-633,809	460,135	-0,022	0,036
-632,795	439,426	0,044	-0,071
-631,780	-200,000	0,000	-0,019
-630,765	-200,000	-0,060	0,232
-629,751	-61,716	-0,124	-0,038
-628,736	19,652	-0,077	-0,045
-627,722	193,594	-0,037	0,041
-626,707	508,678	-0,045	-0,078
-625,692	198,268	0,083	-0,093
-624,678	61,687	-0,032	0,023
-623,663	-123,232	0,108	0,012
-622,649	228,836	0,019	0,023
-621,634	-40,425	-0,052	0,020
-620,619	123,293	0,097	-0,089
-619,605	-139,591	0,061	-0,005
-618,590	-200,000	0,007	0,088
-617,576	161,383	-0,134	0,137
-616,561	672,972	0,046	-0,088
-615,546	-200,000	0,012	-0,101
-614,532	-74,916	-0,167	0,044
-613,517	-74,409	-0,123	-0,032
-612,503	335,940	-0,036	0,052
-611,488	-73,951	0,197	-0,052
-610,474	-200,000	0,028	0,129
-609,459	-49,275	0,065	0,023
-608,444	-134,446	-0,145	-0,013
-607,430	51,255	-0,063	-0,044
-606,415	482,895	0,072	0,121
-605,401	125,598	-0,056	0,052
-604,386	-200,000	0,013	-0,051
-603,371	0,145	-0,084	0,044
-602,357	-137,703	0,015	0,001
-601,342	-200,000	-0,031	0,123
-600,328	800,000	-0,023	0,072
-599,313	-147,935	-0,139	-0,008
-598,298	132,275	0,021	0,020
-597,284	335,238	0,036	-0,051
-596,269	125,030	0,115	-0,106
-595,255	-60,262	-0,105	0,033
-594,240	-200,000	-0,003	0,028
-593,225	-31,647	0,078	-0,032
-592,211	-15,949	-0,078	0,036
-591,196	-200,000	-0,021	0,085
-590,182	-53,576	0,117	-0,039
-589,167	73,278	-0,041	0,031
-588,152	-200,000	-0,003	-0,132
-587,138	-200,000	0,003	-0,081
-586,123	800,000	0,003	-0,010
-585,109	-200,000	0,006	-0,055
-584,094	-200,000	-0,009	-0,061
-583,079	298,513	0,052	0,070
-582,065	502,757	0,030	-0,051
-581,050	387,102	-0,057	0,086
-580,036	-165,856	-0,157	-0,005
-579,021	169,991	0,033	0,034
-578,006	-139,543	-0,175	-0,013
-576,992	430,393	-0,026	0,041
-575,977	46,331	0,037	-0,025
-574,963	74,482	0,040	-0,031
-573,948	145,084	0,033	-0,033
-572,934	-24,802	-0,036	0,016
-571,919	92,162	-0,095	0,078
-570,904	-47,343	-0,066	0,023
-569,890	800,000	-0,007	0,017
-568,875	39,501	-0,047	-0,031
-567,861	-200,000	-0,004	0,036
-566,846	-200,000	0,006	0,045
-565,831	244,801	0,101	0,125
-564,817	800,000	-0,017	-0,042
-563,802	-86,510	0,114	0,026
-562,788	-200,000	0,071	0,000
-561,773	203,001	-0,070	-0,080
-560,758	259,610	0,040	0,050
-559,744	800,000	-0,034	0,105
-558,729	334,463	-0,012	0,018
-557,715	306,977	0,063	-0,086
-556,700	602,161	-0,037	-0,067
-555,685	-200,000	0,010	-0,132
-554,671	444,420	-0,081	0,130
-553,656	589,545	-0,057	0,104
-552,642	-85,113	-0,157	0,036
-551,627	-104,061	0,095	-0,016
-550,612	-200,000	-0,011	-0,174
-549,598	477,788	0,030	-0,050
-548,583	-19,930	-0,062	-0,028
-547,569	540,055	-0,028	0,049
-546,554	-44,089	0,178	-0,065
-545,539	194,434	-0,030	0,034
-544,525	109,822	0,106	-0,093
-543,510	-200,000	0,012	-0,085
-542,496	17,919	-0,079	-0,046
-541,481	-1,050	-0,118	-0,061
-540,466	180,664	0,065	-0,070
-539,452	425,801	0,066	0,104
-538,437	-177,516	-0,097	0,002
-537,423	11,410	-0,113	0,063
-536,408	657,296	-0,045	-0,086
-535,393	-200,000	0,010	0,053
-534,379	-200,000	0,001	0,089
-533,364	294,085	0,055	0,074
-532,350	191,964	-0,005	-0,006
-531,335	-55,936	-0,139	-0,045
-530,321	671,552	0,044	0,083
-529,306	-9,431	-0,114	0,055
-528,291	-27,104	0,144	0,061
-527,277	90,976	-0,075	0,062
-526,262	306,246	0,063	-0,086
-525,248	239,180	0,101	-0,123
-524,233	9,464	0,065	-0,036
-523,218	230,888	-0,119	-0,143
-522,204	560,483	-0,088	0,156
-521,189	800,000	0,027	0,080
-520,175	219,701	-0,076	-0,089
-519,160	288,120	0,074	0,098
-518,145	569,091	-0,017	-0,030
-517,131	-200,000	0,013	0,178
-516,116	800,000	0,037	0,081
-515,102	-200,000	-0,014	-0,128
-514,087	-99,687	-0,050	-0,009
-513,072	58,916	-0,187	-0,134
-512,058	-200,000	-0,006	-0,039
-511,043	-200,000	0,007	0,061
-510,029	628,240	0,025	0,047
-509,014	-188,518	0,112	0,001
-507,999	173,181	0,065	0,069
-506,985	-33,974	-0,106	0,043
-505,970	-200,000	0,005	-0,064
-504,956	-97,370	-0,115	0,022
-503,941	-200,000	-0,008	-0,068
-502,926	-49,388	0,125	-0,043
-501,912	-36,309	-0,068	-0,027
-500,897	233,321	0,089	0,107
-499,883	-200,000	-0,004	-0,061
-498,868	176,549	0,050	-0,053
-497,853	-51,021	0,068	0,023
-496,839	129,115	0,038	-0,036
-495,824	-94,039	0,183	0,036
-494,810	456,913	0,043	-0,070
-493,795	-14,689	-0,068	-0,032
-492,781	86,499	0,021	0,017
-491,766	-100,592	-0,048	-0,009
-490,751	800,000	0,059	-0,179
-489,737	456,426	0,038	-0,061
-488,722	-125,981	0,115	-0,013
-487,708	800,000	0,039	0,092
-486,693	92,703	0,071	-0,059
-485,678	800,000	0,075	0,177
-484,664	466,631	0,058	-0,095
-483,649	-200,000	0,001	-0,072
-482,635	62,026	0,081	-0,059
-481,620	353,620	-0,014	0,020
-480,605	22,664	0,141	-0,084
-479,591	-88,386	0,079	-0,017
-478,576	224,891	-0,108	0,128
-477,562	-47,336	-0,087	-0,031
-476,547	356,404	0,072	-0,105
-475,532	663,042	0,010	0,019
-474,518	-81,242	-0,048	0,011
-473,503	21,363	0,078	-0,046
-472,489	-200,000	0,050	0,173
-471,474	800,000	0,022	0,066
-470,459	800,000	0,020	0,054
-469,445	800,000	0,025	-0,067
-468,430	-200,000	-0,025	0,080
-467,416	153,767	0,153	-0,153
-466,401	95,032	-0,094	-0,078
-465,386	-31,359	0,083	-0,034
-464,372	-200,000	0,022	0,093
-463,357	127,366	-0,131	-0,121
-462,343	-200,000	0,032	-0,139
-461,328	-4,194	0,080	-0,040
-460,313	172,459	0,069	-0,072
-459,299	-200,000	-0,015	0,067
-458,284	237,302	0,053	0,065
-457,270	-200,000	0,004	0,087
-456,255	-135,941	-0,152	-0,013
-455,241	91,251	-0,068	-0,056
-454,226	-172,322	-0,056	-0,001
-453,211	-24,902	-0,085	-0,037
-452,197	186,269	0,107	0,116
-451,182	262,620	-0,079	0,100
-450,168	231,555	0,060	0,072
-449,153	-200,000	0,022	0,000
-448,138	594,317	0,069	-0,124
-447,124	559,523	0,013	-0,023
-446,109	311,276	0,041	0,056
-445,095	89,845	0,065	-0,053
-444,080	-72,344	-0,068	-0,018
-443,065	-200,000	0,001	0,008
-442,051	-6,112	-0,051	-0,025
-441,036	671,582	0,017	-0,033
-440,022	-92,399	0,120	0,024
-439,007	712,553	-0,078	-0,150
-437,992	800,000	0,040	0,115
-436,978	-200,000	-0,001	-0,012
-435,963	-99,699	0,054	-0,010
-434,949	-200,000	-0,017	0,167
-433,934	-200,000	0,006	0,064
-432,919	-109,218	-0,083	-0,013
-431,905	800,000	0,074	-0,161
-430,890	-161,892	0,070	-0,003
-429,876	230,339	0,042	0,050
-428,861	67,169	0,079	0,058
-427,846	195,245	-0,037	-0,041
-426,832	-126,630	-0,061	0,007
-425,817	800,000	0,054	-0,125
-424,803	97,133	-0,054	-0,045
-423,788	-200,000	-0,009	0,106
-422,773	-200,000	-0,002	0,014
-421,759	173,477	0,065	-0,068
-420,744	709,981	-0,046	0,089
-419,730	63,986	-0,184	-0,134
-418,715	-35,627	0,020	0,008
-417,701	146,630	-0,098	-0,096
-416,686	-59,997	0,099	-0,031
-415,671	-200,000	0,008	0,089
-414,657	51,442	0,034	0,023
-413,642	-55,701	-0,091	0,029
-412,628	34,611	-0,023	0,015
-411,613	128,172	-0,044	0,041
-410,598	-152,460	-0,102	0,005
-409,584	177,370	0,018	-0,019
-408,569	580,114	0,043	0,077
-407,555	-77,667	0,166	0,042
-406,540	89,254	-0,154	-0,125
-405,525	44,194	-0,135	-0,090
-404,511	56,963	0,111	0,079
-403,496	-200,000	-0,013	-0,043
-402,482	119,138	0,063	-0,057
-401,467	-200,000	0,009	0,057
-400,452	158,955	0,044	0,044
-399,438	179,625	-0,111	-0,119
-398,423	-200,000	-0,004	0,052
-397,409	140,255	-0,077	-0,074
-396,394	280,521	0,024	-0,031
-395,379	800,000	0,063	-0,174
-394,365	294,015	0,062	-0,082
-393,350	365,632	0,074	0,109
-392,336	-66,946	-0,142	0,040
-391,321	-97,684	0,096	0,018
-390,306	-200,000	0,013	0,085
-389,292	-200,000	-0,036	-0,134
-388,277	65,258	0,120	0,088
-387,263	-200,000	0,027	0,100
-386,248	-200,000	0,001	0,029
-385,233	800,000	0,081	0,178
-384,219	-33,272	-0,048	-0,019
-383,204	369,103	0,020	0,030
-382,190	-200,000	0,045	-0,162
-381,175	277,259	-0,024	-0,032
-380,160	-200,000	0,001	-0,144
-379,146	-36,822	0,051	0,020
-378,131	-200,000	0,019	0,140
-377,117	113,233	0,011	-0,010
-376,102	37,740	-0,108	0,070
-375,088	452,156	0,044	0,070
-374,073	249,797	0,039	-0,048
-373,058	402,175	0,058	0,089
-372,044	21,517	0,054	-0,032
-371,029	788,486	-0,054	-0,108
-370,015	-200,000	-0,011	0,054
-369,000	-178,924	0,082	0,001
-367,985	10,499	-0,084	-0,046
-366,971	30,611	0,061	0,038
-365,956	779,165	0,031	0,062
-364,942	370,300	0,037	0,055
-363,927	-142,292	-0,260	-0,018
-362,912	-45,011	-0,006	0,002
-361,898	800,000	0,040	-0,126
-360,883	800,000	-0,023	-0,049
-359,869	129,031	0,085	0,078
-358,854	-200,000	0,032	0,146
-357,839	126,129	-0,026	-0,024
-356,825	338,918	-0,080	0,113
-355,810	800,000	-0,023	-0,061
-354,796	-200,000	-0,011	0,134
-353,781	-69,289	0,034	-0,010
-352,766	800,000	-0,067	-0,135
-351,752	8,289	0,068	-0,037
-350,737	-91,133	-0,076	0,016
-349,723	-200,000	-0,010	0,043
-348,708	175,197	0,070	0,074
-347,693	110,831	-0,047	0,041
-346,679	-119,566	0,081	-0,010
-345,664	-115,781	0,130	-0,017
-344,650	-64,447	-0,062	0,018
-343,635	-200,000	-0,001	0,016
-342,620	-200,000	-0,004	0,083
-341,606	-200,000	0,028	0,112
-340,591	800,000	-0,021	0,065
-339,577	-93,642	-0,054	-0,011
-338,562	150,647	0,098	-0,097
-337,548	91,355	-0,080	-0,065
-336,533	-31,577	0,143	-0,058
-335,518	204,305	0,093	-0,104
-334,504	-21,460	0,117	0,052
-333,489	-200,000	0,011	0,098
-332,475	800,000	-0,032	-0,096
-331,460	413,805	0,028	-0,043
-330,445	800,000	-0,026	0,059
-329,431	-200,000	0,026	0,161
-328,416	-200,000	0,004	-0,151
-327,402	-86,256	0,134	0,030
-326,387	-66,330	-0,122	-0,035
-325,372	800,000	-0,027	-0,059
-324,358	-156,291	0,075	0,003
-323,343	63,114	0,059	-0,043
-322,329	-31,261	0,092	0,037
-321,314	-200,000	-0,008	-0,071
-320,299	-100,165	0,078	0,014
-319,285	292,317	0,104	-0,137
-318,270	-111,016	-0,078	-0,011
-317,256	800,000	-0,008	-0,019
-316,241	323,563	0,060	-0,083
-315,226	474,993	0,102	-0,167
-314,212	-103,992	0,132	0,022
-313,197	-200,000	-0,022	-0,081
-312,183	-104,341	-0,079	-0,013
-311,168	800,000	0,019	-0,043
-310,153	54,837	0,041	-0,029
-309,139	641,410	-0,030	0,056
-308,124	329,341	-0,038	-0,054
-307,110	800,000	-0,041	0,110
-306,095	-200,000	-0,018	0,062
-305,080	59,419	-0,053	0,038
-304,066	-13,623	0,121	0,056
-303,051	-38,283	0,103	0,039
-302,037	86,976	-0,077	-0,062
-301,022	605,177	-0,029	0,053
-300,008	192,958	-0,036	0,039
-298,993	-200,000	-0,011	0,097
-297,978	-200,000	-0,031	0,138
-296,964	730,846	-0,026	-0,050
-295,949	-170,165	-0,040	0,001
-294,935	566,009	0,019	0,034
-293,920	95,669	-0,036	-0,030
-292,905	-59,158	0,127	-0,039
-291,891	800,000	0,044	0,119
-290,876	122,565	-0,148	0,134
-289,862	86,188	0,051	-0,041
-288,847	800,000	0,017	0,045
-287,832	-16,266	0,101	-0,046
-286,818	-200,000	0,016	-0,104
-285,803	800,000	0,021	-0,056
-284,789	-6,724	0,082	0,040
-283,774	3,370	-0,076	0,040
-282,759	442,292	0,071	-0,114
-281,745	34,830	0,057	0,036
-280,730	226,474	-0,092	0,108
-279,716	568,736	0,016	0,027
-278,701	-200,000	0,016	0,096
-277,686	89,145	0,121	0,097
-276,672	93,423	-0,045	0,037
-275,657	-200,000	0,003	0,027
-274,643	48,211	-0,067	0,045
-273,628	591,561	-0,045	-0,081
-272,613	417,655	0,016	-0,024
-271,599	40,615	0,093	-0,061
-270,584	-42,159	0,040	0,015
-269,570	255,669	0,039	0,049
-268,555	-200,000	0,006	0,048
-267,540	-146,348	0,045	-0,003
-266,526	-129,315	-0,010	0,001
-265,511	-200,000	0,010	-0,123
-264,497	-28,507	-0,081	-0,034
-263,482	-54,236	-0,085	0,028
-262,467	800,000	0,045	0,092
-261,453	382,594	-0,034	-0,051
-260,438	70,604	0,051	-0,038
-259,424	-36,565	-0,079	-0,031
-258,409	206,967	-0,069	-0,077
-257,395	-200,000	0,017	0,097
-256,380	235,725	-0,071	0,085
-255,365	122,396	0,111	0,101
-254,351	433,734	-0,075	-0,118
-253,336	-200,000	0,044	-0,159
-252,322	-200,000	0,002	0,049
-251,307	-17,207	-0,073	0,033
-250,292	-200,000	0,017	0,092
-249,278	516,518	-0,040	0,068
-248,263	-183,258	0,108	-0,001
-247,249	89,008	-0,076	-0,062
-246,234	92,683	-0,180	-0,147
-245,219	800,000	-0,037	-0,111
-244,205	-200,000	-0,013	-0,063
-243,190	800,000	-0,028	-0,058
-242,176	57,440	0,095	0,067
-241,161	-66,020	0,087	0,025
-240,146	-200,000	0,005	-0,032
-239,132	-200,000	0,001	-0,100
-238,117	208,273	-0,081	-0,092
-237,103	800,000	-0,038	0,090
-236,088	180,613	0,050	0,053
-235,073	-81,364	0,025	-0,006
-234,059	-200,000	0,017	-0,069
-233,044	78,034	-0,086	-0,066
-232,030	18,972	0,062	-0,036
-231,015	574,189	-0,040	-0,070
-230,000	-51,379	0,068	0,023
-228,986	185,635	0,071	0,076
-227,971	18,138	0,093	0,053
-226,957	170,432	-0,046	0,047
-225,942	-9,927	0,137	0,066
-224,927	18,949	-0,017	0,010
-223,913	800,000	-0,032	-0,071
-222,898	-200,000	0,004	-0,073
-221,884	-200,000	-0,011	0,139
-220,869	142,078	0,059	0,057
-219,855	800,000	-0,018	-0,043
-218,840	322,174	0,084	0,116
-217,825	-39,311	0,062	-0,023
-216,811	-173,772	-0,102	-0,002
-215,796	800,000	-0,023	0,056
-214,782	800,000	-0,032	0,085
-213,767	224,844	0,029	-0,034
-212,752	-57,197	0,038	0,012
-211,738	789,089	0,048	0,096
-210,723	498,130	-0,051	-0,086
-209,709	-200,000	-0,029	0,185
-208,694	187,255	-0,042	-0,046
-207,679	-49,661	-0,108	0,037
-206,665	800,000	0,034	-0,088
-205,650	800,000	0,053	0,149
-204,636	-200,000	-0,025	0,115
-203,621	401,511	0,035	0,054
-202,606	-20,757	-0,026	-0,012
-201,592	244,922	-0,107	-0,130
-200,577	-200,000	-0,006	-0,026
-199,563	-62,133	-0,056	-0,017
-198,548	-200,000	0,040	0,154
-197,533	-200,000	0,022	0,119
-196,519	800,000	0,074	-0,156
-195,504	396,448	-0,076	0,114
-194,490	800,000	0,012	0,032
-193,475	-61,925	0,011	-0,003
-192,460	-99,234	0,055	-0,010
-191,446	206,022	-0,033	0,037
-190,431	305,093	-0,017	-0,022
-189,417	448,085	-0,085	-0,136
-188,402	120,660	-0,110	-0,099
-187,387	-200,000	-0,048	-0,177
-186,373	216,752	-0,174	-0,200
-185,358	95,103	-0,032	0,027
-184,344	-163,314	-0,048	0,002
-183,329	85,963	0,041	-0,033
-182,315	-200,000	0,007	0,059
-181,300	62,120	0,094	0,068
-180,285	-49,420	-0,022	0,008
-179,271	800,000	0,060	-0,124
-178,256	7,059	0,058	-0,031
-177,242	373,350	-0,062	0,092
-176,227	-0,406	-0,037	0,019
-175,212	201,863	-0,025	0,028
-174,198	54,256	0,039	0,027
-173,183	579,322	-0,067	-0,119
-172,169	47,881	-0,082	-0,055
-171,154	-25,985	0,127	-0,054
-170,139	409,559	-0,033	0,051
-169,125	-200,000	-0,022	-0,156
-168,110	218,463	0,074	0,086
-167,096	-43,509	-0,027	0,010
-166,081	83,231	-0,136	0,107
-165,066	226,929	-0,102	0,120
-164,052	-200,000	0,010	0,139
-163,037	-146,847	0,041	-0,003
-162,023	200,416	-0,107	0,119
-161,008	72,360	0,138	0,104
-159,993	-200,000	-0,030	-0,126
-158,979	-84,484	-0,129	-0,029
-157,964	-135,579	-0,299	-0,025
-156,950	-113,821	0,097	0,013
-155,935	-82,815	0,134	0,031
-154,920	142,705	-0,041	-0,039
-153,906	748,407	-0,054	0,105
-152,891	42,750	-0,088	0,058
-151,877	-105,450	0,062	0,010
-150,862	-200,000	0,037	-0,138
-149,847	-200,000	-0,026	-0,106
-148,833	-73,602	0,207	0,054
-147,818	28,259	0,074	0,045
-146,804	-133,568	-0,099	-0,009
-145,789	-200,000	0,010	-0,085
-144,775	-69,690	-0,140	0,038
-143,760	608,162	0,032	-0,058
-142,745	-138,085	-0,191	-0,015
-141,731	-200,000	0,012	-0,100
-140,716	-84,250	-0,069	0,016
-139,702	30,596	0,062	0,038
-138,687	-95,064	0,061	0,012
-137,672	-200,000	-0,014	0,084
-136,658	800,000	0,023	0,047
-135,643	-94,291	-0,146	0,028
-134,629	247,063	-0,066	0,081
-133,614	-128,849	-0,091	0,009
-132,599	136,286	0,111	-0,104
-131,585	-200,000	-0,014	0,080
-130,570	-161,218	-0,113	-0,004
-129,556	173,209	0,092	-0,095
-128,541	-54,595	-0,042	-0,014
-127,526	757,988	-0,004	-0,008
-126,512	-200,000	0,071	0,298
-125,497	-200,000	0,020	-0,133
-124,483	483,166	-0,017	0,029
-123,468	-89,949	-0,028	0,006
-122,453	-27,686	-0,141	-0,059
-121,439	800,000	0,041	-0,100
-120,424	268,571	-0,045	-0,056
-119,410	568,970	0,108	-0,189
-118,395	-200,000	0,009	-0,041
