DTS Sentinel unit serial number:	SN410029Multiplexer serial number:	ORYXHardware model number:	OX2-SRSoftware version number:	ORYX F/W v4,00 Oryx Data Collector v3.7.2.0data status	okinstallation	B5 Nyhavnadifferential loss correction	single-endedforward channel	channel 2reverse channel	N/Adate	2023/12/12time	02:52:14forward acquisition time	300,00reverse acquisition time	0,00gamma	499,1914k internal	0,3156k external	0,3156temperature offset calibration	1,0000default loss term (dB/km)	0,3820temperature slope calibration	1,0000multiplexer offset coefficient	1,0000multiplexer slope coefficient	1,0000fibre end	0,00T internal ref (°C)	15,75T ext. ref 1 (°C)	-0,67T ext. ref 2 (°C)	-0,96length (m)	temperature (°C)	Stokes	anti-Stokes-744,400	179,528	0,039	-0,042
-743,385	-109,135	-0,194	-0,030
-742,371	-200,000	0,019	0,094
-741,356	-41,452	-0,220	0,083
-740,342	-200,000	-0,041	0,173
-739,327	-200,000	-0,330	0,000
-738,312	-154,097	0,097	-0,005
-737,298	-186,304	-0,325	-0,003
-736,283	17,092	0,038	-0,022
-735,269	-90,683	-0,271	-0,057
-734,254	177,875	0,085	-0,092
-733,239	-26,805	-0,485	-0,208
-732,225	328,966	0,037	-0,053
-731,210	-200,000	0,007	0,094
-730,196	399,907	-0,053	-0,083
-729,181	103,256	-0,078	0,067
-728,167	392,362	0,026	-0,041
-727,152	-76,832	-0,054	-0,014
-726,137	-200,000	-0,023	-0,075
-725,123	-200,000	-0,030	-0,163
-724,108	20,476	-0,152	-0,091
-723,094	61,678	-0,118	-0,087
-722,079	-200,000	0,012	0,048
-721,064	70,315	-0,149	0,113
-720,050	54,915	0,120	0,085
-719,035	230,629	0,062	0,075
-718,021	-53,441	0,075	-0,025
-717,006	43,802	-0,081	-0,054
-715,991	87,131	-0,080	-0,065
-714,977	17,941	-0,022	0,013
-713,962	-47,511	-0,104	-0,037
-712,948	90,088	0,017	-0,014
-711,933	-200,000	0,003	-0,022
-710,918	-69,978	0,098	0,027
-709,904	-63,979	-0,084	-0,025
-708,889	800,000	0,040	-0,099
-707,875	53,356	0,096	0,067
-706,860	10,176	-0,074	0,041
-705,845	-200,000	-0,001	0,066
-704,831	-83,510	-0,119	-0,028
-703,816	-73,832	-0,078	0,021
-702,802	-73,167	-0,105	0,028
-701,787	228,657	0,006	0,007
-700,772	-200,000	-0,007	0,086
-699,758	219,100	-0,055	0,064
-698,743	-7,952	-0,082	-0,041
-697,729	70,056	0,081	-0,061
-696,714	149,602	-0,057	-0,057
-695,699	-200,000	-0,038	-0,178
-694,685	-200,000	0,022	0,158
-693,670	800,000	0,042	-0,123
-692,656	80,481	-0,110	0,088
-691,641	800,000	0,032	0,074
-690,627	800,000	-0,030	-0,077
-689,612	-145,220	-0,058	0,004
-688,597	-11,511	0,052	-0,025
-687,583	16,713	-0,150	-0,087
-686,568	-174,001	-0,147	0,003
-685,554	-200,000	-0,037	0,124
-684,539	-102,885	0,118	0,020
-683,524	797,185	0,054	0,109
-682,510	85,905	-0,092	0,074
-681,495	-18,556	-0,111	-0,051
-680,481	149,377	-0,068	-0,068
-679,466	7,153	0,044	-0,024
-678,451	-55,729	0,061	-0,020
-677,437	290,496	0,043	-0,058
-676,422	-138,107	0,082	-0,007
-675,408	800,000	0,052	-0,128
-674,393	72,800	0,028	-0,022
-673,378	122,433	-0,049	-0,045
-672,364	-113,446	-0,023	0,003
-671,349	-23,536	-0,108	-0,047
-670,335	-161,672	0,092	-0,003
-669,320	630,575	-0,021	-0,040
-668,305	800,000	0,016	-0,043
-667,291	83,725	-0,055	-0,044
-666,276	144,005	-0,063	-0,062
-665,262	420,185	0,034	-0,053
-664,247	800,000	0,019	0,046
-663,232	-28,805	-0,053	-0,022
-662,218	-75,111	-0,090	-0,024
-661,203	-119,941	0,036	0,005
-660,189	-200,000	-0,011	-0,052
-659,174	147,965	0,049	-0,048
-658,159	17,359	-0,099	-0,057
-657,145	-111,752	-0,072	-0,011
-656,130	-125,952	-0,123	0,013
-655,116	211,210	-0,035	0,040
-654,101	-200,000	0,009	0,073
-653,086	-200,000	0,065	0,000
-652,072	554,185	0,019	0,033
-651,057	353,528	-0,094	-0,137
-650,043	138,659	-0,088	-0,085
-649,028	-200,000	0,001	-0,016
-648,014	-200,000	0,016	0,108
-646,999	-108,263	-0,058	-0,009
-645,984	192,095	-0,079	-0,087
-644,970	-200,000	-0,017	-0,081
-643,955	-200,000	0,025	-0,099
-642,941	107,623	0,048	-0,042
-641,926	-200,000	-0,002	0,084
-640,911	625,543	0,024	-0,045
-639,897	800,000	-0,017	-0,040
-638,882	-101,283	0,064	-0,011
-637,868	-95,107	-0,128	-0,025
-636,853	141,575	0,079	-0,077
-635,838	70,044	-0,023	-0,018
-634,824	800,000	-0,040	0,086
-633,809	613,456	-0,053	-0,098
-632,795	-127,632	-0,010	0,001
-631,780	706,091	0,033	-0,064
-630,765	-131,948	-0,129	-0,012
-629,751	607,568	0,040	-0,073
-628,736	800,000	-0,052	-0,123
-627,722	-53,985	-0,119	0,040
-626,707	27,555	-0,120	0,074
-625,692	800,000	-0,038	0,108
-624,678	231,662	0,087	0,105
-623,663	-200,000	0,009	0,050
-622,649	-85,554	-0,129	-0,029
-621,634	-200,000	0,002	-0,050
-620,619	-32,216	0,016	0,006
-619,605	-3,701	0,038	0,019
-618,590	-200,000	0,001	-0,012
-617,576	-200,000	0,006	0,062
-616,561	-110,189	0,062	0,009
-615,546	-200,000	0,014	0,098
-614,532	-200,000	-0,002	-0,086
-613,517	731,674	-0,028	-0,055
-612,503	637,078	-0,030	0,057
-611,488	-200,000	-0,001	0,085
-610,474	-60,461	0,134	-0,042
-609,459	-200,000	0,016	-0,061
-608,444	369,326	-0,027	0,040
-607,430	-175,149	-0,004	0,000
-606,415	-127,119	-0,045	-0,005
-605,401	-2,004	0,151	0,077
-604,386	-200,000	-0,004	0,035
-603,371	481,042	0,031	-0,051
-602,357	-200,000	0,063	0,219
-601,342	-90,079	-0,096	-0,020
-600,328	81,337	0,110	-0,087
-599,313	160,919	0,075	-0,077
-598,298	773,725	-0,034	0,068
-597,284	-45,978	-0,142	0,051
-596,269	-178,091	0,038	0,001
-595,255	-200,000	0,001	0,047
-594,240	800,000	-0,060	-0,139
-593,225	48,174	-0,126	-0,086
-592,211	-200,000	0,023	-0,075
-591,196	57,436	-0,045	-0,032
-590,182	-98,148	0,099	0,018
-589,167	706,489	0,031	0,059
-588,152	430,915	0,039	-0,062
-587,138	-200,000	0,040	-0,158
-586,123	800,000	-0,011	-0,030
-585,109	-200,000	0,001	-0,144
-584,094	-153,662	0,061	0,003
-583,079	-123,671	0,171	0,020
-582,065	-200,000	-0,005	0,049
-581,050	-38,961	0,019	-0,007
-580,036	334,977	-0,067	0,095
-579,021	42,770	-0,073	0,049
-578,006	-161,438	-0,081	-0,003
-576,992	-200,000	-0,007	-0,044
-575,977	-14,208	0,095	0,045
-574,963	800,000	0,016	-0,038
-573,948	-200,000	0,007	0,105
-572,934	658,095	-0,028	0,053
-571,919	610,718	-0,037	0,068
-570,904	-71,475	0,023	0,006
-569,890	-22,304	-0,143	0,063
-568,875	-43,495	-0,141	-0,052
-567,861	84,654	0,113	-0,091
-566,846	-200,000	-0,011	0,052
-565,831	-25,883	0,133	-0,057
-564,817	-200,000	-0,002	-0,115
-563,802	63,848	-0,148	-0,109
-562,788	-200,000	0,004	-0,104
-561,773	220,732	-0,085	0,100
-560,758	-156,580	0,240	-0,011
-559,744	800,000	0,044	0,099
-558,729	-67,015	-0,062	0,018
-557,715	115,438	-0,069	0,062
-556,700	333,760	-0,079	0,112
-555,685	344,432	-0,047	0,068
-554,671	-158,940	0,104	-0,004
-553,656	800,000	0,050	0,106
-552,642	424,366	0,029	-0,046
-551,627	-169,667	-0,125	-0,003
-550,612	83,080	0,044	-0,035
-549,598	17,717	-0,179	0,104
-548,583	-200,000	0,001	-0,017
-547,569	-200,000	0,027	-0,124
-546,554	5,393	-0,048	-0,026
-545,539	800,000	0,011	0,030
-544,525	-46,918	-0,019	-0,007
-543,510	-25,410	-0,145	0,062
-542,496	-60,291	-0,140	0,043
-541,481	-51,550	0,122	-0,041
-540,466	68,776	0,087	-0,065
-539,452	-200,000	-0,030	0,214
-538,437	23,654	0,101	0,061
-537,423	-84,967	0,010	-0,002
-536,408	-200,000	0,013	-0,118
-535,393	-200,000	0,000	-0,002
-534,379	185,609	0,044	-0,048
-533,364	114,699	0,074	0,066
-532,350	-114,420	0,126	-0,018
-531,335	-110,541	0,103	-0,015
-530,321	-200,000	-0,011	0,073
-529,306	-200,000	-0,016	-0,102
-528,291	89,622	-0,028	0,023
-527,277	800,000	0,055	-0,136
-526,262	-200,000	-0,005	-0,116
-525,248	-5,071	-0,021	0,010
-524,233	-48,939	0,160	-0,056
-523,218	-200,000	0,025	0,136
-522,204	-200,000	0,004	0,104
-521,189	251,576	-0,045	-0,056
-520,175	-118,329	-0,107	0,014
-519,160	-0,149	0,071	-0,037
-518,145	-200,000	0,022	0,133
-517,131	800,000	0,012	-0,038
-516,116	260,644	0,044	0,055
-515,102	-9,253	-0,051	-0,025
-514,087	339,292	-0,081	0,116
-513,072	128,674	0,112	0,104
-512,058	-200,000	-0,007	-0,036
-511,043	-200,000	0,007	0,076
-510,029	349,714	-0,042	0,061
-509,014	118,170	0,009	0,008
-507,999	219,009	0,071	-0,084
-506,985	202,766	0,024	-0,028
-505,970	-18,325	0,033	0,015
-504,956	390,285	-0,076	-0,116
-503,941	477,234	0,066	-0,109
-502,926	531,769	-0,076	0,132
-501,912	800,000	-0,028	-0,061
-500,897	84,485	-0,069	-0,055
-499,883	-8,759	-0,063	-0,031
-498,868	-200,000	0,011	-0,186
-497,853	-200,000	0,001	-0,099
-496,839	800,000	-0,050	0,137
-495,824	-200,000	-0,002	0,056
-494,810	97,016	-0,086	-0,072
-493,795	166,769	0,144	0,149
-492,781	82,123	0,089	-0,071
-491,766	-31,421	-0,123	-0,050
-490,751	-126,819	0,058	-0,006
-489,737	95,801	0,118	-0,099
-488,722	136,014	0,062	-0,059
-487,708	-90,954	0,162	-0,034
-486,693	175,998	0,010	-0,010
-485,678	3,124	-0,085	0,045
-484,664	-200,000	0,019	0,070
-483,649	224,015	0,034	-0,040
-482,635	-200,000	-0,007	0,039
-481,620	211,793	-0,034	0,040
-480,605	158,760	0,128	0,130
-479,591	-73,807	-0,074	-0,019
-478,576	-162,142	-0,117	-0,004
-477,562	-119,904	-0,038	0,005
-476,547	-200,000	-0,018	-0,135
-475,532	123,598	-0,069	-0,063
-474,518	-200,000	-0,012	0,058
-473,503	-28,034	0,038	0,016
-472,489	-69,445	0,065	0,018
-471,474	-81,888	-0,068	-0,016
-470,459	800,000	0,048	-0,099
-469,445	-200,000	-0,011	-0,078
-468,430	-26,647	0,113	0,048
-467,416	-41,080	-0,066	-0,025
-466,401	-200,000	0,008	0,035
-465,386	-200,000	-0,005	0,096
-464,372	11,431	-0,120	0,067
-463,357	-99,731	0,121	-0,022
-462,343	44,558	-0,139	-0,093
-461,328	-200,000	0,001	0,007
-460,313	-93,182	0,068	-0,014
-459,299	800,000	0,051	0,109
-458,284	113,364	-0,091	0,080
-457,270	800,000	-0,019	-0,041
-456,255	-133,797	0,159	-0,014
-455,241	199,205	-0,082	0,092
-454,226	557,074	0,043	-0,076
-453,211	-200,000	0,010	-0,034
-452,197	492,103	-0,017	-0,029
-451,182	221,474	-0,049	-0,057
-450,168	109,432	0,075	0,065
-449,153	113,980	0,058	-0,051
-448,138	596,950	-0,050	-0,091
-447,124	569,224	0,059	-0,106
-446,109	800,000	0,004	0,009
-445,095	-34,478	0,042	-0,017
-444,080	43,482	-0,071	0,047
-443,065	-90,339	0,048	0,010
-442,051	800,000	-0,083	0,180
-441,036	253,015	-0,046	-0,057
-440,022	-200,000	-0,013	0,073
-439,007	-200,000	0,018	-0,075
-437,992	-39,390	0,067	0,025
-436,978	-155,036	0,028	-0,001
-435,963	-54,128	0,124	-0,041
-434,949	236,110	0,072	0,087
-433,934	800,000	-0,058	-0,157
-432,919	-111,102	-0,103	-0,015
-431,905	145,985	0,081	-0,079
-430,890	39,438	-0,163	-0,106
-429,876	-179,440	0,152	0,002
-428,861	-200,000	0,012	0,049
-427,846	-200,000	0,004	0,131
-426,832	10,506	0,104	0,057
-425,817	-53,045	-0,145	-0,048
-424,803	224,161	0,052	-0,062
-423,788	267,711	0,066	-0,084
-422,773	-113,916	-0,070	0,010
-421,759	-200,000	0,028	0,170
-420,744	-200,000	0,005	0,017
-419,730	26,071	-0,067	-0,040
-418,715	-200,000	0,010	-0,207
-417,701	-126,254	-0,024	0,003
-416,686	-149,767	-0,191	-0,011
-415,671	321,274	0,107	-0,149
-414,657	-39,370	-0,112	0,042
-413,642	53,115	-0,077	0,054
-412,628	303,863	0,035	0,047
-411,613	-21,556	-0,126	0,056
-410,598	-14,691	0,059	0,028
-409,584	619,063	0,027	-0,050
-408,569	-200,000	0,015	0,120
-407,555	140,590	-0,001	-0,001
-406,540	-18,166	0,142	0,064
-405,525	-200,000	0,000	-0,063
-404,511	167,172	0,052	-0,054
-403,496	800,000	-0,004	-0,014
-402,482	-200,000	0,018	-0,065
-401,467	-100,567	0,030	-0,005
-400,452	41,233	0,084	-0,055
-399,438	-200,000	-0,014	0,110
-398,423	-1,725	0,065	-0,033
-397,409	-115,558	-0,070	-0,010
-396,394	-200,000	-0,020	-0,096
-395,379	-135,389	0,128	-0,011
-394,365	304,564	-0,024	0,033
-393,350	-58,976	0,056	0,017
-392,336	-200,000	-0,014	0,153
-391,321	655,178	0,107	0,201
-390,306	-200,000	-0,002	0,083
-389,292	268,660	0,056	-0,072
-388,277	-200,000	0,016	0,104
-387,263	101,364	-0,094	0,080
-386,248	213,361	0,120	0,138
-385,233	370,503	0,088	0,130
-384,219	146,425	0,038	0,037
-383,204	38,542	-0,074	0,048
-382,190	-153,410	0,157	-0,008
-381,175	-20,691	0,121	-0,054
-380,160	-200,000	0,006	-0,072
-379,146	153,003	-0,053	-0,053
-378,131	-200,000	0,008	0,031
-377,117	-140,396	-0,016	0,001
-376,102	315,803	-0,066	-0,091
-375,088	800,000	-0,064	-0,165
-374,073	-111,765	-0,071	0,010
-373,058	109,212	-0,039	0,034
-372,044	800,000	0,048	0,115
-371,029	64,675	0,071	0,052
-370,015	5,040	0,058	-0,031
-369,000	6,087	0,011	0,006
-367,985	-200,000	0,005	0,027
-366,971	800,000	-0,044	-0,103
-365,956	-61,948	0,074	0,022
-364,942	-31,813	0,065	-0,027
-363,927	20,202	-0,036	-0,021
-362,912	-30,856	-0,093	-0,038
-361,898	108,085	-0,072	-0,062
-360,883	109,581	0,058	0,051
-359,869	-200,000	-0,001	0,061
-358,854	800,000	-0,046	-0,106
-357,839	800,000	-0,031	-0,063
-356,825	332,543	-0,076	0,106
-355,810	152,927	-0,054	-0,054
-354,796	43,339	0,044	0,029
-353,781	-73,685	-0,168	0,044
-352,766	30,907	-0,173	0,108
-351,752	800,000	-0,026	-0,065
-350,737	325,203	-0,157	-0,218
-349,723	358,553	0,094	0,137
-348,708	-200,000	-0,016	-0,092
-347,693	-33,439	-0,064	-0,026
-346,679	307,757	0,111	-0,151
-345,664	-159,206	-0,222	-0,009
-344,650	-200,000	0,017	0,064
-343,635	23,273	0,047	-0,028
-342,620	213,048	-0,067	0,077
-341,606	800,000	-0,032	0,088
-340,591	-200,000	-0,039	0,140
-339,577	-36,178	0,110	0,043
-338,562	800,000	0,028	-0,082
-337,548	-71,190	0,148	0,040
-336,533	-200,000	-0,001	-0,009
-335,518	-48,689	0,162	0,056
-334,504	-200,000	-0,006	0,122
-333,489	-22,898	0,025	0,011
-332,475	-88,898	0,090	0,019
-331,460	195,757	-0,108	-0,119
-330,445	185,933	0,040	-0,043
-329,431	800,000	-0,019	0,049
-328,416	186,040	-0,044	0,047
-327,402	16,416	0,064	0,037
-326,387	25,910	0,020	0,012
-325,372	39,468	0,116	-0,076
-324,358	800,000	-0,021	0,052
-323,343	268,339	0,041	0,052
-322,329	800,000	-0,044	-0,123
-321,314	-200,000	-0,006	0,112
-320,299	177,484	-0,033	0,035
-319,285	-15,017	0,041	-0,019
-318,270	-200,000	-0,004	0,063
-317,256	-9,506	-0,123	-0,060
-316,241	-110,603	0,178	-0,026
-315,226	6,742	-0,146	0,078
-314,212	56,222	-0,065	-0,045
-313,197	340,500	0,046	0,065
-312,183	355,784	-0,057	-0,083
-311,168	-58,554	-0,093	-0,029
-310,153	388,033	-0,063	-0,094
-309,139	12,296	-0,038	0,021
-308,124	280,327	0,084	0,109
-307,110	152,483	-0,036	-0,035
-306,095	-200,000	0,023	0,141
-305,080	40,333	0,127	-0,083
-304,066	226,719	-0,118	0,139
-303,051	800,000	-0,062	-0,126
-302,037	137,226	0,022	0,021
-301,022	-200,000	-0,008	0,130
-300,008	-129,386	-0,112	-0,011
-298,993	-200,000	-0,006	0,047
-297,978	44,283	-0,039	0,026
-296,964	366,412	-0,093	-0,137
-295,949	800,000	0,053	0,115
-294,935	125,185	-0,023	-0,021
-293,920	800,000	0,016	0,048
-292,905	-140,643	-0,091	-0,007
-291,891	-68,568	0,032	-0,009
-290,876	149,852	-0,061	0,060
-289,862	-200,000	-0,014	0,048
-288,847	459,512	-0,054	-0,088
-287,832	-200,000	-0,005	-0,123
-286,818	-52,819	0,040	0,013
-285,803	-100,437	0,157	-0,028
-284,789	-200,000	-0,008	-0,038
-283,774	800,000	0,034	-0,086
-282,759	-200,000	0,005	-0,083
-281,745	-200,000	0,009	-0,056
-280,730	257,507	-0,093	-0,116
-279,716	334,603	-0,046	0,065
-278,701	-200,000	0,046	0,152
-277,686	-34,263	0,055	0,022
-276,672	-126,024	0,063	-0,007
-275,657	-96,445	-0,074	-0,014
-274,643	180,100	-0,066	0,070
-273,628	-20,952	-0,157	0,069
-272,613	800,000	-0,034	-0,071
-271,599	-200,000	0,016	0,094
-270,584	628,259	0,038	0,070
-269,570	-113,148	0,125	-0,018
-268,555	800,000	-0,068	0,198
-267,540	-90,426	0,146	0,030
-266,526	97,235	-0,037	-0,031
-265,511	460,525	-0,020	-0,033
-264,497	139,983	0,076	0,073
-263,482	238,974	-0,032	0,038
-262,467	-200,000	0,014	0,173
-261,453	-160,804	-0,083	-0,003
-260,438	400,477	-0,100	-0,152
-259,424	-200,000	-0,043	-0,166
-258,409	-134,407	-0,055	-0,005
-257,395	-190,596	-0,071	-0,001
-256,380	800,000	-0,007	-0,018
-255,365	71,955	0,158	-0,119
-254,351	476,390	-0,004	0,006
-253,336	-200,000	0,012	0,052
-252,322	129,603	-0,022	-0,020
-251,307	303,953	-0,035	0,047
-250,292	84,181	0,077	0,061
-249,278	-12,148	0,016	-0,008
-248,263	30,318	0,119	-0,074
-247,249	147,022	-0,071	-0,069
-246,234	800,000	-0,024	0,064
-245,219	-200,000	-0,015	-0,078
-244,205	156,754	-0,135	-0,135
-243,190	-79,991	-0,078	0,019
-242,176	-44,575	0,154	0,055
-241,161	-5,745	-0,056	-0,027
-240,146	-175,901	0,027	0,001
-239,132	-200,000	0,006	-0,187
-238,117	-200,000	0,029	0,121
-237,103	-200,000	0,010	0,078
-236,088	-200,000	-0,039	0,166
-235,073	-200,000	0,007	-0,036
-234,059	-31,962	0,111	0,045
-233,044	507,814	-0,004	-0,006
-232,030	684,806	-0,006	-0,011
-231,015	-200,000	-0,026	-0,130
-230,000	87,369	-0,054	-0,043
-228,986	-200,000	0,006	-0,050
-227,971	89,612	0,053	-0,042
-226,957	395,090	0,055	-0,083
-225,942	-200,000	-0,006	0,103
-224,927	800,000	-0,048	-0,138
-223,913	-124,896	-0,064	-0,007
-222,898	-200,000	0,024	-0,104
-221,884	214,814	-0,091	0,105
-220,869	678,561	-0,046	0,087
-219,855	800,000	0,060	0,134
-218,840	83,322	0,091	0,072
-217,825	12,217	0,063	0,035
-216,811	772,567	-0,030	0,060
-215,796	28,788	-0,066	-0,040
-214,782	800,000	-0,042	0,104
-213,767	238,719	0,041	-0,049
-212,752	221,824	-0,033	0,038
-211,738	568,925	-0,086	0,151
-210,723	-28,529	0,055	0,023
-209,709	-200,000	-0,017	0,059
-208,694	-34,835	-0,084	0,033
-207,679	160,259	-0,108	-0,109
-206,665	78,050	0,106	0,081
-205,650	-28,266	-0,129	-0,053
-204,636	-7,756	0,053	-0,026
-203,621	561,379	0,018	0,032
-202,606	-141,090	-0,123	-0,009
-201,592	48,976	0,031	0,021
-200,577	800,000	-0,050	-0,128
-199,563	71,569	0,029	-0,022
-198,548	274,491	0,105	-0,134
-197,533	188,065	0,072	0,077
-196,519	-141,317	-0,108	0,008
-195,504	800,000	-0,005	0,014
-194,490	-200,000	0,009	-0,079
-193,475	248,327	-0,038	0,046
-192,460	-200,000	0,013	-0,115
-191,446	198,879	0,122	-0,135
-190,431	173,990	0,028	0,030
-189,417	143,542	-0,065	-0,063
-188,402	199,153	0,078	-0,086
-187,387	-79,908	0,081	0,019
-186,373	-122,632	-0,140	-0,016
-185,358	-81,915	0,074	-0,017
-184,344	-200,000	-0,012	0,057
-183,329	61,336	0,004	0,003
-182,315	259,917	0,049	-0,061
-181,300	800,000	0,027	0,076
-180,285	-2,796	-0,071	-0,036
-179,271	800,000	0,012	-0,030
-178,256	106,368	-0,018	-0,016
-177,242	800,000	-0,033	0,104
-176,227	165,378	0,050	0,051
-175,212	-10,846	0,072	0,034
-174,198	-137,287	-0,265	-0,021
-173,183	-143,577	0,139	0,009
-172,169	312,609	-0,053	-0,071
-171,154	-200,000	-0,026	-0,087
-170,139	-47,244	0,229	0,080
-169,125	-89,415	-0,031	-0,007
-168,110	94,701	0,073	0,060
-167,096	800,000	0,036	-0,113
-166,081	-166,015	0,136	-0,004
-165,066	800,000	-0,035	-0,100
-164,052	-200,000	0,034	-0,112
-163,037	6,278	-0,115	-0,061
-162,023	-51,155	0,184	0,062
-161,008	795,203	-0,029	-0,058
-159,993	76,104	0,029	0,022
-158,979	800,000	-0,017	-0,053
-157,964	-200,000	0,009	0,071
-156,950	227,148	-0,060	-0,070
-155,935	95,020	-0,084	0,069
-154,920	-138,035	0,058	-0,005
-153,906	-35,799	0,053	0,020
-152,891	-200,000	-0,012	0,209
-151,877	-91,133	0,194	0,040
-150,862	107,527	0,115	-0,099
-149,847	-200,000	0,033	-0,196
-148,833	-131,034	0,037	0,004
-147,818	268,348	-0,108	0,136
-146,804	-200,000	-0,022	0,109
-145,789	-130,675	0,024	0,002
-144,775	-139,217	-0,206	-0,016
-143,760	-35,517	-0,058	-0,023
-142,745	-5,178	-0,164	0,081
-141,731	-200,000	-0,033	0,124
-140,716	-13,337	-0,108	-0,050
-139,702	92,655	0,029	-0,023
-138,687	-51,732	0,021	-0,007
-137,672	86,145	0,095	-0,075
-136,658	4,261	-0,079	0,042
-135,643	344,836	-0,059	-0,084
-134,629	-82,322	-0,099	0,023
-133,614	676,772	-0,049	-0,093
-132,599	229,512	0,072	0,084
-131,585	800,000	0,056	0,114
-130,570	800,000	0,042	-0,092
-129,556	11,542	0,087	-0,048
-128,541	-127,406	-0,074	0,008
-127,526	800,000	-0,044	-0,090
-126,512	24,130	0,127	0,075
-125,497	-200,000	0,005	0,116
-124,483	710,522	-0,024	0,045
-123,468	-74,789	-0,055	-0,014
-122,453	193,812	-0,137	-0,150
-121,439	225,951	-0,099	-0,116
-120,424	-72,391	-0,108	-0,029
