DTS Sentinel unit serial number:	SN410029Multiplexer serial number:	ORYXHardware model number:	OX2-SRSoftware version number:	ORYX F/W v4,00 Oryx Data Collector v3.7.2.0data status	okinstallation	B5 Nyhavnadifferential loss correction	single-endedforward channel	channel 2reverse channel	N/Adate	2023/12/12time	14:37:13forward acquisition time	300,00reverse acquisition time	0,00gamma	499,1914k internal	0,3157k external	0,3157temperature offset calibration	1,0000default loss term (dB/km)	0,3820temperature slope calibration	1,0000multiplexer offset coefficient	1,0000multiplexer slope coefficient	1,0000fibre end	0,00T internal ref (°C)	15,87T ext. ref 1 (°C)	-0,34T ext. ref 2 (°C)	-0,58length (m)	temperature (°C)	Stokes	anti-Stokes-744,400	-150,076	0,108	0,006
-743,385	62,745	-0,206	0,152
-742,371	-52,438	0,206	0,070
-741,356	-81,606	-0,172	0,041
-740,342	-200,000	-0,026	-0,100
-739,327	-67,275	-0,285	0,082
-738,312	395,815	-0,042	0,064
-737,298	-164,508	-0,390	0,013
-736,283	-166,233	0,176	0,005
-735,269	-146,029	-0,405	-0,026
-734,254	123,613	0,102	-0,095
-733,239	-68,951	-0,641	-0,181
-732,225	-13,499	0,145	-0,069
-731,210	-117,085	-0,099	0,013
-730,196	-200,000	-0,005	-0,138
-729,181	-131,180	-0,062	0,006
-728,167	-176,272	-0,151	-0,003
-727,152	132,430	-0,133	-0,126
-726,137	247,732	-0,072	-0,090
-725,123	70,207	-0,132	-0,101
-724,108	-130,322	0,127	-0,013
-723,094	105,381	-0,071	-0,061
-722,079	-19,463	-0,055	-0,025
-721,064	-189,133	-0,092	-0,001
-720,050	266,823	0,052	-0,067
-719,035	347,681	-0,034	-0,050
-718,021	287,202	-0,100	-0,133
-717,006	556,781	-0,052	-0,093
-715,991	686,798	0,055	-0,106
-714,977	800,000	0,056	-0,172
-713,962	800,000	0,062	-0,186
-712,948	800,000	0,039	-0,117
-711,933	-200,000	0,007	-0,044
-710,918	-28,734	-0,043	-0,018
-709,904	800,000	-0,030	-0,077
-708,889	800,000	0,040	-0,100
-707,875	652,779	-0,027	0,051
-706,860	800,000	-0,010	-0,027
-705,845	571,804	-0,049	0,087
-704,831	243,117	0,058	0,071
-703,816	329,903	0,061	-0,087
-702,802	94,893	0,029	-0,024
-701,787	-51,855	-0,095	0,032
-700,772	-103,653	0,148	0,025
-699,758	5,940	-0,111	-0,060
-698,743	-200,000	-0,009	-0,126
-697,729	800,000	-0,016	0,048
-696,714	-65,850	-0,113	-0,033
-695,699	661,644	-0,021	0,040
-694,685	113,458	0,083	-0,074
-693,670	-81,502	0,099	0,024
-692,656	-200,000	0,033	-0,111
-691,641	-5,719	-0,024	-0,012
-690,627	487,137	0,064	0,108
-689,612	46,402	0,074	-0,051
-688,597	-200,000	-0,011	0,061
-687,583	-200,000	-0,003	-0,127
-686,568	-40,911	-0,055	-0,021
-685,554	-66,648	-0,033	0,009
-684,539	800,000	0,027	-0,067
-683,524	800,000	0,035	-0,078
-682,510	-200,000	-0,034	-0,132
-681,495	-200,000	0,009	0,113
-680,481	-200,000	0,005	-0,093
-679,466	-52,966	-0,130	-0,044
-678,451	317,065	0,026	0,036
-677,437	-200,000	0,015	-0,057
-676,422	-200,000	-0,009	-0,201
-675,408	83,324	-0,100	-0,080
-674,393	800,000	-0,031	-0,078
-673,378	32,025	-0,068	-0,043
-672,364	-100,617	0,113	-0,020
-671,349	27,625	-0,038	-0,024
-670,335	-13,986	0,103	0,049
-669,320	182,245	0,092	-0,099
-668,305	3,296	-0,110	-0,059
-667,291	-31,868	0,068	-0,028
-666,276	151,318	0,034	-0,034
-665,262	800,000	0,027	0,070
-664,247	-200,000	0,001	0,009
-663,232	-70,496	0,108	-0,030
-662,218	439,355	0,018	0,029
-661,203	11,036	0,014	0,008
-660,189	34,829	0,065	-0,041
-659,174	-200,000	0,005	0,035
-658,159	13,964	0,034	-0,019
-657,145	24,433	-0,133	-0,081
-656,130	278,773	-0,081	-0,107
-655,116	557,270	0,028	-0,049
-654,101	-160,160	-0,089	-0,003
-653,086	800,000	0,037	-0,078
-652,072	800,000	-0,062	-0,142
-651,057	250,113	-0,150	-0,187
-650,043	-151,804	-0,091	0,005
-649,028	800,000	0,044	0,127
-648,014	335,037	-0,031	0,044
-646,999	-181,124	-0,078	-0,001
-645,984	94,524	-0,029	-0,024
-644,970	-200,000	-0,015	-0,122
-643,955	625,500	0,076	-0,141
-642,941	-200,000	0,012	-0,213
-641,926	728,937	-0,017	0,034
-640,911	214,941	-0,124	-0,145
-639,897	-145,179	0,017	-0,001
-638,882	155,202	-0,075	-0,076
-637,868	-103,793	-0,089	0,015
-636,853	100,687	-0,064	0,054
-635,838	-119,741	0,054	0,007
-634,824	-200,000	-0,004	0,051
-633,809	-200,000	0,010	0,068
-632,795	-104,090	0,090	-0,015
-631,780	800,000	-0,038	0,082
-630,765	-70,949	0,112	0,031
-629,751	24,901	-0,023	-0,014
-628,736	-200,000	-0,001	0,060
-627,722	-40,299	-0,057	-0,022
-626,707	-46,434	0,131	0,047
-625,692	-200,000	-0,034	0,144
-624,678	-178,479	-0,128	0,002
-623,663	-200,000	-0,001	-0,033
-622,649	800,000	0,022	-0,051
-621,634	-137,526	-0,102	-0,008
-620,619	69,430	-0,061	-0,046
-619,605	-146,023	-0,071	0,005
-618,590	800,000	0,046	-0,136
-617,576	167,009	-0,085	0,089
-616,561	64,972	-0,078	-0,058
-615,546	740,081	0,010	0,020
-614,532	-200,000	-0,001	0,023
-613,517	-200,000	0,001	-0,083
-612,503	-200,000	-0,010	-0,105
-611,488	425,033	-0,046	0,074
-610,474	-92,033	-0,010	0,002
-609,459	74,916	0,025	0,019
-608,444	-200,000	0,005	0,100
-607,430	235,435	-0,098	-0,119
-606,415	53,301	-0,070	0,049
-605,401	100,322	0,027	0,023
-604,386	800,000	-0,016	0,045
-603,371	280,762	0,052	-0,068
-602,357	231,839	0,057	-0,069
-601,342	87,107	-0,038	0,031
-600,328	430,864	0,063	0,100
-599,313	800,000	-0,054	-0,127
-598,298	-57,488	-0,162	-0,052
-597,284	800,000	-0,037	0,096
-596,269	-19,198	0,124	0,056
-595,255	-200,000	-0,014	0,094
-594,240	-89,147	-0,184	0,039
-593,225	-42,744	-0,135	-0,050
-592,211	286,746	-0,025	-0,033
-591,196	-200,000	0,005	0,145
-590,182	-200,000	0,034	0,167
-589,167	-32,889	-0,095	0,039
-588,152	217,495	-0,011	-0,013
-587,138	-142,961	-0,132	-0,009
-586,123	-68,300	0,075	-0,021
-585,109	-200,000	0,017	-0,099
-584,094	15,674	-0,112	-0,065
-583,079	-16,047	0,067	-0,031
-582,065	-200,000	0,009	0,033
-581,050	-36,462	0,156	-0,061
-580,036	-3,540	-0,042	-0,021
-579,021	-12,719	-0,129	-0,061
-578,006	112,846	-0,100	-0,089
-576,992	367,075	-0,032	-0,048
-575,977	150,873	-0,073	-0,073
-574,963	-200,000	0,018	-0,118
-573,948	662,536	-0,009	-0,018
-572,934	131,636	-0,033	0,031
-571,919	-3,954	-0,044	-0,022
-570,904	-200,000	0,010	0,038
-569,890	-200,000	0,002	-0,080
-568,875	-42,307	-0,124	-0,046
-567,861	-81,826	-0,075	-0,018
-566,846	322,846	-0,032	-0,045
-565,831	471,327	0,045	0,075
-564,817	-66,354	-0,042	0,012
-563,802	422,292	-0,064	-0,100
-562,788	-138,883	-0,044	-0,003
-561,773	172,506	-0,086	-0,091
-560,758	2,926	0,025	-0,013
-559,744	-49,108	0,138	0,048
-558,729	-17,565	0,146	0,067
-557,715	-200,000	-0,002	-0,079
-556,700	-82,485	-0,059	0,014
-555,685	171,572	-0,054	-0,056
-554,671	-200,000	0,006	-0,050
-553,656	41,649	0,060	0,040
-552,642	800,000	0,006	0,012
-551,627	-200,000	0,006	-0,079
-550,612	-62,935	-0,099	-0,030
-549,598	-90,738	0,098	-0,020
-548,583	-163,029	-0,114	0,004
-547,569	112,126	-0,064	0,057
-546,554	-200,000	-0,001	0,050
-545,539	800,000	0,014	-0,030
-544,525	237,334	0,053	-0,065
-543,510	800,000	0,005	-0,012
-542,496	-14,727	0,029	0,014
-541,481	532,923	-0,026	0,045
-540,466	26,276	-0,053	0,032
-539,452	-50,231	-0,075	-0,026
-538,437	481,984	-0,032	-0,053
-537,423	-200,000	0,000	0,023
-536,408	156,246	-0,045	-0,045
-535,393	800,000	-0,011	-0,032
-534,379	-80,655	0,063	0,015
-533,364	-200,000	-0,003	-0,018
-532,350	20,973	-0,067	0,039
-531,335	181,963	-0,147	-0,159
-530,321	124,791	0,107	-0,099
-529,306	800,000	0,020	0,065
-528,291	-105,616	-0,093	-0,015
-527,277	30,016	-0,100	0,062
-526,262	1,476	-0,092	-0,048
-525,248	20,908	-0,092	0,054
-524,233	-67,961	0,105	-0,030
-523,218	-200,000	-0,007	0,131
-522,204	-20,596	0,035	0,016
-521,189	-106,960	-0,106	0,017
-520,175	-200,000	0,001	-0,019
-519,160	51,115	-0,143	-0,099
-518,145	-200,000	-0,024	0,087
-517,131	-200,000	0,012	0,070
-516,116	562,130	-0,053	0,094
-515,102	208,969	-0,090	0,104
-514,087	-200,000	-0,021	0,216
-513,072	99,849	-0,086	-0,073
-512,058	164,823	0,100	0,103
-511,043	800,000	0,072	-0,149
-510,029	-142,641	-0,084	0,006
-509,014	-177,645	-0,114	-0,002
-507,999	-200,000	0,040	0,196
-506,985	-200,000	-0,001	-0,026
-505,970	-200,000	-0,001	-0,072
-504,956	-200,000	0,032	0,149
-503,941	-134,928	-0,086	-0,007
-502,926	103,506	0,029	0,024
-501,912	141,624	-0,054	-0,052
-500,897	-10,282	0,097	-0,047
-499,883	-200,000	0,016	-0,114
-498,868	53,395	0,020	-0,014
-497,853	62,360	0,047	0,034
-496,839	32,336	-0,039	0,024
-495,824	61,251	0,013	-0,010
-494,810	-200,000	-0,008	0,099
-493,795	-40,992	0,085	0,032
-492,781	-109,520	0,014	-0,002
-491,766	1,847	-0,057	0,030
-490,751	-115,050	0,094	0,013
-489,737	-130,210	-0,116	-0,011
-488,722	-200,000	-0,007	-0,031
-487,708	69,793	0,116	0,087
-486,693	-200,000	-0,033	0,118
-485,678	-200,000	0,003	-0,048
-484,664	-200,000	-0,040	-0,184
-483,649	-200,000	0,018	-0,128
-482,635	800,000	0,012	0,026
-481,620	-200,000	-0,012	0,151
-480,605	-200,000	-0,019	-0,074
-479,591	800,000	0,028	0,075
-478,576	-27,756	-0,061	-0,026
-477,562	-56,162	0,054	0,017
-476,547	191,027	-0,029	0,032
-475,532	428,059	0,046	-0,073
-474,518	-200,000	0,022	0,156
-473,503	92,743	-0,019	0,016
-472,489	354,682	-0,039	0,056
-471,474	75,809	-0,098	-0,075
-470,459	-108,453	0,079	-0,012
-469,445	800,000	-0,051	0,127
-468,430	-105,032	-0,048	-0,008
-467,416	-200,000	0,013	0,091
-466,401	-25,597	-0,055	0,024
-465,386	-69,789	0,095	-0,026
-464,372	48,961	0,114	-0,078
-463,357	-177,410	-0,070	-0,001
-462,343	-200,000	0,032	-0,142
-461,328	-158,345	0,172	-0,007
-460,313	800,000	-0,053	-0,144
-459,299	72,769	0,012	-0,009
-458,284	-55,165	-0,151	-0,049
-457,270	-59,404	0,086	0,027
-456,255	-65,936	-0,100	-0,029
-455,241	800,000	0,037	-0,079
-454,226	64,227	-0,029	0,021
-453,211	-110,226	0,050	-0,007
-452,197	-162,219	-0,111	0,004
-451,182	167,139	0,052	-0,054
-450,168	-6,582	-0,128	0,063
-449,153	255,897	0,007	0,009
-448,138	-51,224	-0,097	-0,033
-447,124	263,798	-0,048	0,061
-446,109	-99,400	-0,079	0,014
-445,095	220,331	0,081	0,095
-444,080	-120,373	0,098	0,012
-443,065	-200,000	0,033	0,000
-442,051	-200,000	0,030	-0,103
-441,036	57,805	0,069	-0,049
-440,022	138,216	0,067	-0,064
-439,007	800,000	0,034	0,070
-437,992	46,404	-0,139	0,094
-436,978	-102,428	0,163	-0,028
-435,963	96,038	-0,079	-0,065
-434,949	85,697	-0,044	0,035
-433,934	-200,000	-0,004	-0,030
-432,919	-200,000	0,012	-0,104
-431,905	-98,340	-0,104	-0,019
-430,890	278,376	0,052	-0,067
-429,876	644,767	-0,017	-0,032
-428,861	375,177	0,030	0,045
-427,846	646,803	-0,009	-0,017
-426,832	87,974	0,066	-0,054
-425,817	-200,000	-0,024	-0,086
-424,803	6,919	0,088	-0,048
-423,788	-200,000	0,035	0,111
-422,773	-52,502	0,027	-0,009
-421,759	4,829	-0,121	0,065
-420,744	800,000	0,024	0,067
-419,730	252,862	-0,043	-0,053
-418,715	800,000	-0,019	-0,048
-417,701	212,216	-0,025	0,029
-416,686	800,000	0,003	-0,010
-415,671	-200,000	0,009	0,051
-414,657	-97,480	-0,038	-0,007
-413,642	-165,068	0,183	0,006
-412,628	-200,000	0,006	-0,082
-411,613	238,892	0,018	-0,022
-410,598	800,000	0,036	-0,115
-409,584	364,817	-0,036	0,053
-408,569	353,396	0,089	0,128
-407,555	295,462	0,033	0,044
-406,540	800,000	0,058	0,154
-405,525	668,211	0,018	-0,035
-404,511	129,358	0,038	-0,035
-403,496	-64,735	-0,072	-0,021
-402,482	-182,184	-0,095	0,001
-401,467	-200,000	0,010	0,044
-400,452	26,120	-0,050	-0,030
-399,438	63,964	0,058	0,043
-398,423	684,753	0,058	-0,110
-397,409	369,869	-0,056	-0,083
-396,394	-11,021	-0,079	-0,038
-395,379	-172,572	-0,079	-0,002
-394,365	245,185	0,079	0,097
-393,350	-200,000	-0,006	0,084
-392,336	184,266	-0,043	0,047
-391,321	800,000	0,012	-0,039
-390,306	800,000	-0,035	-0,080
-389,292	-200,000	-0,026	-0,135
-388,277	-182,121	-0,108	-0,001
-387,263	121,644	0,044	0,040
-386,248	273,637	0,102	0,132
-385,233	72,892	0,078	0,059
-384,219	-44,344	0,107	0,039
-383,204	-200,000	0,013	0,135
-382,190	-39,193	-0,107	-0,041
-381,175	-186,987	0,151	0,001
-380,160	64,487	0,087	-0,064
-379,146	-96,889	0,108	-0,020
-378,131	-48,607	0,015	-0,005
-377,117	-200,000	0,039	0,141
-376,102	10,311	0,051	0,028
-375,088	-47,040	-0,065	0,023
-374,073	96,315	-0,109	0,091
-373,058	-200,000	0,002	0,162
-372,044	243,871	-0,090	0,110
-371,029	-64,026	0,080	-0,024
-370,015	594,372	0,076	0,137
-369,000	-7,817	0,054	0,027
-367,985	242,247	-0,101	0,123
-366,971	141,689	-0,168	-0,162
-365,956	222,963	0,019	0,022
-364,942	-11,277	0,062	-0,030
-363,927	-200,000	-0,013	0,109
-362,912	444,383	0,047	0,075
-361,898	13,860	-0,048	0,027
-360,883	-100,454	-0,095	-0,017
-359,869	-200,000	-0,019	0,067
-358,854	-19,475	0,104	0,046
-357,839	-120,135	0,132	0,016
-356,825	78,592	-0,049	-0,038
-355,810	-64,849	0,142	0,041
-354,796	-200,000	-0,014	0,169
-353,781	28,928	0,033	0,020
-352,766	185,208	0,028	0,030
-351,752	-200,000	-0,031	-0,132
-350,737	-200,000	-0,003	0,011
-349,723	533,888	-0,045	0,077
-348,708	164,305	0,072	0,074
-347,693	379,728	0,078	-0,117
-346,679	464,944	0,022	-0,035
-345,664	-200,000	-0,009	-0,048
-344,650	-9,897	0,084	0,040
-343,635	-143,796	-0,063	-0,004
-342,620	-18,788	0,184	0,083
-341,606	-200,000	-0,050	-0,213
-340,591	253,936	-0,085	0,105
-339,577	10,487	-0,048	-0,026
-338,562	800,000	-0,047	-0,095
-337,548	-200,000	0,009	0,125
-336,533	133,351	0,084	-0,079
-335,518	800,000	-0,048	-0,128
-334,504	-90,452	0,165	0,034
-333,489	-110,465	-0,063	-0,009
-332,475	-8,508	0,091	-0,044
-331,460	-102,396	0,181	-0,031
-330,445	-200,000	0,015	0,183
-329,431	-18,435	0,096	-0,043
-328,416	-59,557	0,054	0,017
-327,402	-200,000	-0,030	0,138
-326,387	-134,620	0,190	0,017
-325,372	665,115	-0,009	-0,017
-324,358	-200,000	0,030	-0,170
-323,343	-200,000	0,005	0,017
-322,329	-200,000	-0,047	-0,173
-321,314	-200,000	0,004	-0,052
-320,299	-101,166	-0,044	0,008
-319,285	-200,000	-0,025	-0,136
-318,270	125,372	0,037	-0,034
-317,256	-136,454	-0,127	0,011
-316,241	-200,000	0,028	0,121
-315,226	110,116	0,090	0,078
-314,212	-0,938	0,152	0,078
-313,197	-79,079	-0,080	0,020
-312,183	29,306	0,148	0,091
-311,168	95,746	-0,069	-0,057
-310,153	-113,041	0,142	-0,020
-309,139	-125,352	0,061	0,007
-308,124	-77,119	0,098	-0,025
-307,110	321,452	0,110	0,153
-306,095	47,354	0,076	0,051
-305,080	-200,000	0,020	-0,110
-304,066	41,562	0,096	-0,063
-303,051	89,713	0,140	-0,113
-302,037	599,502	-0,103	-0,186
-301,022	-3,100	0,132	0,066
-300,008	572,267	-0,009	0,016
-298,993	-101,853	-0,122	0,021
-297,978	515,647	-0,058	0,099
-296,964	-37,665	-0,124	-0,048
-295,949	26,580	0,015	-0,009
-294,935	-147,499	-0,032	0,002
-293,920	-37,147	0,081	0,031
-292,905	34,907	0,080	-0,050
-291,891	800,000	-0,012	0,029
-290,876	-200,000	0,022	0,133
-289,862	14,071	0,034	0,019
-288,847	-156,818	-0,034	0,001
-287,832	-200,000	-0,006	-0,040
-286,818	10,994	0,039	-0,022
-285,803	-5,222	0,105	0,052
-284,789	0,408	0,057	0,029
-283,774	-46,947	0,131	-0,046
-282,759	147,680	-0,048	0,047
-281,745	-200,000	-0,011	0,069
-280,730	95,627	0,074	-0,061
-279,716	-59,203	-0,043	-0,013
-278,701	-87,612	-0,065	-0,014
-277,686	62,707	0,052	-0,038
-276,672	410,540	0,037	-0,058
-275,657	-40,243	-0,090	0,034
-274,643	-200,000	-0,034	-0,132
-273,628	75,877	-0,107	0,082
-272,613	-151,201	-0,036	0,002
-271,599	-200,000	-0,001	0,013
-270,584	-78,162	0,108	-0,027
-269,570	-200,000	0,004	0,064
-268,555	800,000	-0,016	-0,040
-267,540	-200,000	0,015	-0,081
-266,526	-200,000	-0,000	-0,084
-265,511	-200,000	-0,006	0,020
-264,497	235,473	0,076	0,091
-263,482	359,264	0,056	-0,081
-262,467	681,794	-0,060	0,114
-261,453	-200,000	0,014	-0,073
-260,438	32,516	-0,135	0,084
-259,424	120,640	-0,131	-0,118
-258,409	57,165	-0,061	-0,043
-257,395	140,670	0,024	0,023
-256,380	129,703	-0,045	0,042
-255,365	-128,023	0,158	0,016
-254,351	800,000	0,073	0,176
-253,336	-93,894	-0,018	0,004
-252,322	300,544	-0,024	-0,032
-251,307	18,255	-0,079	0,046
-250,292	800,000	-0,025	0,062
-249,278	-200,000	0,007	0,132
-248,263	800,000	-0,047	-0,095
-247,249	-200,000	0,008	-0,112
-246,234	-165,321	-0,043	-0,001
-245,219	800,000	-0,079	-0,163
-244,205	16,915	-0,137	-0,079
-243,190	150,408	-0,006	0,006
-242,176	-200,000	-0,003	-0,117
-241,161	2,297	0,130	-0,068
-240,146	-200,000	0,004	-0,074
-239,132	-200,000	0,024	0,120
-238,117	244,988	0,066	-0,080
-237,103	187,193	-0,132	0,143
-236,088	16,510	0,108	0,062
-235,073	-200,000	0,017	0,110
-234,059	237,180	-0,051	-0,062
-233,044	-200,000	0,025	0,123
-232,030	-200,000	0,010	-0,077
-231,015	2,141	-0,065	0,034
-230,000	335,368	0,059	0,082
-228,986	133,323	0,028	0,026
-227,971	136,877	0,088	0,083
-226,957	624,362	0,048	0,088
-225,942	-146,553	0,068	0,004
-224,927	73,313	-0,064	-0,048
-223,913	-23,021	0,078	0,034
-222,898	-200,000	0,005	0,119
-221,884	161,214	-0,025	0,025
-220,869	-5,001	0,022	-0,011
-219,855	-25,861	0,107	-0,045
-218,840	-99,589	0,104	0,019
-217,825	385,622	0,011	0,017
-216,811	-104,270	0,092	0,015
-215,796	338,577	0,072	-0,102
-214,782	-24,251	0,051	0,022
-213,767	320,637	0,019	-0,026
-212,752	-49,693	0,086	-0,029
-211,738	-200,000	-0,001	-0,081
-210,723	9,376	0,077	0,042
-209,709	64,429	-0,035	0,025
-208,694	223,260	-0,098	-0,115
-207,679	-200,000	-0,012	-0,076
-206,665	623,455	-0,039	-0,071
-205,650	54,250	0,172	0,119
-204,636	576,961	-0,055	0,098
-203,621	-5,126	0,092	0,045
-202,606	-200,000	0,007	-0,071
-201,592	-110,858	0,012	0,002
-200,577	138,715	0,095	-0,090
-199,563	96,554	0,086	-0,071
-198,548	-29,474	0,165	0,068
-197,533	101,950	-0,085	0,072
-196,519	416,820	0,055	0,085
-195,504	-200,000	-0,035	-0,150
-194,490	112,453	-0,093	0,081
-193,475	41,721	-0,084	0,055
-192,460	-200,000	0,012	-0,083
-191,446	56,232	-0,113	-0,079
-190,431	-200,000	0,003	-0,035
-189,417	193,636	-0,028	0,031
-188,402	1,877	-0,110	-0,057
-187,387	568,288	0,081	0,143
-186,373	103,708	-0,028	-0,023
-185,358	181,152	0,029	-0,031
-184,344	-200,000	0,007	0,022
-183,329	540,582	0,019	0,033
-182,315	60,539	0,109	0,078
-181,300	-150,168	-0,097	-0,005
-180,285	432,875	-0,015	-0,024
-179,271	-40,958	-0,107	-0,040
-178,256	454,284	0,083	-0,133
-177,242	118,940	0,076	-0,068
-176,227	326,067	0,039	-0,054
-175,212	159,763	-0,073	0,073
-174,198	588,208	-0,045	0,081
-173,183	234,658	0,034	0,040
-172,169	-200,000	-0,030	-0,138
-171,154	47,805	0,066	-0,045
-170,139	-119,404	-0,087	0,011
-169,125	-53,969	0,031	-0,010
-168,110	483,095	0,032	-0,053
-167,096	482,836	0,035	-0,058
-166,081	800,000	-0,028	-0,066
-165,066	104,010	0,033	-0,028
-164,052	49,287	-0,098	0,066
-163,037	-200,000	-0,006	0,023
-162,023	800,000	0,031	0,082
-161,008	-134,733	-0,135	-0,012
-159,993	-60,449	-0,009	-0,003
-158,979	800,000	-0,072	-0,229
-157,964	-200,000	0,017	-0,085
-156,950	-0,210	-0,061	-0,031
-155,935	-95,243	0,187	0,036
-154,920	-65,004	-0,056	-0,016
-153,906	800,000	-0,062	0,133
-152,891	-200,000	0,000	0,118
-151,877	-112,263	0,012	0,002
-150,862	256,722	-0,035	-0,044
-149,847	-200,000	0,002	-0,042
-148,833	11,527	0,029	-0,016
-147,818	800,000	-0,003	0,008
-146,804	204,084	-0,047	0,053
-145,789	94,185	0,115	0,094
-144,775	800,000	-0,025	0,052
-143,760	-200,000	-0,011	-0,159
-142,745	5,932	-0,125	-0,066
-141,731	-200,000	-0,014	0,074
-140,716	568,738	-0,093	0,163
-139,702	-66,195	0,030	-0,009
-138,687	-162,051	0,074	-0,003
-137,672	-3,780	-0,131	-0,065
-136,658	270,295	-0,101	-0,128
-135,643	800,000	-0,066	-0,148
-134,629	-200,000	0,009	0,055
-133,614	-200,000	-0,001	-0,178
-132,599	-111,074	-0,099	-0,014
-131,585	800,000	-0,034	0,095
-130,570	751,985	0,040	-0,079
-129,556	103,569	-0,109	0,092
-128,541	800,000	-0,034	0,088
-127,526	-200,000	0,048	-0,171
-126,512	-200,000	0,009	-0,072
-125,497	89,986	0,036	0,029
-124,483	101,758	-0,037	0,031
-123,468	-200,000	0,031	0,155
-122,453	-200,000	0,019	-0,090
-121,439	800,000	-0,046	-0,132
-120,424	49,722	0,033	0,022
-119,410	-200,000	-0,007	0,032
