DTS Sentinel unit serial number:	SN410029Multiplexer serial number:	ORYXHardware model number:	OX2-SRSoftware version number:	ORYX F/W v4,00 Oryx Data Collector v3.7.2.0data status	okinstallation	B5 Nyhavnadifferential loss correction	single-endedforward channel	channel 2reverse channel	N/Adate	2023/12/12time	15:57:13forward acquisition time	300,00reverse acquisition time	0,00gamma	499,1914k internal	0,3156k external	0,3156temperature offset calibration	1,0000default loss term (dB/km)	0,3820temperature slope calibration	1,0000multiplexer offset coefficient	1,0000multiplexer slope coefficient	1,0000fibre end	0,00T internal ref (°C)	15,90T ext. ref 1 (°C)	-0,55T ext. ref 2 (°C)	-0,84length (m)	temperature (°C)	Stokes	anti-Stokes-744,400	729,635	0,073	-0,145
-743,385	-88,454	-0,195	-0,043
-742,371	88,558	0,167	-0,137
-741,356	-172,395	-0,305	0,007
-740,342	32,711	0,121	0,077
-739,327	32,646	-0,245	-0,156
-738,312	-111,805	0,086	0,013
-737,298	-118,477	-0,323	-0,042
-736,283	-108,372	0,108	0,017
-735,269	-104,189	-0,197	-0,033
-734,254	92,451	0,138	-0,115
-733,239	-66,453	-0,425	-0,124
-732,225	-118,041	0,143	-0,019
-731,210	285,383	-0,016	0,021
-730,196	-200,000	0,025	-0,094
-729,181	-200,000	-0,013	0,054
-728,167	56,033	-0,042	-0,030
-727,152	357,883	-0,056	-0,082
-726,137	-135,825	-0,094	0,008
-725,123	66,687	-0,010	0,008
-724,108	-200,000	-0,022	-0,140
-723,094	-200,000	0,045	-0,150
-722,079	-200,000	0,027	-0,101
-721,064	-76,057	0,090	-0,023
-720,050	161,582	0,066	-0,069
-719,035	-24,283	0,094	0,041
-718,021	172,530	0,041	0,044
-717,006	668,191	-0,077	-0,147
-715,991	168,435	-0,056	0,059
-714,977	4,214	-0,044	0,024
-713,962	800,000	-0,019	0,043
-712,948	-114,270	0,041	-0,006
-711,933	1,316	-0,089	-0,047
-710,918	800,000	-0,027	0,082
-709,904	-77,367	0,039	0,010
-708,889	-200,000	0,005	-0,163
-707,875	43,068	0,084	-0,056
-706,860	-200,000	-0,024	0,082
-705,845	216,919	0,141	0,166
-704,831	72,495	-0,061	0,047
-703,816	-200,000	-0,006	-0,145
-702,802	552,473	-0,034	0,061
-701,787	-1,022	-0,075	-0,039
-700,772	800,000	-0,041	-0,092
-699,758	800,000	0,056	0,128
-698,743	-78,110	-0,150	-0,038
-697,729	-200,000	0,023	0,082
-696,714	753,978	-0,059	0,119
-695,699	-200,000	0,018	0,201
-694,685	-130,905	-0,072	0,007
-693,670	800,000	0,057	-0,133
-692,656	-200,000	0,013	0,048
-691,641	-200,000	0,005	0,034
-690,627	609,932	-0,008	-0,015
-689,612	-200,000	-0,002	-0,071
-688,597	33,525	-0,066	0,042
-687,583	800,000	-0,002	-0,007
-686,568	-44,280	0,060	0,022
-685,554	-200,000	0,007	-0,023
-684,539	202,542	0,140	-0,159
-683,524	139,511	0,022	-0,021
-682,510	-200,000	0,014	0,092
-681,495	-68,550	-0,043	-0,012
-680,481	-86,557	0,125	0,028
-679,466	466,328	0,022	-0,036
-678,451	725,952	-0,037	-0,073
-677,437	-200,000	-0,018	0,129
-676,422	-78,163	0,107	-0,027
-675,408	194,903	-0,052	-0,058
-674,393	-102,181	0,129	0,023
-673,378	209,811	-0,024	0,028
-672,364	-48,887	-0,148	-0,052
-671,349	-166,059	-0,147	0,005
-670,335	228,704	0,064	-0,077
-669,320	196,506	0,039	0,044
-668,305	-54,527	-0,109	-0,036
-667,291	-15,838	-0,062	-0,029
-666,276	250,119	-0,074	-0,092
-665,262	120,482	0,042	0,038
-664,247	37,291	-0,091	-0,059
-663,232	160,901	-0,022	-0,022
-662,218	-91,475	-0,115	0,024
-661,203	-200,000	0,000	-0,005
-660,189	90,982	-0,111	-0,091
-659,174	800,000	-0,036	-0,087
-658,159	-53,216	-0,050	0,017
-657,145	-200,000	0,002	-0,057
-656,130	800,000	0,040	0,125
-655,116	-82,619	0,090	-0,021
-654,101	-36,143	0,039	-0,015
-653,086	-200,000	-0,014	-0,072
-652,072	-144,398	-0,143	0,010
-651,057	248,647	0,087	0,109
-650,043	164,018	0,105	-0,108
-649,028	24,650	-0,128	0,078
-648,014	800,000	-0,039	0,080
-646,999	791,604	0,019	-0,038
-645,984	-50,977	0,067	-0,023
-644,970	800,000	0,098	-0,300
-643,955	-200,000	-0,013	-0,174
-642,941	800,000	-0,021	0,058
-641,926	-30,472	0,080	0,033
-640,911	252,240	-0,022	0,027
-639,897	-40,730	0,033	-0,013
-638,882	180,177	0,032	0,035
-637,868	-200,000	-0,000	-0,006
-636,853	-200,000	0,013	-0,102
-635,838	-139,812	-0,136	0,010
-634,824	-200,000	0,025	0,095
-633,809	-200,000	0,005	0,037
-632,795	-200,000	0,025	0,145
-631,780	-200,000	0,002	0,075
-630,765	-73,020	-0,030	0,008
-629,751	-183,182	-0,079	-0,001
-628,736	800,000	-0,059	-0,160
-627,722	99,083	0,029	0,024
-626,707	96,518	0,068	-0,057
-625,692	338,005	-0,036	-0,052
-624,678	-200,000	0,022	0,096
-623,663	13,129	0,090	-0,051
-622,649	135,427	-0,093	-0,089
-621,634	-50,824	-0,098	0,034
-620,619	579,046	-0,074	-0,133
-619,605	-200,000	-0,030	0,175
-618,590	33,095	0,140	0,089
-617,576	800,000	-0,030	-0,083
-616,561	800,000	-0,019	-0,056
-615,546	-91,493	-0,090	0,019
-614,532	4,351	-0,111	-0,060
-613,517	-40,406	-0,107	0,041
-612,503	-125,698	-0,104	0,011
-611,488	-109,478	-0,031	0,005
-610,474	-33,018	-0,023	-0,010
-609,459	-5,111	-0,070	0,035
-608,444	241,363	-0,018	0,022
-607,430	77,126	0,100	-0,078
-606,415	-98,671	0,039	-0,007
-605,401	-182,902	0,032	0,000
-604,386	-16,054	0,197	0,092
-603,371	-200,000	0,017	0,058
-602,357	108,203	-0,084	0,074
-601,342	42,889	0,030	-0,020
-600,328	-200,000	0,036	-0,178
-599,313	361,350	-0,119	-0,176
-598,298	800,000	0,026	-0,076
-597,284	-123,436	-0,103	0,012
-596,269	77,520	0,075	0,058
-595,255	-200,000	-0,006	0,051
-594,240	616,642	-0,064	0,118
-593,225	-26,472	-0,056	-0,024
-592,211	111,498	-0,005	0,005
-591,196	-36,682	-0,050	-0,019
-590,182	91,734	0,113	0,093
-589,167	800,000	-0,037	0,079
-588,152	-53,023	0,060	-0,020
-587,138	-200,000	-0,006	-0,063
-586,123	800,000	-0,020	-0,056
-585,109	-200,000	-0,009	0,105
-584,094	58,538	0,064	0,046
-583,079	-64,628	0,108	0,032
-582,065	-200,000	0,005	0,094
-581,050	-200,000	-0,029	0,123
-580,036	-66,965	0,038	-0,011
-579,021	139,868	-0,123	-0,119
-578,006	8,510	-0,138	-0,076
-576,992	-118,772	-0,074	0,009
-575,977	-125,798	-0,007	-0,001
-574,963	155,409	-0,015	0,015
-573,948	-200,000	0,005	0,047
-572,934	-64,716	0,056	0,017
-571,919	800,000	0,026	0,063
-570,904	513,786	-0,032	0,054
-569,890	800,000	-0,017	-0,046
-568,875	800,000	0,015	0,034
-567,861	-200,000	-0,010	0,033
-566,846	-41,212	-0,118	0,044
-565,831	557,837	0,022	0,039
-564,817	-97,437	-0,049	-0,009
-563,802	64,019	-0,106	-0,078
-562,788	324,628	-0,066	-0,093
-561,773	117,512	-0,083	0,074
-560,758	800,000	-0,013	-0,033
-559,744	-200,000	0,007	0,107
-558,729	-9,634	-0,095	0,046
-557,715	61,453	0,116	-0,084
-556,700	49,783	-0,152	-0,104
-555,685	-66,207	-0,146	-0,042
-554,671	-200,000	0,018	-0,081
-553,656	174,392	-0,045	-0,047
-552,642	-200,000	0,000	0,016
-551,627	-119,960	-0,150	-0,019
-550,612	800,000	-0,039	-0,095
-549,598	-200,000	-0,007	-0,050
-548,583	-54,877	-0,086	0,028
-547,569	800,000	0,023	0,051
-546,554	-154,956	0,189	0,009
-545,539	278,051	0,037	-0,048
-544,525	800,000	-0,044	-0,117
-543,510	691,432	-0,057	0,110
-542,496	-130,993	-0,054	-0,005
-541,481	354,312	0,021	-0,030
-540,466	-200,000	0,011	-0,045
-539,452	-39,460	0,008	-0,003
-538,437	-25,910	0,086	0,037
-537,423	-25,640	0,090	-0,039
-536,408	157,980	-0,082	0,083
-535,393	-200,000	-0,004	-0,052
-534,379	-200,000	0,051	-0,189
-533,364	-97,195	-0,068	-0,013
-532,350	467,381	-0,005	-0,009
-531,335	231,857	0,050	0,060
-530,321	44,845	0,063	0,043
-529,306	-200,000	0,006	-0,143
-528,291	689,199	0,044	-0,085
-527,277	-200,000	-0,011	-0,174
-526,262	2,098	0,018	-0,010
-525,248	130,644	0,089	-0,084
-524,233	-45,718	0,173	-0,062
-523,218	-43,399	-0,050	-0,018
-522,204	196,133	-0,030	-0,033
-521,189	-200,000	0,031	-0,104
-520,175	-200,000	0,024	-0,085
-519,160	-117,314	-0,092	-0,012
-518,145	800,000	0,046	0,097
-517,131	800,000	-0,033	0,078
-516,116	171,869	-0,029	-0,030
-515,102	-200,000	-0,008	0,161
-514,087	-34,930	-0,131	0,052
-513,072	-200,000	0,013	0,057
-512,058	268,294	-0,077	0,098
-511,043	680,323	-0,017	-0,033
-510,029	282,848	-0,052	0,069
-509,014	-200,000	0,009	0,196
-507,999	51,357	-0,020	-0,014
-506,985	357,478	-0,085	-0,124
-505,970	-81,662	-0,049	-0,012
-504,956	800,000	-0,009	-0,024
-503,941	-141,901	-0,077	-0,006
-502,926	-200,000	0,019	0,079
-501,912	716,372	0,079	0,154
-500,897	-200,000	-0,019	-0,121
-499,883	277,693	-0,009	-0,012
-498,868	16,247	-0,105	-0,060
-497,853	-200,000	0,029	-0,213
-496,839	-18,627	0,013	0,006
-495,824	800,000	0,058	0,173
-494,810	-88,168	-0,099	-0,022
-493,795	48,368	0,053	0,036
-492,781	241,158	-0,080	-0,097
-491,766	-76,486	0,092	-0,023
-490,751	-129,773	0,116	-0,011
-489,737	-25,949	-0,083	0,036
-488,722	235,151	0,018	-0,021
-487,708	787,311	0,023	0,046
-486,693	-100,028	0,045	0,008
-485,678	-139,324	-0,037	-0,003
-484,664	782,819	-0,019	0,039
-483,649	26,395	-0,078	0,047
-482,635	51,324	0,045	-0,031
-481,620	-200,000	0,011	-0,050
-480,605	-104,885	0,083	0,014
-479,591	451,083	0,012	0,020
-478,576	-124,785	-0,106	-0,012
-477,562	182,810	0,064	-0,069
-476,547	25,985	-0,148	-0,090
-475,532	-200,000	-0,004	0,141
-474,518	-200,000	0,003	0,111
-473,503	-200,000	0,022	0,082
-472,489	303,202	-0,068	0,092
-471,474	1,324	0,021	-0,011
-470,459	-2,443	-0,023	0,012
-469,445	800,000	0,027	-0,062
-468,430	-69,723	-0,042	-0,012
-467,416	-134,011	0,035	-0,003
-466,401	800,000	0,048	-0,128
-465,386	-200,000	0,006	-0,123
-464,372	612,633	0,018	-0,033
-463,357	-20,529	-0,007	0,003
-462,343	206,117	-0,069	-0,079
-461,328	125,815	-0,060	0,056
-460,313	-9,097	0,043	0,021
-459,299	1,453	-0,080	-0,042
-458,284	-91,783	0,071	0,015
-457,270	-171,889	0,047	-0,001
-456,255	-49,914	0,073	0,025
-455,241	654,213	0,032	-0,060
-454,226	568,773	-0,026	-0,046
-453,211	-200,000	0,006	0,072
-452,197	363,161	-0,048	0,070
-451,182	800,000	-0,018	-0,054
-450,168	-73,120	0,091	0,024
-449,153	213,518	-0,115	-0,132
-448,138	-83,385	0,026	0,006
-447,124	800,000	-0,021	-0,043
-446,109	49,833	-0,076	-0,052
-445,095	-134,717	0,142	-0,012
-444,080	800,000	-0,028	0,087
-443,065	-200,000	-0,017	0,086
-442,051	-108,377	-0,056	0,009
-441,036	-200,000	-0,025	-0,120
-440,022	-14,294	-0,117	0,055
-439,007	-200,000	0,017	-0,068
-437,992	12,076	0,021	0,012
-436,978	800,000	0,023	-0,066
-435,963	36,634	-0,107	-0,069
-434,949	800,000	-0,025	-0,069
-433,934	-200,000	-0,022	-0,137
-432,919	80,186	-0,134	-0,105
-431,905	-90,660	0,173	0,036
-430,890	-53,923	0,130	-0,043
-429,876	239,066	0,051	-0,062
-428,861	-200,000	-0,004	0,022
-427,846	499,435	-0,056	-0,094
-426,832	-64,552	-0,248	0,073
-425,817	148,907	-0,078	-0,077
-424,803	-200,000	-0,009	-0,140
-423,788	800,000	-0,018	-0,046
-422,773	277,812	0,051	-0,066
-421,759	384,686	-0,028	0,042
-420,744	-200,000	-0,005	0,067
-419,730	59,404	0,166	0,119
-418,715	-71,050	0,112	-0,030
-417,701	-200,000	-0,003	-0,085
-416,686	-198,375	-0,155	0,001
-415,671	-150,672	0,103	0,006
-414,657	150,233	0,065	0,064
-413,642	-39,342	0,051	0,019
-412,628	106,046	-0,078	-0,068
-411,613	-173,492	-0,137	-0,003
-410,598	117,377	0,033	0,029
-409,584	-6,881	-0,173	-0,086
-408,569	103,641	0,097	-0,083
-407,555	0,954	0,083	-0,043
-406,540	800,000	0,013	0,031
-405,525	21,514	-0,121	0,071
-404,511	459,457	-0,078	-0,127
-403,496	-41,157	-0,097	-0,036
-402,482	-81,334	-0,113	-0,027
-401,467	59,167	-0,051	0,037
-400,452	77,353	0,108	0,084
-399,438	-200,000	0,023	0,103
-398,423	-1,589	0,091	-0,047
-397,409	156,673	-0,048	-0,048
-396,394	109,873	-0,121	-0,105
-395,379	-71,830	0,037	-0,010
-394,365	-200,000	0,031	0,113
-393,350	555,219	0,047	-0,082
-392,336	-200,000	-0,050	-0,166
-391,321	58,511	-0,086	-0,061
-390,306	-53,842	-0,112	-0,037
-389,292	-14,430	0,054	0,025
-388,277	-26,700	-0,054	0,023
-387,263	10,614	0,093	0,051
-386,248	-200,000	0,001	0,087
-385,233	-200,000	-0,015	0,055
-384,219	-200,000	-0,002	0,093
-383,204	-6,626	-0,134	-0,066
-382,190	34,829	-0,087	-0,055
-381,175	-200,000	-0,010	-0,063
-380,160	-59,191	0,135	-0,042
-379,146	132,952	0,015	0,014
-378,131	23,355	0,031	-0,019
-377,117	451,882	0,062	0,101
-376,102	-66,949	0,068	0,019
-375,088	-143,642	-0,129	-0,009
-374,073	57,348	0,094	-0,066
-373,058	800,000	0,041	0,087
-372,044	-105,629	0,082	-0,013
-371,029	-120,217	0,201	-0,025
-370,015	201,241	0,017	0,019
-369,000	-20,063	-0,060	-0,027
-367,985	-98,609	0,015	-0,003
-366,971	139,812	0,040	0,039
-365,956	29,610	0,135	0,083
-364,942	800,000	0,055	0,116
-363,927	266,613	0,119	0,152
-362,912	137,173	0,031	-0,030
-361,898	107,623	-0,047	0,041
-360,883	485,126	0,068	-0,114
-359,869	800,000	-0,026	0,063
-358,854	35,553	0,045	-0,029
-357,839	-145,821	-0,033	-0,002
-356,825	-47,924	-0,101	0,035
-355,810	-146,571	0,027	0,002
-354,796	800,000	0,053	0,113
-353,781	800,000	0,014	0,028
-352,766	45,990	-0,059	0,039
-351,752	81,099	-0,024	-0,019
-350,737	350,339	0,101	0,145
-349,723	208,725	-0,051	0,058
-348,708	-200,000	0,003	0,028
-347,693	204,899	-0,076	-0,086
-346,679	-200,000	-0,047	-0,216
-345,664	474,351	-0,057	-0,093
-344,650	800,000	-0,055	-0,116
-343,635	-106,182	0,141	-0,023
-342,620	0,962	0,037	-0,019
-341,606	-200,000	-0,010	-0,054
-340,591	-200,000	-0,020	0,074
-339,577	-99,186	0,026	-0,005
-338,562	-4,586	0,015	-0,008
-337,548	610,945	-0,080	-0,145
-336,533	-65,621	0,145	0,042
-335,518	-167,180	0,138	0,004
-334,504	-54,680	0,151	-0,049
-333,489	800,000	-0,039	-0,116
-332,475	-200,000	0,052	0,000
-331,460	-200,000	0,030	-0,139
-330,445	-200,000	0,009	-0,055
-329,431	134,499	-0,114	0,108
-328,416	-200,000	-0,020	0,104
-327,402	238,869	0,028	0,034
-326,387	-149,366	-0,055	-0,003
-325,372	89,629	-0,083	-0,067
-324,358	-200,000	0,015	-0,083
-323,343	51,302	-0,094	0,065
-322,329	800,000	-0,033	-0,072
-321,314	-97,216	0,067	-0,013
-320,299	-200,000	0,000	0,044
-319,285	800,000	0,022	-0,065
-318,270	-42,057	0,050	-0,018
-317,256	349,499	-0,027	0,039
-316,241	-200,000	0,004	-0,233
-315,226	-44,892	0,107	0,039
-314,212	-200,000	0,012	0,063
-313,197	-200,000	0,020	0,077
-312,183	173,934	0,006	-0,006
-311,168	-200,000	0,021	0,095
-310,153	39,071	0,123	0,080
-309,139	44,097	0,131	-0,087
-308,124	-200,000	-0,003	0,056
-307,110	-91,083	-0,073	0,015
-306,095	447,317	-0,065	0,103
-305,080	277,252	-0,119	0,154
-304,066	-90,881	-0,078	-0,016
-303,051	-0,464	-0,148	0,076
-302,037	-68,629	0,124	-0,035
-301,022	-199,513	-0,094	-0,000
-300,008	-200,000	-0,000	0,084
-298,993	800,000	-0,031	0,074
-297,978	800,000	-0,075	0,177
-296,964	-167,492	0,053	0,001
-295,949	-29,408	0,072	-0,030
-294,935	-200,000	0,006	0,020
-293,920	13,811	-0,050	-0,028
-292,905	-98,805	0,024	-0,004
-291,891	159,206	0,073	-0,073
-290,876	120,342	0,056	0,050
-289,862	-200,000	-0,051	-0,166
-288,847	475,548	0,027	0,044
-287,832	266,250	0,076	-0,096
-286,818	-73,094	0,059	-0,016
-285,803	321,796	0,051	0,071
-284,789	-52,802	0,104	-0,035
-283,774	800,000	-0,063	0,176
-282,759	-81,975	-0,110	0,026
-281,745	123,137	0,087	-0,079
-280,730	-106,582	-0,024	-0,004
-279,716	75,592	0,038	0,029
-278,701	-10,870	-0,040	-0,019
-277,686	800,000	0,032	-0,101
-276,672	43,989	0,012	-0,008
-275,657	383,034	-0,023	-0,034
-274,643	92,802	0,037	-0,031
-273,628	7,083	0,041	-0,022
-272,613	104,788	0,042	0,036
-271,599	-200,000	-0,012	0,128
-270,584	-157,989	0,234	0,010
-269,570	199,688	0,060	0,067
-268,555	552,164	0,054	0,094
-267,540	-71,636	0,084	-0,022
-266,526	-200,000	0,001	0,054
-265,511	23,294	0,112	0,066
-264,497	153,940	0,132	-0,131
-263,482	395,485	-0,079	0,120
-262,467	185,382	-0,028	-0,030
-261,453	243,236	-0,078	-0,095
-260,438	-84,427	0,135	-0,031
-259,424	-105,657	-0,117	-0,019
-258,409	91,780	0,044	0,036
-257,395	-83,817	-0,046	0,011
-256,380	-1,696	-0,034	0,017
-255,365	75,258	0,097	0,074
-254,351	-83,863	0,125	-0,029
-253,336	-83,212	-0,070	-0,016
-252,322	1,122	0,174	-0,090
-251,307	-200,000	-0,006	-0,193
-250,292	277,845	0,036	0,047
-249,278	800,000	0,027	0,081
-248,263	-3,854	0,153	0,077
-247,249	-92,902	-0,133	0,027
-246,234	-14,647	-0,091	-0,042
-245,219	643,545	0,012	-0,023
-244,205	-200,000	-0,012	-0,087
-243,190	-112,222	0,177	0,025
-242,176	140,538	0,103	-0,098
-241,161	239,889	0,098	0,119
-240,146	-200,000	-0,011	0,167
-239,132	257,040	0,064	0,080
-238,117	-7,243	-0,071	-0,035
-237,103	46,217	-0,054	0,036
-236,088	-41,064	0,110	-0,041
-235,073	-101,408	-0,012	-0,002
-234,059	80,402	0,085	0,066
-233,044	800,000	-0,042	0,088
-232,030	-134,420	0,060	-0,005
-231,015	-9,772	-0,066	0,032
-230,000	-200,000	-0,042	-0,144
-228,986	569,118	0,067	0,118
-227,971	-200,000	0,025	0,174
-226,957	-106,750	0,087	0,014
-225,942	-200,000	0,006	0,081
-224,927	-200,000	0,001	-0,027
-223,913	-57,177	-0,127	0,040
-222,898	-200,000	0,040	-0,139
-221,884	226,724	0,062	0,073
-220,869	23,876	0,061	0,036
-219,855	-86,125	-0,107	-0,024
-218,840	81,230	0,045	0,035
-217,825	-46,773	0,108	0,038
-216,811	-200,000	0,003	-0,031
-215,796	-100,022	-0,253	0,045
-214,782	-62,008	-0,063	0,019
-213,767	-200,000	0,008	0,033
-212,752	13,374	0,009	-0,005
-211,738	-127,113	0,080	0,008
-210,723	114,569	-0,037	-0,033
-209,709	-37,569	-0,074	-0,028
-208,694	-58,760	-0,066	0,020
-207,679	-200,000	0,006	0,032
-206,665	-60,020	0,078	0,024
-205,650	-45,497	0,086	-0,031
-204,636	-108,651	0,080	-0,012
-203,621	800,000	-0,020	0,056
-202,606	-78,045	0,061	0,015
-201,592	-200,000	0,019	-0,080
-200,577	-200,000	-0,003	-0,079
-199,563	14,436	0,026	0,015
-198,548	41,041	0,072	0,047
-197,533	-76,019	0,014	0,004
-196,519	650,711	-0,063	-0,118
-195,504	-195,401	0,079	0,000
-194,490	-17,406	-0,091	0,041
-193,475	529,626	0,044	0,076
-192,460	-162,579	0,043	0,001
-191,446	98,061	-0,044	0,037
-190,431	-200,000	0,013	0,233
-189,417	-146,545	0,197	0,012
-188,402	-200,000	-0,023	-0,130
-187,387	61,056	-0,061	0,043
-186,373	-102,625	-0,144	-0,025
-185,358	800,000	0,024	0,055
-184,344	-200,000	-0,001	-0,012
-183,329	-66,370	0,078	-0,022
-182,315	-200,000	0,012	0,099
-181,300	800,000	-0,024	0,051
-180,285	221,571	0,055	-0,064
-179,271	-200,000	0,005	-0,040
-178,256	-48,350	0,046	0,016
-177,242	264,260	0,046	0,058
-176,227	-200,000	0,046	0,170
-175,212	363,224	-0,061	-0,088
-174,198	-200,000	-0,005	0,152
-173,183	800,000	0,020	0,063
-172,169	343,317	-0,046	-0,066
-171,154	489,133	-0,054	0,089
-170,139	28,377	0,128	-0,078
-169,125	-200,000	-0,025	-0,111
-168,110	-58,753	-0,069	-0,021
-167,096	-200,000	0,020	0,112
-166,081	-66,830	-0,078	0,022
-165,066	-63,345	-0,085	0,025
-164,052	800,000	-0,069	0,153
-163,037	26,302	0,052	0,032
-162,023	317,446	-0,032	0,044
-161,008	185,287	0,068	-0,072
-159,993	800,000	0,014	0,039
-158,979	346,523	-0,093	0,132
-157,964	508,579	0,011	-0,019
-156,950	-200,000	-0,003	-0,145
-155,935	-132,012	-0,116	-0,011
-154,920	-53,887	-0,086	0,028
-153,906	-7,744	0,051	-0,025
-152,891	-200,000	-0,011	0,110
-151,877	615,363	-0,014	0,025
-150,862	-80,675	-0,020	-0,005
-149,847	-200,000	-0,010	-0,044
-148,833	-49,640	-0,070	0,024
-147,818	266,806	-0,045	0,057
-146,804	-200,000	-0,002	0,065
-145,789	-200,000	-0,005	0,059
-144,775	485,047	0,009	0,015
-143,760	344,612	-0,121	-0,172
-142,745	159,089	-0,059	0,059
-141,731	75,405	0,025	0,019
-140,716	705,388	0,029	0,055
-139,702	6,673	0,099	-0,053
-138,687	-200,000	0,005	-0,017
-137,672	141,624	-0,117	-0,112
-136,658	207,176	-0,058	0,065
-135,643	178,980	-0,037	-0,039
-134,629	-200,000	-0,039	-0,190
-133,614	-200,000	0,026	-0,131
-132,599	-200,000	0,016	-0,079
-131,585	-64,593	-0,064	-0,018
-130,570	800,000	0,032	-0,070
-129,556	179,529	0,073	-0,078
-128,541	800,000	0,007	0,023
-127,526	-13,575	-0,052	0,024
-126,512	800,000	0,014	0,036
-125,497	-23,267	0,085	0,036
-124,483	-36,990	-0,176	-0,068
-123,468	274,714	-0,045	0,057
-122,453	-42,199	-0,163	-0,060
-121,439	7,626	-0,162	-0,087
-120,424	800,000	-0,016	-0,039
-119,410	800,000	-0,021	0,051
