DTS Sentinel unit serial number:	SN410029Multiplexer serial number:	ORYXHardware model number:	OX2-SRSoftware version number:	ORYX F/W v4,00 Oryx Data Collector v3.7.2.0data status	okinstallation	B5 Nyhavnadifferential loss correction	single-endedforward channel	channel 2reverse channel	N/Adate	2023/12/13time	03:37:13forward acquisition time	300,00reverse acquisition time	0,00gamma	499,1914k internal	0,3160k external	0,3160temperature offset calibration	1,0000default loss term (dB/km)	0,3820temperature slope calibration	1,0000multiplexer offset coefficient	1,0000multiplexer slope coefficient	1,0000fibre end	0,00T internal ref (°C)	13,95T ext. ref 1 (°C)	-2,44T ext. ref 2 (°C)	-2,75length (m)	temperature (°C)	Stokes	anti-Stokes-744,400	68,903	0,041	-0,031
-743,385	-107,976	-0,337	0,053
-742,371	-200,000	-0,005	0,057
-741,356	-89,523	-0,225	-0,048
-740,342	486,076	0,105	0,177
-739,327	-75,372	-0,288	0,075
-738,312	-43,266	0,081	-0,030
-737,298	-135,058	-0,453	-0,040
-736,283	-31,395	0,088	0,036
-735,269	-200,000	-0,310	0,000
-734,254	-200,000	0,029	0,098
-733,239	-67,152	-0,496	-0,143
-732,225	285,624	0,115	0,153
-731,210	36,018	0,103	0,067
-730,196	-130,850	-0,078	-0,008
-729,181	-200,000	-0,005	-0,037
-728,167	494,505	-0,038	0,065
-727,152	-117,390	0,144	0,019
-726,137	-24,006	-0,134	-0,059
-725,123	315,390	-0,081	-0,113
-724,108	403,866	-0,077	-0,120
-723,094	-105,492	-0,079	-0,013
-722,079	-200,000	-0,025	-0,154
-721,064	800,000	-0,011	0,028
-720,050	92,942	-0,065	0,054
-719,035	37,752	0,090	0,059
-718,021	-120,971	0,100	-0,012
-717,006	-200,000	-0,008	0,031
-715,991	-200,000	-0,033	0,122
-714,977	800,000	0,007	-0,020
-713,962	215,637	0,024	-0,028
-712,948	-200,000	0,019	0,081
-711,933	265,212	0,028	-0,036
-710,918	216,333	-0,039	0,046
-709,904	-151,492	-0,120	0,006
-708,889	800,000	0,047	-0,106
-707,875	-200,000	0,037	-0,185
-706,860	396,062	0,081	-0,125
-705,845	-3,784	0,069	0,035
-704,831	160,774	0,051	-0,053
-703,816	800,000	0,041	0,101
-702,802	141,434	-0,085	-0,082
-701,787	-0,950	-0,129	-0,067
-700,772	165,331	-0,074	0,077
-699,758	-150,625	-0,048	0,003
-698,743	175,859	-0,091	-0,098
-697,729	-67,079	0,071	0,021
-696,714	192,985	-0,011	-0,013
-695,699	800,000	0,060	-0,161
-694,685	305,565	0,070	-0,096
-693,670	578,004	-0,018	-0,032
-692,656	622,003	0,047	0,087
-691,641	238,919	0,083	-0,102
-690,627	24,986	0,092	-0,056
-689,612	303,582	0,016	0,021
-688,597	-200,000	-0,004	0,051
-687,583	-38,221	-0,122	0,047
-686,568	-200,000	-0,007	0,112
-685,554	-200,000	0,019	-0,154
-684,539	47,206	0,103	0,070
-683,524	-6,146	-0,038	0,019
-682,510	-31,839	0,093	-0,038
-681,495	-200,000	-0,038	0,155
-680,481	-200,000	-0,023	0,098
-679,466	71,101	0,087	-0,066
-678,451	-200,000	-0,008	0,052
-677,437	-91,232	-0,201	0,042
-676,422	536,415	0,025	0,044
-675,408	800,000	0,037	0,105
-674,393	363,743	-0,054	0,080
-673,378	-155,885	-0,053	0,002
-672,364	-200,000	0,018	-0,177
-671,349	-36,552	0,049	-0,019
-670,335	-200,000	-0,026	-0,113
-669,320	-136,811	-0,131	0,011
-668,305	102,734	-0,034	0,029
-667,291	-200,000	0,002	0,008
-666,276	-200,000	-0,003	-0,181
-665,262	-200,000	0,000	0,003
-664,247	92,123	-0,096	0,080
-663,232	130,250	-0,015	0,014
-662,218	21,233	0,085	-0,051
-661,203	8,243	-0,076	0,042
-660,189	137,518	0,098	0,095
-659,174	-5,328	0,070	-0,035
-658,159	-200,000	-0,001	-0,106
-657,145	3,704	-0,125	0,067
-656,130	29,797	-0,093	-0,058
-655,116	290,203	-0,019	0,025
-654,101	800,000	0,016	-0,042
-653,086	-115,727	0,085	0,012
-652,072	-200,000	-0,008	0,028
-651,057	-55,111	0,028	-0,009
-650,043	61,778	0,048	-0,035
-649,028	-112,087	-0,070	-0,010
-648,014	-108,312	0,120	-0,019
-646,999	296,832	0,033	0,045
-645,984	-21,633	0,032	-0,014
-644,970	23,569	-0,129	-0,077
-643,955	-25,687	0,102	0,044
-642,941	-200,000	0,002	-0,069
-641,926	115,020	0,067	-0,060
-640,911	-80,971	0,159	-0,038
-639,897	-178,176	0,119	-0,002
-638,882	-156,463	0,061	-0,003
-637,868	-4,734	-0,139	-0,070
-636,853	542,082	-0,082	0,145
-635,838	-177,260	0,075	0,001
-634,824	162,614	-0,081	0,084
-633,809	288,932	0,022	-0,030
-632,795	800,000	0,010	0,031
-631,780	-178,176	-0,060	0,001
-630,765	800,000	0,070	-0,173
-629,751	297,569	0,054	0,073
-628,736	296,414	-0,021	-0,028
-627,722	-47,526	-0,081	-0,029
-626,707	4,274	0,090	0,048
-625,692	-200,000	0,038	0,161
-624,678	37,378	-0,024	0,016
-623,663	778,565	-0,054	-0,109
-622,649	-22,703	0,032	-0,014
-621,634	755,825	-0,045	-0,089
-620,619	-200,000	-0,010	-0,097
-619,605	-20,140	-0,010	-0,005
-618,590	-200,000	-0,007	-0,040
-617,576	15,361	0,040	-0,023
-616,561	-200,000	-0,000	-0,018
-615,546	-0,752	-0,060	0,031
-614,532	-59,253	-0,046	0,015
-613,517	-200,000	0,010	-0,092
-612,503	-32,646	0,035	-0,014
-611,488	-200,000	-0,026	0,144
-610,474	-164,649	0,028	-0,001
-609,459	-200,000	-0,010	0,078
-608,444	800,000	-0,017	-0,049
-607,430	117,193	-0,137	-0,124
-606,415	-200,000	-0,040	-0,137
-605,401	-63,628	0,031	-0,009
-604,386	800,000	-0,025	-0,054
-603,371	5,134	0,187	-0,100
-602,357	800,000	0,073	0,162
-601,342	-7,649	0,089	0,044
-600,328	-200,000	0,028	-0,121
-599,313	-200,000	0,007	-0,088
-598,298	800,000	-0,051	-0,106
-597,284	92,763	0,207	-0,171
-596,269	-200,000	0,022	0,000
-595,255	-122,279	0,063	-0,007
-594,240	-200,000	0,000	0,017
-593,225	800,000	0,016	-0,047
-592,211	139,948	0,085	-0,082
-591,196	-66,859	-0,113	-0,033
-590,182	245,019	-0,043	-0,053
-589,167	36,078	0,093	-0,060
-588,152	800,000	0,009	0,028
-587,138	-52,728	-0,078	0,026
-586,123	-200,000	-0,016	0,121
-585,109	-200,000	0,006	-0,156
-584,094	800,000	-0,061	0,139
-583,079	800,000	0,020	-0,056
-582,065	800,000	-0,023	0,050
-581,050	-113,200	-0,071	0,010
-580,036	44,920	-0,024	-0,016
-579,021	118,736	-0,060	-0,054
-578,006	-129,903	-0,057	-0,006
-576,992	27,596	-0,028	-0,017
-575,977	-200,000	0,006	0,182
-574,963	762,343	0,057	0,113
-573,948	-153,817	-0,163	0,008
-572,934	197,845	0,069	0,078
-571,919	93,043	-0,081	-0,067
-570,904	114,880	-0,021	0,019
-569,890	-200,000	0,012	-0,093
-568,875	122,701	-0,018	0,017
-567,861	800,000	0,063	-0,130
-566,846	-63,344	0,080	-0,024
-565,831	165,605	0,031	-0,032
-564,817	-200,000	0,027	-0,129
-563,802	-200,000	0,000	-0,052
-562,788	109,923	-0,102	-0,090
-561,773	-138,618	-0,079	0,006
-560,758	-200,000	-0,002	-0,077
-559,744	-132,648	-0,072	-0,007
-558,729	-200,000	0,026	0,085
-557,715	-70,436	-0,107	0,030
-556,700	-109,516	-0,052	-0,008
-555,685	800,000	-0,046	0,110
-554,671	-149,106	0,102	-0,006
-553,656	49,305	-0,085	-0,058
-552,642	-200,000	0,029	0,186
-551,627	-200,000	-0,002	0,070
-550,612	-105,759	0,137	0,022
-549,598	-123,380	0,050	-0,006
-548,583	1,018	-0,147	0,077
-547,569	13,548	-0,146	0,083
-546,554	-200,000	0,003	-0,071
-545,539	-112,114	0,078	-0,011
-544,525	77,650	-0,106	0,082
-543,510	114,446	0,048	0,043
-542,496	-200,000	0,017	-0,064
-541,481	-200,000	-0,019	-0,113
-540,466	-193,425	0,112	0,001
-539,452	4,450	0,156	-0,084
-538,437	-54,543	0,053	-0,017
-537,423	-84,865	-0,029	0,007
-536,408	192,940	-0,109	-0,121
-535,393	-200,000	0,024	-0,158
-534,379	-45,439	-0,107	-0,039
-533,364	800,000	0,022	0,046
-532,350	800,000	-0,049	0,111
-531,335	27,474	0,081	0,050
-530,321	43,985	-0,093	0,062
-529,306	-200,000	0,018	0,084
-528,291	-200,000	-0,001	0,117
-527,277	371,187	-0,053	0,078
-526,262	-137,475	-0,156	-0,013
-525,248	-7,718	0,075	-0,037
-524,233	-200,000	0,011	0,047
-523,218	-200,000	0,011	0,055
-522,204	-15,635	-0,068	0,031
-521,189	-26,669	-0,127	-0,054
-520,175	800,000	0,015	-0,038
-519,160	-82,242	-0,061	0,014
-518,145	800,000	-0,016	0,048
-517,131	242,468	0,025	-0,031
-516,116	-137,522	-0,089	-0,007
-515,102	-200,000	-0,014	-0,155
-514,087	-102,321	-0,016	-0,003
-513,072	-91,765	-0,106	0,022
-512,058	-113,622	-0,123	-0,017
-511,043	-113,996	0,102	0,014
-510,029	800,000	0,030	0,082
-509,014	-200,000	0,029	0,103
-507,999	-200,000	-0,009	0,057
-506,985	-200,000	-0,012	0,048
-505,970	800,000	0,043	-0,094
-504,956	-119,362	-0,148	-0,019
-503,941	-104,828	-0,088	-0,015
-502,926	472,974	0,045	0,075
-501,912	800,000	-0,034	0,105
-500,897	434,849	-0,061	-0,098
-499,883	-33,022	0,094	0,038
-498,868	-200,000	0,025	0,111
-497,853	800,000	0,029	-0,078
-496,839	170,831	0,030	-0,032
-495,824	-200,000	-0,016	0,079
-494,810	-200,000	0,000	-0,036
-493,795	-200,000	0,017	0,065
-492,781	131,205	0,095	-0,089
-491,766	-141,556	0,017	-0,001
-490,751	800,000	-0,050	-0,114
-489,737	-82,771	-0,141	-0,033
-488,722	-78,426	0,090	0,022
-487,708	11,536	-0,185	-0,103
-486,693	109,958	0,089	0,078
-485,678	-118,234	-0,093	0,012
-484,664	800,000	-0,028	0,085
-483,649	-84,464	0,029	-0,007
-482,635	800,000	-0,065	-0,148
-481,620	-200,000	0,012	0,108
-480,605	-118,560	-0,072	0,009
-479,591	10,755	-0,134	0,074
-478,576	-4,404	-0,115	0,058
-477,562	800,000	-0,024	-0,056
-476,547	-46,276	-0,204	-0,073
-475,532	-48,794	0,111	0,038
-474,518	469,077	-0,026	0,043
-473,503	800,000	0,039	0,111
-472,489	-35,874	0,118	-0,046
-471,474	-29,829	-0,074	-0,030
-470,459	-200,000	0,014	0,066
-469,445	-200,000	0,011	-0,183
-468,430	800,000	0,041	-0,114
-467,416	-17,925	0,110	-0,050
-466,401	-200,000	0,008	-0,048
-465,386	224,640	0,014	0,017
-464,372	800,000	-0,057	0,153
-463,357	132,690	-0,066	-0,062
-462,343	800,000	0,041	-0,122
-461,328	90,215	-0,073	-0,060
-460,313	14,857	0,084	0,048
-459,299	-200,000	0,027	0,096
-458,284	223,131	0,097	0,115
-457,270	-75,827	0,108	-0,028
-456,255	12,598	-0,058	0,033
-455,241	-200,000	0,003	-0,020
-454,226	-200,000	-0,017	-0,077
-453,211	-200,000	0,001	0,016
-452,197	-87,431	0,207	0,045
-451,182	-200,000	-0,032	-0,144
-450,168	-191,901	0,117	0,001
-449,153	10,414	-0,078	0,043
-448,138	36,674	-0,091	-0,058
-447,124	148,005	0,061	-0,060
-446,109	-14,968	-0,119	0,055
-445,095	-124,102	-0,064	0,007
-444,080	-152,770	0,099	-0,005
-443,065	-140,314	-0,108	0,008
-442,051	-71,048	-0,047	-0,013
-441,036	198,082	-0,016	-0,018
-440,022	-200,000	-0,002	-0,039
-439,007	800,000	0,031	-0,078
-437,992	-200,000	0,008	-0,048
-436,978	-98,151	0,076	-0,014
-435,963	-43,045	0,031	0,011
-434,949	106,483	-0,025	0,021
-433,934	95,164	0,125	-0,104
-432,919	800,000	0,032	-0,083
-431,905	-200,000	-0,001	-0,027
-430,890	-200,000	0,019	-0,066
-429,876	800,000	0,043	-0,134
-428,861	-200,000	0,011	0,064
-427,846	-200,000	0,001	-0,072
-426,832	119,946	0,056	0,051
-425,817	800,000	-0,029	0,059
-424,803	61,316	-0,075	-0,054
-423,788	407,470	0,030	0,047
-422,773	-200,000	-0,014	0,047
-421,759	-11,509	-0,064	0,031
-420,744	57,394	0,146	-0,104
-419,730	61,400	0,059	0,042
-418,715	-200,000	-0,016	0,052
-417,701	-105,632	-0,122	-0,020
-416,686	-200,000	0,019	0,130
-415,671	363,044	0,056	0,082
-414,657	-200,000	-0,017	-0,112
-413,642	276,976	-0,020	0,025
-412,628	-200,000	-0,007	-0,126
-411,613	-200,000	0,000	-0,140
-410,598	-200,000	-0,032	-0,196
-409,584	-200,000	0,004	0,111
-408,569	62,679	0,072	-0,052
-407,555	-72,288	0,021	0,006
-406,540	-200,000	-0,007	0,028
-405,525	-200,000	0,001	0,095
-404,511	-4,952	-0,060	0,030
-403,496	58,169	0,057	-0,040
-402,482	800,000	0,042	0,101
-401,467	166,664	0,089	0,092
-400,452	384,334	0,066	0,099
-399,438	-110,459	0,071	0,011
-398,423	60,436	-0,080	0,057
-397,409	147,858	0,038	-0,037
-396,394	72,526	0,010	-0,007
-395,379	144,823	-0,032	-0,031
-394,365	-46,877	0,039	-0,014
-393,350	-46,930	0,060	-0,021
-392,336	-200,000	0,064	0,214
-391,321	800,000	-0,030	-0,079
-390,306	195,801	-0,096	-0,106
-389,292	-200,000	-0,023	-0,084
-388,277	152,455	-0,066	0,065
-387,263	-91,069	-0,031	0,006
-386,248	308,063	-0,051	0,069
-385,233	-108,271	0,075	-0,012
-384,219	800,000	0,015	-0,035
-383,204	-163,548	-0,133	-0,004
-382,190	-18,186	0,042	-0,019
-381,175	18,102	-0,115	0,066
-380,160	-15,063	0,098	-0,045
-379,146	28,101	0,088	-0,054
-378,131	229,211	0,064	-0,076
-377,117	58,024	-0,071	-0,050
-376,102	376,517	-0,037	-0,056
-375,088	223,963	0,062	0,073
-374,073	800,000	0,010	-0,027
-373,058	91,108	0,032	0,026
-372,044	-71,711	0,029	0,008
-371,029	-163,013	-0,067	0,002
-370,015	-17,607	-0,121	-0,055
-369,000	-200,000	-0,030	-0,132
-367,985	320,956	0,038	-0,053
-366,971	113,106	0,038	0,033
-365,956	598,211	0,054	0,098
-364,942	-200,000	-0,004	0,092
-363,927	800,000	-0,044	0,142
-362,912	-8,267	0,034	0,017
-361,898	-86,565	0,074	-0,016
-360,883	356,127	-0,074	-0,108
-359,869	-200,000	-0,017	-0,084
-358,854	-200,000	-0,016	-0,121
-357,839	-40,781	-0,077	0,029
-356,825	-200,000	0,029	0,156
-355,810	80,241	0,059	-0,046
-354,796	571,043	-0,054	-0,096
-353,781	-200,000	0,003	-0,040
-352,766	108,012	0,082	0,071
-351,752	-200,000	0,034	0,212
-350,737	130,666	0,112	0,104
-349,723	153,548	0,013	-0,013
-348,708	-16,845	0,047	-0,021
-347,693	569,829	0,017	-0,029
-346,679	100,852	-0,090	-0,076
-345,664	800,000	0,022	-0,058
-344,650	-200,000	0,002	0,060
-343,635	420,752	0,033	0,052
-342,620	748,639	-0,027	0,054
-341,606	404,862	-0,063	0,097
-340,591	-86,978	0,078	0,017
-339,577	86,152	-0,019	-0,015
-338,562	-69,046	0,100	-0,028
-337,548	-70,409	0,041	-0,011
-336,533	55,339	-0,218	-0,153
-335,518	-34,893	0,028	0,011
-334,504	268,411	0,004	0,005
-333,489	-200,000	-0,015	-0,088
-332,475	-5,715	-0,052	-0,026
-331,460	216,135	0,043	0,049
-330,445	-81,754	-0,057	0,013
-329,431	171,821	0,076	0,080
-328,416	800,000	-0,034	0,083
-327,402	-42,064	-0,055	0,020
-326,387	800,000	0,085	-0,179
-325,372	-63,908	-0,112	-0,033
-324,358	382,898	0,022	-0,033
-323,343	58,454	0,096	-0,068
-322,329	-200,000	0,025	0,087
-321,314	-106,743	0,043	-0,007
-320,299	-200,000	0,005	0,078
-319,285	280,295	-0,059	-0,076
-318,270	22,889	-0,046	0,027
-317,256	284,758	-0,022	0,029
-316,241	130,626	0,097	-0,091
-315,226	-200,000	-0,027	0,122
-314,212	189,880	-0,040	0,044
-313,197	-130,779	0,150	0,014
-312,183	-200,000	0,011	0,071
-311,168	-200,000	0,021	-0,078
-310,153	800,000	-0,053	-0,150
-309,139	-200,000	0,008	-0,106
-308,124	-5,338	0,057	0,028
-307,110	142,661	0,118	-0,114
-306,095	-200,000	-0,023	0,089
-305,080	-200,000	0,006	0,091
-304,066	479,391	0,102	0,169
-303,051	-200,000	0,009	-0,099
-302,037	800,000	-0,015	-0,044
-301,022	-181,416	-0,120	0,002
-300,008	-200,000	-0,002	-0,053
-298,993	-9,873	0,141	-0,068
-297,978	-50,506	-0,102	0,035
-296,964	800,000	0,076	-0,190
-295,949	-200,000	0,020	-0,085
-294,935	-200,000	-0,019	-0,140
-293,920	-200,000	-0,009	-0,092
-292,905	380,658	0,074	0,110
-291,891	14,466	0,124	-0,070
-290,876	-124,318	-0,083	-0,009
-289,862	-46,340	-0,103	-0,037
-288,847	1,671	-0,025	0,013
-287,832	800,000	0,010	-0,033
-286,818	-200,000	0,010	-0,172
-285,803	-4,161	0,035	0,018
-284,789	132,687	0,091	0,085
-283,774	-3,962	-0,075	-0,038
-282,759	-52,114	-0,069	-0,023
-281,745	-131,107	0,078	0,007
-280,730	58,977	0,009	-0,007
-279,716	800,000	-0,031	-0,071
-278,701	-80,307	-0,060	0,014
-277,686	198,541	-0,086	-0,096
-276,672	-200,000	-0,073	0,239
-275,657	147,490	-0,040	-0,039
-274,643	800,000	-0,046	-0,093
-273,628	83,053	0,017	0,013
-272,613	43,595	-0,091	-0,060
-271,599	-166,305	0,110	0,003
-270,584	-47,800	0,046	-0,016
-269,570	271,358	0,073	0,093
-268,555	-112,754	-0,048	-0,007
-267,540	-200,000	0,004	-0,107
-266,526	577,624	-0,030	0,053
-265,511	139,605	-0,110	-0,105
-264,497	-28,586	0,165	0,068
-263,482	137,024	0,023	-0,022
-262,467	-200,000	-0,004	0,246
-261,453	-200,000	0,016	-0,063
-260,438	-115,584	-0,065	0,009
-259,424	368,857	-0,023	-0,034
-258,409	591,380	0,050	0,090
-257,395	109,163	-0,020	-0,017
-256,380	-200,000	-0,020	0,176
-255,365	112,900	-0,091	0,079
-254,351	-200,000	0,001	-0,033
-253,336	94,230	0,095	0,078
-252,322	-200,000	0,001	-0,071
-251,307	-20,376	0,014	-0,006
-250,292	379,494	-0,067	0,099
-249,278	-25,496	0,128	-0,054
-248,263	-3,702	-0,074	-0,037
-247,249	800,000	0,051	0,114
-246,234	186,422	-0,082	0,089
-245,219	502,035	-0,040	0,067
-244,205	-200,000	-0,011	-0,107
-243,190	504,023	0,043	0,073
-242,176	-200,000	0,010	0,171
-241,161	349,837	-0,013	-0,018
-240,146	274,147	-0,066	0,084
-239,132	-133,855	-0,069	-0,006
-238,117	77,800	0,016	0,013
-237,103	193,195	-0,060	0,065
-236,088	280,668	-0,010	-0,013
-235,073	-23,223	0,131	0,057
-234,059	800,000	0,070	0,166
-233,044	-200,000	0,013	0,064
-232,030	618,234	-0,051	0,093
-231,015	-102,563	0,050	-0,008
-230,000	-200,000	0,006	0,023
-228,986	-150,178	0,074	-0,004
-227,971	800,000	0,039	0,097
-226,957	-25,245	0,134	-0,057
-225,942	-200,000	-0,022	0,093
-224,927	232,374	-0,060	0,072
-223,913	29,708	0,070	0,043
-222,898	316,810	-0,031	0,042
-221,884	-200,000	-0,024	-0,146
-220,869	152,973	-0,064	0,063
-219,855	800,000	-0,035	-0,071
-218,840	116,926	0,082	0,072
-217,825	118,086	-0,094	0,084
-216,811	15,444	-0,057	-0,032
-215,796	-93,386	-0,024	0,005
-214,782	162,086	0,082	-0,083
-213,767	800,000	-0,069	0,153
-212,752	-11,816	0,069	-0,033
-211,738	-200,000	-0,011	-0,153
-210,723	-200,000	-0,011	0,150
-209,709	42,128	0,193	0,126
-208,694	240,929	0,029	-0,035
-207,679	-200,000	0,043	-0,174
-206,665	-200,000	0,015	0,061
-205,650	24,962	0,108	0,064
-204,636	457,684	0,073	-0,117
-203,621	-3,489	-0,009	0,005
-202,606	12,722	-0,224	0,124
-201,592	92,916	-0,169	-0,138
-200,577	-11,119	0,183	-0,087
-199,563	-200,000	-0,016	-0,076
-198,548	-200,000	0,025	0,220
-197,533	800,000	0,059	0,142
-196,519	-33,798	-0,073	0,029
-195,504	-200,000	0,003	-0,009
-194,490	130,576	-0,091	-0,084
-193,475	272,275	0,034	-0,043
-192,460	-200,000	-0,050	0,242
-191,446	-200,000	0,012	0,048
-190,431	-200,000	-0,001	-0,016
-189,417	215,713	0,012	-0,014
-188,402	-67,652	-0,127	-0,036
-187,387	-133,044	-0,134	-0,012
-186,373	15,242	0,007	0,004
-185,358	-200,000	-0,008	0,053
-184,344	127,129	0,057	0,052
-183,329	55,311	0,066	-0,046
-182,315	-200,000	0,006	0,077
-181,300	230,431	-0,079	-0,093
-180,285	-200,000	0,022	-0,089
-179,271	-200,000	-0,029	0,105
-178,256	74,934	0,100	0,076
-177,242	-27,604	0,067	-0,028
-176,227	800,000	0,032	0,090
-175,212	-200,000	0,017	0,071
-174,198	-200,000	-0,008	-0,183
-173,183	271,942	0,068	-0,087
-172,169	593,217	-0,038	0,067
-171,154	-200,000	0,001	-0,020
-170,139	283,020	0,037	0,048
-169,125	-122,648	0,062	0,007
-168,110	210,000	-0,071	0,080
-167,096	29,809	-0,026	0,016
-166,081	-200,000	-0,005	0,095
-165,066	36,207	0,038	-0,024
-164,052	19,360	-0,114	0,066
-163,037	-22,644	0,123	0,053
-162,023	314,289	-0,031	0,042
-161,008	-200,000	0,006	-0,068
-159,993	-200,000	-0,002	-0,083
-158,979	283,643	-0,031	-0,040
-157,964	-86,156	-0,012	0,003
-156,950	543,736	-0,034	-0,058
-155,935	-82,157	0,067	-0,016
-154,920	-200,000	0,044	0,172
-153,906	130,623	-0,083	0,077
-152,891	-128,002	-0,027	0,003
-151,877	-47,264	-0,070	-0,024
-150,862	289,894	-0,083	-0,108
-149,847	-200,000	-0,024	-0,152
-148,833	800,000	-0,037	0,099
-147,818	800,000	0,034	0,073
-146,804	-200,000	-0,031	0,110
-145,789	218,814	0,024	0,027
-144,775	-200,000	0,000	-0,096
-143,760	143,515	-0,103	-0,099
-142,745	800,000	-0,059	-0,130
-141,731	127,547	-0,102	0,093
-140,716	-135,924	0,107	-0,009
-139,702	150,785	-0,047	-0,046
-138,687	9,267	-0,064	-0,035
-137,672	800,000	0,016	-0,048
-136,658	595,837	0,032	-0,057
-135,643	800,000	-0,028	0,087
-134,629	-12,901	0,083	-0,039
-133,614	276,939	0,098	0,125
-132,599	85,724	0,070	-0,055
-131,585	694,826	0,049	-0,093
-130,570	-103,147	-0,034	0,006
-129,556	-101,230	-0,078	-0,014
-128,541	800,000	-0,034	-0,088
-127,526	-42,178	0,010	-0,004
-126,512	-200,000	-0,007	0,032
-125,497	522,298	0,066	0,112
-124,483	-200,000	-0,009	-0,063
-123,468	-200,000	0,008	-0,032
-122,453	800,000	-0,031	-0,071
-121,439	-123,570	-0,118	0,013
-120,424	800,000	-0,045	0,091
