DTS Sentinel unit serial number:	SN410029Multiplexer serial number:	ORYXHardware model number:	OX2-SRSoftware version number:	ORYX F/W v4,00 Oryx Data Collector v3.7.2.0data status	okinstallation	B5 Nyhavnadifferential loss correction	single-endedforward channel	channel 2reverse channel	N/Adate	2023/12/14time	00:37:13forward acquisition time	300,00reverse acquisition time	0,00gamma	499,1914k internal	0,3155k external	0,3155temperature offset calibration	1,0000default loss term (dB/km)	0,3820temperature slope calibration	1,0000multiplexer offset coefficient	1,0000multiplexer slope coefficient	1,0000fibre end	0,00T internal ref (°C)	8,67T ext. ref 1 (°C)	-7,23T ext. ref 2 (°C)	-7,28length (m)	temperature (°C)	Stokes	anti-Stokes-744,400	-132,058	0,258	0,024
-743,385	-77,627	-0,352	-0,089
-742,371	400,493	0,100	0,155
-741,356	-82,165	-0,483	-0,115
-740,342	10,236	0,107	0,060
-739,327	-133,672	-0,595	-0,054
-738,312	37,725	0,206	0,134
-737,298	-42,883	-0,343	-0,128
-736,283	800,000	0,018	-0,047
-735,269	-43,504	-0,215	-0,080
-734,254	62,459	0,228	0,168
-733,239	-85,084	-0,464	-0,106
-732,225	58,722	0,157	0,113
-731,210	-40,722	-0,081	0,031
-730,196	-87,837	-0,046	-0,010
-729,181	-31,768	-0,064	-0,026
-728,167	283,780	-0,105	0,140
-727,152	62,936	-0,046	-0,034
-726,137	129,561	-0,076	0,072
-725,123	57,995	-0,077	-0,056
-724,108	27,874	-0,043	-0,027
-723,094	-200,000	0,014	-0,104
-722,079	-41,378	-0,109	0,041
-721,064	-92,115	-0,044	-0,009
-720,050	85,259	0,058	-0,047
-719,035	-200,000	0,020	0,099
-718,021	-21,706	-0,120	0,054
-717,006	800,000	-0,021	-0,063
-715,991	277,674	0,035	-0,046
-714,977	-47,069	-0,065	-0,023
-713,962	-24,989	0,216	0,094
-712,948	6,874	0,027	0,015
-711,933	545,075	0,064	-0,113
-710,918	222,822	-0,025	-0,030
-709,904	-95,803	-0,033	0,006
-708,889	-200,000	0,025	-0,111
-707,875	7,033	-0,110	0,060
-706,860	391,786	0,027	0,042
-705,845	-110,892	0,196	0,029
-704,831	-117,597	-0,079	0,010
-703,816	109,329	-0,070	0,062
-702,802	-200,000	0,007	-0,046
-701,787	-187,364	-0,243	0,002
-700,772	-118,963	-0,151	-0,019
-699,758	-200,000	0,004	-0,074
-698,743	207,789	0,024	-0,028
-697,729	-166,701	-0,064	0,002
-696,714	708,029	-0,096	-0,188
-695,699	-200,000	0,009	-0,135
-694,685	-72,774	-0,092	0,025
-693,670	34,930	-0,113	0,073
-692,656	37,533	0,121	0,079
-691,641	-195,281	-0,107	-0,001
-690,627	-74,632	0,067	-0,018
-689,612	-0,696	0,111	-0,058
-688,597	-200,000	-0,012	0,069
-687,583	63,843	0,055	0,041
-686,568	-200,000	0,000	0,146
-685,554	363,693	-0,059	-0,087
-684,539	366,287	-0,030	-0,044
-683,524	-108,819	-0,133	0,021
-682,510	502,057	-0,008	-0,014
-681,495	-71,657	-0,044	-0,012
-680,481	445,394	-0,030	-0,049
-679,466	-55,298	-0,132	-0,043
-678,451	-26,335	0,078	0,034
-677,437	-200,000	0,012	-0,134
-676,422	-200,000	0,023	0,090
-675,408	196,434	-0,140	0,157
-674,393	-200,000	0,005	-0,042
-673,378	7,633	-0,136	-0,075
-672,364	-44,165	-0,157	-0,058
-671,349	-200,000	0,007	0,147
-670,335	800,000	0,026	0,054
-669,320	-138,376	0,049	-0,004
-668,305	-126,958	-0,105	-0,011
-667,291	-200,000	0,007	0,098
-666,276	-48,891	-0,251	-0,088
-665,262	-200,000	0,002	-0,158
-664,247	-200,000	-0,008	-0,233
-663,232	154,373	-0,032	-0,032
-662,218	-200,000	-0,004	0,058
-661,203	-200,000	0,006	-0,054
-660,189	-200,000	0,042	0,172
-659,174	-200,000	-0,042	-0,150
-658,159	-200,000	0,006	0,110
-657,145	270,155	-0,074	-0,096
-656,130	800,000	-0,055	-0,141
-655,116	22,431	0,143	-0,086
-654,101	148,207	-0,093	-0,092
-653,086	-85,070	-0,118	0,027
-652,072	654,162	0,069	-0,130
-651,057	137,796	-0,072	0,070
-650,043	414,133	0,017	-0,026
-649,028	-200,000	-0,007	0,109
-648,014	31,611	0,084	-0,053
-646,999	800,000	-0,028	0,066
-645,984	-200,000	-0,012	-0,048
-644,970	-58,330	-0,067	0,021
-643,955	-200,000	-0,019	0,084
-642,941	-200,000	-0,059	0,000
-641,926	-45,566	-0,060	0,022
-640,911	99,196	0,077	0,066
-639,897	637,573	0,043	0,081
-638,882	589,604	0,040	0,074
-637,868	800,000	-0,044	-0,096
-636,853	114,276	-0,145	0,129
-635,838	-45,463	-0,117	-0,042
-634,824	-79,644	-0,127	0,031
-633,809	191,234	-0,015	0,016
-632,795	150,480	-0,062	-0,062
-631,780	22,428	-0,139	-0,083
-630,765	-200,000	-0,072	-0,000
-629,751	184,007	-0,089	-0,097
-628,736	84,487	0,101	-0,081
-627,722	177,278	0,062	-0,066
-626,707	90,943	0,007	-0,006
-625,692	-200,000	0,018	0,079
-624,678	344,809	-0,078	0,113
-623,663	-15,585	0,008	-0,004
-622,649	-5,581	-0,033	0,016
-621,634	-18,507	0,031	-0,014
-620,619	-200,000	-0,019	-0,079
-619,605	800,000	-0,045	-0,142
-618,590	292,950	0,033	0,044
-617,576	214,255	0,037	0,043
-616,561	312,440	0,065	-0,090
-615,546	-99,953	-0,074	-0,013
-614,532	-200,000	0,005	-0,064
-613,517	-200,000	0,015	0,105
-612,503	-163,872	0,062	-0,002
-611,488	-200,000	0,016	-0,121
-610,474	265,098	0,023	-0,030
-609,459	-78,592	-0,092	0,023
-608,444	63,044	0,021	0,016
-607,430	-68,646	-0,175	-0,049
-606,415	21,352	-0,052	-0,031
-605,401	-200,000	-0,022	-0,191
-604,386	800,000	-0,031	0,072
-603,371	-86,180	0,045	0,010
-602,357	10,249	0,111	0,062
-601,342	282,667	-0,078	0,103
-600,328	-200,000	-0,009	-0,036
-599,313	20,483	0,115	-0,068
-598,298	-48,314	-0,044	-0,016
-597,284	-200,000	0,000	-0,057
-596,269	446,500	0,024	0,038
-595,255	-200,000	0,001	0,111
-594,240	-152,846	-0,212	-0,011
-593,225	310,659	-0,030	0,041
-592,211	-115,666	0,045	0,006
-591,196	-200,000	0,034	0,000
-590,182	-121,761	0,117	-0,014
-589,167	-163,900	0,091	0,003
-588,152	329,123	0,064	-0,091
-587,138	624,439	0,033	-0,061
-586,123	-69,049	0,115	-0,032
-585,109	-128,814	-0,081	0,008
-584,094	64,132	0,124	-0,091
-583,079	-64,503	-0,109	-0,032
-582,065	-200,000	0,073	0,000
-581,050	-130,486	-0,069	-0,007
-580,036	204,612	-0,076	-0,086
-579,021	800,000	-0,011	-0,026
-578,006	-200,000	0,021	-0,121
-576,992	-200,000	0,022	0,097
-575,977	-53,340	0,060	-0,020
-574,963	179,415	0,011	-0,012
-573,948	-200,000	0,001	-0,004
-572,934	-200,000	-0,002	0,028
-571,919	-119,710	-0,033	-0,004
-570,904	-40,315	-0,122	0,046
-569,890	-75,309	-0,178	0,046
-568,875	-21,399	0,088	-0,039
-567,861	800,000	-0,022	0,068
-566,846	-200,000	-0,055	0,292
-565,831	-39,855	0,017	-0,006
-564,817	800,000	0,023	0,063
-563,802	-200,000	-0,005	-0,178
-562,788	-200,000	-0,071	-0,000
-561,773	-200,000	0,007	0,184
-560,758	-79,609	-0,071	-0,017
-559,744	698,825	0,095	0,183
-558,729	104,825	0,071	-0,061
-557,715	-62,143	0,116	0,035
-556,700	-102,082	-0,093	-0,016
-555,685	27,770	-0,080	-0,049
-554,671	45,440	0,019	-0,013
-553,656	43,570	0,099	-0,066
-552,642	-106,600	0,082	0,013
-551,627	-200,000	-0,004	-0,033
-550,612	-72,534	-0,093	0,025
-549,598	412,213	-0,045	-0,071
-548,583	-88,859	0,060	-0,013
-547,569	12,099	0,046	-0,026
-546,554	-200,000	-0,014	0,078
-545,539	800,000	-0,021	0,048
-544,525	-81,481	0,073	-0,018
-543,510	-46,781	-0,077	0,027
-542,496	800,000	-0,030	-0,073
-541,481	328,495	-0,086	-0,121
-540,466	386,300	-0,035	0,054
-539,452	-14,896	0,009	0,004
-538,437	-117,750	0,075	-0,010
-537,423	0,504	0,027	0,014
-536,408	-48,214	0,099	0,035
-535,393	-200,000	0,036	-0,229
-534,379	404,887	0,055	-0,085
-533,364	-138,210	-0,129	0,010
-532,350	-200,000	-0,024	0,116
-531,335	-140,293	-0,034	0,003
-530,321	58,105	-0,040	0,029
-529,306	-200,000	-0,000	0,019
-528,291	-131,942	-0,053	-0,005
-527,277	-200,000	-0,000	-0,023
-526,262	-200,000	-0,012	0,058
-525,248	-119,995	0,075	0,009
-524,233	-124,116	0,182	0,021
-523,218	-27,726	-0,093	-0,039
-522,204	88,398	0,033	-0,026
-521,189	-200,000	-0,016	-0,084
-520,175	133,495	-0,085	-0,080
-519,160	-48,247	-0,039	0,014
-518,145	-200,000	0,006	0,081
-517,131	-200,000	-0,002	0,165
-516,116	800,000	-0,040	0,083
-515,102	49,028	-0,078	-0,054
-514,087	-6,626	-0,092	-0,045
-513,072	8,189	-0,043	0,024
-512,058	236,375	-0,082	-0,099
-511,043	-76,776	0,043	-0,011
-510,029	46,072	0,121	0,082
-509,014	-9,003	-0,145	0,071
-507,999	-200,000	-0,002	-0,036
-506,985	-200,000	0,002	-0,087
-505,970	-135,193	-0,189	0,016
-504,956	3,241	0,048	-0,025
-503,941	800,000	-0,030	0,088
-502,926	238,060	-0,064	-0,078
-501,912	347,169	0,044	0,063
-500,897	14,833	-0,109	0,062
-499,883	324,247	0,047	-0,066
-498,868	65,496	-0,084	-0,062
-497,853	-200,000	0,007	-0,029
-496,839	-168,339	0,144	0,004
-495,824	160,862	-0,019	-0,020
-494,810	178,584	0,069	0,074
-493,795	-200,000	0,013	0,062
-492,781	112,635	-0,072	-0,064
-491,766	-62,707	-0,033	0,010
-490,751	-10,969	-0,043	-0,021
-489,737	72,158	0,048	-0,036
-488,722	800,000	-0,047	0,112
-487,708	131,319	0,051	0,048
-486,693	61,363	-0,075	-0,054
-485,678	-43,586	0,139	-0,051
-484,664	28,708	0,041	0,025
-483,649	36,341	0,045	-0,029
-482,635	-200,000	0,013	0,161
-481,620	-24,194	0,039	0,017
-480,605	374,685	0,033	0,049
-479,591	800,000	-0,005	-0,012
-478,576	-3,992	0,019	0,010
-477,562	-200,000	-0,006	-0,077
-476,547	165,505	0,036	0,037
-475,532	150,002	0,046	0,045
-474,518	65,133	-0,027	0,020
-473,503	-51,933	0,025	0,009
-472,489	-200,000	0,022	0,133
-471,474	95,320	-0,056	0,047
-470,459	-200,000	-0,023	0,112
-469,445	800,000	-0,019	-0,041
-468,430	-200,000	0,006	-0,180
-467,416	-151,920	-0,038	0,002
-466,401	-200,000	0,054	0,224
-465,386	66,351	-0,054	0,040
-464,372	20,092	0,037	-0,022
-463,357	-56,294	-0,092	-0,030
-462,343	-25,605	-0,102	0,044
-461,328	-100,178	0,005	-0,001
-460,313	-200,000	0,011	-0,065
-459,299	12,326	0,067	0,038
-458,284	326,812	0,026	0,036
-457,270	-76,669	-0,060	-0,015
-456,255	-103,805	0,078	-0,013
-455,241	-91,602	0,082	0,017
-454,226	-200,000	-0,011	-0,038
-453,211	294,554	-0,052	0,070
-452,197	221,133	-0,118	0,138
-451,182	-200,000	-0,025	0,221
-450,168	800,000	0,010	-0,029
-449,153	237,500	0,034	-0,042
-448,138	-200,000	0,001	0,087
-447,124	-41,891	-0,146	-0,054
-446,109	800,000	0,015	-0,039
-445,095	-200,000	-0,021	0,080
-444,080	417,608	0,013	-0,021
-443,065	132,563	0,069	0,065
-442,051	-166,035	-0,197	0,006
-441,036	-200,000	-0,001	-0,004
-440,022	23,165	-0,087	0,052
-439,007	33,323	-0,035	-0,022
-437,992	-149,799	0,091	-0,005
-436,978	-64,099	-0,115	-0,034
-435,963	-1,822	0,095	-0,049
-434,949	800,000	0,022	-0,065
-433,934	-20,822	0,042	0,019
-432,919	272,838	0,094	0,121
-431,905	-200,000	0,012	-0,057
-430,890	800,000	-0,008	-0,024
-429,876	-98,232	-0,011	0,002
-428,861	415,490	0,038	-0,059
-427,846	800,000	0,046	-0,124
-426,832	-200,000	-0,009	0,031
-425,817	-200,000	-0,014	-0,198
-424,803	-18,818	-0,073	-0,033
-423,788	-115,940	-0,119	0,016
-422,773	800,000	0,034	0,096
-421,759	24,736	0,003	-0,002
-420,744	-200,000	0,007	-0,047
-419,730	-55,339	-0,125	-0,041
-418,715	97,842	-0,118	-0,099
-417,701	800,000	-0,011	-0,031
-416,686	-0,715	0,112	0,058
-415,671	-200,000	0,016	-0,069
-414,657	800,000	0,048	0,154
-413,642	-200,000	0,029	0,141
-412,628	44,638	-0,045	-0,030
-411,613	133,322	0,073	-0,069
-410,598	54,129	0,046	-0,032
-409,584	22,354	-0,077	0,046
-408,569	69,329	0,076	0,057
-407,555	102,736	0,044	0,037
-406,540	73,658	0,009	0,007
-405,525	85,948	-0,048	-0,039
-404,511	9,888	-0,121	-0,067
-403,496	31,852	0,034	-0,021
-402,482	679,893	0,015	0,028
-401,467	-200,000	-0,012	0,093
-400,452	300,215	0,092	-0,124
-399,438	-53,798	-0,081	0,027
-398,423	-13,290	0,096	-0,045
-397,409	34,056	0,075	0,047
-396,394	800,000	-0,022	0,062
-395,379	-200,000	-0,016	-0,179
-394,365	117,303	0,086	0,077
-393,350	-200,000	-0,035	0,171
-392,336	-45,812	0,139	-0,050
-391,321	-200,000	-0,014	0,053
-390,306	365,306	0,028	-0,041
-389,292	14,093	0,100	-0,057
-388,277	16,301	0,040	-0,023
-387,263	115,834	0,084	-0,075
-386,248	800,000	0,072	0,163
-385,233	216,408	0,028	-0,033
-384,219	189,344	0,023	-0,025
-383,204	800,000	-0,021	-0,045
-382,190	-158,838	-0,012	-0,000
-381,175	-26,382	0,026	0,011
-380,160	-200,000	-0,008	-0,040
-379,146	363,820	-0,051	-0,074
-378,131	220,817	0,051	0,060
-377,117	124,894	-0,057	0,053
-376,102	-178,090	-0,150	0,003
-375,088	-200,000	0,002	-0,066
-374,073	800,000	0,049	-0,138
-373,058	-109,299	-0,174	-0,027
-372,044	25,572	0,232	0,140
-371,029	706,273	0,062	-0,120
-370,015	12,795	0,072	-0,040
-369,000	-87,568	0,062	0,014
-367,985	-200,000	0,001	-0,091
-366,971	-200,000	-0,013	-0,072
-365,956	-200,000	-0,012	-0,103
-364,942	-65,466	0,134	0,039
-363,927	-63,308	0,103	-0,031
-362,912	-200,000	0,015	0,064
-361,898	-99,934	-0,108	-0,019
-360,883	2,047	-0,059	-0,031
-359,869	-33,559	0,113	-0,045
-358,854	706,383	-0,019	0,037
-357,839	251,892	0,072	0,090
-356,825	470,258	-0,073	-0,120
-355,810	50,946	0,059	-0,040
-354,796	269,282	0,103	-0,132
-353,781	-95,922	-0,119	0,023
-352,766	-124,709	-0,086	0,010
-351,752	177,308	0,090	0,095
-350,737	800,000	-0,028	0,068
-349,723	216,733	0,048	0,056
-348,708	800,000	-0,037	0,087
-347,693	-97,303	-0,108	0,020
-346,679	-132,355	-0,063	0,006
-345,664	-161,473	0,140	-0,005
-344,650	169,438	0,076	0,079
-343,635	-200,000	0,032	0,151
-342,620	774,243	-0,027	-0,054
-341,606	-72,226	-0,053	0,014
-340,591	54,058	0,098	0,068
-339,577	800,000	-0,035	-0,070
-338,562	-200,000	0,009	0,080
-337,548	-56,635	-0,094	0,030
-336,533	-98,727	-0,094	-0,017
-335,518	-71,550	-0,100	-0,027
-334,504	-200,000	0,000	0,059
-333,489	-149,090	0,069	-0,004
-332,475	114,666	0,110	-0,098
-331,460	-200,000	0,016	-0,096
-330,445	223,326	0,078	-0,091
-329,431	800,000	-0,038	0,121
-328,416	-74,558	0,184	0,048
-327,402	-45,429	0,087	-0,031
-326,387	40,731	-0,021	-0,013
-325,372	-192,650	-0,106	0,001
-324,358	81,509	0,099	0,077
-323,343	-145,255	0,094	0,006
-322,329	-27,960	0,035	0,015
-321,314	50,715	-0,058	-0,040
-320,299	15,687	0,130	0,074
-319,285	-108,613	0,099	-0,015
-318,270	757,961	-0,062	0,123
-317,256	-38,411	0,097	0,037
-316,241	-90,202	-0,122	0,026
-315,226	10,869	-0,028	0,015
-314,212	426,102	0,020	0,031
-313,197	-200,000	0,003	-0,049
-312,183	-200,000	0,014	-0,060
-311,168	-200,000	-0,027	-0,095
-310,153	86,177	-0,074	-0,059
-309,139	-200,000	0,005	-0,040
-308,124	634,507	-0,029	-0,053
-307,110	256,755	-0,095	-0,118
-306,095	-124,572	0,075	-0,008
-305,080	-23,039	-0,098	-0,043
-304,066	-200,000	-0,004	0,072
-303,051	313,627	-0,055	0,075
-302,037	-78,011	0,128	-0,032
-301,022	-200,000	-0,010	0,052
-300,008	409,993	0,017	-0,027
-298,993	-87,127	-0,104	-0,023
-297,978	48,937	-0,018	0,012
-296,964	251,755	0,057	0,070
-295,949	-174,854	-0,050	-0,001
-294,935	108,654	-0,036	-0,031
-293,920	-200,000	-0,023	0,118
-292,905	51,039	0,093	0,064
-291,891	326,241	0,070	-0,097
-290,876	-154,708	-0,036	-0,002
-289,862	-16,206	0,076	-0,035
-288,847	800,000	-0,039	0,084
-287,832	-200,000	0,011	0,102
-286,818	575,648	0,077	-0,137
-285,803	74,531	0,068	0,052
-284,789	800,000	-0,020	0,047
-283,774	232,387	-0,078	0,093
-282,759	-200,000	0,005	-0,055
-281,745	637,380	-0,072	-0,133
-280,730	800,000	-0,042	-0,094
-279,716	69,676	-0,065	0,048
-278,701	89,903	0,090	0,073
-277,686	-12,594	-0,020	-0,009
-276,672	140,957	0,048	-0,046
-275,657	604,380	0,017	-0,031
-274,643	456,231	-0,052	-0,084
-273,628	-200,000	-0,001	0,049
-272,613	297,899	0,099	-0,132
-271,599	-80,442	-0,099	0,024
-270,584	-200,000	-0,033	0,169
-269,570	331,620	-0,019	0,027
-268,555	-200,000	-0,026	-0,188
-267,540	-50,525	0,075	-0,026
-266,526	-200,000	0,063	-0,256
-265,511	-129,107	-0,203	0,020
-264,497	59,915	0,090	-0,064
-263,482	-30,716	-0,019	0,008
-262,467	800,000	-0,010	0,031
-261,453	67,733	0,023	-0,017
-260,438	-200,000	0,097	0,000
-259,424	-200,000	-0,004	0,041
-258,409	-200,000	-0,026	0,168
-257,395	-150,359	0,043	0,002
-256,380	-86,851	-0,072	0,016
-255,365	211,296	0,026	-0,029
-254,351	800,000	0,049	-0,122
-253,336	800,000	-0,035	0,104
-252,322	-32,023	-0,147	-0,059
-251,307	-38,134	-0,013	0,005
-250,292	14,069	0,088	0,050
-249,278	113,470	-0,078	-0,069
-248,263	-106,167	-0,062	-0,010
-247,249	-20,618	-0,028	-0,012
-246,234	173,054	-0,056	0,058
-245,219	47,740	0,068	-0,046
-244,205	-200,000	0,020	0,079
-243,190	-200,000	-0,039	0,206
-242,176	-200,000	0,002	-0,062
-241,161	186,771	0,044	0,047
-240,146	563,134	0,057	0,101
-239,132	800,000	0,049	-0,105
-238,117	-146,100	-0,016	0,001
-237,103	800,000	0,015	0,031
-236,088	-107,071	0,140	0,022
-235,073	-5,472	-0,101	0,050
-234,059	502,806	-0,022	-0,037
-233,044	-144,247	0,070	-0,005
-232,030	-200,000	-0,001	-0,028
-231,015	-68,159	-0,052	0,015
-230,000	-81,343	-0,060	0,014
-228,986	582,400	0,051	-0,092
-227,971	800,000	0,028	0,067
-226,957	-137,116	0,111	-0,009
-225,942	-200,000	0,010	0,117
-224,927	800,000	0,017	-0,047
-223,913	297,468	-0,057	0,075
-222,898	149,997	0,025	-0,025
-221,884	-106,233	0,086	0,014
-220,869	457,975	-0,018	0,029
-219,855	-200,000	0,011	0,066
-218,840	-100,680	0,089	-0,016
-217,825	69,626	0,046	-0,034
-216,811	-0,734	-0,073	-0,037
-215,796	-56,612	-0,054	0,017
-214,782	97,345	0,014	-0,011
-213,767	-16,889	-0,074	0,034
-212,752	-200,000	0,007	0,089
-211,738	75,028	-0,028	-0,021
-210,723	800,000	0,035	-0,090
-209,709	800,000	-0,021	-0,051
-208,694	95,578	0,046	-0,038
-207,679	-12,186	-0,153	0,072
-206,665	-140,791	0,047	0,003
-205,650	-200,000	-0,012	0,075
-204,636	195,116	-0,054	0,060
-203,621	-119,666	0,167	0,021
-202,606	-200,000	0,002	-0,049
-201,592	-42,371	-0,114	-0,042
-200,577	-113,099	0,040	0,006
-199,563	25,688	0,063	-0,038
-198,548	261,355	0,091	0,114
-197,533	800,000	0,036	-0,105
-196,519	141,685	0,036	-0,035
-195,504	-200,000	-0,037	0,141
-194,490	-200,000	-0,014	-0,101
-193,475	15,689	-0,065	-0,037
-192,460	450,437	0,080	-0,128
-191,446	763,295	0,085	-0,167
-190,431	343,936	-0,027	0,039
-189,417	-109,295	0,109	-0,016
-188,402	182,431	-0,040	-0,042
-187,387	182,629	0,066	-0,070
-186,373	234,472	-0,072	-0,086
-185,358	-36,103	0,156	0,061
-184,344	-200,000	-0,067	0,256
-183,329	-97,045	0,122	-0,023
-182,315	-69,706	0,073	0,020
-181,300	-32,394	-0,128	-0,051
-180,285	19,246	0,118	-0,068
-179,271	-129,705	-0,128	0,013
-178,256	-187,224	0,064	0,001
-177,242	254,392	-0,091	0,113
-176,227	800,000	0,024	0,074
-175,212	3,852	-0,060	-0,032
-174,198	-121,794	-0,113	0,013
-173,183	800,000	-0,047	-0,147
-172,169	-200,000	-0,026	-0,084
-171,154	100,851	-0,040	0,034
-170,139	-69,142	0,103	0,028
-169,125	520,207	0,026	-0,044
-168,110	340,110	0,056	0,079
-167,096	-0,728	-0,056	0,029
-166,081	-42,513	-0,065	0,024
-165,066	771,214	0,022	0,043
-164,052	-200,000	0,009	-0,119
-163,037	800,000	-0,053	-0,144
-162,023	69,891	0,075	-0,055
-161,008	-100,019	0,024	-0,004
-159,993	229,400	0,032	-0,038
-158,979	-200,000	-0,007	-0,083
-157,964	-101,530	-0,095	0,016
-156,950	-200,000	-0,020	0,123
-155,935	377,842	0,075	-0,112
-154,920	-32,730	-0,092	0,037
-153,906	-200,000	0,006	0,030
-152,891	455,996	0,041	0,066
-151,877	-12,104	0,044	0,021
-150,862	-200,000	0,004	-0,121
-149,847	-197,834	-0,033	-0,000
-148,833	138,283	0,033	-0,031
-147,818	800,000	-0,042	0,094
-146,804	-200,000	0,046	-0,155
-145,789	127,417	0,099	-0,090
-144,775	31,014	-0,090	-0,055
-143,760	-83,981	-0,167	-0,038
-142,745	-200,000	-0,027	-0,190
-141,731	567,307	0,067	-0,117
-140,716	-200,000	0,009	-0,072
-139,702	-19,821	-0,021	0,009
-138,687	42,335	0,089	-0,058
-137,672	422,094	-0,082	-0,128
-136,658	-124,547	-0,118	0,013
-135,643	446,418	-0,055	-0,088
-134,629	359,334	0,042	-0,060
-133,614	800,000	0,041	-0,088
-132,599	-117,230	0,096	-0,012
-131,585	206,599	-0,009	-0,010
-130,570	627,643	-0,026	-0,048
-129,556	14,414	-0,042	-0,024
-128,541	-115,519	-0,069	-0,009
-127,526	-95,362	0,054	0,010
-126,512	-200,000	-0,005	0,039
-125,497	-200,000	0,023	0,083
-124,483	800,000	0,007	0,019
-123,468	-15,091	-0,068	-0,031
-122,453	264,139	-0,013	-0,016
-121,439	242,792	-0,094	-0,114
-120,424	-200,000	0,107	0,000
-119,410	116,168	0,069	0,061
