DTS Sentinel unit serial number:	SN410029Multiplexer serial number:	ORYXHardware model number:	OX2-SRSoftware version number:	ORYX F/W v4,00 Oryx Data Collector v3.7.2.0data status	okinstallation	B5 Nyhavnadifferential loss correction	single-endedforward channel	channel 2reverse channel	N/Adate	2023/12/13time	13:32:13forward acquisition time	300,00reverse acquisition time	0,00gamma	499,1914k internal	0,3161k external	0,3161temperature offset calibration	1,0000default loss term (dB/km)	0,3820temperature slope calibration	1,0000multiplexer offset coefficient	1,0000multiplexer slope coefficient	1,0000fibre end	0,00T internal ref (°C)	14,63T ext. ref 1 (°C)	-1,22T ext. ref 2 (°C)	-1,49length (m)	temperature (°C)	Stokes	anti-Stokes-744,400	-41,349	0,166	0,063
-743,385	-64,042	-0,204	0,061
-742,371	673,335	0,040	0,077
-741,356	-18,414	-0,240	0,110
-740,342	81,073	0,065	0,051
-739,327	-111,781	-0,355	-0,052
-738,312	76,908	0,098	0,077
-737,298	-110,775	-0,196	-0,030
-736,283	-152,518	0,163	0,008
-735,269	-153,791	-0,175	-0,009
-734,254	-155,942	0,066	0,003
-733,239	-132,957	-0,445	-0,041
-732,225	799,943	0,104	0,212
-731,210	-200,000	0,039	0,000
-730,196	800,000	0,036	-0,101
-729,181	-200,000	-0,014	-0,187
-728,167	-144,479	-0,078	-0,005
-727,152	33,809	0,038	-0,025
-726,137	800,000	-0,011	-0,022
-725,123	394,001	-0,035	-0,053
-724,108	245,163	0,040	-0,050
-723,094	148,758	-0,164	-0,163
-722,079	-200,000	0,004	-0,044
-721,064	-31,596	-0,061	-0,025
-720,050	-200,000	-0,011	-0,079
-719,035	267,913	-0,100	0,129
-718,021	178,131	-0,030	0,032
-717,006	203,608	-0,083	-0,095
-715,991	-82,163	-0,105	-0,025
-714,977	-84,995	-0,079	-0,018
-713,962	383,947	-0,017	-0,026
-712,948	146,680	0,058	0,057
-711,933	104,666	-0,029	0,025
-710,918	195,294	-0,053	-0,059
-709,904	25,798	-0,030	0,019
-708,889	669,236	-0,042	-0,081
-707,875	196,337	-0,063	-0,071
-706,860	800,000	0,025	0,073
-705,845	116,925	0,082	0,074
-704,831	-200,000	-0,003	-0,079
-703,816	-200,000	-0,026	-0,090
-702,802	144,028	-0,079	0,077
-701,787	-137,360	-0,111	-0,009
-700,772	-104,136	-0,096	-0,016
-699,758	398,719	-0,021	-0,032
-698,743	-200,000	-0,000	0,018
-697,729	291,573	0,045	0,061
-696,714	-200,000	0,005	-0,068
-695,699	-200,000	-0,006	0,025
-694,685	79,763	-0,080	-0,063
-693,670	-161,799	-0,157	0,006
-692,656	47,231	0,058	-0,039
-691,641	-42,516	-0,096	0,036
-690,627	-116,013	0,101	-0,014
-689,612	-200,000	-0,025	-0,082
-688,597	-17,685	-0,019	0,009
-687,583	800,000	-0,066	-0,184
-686,568	-200,000	-0,021	-0,127
-685,554	31,312	0,071	-0,045
-684,539	-200,000	0,001	0,052
-683,524	-109,434	0,010	-0,001
-682,510	800,000	-0,029	-0,068
-681,495	-136,956	-0,074	0,006
-680,481	84,778	0,120	0,097
-679,466	-200,000	-0,027	0,089
-678,451	800,000	0,034	-0,079
-677,437	-200,000	0,013	-0,105
-676,422	64,989	0,020	0,015
-675,408	-141,228	-0,079	-0,006
-674,393	11,307	0,045	0,025
-673,378	-200,000	-0,007	-0,046
-672,364	20,836	-0,088	-0,052
-671,349	-164,455	0,062	-0,002
-670,335	200,322	-0,146	0,165
-669,320	19,579	0,065	0,038
-668,305	-200,000	-0,005	-0,066
-667,291	-34,203	-0,018	-0,007
-666,276	-158,703	-0,153	0,006
-665,262	560,560	0,024	-0,043
-664,247	22,235	0,084	0,050
-663,232	800,000	-0,072	-0,171
-662,218	-78,907	0,109	0,027
-661,203	-200,000	0,022	-0,098
-660,189	800,000	-0,048	0,142
-659,174	-40,972	-0,009	-0,003
-658,159	-17,481	-0,143	0,066
-657,145	-68,416	0,077	0,022
-656,130	73,641	0,102	0,079
-655,116	-42,347	-0,089	-0,033
-654,101	-200,000	0,006	0,105
-653,086	-200,000	-0,033	0,125
-652,072	-200,000	-0,023	-0,079
-651,057	13,934	-0,112	-0,064
-650,043	470,464	0,019	0,031
-649,028	-115,540	0,010	-0,001
-648,014	-171,916	0,047	-0,001
-646,999	-100,855	0,024	-0,004
-645,984	-92,137	0,133	-0,027
-644,970	-191,480	0,056	-0,000
-643,955	-200,000	0,001	0,028
-642,941	-17,933	-0,116	-0,053
-641,926	61,842	0,044	0,032
-640,911	92,152	-0,032	-0,027
-639,897	-102,808	0,160	0,028
-638,882	-21,499	-0,185	0,082
-637,868	369,475	0,036	-0,054
-636,853	127,896	-0,040	-0,037
-635,838	-200,000	-0,011	0,128
-634,824	-200,000	-0,002	0,064
-633,809	-200,000	-0,015	0,068
-632,795	-200,000	-0,007	-0,047
-631,780	-200,000	-0,003	0,076
-630,765	33,716	0,034	-0,021
-629,751	229,144	-0,123	-0,148
-628,736	-8,942	-0,037	-0,018
-627,722	31,723	-0,058	-0,037
-626,707	177,977	-0,083	-0,089
-625,692	-113,136	-0,046	-0,007
-624,678	-200,000	-0,006	-0,152
-623,663	99,893	0,097	-0,082
-622,649	187,267	0,030	0,033
-621,634	-200,000	0,008	-0,095
-620,619	800,000	-0,058	0,150
-619,605	-25,715	-0,123	-0,053
-618,590	-30,825	-0,104	-0,043
-617,576	-200,000	-0,009	0,144
-616,561	-149,647	-0,128	0,007
-615,546	-126,845	-0,087	-0,009
-614,532	800,000	-0,044	-0,137
-613,517	-36,974	0,060	0,023
-612,503	-21,058	-0,042	0,019
-611,488	53,849	-0,031	0,022
-610,474	461,522	-0,048	0,079
-609,459	-26,102	0,133	0,057
-608,444	-200,000	-0,008	0,031
-607,430	36,461	0,015	0,010
-606,415	60,744	0,060	-0,043
-605,401	-200,000	-0,001	-0,049
-604,386	-23,525	-0,053	-0,023
-603,371	-133,265	-0,167	0,015
-602,357	-114,564	-0,085	0,012
-601,342	178,705	0,095	-0,102
-600,328	207,503	-0,107	-0,122
-599,313	60,172	-0,125	-0,091
-598,298	259,787	-0,033	-0,042
-597,284	232,774	-0,036	0,044
-596,269	187,614	0,017	0,019
-595,255	257,777	0,043	-0,054
-594,240	71,540	0,059	0,045
-593,225	77,754	-0,042	0,033
-592,211	-29,362	-0,114	-0,047
-591,196	161,088	-0,055	0,057
-590,182	-158,476	-0,077	-0,003
-589,167	-16,587	0,108	0,050
-588,152	-116,297	-0,065	0,009
-587,138	-48,665	-0,083	0,029
-586,123	515,787	0,039	0,066
-585,109	-163,005	-0,080	0,003
-584,094	203,601	-0,037	0,042
-583,079	361,085	-0,013	-0,018
-582,065	-136,688	-0,181	0,015
-581,050	-97,723	-0,108	-0,020
-580,036	289,223	0,053	-0,070
-579,021	51,513	-0,145	0,101
-578,006	-101,649	0,098	0,017
-576,992	-200,000	-0,017	0,159
-575,977	800,000	-0,008	-0,019
-574,963	26,563	-0,075	0,046
-573,948	467,429	-0,053	0,087
-572,934	-200,000	-0,019	-0,072
-571,919	74,575	0,016	0,013
-570,904	-106,578	0,021	0,003
-569,890	-50,845	0,019	0,007
-568,875	800,000	0,043	0,108
-567,861	-200,000	-0,001	0,115
-566,846	137,665	-0,040	0,039
-565,831	55,336	-0,125	0,088
-564,817	46,565	0,059	0,040
-563,802	-200,000	0,025	-0,240
-562,788	142,170	-0,047	0,045
-561,773	-200,000	0,014	-0,182
-560,758	800,000	0,042	0,134
-559,744	-200,000	-0,006	0,187
-558,729	-139,208	0,033	0,003
-557,715	-179,700	-0,072	0,001
-556,700	259,289	0,042	-0,054
-555,685	-74,537	0,174	0,045
-554,671	-200,000	-0,025	0,151
-553,656	243,791	-0,024	0,029
-552,642	-200,000	0,036	0,189
-551,627	-200,000	-0,012	0,063
-550,612	-19,562	-0,057	0,026
-549,598	190,920	-0,076	-0,084
-548,583	-200,000	0,014	-0,084
-547,569	70,132	0,107	-0,081
-546,554	650,884	-0,031	0,058
-545,539	-200,000	0,027	0,091
-544,525	113,950	0,052	-0,046
-543,510	-107,697	0,123	0,019
-542,496	166,044	0,085	-0,088
-541,481	800,000	-0,067	-0,153
-540,466	85,342	-0,104	-0,083
-539,452	-47,318	0,134	-0,047
-538,437	-25,245	-0,044	0,019
-537,423	297,074	0,134	-0,180
-536,408	-101,952	0,076	-0,013
-535,393	82,855	0,047	0,037
-534,379	-200,000	-0,009	-0,031
-533,364	298,798	0,018	-0,024
-532,350	800,000	0,015	0,032
-531,335	-15,558	0,038	0,017
-530,321	-194,001	0,105	0,001
-529,306	20,031	0,103	-0,060
-528,291	-200,000	-0,003	-0,095
-527,277	-200,000	-0,033	-0,165
-526,262	-200,000	0,012	-0,097
-525,248	163,322	0,033	-0,034
-524,233	-53,650	0,073	0,024
-523,218	-153,715	-0,067	-0,003
-522,204	-200,000	0,014	0,053
-521,189	60,633	-0,089	0,064
-520,175	85,140	-0,070	0,056
-519,160	102,151	-0,011	-0,009
-518,145	249,185	-0,034	0,042
-517,131	800,000	0,003	-0,008
-516,116	773,185	0,056	-0,112
-515,102	-200,000	-0,027	0,145
-514,087	-37,654	0,087	-0,034
-513,072	-178,929	0,032	-0,001
-512,058	97,122	-0,062	-0,052
-511,043	665,988	-0,065	0,124
-510,029	-113,476	0,120	0,017
-509,014	-200,000	-0,006	0,091
-507,999	146,872	0,070	0,069
-506,985	43,663	-0,075	-0,050
-505,970	-97,681	-0,118	-0,022
-504,956	42,629	0,053	-0,035
-503,941	-78,208	0,060	-0,015
-502,926	-200,000	-0,031	0,125
-501,912	-10,404	0,093	0,045
-500,897	4,877	0,052	0,028
-499,883	86,518	-0,022	0,018
-498,868	97,537	0,065	-0,054
-497,853	127,729	0,121	-0,112
-496,839	469,672	-0,009	-0,015
-495,824	384,952	0,089	0,134
-494,810	100,688	0,029	0,025
-493,795	800,000	0,058	0,141
-492,781	-6,248	0,039	-0,020
-491,766	398,647	-0,007	0,011
-490,751	-200,000	0,010	-0,085
-489,737	-138,807	-0,017	-0,001
-488,722	-35,642	0,134	-0,053
-487,708	291,954	-0,097	0,129
-486,693	800,000	0,098	0,200
-485,678	-33,831	0,174	0,070
-484,664	-116,060	-0,117	0,016
-483,649	67,606	-0,063	0,047
-482,635	-200,000	0,001	-0,048
-481,620	800,000	0,032	-0,070
-480,605	207,198	-0,036	0,040
-479,591	260,973	0,054	0,068
-478,576	800,000	0,038	0,118
-477,562	-81,218	-0,037	-0,009
-476,547	358,361	-0,086	-0,125
-475,532	-34,744	-0,139	-0,055
-474,518	800,000	0,009	-0,028
-473,503	-3,021	0,085	0,043
-472,489	720,323	0,054	-0,106
-471,474	441,937	-0,008	0,012
-470,459	84,398	0,094	-0,075
-469,445	-73,088	0,047	-0,012
-468,430	558,733	0,056	-0,099
-467,416	167,350	-0,013	0,013
-466,401	-200,000	0,005	0,133
-465,386	-11,942	0,031	-0,015
-464,372	-12,360	-0,066	0,031
-463,357	800,000	-0,049	-0,127
-462,343	348,087	-0,014	0,020
-461,328	-105,908	0,022	-0,004
-460,313	-88,945	0,121	-0,026
-459,299	-99,806	0,010	-0,002
-458,284	203,708	0,044	0,050
-457,270	-0,753	-0,116	0,059
-456,255	800,000	-0,037	-0,083
-455,241	236,640	0,051	0,062
-454,226	295,952	-0,113	0,150
-453,211	-200,000	0,010	-0,036
-452,197	-113,619	0,066	0,009
-451,182	-125,202	-0,061	-0,007
-450,168	5,108	0,102	0,054
-449,153	-200,000	0,014	0,216
-448,138	-200,000	-0,038	-0,151
-447,124	800,000	0,032	-0,088
-446,109	-200,000	0,033	0,270
-445,095	61,578	0,157	-0,114
-444,080	-200,000	0,007	0,099
-443,065	87,360	-0,039	-0,031
-442,051	-32,806	0,049	-0,020
-441,036	-62,044	-0,022	0,007
-440,022	163,329	0,036	0,037
-439,007	-25,708	-0,175	-0,075
-437,992	-77,941	0,070	-0,017
-436,978	-200,000	-0,008	-0,065
-435,963	-200,000	0,000	0,042
-434,949	-200,000	-0,004	0,034
-433,934	-200,000	-0,002	-0,150
-432,919	800,000	0,032	0,081
-431,905	-200,000	-0,015	-0,062
-430,890	60,403	-0,102	-0,073
-429,876	-200,000	0,009	-0,066
-428,861	488,353	-0,041	0,069
-427,846	-14,771	-0,047	0,022
-426,832	412,193	-0,064	-0,099
-425,817	199,079	-0,025	-0,028
-424,803	-27,665	-0,098	-0,041
-423,788	15,655	0,078	0,044
-422,773	800,000	-0,020	-0,045
-421,759	363,140	0,055	-0,081
-420,744	-62,694	0,135	-0,041
-419,730	-65,015	-0,070	0,020
-418,715	-200,000	-0,006	-0,062
-417,701	63,977	-0,029	0,021
-416,686	-31,464	0,067	0,027
-415,671	93,822	0,135	-0,111
-414,657	-65,306	-0,071	-0,021
-413,642	800,000	-0,026	0,076
-412,628	-66,431	-0,101	-0,029
-411,613	377,371	0,144	-0,215
-410,598	228,789	0,034	0,040
-409,584	800,000	0,033	0,075
-408,569	122,605	-0,074	-0,067
-407,555	-96,813	-0,052	-0,010
-406,540	759,180	0,025	-0,049
-405,525	98,785	0,039	0,033
-404,511	16,530	-0,017	0,010
-403,496	-100,714	0,049	-0,009
-402,482	-200,000	0,016	-0,110
-401,467	13,028	0,049	-0,028
-400,452	257,131	0,068	0,086
-399,438	-200,000	-0,021	0,102
-398,423	-112,235	-0,038	-0,006
-397,409	11,823	-0,009	0,005
-396,394	-58,225	0,137	-0,043
-395,379	-200,000	0,029	-0,125
-394,365	87,680	-0,051	0,041
-393,350	-200,000	-0,017	0,091
-392,336	78,979	-0,106	-0,083
-391,321	93,785	0,113	0,093
-390,306	-128,208	-0,072	-0,007
-389,292	141,624	-0,098	-0,094
-388,277	37,096	0,024	0,016
-387,263	500,904	0,081	-0,136
-386,248	-200,000	-0,001	-0,007
-385,233	800,000	0,061	0,134
-384,219	551,201	0,061	-0,107
-383,204	156,830	0,038	-0,038
-382,190	0,445	-0,063	0,033
-381,175	-44,884	0,173	0,062
-380,160	-37,154	-0,103	-0,040
-379,146	-16,933	0,007	0,003
-378,131	584,163	0,067	0,120
-377,117	-200,000	-0,015	-0,047
-376,102	100,983	-0,122	0,103
-375,088	315,999	-0,055	-0,076
-374,073	622,056	0,060	-0,111
-373,058	800,000	0,029	-0,072
-372,044	145,668	0,060	0,058
-371,029	-84,794	0,029	0,007
-370,015	-200,000	-0,004	-0,105
-369,000	-200,000	-0,016	0,076
-367,985	800,000	-0,015	-0,038
-366,971	50,107	0,082	-0,056
-365,956	-200,000	0,021	0,077
-364,942	-140,904	-0,127	-0,009
-363,927	-200,000	0,009	0,076
-362,912	139,525	-0,061	-0,058
-361,898	149,531	0,051	0,050
-360,883	9,338	0,052	0,028
-359,869	106,372	0,026	-0,022
-358,854	239,816	-0,056	-0,068
-357,839	800,000	0,025	-0,066
-356,825	548,057	0,022	0,038
-355,810	575,347	-0,044	-0,078
-354,796	-200,000	0,009	-0,068
-353,781	800,000	-0,064	-0,204
-352,766	-55,868	-0,072	0,023
-351,752	414,584	-0,092	-0,142
-350,737	-200,000	0,007	0,038
-349,723	191,525	-0,038	-0,041
-348,708	18,397	-0,043	-0,025
-347,693	-200,000	-0,019	-0,062
-346,679	94,583	0,095	-0,078
-345,664	800,000	0,041	-0,132
-344,650	-163,067	0,067	0,002
-343,635	-200,000	-0,011	0,094
-342,620	46,031	0,121	0,081
-341,606	-69,209	0,089	0,025
-340,591	240,031	0,032	-0,039
-339,577	243,665	0,024	0,029
-338,562	-200,000	-0,002	0,121
-337,548	128,829	-0,082	-0,076
-336,533	33,912	0,132	0,083
-335,518	552,673	-0,019	0,034
-334,504	136,205	-0,098	0,092
-333,489	-55,528	-0,141	0,046
-332,475	393,455	-0,050	-0,075
-331,460	-200,000	-0,019	-0,185
-330,445	-10,102	-0,067	0,032
-329,431	30,258	-0,053	-0,033
-328,416	232,094	-0,030	0,035
-327,402	-1,889	0,209	0,106
-326,387	126,741	0,033	0,030
-325,372	-200,000	0,003	0,139
-324,358	-30,384	-0,164	-0,067
-323,343	-200,000	-0,023	-0,106
-322,329	-200,000	0,018	0,094
-321,314	-77,031	0,013	-0,003
-320,299	-200,000	0,007	0,153
-319,285	-200,000	0,025	-0,089
-318,270	163,286	-0,045	-0,046
-317,256	-200,000	0,018	0,084
-316,241	800,000	0,041	0,107
-315,226	448,165	-0,009	0,015
-314,212	-200,000	-0,011	0,036
-313,197	12,049	0,026	0,015
-312,183	-138,695	0,068	0,005
-311,168	-200,000	0,002	0,088
-310,153	-18,396	-0,101	0,045
-309,139	293,266	0,048	0,064
-308,124	800,000	-0,027	-0,060
-307,110	-200,000	0,018	0,074
-306,095	662,067	0,048	0,091
-305,080	149,269	0,082	0,081
-304,066	-71,666	-0,043	-0,012
-303,051	234,152	0,038	-0,045
-302,037	642,573	-0,036	-0,066
-301,022	-200,000	0,043	-0,150
-300,008	-200,000	0,033	-0,111
-298,993	394,339	0,138	0,209
-297,978	402,259	0,035	0,053
-296,964	-32,455	-0,130	0,052
-295,949	-5,813	-0,072	0,035
-294,935	622,205	-0,045	-0,083
-293,920	-146,995	-0,252	0,015
-292,905	-20,556	-0,102	0,045
-291,891	89,712	0,049	0,039
-290,876	651,766	-0,023	0,043
-289,862	77,272	-0,091	0,070
-288,847	422,810	0,054	-0,084
-287,832	800,000	0,022	-0,055
-286,818	395,092	-0,033	0,050
-285,803	250,694	-0,016	0,019
-284,789	16,338	-0,015	-0,008
-283,774	-158,995	-0,066	-0,003
-282,759	129,582	-0,044	0,041
-281,745	153,362	0,053	-0,053
-280,730	800,000	0,047	-0,099
-279,716	-200,000	0,026	0,092
-278,701	216,310	0,120	-0,138
-277,686	-52,406	-0,034	-0,011
-276,672	-200,000	-0,008	0,196
-275,657	-200,000	0,004	0,128
-274,643	-17,039	-0,065	-0,030
-273,628	-87,994	-0,055	-0,012
-272,613	-200,000	-0,043	0,143
-271,599	33,397	0,042	-0,026
-270,584	-0,387	0,112	0,057
-269,570	800,000	-0,025	0,069
-268,555	-119,854	-0,116	-0,014
-267,540	358,637	-0,024	-0,035
-266,526	72,234	-0,045	0,034
-265,511	-79,075	-0,129	-0,031
-264,497	-200,000	0,008	-0,101
-263,482	-18,085	0,157	0,071
-262,467	334,904	-0,066	0,092
-261,453	20,427	0,054	0,032
-260,438	279,836	0,051	-0,065
-259,424	255,830	0,114	-0,142
-258,409	-87,918	-0,021	-0,004
-257,395	186,484	-0,037	0,040
-256,380	67,176	-0,018	0,013
-255,365	-74,945	0,037	-0,009
-254,351	-180,692	0,095	0,001
-253,336	-100,663	-0,089	0,016
-252,322	-56,236	0,051	-0,016
-251,307	-200,000	0,012	-0,040
-250,292	-49,179	0,076	-0,026
-249,278	217,504	0,028	0,033
-248,263	43,691	-0,048	-0,032
-247,249	26,831	0,092	-0,056
-246,234	-200,000	-0,010	-0,073
-245,219	-176,337	-0,043	0,001
-244,205	-35,298	-0,107	-0,042
-243,190	-144,779	0,127	-0,008
-242,176	125,062	-0,079	0,072
-241,161	313,836	0,049	0,067
-240,146	-90,191	0,132	-0,028
-239,132	-78,870	-0,138	-0,034
-238,117	164,504	0,010	-0,010
-237,103	-68,841	-0,123	0,034
-236,088	48,902	-0,095	0,065
-235,073	-147,405	0,019	-0,001
-234,059	100,673	0,068	-0,057
-233,044	-200,000	0,032	0,200
-232,030	-129,443	0,055	-0,005
-231,015	46,941	-0,109	0,073
-230,000	-200,000	0,026	-0,128
-228,986	43,686	0,088	0,058
-227,971	272,860	0,023	-0,029
-226,957	-40,141	0,028	-0,011
-225,942	9,689	0,038	-0,021
-224,927	-35,769	0,039	-0,015
-223,913	-42,329	0,157	-0,057
-222,898	132,717	0,062	-0,058
-221,884	-200,000	-0,028	-0,162
-220,869	76,470	-0,068	-0,052
-219,855	-200,000	-0,001	0,114
-218,840	-106,469	0,104	-0,017
-217,825	-17,267	-0,098	0,045
-216,811	264,343	-0,024	0,030
-215,796	-180,541	-0,106	-0,002
-214,782	-101,072	0,118	-0,021
-213,767	-200,000	-0,093	0,000
-212,752	-63,477	0,065	0,019
-211,738	800,000	0,030	0,091
-210,723	-200,000	-0,001	-0,115
-209,709	-108,679	-0,147	-0,022
-208,694	16,894	-0,101	-0,058
-207,679	800,000	-0,018	-0,038
-206,665	-113,745	0,176	-0,024
-205,650	-200,000	-0,039	0,125
-204,636	-200,000	0,014	-0,046
-203,621	2,891	0,066	0,035
-202,606	-5,116	0,046	0,023
-201,592	59,265	0,017	0,012
-200,577	-200,000	-0,037	-0,132
-199,563	-200,000	-0,004	0,045
-198,548	-42,065	0,058	-0,021
-197,533	-200,000	0,010	0,135
-196,519	78,948	-0,129	-0,099
-195,504	-67,027	-0,044	-0,012
-194,490	-19,065	-0,118	-0,053
-193,475	-159,198	-0,131	-0,005
-192,460	-200,000	-0,011	0,064
-191,446	-200,000	-0,003	-0,089
-190,431	-37,073	0,119	-0,046
-189,417	-200,000	-0,011	-0,251
-188,402	-200,000	0,001	0,054
-187,387	-40,440	-0,022	-0,008
-186,373	-50,436	0,036	-0,012
-185,358	11,816	0,185	0,102
-184,344	34,431	0,156	0,098
-183,329	800,000	-0,026	0,060
-182,315	-200,000	-0,031	0,103
-181,300	746,260	-0,035	-0,069
-180,285	-118,417	-0,035	0,004
-179,271	144,116	0,043	-0,041
-178,256	-62,365	-0,083	0,025
-177,242	492,089	0,064	-0,107
-176,227	-114,904	0,084	-0,011
-175,212	-200,000	0,031	0,147
-174,198	-149,353	-0,066	0,004
-173,183	-200,000	0,007	-0,048
-172,169	79,773	-0,083	-0,064
-171,154	-123,728	0,033	0,004
-170,139	62,475	-0,118	-0,085
-169,125	-143,048	-0,166	-0,011
-168,110	-200,000	0,007	-0,081
-167,096	191,766	0,124	0,135
-166,081	-200,000	-0,000	-0,020
-165,066	800,000	-0,028	-0,082
-164,052	60,034	-0,090	0,064
-163,037	-200,000	0,031	0,131
-162,023	132,880	0,035	-0,032
-161,008	-187,871	0,104	0,001
-159,993	800,000	0,007	0,022
-158,979	157,455	-0,025	0,025
-157,964	-150,763	-0,180	-0,010
-156,950	800,000	0,027	-0,085
-155,935	-200,000	0,003	-0,026
-154,920	-144,295	0,104	0,007
-153,906	800,000	0,057	0,158
-152,891	-200,000	0,004	-0,101
-151,877	-200,000	0,060	-0,202
-150,862	-127,502	-0,051	0,005
-149,847	-200,000	-0,041	-0,133
-148,833	-112,387	0,059	-0,008
-147,818	-200,000	-0,002	0,129
-146,804	-86,657	-0,057	-0,012
-145,789	-80,915	-0,048	0,011
-144,775	-200,000	-0,004	-0,127
-143,760	800,000	-0,035	0,103
-142,745	76,380	0,062	-0,047
-141,731	-88,632	-0,048	0,010
-140,716	-42,456	-0,171	0,062
-139,702	3,867	-0,121	0,064
-138,687	556,911	0,048	0,084
-137,672	-5,284	-0,074	0,037
-136,658	-46,335	-0,042	-0,015
-135,643	511,109	0,039	-0,066
-134,629	611,314	0,060	-0,108
-133,614	-135,212	0,085	0,007
-132,599	-43,875	-0,099	0,036
-131,585	800,000	-0,059	0,165
-130,570	108,730	-0,051	-0,044
-129,556	800,000	0,006	0,016
-128,541	144,266	-0,060	-0,058
-127,526	345,745	0,022	0,032
-126,512	800,000	-0,040	0,095
-125,497	-137,350	-0,059	0,005
-124,483	-19,622	-0,063	0,028
-123,468	-83,659	0,076	0,017
-122,453	584,201	-0,011	0,019
-121,439	8,773	-0,100	-0,054
-120,424	800,000	0,055	0,158
