DTS Sentinel unit serial number:	SN410029Multiplexer serial number:	ORYXHardware model number:	OX2-SRSoftware version number:	ORYX F/W v4,00 Oryx Data Collector v3.7.2.0data status	okinstallation	B5 Nyhavnadifferential loss correction	single-endedforward channel	channel 2reverse channel	N/Adate	2023/12/14time	02:37:13forward acquisition time	300,00reverse acquisition time	0,00gamma	499,1914k internal	0,3155k external	0,3155temperature offset calibration	1,0000default loss term (dB/km)	0,3820temperature slope calibration	1,0000multiplexer offset coefficient	1,0000multiplexer slope coefficient	1,0000fibre end	0,00T internal ref (°C)	8,47T ext. ref 1 (°C)	-7,88T ext. ref 2 (°C)	-7,93length (m)	temperature (°C)	Stokes	anti-Stokes-744,400	138,128	0,186	0,180
-743,385	-126,367	-0,434	-0,047
-742,371	172,858	0,167	0,178
-741,356	-127,188	-0,442	-0,047
-740,342	-175,943	0,307	-0,006
-739,327	-151,527	-0,334	0,018
-738,312	800,000	0,036	0,100
-737,298	-67,433	-0,355	-0,102
-736,283	28,208	0,164	0,102
-735,269	-113,981	-0,500	-0,071
-734,254	487,945	0,125	0,211
-733,239	13,963	-0,514	-0,294
-732,225	-144,650	0,238	-0,016
-731,210	-200,000	0,028	0,091
-730,196	-200,000	-0,041	-0,152
-729,181	800,000	-0,023	0,063
-728,167	-42,514	0,041	-0,015
-727,152	-190,364	0,047	0,000
-726,137	-200,000	0,001	-0,019
-725,123	712,481	-0,019	0,037
-724,108	452,130	-0,093	0,151
-723,094	55,961	-0,112	-0,080
-722,079	-125,396	-0,041	-0,005
-721,064	-200,000	0,014	-0,154
-720,050	-200,000	-0,031	-0,151
-719,035	-97,565	-0,140	-0,027
-718,021	800,000	0,020	-0,043
-717,006	422,102	0,026	-0,041
-715,991	-83,374	-0,217	-0,051
-714,977	800,000	0,074	-0,154
-713,962	-37,179	-0,057	0,022
-712,948	69,337	0,036	0,027
-711,933	740,830	-0,032	-0,064
-710,918	3,633	-0,091	-0,049
-709,904	-66,330	-0,085	-0,025
-708,889	601,572	-0,053	0,098
-707,875	218,890	0,036	-0,042
-706,860	-200,000	0,011	0,046
-705,845	800,000	-0,034	-0,105
-704,831	-28,212	0,007	-0,003
-703,816	-10,757	-0,104	0,051
-702,802	-141,082	-0,199	-0,015
-701,787	-13,078	-0,214	-0,102
-700,772	67,812	0,069	0,052
-699,758	-200,000	0,020	0,117
-698,743	-200,000	-0,005	0,016
-697,729	324,958	0,046	0,066
-696,714	800,000	-0,046	0,107
-695,699	800,000	-0,042	-0,111
-694,685	-109,511	0,179	-0,028
-693,670	800,000	-0,001	-0,002
-692,656	-146,774	0,072	-0,004
-691,641	800,000	0,082	0,168
-690,627	800,000	-0,049	0,100
-689,612	-200,000	0,001	-0,018
-688,597	800,000	0,047	-0,150
-687,583	-95,105	-0,040	0,008
-686,568	-61,165	-0,017	-0,005
-685,554	800,000	0,040	-0,099
-684,539	800,000	-0,015	-0,036
-683,524	-200,000	0,002	0,047
-682,510	-90,518	0,041	0,009
-681,495	-200,000	-0,014	-0,238
-680,481	-200,000	0,020	-0,069
-679,466	-3,900	-0,112	0,057
-678,451	-53,169	0,036	0,012
-677,437	-200,000	0,009	-0,080
-676,422	652,262	-0,111	0,210
-675,408	-200,000	-0,025	0,121
-674,393	-6,368	-0,056	0,028
-673,378	-200,000	-0,032	-0,133
-672,364	-117,127	-0,080	-0,011
-671,349	-200,000	-0,025	-0,177
-670,335	-0,231	-0,083	0,043
-669,320	-200,000	-0,026	0,127
-668,305	315,348	0,023	0,031
-667,291	213,056	0,029	-0,034
-666,276	84,204	-0,054	0,043
-665,262	800,000	-0,068	-0,162
-664,247	8,288	0,156	-0,086
-663,232	800,000	-0,031	0,087
-662,218	-200,000	0,014	-0,104
-661,203	-3,133	-0,031	-0,016
-660,189	-68,813	-0,101	-0,029
-659,174	161,675	-0,083	0,085
-658,159	-69,239	-0,057	0,016
-657,145	800,000	0,011	-0,030
-656,130	29,910	0,047	-0,030
-655,116	800,000	0,043	-0,110
-654,101	-200,000	0,010	0,118
-653,086	179,050	-0,110	0,119
-652,072	-114,978	-0,065	-0,009
-651,057	-200,000	0,018	-0,107
-650,043	-200,000	0,005	0,096
-649,028	6,025	-0,012	0,007
-648,014	-200,000	-0,009	-0,033
-646,999	553,246	0,019	0,033
-645,984	800,000	0,027	0,069
-644,970	800,000	-0,049	0,109
-643,955	-200,000	0,006	-0,122
-642,941	145,495	-0,107	0,105
-641,926	37,293	0,123	0,080
-640,911	-139,954	0,028	0,002
-639,897	-200,000	-0,007	0,032
-638,882	698,368	0,003	0,006
-637,868	218,699	0,037	-0,043
-636,853	132,633	-0,148	-0,140
-635,838	-200,000	0,013	-0,092
-634,824	-135,011	-0,106	0,009
-633,809	-115,861	0,056	0,008
-632,795	182,639	0,133	0,144
-631,780	-55,495	-0,044	0,015
-630,765	16,693	0,067	0,039
-629,751	-132,703	-0,094	0,009
-628,736	800,000	0,031	-0,065
-627,722	-164,978	-0,085	0,003
-626,707	-17,554	0,074	-0,034
-625,692	460,809	0,041	0,068
-624,678	34,115	-0,022	0,014
-623,663	159,105	-0,079	-0,081
-622,649	134,288	0,037	0,035
-621,634	98,290	-0,060	0,051
-620,619	800,000	-0,031	-0,072
-619,605	20,414	0,116	0,069
-618,590	-200,000	-0,010	0,063
-617,576	342,124	-0,013	-0,019
-616,561	-200,000	-0,006	-0,060
-615,546	-200,000	-0,004	0,037
-614,532	-200,000	0,019	-0,114
-613,517	280,381	-0,053	-0,070
-612,503	800,000	-0,037	0,098
-611,488	51,658	0,140	0,097
-610,474	-52,814	0,071	0,024
-609,459	-200,000	0,003	-0,114
-608,444	-35,912	-0,075	-0,030
-607,430	-200,000	0,029	-0,167
-606,415	-42,830	-0,083	0,031
-605,401	51,944	-0,065	0,045
-604,386	186,368	0,097	0,106
-603,371	800,000	-0,033	0,099
-602,357	-200,000	0,000	0,053
-601,342	-200,000	0,002	-0,089
-600,328	-84,469	-0,032	-0,007
-599,313	-155,591	0,020	-0,001
-598,298	-13,542	0,047	-0,022
-597,284	-200,000	-0,004	0,020
-596,269	49,102	0,114	0,078
-595,255	177,314	-0,076	0,081
-594,240	112,986	-0,110	0,098
-593,225	-152,371	-0,065	0,003
-592,211	800,000	-0,007	-0,019
-591,196	273,242	-0,079	-0,103
-590,182	8,246	0,098	0,054
-589,167	-71,546	-0,138	0,038
-588,152	-103,472	-0,043	0,007
-587,138	604,231	0,032	0,059
-586,123	738,860	-0,083	-0,163
-585,109	29,025	0,032	0,020
-584,094	-59,299	-0,108	-0,034
-583,079	-200,000	-0,005	-0,017
-582,065	-200,000	0,006	-0,049
-581,050	299,464	-0,033	0,045
-580,036	98,013	-0,084	-0,071
-579,021	646,664	-0,041	-0,078
-578,006	151,974	-0,019	-0,019
-576,992	664,154	-0,103	0,195
-575,977	800,000	-0,008	-0,021
-574,963	731,776	-0,027	-0,052
-573,948	800,000	-0,036	0,075
-572,934	32,059	-0,053	-0,034
-571,919	-21,406	0,047	0,021
-570,904	115,006	0,049	-0,044
-569,890	17,590	-0,014	-0,008
-568,875	-200,000	-0,004	0,117
-567,861	-200,000	0,001	0,094
-566,846	436,207	-0,064	0,103
-565,831	800,000	-0,002	0,004
-564,817	-200,000	-0,005	0,096
-563,802	-200,000	0,003	0,037
-562,788	185,845	-0,061	0,066
-561,773	-87,970	0,125	-0,027
-560,758	-200,000	-0,005	0,081
-559,744	-33,638	-0,167	0,067
-558,729	29,200	0,063	-0,039
-557,715	800,000	-0,024	-0,053
-556,700	800,000	-0,035	0,071
-555,685	361,449	0,036	-0,053
-554,671	158,294	-0,071	-0,072
-553,656	-200,000	0,018	-0,064
-552,642	66,656	-0,158	-0,117
-551,627	219,926	0,070	0,083
-550,612	800,000	-0,056	-0,156
-549,598	-31,984	-0,118	0,048
-548,583	163,205	-0,072	-0,074
-547,569	-15,826	0,065	-0,030
-546,554	-74,304	0,011	-0,003
-545,539	606,379	0,083	0,151
-544,525	-200,000	-0,001	0,098
-543,510	-200,000	-0,011	-0,058
-542,496	-69,350	-0,028	-0,008
-541,481	-200,000	-0,001	-0,128
-540,466	-157,312	-0,111	-0,005
-539,452	-25,006	-0,008	-0,004
-538,437	800,000	0,009	0,026
-537,423	-200,000	-0,001	0,092
-536,408	-200,000	-0,027	0,153
-535,393	164,884	0,028	0,029
-534,379	34,875	-0,086	0,055
-533,364	-200,000	-0,009	-0,150
-532,350	5,220	-0,071	-0,038
-531,335	22,721	0,054	0,032
-530,321	-97,047	-0,118	-0,022
-529,306	800,000	0,047	-0,124
-528,291	800,000	-0,034	-0,099
-527,277	-200,000	-0,008	-0,098
-526,262	78,842	0,082	0,064
-525,248	4,437	0,118	0,063
-524,233	325,643	-0,008	0,012
-523,218	117,627	-0,053	0,048
-522,204	85,563	-0,092	-0,074
-521,189	800,000	-0,042	-0,122
-520,175	-75,946	-0,062	0,016
-519,160	150,867	0,027	-0,027
-518,145	800,000	0,025	0,068
-517,131	153,470	-0,004	-0,004
-516,116	-200,000	-0,012	0,194
-515,102	98,839	0,087	0,073
-514,087	-200,000	-0,031	-0,252
-513,072	-84,789	-0,048	-0,011
-512,058	-89,837	-0,107	-0,023
-511,043	84,284	0,099	0,079
-510,029	800,000	0,077	0,225
-509,014	-60,900	0,054	0,017
-507,999	152,334	0,097	0,097
-506,985	-200,000	-0,006	0,080
-505,970	8,552	0,083	-0,045
-504,956	-107,592	0,021	-0,003
-503,941	158,208	-0,058	0,059
-502,926	-167,160	0,098	-0,003
-501,912	58,306	0,102	0,073
-500,897	800,000	-0,055	0,156
-499,883	53,746	-0,086	0,061
-498,868	404,464	-0,056	-0,087
-497,853	76,268	0,149	-0,115
-496,839	-200,000	-0,009	-0,041
-495,824	-107,197	0,096	-0,015
-494,810	-200,000	0,013	-0,069
-493,795	-69,164	0,115	0,032
-492,781	-106,267	-0,124	-0,020
-491,766	-159,019	0,022	0,001
-490,751	239,857	-0,040	-0,049
-489,737	60,656	-0,035	0,025
-488,722	800,000	-0,007	-0,014
-487,708	-123,902	0,157	-0,018
-486,693	15,821	0,067	0,039
-485,678	-179,485	-0,032	-0,000
-484,664	-200,000	0,006	-0,040
-483,649	800,000	0,097	-0,285
-482,635	23,197	-0,086	0,051
-481,620	-165,014	0,069	0,002
-480,605	170,648	0,046	0,048
-479,591	23,786	0,093	0,056
-478,576	-200,000	0,004	-0,064
-477,562	-57,400	-0,140	0,045
-476,547	-200,000	0,033	0,142
-475,532	163,856	0,030	-0,031
-474,518	-32,355	0,118	0,048
-473,503	682,656	0,001	0,001
-472,489	-200,000	-0,004	0,128
-471,474	-25,306	0,070	0,030
-470,459	64,489	-0,116	0,086
-469,445	800,000	0,026	-0,074
-468,430	60,772	0,057	-0,041
-467,416	-106,050	0,096	0,016
-466,401	-125,113	0,113	-0,012
-465,386	-200,000	-0,013	-0,044
-464,372	-81,122	-0,050	-0,012
-463,357	-200,000	-0,000	-0,028
-462,343	-111,275	-0,104	0,015
-461,328	483,687	0,061	-0,102
-460,313	85,994	-0,184	-0,148
-459,299	-77,710	0,143	-0,036
-458,284	800,000	0,055	0,137
-457,270	108,678	-0,164	0,143
-456,255	-200,000	0,013	-0,123
-455,241	-200,000	-0,021	0,085
-454,226	800,000	0,018	-0,039
-453,211	712,200	0,016	0,030
-452,197	-200,000	-0,041	0,145
-451,182	305,712	0,026	0,035
-450,168	478,372	-0,059	-0,097
-449,153	-47,764	0,136	-0,048
-448,138	-40,107	0,083	-0,031
-447,124	-139,517	-0,075	-0,006
-446,109	90,933	-0,073	0,060
-445,095	-124,574	0,077	-0,009
-444,080	151,292	-0,079	0,078
-443,065	800,000	0,005	-0,010
-442,051	-37,145	-0,066	-0,026
-441,036	-62,109	-0,217	-0,066
-440,022	145,183	0,033	-0,032
-439,007	-197,621	-0,090	-0,000
-437,992	186,631	0,096	-0,105
-436,978	68,342	0,066	0,049
-435,963	-200,000	-0,014	0,053
-434,949	-80,326	-0,099	-0,024
-433,934	-84,604	-0,113	0,026
-432,919	65,181	0,041	0,030
-431,905	800,000	0,020	-0,061
-430,890	-16,143	0,099	0,046
-429,876	-200,000	-0,022	0,161
-428,861	800,000	-0,032	0,077
-427,846	800,000	0,047	0,132
-426,832	283,131	0,104	-0,137
-425,817	-200,000	-0,008	-0,057
-424,803	800,000	0,029	0,074
-423,788	-106,905	0,032	0,005
-422,773	63,974	0,037	-0,027
-421,759	-200,000	-0,015	0,061
-420,744	-200,000	-0,001	-0,030
-419,730	-83,901	-0,130	-0,030
-418,715	32,711	-0,071	-0,045
-417,701	9,176	-0,058	0,032
-416,686	800,000	-0,022	-0,064
-415,671	-200,000	0,041	0,166
-414,657	-200,000	0,017	0,189
-413,642	-200,000	0,002	0,024
-412,628	-27,841	0,133	0,056
-411,613	-109,729	0,077	-0,012
-410,598	480,308	0,078	-0,130
-409,584	-12,464	0,068	-0,032
-408,569	-200,000	0,041	0,219
-407,555	248,273	0,037	0,045
-406,540	-200,000	-0,012	-0,131
-405,525	-200,000	0,023	0,077
-404,511	-176,522	-0,108	0,002
-403,496	119,637	0,063	-0,057
-402,482	-200,000	-0,007	0,152
-401,467	800,000	-0,034	-0,101
-400,452	800,000	0,029	-0,086
-399,438	-200,000	0,003	-0,109
-398,423	236,787	-0,047	-0,057
-397,409	377,021	0,013	-0,020
-396,394	146,070	0,023	-0,023
-395,379	-200,000	-0,024	-0,091
-394,365	147,725	0,035	-0,034
-393,350	-151,466	0,076	-0,004
-392,336	295,527	-0,037	-0,049
-391,321	-78,855	-0,236	-0,058
-390,306	-200,000	-0,023	-0,092
-389,292	225,335	-0,073	-0,086
-388,277	-26,447	0,099	-0,042
-387,263	153,665	-0,085	0,085
-386,248	800,000	0,036	0,104
-385,233	572,612	0,036	0,064
-384,219	-104,629	0,037	0,006
-383,204	-3,704	-0,106	-0,054
-382,190	245,736	0,099	-0,121
-381,175	-200,000	-0,028	0,121
-380,160	-200,000	-0,014	0,130
-379,146	-166,066	0,062	-0,002
-378,131	-18,229	0,115	0,052
-377,117	-200,000	-0,006	-0,107
-376,102	89,923	-0,129	0,105
-375,088	-53,396	0,105	0,035
-374,073	-200,000	-0,001	-0,009
-373,058	-27,708	0,081	0,034
-372,044	344,513	-0,086	0,123
-371,029	800,000	0,015	0,034
-370,015	695,224	-0,108	-0,207
-369,000	-39,968	-0,127	0,048
-367,985	-24,431	-0,033	0,014
-366,971	204,751	-0,018	-0,021
-365,956	-182,858	0,107	-0,001
-364,942	800,000	-0,067	0,168
-363,927	800,000	0,009	-0,022
-362,912	-157,396	-0,047	0,002
-361,898	800,000	-0,030	-0,072
-360,883	600,720	-0,023	-0,042
-359,869	800,000	0,021	-0,043
-358,854	54,506	0,025	-0,018
-357,839	-131,402	0,164	0,016
-356,825	-98,026	-0,132	0,025
-355,810	21,821	0,025	0,015
-354,796	-200,000	-0,019	-0,152
-353,781	-200,000	-0,009	-0,186
-352,766	68,151	0,041	-0,030
-351,752	-29,828	-0,170	0,070
-350,737	419,912	0,094	-0,147
-349,723	-200,000	0,010	0,110
-348,708	-42,013	0,117	0,043
-347,693	-200,000	0,010	0,068
-346,679	9,892	-0,059	0,033
-345,664	-200,000	-0,007	-0,108
-344,650	52,858	-0,094	-0,065
-343,635	103,505	-0,113	-0,096
-342,620	401,509	0,053	0,082
-341,606	-200,000	-0,006	-0,062
-340,591	96,042	0,098	-0,081
-339,577	-47,524	0,076	-0,027
-338,562	561,657	-0,076	-0,133
-337,548	800,000	-0,037	-0,102
-336,533	90,112	0,030	0,025
-335,518	-200,000	-0,013	0,099
-334,504	376,865	-0,026	0,039
-333,489	351,017	0,057	0,081
-332,475	212,738	0,047	0,054
-331,460	-16,686	-0,127	-0,058
-330,445	-71,539	-0,050	0,013
-329,431	253,835	0,076	0,094
-328,416	800,000	0,019	-0,039
-327,402	-200,000	-0,008	-0,036
-326,387	112,802	0,122	0,107
-325,372	551,596	-0,053	0,093
-324,358	-200,000	-0,022	0,083
-323,343	-23,643	-0,054	0,023
-322,329	605,718	0,060	-0,110
-321,314	470,561	-0,071	0,116
-320,299	800,000	-0,022	-0,057
-319,285	800,000	0,045	0,124
-318,270	800,000	-0,036	0,084
-317,256	50,659	0,052	-0,036
-316,241	-73,376	0,095	-0,025
-315,226	-184,463	-0,060	0,001
-314,212	328,690	0,045	-0,063
-313,197	54,984	-0,044	0,030
-312,183	265,548	0,118	0,150
-311,168	205,420	0,059	0,066
-310,153	-200,000	0,018	-0,146
-309,139	172,949	-0,033	-0,034
-308,124	52,719	0,113	0,078
-307,110	158,234	0,141	-0,142
-306,095	-200,000	-0,004	-0,057
-305,080	-200,000	-0,034	0,119
-304,066	-33,818	-0,139	0,055
-303,051	42,233	0,086	-0,057
-302,037	134,099	0,114	0,107
-301,022	30,766	-0,095	-0,059
-300,008	-200,000	0,002	0,028
-298,993	528,870	0,013	-0,022
-297,978	256,154	0,027	0,033
-296,964	505,222	-0,033	0,055
-295,949	351,351	0,058	-0,084
-294,935	-142,827	-0,040	-0,003
-293,920	-31,050	0,032	-0,013
-292,905	329,690	-0,043	-0,060
-291,891	-200,000	0,010	-0,135
-290,876	-164,308	0,220	0,007
-289,862	800,000	-0,036	-0,077
-288,847	800,000	-0,060	-0,161
-287,832	-200,000	-0,000	0,092
-286,818	800,000	-0,025	-0,060
-285,803	378,912	-0,057	-0,085
-284,789	-200,000	0,021	0,083
-283,774	800,000	0,031	0,092
-282,759	-200,000	0,019	-0,076
-281,745	800,000	-0,025	-0,056
-280,730	-41,817	-0,106	-0,039
-279,716	-49,591	0,100	0,034
-278,701	14,854	-0,194	-0,110
-277,686	-200,000	-0,023	0,081
-276,672	800,000	0,012	0,029
-275,657	-200,000	0,005	-0,073
-274,643	-200,000	0,009	0,047
-273,628	800,000	-0,020	-0,044
-272,613	800,000	-0,019	-0,059
-271,599	800,000	0,041	-0,083
-270,584	-48,154	0,031	0,011
-269,570	-39,183	-0,078	-0,029
-268,555	-129,889	0,031	0,003
-267,540	-200,000	-0,009	0,049
-266,526	800,000	-0,028	0,083
-265,511	146,816	0,059	0,058
-264,497	131,602	0,087	0,081
-263,482	-91,788	-0,038	-0,008
-262,467	-81,205	0,068	0,016
-261,453	-102,645	-0,089	0,015
-260,438	-18,707	0,150	-0,067
-259,424	-200,000	0,009	-0,093
-258,409	460,617	0,076	-0,122
-257,395	333,911	0,059	0,084
-256,380	-200,000	-0,011	0,085
-255,365	40,882	-0,077	0,050
-254,351	800,000	-0,052	0,109
-253,336	323,975	-0,065	0,090
-252,322	-86,977	-0,062	0,014
-251,307	-37,224	-0,114	0,044
-250,292	32,176	0,009	0,006
-249,278	-196,251	0,079	0,000
-248,263	236,440	-0,036	0,043
-247,249	-200,000	-0,006	0,046
-246,234	-200,000	-0,007	0,055
-245,219	-16,878	0,091	-0,041
-244,205	-116,649	0,083	-0,011
-243,190	236,943	-0,068	0,082
-242,176	-35,173	0,047	0,018
-241,161	-200,000	0,010	-0,048
-240,146	-108,920	0,085	0,013
-239,132	-85,709	0,107	-0,024
-238,117	-200,000	0,003	-0,079
-237,103	-145,590	-0,097	-0,006
-236,088	-168,046	0,099	0,003
-235,073	-92,671	0,102	-0,020
-234,059	-104,374	0,020	-0,003
-233,044	800,000	0,045	0,115
-232,030	-200,000	-0,006	-0,022
-231,015	282,125	0,088	-0,115
-230,000	193,181	-0,097	-0,106
-228,986	-97,963	-0,096	-0,018
-227,971	-10,338	0,041	0,019
-226,957	38,120	0,097	0,062
-225,942	-29,785	0,117	-0,048
-224,927	-135,481	-0,115	0,010
-223,913	107,659	-0,026	-0,023
-222,898	-200,000	-0,028	-0,114
-221,884	575,246	0,014	-0,026
-220,869	290,382	0,069	-0,091
-219,855	-200,000	0,013	-0,064
-218,840	345,209	-0,012	0,017
-217,825	174,552	0,016	-0,017
-216,811	-200,000	-0,003	-0,063
-215,796	-200,000	-0,033	0,000
-214,782	-135,259	0,079	-0,007
-213,767	-109,681	-0,023	-0,004
-212,752	214,840	0,071	-0,081
-211,738	-200,000	-0,013	0,072
-210,723	800,000	0,010	0,024
-209,709	12,006	-0,044	0,024
-208,694	-200,000	-0,004	-0,090
-207,679	-118,311	0,059	0,007
-206,665	97,904	0,007	0,006
-205,650	-200,000	0,012	0,051
-204,636	93,337	0,091	0,074
-203,621	-200,000	0,030	0,136
-202,606	215,664	-0,031	-0,036
-201,592	800,000	0,061	-0,139
-200,577	358,814	-0,086	-0,125
-199,563	32,862	0,020	0,013
-198,548	-114,510	0,040	0,005
-197,533	280,369	-0,049	-0,064
-196,519	800,000	-0,031	0,068
-195,504	-200,000	0,001	0,065
-194,490	-130,065	-0,157	-0,015
-193,475	-200,000	-0,096	-0,000
-192,460	418,017	0,055	0,084
-191,446	-200,000	0,014	0,059
-190,431	-4,729	0,136	-0,067
-189,417	312,983	-0,043	0,058
-188,402	48,672	-0,092	-0,062
-187,387	-200,000	-0,003	-0,040
-186,373	615,722	0,048	-0,087
-185,358	-32,744	0,139	0,056
-184,344	-126,912	0,032	0,003
-183,329	-73,615	0,116	0,030
-182,315	344,235	-0,023	0,033
-181,300	-38,025	0,009	-0,004
-180,285	800,000	-0,034	0,071
-179,271	-8,846	0,084	0,040
-178,256	800,000	-0,017	-0,035
-177,242	800,000	-0,018	-0,050
-176,227	702,843	-0,043	0,081
-175,212	75,372	-0,047	-0,036
-174,198	513,500	-0,063	-0,106
-173,183	457,914	-0,039	0,064
-172,169	333,419	0,035	-0,050
-171,154	-1,855	-0,159	-0,080
-170,139	-200,000	-0,010	0,046
-169,125	17,618	-0,020	-0,011
-168,110	291,018	-0,057	0,074
-167,096	162,392	0,087	-0,088
-166,081	-200,000	0,042	-0,159
-165,066	-102,151	-0,093	-0,016
-164,052	774,706	-0,031	-0,061
-163,037	-3,733	0,205	-0,103
-162,023	800,000	0,035	-0,074
-161,008	200,725	-0,081	0,090
-159,993	15,622	0,024	-0,014
-158,979	196,814	-0,107	-0,118
-157,964	-16,961	-0,082	0,037
-156,950	-105,984	0,088	-0,014
-155,935	17,191	0,100	-0,057
-154,920	-128,091	-0,096	0,010
-153,906	-200,000	-0,004	0,066
-152,891	-200,000	-0,003	-0,025
-151,877	54,928	0,037	-0,025
-150,862	-101,865	0,030	-0,005
-149,847	-148,965	-0,088	0,005
-148,833	212,342	0,059	-0,068
-147,818	-12,924	0,098	-0,046
-146,804	595,869	0,048	0,086
-145,789	133,111	0,082	-0,077
-144,775	-200,000	-0,008	0,026
-143,760	800,000	-0,019	-0,059
-142,745	-200,000	-0,019	0,154
-141,731	-115,418	0,141	-0,019
-140,716	-193,320	-0,060	0,000
-139,702	-18,749	0,074	0,033
-138,687	-85,379	-0,061	0,014
-137,672	202,867	0,107	0,119
-136,658	188,557	-0,066	-0,071
-135,643	227,481	-0,040	-0,047
-134,629	419,296	-0,030	0,046
-133,614	-200,000	0,002	0,069
-132,599	-6,120	-0,021	0,011
-131,585	-200,000	0,008	-0,079
-130,570	107,347	0,102	0,087
-129,556	-106,764	0,006	-0,001
-128,541	-123,178	-0,103	-0,012
-127,526	256,893	-0,079	0,098
-126,512	-200,000	0,005	0,051
-125,497	76,876	0,118	0,090
-124,483	800,000	0,010	0,025
-123,468	124,508	0,020	-0,018
-122,453	267,776	-0,049	-0,062
-121,439	184,910	-0,087	-0,093
-120,424	800,000	0,011	0,030
