DTS Sentinel unit serial number:	SN410029Multiplexer serial number:	ORYXHardware model number:	OX2-SRSoftware version number:	ORYX F/W v4,00 Oryx Data Collector v3.7.2.0data status	okinstallation	B5 Nyhavnadifferential loss correction	single-endedforward channel	channel 2reverse channel	N/Adate	2023/12/14time	07:32:13forward acquisition time	300,00reverse acquisition time	0,00gamma	499,1914k internal	0,3159k external	0,3159temperature offset calibration	1,0000default loss term (dB/km)	0,3820temperature slope calibration	1,0000multiplexer offset coefficient	1,0000multiplexer slope coefficient	1,0000fibre end	0,00T internal ref (°C)	7,16T ext. ref 1 (°C)	-9,29T ext. ref 2 (°C)	-9,38length (m)	temperature (°C)	Stokes	anti-Stokes-744,400	-66,849	0,187	0,054
-743,385	-19,355	-0,291	-0,132
-742,371	800,000	0,042	0,106
-741,356	-84,718	-0,235	-0,054
-740,342	158,915	0,117	0,120
-739,327	-153,710	-0,288	-0,014
-738,312	58,460	0,099	-0,072
-737,298	-122,379	-0,405	-0,048
-736,283	190,010	0,091	0,101
-735,269	-122,787	-0,372	-0,044
-734,254	-166,936	0,162	0,005
-733,239	-54,138	-0,558	-0,186
-732,225	-28,973	0,261	0,110
-731,210	295,739	0,053	0,071
-730,196	-63,656	-0,125	0,037
-729,181	-97,022	-0,053	-0,010
-728,167	519,238	-0,028	0,048
-727,152	-10,596	-0,086	-0,042
-726,137	38,236	0,063	0,041
-725,123	490,575	0,019	0,031
-724,108	-200,000	0,003	-0,131
-723,094	-200,000	-0,011	-0,060
-722,079	800,000	-0,004	-0,010
-721,064	-200,000	-0,016	0,096
-720,050	800,000	0,023	0,054
-719,035	642,069	0,075	-0,142
-718,021	-111,382	-0,138	-0,020
-717,006	-17,293	-0,074	-0,034
-715,991	-82,276	-0,098	-0,023
-714,977	800,000	-0,024	-0,057
-713,962	-200,000	0,031	-0,164
-712,948	142,129	-0,023	-0,022
-711,933	800,000	0,039	-0,108
-710,918	597,199	-0,057	-0,105
-709,904	-61,944	0,045	0,014
-708,889	328,802	0,021	-0,030
-707,875	311,039	-0,028	-0,038
-706,860	269,247	-0,098	-0,127
-705,845	23,187	-0,092	0,056
-704,831	487,980	-0,004	-0,007
-703,816	-27,260	-0,093	-0,040
-702,802	-75,404	-0,233	-0,061
-701,787	-103,375	0,047	0,008
-700,772	800,000	0,040	-0,087
-699,758	800,000	-0,022	0,056
-698,743	-200,000	0,017	0,077
-697,729	440,859	-0,022	-0,035
-696,714	800,000	0,038	0,107
-695,699	-154,288	0,079	-0,004
-694,685	-200,000	0,015	0,128
-693,670	176,648	-0,097	-0,104
-692,656	-200,000	0,002	-0,114
-691,641	800,000	-0,035	-0,082
-690,627	-200,000	-0,002	-0,045
-689,612	292,221	0,047	0,062
-688,597	2,391	0,140	-0,074
-687,583	-104,457	-0,083	-0,014
-686,568	152,029	0,092	-0,092
-685,554	-122,743	0,083	0,010
-684,539	800,000	-0,085	0,191
-683,524	463,944	-0,023	0,039
-682,510	607,643	-0,063	-0,116
-681,495	61,951	0,033	-0,024
-680,481	-200,000	0,028	-0,127
-679,466	800,000	0,038	0,087
-678,451	-130,855	-0,092	0,009
-677,437	-200,000	0,001	0,040
-676,422	-200,000	-0,025	0,099
-675,408	-84,963	0,126	0,029
-674,393	21,717	-0,062	-0,037
-673,378	375,414	-0,053	0,080
-672,364	-200,000	0,000	0,072
-671,349	-38,439	0,052	0,020
-670,335	227,202	0,037	-0,045
-669,320	-200,000	-0,009	0,106
-668,305	800,000	0,022	-0,063
-667,291	-200,000	-0,015	0,056
-666,276	-200,000	0,002	-0,123
-665,262	800,000	-0,029	0,076
-664,247	800,000	0,045	0,121
-663,232	-17,235	-0,059	0,027
-662,218	180,052	0,055	0,060
-661,203	-74,949	-0,158	0,041
-660,189	38,967	-0,096	-0,063
-659,174	45,487	0,044	-0,030
-658,159	313,991	-0,034	-0,047
-657,145	800,000	-0,034	0,099
-656,130	800,000	0,031	-0,067
-655,116	102,091	-0,070	0,060
-654,101	800,000	-0,047	0,096
-653,086	800,000	0,024	0,068
-652,072	-117,073	-0,059	-0,008
-651,057	-45,458	-0,074	0,027
-650,043	122,751	-0,030	-0,028
-649,028	-104,190	-0,085	0,014
-648,014	339,400	0,037	0,054
-646,999	800,000	-0,013	-0,039
-645,984	-132,120	0,028	-0,003
-644,970	-144,850	-0,172	-0,011
-643,955	-101,983	0,068	0,012
-642,941	800,000	0,065	-0,146
-641,926	66,585	0,056	-0,042
-640,911	-200,000	-0,028	0,122
-639,897	193,069	0,047	0,052
-638,882	71,633	-0,132	0,101
-637,868	800,000	-0,018	-0,052
-636,853	424,967	0,063	-0,100
-635,838	317,047	-0,049	-0,068
-634,824	13,730	-0,024	-0,013
-633,809	-43,046	0,028	-0,010
-632,795	-93,910	0,082	0,016
-631,780	530,122	-0,036	0,063
-630,765	-106,509	-0,132	0,021
-629,751	-92,425	-0,114	0,023
-628,736	262,600	0,045	0,057
-627,722	88,969	0,035	0,028
-626,707	206,191	-0,050	0,057
-625,692	-115,848	0,142	0,019
-624,678	-187,232	-0,097	-0,001
-623,663	80,911	-0,039	0,031
-622,649	28,561	-0,125	-0,077
-621,634	-113,443	-0,044	-0,006
-620,619	-73,035	0,023	0,006
-619,605	-43,712	0,037	0,013
-618,590	-93,649	0,028	0,006
-617,576	-200,000	0,014	0,057
-616,561	243,806	0,062	-0,076
-615,546	388,442	0,029	-0,043
-614,532	-161,305	-0,120	0,004
-613,517	684,607	-0,046	-0,088
-612,503	29,856	0,099	0,062
-611,488	419,314	0,065	0,102
-610,474	27,031	-0,061	0,038
-609,459	-39,159	0,066	0,025
-608,444	-200,000	-0,001	0,080
-607,430	800,000	-0,042	0,101
-606,415	800,000	0,063	-0,138
-605,401	-200,000	-0,004	0,043
-604,386	-17,435	-0,115	0,053
-603,371	188,034	-0,037	0,041
-602,357	318,487	0,068	0,095
-601,342	-200,000	0,004	-0,098
-600,328	-200,000	-0,012	-0,045
-599,313	329,737	-0,143	-0,202
-598,298	-200,000	-0,046	0,233
-597,284	31,675	0,161	0,101
-596,269	430,378	0,039	-0,062
-595,255	-1,378	0,052	-0,027
-594,240	-139,501	0,038	0,003
-593,225	184,074	-0,037	-0,040
-592,211	132,031	0,107	-0,101
-591,196	561,097	-0,035	-0,063
-590,182	779,688	0,011	-0,021
-589,167	-200,000	0,021	0,111
-588,152	-171,800	-0,095	-0,002
-587,138	-64,558	-0,149	-0,044
-586,123	698,541	-0,011	-0,022
-585,109	-200,000	0,006	0,029
-584,094	321,074	0,083	0,116
-583,079	86,414	0,074	0,059
-582,065	800,000	0,038	-0,123
-581,050	-200,000	0,000	-0,123
-580,036	20,589	0,004	-0,002
-579,021	25,687	-0,129	0,078
-578,006	800,000	0,029	-0,082
-576,992	127,283	0,082	-0,077
-575,977	800,000	-0,019	-0,041
-574,963	-6,781	0,085	0,042
-573,948	159,779	0,057	0,058
-572,934	-200,000	-0,040	0,174
-571,919	-200,000	-0,006	-0,039
-570,904	-93,563	0,076	0,015
-569,890	68,024	-0,044	-0,033
-568,875	-132,274	0,074	0,007
-567,861	-200,000	-0,041	0,154
-566,846	-82,493	-0,096	-0,023
-565,831	-200,000	-0,010	0,034
-564,817	-80,017	0,022	-0,005
-563,802	-200,000	0,053	-0,246
-562,788	-113,020	0,177	-0,025
-561,773	-200,000	-0,032	0,136
-560,758	53,881	0,106	-0,074
-559,744	-16,646	0,147	-0,068
-558,729	-200,000	0,010	-0,132
-557,715	400,721	0,041	-0,063
-556,700	-74,322	-0,090	0,024
-555,685	-200,000	0,012	-0,058
-554,671	-200,000	0,011	-0,056
-553,656	42,866	-0,073	-0,048
-552,642	58,168	0,133	0,095
-551,627	800,000	0,035	-0,089
-550,612	105,918	-0,103	0,089
-549,598	-200,000	-0,006	-0,067
-548,583	189,193	0,043	0,048
-547,569	-20,956	0,134	0,060
-546,554	-74,058	0,033	-0,009
-545,539	-200,000	0,002	-0,025
-544,525	-200,000	-0,028	0,133
-543,510	480,687	0,031	0,052
-542,496	-184,843	-0,095	-0,001
-541,481	0,106	-0,070	0,037
-540,466	800,000	-0,032	0,072
-539,452	800,000	0,045	0,125
-538,437	692,033	0,067	0,129
-537,423	-200,000	-0,004	0,106
-536,408	-200,000	0,000	-0,027
-535,393	287,072	-0,065	-0,086
-534,379	-70,388	-0,045	-0,012
-533,364	-200,000	-0,019	-0,070
-532,350	-18,179	0,058	0,027
-531,335	-84,796	-0,136	0,031
-530,321	424,120	0,037	0,058
-529,306	48,324	0,059	-0,040
-528,291	-200,000	-0,017	-0,105
-527,277	-154,929	0,036	-0,002
-526,262	173,309	-0,040	-0,042
-525,248	-50,072	0,024	0,008
-524,233	-54,900	0,150	0,049
-523,218	213,424	-0,057	0,066
-522,204	-200,000	0,044	0,158
-521,189	-200,000	-0,014	-0,113
-520,175	800,000	-0,061	-0,154
-519,160	204,001	0,058	-0,066
-518,145	256,040	0,056	0,071
-517,131	-135,188	0,130	0,011
-516,116	9,884	0,006	-0,003
-515,102	-8,198	0,045	-0,022
-514,087	452,409	-0,100	-0,161
-513,072	-200,000	-0,017	0,072
-512,058	-135,894	0,028	-0,002
-511,043	330,142	-0,024	0,034
-510,029	37,419	0,088	0,057
-509,014	-72,361	-0,177	0,047
-507,999	85,925	0,076	-0,061
-506,985	335,326	-0,094	-0,133
-505,970	94,704	-0,039	-0,032
-504,956	97,765	0,064	-0,054
-503,941	359,284	0,017	0,025
-502,926	-200,000	-0,015	0,065
-501,912	-100,715	0,096	-0,017
-500,897	-89,821	-0,039	-0,008
-499,883	800,000	-0,064	0,173
-498,868	243,630	0,122	0,150
-497,853	800,000	-0,008	0,024
-496,839	-95,690	0,050	-0,010
-495,824	-28,767	0,028	0,012
-494,810	-200,000	0,009	-0,150
-493,795	-105,440	0,096	0,016
-492,781	5,327	-0,231	0,124
-491,766	-200,000	-0,008	-0,059
-490,751	-105,414	-0,026	0,004
-489,737	-200,000	-0,012	-0,170
-488,722	428,952	-0,047	-0,074
-487,708	-200,000	-0,029	-0,116
-486,693	171,300	0,060	0,063
-485,678	-200,000	0,001	0,025
-484,664	782,350	-0,078	-0,157
-483,649	-54,816	0,066	0,022
-482,635	-200,000	-0,003	0,090
-481,620	141,513	0,035	-0,034
-480,605	-200,000	0,015	0,099
-479,591	268,327	0,081	-0,104
-478,576	-200,000	-0,006	-0,168
-477,562	293,166	-0,046	-0,061
-476,547	20,850	-0,015	-0,009
-475,532	-25,733	0,041	0,017
-474,518	-84,822	0,084	-0,019
-473,503	800,000	-0,007	0,016
-472,489	61,446	-0,046	-0,033
-471,474	-101,317	-0,044	0,008
-470,459	-200,000	0,002	-0,065
-469,445	693,170	-0,015	-0,028
-468,430	-60,508	0,095	0,029
-467,416	-200,000	-0,017	-0,071
-466,401	-200,000	0,010	0,053
-465,386	-200,000	-0,016	0,082
-464,372	225,794	0,041	0,049
-463,357	-157,905	-0,071	0,003
-462,343	59,013	-0,098	0,070
-461,328	130,406	-0,078	0,073
-460,313	255,057	-0,087	0,108
-459,299	-35,985	0,148	0,058
-458,284	-18,928	0,020	0,009
-457,270	-29,504	-0,061	0,025
-456,255	800,000	0,033	-0,081
-455,241	-97,336	-0,129	-0,024
-454,226	-99,476	-0,238	-0,043
-453,211	800,000	0,071	-0,157
-452,197	-200,000	-0,019	0,099
-451,182	177,397	0,073	-0,077
-450,168	229,536	0,020	0,023
-449,153	568,646	0,055	-0,098
-448,138	800,000	-0,039	-0,106
-447,124	-82,639	-0,096	0,023
-446,109	-183,928	-0,048	0,001
-445,095	-200,000	-0,002	0,073
-444,080	128,463	-0,114	0,105
-443,065	9,253	-0,071	-0,039
-442,051	-200,000	0,005	0,177
-441,036	767,993	-0,033	-0,065
-440,022	59,093	0,167	-0,120
-439,007	92,855	0,089	-0,073
-437,992	71,015	-0,053	0,040
-436,978	387,272	-0,024	0,036
-435,963	-70,598	-0,025	-0,007
-434,949	107,971	0,042	-0,037
-433,934	183,580	-0,069	-0,074
-432,919	-200,000	0,005	0,096
-431,905	677,941	-0,050	-0,096
-430,890	45,135	-0,014	0,009
-429,876	345,186	0,069	0,098
-428,861	62,276	-0,048	-0,035
-427,846	-79,024	0,015	0,004
-426,832	141,630	-0,064	0,061
-425,817	176,369	-0,060	-0,063
-424,803	-65,090	-0,049	-0,014
-423,788	69,828	0,057	0,042
-422,773	-200,000	0,032	0,252
-421,759	-13,574	0,123	-0,058
-420,744	149,346	0,046	0,045
-419,730	-106,526	-0,170	0,027
-418,715	-66,493	-0,027	-0,008
-417,701	346,834	-0,047	0,067
-416,686	788,550	-0,032	0,065
-415,671	-200,000	-0,009	-0,109
-414,657	-200,000	0,008	0,147
-413,642	101,131	0,085	0,072
-412,628	-200,000	0,002	-0,010
-411,613	-200,000	-0,032	0,104
-410,598	-96,825	-0,131	-0,025
-409,584	-200,000	-0,001	0,017
-408,569	-59,464	0,107	0,033
-407,555	-103,347	0,064	0,011
-406,540	-85,288	0,092	0,021
-405,525	14,227	0,044	0,025
-404,511	58,325	0,032	-0,022
-403,496	-24,797	0,068	0,029
-402,482	-119,866	-0,030	-0,004
-401,467	-29,776	-0,062	0,026
-400,452	345,877	-0,043	-0,061
-399,438	-6,443	-0,077	0,038
-398,423	-81,487	0,049	0,012
-397,409	231,518	-0,045	0,054
-396,394	-72,828	0,102	0,027
-395,379	0,319	0,090	-0,047
-394,365	-200,000	0,002	-0,021
-393,350	-54,843	0,103	0,034
-392,336	-148,185	-0,166	-0,010
-391,321	-135,648	-0,120	-0,010
-390,306	174,296	-0,103	-0,108
-389,292	-83,784	0,168	-0,039
-388,277	800,000	-0,032	-0,071
-387,263	-200,000	-0,022	0,108
-386,248	-64,662	-0,011	0,003
-385,233	-200,000	-0,009	-0,052
-384,219	-75,487	-0,061	-0,016
-383,204	-200,000	0,001	-0,043
-382,190	-49,234	-0,089	-0,031
-381,175	800,000	-0,067	-0,137
-380,160	17,164	0,079	-0,046
-379,146	13,511	-0,077	-0,043
-378,131	434,902	0,067	-0,107
-377,117	-200,000	-0,014	0,101
-376,102	-200,000	0,001	-0,068
-375,088	-200,000	-0,003	-0,126
-374,073	368,732	0,043	0,063
-373,058	48,401	0,102	-0,069
-372,044	47,552	0,056	-0,038
-371,029	800,000	-0,005	0,016
-370,015	254,161	0,080	0,100
-369,000	-129,079	-0,102	-0,010
-367,985	-200,000	0,003	-0,105
-366,971	8,136	0,030	0,016
-365,956	-200,000	-0,020	-0,149
-364,942	161,530	-0,048	-0,049
-363,927	149,394	0,080	0,078
-362,912	32,442	-0,050	-0,031
-361,898	800,000	0,010	-0,025
-360,883	76,367	-0,107	-0,082
-359,869	-78,922	-0,102	0,025
-358,854	189,442	0,013	0,014
-357,839	344,765	0,131	0,187
-356,825	800,000	-0,033	0,078
-355,810	-84,701	0,035	-0,008
-354,796	306,818	0,108	0,147
-353,781	-200,000	-0,006	0,135
-352,766	764,773	0,074	0,146
-351,752	800,000	0,040	0,095
-350,737	-200,000	0,002	0,029
-349,723	800,000	0,034	-0,076
-348,708	-26,990	-0,035	0,015
-347,693	469,615	-0,112	-0,183
-346,679	800,000	-0,048	-0,100
-345,664	800,000	-0,041	-0,120
-344,650	18,744	-0,073	0,042
-343,635	-104,274	0,097	-0,016
-342,620	-200,000	0,007	0,126
-341,606	123,849	-0,039	0,035
-340,591	86,876	-0,065	0,052
-339,577	-58,945	-0,100	0,031
-338,562	-52,421	-0,089	-0,030
-337,548	-103,416	0,139	0,024
-336,533	31,299	0,108	-0,067
-335,518	-46,741	0,073	0,026
-334,504	-200,000	-0,005	-0,055
-333,489	13,596	-0,047	0,027
-332,475	800,000	0,049	-0,112
-331,460	777,966	0,050	0,100
-330,445	-88,442	0,090	-0,019
-329,431	800,000	-0,034	-0,091
-328,416	283,615	0,051	0,067
-327,402	233,840	-0,090	0,108
-326,387	-68,345	-0,012	-0,003
-325,372	196,673	0,108	-0,119
-324,358	165,290	-0,019	-0,019
-323,343	452,371	-0,017	0,027
-322,329	800,000	-0,023	-0,073
-321,314	137,461	0,091	-0,086
-320,299	-119,690	0,065	-0,008
-319,285	-187,401	-0,057	-0,001
-318,270	800,000	-0,062	0,154
-317,256	-200,000	0,012	-0,072
-316,241	-200,000	0,002	-0,113
-315,226	271,548	-0,063	0,081
-314,212	192,833	0,029	0,032
-313,197	-200,000	0,003	0,129
-312,183	-114,626	0,078	0,011
-311,168	68,387	0,046	-0,034
-310,153	-200,000	0,003	0,028
-309,139	-22,717	0,153	-0,067
-308,124	710,792	-0,038	0,074
-307,110	800,000	0,056	0,144
-306,095	104,815	-0,071	0,060
-305,080	800,000	0,032	0,074
-304,066	800,000	0,011	-0,027
-303,051	-115,461	-0,134	0,018
-302,037	-200,000	-0,009	-0,161
-301,022	-200,000	0,029	0,150
-300,008	800,000	0,051	0,146
-298,993	-33,732	-0,066	0,026
-297,978	-74,375	-0,010	-0,003
-296,964	800,000	0,034	-0,080
-295,949	-200,000	0,012	-0,065
-294,935	43,527	-0,018	-0,012
-293,920	-77,337	0,114	-0,028
-292,905	-200,000	-0,010	0,054
-291,891	26,014	-0,022	-0,013
-290,876	413,626	-0,025	0,039
-289,862	0,755	0,077	-0,040
-288,847	800,000	-0,063	-0,168
-287,832	-200,000	-0,020	-0,186
-286,818	-186,461	-0,171	-0,002
-285,803	-200,000	-0,011	-0,065
-284,789	110,121	-0,062	0,054
-283,774	-122,234	-0,072	-0,008
-282,759	800,000	0,061	-0,123
-281,745	-61,357	-0,129	0,039
-280,730	92,648	-0,083	-0,068
-279,716	68,896	0,016	-0,012
-278,701	150,572	0,020	0,020
-277,686	23,078	0,160	-0,095
-276,672	57,601	-0,051	-0,036
-275,657	-58,153	0,091	-0,029
-274,643	-111,440	-0,200	-0,029
-273,628	662,529	0,020	0,037
-272,613	-200,000	-0,021	0,070
-271,599	26,781	0,094	-0,057
-270,584	365,595	0,039	-0,056
-269,570	226,020	0,070	0,082
-268,555	800,000	-0,031	0,086
-267,540	261,802	0,041	-0,052
-266,526	317,728	-0,120	-0,165
-265,511	-200,000	-0,007	-0,123
-264,497	-200,000	0,014	0,112
-263,482	481,766	0,085	0,140
-262,467	389,202	-0,066	0,098
-261,453	-65,173	-0,029	-0,008
-260,438	-69,801	-0,145	0,040
-259,424	56,389	-0,011	-0,008
-258,409	579,118	0,066	-0,117
-257,395	800,000	-0,022	0,065
-256,380	-200,000	-0,001	0,045
-255,365	579,447	-0,056	0,100
-254,351	800,000	-0,045	-0,120
-253,336	-200,000	-0,014	-0,119
-252,322	800,000	-0,033	0,078
-251,307	-0,593	-0,045	0,023
-250,292	-54,728	-0,037	0,012
-249,278	-200,000	0,010	0,050
-248,263	800,000	0,046	-0,114
-247,249	-158,995	-0,111	0,004
-246,234	-200,000	-0,001	-0,011
-245,219	12,650	0,073	-0,041
-244,205	-96,958	-0,126	0,024
-243,190	-200,000	-0,003	-0,100
-242,176	-200,000	-0,003	0,067
-241,161	-87,102	0,119	0,026
-240,146	43,055	0,108	0,071
-239,132	-32,445	-0,131	-0,052
-238,117	-200,000	-0,033	-0,110
-237,103	8,075	-0,079	0,043
-236,088	160,720	-0,093	0,094
-235,073	-200,000	-0,012	-0,042
-234,059	-200,000	0,004	-0,047
-233,044	-106,203	0,145	0,023
-232,030	285,043	0,043	-0,056
-231,015	800,000	0,025	0,063
-230,000	-96,808	-0,079	-0,015
-228,986	227,870	0,034	-0,040
-227,971	218,309	0,019	0,022
-226,957	800,000	0,029	0,064
-225,942	-77,050	-0,059	0,015
-224,927	-61,313	-0,110	0,033
-223,913	-180,132	0,058	-0,001
-222,898	94,181	-0,088	0,072
-221,884	800,000	-0,037	-0,076
-220,869	366,146	0,083	-0,122
-219,855	35,953	0,081	0,051
-218,840	-200,000	-0,009	-0,041
-217,825	-200,000	-0,017	-0,086
-216,811	-31,944	-0,018	0,007
-215,796	61,342	-0,077	-0,055
-214,782	-70,070	0,076	-0,021
-213,767	-172,029	0,099	0,002
-212,752	-200,000	-0,001	0,116
-211,738	132,616	0,116	0,108
-210,723	-179,204	-0,092	0,001
-209,709	37,434	-0,072	0,046
-208,694	-76,044	0,099	0,025
-207,679	700,276	0,088	-0,168
-206,665	-200,000	0,014	-0,045
-205,650	-151,274	0,149	0,008
-204,636	800,000	-0,063	0,182
-203,621	60,678	-0,050	-0,036
-202,606	-111,852	0,083	0,012
-201,592	-200,000	-0,017	-0,174
-200,577	800,000	-0,026	-0,082
-199,563	725,232	0,033	0,065
-198,548	118,427	0,075	-0,066
-197,533	-107,533	-0,101	0,016
-196,519	-97,960	0,087	-0,016
-195,504	-40,538	0,053	0,020
-194,490	-200,000	-0,023	-0,082
-193,475	-200,000	-0,006	-0,107
-192,460	-133,363	-0,064	0,006
-191,446	484,806	-0,022	-0,037
-190,431	-200,000	-0,036	0,125
-189,417	800,000	-0,029	0,084
-188,402	800,000	0,025	0,078
-187,387	-19,309	-0,061	0,027
-186,373	52,886	-0,044	-0,030
-185,358	-200,000	0,017	0,080
-184,344	-200,000	-0,011	0,039
-183,329	-25,043	-0,067	0,028
-182,315	-90,991	-0,053	0,011
-181,300	368,190	-0,023	0,034
-180,285	800,000	0,038	-0,100
-179,271	-121,372	-0,154	-0,018
-178,256	442,033	0,119	-0,189
-177,242	-39,857	0,111	0,042
-176,227	800,000	0,018	0,052
-175,212	-200,000	0,011	-0,050
-174,198	-200,000	0,011	0,046
-173,183	800,000	-0,015	-0,031
-172,169	-81,726	0,094	-0,022
-171,154	-2,982	-0,042	0,021
-170,139	353,974	-0,049	-0,070
-169,125	-167,382	0,080	-0,002
-168,110	160,320	-0,058	0,058
-167,096	-41,174	-0,059	0,022
-166,081	9,722	-0,091	0,050
-165,066	-30,303	-0,055	0,022
-164,052	356,747	0,042	-0,060
-163,037	-200,000	-0,006	0,035
-162,023	-18,781	0,262	0,117
-161,008	-55,801	0,134	0,043
-159,993	37,596	0,066	0,042
-158,979	-200,000	-0,011	0,090
-157,964	-200,000	0,003	0,021
-156,950	-200,000	0,023	-0,094
-155,935	46,564	0,034	0,022
-154,920	-0,266	0,052	-0,026
-153,906	473,443	0,044	0,071
-152,891	-86,562	-0,092	-0,020
-151,877	-200,000	-0,024	-0,076
-150,862	800,000	-0,019	-0,051
-149,847	-200,000	-0,038	-0,194
-148,833	-200,000	-0,007	-0,045
-147,818	800,000	-0,027	0,058
-146,804	83,973	-0,075	0,059
-145,789	-90,392	-0,050	0,010
-144,775	665,521	0,065	-0,122
-143,760	-200,000	0,025	-0,138
-142,745	-200,000	-0,014	-0,126
-141,731	98,524	0,060	0,050
-140,716	-200,000	-0,025	0,158
-139,702	-200,000	-0,009	0,062
-138,687	-103,803	-0,154	0,026
-137,672	261,695	0,014	0,017
-136,658	-34,480	0,116	-0,046
-135,643	800,000	0,012	-0,032
-134,629	474,356	-0,035	-0,057
-133,614	39,960	0,082	-0,053
-132,599	2,369	0,040	0,021
-131,585	-86,349	-0,126	0,028
-130,570	-20,274	-0,061	-0,027
-129,556	800,000	0,020	0,042
-128,541	366,966	-0,133	-0,193
-127,526	-91,097	-0,015	-0,003
-126,512	164,554	0,035	-0,035
-125,497	800,000	0,008	-0,017
-124,483	-71,775	-0,142	0,038
-123,468	-200,000	-0,000	0,039
-122,453	-57,467	0,019	-0,006
-121,439	417,811	0,065	-0,100
-120,424	-48,671	-0,173	-0,059
-119,410	6,666	0,050	-0,027
