DTS Sentinel unit serial number:	SN410029Multiplexer serial number:	ORYXHardware model number:	OX2-SRSoftware version number:	ORYX F/W v4,00 Oryx Data Collector v3.7.2.0data status	okinstallation	B5 Nyhavnadifferential loss correction	single-endedforward channel	channel 2reverse channel	N/Adate	2023/12/14time	10:02:13forward acquisition time	300,00reverse acquisition time	0,00gamma	499,1914k internal	0,3161k external	0,3161temperature offset calibration	1,0000default loss term (dB/km)	0,3820temperature slope calibration	1,0000multiplexer offset coefficient	1,0000multiplexer slope coefficient	1,0000fibre end	0,00T internal ref (°C)	6,88T ext. ref 1 (°C)	-9,28T ext. ref 2 (°C)	-9,31length (m)	temperature (°C)	Stokes	anti-Stokes-744,400	-130,953	0,217	0,021
-743,385	-109,330	-0,450	-0,069
-742,371	-22,739	0,291	0,129
-741,356	56,690	-0,251	-0,180
-740,342	387,333	0,088	0,134
-739,327	-82,902	-0,422	-0,100
-738,312	273,169	0,111	0,145
-737,298	41,574	-0,210	-0,140
-736,283	-50,854	0,224	0,077
-735,269	-87,401	-0,394	-0,087
-734,254	63,527	0,129	0,095
-733,239	1,669	-0,569	-0,301
-732,225	-54,988	0,227	0,075
-731,210	-18,381	0,097	0,044
-730,196	146,688	-0,065	0,064
-729,181	-47,636	-0,022	-0,008
-728,167	800,000	-0,057	-0,131
-727,152	-77,102	-0,079	-0,020
-726,137	673,812	-0,030	-0,057
-725,123	-86,717	-0,117	-0,026
-724,108	540,971	-0,027	-0,048
-723,094	73,579	-0,084	-0,064
-722,079	-142,831	-0,169	0,012
-721,064	78,306	0,119	0,093
-720,050	65,107	-0,067	0,050
-719,035	144,308	-0,044	0,043
-718,021	-200,000	-0,015	-0,073
-717,006	-200,000	-0,030	-0,144
-715,991	66,876	-0,130	-0,097
-714,977	-200,000	0,026	-0,141
-713,962	297,750	-0,062	0,084
-712,948	-26,919	-0,102	-0,044
-711,933	-200,000	0,001	0,026
-710,918	70,579	-0,081	0,062
-709,904	143,872	-0,041	0,040
-708,889	-200,000	0,023	0,098
-707,875	118,654	0,038	0,034
-706,860	800,000	0,038	-0,087
-705,845	-125,058	-0,073	0,008
-704,831	58,071	0,033	0,024
-703,816	-125,754	-0,103	0,011
-702,802	154,812	-0,057	0,057
-701,787	42,955	0,039	-0,026
-700,772	-37,847	-0,036	0,014
-699,758	411,066	-0,081	-0,127
-698,743	-200,000	-0,003	-0,017
-697,729	-37,368	0,070	-0,027
-696,714	-78,742	0,075	0,019
-695,699	-200,000	-0,024	0,124
-694,685	-200,000	-0,026	-0,155
-693,670	-149,801	-0,058	0,003
-692,656	616,312	0,071	0,132
-691,641	-200,000	0,018	0,096
-690,627	244,517	-0,034	-0,042
-689,612	624,978	-0,054	-0,101
-688,597	412,026	0,042	-0,066
-687,583	-62,877	-0,152	-0,046
-686,568	-50,541	-0,106	0,037
-685,554	197,524	-0,083	0,093
-684,539	-31,493	-0,100	0,041
-683,524	-200,000	0,021	0,096
-682,510	-64,496	-0,068	0,020
-681,495	202,525	-0,096	-0,109
-680,481	27,319	-0,116	-0,071
-679,466	6,306	-0,171	-0,093
-678,451	297,887	-0,043	0,059
-677,437	11,008	-0,086	0,048
-676,422	22,868	0,126	-0,076
-675,408	11,706	0,097	-0,054
-674,393	574,893	-0,042	-0,075
-673,378	-200,000	-0,008	-0,072
-672,364	800,000	-0,100	-0,210
-671,349	274,083	0,114	0,149
-670,335	800,000	-0,014	0,038
-669,320	800,000	0,024	-0,058
-668,305	-66,941	0,052	-0,015
-667,291	-139,770	-0,131	0,010
-666,276	800,000	-0,045	-0,122
-665,262	94,447	-0,053	-0,044
-664,247	115,070	-0,049	-0,044
-663,232	-200,000	0,015	0,101
-662,218	-200,000	0,004	-0,086
-661,203	-151,340	-0,174	-0,009
-660,189	-200,000	0,015	-0,080
-659,174	281,434	-0,078	-0,103
-658,159	-200,000	-0,008	0,033
-657,145	18,498	-0,132	-0,077
-656,130	157,192	0,081	-0,083
-655,116	-52,406	-0,028	-0,009
-654,101	338,715	-0,038	-0,055
-653,086	800,000	-0,010	-0,023
-652,072	176,579	-0,036	-0,038
-651,057	376,174	0,069	-0,103
-650,043	-200,000	0,004	-0,061
-649,028	526,619	-0,045	-0,078
-648,014	-123,065	0,095	-0,011
-646,999	-200,000	-0,005	0,119
-645,984	800,000	-0,083	0,176
-644,970	1,629	-0,077	-0,040
-643,955	-200,000	0,014	-0,064
-642,941	196,653	0,031	0,034
-641,926	111,146	0,071	-0,063
-640,911	164,043	-0,136	0,141
-639,897	-88,010	-0,172	0,038
-638,882	800,000	0,050	0,106
-637,868	-32,160	-0,084	-0,034
-636,853	243,804	-0,067	0,082
-635,838	14,812	-0,112	-0,064
-634,824	-91,540	0,011	-0,002
-633,809	-200,000	0,002	0,125
-632,795	-36,011	0,072	0,028
-631,780	178,386	0,101	0,108
-630,765	65,456	0,050	0,037
-629,751	71,759	0,124	-0,094
-628,736	-148,500	-0,094	0,006
-627,722	-14,013	0,070	0,033
-626,707	-200,000	0,002	0,015
-625,692	-0,697	0,083	0,043
-624,678	-115,748	-0,096	-0,013
-623,663	-200,000	0,011	0,092
-622,649	23,953	-0,116	-0,070
-621,634	-200,000	0,014	-0,047
-620,619	20,071	-0,018	0,011
-619,605	79,114	0,029	0,023
-618,590	151,132	0,057	0,057
-617,576	-120,566	0,155	-0,019
-616,561	1,178	0,071	0,037
-615,546	97,432	0,071	-0,060
-614,532	-200,000	0,009	-0,054
-613,517	-117,109	-0,157	-0,021
-612,503	800,000	-0,028	0,076
-611,488	-200,000	0,008	-0,050
-610,474	411,014	-0,028	0,044
-609,459	-104,224	-0,041	0,007
-608,444	-123,540	-0,101	0,012
-607,430	40,041	-0,133	-0,087
-606,415	62,789	-0,046	-0,034
-605,401	241,611	-0,037	0,045
-604,386	290,189	0,038	0,051
-603,371	-200,000	0,010	0,138
-602,357	-93,691	-0,026	0,005
-601,342	74,305	-0,055	-0,042
-600,328	-200,000	-0,028	-0,090
-599,313	466,198	-0,046	-0,076
-598,298	-118,226	0,139	0,018
-597,284	-104,120	0,160	-0,027
-596,269	-200,000	0,013	-0,075
-595,255	-200,000	-0,012	0,049
-594,240	431,060	-0,015	0,024
-593,225	262,143	-0,018	-0,023
-592,211	-111,986	-0,118	0,017
-591,196	800,000	0,033	-0,073
-590,182	800,000	-0,047	0,105
-589,167	108,733	-0,036	-0,031
-588,152	414,548	-0,046	-0,072
-587,138	-55,514	0,071	-0,023
-586,123	-200,000	-0,016	-0,149
-585,109	-34,273	-0,080	-0,032
-584,094	-146,810	-0,067	-0,004
-583,079	-122,176	0,033	0,004
-582,065	800,000	0,045	0,098
-581,050	-48,068	0,076	-0,027
-580,036	-101,231	-0,157	0,028
-579,021	-114,439	-0,067	0,009
-578,006	-61,304	-0,059	-0,018
-576,992	-200,000	-0,031	-0,116
-575,977	-146,063	0,138	0,009
-574,963	82,614	0,022	0,018
-573,948	302,444	-0,061	0,082
-572,934	3,435	0,104	-0,055
-571,919	-39,534	-0,143	0,055
-570,904	-129,564	0,073	0,007
-569,890	-121,206	-0,103	-0,012
-568,875	-199,152	0,075	0,000
-567,861	339,805	0,092	0,132
-566,846	-152,918	0,048	0,002
-565,831	-200,000	0,006	-0,057
-564,817	-200,000	-0,002	-0,023
-563,802	800,000	-0,059	-0,133
-562,788	290,399	0,028	0,037
-561,773	-162,632	0,176	0,006
-560,758	-118,611	-0,071	-0,009
-559,744	-188,516	-0,126	0,001
-558,729	-17,619	-0,057	-0,026
-557,715	183,846	0,027	-0,030
-556,700	-200,000	-0,007	0,063
-555,685	-106,057	-0,075	0,012
-554,671	66,119	-0,103	-0,076
-553,656	-107,414	0,078	0,012
-552,642	772,730	0,041	0,081
-551,627	-100,845	0,008	-0,001
-550,612	800,000	-0,060	-0,126
-549,598	16,254	-0,052	-0,030
-548,583	476,489	-0,126	0,209
-547,569	-133,165	0,141	0,013
-546,554	238,992	-0,070	0,085
-545,539	-181,891	-0,059	0,001
-544,525	324,388	0,037	0,052
-543,510	88,153	0,126	-0,102
-542,496	352,602	0,024	-0,035
-541,481	-200,000	-0,018	-0,069
-540,466	800,000	-0,018	0,043
-539,452	-200,000	0,004	0,125
-538,437	305,501	-0,058	0,078
-537,423	800,000	-0,018	-0,037
-536,408	328,721	-0,032	-0,045
-535,393	378,443	-0,058	0,087
-534,379	800,000	-0,052	0,106
-533,364	-200,000	-0,026	-0,135
-532,350	-200,000	-0,011	-0,044
-531,335	478,851	0,028	-0,046
-530,321	13,503	0,129	0,073
-529,306	-200,000	0,019	-0,087
-528,291	-70,864	0,135	0,037
-527,277	99,997	-0,058	0,049
-526,262	60,616	-0,061	0,044
-525,248	191,875	-0,090	-0,099
-524,233	800,000	-0,049	0,114
-523,218	800,000	0,023	0,055
-522,204	800,000	-0,053	-0,116
-521,189	800,000	-0,051	-0,120
-520,175	-200,000	0,015	0,092
-519,160	225,315	-0,045	0,053
-518,145	-200,000	0,008	-0,110
-517,131	65,195	-0,080	0,059
-516,116	106,046	0,086	0,074
-515,102	477,079	0,042	0,070
-514,087	347,757	0,037	0,054
-513,072	403,935	0,016	0,024
-512,058	512,868	-0,012	0,020
-511,043	-200,000	0,023	0,077
-510,029	-160,940	-0,027	-0,001
-509,014	384,962	-0,090	0,135
-507,999	409,054	0,008	-0,013
-506,985	-200,000	0,033	-0,137
-505,970	-78,341	-0,039	-0,010
-504,956	105,946	0,047	-0,041
-503,941	-60,388	-0,128	-0,039
-502,926	-200,000	-0,009	-0,049
-501,912	3,297	-0,054	0,029
-500,897	-109,094	-0,094	0,015
-499,883	58,900	0,084	-0,060
-498,868	-200,000	-0,012	-0,145
-497,853	800,000	0,060	0,138
-496,839	-200,000	0,012	0,045
-495,824	268,791	0,107	0,137
-494,810	71,328	0,053	0,040
-493,795	800,000	-0,037	-0,109
-492,781	167,654	-0,092	-0,096
-491,766	-92,729	-0,064	-0,013
-490,751	800,000	-0,073	-0,156
-489,737	239,986	0,081	-0,098
-488,722	197,096	0,050	0,056
-487,708	52,106	0,126	0,088
-486,693	800,000	-0,042	0,131
-485,678	36,351	0,061	-0,039
-484,664	70,220	-0,143	0,107
-483,649	800,000	-0,028	-0,080
-482,635	244,595	0,006	0,007
-481,620	-94,736	0,030	-0,006
-480,605	-200,000	-0,020	0,115
-479,591	103,280	0,049	-0,042
-478,576	445,310	0,039	-0,063
-477,562	-37,502	-0,041	-0,016
-476,547	497,528	-0,026	-0,044
-475,532	375,647	-0,011	0,016
-474,518	172,395	0,050	-0,053
-473,503	143,983	0,077	0,075
-472,489	-200,000	-0,018	-0,136
-471,474	-200,000	-0,005	0,019
-470,459	496,118	-0,070	0,117
-469,445	-75,230	0,134	0,035
-468,430	714,317	0,026	-0,051
-467,416	-200,000	-0,024	0,104
-466,401	-148,051	0,131	0,008
-465,386	-200,000	-0,014	0,093
-464,372	58,054	0,046	0,032
-463,357	189,533	-0,073	-0,080
-462,343	-200,000	0,012	-0,165
-461,328	-200,000	-0,015	-0,101
-460,313	67,015	-0,103	-0,076
-459,299	800,000	0,019	0,045
-458,284	-200,000	-0,000	0,177
-457,270	-200,000	-0,007	-0,032
-456,255	135,063	-0,099	0,094
-455,241	-200,000	0,009	0,084
-454,226	309,776	-0,098	0,134
-453,211	254,042	0,062	-0,077
-452,197	43,416	0,136	0,090
-451,182	145,217	0,137	0,133
-450,168	-125,457	0,074	0,008
-449,153	-200,000	0,003	-0,019
-448,138	567,741	0,040	-0,071
-447,124	-48,869	-0,021	0,007
-446,109	-47,833	0,061	0,022
-445,095	-129,164	-0,086	0,009
-444,080	56,273	-0,147	0,104
-443,065	14,771	0,036	0,020
-442,051	800,000	-0,016	-0,043
-441,036	-91,037	-0,178	-0,037
-440,022	-10,606	0,051	0,024
-439,007	274,098	0,070	0,091
-437,992	-7,426	0,101	0,049
-436,978	-4,008	0,018	0,009
-435,963	-200,000	-0,008	0,076
-434,949	366,701	0,045	0,066
-433,934	270,207	0,081	-0,104
-432,919	72,588	0,051	-0,039
-431,905	21,568	0,026	-0,015
-430,890	-93,765	0,054	0,011
-429,876	800,000	0,039	0,093
-428,861	-200,000	-0,019	-0,115
-427,846	-200,000	-0,005	0,095
-426,832	246,236	-0,069	0,085
-425,817	800,000	0,021	-0,048
-424,803	597,850	0,068	0,123
-423,788	20,423	0,117	-0,069
-422,773	-200,000	0,010	-0,112
-421,759	-67,905	-0,061	0,017
-420,744	-168,334	-0,064	-0,002
-419,730	82,517	-0,083	0,065
-418,715	-11,295	0,066	0,032
-417,701	-131,904	0,044	0,004
-416,686	-200,000	-0,008	0,102
-415,671	-99,983	0,133	-0,024
-414,657	-58,333	0,106	-0,033
-413,642	253,109	-0,044	0,055
-412,628	128,958	-0,061	0,057
-411,613	-200,000	-0,022	-0,074
-410,598	-200,000	-0,022	0,075
-409,584	507,429	0,012	0,019
-408,569	241,371	0,035	-0,043
-407,555	800,000	0,049	0,144
-406,540	20,911	0,105	0,062
-405,525	-200,000	0,004	-0,078
-404,511	-200,000	-0,013	0,072
-403,496	-200,000	-0,010	0,201
-402,482	-90,489	-0,082	-0,017
-401,467	-200,000	-0,045	0,160
-400,452	278,088	0,014	0,019
-399,438	-74,492	-0,035	0,009
-398,423	74,443	-0,067	-0,051
-397,409	-170,199	0,118	0,003
-396,394	800,000	-0,035	-0,076
-395,379	-200,000	-0,020	-0,131
-394,365	800,000	0,040	0,088
-393,350	179,258	-0,069	-0,074
-392,336	-200,000	0,014	-0,085
-391,321	-33,457	-0,117	-0,047
-390,306	39,853	0,063	-0,041
-389,292	800,000	0,050	-0,142
-388,277	-125,095	-0,220	-0,024
-387,263	363,608	0,055	-0,080
-386,248	-93,482	0,131	-0,026
-385,233	800,000	-0,034	0,084
-384,219	-27,017	-0,087	-0,037
-383,204	800,000	0,011	0,024
-382,190	679,041	-0,074	-0,141
-381,175	620,717	-0,038	0,069
-380,160	5,771	0,055	0,029
-379,146	-158,189	0,053	0,002
-378,131	3,910	-0,118	0,063
-377,117	-118,741	-0,118	-0,015
-376,102	-82,172	0,051	-0,012
-375,088	-15,094	-0,064	0,030
-374,073	186,850	0,048	-0,052
-373,058	75,944	0,109	0,084
-372,044	-49,437	-0,174	-0,060
-371,029	-112,051	0,126	0,018
-370,015	266,693	-0,109	0,139
-369,000	171,762	-0,067	0,070
-367,985	-106,220	-0,134	-0,022
-366,971	800,000	0,031	-0,072
-365,956	-200,000	-0,008	0,124
-364,942	-29,655	0,145	0,060
-363,927	-200,000	-0,011	0,087
-362,912	-200,000	-0,026	0,125
-361,898	302,724	0,059	0,080
-360,883	129,456	0,145	-0,135
-359,869	-200,000	0,010	-0,073
-358,854	-47,097	-0,057	-0,020
-357,839	800,000	-0,035	0,110
-356,825	-57,151	0,193	0,061
-355,810	51,862	-0,096	-0,066
-354,796	-12,590	0,105	-0,049
-353,781	12,254	-0,062	-0,034
-352,766	37,514	0,103	-0,066
-351,752	55,709	-0,079	-0,056
-350,737	113,507	0,111	0,098
-349,723	-27,706	0,184	-0,077
-348,708	58,235	-0,036	-0,025
-347,693	10,933	-0,039	-0,022
-346,679	178,073	-0,042	-0,045
-345,664	-200,000	-0,012	-0,076
-344,650	244,428	-0,031	-0,038
-343,635	-104,344	0,125	-0,021
-342,620	75,483	-0,107	0,081
-341,606	28,041	0,072	0,044
-340,591	180,914	0,064	-0,068
-339,577	-200,000	0,019	-0,118
-338,562	800,000	-0,011	-0,026
-337,548	-188,799	-0,083	0,001
-336,533	800,000	0,043	-0,107
-335,518	-200,000	0,010	0,061
-334,504	-38,597	0,163	-0,062
-333,489	-200,000	0,012	-0,054
-332,475	3,223	-0,147	-0,077
-331,460	30,507	-0,027	0,017
-330,445	-200,000	-0,046	0,281
-329,431	-136,560	0,093	0,008
-328,416	33,980	0,144	0,090
-327,402	-200,000	0,015	-0,079
-326,387	-199,766	-0,102	0,000
-325,372	149,116	-0,149	-0,146
-324,358	36,539	0,091	0,058
-323,343	-141,239	0,100	0,007
-322,329	-152,976	-0,049	-0,002
-321,314	800,000	0,011	0,027
-320,299	7,651	0,012	0,007
-319,285	-4,877	0,089	0,044
-318,270	-5,624	-0,115	0,057
-317,256	13,454	-0,068	0,038
-316,241	-200,000	-0,010	0,073
-315,226	800,000	0,030	0,090
-314,212	169,574	0,082	-0,085
-313,197	-200,000	-0,012	0,103
-312,183	12,112	0,093	-0,052
-311,168	-151,353	-0,068	0,004
-310,153	800,000	-0,058	-0,170
-309,139	306,573	0,020	-0,027
-308,124	-100,536	0,035	0,006
-307,110	335,655	0,077	0,109
-306,095	800,000	-0,029	0,086
-305,080	-200,000	-0,007	0,201
-304,066	24,004	0,064	-0,038
-303,051	-200,000	0,001	0,079
-302,037	-102,255	0,070	0,012
-301,022	329,839	0,058	0,081
-300,008	294,163	-0,056	0,075
-298,993	392,087	0,023	-0,035
-297,978	276,898	0,084	0,108
-296,964	3,463	0,053	-0,028
-295,949	-68,633	-0,230	-0,064
-294,935	-200,000	-0,001	-0,036
-293,920	800,000	-0,043	0,095
-292,905	-200,000	-0,020	-0,126
-291,891	70,547	0,047	-0,035
-290,876	800,000	0,058	0,144
-289,862	476,839	-0,054	0,089
-288,847	-200,000	-0,008	0,031
-287,832	-200,000	0,001	-0,035
-286,818	-200,000	-0,027	-0,102
-285,803	418,753	0,054	-0,084
-284,789	-114,608	-0,099	-0,014
-283,774	-199,786	0,072	0,000
-282,759	-200,000	0,017	0,076
-281,745	-49,449	0,114	-0,039
-280,730	800,000	0,031	0,092
-279,716	-200,000	0,007	0,035
-278,701	-152,256	0,135	-0,007
-277,686	-80,374	0,073	-0,018
-276,672	-8,677	0,119	0,057
-275,657	-127,009	0,091	0,010
-274,643	-200,000	-0,023	-0,085
-273,628	130,608	-0,058	-0,054
-272,613	-200,000	-0,002	0,025
-271,599	74,439	0,104	0,079
-270,584	25,032	-0,075	-0,045
-269,570	-200,000	0,003	0,087
-268,555	-46,099	0,053	-0,019
-267,540	75,642	-0,133	-0,102
-266,526	70,200	0,087	-0,065
-265,511	536,318	0,021	0,036
-264,497	264,675	0,026	-0,032
-263,482	565,828	0,039	-0,069
-262,467	325,401	0,014	-0,020
-261,453	176,484	-0,122	-0,128
-260,438	111,959	-0,146	-0,127
-259,424	800,000	-0,008	-0,018
-258,409	800,000	0,042	-0,085
-257,395	127,612	0,070	-0,064
-256,380	-107,566	-0,080	0,012
-255,365	-200,000	-0,008	0,123
-254,351	143,587	0,055	-0,053
-253,336	67,221	-0,019	-0,014
-252,322	-200,000	0,028	0,107
-251,307	-200,000	-0,033	-0,126
-250,292	-200,000	-0,007	0,026
-249,278	-200,000	0,008	-0,032
-248,263	-113,651	0,077	0,011
-247,249	-140,804	0,081	0,006
-246,234	800,000	-0,050	-0,156
-245,219	800,000	0,041	-0,103
-244,205	-200,000	-0,005	-0,077
-243,190	-42,167	0,072	0,026
-242,176	-64,029	0,111	0,033
-241,161	76,081	0,052	0,039
-240,146	79,093	0,048	0,037
-239,132	-200,000	0,003	-0,039
-238,117	-141,763	-0,066	-0,005
-237,103	-41,511	-0,055	-0,020
-236,088	-120,092	-0,028	-0,003
-235,073	273,542	-0,035	0,045
-234,059	-46,214	0,080	0,028
-233,044	-74,910	-0,023	0,006
-232,030	323,941	0,051	-0,070
-231,015	800,000	-0,058	-0,136
-230,000	159,916	-0,044	-0,045
-228,986	174,174	0,064	-0,067
-227,971	386,877	-0,052	0,077
-226,957	-134,177	0,146	0,013
-225,942	-92,403	0,041	-0,008
-224,927	562,686	-0,095	-0,166
-223,913	-200,000	-0,021	-0,157
-222,898	65,197	-0,048	-0,035
-221,884	-200,000	-0,018	-0,100
-220,869	800,000	-0,017	0,039
-219,855	800,000	-0,074	0,202
-218,840	160,380	-0,057	0,058
-217,825	-200,000	0,029	-0,101
-216,811	38,083	0,158	-0,101
-215,796	-14,382	-0,110	-0,051
-214,782	111,317	-0,021	-0,018
-213,767	-149,192	0,124	-0,007
-212,752	23,604	0,038	-0,022
-211,738	-200,000	0,003	0,081
-210,723	23,892	-0,049	-0,029
-209,709	99,125	-0,134	-0,111
-208,694	221,626	-0,053	0,061
-207,679	-120,369	-0,103	-0,012
-206,665	510,045	0,072	0,120
-205,650	81,032	0,070	0,055
-204,636	-200,000	-0,015	-0,161
-203,621	-42,117	-0,057	-0,021
-202,606	-200,000	-0,004	-0,024
-201,592	-200,000	-0,010	-0,067
-200,577	800,000	0,025	-0,060
-199,563	654,346	-0,073	-0,135
-198,548	-20,558	0,127	0,056
-197,533	429,967	-0,069	0,108
-196,519	-89,584	-0,111	-0,023
-195,504	-125,653	0,152	0,016
-194,490	-53,413	-0,146	-0,048
-193,475	362,425	-0,029	-0,042
-192,460	70,067	-0,036	-0,027
-191,446	104,203	0,063	0,053
-190,431	800,000	0,014	-0,044
-189,417	-200,000	0,007	0,042
-188,402	-60,896	-0,016	0,005
-187,387	-200,000	0,000	-0,058
-186,373	456,117	-0,047	-0,075
-185,358	800,000	-0,042	-0,094
-184,344	11,885	-0,053	0,029
-183,329	800,000	-0,005	0,013
-182,315	-95,149	0,113	0,022
-181,300	-200,000	-0,006	-0,104
-180,285	-200,000	-0,028	-0,207
-179,271	-153,027	-0,084	0,004
-178,256	30,854	0,103	0,064
-177,242	-164,411	0,065	-0,002
-176,227	-200,000	-0,005	0,130
-175,212	426,252	-0,067	0,105
-174,198	-63,888	0,102	0,030
-173,183	-21,436	-0,133	-0,058
-172,169	-56,956	-0,180	-0,057
-171,154	-78,832	-0,128	-0,031
-170,139	-200,000	0,006	-0,039
-169,125	-88,631	0,190	-0,040
-168,110	-5,010	0,067	-0,033
-167,096	-200,000	-0,008	-0,075
-166,081	-159,892	-0,147	-0,006
-165,066	316,073	-0,035	-0,047
-164,052	-200,000	-0,027	-0,092
-163,037	-127,154	-0,164	-0,017
-162,023	-200,000	0,033	0,195
-161,008	307,351	0,079	-0,106
-159,993	-23,115	0,162	-0,070
-158,979	-75,453	-0,120	-0,030
-157,964	-200,000	-0,009	-0,065
-156,950	-200,000	-0,002	-0,011
-155,935	-200,000	-0,000	-0,087
-154,920	-200,000	0,031	0,175
-153,906	-200,000	0,002	0,069
-152,891	-200,000	0,020	-0,075
-151,877	684,800	0,036	0,068
-150,862	800,000	-0,019	0,052
-149,847	323,841	-0,088	-0,122
-148,833	-130,676	0,098	0,009
-147,818	-200,000	0,000	0,031
-146,804	-13,508	0,040	0,018
-145,789	800,000	0,022	0,065
-144,775	-200,000	-0,003	-0,040
-143,760	-200,000	0,001	-0,090
-142,745	69,842	0,047	-0,035
-141,731	452,614	-0,011	-0,018
-140,716	800,000	0,031	-0,089
-139,702	-200,000	0,022	-0,110
-138,687	433,919	0,032	-0,050
-137,672	-56,548	-0,120	-0,038
-136,658	-131,296	0,042	0,004
-135,643	-163,932	-0,159	0,005
-134,629	342,302	0,054	-0,076
-133,614	250,379	0,069	0,084
-132,599	-200,000	0,007	0,056
-131,585	-92,568	0,087	0,017
-130,570	-200,000	0,018	-0,141
-129,556	43,118	0,065	0,042
-128,541	-135,591	-0,122	-0,010
-127,526	-35,571	0,111	0,043
-126,512	-134,289	0,082	-0,007
-125,497	-200,000	-0,029	0,136
-124,483	1,625	0,155	0,080
-123,468	-10,949	-0,061	0,029
-122,453	186,861	0,051	-0,055
-121,439	-200,000	0,019	-0,125
-120,424	-56,557	0,059	-0,019
