DTS Sentinel unit serial number:	SN410029Multiplexer serial number:	ORYXHardware model number:	OX2-SRSoftware version number:	ORYX F/W v4,00 Oryx Data Collector v3.7.2.0data status	okinstallation	B5 Nyhavnadifferential loss correction	single-endedforward channel	channel 2reverse channel	N/Adate	2023/12/12time	20:02:13forward acquisition time	300,00reverse acquisition time	0,00gamma	499,1914k internal	0,3157k external	0,3157temperature offset calibration	1,0000default loss term (dB/km)	0,3820temperature slope calibration	1,0000multiplexer offset coefficient	1,0000multiplexer slope coefficient	1,0000fibre end	0,00T internal ref (°C)	15,37T ext. ref 1 (°C)	-1,29T ext. ref 2 (°C)	-1,58length (m)	temperature (°C)	Stokes	anti-Stokes-744,400	-21,441	0,161	-0,072
-743,385	-28,715	-0,214	0,090
-742,371	-144,183	0,162	-0,011
-741,356	86,424	-0,203	0,165
-740,342	-50,553	0,194	-0,067
-739,327	-42,866	-0,240	0,090
-738,312	-200,000	0,002	-0,064
-737,298	-128,371	-0,406	-0,042
-736,283	-43,180	0,155	0,058
-735,269	-108,535	-0,225	0,035
-734,254	216,804	0,048	-0,056
-733,239	-144,412	-0,321	-0,022
-732,225	-149,472	0,162	0,009
-731,210	-200,000	-0,005	0,047
-730,196	800,000	0,026	0,077
-729,181	-200,000	-0,003	-0,084
-728,167	325,685	-0,160	-0,227
-727,152	-200,000	0,022	-0,075
-726,137	-32,371	-0,079	-0,032
-725,123	-31,938	0,055	0,023
-724,108	-200,000	-0,014	-0,059
-723,094	-64,548	-0,147	-0,044
-722,079	-200,000	0,023	-0,160
-721,064	-89,797	-0,162	0,035
-720,050	-200,000	-0,018	0,138
-719,035	-138,432	-0,051	0,004
-718,021	-200,000	0,014	-0,062
-717,006	-36,241	-0,150	-0,059
-715,991	-200,000	-0,048	0,175
-714,977	-200,000	-0,003	0,019
-713,962	725,375	-0,063	-0,124
-712,948	-44,659	0,116	0,042
-711,933	-200,000	-0,030	0,117
-710,918	568,978	0,036	0,065
-709,904	6,233	-0,093	-0,051
-708,889	96,514	0,018	-0,015
-707,875	360,506	0,036	0,054
-706,860	-200,000	0,036	0,151
-705,845	433,552	0,021	-0,034
-704,831	-200,000	0,016	-0,185
-703,816	-74,989	0,127	0,033
-702,802	258,280	0,088	-0,112
-701,787	88,170	0,086	-0,070
-700,772	90,065	-0,048	-0,040
-699,758	319,776	-0,066	0,092
-698,743	800,000	-0,035	0,082
-697,729	51,530	-0,056	0,039
-696,714	-200,000	-0,004	0,187
-695,699	-45,756	-0,058	-0,021
-694,685	-200,000	-0,004	-0,260
-693,670	-151,455	-0,080	-0,004
-692,656	513,243	-0,039	0,068
-691,641	284,871	0,050	-0,066
-690,627	107,071	-0,095	0,083
-689,612	481,796	-0,028	0,046
-688,597	458,947	0,011	0,018
-687,583	-108,552	-0,117	0,018
-686,568	800,000	0,032	0,081
-685,554	-75,375	0,085	-0,022
-684,539	124,292	0,069	0,064
-683,524	118,230	-0,108	0,098
-682,510	152,518	0,027	0,027
-681,495	-103,313	-0,114	0,020
-680,481	-122,869	-0,065	-0,008
-679,466	273,243	-0,061	-0,079
-678,451	-91,156	0,107	-0,022
-677,437	-92,355	0,055	0,011
-676,422	18,670	0,053	0,031
-675,408	-115,022	-0,069	-0,009
-674,393	91,517	-0,063	0,052
-673,378	800,000	-0,038	-0,092
-672,364	-28,375	-0,064	0,027
-671,349	-17,722	0,023	-0,011
-670,335	79,494	0,057	0,045
-669,320	316,127	-0,119	0,166
-668,305	399,345	-0,057	-0,087
-667,291	103,957	-0,101	0,088
-666,276	-200,000	0,004	-0,080
-665,262	-200,000	-0,032	-0,185
-664,247	412,917	0,024	-0,038
-663,232	153,571	-0,090	0,091
-662,218	-76,819	0,109	-0,028
-661,203	-200,000	0,026	-0,092
-660,189	-149,442	-0,042	-0,002
-659,174	-3,521	0,122	-0,062
-658,159	22,763	-0,169	-0,102
-657,145	-97,002	-0,094	-0,018
-656,130	277,549	-0,107	-0,140
-655,116	-200,000	0,018	0,070
-654,101	258,107	0,037	-0,047
-653,086	-39,587	-0,110	0,042
-652,072	-45,030	0,096	-0,035
-651,057	-200,000	-0,034	-0,129
-650,043	125,498	-0,041	-0,038
-649,028	-98,230	-0,042	0,008
-648,014	-151,833	0,115	-0,006
-646,999	704,497	0,047	0,091
-645,984	-200,000	-0,008	0,091
-644,970	-13,880	-0,024	-0,011
-643,955	114,598	-0,154	-0,138
-642,941	-121,934	0,093	0,011
-641,926	-200,000	-0,008	-0,049
-640,911	-200,000	0,007	-0,058
-639,897	-91,197	0,067	0,014
-638,882	-84,608	0,050	0,011
-637,868	-200,000	-0,018	-0,068
-636,853	-35,207	-0,044	-0,017
-635,838	139,488	-0,116	-0,112
-634,824	60,552	0,094	-0,068
-633,809	-100,525	0,104	-0,019
-632,795	-200,000	0,008	0,058
-631,780	76,955	-0,074	0,058
-630,765	-73,756	-0,040	0,011
-629,751	-200,000	0,001	-0,213
-628,736	-200,000	0,010	-0,041
-627,722	-200,000	-0,003	0,085
-626,707	-200,000	-0,005	0,084
-625,692	74,103	-0,119	0,091
-624,678	12,611	0,066	0,037
-623,663	-147,108	-0,036	-0,002
-622,649	-77,523	-0,090	-0,023
-621,634	-54,165	-0,043	0,014
-620,619	-79,676	0,046	0,011
-619,605	372,238	0,085	-0,127
-618,590	45,155	0,068	0,046
-617,576	-116,640	-0,103	-0,014
-616,561	31,085	0,084	0,053
-615,546	800,000	-0,065	-0,134
-614,532	42,972	-0,058	-0,038
-613,517	-129,046	-0,023	0,002
-612,503	-200,000	-0,014	-0,082
-611,488	108,621	0,037	0,033
-610,474	-107,386	-0,085	0,014
-609,459	800,000	0,045	-0,139
-608,444	-176,622	-0,099	-0,002
-607,430	134,568	-0,050	-0,048
-606,415	-200,000	-0,002	-0,025
-605,401	167,850	0,040	0,042
-604,386	38,306	0,110	0,072
-603,371	-8,222	0,115	0,057
-602,357	-5,909	0,069	0,035
-601,342	247,532	-0,055	0,068
-600,328	110,880	-0,088	-0,078
-599,313	244,873	-0,030	0,037
-598,298	-200,000	0,006	0,058
-597,284	42,440	0,060	0,040
-596,269	104,646	0,112	0,096
-595,255	94,267	-0,057	-0,048
-594,240	383,630	0,052	-0,079
-593,225	-62,792	-0,152	0,046
-592,211	-72,961	-0,145	-0,039
-591,196	215,382	-0,021	-0,024
-590,182	-6,575	-0,046	-0,023
-589,167	440,314	0,026	0,042
-588,152	-85,896	-0,133	0,030
-587,138	-18,562	-0,071	-0,033
-586,123	100,226	-0,053	-0,045
-585,109	197,369	0,069	0,077
-584,094	164,283	-0,010	-0,010
-583,079	800,000	-0,030	-0,076
-582,065	297,196	0,100	0,135
-581,050	62,048	-0,050	-0,037
-580,036	800,000	-0,038	-0,107
-579,021	221,555	-0,058	-0,069
-578,006	26,719	0,143	-0,088
-576,992	-200,000	0,001	0,050
-575,977	9,793	-0,088	-0,049
-574,963	-85,224	0,149	-0,034
-573,948	800,000	0,028	0,071
-572,934	-200,000	-0,002	0,067
-571,919	140,209	-0,009	0,009
-570,904	-47,576	-0,045	-0,016
-569,890	-59,241	0,036	0,011
-568,875	-98,195	0,169	0,032
-567,861	-66,443	-0,086	0,025
-566,846	110,339	-0,046	0,040
-565,831	87,873	-0,027	0,022
-564,817	-28,415	-0,068	-0,029
-563,802	191,913	-0,106	-0,117
-562,788	-200,000	0,004	-0,061
-561,773	-200,000	-0,006	-0,072
-560,758	192,627	-0,026	-0,029
-559,744	800,000	-0,041	-0,119
-558,729	-200,000	-0,030	0,114
-557,715	-200,000	-0,035	0,141
-556,700	22,476	-0,096	-0,057
-555,685	-4,825	-0,071	-0,036
-554,671	-121,275	0,159	0,019
-553,656	240,675	0,026	-0,031
-552,642	-200,000	0,009	0,118
-551,627	-13,971	0,090	-0,042
-550,612	-68,461	0,097	-0,027
-549,598	800,000	0,021	-0,051
-548,583	30,553	0,013	0,008
-547,569	409,777	0,025	0,039
-546,554	250,667	-0,034	-0,042
-545,539	-78,286	0,106	-0,026
-544,525	-141,559	-0,060	0,004
-543,510	113,486	-0,054	0,048
-542,496	84,420	-0,090	-0,072
-541,481	52,681	0,090	-0,063
-540,466	800,000	0,034	0,077
-539,452	800,000	0,041	0,123
-538,437	-200,000	0,003	0,074
-537,423	-76,821	0,156	-0,040
-536,408	-200,000	-0,030	-0,135
-535,393	-65,468	0,126	-0,037
-534,379	-200,000	-0,009	-0,061
-533,364	-200,000	-0,032	0,129
-532,350	342,838	0,016	0,024
-531,335	-103,589	0,111	0,019
-530,321	100,870	0,188	0,160
-529,306	-34,737	-0,171	0,068
-528,291	86,074	0,048	0,039
-527,277	161,371	-0,037	-0,038
-526,262	-71,318	-0,083	-0,023
-525,248	-200,000	-0,022	0,179
-524,233	225,391	0,022	0,026
-523,218	800,000	-0,032	0,082
-522,204	231,542	0,082	-0,098
-521,189	-97,473	0,158	0,030
-520,175	-18,701	-0,069	-0,031
-519,160	-200,000	0,005	-0,087
-518,145	226,230	0,062	0,074
-517,131	800,000	-0,013	-0,042
-516,116	283,132	0,029	0,038
-515,102	275,767	-0,049	-0,064
-514,087	-200,000	0,027	-0,134
-513,072	653,924	-0,053	-0,099
-512,058	203,179	-0,080	0,090
-511,043	27,672	-0,056	-0,034
-510,029	-200,000	0,001	-0,022
-509,014	-42,649	-0,146	0,054
-507,999	50,466	-0,131	0,090
-506,985	580,943	-0,062	-0,111
-505,970	366,106	-0,041	0,061
-504,956	32,349	0,028	0,018
-503,941	-131,004	0,138	-0,013
-502,926	366,452	-0,058	-0,086
-501,912	-118,743	0,088	0,011
-500,897	-82,921	-0,144	0,034
-499,883	50,236	-0,040	-0,028
-498,868	222,401	-0,123	-0,145
-497,853	-73,872	0,074	-0,019
-496,839	406,005	0,024	0,038
-495,824	-200,000	-0,002	0,235
-494,810	-200,000	-0,009	0,175
-493,795	-200,000	0,010	0,110
-492,781	-200,000	-0,024	-0,089
-491,766	-81,641	0,028	-0,007
-490,751	140,090	-0,029	-0,028
-489,737	-200,000	-0,007	-0,066
-488,722	-97,309	0,035	-0,007
-487,708	800,000	0,064	0,142
-486,693	-200,000	-0,030	0,207
-485,678	-110,966	0,115	-0,017
-484,664	210,471	-0,062	-0,071
-483,649	-174,462	0,044	-0,001
-482,635	-108,460	0,157	-0,024
-481,620	-200,000	-0,006	-0,030
-480,605	-71,217	-0,100	0,027
-479,591	108,535	0,081	0,071
-478,576	69,150	-0,004	-0,003
-477,562	-74,141	-0,104	0,027
-476,547	233,836	0,131	-0,157
-475,532	173,008	-0,024	0,026
-474,518	-200,000	-0,007	-0,038
-473,503	-200,000	0,000	0,043
-472,489	800,000	-0,041	0,092
-471,474	49,171	0,032	-0,022
-470,459	800,000	-0,049	0,106
-469,445	-59,174	-0,124	-0,039
-468,430	22,571	0,071	0,042
-467,416	606,919	-0,062	-0,113
-466,401	140,265	-0,031	0,030
-465,386	515,205	-0,053	0,091
-464,372	-200,000	-0,014	-0,072
-463,357	-24,196	-0,048	-0,021
-462,343	-70,502	-0,039	0,011
-461,328	191,181	-0,102	0,112
-460,313	-15,063	-0,035	0,016
-459,299	-62,044	0,112	0,034
-458,284	-145,691	0,079	-0,005
-457,270	55,412	0,056	0,040
-456,255	-0,609	-0,109	0,056
-455,241	190,566	0,076	-0,083
-454,226	-200,000	0,011	-0,152
-453,211	75,031	0,052	0,040
-452,197	-12,512	-0,011	-0,005
-451,182	-200,000	-0,036	0,136
-450,168	800,000	-0,037	-0,096
-449,153	-200,000	-0,028	0,128
-448,138	-145,071	0,060	0,004
-447,124	143,224	0,054	-0,052
-446,109	488,443	0,039	0,065
-445,095	-108,177	0,150	-0,023
-444,080	-200,000	-0,018	-0,091
-443,065	-40,063	0,027	0,010
-442,051	-67,501	0,102	-0,029
-441,036	-13,873	-0,105	0,049
-440,022	138,139	0,025	0,023
-439,007	-155,572	-0,083	0,004
-437,992	3,262	-0,056	-0,030
-436,978	38,101	0,085	-0,055
-435,963	800,000	-0,038	0,083
-434,949	21,112	0,050	-0,029
-433,934	170,341	-0,119	-0,124
-432,919	-117,442	0,091	-0,012
-431,905	-161,047	-0,190	-0,007
-430,890	-3,812	0,089	-0,045
-429,876	-200,000	-0,016	0,150
-428,861	18,360	0,084	0,049
-427,846	27,448	-0,020	0,012
-426,832	800,000	-0,051	0,111
-425,817	-200,000	0,037	-0,202
-424,803	21,217	0,079	0,046
-423,788	-149,444	-0,097	-0,005
-422,773	-93,001	0,049	-0,010
-421,759	40,742	0,093	0,061
-420,744	-200,000	0,007	-0,044
-419,730	8,511	0,074	-0,040
-418,715	-58,522	0,051	0,016
-417,701	2,668	-0,037	-0,019
-416,686	-147,728	0,092	-0,006
-415,671	85,939	-0,041	-0,032
-414,657	149,398	0,029	0,028
-413,642	800,000	-0,050	0,112
-412,628	-54,611	0,039	0,013
-411,613	485,007	-0,085	0,141
-410,598	-81,335	-0,051	0,012
-409,584	24,418	0,010	0,006
-408,569	-200,000	0,015	0,086
-407,555	80,944	0,045	0,035
-406,540	-45,834	0,021	-0,007
-405,525	33,569	-0,032	-0,021
-404,511	-115,704	0,028	-0,004
-403,496	-48,932	0,014	0,005
-402,482	278,743	0,030	0,039
-401,467	800,000	0,079	0,191
-400,452	-200,000	0,003	0,014
-399,438	185,444	-0,057	-0,062
-398,423	-28,595	-0,144	-0,060
-397,409	253,329	0,026	-0,032
-396,394	664,558	-0,042	-0,079
-395,379	-200,000	-0,009	0,089
-394,365	100,116	-0,141	0,119
-393,350	-200,000	0,010	0,114
-392,336	82,868	-0,016	0,013
-391,321	77,938	-0,077	-0,060
-390,306	-90,187	-0,115	0,024
-389,292	373,576	-0,047	-0,069
-388,277	-102,737	-0,065	-0,011
-387,263	-200,000	0,020	0,082
-386,248	-183,088	-0,115	-0,001
-385,233	173,724	0,046	-0,049
-384,219	-200,000	0,014	-0,103
-383,204	-200,000	-0,014	-0,053
-382,190	116,650	0,016	-0,014
-381,175	-156,250	0,168	-0,008
-380,160	-200,000	-0,023	0,104
-379,146	-200,000	0,005	-0,045
-378,131	-28,908	0,101	0,042
-377,117	-50,455	-0,059	-0,020
-376,102	-200,000	-0,035	-0,136
-375,088	370,306	-0,047	-0,070
-374,073	-87,873	0,028	0,006
-373,058	-73,717	0,033	-0,009
-372,044	221,241	0,155	0,181
-371,029	-96,110	-0,024	-0,005
-370,015	-200,000	0,012	-0,248
-369,000	336,153	-0,072	-0,102
-367,985	800,000	0,021	-0,054
-366,971	-80,812	-0,131	-0,031
-365,956	-178,694	0,083	-0,001
-364,942	-91,199	0,058	-0,012
-363,927	-200,000	-0,012	-0,099
-362,912	323,998	0,031	-0,043
-361,898	-6,675	0,010	-0,005
-360,883	-43,174	-0,088	-0,032
-359,869	800,000	0,032	-0,066
-358,854	597,165	0,042	0,076
-357,839	-114,351	-0,030	-0,004
-356,825	-49,286	-0,115	-0,040
-355,810	-59,834	0,012	-0,004
-354,796	-200,000	-0,011	0,054
-353,781	-200,000	0,013	0,112
-352,766	-121,251	0,106	-0,013
-351,752	800,000	0,049	-0,105
-350,737	-90,759	-0,016	-0,003
-349,723	-111,532	-0,111	-0,016
-348,708	-49,347	-0,060	-0,021
-347,693	800,000	-0,090	-0,215
-346,679	421,575	0,047	-0,073
-345,664	123,645	0,037	-0,034
-344,650	302,476	-0,014	-0,019
-343,635	-200,000	0,030	0,167
-342,620	-41,665	0,028	-0,010
-341,606	580,544	-0,033	0,059
-340,591	12,313	-0,026	-0,015
-339,577	-200,000	0,000	-0,240
-338,562	-200,000	0,019	-0,184
-337,548	-17,432	0,121	0,055
-336,533	141,521	-0,089	0,086
-335,518	67,896	0,066	-0,049
-334,504	493,544	-0,043	0,072
-333,489	2,802	-0,096	-0,050
-332,475	800,000	0,025	0,072
-331,460	-99,904	-0,050	0,009
-330,445	64,532	0,064	0,047
-329,431	-92,342	-0,026	0,005
-328,416	-137,749	0,166	0,013
-327,402	298,282	0,017	0,023
-326,387	463,820	-0,057	0,093
-325,372	-200,000	-0,019	-0,074
-324,358	-200,000	0,001	0,058
-323,343	800,000	-0,018	0,053
-322,329	800,000	-0,018	0,052
-321,314	-200,000	0,005	0,022
-320,299	-60,870	-0,023	0,007
-319,285	-36,738	0,102	0,040
-318,270	25,283	-0,107	-0,064
-317,256	-200,000	0,022	-0,131
-316,241	601,119	0,062	-0,113
-315,226	-200,000	-0,015	0,085
-314,212	329,264	0,071	-0,100
-313,197	-90,627	0,055	-0,011
-312,183	-200,000	0,004	0,100
-311,168	34,736	-0,040	-0,025
-310,153	491,042	0,045	-0,076
-309,139	-62,860	-0,052	-0,015
-308,124	-134,075	0,065	-0,006
-307,110	74,790	-0,057	-0,044
-306,095	285,043	-0,025	0,033
-305,080	-66,669	-0,127	-0,036
-304,066	-86,603	0,041	-0,009
-303,051	-200,000	-0,083	0,000
-302,037	-200,000	0,011	0,076
-301,022	-146,078	0,044	0,003
-300,008	800,000	0,027	0,079
-298,993	216,503	0,103	0,119
-297,978	800,000	-0,044	0,090
-296,964	339,833	-0,109	-0,155
-295,949	800,000	0,024	-0,064
-294,935	-48,508	-0,095	-0,033
-293,920	363,513	0,077	0,112
-292,905	800,000	0,016	-0,039
-291,891	-1,425	0,174	-0,089
-290,876	55,611	-0,056	-0,039
-289,862	-90,680	-0,090	0,019
-288,847	-162,089	-0,083	-0,003
-287,832	-64,229	-0,179	-0,052
-286,818	-59,813	-0,067	0,021
-285,803	274,981	-0,049	0,063
-284,789	371,157	0,063	0,092
-283,774	36,749	0,108	-0,069
-282,759	-88,891	0,038	0,008
-281,745	-129,692	-0,149	-0,015
-280,730	378,687	0,056	-0,083
-279,716	6,307	-0,062	-0,033
-278,701	-8,742	0,095	0,046
-277,686	-13,960	0,109	0,051
-276,672	-135,541	-0,072	0,006
-275,657	-200,000	0,003	-0,048
-274,643	39,602	0,058	-0,038
-273,628	-19,001	-0,108	0,049
-272,613	-200,000	-0,023	-0,080
-271,599	-6,649	0,118	-0,058
-270,584	686,112	-0,035	-0,066
-269,570	-200,000	-0,041	0,147
-268,555	73,956	0,055	0,042
-267,540	-5,118	0,035	-0,017
-266,526	-87,619	0,105	-0,023
-265,511	713,943	0,032	-0,061
-264,497	9,422	0,099	0,054
-263,482	379,376	-0,042	0,063
-262,467	159,812	-0,057	-0,058
-261,453	390,408	-0,006	0,010
-260,438	800,000	-0,029	0,079
-259,424	-200,000	0,006	-0,081
-258,409	363,514	0,062	-0,091
-257,395	341,055	0,047	0,067
-256,380	301,107	0,078	0,104
-255,365	251,521	0,124	0,153
-254,351	124,933	0,079	-0,072
-253,336	60,242	-0,040	-0,028
-252,322	-200,000	0,015	-0,065
-251,307	-127,911	-0,199	-0,020
-250,292	29,771	0,057	-0,035
-249,278	-200,000	-0,003	0,032
-248,263	-18,221	0,062	0,028
-247,249	-200,000	-0,013	-0,078
-246,234	-11,529	-0,065	0,031
-245,219	-200,000	0,012	0,048
-244,205	310,024	-0,051	0,069
-243,190	-200,000	0,015	0,181
-242,176	615,203	0,007	-0,012
-241,161	-200,000	-0,012	0,124
-240,146	-200,000	0,007	0,022
-239,132	800,000	-0,035	-0,073
-238,117	497,200	-0,078	0,131
-237,103	593,066	0,003	-0,006
-236,088	800,000	0,079	0,169
-235,073	297,567	-0,016	0,021
-234,059	87,947	0,070	-0,056
-233,044	-146,703	-0,028	0,002
-232,030	800,000	-0,009	-0,022
-231,015	-200,000	0,024	-0,078
-230,000	-44,827	-0,135	-0,049
-228,986	173,310	0,089	-0,093
-227,971	87,955	-0,051	-0,041
-226,957	-75,679	0,111	-0,028
-225,942	-40,844	0,075	-0,028
-224,927	800,000	-0,012	-0,026
-223,913	-145,794	-0,115	-0,007
-222,898	-100,467	-0,104	-0,018
-221,884	365,332	-0,042	-0,062
-220,869	-24,893	0,108	-0,046
-219,855	372,733	0,023	-0,034
-218,840	6,926	0,095	-0,051
-217,825	-52,320	0,026	0,009
-216,811	-200,000	0,028	0,093
-215,796	-17,897	0,083	-0,038
-214,782	-200,000	0,054	0,000
-213,767	-200,000	-0,007	0,132
-212,752	800,000	0,042	0,120
-211,738	-105,099	-0,133	-0,022
-210,723	155,375	0,067	-0,067
-209,709	61,776	0,050	0,036
-208,694	-136,625	0,115	-0,009
-207,679	-200,000	0,001	-0,022
-206,665	653,983	0,016	0,031
-205,650	-77,892	-0,061	-0,015
-204,636	525,700	-0,039	0,066
-203,621	-200,000	-0,055	-0,180
-202,606	-200,000	0,001	0,013
-201,592	-200,000	-0,007	-0,023
-200,577	-111,924	0,045	0,006
-199,563	297,366	0,028	-0,037
-198,548	800,000	0,052	-0,119
-197,533	307,500	-0,032	-0,044
-196,519	59,841	-0,021	0,015
-195,504	273,387	0,040	-0,052
-194,490	-200,000	0,013	-0,175
-193,475	209,767	-0,090	0,103
-192,460	415,549	0,047	0,072
-191,446	800,000	0,044	-0,129
-190,431	156,230	0,087	0,087
-189,417	210,421	-0,062	-0,071
-188,402	-138,858	0,086	-0,007
-187,387	-200,000	0,022	-0,085
-186,373	-35,907	0,145	-0,056
-185,358	-150,506	0,112	0,006
-184,344	-13,182	-0,033	-0,015
-183,329	-200,000	-0,005	0,105
-182,315	70,647	-0,038	-0,028
-181,300	51,216	-0,052	0,035
-180,285	-85,318	0,106	-0,024
-179,271	800,000	0,053	-0,115
-178,256	594,324	0,024	0,043
-177,242	9,076	0,172	0,093
-176,227	-200,000	-0,001	0,033
-175,212	-200,000	-0,023	0,175
-174,198	-200,000	0,004	-0,098
-173,183	-200,000	-0,030	-0,129
-172,169	265,096	-0,072	-0,091
-171,154	350,976	0,033	0,047
-170,139	46,961	-0,022	0,015
-169,125	543,821	0,056	0,096
-168,110	800,000	0,047	0,106
-167,096	-200,000	-0,024	0,204
-166,081	30,765	-0,024	-0,015
-165,066	-162,960	-0,137	-0,005
-164,052	56,140	-0,070	0,049
-163,037	-131,455	0,018	-0,002
-162,023	-181,209	0,109	0,002
-161,008	175,571	-0,109	0,114
-159,993	267,480	-0,074	-0,093
-158,979	42,157	-0,075	0,049
-157,964	-47,224	-0,046	0,016
-156,950	69,965	-0,103	-0,077
-155,935	800,000	0,023	0,048
-154,920	-200,000	-0,034	0,154
-153,906	39,026	-0,076	0,049
-152,891	-200,000	-0,024	-0,088
-151,877	85,043	-0,072	-0,057
-150,862	-58,357	-0,168	-0,052
-149,847	272,645	0,044	0,056
-148,833	10,392	-0,023	0,013
-147,818	800,000	-0,030	0,084
-146,804	-200,000	0,035	0,166
-145,789	285,536	0,023	0,030
-144,775	-3,852	-0,082	0,041
-143,760	34,647	0,084	-0,053
-142,745	6,601	-0,094	-0,050
-141,731	537,962	-0,018	-0,030
-140,716	-99,120	0,078	-0,014
-139,702	89,131	0,065	0,052
-138,687	-200,000	-0,029	0,144
-137,672	-40,081	-0,124	0,046
-136,658	-1,558	-0,082	-0,042
-135,643	-156,492	-0,076	-0,003
-134,629	297,445	-0,029	0,039
-133,614	-84,151	0,018	-0,004
-132,599	-200,000	-0,022	0,077
-131,585	424,963	0,004	-0,007
-130,570	-74,749	0,034	-0,009
-129,556	800,000	-0,022	0,057
-128,541	800,000	0,062	0,178
-127,526	-150,772	0,076	-0,004
-126,512	286,924	0,121	0,157
-125,497	-200,000	0,004	0,093
-124,483	800,000	0,029	0,086
-123,468	703,591	0,019	-0,036
-122,453	800,000	0,050	-0,111
-121,439	6,328	-0,103	-0,055
-120,424	-120,919	0,154	-0,018
-119,410	-200,000	0,017	0,055
