DTS Sentinel unit serial number:	SN410029Multiplexer serial number:	ORYXHardware model number:	OX2-SRSoftware version number:	ORYX F/W v4,00 Oryx Data Collector v3.7.2.0data status	okinstallation	B5 Nyhavnadifferential loss correction	single-endedforward channel	channel 2reverse channel	N/Adate	2023/12/12time	09:32:13forward acquisition time	300,00reverse acquisition time	0,00gamma	499,1914k internal	0,3158k external	0,3158temperature offset calibration	1,0000default loss term (dB/km)	0,3820temperature slope calibration	1,0000multiplexer offset coefficient	1,0000multiplexer slope coefficient	1,0000fibre end	0,00T internal ref (°C)	15,01T ext. ref 1 (°C)	-1,32T ext. ref 2 (°C)	-1,63length (m)	temperature (°C)	Stokes	anti-Stokes-744,400	-93,988	0,089	-0,018
-743,385	-85,777	-0,223	-0,050
-742,371	93,958	0,116	-0,097
-741,356	-17,606	-0,210	-0,097
-740,342	800,000	0,038	0,095
-739,327	-95,659	-0,383	0,075
-738,312	33,757	0,100	-0,064
-737,298	-90,309	-0,348	-0,074
-736,283	187,625	0,097	0,107
-735,269	-139,932	-0,393	0,030
-734,254	258,545	0,040	0,050
-733,239	-61,047	-0,614	-0,190
-732,225	-34,472	0,144	-0,058
-731,210	-200,000	-0,007	0,038
-730,196	67,136	0,107	-0,080
-729,181	-200,000	0,002	-0,069
-728,167	-200,000	0,006	-0,038
-727,152	800,000	0,027	0,061
-726,137	-41,791	-0,081	-0,030
-725,123	37,735	0,050	-0,033
-724,108	800,000	0,012	-0,034
-723,094	-200,000	-0,014	0,117
-722,079	290,403	-0,038	-0,051
-721,064	-121,911	0,065	-0,008
-720,050	-200,000	0,016	-0,059
-719,035	-152,737	0,100	0,005
-718,021	205,180	-0,064	0,073
-717,006	-110,783	-0,058	-0,009
-715,991	40,117	-0,153	-0,101
-714,977	-200,000	0,003	-0,130
-713,962	11,663	-0,038	-0,021
-712,948	-91,206	-0,021	0,004
-711,933	22,562	0,049	-0,029
-710,918	-200,000	-0,020	-0,066
-709,904	94,037	-0,213	-0,178
-708,889	-73,163	-0,121	-0,032
-707,875	-200,000	0,002	0,017
-706,860	-103,122	-0,042	-0,007
-705,845	800,000	-0,013	-0,030
-704,831	-200,000	0,002	-0,087
-703,816	-165,597	-0,022	-0,001
-702,802	800,000	-0,062	-0,180
-701,787	81,181	-0,121	-0,096
-700,772	23,189	-0,080	-0,049
-699,758	94,662	-0,072	-0,061
-698,743	82,589	0,149	-0,119
-697,729	-174,921	0,173	-0,003
-696,714	120,610	0,031	0,029
-695,699	117,602	0,102	-0,093
-694,685	259,772	-0,132	-0,169
-693,670	27,537	-0,052	-0,032
-692,656	-200,000	-0,005	-0,042
-691,641	-49,480	0,033	-0,012
-690,627	23,423	-0,140	0,085
-689,612	300,794	-0,063	-0,085
-688,597	175,436	0,094	-0,101
-687,583	637,214	-0,078	-0,147
-686,568	86,190	-0,121	-0,098
-685,554	800,000	0,028	-0,086
-684,539	202,387	0,065	-0,074
-683,524	355,817	-0,058	0,085
-682,510	110,228	-0,047	-0,042
-681,495	-2,742	0,038	-0,019
-680,481	-84,204	0,157	-0,036
-679,466	-200,000	-0,023	-0,092
-678,451	-200,000	-0,043	-0,260
-677,437	800,000	-0,040	-0,093
-676,422	-200,000	-0,009	0,047
-675,408	-50,754	-0,067	-0,023
-674,393	-13,470	-0,047	0,022
-673,378	-19,028	-0,140	-0,064
-672,364	212,431	0,029	-0,034
-671,349	-200,000	0,015	-0,080
-670,335	-200,000	-0,016	0,102
-669,320	735,199	-0,038	0,075
-668,305	-200,000	0,025	0,085
-667,291	-82,445	-0,102	-0,024
-666,276	-200,000	0,016	-0,066
-665,262	8,634	-0,120	-0,066
-664,247	-200,000	0,021	-0,107
-663,232	-8,946	-0,049	-0,024
-662,218	264,857	-0,015	0,020
-661,203	-200,000	0,000	-0,023
-660,189	-10,981	-0,044	-0,021
-659,174	260,302	0,042	-0,054
-658,159	280,944	-0,086	-0,113
-657,145	563,935	-0,064	-0,114
-656,130	-1,904	-0,066	-0,034
-655,116	800,000	0,063	-0,143
-654,101	-25,519	-0,059	-0,026
-653,086	-200,000	0,011	0,122
-652,072	47,483	-0,107	-0,073
-651,057	270,307	-0,035	-0,045
-650,043	302,858	0,042	0,057
-649,028	245,810	0,039	-0,049
-648,014	-113,864	-0,102	-0,014
-646,999	73,356	-0,072	0,055
-645,984	-200,000	0,009	0,109
-644,970	273,817	0,012	-0,015
-643,955	-37,553	0,029	0,011
-642,941	89,048	-0,157	0,128
-641,926	107,878	-0,015	0,013
-640,911	528,024	0,028	0,048
-639,897	-51,619	0,082	0,028
-638,882	350,012	-0,057	-0,084
-637,868	70,920	0,005	0,004
-636,853	800,000	-0,025	0,053
-635,838	-200,000	0,011	-0,061
-634,824	204,683	0,054	0,061
-633,809	54,283	0,086	0,061
-632,795	328,196	-0,084	0,118
-631,780	-180,363	-0,091	0,001
-630,765	800,000	-0,015	-0,038
-629,751	129,381	0,029	0,027
-628,736	-200,000	-0,013	-0,099
-627,722	-200,000	0,007	-0,128
-626,707	-30,728	-0,075	-0,031
-625,692	-200,000	0,020	0,152
-624,678	-200,000	0,020	-0,102
-623,663	-83,405	-0,212	-0,049
-622,649	343,702	-0,015	-0,022
-621,634	-55,586	-0,119	0,039
-620,619	-200,000	0,042	-0,190
-619,605	-200,000	0,014	-0,123
-618,590	-49,170	-0,056	-0,019
-617,576	-200,000	-0,027	0,119
-616,561	5,668	0,046	-0,025
-615,546	93,594	-0,080	-0,067
-614,532	590,667	-0,077	-0,141
-613,517	-51,699	-0,119	0,040
-612,503	-200,000	-0,005	-0,099
-611,488	-110,009	0,044	-0,007
-610,474	-200,000	0,001	0,026
-609,459	130,073	0,058	0,055
-608,444	397,176	0,007	0,011
-607,430	791,589	-0,007	-0,013
-606,415	109,561	-0,043	-0,038
-605,401	153,590	0,088	0,089
-604,386	-112,446	-0,117	0,017
-603,371	-29,604	-0,103	0,043
-602,357	-71,720	0,138	0,037
-601,342	-27,592	-0,084	0,035
-600,328	7,161	-0,131	0,072
-599,313	-76,993	-0,081	-0,021
-598,298	73,825	-0,056	0,043
-597,284	800,000	0,018	0,051
-596,269	-37,594	-0,073	0,028
-595,255	800,000	-0,085	0,173
-594,240	-182,281	0,051	-0,001
-593,225	4,285	0,061	0,033
-592,211	800,000	-0,025	-0,064
-591,196	-152,793	0,030	-0,002
-590,182	-54,607	0,103	-0,034
-589,167	12,225	0,134	0,076
-588,152	-86,337	-0,008	0,002
-587,138	-200,000	0,000	0,083
-586,123	76,095	-0,048	-0,037
-585,109	-51,431	0,144	0,049
-584,094	-200,000	-0,012	0,066
-583,079	50,288	0,156	-0,108
-582,065	-200,000	0,009	-0,033
-581,050	-52,850	-0,077	0,026
-580,036	311,091	0,044	-0,061
-579,021	450,547	0,047	-0,076
-578,006	-200,000	-0,017	-0,077
-576,992	253,779	-0,061	0,076
-575,977	359,639	0,085	-0,125
-574,963	493,378	0,037	0,063
-573,948	-5,110	-0,061	-0,031
-572,934	-54,754	-0,059	0,019
-571,919	158,634	-0,050	-0,051
-570,904	-33,421	0,030	0,012
-569,890	800,000	-0,062	-0,179
-568,875	331,171	-0,031	-0,045
-567,861	-14,092	0,131	0,062
-566,846	25,107	-0,016	-0,010
-565,831	123,868	0,112	-0,103
-564,817	450,197	-0,017	-0,028
-563,802	122,511	-0,041	-0,037
-562,788	75,063	-0,052	0,040
-561,773	136,727	-0,016	0,015
-560,758	9,292	0,202	0,111
-559,744	-56,808	0,088	-0,028
-558,729	-200,000	-0,010	-0,073
-557,715	-6,703	-0,080	-0,040
-556,700	162,315	-0,094	0,096
-555,685	226,562	-0,103	0,123
-554,671	800,000	-0,041	-0,086
-553,656	37,613	-0,051	0,033
-552,642	-104,884	0,127	0,021
-551,627	288,902	-0,056	0,074
-550,612	315,859	0,087	0,120
-549,598	8,556	-0,036	-0,020
-548,583	-200,000	0,003	0,012
-547,569	230,406	-0,099	0,119
-546,554	-121,110	0,036	0,004
-545,539	-200,000	-0,003	0,061
-544,525	-16,421	0,097	0,045
-543,510	800,000	-0,061	-0,129
-542,496	-6,586	-0,173	-0,086
-541,481	229,322	0,096	-0,115
-540,466	127,127	-0,115	0,106
-539,452	-43,158	-0,036	-0,013
-538,437	70,173	0,136	0,102
-537,423	239,005	-0,075	-0,092
-536,408	800,000	0,037	-0,105
-535,393	658,269	-0,119	-0,224
-534,379	133,466	-0,058	-0,055
-533,364	-200,000	-0,002	-0,101
-532,350	-82,227	-0,082	0,019
-531,335	205,365	-0,024	0,027
-530,321	103,542	-0,032	0,028
-529,306	-200,000	-0,002	0,074
-528,291	5,752	0,056	0,030
-527,277	86,402	-0,028	-0,023
-526,262	217,138	-0,013	-0,015
-525,248	-102,929	0,053	0,009
-524,233	-150,259	-0,080	-0,004
-523,218	800,000	-0,025	0,080
-522,204	-163,188	0,190	0,007
-521,189	66,678	0,121	-0,090
-520,175	62,371	-0,021	0,015
-519,160	118,398	-0,062	0,056
-518,145	136,714	0,046	-0,044
-517,131	-58,719	0,118	0,037
-516,116	-58,182	-0,035	-0,011
-515,102	-200,000	0,009	0,049
-514,087	706,299	0,029	-0,057
-513,072	70,448	-0,104	0,078
-512,058	86,470	0,072	-0,058
-511,043	-104,641	0,110	0,018
-510,029	273,273	0,085	0,109
-509,014	460,121	-0,073	-0,119
-507,999	316,412	-0,035	-0,049
-506,985	-2,317	0,107	-0,055
-505,970	-200,000	-0,019	-0,174
-504,956	450,236	0,057	-0,092
-503,941	-47,147	-0,100	0,035
-502,926	800,000	0,052	0,117
-501,912	-200,000	-0,005	0,209
-500,897	32,737	0,083	-0,052
-499,883	-61,348	0,088	0,027
-498,868	-62,597	-0,053	0,016
-497,853	800,000	-0,042	-0,090
-496,839	66,197	0,073	-0,054
-495,824	304,926	0,105	0,143
-494,810	26,267	0,095	-0,058
-493,795	-55,218	-0,113	-0,037
-492,781	-9,722	-0,125	0,060
-491,766	-15,002	-0,165	-0,077
-490,751	541,675	0,036	0,063
-489,737	-22,883	-0,005	0,002
-488,722	-12,170	0,068	0,032
-487,708	161,749	-0,049	0,050
-486,693	800,000	-0,044	-0,097
-485,678	420,489	0,014	-0,022
-484,664	296,494	0,072	0,096
-483,649	-200,000	0,008	-0,032
-482,635	-200,000	-0,043	-0,142
-481,620	-200,000	0,001	0,139
-480,605	-69,582	0,051	0,014
-479,591	224,651	-0,083	0,098
-478,576	800,000	-0,016	0,043
-477,562	-7,094	-0,090	0,044
-476,547	-163,140	-0,012	0,000
-475,532	0,975	-0,092	-0,048
-474,518	-120,126	-0,048	-0,006
-473,503	800,000	-0,023	0,067
-472,489	-83,858	-0,072	-0,017
-471,474	172,184	0,072	0,075
-470,459	-200,000	0,023	-0,218
-469,445	390,690	-0,065	-0,098
-468,430	588,329	0,008	-0,014
-467,416	199,646	0,041	-0,046
-466,401	81,401	0,068	0,053
-465,386	-200,000	-0,031	0,142
-464,372	-75,681	0,035	0,009
-463,357	-200,000	-0,011	-0,054
-462,343	800,000	0,028	0,086
-461,328	800,000	-0,070	-0,203
-460,313	228,081	-0,060	-0,071
-459,299	800,000	0,049	0,140
-458,284	-32,209	0,052	0,021
-457,270	-200,000	-0,043	0,210
-456,255	-137,361	-0,056	-0,005
-455,241	607,544	-0,060	-0,109
-454,226	800,000	0,013	0,033
-453,211	797,255	-0,034	0,069
-452,197	-19,713	-0,034	0,015
-451,182	152,700	-0,092	-0,092
-450,168	172,296	0,055	0,057
-449,153	-45,302	-0,138	-0,050
-448,138	-126,287	-0,171	0,018
-447,124	800,000	-0,030	0,063
-446,109	800,000	-0,099	-0,233
-445,095	147,751	0,117	0,115
-444,080	800,000	-0,045	0,109
-443,065	-60,809	-0,049	-0,015
-442,051	240,299	-0,016	-0,019
-441,036	-159,094	-0,137	-0,006
-440,022	-200,000	-0,003	0,043
-439,007	297,351	0,116	-0,155
-437,992	800,000	0,034	-0,078
-436,978	640,543	0,020	0,037
-435,963	558,372	0,070	0,124
-434,949	-158,777	-0,136	-0,006
-433,934	-200,000	0,011	-0,162
-432,919	-200,000	-0,002	-0,111
-431,905	-53,094	-0,062	0,021
-430,890	-200,000	-0,010	-0,041
-429,876	-193,704	0,048	0,000
-428,861	800,000	0,020	0,047
-427,846	99,408	-0,031	-0,026
-426,832	-82,310	-0,153	0,036
-425,817	421,948	0,039	0,061
-424,803	-41,300	0,028	0,011
-423,788	-110,089	0,113	0,017
-422,773	800,000	-0,067	-0,177
-421,759	461,524	-0,059	-0,095
-420,744	-40,813	-0,123	0,046
-419,730	229,374	0,077	0,092
-418,715	418,790	-0,027	0,042
-417,701	220,357	-0,080	0,094
-416,686	800,000	0,036	-0,109
-415,671	-200,000	-0,003	0,153
-414,657	800,000	0,088	-0,190
-413,642	228,980	-0,038	-0,046
-412,628	800,000	-0,023	-0,072
-411,613	92,546	-0,077	-0,063
-410,598	800,000	0,075	-0,154
-409,584	180,119	-0,075	0,081
-408,569	-66,263	0,041	-0,012
-407,555	-172,584	0,071	0,002
-406,540	7,622	0,136	-0,074
-405,525	800,000	-0,014	-0,031
-404,511	-93,277	0,069	0,014
-403,496	-0,376	-0,093	0,048
-402,482	-200,000	-0,009	0,094
-401,467	-99,917	0,048	0,009
-400,452	-146,366	0,103	0,006
-399,438	59,683	0,041	-0,029
-398,423	607,677	-0,072	-0,132
-397,409	95,975	-0,024	0,020
-396,394	-200,000	0,007	0,070
-395,379	-58,934	-0,035	-0,011
-394,365	56,865	-0,032	0,023
-393,350	-149,301	0,076	-0,004
-392,336	800,000	0,014	-0,041
-391,321	56,377	0,012	-0,009
-390,306	-200,000	0,002	-0,055
-389,292	297,785	-0,077	-0,104
-388,277	-200,000	0,013	-0,059
-387,263	-200,000	-0,024	0,111
-386,248	-200,000	0,010	0,167
-385,233	-200,000	-0,002	-0,039
-384,219	245,077	-0,074	-0,091
-383,204	800,000	-0,059	-0,180
-382,190	-0,932	-0,105	0,054
-381,175	-53,681	0,118	-0,039
-380,160	-66,522	0,023	-0,007
-379,146	-200,000	0,009	0,049
-378,131	-200,000	0,011	-0,056
-377,117	724,433	0,021	0,042
-376,102	421,974	-0,053	-0,083
-375,088	-61,506	-0,203	-0,062
-374,073	58,453	-0,030	-0,021
-373,058	-200,000	0,026	-0,087
-372,044	-6,963	0,054	0,027
-371,029	-101,287	0,066	-0,012
-370,015	347,129	-0,007	-0,010
-369,000	-77,833	-0,038	0,009
-367,985	720,351	0,060	-0,116
-366,971	344,369	0,042	-0,061
-365,956	201,470	0,025	-0,028
-364,942	75,106	0,086	0,066
-363,927	315,412	0,050	-0,069
-362,912	-64,519	0,100	0,029
-361,898	-40,331	0,123	0,046
-360,883	38,894	-0,036	0,024
-359,869	800,000	-0,012	-0,032
-358,854	171,537	0,059	0,062
-357,839	17,268	0,146	0,084
-356,825	-188,147	-0,104	0,001
-355,810	72,290	0,080	0,060
-354,796	36,376	-0,042	0,027
-353,781	-120,208	-0,087	-0,011
-352,766	366,424	0,072	-0,105
-351,752	800,000	0,045	0,115
-350,737	-49,303	0,135	0,047
-349,723	32,112	0,103	0,064
-348,708	800,000	0,029	0,088
-347,693	-200,000	-0,026	0,151
-346,679	309,261	-0,125	-0,169
-345,664	-200,000	-0,011	0,094
-344,650	41,806	0,038	0,025
-343,635	-69,565	0,143	-0,040
-342,620	-67,910	0,053	0,015
-341,606	-59,007	0,034	0,011
-340,591	36,464	0,068	-0,044
-339,577	800,000	0,035	-0,081
-338,562	138,083	0,079	-0,075
-337,548	97,687	-0,053	0,044
-336,533	264,992	0,046	0,058
-335,518	-103,725	0,062	-0,010
-334,504	-200,000	0,011	0,186
-333,489	47,071	0,075	-0,050
-332,475	-200,000	0,003	-0,024
-331,460	-200,000	-0,009	0,032
-330,445	-200,000	-0,004	-0,068
-329,431	-3,611	0,122	0,061
-328,416	506,565	0,049	0,082
-327,402	35,774	-0,070	0,044
-326,387	-78,703	-0,053	0,013
-325,372	800,000	-0,041	-0,101
-324,358	-200,000	0,013	-0,101
-323,343	-35,880	-0,033	0,013
-322,329	57,605	-0,033	-0,023
-321,314	9,718	0,081	0,045
-320,299	525,503	0,048	0,082
-319,285	78,711	0,076	-0,059
-318,270	-200,000	-0,017	-0,056
-317,256	-200,000	0,009	-0,118
-316,241	-200,000	-0,032	-0,126
-315,226	-41,718	0,051	-0,019
-314,212	-200,000	0,007	0,123
-313,197	-144,656	0,134	0,009
-312,183	-6,370	0,134	-0,066
-311,168	800,000	-0,092	-0,189
-310,153	-200,000	-0,004	0,125
-309,139	277,667	-0,070	0,090
-308,124	-200,000	-0,002	-0,047
-307,110	800,000	0,024	0,050
-306,095	-200,000	0,169	0,000
-305,080	-200,000	-0,028	-0,129
-304,066	278,231	-0,093	-0,120
-303,051	435,060	0,035	-0,056
-302,037	-38,865	0,072	-0,027
-301,022	-200,000	0,018	-0,184
-300,008	-200,000	0,005	0,069
-298,993	-42,058	0,118	-0,044
-297,978	-200,000	0,030	0,204
-296,964	-101,988	-0,125	-0,022
-295,949	800,000	-0,022	0,057
-294,935	165,758	-0,059	-0,061
-293,920	-169,163	0,110	0,003
-292,905	84,216	-0,086	-0,068
-291,891	174,372	0,067	0,070
-290,876	-200,000	0,016	0,079
-289,862	-200,000	0,032	0,116
-288,847	468,345	-0,070	0,115
-287,832	-112,569	-0,075	0,011
-286,818	-94,936	0,134	-0,026
-285,803	424,490	-0,061	0,096
-284,789	328,700	0,041	0,058
-283,774	800,000	-0,054	0,117
-282,759	-74,327	-0,118	-0,031
-281,745	-200,000	-0,003	-0,040
-280,730	-35,294	-0,059	-0,023
-279,716	-116,941	-0,072	0,009
-278,701	31,312	0,104	0,065
-277,686	-200,000	0,004	-0,015
-276,672	-200,000	0,001	0,088
-275,657	800,000	-0,014	0,044
-274,643	800,000	-0,033	-0,084
-273,628	57,725	0,039	-0,027
-272,613	-96,897	-0,035	0,007
-271,599	10,962	0,126	-0,069
-270,584	-44,917	-0,027	-0,010
-269,570	135,259	-0,087	0,082
-268,555	143,095	0,106	-0,102
-267,540	-137,592	0,078	0,006
-266,526	160,577	-0,122	-0,124
-265,511	23,108	0,181	-0,107
-264,497	-93,851	0,044	0,009
-263,482	800,000	-0,055	0,148
-262,467	-81,326	0,063	0,015
-261,453	35,842	0,085	0,054
-260,438	-35,930	-0,018	-0,007
-259,424	-157,162	-0,123	-0,005
-258,409	800,000	0,035	-0,109
-257,395	-200,000	-0,002	0,024
-256,380	568,831	0,013	0,023
-255,365	-200,000	-0,001	0,124
-254,351	-40,204	0,050	0,019
-253,336	-200,000	0,033	-0,114
-252,322	-27,538	0,065	0,027
-251,307	64,639	-0,053	-0,038
-250,292	-86,468	0,072	-0,016
-249,278	-200,000	-0,006	0,065
-248,263	-113,799	-0,066	0,009
-247,249	-68,692	0,170	-0,047
-246,234	-200,000	-0,004	-0,069
-245,219	-90,882	-0,164	0,034
-244,205	-178,469	0,090	0,001
-243,190	-200,000	-0,000	0,001
-242,176	537,050	0,049	-0,084
-241,161	60,375	0,018	-0,013
-240,146	0,457	-0,096	-0,050
-239,132	800,000	-0,023	-0,059
-238,117	-60,158	-0,063	-0,019
-237,103	252,124	0,024	-0,030
-236,088	-52,902	0,093	-0,031
-235,073	800,000	-0,034	-0,071
-234,059	-200,000	0,044	-0,000
-233,044	312,428	0,047	0,064
-232,030	99,352	-0,047	0,039
-231,015	-93,617	-0,106	0,021
-230,000	214,207	-0,102	0,117
-228,986	-22,193	-0,125	0,054
-227,971	-26,745	0,104	0,044
-226,957	-18,453	0,079	0,036
-225,942	-64,580	0,029	0,008
-224,927	800,000	0,054	0,116
-223,913	-200,000	0,008	0,038
-222,898	-200,000	-0,038	-0,136
-221,884	-63,501	0,053	-0,016
-220,869	800,000	-0,021	-0,051
-219,855	800,000	-0,028	-0,077
-218,840	-88,105	0,076	-0,016
-217,825	-200,000	0,006	-0,049
-216,811	84,626	-0,061	0,048
-215,796	56,699	-0,129	-0,091
-214,782	800,000	-0,012	-0,025
-213,767	-143,255	0,093	0,006
-212,752	-106,831	0,142	0,023
-211,738	800,000	0,039	-0,081
-210,723	33,397	0,095	0,059
-209,709	-135,155	-0,126	0,011
-208,694	10,931	-0,063	0,035
-207,679	-200,000	-0,030	-0,103
-206,665	-46,425	0,098	-0,034
-205,650	-25,048	0,110	-0,047
-204,636	-134,941	0,142	-0,012
-203,621	-200,000	-0,001	0,089
-202,606	-14,907	-0,024	-0,011
-201,592	259,653	-0,083	-0,104
-200,577	800,000	-0,034	0,072
-199,563	800,000	-0,028	0,059
-198,548	613,536	-0,035	0,064
-197,533	-200,000	-0,016	0,053
-196,519	-118,418	-0,021	0,003
-195,504	-200,000	-0,024	-0,122
-194,490	-157,448	0,084	-0,004
-193,475	-200,000	-0,026	-0,085
-192,460	-74,242	0,170	-0,044
-191,446	-200,000	-0,000	0,074
-190,431	-200,000	-0,007	0,056
-189,417	62,732	-0,046	0,033
-188,402	195,567	-0,067	0,073
-187,387	362,946	0,040	0,058
-186,373	29,859	-0,184	0,113
-185,358	-200,000	0,028	0,134
-184,344	56,090	-0,016	-0,011
-183,329	237,524	0,037	0,044
-182,315	75,317	0,041	0,031
-181,300	121,636	0,048	-0,044
-180,285	180,934	-0,098	-0,104
-179,271	630,720	-0,056	0,102
-178,256	-78,701	0,041	-0,010
-177,242	-200,000	-0,014	0,049
-176,227	-200,000	0,006	0,063
-175,212	800,000	0,036	0,082
-174,198	32,553	0,112	0,070
-173,183	-95,639	-0,132	-0,025
-172,169	106,044	-0,060	-0,051
-171,154	328,409	-0,107	0,148
-170,139	-200,000	-0,018	0,127
-169,125	25,307	0,062	-0,037
-168,110	444,417	-0,071	0,112
-167,096	380,920	-0,092	-0,137
-166,081	71,084	-0,042	0,032
-165,066	-100,146	-0,080	-0,014
-164,052	69,789	0,054	0,040
-163,037	800,000	-0,042	0,086
-162,023	-11,100	0,011	-0,005
-161,008	-42,562	0,125	0,046
-159,993	207,808	-0,059	0,067
-158,979	800,000	-0,017	-0,041
-157,964	-131,657	-0,075	-0,007
-156,950	-200,000	0,009	0,087
-155,935	185,954	-0,066	-0,071
-154,920	-185,603	0,197	-0,002
-153,906	31,065	0,098	0,060
-152,891	246,582	0,042	-0,051
-151,877	60,012	-0,045	0,032
-150,862	800,000	0,046	0,139
-149,847	239,578	-0,121	-0,145
-148,833	-200,000	0,003	-0,026
-147,818	-200,000	0,021	0,156
-146,804	-175,785	-0,025	-0,000
-145,789	536,687	0,018	-0,031
-144,775	-200,000	0,003	0,146
-143,760	-71,426	-0,070	-0,019
-142,745	52,320	-0,110	-0,075
-141,731	-200,000	0,022	-0,077
-140,716	125,273	-0,016	0,015
-139,702	-152,837	0,011	-0,001
-138,687	553,613	-0,023	-0,040
-137,672	-5,338	0,039	-0,019
-136,658	457,663	-0,048	-0,077
-135,643	-125,015	-0,050	-0,005
-134,629	-200,000	0,023	0,101
-133,614	-78,548	0,173	0,042
-132,599	689,861	0,026	0,049
-131,585	71,869	-0,076	-0,057
-130,570	-200,000	0,017	-0,095
-129,556	610,784	-0,097	0,175
-128,541	62,572	-0,048	-0,035
-127,526	800,000	-0,049	0,120
-126,512	-123,688	0,010	0,001
-125,497	285,556	0,077	0,100
-124,483	-200,000	0,008	0,051
-123,468	391,228	-0,044	0,066
-122,453	-200,000	0,003	0,044
-121,439	-200,000	-0,003	-0,012
-120,424	-200,000	0,005	-0,107
-119,410	25,841	0,057	-0,034
