DTS Sentinel unit serial number:	SN410029Multiplexer serial number:	ORYXHardware model number:	OX2-SRSoftware version number:	ORYX F/W v4,00 Oryx Data Collector v3.7.2.0data status	okinstallation	B5 Nyhavnadifferential loss correction	single-endedforward channel	channel 2reverse channel	N/Adate	2023/12/12time	18:22:13forward acquisition time	300,00reverse acquisition time	0,00gamma	499,1914k internal	0,3157k external	0,3157temperature offset calibration	1,0000default loss term (dB/km)	0,3820temperature slope calibration	1,0000multiplexer offset coefficient	1,0000multiplexer slope coefficient	1,0000fibre end	0,00T internal ref (°C)	15,62T ext. ref 1 (°C)	-0,86T ext. ref 2 (°C)	-1,14length (m)	temperature (°C)	Stokes	anti-Stokes-744,400	133,458	0,059	-0,057
-743,385	8,645	-0,235	0,130
-742,371	79,178	0,117	0,093
-741,356	-200,000	-0,277	-0,000
-740,342	177,135	0,066	-0,071
-739,327	-133,347	-0,333	0,031
-738,312	-200,000	0,019	-0,089
-737,298	-45,473	-0,334	0,122
-736,283	800,000	0,053	-0,142
-735,269	41,295	-0,198	0,132
-734,254	-28,428	0,181	0,077
-733,239	-74,493	-0,488	-0,129
-732,225	567,358	0,045	-0,081
-731,210	262,997	0,090	0,115
-730,196	733,527	0,043	0,086
-729,181	-52,508	0,051	0,017
-728,167	23,319	0,051	-0,031
-727,152	-10,154	-0,057	-0,028
-726,137	121,182	-0,073	-0,067
-725,123	-51,553	-0,043	-0,015
-724,108	370,154	-0,050	0,075
-723,094	-200,000	0,003	-0,161
-722,079	-200,000	0,009	-0,037
-721,064	339,255	-0,043	-0,061
-720,050	800,000	0,006	-0,014
-719,035	509,518	-0,067	-0,115
-718,021	48,042	0,066	-0,045
-717,006	120,912	-0,060	-0,055
-715,991	-200,000	-0,052	-0,176
-714,977	43,238	-0,040	0,027
-713,962	-200,000	-0,003	-0,060
-712,948	800,000	0,029	0,093
-711,933	800,000	-0,068	0,161
-710,918	-200,000	0,002	-0,019
-709,904	-82,699	0,087	0,021
-708,889	-135,202	-0,067	0,006
-707,875	-200,000	0,004	-0,125
-706,860	-57,121	-0,055	-0,018
-705,845	133,369	-0,085	0,081
-704,831	-74,914	0,163	-0,043
-703,816	-123,101	-0,130	-0,015
-702,802	-160,490	-0,110	0,004
-701,787	-200,000	-0,042	-0,138
-700,772	800,000	-0,034	-0,102
-699,758	-96,950	0,108	-0,021
-698,743	-200,000	0,009	0,034
-697,729	75,382	0,064	-0,050
-696,714	800,000	0,018	-0,039
-695,699	-74,241	-0,024	-0,006
-694,685	-19,230	0,055	-0,025
-693,670	84,201	-0,034	-0,027
-692,656	-29,876	0,113	0,047
-691,641	-117,631	0,227	0,030
-690,627	366,285	0,027	-0,040
-689,612	231,515	-0,017	0,020
-688,597	-141,979	-0,052	-0,004
-687,583	619,105	0,008	0,014
-686,568	-200,000	-0,018	0,145
-685,554	291,456	-0,062	0,084
-684,539	-200,000	-0,002	0,022
-683,524	-58,301	0,089	-0,028
-682,510	-126,514	-0,063	0,007
-681,495	-0,268	-0,152	0,079
-680,481	-200,000	0,018	-0,103
-679,466	99,305	0,067	-0,057
-678,451	-200,000	-0,036	-0,139
-677,437	-155,587	0,091	0,004
-676,422	580,974	0,025	0,045
-675,408	-200,000	0,022	0,111
-674,393	-200,000	-0,042	0,142
-673,378	-19,386	-0,023	0,010
-672,364	90,750	-0,107	0,088
-671,349	-200,000	0,009	0,038
-670,335	163,786	0,065	0,068
-669,320	800,000	-0,055	-0,153
-668,305	53,031	0,055	-0,038
-667,291	800,000	-0,010	-0,027
-666,276	25,584	-0,171	-0,104
-665,262	-63,387	-0,099	0,030
-664,247	-200,000	0,001	-0,124
-663,232	-200,000	-0,031	-0,147
-662,218	-33,919	-0,094	0,038
-661,203	-200,000	0,006	-0,050
-660,189	-7,662	0,197	0,097
-659,174	-200,000	0,050	0,164
-658,159	186,529	-0,064	0,070
-657,145	800,000	-0,032	-0,081
-656,130	307,322	0,059	-0,080
-655,116	212,138	0,100	-0,116
-654,101	-200,000	0,017	0,103
-653,086	75,833	-0,036	0,028
-652,072	132,076	-0,114	-0,108
-651,057	209,194	0,031	0,036
-650,043	50,255	-0,107	0,074
-649,028	800,000	0,058	-0,142
-648,014	52,178	-0,079	0,055
-646,999	237,417	0,059	-0,072
-645,984	-111,782	-0,110	-0,016
-644,970	-200,000	-0,043	-0,182
-643,955	-200,000	-0,017	-0,061
-642,941	-200,000	-0,002	-0,102
-641,926	30,481	-0,097	-0,061
-640,911	490,687	-0,034	0,057
-639,897	800,000	-0,040	0,094
-638,882	16,827	-0,071	0,041
-637,868	800,000	0,019	-0,056
-636,853	-105,810	0,050	-0,008
-635,838	114,995	-0,091	-0,082
-634,824	-200,000	-0,007	0,115
-633,809	99,813	-0,117	0,100
-632,795	-65,416	0,126	0,037
-631,780	-75,161	0,147	0,038
-630,765	-200,000	0,025	-0,127
-629,751	-66,681	-0,030	-0,009
-628,736	800,000	-0,057	0,134
-627,722	125,833	0,050	0,046
-626,707	335,541	-0,004	-0,006
-625,692	-158,636	0,150	-0,006
-624,678	155,544	0,047	0,047
-623,663	-167,663	-0,013	-0,000
-622,649	490,639	0,028	-0,047
-621,634	-67,271	-0,086	-0,025
-620,619	-28,794	-0,189	-0,080
-619,605	-200,000	0,021	0,101
-618,590	-200,000	0,019	0,141
-617,576	156,851	-0,017	-0,017
-616,561	153,193	0,131	-0,131
-615,546	-194,423	-0,029	0,000
-614,532	114,054	-0,073	-0,065
-613,517	23,730	0,036	-0,022
-612,503	800,000	0,077	0,160
-611,488	-41,913	0,049	0,018
-610,474	21,707	-0,022	-0,013
-609,459	-138,878	0,126	-0,010
-608,444	-149,734	-0,169	-0,010
-607,430	800,000	0,052	0,120
-606,415	-200,000	0,009	-0,099
-605,401	-142,657	0,074	0,005
-604,386	-125,497	-0,099	0,011
-603,371	-86,062	0,116	-0,026
-602,357	85,240	-0,123	0,099
-601,342	213,399	0,054	0,063
-600,328	-103,371	-0,169	0,029
-599,313	800,000	0,012	0,034
-598,298	-200,000	0,018	-0,072
-597,284	-200,000	0,018	0,186
-596,269	190,148	0,040	-0,044
-595,255	-200,000	-0,003	-0,072
-594,240	-69,926	-0,132	-0,037
-593,225	130,767	-0,027	0,025
-592,211	800,000	0,053	-0,113
-591,196	800,000	-0,011	-0,024
-590,182	-107,453	0,120	0,019
-589,167	550,098	-0,044	0,077
-588,152	-200,000	-0,008	-0,035
-587,138	84,245	0,133	0,106
-586,123	-142,653	-0,020	0,001
-585,109	800,000	0,039	0,085
-584,094	-144,235	-0,131	-0,009
-583,079	254,148	0,071	-0,089
-582,065	38,873	0,022	0,014
-581,050	302,316	-0,074	0,101
-580,036	237,385	0,075	0,091
-579,021	516,172	-0,013	-0,022
-578,006	-111,620	-0,098	-0,014
-576,992	800,000	0,053	0,140
-575,977	-90,527	0,132	0,028
-574,963	413,107	0,107	0,167
-573,948	-200,000	0,001	0,113
-572,934	-51,278	-0,115	0,039
-571,919	-148,042	0,169	-0,010
-570,904	-45,637	0,118	0,042
-569,890	-34,930	-0,200	0,079
-568,875	340,360	0,050	-0,072
-567,861	251,232	0,080	0,100
-566,846	362,921	0,062	0,092
-565,831	322,861	0,023	-0,033
-564,817	-2,272	-0,035	-0,018
-563,802	106,063	-0,078	-0,067
-562,788	-200,000	0,010	0,047
-561,773	398,930	0,026	0,041
-560,758	-200,000	0,015	0,116
-559,744	93,037	-0,022	0,018
-558,729	42,062	-0,031	-0,021
-557,715	251,609	-0,033	-0,041
-556,700	800,000	-0,041	-0,130
-555,685	7,385	0,042	-0,023
-554,671	-200,000	-0,022	-0,078
-553,656	290,470	-0,114	0,151
-552,642	-100,343	-0,078	0,014
-551,627	-95,398	0,159	-0,031
-550,612	-200,000	0,010	0,056
-549,598	-15,179	-0,125	-0,058
-548,583	-200,000	-0,021	-0,242
-547,569	800,000	0,050	-0,106
-546,554	220,818	0,070	-0,082
-545,539	56,463	-0,079	-0,056
-544,525	-193,284	0,026	0,000
-543,510	-69,993	0,116	-0,032
-542,496	494,269	-0,060	-0,101
-541,481	88,100	-0,181	-0,147
-540,466	38,486	0,069	0,045
-539,452	74,161	0,068	0,052
-538,437	-200,000	-0,007	0,048
-537,423	800,000	-0,018	0,041
-536,408	156,530	0,046	-0,047
-535,393	80,763	-0,089	-0,070
-534,379	-74,345	-0,075	-0,020
-533,364	8,877	-0,082	-0,045
-532,350	-100,389	0,098	-0,018
-531,335	-58,055	0,102	0,032
-530,321	97,634	0,052	0,043
-529,306	-200,000	0,008	0,093
-528,291	-69,209	-0,122	-0,034
-527,277	121,276	-0,068	-0,062
-526,262	237,885	-0,087	-0,106
-525,248	800,000	-0,007	0,015
-524,233	148,812	-0,075	-0,074
-523,218	-197,560	0,046	-0,000
-522,204	120,901	0,054	0,049
-521,189	800,000	0,067	-0,165
-520,175	221,334	0,077	-0,091
-519,160	315,737	-0,062	-0,086
-518,145	-78,318	0,051	-0,013
-517,131	776,107	0,035	0,070
-516,116	125,260	0,063	0,058
-515,102	-200,000	-0,000	0,084
-514,087	800,000	-0,017	0,037
-513,072	800,000	-0,069	0,144
-512,058	28,569	0,115	-0,071
-511,043	524,414	0,044	0,075
-510,029	-200,000	-0,000	0,033
-509,014	248,388	-0,080	-0,099
-507,999	-19,811	0,071	0,032
-506,985	142,387	-0,040	-0,039
-505,970	-200,000	0,003	0,072
-504,956	-200,000	0,033	-0,140
-503,941	-61,183	-0,051	0,016
-502,926	-200,000	0,015	-0,129
-501,912	800,000	0,057	-0,139
-500,897	-121,050	-0,086	-0,010
-499,883	661,950	-0,077	0,146
-498,868	-57,705	-0,026	-0,008
-497,853	616,761	-0,044	-0,082
-496,839	144,148	0,057	-0,056
-495,824	800,000	0,013	0,035
-494,810	-80,946	-0,048	-0,011
-493,795	-92,423	-0,062	0,013
-492,781	2,825	0,082	0,043
-491,766	-200,000	0,007	-0,026
-490,751	-200,000	-0,020	-0,082
-489,737	-57,978	-0,078	-0,025
-488,722	-112,448	-0,035	-0,005
-487,708	-200,000	0,042	0,138
-486,693	328,999	0,053	-0,075
-485,678	-118,243	0,059	0,008
-484,664	-108,331	-0,059	0,009
-483,649	-200,000	-0,013	-0,070
-482,635	-42,070	0,105	0,039
-481,620	176,256	0,070	-0,074
-480,605	-200,000	-0,000	0,041
-479,591	-110,436	-0,108	-0,016
-478,576	-200,000	0,030	-0,098
-477,562	-46,173	0,020	-0,007
-476,547	-65,319	-0,133	0,039
-475,532	62,766	0,134	-0,097
-474,518	446,621	0,044	0,071
-473,503	800,000	-0,032	0,088
-472,489	800,000	0,071	0,163
-471,474	-45,088	-0,049	-0,018
-470,459	-200,000	0,000	-0,099
-469,445	-114,339	-0,138	-0,019
-468,430	306,585	0,023	-0,031
-467,416	-30,363	0,058	0,024
-466,401	18,919	0,159	0,093
-465,386	-200,000	0,049	-0,176
-464,372	16,172	0,074	-0,042
-463,357	-184,090	-0,160	0,002
-462,343	800,000	0,006	0,021
-461,328	152,247	-0,099	0,098
-460,313	341,933	0,047	0,068
-459,299	800,000	0,035	-0,076
-458,284	-200,000	-0,009	0,187
-457,270	6,133	0,103	0,055
-456,255	586,307	0,038	0,069
-455,241	-200,000	-0,018	0,083
-454,226	-36,270	-0,056	-0,022
-453,211	-143,583	0,050	-0,003
-452,197	-45,458	-0,095	-0,034
-451,182	-52,967	0,112	-0,037
-450,168	-200,000	-0,022	0,078
-449,153	375,183	-0,036	-0,054
-448,138	144,165	-0,032	-0,031
-447,124	-14,040	0,041	-0,019
-446,109	800,000	0,017	0,038
-445,095	-54,036	0,166	-0,055
-444,080	-65,644	0,109	0,032
-443,065	173,195	-0,095	0,100
-442,051	9,283	-0,086	-0,047
-441,036	-200,000	-0,023	-0,096
-440,022	579,250	0,033	-0,059
-439,007	-83,739	-0,116	0,027
-437,992	-138,891	0,099	-0,008
-436,978	349,809	0,063	0,091
-435,963	40,636	-0,059	0,039
-434,949	-142,096	0,119	0,008
-433,934	666,457	-0,063	0,119
-432,919	-200,000	-0,011	-0,141
-431,905	-200,000	-0,009	0,107
-430,890	95,661	0,033	-0,028
-429,876	-20,801	0,169	0,075
-428,861	-200,000	0,010	-0,032
-427,846	605,221	-0,076	-0,138
-426,832	-200,000	-0,030	-0,309
-425,817	-200,000	-0,021	0,180
-424,803	494,711	0,042	-0,071
-423,788	-200,000	-0,036	-0,138
-422,773	-66,735	0,065	0,019
-421,759	1,133	0,101	0,052
-420,744	81,499	-0,025	0,019
-419,730	-30,568	-0,169	-0,070
-418,715	800,000	-0,012	0,031
-417,701	-200,000	0,013	0,193
-416,686	-53,543	-0,106	0,035
-415,671	223,933	0,073	-0,086
-414,657	-200,000	0,023	0,104
-413,642	800,000	0,029	-0,090
-412,628	134,194	-0,101	-0,095
-411,613	18,192	-0,192	-0,112
-410,598	-200,000	0,007	-0,098
-409,584	-62,665	-0,078	0,023
-408,569	800,000	0,031	0,096
-407,555	-200,000	-0,019	0,168
-406,540	800,000	0,020	0,062
-405,525	56,609	0,045	0,032
-404,511	-200,000	0,006	0,053
-403,496	139,621	-0,050	-0,048
-402,482	-200,000	-0,019	-0,091
-401,467	189,304	-0,039	0,043
-400,452	594,277	0,008	-0,014
-399,438	-2,443	0,086	0,044
-398,423	29,757	-0,075	-0,046
-397,409	-80,721	-0,071	0,017
-396,394	-129,435	-0,055	0,005
-395,379	800,000	-0,055	-0,152
-394,365	-200,000	-0,005	-0,068
-393,350	-200,000	-0,014	0,102
-392,336	-200,000	0,012	0,110
-391,321	44,741	-0,047	0,031
-390,306	-43,891	-0,113	-0,041
-389,292	-200,000	-0,003	0,038
-388,277	-82,471	-0,029	0,007
-387,263	356,969	0,083	-0,121
-386,248	800,000	0,019	0,048
-385,233	648,117	0,048	0,090
-384,219	800,000	-0,001	0,004
-383,204	11,827	0,128	-0,072
-382,190	375,977	-0,082	-0,123
-381,175	325,239	0,027	-0,038
-380,160	800,000	-0,007	0,018
-379,146	260,602	-0,063	0,080
-378,131	800,000	-0,018	-0,039
-377,117	-200,000	0,019	0,233
-376,102	-200,000	-0,015	-0,063
-375,088	800,000	-0,048	-0,110
-374,073	-82,769	-0,097	-0,023
-373,058	-190,314	0,110	-0,001
-372,044	-200,000	-0,004	0,082
-371,029	-36,168	0,139	0,054
-370,015	-77,899	0,142	0,035
-369,000	-39,643	-0,094	0,036
-367,985	-140,034	-0,101	-0,008
-366,971	-177,690	-0,070	0,001
-365,956	-4,699	-0,018	0,009
-364,942	67,122	0,130	0,096
-363,927	-95,667	0,074	0,014
-362,912	75,123	-0,169	-0,129
-361,898	145,349	-0,095	-0,093
-360,883	-154,875	0,090	0,004
-359,869	-200,000	0,004	0,015
-358,854	-11,676	0,139	-0,066
-357,839	-44,185	0,042	0,015
-356,825	-200,000	0,028	-0,104
-355,810	92,844	0,078	0,064
-354,796	143,967	-0,139	-0,135
-353,781	6,793	0,097	-0,052
-352,766	-200,000	-0,006	0,055
-351,752	-74,751	0,129	-0,033
-350,737	694,066	0,047	0,089
-349,723	-114,059	-0,028	-0,004
-348,708	-103,200	0,079	0,014
-347,693	-101,241	-0,032	0,006
-346,679	-41,709	-0,018	-0,007
-345,664	176,336	0,046	0,048
-344,650	-123,654	0,124	-0,014
-343,635	-103,273	0,107	-0,018
-342,620	45,540	0,100	-0,067
-341,606	-200,000	0,004	0,141
-340,591	-200,000	0,016	0,088
-339,577	-11,451	-0,112	0,053
-338,562	-36,111	0,067	0,026
-337,548	148,342	-0,026	-0,025
-336,533	148,984	0,006	0,006
-335,518	617,059	-0,023	0,041
-334,504	800,000	0,007	-0,020
-333,489	579,517	-0,085	0,152
-332,475	-200,000	0,006	0,036
-331,460	21,198	0,025	0,015
-330,445	347,823	0,116	0,167
-329,431	-108,133	0,063	0,010
-328,416	-59,432	0,052	0,016
-327,402	-68,022	0,037	0,010
-326,387	-147,291	-0,171	0,010
-325,372	800,000	-0,039	0,105
-324,358	731,894	-0,034	-0,066
-323,343	800,000	-0,109	-0,255
-322,329	64,021	0,030	-0,022
-321,314	800,000	0,043	0,097
-320,299	156,403	-0,060	-0,060
-319,285	-61,642	-0,087	0,026
-318,270	-200,000	-0,006	-0,064
-317,256	-9,904	-0,236	-0,113
-316,241	-200,000	0,010	-0,074
-315,226	-63,409	0,105	-0,031
-314,212	26,422	0,083	0,050
-313,197	-76,795	-0,124	0,031
-312,183	350,438	0,045	0,065
-311,168	36,164	-0,077	0,049
-310,153	-200,000	-0,017	-0,075
-309,139	-200,000	-0,008	-0,084
-308,124	237,646	0,076	-0,091
-307,110	-200,000	0,022	0,086
-306,095	-200,000	-0,005	0,148
-305,080	351,692	0,030	0,043
-304,066	-200,000	-0,037	0,168
-303,051	-200,000	-0,017	0,065
-302,037	800,000	-0,043	-0,091
-301,022	-200,000	0,001	-0,053
-300,008	-61,719	0,068	0,021
-298,993	320,603	-0,113	0,156
-297,978	-200,000	0,009	-0,032
-296,964	96,132	0,170	0,141
-295,949	800,000	-0,024	0,062
-294,935	-111,129	-0,100	-0,015
-293,920	411,687	0,084	-0,129
-292,905	-20,542	0,142	-0,063
-291,891	131,440	0,080	0,075
-290,876	139,955	0,069	0,066
-289,862	7,131	-0,087	-0,047
-288,847	-46,179	0,146	0,052
-287,832	-81,412	0,024	0,006
-286,818	-83,236	-0,137	-0,032
-285,803	371,071	-0,028	-0,042
-284,789	196,388	-0,044	-0,048
-283,774	-46,436	0,126	0,044
-282,759	74,216	-0,012	-0,009
-281,745	113,295	-0,043	0,038
-280,730	316,395	-0,030	-0,042
-279,716	-27,217	-0,012	-0,005
-278,701	192,506	-0,043	-0,047
-277,686	170,910	0,075	0,078
-276,672	105,422	0,023	-0,020
-275,657	666,015	-0,045	0,085
-274,643	10,924	-0,060	0,033
-273,628	-200,000	-0,021	-0,143
-272,613	-200,000	0,034	0,125
-271,599	-100,845	0,112	0,020
-270,584	800,000	0,028	0,080
-269,570	98,034	0,042	0,035
-268,555	-113,367	-0,090	0,013
-267,540	-119,079	0,071	-0,009
-266,526	-200,000	-0,009	0,081
-265,511	-200,000	-0,043	-0,169
-264,497	-149,646	0,203	0,011
-263,482	-109,677	-0,109	0,016
-262,467	-200,000	0,010	-0,054
-261,453	-44,018	0,012	0,004
-260,438	-200,000	0,009	0,036
-259,424	-78,862	0,029	-0,007
-258,409	49,387	-0,017	0,012
-257,395	800,000	-0,026	0,065
-256,380	-200,000	-0,016	-0,051
-255,365	800,000	0,068	-0,140
-254,351	-96,481	-0,038	-0,007
-253,336	800,000	0,026	-0,058
-252,322	800,000	-0,056	-0,141
-251,307	112,378	0,013	-0,012
-250,292	-46,457	0,085	-0,030
-249,278	26,979	-0,102	0,062
-248,263	213,162	-0,030	0,035
-247,249	-71,337	-0,202	0,054
-246,234	730,601	0,066	-0,128
-245,219	-156,831	0,111	-0,005
-244,205	41,648	0,035	-0,023
-243,190	-200,000	0,005	-0,035
-242,176	90,485	0,055	-0,044
-241,161	-200,000	0,016	-0,100
-240,146	-200,000	-0,019	-0,103
-239,132	159,404	-0,128	-0,129
-238,117	24,841	-0,040	-0,024
-237,103	-200,000	0,026	-0,105
-236,088	219,326	-0,081	-0,093
-235,073	247,822	0,178	0,217
-234,059	-200,000	-0,002	0,081
-233,044	-200,000	-0,022	0,072
-232,030	-134,923	-0,083	-0,007
-231,015	-140,821	-0,076	-0,006
-230,000	190,365	0,084	0,091
-228,986	-200,000	-0,048	0,167
-227,971	35,660	0,061	0,039
-226,957	446,995	-0,002	-0,003
-225,942	478,384	-0,009	0,015
-224,927	28,837	-0,150	-0,092
-223,913	-76,194	-0,053	0,013
-222,898	-19,457	0,026	-0,012
-221,884	-45,685	0,038	-0,014
-220,869	-200,000	0,007	0,110
-219,855	434,280	0,048	0,076
-218,840	800,000	0,064	0,147
-217,825	112,388	0,051	-0,044
-216,811	776,231	0,027	-0,053
-215,796	-70,018	0,036	-0,010
-214,782	-200,000	-0,009	-0,080
-213,767	-177,949	-0,061	-0,001
-212,752	-19,997	0,038	-0,017
-211,738	-32,961	0,055	-0,022
-210,723	150,427	-0,023	-0,023
-209,709	-115,559	-0,109	-0,015
-208,694	42,530	-0,091	-0,059
-207,679	800,000	0,024	-0,050
-206,665	-54,488	-0,142	-0,046
-205,650	107,388	-0,086	0,074
-204,636	-25,312	-0,042	0,018
-203,621	-200,000	-0,015	-0,095
-202,606	645,870	-0,044	-0,081
-201,592	731,156	0,057	-0,111
-200,577	800,000	0,020	0,044
-199,563	-52,528	0,030	0,010
-198,548	20,448	0,164	0,096
-197,533	-93,348	0,006	-0,001
-196,519	159,063	0,025	0,025
-195,504	146,118	-0,054	0,053
-194,490	800,000	-0,061	-0,129
-193,475	-152,104	-0,018	0,001
-192,460	38,014	0,024	-0,016
-191,446	800,000	-0,033	0,084
-190,431	-75,102	0,157	0,040
-189,417	-200,000	0,021	0,154
-188,402	-192,549	-0,131	-0,001
-187,387	-200,000	-0,021	0,139
-186,373	-37,230	-0,086	0,033
-185,358	-3,236	-0,038	-0,019
-184,344	-179,461	-0,085	0,001
-183,329	127,235	-0,062	0,057
-182,315	-19,173	0,083	-0,037
-181,300	-148,074	-0,021	-0,001
-180,285	-17,989	0,081	-0,036
-179,271	800,000	-0,091	-0,245
-178,256	-31,059	0,089	-0,036
-177,242	-85,867	-0,052	-0,012
-176,227	-200,000	0,009	0,089
-175,212	19,504	-0,035	-0,020
-174,198	249,252	0,079	0,097
-173,183	-200,000	-0,009	0,076
-172,169	800,000	-0,026	0,076
-171,154	-200,000	0,008	-0,037
-170,139	252,052	-0,081	0,100
-169,125	275,995	0,024	-0,030
-168,110	-104,803	-0,128	0,021
-167,096	-200,000	0,008	-0,058
-166,081	-200,000	0,006	-0,022
-165,066	-200,000	-0,009	-0,069
-164,052	-32,493	-0,046	0,018
-163,037	-200,000	0,005	-0,065
-162,023	-159,885	0,037	0,001
-161,008	-28,153	0,036	0,015
-159,993	-56,613	-0,059	-0,019
-158,979	800,000	0,022	-0,058
-157,964	588,914	0,033	-0,058
-156,950	-22,334	-0,042	-0,018
-155,935	-200,000	0,015	-0,115
-154,920	-147,929	0,187	-0,011
-153,906	-200,000	-0,001	-0,029
-152,891	-14,032	-0,046	-0,021
-151,877	800,000	0,014	0,032
-150,862	-126,838	-0,127	0,013
-149,847	-10,865	-0,089	0,042
-148,833	-38,219	-0,126	0,048
-147,818	157,540	0,121	0,121
-146,804	-200,000	0,003	0,015
-145,789	-45,942	-0,046	0,016
-144,775	371,812	-0,053	-0,077
-143,760	-200,000	-0,025	0,082
-142,745	-200,000	-0,019	-0,089
-141,731	-200,000	-0,012	0,039
-140,716	-102,966	0,085	0,014
-139,702	241,083	0,036	0,043
-138,687	-174,375	0,098	0,002
-137,672	-200,000	-0,018	0,087
-136,658	10,581	-0,050	0,027
-135,643	-95,268	-0,053	0,010
-134,629	-93,864	0,050	0,010
-133,614	-58,506	-0,075	0,023
-132,599	800,000	-0,014	-0,041
-131,585	-65,703	-0,110	0,031
-130,570	43,214	0,076	0,050
-129,556	-10,229	-0,121	0,058
-128,541	-130,352	0,042	-0,004
-127,526	-200,000	0,018	-0,062
-126,512	800,000	-0,042	-0,107
-125,497	-200,000	-0,007	0,030
-124,483	18,754	0,143	-0,082
-123,468	693,399	0,042	-0,080
-122,453	207,271	-0,025	-0,028
-121,439	103,456	0,031	0,026
-120,424	89,190	-0,018	0,014
