DTS Sentinel unit serial number:	SN410029Multiplexer serial number:	ORYXHardware model number:	OX2-SRSoftware version number:	ORYX F/W v4,00 Oryx Data Collector v3.7.2.0data status	okinstallation	B5 Nyhavnadifferential loss correction	single-endedforward channel	channel 2reverse channel	N/Adate	2023/12/14time	06:47:13forward acquisition time	300,00reverse acquisition time	0,00gamma	499,1914k internal	0,3159k external	0,3159temperature offset calibration	1,0000default loss term (dB/km)	0,3820temperature slope calibration	1,0000multiplexer offset coefficient	1,0000multiplexer slope coefficient	1,0000fibre end	0,00T internal ref (°C)	7,37T ext. ref 1 (°C)	-9,09T ext. ref 2 (°C)	-9,17length (m)	temperature (°C)	Stokes	anti-Stokes-744,400	22,375	0,130	0,078
-743,385	-97,901	-0,293	-0,055
-742,371	800,000	0,094	0,242
-741,356	-57,354	-0,294	-0,095
-740,342	-72,135	0,210	0,057
-739,327	-96,578	-0,418	-0,080
-738,312	67,304	0,195	0,146
-737,298	-44,140	-0,361	-0,133
-736,283	-8,045	0,159	0,079
-735,269	-138,653	-0,487	-0,039
-734,254	-50,963	0,194	0,067
-733,239	-19,160	-0,394	-0,179
-732,225	-76,431	0,301	0,077
-731,210	6,383	-0,094	0,051
-730,196	-200,000	-0,010	0,035
-729,181	-16,521	-0,061	-0,028
-728,167	142,331	0,005	-0,005
-727,152	262,377	-0,081	0,104
-726,137	-200,000	0,014	-0,048
-725,123	-43,216	-0,107	-0,040
-724,108	492,354	-0,035	-0,060
-723,094	-173,697	-0,199	-0,004
-722,079	223,930	-0,120	-0,143
-721,064	800,000	-0,049	-0,120
-720,050	381,946	-0,013	-0,019
-719,035	-37,682	-0,051	0,020
-718,021	-81,802	-0,079	-0,019
-717,006	-200,000	-0,003	-0,083
-715,991	101,188	-0,045	-0,039
-714,977	-104,712	-0,048	-0,008
-713,962	800,000	0,019	0,046
-712,948	-200,000	0,029	0,144
-711,933	384,121	0,059	0,090
-710,918	-165,660	-0,177	0,006
-709,904	-200,000	0,004	0,021
-708,889	-200,000	0,002	-0,101
-707,875	-61,155	0,074	-0,023
-706,860	34,415	-0,076	-0,049
-705,845	-100,447	0,043	0,008
-704,831	-30,088	0,147	-0,061
-703,816	81,950	-0,094	-0,075
-702,802	-200,000	0,011	-0,037
-701,787	-200,000	0,026	-0,151
-700,772	316,602	0,034	0,048
-699,758	-200,000	0,004	0,102
-698,743	-87,383	0,002	-0,001
-697,729	79,191	0,015	-0,012
-696,714	800,000	-0,010	-0,022
-695,699	-200,000	-0,011	0,112
-694,685	-200,000	0,034	-0,185
-693,670	-2,441	-0,104	0,053
-692,656	57,937	-0,166	-0,120
-691,641	246,087	0,098	0,121
-690,627	-200,000	0,008	-0,102
-689,612	-200,000	0,022	0,076
-688,597	-95,433	-0,058	-0,011
-687,583	33,359	-0,024	-0,016
-686,568	568,243	-0,035	-0,063
-685,554	610,940	0,083	-0,154
-684,539	2,328	0,094	0,050
-683,524	504,482	-0,114	0,195
-682,510	-65,822	0,093	-0,027
-681,495	236,059	-0,071	-0,087
-680,481	-200,000	0,015	-0,066
-679,466	-79,026	-0,127	-0,032
-678,451	558,573	0,057	0,101
-677,437	167,259	0,009	-0,010
-676,422	-108,950	0,098	-0,015
-675,408	-200,000	-0,009	0,046
-674,393	-19,530	0,034	0,015
-673,378	54,077	-0,083	-0,058
-672,364	-90,476	0,028	0,006
-671,349	800,000	-0,028	-0,076
-670,335	-200,000	0,005	0,080
-669,320	124,020	0,024	0,022
-668,305	800,000	-0,053	-0,120
-667,291	58,080	-0,101	0,073
-666,276	-200,000	0,005	0,076
-665,262	137,189	-0,025	0,024
-664,247	-56,032	-0,110	-0,036
-663,232	353,876	0,019	0,028
-662,218	84,550	0,123	0,099
-661,203	467,183	0,089	0,146
-660,189	800,000	0,020	0,048
-659,174	800,000	-0,043	-0,104
-658,159	597,784	0,053	0,098
-657,145	141,114	-0,085	0,082
-656,130	-200,000	-0,007	0,107
-655,116	216,601	-0,029	-0,034
-654,101	-145,599	0,219	0,014
-653,086	29,705	-0,101	0,063
-652,072	5,441	0,139	-0,075
-651,057	178,220	0,066	-0,071
-650,043	460,817	0,075	-0,124
-649,028	293,909	0,023	-0,031
-648,014	96,200	-0,047	0,040
-646,999	-200,000	0,022	-0,087
-645,984	-200,000	0,011	0,088
-644,970	-200,000	0,015	0,068
-643,955	13,468	-0,109	-0,062
-642,941	10,098	-0,072	0,040
-641,926	-138,788	-0,151	0,012
-640,911	-200,000	0,032	0,109
-639,897	-7,721	-0,133	0,066
-638,882	-2,343	0,077	-0,039
-637,868	-200,000	-0,014	0,074
-636,853	273,485	0,027	0,034
-635,838	425,371	-0,056	-0,089
-634,824	-66,005	-0,130	0,038
-633,809	-200,000	-0,009	0,048
-632,795	800,000	0,030	0,064
-631,780	800,000	-0,036	0,111
-630,765	184,459	-0,071	-0,077
-629,751	540,369	0,052	-0,091
-628,736	-114,285	-0,039	0,005
-627,722	-200,000	-0,018	0,127
-626,707	800,000	-0,016	0,050
-625,692	-29,978	-0,016	0,007
-624,678	45,039	0,004	0,003
-623,663	-21,143	0,058	-0,026
-622,649	-200,000	0,012	0,048
-621,634	800,000	-0,044	-0,105
-620,619	54,770	0,011	0,008
-619,605	-50,669	0,194	0,067
-618,590	-200,000	-0,010	0,133
-617,576	-200,000	0,015	0,121
-616,561	763,088	0,044	0,088
-615,546	415,659	-0,043	0,068
-614,532	800,000	0,039	0,097
-613,517	380,792	0,065	-0,097
-612,503	800,000	0,027	-0,076
-611,488	125,794	-0,040	-0,037
-610,474	224,894	-0,094	0,112
-609,459	-175,367	-0,139	0,003
-608,444	35,983	0,071	-0,046
-607,430	-113,897	-0,142	-0,020
-606,415	-72,436	-0,096	-0,026
-605,401	708,056	0,007	-0,014
-604,386	-96,352	-0,068	0,013
-603,371	395,575	0,026	0,039
-602,357	800,000	-0,025	0,065
-601,342	-30,690	-0,103	0,043
-600,328	734,947	0,050	-0,098
-599,313	800,000	-0,061	-0,132
-598,298	-200,000	-0,004	-0,035
-597,284	103,891	0,060	-0,052
-596,269	767,753	0,046	-0,091
-595,255	271,307	0,084	-0,109
-594,240	-200,000	0,003	-0,088
-593,225	162,453	-0,132	-0,135
-592,211	-200,000	-0,027	-0,142
-591,196	-200,000	0,029	0,100
-590,182	452,957	-0,065	-0,105
-589,167	349,393	-0,033	0,048
-588,152	-102,354	0,007	0,001
-587,138	-200,000	0,004	-0,025
-586,123	800,000	-0,055	-0,152
-585,109	156,323	-0,091	-0,093
-584,094	-200,000	-0,016	0,068
-583,079	800,000	0,022	-0,069
-582,065	-173,477	0,018	-0,000
-581,050	105,067	0,063	-0,055
-580,036	-14,565	-0,087	0,041
-579,021	-29,613	0,108	-0,045
-578,006	330,807	-0,108	-0,153
-576,992	800,000	0,012	0,031
-575,977	39,613	0,114	0,075
-574,963	257,191	0,074	-0,094
-573,948	-90,924	0,074	0,015
-572,934	800,000	-0,009	-0,028
-571,919	-99,123	0,024	0,004
-570,904	800,000	0,033	-0,090
-569,890	-200,000	-0,001	0,073
-568,875	-200,000	0,011	0,101
-567,861	209,027	0,018	0,021
-566,846	5,101	-0,135	-0,072
-565,831	157,322	0,014	0,014
-564,817	-200,000	-0,000	0,155
-563,802	569,263	0,008	-0,014
-562,788	800,000	-0,015	-0,034
-561,773	11,604	-0,127	0,071
-560,758	92,357	-0,026	0,021
-559,744	27,738	0,104	-0,064
-558,729	-200,000	0,029	-0,097
-557,715	-200,000	-0,009	-0,059
-556,700	-200,000	-0,023	-0,158
-555,685	-127,472	-0,153	-0,016
-554,671	-200,000	0,003	0,035
-553,656	-200,000	-0,017	0,098
-552,642	-39,545	-0,093	-0,035
-551,627	800,000	-0,057	0,130
-550,612	354,089	-0,081	-0,119
-549,598	327,059	-0,070	-0,098
-548,583	-58,384	-0,149	0,047
-547,569	553,782	-0,007	0,012
-546,554	-38,413	0,066	0,025
-545,539	213,244	0,100	0,116
-544,525	241,532	0,028	-0,035
-543,510	-37,098	-0,064	-0,025
-542,496	-200,000	-0,037	-0,170
-541,481	-42,781	-0,118	-0,044
-540,466	-115,484	0,169	-0,023
-539,452	800,000	0,030	-0,064
-538,437	800,000	-0,019	-0,053
-537,423	-200,000	0,017	-0,069
-536,408	-79,946	-0,079	0,019
-535,393	-200,000	0,017	-0,083
-534,379	-173,681	-0,052	0,001
-533,364	281,110	-0,032	0,041
-532,350	-200,000	0,034	0,174
-531,335	37,705	-0,077	0,050
-530,321	-200,000	-0,005	0,130
-529,306	-2,751	-0,043	0,022
-528,291	101,375	0,044	0,038
-527,277	-157,594	0,059	0,003
-526,262	123,628	-0,053	0,048
-525,248	123,768	-0,073	0,067
-524,233	-111,505	0,085	0,012
-523,218	-200,000	-0,028	0,092
-522,204	-200,000	0,002	0,046
-521,189	-73,119	-0,142	0,038
-520,175	-136,512	-0,081	0,007
-519,160	186,580	0,024	-0,026
-518,145	-98,331	0,095	0,018
-517,131	182,592	-0,011	-0,012
-516,116	15,996	0,026	-0,015
-515,102	-200,000	-0,005	-0,142
-514,087	-200,000	0,018	-0,128
-513,072	195,524	-0,075	-0,083
-512,058	224,934	0,019	-0,023
-511,043	-44,675	0,139	-0,051
-510,029	218,331	0,018	0,020
-509,014	514,732	0,034	-0,059
-507,999	219,934	0,026	0,030
-506,985	-111,771	-0,048	0,007
-505,970	-200,000	0,021	-0,125
-504,956	573,832	-0,053	-0,094
-503,941	-174,658	-0,057	-0,001
-502,926	122,589	0,093	-0,085
-501,912	-200,000	0,003	0,053
-500,897	800,000	-0,051	-0,110
-499,883	800,000	-0,009	0,022
-498,868	116,948	-0,044	0,039
-497,853	72,433	0,034	0,026
-496,839	800,000	0,050	-0,122
-495,824	-200,000	-0,016	0,131
-494,810	9,264	-0,100	0,055
-493,795	399,163	0,052	0,079
-492,781	226,860	-0,071	0,084
-491,766	100,874	-0,015	-0,013
-490,751	-158,831	0,028	-0,001
-489,737	-100,253	-0,085	-0,015
-488,722	13,999	0,116	-0,066
-487,708	-156,976	-0,144	-0,006
-486,693	-165,810	0,089	0,003
-485,678	119,245	-0,068	-0,061
-484,664	-200,000	-0,003	0,026
-483,649	376,893	-0,064	-0,096
-482,635	-200,000	0,010	0,044
-481,620	3,957	-0,062	-0,033
-480,605	-178,923	-0,051	-0,001
-479,591	800,000	0,035	-0,094
-478,576	90,420	-0,061	-0,050
-477,562	-200,000	0,003	-0,083
-476,547	-200,000	0,001	-0,116
-475,532	800,000	0,081	-0,171
-474,518	-200,000	0,009	0,078
-473,503	772,646	0,047	0,094
-472,489	266,777	0,110	0,140
-471,474	-45,376	-0,056	0,020
-470,459	168,423	0,035	-0,037
-469,445	98,310	0,087	-0,073
-468,430	83,702	-0,115	-0,092
-467,416	-104,706	0,174	0,029
-466,401	73,768	-0,138	-0,105
-465,386	-1,781	0,118	-0,061
-464,372	-6,352	-0,105	0,052
-463,357	431,852	-0,009	-0,014
-462,343	-158,951	0,089	-0,004
-461,328	721,855	-0,051	-0,099
-460,313	-118,262	0,028	0,004
-459,299	76,109	-0,052	0,040
-458,284	-15,294	0,157	0,073
-457,270	800,000	0,032	0,091
-456,255	-125,088	-0,101	-0,011
-455,241	132,892	0,029	0,027
-454,226	141,363	-0,080	-0,077
-453,211	-200,000	-0,019	0,158
-452,197	-89,603	0,044	-0,009
-451,182	-30,736	-0,108	0,044
-450,168	64,966	-0,138	0,101
-449,153	-200,000	0,008	0,072
-448,138	-54,748	-0,015	-0,005
-447,124	800,000	-0,043	-0,089
-446,109	118,003	0,073	-0,066
-445,095	110,503	0,104	0,091
-444,080	421,750	0,024	0,038
-443,065	800,000	0,023	0,067
-442,051	-200,000	-0,013	-0,099
-441,036	-36,564	-0,097	0,038
-440,022	800,000	-0,029	-0,082
-439,007	-138,952	0,147	0,011
-437,992	800,000	-0,029	0,059
-436,978	51,416	-0,075	-0,052
-435,963	800,000	0,055	-0,116
-434,949	-200,000	-0,039	0,160
-433,934	-14,062	-0,120	0,056
-432,919	240,169	0,069	-0,084
-431,905	126,503	0,107	-0,098
-430,890	144,456	0,153	-0,148
-429,876	-200,000	0,006	0,026
-428,861	-157,891	0,058	-0,002
-427,846	-200,000	-0,018	0,153
-426,832	-200,000	0,004	-0,101
-425,817	800,000	0,042	0,116
-424,803	174,602	0,049	-0,052
-423,788	-141,520	-0,087	0,006
-422,773	-200,000	0,042	0,136
-421,759	-200,000	0,001	0,078
-420,744	-200,000	-0,005	0,056
-419,730	13,239	0,037	0,021
-418,715	211,755	0,064	0,073
-417,701	-200,000	0,018	-0,145
-416,686	-76,057	0,083	0,021
-415,671	-200,000	-0,008	0,037
-414,657	-43,852	-0,124	-0,045
-413,642	36,939	0,089	-0,057
-412,628	-53,931	-0,094	-0,031
-411,613	-66,910	0,019	-0,005
-410,598	-163,338	0,052	0,002
-409,584	-200,000	0,021	-0,106
-408,569	98,999	-0,155	0,130
-407,555	-200,000	0,043	0,152
-406,540	394,086	0,060	-0,090
-405,525	-96,035	0,038	0,007
-404,511	-90,470	-0,021	-0,004
-403,496	-200,000	-0,003	0,145
-402,482	-194,602	0,084	0,000
-401,467	-19,586	0,116	0,052
-400,452	281,195	0,124	0,162
-399,438	800,000	0,022	0,067
-398,423	-200,000	0,008	-0,061
-397,409	35,218	-0,123	0,078
-396,394	-27,605	0,066	0,028
-395,379	209,125	0,055	-0,063
-394,365	-200,000	-0,008	0,076
-393,350	-12,815	0,078	0,037
-392,336	140,031	-0,019	-0,018
-391,321	107,757	0,088	-0,076
-390,306	-200,000	-0,034	-0,162
-389,292	800,000	0,036	-0,099
-388,277	46,311	-0,037	-0,025
-387,263	28,219	-0,021	-0,013
-386,248	70,638	0,007	-0,005
-385,233	-200,000	0,009	0,078
-384,219	190,609	0,022	0,024
-383,204	34,124	-0,007	-0,005
-382,190	-60,524	-0,053	0,016
-381,175	-136,320	0,014	-0,001
-380,160	-148,544	0,057	-0,003
-379,146	-31,607	0,114	-0,046
-378,131	-200,000	-0,049	0,174
-377,117	585,649	0,007	-0,012
-376,102	-85,452	-0,033	-0,007
-375,088	99,757	0,063	-0,053
-374,073	279,176	0,044	0,057
-373,058	-200,000	-0,002	0,112
-372,044	-200,000	0,012	0,117
-371,029	16,818	0,065	-0,037
-370,015	-200,000	-0,026	-0,156
-369,000	-200,000	-0,003	0,056
-367,985	611,044	0,022	-0,041
-366,971	366,436	0,014	0,021
-365,956	-94,486	0,183	0,036
-364,942	348,258	0,055	0,079
-363,927	232,714	0,105	0,125
-362,912	-171,500	-0,144	0,003
-361,898	168,996	-0,035	-0,036
-360,883	800,000	-0,024	-0,077
-359,869	800,000	0,017	-0,036
-358,854	-80,342	0,093	0,022
-357,839	-200,000	0,022	0,085
-356,825	148,757	0,048	-0,047
-355,810	-194,322	0,070	-0,000
-354,796	-200,000	0,012	-0,053
-353,781	800,000	-0,029	-0,069
-352,766	-93,287	-0,110	0,022
-351,752	38,676	0,041	0,027
-350,737	-49,414	0,055	0,019
-349,723	122,444	0,195	0,177
-348,708	412,969	0,107	-0,166
-347,693	-132,317	-0,070	0,007
-346,679	-17,344	-0,142	0,065
-345,664	32,102	-0,092	0,057
-344,650	150,472	0,102	-0,100
-343,635	-200,000	-0,023	0,087
-342,620	-200,000	0,035	-0,114
-341,606	-69,687	0,054	0,015
-340,591	-53,439	-0,072	0,024
-339,577	598,711	-0,041	-0,075
-338,562	-2,986	0,140	-0,071
-337,548	23,958	0,053	0,032
-336,533	44,620	0,159	0,106
-335,518	-135,460	-0,133	-0,011
-334,504	-200,000	-0,003	0,159
-333,489	-200,000	0,008	0,093
-332,475	105,040	-0,049	-0,042
-331,460	316,360	0,094	-0,129
-330,445	363,882	-0,051	0,074
-329,431	28,686	-0,053	0,033
-328,416	-30,422	0,066	0,027
-327,402	246,226	-0,042	-0,052
-326,387	-200,000	-0,004	-0,123
-325,372	184,000	0,028	-0,031
-324,358	-128,919	-0,093	-0,009
-323,343	-45,244	0,067	-0,024
-322,329	17,617	0,091	0,052
-321,314	-200,000	-0,004	0,044
-320,299	800,000	-0,079	0,161
-319,285	141,511	0,065	0,062
-318,270	737,658	-0,097	-0,190
-317,256	-200,000	-0,035	-0,160
-316,241	-64,321	0,033	0,010
-315,226	226,363	0,114	-0,134
-314,212	31,890	0,032	0,020
-313,197	592,122	-0,010	0,019
-312,183	800,000	-0,030	-0,066
-311,168	31,566	0,025	0,016
-310,153	-200,000	-0,025	-0,105
-309,139	800,000	0,050	0,110
-308,124	-200,000	-0,012	-0,045
-307,110	84,016	0,032	0,026
-306,095	-200,000	-0,025	0,084
-305,080	-200,000	0,031	0,148
-304,066	511,334	-0,057	0,096
-303,051	22,339	0,062	-0,037
-302,037	17,545	-0,108	0,062
-301,022	-200,000	0,023	0,100
-300,008	-200,000	-0,017	0,057
-298,993	8,503	0,075	0,041
-297,978	-74,799	0,091	-0,024
-296,964	202,972	-0,053	0,060
-295,949	53,259	-0,098	0,068
-294,935	60,186	-0,051	-0,037
-293,920	-153,806	-0,043	-0,002
-292,905	-200,000	0,011	0,064
-291,891	-71,383	0,161	0,043
-290,876	-138,965	0,131	-0,010
-289,862	222,573	-0,027	-0,032
-288,847	245,784	-0,042	-0,051
-287,832	47,991	0,055	-0,037
-286,818	-7,189	0,038	0,018
-285,803	-200,000	-0,002	-0,114
-284,789	-48,105	-0,090	0,031
-283,774	137,219	0,094	0,089
-282,759	-192,244	-0,070	0,000
-281,745	-77,650	0,125	0,031
-280,730	-37,515	-0,236	-0,091
-279,716	-200,000	0,005	-0,020
-278,701	406,538	0,045	-0,070
-277,686	105,932	-0,064	0,055
-276,672	800,000	0,067	0,142
-275,657	185,483	-0,023	-0,025
-274,643	620,979	-0,102	0,187
-273,628	-123,566	0,124	0,014
-272,613	149,493	-0,063	-0,061
-271,599	-164,303	-0,019	-0,001
-270,584	180,047	0,175	0,186
-269,570	419,588	-0,034	0,052
-268,555	-23,847	-0,094	0,040
-267,540	-33,825	0,082	-0,033
-266,526	-135,654	-0,131	-0,011
-265,511	800,000	-0,026	-0,081
-264,497	105,228	-0,070	0,060
-263,482	-107,140	0,043	0,007
-262,467	-200,000	-0,005	0,089
-261,453	339,813	0,057	-0,081
-260,438	96,323	-0,083	0,069
-259,424	-200,000	0,016	-0,080
-258,409	9,824	-0,070	-0,039
-257,395	800,000	0,012	0,039
-256,380	800,000	0,038	-0,121
-255,365	276,383	-0,038	-0,049
-254,351	-200,000	-0,001	0,076
-253,336	187,945	-0,044	-0,048
-252,322	800,000	0,007	0,018
-251,307	70,499	0,040	-0,030
-250,292	105,980	-0,036	-0,031
-249,278	509,635	-0,062	-0,104
-248,263	3,204	-0,077	0,041
-247,249	30,855	-0,132	0,081
-246,234	103,878	0,063	0,053
-245,219	111,476	-0,106	0,092
-244,205	800,000	-0,052	-0,131
-243,190	-200,000	0,034	0,111
-242,176	480,491	0,062	0,102
-241,161	688,769	-0,008	0,015
-240,146	0,732	0,080	-0,041
-239,132	523,082	-0,063	-0,107
-238,117	24,747	-0,165	-0,099
-237,103	-200,000	0,010	-0,066
-236,088	-200,000	-0,008	-0,032
-235,073	800,000	0,065	0,133
-234,059	800,000	0,026	0,062
-233,044	-29,559	-0,082	0,034
-232,030	-18,579	0,082	0,037
-231,015	800,000	0,035	0,081
-230,000	-51,122	-0,012	0,004
-228,986	800,000	0,020	0,042
-227,971	-1,554	0,087	-0,044
-226,957	-91,144	0,118	-0,024
-225,942	-125,462	0,157	-0,017
-224,927	-200,000	-0,115	0,000
-223,913	800,000	0,013	-0,032
-222,898	320,976	-0,057	-0,079
-221,884	-200,000	0,008	-0,040
-220,869	272,645	-0,046	0,059
-219,855	322,137	0,048	-0,066
-218,840	-178,784	-0,010	0,000
-217,825	-200,000	0,000	-0,071
-216,811	34,921	0,111	-0,070
-215,796	-135,558	-0,106	0,009
-214,782	498,941	-0,088	-0,147
-213,767	784,073	0,068	-0,135
-212,752	-71,759	-0,086	-0,023
-211,738	554,296	0,080	-0,139
-210,723	-51,770	0,229	-0,077
-209,709	-60,292	-0,106	-0,032
-208,694	-85,423	0,133	-0,030
-207,679	-22,534	-0,081	0,035
-206,665	64,634	0,062	-0,045
-205,650	-200,000	-0,004	-0,063
-204,636	-35,254	0,022	0,008
-203,621	-28,760	-0,164	-0,068
-202,606	-68,538	0,061	-0,017
-201,592	86,525	0,133	-0,105
-200,577	-115,566	-0,133	0,018
-199,563	-200,000	0,009	0,105
-198,548	-200,000	-0,001	0,086
-197,533	-79,479	-0,143	0,035
-196,519	800,000	-0,037	-0,081
-195,504	54,735	0,065	-0,045
-194,490	612,381	0,041	0,075
-193,475	43,357	-0,151	-0,099
-192,460	148,577	-0,125	0,122
-191,446	44,796	0,011	-0,007
-190,431	-200,000	0,006	0,057
-189,417	-200,000	0,004	0,069
-188,402	261,185	-0,036	-0,045
-187,387	168,210	0,071	0,073
-186,373	-26,903	0,109	0,046
-185,358	-109,939	-0,122	0,018
-184,344	255,876	0,050	-0,062
-183,329	-150,501	0,061	-0,003
-182,315	-166,142	0,089	-0,003
-181,300	262,048	0,061	-0,077
-180,285	154,513	0,047	-0,047
-179,271	-200,000	-0,021	-0,151
-178,256	48,266	-0,110	-0,074
-177,242	-200,000	0,002	-0,020
-176,227	50,811	0,029	0,019
-175,212	-200,000	0,025	0,125
-174,198	158,733	-0,061	0,061
-173,183	271,128	-0,050	-0,063
-172,169	37,895	-0,088	0,056
-171,154	365,860	0,053	-0,077
-170,139	-200,000	-0,029	0,164
-169,125	-200,000	0,030	0,188
-168,110	-200,000	0,017	0,097
-167,096	-200,000	-0,014	-0,173
-166,081	-200,000	0,012	-0,039
-165,066	-43,702	0,060	0,022
-164,052	5,365	-0,035	0,019
-163,037	-85,336	0,167	-0,037
-162,023	-16,330	0,125	0,057
-161,008	800,000	-0,025	0,067
-159,993	-111,681	-0,044	-0,006
-158,979	-200,000	-0,002	-0,089
-157,964	-200,000	0,001	-0,087
-156,950	-42,884	-0,073	0,027
-155,935	800,000	0,042	0,110
-154,920	741,092	-0,018	0,035
-153,906	-200,000	-0,008	0,099
-152,891	-125,234	0,037	-0,004
-151,877	800,000	-0,060	0,131
-150,862	-81,971	-0,092	-0,022
-149,847	-200,000	0,023	-0,107
-148,833	741,465	-0,039	-0,075
-147,818	33,542	0,081	-0,050
-146,804	-40,885	-0,080	0,030
-145,789	-200,000	0,025	-0,143
-144,775	-140,984	-0,054	-0,004
-143,760	-200,000	-0,044	-0,325
-142,745	192,311	-0,067	-0,073
-141,731	-93,464	0,024	-0,005
-140,716	-200,000	0,005	0,163
-139,702	-70,908	-0,133	0,036
-138,687	-200,000	-0,038	-0,189
-137,672	-200,000	-0,005	-0,071
-136,658	35,117	0,040	-0,025
-135,643	800,000	-0,027	-0,083
-134,629	324,200	0,048	-0,066
-133,614	800,000	-0,029	0,058
-132,599	241,402	0,064	0,077
-131,585	296,159	-0,028	-0,037
-130,570	-173,226	0,107	0,002
-129,556	-132,203	0,059	-0,005
-128,541	463,551	-0,035	0,056
-127,526	127,795	-0,078	0,072
-126,512	25,341	-0,110	-0,066
-125,497	105,546	0,059	0,050
-124,483	-163,842	0,077	-0,003
-123,468	184,292	-0,054	0,057
-122,453	800,000	0,014	-0,028
-121,439	800,000	-0,026	-0,060
-120,424	46,105	-0,124	-0,082
-119,410	186,916	0,086	-0,092
