DTS Sentinel unit serial number:	SN410029Multiplexer serial number:	ORYXHardware model number:	OX2-SRSoftware version number:	ORYX F/W v4,00 Oryx Data Collector v3.7.2.0data status	okinstallation	B5 Nyhavnadifferential loss correction	single-endedforward channel	channel 2reverse channel	N/Adate	2023/12/13time	17:52:13forward acquisition time	300,00reverse acquisition time	0,00gamma	499,1914k internal	0,3159k external	0,3159temperature offset calibration	1,0000default loss term (dB/km)	0,3820temperature slope calibration	1,0000multiplexer offset coefficient	1,0000multiplexer slope coefficient	1,0000fibre end	0,00T internal ref (°C)	13,37T ext. ref 1 (°C)	-3,96T ext. ref 2 (°C)	-4,04length (m)	temperature (°C)	Stokes	anti-Stokes-744,400	-17,928	0,094	-0,043
-743,385	-168,902	-0,408	0,011
-742,371	100,192	0,184	0,158
-741,356	-138,250	-0,296	0,024
-740,342	-6,398	0,148	0,074
-739,327	-164,741	-0,337	-0,011
-738,312	68,262	0,165	0,124
-737,298	-162,758	-0,377	0,013
-736,283	-129,773	-0,115	-0,011
-735,269	-160,414	-0,363	-0,014
-734,254	106,645	0,071	0,062
-733,239	-44,387	-0,526	-0,193
-732,225	-93,453	0,119	0,024
-731,210	44,780	-0,132	-0,089
-730,196	800,000	0,014	-0,035
-729,181	-87,767	-0,203	0,045
-728,167	-46,559	0,011	-0,004
-727,152	530,232	-0,050	-0,087
-726,137	-115,729	-0,121	-0,017
-725,123	-200,000	-0,000	-0,162
-724,108	660,178	-0,066	-0,126
-723,094	-200,000	-0,001	-0,026
-722,079	62,850	-0,083	-0,061
-721,064	164,466	-0,066	-0,068
-720,050	-200,000	0,004	-0,042
-719,035	-200,000	0,009	0,031
-718,021	1,287	-0,060	0,032
-717,006	197,454	-0,119	-0,134
-715,991	280,562	-0,090	-0,118
-714,977	-114,323	-0,024	-0,003
-713,962	800,000	-0,046	-0,135
-712,948	94,952	0,115	0,097
-711,933	800,000	-0,018	0,046
-710,918	562,060	-0,028	-0,049
-709,904	58,500	-0,029	0,021
-708,889	-72,719	-0,092	0,025
-707,875	-198,395	0,044	0,000
-706,860	-22,815	0,007	-0,003
-705,845	800,000	0,038	0,084
-704,831	28,472	-0,036	-0,022
-703,816	124,017	-0,038	-0,035
-702,802	-49,247	0,200	0,070
-701,787	164,059	-0,087	0,090
-700,772	-10,282	0,066	-0,032
-699,758	800,000	-0,068	-0,167
-698,743	200,703	0,087	-0,099
-697,729	219,346	0,102	0,120
-696,714	-126,761	0,055	0,006
-695,699	17,273	-0,144	-0,084
-694,685	-200,000	0,029	-0,128
-693,670	-149,497	-0,144	-0,008
-692,656	13,814	0,115	-0,066
-691,641	205,268	-0,054	-0,061
-690,627	100,896	-0,141	0,121
-689,612	-134,444	-0,033	-0,003
-688,597	70,273	0,062	-0,047
-687,583	-200,000	-0,023	-0,107
-686,568	-200,000	-0,005	0,056
-685,554	-100,433	0,056	0,010
-684,539	-200,000	-0,014	-0,130
-683,524	70,429	-0,090	-0,068
-682,510	723,585	-0,060	-0,118
-681,495	-45,246	0,158	0,057
-680,481	339,101	0,038	0,054
-679,466	-159,450	-0,087	-0,003
-678,451	173,237	0,077	-0,082
-677,437	-146,736	-0,068	0,004
-676,422	800,000	0,053	0,116
-675,408	62,135	0,094	0,069
-674,393	-106,806	0,059	0,010
-673,378	15,636	-0,030	-0,017
-672,364	800,000	0,013	-0,028
-671,349	-121,866	-0,124	0,015
-670,335	-198,208	0,086	0,000
-669,320	-200,000	0,006	-0,031
-668,305	-200,000	0,019	-0,120
-667,291	80,109	0,035	-0,028
-666,276	196,945	0,058	-0,065
-665,262	294,313	-0,041	0,056
-664,247	-200,000	-0,006	0,098
-663,232	-135,907	-0,101	0,009
-662,218	59,800	-0,058	0,042
-661,203	800,000	-0,033	-0,071
-660,189	42,884	-0,087	0,058
-659,174	21,061	-0,038	-0,023
-658,159	297,453	0,049	-0,066
-657,145	209,180	-0,100	-0,115
-656,130	114,600	0,023	0,021
-655,116	-147,757	0,119	0,007
-654,101	-200,000	0,009	-0,036
-653,086	490,610	-0,086	0,145
-652,072	399,826	-0,049	0,075
-651,057	354,124	-0,026	-0,038
-650,043	-78,683	-0,077	-0,019
-649,028	-87,337	-0,049	-0,011
-648,014	37,530	0,144	-0,094
-646,999	-200,000	-0,011	-0,126
-645,984	-91,494	0,165	-0,034
-644,970	31,580	-0,101	0,063
-643,955	-200,000	0,000	-0,159
-642,941	208,201	-0,074	-0,085
-641,926	-150,455	0,085	-0,005
-640,911	-69,747	0,158	-0,044
-639,897	-52,415	-0,150	-0,051
-638,882	-120,086	-0,145	-0,018
-637,868	-200,000	-0,013	-0,105
-636,853	108,902	-0,022	-0,020
-635,838	37,669	0,064	-0,042
-634,824	254,849	-0,102	0,128
-633,809	800,000	-0,027	-0,085
-632,795	-200,000	0,032	-0,126
-631,780	-200,000	-0,003	-0,019
-630,765	-30,498	-0,108	-0,045
-629,751	239,673	-0,057	0,070
-628,736	-66,075	-0,073	-0,021
-627,722	120,968	-0,041	-0,038
-626,707	222,635	-0,066	0,079
-625,692	129,524	0,069	0,065
-624,678	-54,013	-0,153	-0,051
-623,663	-200,000	-0,010	0,089
-622,649	240,824	0,061	-0,074
-621,634	-200,000	0,014	0,051
-620,619	36,718	0,035	-0,022
-619,605	-85,913	0,201	-0,045
-618,590	-200,000	-0,014	0,135
-617,576	-85,166	0,067	0,015
-616,561	342,353	0,064	0,092
-615,546	255,277	-0,075	0,095
-614,532	-200,000	0,008	-0,061
-613,517	-171,379	0,111	-0,003
-612,503	-166,006	0,195	-0,006
-611,488	-200,000	-0,013	0,084
-610,474	-85,310	0,112	0,025
-609,459	178,537	0,071	-0,077
-608,444	-17,783	0,017	0,008
-607,430	14,392	0,134	0,076
-606,415	227,103	-0,071	-0,085
-605,401	-200,000	0,008	0,031
-604,386	5,123	-0,053	0,028
-603,371	-8,248	0,087	0,043
-602,357	-200,000	-0,016	-0,058
-601,342	800,000	-0,030	-0,093
-600,328	28,893	-0,113	0,070
-599,313	-53,320	-0,054	0,018
-598,298	386,583	0,032	0,049
-597,284	-71,302	0,111	0,030
-596,269	-142,128	0,055	-0,004
-595,255	-13,055	0,076	-0,036
-594,240	-200,000	0,004	0,030
-593,225	130,458	-0,027	-0,025
-592,211	800,000	0,062	0,134
-591,196	770,636	-0,040	-0,080
-590,182	-95,668	0,039	-0,008
-589,167	193,178	0,079	0,087
-588,152	466,860	-0,068	0,112
-587,138	-88,257	-0,114	0,025
-586,123	-200,000	0,008	0,049
-585,109	800,000	-0,009	0,025
-584,094	-200,000	-0,028	-0,103
-583,079	-11,944	0,044	-0,021
-582,065	-78,328	0,069	0,017
-581,050	98,078	0,079	0,067
-580,036	-82,837	0,125	-0,029
-579,021	-200,000	-0,018	-0,155
-578,006	-174,761	-0,073	0,001
-576,992	39,587	0,010	0,007
-575,977	-200,000	0,014	0,046
-574,963	800,000	-0,058	0,139
-573,948	241,549	0,086	0,106
-572,934	-200,000	-0,050	-0,242
-571,919	12,519	-0,053	0,030
-570,904	-200,000	-0,019	0,180
-569,890	800,000	0,015	0,043
-568,875	-200,000	0,028	0,131
-567,861	-200,000	0,030	-0,159
-566,846	800,000	-0,061	0,145
-565,831	-38,486	-0,040	-0,016
-564,817	-25,464	0,007	0,003
-563,802	-147,323	-0,052	-0,003
-562,788	800,000	-0,029	-0,068
-561,773	102,017	0,037	0,031
-560,758	-0,520	-0,042	0,022
-559,744	-49,199	0,077	-0,027
-558,729	800,000	0,023	0,066
-557,715	-190,609	-0,118	-0,001
-556,700	-200,000	-0,053	-0,180
-555,685	555,660	-0,028	0,050
-554,671	-3,228	0,094	-0,048
-553,656	254,042	-0,054	-0,068
-552,642	-200,000	0,024	0,149
-551,627	-200,000	-0,009	-0,051
-550,612	-200,000	-0,041	-0,138
-549,598	-200,000	-0,005	0,063
-548,583	-200,000	0,004	-0,049
-547,569	-200,000	-0,005	0,042
-546,554	-66,102	0,064	-0,018
-545,539	212,204	-0,077	-0,088
-544,525	-40,396	0,083	0,032
-543,510	-157,413	-0,112	0,005
-542,496	252,556	-0,024	-0,030
-541,481	800,000	-0,017	0,047
-540,466	800,000	0,072	0,153
-539,452	-153,465	0,111	-0,006
-538,437	800,000	-0,019	0,040
-537,423	111,312	-0,089	0,079
-536,408	38,086	0,080	-0,052
-535,393	-200,000	-0,026	-0,112
-534,379	800,000	-0,016	-0,040
-533,364	-200,000	0,006	-0,045
-532,350	-70,657	-0,043	-0,012
-531,335	-38,404	0,095	-0,037
-530,321	-23,501	0,137	0,060
-529,306	-149,478	-0,114	-0,007
-528,291	49,078	0,119	-0,081
-527,277	-200,000	0,024	-0,095
-526,262	-200,000	-0,007	-0,133
-525,248	-23,997	0,111	0,048
-524,233	41,653	0,050	0,033
-523,218	124,482	-0,050	0,046
-522,204	167,197	-0,032	0,033
-521,189	-200,000	-0,004	-0,016
-520,175	800,000	-0,058	-0,128
-519,160	39,439	-0,130	-0,085
-518,145	589,361	0,057	-0,102
-517,131	800,000	-0,024	0,071
-516,116	-200,000	0,005	-0,046
-515,102	-200,000	0,002	0,074
-514,087	-56,419	-0,100	-0,032
-513,072	337,882	-0,126	-0,180
-512,058	-200,000	-0,025	-0,098
-511,043	-200,000	-0,030	0,157
-510,029	-64,133	-0,020	0,006
-509,014	173,703	-0,121	-0,127
-507,999	-200,000	-0,003	0,057
-506,985	800,000	0,028	-0,085
-505,970	21,795	-0,060	-0,035
-504,956	800,000	-0,045	0,122
-503,941	516,683	-0,017	-0,030
-502,926	-33,646	0,042	0,017
-501,912	96,741	-0,065	-0,054
-500,897	585,756	0,044	-0,079
-499,883	357,077	-0,038	0,055
-498,868	-200,000	-0,011	-0,104
-497,853	69,564	-0,066	0,050
-496,839	-21,748	0,125	-0,055
-495,824	750,017	0,040	0,078
-494,810	-5,001	0,160	-0,080
-493,795	-200,000	-0,009	-0,063
-492,781	123,969	-0,112	-0,103
-491,766	-20,294	-0,108	0,048
-490,751	-150,208	0,082	-0,005
-489,737	800,000	-0,013	-0,040
-488,722	19,662	0,071	-0,042
-487,708	-71,497	-0,018	0,005
-486,693	800,000	0,051	0,136
-485,678	184,622	0,037	-0,040
-484,664	800,000	0,066	-0,136
-483,649	-122,173	0,007	-0,001
-482,635	-200,000	0,002	-0,033
-481,620	273,628	-0,040	0,052
-480,605	-148,447	-0,004	-0,000
-479,591	-50,444	0,064	-0,022
-478,576	-98,347	0,101	0,019
-477,562	11,011	-0,027	-0,015
-476,547	-152,314	0,093	-0,005
-475,532	132,683	-0,029	0,027
-474,518	-200,000	-0,018	0,097
-473,503	-113,162	0,161	-0,023
-472,489	611,281	0,038	0,070
-471,474	431,776	0,083	-0,132
-470,459	-70,975	-0,078	0,021
-469,445	-28,022	-0,085	0,036
-468,430	100,522	0,125	0,106
-467,416	287,371	0,057	-0,076
-466,401	800,000	-0,039	-0,111
-465,386	-27,150	0,110	0,046
-464,372	211,806	0,033	-0,038
-463,357	-1,768	-0,106	-0,054
-462,343	476,777	0,034	0,056
-461,328	24,943	-0,097	-0,059
-460,313	111,072	0,042	-0,037
-459,299	-200,000	-0,009	0,058
-458,284	800,000	0,049	-0,116
-457,270	717,224	-0,016	0,032
-456,255	-86,108	-0,034	-0,007
-455,241	318,856	-0,102	-0,141
-454,226	-200,000	0,029	0,110
-453,211	-77,709	-0,138	-0,034
-452,197	800,000	0,034	0,077
-451,182	-30,544	-0,039	-0,016
-450,168	26,537	-0,116	0,070
-449,153	-200,000	-0,010	0,063
-448,138	127,974	-0,136	-0,126
-447,124	275,596	-0,068	-0,089
-446,109	-107,864	-0,190	-0,030
-445,095	-200,000	-0,055	0,000
-444,080	74,593	-0,026	-0,020
-443,065	-4,188	-0,055	0,028
-442,051	800,000	-0,051	0,133
-441,036	-200,000	0,007	0,025
-440,022	154,545	-0,063	-0,063
-439,007	-200,000	-0,000	0,022
-437,992	64,357	0,048	-0,035
-436,978	592,652	0,029	0,052
-435,963	-123,128	0,151	0,017
-434,949	42,267	0,100	-0,066
-433,934	-169,065	-0,047	0,001
-432,919	621,904	-0,061	-0,112
-431,905	-200,000	0,009	-0,062
-430,890	65,249	0,020	0,015
-429,876	647,822	0,051	0,095
-428,861	195,948	-0,080	0,088
-427,846	-158,416	0,040	-0,002
-426,832	236,909	0,049	0,060
-425,817	-4,991	0,056	-0,028
-424,803	-135,591	-0,127	0,011
-423,788	131,651	0,023	0,021
-422,773	-56,687	0,148	-0,047
-421,759	-200,000	0,014	-0,145
-420,744	-122,238	0,174	-0,020
-419,730	-11,106	-0,071	0,034
-418,715	-200,000	-0,046	-0,166
-417,701	165,553	-0,032	0,033
-416,686	-74,099	0,081	0,021
-415,671	-26,170	0,048	-0,021
-414,657	286,817	0,050	0,066
-413,642	800,000	-0,043	-0,111
-412,628	-69,499	-0,071	0,020
-411,613	-79,671	-0,071	-0,017
-410,598	800,000	-0,021	-0,046
-409,584	-108,155	0,127	-0,020
-408,569	-153,789	0,063	-0,003
-407,555	148,601	0,094	0,092
-406,540	35,585	-0,104	0,066
-405,525	-162,744	-0,036	0,001
-404,511	800,000	0,027	-0,067
-403,496	116,034	-0,056	0,050
-402,482	800,000	0,022	-0,068
-401,467	396,503	0,026	-0,039
-400,452	-200,000	-0,016	-0,054
-399,438	-44,799	-0,136	0,049
-398,423	353,383	-0,067	-0,097
-397,409	23,263	0,067	-0,040
-396,394	-200,000	0,001	0,026
-395,379	-37,002	-0,118	0,046
-394,365	306,270	0,073	0,099
-393,350	482,597	-0,055	-0,092
-392,336	-75,976	0,099	0,025
-391,321	-200,000	-0,006	-0,049
-390,306	-200,000	-0,025	0,081
-389,292	-175,435	-0,104	0,002
-388,277	384,311	0,065	0,098
-387,263	-46,890	-0,065	0,023
-386,248	-71,010	0,199	-0,054
-385,233	251,341	0,102	0,126
-384,219	-8,025	0,043	0,021
-383,204	301,344	0,100	-0,135
-382,190	-98,620	0,127	-0,023
-381,175	-200,000	-0,019	0,141
-380,160	800,000	-0,041	0,118
-379,146	56,968	0,124	-0,088
-378,131	-200,000	0,030	0,130
-377,117	8,410	0,054	0,030
-376,102	185,191	-0,096	0,103
-375,088	800,000	0,070	-0,146
-374,073	-200,000	0,014	-0,146
-373,058	-200,000	0,004	-0,109
-372,044	-200,000	0,004	0,017
-371,029	-52,317	-0,035	0,012
-370,015	612,047	0,002	-0,004
-369,000	-86,339	-0,090	0,020
-367,985	-158,059	0,063	0,003
-366,971	250,519	-0,098	0,121
-365,956	99,289	0,110	-0,093
-364,942	800,000	0,051	0,126
-363,927	-89,917	0,173	-0,036
-362,912	-200,000	0,002	0,089
-361,898	800,000	0,011	-0,031
-360,883	800,000	0,094	-0,200
-359,869	-132,703	-0,045	0,004
-358,854	-200,000	0,004	0,064
-357,839	-103,718	0,104	-0,018
-356,825	106,225	0,171	0,147
-355,810	352,366	0,021	0,030
-354,796	130,120	-0,096	-0,089
-353,781	158,737	-0,046	-0,047
-352,766	-153,502	-0,126	0,006
-351,752	70,042	0,064	0,048
-350,737	-200,000	-0,011	0,156
-349,723	-70,787	-0,085	-0,023
-348,708	-11,227	-0,058	-0,027
-347,693	87,877	0,044	-0,036
-346,679	-42,479	-0,031	0,012
-345,664	-25,888	-0,074	-0,032
-344,650	-200,000	0,000	-0,051
-343,635	-51,130	0,066	-0,022
-342,620	67,155	-0,051	0,037
-341,606	-200,000	0,010	0,062
-340,591	329,570	-0,032	-0,044
-339,577	-69,544	-0,193	0,053
-338,562	-200,000	0,021	0,128
-337,548	581,718	0,048	-0,085
-336,533	-36,363	0,119	-0,046
-335,518	-95,855	0,106	-0,020
-334,504	30,237	0,162	0,100
-333,489	-200,000	0,007	-0,037
-332,475	169,869	0,030	0,031
-331,460	800,000	-0,036	-0,108
-330,445	71,001	-0,150	-0,112
-329,431	49,492	0,036	-0,025
-328,416	800,000	-0,041	0,115
-327,402	-200,000	0,020	0,127
-326,387	238,595	0,063	0,076
-325,372	-158,831	-0,115	0,005
-324,358	83,371	0,050	-0,040
-323,343	87,923	-0,039	-0,031
-322,329	-200,000	0,013	0,082
-321,314	-200,000	-0,004	0,063
-320,299	43,155	0,066	0,043
-319,285	-36,590	-0,031	-0,012
-318,270	-200,000	-0,008	-0,077
-317,256	-126,414	-0,146	0,016
-316,241	-100,344	0,025	-0,004
-315,226	800,000	0,025	0,057
-314,212	-62,908	0,055	-0,016
-313,197	350,688	0,068	0,098
-312,183	49,320	-0,040	0,027
-311,168	-85,381	-0,141	-0,032
-310,153	85,524	-0,077	0,061
-309,139	-113,711	-0,114	-0,016
-308,124	-87,032	-0,138	-0,030
-307,110	-147,844	-0,007	-0,000
-306,095	-200,000	-0,004	0,051
-305,080	150,009	-0,029	0,029
-304,066	407,673	-0,072	0,111
-303,051	-94,637	-0,191	-0,037
-302,037	-27,865	-0,080	-0,033
-301,022	-160,035	-0,132	0,005
-300,008	-200,000	-0,001	0,068
-298,993	-122,413	0,182	-0,021
-297,978	142,458	-0,060	0,058
-296,964	477,983	-0,026	0,043
-295,949	-200,000	-0,003	0,054
-294,935	101,493	-0,106	0,089
-293,920	-134,038	0,091	-0,008
-292,905	92,991	-0,044	0,036
-291,891	-200,000	-0,007	0,029
-290,876	-2,181	-0,110	-0,056
-289,862	55,013	-0,015	0,011
-288,847	7,130	0,166	-0,089
-287,832	298,487	-0,064	-0,085
-286,818	655,672	0,050	0,094
-285,803	-62,367	0,079	-0,024
-284,789	-62,730	0,031	-0,009
-283,774	800,000	0,048	0,133
-282,759	8,023	-0,063	0,034
-281,745	-56,176	0,050	0,016
-280,730	-200,000	0,004	-0,091
-279,716	7,652	-0,024	0,013
-278,701	235,083	0,071	0,085
-277,686	-200,000	-0,012	-0,118
-276,672	446,393	0,021	0,033
-275,657	-41,750	-0,133	0,049
-274,643	-105,102	-0,044	0,007
-273,628	800,000	-0,030	-0,067
-272,613	80,317	0,071	-0,055
-271,599	-103,991	-0,110	-0,018
-270,584	800,000	0,051	-0,118
-269,570	-170,896	0,095	-0,002
-268,555	-171,651	0,085	0,002
-267,540	262,997	-0,104	-0,131
-266,526	562,365	-0,098	-0,172
-265,511	-116,568	0,052	0,007
-264,497	153,248	0,123	0,121
-263,482	330,771	0,051	-0,072
-262,467	-200,000	-0,008	0,083
-261,453	161,324	0,099	-0,100
-260,438	-6,653	0,056	-0,027
-259,424	-29,170	-0,020	-0,008
-258,409	800,000	0,017	-0,051
-257,395	169,555	0,071	-0,073
-256,380	241,555	-0,110	0,133
-255,365	-200,000	-0,010	0,088
-254,351	-53,658	0,066	-0,022
-253,336	-200,000	0,021	-0,095
-252,322	283,242	-0,046	-0,060
-251,307	142,387	-0,068	0,066
-250,292	800,000	-0,039	-0,090
-249,278	53,124	0,064	-0,044
-248,263	800,000	-0,038	-0,091
-247,249	800,000	0,016	-0,043
-246,234	-29,949	-0,163	0,067
-245,219	-137,546	-0,241	-0,019
-244,205	142,394	-0,057	-0,055
-243,190	229,409	-0,038	-0,045
-242,176	13,254	0,094	0,052
-241,161	261,613	0,052	0,066
-240,146	-46,417	-0,053	0,019
-239,132	478,433	-0,005	-0,008
-238,117	-154,203	-0,197	-0,009
-237,103	-122,492	0,084	-0,010
-236,088	556,248	-0,016	-0,028
-235,073	361,532	0,047	0,068
-234,059	-56,180	0,061	0,019
-233,044	79,343	0,023	0,018
-232,030	800,000	-0,103	0,225
-231,015	800,000	-0,015	0,035
-230,000	47,771	-0,106	-0,071
-228,986	727,361	0,010	0,019
-227,971	-103,786	-0,086	-0,014
-226,957	172,530	0,063	0,065
-225,942	-200,000	0,015	0,164
-224,927	330,188	0,089	-0,124
-223,913	37,264	-0,128	-0,081
-222,898	-130,662	-0,004	-0,000
-221,884	-10,122	0,095	-0,045
-220,869	-2,864	-0,054	-0,027
-219,855	800,000	-0,044	0,116
-218,840	-90,217	0,094	-0,020
-217,825	17,746	-0,030	-0,017
-216,811	-200,000	0,012	0,083
-215,796	272,308	-0,037	-0,047
-214,782	800,000	-0,030	-0,068
-213,767	800,000	0,064	0,140
-212,752	-60,484	-0,068	0,021
-211,738	46,771	-0,104	0,070
-210,723	800,000	0,052	0,143
-209,709	106,952	0,108	-0,093
-208,694	-200,000	0,000	-0,043
-207,679	360,830	0,088	-0,128
-206,665	-200,000	-0,003	0,090
-205,650	800,000	0,036	0,110
-204,636	-96,958	-0,085	0,016
-203,621	-92,160	0,078	-0,016
-202,606	-200,000	-0,014	-0,110
-201,592	-200,000	-0,023	0,074
-200,577	-122,598	-0,114	0,013
-199,563	194,221	0,118	0,129
-198,548	-12,206	0,112	-0,053
-197,533	51,616	-0,038	0,026
-196,519	575,040	-0,038	0,068
-195,504	81,974	0,068	0,053
-194,490	353,546	-0,054	-0,077
-193,475	63,293	0,142	0,103
-192,460	707,802	0,029	0,055
-191,446	-200,000	-0,015	-0,063
-190,431	-52,859	0,108	-0,036
-189,417	72,286	-0,115	0,087
-188,402	169,491	-0,034	0,035
-187,387	-158,777	-0,163	0,007
-186,373	-200,000	0,006	0,035
-185,358	7,137	0,039	-0,021
-184,344	63,274	0,090	-0,065
-183,329	-189,203	0,087	-0,001
-182,315	732,879	0,034	0,067
-181,300	390,347	0,024	-0,036
-180,285	-40,553	-0,071	-0,027
-179,271	327,506	-0,086	0,119
-178,256	-146,578	0,078	-0,005
-177,242	101,529	-0,046	0,038
-176,227	136,458	0,014	-0,013
-175,212	-102,106	-0,134	0,023
-174,198	-43,197	0,141	0,051
-173,183	-200,000	-0,018	0,084
-172,169	800,000	0,050	0,121
-171,154	-117,347	-0,037	-0,005
-170,139	-25,003	0,120	0,051
-169,125	800,000	-0,025	0,054
-168,110	-132,477	-0,119	0,011
-167,096	800,000	0,024	0,066
-166,081	-23,074	0,030	0,013
-165,066	-200,000	-0,024	-0,092
-164,052	-200,000	-0,079	-0,257
-163,037	-28,543	-0,042	0,017
-162,023	-200,000	0,044	0,172
-161,008	-67,777	0,050	0,014
-159,993	358,567	-0,048	0,069
-158,979	-200,000	-0,029	-0,150
-157,964	234,962	0,068	-0,081
-156,950	800,000	-0,056	0,126
-155,935	-200,000	0,016	-0,055
-154,920	-200,000	0,011	0,038
-153,906	-154,494	0,151	-0,007
-152,891	-13,010	-0,083	-0,039
-151,877	296,802	-0,125	0,166
-150,862	-117,546	-0,120	-0,015
-149,847	-200,000	-0,003	0,141
-148,833	-17,089	-0,034	0,016
-147,818	800,000	0,030	-0,084
-146,804	754,388	0,048	0,095
-145,789	-94,330	-0,124	-0,024
-144,775	37,638	-0,111	0,071
-143,760	143,738	0,037	-0,036
-142,745	-200,000	0,001	-0,034
-141,731	800,000	0,035	-0,074
-140,716	7,483	-0,051	-0,027
-139,702	125,431	0,044	0,040
-138,687	69,569	-0,010	0,007
-137,672	676,182	-0,017	-0,032
-136,658	-112,402	-0,087	0,012
-135,643	260,533	-0,023	0,029
-134,629	-81,063	-0,160	-0,038
-133,614	409,329	0,080	-0,123
-132,599	180,589	-0,067	0,070
-131,585	-100,331	-0,099	0,018
-130,570	34,598	-0,084	-0,053
-129,556	31,719	-0,033	-0,020
-128,541	-133,760	-0,201	0,018
-127,526	800,000	-0,003	-0,008
-126,512	183,930	-0,052	-0,056
-125,497	-162,719	0,073	-0,003
-124,483	800,000	0,029	0,062
-123,468	800,000	-0,073	-0,158
-122,453	-106,597	-0,096	0,015
-121,439	-61,400	0,140	0,042
-120,424	251,630	0,102	0,125
