DTS Sentinel unit serial number:	SN410029Multiplexer serial number:	ORYXHardware model number:	OX2-SRSoftware version number:	ORYX F/W v4,00 Oryx Data Collector v3.7.2.0data status	okinstallation	B5 Nyhavnadifferential loss correction	single-endedforward channel	channel 2reverse channel	N/Adate	2023/12/12time	03:57:13forward acquisition time	300,00reverse acquisition time	0,00gamma	499,1914k internal	0,3156k external	0,3156temperature offset calibration	1,0000default loss term (dB/km)	0,3820temperature slope calibration	1,0000multiplexer offset coefficient	1,0000multiplexer slope coefficient	1,0000fibre end	0,00T internal ref (°C)	15,60T ext. ref 1 (°C)	-0,83T ext. ref 2 (°C)	-1,12length (m)	temperature (°C)	Stokes	anti-Stokes-744,400	10,906	0,084	-0,047
-743,385	-90,836	-0,221	-0,047
-742,371	47,214	0,075	-0,051
-741,356	-52,584	-0,237	-0,080
-740,342	-158,660	0,059	0,002
-739,327	-124,319	-0,261	0,030
-738,312	388,226	0,115	0,176
-737,298	-162,953	-0,397	0,014
-736,283	-144,346	-0,044	0,003
-735,269	-35,526	-0,274	0,109
-734,254	-58,956	0,159	0,050
-733,239	1,036	-0,600	-0,316
-732,225	-97,478	0,196	-0,037
-731,210	-200,000	0,017	0,068
-730,196	-116,529	-0,101	0,014
-729,181	37,878	-0,057	-0,037
-728,167	548,889	0,043	0,077
-727,152	800,000	-0,075	-0,182
-726,137	62,390	-0,109	-0,080
-725,123	48,973	0,145	-0,100
-724,108	800,000	-0,036	-0,091
-723,094	393,501	-0,029	0,044
-722,079	-200,000	0,018	-0,180
-721,064	-157,520	-0,089	-0,004
-720,050	-174,418	-0,098	0,002
-719,035	-176,687	0,123	0,002
-718,021	-200,000	-0,013	-0,059
-717,006	800,000	-0,052	-0,112
-715,991	800,000	-0,073	-0,149
-714,977	39,410	0,050	-0,033
-713,962	-71,910	-0,101	-0,028
-712,948	-47,274	0,163	0,058
-711,933	324,621	0,041	0,058
-710,918	208,810	-0,027	0,031
-709,904	-174,260	-0,053	-0,001
-708,889	-200,000	0,002	-0,008
-707,875	99,691	-0,109	-0,093
-706,860	-137,501	0,089	-0,007
-705,845	147,055	0,076	-0,075
-704,831	800,000	0,033	0,076
-703,816	146,557	-0,110	-0,109
-702,802	-46,379	0,053	0,019
-701,787	-86,580	-0,130	-0,029
-700,772	418,300	-0,014	-0,022
-699,758	722,391	-0,047	0,093
-698,743	94,775	0,200	0,168
-697,729	-12,784	-0,181	0,087
-696,714	-11,793	0,126	-0,061
-695,699	-200,000	0,034	-0,150
-694,685	-44,520	-0,141	-0,051
-693,670	1,267	-0,113	-0,060
-692,656	-109,144	-0,067	-0,010
-691,641	134,784	0,081	-0,078
-690,627	-67,385	-0,194	0,056
-689,612	126,795	-0,092	-0,086
-688,597	-48,159	0,130	-0,046
-687,583	266,245	0,041	0,052
-686,568	-200,000	-0,036	-0,142
-685,554	-181,642	-0,045	0,001
-684,539	-200,000	0,010	0,040
-683,524	-74,605	0,064	-0,017
-682,510	202,401	0,065	0,074
-681,495	-17,569	0,018	0,008
-680,481	-182,049	-0,032	0,000
-679,466	800,000	0,041	-0,134
-678,451	-200,000	-0,024	-0,143
-677,437	-142,914	-0,040	-0,003
-676,422	395,337	0,056	0,086
-675,408	-47,583	-0,114	-0,040
-674,393	-11,951	0,167	-0,080
-673,378	-40,048	-0,139	-0,053
-672,364	172,581	-0,113	-0,120
-671,349	-141,640	-0,046	-0,003
-670,335	699,560	-0,059	0,116
-669,320	84,812	0,084	-0,067
-668,305	-196,700	0,069	0,000
-667,291	130,642	-0,128	-0,121
-666,276	-200,000	0,020	-0,145
-665,262	-200,000	-0,014	-0,178
-664,247	257,367	0,018	-0,023
-663,232	-11,227	-0,103	-0,050
-662,218	16,576	0,067	0,039
-661,203	178,877	-0,051	-0,055
-660,189	38,268	0,017	-0,011
-659,174	-200,000	0,015	0,168
-658,159	20,042	-0,105	-0,062
-657,145	56,319	-0,081	0,058
-656,130	800,000	-0,064	0,145
-655,116	-20,523	-0,097	0,044
-654,101	64,399	0,047	0,035
-653,086	-113,418	0,075	-0,011
-652,072	10,838	-0,046	-0,026
-651,057	478,926	-0,009	0,015
-650,043	139,766	-0,084	-0,082
-649,028	406,581	-0,017	0,026
-648,014	800,000	-0,048	-0,102
-646,999	189,680	-0,046	0,051
-645,984	-59,606	0,116	-0,036
-644,970	-34,744	0,078	0,031
-643,955	77,388	-0,042	0,033
-642,941	-54,032	-0,185	-0,062
-641,926	107,796	0,016	0,014
-640,911	-15,496	0,107	-0,050
-639,897	66,960	-0,014	0,010
-638,882	147,091	0,045	0,044
-637,868	-134,896	0,046	-0,004
-636,853	-93,550	-0,116	0,023
-635,838	87,565	0,007	0,006
-634,824	469,648	0,034	-0,056
-633,809	-149,058	0,035	-0,002
-632,795	97,790	-0,048	0,041
-631,780	570,751	0,069	0,124
-630,765	18,327	-0,083	0,049
-629,751	56,554	-0,141	-0,101
-628,736	7,354	-0,054	-0,030
-627,722	3,047	-0,048	0,026
-626,707	198,786	0,039	-0,043
-625,692	-200,000	-0,024	0,150
-624,678	88,294	0,050	-0,041
-623,663	547,397	0,076	0,134
-622,649	152,672	-0,107	-0,107
-621,634	-200,000	-0,003	-0,088
-620,619	-112,751	0,120	0,017
-619,605	-92,056	0,062	0,013
-618,590	-200,000	-0,022	0,075
-617,576	-200,000	0,016	0,146
-616,561	612,396	-0,016	0,029
-615,546	-200,000	-0,004	-0,124
-614,532	-200,000	0,002	0,031
-613,517	-60,266	-0,151	0,047
-612,503	127,573	-0,138	-0,128
-611,488	-200,000	0,004	-0,097
-610,474	-200,000	0,009	-0,175
-609,459	324,641	0,054	0,076
-608,444	-200,000	-0,029	-0,158
-607,430	-200,000	-0,021	0,091
-606,415	64,859	-0,110	0,081
-605,401	-200,000	-0,019	0,122
-604,386	-13,343	0,086	0,041
-603,371	-14,658	0,175	0,082
-602,357	261,884	0,053	-0,068
-601,342	-200,000	0,009	-0,090
-600,328	-68,199	-0,162	-0,046
-599,313	51,879	-0,064	-0,044
-598,298	-107,014	0,078	-0,012
-597,284	-44,458	0,039	0,014
-596,269	636,440	0,010	-0,018
-595,255	28,501	-0,050	-0,031
-594,240	666,276	-0,051	-0,098
-593,225	83,577	-0,072	0,058
-592,211	118,291	0,072	-0,065
-591,196	-94,976	0,020	0,004
-590,182	114,200	-0,027	0,024
-589,167	-154,891	-0,139	0,007
-588,152	288,639	-0,029	-0,038
-587,138	-72,588	0,002	0,001
-586,123	-89,313	-0,012	-0,003
-585,109	235,276	0,042	0,051
-584,094	-200,000	-0,002	-0,147
-583,079	-41,168	0,104	0,039
-582,065	-97,041	-0,040	-0,008
-581,050	113,135	0,048	0,043
-580,036	118,794	-0,012	-0,011
-579,021	-79,631	-0,176	-0,043
-578,006	-200,000	0,028	-0,197
-576,992	-101,156	0,139	-0,025
-575,977	-162,252	0,110	0,004
-574,963	-200,000	0,007	0,120
-573,948	184,884	-0,153	0,166
-572,934	-61,825	0,158	-0,048
-571,919	440,828	-0,068	-0,109
-570,904	578,282	0,061	-0,110
-569,890	435,449	-0,064	-0,102
-568,875	-139,177	0,176	-0,014
-567,861	0,603	0,068	-0,036
-566,846	-200,000	-0,009	-0,086
-565,831	89,484	0,057	0,046
-564,817	606,241	-0,022	0,040
-563,802	71,837	0,030	-0,023
-562,788	63,401	0,078	0,058
-561,773	586,408	0,029	0,053
-560,758	274,468	-0,041	-0,053
-559,744	-200,000	0,016	0,084
-558,729	-45,104	0,038	-0,014
-557,715	-30,250	-0,060	0,025
-556,700	246,404	0,133	-0,164
-555,685	8,053	-0,085	-0,046
-554,671	800,000	0,037	-0,098
-553,656	-200,000	-0,027	-0,136
-552,642	323,246	0,076	0,106
-551,627	186,456	-0,086	0,093
-550,612	-98,332	0,025	0,005
-549,598	-200,000	0,001	-0,028
-548,583	740,293	-0,039	-0,077
-547,569	-30,070	0,034	0,014
-546,554	36,525	0,127	0,082
-545,539	-200,000	0,005	-0,127
-544,525	800,000	-0,016	-0,040
-543,510	28,891	0,040	0,024
-542,496	394,190	-0,008	0,013
-541,481	461,407	-0,029	-0,047
-540,466	-139,074	0,051	-0,004
-539,452	-99,297	0,082	0,015
-538,437	-200,000	0,004	0,158
-537,423	425,455	-0,060	0,094
-536,408	321,684	-0,086	0,120
-535,393	-200,000	-0,009	-0,037
-534,379	-71,915	-0,143	0,039
-533,364	-110,364	-0,112	-0,017
-532,350	621,873	0,044	-0,081
-531,335	558,672	0,025	-0,044
-530,321	162,951	0,094	0,097
-529,306	644,913	-0,064	-0,120
-528,291	-200,000	-0,035	0,121
-527,277	85,775	0,031	0,025
-526,262	-194,694	-0,019	-0,000
-525,248	800,000	0,058	0,124
-524,233	17,070	-0,047	0,027
-523,218	376,250	0,078	-0,117
-522,204	258,262	0,075	-0,095
-521,189	101,578	0,009	0,008
-520,175	-200,000	0,013	-0,085
-519,160	221,892	-0,078	0,092
-518,145	800,000	0,027	0,062
-517,131	-200,000	-0,001	0,073
-516,116	247,039	-0,038	0,047
-515,102	-93,821	0,175	-0,035
-514,087	-109,075	-0,081	0,013
-513,072	-92,062	-0,026	0,005
-512,058	52,154	-0,040	-0,028
-511,043	212,606	-0,017	0,019
-510,029	-116,198	0,012	-0,002
-509,014	162,173	-0,052	0,053
-507,999	-9,825	0,133	-0,064
-506,985	-174,132	-0,115	-0,002
-505,970	800,000	0,079	-0,194
-504,956	800,000	-0,036	-0,090
-503,941	-98,623	-0,134	-0,025
-502,926	-80,012	0,062	-0,015
-501,912	-200,000	0,009	0,062
-500,897	-200,000	-0,007	0,160
-499,883	-83,471	-0,120	0,028
-498,868	139,206	0,125	0,120
-497,853	-138,555	-0,172	-0,014
-496,839	800,000	0,044	0,094
-495,824	36,478	-0,063	0,040
-494,810	-200,000	-0,017	-0,139
-493,795	-158,303	0,026	0,001
-492,781	223,489	-0,008	0,009
-491,766	0,116	-0,052	-0,027
-490,751	25,489	-0,044	-0,027
-489,737	800,000	-0,016	0,048
-488,722	126,042	0,109	0,101
-487,708	269,708	-0,071	0,092
-486,693	-7,469	-0,116	0,057
-485,678	-43,390	-0,046	0,017
-484,664	-200,000	0,020	-0,094
-483,649	-126,598	-0,114	-0,012
-482,635	142,265	-0,036	-0,035
-481,620	-40,504	-0,012	0,005
-480,605	555,673	0,075	-0,133
-479,591	-200,000	0,011	0,038
-478,576	193,330	-0,077	-0,086
-477,562	800,000	0,046	-0,111
-476,547	70,403	-0,089	-0,067
-475,532	-44,461	-0,091	-0,033
-474,518	-200,000	-0,011	0,139
-473,503	31,731	0,086	-0,054
-472,489	800,000	0,035	0,083
-471,474	-56,782	-0,030	0,010
-470,459	-200,000	0,037	0,172
-469,445	76,369	0,067	0,052
-468,430	351,528	0,029	0,042
-467,416	800,000	0,022	0,054
-466,401	54,383	0,030	0,021
-465,386	-200,000	-0,007	0,044
-464,372	291,159	0,056	0,075
-463,357	16,941	0,086	0,050
-462,343	-51,847	-0,138	-0,046
-461,328	67,941	0,154	0,115
-460,313	-76,667	-0,030	0,008
-459,299	-75,282	-0,047	0,012
-458,284	658,311	0,052	0,099
-457,270	-137,244	-0,128	0,010
-456,255	800,000	0,032	0,082
-455,241	-166,520	-0,098	-0,003
-454,226	254,053	-0,043	0,053
-453,211	-147,113	0,141	-0,009
-452,197	-200,000	-0,010	0,093
-451,182	107,383	0,081	0,070
-450,168	-200,000	-0,016	0,112
-449,153	203,827	0,072	-0,082
-448,138	39,431	0,096	0,063
-447,124	-96,633	-0,075	-0,014
-446,109	-70,248	0,080	0,022
-445,095	43,856	0,033	-0,022
-444,080	618,397	0,015	0,027
-443,065	-4,534	0,041	-0,021
-442,051	800,000	0,046	-0,138
-441,036	-113,110	-0,152	0,022
-440,022	800,000	-0,017	-0,047
-439,007	-137,776	-0,078	0,006
-437,992	-121,079	0,026	-0,003
-436,978	-200,000	-0,023	-0,102
-435,963	-200,000	0,012	0,091
-434,949	13,578	0,025	0,014
-433,934	-200,000	-0,015	-0,071
-432,919	175,318	0,043	0,045
-431,905	800,000	0,055	-0,139
-430,890	390,497	0,108	0,164
-429,876	45,026	-0,043	0,028
-428,861	-200,000	-0,012	-0,122
-427,846	640,799	0,075	-0,140
-426,832	228,519	-0,017	0,021
-425,817	147,852	-0,146	-0,143
-424,803	405,568	-0,032	-0,049
-423,788	800,000	0,052	0,140
-422,773	154,791	0,030	-0,030
-421,759	-66,657	0,038	0,011
-420,744	270,201	0,086	0,110
-419,730	52,308	0,082	0,057
-418,715	800,000	-0,018	0,047
-417,701	-82,012	-0,077	-0,018
-416,686	800,000	-0,035	-0,079
-415,671	-200,000	-0,001	0,068
-414,657	357,049	-0,057	0,083
-413,642	-200,000	-0,002	0,040
-412,628	800,000	0,051	-0,152
-411,613	133,222	-0,048	-0,045
-410,598	411,575	-0,042	0,066
-409,584	-106,938	-0,028	0,005
-408,569	800,000	0,023	0,067
-407,555	800,000	-0,030	-0,085
-406,540	800,000	0,013	0,028
-405,525	37,161	-0,088	0,056
-404,511	-200,000	0,027	0,102
-403,496	800,000	-0,020	-0,064
-402,482	-185,014	-0,048	-0,001
-401,467	-200,000	-0,006	0,128
-400,452	-15,446	0,056	0,026
-399,438	-200,000	-0,011	0,066
-398,423	-82,034	-0,041	-0,010
-397,409	-200,000	0,006	-0,083
-396,394	221,666	-0,010	0,012
-395,379	-200,000	-0,001	0,130
-394,365	314,838	-0,020	-0,028
-393,350	-45,493	-0,139	0,050
-392,336	-200,000	0,012	-0,172
-391,321	567,566	0,022	0,039
-390,306	-200,000	-0,012	0,057
-389,292	101,448	-0,073	-0,062
-388,277	212,614	-0,027	0,031
-387,263	800,000	-0,018	0,046
-386,248	332,866	0,039	0,056
-385,233	427,456	0,046	0,072
-384,219	210,181	0,080	-0,091
-383,204	88,782	-0,081	-0,066
-382,190	74,434	-0,108	0,082
-381,175	-6,560	0,109	0,054
-380,160	277,286	0,119	-0,154
-379,146	800,000	-0,041	0,111
-378,131	78,303	0,099	0,077
-377,117	800,000	-0,041	-0,093
-376,102	-51,379	0,097	0,033
-375,088	113,530	-0,078	-0,069
-374,073	800,000	0,042	-0,110
-373,058	-67,062	0,113	-0,032
-372,044	-200,000	-0,022	0,080
-371,029	423,426	-0,035	0,055
-370,015	-200,000	-0,003	-0,034
-369,000	180,351	0,065	-0,070
-367,985	800,000	0,069	-0,175
-366,971	-37,424	-0,127	-0,049
-365,956	75,165	-0,039	-0,030
-364,942	-32,378	0,070	-0,028
-363,927	800,000	0,031	0,084
-362,912	274,195	0,043	0,056
-361,898	800,000	-0,022	0,055
-360,883	234,737	-0,088	-0,106
-359,869	-13,662	-0,092	0,043
-358,854	-97,566	-0,069	-0,013
-357,839	-135,075	-0,139	-0,012
-356,825	800,000	-0,007	0,016
-355,810	11,953	0,062	0,035
-354,796	290,603	0,041	-0,054
-353,781	-128,878	-0,080	0,008
-352,766	132,131	-0,032	0,030
-351,752	-11,476	0,030	0,014
-350,737	-96,055	0,058	-0,011
-349,723	-17,201	-0,115	0,052
-348,708	442,300	-0,042	-0,067
-347,693	-129,289	-0,052	0,005
-346,679	-200,000	0,042	-0,213
-345,664	135,466	0,048	-0,046
-344,650	-200,000	-0,005	0,040
-343,635	42,558	-0,121	0,080
-342,620	-200,000	-0,033	0,141
-341,606	800,000	0,009	0,021
-340,591	121,968	-0,114	0,103
-339,577	-200,000	-0,012	-0,098
-338,562	-200,000	0,028	-0,281
-337,548	-135,431	0,149	-0,013
-336,533	28,703	0,110	0,068
-335,518	55,132	0,078	0,054
-334,504	-200,000	0,008	-0,047
-333,489	59,884	0,086	0,062
-332,475	6,983	-0,056	-0,030
-331,460	2,226	-0,071	-0,037
-330,445	-200,000	0,014	0,070
-329,431	248,383	-0,072	0,089
-328,416	383,560	0,017	-0,026
-327,402	224,665	0,088	0,103
-326,387	109,036	0,090	0,078
-325,372	-114,866	-0,066	0,009
-324,358	30,267	-0,022	-0,014
-323,343	245,009	-0,114	-0,140
-322,329	-31,807	0,035	0,014
-321,314	43,113	0,104	0,069
-320,299	-200,000	-0,032	-0,119
-319,285	-200,000	0,006	-0,064
-318,270	-19,821	-0,061	0,027
-317,256	11,442	-0,029	0,016
-316,241	301,538	0,040	-0,054
-315,226	-38,788	-0,082	0,031
-314,212	15,197	0,163	0,092
-313,197	-200,000	0,003	-0,084
-312,183	-93,570	-0,066	0,013
-311,168	106,905	-0,038	0,032
-310,153	-57,784	0,087	-0,027
-309,139	553,662	0,015	-0,026
-308,124	-129,258	0,133	-0,013
-307,110	21,713	0,052	-0,031
-306,095	-50,320	-0,132	-0,045
-305,080	-120,039	-0,043	-0,005
-304,066	54,317	-0,114	0,079
-303,051	-140,379	-0,129	0,010
-302,037	-142,082	0,143	0,010
-301,022	-200,000	-0,022	0,074
-300,008	-200,000	-0,004	-0,016
-298,993	509,865	-0,081	0,137
-297,978	-0,147	0,103	0,053
-296,964	156,583	-0,099	-0,099
-295,949	-200,000	-0,012	0,083
-294,935	135,855	0,022	0,021
-293,920	-37,589	0,090	0,035
-292,905	358,584	0,013	-0,019
-291,891	-2,861	0,176	-0,089
-290,876	-131,487	0,069	-0,006
-289,862	16,293	-0,018	0,010
-288,847	800,000	0,057	-0,147
-287,832	594,547	0,031	0,056
-286,818	279,971	0,081	-0,105
-285,803	-6,147	0,102	-0,050
-284,789	108,541	0,070	0,060
-283,774	-57,999	0,114	0,036
-282,759	189,078	0,022	0,024
-281,745	800,000	-0,022	0,065
-280,730	800,000	-0,063	-0,170
-279,716	32,744	0,080	-0,050
-278,701	-152,715	0,053	-0,003
-277,686	-23,070	-0,079	0,034
-276,672	-60,421	0,047	-0,014
-275,657	-136,910	-0,058	0,005
-274,643	-200,000	-0,012	0,137
-273,628	-108,854	-0,200	-0,031
-272,613	-138,458	0,045	-0,004
-271,599	302,408	-0,058	0,078
-270,584	-67,652	-0,120	-0,034
-269,570	98,888	0,069	0,057
-268,555	20,790	0,082	-0,048
-267,540	800,000	0,013	-0,028
-266,526	-75,518	0,084	0,021
-265,511	-98,013	-0,107	0,020
-264,497	45,719	0,053	-0,035
-263,482	-89,575	0,059	-0,012
-262,467	234,990	-0,074	0,089
-261,453	-42,846	-0,098	0,036
-260,438	-200,000	-0,031	-0,123
-259,424	800,000	-0,030	0,069
-258,409	288,871	-0,029	-0,038
-257,395	512,024	0,061	-0,103
-256,380	36,960	0,059	0,038
-255,365	-60,481	-0,046	-0,014
-254,351	-200,000	0,030	0,112
-253,336	-200,000	0,046	0,153
-252,322	-124,069	-0,138	-0,015
-251,307	392,243	-0,048	-0,072
-250,292	-143,437	-0,087	0,006
-249,278	178,473	0,169	0,179
-248,263	-109,051	-0,118	0,018
-247,249	-154,459	0,086	0,004
-246,234	209,920	-0,113	-0,128
-245,219	800,000	0,009	-0,018
-244,205	-61,885	-0,143	0,043
-243,190	72,357	-0,108	0,082
-242,176	160,704	0,057	0,057
-241,161	-112,020	-0,088	-0,013
-240,146	38,454	-0,046	0,030
-239,132	529,386	0,067	-0,114
-238,117	-200,000	0,002	-0,063
-237,103	132,448	0,061	-0,057
-236,088	-200,000	0,006	-0,181
-235,073	-57,781	0,038	0,012
-234,059	-200,000	-0,013	-0,103
-233,044	370,795	0,099	0,146
-232,030	-200,000	-0,011	-0,087
-231,015	541,680	0,035	-0,061
-230,000	-200,000	-0,007	-0,178
-228,986	491,050	-0,095	-0,158
-227,971	-163,234	-0,038	-0,001
-226,957	33,809	0,012	-0,007
-225,942	-14,661	0,106	-0,049
-224,927	232,702	0,026	0,031
-223,913	-40,823	0,067	-0,025
-222,898	266,484	0,055	0,070
-221,884	-87,824	-0,019	-0,004
-220,869	156,861	0,106	0,106
-219,855	592,633	0,024	0,043
-218,840	80,505	0,037	-0,029
-217,825	114,018	0,024	0,021
-216,811	-200,000	0,010	0,045
-215,796	-200,000	-0,001	0,026
-214,782	-80,854	0,103	-0,025
-213,767	12,324	0,070	-0,039
-212,752	32,416	0,058	0,036
-211,738	-6,629	-0,084	0,041
-210,723	-137,167	0,059	-0,005
-209,709	148,100	-0,054	-0,053
-208,694	-149,521	0,042	0,002
-207,679	254,117	-0,068	-0,084
-206,665	632,446	-0,014	0,026
-205,650	143,672	-0,074	-0,071
-204,636	-38,467	0,037	0,014
-203,621	152,967	-0,068	0,067
-202,606	-115,466	-0,042	0,006
-201,592	58,842	-0,186	-0,132
-200,577	-200,000	0,006	-0,135
-199,563	74,001	0,139	-0,105
-198,548	-200,000	0,009	0,085
-197,533	-134,128	0,206	0,018
-196,519	-167,495	-0,087	0,002
-195,504	6,804	0,045	0,024
-194,490	-14,086	-0,126	-0,059
-193,475	281,506	-0,067	-0,087
-192,460	800,000	-0,052	-0,152
-191,446	597,028	0,037	0,066
-190,431	313,310	-0,027	-0,037
-189,417	8,625	0,057	0,031
-188,402	214,357	-0,062	-0,072
-187,387	-200,000	0,013	-0,118
-186,373	-117,554	-0,051	-0,007
-185,358	-82,953	0,067	0,015
-184,344	12,202	0,057	-0,032
-183,329	236,199	0,041	-0,049
-182,315	-165,862	0,123	0,004
-181,300	62,225	-0,081	-0,058
-180,285	214,235	-0,073	-0,083
-179,271	-103,632	0,149	0,025
-178,256	-190,250	-0,080	0,001
-177,242	-10,037	-0,030	0,014
-176,227	400,124	-0,082	0,124
-175,212	-200,000	0,003	0,050
-174,198	170,350	-0,102	-0,106
-173,183	-112,430	-0,140	0,020
-172,169	212,860	0,029	-0,033
-171,154	-31,532	0,124	-0,050
-170,139	-62,633	-0,038	0,011
-169,125	458,452	-0,017	0,027
-168,110	-200,000	0,051	0,185
-167,096	-200,000	-0,027	0,103
-166,081	-86,368	-0,093	-0,020
-165,066	88,255	-0,102	-0,082
-164,052	-200,000	-0,005	0,024
-163,037	376,092	-0,004	-0,005
-162,023	26,826	0,112	0,068
-161,008	2,609	-0,040	0,021
-159,993	297,551	0,091	0,121
-158,979	-200,000	0,012	0,137
-157,964	56,822	0,131	0,092
-156,950	68,050	0,093	0,069
-155,935	800,000	0,016	-0,049
-154,920	173,397	-0,023	-0,023
-153,906	525,982	0,033	0,057
-152,891	-200,000	0,005	0,067
-151,877	-195,299	-0,098	0,001
-150,862	195,486	0,059	-0,064
-149,847	800,000	0,034	-0,075
-148,833	83,289	0,067	-0,053
-147,818	352,624	0,041	0,059
-146,804	217,201	0,089	0,103
-145,789	32,956	-0,139	0,086
-144,775	2,930	-0,091	-0,048
-143,760	-200,000	0,010	-0,090
-142,745	53,456	0,045	-0,031
-141,731	157,264	-0,037	0,037
-140,716	800,000	0,057	0,162
-139,702	14,605	0,035	-0,020
-138,687	169,274	-0,087	0,090
-137,672	-200,000	0,008	0,077
-136,658	800,000	0,076	0,156
-135,643	-34,606	-0,105	0,041
-134,629	557,281	0,033	0,058
-133,614	-200,000	-0,019	-0,070
-132,599	-200,000	0,013	0,106
-131,585	-141,446	0,008	-0,001
-130,570	-7,555	0,009	0,004
-129,556	-92,812	-0,162	0,032
-128,541	145,112	0,046	-0,045
-127,526	118,371	0,049	0,043
-126,512	15,424	0,095	0,053
-125,497	84,876	-0,002	-0,002
-124,483	-29,594	-0,062	-0,025
-123,468	800,000	0,054	-0,146
-122,453	800,000	0,020	0,047
-121,439	-110,692	0,096	-0,014
-120,424	-95,972	0,119	-0,023
-119,410	-10,679	0,080	0,038
-118,395	-78,064	-0,058	-0,014
-117,380	-200,000	-0,047	0,157
