DTS Sentinel unit serial number:	SN410029Multiplexer serial number:	ORYXHardware model number:	OX2-SRSoftware version number:	ORYX F/W v4,00 Oryx Data Collector v3.7.2.0data status	okinstallation	B5 Nyhavnadifferential loss correction	single-endedforward channel	channel 2reverse channel	N/Adate	2023/12/13time	23:27:13forward acquisition time	300,00reverse acquisition time	0,00gamma	499,1914k internal	0,3154k external	0,3154temperature offset calibration	1,0000default loss term (dB/km)	0,3820temperature slope calibration	1,0000multiplexer offset coefficient	1,0000multiplexer slope coefficient	1,0000fibre end	0,00T internal ref (°C)	8,89T ext. ref 1 (°C)	-7,51T ext. ref 2 (°C)	-7,51length (m)	temperature (°C)	Stokes	anti-Stokes-744,400	-95,704	0,145	-0,028
-743,385	-24,978	-0,267	-0,116
-742,371	175,790	0,119	0,128
-741,356	-6,149	-0,409	-0,206
-740,342	-152,027	0,237	0,013
-739,327	5,103	-0,450	-0,244
-738,312	275,608	0,074	0,097
-737,298	5,674	-0,357	-0,194
-736,283	76,928	0,048	-0,038
-735,269	-138,075	-0,391	0,032
-734,254	-82,250	0,220	-0,052
-733,239	64,777	-0,399	-0,297
-732,225	-38,614	0,194	0,075
-731,210	-129,945	-0,066	0,007
-730,196	-200,000	-0,003	-0,095
-729,181	-42,028	-0,134	-0,050
-728,167	-95,993	-0,129	-0,025
-727,152	-108,759	0,133	-0,021
-726,137	-28,328	-0,038	-0,016
-725,123	800,000	-0,017	-0,044
-724,108	234,541	-0,058	-0,071
-723,094	-82,480	0,048	-0,011
-722,079	7,702	-0,068	0,037
-721,064	392,826	0,037	0,057
-720,050	-200,000	-0,009	-0,128
-719,035	581,279	0,030	-0,054
-718,021	-38,197	-0,117	0,046
-717,006	51,854	-0,131	0,091
-715,991	-122,599	-0,162	-0,019
-714,977	-35,541	-0,118	-0,047
-713,962	-200,000	0,008	-0,053
-712,948	222,650	-0,016	0,019
-711,933	-200,000	0,016	0,186
-710,918	-200,000	-0,011	-0,051
-709,904	44,891	-0,087	-0,059
-708,889	713,469	0,072	-0,141
-707,875	-133,987	-0,137	-0,012
-706,860	111,875	0,043	-0,039
-705,845	47,502	0,045	-0,031
-704,831	314,205	0,050	-0,070
-703,816	-24,640	0,012	-0,005
-702,802	37,116	-0,099	-0,065
-701,787	800,000	-0,009	0,024
-700,772	-63,021	-0,077	-0,023
-699,758	-124,649	-0,123	0,014
-698,743	60,075	0,057	0,041
-697,729	-200,000	0,009	0,104
-696,714	-173,464	0,011	0,000
-695,699	764,406	0,030	-0,061
-694,685	-200,000	0,027	-0,124
-693,670	7,615	-0,125	-0,068
-692,656	-200,000	-0,013	0,053
-691,641	-200,000	-0,000	-0,045
-690,627	-200,000	0,018	0,117
-689,612	-200,000	-0,014	0,071
-688,597	330,526	-0,067	0,095
-687,583	-200,000	0,028	-0,183
-686,568	343,113	-0,111	-0,160
-685,554	54,730	0,052	0,037
-684,539	800,000	-0,040	0,088
-683,524	-95,034	-0,096	0,019
-682,510	-200,000	-0,016	0,072
-681,495	614,809	0,055	-0,102
-680,481	-34,037	-0,111	-0,045
-679,466	800,000	-0,062	-0,132
-678,451	462,351	0,036	-0,059
-677,437	-200,000	0,070	-0,000
-676,422	-200,000	-0,002	-0,058
-675,408	-200,000	0,014	-0,079
-674,393	-34,898	-0,096	-0,039
-673,378	-61,186	-0,074	0,023
-672,364	260,798	-0,167	-0,213
-671,349	800,000	-0,023	-0,047
-670,335	-85,805	0,091	-0,021
-669,320	800,000	0,060	0,144
-668,305	132,807	-0,080	0,076
-667,291	-200,000	-0,002	-0,023
-666,276	49,229	0,114	0,079
-665,262	197,565	-0,122	0,137
-664,247	188,536	-0,049	-0,055
-663,232	144,208	-0,101	0,099
-662,218	800,000	-0,031	-0,070
-661,203	800,000	-0,041	0,114
-660,189	-90,893	0,111	0,023
-659,174	80,427	-0,126	-0,099
-658,159	206,579	-0,029	0,033
-657,145	-152,806	-0,048	0,002
-656,130	-145,075	0,083	-0,005
-655,116	-138,584	0,020	-0,002
-654,101	800,000	0,034	0,084
-653,086	682,902	-0,026	0,051
-652,072	440,755	-0,049	-0,079
-651,057	352,200	-0,092	-0,135
-650,043	22,080	0,066	-0,039
-649,028	800,000	0,025	0,077
-648,014	-200,000	0,006	-0,093
-646,999	115,103	0,116	0,105
-645,984	-96,299	0,069	-0,013
-644,970	-200,000	-0,008	-0,059
-643,955	645,765	-0,060	-0,113
-642,941	-120,490	-0,195	0,024
-641,926	-200,000	-0,014	-0,095
-640,911	-58,406	0,056	0,018
-639,897	-200,000	-0,008	-0,103
-638,882	-200,000	-0,019	-0,073
-637,868	-200,000	0,007	0,030
-636,853	800,000	-0,033	-0,068
-635,838	-200,000	0,001	-0,064
-634,824	-47,553	-0,049	-0,017
-633,809	-60,218	0,008	0,003
-632,795	-200,000	-0,008	0,056
-631,780	-200,000	0,007	0,069
-630,765	-200,000	-0,026	-0,088
-629,751	50,724	-0,157	-0,109
-628,736	350,790	-0,029	-0,042
-627,722	-83,464	0,015	-0,003
-626,707	97,972	0,129	0,109
-625,692	-200,000	-0,019	0,086
-624,678	-200,000	-0,020	-0,094
-623,663	-4,624	-0,064	-0,032
-622,649	189,595	-0,089	-0,098
-621,634	-98,129	0,062	0,012
-620,619	98,947	-0,107	0,091
-619,605	154,986	-0,088	-0,089
-618,590	19,827	0,113	-0,067
-617,576	163,733	0,007	0,007
-616,561	-8,714	-0,057	-0,028
-615,546	5,616	-0,095	-0,052
-614,532	674,313	0,022	-0,041
-613,517	-197,346	-0,018	0,000
-612,503	-18,829	-0,099	0,045
-611,488	800,000	0,032	0,088
-610,474	98,323	-0,056	0,048
-609,459	174,841	-0,043	0,045
-608,444	-200,000	0,002	0,039
-607,430	-200,000	0,008	0,060
-606,415	78,056	0,016	-0,013
-605,401	769,161	-0,050	-0,100
-604,386	800,000	-0,055	-0,134
-603,371	637,643	0,021	0,039
-602,357	269,401	-0,031	-0,040
-601,342	326,749	-0,026	-0,037
-600,328	800,000	-0,017	0,049
-599,313	80,992	-0,045	0,036
-598,298	-68,536	-0,054	-0,015
-597,284	-200,000	-0,002	0,055
-596,269	10,005	-0,024	-0,013
-595,255	-200,000	-0,010	0,063
-594,240	69,416	0,110	0,083
-593,225	79,018	-0,089	-0,070
-592,211	135,991	0,083	-0,079
-591,196	342,027	0,138	-0,198
-590,182	800,000	-0,060	-0,126
-589,167	-200,000	-0,002	0,084
-588,152	52,650	-0,036	-0,025
-587,138	-200,000	0,010	-0,133
-586,123	-79,585	-0,191	0,047
-585,109	-9,010	-0,191	-0,093
-584,094	800,000	-0,063	-0,204
-583,079	95,598	-0,101	0,084
-582,065	-48,840	0,136	-0,048
-581,050	741,672	-0,070	0,138
-580,036	-102,296	-0,163	-0,028
-579,021	-200,000	0,042	-0,215
-578,006	133,431	0,081	-0,077
-576,992	32,626	0,160	-0,101
-575,977	800,000	0,029	0,067
-574,963	-200,000	0,011	0,131
-573,948	337,096	-0,031	0,044
-572,934	391,105	-0,097	-0,148
-571,919	187,133	0,070	-0,077
-570,904	72,220	-0,038	0,029
-569,890	800,000	0,071	-0,148
-568,875	20,137	-0,158	-0,093
-567,861	229,924	0,019	0,023
-566,846	-200,000	-0,005	0,036
-565,831	-9,412	0,141	0,069
-564,817	317,336	-0,018	-0,025
-563,802	-69,732	-0,157	-0,044
-562,788	-200,000	0,019	-0,062
-561,773	-200,000	-0,014	-0,059
-560,758	800,000	0,034	-0,090
-559,744	-200,000	0,046	0,150
-558,729	-25,074	0,160	-0,069
-557,715	800,000	-0,003	0,010
-556,700	-26,640	-0,049	-0,021
-555,685	-175,594	-0,156	-0,003
-554,671	138,072	0,061	-0,059
-553,656	202,923	-0,023	0,026
-552,642	-200,000	-0,029	0,111
-551,627	-105,756	0,070	-0,011
-550,612	-200,000	-0,005	-0,059
-549,598	792,710	-0,048	-0,097
-548,583	800,000	0,053	-0,121
-547,569	-74,912	0,089	-0,023
-546,554	-112,555	-0,046	0,007
-545,539	-1,672	-0,116	-0,060
-544,525	96,967	0,098	0,082
-543,510	133,979	-0,024	-0,023
-542,496	-53,366	-0,145	-0,048
-541,481	365,968	0,063	-0,093
-540,466	485,635	-0,045	-0,076
-539,452	35,112	-0,109	0,070
-538,437	800,000	0,031	0,086
-537,423	453,670	-0,063	0,103
-536,408	-200,000	-0,020	-0,128
-535,393	23,818	-0,098	-0,059
-534,379	-107,587	-0,153	0,024
-533,364	92,706	0,018	0,015
-532,350	33,853	-0,021	-0,013
-531,335	6,541	-0,123	0,067
-530,321	-200,000	0,021	0,090
-529,306	-52,081	-0,138	-0,047
-528,291	-64,680	-0,051	0,015
-527,277	41,174	-0,078	-0,052
-526,262	-200,000	-0,000	-0,023
-525,248	126,758	0,094	0,088
-524,233	-9,763	0,125	0,061
-523,218	-105,941	0,039	0,006
-522,204	583,228	-0,046	0,083
-521,189	586,713	-0,024	-0,043
-520,175	-96,045	-0,044	0,009
-519,160	-200,000	-0,011	-0,082
-518,145	-200,000	0,000	-0,046
-517,131	153,900	-0,075	0,075
-516,116	437,413	-0,034	0,055
-515,102	-200,000	0,002	0,181
-514,087	-79,272	0,054	0,013
-513,072	-56,961	-0,155	-0,050
-512,058	-200,000	0,013	0,063
-511,043	-102,466	0,192	-0,033
-510,029	315,979	0,084	0,116
-509,014	800,000	0,015	0,043
-507,999	-156,784	-0,090	-0,004
-506,985	-85,923	0,069	-0,016
-505,970	800,000	-0,014	-0,030
-504,956	-35,767	-0,078	0,031
-503,941	156,476	0,088	0,089
-502,926	9,084	0,101	0,056
-501,912	800,000	-0,021	-0,048
-500,897	-108,033	0,201	-0,032
-499,883	738,314	-0,016	-0,032
-498,868	-140,748	0,035	-0,003
-497,853	-200,000	0,030	-0,104
-496,839	-95,796	0,103	0,020
-495,824	89,372	0,010	0,008
-494,810	-150,014	-0,098	-0,006
-493,795	-200,000	-0,014	-0,048
-492,781	-200,000	-0,004	0,063
-491,766	-39,272	0,054	-0,020
-490,751	-200,000	-0,020	-0,137
-489,737	239,707	-0,073	-0,089
-488,722	148,102	-0,068	-0,067
-487,708	-138,271	0,020	-0,002
-486,693	156,420	0,075	0,076
-485,678	-3,034	-0,062	0,031
-484,664	-44,653	0,090	0,033
-483,649	-184,522	0,087	0,001
-482,635	800,000	0,023	-0,067
-481,620	-58,694	0,050	0,016
-480,605	-200,000	0,041	-0,134
-479,591	461,764	0,040	0,066
-478,576	148,427	-0,004	0,004
-477,562	95,608	-0,044	-0,037
-476,547	-200,000	0,022	-0,187
-475,532	-163,710	-0,131	-0,004
-474,518	-24,787	-0,042	0,018
-473,503	-90,860	-0,150	0,031
-472,489	114,974	-0,028	-0,025
-471,474	6,032	0,112	0,060
-470,459	-12,932	-0,178	0,084
-469,445	-112,984	0,126	0,018
-468,430	-74,382	-0,133	-0,035
-467,416	-83,908	0,131	-0,030
-466,401	430,682	-0,034	-0,054
-465,386	-161,904	-0,094	-0,003
-464,372	55,745	0,017	0,012
-463,357	-200,000	-0,005	0,046
-462,343	112,978	-0,041	-0,036
-461,328	118,952	0,063	-0,057
-460,313	-28,427	0,099	0,042
-459,299	-34,218	0,065	-0,026
-458,284	-34,447	0,011	0,005
-457,270	17,454	0,082	0,048
-456,255	-200,000	0,021	-0,140
-455,241	337,406	-0,183	-0,261
-454,226	232,295	-0,009	-0,011
-453,211	47,470	0,147	0,100
-452,197	384,914	-0,009	0,014
-451,182	-154,194	0,163	0,008
-450,168	-200,000	0,043	-0,196
-449,153	800,000	-0,023	0,066
-448,138	-72,370	-0,035	-0,009
-447,124	-200,000	0,026	0,096
-446,109	26,765	0,065	0,040
-445,095	-14,245	0,050	-0,024
-444,080	-200,000	0,001	0,126
-443,065	-114,244	-0,143	-0,020
-442,051	-81,324	0,066	-0,016
-441,036	51,749	-0,088	-0,061
-440,022	800,000	0,051	-0,160
-439,007	-200,000	0,037	0,157
-437,992	800,000	0,069	-0,142
-436,978	58,149	0,064	-0,046
-435,963	-200,000	-0,016	0,110
-434,949	-200,000	0,005	0,030
-433,934	463,798	-0,084	-0,137
-432,919	-165,561	-0,105	0,003
-431,905	-50,790	-0,021	0,007
-430,890	-88,167	0,121	-0,026
-429,876	-200,000	0,020	0,067
-428,861	-112,585	0,105	0,015
-427,846	-117,536	-0,124	-0,016
-426,832	180,140	-0,043	-0,046
-425,817	-200,000	-0,004	-0,033
-424,803	691,393	-0,035	0,068
-423,788	-35,417	-0,063	0,025
-422,773	-65,724	0,153	0,044
-421,759	-17,161	0,090	-0,041
-420,744	346,426	0,032	0,047
-419,730	-39,275	0,161	-0,061
-418,715	-93,777	-0,030	-0,006
-417,701	148,034	-0,036	-0,036
-416,686	574,636	0,061	0,109
-415,671	703,793	-0,025	0,048
-414,657	170,237	-0,034	-0,035
-413,642	568,243	-0,071	0,127
-412,628	134,948	-0,033	-0,031
-411,613	132,762	0,028	0,026
-410,598	62,490	0,023	0,017
-409,584	-16,278	0,149	0,069
-408,569	-100,484	0,169	-0,030
-407,555	-200,000	0,036	0,134
-406,540	5,797	-0,059	-0,032
-405,525	139,939	-0,089	-0,085
-404,511	-200,000	-0,007	-0,044
-403,496	-200,000	-0,017	-0,085
-402,482	101,166	0,025	0,021
-401,467	20,211	0,132	-0,077
-400,452	167,851	0,067	-0,070
-399,438	-27,261	-0,074	0,031
-398,423	53,157	0,080	0,056
-397,409	-139,688	0,052	-0,004
-396,394	-61,998	-0,054	0,016
-395,379	56,516	-0,036	0,025
-394,365	510,243	0,040	0,068
-393,350	-200,000	0,025	0,183
-392,336	181,527	0,012	0,013
-391,321	-127,820	-0,109	-0,011
-390,306	-21,295	0,065	0,029
-389,292	-74,993	-0,106	-0,027
-388,277	524,078	0,112	0,193
-387,263	-16,522	0,037	-0,017
-386,248	-200,000	0,050	0,178
-385,233	-135,200	-0,074	-0,006
-384,219	-200,000	0,041	-0,154
-383,204	-154,216	-0,025	-0,001
-382,190	800,000	-0,028	-0,091
-381,175	121,994	-0,094	0,085
-380,160	-200,000	-0,022	-0,084
-379,146	31,249	0,138	-0,086
-378,131	527,902	0,039	-0,068
-377,117	-200,000	-0,037	-0,151
-376,102	-200,000	-0,205	-0,001
-375,088	-60,532	-0,050	-0,015
-374,073	-64,647	-0,036	-0,010
-373,058	800,000	-0,053	-0,129
-372,044	800,000	0,016	0,035
-371,029	800,000	0,035	0,111
-370,015	323,534	-0,026	-0,036
-369,000	-200,000	0,036	-0,187
-367,985	-200,000	0,035	0,137
-366,971	-58,947	0,059	-0,018
-365,956	19,339	0,094	0,055
-364,942	-80,251	0,014	-0,003
-363,927	400,096	-0,026	0,040
-362,912	63,134	0,175	0,127
-361,898	-53,269	-0,131	0,043
-360,883	90,362	0,054	0,044
-359,869	-200,000	0,013	-0,070
-358,854	394,764	-0,038	-0,059
-357,839	531,927	-0,055	-0,095
-356,825	-98,131	-0,037	0,007
-355,810	-200,000	-0,025	-0,166
-354,796	23,920	0,038	0,023
-353,781	-200,000	-0,011	0,116
-352,766	151,632	-0,030	0,029
-351,752	-200,000	-0,003	-0,017
-350,737	800,000	0,007	-0,021
-349,723	242,913	0,036	0,043
-348,708	-132,989	-0,028	0,003
-347,693	-200,000	0,026	-0,108
-346,679	-112,850	-0,113	0,016
-345,664	800,000	0,064	-0,142
-344,650	73,038	0,020	-0,015
-343,635	-124,980	0,136	0,015
-342,620	-200,000	0,006	0,025
-341,606	-200,000	-0,012	0,060
-340,591	-200,000	0,006	0,021
-339,577	-200,000	0,009	-0,044
-338,562	800,000	0,031	-0,081
-337,548	206,014	0,089	-0,101
-336,533	800,000	0,051	-0,134
-335,518	800,000	-0,017	0,040
-334,504	257,692	0,074	0,092
-333,489	-63,731	0,193	-0,057
-332,475	45,070	-0,105	0,070
-331,460	-78,834	-0,031	0,008
-330,445	-4,687	0,052	0,026
-329,431	209,744	0,042	-0,048
-328,416	-106,169	-0,092	0,015
-327,402	-74,366	-0,055	0,014
-326,387	-200,000	-0,017	-0,059
-325,372	-11,731	-0,029	-0,014
-324,358	111,848	0,050	-0,044
-323,343	590,113	-0,057	0,102
-322,329	-26,804	0,004	0,002
-321,314	-60,228	0,128	0,039
-320,299	800,000	0,039	0,080
-319,285	800,000	0,024	0,051
-318,270	35,094	-0,156	-0,099
-317,256	37,637	0,037	0,024
-316,241	-200,000	-0,006	0,066
-315,226	317,615	0,037	0,051
-314,212	-200,000	-0,025	0,148
-313,197	258,536	-0,015	0,019
-312,183	-23,445	-0,055	0,024
-311,168	-61,928	-0,158	0,048
-310,153	541,885	-0,025	0,043
-309,139	-200,000	-0,043	-0,182
-308,124	-99,426	0,126	-0,023
-307,110	76,782	-0,079	-0,061
-306,095	-133,411	0,071	-0,006
-305,080	67,287	0,115	0,085
-304,066	800,000	-0,034	0,081
-303,051	37,123	-0,076	-0,048
-302,037	800,000	0,052	0,110
-301,022	303,041	0,035	0,047
-300,008	-200,000	-0,021	-0,077
-298,993	779,870	-0,023	-0,046
-297,978	547,169	0,039	-0,069
-296,964	23,883	-0,058	-0,035
-295,949	373,865	0,082	0,121
-294,935	-165,127	-0,093	0,003
-293,920	-122,053	-0,102	0,012
-292,905	66,213	0,091	-0,067
-291,891	800,000	-0,039	0,107
-290,876	-49,420	0,027	0,009
-289,862	74,050	0,041	0,031
-288,847	145,531	-0,024	-0,023
-287,832	0,300	0,073	0,038
-286,818	90,967	-0,088	-0,071
-285,803	13,742	0,111	0,063
-284,789	-200,000	0,015	0,140
-283,774	-83,272	0,065	-0,015
-282,759	-200,000	0,017	-0,068
-281,745	53,630	0,050	0,035
-280,730	392,468	-0,061	0,092
-279,716	36,293	-0,081	0,051
-278,701	246,703	0,063	0,078
-277,686	-87,849	-0,065	0,014
-276,672	-11,457	0,062	-0,029
-275,657	387,184	-0,033	-0,050
-274,643	226,196	-0,099	0,116
-273,628	800,000	0,023	0,061
-272,613	10,745	-0,071	0,039
-271,599	341,176	0,007	0,010
-270,584	-39,108	-0,079	0,030
-269,570	-200,000	-0,011	-0,037
-268,555	263,697	-0,063	0,080
-267,540	-99,440	-0,106	-0,019
-266,526	-79,642	0,089	-0,022
-265,511	800,000	-0,042	0,086
-264,497	-200,000	-0,034	0,124
-263,482	-200,000	-0,010	0,045
-262,467	-200,000	-0,005	0,026
-261,453	275,180	0,004	-0,005
-260,438	-97,431	0,022	0,004
-259,424	-80,603	0,122	-0,029
-258,409	-200,000	0,010	-0,072
-257,395	-162,130	0,076	0,003
-256,380	-154,659	0,062	0,003
-255,365	800,000	0,079	-0,201
-254,351	-200,000	-0,002	-0,074
-253,336	116,448	0,086	-0,076
-252,322	800,000	-0,032	-0,067
-251,307	352,192	0,019	-0,027
-250,292	-200,000	0,036	0,120
-249,278	360,826	0,056	0,082
-248,263	-149,477	-0,044	0,003
-247,249	481,456	0,104	0,171
-246,234	-200,000	-0,004	0,037
-245,219	2,149	-0,092	-0,048
-244,205	-11,056	-0,198	0,094
-243,190	-167,927	0,105	-0,003
-242,176	33,486	-0,032	-0,020
-241,161	800,000	0,041	0,132
-240,146	-38,488	-0,133	-0,051
-239,132	62,110	0,141	-0,102
-238,117	800,000	-0,082	-0,179
-237,103	-200,000	-0,009	0,185
-236,088	21,699	-0,024	-0,014
-235,073	-200,000	0,006	-0,032
-234,059	800,000	-0,039	0,116
-233,044	-200,000	0,018	-0,121
-232,030	-36,396	-0,115	0,045
-231,015	-200,000	-0,027	0,174
-230,000	-85,193	-0,065	-0,015
-228,986	-53,846	-0,030	-0,010
-227,971	51,949	0,007	-0,005
-226,957	-200,000	0,002	0,125
-225,942	520,378	-0,042	-0,072
-224,927	-200,000	-0,014	0,119
-223,913	800,000	-0,051	-0,134
-222,898	211,093	0,024	0,028
-221,884	-183,322	-0,138	-0,002
-220,869	-200,000	0,048	-0,160
-219,855	227,559	0,084	0,099
-218,840	-112,760	0,089	-0,013
-217,825	-200,000	-0,005	-0,033
-216,811	-139,613	-0,125	0,010
-215,796	-14,074	-0,029	-0,013
-214,782	193,730	-0,050	-0,055
-213,767	451,821	-0,025	0,041
-212,752	-200,000	-0,012	0,087
-211,738	197,826	0,084	0,093
-210,723	800,000	-0,026	-0,070
-209,709	43,687	0,157	-0,104
-208,694	-108,183	-0,077	-0,012
-207,679	-155,394	0,156	0,007
-206,665	661,621	0,018	0,034
-205,650	465,016	0,020	0,032
-204,636	711,628	-0,050	0,096
-203,621	76,586	-0,034	-0,026
-202,606	169,013	-0,026	-0,026
-201,592	441,872	-0,061	0,098
-200,577	121,691	0,101	0,091
-199,563	723,453	-0,048	-0,092
-198,548	-200,000	0,023	0,146
-197,533	97,220	0,100	0,083
-196,519	800,000	0,007	-0,017
-195,504	-75,272	0,113	-0,029
-194,490	-200,000	0,022	-0,141
-193,475	34,432	-0,083	-0,052
-192,460	-200,000	0,001	0,063
-191,446	-200,000	0,006	-0,111
-190,431	-38,398	0,125	0,048
-189,417	-200,000	-0,004	0,046
-188,402	139,631	-0,030	-0,029
-187,387	-66,346	0,066	-0,019
-186,373	-14,687	-0,076	-0,035
-185,358	-200,000	-0,005	0,031
-184,344	-200,000	-0,005	0,121
-183,329	-200,000	0,011	0,126
-182,315	-102,606	0,011	-0,002
-181,300	-104,075	-0,039	0,007
-180,285	15,687	0,018	0,010
-179,271	-95,566	-0,071	-0,014
-178,256	-87,855	-0,011	0,002
-177,242	-200,000	-0,006	0,113
-176,227	-200,000	-0,005	0,068
-175,212	95,209	0,078	-0,064
-174,198	-47,065	-0,039	-0,014
-173,183	268,371	-0,060	-0,077
-172,169	-14,322	0,030	0,014
-171,154	61,156	0,048	0,034
-170,139	-6,808	0,131	0,064
-169,125	-47,605	0,074	0,026
-168,110	279,976	0,088	-0,113
-167,096	47,661	0,038	0,026
-166,081	444,575	-0,103	0,163
-165,066	-7,053	0,175	0,085
-164,052	327,745	-0,010	-0,014
-163,037	-165,945	0,029	0,001
-162,023	-200,000	-0,030	0,184
-161,008	-200,000	0,012	0,070
-159,993	-89,223	-0,131	-0,028
-158,979	4,467	0,184	0,097
-157,964	-76,456	-0,071	0,018
-156,950	-200,000	0,006	0,192
-155,935	251,567	0,028	-0,034
-154,920	800,000	0,053	0,127
-153,906	-78,148	0,203	-0,050
-152,891	-55,607	-0,111	0,036
-151,877	800,000	-0,082	-0,202
-150,862	217,165	-0,056	0,065
-149,847	-200,000	0,015	-0,064
-148,833	-15,183	0,021	0,010
-147,818	770,900	-0,049	0,097
-146,804	-200,000	-0,004	0,085
-145,789	67,396	-0,125	-0,092
-144,775	54,147	0,048	-0,033
-143,760	135,596	-0,082	-0,077
-142,745	-107,147	0,030	-0,005
-141,731	-200,000	-0,033	0,142
-140,716	800,000	0,024	0,076
-139,702	351,709	-0,054	-0,078
-138,687	-31,538	0,053	-0,021
-137,672	490,714	-0,040	0,067
-136,658	102,109	-0,060	-0,051
-135,643	327,813	0,092	0,128
-134,629	800,000	-0,072	0,153
-133,614	-200,000	-0,001	-0,044
-132,599	-200,000	0,001	0,018
-131,585	551,722	0,031	0,054
-130,570	-107,869	-0,056	0,009
-129,556	20,387	0,060	0,035
-128,541	664,985	0,059	-0,109
-127,526	56,674	0,010	-0,007
-126,512	-200,000	0,011	-0,083
-125,497	800,000	-0,013	0,031
-124,483	125,767	-0,064	-0,058
-123,468	372,401	-0,075	-0,110
-122,453	26,056	0,092	-0,055
-121,439	-22,775	-0,036	0,016
-120,424	-200,000	0,020	-0,075
-119,410	-123,371	0,057	-0,006
