DTS Sentinel unit serial number:	SN410029Multiplexer serial number:	ORYXHardware model number:	OX2-SRSoftware version number:	ORYX F/W v4,00 Oryx Data Collector v3.7.2.0data status	okinstallation	B5 Nyhavnadifferential loss correction	single-endedforward channel	channel 2reverse channel	N/Adate	2023/12/14time	15:02:13forward acquisition time	300,00reverse acquisition time	0,00gamma	499,1914k internal	0,3157k external	0,3157temperature offset calibration	1,0000default loss term (dB/km)	0,3820temperature slope calibration	1,0000multiplexer offset coefficient	1,0000multiplexer slope coefficient	1,0000fibre end	0,00T internal ref (°C)	7,94T ext. ref 1 (°C)	-8,16T ext. ref 2 (°C)	-8,21length (m)	temperature (°C)	Stokes	anti-Stokes-744,400	155,969	0,168	0,171
-743,385	-96,259	-0,335	0,065
-742,371	63,204	0,204	0,151
-741,356	-28,040	-0,211	-0,090
-740,342	-97,585	0,168	-0,032
-739,327	-107,145	-0,369	0,059
-738,312	36,799	0,135	-0,088
-737,298	-110,854	-0,486	-0,073
-736,283	-11,772	0,208	0,100
-735,269	-107,756	-0,319	-0,051
-734,254	91,937	0,037	0,030
-733,239	16,995	-0,550	-0,320
-732,225	-45,450	0,222	0,081
-731,210	-200,000	0,016	0,087
-730,196	478,635	-0,028	-0,046
-729,181	399,196	0,032	0,050
-728,167	-69,571	-0,049	-0,014
-727,152	-90,001	0,122	0,026
-726,137	800,000	0,050	-0,120
-725,123	166,185	-0,080	-0,083
-724,108	710,300	0,020	0,039
-723,094	-129,093	0,080	-0,008
-722,079	-147,001	-0,037	-0,002
-721,064	-200,000	0,022	-0,112
-720,050	44,050	0,061	0,041
-719,035	0,223	-0,091	-0,048
-718,021	-93,424	-0,060	0,012
-717,006	64,188	-0,060	-0,044
-715,991	638,661	-0,025	-0,047
-714,977	-200,000	0,023	-0,080
-713,962	-145,736	-0,104	-0,007
-712,948	115,212	-0,058	-0,052
-711,933	800,000	-0,026	-0,061
-710,918	-200,000	0,004	0,054
-709,904	800,000	-0,045	0,100
-708,889	25,653	-0,075	-0,046
-707,875	-200,000	-0,022	-0,159
-706,860	-200,000	-0,008	0,051
-705,845	-36,703	-0,058	0,023
-704,831	190,945	0,083	0,093
-703,816	-95,794	-0,082	0,016
-702,802	-118,910	-0,031	0,004
-701,787	114,923	0,024	0,022
-700,772	116,435	-0,074	-0,067
-699,758	-112,245	0,054	-0,008
-698,743	-153,144	0,186	0,009
-697,729	127,071	0,071	-0,066
-696,714	-200,000	-0,001	-0,034
-695,699	467,193	-0,038	-0,063
-694,685	-200,000	-0,006	-0,198
-693,670	-66,056	-0,096	-0,028
-692,656	195,652	-0,060	-0,067
-691,641	-25,945	-0,075	0,032
-690,627	-87,683	-0,106	-0,023
-689,612	119,343	0,058	0,053
-688,597	-200,000	0,006	0,038
-687,583	277,573	-0,043	-0,057
-686,568	107,620	0,011	0,010
-685,554	10,586	-0,138	-0,077
-684,539	-32,491	0,063	0,026
-683,524	1,738	-0,071	0,037
-682,510	-200,000	0,025	0,102
-681,495	800,000	-0,021	0,048
-680,481	643,741	0,065	0,123
-679,466	-152,733	-0,145	-0,007
-678,451	-200,000	-0,003	-0,128
-677,437	0,860	0,029	0,015
-676,422	183,398	0,071	0,078
-675,408	380,147	0,062	0,094
-674,393	310,317	0,059	0,081
-673,378	-112,670	-0,023	-0,003
-672,364	212,315	0,050	-0,058
-671,349	270,523	-0,086	-0,112
-670,335	-200,000	-0,008	0,079
-669,320	800,000	-0,037	0,088
-668,305	800,000	-0,042	0,092
-667,291	-109,821	-0,109	0,017
-666,276	21,194	-0,086	-0,051
-665,262	-60,707	-0,201	-0,062
-664,247	-200,000	-0,000	-0,009
-663,232	-111,581	0,121	0,018
-662,218	800,000	0,074	0,162
-661,203	160,682	-0,042	0,043
-660,189	800,000	-0,046	-0,143
-659,174	800,000	-0,047	-0,145
-658,159	245,955	-0,015	-0,018
-657,145	-44,456	-0,074	-0,027
-656,130	-71,886	0,051	0,014
-655,116	-155,074	0,152	0,007
-654,101	-131,358	0,132	-0,013
-653,086	-200,000	0,008	0,195
-652,072	-200,000	-0,012	-0,050
-651,057	-200,000	-0,001	0,081
-650,043	106,144	-0,097	-0,085
-649,028	40,407	0,064	-0,042
-648,014	-36,434	-0,054	-0,021
-646,999	-200,000	-0,014	-0,121
-645,984	220,855	0,052	-0,061
-644,970	800,000	-0,042	-0,098
-643,955	185,122	0,011	0,012
-642,941	-157,362	-0,192	-0,008
-641,926	69,346	0,103	0,077
-640,911	-200,000	-0,009	0,119
-639,897	39,139	0,037	0,024
-638,882	-200,000	-0,002	-0,011
-637,868	369,120	-0,062	0,092
-636,853	800,000	-0,017	-0,038
-635,838	-200,000	0,029	-0,162
-634,824	-157,847	-0,128	0,005
-633,809	-200,000	-0,027	0,166
-632,795	164,098	0,040	0,041
-631,780	647,245	-0,062	0,118
-630,765	-200,000	0,005	-0,073
-629,751	-114,300	-0,043	-0,006
-628,736	296,554	-0,035	-0,048
-627,722	231,981	0,072	-0,087
-626,707	-31,524	-0,132	-0,054
-625,692	26,014	0,056	0,034
-624,678	-147,740	0,076	0,005
-623,663	-31,561	-0,100	-0,041
-622,649	603,681	0,027	-0,050
-621,634	-60,549	-0,111	-0,034
-620,619	-110,232	-0,062	-0,009
-619,605	800,000	-0,047	-0,100
-618,590	26,150	0,074	-0,045
-617,576	-200,000	-0,031	0,201
-616,561	800,000	-0,017	-0,052
-615,546	-200,000	0,006	-0,071
-614,532	206,423	0,002	0,003
-613,517	-200,000	-0,041	-0,198
-612,503	189,436	0,105	0,115
-611,488	591,499	-0,033	-0,059
-610,474	-47,187	-0,047	0,017
-609,459	-66,853	0,071	-0,021
-608,444	-200,000	0,036	0,163
-607,430	624,034	-0,050	0,092
-606,415	-102,764	-0,092	0,016
-605,401	29,804	-0,042	0,026
-604,386	-19,391	-0,060	0,027
-603,371	-200,000	0,015	0,071
-602,357	227,767	0,058	0,069
-601,342	-161,500	-0,098	0,004
-600,328	-200,000	0,023	-0,104
-599,313	173,833	-0,072	-0,076
-598,298	-15,909	0,066	-0,031
-597,284	-200,000	-0,013	0,128
-596,269	-32,144	0,057	-0,023
-595,255	663,158	-0,005	-0,010
-594,240	-66,143	-0,052	-0,015
-593,225	-200,000	0,006	0,062
-592,211	205,646	0,015	0,017
-591,196	-200,000	0,010	-0,171
-590,182	554,904	-0,071	-0,125
-589,167	566,254	-0,045	0,081
-588,152	51,863	0,044	0,031
-587,138	205,215	-0,057	-0,065
-586,123	335,588	-0,043	-0,061
-585,109	-200,000	0,020	-0,142
-584,094	-45,425	-0,126	0,045
-583,079	-42,303	0,078	0,029
-582,065	-200,000	0,034	0,221
-581,050	-43,198	0,150	0,055
-580,036	800,000	-0,039	0,090
-579,021	-83,511	-0,088	-0,020
-578,006	503,767	-0,059	-0,100
-576,992	-120,646	0,084	0,010
-575,977	-60,138	-0,210	-0,065
-574,963	-200,000	0,002	0,066
-573,948	-2,358	-0,146	0,075
-572,934	317,689	0,087	0,121
-571,919	8,710	-0,149	0,082
-570,904	-200,000	-0,017	-0,064
-569,890	-200,000	-0,033	-0,107
-568,875	-200,000	0,018	0,137
-567,861	-64,168	0,202	-0,060
-566,846	67,912	0,103	-0,077
-565,831	-200,000	-0,005	-0,027
-564,817	216,943	-0,097	-0,113
-563,802	-149,568	-0,051	0,003
-562,788	-161,632	0,137	0,005
-561,773	91,002	-0,047	0,039
-560,758	161,904	-0,036	0,037
-559,744	-108,486	0,037	-0,006
-558,729	77,386	-0,032	0,025
-557,715	754,295	-0,045	0,089
-556,700	559,194	-0,034	0,060
-555,685	289,741	-0,079	-0,105
-554,671	-197,817	0,063	-0,000
-553,656	161,783	-0,074	0,076
-552,642	136,423	0,115	-0,110
-551,627	67,311	0,066	0,049
-550,612	-200,000	0,002	-0,053
-549,598	800,000	0,046	0,104
-548,583	800,000	-0,041	-0,096
-547,569	130,493	0,083	-0,078
-546,554	800,000	0,061	0,127
-545,539	-200,000	0,015	0,117
-544,525	219,571	0,062	0,073
-543,510	83,422	-0,049	-0,039
-542,496	800,000	-0,050	-0,143
-541,481	800,000	0,025	-0,078
-540,466	-46,029	0,151	-0,054
-539,452	146,434	0,116	-0,114
-538,437	-200,000	-0,004	0,048
-537,423	152,622	0,021	0,021
-536,408	800,000	-0,032	-0,072
-535,393	-200,000	0,018	0,083
-534,379	507,169	-0,027	-0,046
-533,364	-200,000	0,009	-0,061
-532,350	-58,447	0,043	-0,013
-531,335	37,178	0,052	-0,034
-530,321	-149,694	-0,110	-0,006
-529,306	-45,060	-0,109	-0,040
-528,291	399,070	-0,061	0,094
-527,277	-200,000	-0,044	0,146
-526,262	73,752	-0,085	-0,065
-525,248	-133,161	0,032	0,003
-524,233	227,253	-0,032	-0,038
-523,218	1,305	0,048	-0,025
-522,204	237,060	-0,113	0,137
-521,189	-200,000	-0,013	-0,064
-520,175	-200,000	-0,030	-0,115
-519,160	800,000	-0,072	0,230
-518,145	102,278	0,049	-0,042
-517,131	-6,535	0,161	0,080
-516,116	800,000	-0,070	0,151
-515,102	-99,938	0,128	0,023
-514,087	63,379	-0,110	-0,080
-513,072	500,230	-0,069	-0,116
-512,058	-12,499	0,068	-0,033
-511,043	-200,000	-0,007	0,059
-510,029	-87,630	-0,148	0,032
-509,014	-200,000	0,024	0,138
-507,999	-36,051	-0,097	-0,038
-506,985	-34,228	0,086	-0,034
-505,970	800,000	-0,043	-0,092
-504,956	800,000	-0,055	-0,119
-503,941	151,876	-0,005	-0,005
-502,926	-37,645	0,115	0,045
-501,912	-70,719	-0,113	0,031
-500,897	-200,000	0,015	0,075
-499,883	-162,229	0,140	0,005
-498,868	-73,016	-0,086	0,023
-497,853	105,189	0,050	0,043
-496,839	53,158	0,099	-0,069
-495,824	120,835	0,022	0,020
-494,810	-9,615	-0,140	-0,068
-493,795	-200,000	0,022	-0,169
-492,781	266,338	0,061	-0,078
-491,766	-8,479	-0,067	-0,033
-490,751	417,615	-0,024	0,037
-489,737	800,000	-0,014	0,039
-488,722	-98,514	0,072	0,013
-487,708	-33,598	0,054	-0,022
-486,693	-65,045	-0,110	-0,032
-485,678	-18,627	-0,068	0,031
-484,664	-200,000	0,005	0,042
-483,649	800,000	-0,040	-0,106
-482,635	-17,228	0,009	-0,004
-481,620	800,000	0,051	0,162
-480,605	180,193	0,053	0,057
-479,591	581,238	0,035	0,062
-478,576	-104,011	-0,056	-0,009
-477,562	483,477	0,046	-0,076
-476,547	207,265	-0,042	-0,048
-475,532	6,805	0,145	-0,078
-474,518	800,000	0,060	0,140
-473,503	-200,000	-0,028	0,150
-472,489	-2,565	0,058	-0,030
-471,474	55,877	0,014	-0,010
-470,459	-105,730	-0,057	-0,009
-469,445	-5,645	-0,088	0,044
-468,430	-62,612	-0,060	0,018
-467,416	-138,799	-0,050	-0,004
-466,401	264,443	0,054	-0,069
-465,386	800,000	0,077	-0,179
-464,372	-198,469	0,126	0,001
-463,357	8,095	0,091	0,050
-462,343	-62,103	-0,143	0,043
-461,328	-200,000	-0,002	0,012
-460,313	318,449	0,029	-0,041
-459,299	-74,881	-0,071	0,018
-458,284	-200,000	0,036	-0,142
-457,270	-57,931	0,083	0,026
-456,255	-111,202	-0,123	0,018
-455,241	66,711	0,055	0,040
-454,226	-200,000	-0,001	0,098
-453,211	-89,863	-0,065	0,014
-452,197	748,811	0,031	-0,061
-451,182	-100,800	-0,033	-0,006
-450,168	-200,000	0,009	-0,059
-449,153	800,000	0,021	-0,048
-448,138	111,583	-0,031	0,027
-447,124	20,311	-0,101	-0,059
-446,109	240,642	-0,063	-0,077
-445,095	-105,135	0,064	-0,011
-444,080	205,283	0,097	0,110
-443,065	-200,000	-0,019	0,189
-442,051	-8,197	-0,057	-0,028
-441,036	-200,000	0,022	-0,074
-440,022	488,967	-0,036	-0,060
-439,007	800,000	0,018	-0,039
-437,992	346,805	-0,136	0,196
-436,978	-65,403	0,037	0,011
-435,963	-88,272	-0,091	0,020
-434,949	-104,312	0,112	0,019
-433,934	-104,424	0,072	-0,012
-432,919	608,382	-0,038	-0,070
-431,905	305,876	0,025	-0,033
-430,890	38,053	-0,101	0,065
-429,876	467,074	0,068	0,112
-428,861	121,657	-0,090	0,081
-427,846	-200,000	0,004	0,013
-426,832	-74,690	-0,082	-0,021
-425,817	-67,180	-0,029	0,008
-424,803	-200,000	-0,011	-0,139
-423,788	-142,269	0,072	-0,005
-422,773	110,088	0,046	0,040
-421,759	-148,209	0,104	0,006
-420,744	93,895	-0,042	-0,035
-419,730	-200,000	-0,012	-0,071
-418,715	800,000	-0,075	-0,195
-417,701	-200,000	0,024	-0,131
-416,686	48,469	0,203	0,138
-415,671	-86,555	-0,045	-0,010
-414,657	168,893	-0,049	-0,051
-413,642	-77,788	-0,109	0,027
-412,628	-79,616	-0,088	0,022
-411,613	-127,749	-0,030	-0,003
-410,598	-200,000	-0,016	-0,103
-409,584	279,310	-0,027	0,036
-408,569	-200,000	0,012	0,064
-407,555	-76,381	0,033	0,008
-406,540	523,753	0,036	0,062
-405,525	669,145	-0,026	0,049
-404,511	-82,674	-0,061	-0,014
-403,496	-200,000	-0,004	-0,017
-402,482	557,226	0,021	0,037
-401,467	-33,663	-0,055	-0,022
-400,452	38,735	0,115	0,075
-399,438	-50,946	-0,060	-0,020
-398,423	-200,000	0,014	0,098
-397,409	-200,000	-0,024	0,122
-396,394	361,326	-0,082	-0,119
-395,379	135,494	-0,020	-0,019
-394,365	-200,000	-0,007	0,043
-393,350	-133,770	0,102	0,009
-392,336	-21,516	-0,018	0,008
-391,321	480,778	-0,021	0,035
-390,306	-98,876	0,052	0,010
-389,292	6,770	-0,067	-0,036
-388,277	-200,000	0,007	-0,081
-387,263	-11,596	0,170	-0,081
-386,248	213,511	0,065	0,075
-385,233	-200,000	-0,003	-0,023
-384,219	800,000	0,029	0,081
-383,204	218,503	-0,103	-0,120
-382,190	800,000	-0,034	-0,102
-381,175	61,267	0,089	-0,064
-380,160	461,269	-0,055	0,089
-379,146	-159,585	0,129	-0,005
-378,131	747,687	-0,057	0,112
-377,117	288,107	0,037	-0,049
-376,102	344,322	-0,047	-0,067
-375,088	-200,000	-0,029	-0,121
-374,073	-36,530	-0,048	0,019
-373,058	130,446	0,020	-0,018
-372,044	530,847	-0,032	-0,056
-371,029	143,601	0,058	0,057
-370,015	26,325	-0,083	0,050
-369,000	-71,867	0,107	0,029
-367,985	130,722	-0,116	-0,108
-366,971	49,362	-0,044	-0,030
-365,956	-200,000	-0,053	0,000
-364,942	-118,966	0,037	-0,005
-363,927	40,326	0,128	0,084
-362,912	-200,000	0,034	-0,176
-361,898	-119,458	-0,025	0,003
-360,883	-200,000	-0,002	0,036
-359,869	66,490	0,028	-0,021
-358,854	-76,349	-0,091	-0,023
-357,839	-200,000	0,040	0,224
-356,825	293,396	0,052	0,069
-355,810	-65,552	-0,105	0,030
-354,796	-70,973	0,158	-0,043
-353,781	126,397	-0,024	-0,022
-352,766	-200,000	-0,008	0,073
-351,752	280,682	-0,021	0,027
-350,737	58,228	0,087	0,062
-349,723	-200,000	0,030	0,157
-348,708	1,559	-0,065	-0,034
-347,693	-200,000	-0,002	-0,058
-346,679	30,322	-0,167	-0,103
-345,664	-200,000	0,008	-0,030
-344,650	-200,000	-0,015	-0,054
-343,635	-200,000	-0,003	0,034
-342,620	172,396	0,079	0,082
-341,606	-200,000	-0,016	-0,076
-340,591	-28,776	-0,122	0,051
-339,577	800,000	-0,035	0,081
-338,562	65,095	-0,095	-0,070
-337,548	-78,250	0,066	-0,016
-336,533	-33,394	-0,088	-0,035
-335,518	-200,000	0,043	0,151
-334,504	-200,000	0,004	0,091
-333,489	297,609	-0,025	-0,033
-332,475	28,637	-0,047	0,029
-331,460	5,519	-0,046	-0,025
-330,445	303,699	0,108	-0,145
-329,431	-200,000	-0,004	0,031
-328,416	519,444	0,027	0,046
-327,402	-200,000	0,003	0,028
-326,387	800,000	0,056	-0,139
-325,372	-28,233	-0,193	-0,081
-324,358	-200,000	0,018	-0,187
-323,343	-100,336	0,080	0,014
-322,329	-200,000	0,020	0,092
-321,314	-9,762	-0,054	0,026
-320,299	707,449	-0,053	0,102
-319,285	-75,429	-0,119	0,031
-318,270	-200,000	0,004	0,054
-317,256	-200,000	-0,030	-0,126
-316,241	489,237	0,051	0,085
-315,226	-200,000	0,019	-0,072
-314,212	140,307	0,079	-0,076
-313,197	-11,883	-0,065	-0,031
-312,183	590,029	-0,032	0,058
-311,168	339,682	0,032	-0,046
-310,153	-3,447	-0,119	-0,060
-309,139	-200,000	0,188	0,000
-308,124	172,872	-0,025	0,026
-307,110	71,050	-0,100	0,075
-306,095	180,813	0,073	-0,078
-305,080	144,786	-0,127	0,123
-304,066	-30,670	0,064	0,026
-303,051	175,574	-0,060	-0,063
-302,037	206,579	0,057	-0,064
-301,022	-68,400	0,148	0,041
-300,008	256,800	-0,026	0,033
-298,993	68,385	0,033	0,025
-297,978	-200,000	0,028	0,144
-296,964	800,000	-0,043	-0,099
-295,949	-133,349	0,094	-0,008
-294,935	-200,000	-0,001	-0,004
-293,920	68,573	-0,045	0,034
-292,905	800,000	0,076	0,191
-291,891	86,350	0,114	0,091
-290,876	-200,000	0,015	0,073
-289,862	-200,000	0,015	-0,052
-288,847	800,000	0,052	-0,151
-287,832	-200,000	-0,001	-0,109
-286,818	800,000	0,053	0,127
-285,803	-200,000	0,006	-0,094
-284,789	259,734	0,087	0,109
-283,774	-200,000	-0,017	0,075
-282,759	-200,000	-0,018	0,060
-281,745	-15,403	-0,117	-0,054
-280,730	22,804	0,185	-0,110
-279,716	-200,000	-0,006	0,058
-278,701	-55,324	0,049	0,016
-277,686	-200,000	-0,009	0,146
-276,672	-200,000	-0,005	-0,080
-275,657	205,470	0,073	0,082
-274,643	-79,376	-0,223	-0,054
-273,628	-76,729	-0,139	-0,035
-272,613	-126,048	-0,170	0,018
-271,599	-85,345	0,196	-0,044
-270,584	-91,566	0,077	0,016
-269,570	-132,791	-0,129	-0,012
-268,555	755,609	-0,019	-0,038
-267,540	-53,119	-0,110	-0,036
-266,526	-200,000	0,023	-0,095
-265,511	-158,197	0,188	-0,008
-264,497	503,405	-0,011	-0,019
-263,482	-200,000	0,008	0,066
-262,467	800,000	0,026	0,082
-261,453	-200,000	0,013	-0,195
-260,438	800,000	-0,037	0,107
-259,424	-200,000	0,004	0,024
-258,409	-200,000	0,016	-0,053
-257,395	-200,000	0,021	-0,075
-256,380	362,493	-0,026	-0,038
-255,365	-200,000	-0,003	0,026
-254,351	161,967	0,047	-0,048
-253,336	-115,097	-0,085	0,012
-252,322	-200,000	-0,004	-0,078
-251,307	-200,000	-0,028	-0,115
-250,292	-79,614	0,084	-0,020
-249,278	104,484	-0,059	0,050
-248,263	-109,915	0,078	-0,012
-247,249	800,000	-0,031	0,074
-246,234	-69,638	0,104	0,029
-245,219	-58,998	-0,080	-0,025
-244,205	572,717	-0,041	-0,072
-243,190	-200,000	-0,005	-0,020
-242,176	-45,881	-0,098	0,035
-241,161	-47,730	0,114	0,040
-240,146	-63,594	0,079	0,023
-239,132	800,000	-0,038	0,107
-238,117	-22,183	0,029	-0,013
-237,103	651,123	-0,048	-0,089
-236,088	201,995	0,040	-0,045
-235,073	-200,000	-0,028	-0,106
-234,059	-200,000	0,034	0,149
-233,044	28,531	0,139	0,085
-232,030	-63,917	-0,074	-0,022
-231,015	-140,558	0,154	0,011
-230,000	-200,000	-0,021	-0,108
-228,986	800,000	0,014	-0,042
-227,971	800,000	0,036	0,088
-226,957	-116,535	-0,106	0,014
-225,942	278,624	-0,091	0,118
-224,927	800,000	-0,024	-0,071
-223,913	800,000	-0,020	0,048
-222,898	395,013	0,021	-0,032
-221,884	-73,490	0,047	0,012
-220,869	-40,858	-0,117	-0,044
-219,855	-200,000	0,015	-0,049
-218,840	800,000	0,039	0,094
-217,825	98,296	0,010	0,008
-216,811	800,000	0,002	0,006
-215,796	-200,000	0,015	0,071
-214,782	-148,770	-0,022	0,001
-213,767	44,332	0,099	-0,066
-212,752	184,511	0,077	-0,082
-211,738	127,053	0,053	0,048
-210,723	-19,033	-0,099	0,044
-209,709	-200,000	0,009	0,086
-208,694	-130,388	0,021	0,002
-207,679	-200,000	0,026	-0,088
-206,665	713,348	0,004	-0,008
-205,650	32,785	0,091	0,057
-204,636	110,946	0,031	0,027
-203,621	-71,494	-0,048	-0,013
-202,606	150,460	0,031	-0,030
-201,592	151,209	-0,103	-0,101
-200,577	98,270	0,063	0,053
-199,563	98,087	0,085	-0,071
-198,548	20,163	0,022	0,013
-197,533	-200,000	0,006	-0,022
-196,519	307,846	0,047	0,063
-195,504	800,000	-0,054	-0,120
-194,490	-136,404	-0,079	-0,007
-193,475	239,611	-0,039	-0,047
-192,460	800,000	0,083	-0,168
-191,446	-76,219	0,132	0,033
-190,431	393,343	0,035	0,053
-189,417	-36,124	-0,085	0,033
-188,402	-102,663	0,124	-0,021
-187,387	303,237	0,056	-0,075
-186,373	-200,000	0,001	0,056
-185,358	-200,000	0,037	-0,187
-184,344	800,000	0,032	0,082
-183,329	800,000	-0,067	0,139
-182,315	-45,494	-0,099	0,035
-181,300	-200,000	0,017	-0,073
-180,285	-21,832	-0,056	0,024
-179,271	346,129	0,085	-0,122
-178,256	800,000	0,036	-0,091
-177,242	-107,434	0,069	0,011
-176,227	759,561	0,035	0,069
-175,212	-200,000	-0,003	0,111
-174,198	-200,000	0,025	0,129
-173,183	-200,000	0,002	-0,009
-172,169	-45,459	-0,061	-0,022
-171,154	-200,000	-0,015	0,097
-170,139	-157,661	0,137	0,006
-169,125	-200,000	-0,006	-0,023
-168,110	333,113	0,075	0,105
-167,096	92,330	-0,014	0,011
-166,081	-83,300	-0,059	0,013
-165,066	287,561	0,061	-0,079
-164,052	166,290	-0,039	-0,040
-163,037	-92,816	0,308	0,062
-162,023	800,000	-0,023	0,053
-161,008	-176,021	-0,061	0,001
-159,993	-39,417	0,055	-0,021
-158,979	-200,000	0,021	-0,110
-157,964	-200,000	-0,019	0,093
-156,950	-200,000	0,013	0,127
-155,935	-29,294	0,074	-0,030
-154,920	461,268	0,024	0,039
-153,906	-200,000	-0,008	0,088
-152,891	-200,000	0,005	-0,062
-151,877	-200,000	-0,022	0,137
-150,862	-200,000	-0,014	0,096
-149,847	-200,000	-0,024	-0,141
-148,833	101,061	0,111	-0,093
-147,818	759,261	0,069	0,135
-146,804	-103,469	-0,052	0,009
-145,789	226,155	-0,022	0,026
-144,775	385,335	0,061	-0,090
-143,760	638,782	0,048	-0,088
-142,745	62,066	-0,114	-0,082
-141,731	124,137	-0,049	-0,044
-140,716	260,703	0,074	0,092
-139,702	-122,551	-0,060	-0,007
-138,687	105,199	0,088	-0,075
-137,672	-77,601	0,021	0,005
-136,658	-58,905	-0,131	0,040
-135,643	346,322	-0,079	-0,112
-134,629	-200,000	0,003	0,157
-133,614	74,936	0,063	-0,048
-132,599	-200,000	0,021	0,095
-131,585	5,752	-0,130	-0,069
-130,570	314,635	0,062	0,084
-129,556	624,631	-0,055	-0,100
-128,541	127,556	-0,025	0,023
-127,526	800,000	-0,047	0,109
-126,512	-200,000	-0,008	0,036
-125,497	-56,481	-0,079	0,025
-124,483	-29,301	0,263	-0,108
-123,468	-200,000	0,017	0,114
-122,453	-39,549	-0,189	0,071
-121,439	800,000	-0,031	0,076
-120,424	65,968	0,125	-0,091
