DTS Sentinel unit serial number:	SN410029Multiplexer serial number:	ORYXHardware model number:	OX2-SRSoftware version number:	ORYX F/W v4,00 Oryx Data Collector v3.7.2.0data status	okinstallation	B5 Nyhavnadifferential loss correction	single-endedforward channel	channel 2reverse channel	N/Adate	2023/12/14time	08:52:13forward acquisition time	300,00reverse acquisition time	0,00gamma	499,1914k internal	0,3160k external	0,3160temperature offset calibration	1,0000default loss term (dB/km)	0,3820temperature slope calibration	1,0000multiplexer offset coefficient	1,0000multiplexer slope coefficient	1,0000fibre end	0,00T internal ref (°C)	7,01T ext. ref 1 (°C)	-9,15T ext. ref 2 (°C)	-9,22length (m)	temperature (°C)	Stokes	anti-Stokes-744,400	-121,599	0,119	-0,014
-743,385	-6,918	-0,315	-0,157
-742,371	82,666	0,194	0,156
-741,356	-171,880	-0,336	0,008
-740,342	151,998	0,110	0,111
-739,327	-136,880	-0,313	-0,026
-738,312	-38,481	0,180	0,070
-737,298	-149,986	-0,344	-0,019
-736,283	-149,764	0,184	-0,010
-735,269	-78,969	-0,373	-0,093
-734,254	-12,559	0,358	0,171
-733,239	-51,627	-0,571	-0,195
-732,225	69,670	0,169	0,128
-731,210	-200,000	-0,030	0,114
-730,196	-200,000	0,008	0,088
-729,181	-33,833	-0,042	0,017
-728,167	-26,030	0,069	0,030
-727,152	-185,055	-0,097	0,001
-726,137	-183,485	-0,115	0,001
-725,123	-200,000	-0,004	0,079
-724,108	-200,000	-0,006	-0,059
-723,094	-12,065	0,077	0,037
-722,079	-99,599	-0,101	0,018
-721,064	49,430	-0,100	0,069
-720,050	-103,202	0,120	0,021
-719,035	590,901	-0,026	-0,047
-718,021	-82,688	-0,159	0,037
-717,006	248,234	-0,070	-0,087
-715,991	-200,000	-0,010	-0,148
-714,977	-147,936	0,050	-0,003
-713,962	-143,199	0,067	0,005
-712,948	79,223	-0,045	-0,036
-711,933	69,078	0,124	0,094
-710,918	-90,128	0,031	-0,007
-709,904	209,833	0,060	-0,069
-708,889	204,512	-0,096	-0,109
-707,875	800,000	0,023	-0,066
-706,860	554,121	0,080	0,141
-705,845	-200,000	0,004	-0,048
-704,831	464,246	0,020	-0,033
-703,816	-35,725	0,137	-0,054
-702,802	-200,000	-0,001	0,087
-701,787	43,131	-0,097	-0,065
-700,772	-200,000	-0,003	-0,092
-699,758	49,010	-0,033	-0,023
-698,743	-114,753	-0,062	0,009
-697,729	-68,967	-0,105	0,030
-696,714	-200,000	-0,014	0,102
-695,699	800,000	0,015	0,036
-694,685	84,855	-0,109	0,088
-693,670	800,000	-0,034	-0,070
-692,656	-200,000	0,034	-0,116
-691,641	-15,861	0,124	-0,058
-690,627	654,132	0,023	0,044
-689,612	10,270	-0,058	0,033
-688,597	19,749	-0,080	-0,047
-687,583	59,160	0,005	-0,004
-686,568	6,253	-0,114	-0,062
-685,554	-200,000	-0,000	-0,139
-684,539	314,564	0,091	0,126
-683,524	-38,270	-0,045	0,017
-682,510	195,835	0,041	0,045
-681,495	-200,000	-0,000	-0,022
-680,481	800,000	0,033	-0,093
-679,466	375,377	0,036	0,054
-678,451	-200,000	-0,004	0,026
-677,437	-200,000	-0,011	0,067
-676,422	-177,436	-0,050	0,001
-675,408	800,000	0,032	0,074
-674,393	121,984	-0,067	-0,062
-673,378	21,177	0,123	-0,073
-672,364	44,472	-0,015	0,010
-671,349	333,500	-0,064	-0,090
-670,335	430,236	0,054	-0,087
-669,320	24,306	-0,025	-0,015
-668,305	136,212	-0,037	0,036
-667,291	800,000	-0,006	0,018
-666,276	-200,000	0,021	-0,085
-665,262	45,930	-0,080	-0,054
-664,247	800,000	-0,041	-0,091
-663,232	5,077	0,124	-0,067
-662,218	800,000	0,060	0,183
-661,203	-65,406	0,065	0,019
-660,189	-200,000	-0,004	0,019
-659,174	-26,188	-0,103	0,044
-658,159	309,102	0,033	0,046
-657,145	100,720	-0,100	-0,085
-656,130	300,165	-0,089	0,120
-655,116	-94,657	0,068	-0,013
-654,101	16,264	-0,058	-0,034
-653,086	674,981	-0,029	0,056
-652,072	-200,000	0,007	-0,121
-651,057	-200,000	-0,025	-0,097
-650,043	-93,193	-0,054	-0,011
-649,028	-47,605	0,035	-0,012
-648,014	-200,000	-0,001	0,109
-646,999	319,809	0,020	-0,028
-645,984	284,006	0,064	-0,084
-644,970	-200,000	-0,015	0,068
-643,955	262,295	0,018	-0,023
-642,941	91,650	0,091	-0,075
-641,926	-200,000	-0,011	-0,058
-640,911	158,461	0,098	0,100
-639,897	414,561	0,094	0,147
-638,882	-25,798	-0,088	0,038
-637,868	-200,000	-0,006	0,058
-636,853	-200,000	0,059	-0,271
-635,838	-200,000	-0,021	0,084
-634,824	149,870	0,048	-0,047
-633,809	133,681	0,122	0,116
-632,795	194,179	-0,051	-0,057
-631,780	800,000	-0,003	0,008
-630,765	-78,956	0,021	-0,005
-629,751	-149,189	-0,254	-0,015
-628,736	-200,000	0,024	0,095
-627,722	800,000	-0,027	-0,065
-626,707	458,543	0,015	0,025
-625,692	-90,466	-0,085	0,018
-624,678	800,000	-0,043	0,089
-623,663	63,035	0,050	-0,036
-622,649	800,000	-0,016	0,045
-621,634	7,011	0,112	0,061
-620,619	-81,603	-0,208	-0,050
-619,605	675,647	-0,039	0,074
-618,590	-134,460	-0,117	-0,010
-617,576	-200,000	0,032	0,155
-616,561	800,000	0,045	0,093
-615,546	442,276	-0,074	-0,119
-614,532	222,387	-0,007	0,008
-613,517	800,000	0,015	0,035
-612,503	-109,094	0,131	0,020
-611,488	-21,766	0,022	-0,010
-610,474	114,165	0,066	-0,059
-609,459	-200,000	0,037	0,217
-608,444	96,393	-0,076	-0,063
-607,430	-200,000	-0,023	-0,117
-606,415	800,000	-0,020	-0,046
-605,401	800,000	-0,037	0,101
-604,386	27,764	-0,207	-0,128
-603,371	-200,000	0,015	-0,137
-602,357	-200,000	0,005	0,173
-601,342	-200,000	-0,005	-0,090
-600,328	-60,026	-0,030	-0,009
-599,313	622,414	-0,027	-0,051
-598,298	735,234	0,045	-0,090
-597,284	-10,529	0,156	0,075
-596,269	-200,000	0,008	-0,135
-595,255	272,384	0,092	0,120
-594,240	-71,796	-0,016	0,004
-593,225	-161,878	-0,074	0,003
-592,211	-200,000	0,009	-0,160
-591,196	65,183	-0,065	-0,048
-590,182	-74,415	0,033	0,009
-589,167	-70,196	0,085	0,024
-588,152	-200,000	0,001	-0,021
-587,138	38,691	-0,044	-0,029
-586,123	112,538	0,086	-0,077
-585,109	191,674	0,049	0,055
-584,094	3,031	-0,088	-0,047
-583,079	569,874	0,035	0,062
-582,065	624,712	0,027	0,050
-581,050	800,000	-0,023	-0,051
-580,036	-22,873	-0,128	-0,056
-579,021	-179,697	0,099	0,002
-578,006	-200,000	0,019	-0,182
-576,992	-181,487	-0,140	0,002
-575,977	42,455	0,018	0,012
-574,963	800,000	-0,020	0,041
-573,948	-42,637	0,114	-0,042
-572,934	-200,000	-0,027	-0,102
-571,919	-55,411	0,058	0,019
-570,904	297,087	0,104	-0,140
-569,890	669,657	-0,035	-0,066
-568,875	-114,966	0,101	-0,014
-567,861	238,176	0,006	0,007
-566,846	79,873	-0,057	0,045
-565,831	155,992	0,073	0,074
-564,817	-200,000	0,014	-0,050
-563,802	800,000	-0,046	-0,101
-562,788	156,123	-0,025	-0,025
-561,773	103,680	0,050	-0,043
-560,758	-91,223	-0,011	0,002
-559,744	100,317	-0,168	-0,142
-558,729	547,956	0,049	0,087
-557,715	800,000	0,024	-0,051
-556,700	-192,346	-0,066	0,000
-555,685	-200,000	-0,010	-0,044
-554,671	800,000	-0,044	-0,097
-553,656	453,858	0,045	-0,073
-552,642	800,000	0,038	0,097
-551,627	-200,000	0,006	0,066
-550,612	16,283	0,101	-0,058
-549,598	-31,064	-0,087	0,036
-548,583	-200,000	-0,005	0,065
-547,569	320,169	-0,035	0,049
-546,554	175,849	-0,046	0,049
-545,539	-200,000	0,011	-0,070
-544,525	800,000	-0,045	-0,104
-543,510	-200,000	-0,001	0,109
-542,496	17,935	-0,080	-0,046
-541,481	800,000	0,024	0,078
-540,466	800,000	-0,032	0,072
-539,452	-16,362	0,163	0,076
-538,437	436,650	-0,074	-0,119
-537,423	180,879	-0,035	0,037
-536,408	348,703	0,068	0,099
-535,393	-137,740	-0,201	0,016
-534,379	-17,542	0,057	-0,026
-533,364	-146,622	-0,035	0,002
-532,350	-200,000	-0,000	0,012
-531,335	-200,000	-0,005	-0,076
-530,321	-200,000	0,038	0,154
-529,306	-38,590	-0,064	0,024
-528,291	-200,000	0,009	0,030
-527,277	421,470	-0,075	-0,118
-526,262	66,132	-0,148	-0,109
-525,248	-200,000	-0,029	-0,111
-524,233	48,057	0,167	0,114
-523,218	-200,000	0,006	-0,053
-522,204	69,973	-0,064	-0,048
-521,189	496,538	-0,039	-0,066
-520,175	800,000	-0,038	-0,084
-519,160	-133,572	0,145	-0,013
-518,145	133,791	-0,136	0,129
-517,131	51,920	0,123	0,085
-516,116	-38,263	0,043	-0,017
-515,102	80,908	0,186	0,146
-514,087	-144,939	-0,069	-0,005
-513,072	-200,000	-0,001	-0,118
-512,058	800,000	0,034	-0,094
-511,043	559,394	0,029	-0,051
-510,029	800,000	-0,045	-0,126
-509,014	30,916	-0,022	-0,014
-507,999	12,267	0,098	0,055
-506,985	465,448	-0,017	0,028
-505,970	-200,000	0,017	-0,054
-504,956	-200,000	0,008	0,041
-503,941	800,000	0,028	0,059
-502,926	-47,727	-0,016	-0,006
-501,912	211,068	0,010	0,011
-500,897	-31,583	0,082	0,033
-499,883	-25,595	0,098	-0,042
-498,868	-79,971	-0,039	-0,010
-497,853	364,876	0,081	-0,120
-496,839	39,616	0,078	-0,051
-495,824	-200,000	-0,012	-0,062
-494,810	123,323	-0,101	0,092
-493,795	-200,000	-0,002	0,058
-492,781	-200,000	0,019	-0,067
-491,766	-200,000	-0,026	-0,104
-490,751	32,302	0,092	-0,058
-489,737	-4,320	0,072	0,036
-488,722	-77,186	0,127	0,032
-487,708	-47,591	0,075	0,026
-486,693	-200,000	0,007	-0,033
-485,678	-200,000	-0,011	-0,050
-484,664	800,000	-0,029	-0,091
-483,649	192,254	-0,051	-0,056
-482,635	-169,860	-0,071	-0,002
-481,620	800,000	0,051	-0,157
-480,605	-163,530	0,064	0,002
-479,591	-200,000	0,011	0,114
-478,576	71,693	0,067	0,051
-477,562	-45,253	-0,143	0,052
-476,547	800,000	0,044	0,119
-475,532	21,455	-0,085	0,051
-474,518	-200,000	0,013	-0,041
-473,503	-59,138	0,086	0,027
-472,489	190,456	-0,098	-0,108
-471,474	400,635	-0,056	0,085
-470,459	-46,046	0,137	-0,049
-469,445	82,460	0,034	-0,027
-468,430	-34,320	-0,075	0,030
-467,416	-92,666	0,098	0,020
-466,401	372,302	0,043	0,064
-465,386	335,422	-0,032	-0,045
-464,372	278,977	-0,015	0,020
-463,357	-30,252	-0,138	-0,057
-462,343	168,381	0,095	-0,098
-461,328	-32,518	0,051	-0,021
-460,313	177,305	0,061	-0,064
-459,299	800,000	0,059	0,121
-458,284	393,000	0,116	0,176
-457,270	-200,000	0,002	-0,019
-456,255	117,483	-0,130	-0,117
-455,241	-14,128	0,170	-0,080
-454,226	-108,245	-0,141	0,022
-453,211	735,961	-0,031	0,061
-452,197	252,606	0,123	0,152
-451,182	241,948	0,026	0,032
-450,168	61,009	-0,111	-0,080
-449,153	122,805	0,042	0,038
-448,138	-100,257	-0,118	0,021
-447,124	-39,114	-0,109	-0,041
-446,109	140,908	0,104	0,100
-445,095	96,830	0,095	0,079
-444,080	800,000	0,028	0,085
-443,065	-200,000	-0,017	0,120
-442,051	-26,197	0,064	-0,027
-441,036	-170,728	-0,065	-0,002
-440,022	150,318	-0,091	-0,090
-439,007	800,000	0,022	-0,068
-437,992	47,729	0,111	0,075
-436,978	-77,452	0,079	-0,020
-435,963	27,168	0,056	-0,034
-434,949	-31,687	-0,121	-0,049
-433,934	78,538	-0,125	0,098
-432,919	64,752	-0,100	-0,074
-431,905	-200,000	0,009	0,042
-430,890	13,023	0,091	0,051
-429,876	800,000	0,059	-0,121
-428,861	121,351	0,015	0,014
-427,846	67,691	-0,116	-0,086
-426,832	0,467	0,102	-0,053
-425,817	800,000	-0,042	-0,122
-424,803	-91,520	-0,113	0,023
-423,788	-200,000	0,016	-0,089
-422,773	328,177	-0,043	0,060
-421,759	-52,541	-0,180	0,060
-420,744	-71,095	0,052	-0,014
-419,730	151,278	-0,069	0,068
-418,715	21,165	-0,060	-0,035
-417,701	-130,620	-0,039	0,004
-416,686	-50,123	-0,067	-0,023
-415,671	-200,000	-0,009	0,063
-414,657	321,194	-0,007	-0,009
-413,642	-27,618	0,061	0,026
-412,628	-55,365	0,110	0,036
-411,613	203,928	-0,016	-0,018
-410,598	233,345	0,071	-0,085
-409,584	126,158	0,075	-0,069
-408,569	17,945	0,114	0,066
-407,555	246,356	0,066	-0,081
-406,540	-1,574	0,055	0,028
-405,525	260,941	-0,044	0,055
-404,511	199,222	-0,080	0,089
-403,496	-200,000	-0,032	-0,120
-402,482	-41,486	0,102	-0,038
-401,467	80,359	-0,027	0,021
-400,452	450,909	-0,047	-0,075
-399,438	303,693	0,048	0,065
-398,423	-109,252	-0,190	-0,029
-397,409	-150,079	0,123	0,007
-396,394	-159,549	0,085	0,003
-395,379	-200,000	0,047	0,163
-394,365	139,414	0,021	0,020
-393,350	-200,000	0,002	0,056
-392,336	-48,840	-0,062	0,021
-391,321	56,533	0,038	-0,027
-390,306	-200,000	0,006	-0,038
-389,292	675,828	-0,070	-0,132
-388,277	84,714	-0,049	-0,039
-387,263	-53,236	0,117	0,039
-386,248	800,000	-0,024	-0,068
-385,233	-80,158	0,079	0,019
-384,219	375,506	-0,041	0,060
-383,204	144,379	0,102	-0,099
-382,190	-88,368	-0,179	-0,038
-381,175	-54,953	-0,089	0,029
-380,160	77,510	0,085	0,066
-379,146	-200,000	0,019	0,097
-378,131	-3,173	0,062	-0,032
-377,117	800,000	0,027	0,060
-376,102	792,234	0,007	0,014
-375,088	406,959	0,022	-0,034
-374,073	-200,000	0,016	-0,109
-373,058	-123,580	-0,043	0,005
-372,044	-200,000	-0,009	0,064
-371,029	82,158	0,055	0,044
-370,015	-200,000	0,035	-0,122
-369,000	-97,488	-0,184	-0,034
-367,985	800,000	-0,018	-0,053
-366,971	800,000	-0,048	-0,145
-365,956	676,960	0,050	0,095
-364,942	204,989	-0,057	0,065
-363,927	-39,612	-0,076	0,029
-362,912	-102,373	0,104	0,018
-361,898	-66,816	-0,041	0,012
-360,883	43,426	0,017	0,011
-359,869	586,359	-0,114	-0,204
-358,854	193,927	0,064	0,070
-357,839	-177,335	-0,061	-0,001
-356,825	-200,000	0,005	0,110
-355,810	-200,000	0,014	0,060
-354,796	7,369	-0,215	-0,116
-353,781	466,627	0,029	-0,047
-352,766	800,000	-0,016	0,039
-351,752	359,156	-0,043	-0,063
-350,737	94,111	0,095	0,079
-349,723	440,923	-0,040	0,064
-348,708	-200,000	-0,021	0,106
-347,693	35,811	-0,033	0,021
-346,679	-200,000	0,029	-0,118
-345,664	-16,772	-0,083	-0,038
-344,650	-186,153	0,055	0,001
-343,635	298,406	0,077	0,104
-342,620	-36,254	0,111	-0,043
-341,606	21,492	0,040	0,023
-340,591	-200,000	-0,020	0,091
-339,577	-200,000	0,009	0,074
-338,562	-200,000	-0,001	-0,058
-337,548	-95,368	0,056	0,011
-336,533	-112,531	0,035	-0,005
-335,518	-200,000	-0,006	-0,080
-334,504	299,225	-0,119	0,159
-333,489	800,000	-0,039	-0,114
-332,475	27,639	-0,065	-0,039
-331,460	-200,000	0,015	0,061
-330,445	-200,000	0,001	0,137
-329,431	303,416	0,041	0,055
-328,416	60,284	0,051	0,036
-327,402	-200,000	-0,016	0,075
-326,387	800,000	-0,019	-0,039
-325,372	800,000	0,007	-0,017
-324,358	-48,353	-0,125	0,043
-323,343	4,656	0,067	0,036
-322,329	297,753	0,060	0,081
-321,314	441,112	-0,054	0,087
-320,299	182,976	-0,030	-0,032
-319,285	280,057	-0,080	0,104
-318,270	-85,449	0,082	0,018
-317,256	-25,059	-0,129	0,055
-316,241	-108,656	-0,110	0,017
-315,226	-104,210	-0,122	-0,020
-314,212	125,141	-0,042	0,039
-313,197	83,758	-0,076	0,060
-312,183	-200,000	0,012	0,051
-311,168	-42,517	-0,041	-0,015
-310,153	255,436	-0,050	-0,062
-309,139	237,704	0,063	0,076
-308,124	-156,356	0,132	0,006
-307,110	-61,577	-0,164	-0,049
-306,095	241,028	0,029	0,035
-305,080	-7,175	0,049	-0,024
-304,066	-200,000	-0,036	-0,188
-303,051	-200,000	-0,020	-0,098
-302,037	-200,000	0,005	-0,118
-301,022	-200,000	-0,037	-0,179
-300,008	635,669	0,024	-0,045
-298,993	185,267	-0,032	-0,034
-297,978	800,000	-0,040	0,091
-296,964	800,000	-0,049	-0,128
-295,949	580,374	0,030	-0,053
-294,935	-200,000	0,003	0,089
-293,920	132,602	-0,023	0,021
-292,905	-109,156	0,149	-0,023
-291,891	-200,000	-0,006	0,108
-290,876	768,585	0,049	0,097
-289,862	-127,640	0,053	-0,005
-288,847	-93,070	-0,129	0,026
-287,832	-200,000	-0,008	0,145
-286,818	-94,124	0,050	-0,010
-285,803	-85,095	-0,086	0,019
-284,789	-113,809	0,097	0,014
-283,774	771,142	0,048	0,095
-282,759	20,110	0,097	0,056
-281,745	188,843	0,097	0,105
-280,730	254,227	-0,112	-0,139
-279,716	-75,711	0,106	-0,027
-278,701	-84,366	0,119	-0,027
-277,686	-151,996	-0,050	0,003
-276,672	-27,747	0,083	0,035
-275,657	200,373	-0,092	0,102
-274,643	80,511	-0,022	0,017
-273,628	800,000	0,017	0,035
-272,613	20,748	0,090	0,052
-271,599	-54,141	0,106	0,035
-270,584	-43,363	-0,089	0,032
-269,570	580,478	-0,044	0,077
-268,555	20,485	-0,010	-0,006
-267,540	800,000	-0,016	0,050
-266,526	800,000	0,021	-0,059
-265,511	800,000	-0,014	0,033
-264,497	-169,371	0,257	-0,007
-263,482	43,841	-0,104	0,069
-262,467	-66,903	0,163	0,046
-261,453	-200,000	-0,001	0,004
-260,438	149,276	0,049	-0,048
-259,424	32,198	0,057	-0,036
-258,409	640,381	-0,034	-0,064
-257,395	-200,000	-0,036	0,175
-256,380	-149,902	0,109	-0,006
-255,365	-200,000	0,008	-0,038
-254,351	-200,000	-0,016	-0,138
-253,336	230,821	-0,057	0,068
-252,322	-98,210	-0,123	-0,023
-251,307	-93,919	0,056	-0,011
-250,292	-200,000	-0,004	0,054
-249,278	-103,158	0,131	-0,022
-248,263	-200,000	-0,020	0,147
-247,249	362,069	0,039	0,056
-246,234	502,314	-0,020	0,033
-245,219	-41,691	-0,106	0,039
-244,205	127,294	-0,028	0,026
-243,190	26,291	0,132	0,079
-242,176	564,671	0,063	0,110
-241,161	456,218	-0,008	0,013
-240,146	266,018	-0,010	-0,013
-239,132	316,177	0,012	0,016
-238,117	107,289	0,029	0,025
-237,103	-42,830	-0,193	-0,070
-236,088	161,127	-0,036	0,037
-235,073	800,000	-0,048	0,130
-234,059	-200,000	-0,002	0,023
-233,044	-200,000	0,009	-0,075
-232,030	120,635	-0,009	-0,008
-231,015	24,709	-0,061	-0,036
-230,000	-200,000	-0,013	-0,098
-228,986	614,526	-0,064	-0,117
-227,971	-200,000	0,028	-0,089
-226,957	-82,046	0,057	-0,013
-225,942	689,797	0,041	0,078
-224,927	-200,000	0,053	0,183
-223,913	749,515	-0,093	-0,181
-222,898	24,371	-0,071	-0,042
-221,884	61,696	0,073	0,052
-220,869	-49,708	0,103	0,035
-219,855	-200,000	-0,041	0,146
-218,840	-200,000	0,018	0,132
-217,825	-200,000	0,002	-0,029
-216,811	55,531	-0,078	-0,054
-215,796	23,086	-0,114	-0,067
-214,782	235,846	0,013	0,016
-213,767	-65,334	-0,054	0,016
-212,752	-20,571	0,155	0,069
-211,738	269,677	-0,030	0,038
-210,723	628,414	0,043	-0,078
-209,709	-194,909	-0,162	0,001
-208,694	-200,000	-0,015	-0,139
-207,679	-200,000	-0,013	0,122
-206,665	253,115	-0,047	0,058
-205,650	-200,000	-0,008	-0,044
-204,636	75,439	0,072	-0,055
-203,621	-200,000	-0,003	0,117
-202,606	-142,869	-0,075	-0,005
-201,592	-138,330	0,151	-0,012
-200,577	179,483	-0,021	0,022
-199,563	-119,855	0,031	-0,004
-198,548	-30,674	0,075	-0,031
-197,533	-200,000	-0,014	-0,095
-196,519	624,339	0,063	0,116
-195,504	13,069	0,138	-0,077
-194,490	406,851	0,038	-0,059
-193,475	177,342	-0,079	-0,083
-192,460	-83,366	-0,050	-0,011
-191,446	12,283	0,085	0,047
-190,431	300,551	0,067	0,089
-189,417	800,000	-0,074	0,176
-188,402	-140,578	-0,178	-0,013
-187,387	27,696	0,102	-0,062
-186,373	152,897	-0,057	-0,056
-185,358	100,539	-0,036	-0,030
-184,344	-96,823	0,045	-0,009
-183,329	-155,972	0,120	0,005
-182,315	-200,000	-0,007	-0,090
-181,300	792,287	-0,029	0,057
-180,285	-60,418	-0,063	-0,019
-179,271	-43,854	-0,077	-0,028
-178,256	213,339	-0,069	-0,079
-177,242	-82,462	0,065	0,015
-176,227	184,081	-0,105	0,113
-175,212	-18,396	-0,069	-0,031
-174,198	-200,000	-0,020	0,261
-173,183	95,573	0,049	0,040
-172,169	-200,000	-0,006	-0,026
-171,154	210,752	-0,125	-0,142
-170,139	23,318	-0,086	-0,051
-169,125	428,571	0,037	0,058
-168,110	50,942	0,081	-0,055
-167,096	11,026	-0,043	0,023
-166,081	800,000	-0,038	-0,113
-165,066	800,000	0,043	-0,109
-164,052	-200,000	0,016	-0,188
-163,037	-87,707	0,065	0,014
-162,023	-200,000	-0,002	0,028
-161,008	-164,500	0,047	0,002
-159,993	-154,455	-0,080	0,004
-158,979	64,699	-0,113	-0,082
-157,964	48,463	0,019	-0,013
-156,950	-63,819	-0,160	-0,047
-155,935	439,725	-0,035	-0,055
-154,920	-114,609	0,055	-0,008
-153,906	7,529	0,067	-0,036
-152,891	-101,803	0,021	-0,004
-151,877	-110,649	0,124	-0,018
-150,862	-200,000	0,055	-0,232
-149,847	312,174	-0,038	0,051
-148,833	6,198	-0,016	0,009
-147,818	149,374	-0,073	0,071
-146,804	14,966	0,076	-0,043
-145,789	-129,095	0,118	-0,012
-144,775	-119,748	0,043	0,005
-143,760	-83,621	0,072	0,016
-142,745	106,163	-0,123	0,105
-141,731	15,649	-0,074	-0,042
-140,716	313,999	0,055	0,075
-139,702	95,827	-0,048	0,039
-138,687	41,325	0,066	0,043
-137,672	337,312	0,048	0,067
-136,658	40,840	0,057	-0,037
-135,643	56,229	0,048	0,034
-134,629	318,667	-0,084	-0,114
-133,614	-176,480	0,156	0,003
-132,599	359,508	0,053	-0,077
-131,585	-200,000	0,018	0,099
-130,570	177,741	0,045	-0,047
-129,556	170,049	-0,083	-0,085
-128,541	-200,000	0,011	-0,054
-127,526	335,621	0,092	-0,128
-126,512	20,345	-0,046	0,027
-125,497	800,000	-0,019	-0,045
-124,483	-200,000	-0,021	0,121
-123,468	340,830	-0,068	0,096
-122,453	29,993	-0,029	0,018
-121,439	197,263	0,063	0,069
-120,424	5,223	-0,101	-0,054
-119,410	617,337	-0,048	0,087
-118,395	800,000	-0,005	-0,013
