DTS Sentinel unit serial number:	SN410029Multiplexer serial number:	ORYXHardware model number:	OX2-SRSoftware version number:	ORYX F/W v4,00 Oryx Data Collector v3.7.2.0data status	okinstallation	B5 Nyhavnadifferential loss correction	single-endedforward channel	channel 2reverse channel	N/Adate	2023/12/13time	13:22:13forward acquisition time	300,00reverse acquisition time	0,00gamma	499,1914k internal	0,3161k external	0,3161temperature offset calibration	1,0000default loss term (dB/km)	0,3820temperature slope calibration	1,0000multiplexer offset coefficient	1,0000multiplexer slope coefficient	1,0000fibre end	0,00T internal ref (°C)	14,54T ext. ref 1 (°C)	-1,28T ext. ref 2 (°C)	-1,53length (m)	temperature (°C)	Stokes	anti-Stokes-744,400	13,419	0,032	0,018
-743,385	-129,735	-0,279	0,028
-742,371	-91,229	0,194	0,041
-741,356	-188,004	-0,236	-0,002
-740,342	-200,000	-0,038	0,140
-739,327	-19,638	-0,410	0,186
-738,312	151,629	0,063	0,063
-737,298	-94,324	-0,310	-0,062
-736,283	-200,000	-0,002	-0,021
-735,269	-40,922	-0,264	-0,100
-734,254	15,214	0,082	0,047
-733,239	-1,383	-0,512	-0,265
-732,225	-78,241	0,267	0,067
-731,210	212,318	-0,064	-0,074
-730,196	800,000	0,041	0,086
-729,181	-200,000	-0,002	-0,061
-728,167	161,354	-0,021	-0,021
-727,152	-200,000	0,008	-0,081
-726,137	-87,055	-0,178	-0,039
-725,123	106,864	-0,142	-0,124
-724,108	373,064	0,029	-0,044
-723,094	-200,000	-0,022	-0,091
-722,079	278,608	-0,014	-0,019
-721,064	800,000	-0,010	0,030
-720,050	-104,311	0,080	-0,014
-719,035	610,696	-0,018	-0,033
-718,021	487,350	-0,049	-0,082
-717,006	-141,584	0,065	0,005
-715,991	800,000	-0,069	-0,169
-714,977	-175,286	-0,198	-0,004
-713,962	425,291	0,053	-0,084
-712,948	337,589	0,029	0,041
-711,933	-200,000	0,017	-0,081
-710,918	-45,250	0,091	-0,033
-709,904	-12,472	0,018	-0,009
-708,889	-200,000	0,012	0,073
-707,875	-57,017	0,058	-0,019
-706,860	-43,817	0,030	-0,011
-705,845	210,452	-0,056	0,065
-704,831	-200,000	-0,027	0,112
-703,816	800,000	0,059	0,171
-702,802	800,000	-0,033	-0,070
-701,787	-90,075	-0,082	-0,017
-700,772	-68,914	-0,061	-0,017
-699,758	163,747	0,104	0,108
-698,743	213,864	-0,057	-0,067
-697,729	397,808	-0,072	-0,111
-696,714	148,285	-0,020	0,020
-695,699	-200,000	-0,023	-0,123
-694,685	-16,870	0,032	0,015
-693,670	270,670	-0,055	-0,072
-692,656	-106,373	-0,021	-0,003
-691,641	-28,114	0,039	-0,017
-690,627	41,116	-0,110	0,073
-689,612	-200,000	-0,002	0,096
-688,597	-78,750	-0,124	-0,031
-687,583	289,010	0,035	-0,046
-686,568	-87,838	-0,082	0,018
-685,554	-29,707	-0,174	-0,073
-684,539	800,000	-0,031	-0,096
-683,524	235,630	-0,040	-0,049
-682,510	-200,000	0,006	-0,068
-681,495	159,209	-0,066	-0,068
-680,481	-71,635	-0,114	-0,031
-679,466	800,000	-0,060	-0,188
-678,451	-200,000	0,052	-0,169
-677,437	-101,794	0,144	0,025
-676,422	109,686	-0,123	-0,108
-675,408	231,208	0,052	0,063
-674,393	98,008	0,073	0,062
-673,378	-200,000	-0,009	-0,045
-672,364	-140,000	0,125	-0,010
-671,349	800,000	0,039	-0,081
-670,335	-200,000	0,006	0,024
-669,320	-66,588	0,097	-0,028
-668,305	800,000	0,021	-0,053
-667,291	-68,658	0,153	0,043
-666,276	-200,000	-0,000	-0,057
-665,262	-200,000	0,048	-0,198
-664,247	-112,678	-0,204	0,029
-663,232	236,632	0,037	0,045
-662,218	-50,491	-0,099	-0,034
-661,203	-200,000	-0,004	0,087
-660,189	-131,576	0,103	0,010
-659,174	-40,382	-0,163	-0,062
-658,159	-200,000	-0,011	-0,149
-657,145	55,282	-0,081	0,057
-656,130	800,000	0,059	0,140
-655,116	-200,000	-0,008	-0,046
-654,101	0,987	0,120	0,063
-653,086	-7,325	0,049	-0,024
-652,072	-112,563	-0,135	0,020
-651,057	-89,808	-0,166	0,035
-650,043	-158,874	-0,115	0,005
-649,028	-6,642	-0,065	-0,032
-648,014	14,321	0,074	-0,042
-646,999	-200,000	-0,033	-0,111
-645,984	210,040	-0,064	0,074
-644,970	-62,720	-0,052	0,016
-643,955	-200,000	-0,004	0,067
-642,941	438,321	0,029	-0,047
-641,926	-25,602	0,042	-0,018
-640,911	-95,256	-0,056	-0,011
-639,897	32,021	0,130	-0,082
-638,882	-200,000	0,015	0,068
-637,868	-80,932	0,049	0,012
-636,853	-71,606	-0,188	-0,051
-635,838	479,723	-0,082	-0,137
-634,824	-131,021	0,053	-0,005
-633,809	363,156	-0,067	-0,099
-632,795	800,000	-0,035	0,077
-631,780	392,395	0,059	0,090
-630,765	185,173	-0,077	-0,084
-629,751	-200,000	0,008	-0,110
-628,736	-200,000	0,000	-0,104
-627,722	45,005	-0,128	-0,086
-626,707	-161,314	-0,109	-0,004
-625,692	-200,000	-0,001	0,018
-624,678	-200,000	-0,034	0,113
-623,663	129,805	-0,073	-0,068
-622,649	-62,422	0,109	0,033
-621,634	526,330	-0,055	-0,095
-620,619	800,000	0,020	0,046
-619,605	156,344	-0,046	-0,046
-618,590	5,200	-0,059	-0,032
-617,576	3,339	0,055	-0,029
-616,561	-200,000	-0,035	-0,138
-615,546	242,089	-0,101	-0,124
-614,532	-169,465	0,072	0,002
-613,517	-177,096	-0,074	-0,001
-612,503	-74,730	-0,110	-0,029
-611,488	-86,163	0,039	0,009
-610,474	771,576	0,054	0,108
-609,459	800,000	-0,006	0,018
-608,444	800,000	0,073	-0,193
-607,430	58,568	0,024	-0,018
-606,415	800,000	0,008	-0,019
-605,401	800,000	0,016	0,039
-604,386	-200,000	0,007	-0,106
-603,371	-78,889	-0,112	0,028
-602,357	-166,901	-0,108	-0,003
-601,342	70,173	-0,091	-0,069
-600,328	-10,820	-0,094	0,045
-599,313	299,794	-0,083	0,112
-598,298	-130,543	0,116	-0,011
-597,284	-55,325	-0,141	-0,046
-596,269	-96,927	0,088	-0,017
-595,255	-200,000	0,004	-0,100
-594,240	255,795	-0,048	-0,060
-593,225	-85,512	-0,097	0,022
-592,211	321,093	-0,017	-0,024
-591,196	-59,598	0,104	-0,032
-590,182	44,808	-0,081	-0,055
-589,167	-0,866	-0,030	-0,016
-588,152	-110,220	-0,140	0,021
-587,138	800,000	0,016	-0,040
-586,123	-133,720	0,085	-0,008
-585,109	337,476	-0,041	-0,058
-584,094	-200,000	0,000	-0,145
-583,079	109,826	-0,038	0,034
-582,065	800,000	0,017	0,034
-581,050	-200,000	0,002	0,075
-580,036	800,000	-0,045	-0,129
-579,021	682,781	-0,029	0,056
-578,006	-200,000	0,014	-0,100
-576,992	-108,873	0,096	-0,015
-575,977	-200,000	0,042	0,246
-574,963	800,000	0,088	0,200
-573,948	47,358	0,068	0,046
-572,934	-200,000	0,016	-0,171
-571,919	800,000	-0,063	-0,137
-570,904	133,709	-0,075	-0,071
-569,890	2,235	0,063	-0,033
-568,875	-200,000	-0,020	0,133
-567,861	-200,000	0,047	0,182
-566,846	-200,000	0,022	0,174
-565,831	-83,229	-0,214	0,050
-564,817	50,749	0,046	-0,032
-563,802	9,897	-0,080	0,044
-562,788	33,203	0,062	0,039
-561,773	-7,159	-0,091	-0,045
-560,758	52,770	0,081	0,057
-559,744	-200,000	-0,028	-0,107
-558,729	-200,000	-0,019	-0,113
-557,715	-200,000	0,024	-0,102
-556,700	-139,703	-0,139	0,011
-555,685	114,839	0,126	-0,112
-554,671	-15,211	-0,060	-0,028
-553,656	113,232	-0,077	0,069
-552,642	-200,000	0,030	0,188
-551,627	318,098	-0,075	0,104
-550,612	800,000	0,019	0,041
-549,598	-152,815	0,088	-0,004
-548,583	109,330	0,079	-0,069
-547,569	194,185	-0,072	0,080
-546,554	-200,000	-0,022	0,091
-545,539	212,474	0,047	-0,054
-544,525	595,354	0,027	-0,050
-543,510	135,728	-0,106	0,101
-542,496	-200,000	-0,016	-0,097
-541,481	800,000	-0,023	-0,068
-540,466	48,394	-0,051	0,035
-539,452	800,000	0,035	0,106
-538,437	-200,000	0,010	-0,038
-537,423	737,118	0,084	0,166
-536,408	-25,585	-0,075	0,032
-535,393	310,430	0,074	-0,101
-534,379	465,985	0,049	0,080
-533,364	-200,000	-0,024	0,092
-532,350	-102,092	0,149	0,026
-531,335	-200,000	-0,009	0,034
-530,321	-66,159	0,130	-0,037
-529,306	-200,000	-0,013	0,059
-528,291	309,348	0,064	0,088
-527,277	-200,000	-0,017	-0,098
-526,262	-200,000	-0,008	0,034
-525,248	27,921	0,042	0,026
-524,233	-65,529	0,208	-0,060
-523,218	623,117	0,051	-0,094
-522,204	800,000	-0,025	0,077
-521,189	800,000	0,033	0,069
-520,175	124,959	0,004	0,004
-519,160	295,769	0,019	-0,025
-518,145	-200,000	-0,004	-0,110
-517,131	336,183	0,045	0,064
-516,116	-123,950	0,266	-0,030
-515,102	206,118	0,069	0,078
-514,087	60,030	-0,092	-0,066
-513,072	135,617	-0,016	0,015
-512,058	212,411	-0,086	-0,100
-511,043	-200,000	-0,012	-0,065
-510,029	800,000	-0,036	0,110
-509,014	-200,000	0,006	0,033
-507,999	-102,335	-0,039	0,007
-506,985	10,515	-0,051	-0,028
-505,970	-200,000	0,008	0,029
-504,956	-200,000	0,004	-0,033
-503,941	800,000	-0,022	0,069
-502,926	-82,776	-0,056	0,013
-501,912	800,000	0,047	0,134
-500,897	280,643	0,043	-0,056
-499,883	-200,000	0,003	0,041
-498,868	-49,896	0,014	0,005
-497,853	-200,000	0,002	-0,046
-496,839	-200,000	0,011	-0,179
-495,824	-200,000	0,002	0,013
-494,810	-200,000	0,006	0,059
-493,795	532,786	-0,038	0,066
-492,781	800,000	-0,060	-0,148
-491,766	489,828	0,057	-0,096
-490,751	-200,000	0,012	-0,072
-489,737	70,371	-0,063	-0,047
-488,722	304,653	0,082	-0,111
-487,708	-200,000	-0,005	-0,034
-486,693	-18,686	-0,072	0,032
-485,678	-0,648	-0,072	0,037
-484,664	-200,000	0,022	-0,083
-483,649	-200,000	-0,011	0,056
-482,635	75,561	-0,030	-0,023
-481,620	54,728	0,075	-0,053
-480,605	-66,929	0,040	0,011
-479,591	153,576	0,123	0,123
-478,576	-200,000	-0,034	0,135
-477,562	416,107	-0,093	-0,145
-476,547	-200,000	0,001	-0,061
-475,532	-47,819	-0,058	-0,020
-474,518	25,713	0,010	0,006
-473,503	-200,000	-0,035	0,122
-472,489	-200,000	0,022	0,090
-471,474	-200,000	0,008	0,049
-470,459	-200,000	0,034	-0,119
-469,445	-64,956	-0,128	0,037
-468,430	284,628	0,050	-0,066
-467,416	800,000	-0,026	-0,084
-466,401	95,526	0,029	0,024
-465,386	389,899	0,100	0,152
-464,372	-200,000	0,003	0,130
-463,357	610,655	0,030	-0,055
-462,343	-110,290	0,040	-0,006
-461,328	-96,403	0,030	-0,006
-460,313	243,278	0,103	-0,126
-459,299	107,633	0,093	0,080
-458,284	28,083	-0,134	-0,082
-457,270	381,382	0,043	-0,064
-456,255	-200,000	0,006	-0,111
-455,241	-127,919	-0,110	0,011
-454,226	-71,687	0,134	0,036
-453,211	-200,000	-0,028	-0,167
-452,197	18,042	0,152	0,088
-451,182	628,411	0,072	0,132
-450,168	-200,000	0,001	0,005
-449,153	-18,882	-0,052	-0,023
-448,138	800,000	0,034	-0,085
-447,124	800,000	-0,011	-0,031
-446,109	141,388	0,071	0,069
-445,095	-200,000	0,038	0,131
-444,080	800,000	-0,041	0,122
-443,065	72,371	-0,068	0,052
-442,051	-72,256	-0,082	-0,022
-441,036	800,000	-0,047	-0,108
-440,022	-51,811	-0,070	-0,023
-439,007	714,151	0,042	0,081
-437,992	349,674	0,008	0,012
-436,978	5,672	0,016	-0,008
-435,963	46,756	0,089	-0,060
-434,949	-200,000	0,029	-0,096
-433,934	-14,817	-0,046	0,022
-432,919	-200,000	0,011	-0,135
-431,905	-2,095	-0,094	0,048
-430,890	-123,528	0,112	-0,013
-429,876	-32,768	0,093	-0,037
-428,861	-36,147	-0,071	-0,028
-427,846	-200,000	-0,001	-0,019
-426,832	-101,501	-0,024	-0,004
-425,817	66,004	-0,095	0,070
-424,803	42,027	-0,105	-0,069
-423,788	-149,526	0,050	0,003
-422,773	800,000	0,070	0,154
-421,759	-200,000	0,005	-0,057
-420,744	800,000	-0,006	0,012
-419,730	34,332	0,119	0,076
-418,715	180,713	-0,094	-0,101
-417,701	18,163	0,051	-0,030
-416,686	129,251	0,057	-0,053
-415,671	800,000	0,042	0,122
-414,657	343,297	-0,101	-0,144
-413,642	9,432	0,078	0,043
-412,628	-200,000	-0,024	0,124
-411,613	-137,446	-0,157	-0,013
-410,598	6,671	0,125	0,067
-409,584	51,395	0,087	0,060
-408,569	-1,030	0,084	-0,043
-407,555	-56,067	0,140	-0,045
-406,540	800,000	-0,043	-0,111
-405,525	415,955	0,057	0,089
-404,511	-200,000	-0,017	-0,074
-403,496	-200,000	-0,025	-0,093
-402,482	217,106	-0,045	0,052
-401,467	800,000	-0,061	0,166
-400,452	85,638	-0,026	-0,020
-399,438	226,611	0,041	0,049
-398,423	517,778	-0,048	-0,082
-397,409	-123,110	0,071	0,008
-396,394	145,616	0,102	-0,099
-395,379	121,739	-0,038	0,035
-394,365	-3,050	0,047	-0,024
-393,350	94,140	-0,055	-0,045
-392,336	-113,274	0,044	0,006
-391,321	218,612	0,045	-0,053
-390,306	89,405	0,096	-0,078
-389,292	731,208	0,028	-0,055
-388,277	381,171	-0,032	0,048
-387,263	219,481	0,079	-0,091
-386,248	589,234	0,067	0,121
-385,233	222,298	0,094	0,111
-384,219	-138,561	-0,136	-0,011
-383,204	-51,457	-0,062	-0,021
-382,190	-2,714	0,014	0,007
-381,175	169,103	-0,031	0,032
-380,160	79,491	-0,096	-0,075
-379,146	123,362	0,160	0,145
-378,131	-86,160	0,057	-0,013
-377,117	-155,955	-0,051	0,002
-376,102	-200,000	0,016	-0,199
-375,088	156,653	0,043	-0,043
-374,073	-166,308	-0,055	-0,002
-373,058	263,206	-0,044	0,055
-372,044	-148,070	0,051	0,003
-371,029	-22,825	-0,032	0,014
-370,015	800,000	0,017	0,035
-369,000	7,401	0,107	-0,058
-367,985	110,651	-0,087	-0,076
-366,971	112,336	-0,051	-0,045
-365,956	-63,866	0,086	0,025
-364,942	-25,370	-0,037	0,016
-363,927	-160,274	-0,089	0,003
-362,912	301,365	-0,044	-0,059
-361,898	234,415	-0,063	-0,075
-360,883	-200,000	0,000	0,021
-359,869	743,018	-0,017	0,034
-358,854	602,797	0,040	-0,073
-357,839	66,674	0,052	0,038
-356,825	324,279	0,082	0,114
-355,810	474,350	0,040	-0,065
-354,796	-62,231	-0,095	-0,029
-353,781	121,565	0,066	-0,060
-352,766	-78,211	0,062	-0,015
-351,752	702,090	0,078	0,149
-350,737	40,841	0,117	0,076
-349,723	800,000	0,011	-0,030
-348,708	274,281	-0,099	0,128
-347,693	51,291	-0,102	-0,070
-346,679	235,306	-0,072	-0,087
-345,664	-200,000	-0,012	-0,163
-344,650	-200,000	-0,002	-0,168
-343,635	-200,000	0,019	-0,093
-342,620	-200,000	-0,014	0,072
-341,606	-200,000	-0,009	0,072
-340,591	800,000	0,104	0,210
-339,577	167,279	-0,059	0,061
-338,562	800,000	-0,036	-0,073
-337,548	800,000	-0,015	-0,044
-336,533	-78,990	-0,132	0,032
-335,518	-91,400	-0,040	0,008
-334,504	24,413	-0,140	0,084
-333,489	800,000	-0,045	0,136
-332,475	-44,712	-0,082	0,030
-331,460	-1,851	0,018	0,009
-330,445	399,469	0,029	-0,044
-329,431	-173,091	0,026	-0,001
-328,416	717,242	0,083	0,161
-327,402	-36,943	0,152	0,059
-326,387	-50,203	-0,122	0,042
-325,372	231,021	-0,077	0,091
-324,358	89,514	-0,039	-0,031
-323,343	17,542	-0,053	0,030
-322,329	-180,582	-0,071	-0,001
-321,314	800,000	-0,038	0,100
-320,299	800,000	0,029	0,076
-319,285	149,961	-0,075	-0,074
-318,270	246,808	-0,035	-0,043
-317,256	9,121	0,022	0,012
-316,241	316,539	0,062	0,085
-315,226	800,000	-0,023	0,049
-314,212	213,923	0,100	0,115
-313,197	395,620	0,058	0,088
-312,183	-12,971	-0,169	0,079
-311,168	171,559	0,034	0,036
-310,153	-86,343	-0,133	-0,029
-309,139	-200,000	-0,000	-0,010
-308,124	609,550	0,064	-0,117
-307,110	4,927	0,090	-0,048
-306,095	800,000	0,026	-0,077
-305,080	800,000	-0,018	0,053
-304,066	141,028	-0,113	-0,108
-303,051	-40,515	-0,203	0,076
-302,037	800,000	-0,024	0,073
-301,022	628,732	0,065	-0,119
-300,008	209,278	0,067	-0,076
-298,993	800,000	-0,021	-0,050
-297,978	-52,588	-0,079	-0,026
-296,964	6,015	0,053	-0,028
-295,949	117,458	0,076	0,068
-294,935	562,793	0,069	-0,121
-293,920	-147,142	-0,090	0,005
-292,905	-141,368	0,050	0,004
-291,891	222,097	0,035	-0,040
-290,876	-200,000	-0,004	0,048
-289,862	173,348	-0,038	-0,040
-288,847	-200,000	-0,032	-0,215
-287,832	204,688	-0,048	-0,054
-286,818	-200,000	0,007	-0,108
-285,803	-200,000	-0,023	0,099
-284,789	685,378	0,120	0,227
-283,774	90,365	-0,054	0,044
-282,759	145,785	-0,109	0,106
-281,745	-200,000	0,005	0,057
-280,730	800,000	0,096	-0,208
-279,716	46,921	0,088	-0,059
-278,701	-40,879	-0,055	0,020
-277,686	800,000	0,029	0,078
-276,672	-200,000	-0,002	0,134
-275,657	800,000	0,010	-0,023
-274,643	800,000	-0,030	-0,088
-273,628	361,438	0,034	0,049
-272,613	-125,855	0,066	-0,007
-271,599	-127,228	0,053	0,006
-270,584	4,472	0,090	0,047
-269,570	106,438	0,069	0,059
-268,555	-200,000	0,006	0,045
-267,540	34,833	0,065	-0,041
-266,526	-200,000	0,001	-0,103
-265,511	-61,952	-0,050	-0,015
-264,497	-132,633	0,067	0,006
-263,482	242,351	-0,049	0,060
-262,467	-200,000	-0,022	0,074
-261,453	800,000	0,027	0,069
-260,438	-200,000	0,019	0,076
-259,424	-200,000	0,038	-0,126
-258,409	-200,000	-0,006	0,097
-257,395	-200,000	0,013	-0,123
-256,380	-27,626	0,034	0,014
-255,365	738,265	0,061	-0,120
-254,351	-41,193	-0,027	-0,010
-253,336	207,369	-0,038	-0,042
-252,322	-103,464	-0,017	0,003
-251,307	147,215	-0,116	-0,113
-250,292	-37,573	-0,021	0,008
-249,278	-27,138	0,120	0,050
-248,263	107,228	-0,065	0,056
-247,249	-10,718	0,039	0,019
-246,234	-59,461	-0,101	0,031
-245,219	-144,506	-0,076	0,005
-244,205	-200,000	0,011	0,049
-243,190	110,230	0,038	0,033
-242,176	305,516	0,093	0,125
-241,161	800,000	-0,034	0,096
-240,146	-53,297	-0,099	-0,033
-239,132	800,000	-0,032	0,063
-238,117	74,562	-0,115	0,087
-237,103	3,761	0,105	0,055
-236,088	-111,936	0,095	-0,014
-235,073	-46,713	0,048	-0,017
-234,059	-200,000	-0,006	0,148
-233,044	251,373	0,037	0,045
-232,030	25,860	0,035	-0,021
-231,015	65,920	-0,103	-0,076
-230,000	800,000	-0,044	-0,108
-228,986	269,334	0,041	-0,052
-227,971	-154,142	-0,093	-0,004
-226,957	-21,189	-0,029	-0,013
-225,942	-1,113	0,029	0,015
-224,927	366,309	-0,034	0,050
-223,913	334,064	-0,021	-0,029
-222,898	262,990	-0,049	-0,061
-221,884	-60,682	0,040	-0,012
-220,869	31,284	-0,072	-0,044
-219,855	248,265	0,050	0,062
-218,840	-200,000	0,028	0,111
-217,825	96,325	-0,025	0,021
-216,811	219,178	0,074	-0,085
-215,796	-117,176	-0,068	0,009
-214,782	-200,000	0,007	0,027
-213,767	800,000	0,022	0,066
-212,752	-200,000	0,005	0,046
-211,738	-200,000	0,006	0,080
-210,723	-200,000	-0,015	0,082
-209,709	-94,034	0,108	0,021
-208,694	-105,500	-0,163	0,026
-207,679	-84,844	-0,194	-0,044
-206,665	-135,586	0,137	-0,012
-205,650	328,454	0,035	0,049
-204,636	800,000	0,057	0,159
-203,621	382,800	0,065	0,096
-202,606	800,000	-0,050	-0,107
-201,592	-200,000	0,001	-0,086
-200,577	800,000	-0,006	0,018
-199,563	800,000	0,073	0,163
-198,548	800,000	0,039	-0,124
-197,533	-107,269	-0,202	-0,032
-196,519	99,023	0,133	0,111
-195,504	637,727	0,013	0,025
-194,490	-200,000	0,021	-0,195
-193,475	330,594	0,047	-0,065
-192,460	237,241	-0,058	-0,069
-191,446	-72,006	0,144	0,038
-190,431	788,717	0,047	-0,093
-189,417	162,068	-0,078	0,079
-188,402	800,000	0,043	0,099
-187,387	435,310	-0,016	-0,026
-186,373	800,000	-0,014	0,032
-185,358	-33,584	0,084	-0,033
-184,344	274,365	0,031	0,040
-183,329	-200,000	0,011	0,102
-182,315	-200,000	-0,003	-0,164
-181,300	-66,626	0,084	-0,024
-180,285	167,714	-0,020	0,021
-179,271	250,275	0,034	-0,041
-178,256	800,000	-0,024	0,069
-177,242	145,368	-0,016	0,016
-176,227	466,344	0,098	0,159
-175,212	-24,818	-0,053	-0,023
-174,198	322,241	0,083	0,115
-173,183	10,957	0,034	-0,019
-172,169	-126,686	0,044	-0,005
-171,154	57,553	-0,023	0,016
-170,139	-57,083	-0,017	0,005
-169,125	-200,000	0,042	-0,183
-168,110	800,000	0,048	0,111
-167,096	5,125	-0,065	0,034
-166,081	-61,340	0,064	-0,019
-165,066	800,000	-0,025	0,061
-164,052	-200,000	-0,025	-0,085
-163,037	111,349	0,118	-0,102
-162,023	269,633	0,041	0,051
-161,008	84,503	0,072	0,056
-159,993	25,817	-0,135	-0,080
-158,979	-44,241	-0,048	-0,017
-157,964	62,541	-0,118	-0,085
-156,950	-200,000	-0,012	-0,124
-155,935	-59,597	-0,139	-0,043
-154,920	53,268	0,062	0,043
-153,906	-200,000	0,010	0,131
-152,891	29,787	-0,095	0,058
-151,877	-200,000	-0,000	-0,088
-150,862	-167,088	0,025	0,001
-149,847	800,000	-0,027	0,072
-148,833	64,494	-0,126	-0,092
-147,818	329,377	-0,035	-0,049
-146,804	-200,000	-0,002	0,025
-145,789	-21,265	0,090	0,039
-144,775	44,318	-0,082	0,054
-143,760	-122,841	-0,118	0,014
-142,745	-29,205	-0,095	0,039
-141,731	144,604	0,033	-0,031
-140,716	-200,000	0,033	0,170
-139,702	800,000	-0,010	-0,021
-138,687	-112,620	0,070	-0,010
-137,672	589,382	0,041	-0,073
-136,658	22,020	-0,057	-0,033
-135,643	800,000	-0,032	-0,094
-134,629	-0,422	0,063	0,032
-133,614	385,142	0,093	0,138
-132,599	311,876	0,050	0,068
-131,585	182,822	-0,088	0,093
-130,570	484,695	-0,064	-0,104
-129,556	-200,000	-0,023	0,139
-128,541	-200,000	-0,007	0,037
-127,526	-114,954	-0,024	0,003
-126,512	-66,573	-0,023	-0,006
-125,497	-92,647	0,186	0,037
-124,483	124,745	0,043	0,039
-123,468	800,000	-0,011	0,033
-122,453	63,801	0,004	0,003
-121,439	450,948	-0,064	0,103
-120,424	551,165	0,042	-0,073
-119,410	800,000	0,114	-0,276
-118,395	-58,604	-0,108	0,033
