DTS Sentinel unit serial number:	SN410029Multiplexer serial number:	ORYXHardware model number:	OX2-SRSoftware version number:	ORYX F/W v4,00 Oryx Data Collector v3.7.2.0data status	okinstallation	B5 Nyhavnadifferential loss correction	single-endedforward channel	channel 2reverse channel	N/Adate	2023/12/13time	03:47:13forward acquisition time	300,00reverse acquisition time	0,00gamma	499,1914k internal	0,3160k external	0,3160temperature offset calibration	1,0000default loss term (dB/km)	0,3820temperature slope calibration	1,0000multiplexer offset coefficient	1,0000multiplexer slope coefficient	1,0000fibre end	0,00T internal ref (°C)	13,95T ext. ref 1 (°C)	-2,44T ext. ref 2 (°C)	-2,75length (m)	temperature (°C)	Stokes	anti-Stokes-744,400	800,000	-0,035	-0,108
-743,385	-37,844	-0,308	-0,120
-742,371	209,851	0,147	0,170
-741,356	-18,504	-0,204	-0,093
-740,342	22,723	0,118	-0,071
-739,327	-106,691	-0,421	-0,068
-738,312	113,840	0,188	0,168
-737,298	-103,326	-0,334	-0,058
-736,283	-91,112	0,216	0,045
-735,269	-58,293	-0,264	0,084
-734,254	-141,212	0,082	-0,006
-733,239	49,246	-0,414	-0,287
-732,225	-94,503	0,129	0,026
-731,210	239,694	0,047	0,057
-730,196	41,308	-0,133	0,089
-729,181	136,073	-0,027	-0,026
-728,167	-140,434	-0,111	0,008
-727,152	-200,000	0,015	0,069
-726,137	800,000	0,010	-0,028
-725,123	-200,000	0,018	-0,120
-724,108	-200,000	-0,015	-0,072
-723,094	618,280	-0,043	-0,079
-722,079	132,427	-0,075	0,071
-721,064	-11,766	-0,076	-0,037
-720,050	219,156	-0,017	-0,021
-719,035	281,138	-0,084	-0,110
-718,021	143,649	-0,092	-0,091
-717,006	-81,778	0,024	-0,006
-715,991	-7,363	-0,070	-0,035
-714,977	160,069	0,083	-0,085
-713,962	461,773	-0,068	0,113
-712,948	102,550	-0,073	-0,063
-711,933	-200,000	0,033	0,117
-710,918	-126,306	0,132	0,014
-709,904	-63,144	-0,229	-0,069
-708,889	557,494	-0,071	-0,126
-707,875	-12,890	0,040	0,019
-706,860	257,395	0,092	-0,116
-705,845	119,015	0,092	0,083
-704,831	-51,718	-0,020	0,007
-703,816	43,358	0,061	-0,041
-702,802	618,997	-0,077	0,144
-701,787	800,000	-0,029	-0,086
-700,772	28,617	-0,078	-0,049
-699,758	-96,868	-0,075	0,014
-698,743	648,831	0,037	0,069
-697,729	296,921	-0,055	0,074
-696,714	663,269	-0,032	-0,060
-695,699	201,061	-0,093	-0,105
-694,685	-13,534	-0,079	0,038
-693,670	-200,000	-0,021	-0,136
-692,656	-27,181	0,007	-0,003
-691,641	-37,567	-0,103	0,040
-690,627	31,092	0,152	0,095
-689,612	55,665	-0,035	-0,025
-688,597	800,000	-0,016	0,037
-687,583	800,000	0,026	-0,063
-686,568	-200,000	-0,022	-0,125
-685,554	-56,771	-0,085	0,027
-684,539	-200,000	0,040	-0,198
-683,524	-20,028	-0,064	-0,029
-682,510	-51,998	-0,064	0,022
-681,495	-87,481	-0,085	-0,019
-680,481	80,642	-0,161	-0,127
-679,466	387,395	0,032	0,049
-678,451	418,249	-0,046	-0,072
-677,437	-133,021	-0,022	-0,002
-676,422	27,994	-0,003	0,002
-675,408	-107,623	-0,083	-0,013
-674,393	-117,139	0,101	-0,013
-673,378	225,733	0,081	-0,097
-672,364	183,681	-0,004	0,005
-671,349	-110,853	-0,036	0,005
-670,335	-121,522	0,083	0,010
-669,320	52,612	0,056	-0,039
-668,305	-169,446	0,028	-0,001
-667,291	-200,000	0,012	-0,082
-666,276	-1,298	-0,028	-0,014
-665,262	800,000	-0,037	-0,106
-664,247	507,886	-0,013	-0,023
-663,232	130,201	0,085	0,080
-662,218	-68,375	-0,021	-0,006
-661,203	537,099	0,022	0,039
-660,189	800,000	0,034	-0,073
-659,174	-52,555	-0,132	-0,045
-658,159	636,103	-0,015	-0,028
-657,145	-200,000	-0,012	-0,075
-656,130	-51,456	-0,019	0,007
-655,116	47,179	0,079	0,054
-654,101	-115,444	0,034	-0,005
-653,086	239,670	0,021	-0,025
-652,072	-94,210	-0,104	-0,021
-651,057	-83,314	-0,178	-0,042
-650,043	254,725	0,155	-0,195
-649,028	96,093	0,095	0,080
-648,014	-200,000	0,007	0,068
-646,999	-200,000	-0,024	-0,109
-645,984	32,674	-0,069	-0,043
-644,970	-200,000	-0,009	-0,101
-643,955	47,511	0,124	-0,084
-642,941	-92,092	-0,109	-0,022
-641,926	738,329	-0,070	0,137
-640,911	187,881	0,074	-0,082
-639,897	-81,698	0,102	0,024
-638,882	86,882	-0,069	-0,056
-637,868	-53,271	-0,013	-0,004
-636,853	-104,242	-0,116	-0,020
-635,838	-200,000	-0,012	-0,232
-634,824	128,690	-0,059	-0,055
-633,809	-155,704	0,059	0,003
-632,795	-200,000	0,021	0,088
-631,780	519,090	-0,014	-0,024
-630,765	-9,361	0,054	-0,026
-629,751	-95,890	-0,105	-0,020
-628,736	-169,368	0,082	0,002
-627,722	77,937	0,025	0,020
-626,707	236,799	0,059	0,072
-625,692	80,906	0,110	-0,087
-624,678	-70,236	-0,041	-0,011
-623,663	-14,540	0,111	-0,052
-622,649	-51,464	-0,054	0,018
-621,634	736,306	-0,043	0,085
-620,619	365,971	-0,087	0,130
-619,605	46,651	0,060	-0,041
-618,590	-200,000	-0,026	-0,096
-617,576	62,987	-0,116	-0,085
-616,561	3,217	0,073	-0,039
-615,546	2,081	0,086	-0,045
-614,532	316,605	-0,041	-0,057
-613,517	52,004	0,034	-0,024
-612,503	-200,000	-0,005	-0,051
-611,488	497,750	0,019	0,032
-610,474	800,000	-0,027	-0,072
-609,459	173,383	0,025	-0,026
-608,444	481,951	0,042	0,071
-607,430	-45,702	-0,058	-0,021
-606,415	-200,000	-0,008	-0,159
-605,401	-172,515	0,058	0,001
-604,386	-200,000	0,012	0,067
-603,371	175,696	0,060	-0,064
-602,357	-61,407	-0,112	-0,034
-601,342	-88,782	-0,035	0,008
-600,328	62,210	0,059	0,043
-599,313	-97,822	-0,021	-0,004
-598,298	-51,249	-0,111	-0,038
-597,284	-68,621	0,030	0,008
-596,269	391,454	0,088	0,134
-595,255	194,595	-0,075	-0,083
-594,240	-67,365	-0,068	0,019
-593,225	36,153	0,018	-0,012
-592,211	121,913	-0,122	-0,112
-591,196	-200,000	0,018	0,061
-590,182	90,609	-0,062	0,051
-589,167	800,000	0,041	0,106
-588,152	323,848	-0,022	0,030
-587,138	176,465	0,018	0,019
-586,123	-200,000	0,023	-0,142
-585,109	-200,000	0,009	-0,104
-584,094	-200,000	-0,003	0,134
-583,079	39,619	-0,062	0,041
-582,065	96,847	0,056	0,047
-581,050	-200,000	-0,004	-0,056
-580,036	-200,000	-0,126	0,000
-579,021	-200,000	-0,005	0,028
-578,006	91,299	-0,128	-0,105
-576,992	66,510	0,004	-0,003
-575,977	185,801	0,114	-0,124
-574,963	-200,000	-0,005	0,094
-573,948	-20,076	0,097	-0,044
-572,934	240,863	0,038	0,047
-571,919	-19,561	-0,175	-0,079
-570,904	728,234	-0,038	0,075
-569,890	618,908	-0,025	-0,047
-568,875	-200,000	0,052	-0,184
-567,861	359,400	0,073	-0,106
-566,846	137,537	0,077	0,074
-565,831	-85,426	-0,093	-0,021
-564,817	-95,542	0,115	0,022
-563,802	-32,565	-0,056	-0,023
-562,788	133,712	0,073	0,070
-561,773	-12,565	0,064	-0,030
-560,758	348,800	0,007	-0,010
-559,744	77,505	0,012	0,009
-558,729	2,116	-0,105	0,055
-557,715	-20,029	-0,117	-0,052
-556,700	-43,402	-0,073	-0,027
-555,685	-200,000	-0,021	-0,121
-554,671	-200,000	-0,057	-0,205
-553,656	-200,000	-0,001	0,052
-552,642	-200,000	-0,016	0,082
-551,627	800,000	0,049	0,105
-550,612	-54,684	-0,141	-0,046
-549,598	-200,000	0,009	0,087
-548,583	265,777	-0,078	-0,100
-547,569	-200,000	0,012	0,151
-546,554	-200,000	-0,058	0,198
-545,539	303,187	0,013	0,017
-544,525	525,786	0,031	0,053
-543,510	800,000	0,009	-0,022
-542,496	70,347	-0,074	-0,056
-541,481	-117,316	0,150	-0,020
-540,466	-32,633	0,068	0,028
-539,452	-108,652	-0,143	-0,022
-538,437	605,486	-0,026	0,047
-537,423	212,946	0,068	0,079
-536,408	800,000	0,036	-0,073
-535,393	-89,023	-0,104	-0,022
-534,379	-128,515	-0,090	0,009
-533,364	-2,891	0,075	0,038
-532,350	-76,555	-0,078	0,020
-531,335	-49,650	-0,061	-0,021
-530,321	298,525	0,046	0,062
-529,306	-69,926	-0,026	-0,007
-528,291	227,383	0,028	-0,033
-527,277	230,399	-0,099	-0,119
-526,262	-200,000	-0,009	0,067
-525,248	115,051	0,036	-0,032
-524,233	117,261	0,058	0,052
-523,218	-137,654	0,111	0,009
-522,204	24,131	0,094	-0,056
-521,189	126,074	-0,134	-0,124
-520,175	800,000	-0,020	0,062
-519,160	494,483	0,068	-0,114
-518,145	61,818	-0,128	-0,093
-517,131	-200,000	0,007	-0,087
-516,116	149,267	-0,029	-0,029
-515,102	-41,836	-0,106	0,039
-514,087	-166,944	-0,139	-0,004
-513,072	67,955	0,102	-0,076
-512,058	-200,000	0,002	0,054
-511,043	-115,066	0,159	0,022
-510,029	-200,000	-0,018	0,132
-509,014	-60,539	-0,050	-0,015
-507,999	387,974	-0,074	-0,112
-506,985	-166,189	0,043	0,001
-505,970	205,070	-0,087	-0,099
-504,956	78,233	-0,064	-0,050
-503,941	93,412	0,064	-0,052
-502,926	57,973	0,156	-0,111
-501,912	501,230	-0,016	0,028
-500,897	294,052	0,132	-0,176
-499,883	791,813	-0,009	-0,017
-498,868	48,295	0,048	0,033
-497,853	355,357	-0,126	-0,184
-496,839	-109,430	-0,222	0,034
-495,824	86,748	0,077	0,062
-494,810	234,500	0,051	0,061
-493,795	-30,051	-0,032	0,013
-492,781	123,441	0,020	-0,018
-491,766	38,667	0,051	0,033
-490,751	172,039	0,148	-0,156
-489,737	-200,000	-0,007	0,086
-488,722	472,544	-0,044	0,073
-487,708	400,743	0,062	0,095
-486,693	-59,456	0,026	0,008
-485,678	-114,715	-0,195	0,027
-484,664	800,000	-0,055	0,128
-483,649	-15,943	0,018	0,008
-482,635	65,030	-0,123	-0,091
-481,620	-56,088	-0,158	0,051
-480,605	633,541	0,064	0,118
-479,591	193,161	0,058	0,064
-478,576	-98,139	0,100	0,019
-477,562	22,803	0,137	0,082
-476,547	12,404	-0,118	-0,066
-475,532	97,574	0,093	0,078
-474,518	-200,000	-0,014	0,159
-473,503	406,551	0,072	-0,112
-472,489	31,603	-0,026	-0,016
-471,474	-25,058	0,087	0,038
-470,459	-200,000	0,014	-0,063
-469,445	-200,000	-0,028	-0,094
-468,430	24,969	0,135	0,081
-467,416	-19,319	-0,091	0,041
-466,401	227,551	-0,062	-0,073
-465,386	-200,000	0,007	0,073
-464,372	216,695	-0,050	0,058
-463,357	-200,000	-0,042	-0,146
-462,343	22,170	-0,131	-0,078
-461,328	-200,000	-0,028	-0,172
-460,313	435,654	0,064	-0,101
-459,299	-52,971	0,127	-0,042
-458,284	27,230	-0,050	-0,031
-457,270	-110,728	-0,058	0,009
-456,255	193,934	-0,046	-0,051
-455,241	51,022	-0,097	-0,067
-454,226	2,355	0,068	-0,036
-453,211	800,000	0,026	0,068
-452,197	-200,000	0,006	0,032
-451,182	-70,961	-0,150	-0,041
-450,168	-35,435	0,066	-0,026
-449,153	-63,404	-0,161	0,048
-448,138	-200,000	-0,026	-0,115
-447,124	-200,000	-0,001	0,083
-446,109	32,876	-0,046	0,029
-445,095	35,318	0,076	0,048
-444,080	-22,346	0,085	0,037
-443,065	349,037	0,035	-0,051
-442,051	751,618	0,012	-0,024
-441,036	-1,761	-0,153	-0,078
-440,022	32,816	0,106	-0,066
-439,007	-200,000	-0,043	-0,219
-437,992	300,186	0,024	-0,033
-436,978	-181,394	0,103	0,001
-435,963	205,698	0,123	0,140
-434,949	-25,717	0,040	0,017
-433,934	504,369	0,074	-0,125
-432,919	-200,000	-0,005	0,046
-431,905	185,676	0,042	0,045
-430,890	156,123	0,024	0,024
-429,876	19,300	0,062	-0,036
-428,861	-102,112	-0,031	0,005
-427,846	-112,561	-0,062	-0,009
-426,832	-199,523	0,215	0,001
-425,817	-112,850	-0,101	0,014
-424,803	-88,743	-0,063	-0,013
-423,788	800,000	0,043	0,131
-422,773	800,000	-0,050	0,114
-421,759	-200,000	-0,001	0,134
-420,744	633,433	-0,084	-0,155
-419,730	91,667	-0,122	-0,100
-418,715	-147,370	-0,136	0,008
-417,701	-154,908	-0,101	-0,005
-416,686	-90,138	0,039	0,008
-415,671	268,075	0,107	-0,136
-414,657	98,704	-0,133	-0,111
-413,642	686,890	-0,031	0,060
-412,628	34,390	-0,092	0,058
-411,613	144,378	0,083	-0,080
-410,598	-57,700	-0,059	-0,019
-409,584	56,380	-0,060	0,042
-408,569	-24,629	0,078	-0,034
-407,555	72,349	0,098	0,074
-406,540	68,823	-0,046	-0,035
-405,525	-200,000	0,008	0,048
-404,511	149,085	0,027	0,027
-403,496	5,088	-0,129	-0,069
-402,482	-71,750	0,125	-0,034
-401,467	-8,417	0,145	0,071
-400,452	97,433	-0,032	0,026
-399,438	800,000	0,051	0,118
-398,423	-200,000	-0,031	-0,143
-397,409	800,000	0,069	-0,167
-396,394	800,000	0,015	-0,035
-395,379	269,889	0,066	-0,084
-394,365	-36,218	0,149	0,058
-393,350	-200,000	-0,001	0,120
-392,336	-90,362	-0,056	0,012
-391,321	-29,972	-0,112	0,046
-390,306	642,672	-0,074	-0,138
-389,292	-200,000	-0,005	-0,199
-388,277	-200,000	-0,016	0,053
-387,263	-200,000	-0,015	-0,091
-386,248	61,122	0,100	0,072
-385,233	131,078	-0,115	-0,107
-384,219	-200,000	0,021	-0,089
-383,204	800,000	0,031	0,080
-382,190	-69,352	0,089	-0,025
-381,175	600,679	-0,061	-0,111
-380,160	-200,000	0,018	-0,094
-379,146	261,268	-0,043	-0,054
-378,131	-34,240	0,201	0,080
-377,117	78,059	0,006	0,005
-376,102	-4,126	-0,148	0,074
-375,088	48,740	-0,078	0,053
-374,073	-22,738	0,079	-0,035
-373,058	555,497	-0,045	-0,079
-372,044	245,706	0,057	0,069
-371,029	105,795	-0,062	0,053
-370,015	800,000	0,023	-0,049
-369,000	800,000	0,064	-0,169
-367,985	-67,618	0,027	-0,008
-366,971	-200,000	0,008	-0,146
-365,956	8,982	0,069	-0,038
-364,942	-200,000	-0,010	0,047
-363,927	-138,096	0,156	-0,012
-362,912	-82,937	0,171	0,040
-361,898	-200,000	-0,030	0,102
-360,883	-63,763	-0,074	-0,022
-359,869	451,335	0,032	0,051
-358,854	89,215	-0,087	0,070
-357,839	800,000	0,026	-0,059
-356,825	159,251	0,098	-0,099
-355,810	800,000	0,025	0,079
-354,796	68,050	-0,064	0,047
-353,781	148,262	-0,097	-0,095
-352,766	800,000	-0,022	0,055
-351,752	-200,000	-0,029	0,218
-350,737	-200,000	0,001	-0,016
-349,723	698,532	-0,032	0,062
-348,708	799,580	0,069	0,139
-347,693	800,000	-0,072	0,168
-346,679	-200,000	0,030	0,113
-345,664	-200,000	-0,016	-0,091
-344,650	147,980	0,061	-0,059
-343,635	-28,169	-0,133	0,055
-342,620	63,749	0,173	0,126
-341,606	363,907	-0,115	0,168
-340,591	-200,000	-0,011	0,098
-339,577	560,897	0,065	-0,114
-338,562	-136,084	-0,131	0,011
-337,548	-200,000	-0,016	-0,073
-336,533	-3,059	0,077	0,039
-335,518	266,609	0,072	0,091
-334,504	713,528	0,026	0,050
-333,489	22,357	-0,167	-0,099
-332,475	-26,457	-0,050	-0,021
-331,460	206,904	-0,112	-0,126
-330,445	-200,000	-0,001	-0,047
-329,431	241,475	0,067	0,082
-328,416	-200,000	0,016	0,077
-327,402	57,592	-0,015	-0,010
-326,387	-77,621	0,024	0,006
-325,372	89,948	0,028	0,023
-324,358	141,093	-0,037	-0,036
-323,343	-4,985	-0,068	-0,034
-322,329	110,142	-0,086	0,075
-321,314	-200,000	0,020	-0,131
-320,299	-92,107	-0,127	0,026
-319,285	152,290	0,079	-0,079
-318,270	-48,896	0,036	-0,012
-317,256	-87,004	-0,092	-0,020
-316,241	40,636	0,089	-0,058
-315,226	536,680	0,076	0,132
-314,212	81,700	0,082	0,064
-313,197	282,176	0,092	-0,119
-312,183	-200,000	-0,025	0,099
-311,168	-59,970	-0,039	-0,012
-310,153	-141,832	-0,077	0,006
-309,139	66,764	-0,099	0,073
-308,124	-129,735	0,064	-0,006
-307,110	-144,224	0,116	-0,008
-306,095	-178,197	0,084	-0,001
-305,080	304,362	0,079	0,107
-304,066	243,210	-0,022	0,027
-303,051	-92,017	0,124	-0,025
-302,037	-200,000	0,019	-0,101
-301,022	-200,000	0,021	-0,106
-300,008	-30,590	0,095	0,039
-298,993	-200,000	0,003	-0,064
-297,978	66,301	0,032	0,024
-296,964	-200,000	0,086	-0,000
-295,949	-140,050	-0,109	-0,008
-294,935	20,436	0,049	0,028
-293,920	-200,000	0,012	0,095
-292,905	-200,000	0,010	0,092
-291,891	47,398	0,140	0,094
-290,876	-37,000	-0,049	0,019
-289,862	-78,066	-0,112	0,028
-288,847	113,143	-0,044	-0,039
-287,832	-200,000	-0,002	-0,113
-286,818	510,817	-0,026	0,044
-285,803	-200,000	-0,018	0,074
-284,789	691,048	0,094	0,178
-283,774	109,213	0,070	0,061
-282,759	-46,694	0,047	-0,016
-281,745	187,349	0,137	-0,148
-280,730	108,710	-0,100	0,086
-279,716	-200,000	0,002	-0,013
-278,701	-136,920	-0,182	-0,015
-277,686	88,296	0,011	-0,009
-276,672	49,474	-0,043	-0,029
-275,657	800,000	-0,036	-0,072
-274,643	464,425	-0,031	0,051
-273,628	198,968	-0,091	-0,101
-272,613	550,098	-0,029	-0,051
-271,599	-200,000	0,038	0,231
-270,584	-200,000	-0,125	0,000
-269,570	800,000	-0,023	0,065
-268,555	92,818	-0,063	0,052
-267,540	86,805	-0,054	0,043
-266,526	-32,443	-0,064	0,026
-265,511	-200,000	0,037	-0,132
-264,497	-200,000	0,008	-0,072
-263,482	-15,218	0,052	0,024
-262,467	-64,173	0,087	0,025
-261,453	-1,951	0,026	0,013
-260,438	-157,794	-0,047	0,002
-259,424	-96,524	-0,051	0,010
-258,409	595,982	-0,061	-0,110
-257,395	-200,000	0,008	0,066
-256,380	-200,000	0,029	0,096
-255,365	288,886	0,121	0,159
-254,351	-109,103	0,153	-0,023
-253,336	-127,951	0,142	0,015
-252,322	417,533	-0,008	-0,012
-251,307	412,095	0,075	0,115
-250,292	-200,000	0,036	-0,118
-249,278	507,179	-0,043	-0,072
-248,263	31,674	0,140	-0,087
-247,249	-76,019	0,145	0,037
-246,234	-25,487	0,035	0,015
-245,219	-161,002	-0,096	-0,004
-244,205	800,000	-0,033	-0,095
-243,190	-200,000	0,009	-0,045
-242,176	127,779	0,016	0,015
-241,161	-17,967	-0,093	0,042
-240,146	-200,000	0,002	0,108
-239,132	36,063	-0,086	-0,055
-238,117	144,121	0,036	0,035
-237,103	537,199	-0,061	-0,105
-236,088	-200,000	0,005	-0,044
-235,073	-200,000	0,014	0,084
-234,059	800,000	0,062	0,159
-233,044	-200,000	0,020	0,082
-232,030	800,000	-0,008	0,020
-231,015	-131,856	-0,066	0,006
-230,000	-19,089	-0,075	0,034
-228,986	580,932	0,105	0,186
-227,971	-50,430	0,125	0,042
-226,957	135,229	-0,076	0,072
-225,942	-60,531	-0,006	0,002
-224,927	-97,021	-0,112	0,021
-223,913	-42,319	-0,065	-0,024
-222,898	-75,346	0,074	0,019
-221,884	416,138	0,018	0,027
-220,869	-200,000	-0,038	0,155
-219,855	-135,979	0,045	0,004
-218,840	-200,000	-0,012	0,123
-217,825	247,066	0,062	0,076
-216,811	82,422	-0,122	-0,096
-215,796	-114,505	-0,105	0,014
-214,782	58,199	0,026	0,018
-213,767	-200,000	0,005	-0,138
-212,752	105,984	-0,098	-0,083
-211,738	154,398	0,106	-0,105
-210,723	-91,745	-0,065	0,013
-209,709	276,772	-0,010	-0,013
-208,694	458,609	-0,054	0,087
-207,679	8,103	0,173	-0,093
-206,665	-200,000	-0,034	-0,121
-205,650	156,244	0,043	-0,042
-204,636	62,689	-0,061	0,044
-203,621	194,085	0,063	0,069
-202,606	111,376	0,130	-0,113
-201,592	-80,610	0,045	-0,011
-200,577	-200,000	-0,005	0,093
-199,563	150,812	-0,011	-0,011
-198,548	172,198	0,068	-0,071
-197,533	240,891	0,081	0,097
-196,519	83,655	-0,096	0,075
-195,504	36,297	0,133	0,084
-194,490	90,566	-0,026	0,021
-193,475	-12,755	-0,053	-0,025
-192,460	344,472	-0,035	0,049
-191,446	800,000	-0,048	0,152
-190,431	476,899	0,044	0,072
-189,417	-200,000	-0,016	-0,084
-188,402	-135,004	-0,155	-0,013
-187,387	535,682	0,024	0,041
-186,373	208,925	0,070	0,079
-185,358	502,626	0,033	0,056
-184,344	-200,000	0,007	0,040
-183,329	-18,216	-0,117	0,053
-182,315	-4,788	0,115	-0,057
-181,300	337,701	-0,030	-0,042
-180,285	-200,000	0,008	-0,179
-179,271	526,608	-0,087	-0,148
-178,256	-200,000	-0,002	0,047
-177,242	800,000	-0,008	-0,022
-176,227	247,722	-0,115	0,140
-175,212	174,382	-0,097	0,101
-174,198	2,229	0,110	0,057
-173,183	407,014	0,065	0,099
-172,169	-130,027	-0,093	0,009
-171,154	-34,721	0,059	-0,023
-170,139	-200,000	0,002	-0,102
-169,125	800,000	0,057	0,173
-168,110	199,319	0,072	-0,079
-167,096	-63,598	-0,124	0,037
-166,081	23,010	0,081	0,048
-165,066	-49,498	0,070	0,024
-164,052	12,775	-0,082	0,045
-163,037	-200,000	-0,020	-0,075
-162,023	-23,713	-0,072	0,031
-161,008	-58,841	-0,091	0,028
-159,993	-200,000	0,002	0,154
-158,979	40,358	-0,106	-0,069
-157,964	22,498	0,067	-0,040
-156,950	34,091	0,083	-0,052
-155,935	-159,034	0,275	0,011
-154,920	800,000	0,035	0,079
-153,906	-200,000	0,001	0,146
-152,891	22,776	0,081	0,048
-151,877	800,000	0,046	-0,108
-150,862	20,580	-0,153	-0,089
-149,847	-200,000	-0,018	-0,177
-148,833	-200,000	-0,001	-0,012
-147,818	185,473	0,046	-0,050
-146,804	-200,000	0,001	-0,068
-145,789	239,295	-0,138	-0,165
-144,775	272,600	-0,052	0,066
-143,760	800,000	-0,037	-0,108
-142,745	-200,000	-0,027	0,106
-141,731	-200,000	0,017	0,094
-140,716	230,516	0,099	0,117
-139,702	800,000	0,051	0,141
-138,687	-200,000	-0,016	0,069
-137,672	-200,000	-0,011	0,156
-136,658	0,398	-0,101	0,052
-135,643	421,658	0,045	0,070
-134,629	198,804	-0,068	0,075
-133,614	87,770	-0,188	0,150
-132,599	-72,365	-0,121	-0,032
-131,585	104,112	0,066	0,056
-130,570	-21,496	-0,098	0,043
-129,556	11,677	-0,014	-0,008
-128,541	-143,479	0,135	-0,009
-127,526	-7,607	-0,060	0,029
-126,512	-24,459	0,118	-0,051
-125,497	-200,000	-0,024	0,280
-124,483	634,012	-0,020	0,037
-123,468	274,123	-0,064	-0,082
-122,453	484,384	0,038	0,063
-121,439	-200,000	-0,028	-0,124
-120,424	800,000	0,039	0,099
-119,410	-200,000	0,002	-0,041
-118,395	800,000	-0,023	-0,071
