DTS Sentinel unit serial number:	SN410029Multiplexer serial number:	ORYXHardware model number:	OX2-SRSoftware version number:	ORYX F/W v4,00 Oryx Data Collector v3.7.2.0data status	okinstallation	B5 Nyhavnadifferential loss correction	single-endedforward channel	channel 2reverse channel	N/Adate	2023/12/13time	09:37:13forward acquisition time	300,00reverse acquisition time	0,00gamma	499,1914k internal	0,3161k external	0,3161temperature offset calibration	1,0000default loss term (dB/km)	0,3820temperature slope calibration	1,0000multiplexer offset coefficient	1,0000multiplexer slope coefficient	1,0000fibre end	0,00T internal ref (°C)	13,66T ext. ref 1 (°C)	-2,71T ext. ref 2 (°C)	-3,01length (m)	temperature (°C)	Stokes	anti-Stokes-744,400	63,412	0,062	0,046
-743,385	13,647	-0,223	0,127
-742,371	105,014	0,122	0,106
-741,356	-155,004	-0,252	0,012
-740,342	-188,313	0,112	0,001
-739,327	-200,000	-0,245	-0,001
-738,312	-200,000	0,011	0,061
-737,298	-107,541	-0,206	0,033
-736,283	-141,871	0,132	0,010
-735,269	-58,486	-0,286	0,091
-734,254	-200,000	0,027	0,098
-733,239	-81,057	-0,528	-0,128
-732,225	-11,309	0,178	-0,086
-731,210	-200,000	0,016	0,083
-730,196	-125,692	-0,149	0,016
-729,181	-200,000	-0,014	0,046
-728,167	800,000	-0,025	0,057
-727,152	296,609	-0,051	-0,068
-726,137	-200,000	0,004	-0,087
-725,123	-43,049	-0,074	0,028
-724,108	800,000	-0,017	0,034
-723,094	94,041	-0,130	-0,108
-722,079	-200,000	0,008	-0,072
-721,064	-200,000	0,013	-0,186
-720,050	-200,000	-0,003	0,055
-719,035	-200,000	-0,025	0,095
-718,021	25,162	-0,043	-0,026
-717,006	270,270	-0,067	-0,087
-715,991	-9,027	-0,181	-0,089
-714,977	476,897	0,031	0,051
-713,962	44,883	-0,031	0,021
-712,948	-200,000	-0,006	-0,056
-711,933	-33,647	-0,110	0,044
-710,918	-151,540	0,153	0,008
-709,904	190,995	-0,130	-0,144
-708,889	800,000	-0,025	0,052
-707,875	184,859	-0,090	-0,098
-706,860	-5,123	-0,066	-0,033
-705,845	420,862	-0,032	-0,051
-704,831	800,000	-0,056	0,166
-703,816	-41,395	-0,045	-0,017
-702,802	-139,661	0,036	-0,003
-701,787	-200,000	0,003	-0,089
-700,772	-200,000	-0,028	0,152
-699,758	-200,000	-0,003	-0,126
-698,743	48,363	0,036	0,025
-697,729	9,911	-0,041	-0,023
-696,714	171,018	0,047	-0,049
-695,699	-15,803	-0,099	0,046
-694,685	-122,032	-0,139	-0,017
-693,670	-25,197	-0,148	-0,064
-692,656	27,584	0,033	-0,020
-691,641	179,489	0,078	-0,084
-690,627	-200,000	-0,007	0,050
-689,612	-3,821	0,056	0,028
-688,597	15,450	0,063	0,037
-687,583	-200,000	-0,008	0,059
-686,568	-200,000	0,036	-0,126
-685,554	224,681	-0,059	-0,071
-684,539	800,000	-0,004	0,010
-683,524	164,522	-0,077	-0,080
-682,510	-89,402	-0,225	0,048
-681,495	-22,662	0,152	-0,067
-680,481	800,000	-0,035	-0,075
-679,466	-60,347	-0,094	-0,029
-678,451	316,928	-0,048	0,066
-677,437	-66,465	0,036	-0,010
-676,422	-10,169	0,175	-0,085
-675,408	800,000	0,029	-0,081
-674,393	365,829	0,053	0,079
-673,378	-200,000	-0,002	0,016
-672,364	725,639	-0,032	-0,062
-671,349	-57,565	-0,054	0,017
-670,335	98,035	0,041	-0,035
-669,320	800,000	-0,021	-0,043
-668,305	169,022	0,046	0,048
-667,291	-117,284	-0,126	0,017
-666,276	8,822	-0,085	-0,047
-665,262	-200,000	-0,000	-0,093
-664,247	167,913	-0,084	-0,088
-663,232	-145,412	-0,090	0,006
-662,218	146,248	-0,137	0,135
-661,203	152,831	0,086	0,086
-660,189	62,413	-0,091	0,066
-659,174	357,911	-0,047	0,069
-658,159	62,254	-0,080	0,059
-657,145	-200,000	0,005	-0,125
-656,130	268,071	0,102	0,132
-655,116	-86,345	-0,116	-0,026
-654,101	800,000	0,043	0,104
-653,086	64,168	-0,148	-0,109
-652,072	-200,000	-0,001	-0,034
-651,057	-200,000	-0,012	-0,056
-650,043	177,247	-0,044	-0,047
-649,028	105,765	-0,037	0,032
-648,014	-200,000	0,006	0,186
-646,999	174,850	-0,074	0,079
-645,984	-71,007	-0,064	0,017
-644,970	133,846	0,031	-0,030
-643,955	800,000	0,006	0,013
-642,941	-81,874	-0,045	0,011
-641,926	-63,123	-0,098	-0,029
-640,911	116,327	0,113	-0,101
-639,897	-200,000	-0,002	-0,058
-638,882	-43,208	-0,074	0,027
-637,868	32,845	0,091	-0,058
-636,853	464,489	-0,039	-0,065
-635,838	45,589	0,072	-0,049
-634,824	-200,000	0,014	-0,127
-633,809	-200,000	-0,020	-0,080
-632,795	-200,000	-0,016	0,131
-631,780	-200,000	-0,012	0,084
-630,765	-200,000	-0,005	-0,114
-629,751	204,649	0,015	-0,017
-628,736	-200,000	0,001	-0,177
-627,722	-111,190	-0,017	0,002
-626,707	800,000	0,030	-0,070
-625,692	103,848	0,091	0,079
-624,678	418,488	-0,081	0,128
-623,663	290,658	-0,066	0,089
-622,649	-200,000	-0,028	0,145
-621,634	-200,000	0,008	-0,067
-620,619	-85,972	-0,150	-0,034
-619,605	-108,585	-0,130	0,020
-618,590	132,828	0,069	-0,065
-617,576	243,484	-0,045	0,055
-616,561	-200,000	0,018	0,068
-615,546	800,000	-0,019	0,050
-614,532	152,571	-0,082	0,082
-613,517	-200,000	0,005	0,079
-612,503	541,746	-0,024	-0,043
-611,488	-150,260	0,143	0,008
-610,474	65,903	0,088	0,065
-609,459	346,828	-0,044	-0,064
-608,444	68,575	0,100	-0,075
-607,430	-83,838	-0,138	0,032
-606,415	-200,000	-0,006	0,092
-605,401	-200,000	0,003	0,049
-604,386	-200,000	0,021	-0,095
-603,371	307,386	0,084	0,115
-602,357	-200,000	-0,003	-0,073
-601,342	-200,000	-0,027	0,127
-600,328	800,000	-0,038	-0,078
-599,313	800,000	-0,026	-0,071
-598,298	-147,326	-0,156	0,010
-597,284	29,941	-0,077	0,048
-596,269	800,000	-0,039	-0,084
-595,255	-87,999	0,045	-0,010
-594,240	-195,319	-0,028	0,000
-593,225	-200,000	-0,044	-0,159
-592,211	716,470	0,071	-0,138
-591,196	-138,882	0,044	0,003
-590,182	-106,060	0,049	-0,008
-589,167	180,209	-0,087	-0,093
-588,152	38,401	0,139	0,090
-587,138	-132,865	0,029	0,003
-586,123	-96,886	-0,123	-0,023
-585,109	161,447	-0,045	-0,046
-584,094	-86,093	0,028	0,006
-583,079	-76,783	0,092	-0,023
-582,065	312,155	-0,054	0,074
-581,050	-96,815	0,044	-0,008
-580,036	-200,000	-0,019	-0,068
-579,021	587,849	-0,039	-0,070
-578,006	5,515	0,002	0,001
-576,992	199,202	0,096	-0,108
-575,977	-155,988	-0,070	0,003
-574,963	175,836	-0,057	0,061
-573,948	-69,135	0,052	-0,015
-572,934	-36,758	-0,114	-0,044
-571,919	-200,000	-0,008	-0,104
-570,904	69,797	0,032	0,024
-569,890	-200,000	0,009	0,048
-568,875	-71,937	0,137	-0,037
-567,861	785,952	0,023	0,047
-566,846	168,693	0,069	-0,072
-565,831	-200,000	0,025	0,086
-564,817	-200,000	-0,001	-0,052
-563,802	515,051	-0,053	0,091
-562,788	800,000	-0,011	-0,025
-561,773	177,420	0,061	-0,065
-560,758	7,541	0,050	-0,027
-559,744	-200,000	-0,002	-0,019
-558,729	34,082	0,091	0,058
-557,715	-200,000	-0,019	0,069
-556,700	387,755	-0,066	-0,100
-555,685	250,269	0,010	-0,012
-554,671	124,961	-0,059	0,054
-553,656	-200,000	-0,019	0,128
-552,642	384,660	-0,047	-0,070
-551,627	84,929	-0,019	0,015
-550,612	800,000	-0,055	0,142
-549,598	13,849	0,012	-0,007
-548,583	-52,464	0,036	-0,012
-547,569	6,310	-0,095	0,051
-546,554	88,148	0,059	-0,048
-545,539	-200,000	-0,003	0,038
-544,525	-200,000	0,012	0,145
-543,510	-200,000	0,143	0,000
-542,496	800,000	0,067	-0,209
-541,481	-51,756	0,014	-0,005
-540,466	-200,000	0,004	-0,039
-539,452	220,918	0,046	0,054
-538,437	800,000	0,014	0,033
-537,423	-200,000	-0,000	-0,065
-536,408	-144,102	0,111	0,007
-535,393	318,286	-0,032	-0,044
-534,379	327,294	-0,064	-0,090
-533,364	800,000	0,076	0,169
-532,350	41,132	0,076	0,050
-531,335	196,912	-0,030	-0,033
-530,321	-200,000	0,019	0,145
-529,306	642,019	-0,060	0,112
-528,291	116,830	0,031	0,027
-527,277	-200,000	-0,009	-0,081
-526,262	-37,518	-0,125	-0,048
-525,248	-150,038	0,125	-0,007
-524,233	37,458	-0,100	0,065
-523,218	-107,630	0,112	0,018
-522,204	16,978	0,071	0,041
-521,189	77,192	0,066	0,051
-520,175	-200,000	0,008	-0,084
-519,160	-1,861	0,001	-0,001
-518,145	-160,678	0,085	-0,003
-517,131	-200,000	-0,036	-0,153
-516,116	271,473	-0,028	0,037
-515,102	-200,000	-0,004	-0,035
-514,087	74,960	0,097	-0,074
-513,072	800,000	-0,048	0,145
-512,058	-200,000	0,011	-0,076
-511,043	800,000	0,034	0,084
-510,029	-200,000	0,046	0,226
-509,014	-73,810	0,162	-0,043
-507,999	189,621	-0,112	-0,123
-506,985	800,000	-0,035	0,101
-505,970	-106,937	-0,134	-0,021
-504,956	-40,165	0,052	0,020
-503,941	266,378	0,081	-0,103
-502,926	518,006	0,024	-0,042
-501,912	118,132	0,082	0,074
-500,897	800,000	-0,012	-0,031
-499,883	74,484	-0,042	0,033
-498,868	-64,377	-0,048	-0,014
-497,853	95,888	0,050	0,042
-496,839	-200,000	-0,003	-0,100
-495,824	-107,612	0,114	0,018
-494,810	-43,510	0,062	0,023
-493,795	240,911	0,044	-0,053
-492,781	-200,000	0,029	-0,103
-491,766	162,075	-0,124	-0,127
-490,751	-91,909	-0,116	0,024
-489,737	84,747	-0,050	0,040
-488,722	800,000	0,058	-0,135
-487,708	468,643	-0,069	0,114
-486,693	800,000	-0,024	0,076
-485,678	274,541	-0,028	-0,037
-484,664	19,844	0,037	0,022
-483,649	144,843	0,110	-0,107
-482,635	-36,907	0,073	-0,028
-481,620	-113,247	0,118	0,017
-480,605	58,291	0,050	-0,036
-479,591	-57,052	0,073	-0,023
-478,576	59,716	-0,094	-0,067
-477,562	131,286	-0,080	-0,075
-476,547	-200,000	-0,024	-0,114
-475,532	187,376	-0,050	-0,055
-474,518	74,957	0,018	0,014
-473,503	-167,859	0,035	-0,001
-472,489	-191,249	0,039	-0,000
-471,474	423,852	0,135	-0,213
-470,459	231,340	-0,087	-0,104
-469,445	800,000	-0,024	-0,063
-468,430	320,682	-0,061	0,085
-467,416	-200,000	-0,018	0,103
-466,401	-82,645	0,077	-0,018
-465,386	213,041	-0,029	0,034
-464,372	-33,905	-0,088	-0,035
-463,357	-40,505	0,093	0,035
-462,343	454,766	0,061	0,099
-461,328	12,127	0,005	0,003
-460,313	561,361	-0,024	0,042
-459,299	-189,057	0,190	0,002
-458,284	800,000	0,059	-0,169
-457,270	-200,000	-0,004	-0,066
-456,255	-200,000	0,006	0,108
-455,241	-101,269	-0,086	-0,015
-454,226	-200,000	-0,008	-0,061
-453,211	-132,209	-0,078	-0,007
-452,197	-2,007	0,167	-0,085
-451,182	800,000	0,024	-0,059
-450,168	386,295	-0,116	0,175
-449,153	-190,158	-0,068	0,001
-448,138	54,136	-0,093	0,065
-447,124	-200,000	-0,008	-0,041
-446,109	426,665	-0,028	-0,044
-445,095	118,246	-0,043	-0,039
-444,080	589,662	0,052	-0,093
-443,065	-200,000	-0,013	0,155
-442,051	684,836	-0,070	-0,134
-441,036	800,000	-0,019	0,056
-440,022	426,329	-0,032	0,051
-439,007	4,104	0,026	0,014
-437,992	89,450	0,082	-0,066
-436,978	702,801	-0,064	0,124
-435,963	800,000	0,018	-0,043
-434,949	480,547	-0,021	-0,035
-433,934	-59,101	0,111	0,035
-432,919	800,000	0,031	-0,085
-431,905	194,884	0,089	0,099
-430,890	-200,000	0,033	-0,115
-429,876	-84,422	-0,070	0,016
-428,861	463,205	-0,030	0,049
-427,846	10,781	-0,109	0,061
-426,832	794,097	0,022	0,044
-425,817	-200,000	-0,007	-0,033
-424,803	-97,209	0,108	0,020
-423,788	383,127	0,019	-0,029
-422,773	-79,075	0,035	-0,009
-421,759	116,377	0,074	0,066
-420,744	85,736	-0,154	0,123
-419,730	88,100	-0,054	-0,043
-418,715	-174,963	-0,130	-0,003
-417,701	-200,000	-0,002	-0,029
-416,686	-87,783	0,112	0,024
-415,671	800,000	0,023	-0,049
-414,657	322,296	0,082	0,113
-413,642	288,323	-0,069	0,091
-412,628	800,000	-0,078	0,160
-411,613	42,999	-0,108	-0,071
-410,598	-200,000	0,010	-0,079
-409,584	778,315	-0,049	-0,098
-408,569	800,000	0,047	0,131
-407,555	191,780	-0,085	-0,094
-406,540	430,758	0,043	0,068
-405,525	800,000	0,070	-0,211
-404,511	61,803	-0,118	0,085
-403,496	68,487	0,089	0,067
-402,482	215,345	0,032	-0,037
-401,467	-71,341	0,195	0,053
-400,452	35,670	-0,063	-0,040
-399,438	800,000	0,017	0,038
-398,423	800,000	-0,056	0,150
-397,409	-89,665	0,018	-0,004
-396,394	636,199	0,064	-0,119
-395,379	-10,877	-0,067	-0,032
-394,365	-200,000	0,003	0,060
-393,350	156,276	0,081	0,082
-392,336	242,080	-0,063	-0,076
-391,321	-18,731	-0,103	-0,047
-390,306	800,000	0,041	-0,129
-389,292	-106,293	0,069	0,011
-388,277	800,000	-0,037	0,110
-387,263	-200,000	0,032	0,163
-386,248	800,000	0,041	0,089
-385,233	-200,000	-0,020	0,103
-384,219	-200,000	0,009	0,099
-383,204	135,792	-0,043	0,041
-382,190	800,000	-0,022	-0,058
-381,175	-126,188	-0,108	0,012
-380,160	-200,000	0,025	-0,090
-379,146	-60,409	0,110	0,034
-378,131	196,470	-0,069	0,076
-377,117	604,447	0,060	0,109
-376,102	115,611	-0,033	0,030
-375,088	-200,000	0,000	-0,051
-374,073	-200,000	0,009	-0,037
-373,058	534,168	0,055	0,095
-372,044	-87,678	0,142	0,031
-371,029	-200,000	-0,007	0,057
-370,015	-200,000	0,013	-0,098
-369,000	244,083	-0,053	-0,064
-367,985	-100,234	-0,079	-0,014
-366,971	-200,000	0,015	-0,095
-365,956	190,745	-0,026	-0,028
-364,942	-166,961	-0,114	-0,003
-363,927	199,668	0,071	0,079
-362,912	82,257	0,049	-0,039
-361,898	36,514	-0,042	-0,027
-360,883	161,540	0,031	-0,032
-359,869	-14,321	0,037	0,017
-358,854	-200,000	-0,019	0,094
-357,839	172,177	-0,081	-0,085
-356,825	226,601	0,056	0,065
-355,810	65,216	0,087	-0,063
-354,796	-200,000	-0,001	0,016
-353,781	-11,424	0,060	0,029
-352,766	72,807	-0,070	0,053
-351,752	-77,328	0,179	-0,045
-350,737	800,000	0,063	0,187
-349,723	-200,000	-0,009	-0,059
-348,708	94,612	0,094	-0,077
-347,693	-53,790	-0,096	-0,032
-346,679	-200,000	0,008	-0,088
-345,664	-35,864	-0,079	-0,031
-344,650	280,785	-0,119	0,154
-343,635	148,409	0,034	0,033
-342,620	-153,117	0,068	0,003
-341,606	-200,000	0,023	0,074
-340,591	6,413	0,143	-0,077
-339,577	222,883	-0,076	-0,089
-338,562	793,839	0,058	-0,117
-337,548	-200,000	0,050	-0,170
-336,533	30,043	0,033	0,020
-335,518	676,578	0,094	0,177
-334,504	-159,522	-0,028	0,001
-333,489	23,842	-0,152	-0,091
-332,475	-200,000	0,008	-0,067
-331,460	-71,798	-0,113	-0,030
-330,445	121,328	-0,096	-0,087
-329,431	800,000	0,032	-0,087
-328,416	-46,717	-0,035	0,012
-327,402	80,425	0,103	0,080
-326,387	71,142	-0,106	-0,079
-325,372	-200,000	0,017	-0,127
-324,358	751,969	0,061	-0,120
-323,343	647,129	0,061	0,113
-322,329	-116,897	-0,088	0,012
-321,314	800,000	0,059	0,177
-320,299	800,000	-0,006	0,016
-319,285	-182,749	0,050	0,001
-318,270	-27,152	-0,162	-0,068
-317,256	-78,397	0,024	-0,006
-316,241	-34,987	0,044	-0,017
-315,226	-200,000	-0,004	-0,165
-314,212	15,554	0,072	-0,041
-313,197	35,270	0,081	0,051
-312,183	800,000	0,043	0,103
-311,168	-200,000	-0,020	-0,078
-310,153	313,508	-0,093	-0,127
-309,139	168,930	0,099	-0,102
-308,124	-147,714	-0,106	-0,006
-307,110	800,000	-0,073	0,155
-306,095	192,922	-0,059	0,065
-305,080	136,988	0,049	0,046
-304,066	-93,747	-0,218	-0,043
-303,051	-200,000	0,016	-0,064
-302,037	800,000	-0,050	-0,103
-301,022	-134,586	-0,028	0,002
-300,008	-200,000	-0,006	0,032
-298,993	118,670	-0,047	0,042
-297,978	800,000	-0,083	0,185
-296,964	-97,547	0,043	0,008
-295,949	800,000	0,023	0,058
-294,935	-200,000	0,005	0,033
-293,920	-137,081	-0,082	-0,007
-292,905	132,095	0,104	0,097
-291,891	113,360	0,039	0,034
-290,876	609,981	0,007	-0,012
-289,862	87,299	-0,057	0,046
-288,847	304,686	0,035	-0,047
-287,832	9,129	0,112	-0,061
-286,818	202,775	0,020	0,022
-285,803	-55,804	0,069	-0,022
-284,789	-200,000	0,004	0,136
-283,774	-200,000	0,022	-0,143
-282,759	800,000	-0,025	-0,076
-281,745	3,954	-0,061	0,032
-280,730	-52,456	-0,096	0,032
-279,716	-137,335	0,077	0,006
-278,701	-200,000	-0,030	-0,128
-277,686	-102,195	0,065	0,011
-276,672	-39,713	-0,061	-0,023
-275,657	-109,262	0,040	-0,006
-274,643	227,065	-0,045	-0,053
-273,628	53,844	-0,102	-0,071
-272,613	735,434	0,041	-0,080
-271,599	-200,000	-0,003	0,206
-270,584	80,807	0,150	0,117
-269,570	-148,684	-0,090	0,005
-268,555	-200,000	0,014	-0,045
-267,540	800,000	0,083	-0,178
-266,526	-60,922	-0,071	-0,022
-265,511	-151,768	0,086	-0,004
-264,497	800,000	0,033	-0,067
-263,482	43,287	0,084	0,055
-262,467	790,246	0,039	-0,078
-261,453	138,880	0,057	-0,054
-260,438	-200,000	0,003	-0,198
-259,424	-73,187	-0,135	0,035
-258,409	122,536	-0,059	-0,053
-257,395	-11,772	0,071	0,034
-256,380	646,636	0,023	-0,043
-255,365	201,178	0,077	0,086
-254,351	800,000	0,023	0,055
-253,336	125,543	0,043	0,039
-252,322	-99,291	-0,075	0,013
-251,307	-200,000	0,013	-0,104
-250,292	-108,172	-0,158	-0,025
-249,278	-174,945	0,140	-0,003
-248,263	800,000	-0,041	0,093
-247,249	-200,000	0,004	0,034
-246,234	67,599	-0,130	0,096
-245,219	800,000	-0,054	-0,116
-244,205	665,205	-0,097	0,182
-243,190	60,695	-0,027	-0,019
-242,176	-48,645	0,124	0,043
-241,161	471,173	-0,064	0,105
-240,146	800,000	-0,056	0,157
-239,132	-2,399	-0,032	0,016
-238,117	-43,890	-0,090	-0,033
-237,103	141,849	-0,042	-0,040
-236,088	-69,350	-0,080	-0,022
-235,073	7,712	0,055	0,030
-234,059	-57,627	0,058	-0,018
-233,044	-200,000	-0,004	0,032
-232,030	527,060	0,060	0,103
-231,015	103,294	0,092	-0,078
-230,000	-150,461	0,067	-0,004
-228,986	513,223	0,032	-0,054
-227,971	-56,319	0,137	-0,044
-226,957	244,896	0,090	-0,109
-225,942	122,677	0,045	0,040
-224,927	121,980	-0,037	0,033
-223,913	478,654	0,025	-0,041
-222,898	-132,430	-0,079	0,007
-221,884	-91,353	-0,058	0,012
-220,869	-200,000	-0,014	-0,063
-219,855	368,034	0,013	0,019
-218,840	-97,072	-0,084	0,016
-217,825	-70,514	-0,040	-0,011
-216,811	-157,826	0,068	-0,003
-215,796	800,000	-0,042	-0,092
-214,782	800,000	-0,013	-0,041
-213,767	-200,000	0,024	-0,091
-212,752	217,349	-0,035	0,041
-211,738	-200,000	0,008	0,069
-210,723	-200,000	-0,000	0,121
-209,709	163,765	-0,042	0,043
-208,694	-128,861	-0,102	-0,010
-207,679	329,231	0,040	-0,056
-206,665	-163,081	-0,083	0,003
-205,650	251,803	0,020	-0,024
-204,636	-124,660	-0,075	-0,008
-203,621	-25,532	-0,205	-0,087
-202,606	800,000	0,071	0,153
-201,592	800,000	-0,040	0,097
-200,577	296,607	0,022	0,030
-199,563	-200,000	-0,010	0,061
-198,548	-101,080	0,174	0,030
-197,533	54,129	-0,124	-0,086
-196,519	-200,000	-0,019	-0,079
-195,504	180,999	0,049	0,052
-194,490	-83,569	-0,202	-0,046
-193,475	800,000	0,028	-0,082
-192,460	609,753	0,084	0,151
-191,446	-200,000	0,000	0,056
-190,431	-200,000	-0,006	0,068
-189,417	26,989	0,102	0,062
-188,402	-200,000	-0,015	0,122
-187,387	132,501	0,085	0,079
-186,373	-200,000	-0,028	-0,148
-185,358	174,783	-0,030	0,031
-184,344	186,259	-0,027	-0,029
-183,329	2,831	0,053	-0,027
-182,315	-200,000	-0,018	-0,067
-181,300	-41,309	-0,064	0,024
-180,285	-200,000	0,004	0,109
-179,271	241,095	-0,074	0,089
-178,256	-200,000	-0,010	-0,059
-177,242	-149,192	-0,103	-0,006
-176,227	-103,809	0,125	0,021
-175,212	-71,366	0,079	0,021
-174,198	-200,000	-0,032	0,188
-173,183	120,957	-0,179	0,160
-172,169	629,127	0,030	0,055
-171,154	-200,000	-0,001	0,020
-170,139	276,611	0,116	-0,148
-169,125	257,116	-0,067	0,084
-168,110	-62,369	-0,113	0,034
-167,096	-31,170	0,088	-0,036
-166,081	-200,000	0,003	-0,190
-165,066	161,887	-0,108	-0,109
-164,052	100,450	-0,057	-0,048
-163,037	-200,000	0,012	0,090
-162,023	-200,000	0,046	0,242
-161,008	-200,000	-0,013	-0,125
-159,993	-40,999	0,056	0,021
-158,979	-200,000	0,009	-0,049
-157,964	204,804	-0,082	0,092
-156,950	-18,492	-0,179	-0,080
-155,935	206,293	0,044	-0,049
-154,920	-69,688	0,127	-0,035
-153,906	-200,000	-0,002	0,075
-152,891	-97,021	0,057	-0,011
-151,877	133,860	-0,031	-0,029
-150,862	-200,000	-0,006	-0,063
-149,847	-200,000	-0,040	-0,203
-148,833	66,881	0,060	0,044
-147,818	-95,700	0,140	0,027
-146,804	-200,000	-0,003	0,075
-145,789	-99,101	0,058	0,010
-144,775	406,304	0,062	0,094
-143,760	-200,000	-0,042	-0,158
-142,745	86,843	-0,127	-0,101
-141,731	-200,000	0,047	-0,210
-140,716	-60,723	-0,117	-0,035
-139,702	-67,974	0,034	0,010
-138,687	72,819	-0,048	0,036
-137,672	-82,734	-0,097	-0,022
-136,658	22,126	-0,134	-0,079
-135,643	800,000	-0,052	-0,138
-134,629	-139,436	-0,174	-0,013
-133,614	-200,000	0,023	0,133
-132,599	464,898	-0,063	0,102
-131,585	-145,266	0,087	0,006
-130,570	-77,415	-0,023	0,006
-129,556	800,000	0,050	-0,150
-128,541	-200,000	0,006	0,057
-127,526	800,000	-0,010	-0,023
-126,512	-127,016	0,063	-0,007
-125,497	11,082	0,069	-0,038
-124,483	800,000	-0,028	-0,063
-123,468	466,272	0,034	0,055
-122,453	-200,000	-0,001	-0,034
-121,439	43,234	0,094	-0,062
-120,424	800,000	-0,044	-0,134
