DTS Sentinel unit serial number:	SN410029Multiplexer serial number:	ORYXHardware model number:	OX2-SRSoftware version number:	ORYX F/W v4,00 Oryx Data Collector v3.7.2.0data status	okinstallation	B5 Nyhavnadifferential loss correction	single-endedforward channel	channel 2reverse channel	N/Adate	2023/12/13time	09:42:14forward acquisition time	300,00reverse acquisition time	0,00gamma	499,1914k internal	0,3160k external	0,3160temperature offset calibration	1,0000default loss term (dB/km)	0,3820temperature slope calibration	1,0000multiplexer offset coefficient	1,0000multiplexer slope coefficient	1,0000fibre end	0,00T internal ref (°C)	13,66T ext. ref 1 (°C)	-2,70T ext. ref 2 (°C)	-3,00length (m)	temperature (°C)	Stokes	anti-Stokes-744,400	-60,496	0,070	-0,022
-743,385	-182,471	-0,270	0,004
-742,371	76,261	0,122	0,095
-741,356	-54,845	-0,230	0,076
-740,342	-200,000	0,030	0,136
-739,327	-82,077	-0,356	-0,085
-738,312	800,000	0,032	0,082
-737,298	-128,682	-0,381	0,039
-736,283	-124,946	0,096	0,011
-735,269	-94,630	-0,244	-0,048
-734,254	-129,506	0,211	0,021
-733,239	-97,542	-0,462	-0,087
-732,225	364,989	0,069	0,102
-731,210	-73,598	0,114	-0,030
-730,196	-7,658	0,156	-0,077
-729,181	-59,524	-0,134	0,042
-728,167	800,000	-0,054	0,134
-727,152	-200,000	0,009	0,087
-726,137	118,892	-0,147	-0,134
-725,123	38,708	0,093	0,061
-724,108	-200,000	-0,020	-0,169
-723,094	489,532	0,053	-0,089
-722,079	231,252	0,064	-0,078
-721,064	84,197	0,038	0,031
-720,050	-119,631	0,026	-0,003
-719,035	384,688	-0,066	-0,101
-718,021	37,895	-0,080	-0,052
-717,006	-59,930	-0,195	-0,061
-715,991	118,759	-0,102	0,092
-714,977	714,652	0,072	-0,141
-713,962	69,023	-0,009	-0,007
-712,948	65,597	0,066	-0,049
-711,933	244,686	-0,028	-0,035
-710,918	57,499	0,062	-0,045
-709,904	11,168	-0,100	-0,056
-708,889	800,000	0,014	-0,037
-707,875	642,036	0,018	-0,033
-706,860	47,109	-0,049	0,033
-705,845	-31,446	0,109	0,045
-704,831	319,498	0,034	0,048
-703,816	269,586	-0,113	-0,146
-702,802	298,695	-0,127	-0,172
-701,787	-118,035	0,083	0,011
-700,772	670,626	-0,042	-0,080
-699,758	-173,324	-0,106	0,002
-698,743	800,000	-0,005	0,017
-697,729	-200,000	-0,027	0,144
-696,714	95,502	-0,057	-0,048
-695,699	52,652	-0,130	0,092
-694,685	90,975	0,010	0,009
-693,670	46,897	-0,083	0,057
-692,656	800,000	-0,026	-0,058
-691,641	-200,000	0,011	-0,075
-690,627	800,000	-0,032	-0,100
-689,612	456,970	0,062	0,101
-688,597	-53,604	-0,028	0,009
-687,583	156,031	-0,117	-0,118
-686,568	460,128	-0,066	-0,108
-685,554	800,000	-0,017	-0,046
-684,539	-200,000	-0,009	-0,068
-683,524	416,575	-0,051	-0,080
-682,510	-32,365	0,075	0,030
-681,495	9,207	0,042	0,023
-680,481	-40,705	-0,107	-0,041
-679,466	-66,873	-0,058	-0,017
-678,451	379,132	-0,093	0,140
-677,437	295,505	0,010	-0,014
-676,422	-128,265	0,027	-0,003
-675,408	800,000	0,046	0,143
-674,393	-94,236	-0,065	-0,013
-673,378	406,191	0,023	-0,036
-672,364	51,023	-0,110	-0,077
-671,349	-200,000	-0,018	-0,106
-670,335	-26,033	-0,008	-0,003
-669,320	165,287	-0,085	-0,088
-668,305	309,232	0,062	0,085
-667,291	-200,000	0,007	-0,143
-666,276	1,678	-0,249	-0,131
-665,262	-48,760	0,062	0,022
-664,247	-200,000	-0,010	0,046
-663,232	-200,000	0,024	-0,152
-662,218	-200,000	0,002	-0,038
-661,203	-122,381	0,031	0,004
-660,189	-200,000	-0,007	0,037
-659,174	396,798	-0,083	0,127
-658,159	-164,973	-0,080	-0,003
-657,145	21,871	-0,089	-0,053
-656,130	-200,000	-0,009	0,077
-655,116	758,271	0,011	0,022
-654,101	-200,000	0,002	0,255
-653,086	-200,000	-0,009	-0,050
-652,072	583,692	0,023	-0,042
-651,057	757,157	-0,052	-0,105
-650,043	800,000	-0,052	-0,149
-649,028	800,000	0,039	-0,107
-648,014	800,000	0,016	0,047
-646,999	276,365	-0,074	0,096
-645,984	-129,163	0,092	-0,009
-644,970	110,442	-0,096	-0,084
-643,955	-200,000	0,007	-0,059
-642,941	-200,000	-0,003	-0,012
-641,926	-67,025	0,023	-0,007
-640,911	-66,815	0,051	0,015
-639,897	52,898	0,025	0,018
-638,882	99,971	0,120	0,102
-637,868	-200,000	-0,004	-0,039
-636,853	19,570	-0,113	-0,066
-635,838	215,900	0,010	0,012
-634,824	9,604	0,071	0,039
-633,809	-200,000	-0,000	0,033
-632,795	177,675	-0,037	0,040
-631,780	636,729	0,054	0,101
-630,765	-4,816	-0,136	-0,069
-629,751	94,868	-0,107	-0,089
-628,736	-89,735	-0,201	-0,043
-627,722	800,000	-0,016	0,047
-626,707	-114,265	-0,098	0,014
-625,692	-200,000	0,004	0,074
-624,678	800,000	-0,058	0,186
-623,663	107,937	0,022	-0,020
-622,649	108,550	-0,080	-0,070
-621,634	642,256	-0,010	0,019
-620,619	-200,000	-0,022	-0,172
-619,605	-80,379	0,029	-0,007
-618,590	-40,097	-0,010	-0,004
-617,576	-200,000	-0,034	0,160
-616,561	138,819	-0,076	0,073
-615,546	-110,206	-0,123	-0,019
-614,532	122,516	0,069	-0,063
-613,517	-200,000	-0,030	0,166
-612,503	196,018	0,084	0,094
-611,488	204,977	0,040	0,046
-610,474	-200,000	-0,018	0,070
-609,459	-200,000	0,001	0,167
-608,444	-200,000	0,041	0,137
-607,430	327,344	0,027	-0,037
-606,415	70,724	0,102	-0,077
-605,401	-200,000	0,021	0,086
-604,386	149,841	-0,101	0,100
-603,371	17,863	-0,057	-0,033
-602,357	146,245	0,196	0,193
-601,342	800,000	0,018	0,050
-600,328	-104,712	0,024	-0,004
-599,313	800,000	-0,043	-0,116
-598,298	800,000	0,069	-0,195
-597,284	-200,000	0,034	0,152
-596,269	144,723	0,080	-0,078
-595,255	570,410	0,017	-0,031
-594,240	51,049	0,143	-0,099
-593,225	-134,698	-0,176	0,015
-592,211	800,000	0,024	-0,058
-591,196	18,539	0,016	-0,010
-590,182	208,892	-0,039	-0,045
-589,167	800,000	0,029	0,092
-588,152	220,149	0,069	0,082
-587,138	-39,070	0,142	0,055
-586,123	-200,000	-0,012	-0,116
-585,109	-124,103	0,054	-0,006
-584,094	-111,596	0,149	-0,022
-583,079	51,924	0,110	0,077
-582,065	-48,358	-0,101	0,036
-581,050	-200,000	-0,019	0,070
-580,036	-8,244	0,065	0,032
-579,021	-23,972	-0,149	-0,065
-578,006	800,000	0,045	-0,095
-576,992	404,522	0,063	0,097
-575,977	222,378	-0,171	0,202
-574,963	262,064	-0,049	-0,062
-573,948	800,000	-0,034	0,103
-572,934	-200,000	-0,013	0,196
-571,919	-12,899	-0,132	0,063
-570,904	800,000	0,055	-0,118
-569,890	668,448	-0,022	-0,041
-568,875	-200,000	0,031	0,164
-567,861	267,994	0,083	0,106
-566,846	800,000	0,042	-0,103
-565,831	33,769	-0,048	-0,030
-564,817	-104,750	-0,108	0,018
-563,802	-105,868	-0,152	-0,025
-562,788	133,177	-0,132	-0,125
-561,773	800,000	0,055	0,128
-560,758	11,416	0,048	0,027
-559,744	800,000	-0,041	0,109
-558,729	-19,441	0,098	-0,044
-557,715	-16,932	0,099	0,046
-556,700	109,714	-0,122	-0,107
-555,685	-200,000	-0,013	-0,086
-554,671	91,162	0,088	0,072
-553,656	-200,000	-0,000	0,136
-552,642	800,000	-0,049	0,156
-551,627	27,128	0,143	0,088
-550,612	-200,000	0,129	0,000
-549,598	522,920	-0,007	0,011
-548,583	-112,701	0,066	-0,009
-547,569	-57,266	0,074	-0,024
-546,554	-200,000	-0,003	0,058
-545,539	-200,000	0,033	0,107
-544,525	-110,908	0,051	0,008
-543,510	-200,000	-0,005	0,028
-542,496	105,315	0,109	-0,094
-541,481	-200,000	-0,010	0,065
-540,466	770,792	-0,095	-0,190
-539,452	-200,000	-0,011	0,100
-538,437	123,534	0,043	0,039
-537,423	60,580	-0,105	-0,076
-536,408	-1,215	0,032	-0,016
-535,393	-127,523	-0,214	-0,022
-534,379	-200,000	0,013	-0,231
-533,364	800,000	0,029	0,061
-532,350	207,692	-0,056	-0,064
-531,335	-47,781	-0,012	-0,004
-530,321	274,762	0,101	0,132
-529,306	-109,275	0,107	-0,016
-528,291	-67,564	-0,097	0,028
-527,277	-200,000	0,002	-0,038
-526,262	-53,003	0,061	0,020
-525,248	-200,000	-0,023	-0,115
-524,233	-200,000	-0,007	0,051
-523,218	63,904	0,067	0,049
-522,204	800,000	0,048	0,145
-521,189	219,184	0,074	0,087
-520,175	755,185	-0,067	-0,132
-519,160	-38,236	-0,153	-0,059
-518,145	631,794	-0,019	-0,035
-517,131	168,279	0,039	-0,041
-516,116	154,801	-0,029	-0,029
-515,102	-157,003	-0,070	0,003
-514,087	-200,000	0,039	-0,188
-513,072	235,687	-0,093	-0,113
-512,058	-200,000	0,051	-0,203
-511,043	-200,000	-0,025	0,118
-510,029	-162,754	0,098	-0,003
-509,014	-114,574	0,069	-0,010
-507,999	169,924	0,114	0,119
-506,985	-200,000	-0,030	0,121
-505,970	-118,937	0,023	0,003
-504,956	-41,814	0,079	-0,029
-503,941	27,307	0,051	0,031
-502,926	741,592	-0,068	0,134
-501,912	-24,569	-0,068	0,030
-500,897	-200,000	-0,003	0,106
-499,883	-48,670	0,103	-0,036
-498,868	536,702	0,029	-0,051
-497,853	-12,417	0,029	-0,014
-496,839	80,669	0,011	0,008
-495,824	201,439	-0,074	0,083
-494,810	-140,119	0,165	0,012
-493,795	262,824	0,026	0,033
-492,781	-200,000	0,046	0,218
-491,766	800,000	-0,038	-0,108
-490,751	-98,855	-0,051	-0,009
-489,737	509,127	0,011	-0,019
-488,722	-164,633	0,069	-0,002
-487,708	800,000	-0,036	0,107
-486,693	69,401	0,061	-0,045
-485,678	-59,228	-0,088	0,027
-484,664	-200,000	0,013	0,088
-483,649	-141,106	-0,259	-0,019
-482,635	114,141	-0,059	-0,052
-481,620	-200,000	0,007	0,059
-480,605	16,990	0,048	0,028
-479,591	429,959	-0,035	-0,055
-478,576	-188,329	0,042	0,000
-477,562	-200,000	0,015	0,139
-476,547	-200,000	0,008	0,032
-475,532	800,000	-0,041	-0,102
-474,518	-29,091	0,080	-0,033
-473,503	42,838	0,120	0,080
-472,489	-135,216	0,042	-0,004
-471,474	124,315	-0,081	-0,075
-470,459	25,646	-0,015	0,009
-469,445	-200,000	0,034	-0,117
-468,430	473,423	0,021	-0,035
-467,416	-200,000	-0,001	0,025
-466,401	-127,845	-0,028	-0,003
-465,386	800,000	0,046	-0,104
-464,372	-12,602	0,059	0,028
-463,357	800,000	-0,027	-0,057
-462,343	-200,000	-0,044	-0,183
-461,328	158,447	-0,101	-0,102
-460,313	-132,457	-0,040	0,004
-459,299	142,863	0,115	0,111
-458,284	-105,135	0,109	0,018
-457,270	12,511	-0,038	0,021
-456,255	12,681	0,078	-0,044
-455,241	-151,865	-0,164	-0,009
-454,226	65,633	-0,060	-0,044
-453,211	800,000	-0,022	-0,045
-452,197	-200,000	-0,010	0,116
-451,182	-27,903	0,184	0,077
-450,168	-50,588	-0,133	-0,045
-449,153	800,000	0,018	0,047
-448,138	-200,000	-0,012	0,043
-447,124	800,000	0,018	-0,042
-446,109	436,003	0,075	-0,119
-445,095	531,525	0,091	-0,158
-444,080	424,038	-0,058	0,091
-443,065	800,000	-0,019	0,048
-442,051	134,594	-0,062	-0,059
-441,036	-117,646	0,040	-0,005
-440,022	-200,000	0,004	-0,088
-439,007	-200,000	-0,010	-0,095
-437,992	-200,000	-0,015	0,083
-436,978	-86,933	-0,045	0,010
-435,963	51,675	-0,047	0,033
-434,949	169,835	-0,168	0,175
-433,934	750,489	-0,056	-0,110
-432,919	-200,000	0,022	-0,167
-431,905	-102,294	-0,165	-0,029
-430,890	140,739	0,063	-0,061
-429,876	238,908	0,129	-0,156
-428,861	104,313	-0,008	-0,007
-427,846	200,931	0,052	0,059
-426,832	97,482	-0,020	-0,017
-425,817	46,203	-0,042	-0,028
-424,803	-200,000	-0,002	-0,050
-423,788	800,000	0,003	-0,007
-422,773	-200,000	-0,003	-0,019
-421,759	-200,000	0,013	-0,101
-420,744	-44,079	-0,049	-0,018
-419,730	305,561	-0,074	0,101
-418,715	86,395	0,050	0,040
-417,701	-200,000	0,015	0,121
-416,686	166,298	0,072	-0,074
-415,671	800,000	-0,024	-0,054
-414,657	145,054	0,045	0,044
-413,642	-6,527	-0,095	-0,047
-412,628	76,416	0,045	-0,034
-411,613	-77,723	-0,065	-0,016
-410,598	800,000	0,037	0,090
-409,584	125,466	-0,017	-0,015
-408,569	-154,514	0,083	-0,004
-407,555	-113,419	-0,128	-0,018
-406,540	-83,332	0,103	0,024
-405,525	-200,000	-0,014	-0,101
-404,511	-200,000	-0,006	-0,048
-403,496	56,602	0,039	0,027
-402,482	-200,000	0,021	0,089
-401,467	-10,133	0,076	-0,037
-400,452	-131,988	0,072	-0,007
-399,438	-200,000	0,005	0,061
-398,423	800,000	-0,044	-0,100
-397,409	92,565	-0,034	-0,028
-396,394	-38,726	0,141	0,054
-395,379	-200,000	-0,015	0,050
-394,365	386,900	0,032	0,048
-393,350	-29,918	-0,098	0,041
-392,336	-161,897	-0,098	-0,004
-391,321	-68,483	-0,067	0,019
-390,306	-101,999	0,134	0,023
-389,292	-59,140	-0,139	0,043
-388,277	800,000	0,055	-0,151
-387,263	-90,642	0,230	0,048
-386,248	800,000	0,026	0,069
-385,233	-200,000	-0,043	-0,142
-384,219	221,188	-0,041	-0,048
-383,204	708,184	-0,086	-0,165
-382,190	-97,706	0,071	0,013
-381,175	-200,000	-0,046	-0,152
-380,160	-95,479	-0,117	-0,023
-379,146	145,445	-0,106	-0,104
-378,131	261,756	-0,014	-0,017
-377,117	-75,940	0,095	0,024
-376,102	-123,947	0,095	-0,011
-375,088	260,885	-0,071	-0,089
-374,073	-106,559	0,135	-0,022
-373,058	-47,014	-0,061	-0,021
-372,044	-200,000	-0,025	0,156
-371,029	60,670	-0,069	-0,050
-370,015	197,513	-0,075	-0,083
-369,000	402,530	0,062	-0,095
-367,985	800,000	-0,023	-0,071
-366,971	-48,632	-0,163	-0,057
-365,956	-88,443	0,054	-0,012
-364,942	-65,044	0,142	0,041
-363,927	800,000	0,026	0,068
-362,912	102,783	-0,077	-0,066
-361,898	-200,000	-0,023	0,103
-360,883	8,438	0,042	-0,023
-359,869	218,497	0,141	-0,163
-358,854	40,590	0,098	-0,064
-357,839	130,173	-0,012	-0,011
-356,825	-98,984	0,062	0,011
-355,810	-200,000	-0,021	0,121
-354,796	-200,000	0,002	-0,085
-353,781	142,808	-0,082	-0,079
-352,766	-21,291	-0,053	-0,024
-351,752	-125,247	0,073	-0,008
-350,737	-200,000	0,011	0,114
-349,723	-200,000	-0,001	0,206
-348,708	-200,000	0,015	-0,062
-347,693	-200,000	-0,009	0,080
-346,679	-200,000	-0,009	-0,094
-345,664	800,000	-0,097	-0,221
-344,650	800,000	0,014	0,042
-343,635	-181,607	0,103	0,001
-342,620	86,285	0,142	0,113
-341,606	-200,000	-0,037	0,134
-340,591	133,751	0,091	0,085
-339,577	10,732	-0,065	-0,036
-338,562	-154,930	0,236	0,011
-337,548	112,237	0,030	0,026
-336,533	260,966	0,073	0,092
-335,518	-200,000	0,014	0,063
-334,504	188,295	-0,091	0,098
-333,489	800,000	0,023	-0,060
-332,475	59,769	0,035	-0,025
-331,460	800,000	-0,059	-0,125
-330,445	-200,000	0,018	-0,065
-329,431	-92,219	-0,077	0,016
-328,416	80,277	0,045	-0,035
-327,402	10,321	0,058	0,032
-326,387	-126,014	0,169	-0,018
-325,372	-200,000	-0,018	-0,090
-324,358	135,677	-0,158	-0,149
-323,343	-200,000	-0,018	0,067
-322,329	240,363	0,136	-0,165
-321,314	-112,962	-0,189	0,027
-320,299	439,176	-0,072	0,114
-319,285	187,181	-0,015	0,016
-318,270	-99,723	0,108	-0,019
-317,256	-200,000	0,018	-0,072
-316,241	-169,103	-0,195	-0,005
-315,226	271,745	0,076	0,097
-314,212	217,510	-0,065	0,075
-313,197	-17,655	0,057	-0,026
-312,183	-95,030	0,112	-0,022
-311,168	-200,000	0,005	0,045
-310,153	-200,000	0,014	-0,050
-309,139	800,000	0,050	-0,116
-308,124	105,818	0,128	0,110
-307,110	800,000	-0,028	-0,081
-306,095	800,000	0,032	0,066
-305,080	-35,270	0,104	0,041
-304,066	304,554	-0,074	-0,100
-303,051	-71,104	-0,122	0,033
-302,037	-81,995	-0,114	0,027
-301,022	-168,000	0,081	-0,002
-300,008	-139,375	-0,054	0,004
-298,993	-200,000	-0,011	0,100
-297,978	-37,416	0,079	0,030
-296,964	-199,670	0,027	0,000
-295,949	-56,849	0,076	0,024
-294,935	355,983	-0,103	-0,148
-293,920	48,533	0,059	-0,040
-292,905	238,786	-0,044	0,053
-291,891	800,000	0,030	0,065
-290,876	116,639	0,066	0,058
-289,862	274,488	0,039	-0,050
-288,847	215,182	0,074	0,085
-287,832	-200,000	0,003	0,016
-286,818	-200,000	-0,016	-0,108
-285,803	17,350	-0,035	0,020
-284,789	46,372	-0,055	0,037
-283,774	333,493	-0,067	0,094
-282,759	800,000	-0,049	0,153
-281,745	97,483	0,044	0,037
-280,730	252,546	-0,062	0,077
-279,716	144,980	-0,103	-0,100
-278,701	-58,233	0,126	0,039
-277,686	171,977	0,082	0,085
-276,672	151,282	-0,056	0,055
-275,657	-160,423	-0,171	0,007
-274,643	129,157	-0,115	-0,107
-273,628	133,780	-0,023	-0,022
-272,613	255,452	0,085	-0,106
-271,599	594,841	0,074	-0,133
-270,584	800,000	0,006	0,018
-269,570	-95,505	-0,044	0,008
-268,555	-121,950	-0,147	0,017
-267,540	800,000	-0,070	-0,147
-266,526	-200,000	-0,015	-0,195
-265,511	37,593	-0,083	-0,053
-264,497	169,106	-0,101	0,104
-263,482	-149,498	0,148	0,008
-262,467	640,280	0,056	0,103
-261,453	6,479	-0,172	-0,092
-260,438	711,110	-0,033	-0,063
-259,424	33,272	0,006	0,004
-258,409	-200,000	0,040	-0,129
-257,395	-200,000	0,009	-0,091
-256,380	74,766	0,118	-0,090
-255,365	-43,768	0,034	-0,012
-254,351	251,353	-0,065	0,080
-253,336	800,000	-0,091	0,206
-252,322	-54,617	-0,052	-0,017
-251,307	142,045	0,095	-0,091
-250,292	684,488	0,061	0,115
-249,278	-200,000	-0,008	0,101
-248,263	800,000	0,007	0,020
-247,249	18,428	-0,103	-0,059
-246,234	-126,958	-0,023	0,002
-245,219	-200,000	0,009	-0,059
-244,205	12,362	0,030	0,017
-243,190	252,330	-0,044	-0,054
-242,176	-200,000	0,009	0,074
-241,161	139,660	-0,109	-0,104
-240,146	-200,000	-0,047	0,183
-239,132	132,803	-0,142	-0,132
-238,117	-200,000	-0,001	-0,101
-237,103	-200,000	0,021	-0,083
-236,088	35,383	0,072	-0,046
-235,073	-134,178	0,038	-0,003
-234,059	-200,000	-0,018	0,084
-233,044	-115,752	0,116	0,015
-232,030	-200,000	0,004	-0,029
-231,015	800,000	0,065	-0,158
-230,000	93,056	0,066	-0,054
-228,986	229,581	0,046	0,055
-227,971	-200,000	-0,014	-0,081
-226,957	-200,000	-0,025	0,085
-225,942	-80,226	0,186	0,045
-224,927	315,486	-0,035	0,048
-223,913	-200,000	0,001	0,076
-222,898	-12,722	0,133	0,062
-221,884	-200,000	-0,030	-0,100
-220,869	-94,412	0,090	-0,018
-219,855	-200,000	-0,035	0,163
-218,840	-45,592	0,125	0,045
-217,825	5,090	-0,031	-0,016
-216,811	109,113	-0,063	-0,054
-215,796	-102,746	-0,114	-0,019
-214,782	-200,000	-0,031	0,101
-213,767	-148,678	0,013	0,001
-212,752	100,265	-0,178	-0,149
-211,738	800,000	0,076	-0,160
-210,723	46,929	0,068	0,046
-209,709	41,311	-0,110	0,072
-208,694	82,921	0,086	0,068
-207,679	-72,365	-0,134	0,035
-206,665	800,000	-0,043	0,113
-205,650	173,013	0,045	0,047
-204,636	-200,000	0,001	0,126
-203,621	93,233	-0,092	0,075
-202,606	-200,000	0,023	-0,087
-201,592	-200,000	-0,032	-0,137
-200,577	212,128	0,036	0,041
-199,563	-155,985	-0,127	-0,006
-198,548	800,000	0,091	0,193
-197,533	105,511	0,048	-0,041
-196,519	-200,000	-0,006	0,057
-195,504	-200,000	-0,002	-0,083
-194,490	-2,243	-0,035	0,018
-193,475	-200,000	-0,039	0,000
-192,460	17,990	-0,089	0,051
-191,446	-200,000	0,003	0,027
-190,431	149,914	0,095	-0,093
-189,417	-188,938	-0,126	-0,001
-188,402	745,419	0,039	-0,076
-187,387	39,121	0,009	0,006
-186,373	165,685	-0,066	-0,067
-185,358	-200,000	-0,009	-0,075
-184,344	-200,000	0,006	-0,033
-183,329	218,481	0,080	0,092
-182,315	800,000	0,033	0,097
-181,300	0,004	0,086	-0,044
-180,285	-200,000	-0,016	0,092
-179,271	-126,524	-0,173	-0,018
-178,256	-200,000	-0,036	-0,117
-177,242	119,074	-0,119	-0,106
-176,227	710,869	0,028	0,054
-175,212	145,923	0,029	0,028
-174,198	444,447	0,047	0,075
-173,183	208,088	0,047	0,053
-172,169	6,943	-0,101	-0,054
-171,154	800,000	0,030	-0,090
-170,139	800,000	0,007	-0,021
-169,125	-45,201	0,095	-0,034
-168,110	-155,825	0,030	0,001
-167,096	218,196	0,012	-0,014
-166,081	-22,200	-0,039	-0,017
-165,066	-200,000	-0,009	-0,148
-164,052	-200,000	0,004	-0,055
-163,037	800,000	-0,006	-0,016
-162,023	3,784	0,016	-0,008
-161,008	-200,000	0,013	0,055
-159,993	-200,000	0,004	0,070
-158,979	212,550	-0,076	0,086
-157,964	-200,000	0,028	0,092
-156,950	800,000	-0,036	-0,110
-155,935	-117,015	0,123	0,016
-154,920	7,260	-0,091	0,049
-153,906	129,898	0,039	0,036
-152,891	-80,090	-0,190	-0,046
-151,877	289,536	-0,040	-0,052
-150,862	361,329	0,034	-0,050
-149,847	-200,000	0,036	-0,207
-148,833	-122,059	-0,075	0,009
-147,818	145,320	-0,020	-0,019
-146,804	-101,753	-0,026	-0,004
-145,789	683,950	0,022	0,042
-144,775	628,117	-0,053	-0,096
-143,760	37,442	-0,103	-0,066
-142,745	-200,000	0,022	-0,140
-141,731	-56,405	0,087	-0,028
-140,716	-75,108	0,056	0,014
-139,702	-110,831	-0,069	0,010
-138,687	800,000	-0,029	0,079
-137,672	-200,000	0,014	0,098
-136,658	-45,099	-0,158	-0,056
-135,643	675,663	-0,025	0,047
-134,629	-63,286	-0,119	-0,035
-133,614	350,428	0,055	0,078
-132,599	191,231	-0,033	0,035
-131,585	462,550	0,067	0,107
-130,570	-200,000	-0,025	-0,142
-129,556	92,238	0,039	0,031
-128,541	-79,879	-0,180	-0,043
-127,526	-200,000	0,000	0,010
-126,512	-200,000	0,004	0,037
-125,497	9,703	0,125	-0,068
-124,483	-65,704	-0,108	0,031
-123,468	-81,934	0,147	-0,034
-122,453	37,733	-0,124	-0,079
-121,439	236,165	0,045	-0,054
-120,424	-200,000	0,000	-0,087
