DTS Sentinel unit serial number:	SN410029Multiplexer serial number:	ORYXHardware model number:	OX2-SRSoftware version number:	ORYX F/W v4,00 Oryx Data Collector v3.7.2.0data status	okinstallation	B5 Nyhavnadifferential loss correction	single-endedforward channel	channel 2reverse channel	N/Adate	2023/12/14time	01:42:13forward acquisition time	300,00reverse acquisition time	0,00gamma	499,1914k internal	0,3154k external	0,3154temperature offset calibration	1,0000default loss term (dB/km)	0,3820temperature slope calibration	1,0000multiplexer offset coefficient	1,0000multiplexer slope coefficient	1,0000fibre end	0,00T internal ref (°C)	8,69T ext. ref 1 (°C)	-7,36T ext. ref 2 (°C)	-7,42length (m)	temperature (°C)	Stokes	anti-Stokes-744,400	-43,514	0,123	0,046
-743,385	-62,562	-0,331	-0,101
-742,371	-34,257	-0,063	0,025
-741,356	-65,554	-0,227	-0,067
-740,342	-200,000	-0,015	0,146
-739,327	-144,307	-0,335	-0,023
-738,312	-120,232	0,059	-0,007
-737,298	-28,320	-0,350	-0,148
-736,283	-200,000	0,209	-0,001
-735,269	-49,598	-0,408	-0,142
-734,254	137,586	0,053	0,051
-733,239	-54,179	-0,507	-0,169
-732,225	-7,485	0,326	0,162
-731,210	103,195	0,076	0,066
-730,196	777,722	-0,083	-0,168
-729,181	125,440	0,052	-0,048
-728,167	-200,000	-0,023	-0,101
-727,152	-108,006	-0,165	-0,026
-726,137	800,000	0,086	-0,222
-725,123	-200,000	-0,014	-0,105
-724,108	-28,614	-0,081	-0,034
-723,094	-20,459	-0,062	0,028
-722,079	-9,556	-0,131	-0,064
-721,064	800,000	-0,030	0,066
-720,050	439,113	0,018	-0,029
-719,035	16,714	-0,082	0,048
-718,021	-200,000	0,004	-0,053
-717,006	-0,836	-0,049	-0,025
-715,991	-82,298	0,067	0,016
-714,977	-200,000	0,013	-0,042
-713,962	12,746	-0,073	-0,042
-712,948	12,867	0,043	-0,025
-711,933	-200,000	0,003	0,055
-710,918	336,312	0,004	-0,006
-709,904	283,734	0,036	-0,048
-708,889	-7,985	-0,193	0,096
-707,875	-67,895	-0,073	-0,021
-706,860	-70,593	-0,130	-0,036
-705,845	-200,000	0,015	0,103
-704,831	-200,000	-0,000	-0,019
-703,816	-99,156	0,034	-0,006
-702,802	199,104	0,068	0,077
-701,787	44,705	0,036	-0,024
-700,772	-113,232	-0,178	-0,025
-699,758	253,768	-0,017	0,021
-698,743	-200,000	0,002	0,008
-697,729	-200,000	-0,008	0,050
-696,714	53,824	0,086	0,061
-695,699	-200,000	0,005	-0,074
-694,685	-200,000	-0,001	-0,038
-693,670	800,000	-0,060	-0,128
-692,656	51,568	-0,041	-0,029
-691,641	-33,942	0,121	0,049
-690,627	-46,852	-0,144	-0,051
-689,612	242,173	0,030	0,037
-688,597	-167,906	-0,064	-0,002
-687,583	377,543	0,048	0,073
-686,568	-44,214	-0,101	0,037
-685,554	17,305	0,011	-0,006
-684,539	389,915	-0,036	0,055
-683,524	127,235	-0,022	-0,021
-682,510	-200,000	-0,000	-0,038
-681,495	-131,946	0,091	0,009
-680,481	-200,000	0,006	-0,104
-679,466	-34,567	-0,212	-0,085
-678,451	92,459	-0,028	-0,023
-677,437	108,481	-0,043	-0,038
-676,422	-200,000	0,039	-0,128
-675,408	37,712	-0,039	-0,026
-674,393	217,842	-0,038	0,045
-673,378	762,365	-0,058	-0,116
-672,364	-76,329	-0,142	-0,037
-671,349	-200,000	-0,005	-0,021
-670,335	800,000	0,024	-0,069
-669,320	800,000	0,023	0,056
-668,305	120,111	-0,023	-0,021
-667,291	-102,004	-0,029	0,005
-666,276	-95,973	0,022	0,004
-665,262	-200,000	-0,002	0,180
-664,247	681,545	-0,040	-0,077
-663,232	-194,213	-0,026	-0,000
-662,218	114,704	-0,009	-0,008
-661,203	103,199	0,042	-0,036
-660,189	800,000	0,018	-0,043
-659,174	800,000	-0,049	-0,115
-658,159	800,000	-0,032	-0,071
-657,145	-200,000	-0,028	-0,170
-656,130	-200,000	0,006	-0,026
-655,116	751,945	-0,033	-0,066
-654,101	528,525	-0,071	-0,124
-653,086	-200,000	-0,014	-0,100
-652,072	-122,306	-0,067	0,008
-651,057	-98,069	-0,160	0,030
-650,043	-180,983	0,044	-0,001
-649,028	-6,608	0,101	0,050
-648,014	-200,000	-0,029	0,103
-646,999	10,929	0,150	0,084
-645,984	187,303	-0,064	0,070
-644,970	800,000	0,039	-0,107
-643,955	-200,000	-0,030	0,128
-642,941	468,358	0,025	-0,041
-641,926	800,000	-0,038	-0,082
-640,911	359,342	-0,033	-0,049
-639,897	800,000	0,046	0,124
-638,882	15,925	0,059	-0,034
-637,868	-38,498	-0,157	-0,061
-636,853	169,786	0,024	0,025
-635,838	-200,000	0,008	-0,050
-634,824	438,136	0,055	-0,089
-633,809	800,000	-0,023	0,051
-632,795	800,000	-0,027	0,080
-631,780	800,000	0,020	0,063
-630,765	-70,150	-0,113	0,031
-629,751	127,726	0,031	-0,029
-628,736	138,994	0,066	-0,064
-627,722	189,927	-0,156	-0,172
-626,707	-200,000	-0,001	-0,124
-625,692	800,000	0,065	0,146
-624,678	-200,000	-0,006	0,111
-623,663	-200,000	-0,002	-0,075
-622,649	-200,000	-0,013	-0,045
-621,634	800,000	-0,017	0,038
-620,619	-185,445	0,144	0,002
-619,605	-200,000	-0,008	-0,106
-618,590	-89,703	0,168	0,036
-617,576	12,526	0,078	0,044
-616,561	25,205	-0,098	0,059
-615,546	-105,628	0,055	-0,009
-614,532	-200,000	-0,041	-0,138
-613,517	126,484	-0,054	0,050
-612,503	318,339	-0,041	-0,057
-611,488	-200,000	0,010	0,148
-610,474	800,000	-0,044	0,141
-609,459	-200,000	0,005	-0,077
-608,444	142,233	-0,074	-0,073
-607,430	-200,000	0,011	-0,121
-606,415	170,187	-0,081	-0,085
-605,401	125,024	-0,071	0,065
-604,386	13,404	0,079	-0,045
-603,371	-74,651	0,073	0,019
-602,357	-142,523	0,024	0,002
-601,342	-128,462	-0,136	-0,014
-600,328	67,065	-0,133	-0,099
-599,313	735,588	-0,028	-0,055
-598,298	715,556	-0,059	-0,116
-597,284	93,566	0,024	-0,020
-596,269	203,737	0,066	0,075
-595,255	532,099	-0,050	0,088
-594,240	565,662	-0,019	-0,035
-593,225	68,177	-0,110	-0,082
-592,211	-98,265	-0,098	-0,018
-591,196	76,884	0,130	-0,101
-590,182	-37,676	-0,129	0,050
-589,167	1,534	0,104	-0,055
-588,152	796,722	-0,051	0,104
-587,138	151,192	0,008	-0,008
-586,123	5,035	0,075	-0,041
-585,109	141,072	-0,089	-0,086
-584,094	36,771	0,117	-0,076
-583,079	313,983	0,073	-0,100
-582,065	800,000	0,046	-0,094
-581,050	-95,741	-0,139	0,027
-580,036	-200,000	-0,010	0,135
-579,021	37,121	-0,151	-0,098
-578,006	-200,000	0,013	-0,070
-576,992	147,931	-0,060	0,060
-575,977	190,938	-0,093	0,103
-574,963	-200,000	-0,000	0,012
-573,948	-93,095	0,025	-0,005
-572,934	-200,000	-0,011	0,050
-571,919	40,314	-0,068	-0,045
-570,904	800,000	-0,082	-0,230
-569,890	263,883	-0,004	-0,005
-568,875	98,612	-0,048	0,041
-567,861	98,617	0,175	0,148
-566,846	70,571	0,116	0,088
-565,831	273,833	-0,059	0,076
-564,817	-111,081	-0,016	0,002
-563,802	541,187	-0,058	-0,101
-562,788	-86,829	0,083	0,018
-561,773	437,057	0,028	-0,044
-560,758	800,000	0,019	-0,053
-559,744	-200,000	-0,017	0,116
-558,729	800,000	-0,071	0,164
-557,715	-200,000	-0,012	0,055
-556,700	-139,288	-0,117	-0,009
-555,685	800,000	-0,014	-0,039
-554,671	236,597	0,085	-0,103
-553,656	-66,544	0,031	0,009
-552,642	-200,000	-0,017	0,088
-551,627	155,075	-0,086	-0,087
-550,612	-132,840	-0,077	-0,007
-549,598	-135,322	-0,085	-0,007
-548,583	130,512	-0,048	-0,045
-547,569	67,268	0,021	-0,015
-546,554	224,388	0,164	0,195
-545,539	-200,000	0,029	0,129
-544,525	201,906	-0,061	0,069
-543,510	-13,620	-0,072	0,034
-542,496	-200,000	0,017	0,108
-541,481	-200,000	0,006	0,132
-540,466	800,000	0,027	-0,058
-539,452	199,378	0,106	0,119
-538,437	-59,718	0,007	0,002
-537,423	173,724	0,045	-0,048
-536,408	23,736	0,083	0,050
-535,393	-75,116	-0,004	0,001
-534,379	362,222	0,059	-0,087
-533,364	64,337	-0,042	0,031
-532,350	800,000	-0,008	-0,017
-531,335	-143,656	-0,026	0,002
-530,321	800,000	-0,009	0,024
-529,306	-200,000	0,009	-0,100
-528,291	800,000	-0,028	-0,071
-527,277	-200,000	-0,057	-0,203
-526,262	252,851	-0,007	0,009
-525,248	103,775	-0,063	0,054
-524,233	-134,509	-0,059	-0,005
-523,218	800,000	0,055	-0,121
-522,204	-14,955	0,085	-0,040
-521,189	113,355	-0,127	0,113
-520,175	-93,671	-0,114	0,023
-519,160	77,853	-0,146	-0,114
-518,145	-200,000	0,011	0,097
-517,131	-124,873	-0,094	0,010
-516,116	-56,639	-0,072	0,023
-515,102	800,000	-0,062	-0,147
-514,087	-105,688	0,026	-0,004
-513,072	-74,337	0,151	-0,040
-512,058	800,000	0,005	0,010
-511,043	-200,000	-0,008	-0,033
-510,029	54,071	0,059	-0,042
-509,014	-200,000	0,031	-0,194
-507,999	-85,123	-0,051	0,012
-506,985	-100,321	-0,056	0,010
-505,970	-200,000	0,005	-0,035
-504,956	48,193	0,097	-0,066
-503,941	-143,732	0,078	0,005
-502,926	23,127	0,043	-0,026
-501,912	-21,465	-0,093	-0,041
-500,897	-200,000	-0,001	0,053
-499,883	-46,750	-0,093	-0,033
-498,868	516,274	0,041	-0,069
-497,853	-200,000	-0,031	-0,154
-496,839	-200,000	0,038	-0,177
-495,824	106,376	-0,028	-0,024
-494,810	-200,000	0,051	0,173
-493,795	-46,186	-0,048	0,017
-492,781	-99,849	0,118	-0,021
-491,766	800,000	0,053	-0,142
-490,751	-122,543	-0,003	0,000
-489,737	-200,000	0,002	-0,016
-488,722	800,000	0,067	0,147
-487,708	85,076	-0,021	-0,017
-486,693	-200,000	0,004	0,099
-485,678	-200,000	0,044	0,144
-484,664	301,586	-0,123	-0,166
-483,649	77,052	-0,011	0,009
-482,635	85,064	0,085	-0,068
-481,620	-55,810	0,155	0,050
-480,605	-200,000	0,030	0,126
-479,591	-200,000	0,027	0,177
-478,576	362,962	-0,028	-0,041
-477,562	-131,232	-0,049	0,005
-476,547	-200,000	-0,029	-0,128
-475,532	377,195	0,040	0,060
-474,518	-88,704	0,066	-0,014
-473,503	629,165	0,038	0,070
-472,489	-135,388	-0,111	0,010
-471,474	-200,000	0,011	-0,137
-470,459	800,000	-0,031	0,078
-469,445	-11,278	-0,137	0,066
-468,430	307,991	-0,035	-0,048
-467,416	37,554	0,051	-0,033
-466,401	105,372	0,018	-0,015
-465,386	115,847	0,044	-0,039
-464,372	80,418	-0,046	-0,036
-463,357	64,274	0,149	-0,109
-462,343	656,937	-0,080	-0,150
-461,328	-105,986	0,117	-0,019
-460,313	-101,912	-0,127	-0,022
-459,299	800,000	-0,040	0,100
-458,284	-29,939	0,125	0,052
-457,270	-200,000	0,009	-0,152
-456,255	-60,154	-0,135	0,042
-455,241	605,252	-0,059	-0,108
-454,226	-200,000	-0,010	-0,091
-453,211	-139,551	0,150	-0,012
-452,197	135,721	-0,034	-0,032
-451,182	-200,000	-0,009	-0,038
-450,168	-200,000	-0,002	-0,100
-449,153	-74,271	-0,078	-0,020
-448,138	-5,062	0,074	-0,037
-447,124	-200,000	-0,023	-0,094
-446,109	510,209	-0,041	-0,070
-445,095	-200,000	0,005	0,067
-444,080	800,000	0,020	0,046
-443,065	-58,124	-0,159	0,050
-442,051	-200,000	-0,032	-0,109
-441,036	-52,958	-0,143	0,048
-440,022	212,957	-0,069	-0,080
-439,007	-200,000	0,008	0,027
-437,992	322,506	0,072	0,100
-436,978	-200,000	0,011	-0,091
-435,963	5,483	0,044	-0,023
-434,949	800,000	0,114	-0,239
-433,934	301,866	-0,099	-0,134
-432,919	104,545	0,093	0,080
-431,905	-111,364	0,081	-0,012
-430,890	446,568	0,055	0,088
-429,876	18,892	0,095	0,055
-428,861	800,000	-0,034	-0,100
-427,846	-81,130	0,007	0,002
-426,832	-83,178	-0,116	-0,027
-425,817	-200,000	-0,001	-0,183
-424,803	341,716	0,052	-0,074
-423,788	800,000	0,031	0,084
-422,773	800,000	0,067	0,137
-421,759	-200,000	-0,004	0,013
-420,744	-200,000	-0,028	0,131
-419,730	800,000	0,064	0,132
-418,715	-7,568	-0,045	-0,022
-417,701	-111,670	-0,110	-0,016
-416,686	86,361	0,069	0,056
-415,671	-200,000	0,014	0,125
-414,657	776,972	-0,043	0,086
-413,642	516,487	-0,009	-0,015
-412,628	14,546	-0,166	-0,094
-411,613	248,415	0,068	-0,084
-410,598	800,000	0,027	-0,064
-409,584	800,000	0,034	0,069
-408,569	-200,000	0,008	0,043
-407,555	-155,722	0,055	-0,003
-406,540	231,736	0,048	0,057
-405,525	328,426	-0,025	0,035
-404,511	96,196	-0,086	-0,071
-403,496	201,308	-0,070	-0,078
-402,482	13,453	0,099	0,056
-401,467	-50,525	-0,128	-0,044
-400,452	169,783	-0,025	-0,026
-399,438	-4,783	-0,043	0,021
-398,423	-200,000	0,019	-0,126
-397,409	173,312	-0,052	-0,055
-396,394	90,445	-0,107	-0,087
-395,379	800,000	0,042	-0,095
-394,365	-200,000	0,013	-0,075
-393,350	53,664	0,021	-0,014
-392,336	185,895	0,015	0,016
-391,321	-177,086	-0,112	-0,002
-390,306	81,013	-0,105	-0,082
-389,292	268,749	-0,032	0,041
-388,277	14,688	-0,068	0,039
-387,263	-74,919	0,189	-0,049
-386,248	-200,000	0,027	0,135
-385,233	80,928	0,076	-0,059
-384,219	800,000	-0,063	-0,168
-383,204	86,408	-0,100	0,080
-382,190	-200,000	-0,005	-0,083
-381,175	63,828	-0,101	0,073
-380,160	-127,755	-0,184	-0,019
-379,146	-200,000	-0,001	0,202
-378,131	118,794	0,049	-0,044
-377,117	800,000	-0,091	-0,227
-376,102	335,484	0,023	0,033
-375,088	-22,476	-0,207	-0,091
-374,073	-40,570	-0,179	0,067
-373,058	-200,000	0,014	0,123
-372,044	62,437	0,118	0,085
-371,029	785,495	0,009	0,018
-370,015	153,957	-0,049	0,049
-369,000	-103,634	-0,124	0,021
-367,985	263,117	-0,042	-0,053
-366,971	-41,958	-0,113	0,042
-365,956	-188,466	0,075	0,001
-364,942	-200,000	-0,038	0,138
-363,927	-29,736	0,115	0,047
-362,912	-200,000	0,009	0,029
-361,898	800,000	0,040	-0,093
-360,883	-200,000	-0,000	-0,206
-359,869	-128,222	-0,124	0,013
-358,854	12,534	0,015	-0,008
-357,839	507,233	0,060	0,101
-356,825	119,645	-0,049	-0,045
-355,810	-69,138	0,044	0,012
-354,796	800,000	0,011	0,033
-353,781	800,000	0,017	-0,045
-352,766	296,931	-0,043	0,058
-351,752	-200,000	-0,009	0,144
-350,737	-48,709	0,044	0,015
-349,723	18,250	0,184	0,106
-348,708	-200,000	-0,028	0,150
-347,693	59,662	0,050	0,036
-346,679	-200,000	0,015	0,067
-345,664	-61,187	-0,073	-0,022
-344,650	800,000	0,049	0,129
-343,635	-29,992	0,143	-0,059
-342,620	800,000	-0,034	0,099
-341,606	-200,000	-0,003	0,051
-340,591	-200,000	0,003	0,019
-339,577	23,212	-0,050	-0,030
-338,562	304,445	0,016	0,022
-337,548	-49,953	0,157	0,054
-336,533	800,000	-0,047	-0,134
-335,518	763,502	0,051	0,100
-334,504	-60,064	-0,070	-0,021
-333,489	-200,000	-0,022	-0,117
-332,475	-200,000	-0,018	0,080
-331,460	3,069	0,113	-0,059
-330,445	-44,204	0,134	0,048
-329,431	-200,000	-0,002	-0,025
-328,416	59,819	0,178	0,127
-327,402	399,483	-0,029	0,044
-326,387	-29,117	0,065	0,027
-325,372	-200,000	-0,001	0,151
-324,358	-200,000	-0,024	-0,108
-323,343	-70,317	0,108	-0,030
-322,329	-61,212	-0,040	-0,012
-321,314	-74,007	-0,110	-0,029
-320,299	10,528	-0,064	-0,035
-319,285	-65,339	-0,049	0,014
-318,270	356,313	0,112	-0,163
-317,256	96,717	-0,086	-0,071
-316,241	-200,000	0,018	0,134
-315,226	205,072	0,121	0,137
-314,212	-200,000	-0,041	0,155
-313,197	118,092	0,049	0,044
-312,183	-200,000	-0,002	-0,045
-311,168	30,710	-0,044	-0,027
-310,153	-179,700	-0,115	-0,002
-309,139	-200,000	0,003	-0,115
-308,124	8,750	-0,072	0,039
-307,110	-7,081	0,189	0,093
-306,095	185,181	-0,038	0,041
-305,080	-17,305	0,075	0,034
-304,066	-57,689	0,126	0,040
-303,051	328,766	-0,016	0,023
-302,037	-64,693	-0,218	0,064
-301,022	-200,000	-0,033	0,162
-300,008	-167,758	0,168	0,005
-298,993	37,881	0,045	0,029
-297,978	196,083	-0,033	-0,037
-296,964	-7,634	0,107	0,052
-295,949	98,888	0,057	-0,048
-294,935	481,786	-0,045	-0,074
-293,920	580,876	0,044	0,078
-292,905	-1,728	0,051	0,026
-291,891	294,792	0,004	-0,005
-290,876	-200,000	-0,002	0,020
-289,862	-97,057	-0,030	0,006
-288,847	-200,000	-0,008	-0,201
-287,832	-200,000	-0,001	-0,033
-286,818	517,389	-0,032	0,055
-285,803	172,509	0,066	-0,069
-284,789	231,887	0,092	-0,110
-283,774	-140,202	0,050	0,004
-282,759	800,000	0,031	0,065
-281,745	-53,393	0,071	0,023
-280,730	-200,000	-0,012	-0,121
-279,716	434,572	0,096	0,152
-278,701	800,000	0,013	0,037
-277,686	53,100	-0,158	0,110
-276,672	-121,347	-0,057	0,007
-275,657	-200,000	-0,001	-0,104
-274,643	382,647	0,024	0,035
-273,628	33,974	0,026	-0,017
-272,613	695,945	-0,082	-0,157
-271,599	-16,249	0,056	-0,026
-270,584	214,436	0,070	0,081
-269,570	117,144	0,071	-0,063
-268,555	0,679	-0,076	-0,039
-267,540	5,744	-0,059	0,032
-266,526	-27,498	0,026	-0,011
-265,511	-96,471	0,069	-0,013
-264,497	519,070	0,041	0,070
-263,482	-200,000	-0,043	0,184
-262,467	-200,000	0,005	0,129
-261,453	-200,000	0,011	-0,063
-260,438	-41,119	0,041	-0,015
-259,424	-96,911	0,033	-0,006
-258,409	-14,506	-0,147	-0,068
-257,395	71,617	0,087	-0,065
-256,380	102,952	0,086	0,073
-255,365	-181,907	-0,045	0,001
-254,351	254,631	-0,047	0,059
-253,336	434,278	-0,097	-0,153
-252,322	-200,000	0,004	-0,018
-251,307	-79,922	0,011	0,003
-250,292	29,044	0,041	0,025
-249,278	-200,000	0,036	0,138
-248,263	-200,000	0,021	0,067
-247,249	39,478	0,098	0,063
-246,234	20,744	-0,081	0,047
-245,219	-62,465	-0,086	0,026
-244,205	-200,000	-0,047	0,149
-243,190	91,645	-0,038	0,031
-242,176	-200,000	0,016	0,079
-241,161	800,000	0,048	0,099
-240,146	800,000	-0,059	0,138
-239,132	79,665	-0,077	-0,060
-238,117	800,000	-0,063	-0,149
-237,103	-95,294	0,108	0,021
-236,088	73,885	-0,007	-0,005
-235,073	-200,000	0,027	-0,114
-234,059	-200,000	-0,010	-0,099
-233,044	-47,121	0,077	0,027
-232,030	695,493	0,027	0,051
-231,015	-85,982	-0,133	0,029
-230,000	-18,422	0,058	-0,026
-228,986	-200,000	-0,011	-0,040
-227,971	155,949	0,054	-0,054
-226,957	-31,764	0,164	0,066
-225,942	403,813	-0,022	-0,034
-224,927	109,792	0,109	-0,094
-223,913	-123,563	-0,159	0,018
-222,898	114,013	-0,024	-0,021
-221,884	-200,000	0,016	-0,101
-220,869	70,203	0,040	-0,030
-219,855	688,386	-0,041	0,078
-218,840	-107,761	0,085	-0,013
-217,825	221,726	-0,034	0,040
-216,811	800,000	0,026	0,068
-215,796	-78,139	-0,071	0,018
-214,782	13,239	0,043	0,024
-213,767	279,084	-0,051	-0,066
-212,752	-200,000	0,006	-0,073
-211,738	102,632	0,109	0,092
-210,723	-195,326	0,111	-0,001
-209,709	-150,608	0,076	0,004
-208,694	-200,000	0,001	0,047
-207,679	506,705	-0,027	-0,046
-206,665	-163,413	0,098	0,003
-205,650	-15,835	0,099	-0,046
-204,636	800,000	0,019	0,050
-203,621	-106,837	0,103	-0,016
-202,606	32,763	0,158	0,099
-201,592	70,423	0,060	-0,044
-200,577	325,845	-0,029	-0,040
-199,563	61,882	0,063	-0,045
-198,548	135,709	0,090	0,085
-197,533	-44,502	0,121	0,043
-196,519	78,130	-0,200	0,154
-195,504	136,473	0,030	-0,029
-194,490	329,317	0,033	-0,046
-193,475	41,481	0,044	0,029
-192,460	578,671	-0,078	-0,139
-191,446	-200,000	0,014	0,104
-190,431	29,158	0,088	-0,054
-189,417	546,068	-0,047	0,081
-188,402	129,936	-0,097	0,090
-187,387	103,574	0,023	-0,020
-186,373	800,000	-0,035	-0,078
-185,358	800,000	-0,016	-0,035
-184,344	28,109	-0,073	-0,045
-183,329	-8,159	0,121	0,059
-182,315	-42,765	-0,017	-0,006
-181,300	57,067	-0,080	-0,057
-180,285	800,000	-0,030	0,079
-179,271	219,108	-0,159	-0,184
-178,256	449,207	0,022	0,035
-177,242	96,385	0,201	-0,166
-176,227	800,000	0,042	0,105
-175,212	12,947	0,124	0,069
-174,198	-200,000	-0,176	-0,000
-173,183	-200,000	0,005	-0,034
-172,169	800,000	-0,045	0,121
-171,154	199,484	-0,077	0,085
-170,139	70,862	0,104	-0,078
-169,125	171,372	0,016	0,016
-168,110	-200,000	0,004	0,214
-167,096	80,040	-0,058	-0,045
-166,081	-49,794	-0,039	-0,013
-165,066	1,216	-0,051	-0,026
-164,052	412,440	0,068	0,104
-163,037	-60,027	-0,099	0,030
-162,023	10,197	0,121	0,066
-161,008	-200,000	0,009	-0,032
-159,993	573,138	-0,045	0,079
-158,979	497,469	0,013	-0,021
-157,964	-52,475	0,129	-0,043
-156,950	-200,000	-0,016	-0,108
-155,935	98,124	-0,119	-0,098
-154,920	97,327	-0,145	0,120
-153,906	800,000	0,023	-0,062
-152,891	58,127	0,088	0,062
-151,877	-200,000	-0,002	-0,031
-150,862	-27,776	-0,096	0,040
-149,847	-200,000	-0,015	-0,145
-148,833	-95,236	0,022	-0,004
-147,818	-82,281	0,110	0,026
-146,804	-43,683	-0,058	0,021
-145,789	-200,000	0,032	0,101
-144,775	53,993	-0,050	-0,035
-143,760	210,341	-0,024	-0,027
-142,745	-200,000	-0,010	0,092
-141,731	-200,000	0,011	-0,154
-140,716	-118,226	0,041	-0,005
-139,702	-200,000	0,031	0,175
-138,687	466,782	0,048	-0,078
-137,672	-200,000	0,010	0,061
-136,658	800,000	-0,028	-0,060
-135,643	62,627	0,060	0,043
-134,629	29,112	0,026	0,016
-133,614	-88,316	0,112	0,024
-132,599	-64,221	0,074	-0,022
-131,585	-200,000	0,028	0,163
-130,570	-195,502	-0,025	0,000
-129,556	15,869	-0,113	-0,064
-128,541	-83,033	-0,096	-0,022
-127,526	760,982	0,047	-0,091
-126,512	427,256	0,034	0,053
-125,497	154,612	-0,124	0,123
-124,483	-173,221	-0,089	-0,002
-123,468	-200,000	-0,001	0,084
-122,453	19,503	-0,038	-0,022
-121,439	-97,868	-0,051	0,009
-120,424	-182,428	-0,060	0,001
-119,410	47,621	0,068	-0,046
