DTS Sentinel unit serial number:	SN410029Multiplexer serial number:	ORYXHardware model number:	OX2-SRSoftware version number:	ORYX F/W v4,00 Oryx Data Collector v3.7.2.0data status	okinstallation	B5 Nyhavnadifferential loss correction	single-endedforward channel	channel 2reverse channel	N/Adate	2023/12/12time	12:17:13forward acquisition time	300,00reverse acquisition time	0,00gamma	499,1914k internal	0,3158k external	0,3158temperature offset calibration	1,0000default loss term (dB/km)	0,3820temperature slope calibration	1,0000multiplexer offset coefficient	1,0000multiplexer slope coefficient	1,0000fibre end	0,00T internal ref (°C)	15,25T ext. ref 1 (°C)	-0,59T ext. ref 2 (°C)	-0,88length (m)	temperature (°C)	Stokes	anti-Stokes-744,400	107,166	-0,080	-0,070
-743,385	-89,975	-0,271	-0,058
-742,371	-200,000	0,005	0,047
-741,356	-17,187	-0,222	0,103
-740,342	68,055	-0,065	0,049
-739,327	-138,019	-0,192	-0,016
-738,312	-200,000	-0,003	0,038
-737,298	-109,550	-0,260	-0,040
-736,283	-104,845	0,051	0,009
-735,269	-134,637	-0,315	-0,028
-734,254	10,726	0,089	0,050
-733,239	-200,000	-0,523	0,001
-732,225	70,622	0,154	-0,117
-731,210	-200,000	-0,002	-0,056
-730,196	49,639	0,043	-0,030
-729,181	-10,541	0,058	-0,028
-728,167	-200,000	-0,007	-0,096
-727,152	14,897	-0,139	-0,080
-726,137	-200,000	-0,014	-0,153
-725,123	38,247	-0,157	-0,102
-724,108	-51,427	-0,071	0,024
-723,094	-179,528	-0,124	0,002
-722,079	800,000	0,036	-0,086
-721,064	221,529	-0,149	-0,177
-720,050	24,800	0,022	-0,013
-719,035	93,462	0,046	0,039
-718,021	-6,878	-0,145	-0,073
-717,006	-200,000	-0,031	-0,139
-715,991	800,000	0,019	-0,040
-714,977	213,062	-0,073	0,085
-713,962	-200,000	-0,008	0,042
-712,948	-59,227	-0,092	0,029
-711,933	82,169	0,017	0,014
-710,918	800,000	-0,024	0,053
-709,904	800,000	-0,043	0,125
-708,889	17,314	-0,060	0,035
-707,875	89,798	-0,048	0,039
-706,860	-17,507	-0,007	0,003
-705,845	-200,000	-0,005	-0,119
-704,831	28,018	-0,090	0,056
-703,816	800,000	0,066	0,137
-702,802	152,392	0,044	-0,044
-701,787	157,299	-0,126	-0,128
-700,772	225,504	-0,122	-0,145
-699,758	23,029	0,072	0,044
-698,743	-5,574	-0,156	0,078
-697,729	-200,000	-0,000	0,120
-696,714	10,507	0,176	0,098
-695,699	-20,685	-0,131	-0,059
-694,685	-200,000	0,015	-0,060
-693,670	-200,000	0,028	-0,107
-692,656	380,402	-0,055	-0,084
-691,641	292,162	-0,052	-0,070
-690,627	180,624	0,043	0,047
-689,612	-119,978	0,035	0,004
-688,597	57,278	-0,100	-0,072
-687,583	340,406	-0,043	-0,062
-686,568	3,228	-0,101	-0,054
-685,554	-200,000	0,027	0,089
-684,539	-37,033	0,019	0,008
-683,524	-82,010	-0,079	0,019
-682,510	-88,219	0,084	0,018
-681,495	-72,970	-0,045	0,012
-680,481	-200,000	-0,010	-0,146
-679,466	-45,732	-0,137	-0,050
-678,451	-51,106	0,017	0,006
-677,437	258,030	0,074	-0,094
-676,422	800,000	0,049	-0,126
-675,408	157,014	-0,045	-0,046
-674,393	494,143	0,036	-0,062
-673,378	228,770	0,079	-0,095
-672,364	-94,801	-0,051	-0,010
-671,349	86,323	-0,090	0,073
-670,335	259,016	0,029	0,037
-669,320	10,102	-0,076	-0,042
-668,305	7,257	-0,092	0,051
-667,291	-72,558	0,029	-0,008
-666,276	240,518	-0,135	-0,166
-665,262	96,012	0,121	-0,102
-664,247	125,931	0,158	0,146
-663,232	800,000	0,026	-0,079
-662,218	-198,418	-0,104	-0,000
-661,203	-200,000	-0,005	0,019
-660,189	250,215	-0,034	-0,043
-659,174	-200,000	-0,000	-0,043
-658,159	273,710	0,033	0,043
-657,145	-152,285	-0,094	0,005
-656,130	-173,654	-0,081	0,002
-655,116	800,000	-0,027	-0,080
-654,101	642,953	0,028	0,052
-653,086	136,570	-0,074	0,071
-652,072	-200,000	0,047	-0,171
-651,057	511,792	-0,039	-0,068
-650,043	800,000	0,076	-0,178
-649,028	-200,000	-0,018	-0,063
-648,014	-176,948	0,101	-0,002
-646,999	800,000	-0,018	0,055
-645,984	-9,075	-0,091	0,044
-644,970	39,610	0,031	0,021
-643,955	11,395	-0,041	-0,023
-642,941	106,892	0,094	-0,082
-641,926	344,603	-0,019	-0,027
-640,911	-2,369	0,080	-0,041
-639,897	111,858	0,025	-0,023
-638,882	410,520	-0,052	-0,081
-637,868	800,000	0,044	-0,116
-636,853	724,127	-0,031	-0,061
-635,838	-135,554	-0,074	-0,006
-634,824	800,000	-0,054	-0,111
-633,809	800,000	-0,031	0,072
-632,795	-173,051	-0,037	-0,001
-631,780	-200,000	-0,011	0,104
-630,765	-200,000	-0,001	-0,094
-629,751	72,963	-0,062	0,048
-628,736	-24,422	0,053	0,023
-627,722	312,524	0,056	-0,077
-626,707	-200,000	0,029	0,099
-625,692	17,809	-0,086	0,050
-624,678	19,315	0,088	-0,051
-623,663	-200,000	-0,013	0,140
-622,649	-79,304	-0,040	-0,010
-621,634	316,587	0,011	0,016
-620,619	55,309	-0,076	-0,054
-619,605	471,700	0,032	0,052
-618,590	236,918	-0,067	-0,082
-617,576	157,199	0,065	-0,066
-616,561	147,414	0,031	0,030
-615,546	800,000	-0,017	0,041
-614,532	-200,000	-0,006	-0,112
-613,517	-71,083	-0,083	-0,023
-612,503	-84,287	-0,015	0,003
-611,488	660,787	0,014	0,027
-610,474	800,000	-0,014	-0,039
-609,459	-200,000	0,010	-0,041
-608,444	74,867	-0,099	0,076
-607,430	800,000	0,028	-0,066
-606,415	389,832	0,070	-0,106
-605,401	85,864	0,096	-0,078
-604,386	800,000	0,008	-0,020
-603,371	-106,970	0,131	0,021
-602,357	-200,000	-0,004	0,056
-601,342	-200,000	0,019	0,094
-600,328	127,953	-0,064	0,060
-599,313	220,281	-0,016	0,018
-598,298	353,612	-0,009	-0,013
-597,284	-18,044	0,083	-0,038
-596,269	800,000	-0,064	-0,147
-595,255	75,431	0,092	-0,071
-594,240	-200,000	0,017	-0,127
-593,225	179,342	0,053	-0,057
-592,211	-200,000	-0,015	-0,058
-591,196	145,747	0,029	0,028
-590,182	-200,000	0,008	-0,072
-589,167	-128,254	0,198	0,020
-588,152	255,208	0,117	-0,147
-587,138	-69,927	-0,130	-0,036
-586,123	800,000	-0,069	-0,159
-585,109	-134,887	-0,172	-0,015
-584,094	117,191	-0,073	0,065
-583,079	-200,000	-0,004	0,032
-582,065	-200,000	0,008	-0,054
-581,050	-200,000	0,018	0,098
-580,036	-200,000	-0,020	-0,096
-579,021	-200,000	-0,052	-0,177
-578,006	-46,593	0,120	0,043
-576,992	-59,864	0,062	-0,019
-575,977	112,772	0,134	0,119
-574,963	764,992	0,066	-0,132
-573,948	800,000	0,023	0,075
-572,934	-200,000	0,001	-0,067
-571,919	271,260	-0,165	-0,214
-570,904	-200,000	-0,017	0,080
-569,890	61,517	-0,085	-0,062
-568,875	374,096	0,045	-0,068
-567,861	-200,000	0,020	0,064
-566,846	58,935	-0,029	-0,021
-565,831	800,000	0,020	-0,050
-564,817	-57,803	-0,109	-0,035
-563,802	291,572	-0,043	-0,057
-562,788	-45,644	0,064	-0,023
-561,773	131,693	0,037	-0,035
-560,758	246,798	0,095	0,117
-559,744	-200,000	0,072	0,268
-558,729	-200,000	-0,033	-0,150
-557,715	230,371	-0,072	-0,087
-556,700	-200,000	0,014	-0,065
-555,685	83,239	-0,072	0,057
-554,671	-124,260	0,190	-0,021
-553,656	-200,000	-0,021	0,093
-552,642	800,000	0,020	0,054
-551,627	11,424	0,145	-0,081
-550,612	200,006	-0,082	0,092
-549,598	-200,000	-0,005	0,068
-548,583	483,422	0,063	0,105
-547,569	-109,527	-0,070	0,011
-546,554	707,731	0,029	-0,056
-545,539	-200,000	0,002	-0,031
-544,525	-200,000	0,037	0,163
-543,510	-103,557	-0,021	0,004
-542,496	-200,000	0,004	-0,071
-541,481	149,347	0,025	-0,025
-540,466	-72,442	-0,069	-0,019
-539,452	-37,904	0,125	0,049
-538,437	94,539	-0,056	-0,047
-537,423	-54,802	-0,135	0,044
-536,408	-200,000	0,039	0,186
-535,393	290,002	0,035	0,046
-534,379	-78,019	0,076	-0,019
-533,364	-55,618	-0,125	-0,041
-532,350	-152,664	-0,067	-0,003
-531,335	-80,705	0,056	0,013
-530,321	-38,930	-0,095	0,037
-529,306	-200,000	-0,047	0,161
-528,291	71,550	-0,042	0,032
-527,277	79,661	-0,055	0,043
-526,262	371,357	0,027	-0,040
-525,248	-49,515	0,118	0,041
-524,233	137,989	0,017	-0,017
-523,218	-124,920	-0,030	0,003
-522,204	-200,000	0,036	0,139
-521,189	-200,000	-0,006	-0,075
-520,175	-158,195	0,105	-0,004
-519,160	102,659	-0,120	-0,102
-518,145	259,831	-0,106	0,133
-517,131	-69,548	0,072	0,020
-516,116	482,330	0,051	-0,085
-515,102	11,636	-0,114	0,064
-514,087	-200,000	-0,000	0,057
-513,072	303,743	-0,045	-0,061
-512,058	33,188	-0,068	0,043
-511,043	30,487	-0,093	0,058
-510,029	334,446	0,015	-0,022
-509,014	-73,396	-0,164	-0,043
-507,999	10,878	0,070	0,039
-506,985	399,695	0,037	0,057
-505,970	265,481	-0,116	-0,148
-504,956	800,000	-0,015	0,041
-503,941	92,208	0,137	-0,113
-502,926	-200,000	0,004	-0,024
-501,912	66,251	0,097	0,071
-500,897	-200,000	-0,020	0,068
-499,883	34,137	0,078	0,050
-498,868	800,000	-0,043	-0,128
-497,853	-200,000	-0,005	-0,040
-496,839	8,530	-0,022	-0,012
-495,824	800,000	0,011	-0,031
-494,810	199,091	-0,038	0,042
-493,795	-200,000	0,021	0,117
-492,781	800,000	-0,023	0,058
-491,766	800,000	0,016	-0,043
-490,751	-200,000	-0,001	-0,021
-489,737	-57,228	0,050	0,016
-488,722	800,000	0,023	-0,065
-487,708	-200,000	0,008	0,153
-486,693	34,309	0,104	0,066
-485,678	325,139	0,070	-0,097
-484,664	-200,000	0,007	-0,172
-483,649	87,631	0,072	0,058
-482,635	-58,436	0,145	0,046
-481,620	511,672	-0,022	-0,038
-480,605	81,814	0,119	-0,094
-479,591	-78,794	-0,112	-0,028
-478,576	-3,476	-0,107	-0,054
-477,562	400,129	0,036	0,055
-476,547	-7,080	0,123	0,061
-475,532	-92,556	0,100	-0,020
-474,518	133,425	0,068	0,064
-473,503	-108,205	0,026	0,004
-472,489	-200,000	0,005	0,114
-471,474	124,287	-0,080	0,073
-470,459	184,504	-0,068	-0,073
-469,445	-200,000	0,003	0,019
-468,430	260,394	0,098	0,124
-467,416	-82,766	-0,045	-0,010
-466,401	139,077	-0,124	-0,119
-465,386	-12,748	0,148	0,070
-464,372	216,693	-0,046	-0,054
-463,357	-200,000	0,004	-0,092
-462,343	-64,405	-0,122	0,036
-461,328	743,355	0,030	-0,060
-460,313	66,203	0,173	0,128
-459,299	-181,369	0,085	0,001
-458,284	637,615	-0,092	0,171
-457,270	-200,000	-0,010	0,084
-456,255	-200,000	0,005	-0,036
-455,241	-2,228	-0,063	-0,032
-454,226	-15,262	0,043	-0,020
-453,211	30,783	-0,050	-0,031
-452,197	67,283	-0,043	-0,032
-451,182	-200,000	-0,020	0,076
-450,168	-134,569	0,044	-0,004
-449,153	-90,667	-0,092	0,019
-448,138	-200,000	-0,011	-0,104
-447,124	-200,000	0,011	-0,142
-446,109	-78,070	0,138	0,034
-445,095	-104,430	0,065	-0,011
-444,080	304,251	0,107	-0,145
-443,065	53,608	-0,091	0,063
-442,051	-200,000	0,012	-0,087
-441,036	-45,447	-0,084	-0,030
-440,022	234,262	-0,057	0,068
-439,007	-45,052	0,099	0,036
-437,992	-200,000	0,004	0,083
-436,978	-57,694	-0,040	0,013
-435,963	800,000	0,038	-0,112
-434,949	360,091	-0,056	-0,082
-433,934	-10,612	-0,102	-0,049
-432,919	-81,446	-0,125	0,030
-431,905	160,598	-0,106	0,108
-430,890	-86,997	0,068	-0,015
-429,876	800,000	0,025	0,063
-428,861	800,000	0,042	0,102
-427,846	87,540	-0,037	0,030
-426,832	-193,322	0,104	-0,001
-425,817	-57,199	-0,055	-0,018
-424,803	-200,000	-0,018	0,099
-423,788	393,125	-0,060	0,091
-422,773	-200,000	-0,003	0,020
-421,759	206,224	0,088	0,100
-420,744	-200,000	0,017	0,073
-419,730	38,980	-0,010	-0,007
-418,715	139,410	0,080	-0,077
-417,701	-67,579	0,096	-0,027
-416,686	800,000	0,008	0,025
-415,671	715,640	0,056	0,108
-414,657	-159,290	0,102	-0,004
-413,642	-122,355	-0,027	-0,003
-412,628	126,633	0,145	-0,133
-411,613	46,194	-0,085	-0,057
-410,598	-200,000	0,002	-0,071
-409,584	-200,000	-0,022	-0,122
-408,569	148,552	-0,049	-0,048
-407,555	-200,000	-0,016	0,087
-406,540	-20,555	-0,079	0,035
-405,525	-92,306	0,028	-0,006
-404,511	148,080	0,028	-0,028
-403,496	-200,000	-0,003	0,055
-402,482	-9,454	-0,068	-0,033
-401,467	307,607	0,071	0,097
-400,452	-200,000	0,021	0,131
-399,438	-4,796	-0,053	-0,027
-398,423	-163,966	-0,231	0,008
-397,409	-200,000	-0,009	0,030
-396,394	26,438	0,142	-0,086
-395,379	436,132	-0,079	0,125
-394,365	-169,253	0,107	0,003
-393,350	-200,000	0,008	0,057
-392,336	-178,609	0,007	0,000
-391,321	-15,262	0,057	-0,026
-390,306	-136,939	-0,070	0,006
-389,292	800,000	0,034	0,089
-388,277	454,060	0,041	0,066
-387,263	-200,000	0,010	-0,052
-386,248	-94,100	-0,054	0,011
-385,233	-41,734	0,068	0,025
-384,219	-200,000	-0,003	0,118
-383,204	48,356	-0,024	0,016
-382,190	165,964	-0,031	-0,032
-381,175	800,000	0,074	-0,188
-380,160	435,534	0,104	0,165
-379,146	296,375	-0,088	0,118
-378,131	-79,913	0,072	0,018
-377,117	-136,327	0,111	-0,009
-376,102	155,208	-0,146	0,146
-375,088	-68,301	-0,109	-0,031
-374,073	552,539	-0,023	-0,040
-373,058	800,000	0,049	0,109
-372,044	-200,000	0,027	0,120
-371,029	-200,000	-0,004	0,014
-370,015	-109,759	0,100	0,015
-369,000	578,869	-0,019	-0,034
-367,985	85,860	-0,072	-0,057
-366,971	-71,000	-0,089	-0,024
-365,956	159,503	0,068	0,069
-364,942	-18,232	0,114	-0,052
-363,927	208,415	0,069	0,078
-362,912	71,562	-0,062	-0,047
-361,898	-47,956	-0,124	-0,043
-360,883	-200,000	0,043	-0,183
-359,869	-200,000	0,028	0,099
-358,854	-200,000	-0,021	0,134
-357,839	-200,000	0,001	0,064
-356,825	-200,000	-0,039	0,132
-355,810	644,869	-0,077	-0,143
-354,796	-200,000	0,002	0,019
-353,781	-43,793	0,133	-0,048
-352,766	-200,000	-0,013	-0,066
-351,752	800,000	0,027	-0,058
-350,737	-34,472	0,113	-0,045
-349,723	-200,000	-0,001	0,035
-348,708	-38,082	0,233	0,089
-347,693	-200,000	0,034	-0,230
-346,679	-68,136	-0,070	-0,020
-345,664	800,000	-0,055	-0,153
-344,650	-141,431	0,154	0,011
-343,635	-95,025	-0,091	-0,018
-342,620	-200,000	-0,008	-0,082
-341,606	57,683	-0,125	0,088
-340,591	-83,169	0,129	-0,030
-339,577	800,000	0,041	0,111
-338,562	-13,754	-0,085	-0,040
-337,548	-69,866	-0,128	0,035
-336,533	109,441	-0,115	0,100
-335,518	116,474	0,080	0,071
-334,504	697,114	-0,064	-0,122
-333,489	537,960	0,028	0,048
-332,475	-88,071	-0,076	0,016
-331,460	100,055	-0,052	0,044
-330,445	800,000	0,034	0,080
-329,431	-200,000	-0,007	-0,025
-328,416	-200,000	-0,004	0,066
-327,402	-200,000	0,006	0,104
-326,387	-28,879	-0,064	-0,027
-325,372	65,059	-0,044	-0,032
-324,358	-54,456	-0,093	0,030
-323,343	-125,407	0,062	0,007
-322,329	-123,864	0,162	0,018
-321,314	179,434	0,027	0,028
-320,299	800,000	-0,021	0,044
-319,285	-81,819	-0,028	0,007
-318,270	-200,000	0,003	-0,053
-317,256	171,236	-0,039	0,040
-316,241	-200,000	-0,035	0,131
-315,226	46,911	-0,043	0,029
-314,212	21,733	0,069	0,040
-313,197	15,129	-0,060	0,034
-312,183	-70,435	0,090	0,025
-311,168	-200,000	0,045	0,173
-310,153	741,470	-0,038	0,074
-309,139	-200,000	-0,001	-0,053
-308,124	-126,858	0,144	-0,015
-307,110	625,294	0,061	0,113
-306,095	-200,000	0,014	-0,049
-305,080	-20,416	-0,045	-0,020
-304,066	479,060	-0,072	-0,119
-303,051	-200,000	-0,013	0,118
-302,037	504,234	-0,088	-0,149
-301,022	-82,758	-0,089	-0,021
-300,008	-95,359	0,192	0,037
-298,993	-113,118	0,116	0,016
-297,978	800,000	-0,029	-0,072
-296,964	510,611	0,055	-0,093
-295,949	-144,900	-0,052	0,003
-294,935	169,752	0,084	-0,087
-293,920	86,956	0,113	0,091
-292,905	800,000	0,026	0,059
-291,891	-200,000	-0,008	-0,058
-290,876	-200,000	0,004	0,086
-289,862	729,868	-0,055	0,106
-288,847	-120,446	-0,084	0,010
-287,832	-168,495	-0,113	0,003
-286,818	800,000	0,024	0,059
-285,803	-200,000	0,019	-0,108
-284,789	800,000	0,053	0,159
-283,774	457,421	0,099	0,161
-282,759	-200,000	-0,024	-0,127
-281,745	190,641	0,022	-0,023
-280,730	-131,578	-0,154	0,014
-279,716	128,123	-0,095	0,087
-278,701	800,000	0,049	0,148
-277,686	320,270	0,118	0,163
-276,672	-200,000	-0,031	-0,116
-275,657	203,522	-0,039	-0,044
-274,643	276,823	-0,039	-0,050
-273,628	73,688	-0,015	-0,012
-272,613	-137,048	0,095	-0,008
-271,599	310,604	0,041	-0,056
-270,584	-52,770	0,064	-0,021
-269,570	790,581	0,060	-0,120
-268,555	-96,270	-0,119	0,023
-267,540	-200,000	-0,016	-0,067
-266,526	93,673	-0,062	-0,051
-265,511	362,804	0,040	-0,059
-264,497	-2,821	-0,104	0,052
-263,482	439,423	-0,032	0,051
-262,467	623,520	0,070	0,128
-261,453	1,443	0,013	-0,007
-260,438	-200,000	0,006	-0,159
-259,424	24,834	-0,035	-0,021
-258,409	132,418	-0,103	-0,097
-257,395	-200,000	-0,016	0,111
-256,380	-68,905	0,049	-0,013
-255,365	-200,000	0,026	0,108
-254,351	44,120	-0,070	-0,047
-253,336	-103,316	-0,127	0,022
-252,322	-200,000	0,001	-0,018
-251,307	800,000	-0,024	0,067
-250,292	239,951	-0,071	-0,085
-249,278	319,056	0,061	-0,083
-248,263	-123,516	0,140	0,016
-247,249	-144,333	0,099	-0,007
-246,234	567,550	0,038	-0,066
-245,219	-200,000	-0,045	0,150
-244,205	-200,000	0,020	-0,073
-243,190	-84,481	-0,107	0,024
-242,176	-165,400	-0,042	0,001
-241,161	800,000	0,097	-0,196
-240,146	-200,000	0,004	0,075
-239,132	-79,378	0,008	0,002
-238,117	-200,000	0,025	-0,117
-237,103	74,562	0,047	-0,035
-236,088	385,048	-0,053	-0,079
-235,073	-200,000	0,004	0,128
-234,059	-200,000	0,028	0,142
-233,044	517,697	0,048	-0,082
-232,030	800,000	0,039	-0,110
-231,015	130,022	-0,109	0,101
-230,000	800,000	0,018	-0,043
-228,986	-143,419	0,080	-0,005
-227,971	800,000	-0,050	0,104
-226,957	-200,000	0,017	-0,063
-225,942	12,756	0,098	-0,054
-224,927	-39,603	-0,052	-0,019
-223,913	-179,908	-0,172	0,003
-222,898	-200,000	0,001	-0,020
-221,884	162,604	-0,102	-0,104
-220,869	159,928	0,131	0,132
-219,855	524,846	0,073	-0,124
-218,840	-57,072	0,104	0,033
-217,825	-56,823	-0,071	-0,022
-216,811	130,873	-0,053	0,049
-215,796	177,822	0,048	-0,051
-214,782	-30,699	-0,099	-0,040
-213,767	800,000	0,013	0,037
-212,752	605,690	0,045	0,081
-211,738	-200,000	-0,030	0,129
-210,723	113,943	-0,119	0,105
-209,709	800,000	-0,023	-0,066
-208,694	-200,000	-0,011	-0,078
-207,679	568,356	-0,025	-0,044
-206,665	202,939	-0,021	-0,023
-205,650	-89,736	0,129	0,027
-204,636	279,698	-0,126	0,163
-203,621	-40,424	-0,054	-0,020
-202,606	-200,000	0,015	0,111
-201,592	515,110	-0,065	-0,109
-200,577	199,735	-0,026	-0,029
-199,563	800,000	0,034	-0,079
-198,548	87,115	0,082	0,065
-197,533	-200,000	-0,002	0,124
-196,519	74,704	-0,120	-0,091
-195,504	268,511	-0,126	-0,160
-194,490	800,000	-0,027	-0,058
-193,475	354,311	-0,042	-0,060
-192,460	11,519	-0,088	0,049
-191,446	-200,000	0,000	0,039
-190,431	800,000	-0,027	0,059
-189,417	683,498	-0,015	-0,027
-188,402	-200,000	-0,011	0,040
-187,387	800,000	-0,024	-0,065
-186,373	-200,000	-0,013	-0,153
-185,358	116,704	-0,023	0,020
-184,344	-140,089	-0,058	0,004
-183,329	800,000	-0,031	-0,069
-182,315	800,000	0,064	-0,137
-181,300	58,779	-0,050	0,036
-180,285	-200,000	-0,062	-0,199
-179,271	-43,099	-0,150	0,054
-178,256	800,000	0,031	0,068
-177,242	-35,986	0,175	0,068
-176,227	-200,000	0,027	0,097
-175,212	143,659	0,077	-0,074
-174,198	-80,527	-0,042	-0,010
-173,183	122,951	-0,085	0,076
-172,169	154,967	-0,036	-0,036
-171,154	-106,220	-0,070	0,011
-170,139	-124,177	0,153	0,017
-169,125	-146,452	-0,061	0,004
-168,110	792,582	0,042	0,084
-167,096	405,369	-0,043	-0,065
-166,081	29,620	0,103	0,063
-165,066	665,261	-0,070	-0,131
-164,052	-200,000	-0,011	-0,172
-163,037	-115,671	-0,067	0,009
-162,023	-105,457	-0,119	0,019
-161,008	4,062	0,013	-0,007
-159,993	280,851	0,058	0,075
-158,979	800,000	-0,041	-0,102
-157,964	90,771	0,086	0,070
-156,950	-128,537	0,091	-0,009
-155,935	-200,000	0,023	-0,088
-154,920	16,350	-0,014	0,008
-153,906	800,000	-0,011	0,025
-152,891	800,000	-0,066	-0,140
-151,877	-48,051	-0,133	0,046
-150,862	800,000	0,035	0,088
-149,847	488,360	0,032	-0,053
-148,833	18,199	-0,109	0,062
-147,818	-200,000	-0,000	0,077
-146,804	559,887	0,099	0,173
-145,789	-200,000	-0,041	-0,146
-144,775	131,757	0,063	-0,058
-143,760	29,468	0,061	-0,037
-142,745	677,040	-0,050	-0,094
-141,731	-51,665	-0,107	-0,036
-140,716	-169,123	0,045	-0,001
-139,702	155,552	0,157	0,156
-138,687	-200,000	-0,009	-0,034
-137,672	507,917	-0,015	0,025
-136,658	-165,137	0,083	-0,003
-135,643	-200,000	0,009	-0,056
-134,629	-200,000	0,014	0,052
-133,614	800,000	-0,032	-0,072
-132,599	-82,275	-0,064	-0,015
-131,585	-200,000	0,003	0,094
-130,570	-16,231	0,090	0,041
-129,556	-96,502	-0,063	-0,012
-128,541	-35,162	-0,038	0,015
-127,526	624,932	0,041	-0,074
-126,512	-125,403	-0,112	-0,012
-125,497	148,362	-0,042	-0,040
-124,483	305,765	-0,048	0,064
-123,468	-157,264	-0,153	-0,007
-122,453	-41,755	0,070	-0,026
-121,439	-200,000	0,013	0,058
-120,424	-143,489	-0,083	-0,006
