DTS Sentinel unit serial number:	SN410029Multiplexer serial number:	ORYXHardware model number:	OX2-SRSoftware version number:	ORYX F/W v4,00 Oryx Data Collector v3.7.2.0data status	okinstallation	B5 Nyhavnadifferential loss correction	single-endedforward channel	channel 2reverse channel	N/Adate	2023/12/14time	03:42:13forward acquisition time	300,00reverse acquisition time	0,00gamma	499,1914k internal	0,3156k external	0,3156temperature offset calibration	1,0000default loss term (dB/km)	0,3820temperature slope calibration	1,0000multiplexer offset coefficient	1,0000multiplexer slope coefficient	1,0000fibre end	0,00T internal ref (°C)	8,12T ext. ref 1 (°C)	-8,30T ext. ref 2 (°C)	-8,37length (m)	temperature (°C)	Stokes	anti-Stokes-744,400	-140,206	0,103	-0,008
-743,385	-136,533	-0,411	-0,035
-742,371	42,711	0,215	0,144
-741,356	-157,574	-0,447	0,019
-740,342	462,897	0,111	0,184
-739,327	-74,512	-0,386	0,102
-738,312	200,155	0,052	0,059
-737,298	-94,987	-0,534	-0,105
-736,283	-36,575	0,215	0,085
-735,269	-166,118	-0,399	0,012
-734,254	355,126	0,057	0,084
-733,239	-15,677	-0,571	-0,268
-732,225	-50,475	0,248	0,086
-731,210	-200,000	-0,037	0,145
-730,196	800,000	0,027	0,070
-729,181	715,994	0,003	-0,006
-728,167	-200,000	0,003	0,078
-727,152	5,217	-0,029	0,015
-726,137	-159,638	-0,133	0,005
-725,123	-200,000	0,007	-0,056
-724,108	800,000	-0,028	-0,088
-723,094	-200,000	-0,006	-0,038
-722,079	54,616	-0,117	-0,083
-721,064	274,450	-0,083	-0,108
-720,050	252,851	-0,084	0,106
-719,035	-89,206	-0,043	-0,009
-718,021	-13,072	-0,088	0,042
-717,006	79,156	-0,112	-0,088
-715,991	467,947	-0,065	-0,108
-714,977	-14,554	-0,090	-0,042
-713,962	15,195	0,075	-0,043
-712,948	-23,108	0,044	-0,019
-711,933	491,493	-0,079	0,134
-710,918	-73,542	-0,117	0,031
-709,904	800,000	-0,024	-0,054
-708,889	-131,408	-0,203	-0,020
-707,875	293,479	-0,026	-0,035
-706,860	404,271	0,055	-0,085
-705,845	254,790	-0,038	-0,048
-704,831	388,122	0,015	0,023
-703,816	74,256	-0,133	-0,103
-702,802	800,000	-0,014	-0,039
-701,787	-78,159	0,099	0,025
-700,772	114,623	0,069	-0,062
-699,758	800,000	-0,052	-0,117
-698,743	39,311	0,078	-0,051
-697,729	20,962	0,204	0,122
-696,714	-200,000	-0,003	0,074
-695,699	510,147	-0,137	-0,236
-694,685	-82,937	-0,115	-0,027
-693,670	99,693	-0,037	-0,031
-692,656	151,265	-0,111	0,111
-691,641	104,785	0,081	-0,071
-690,627	-200,000	0,009	-0,073
-689,612	597,364	-0,060	-0,109
-688,597	-25,493	-0,085	-0,037
-687,583	7,744	-0,036	-0,020
-686,568	800,000	-0,038	-0,105
-685,554	-200,000	-0,000	-0,164
-684,539	393,395	-0,044	0,067
-683,524	-159,845	-0,096	0,004
-682,510	-17,588	0,105	0,049
-681,495	-127,570	-0,114	-0,012
-680,481	-149,588	0,131	0,007
-679,466	-49,220	0,090	0,032
-678,451	100,907	-0,081	-0,070
-677,437	155,283	0,026	-0,026
-676,422	-46,224	0,109	-0,039
-675,408	-56,015	-0,102	-0,033
-674,393	-152,720	0,064	-0,003
-673,378	20,729	-0,030	0,018
-672,364	597,286	-0,023	-0,042
-671,349	-0,270	0,040	0,021
-670,335	35,532	-0,116	0,075
-669,320	-132,373	0,074	-0,007
-668,305	235,970	0,073	-0,089
-667,291	800,000	-0,031	0,099
-666,276	800,000	0,040	-0,085
-665,262	-29,017	-0,103	-0,043
-664,247	-134,679	-0,129	-0,011
-663,232	-200,000	-0,015	-0,190
-662,218	613,781	0,062	-0,114
-661,203	-200,000	0,006	0,057
-660,189	-40,558	0,027	-0,010
-659,174	-200,000	-0,047	-0,181
-658,159	671,911	-0,029	-0,055
-657,145	52,890	0,050	-0,035
-656,130	-200,000	0,016	-0,087
-655,116	17,800	-0,068	0,040
-654,101	-135,185	-0,045	-0,004
-653,086	-200,000	0,007	-0,090
-652,072	-90,960	-0,128	-0,027
-651,057	-20,733	-0,090	0,041
-650,043	800,000	-0,059	-0,140
-649,028	800,000	-0,033	0,107
-648,014	737,725	0,044	-0,086
-646,999	785,664	0,032	-0,066
-645,984	800,000	0,062	-0,154
-644,970	-200,000	0,015	0,079
-643,955	-200,000	-0,001	0,112
-642,941	-165,904	-0,084	0,003
-641,926	624,467	-0,039	0,072
-640,911	800,000	0,061	0,134
-639,897	800,000	-0,008	0,025
-638,882	-102,038	-0,063	-0,011
-637,868	800,000	-0,018	-0,039
-636,853	-39,055	-0,110	0,042
-635,838	800,000	0,033	-0,070
-634,824	389,379	0,028	-0,042
-633,809	277,983	0,036	-0,047
-632,795	-145,807	-0,114	0,007
-631,780	800,000	-0,034	0,096
-630,765	800,000	0,034	-0,096
-629,751	88,753	-0,083	-0,068
-628,736	125,175	-0,139	-0,129
-627,722	-200,000	-0,003	-0,025
-626,707	238,877	0,130	0,158
-625,692	-92,424	-0,152	-0,031
-624,678	43,095	-0,033	-0,022
-623,663	-172,228	0,114	0,003
-622,649	12,295	-0,044	-0,025
-621,634	-200,000	0,011	0,056
-620,619	-83,453	0,139	-0,032
-619,605	110,541	0,011	-0,009
-618,590	-18,232	0,209	0,096
-617,576	596,764	-0,069	-0,125
-616,561	-200,000	-0,007	0,038
-615,546	318,001	-0,063	0,088
-614,532	800,000	-0,050	-0,107
-613,517	-23,787	-0,009	-0,004
-612,503	800,000	0,018	-0,043
-611,488	112,867	-0,116	0,103
-610,474	-147,197	0,173	-0,011
-609,459	-200,000	-0,018	0,163
-608,444	-111,444	0,048	0,007
-607,430	131,787	-0,056	-0,053
-606,415	-200,000	0,023	-0,082
-605,401	48,669	-0,043	0,029
-604,386	171,702	0,064	0,068
-603,371	244,760	-0,011	-0,014
-602,357	-200,000	-0,011	0,047
-601,342	-166,225	0,097	0,003
-600,328	144,668	0,042	0,041
-599,313	279,294	0,107	-0,140
-598,298	-154,141	0,224	0,011
-597,284	56,840	0,070	0,050
-596,269	336,757	-0,015	0,021
-595,255	458,817	-0,076	-0,125
-594,240	-24,636	-0,061	-0,026
-593,225	-200,000	-0,016	-0,109
-592,211	42,177	-0,041	-0,028
-591,196	-107,109	-0,058	-0,009
-590,182	-74,533	-0,137	-0,036
-589,167	-87,551	0,027	0,006
-588,152	-183,854	-0,118	0,001
-587,138	515,345	0,048	-0,082
-586,123	-159,186	-0,094	0,004
-585,109	301,046	0,033	-0,045
-584,094	315,544	0,020	0,028
-583,079	97,761	0,109	0,092
-582,065	5,280	0,107	0,057
-581,050	-130,984	0,054	-0,005
-580,036	-13,030	-0,043	0,020
-579,021	800,000	0,011	-0,030
-578,006	622,045	0,059	-0,109
-576,992	-118,842	0,118	0,015
-575,977	206,808	-0,054	0,062
-574,963	399,617	0,072	0,110
-573,948	-200,000	-0,039	0,140
-572,934	800,000	-0,032	-0,093
-571,919	78,613	0,110	-0,086
-570,904	-200,000	-0,020	-0,088
-569,890	36,211	0,075	-0,048
-568,875	-80,570	0,041	0,010
-567,861	-200,000	-0,016	0,054
-566,846	800,000	-0,048	0,117
-565,831	-48,612	-0,131	0,046
-564,817	-32,378	-0,041	-0,017
-563,802	-200,000	-0,023	-0,129
-562,788	-200,000	-0,001	0,065
-561,773	23,693	-0,061	0,037
-560,758	37,099	0,106	-0,068
-559,744	170,250	0,071	-0,074
-558,729	283,292	-0,019	-0,025
-557,715	-16,038	-0,157	-0,073
-556,700	58,818	-0,125	-0,090
-555,685	720,728	-0,041	0,080
-554,671	56,936	-0,070	0,050
-553,656	-147,490	0,075	0,005
-552,642	576,101	0,035	-0,063
-551,627	800,000	0,021	0,059
-550,612	-200,000	-0,008	-0,038
-549,598	438,981	0,008	0,014
-548,583	544,829	0,030	-0,053
-547,569	-200,000	-0,005	0,054
-546,554	199,853	-0,040	0,045
-545,539	-200,000	0,007	0,075
-544,525	211,132	-0,053	0,061
-543,510	-105,069	0,057	0,009
-542,496	-61,000	-0,140	-0,043
-541,481	710,943	-0,057	-0,111
-540,466	30,220	0,134	-0,084
-539,452	283,706	-0,045	-0,059
-538,437	168,401	0,090	0,094
-537,423	800,000	-0,016	0,035
-536,408	800,000	0,035	0,088
-535,393	-76,371	0,087	0,022
-534,379	-200,000	-0,031	-0,134
-533,364	-200,000	0,001	0,065
-532,350	159,011	0,105	0,107
-531,335	131,323	0,021	-0,020
-530,321	-91,393	-0,090	0,019
-529,306	-143,035	0,237	0,017
-528,291	-200,000	-0,011	-0,088
-527,277	-114,177	-0,167	-0,023
-526,262	147,434	0,044	0,044
-525,248	-200,000	0,020	-0,155
-524,233	-200,000	0,005	-0,180
-523,218	800,000	0,018	-0,041
-522,204	58,943	0,084	0,060
-521,189	124,550	0,065	-0,060
-520,175	-200,000	0,031	0,133
-519,160	516,792	0,058	-0,099
-518,145	501,701	0,060	0,102
-517,131	-87,753	0,052	0,011
-516,116	-200,000	0,012	-0,069
-515,102	-144,155	-0,096	0,006
-514,087	-200,000	0,041	-0,190
-513,072	270,377	-0,053	-0,069
-512,058	31,094	-0,081	-0,051
-511,043	-200,000	-0,019	-0,069
-510,029	124,272	0,073	-0,067
-509,014	-200,000	0,013	0,152
-507,999	800,000	0,060	-0,125
-506,985	133,682	-0,037	-0,035
-505,970	504,964	0,027	-0,046
-504,956	242,537	-0,010	0,012
-503,941	-63,295	0,071	-0,021
-502,926	-63,347	-0,104	-0,031
-501,912	-200,000	-0,024	-0,133
-500,897	-49,113	0,144	0,050
-499,883	800,000	-0,053	0,134
-498,868	31,618	-0,106	-0,067
-497,853	294,333	0,146	-0,195
-496,839	-22,268	-0,084	0,037
-495,824	277,324	0,091	0,119
-494,810	209,111	0,026	0,030
-493,795	-200,000	0,003	-0,089
-492,781	42,248	0,016	0,011
-491,766	370,727	-0,064	0,095
-490,751	-200,000	-0,010	0,038
-489,737	-200,000	-0,033	-0,112
-488,722	-200,000	0,001	0,081
-487,708	210,225	0,123	0,141
-486,693	-200,000	-0,023	0,110
-485,678	-26,600	0,062	-0,026
-484,664	-129,592	0,140	-0,014
-483,649	174,688	-0,052	-0,055
-482,635	-138,603	-0,062	0,005
-481,620	-74,960	-0,075	-0,019
-480,605	140,879	0,114	0,110
-479,591	-97,639	-0,138	0,026
-478,576	-200,000	-0,000	0,123
-477,562	-86,936	0,042	-0,009
-476,547	-200,000	0,012	0,099
-475,532	354,279	-0,029	-0,043
-474,518	5,831	-0,096	-0,052
-473,503	-200,000	0,017	0,090
-472,489	686,779	-0,046	-0,088
-471,474	-43,617	-0,168	-0,062
-470,459	-200,000	0,002	0,046
-469,445	-163,865	-0,102	-0,003
-468,430	280,379	0,034	-0,044
-467,416	-137,651	0,070	-0,006
-466,401	12,625	0,093	0,052
-465,386	800,000	-0,045	-0,100
-464,372	-159,965	0,124	-0,005
-463,357	800,000	-0,026	-0,057
-462,343	-200,000	0,002	-0,133
-461,328	-152,140	-0,007	0,000
-460,313	-200,000	0,030	0,107
-459,299	633,311	0,043	0,080
-458,284	-200,000	-0,003	-0,137
-457,270	62,015	-0,025	0,018
-456,255	800,000	-0,001	0,002
-455,241	800,000	-0,012	-0,039
-454,226	800,000	0,048	0,122
-453,211	329,541	0,042	0,059
-452,197	308,413	-0,012	-0,016
-451,182	487,913	-0,047	0,078
-450,168	-200,000	0,018	-0,092
-449,153	526,027	-0,024	-0,042
-448,138	-200,000	-0,019	-0,161
-447,124	220,706	-0,033	-0,038
-446,109	-105,426	-0,058	-0,010
-445,095	-200,000	-0,033	0,135
-444,080	328,182	-0,142	0,199
-443,065	382,235	-0,042	-0,063
-442,051	12,559	0,036	0,020
-441,036	48,110	-0,103	-0,070
-440,022	-200,000	-0,004	-0,071
-439,007	42,147	0,064	0,042
-437,992	800,000	0,032	0,067
-436,978	15,951	0,069	0,039
-435,963	800,000	-0,065	0,133
-434,949	-200,000	-0,000	-0,008
-433,934	93,451	-0,066	-0,055
-432,919	-147,943	0,039	-0,002
-431,905	78,816	-0,097	0,076
-430,890	382,712	0,070	0,105
-429,876	50,025	0,040	0,028
-428,861	-77,159	0,183	0,046
-427,846	-93,936	-0,051	0,010
-426,832	800,000	-0,033	-0,067
-425,817	74,385	-0,041	-0,031
-424,803	185,248	-0,132	0,143
-423,788	-133,168	0,068	0,006
-422,773	86,389	0,115	0,092
-421,759	615,604	-0,061	0,113
-420,744	-89,666	-0,063	0,013
-419,730	-200,000	0,027	-0,124
-418,715	-48,045	-0,149	-0,052
-417,701	10,880	0,088	0,049
-416,686	-98,807	0,207	0,038
-415,671	800,000	0,022	-0,051
-414,657	-200,000	-0,008	0,121
-413,642	-26,147	0,106	-0,045
-412,628	-29,587	-0,027	-0,011
-411,613	-200,000	0,025	-0,089
-410,598	-200,000	0,019	0,079
-409,584	-200,000	-0,007	-0,090
-408,569	800,000	0,015	-0,038
-407,555	170,352	0,041	0,043
-406,540	308,394	0,020	0,027
-405,525	-200,000	-0,011	0,069
-404,511	1,792	-0,048	-0,025
-403,496	-200,000	-0,022	-0,070
-402,482	323,997	-0,034	0,047
-401,467	-200,000	0,012	0,113
-400,452	-200,000	-0,002	0,067
-399,438	189,953	0,061	-0,067
-398,423	525,218	-0,114	0,197
-397,409	196,710	-0,110	-0,122
-396,394	-188,927	-0,109	-0,001
-395,379	-80,939	0,046	0,011
-394,365	54,468	0,089	0,062
-393,350	284,888	0,081	0,107
-392,336	554,689	-0,058	-0,102
-391,321	190,007	0,019	0,021
-390,306	-200,000	-0,006	-0,090
-389,292	-2,584	-0,031	-0,016
-388,277	-76,363	0,027	-0,007
-387,263	-75,259	0,122	0,031
-386,248	-200,000	0,005	0,093
-385,233	-200,000	-0,015	0,089
-384,219	117,206	0,075	0,067
-383,204	-117,309	-0,146	-0,019
-382,190	26,031	0,045	-0,027
-381,175	68,456	0,075	-0,056
-380,160	800,000	0,043	0,109
-379,146	-200,000	-0,000	0,055
-378,131	8,789	0,063	0,034
-377,117	-169,166	-0,082	0,002
-376,102	64,427	-0,041	-0,030
-375,088	57,481	-0,086	-0,061
-374,073	-151,119	-0,129	0,007
-373,058	319,996	0,081	0,113
-372,044	-5,206	-0,028	0,014
-371,029	18,539	0,084	-0,049
-370,015	-71,427	-0,107	-0,029
-369,000	45,376	-0,071	0,048
-367,985	498,704	-0,047	-0,078
-366,971	800,000	0,051	-0,146
-365,956	-141,969	0,057	0,004
-364,942	65,593	0,032	0,023
-363,927	585,823	-0,044	-0,079
-362,912	30,178	-0,143	-0,089
-361,898	-200,000	0,013	0,046
-360,883	800,000	-0,058	-0,134
-359,869	-107,115	0,150	-0,024
-358,854	276,722	-0,015	-0,019
-357,839	-119,329	0,180	-0,023
-356,825	-18,569	0,047	0,021
-355,810	800,000	-0,042	0,115
-354,796	-200,000	-0,012	-0,071
-353,781	-200,000	-0,010	0,080
-352,766	-142,877	-0,041	0,003
-351,752	-200,000	0,026	0,085
-350,737	-200,000	0,032	0,174
-349,723	-103,308	0,107	0,018
-348,708	141,163	0,052	-0,050
-347,693	238,162	-0,086	-0,104
-346,679	-82,927	-0,103	0,024
-345,664	-200,000	-0,021	-0,119
-344,650	-200,000	0,021	-0,103
-343,635	-8,968	-0,117	-0,057
-342,620	800,000	-0,022	0,070
-341,606	-57,947	0,094	0,030
-340,591	248,449	0,066	-0,081
-339,577	-13,328	-0,057	-0,027
-338,562	-27,625	0,077	-0,032
-337,548	800,000	-0,022	0,071
-336,533	-3,526	0,027	0,014
-335,518	25,666	0,063	0,038
-334,504	-200,000	0,013	0,045
-333,489	-113,217	-0,085	-0,012
-332,475	63,597	-0,048	-0,035
-331,460	1,352	0,031	0,016
-330,445	146,363	0,089	0,086
-329,431	-112,834	0,126	-0,018
-328,416	291,392	-0,084	0,111
-327,402	-85,092	0,162	0,037
-326,387	-200,000	-0,014	0,068
-325,372	205,589	-0,079	-0,089
-324,358	-92,702	0,089	0,018
-323,343	-200,000	0,001	-0,039
-322,329	53,028	0,105	0,073
-321,314	657,451	0,053	0,100
-320,299	257,597	-0,082	0,102
-319,285	-138,536	-0,147	-0,012
-318,270	46,983	0,037	0,025
-317,256	-200,000	0,004	-0,080
-316,241	800,000	-0,004	-0,009
-315,226	658,191	0,046	0,085
-314,212	-200,000	-0,019	0,132
-313,197	800,000	-0,067	0,136
-312,183	-27,033	-0,093	0,039
-311,168	-119,008	0,107	-0,013
-310,153	-39,103	-0,166	-0,063
-309,139	-36,277	0,216	0,084
-308,124	68,554	-0,086	-0,064
-307,110	37,920	0,005	0,003
-306,095	-7,699	0,112	0,055
-305,080	-96,413	-0,092	0,018
-304,066	-200,000	0,005	-0,139
-303,051	-37,821	-0,120	-0,046
-302,037	417,713	0,042	-0,065
-301,022	-62,495	-0,133	0,040
-300,008	-112,366	0,057	0,008
-298,993	146,710	0,097	-0,095
-297,978	-29,886	-0,083	0,034
-296,964	-200,000	-0,012	-0,049
-295,949	182,251	-0,088	-0,094
-294,935	100,420	0,022	0,019
-293,920	94,396	0,062	0,051
-292,905	800,000	-0,078	0,161
-291,891	280,318	0,057	0,074
-290,876	298,603	-0,075	0,100
-289,862	-34,717	-0,032	-0,013
-288,847	-34,722	-0,040	0,016
-287,832	800,000	-0,034	0,081
-286,818	-160,955	0,100	-0,004
-285,803	-200,000	0,024	-0,165
-284,789	-83,523	0,083	-0,019
-283,774	-11,579	-0,108	0,051
-282,759	800,000	-0,045	0,127
-281,745	46,259	0,042	0,028
-280,730	-200,000	0,012	-0,100
-279,716	157,001	0,024	0,025
-278,701	-89,134	-0,038	-0,008
-277,686	470,547	-0,037	0,061
-276,672	-151,705	0,071	-0,004
-275,657	129,729	-0,102	-0,094
-274,643	-57,939	-0,045	-0,014
-273,628	9,130	-0,063	-0,035
-272,613	9,055	0,125	-0,068
-271,599	362,795	0,042	-0,061
-270,584	264,907	0,043	0,055
-269,570	800,000	0,034	-0,088
-268,555	800,000	-0,034	0,075
-267,540	252,978	-0,095	0,118
-266,526	-52,684	-0,049	0,016
-265,511	-121,779	-0,087	0,010
-264,497	-21,311	-0,038	-0,017
-263,482	-200,000	0,019	0,099
-262,467	-18,416	-0,062	0,028
-261,453	-51,301	-0,064	0,021
-260,438	-161,755	0,071	-0,003
-259,424	146,698	-0,066	-0,065
-258,409	57,216	-0,034	-0,024
-257,395	-200,000	0,025	-0,081
-256,380	800,000	-0,023	0,060
-255,365	-161,863	-0,057	-0,002
-254,351	-24,919	0,078	-0,034
-253,336	176,370	-0,094	-0,099
-252,322	605,334	-0,075	0,136
-251,307	143,172	-0,069	-0,066
-250,292	14,842	-0,134	-0,075
-249,278	451,042	0,060	0,096
-248,263	-200,000	0,006	0,033
-247,249	48,264	-0,078	-0,053
-246,234	-11,736	-0,093	-0,044
-245,219	-200,000	-0,053	-0,275
-244,205	-200,000	-0,011	0,128
-243,190	-200,000	0,019	0,061
-242,176	437,010	-0,121	0,191
-241,161	117,942	-0,075	0,066
-240,146	-200,000	-0,002	0,095
-239,132	-200,000	-0,003	0,077
-238,117	800,000	0,019	-0,053
-237,103	371,723	-0,047	-0,070
-236,088	155,947	0,074	-0,074
-235,073	-200,000	0,036	0,128
-234,059	-28,076	0,035	-0,015
-233,044	165,808	0,084	0,086
-232,030	252,286	0,019	0,024
-231,015	-50,905	-0,107	-0,036
-230,000	53,265	0,027	0,018
-228,986	-200,000	0,016	-0,074
-227,971	-167,705	0,091	-0,003
-226,957	246,836	0,082	0,100
-225,942	-200,000	0,026	0,101
-224,927	141,014	-0,101	0,097
-223,913	800,000	0,050	-0,104
-222,898	494,273	0,092	-0,153
-221,884	-68,830	-0,024	-0,007
-220,869	208,612	-0,113	0,128
-219,855	800,000	0,059	0,130
-218,840	800,000	0,036	0,078
-217,825	-164,769	0,157	0,005
-216,811	651,931	-0,021	0,039
-215,796	-200,000	-0,010	-0,139
-214,782	784,526	0,038	-0,075
-213,767	-200,000	-0,003	0,016
-212,752	621,346	0,071	0,130
-211,738	459,819	-0,044	0,071
-210,723	368,635	0,078	-0,115
-209,709	-57,203	-0,055	0,018
-208,694	-200,000	0,017	-0,104
-207,679	800,000	0,023	-0,057
-206,665	392,966	-0,024	0,037
-205,650	11,307	0,136	0,075
-204,636	376,595	-0,033	0,048
-203,621	95,306	-0,087	0,071
-202,606	543,210	-0,031	0,053
-201,592	-121,266	-0,059	-0,007
-200,577	-49,958	0,123	-0,042
-199,563	323,798	-0,136	-0,188
-198,548	-48,604	-0,013	-0,004
-197,533	-87,126	0,065	-0,014
-196,519	26,403	0,117	-0,071
-195,504	-89,649	-0,119	-0,025
-194,490	-12,123	0,047	0,022
-193,475	470,012	0,029	-0,047
-192,460	-200,000	-0,017	-0,065
-191,446	6,598	-0,056	-0,030
-190,431	-200,000	0,001	-0,124
-189,417	574,866	-0,027	-0,047
-188,402	719,009	0,042	0,080
-187,387	-200,000	-0,054	-0,227
-186,373	-31,063	-0,132	-0,054
-185,358	6,707	-0,096	-0,051
-184,344	-32,851	0,162	0,065
-183,329	105,194	-0,064	0,054
-182,315	-75,929	0,092	0,023
-181,300	-200,000	-0,033	-0,128
-180,285	-200,000	-0,027	-0,161
-179,271	-200,000	-0,014	0,046
-178,256	194,341	0,064	-0,070
-177,242	741,119	-0,043	-0,083
-176,227	-200,000	0,002	0,129
-175,212	-200,000	-0,003	0,022
-174,198	-144,766	-0,124	-0,008
-173,183	-111,373	-0,114	0,017
-172,169	29,285	-0,050	-0,031
-171,154	110,928	0,078	-0,067
-170,139	266,418	0,081	-0,103
-169,125	97,536	0,056	-0,047
-168,110	47,744	-0,072	-0,049
-167,096	398,418	0,064	0,097
-166,081	-98,579	-0,042	-0,008
-165,066	-200,000	0,035	-0,134
-164,052	800,000	0,021	-0,057
-163,037	73,985	-0,049	-0,037
-162,023	522,489	-0,032	-0,055
-161,008	468,092	0,026	0,042
-159,993	-100,148	0,018	0,003
-158,979	-42,514	-0,097	0,035
-157,964	-129,058	0,116	-0,012
-156,950	-75,089	-0,197	-0,050
-155,935	-35,839	0,138	-0,054
-154,920	-89,627	0,151	0,032
-153,906	-200,000	-0,007	0,124
-152,891	-146,658	0,171	0,011
-151,877	144,120	-0,083	0,080
-150,862	-184,575	0,118	0,001
-149,847	-120,351	-0,090	-0,011
-148,833	800,000	-0,077	-0,170
-147,818	316,196	0,082	-0,112
-146,804	-129,937	0,008	-0,001
-145,789	-200,000	-0,004	0,116
-144,775	-200,000	-0,018	0,069
-143,760	223,375	-0,064	-0,075
-142,745	-134,371	0,019	-0,002
-141,731	800,000	-0,026	0,056
-140,716	800,000	0,004	-0,013
-139,702	145,187	0,053	0,051
-138,687	163,155	0,052	-0,053
-137,672	343,194	-0,019	-0,026
-136,658	307,356	-0,055	-0,074
-135,643	34,954	-0,083	-0,052
-134,629	31,723	-0,109	0,068
-133,614	88,439	0,103	0,083
-132,599	388,324	0,018	-0,027
-131,585	131,157	0,082	-0,076
-130,570	-200,000	0,009	-0,081
-129,556	412,658	0,024	-0,037
-128,541	800,000	-0,026	-0,076
-127,526	-200,000	-0,010	-0,096
-126,512	-200,000	0,008	-0,039
-125,497	-200,000	-0,032	0,114
-124,483	171,995	-0,060	-0,062
-123,468	-70,763	-0,126	0,034
-122,453	800,000	-0,090	0,199
-121,439	-178,435	-0,133	0,002
-120,424	-200,000	-0,024	-0,118
