DTS Sentinel unit serial number:	SN410029Multiplexer serial number:	ORYXHardware model number:	OX2-SRSoftware version number:	ORYX F/W v4,00 Oryx Data Collector v3.7.2.0data status	okinstallation	B5 Nyhavnadifferential loss correction	single-endedforward channel	channel 2reverse channel	N/Adate	2023/12/12time	23:17:13forward acquisition time	300,00reverse acquisition time	0,00gamma	499,1914k internal	0,3158k external	0,3158temperature offset calibration	1,0000default loss term (dB/km)	0,3820temperature slope calibration	1,0000multiplexer offset coefficient	1,0000multiplexer slope coefficient	1,0000fibre end	0,00T internal ref (°C)	14,48T ext. ref 1 (°C)	-2,05T ext. ref 2 (°C)	-2,36length (m)	temperature (°C)	Stokes	anti-Stokes-744,400	11,848	0,111	0,063
-743,385	-76,695	-0,250	0,064
-742,371	-200,000	0,012	0,119
-741,356	-139,182	-0,381	0,030
-740,342	162,547	0,099	-0,102
-739,327	-73,889	-0,338	-0,090
-738,312	-70,710	0,125	0,035
-737,298	-141,927	-0,281	0,020
-736,283	239,061	0,068	0,084
-735,269	-47,924	-0,248	0,088
-734,254	-200,000	-0,027	0,159
-733,239	-23,852	-0,437	-0,192
-732,225	-111,693	0,155	0,023
-731,210	15,389	-0,046	-0,026
-730,196	-96,243	-0,068	0,013
-729,181	162,995	-0,110	0,113
-728,167	443,323	-0,038	-0,062
-727,152	-89,569	-0,126	-0,027
-726,137	-200,000	-0,009	-0,094
-725,123	-38,058	-0,064	0,025
-724,108	-200,000	0,018	-0,088
-723,094	-182,005	-0,229	0,003
-722,079	-139,086	-0,067	0,005
-721,064	382,575	0,065	0,099
-720,050	84,682	-0,029	-0,024
-719,035	82,410	0,070	-0,056
-718,021	117,523	0,017	-0,016
-717,006	-85,507	-0,096	0,022
-715,991	-18,192	-0,114	-0,052
-714,977	800,000	-0,067	-0,162
-713,962	179,269	-0,062	0,067
-712,948	-56,688	0,026	0,009
-711,933	-14,239	0,060	0,028
-710,918	190,029	-0,114	-0,126
-709,904	440,359	-0,114	-0,184
-708,889	62,731	0,085	-0,062
-707,875	800,000	-0,041	-0,085
-706,860	-5,554	0,120	-0,060
-705,845	-200,000	-0,013	-0,095
-704,831	-200,000	-0,040	-0,145
-703,816	-15,535	0,101	-0,047
-702,802	-170,063	-0,161	-0,004
-701,787	-62,985	-0,097	0,029
-700,772	-109,030	-0,089	0,014
-699,758	-200,000	0,012	-0,085
-698,743	800,000	-0,005	0,009
-697,729	-200,000	-0,027	0,183
-696,714	-200,000	0,004	0,030
-695,699	-200,000	0,017	-0,076
-694,685	-102,859	-0,240	-0,042
-693,670	344,126	-0,084	-0,121
-692,656	-32,565	0,056	-0,023
-691,641	-200,000	-0,024	0,105
-690,627	117,751	0,015	-0,014
-689,612	-111,785	-0,075	0,011
-688,597	299,417	-0,074	0,100
-687,583	7,586	-0,042	0,023
-686,568	-34,924	-0,054	0,022
-685,554	800,000	-0,063	-0,129
-684,539	-46,011	-0,058	0,021
-683,524	260,052	-0,036	-0,046
-682,510	423,647	-0,013	-0,021
-681,495	19,624	0,149	-0,088
-680,481	-14,093	-0,084	-0,040
-679,466	50,156	-0,019	0,013
-678,451	-200,000	0,005	0,026
-677,437	-4,017	0,041	-0,021
-676,422	-20,863	-0,132	-0,059
-675,408	211,426	-0,033	-0,038
-674,393	800,000	-0,054	0,158
-673,378	-63,302	0,150	-0,045
-672,364	598,109	-0,026	0,047
-671,349	277,246	-0,065	0,086
-670,335	47,927	-0,044	-0,030
-669,320	52,556	0,037	-0,026
-668,305	800,000	0,036	-0,083
-667,291	-200,000	-0,006	0,112
-666,276	-94,328	-0,146	-0,029
-665,262	-94,763	-0,039	0,008
-664,247	200,846	-0,060	0,068
-663,232	394,631	-0,053	-0,081
-662,218	-50,132	0,155	-0,053
-661,203	172,117	-0,096	0,102
-660,189	-200,000	0,011	-0,038
-659,174	-200,000	0,004	0,020
-658,159	53,297	-0,108	-0,076
-657,145	-46,573	-0,177	-0,063
-656,130	297,739	0,059	-0,080
-655,116	-35,171	0,043	0,017
-654,101	189,396	0,093	0,103
-653,086	-200,000	0,005	-0,033
-652,072	800,000	0,033	0,100
-651,057	428,499	0,078	-0,124
-650,043	316,577	-0,107	-0,149
-649,028	800,000	-0,034	-0,088
-648,014	-115,873	0,098	0,013
-646,999	-200,000	0,006	-0,091
-645,984	-126,798	-0,138	-0,015
-644,970	-200,000	-0,001	0,131
-643,955	-200,000	0,027	-0,127
-642,941	220,354	-0,084	-0,099
-641,926	10,351	-0,078	-0,043
-640,911	-151,586	0,063	0,003
-639,897	-116,007	0,030	-0,004
-638,882	-84,912	-0,168	-0,038
-637,868	-159,793	0,082	-0,003
-636,853	-122,265	-0,055	0,007
-635,838	574,244	-0,027	-0,049
-634,824	-200,000	-0,025	-0,087
-633,809	-101,691	-0,077	0,014
-632,795	-45,654	0,033	0,012
-631,780	-200,000	0,000	-0,016
-630,765	-200,000	0,007	-0,141
-629,751	-200,000	-0,013	-0,107
-628,736	800,000	-0,045	-0,126
-627,722	-200,000	-0,007	-0,154
-626,707	800,000	-0,060	0,123
-625,692	800,000	0,007	-0,019
-624,678	-200,000	-0,003	0,017
-623,663	70,469	-0,072	-0,054
-622,649	-200,000	-0,004	-0,132
-621,634	-200,000	-0,037	-0,205
-620,619	-6,366	-0,082	0,041
-619,605	-200,000	0,030	-0,192
-618,590	-125,209	-0,125	-0,014
-617,576	-200,000	0,034	0,160
-616,561	-2,267	0,083	0,042
-615,546	-95,062	-0,081	-0,016
-614,532	-19,296	0,072	-0,032
-613,517	-200,000	0,030	-0,192
-612,503	111,681	0,055	0,048
-611,488	-200,000	-0,009	0,159
-610,474	-141,991	-0,072	-0,005
-609,459	-112,364	0,149	0,022
-608,444	-200,000	-0,042	-0,172
-607,430	-200,000	-0,003	-0,065
-606,415	90,449	-0,040	0,032
-605,401	150,222	-0,012	-0,012
-604,386	-106,801	-0,113	-0,018
-603,371	667,834	-0,097	-0,185
-602,357	-200,000	-0,006	0,123
-601,342	800,000	-0,025	0,064
-600,328	800,000	-0,062	-0,169
-599,313	162,090	0,023	-0,023
-598,298	-73,439	-0,070	0,019
-597,284	-25,510	-0,035	0,015
-596,269	-162,695	0,107	-0,004
-595,255	565,487	0,036	-0,064
-594,240	72,601	0,061	-0,046
-593,225	246,047	0,062	-0,077
-592,211	800,000	0,063	-0,136
-591,196	-200,000	0,021	0,094
-590,182	800,000	-0,037	0,120
-589,167	204,448	0,051	0,059
-588,152	-59,969	-0,052	0,016
-587,138	-22,605	-0,088	0,039
-586,123	34,593	0,037	0,024
-585,109	-37,723	-0,143	-0,055
-584,094	38,262	0,068	0,044
-583,079	201,097	0,030	-0,034
-582,065	453,689	-0,036	-0,058
-581,050	86,904	0,007	-0,006
-580,036	709,550	-0,095	-0,185
-579,021	-200,000	0,028	0,145
-578,006	800,000	0,011	-0,035
-576,992	221,548	0,111	-0,131
-575,977	-188,045	0,119	-0,001
-574,963	216,540	0,032	-0,038
-573,948	800,000	0,050	0,138
-572,934	-159,663	-0,141	0,006
-571,919	-18,008	-0,088	0,040
-570,904	-200,000	-0,008	-0,041
-569,890	-200,000	-0,012	-0,096
-568,875	-114,822	0,106	0,015
-567,861	-54,265	-0,076	0,025
-566,846	-200,000	-0,020	-0,070
-565,831	-200,000	-0,002	-0,025
-564,817	800,000	0,027	-0,071
-563,802	112,555	-0,105	-0,093
-562,788	-26,567	-0,077	-0,033
-561,773	94,464	0,109	-0,090
-560,758	276,568	0,050	0,065
-559,744	347,146	0,030	0,043
-558,729	-10,326	0,095	-0,046
-557,715	185,819	-0,091	0,099
-556,700	-107,026	-0,163	0,026
-555,685	41,708	-0,097	0,064
-554,671	-140,259	-0,128	0,010
-553,656	800,000	0,044	-0,091
-552,642	-200,000	-0,022	0,086
-551,627	137,168	-0,075	-0,072
-550,612	429,875	-0,049	0,078
-549,598	165,540	0,039	0,041
-548,583	150,497	-0,028	-0,028
-547,569	793,497	0,036	0,074
-546,554	-112,384	-0,094	-0,014
-545,539	-200,000	0,005	-0,036
-544,525	800,000	0,021	-0,043
-543,510	-117,089	0,026	0,003
-542,496	-76,598	-0,043	0,011
-541,481	119,846	-0,095	-0,086
-540,466	-200,000	-0,004	-0,162
-539,452	1,251	-0,122	-0,064
-538,437	400,119	0,068	-0,105
-537,423	208,390	0,097	0,112
-536,408	-123,001	-0,062	-0,007
-535,393	113,627	-0,092	-0,082
-534,379	800,000	-0,016	-0,048
-533,364	56,241	0,040	0,029
-532,350	205,486	0,103	-0,117
-531,335	157,394	0,068	0,068
-530,321	238,064	0,102	0,124
-529,306	154,961	-0,061	-0,061
-528,291	-200,000	0,018	-0,062
-527,277	800,000	-0,031	0,077
-526,262	-200,000	-0,023	-0,105
-525,248	-116,811	0,066	-0,009
-524,233	-77,089	0,055	0,014
-523,218	800,000	0,058	-0,127
-522,204	800,000	0,017	0,039
-521,189	612,748	-0,049	-0,091
-520,175	-200,000	0,002	0,019
-519,160	524,718	0,023	-0,040
-518,145	-21,023	-0,137	0,061
-517,131	95,375	-0,061	-0,051
-516,116	800,000	-0,057	0,172
-515,102	126,860	0,084	0,077
-514,087	-200,000	0,009	0,154
-513,072	-30,814	0,074	0,031
-512,058	221,204	0,032	0,037
-511,043	-195,465	-0,064	-0,000
-510,029	6,278	0,085	0,046
-509,014	-78,587	0,083	0,021
-507,999	280,600	0,062	0,082
-506,985	-100,577	-0,111	-0,020
-505,970	-200,000	-0,002	0,019
-504,956	-200,000	-0,026	-0,091
-503,941	-200,000	-0,010	0,093
-502,926	189,606	-0,052	-0,057
-501,912	-200,000	0,006	0,143
-500,897	-200,000	0,013	0,191
-499,883	42,332	0,071	0,047
-498,868	800,000	-0,040	-0,113
-497,853	-200,000	0,000	-0,089
-496,839	-96,449	-0,020	0,004
-495,824	517,726	-0,020	0,033
-494,810	-97,847	0,100	-0,019
-493,795	800,000	0,055	0,115
-492,781	-107,290	-0,133	0,021
-491,766	-167,114	-0,077	0,002
-490,751	463,795	-0,056	-0,091
-489,737	63,197	0,083	0,060
-488,722	331,139	0,015	-0,022
-487,708	34,243	-0,015	-0,009
-486,693	800,000	0,023	0,065
-485,678	33,528	-0,056	-0,035
-484,664	319,714	0,145	0,201
-483,649	497,631	-0,073	-0,124
-482,635	599,256	0,099	-0,180
-481,620	-200,000	0,016	0,127
-480,605	198,737	-0,063	0,070
-479,591	101,762	0,090	-0,076
-478,576	218,854	-0,038	0,044
-477,562	117,840	-0,166	-0,150
-476,547	250,806	0,064	-0,079
-475,532	-200,000	0,015	0,122
-474,518	98,488	0,052	0,043
-473,503	800,000	0,024	-0,071
-472,489	686,699	-0,036	-0,069
-471,474	-68,531	0,123	-0,035
-470,459	-200,000	-0,011	-0,042
-469,445	146,491	-0,111	-0,109
-468,430	-200,000	-0,014	0,060
-467,416	185,687	0,068	0,074
-466,401	-200,000	0,008	0,112
-465,386	800,000	0,028	-0,061
-464,372	-200,000	-0,003	-0,072
-463,357	-11,127	0,156	0,075
-462,343	293,306	-0,130	-0,174
-461,328	-174,259	-0,126	-0,003
-460,313	360,667	-0,045	0,066
-459,299	-200,000	-0,040	0,000
-458,284	-200,000	0,007	0,062
-457,270	197,857	0,024	0,027
-456,255	-44,491	0,057	-0,021
-455,241	-2,049	0,043	0,022
-454,226	-20,239	-0,156	-0,070
-453,211	-78,767	0,038	-0,009
-452,197	103,467	0,044	0,038
-451,182	-87,656	0,112	-0,025
-450,168	800,000	-0,018	0,053
-449,153	275,905	-0,138	-0,178
-448,138	-200,000	0,002	0,011
-447,124	-90,794	-0,053	0,011
-446,109	-200,000	0,003	-0,021
-445,095	59,272	-0,033	-0,023
-444,080	66,452	-0,019	-0,014
-443,065	800,000	0,023	0,048
-442,051	-200,000	-0,012	-0,071
-441,036	-53,165	0,040	0,013
-440,022	800,000	0,090	-0,188
-439,007	800,000	0,025	0,063
-437,992	-57,905	-0,024	0,007
-436,978	-104,837	-0,011	-0,002
-435,963	-154,930	-0,055	-0,003
-434,949	-92,062	-0,053	0,011
-433,934	800,000	-0,039	-0,107
-432,919	-2,280	-0,017	0,009
-431,905	420,322	-0,053	-0,082
-430,890	800,000	0,026	-0,063
-429,876	800,000	0,018	-0,048
-428,861	-200,000	-0,006	0,137
-427,846	508,261	-0,059	-0,100
-426,832	-58,930	0,014	-0,004
-425,817	-5,879	0,078	-0,039
-424,803	800,000	0,046	-0,112
-423,788	630,834	0,053	0,098
-422,773	70,887	0,087	0,066
-421,759	100,585	-0,021	-0,018
-420,744	10,525	-0,125	-0,069
-419,730	-200,000	-0,012	0,131
-418,715	-200,000	-0,087	0,000
-417,701	14,020	-0,144	0,081
-416,686	-67,900	0,087	-0,025
-415,671	800,000	0,030	-0,066
-414,657	-200,000	-0,010	0,127
-413,642	69,784	-0,105	-0,079
-412,628	201,435	0,040	0,045
-411,613	800,000	-0,066	-0,139
-410,598	800,000	0,047	-0,130
-409,584	-47,604	-0,048	0,017
-408,569	-200,000	-0,012	-0,065
-407,555	-90,920	0,044	0,009
-406,540	-31,560	-0,100	0,041
-405,525	-200,000	-0,000	-0,052
-404,511	-44,301	0,068	-0,025
-403,496	-6,705	-0,064	0,032
-402,482	402,764	0,025	0,038
-401,467	800,000	-0,023	-0,052
-400,452	87,831	0,080	-0,064
-399,438	800,000	-0,037	-0,092
-398,423	-21,204	-0,059	0,026
-397,409	-91,452	0,162	0,033
-396,394	527,122	0,097	-0,167
-395,379	-131,699	0,015	0,001
-394,365	-200,000	0,006	0,079
-393,350	-200,000	0,009	-0,037
-392,336	-200,000	0,022	0,113
-391,321	650,168	-0,028	-0,052
-390,306	800,000	-0,024	-0,077
-389,292	-51,548	-0,083	-0,028
-388,277	-46,109	-0,014	-0,005
-387,263	5,217	0,161	0,086
-386,248	-38,813	-0,061	-0,023
-385,233	800,000	-0,054	-0,129
-384,219	-200,000	-0,007	-0,093
-383,204	-200,000	0,001	0,048
-382,190	362,190	0,025	-0,037
-381,175	-200,000	-0,003	-0,024
-380,160	-94,386	0,116	0,023
-379,146	356,260	0,062	0,090
-378,131	-121,081	0,070	-0,008
-377,117	476,809	-0,031	-0,051
-376,102	-200,000	0,005	-0,046
-375,088	204,481	-0,046	0,051
-374,073	-200,000	0,007	0,041
-373,058	126,729	0,119	0,109
-372,044	800,000	0,085	0,194
-371,029	800,000	-0,037	0,102
-370,015	-200,000	-0,035	0,183
-369,000	-28,408	0,076	-0,032
-367,985	101,960	-0,058	-0,049
-366,971	33,880	0,147	-0,093
-365,956	246,120	0,068	0,083
-364,942	-200,000	-0,031	0,207
-363,927	-200,000	-0,001	0,036
-362,912	-200,000	0,036	-0,138
-361,898	-30,752	-0,093	-0,038
-360,883	131,874	0,012	-0,011
-359,869	-136,348	0,053	0,004
-358,854	464,369	-0,102	0,166
-357,839	97,960	-0,063	0,053
-356,825	315,182	-0,051	0,070
-355,810	372,776	-0,064	-0,095
-354,796	-200,000	-0,021	-0,077
-353,781	-116,108	0,083	0,011
-352,766	-148,239	-0,039	-0,002
-351,752	-200,000	0,024	-0,163
-350,737	-87,120	0,097	0,021
-349,723	-200,000	0,009	0,101
-348,708	800,000	-0,007	-0,018
-347,693	-36,360	-0,083	0,032
-346,679	22,068	0,026	-0,015
-345,664	-80,995	-0,107	0,025
-344,650	10,418	0,116	0,064
-343,635	-64,834	-0,044	0,013
-342,620	-200,000	-0,027	0,104
-341,606	739,501	0,045	0,088
-340,591	28,787	0,067	0,041
-339,577	-61,793	-0,056	0,017
-338,562	0,231	0,088	-0,045
-337,548	22,057	-0,073	0,043
-336,533	-12,642	0,121	-0,057
-335,518	0,045	-0,074	0,038
-334,504	322,792	-0,072	0,100
-333,489	150,536	-0,053	0,052
-332,475	81,217	-0,111	0,087
-331,460	350,985	0,055	0,080
-330,445	-82,277	0,140	0,033
-329,431	-34,710	-0,013	0,005
-328,416	-200,000	-0,017	0,138
-327,402	-200,000	-0,014	0,202
-326,387	-94,701	-0,169	-0,033
-325,372	225,358	0,014	0,017
-324,358	90,973	0,035	-0,029
-323,343	-69,191	0,051	0,014
-322,329	-84,114	0,012	0,003
-321,314	15,184	0,099	0,056
-320,299	699,060	0,056	0,106
-319,285	-42,470	-0,080	0,030
-318,270	-200,000	-0,000	0,112
-317,256	578,458	-0,085	-0,151
-316,241	156,035	-0,088	-0,088
-315,226	800,000	-0,032	0,076
-314,212	-200,000	0,002	0,028
-313,197	800,000	-0,015	0,038
-312,183	27,206	0,065	-0,040
-311,168	-200,000	-0,006	0,045
-310,153	800,000	0,025	-0,066
-309,139	-200,000	-0,014	-0,088
-308,124	-200,000	0,019	-0,091
-307,110	49,330	0,146	-0,099
-306,095	6,193	-0,097	0,052
-305,080	35,672	-0,100	-0,064
-304,066	705,107	0,005	0,009
-303,051	-200,000	0,019	-0,073
-302,037	637,220	0,013	-0,024
-301,022	800,000	0,020	0,048
-300,008	-200,000	-0,003	0,051
-298,993	-200,000	0,015	-0,110
-297,978	-160,105	0,157	-0,006
-296,964	800,000	-0,020	-0,061
-295,949	800,000	-0,061	-0,158
-294,935	-200,000	0,006	-0,180
-293,920	-200,000	-0,008	0,038
-292,905	104,910	-0,059	0,050
-291,891	-193,049	0,119	0,001
-290,876	-144,698	-0,089	-0,006
-289,862	50,853	0,073	-0,050
-288,847	38,944	0,050	0,033
-287,832	-91,121	-0,129	-0,027
-286,818	-86,851	0,030	0,007
-285,803	800,000	0,030	-0,066
-284,789	-200,000	0,002	-0,040
-283,774	-200,000	0,022	-0,105
-282,759	178,907	-0,098	0,104
-281,745	-40,473	0,057	0,021
-280,730	-6,475	-0,085	0,042
-279,716	151,960	-0,044	0,043
-278,701	-21,653	0,049	-0,021
-277,686	214,294	0,053	-0,060
-276,672	-200,000	0,009	0,071
-275,657	311,125	0,026	0,035
-274,643	432,315	0,054	-0,085
-273,628	501,419	-0,053	-0,090
-272,613	66,212	0,049	-0,036
-271,599	106,064	0,125	-0,107
-270,584	264,172	0,043	0,054
-269,570	71,981	0,066	0,050
-268,555	24,856	0,026	-0,016
-267,540	-200,000	0,009	0,053
-266,526	-3,028	0,165	-0,083
-265,511	-63,029	-0,107	-0,032
-264,497	-200,000	0,025	0,179
-263,482	-200,000	-0,027	0,129
-262,467	761,310	0,105	0,207
-261,453	800,000	0,040	0,114
-260,438	-64,280	-0,067	0,020
-259,424	-200,000	0,012	-0,055
-258,409	253,313	-0,076	-0,094
-257,395	498,779	0,073	0,122
-256,380	-84,800	-0,069	0,016
-255,365	-127,008	0,091	0,009
-254,351	-200,000	-0,023	0,092
-253,336	-177,695	0,121	-0,002
-252,322	800,000	0,040	-0,094
-251,307	46,418	0,051	-0,034
-250,292	212,596	-0,025	0,029
-249,278	-200,000	0,003	0,135
-248,263	53,180	-0,109	0,075
-247,249	800,000	-0,048	0,119
-246,234	-92,877	-0,043	0,009
-245,219	60,658	-0,030	-0,021
-244,205	-64,837	0,109	-0,032
-243,190	289,164	-0,063	0,083
-242,176	311,537	-0,040	0,055
-241,161	-116,439	0,089	0,012
-240,146	69,930	-0,025	0,019
-239,132	-163,359	-0,076	0,003
-238,117	-116,989	0,054	0,007
-237,103	-200,000	0,005	0,050
-236,088	-161,748	-0,126	-0,005
-235,073	-16,518	0,120	0,055
-234,059	147,465	0,064	0,062
-233,044	-200,000	-0,035	0,175
-232,030	7,654	-0,051	-0,027
-231,015	23,971	0,047	-0,028
-230,000	449,409	0,053	0,086
-228,986	-55,866	0,114	0,037
-227,971	304,714	-0,098	0,132
-226,957	-98,368	0,093	0,017
-225,942	-200,000	-0,014	0,070
-224,927	48,430	0,097	0,066
-223,913	612,320	-0,035	-0,063
-222,898	304,485	-0,035	0,047
-221,884	-200,000	-0,012	-0,062
-220,869	-200,000	0,025	0,150
-219,855	-200,000	0,001	0,124
-218,840	-200,000	-0,009	-0,051
-217,825	12,886	-0,033	-0,018
-216,811	-162,607	-0,192	-0,007
-215,796	98,404	0,080	-0,066
-214,782	-36,862	0,080	-0,031
-213,767	-48,293	-0,095	-0,033
-212,752	-46,122	-0,076	0,027
-211,738	-200,000	-0,007	-0,036
-210,723	-18,191	-0,077	-0,035
-209,709	-2,803	0,129	-0,065
-208,694	-200,000	0,015	-0,052
-207,679	800,000	-0,044	-0,134
-206,665	-45,331	0,013	-0,005
-205,650	108,002	-0,018	0,016
-204,636	-200,000	0,001	0,117
-203,621	-97,736	-0,020	0,004
-202,606	89,065	-0,035	0,028
-201,592	-5,065	0,007	0,004
-200,577	-200,000	-0,001	-0,051
-199,563	145,958	-0,070	-0,068
-198,548	-185,931	0,134	0,001
-197,533	98,696	0,041	0,034
-196,519	-200,000	-0,003	0,018
-195,504	-6,777	0,069	-0,033
-194,490	-200,000	-0,010	0,070
-193,475	-200,000	-0,015	-0,095
-192,460	-131,188	0,071	-0,007
-191,446	12,868	0,024	-0,013
-190,431	-48,781	-0,039	0,013
-189,417	668,403	0,043	-0,081
-188,402	301,202	-0,057	0,076
-187,387	-24,831	0,134	0,057
-186,373	12,314	-0,021	-0,012
-185,358	-123,613	-0,023	0,003
-184,344	16,538	-0,120	-0,068
-183,329	800,000	0,066	0,140
-182,315	196,066	-0,106	0,117
-181,300	380,408	-0,038	-0,056
-180,285	7,323	-0,028	-0,015
-179,271	-103,275	-0,088	0,015
-178,256	-200,000	-0,025	0,182
-177,242	-70,883	0,101	0,027
-176,227	-200,000	0,035	-0,116
-175,212	263,112	0,113	-0,142
-174,198	-5,875	0,087	0,043
-173,183	224,719	0,043	0,050
-172,169	800,000	-0,036	-0,087
-171,154	561,520	0,072	0,126
-170,139	50,883	0,089	0,060
-169,125	-200,000	-0,008	0,151
-168,110	-200,000	0,026	0,101
-167,096	-22,802	0,064	-0,028
-166,081	52,868	0,105	-0,072
-165,066	686,227	0,044	0,084
-164,052	250,098	0,107	0,131
-163,037	-81,696	-0,034	0,008
-162,023	-48,198	0,026	-0,009
-161,008	317,891	-0,019	0,026
-159,993	-200,000	0,001	0,052
-158,979	-100,023	-0,093	0,017
-157,964	214,462	0,063	-0,072
-156,950	84,912	0,026	0,020
-155,935	800,000	0,028	0,077
-154,920	-146,951	0,115	0,007
-153,906	-42,371	-0,105	0,038
-152,891	-22,525	-0,089	-0,039
-151,877	-58,853	0,068	-0,021
-150,862	307,270	-0,040	-0,054
-149,847	131,585	0,029	-0,027
-148,833	-200,000	0,004	0,070
-147,818	-200,000	-0,006	0,061
-146,804	-133,456	0,251	-0,022
-145,789	-200,000	0,013	-0,072
-144,775	7,299	-0,067	-0,036
-143,760	-200,000	-0,011	0,091
-142,745	526,004	0,028	0,048
-141,731	-151,761	0,122	0,006
-140,716	739,041	0,047	0,092
-139,702	-200,000	0,033	0,135
-138,687	-200,000	-0,028	-0,109
-137,672	-131,828	-0,166	0,015
-136,658	800,000	0,022	-0,067
-135,643	-114,059	-0,115	-0,016
-134,629	129,436	-0,051	0,047
-133,614	-83,197	0,103	0,024
-132,599	539,435	-0,038	-0,065
-131,585	227,553	-0,059	0,070
-130,570	800,000	0,009	0,020
-129,556	-68,963	-0,039	0,011
-128,541	-21,021	-0,034	0,015
-127,526	-200,000	0,001	-0,038
-126,512	-200,000	0,053	0,169
-125,497	800,000	0,012	0,032
-124,483	85,715	0,086	0,068
-123,468	800,000	-0,027	0,059
-122,453	-94,113	0,015	0,003
-121,439	453,645	-0,017	0,027
-120,424	-30,562	0,201	0,082
-119,410	-95,303	0,068	0,013
