DTS Sentinel unit serial number:	SN410029Multiplexer serial number:	ORYXHardware model number:	OX2-SRSoftware version number:	ORYX F/W v4,00 Oryx Data Collector v3.7.2.0data status	okinstallation	B5 Nyhavnadifferential loss correction	single-endedforward channel	channel 2reverse channel	N/Adate	2023/12/14time	13:22:13forward acquisition time	300,00reverse acquisition time	0,00gamma	499,1914k internal	0,3157k external	0,3157temperature offset calibration	1,0000default loss term (dB/km)	0,3820temperature slope calibration	1,0000multiplexer offset coefficient	1,0000multiplexer slope coefficient	1,0000fibre end	0,00T internal ref (°C)	8,06T ext. ref 1 (°C)	-7,74T ext. ref 2 (°C)	-7,81length (m)	temperature (°C)	Stokes	anti-Stokes-744,400	-122,440	0,174	-0,021
-743,385	-108,754	-0,372	-0,058
-742,371	800,000	0,094	0,220
-741,356	-87,380	-0,308	-0,068
-740,342	-179,816	0,287	0,004
-739,327	200,886	-0,246	-0,280
-738,312	-77,594	0,104	0,026
-737,298	-7,112	-0,332	-0,165
-736,283	-200,000	0,022	0,181
-735,269	-76,695	-0,384	-0,098
-734,254	-77,699	0,048	0,012
-733,239	-68,687	-0,504	-0,143
-732,225	522,537	0,038	0,065
-731,210	103,017	-0,107	0,092
-730,196	-200,000	-0,005	0,142
-729,181	146,556	-0,061	0,061
-728,167	-9,971	-0,025	0,012
-727,152	-200,000	-0,016	-0,077
-726,137	-99,199	-0,065	-0,012
-725,123	-61,025	-0,108	0,033
-724,108	158,781	-0,031	-0,032
-723,094	-200,000	0,032	-0,152
-722,079	613,767	-0,045	-0,083
-721,064	-200,000	0,021	-0,076
-720,050	800,000	0,041	-0,100
-719,035	800,000	-0,042	-0,112
-718,021	-200,000	0,006	0,148
-717,006	-200,000	-0,023	-0,091
-715,991	136,491	-0,098	-0,095
-714,977	-93,690	-0,148	0,030
-713,962	402,202	-0,038	-0,059
-712,948	188,359	-0,107	0,118
-711,933	98,476	0,088	-0,075
-710,918	-200,000	-0,012	0,183
-709,904	-200,000	-0,034	-0,136
-708,889	56,370	-0,162	-0,116
-707,875	-74,760	0,065	0,017
-706,860	398,544	-0,063	-0,098
-705,845	551,852	-0,032	-0,056
-704,831	800,000	-0,065	0,191
-703,816	-12,858	0,111	0,053
-702,802	599,639	-0,080	-0,147
-701,787	150,646	-0,107	-0,107
-700,772	479,973	0,062	0,103
-699,758	800,000	0,029	0,076
-698,743	705,883	0,072	-0,140
-697,729	200,456	0,071	-0,081
-696,714	276,500	0,065	-0,086
-695,699	83,566	-0,021	0,017
-694,685	19,878	-0,051	0,030
-693,670	-157,022	-0,031	-0,001
-692,656	-127,962	-0,091	0,009
-691,641	43,635	0,073	0,049
-690,627	-200,000	0,037	0,127
-689,612	137,280	-0,098	0,094
-688,597	84,510	-0,085	0,068
-687,583	298,575	0,037	-0,051
-686,568	-200,000	-0,005	0,029
-685,554	-13,470	-0,057	-0,027
-684,539	800,000	-0,046	0,097
-683,524	224,359	0,099	0,118
-682,510	-200,000	0,005	0,159
-681,495	47,078	0,093	0,064
-680,481	-200,000	0,016	-0,117
-679,466	-119,370	-0,112	0,014
-678,451	-200,000	-0,003	-0,066
-677,437	257,725	0,062	-0,079
-676,422	193,400	-0,059	-0,066
-675,408	770,109	0,029	-0,058
-674,393	264,161	0,020	-0,026
-673,378	800,000	-0,034	0,075
-672,364	106,547	-0,020	0,018
-671,349	-200,000	0,001	0,024
-670,335	189,098	0,076	0,084
-669,320	-200,000	-0,021	0,125
-668,305	-68,940	-0,076	0,021
-667,291	123,686	-0,107	0,099
-666,276	-18,098	-0,227	-0,104
-665,262	89,860	-0,058	-0,048
-664,247	-78,969	-0,087	0,022
-663,232	1,652	0,181	0,096
-662,218	800,000	0,072	0,168
-661,203	53,071	0,177	0,125
-660,189	172,873	-0,039	0,042
-659,174	533,579	-0,044	-0,078
-658,159	-6,464	-0,128	0,064
-657,145	347,831	0,045	0,065
-656,130	800,000	-0,018	0,054
-655,116	-200,000	0,005	-0,090
-654,101	203,335	-0,039	-0,044
-653,086	800,000	0,011	0,024
-652,072	24,559	-0,090	-0,054
-651,057	-200,000	0,003	-0,091
-650,043	127,091	-0,072	-0,067
-649,028	-200,000	0,005	0,060
-648,014	-81,894	0,088	-0,021
-646,999	51,786	-0,019	-0,013
-645,984	800,000	-0,063	0,193
-644,970	-84,456	-0,083	0,019
-643,955	-13,577	-0,025	-0,012
-642,941	-200,000	0,003	0,017
-641,926	105,399	0,048	0,041
-640,911	-200,000	-0,019	0,077
-639,897	-53,666	0,025	-0,008
-638,882	-200,000	0,018	-0,134
-637,868	-200,000	-0,010	-0,199
-636,853	800,000	-0,016	-0,042
-635,838	88,389	-0,035	-0,029
-634,824	-158,241	-0,120	-0,005
-633,809	-200,000	-0,004	-0,017
-632,795	-143,733	0,160	-0,011
-631,780	-5,983	-0,033	0,016
-630,765	-2,315	-0,089	-0,046
-629,751	-87,787	-0,053	0,012
-628,736	-200,000	-0,017	-0,067
-627,722	-200,000	0,002	0,044
-626,707	-154,186	0,042	-0,002
-625,692	800,000	0,058	-0,169
-624,678	78,077	-0,090	-0,070
-623,663	-200,000	0,004	0,059
-622,649	-47,936	-0,114	0,040
-621,634	27,393	0,091	0,056
-620,619	-200,000	-0,001	0,125
-619,605	-200,000	0,001	-0,158
-618,590	180,253	0,063	0,068
-617,576	-124,481	0,119	-0,013
-616,561	678,728	0,012	0,023
-615,546	-200,000	-0,005	0,134
-614,532	800,000	-0,033	0,079
-613,517	-200,000	-0,001	0,074
-612,503	-200,000	0,036	-0,130
-611,488	800,000	-0,038	0,093
-610,474	-200,000	0,040	0,000
-609,459	144,796	-0,053	0,052
-608,444	800,000	-0,058	-0,123
-607,430	-43,478	-0,192	-0,071
-606,415	28,470	0,094	-0,058
-605,401	800,000	0,081	-0,168
-604,386	-9,529	-0,109	-0,053
-603,371	-4,350	-0,022	0,011
-602,357	-110,301	0,082	0,012
-601,342	467,514	-0,060	-0,099
-600,328	-114,625	0,104	0,014
-599,313	625,501	-0,040	-0,075
-598,298	797,297	0,064	-0,130
-597,284	179,684	-0,027	0,029
-596,269	230,434	0,086	0,104
-595,255	-200,000	0,006	-0,047
-594,240	492,689	-0,038	-0,064
-593,225	-79,868	-0,176	-0,043
-592,211	-146,966	-0,166	0,010
-591,196	159,006	0,019	0,019
-590,182	55,988	-0,044	-0,031
-589,167	27,140	-0,047	-0,029
-588,152	388,538	-0,066	0,101
-587,138	-93,175	0,070	0,014
-586,123	-96,043	-0,031	0,006
-585,109	103,868	0,033	-0,029
-584,094	-200,000	0,013	0,197
-583,079	-82,597	0,161	-0,038
-582,065	-157,752	0,020	-0,001
-581,050	800,000	0,007	0,016
-580,036	800,000	-0,079	0,201
-579,021	130,127	-0,027	-0,025
-578,006	-22,254	-0,113	0,050
-576,992	-200,000	-0,018	-0,062
-575,977	-6,920	0,039	0,019
-574,963	-41,003	0,137	0,052
-573,948	-200,000	0,003	0,028
-572,934	651,646	-0,009	0,016
-571,919	-160,728	-0,169	-0,006
-570,904	-24,372	-0,036	-0,015
-569,890	142,711	-0,078	-0,076
-568,875	76,896	0,058	0,045
-567,861	-121,974	0,083	0,010
-566,846	-200,000	-0,027	0,095
-565,831	511,263	0,031	0,053
-564,817	-200,000	0,000	-0,035
-563,802	-121,680	-0,140	0,017
-562,788	203,110	-0,068	0,077
-561,773	206,541	0,057	-0,066
-560,758	205,987	-0,047	-0,053
-559,744	-48,796	-0,055	-0,019
-558,729	163,308	-0,056	0,058
-557,715	-200,000	-0,000	-0,067
-556,700	-182,035	-0,093	0,001
-555,685	800,000	0,008	-0,018
-554,671	-200,000	0,001	-0,013
-553,656	-109,140	0,095	0,015
-552,642	-47,150	-0,029	-0,010
-551,627	-200,000	-0,009	0,097
-550,612	800,000	0,016	0,038
-549,598	7,331	0,095	-0,052
-548,583	396,963	-0,049	-0,076
-547,569	-104,534	-0,052	-0,009
-546,554	-200,000	0,004	-0,058
-545,539	615,057	-0,057	-0,105
-544,525	-38,226	0,083	-0,032
-543,510	-22,602	-0,062	-0,027
-542,496	6,481	-0,072	-0,039
-541,481	414,624	0,046	0,072
-540,466	130,905	0,085	-0,079
-539,452	-96,975	0,071	-0,014
-538,437	-200,000	-0,024	-0,199
-537,423	-7,058	0,103	0,051
-536,408	32,232	-0,091	-0,058
-535,393	568,496	0,077	-0,137
-534,379	270,295	-0,064	-0,083
-533,364	-26,942	0,069	-0,029
-532,350	336,118	-0,010	-0,015
-531,335	-200,000	-0,025	0,097
-530,321	-54,606	0,069	0,023
-529,306	-200,000	0,011	-0,113
-528,291	800,000	-0,016	-0,046
-527,277	-200,000	0,010	0,058
-526,262	216,091	0,105	0,122
-525,248	-200,000	-0,001	-0,033
-524,233	197,710	0,018	-0,020
-523,218	634,478	-0,038	-0,071
-522,204	-200,000	0,034	0,213
-521,189	-32,444	-0,182	-0,074
-520,175	-28,853	-0,038	-0,016
-519,160	-74,218	0,153	0,040
-518,145	-200,000	-0,005	0,056
-517,131	6,197	-0,100	0,054
-516,116	-200,000	0,015	0,146
-515,102	131,186	0,060	0,056
-514,087	8,072	-0,089	0,049
-513,072	190,889	0,033	-0,036
-512,058	172,901	0,119	-0,126
-511,043	-200,000	-0,006	-0,026
-510,029	167,061	-0,112	0,117
-509,014	360,125	0,051	-0,074
-507,999	59,500	0,019	-0,014
-506,985	-80,279	-0,088	-0,021
-505,970	-60,313	-0,119	0,037
-504,956	800,000	0,066	0,202
-503,941	-60,379	0,101	0,031
-502,926	-200,000	0,010	0,067
-501,912	323,501	-0,044	-0,062
-500,897	95,097	0,077	0,064
-499,883	-64,409	0,088	-0,026
-498,868	-98,472	-0,075	-0,014
-497,853	-106,560	-0,079	-0,013
-496,839	105,187	-0,019	-0,016
-495,824	-200,000	0,017	0,154
-494,810	-200,000	-0,014	0,075
-493,795	523,512	0,104	0,180
-492,781	380,674	-0,021	0,032
-491,766	-163,081	-0,058	0,002
-490,751	399,132	0,020	-0,031
-489,737	6,489	-0,188	0,102
-488,722	-200,000	0,013	0,143
-487,708	800,000	0,039	-0,086
-486,693	216,192	-0,050	0,058
-485,678	-200,000	0,022	0,090
-484,664	-52,292	-0,142	-0,048
-483,649	441,808	0,032	-0,051
-482,635	389,788	0,029	0,045
-481,620	109,111	-0,102	0,089
-480,605	-23,430	-0,058	-0,025
-479,591	-200,000	-0,011	0,036
-478,576	-45,123	-0,176	0,063
-477,562	-200,000	-0,049	-0,207
-476,547	-200,000	-0,021	-0,153
-475,532	-200,000	0,011	-0,072
-474,518	-200,000	-0,001	0,093
-473,503	13,757	-0,038	-0,021
-472,489	403,062	0,065	0,099
-471,474	-166,762	-0,078	-0,002
-470,459	-200,000	0,001	-0,022
-469,445	462,557	-0,045	-0,073
-468,430	-173,580	-0,097	0,002
-467,416	263,030	0,082	0,104
-466,401	-35,568	0,059	0,023
-465,386	6,834	0,070	0,038
-464,372	297,555	-0,039	0,052
-463,357	-187,533	-0,062	-0,001
-462,343	-61,453	0,144	0,044
-461,328	-200,000	-0,012	-0,113
-460,313	437,668	0,047	-0,075
-459,299	-200,000	0,013	-0,150
-458,284	107,874	0,141	0,123
-457,270	-200,000	-0,005	0,021
-456,255	353,956	-0,057	-0,082
-455,241	800,000	0,045	-0,099
-454,226	79,334	-0,077	-0,060
-453,211	-200,000	0,011	-0,105
-452,197	-61,560	0,037	-0,011
-451,182	-200,000	-0,012	-0,094
-450,168	-45,890	-0,101	0,036
-449,153	125,381	0,032	0,029
-448,138	52,250	-0,124	-0,086
-447,124	-200,000	0,026	-0,127
-446,109	800,000	-0,015	-0,038
-445,095	-200,000	-0,006	0,096
-444,080	-200,000	-0,014	0,050
-443,065	-200,000	-0,001	-0,034
-442,051	-61,799	-0,068	0,021
-441,036	-93,532	-0,109	0,022
-440,022	800,000	0,023	0,072
-439,007	-200,000	-0,014	-0,054
-437,992	-200,000	0,125	0,000
-436,978	-73,097	0,038	-0,010
-435,963	-0,538	0,148	-0,076
-434,949	-200,000	-0,018	0,069
-433,934	-99,769	0,065	0,012
-432,919	800,000	-0,026	-0,064
-431,905	26,848	-0,060	-0,037
-430,890	-53,979	0,116	0,038
-429,876	-189,088	-0,054	0,000
-428,861	-200,000	-0,028	0,128
-427,846	-87,855	-0,134	-0,029
-426,832	284,091	-0,037	-0,049
-425,817	-200,000	-0,009	-0,068
-424,803	55,690	-0,065	-0,046
-423,788	-163,653	0,020	0,001
-422,773	403,392	0,068	-0,105
-421,759	-142,697	0,051	-0,004
-420,744	170,316	0,036	0,038
-419,730	-74,679	-0,123	-0,032
-418,715	-200,000	-0,001	0,004
-417,701	202,062	-0,039	0,043
-416,686	685,349	0,020	0,038
-415,671	-119,055	0,174	0,022
-414,657	-47,985	0,054	-0,019
-413,642	-16,931	-0,053	0,024
-412,628	29,092	-0,049	0,030
-411,613	-92,683	0,057	0,012
-410,598	-40,711	0,102	-0,038
-409,584	-200,000	0,011	0,072
-408,569	-200,000	-0,015	0,141
-407,555	23,279	0,135	0,080
-406,540	65,299	-0,084	-0,062
-405,525	32,066	0,079	0,049
-404,511	31,428	0,028	0,018
-403,496	-200,000	-0,002	-0,022
-402,482	-7,341	0,019	0,009
-401,467	87,572	0,038	0,031
-400,452	322,265	-0,044	-0,061
-399,438	199,288	-0,055	0,061
-398,423	90,440	0,097	0,079
-397,409	-121,984	0,024	-0,003
-396,394	13,508	-0,069	-0,039
-395,379	46,523	-0,025	0,017
-394,365	-200,000	0,008	0,059
-393,350	-176,664	0,129	-0,002
-392,336	170,955	-0,051	-0,053
-391,321	486,392	0,029	-0,047
-390,306	598,742	-0,029	-0,052
-389,292	366,295	-0,022	0,033
-388,277	34,675	-0,070	0,045
-387,263	44,699	-0,106	0,071
-386,248	776,884	-0,086	0,172
-385,233	60,847	-0,025	-0,018
-384,219	-66,970	0,063	-0,018
-383,204	106,681	0,017	0,015
-382,190	135,805	0,028	0,026
-381,175	-168,405	-0,090	-0,002
-380,160	246,034	-0,032	-0,039
-379,146	-86,819	0,183	-0,040
-378,131	-200,000	-0,020	0,087
-377,117	225,898	0,045	-0,053
-376,102	-117,794	-0,084	0,011
-375,088	156,029	0,107	0,108
-374,073	800,000	-0,032	0,073
-373,058	4,256	0,139	0,074
-372,044	-82,570	0,140	0,033
-371,029	800,000	0,066	-0,161
-370,015	-86,646	0,110	-0,024
-369,000	48,502	-0,066	0,045
-367,985	579,296	-0,065	-0,116
-366,971	800,000	-0,005	-0,011
-365,956	-141,120	-0,144	-0,011
-364,942	547,026	0,047	0,082
-363,927	800,000	-0,015	-0,030
-362,912	-200,000	-0,026	0,093
-361,898	-200,000	0,006	-0,112
-360,883	317,103	-0,061	-0,084
-359,869	25,554	0,128	0,077
-358,854	13,090	0,165	0,093
-357,839	-200,000	0,008	0,108
-356,825	132,431	0,064	-0,060
-355,810	99,645	0,039	0,033
-354,796	524,750	-0,053	-0,090
-353,781	146,300	0,038	-0,037
-352,766	-200,000	-0,022	-0,100
-351,752	3,783	0,094	0,050
-350,737	72,805	0,058	0,044
-349,723	-200,000	0,002	-0,015
-348,708	-200,000	0,021	-0,137
-347,693	38,992	-0,138	-0,089
-346,679	-64,730	-0,080	-0,023
-345,664	-13,836	0,049	-0,023
-344,650	372,210	-0,028	0,042
-343,635	-200,000	-0,003	0,125
-342,620	-1,154	-0,064	0,033
-341,606	-200,000	-0,040	0,242
-340,591	-94,726	-0,073	0,014
-339,577	-164,460	-0,085	-0,003
-338,562	-200,000	-0,011	0,039
-337,548	86,231	0,060	0,048
-336,533	-82,205	-0,064	-0,015
-335,518	218,389	0,044	0,051
-334,504	578,590	0,017	-0,030
-333,489	-200,000	-0,004	-0,082
-332,475	-41,305	-0,041	-0,015
-331,460	-175,571	-0,137	-0,003
-330,445	106,108	-0,060	0,052
-329,431	19,477	0,038	0,022
-328,416	-68,680	0,141	-0,039
-327,402	3,467	0,125	0,066
-326,387	-200,000	0,006	0,081
-325,372	-200,000	0,002	-0,045
-324,358	-157,723	0,091	-0,004
-323,343	800,000	-0,089	-0,184
-322,329	135,445	-0,064	-0,060
-321,314	800,000	-0,027	-0,057
-320,299	46,686	0,161	-0,108
-319,285	62,649	0,063	-0,045
-318,270	61,026	0,021	0,015
-317,256	112,876	-0,071	0,062
-316,241	800,000	-0,029	0,074
-315,226	-200,000	-0,023	0,094
-314,212	-20,545	0,067	-0,030
-313,197	800,000	-0,014	0,038
-312,183	-4,516	-0,089	-0,045
-311,168	469,901	0,034	-0,055
-310,153	-129,974	-0,122	-0,012
-309,139	51,805	0,031	-0,021
-308,124	800,000	0,025	0,060
-307,110	15,600	0,064	-0,036
-306,095	-200,000	0,011	0,108
-305,080	-200,000	0,034	0,134
-304,066	-44,764	-0,182	-0,066
-303,051	-64,717	-0,016	0,005
-302,037	6,846	0,167	0,090
-301,022	-76,804	-0,089	-0,022
-300,008	-114,078	0,094	0,013
-298,993	-200,000	0,014	-0,137
-297,978	-112,326	-0,014	0,002
-296,964	417,419	0,023	0,036
-295,949	162,810	0,077	0,079
-294,935	-1,251	-0,095	-0,049
-293,920	-23,608	-0,070	-0,030
-292,905	3,574	-0,061	-0,032
-291,891	-200,000	0,020	-0,069
-290,876	-105,370	-0,071	0,012
-289,862	-200,000	-0,005	-0,114
-288,847	72,236	-0,096	0,072
-287,832	-200,000	-0,005	0,049
-286,818	-141,911	-0,042	-0,003
-285,803	103,893	0,012	-0,010
-284,789	4,579	0,054	0,029
-283,774	91,458	-0,047	0,038
-282,759	-64,098	-0,078	0,023
-281,745	246,909	0,045	-0,055
-280,730	24,517	0,041	-0,024
-279,716	85,966	-0,025	-0,020
-278,701	-16,448	0,112	-0,051
-277,686	-200,000	-0,024	0,089
-276,672	128,240	-0,047	0,044
-275,657	800,000	0,021	-0,060
-274,643	278,160	0,061	-0,079
-273,628	800,000	-0,040	-0,110
-272,613	-52,998	-0,105	-0,035
-271,599	-200,000	0,000	-0,009
-270,584	159,941	0,117	-0,119
-269,570	800,000	0,017	0,036
-268,555	-108,322	0,149	-0,023
-267,540	-73,124	-0,037	-0,010
-266,526	-200,000	-0,009	-0,118
-265,511	-81,332	-0,044	-0,010
-264,497	5,446	0,034	-0,018
-263,482	57,778	0,044	0,031
-262,467	-39,391	0,117	0,044
-261,453	-200,000	-0,013	0,092
-260,438	800,000	0,011	0,026
-259,424	800,000	0,089	-0,235
-258,409	800,000	-0,023	-0,070
-257,395	-192,129	-0,067	0,000
-256,380	800,000	0,025	0,059
-255,365	-200,000	0,027	0,120
-254,351	800,000	0,045	0,100
-253,336	800,000	0,010	-0,024
-252,322	-42,852	-0,108	-0,039
-251,307	25,957	-0,109	-0,066
-250,292	-26,701	-0,091	0,038
-249,278	-42,575	-0,031	0,011
-248,263	94,769	0,054	0,045
-247,249	-28,630	-0,142	-0,059
-246,234	800,000	0,009	0,027
-245,219	-45,665	-0,132	-0,047
-244,205	209,543	-0,064	-0,073
-243,190	-57,798	0,092	0,029
-242,176	-185,760	0,015	-0,000
-241,161	-25,641	0,134	0,057
-240,146	-36,981	0,065	-0,025
-239,132	88,565	0,077	0,062
-238,117	125,374	-0,090	-0,082
-237,103	-48,698	-0,056	-0,019
-236,088	22,106	0,056	0,033
-235,073	-150,532	-0,044	0,002
-234,059	800,000	0,049	0,155
-233,044	-44,429	-0,124	-0,045
-232,030	-200,000	0,025	0,084
-231,015	-101,395	-0,108	-0,019
-230,000	-200,000	0,013	-0,087
-228,986	-200,000	0,036	-0,116
-227,971	599,496	-0,076	-0,136
-226,957	800,000	0,023	0,048
-225,942	242,845	0,104	-0,126
-224,927	103,873	-0,072	0,061
-223,913	-200,000	0,000	0,074
-222,898	-200,000	-0,015	-0,120
-221,884	-200,000	-0,012	-0,057
-220,869	91,749	0,088	-0,072
-219,855	272,845	0,085	0,109
-218,840	57,462	-0,062	-0,044
-217,825	-91,521	0,041	-0,008
-216,811	-177,427	0,132	0,002
-215,796	800,000	0,021	-0,053
-214,782	-200,000	-0,008	0,026
-213,767	-84,890	0,065	0,015
-212,752	169,210	0,088	0,091
-211,738	-129,777	0,150	-0,015
-210,723	-200,000	0,007	0,065
-209,709	527,060	0,082	0,140
-208,694	52,522	-0,063	0,043
-207,679	-137,533	-0,163	0,013
-206,665	-200,000	0,012	0,084
-205,650	-40,451	0,125	-0,047
-204,636	354,267	0,029	-0,042
-203,621	436,360	0,077	0,122
-202,606	-150,416	-0,038	0,002
-201,592	433,500	-0,090	-0,141
-200,577	-115,912	-0,063	-0,008
-199,563	-50,740	0,049	-0,017
-198,548	37,386	-0,059	-0,038
-197,533	-200,000	-0,006	0,068
-196,519	-143,588	0,095	-0,006
-195,504	-200,000	0,026	0,093
-194,490	16,597	-0,075	-0,043
-193,475	-200,000	-0,008	0,049
-192,460	186,724	0,033	-0,036
-191,446	-73,919	0,104	0,027
-190,431	-9,392	0,051	0,025
-189,417	68,814	-0,090	-0,067
-188,402	34,886	0,085	0,053
-187,387	-200,000	0,007	0,102
-186,373	474,558	0,069	0,113
-185,358	-65,818	0,081	0,023
-184,344	-200,000	0,035	-0,166
-183,329	-200,000	-0,000	-0,076
-182,315	-154,404	0,134	0,006
-181,300	-139,949	-0,183	0,014
-180,285	94,046	-0,117	0,095
-179,271	-200,000	-0,003	-0,036
-178,256	9,221	0,041	-0,022
-177,242	364,441	-0,083	0,121
-176,227	124,892	0,092	0,084
-175,212	61,913	0,041	-0,029
-174,198	102,007	-0,073	-0,061
-173,183	18,475	0,024	-0,014
-172,169	645,461	-0,085	-0,157
-171,154	-200,000	-0,006	-0,034
-170,139	695,282	0,050	0,094
-169,125	81,422	0,032	0,025
-168,110	-200,000	-0,000	0,018
-167,096	130,222	0,104	0,096
-166,081	205,465	-0,118	-0,132
-165,066	45,926	-0,050	0,033
-164,052	-63,409	0,073	-0,022
-163,037	-162,129	0,075	0,003
-162,023	-132,534	-0,038	-0,003
-161,008	-66,740	0,064	0,018
-159,993	800,000	0,068	-0,170
-158,979	800,000	-0,009	0,023
-157,964	800,000	-0,006	-0,016
-156,950	164,494	-0,030	0,030
-155,935	-81,017	0,109	0,026
-154,920	25,081	0,002	-0,001
-153,906	800,000	0,017	-0,051
-152,891	-86,816	-0,018	-0,004
-151,877	416,872	-0,112	0,173
-150,862	437,059	-0,018	0,028
-149,847	-200,000	0,001	-0,038
-148,833	-13,991	-0,120	-0,056
-147,818	-122,247	-0,086	0,010
-146,804	622,994	0,027	0,048
-145,789	325,309	0,006	-0,009
-144,775	450,067	-0,091	0,145
-143,760	-128,084	-0,077	0,008
-142,745	800,000	-0,038	0,100
-141,731	73,789	0,034	-0,026
-140,716	-200,000	-0,019	0,118
-139,702	292,059	0,039	0,052
-138,687	-200,000	0,003	-0,038
-137,672	600,020	-0,046	0,082
-136,658	123,401	-0,072	0,065
-135,643	522,218	-0,048	-0,082
-134,629	-149,765	0,061	-0,003
-133,614	141,106	0,017	-0,016
-132,599	-146,900	-0,043	0,003
-131,585	-77,046	-0,080	0,020
-130,570	-200,000	0,062	-0,225
-129,556	-200,000	-0,030	0,096
-128,541	-79,301	-0,038	-0,009
-127,526	445,632	0,055	-0,087
-126,512	-200,000	0,011	-0,072
-125,497	-47,233	-0,101	-0,035
-124,483	-71,121	0,030	-0,008
-123,468	-200,000	-0,003	0,036
-122,453	800,000	-0,021	-0,066
-121,439	19,329	0,064	-0,037
-120,424	405,168	0,089	0,135
-119,410	-108,615	-0,053	0,008
