DTS Sentinel unit serial number:	SN410029Multiplexer serial number:	ORYXHardware model number:	OX2-SRSoftware version number:	ORYX F/W v4,00 Oryx Data Collector v3.7.2.0data status	okinstallation	B5 Nyhavnadifferential loss correction	single-endedforward channel	channel 2reverse channel	N/Adate	2023/12/13time	19:22:13forward acquisition time	300,00reverse acquisition time	0,00gamma	499,1914k internal	0,3160k external	0,3160temperature offset calibration	1,0000default loss term (dB/km)	0,3820temperature slope calibration	1,0000multiplexer offset coefficient	1,0000multiplexer slope coefficient	1,0000fibre end	0,00T internal ref (°C)	11,80T ext. ref 1 (°C)	-5,35T ext. ref 2 (°C)	-5,45length (m)	temperature (°C)	Stokes	anti-Stokes-744,400	-46,222	0,131	-0,047
-743,385	-60,581	-0,289	-0,090
-742,371	800,000	0,059	0,163
-741,356	10,397	-0,250	0,140
-740,342	48,253	0,200	0,138
-739,327	-108,092	-0,298	0,047
-738,312	-62,648	0,199	0,061
-737,298	-50,857	-0,259	-0,089
-736,283	-200,000	-0,005	0,181
-735,269	-4,700	-0,257	0,130
-734,254	121,463	0,109	0,100
-733,239	-132,904	-0,558	-0,052
-732,225	-200,000	0,078	0,000
-731,210	-200,000	0,024	0,178
-730,196	-200,000	0,030	-0,163
-729,181	-200,000	-0,010	0,084
-728,167	-101,243	0,069	-0,012
-727,152	-200,000	0,048	0,000
-726,137	800,000	-0,054	0,112
-725,123	800,000	0,031	0,085
-724,108	-72,920	-0,111	0,030
-723,094	234,152	-0,045	-0,055
-722,079	-17,322	-0,050	-0,023
-721,064	163,484	0,081	-0,084
-720,050	292,896	-0,043	-0,058
-719,035	-50,443	-0,070	-0,024
-718,021	338,652	0,048	0,070
-717,006	430,638	-0,040	-0,064
-715,991	368,715	-0,073	-0,109
-714,977	-200,000	0,000	-0,057
-713,962	-58,042	0,170	-0,054
-712,948	-113,251	-0,057	-0,008
-711,933	-200,000	0,006	0,071
-710,918	-200,000	-0,005	-0,036
-709,904	327,379	-0,067	0,094
-708,889	800,000	0,027	-0,062
-707,875	-120,005	-0,058	-0,007
-706,860	-89,626	-0,034	-0,007
-705,845	-159,234	-0,153	-0,006
-704,831	-117,379	-0,047	0,006
-703,816	800,000	0,061	-0,151
-702,802	-183,981	-0,100	-0,001
-701,787	800,000	-0,026	-0,062
-700,772	-200,000	0,006	-0,022
-699,758	-193,785	0,046	0,000
-698,743	-65,696	0,072	-0,021
-697,729	-104,769	0,020	0,003
-696,714	-200,000	-0,016	-0,070
-695,699	-40,024	0,054	0,021
-694,685	-200,000	0,018	-0,081
-693,670	-158,110	-0,068	0,003
-692,656	50,096	0,114	-0,079
-691,641	800,000	0,011	-0,028
-690,627	167,220	0,060	0,062
-689,612	800,000	0,054	0,157
-688,597	-54,658	0,020	0,007
-687,583	760,488	0,058	-0,116
-686,568	-150,700	-0,070	0,004
-685,554	-162,402	-0,035	0,001
-684,539	155,132	-0,076	-0,077
-683,524	800,000	0,038	0,091
-682,510	-200,000	0,010	-0,065
-681,495	187,875	0,076	-0,084
-680,481	217,115	0,014	-0,016
-679,466	335,847	-0,135	-0,193
-678,451	146,237	0,068	0,067
-677,437	29,915	0,008	0,005
-676,422	222,208	0,074	0,087
-675,408	124,361	-0,031	0,029
-674,393	-13,813	0,070	-0,033
-673,378	554,367	-0,081	-0,143
-672,364	754,917	0,010	0,021
-671,349	744,143	-0,041	0,081
-670,335	-58,242	0,097	0,031
-669,320	800,000	0,033	0,087
-668,305	66,239	0,055	0,041
-667,291	-200,000	-0,022	0,125
-666,276	800,000	0,029	0,074
-665,262	88,703	-0,103	-0,084
-664,247	-200,000	0,002	-0,123
-663,232	209,591	-0,088	0,101
-662,218	-99,810	0,127	0,023
-661,203	-58,977	0,073	0,023
-660,189	19,881	-0,030	0,018
-659,174	800,000	0,040	0,082
-658,159	-200,000	-0,013	-0,157
-657,145	-159,189	0,052	-0,002
-656,130	-71,428	0,090	0,024
-655,116	800,000	0,046	0,146
-654,101	-79,280	-0,048	0,012
-653,086	353,533	-0,036	-0,052
-652,072	-200,000	0,002	-0,117
-651,057	800,000	0,040	-0,093
-650,043	800,000	-0,023	0,053
-649,028	135,890	-0,022	-0,021
-648,014	274,233	-0,094	0,122
-646,999	-200,000	0,002	0,019
-645,984	800,000	-0,013	-0,030
-644,970	122,025	-0,117	0,107
-643,955	-200,000	-0,007	-0,154
-642,941	-106,833	-0,119	-0,019
-641,926	800,000	-0,023	0,073
-640,911	-121,746	-0,138	0,017
-639,897	536,781	0,036	-0,063
-638,882	-62,830	-0,099	0,030
-637,868	-61,380	-0,106	-0,033
-636,853	-39,485	-0,047	-0,018
-635,838	-78,468	-0,053	-0,013
-634,824	-200,000	0,004	-0,092
-633,809	87,342	0,062	0,051
-632,795	-54,232	0,148	0,049
-631,780	9,061	0,110	0,061
-630,765	-80,059	-0,088	0,021
-629,751	73,173	-0,049	0,038
-628,736	-73,345	-0,025	-0,007
-627,722	800,000	0,042	-0,109
-626,707	514,027	0,043	0,073
-625,692	394,461	-0,077	0,118
-624,678	-200,000	-0,018	0,071
-623,663	134,520	-0,065	0,062
-622,649	-200,000	-0,012	-0,143
-621,634	51,949	0,084	-0,059
-620,619	-200,000	-0,015	-0,139
-619,605	-107,238	0,136	0,022
-618,590	252,915	0,097	0,121
-617,576	360,316	0,026	0,039
-616,561	-42,608	-0,106	-0,039
-615,546	102,485	-0,037	0,032
-614,532	-16,055	-0,083	-0,038
-613,517	-129,228	-0,094	0,009
-612,503	34,665	-0,112	0,072
-611,488	371,057	0,018	-0,027
-610,474	-200,000	-0,003	0,126
-609,459	597,451	0,025	0,045
-608,444	-62,118	-0,061	-0,019
-607,430	-200,000	0,038	-0,157
-606,415	800,000	-0,025	0,053
-605,401	562,110	0,041	-0,072
-604,386	-31,596	0,098	0,040
-603,371	141,807	0,118	0,115
-602,357	-200,000	-0,017	0,104
-601,342	706,378	-0,021	0,040
-600,328	107,063	-0,073	-0,064
-599,313	-200,000	-0,003	0,060
-598,298	-200,000	-0,003	0,113
-597,284	-200,000	-0,003	0,176
-596,269	422,188	0,021	0,032
-595,255	2,666	-0,068	0,036
-594,240	-121,934	0,090	-0,011
-593,225	-200,000	-0,006	0,054
-592,211	-53,397	-0,139	-0,046
-591,196	-131,363	0,094	0,009
-590,182	-200,000	-0,035	-0,148
-589,167	183,018	-0,016	-0,017
-588,152	-22,861	0,111	-0,049
-587,138	800,000	0,020	-0,061
-586,123	-200,000	-0,003	-0,105
-585,109	272,953	0,061	-0,079
-584,094	50,563	-0,099	-0,068
-583,079	-63,537	-0,104	0,031
-582,065	-7,569	-0,085	0,042
-581,050	-200,000	0,003	0,130
-580,036	-200,000	0,004	0,021
-579,021	-24,926	-0,013	-0,006
-578,006	451,033	0,054	-0,088
-576,992	134,569	0,119	-0,113
-575,977	800,000	-0,019	-0,039
-574,963	-60,351	0,073	-0,023
-573,948	-160,316	0,023	-0,001
-572,934	-50,455	0,026	0,009
-571,919	91,647	-0,126	-0,104
-570,904	-200,000	-0,005	0,088
-569,890	-200,000	0,021	-0,081
-568,875	-120,693	0,172	-0,021
-567,861	233,942	-0,065	-0,078
-566,846	-200,000	0,016	-0,051
-565,831	-200,000	-0,018	-0,075
-564,817	13,176	-0,033	0,019
-563,802	120,063	0,013	0,012
-562,788	-200,000	0,003	0,078
-561,773	-99,863	0,103	0,019
-560,758	-200,000	-0,045	0,154
-559,744	116,533	0,035	-0,031
-558,729	-65,834	-0,059	0,017
-557,715	26,443	-0,016	-0,010
-556,700	87,320	-0,160	0,129
-555,685	55,195	0,020	0,014
-554,671	-200,000	0,004	-0,068
-553,656	-91,118	0,052	0,011
-552,642	-200,000	0,007	0,077
-551,627	-200,000	0,008	-0,033
-550,612	13,811	-0,076	-0,043
-549,598	98,223	0,098	-0,082
-548,583	-187,356	-0,043	0,000
-547,569	133,265	-0,029	0,028
-546,554	-119,804	0,091	0,011
-545,539	-152,790	-0,118	0,006
-544,525	40,866	0,086	0,056
-543,510	123,401	-0,092	-0,084
-542,496	249,997	-0,144	-0,179
-541,481	8,653	-0,079	-0,043
-540,466	20,911	0,095	-0,056
-539,452	-78,284	0,146	0,036
-538,437	-184,925	0,075	0,001
-537,423	-80,413	0,030	-0,007
-536,408	-200,000	0,016	-0,117
-535,393	51,020	-0,041	-0,028
-534,379	-50,859	-0,161	-0,055
-533,364	-200,000	0,005	-0,082
-532,350	11,694	-0,062	-0,035
-531,335	-70,316	0,156	-0,043
-530,321	145,298	-0,059	-0,058
-529,306	-114,950	0,053	0,007
-528,291	782,245	0,093	0,188
-527,277	-200,000	0,012	0,070
-526,262	143,154	0,102	0,100
-525,248	-200,000	-0,003	0,058
-524,233	-51,259	0,045	-0,015
-523,218	171,058	-0,013	-0,014
-522,204	-13,995	-0,017	0,008
-521,189	-175,524	-0,192	-0,004
-520,175	-200,000	0,001	0,006
-519,160	-84,931	0,080	-0,018
-518,145	-121,489	0,087	-0,010
-517,131	-112,783	0,041	-0,006
-516,116	-5,915	0,097	-0,049
-515,102	157,154	-0,081	-0,082
-514,087	71,148	0,139	-0,105
-513,072	-200,000	-0,028	-0,204
-512,058	-200,000	0,028	-0,111
-511,043	136,343	-0,170	0,162
-510,029	183,757	0,058	0,063
-509,014	800,000	-0,044	0,093
-507,999	1,033	-0,036	-0,019
-506,985	161,136	0,036	0,037
-505,970	-69,128	-0,071	-0,020
-504,956	81,380	0,080	0,063
-503,941	-200,000	0,017	-0,109
-502,926	-150,396	0,122	-0,007
-501,912	800,000	-0,037	0,092
-500,897	800,000	-0,043	0,121
-499,883	800,000	-0,085	-0,215
-498,868	45,171	0,054	-0,036
-497,853	181,219	-0,072	-0,077
-496,839	356,638	0,037	-0,054
-495,824	-94,674	0,144	-0,028
-494,810	-200,000	-0,011	-0,085
-493,795	-200,000	0,017	-0,085
-492,781	-200,000	0,027	0,089
-491,766	-200,000	-0,008	0,045
-490,751	152,355	-0,093	-0,093
-489,737	333,153	0,037	0,052
-488,722	800,000	0,030	0,091
-487,708	-200,000	0,001	-0,016
-486,693	765,932	0,033	0,066
-485,678	70,101	-0,089	-0,067
-484,664	-200,000	0,006	0,043
-483,649	800,000	-0,034	0,104
-482,635	27,409	-0,016	-0,010
-481,620	245,514	0,013	-0,016
-480,605	-200,000	-0,024	0,135
-479,591	-200,000	0,022	-0,226
-478,576	800,000	0,050	-0,101
-477,562	365,549	-0,035	-0,052
-476,547	800,000	0,026	0,053
-475,532	174,788	0,061	0,064
-474,518	-200,000	-0,022	0,076
-473,503	49,001	0,110	0,075
-472,489	800,000	-0,039	0,095
-471,474	-200,000	-0,024	0,115
-470,459	-200,000	0,006	0,045
-469,445	719,271	-0,040	0,078
-468,430	-92,426	0,144	-0,029
-467,416	-178,518	-0,073	-0,001
-466,401	141,110	0,043	-0,041
-465,386	293,824	0,055	-0,073
-464,372	-200,000	-0,021	-0,070
-463,357	19,646	-0,039	0,023
-462,343	282,158	-0,046	-0,060
-461,328	52,806	-0,146	-0,102
-460,313	-81,036	0,182	-0,043
-459,299	-200,000	-0,016	0,062
-458,284	-133,163	0,049	-0,004
-457,270	616,577	-0,044	-0,081
-456,255	94,373	-0,059	0,049
-455,241	320,985	-0,100	0,138
-454,226	70,613	-0,085	0,064
-453,211	-87,777	0,036	-0,008
-452,197	-37,312	0,095	-0,037
-451,182	243,152	-0,012	0,015
-450,168	591,323	-0,054	0,097
-449,153	-89,314	-0,026	0,005
-448,138	387,740	-0,012	-0,019
-447,124	-200,000	-0,069	-0,000
-446,109	-112,228	-0,014	-0,002
-445,095	-12,313	0,058	-0,028
-444,080	-84,781	0,101	0,023
-443,065	-114,059	-0,046	0,006
-442,051	-200,000	-0,039	-0,141
-441,036	-200,000	-0,035	-0,120
-440,022	444,829	0,049	0,078
-439,007	87,987	0,126	0,102
-437,992	159,424	-0,023	-0,024
-436,978	134,600	0,177	0,167
-435,963	510,783	-0,023	-0,038
-434,949	-153,597	0,149	-0,007
-433,934	-200,000	0,014	-0,088
-432,919	-170,005	-0,127	0,003
-431,905	-130,195	-0,078	0,008
-430,890	-12,823	0,166	0,078
-429,876	-200,000	0,014	-0,101
-428,861	320,031	-0,072	-0,100
-427,846	800,000	-0,048	0,100
-426,832	-87,805	0,054	0,012
-425,817	193,794	-0,121	0,133
-424,803	669,752	-0,009	0,017
-423,788	-128,980	0,140	0,014
-422,773	-103,683	0,049	0,008
-421,759	-200,000	-0,029	0,119
-420,744	-34,575	0,079	-0,031
-419,730	-57,922	-0,122	-0,038
-418,715	275,003	-0,052	-0,068
-417,701	31,939	0,103	-0,064
-416,686	800,000	0,040	0,113
-415,671	86,238	0,127	-0,102
-414,657	-200,000	-0,001	0,107
-413,642	49,444	-0,057	-0,039
-412,628	-103,252	-0,038	-0,006
-411,613	0,511	-0,106	0,055
-410,598	-200,000	0,002	-0,010
-409,584	-154,976	0,079	-0,004
-408,569	-116,708	0,060	0,008
-407,555	-54,958	-0,054	-0,017
-406,540	95,506	-0,110	0,091
-405,525	722,641	-0,034	-0,066
-404,511	3,792	-0,060	-0,032
-403,496	-18,154	-0,078	-0,035
-402,482	-58,745	-0,124	-0,039
-401,467	800,000	0,052	0,106
-400,452	79,513	0,046	0,036
-399,438	279,545	-0,028	0,036
-398,423	477,023	0,004	-0,007
-397,409	168,412	0,054	0,056
-396,394	-200,000	0,009	0,140
-395,379	477,271	-0,036	0,059
-394,365	33,925	-0,025	-0,016
-393,350	364,984	-0,052	-0,077
-392,336	-200,000	0,008	0,154
-391,321	123,518	-0,019	0,018
-390,306	56,395	0,094	0,067
-389,292	24,542	-0,050	0,030
-388,277	608,797	0,012	0,022
-387,263	13,990	0,131	-0,074
-386,248	-64,089	0,093	0,028
-385,233	-4,284	0,071	-0,035
-384,219	800,000	0,027	0,083
-383,204	-157,198	-0,134	0,006
-382,190	389,801	-0,086	-0,130
-381,175	413,854	-0,037	-0,057
-380,160	337,276	0,089	0,126
-379,146	201,715	0,136	0,152
-378,131	65,881	-0,124	0,091
-377,117	243,858	0,123	0,150
-376,102	134,489	-0,067	0,064
-375,088	273,251	-0,046	-0,059
-374,073	80,426	-0,102	0,080
-373,058	20,025	0,141	0,082
-372,044	-200,000	-0,024	0,098
-371,029	800,000	0,014	0,039
-370,015	112,066	0,101	0,089
-369,000	-200,000	0,032	-0,122
-367,985	85,742	-0,108	-0,086
-366,971	219,069	-0,126	-0,147
-365,956	-109,986	-0,185	-0,028
-364,942	-200,000	0,019	0,130
-363,927	-57,261	-0,048	-0,015
-362,912	79,958	0,049	-0,038
-361,898	-200,000	0,001	-0,043
-360,883	-9,449	-0,114	-0,055
-359,869	31,684	0,200	-0,124
-358,854	-5,847	0,128	-0,064
-357,839	-200,000	-0,006	-0,096
-356,825	136,572	0,076	0,072
-355,810	-36,822	0,053	-0,020
-354,796	800,000	-0,033	-0,078
-353,781	-75,436	0,106	-0,027
-352,766	800,000	0,072	-0,186
-351,752	59,065	-0,037	-0,026
-350,737	177,309	-0,085	0,089
-349,723	196,318	0,104	0,115
-348,708	-97,390	0,092	0,017
-347,693	-200,000	0,001	-0,083
-346,679	-200,000	-0,017	-0,111
-345,664	97,516	0,074	-0,061
-344,650	-105,645	-0,107	0,017
-343,635	26,274	0,107	-0,065
-342,620	52,888	0,041	0,028
-341,606	-191,860	-0,065	-0,000
-340,591	800,000	-0,017	-0,053
-339,577	235,199	0,025	-0,031
-338,562	1,813	0,083	0,043
-337,548	32,554	-0,066	0,041
-336,533	22,291	0,109	0,064
-335,518	-200,000	0,002	0,040
-334,504	77,167	0,049	-0,038
-333,489	800,000	-0,044	0,090
-332,475	4,698	-0,051	-0,027
-331,460	-200,000	-0,006	-0,025
-330,445	-200,000	0,019	0,063
-329,431	-200,000	0,028	0,160
-328,416	-200,000	-0,013	0,075
-327,402	-200,000	-0,009	0,045
-326,387	-200,000	-0,017	0,098
-325,372	789,097	-0,031	0,062
-324,358	192,176	-0,096	0,105
-323,343	-200,000	0,019	0,079
-322,329	180,786	0,028	0,030
-321,314	-200,000	-0,005	0,022
-320,299	86,984	0,049	-0,039
-319,285	-71,356	0,091	0,025
-318,270	29,890	-0,130	-0,080
-317,256	769,258	-0,033	-0,066
-316,241	800,000	-0,054	-0,115
-315,226	-200,000	-0,009	0,038
-314,212	800,000	-0,052	0,117
-313,197	800,000	0,026	-0,056
-312,183	61,702	-0,020	-0,014
-311,168	151,104	-0,138	-0,136
-310,153	527,943	-0,028	-0,048
-309,139	800,000	-0,053	-0,109
-308,124	374,073	-0,027	-0,040
-307,110	-200,000	0,000	0,078
-306,095	-200,000	0,021	-0,069
-305,080	-54,994	-0,018	-0,006
-304,066	-200,000	-0,001	-0,017
-303,051	196,725	-0,049	-0,054
-302,037	-200,000	0,008	-0,096
-301,022	205,328	0,119	-0,134
-300,008	7,743	0,147	0,079
-298,993	-64,138	-0,113	-0,033
-297,978	98,009	-0,032	-0,026
-296,964	42,373	0,100	0,065
-295,949	224,067	-0,049	-0,057
-294,935	-103,978	-0,113	-0,019
-293,920	800,000	0,064	0,198
-292,905	12,530	-0,169	0,094
-291,891	348,789	0,096	0,137
-290,876	-68,236	-0,073	-0,020
-289,862	103,618	0,117	0,099
-288,847	-117,453	0,170	-0,022
-287,832	800,000	-0,022	0,048
-286,818	-130,913	0,068	0,006
-285,803	-200,000	-0,014	-0,046
-284,789	-198,267	0,128	0,001
-283,774	145,839	0,033	-0,032
-282,759	-121,979	-0,092	-0,011
-281,745	800,000	-0,012	-0,031
-280,730	-112,316	-0,038	-0,005
-279,716	222,794	-0,141	-0,165
-278,701	1,272	0,067	-0,034
-277,686	50,107	0,055	-0,038
-276,672	-200,000	0,011	-0,067
-275,657	-77,680	0,090	0,022
-274,643	27,480	-0,013	-0,008
-273,628	239,636	0,027	-0,032
-272,613	-200,000	0,039	-0,143
-271,599	-100,844	-0,115	0,020
-270,584	-111,834	0,043	-0,006
-269,570	-87,628	0,125	0,027
-268,555	-200,000	0,015	-0,095
-267,540	-200,000	-0,008	0,027
-266,526	-200,000	-0,007	-0,119
-265,511	-40,978	0,065	-0,024
-264,497	516,475	-0,059	0,100
-263,482	-200,000	-0,010	0,041
-262,467	508,507	-0,040	0,068
-261,453	430,986	-0,042	0,065
-260,438	-99,961	-0,064	-0,011
-259,424	127,285	-0,080	-0,073
-258,409	8,114	-0,077	-0,042
-257,395	-53,090	0,166	-0,055
-256,380	-8,339	0,078	0,038
-255,365	-131,260	-0,118	0,011
-254,351	-60,322	-0,045	0,014
-253,336	150,494	-0,030	0,029
-252,322	-200,000	0,001	0,010
-251,307	-200,000	-0,013	-0,067
-250,292	-136,272	-0,109	0,009
-249,278	-200,000	-0,021	0,125
-248,263	-200,000	0,008	0,144
-247,249	-200,000	-0,021	-0,107
-246,234	-84,803	-0,084	-0,019
-245,219	-200,000	-0,009	0,086
-244,205	800,000	0,024	-0,067
-243,190	434,299	-0,037	0,059
-242,176	-200,000	-0,039	0,197
-241,161	800,000	-0,075	0,160
-240,146	800,000	-0,041	0,094
-239,132	524,802	-0,052	-0,089
-238,117	-200,000	0,014	-0,069
-237,103	24,238	0,088	-0,052
-236,088	-32,098	0,042	0,017
-235,073	-77,014	0,103	0,026
-234,059	257,637	0,039	0,048
-233,044	-200,000	-0,007	0,093
-232,030	209,966	-0,084	-0,095
-231,015	198,698	-0,076	-0,084
-230,000	-50,162	-0,080	-0,027
-228,986	76,545	0,066	-0,050
-227,971	570,146	0,065	-0,114
-226,957	800,000	-0,002	0,006
-225,942	624,201	-0,021	0,039
-224,927	-200,000	-0,006	0,056
-223,913	533,894	0,026	-0,045
-222,898	5,721	-0,103	-0,055
-221,884	201,265	-0,074	-0,082
-220,869	276,311	0,046	-0,059
-219,855	-82,144	0,116	0,027
-218,840	370,114	0,033	0,049
-217,825	-114,114	0,117	0,016
-216,811	66,262	0,037	0,027
-215,796	-200,000	-0,002	0,011
-214,782	-200,000	-0,001	0,073
-213,767	11,423	0,060	-0,033
-212,752	-200,000	0,001	0,051
-211,738	10,803	-0,041	0,023
-210,723	800,000	-0,009	0,025
-209,709	612,616	0,036	-0,065
-208,694	-200,000	-0,004	0,015
-207,679	-29,433	-0,094	-0,039
-206,665	-79,840	0,077	0,019
-205,650	16,096	0,184	0,104
-204,636	-200,000	-0,010	0,046
-203,621	-200,000	0,003	0,075
-202,606	85,300	-0,170	-0,135
-201,592	-200,000	0,002	-0,069
-200,577	800,000	0,045	-0,091
-199,563	800,000	-0,033	-0,076
-198,548	-200,000	0,004	-0,056
-197,533	-6,846	0,153	0,075
-196,519	-200,000	-0,024	0,108
-195,504	-49,783	0,090	0,031
-194,490	-61,509	0,109	0,033
-193,475	-41,951	-0,262	-0,096
-192,460	-163,882	-0,090	-0,003
-191,446	-92,577	-0,048	0,010
-190,431	-162,085	0,184	-0,007
-189,417	-200,000	0,004	-0,013
-188,402	-200,000	-0,010	0,086
-187,387	-141,905	-0,172	-0,012
-186,373	-85,875	-0,103	-0,023
-185,358	800,000	0,055	-0,159
-184,344	-128,353	0,120	0,012
-183,329	800,000	0,018	-0,047
-182,315	-200,000	0,056	0,261
-181,300	-200,000	-0,027	0,193
-180,285	-200,000	-0,004	-0,020
-179,271	-38,657	-0,176	-0,067
-178,256	64,501	0,146	-0,106
-177,242	-116,757	-0,154	-0,020
-176,227	-167,466	0,075	0,002
-175,212	225,405	0,002	-0,002
-174,198	-116,452	-0,014	-0,002
-173,183	98,599	-0,016	-0,014
-172,169	800,000	-0,053	-0,148
-171,154	-200,000	-0,035	-0,166
-170,139	800,000	-0,008	-0,018
-169,125	800,000	0,019	-0,058
-168,110	-200,000	0,031	0,106
-167,096	-78,880	-0,022	-0,005
-166,081	800,000	-0,012	-0,030
-165,066	800,000	-0,027	0,070
-164,052	-96,282	-0,114	0,022
-163,037	62,708	-0,048	-0,035
-162,023	-33,336	0,129	0,051
-161,008	55,944	0,091	0,064
-159,993	19,332	0,112	-0,065
-158,979	-200,000	0,022	-0,069
-157,964	137,335	-0,064	-0,060
-156,950	-71,962	0,103	-0,027
-155,935	-200,000	-0,013	-0,067
-154,920	203,398	0,135	-0,151
-153,906	362,402	-0,041	0,059
-152,891	165,533	-0,029	0,029
-151,877	269,599	0,051	-0,065
-150,862	3,791	-0,035	-0,018
-149,847	-200,000	0,000	-0,010
-148,833	-200,000	-0,006	-0,110
-147,818	800,000	0,090	0,181
-146,804	-132,184	0,084	0,008
-145,789	-123,034	-0,146	-0,017
-144,775	800,000	0,061	-0,135
-143,760	-200,000	0,005	0,051
-142,745	20,274	-0,107	-0,062
-141,731	-200,000	0,018	0,151
-140,716	-19,951	0,093	-0,041
-139,702	-42,694	-0,028	0,010
-138,687	-200,000	0,019	0,160
-137,672	576,322	-0,072	0,127
-136,658	-60,625	0,093	-0,028
-135,643	96,140	-0,090	0,074
-134,629	800,000	-0,024	0,055
-133,614	-115,485	0,092	0,012
-132,599	-53,230	0,060	-0,020
-131,585	-90,890	0,104	-0,021
-130,570	800,000	0,007	-0,020
-129,556	-200,000	0,011	-0,043
-128,541	318,418	0,065	-0,088
-127,526	451,648	0,018	0,029
-126,512	77,891	0,033	-0,025
-125,497	-41,402	0,081	0,030
-124,483	-133,450	0,162	0,014
-123,468	165,286	-0,097	0,099
-122,453	-49,008	-0,102	0,035
-121,439	-200,000	-0,003	-0,111
-120,424	28,526	-0,061	-0,037
-119,410	-79,875	0,057	0,014
