DTS Sentinel unit serial number:	SN410029Multiplexer serial number:	ORYXHardware model number:	OX2-SRSoftware version number:	ORYX F/W v4,00 Oryx Data Collector v3.7.2.0data status	okinstallation	B5 Nyhavnadifferential loss correction	single-endedforward channel	channel 2reverse channel	N/Adate	2023/12/12time	03:07:13forward acquisition time	300,00reverse acquisition time	0,00gamma	499,1914k internal	0,3156k external	0,3156temperature offset calibration	1,0000default loss term (dB/km)	0,3820temperature slope calibration	1,0000multiplexer offset coefficient	1,0000multiplexer slope coefficient	1,0000fibre end	0,00T internal ref (°C)	15,74T ext. ref 1 (°C)	-0,70T ext. ref 2 (°C)	-0,97length (m)	temperature (°C)	Stokes	anti-Stokes-744,400	63,155	0,108	0,080
-743,385	-18,877	-0,177	-0,081
-742,371	-65,545	0,124	0,036
-741,356	-79,566	-0,263	0,065
-740,342	105,362	0,115	0,100
-739,327	-1,225	-0,145	-0,075
-738,312	1,553	0,085	0,045
-737,298	-71,287	-0,388	0,107
-736,283	-46,558	0,065	-0,023
-735,269	-17,760	-0,334	0,154
-734,254	47,821	0,142	0,098
-733,239	-95,492	-0,400	-0,078
-732,225	246,868	0,081	-0,101
-731,210	-6,003	0,074	0,037
-730,196	-55,994	-0,067	0,022
-729,181	-200,000	-0,012	0,105
-728,167	-138,878	0,094	-0,007
-727,152	-16,352	0,057	-0,026
-726,137	60,475	-0,057	-0,042
-725,123	-31,425	-0,148	-0,061
-724,108	51,273	-0,189	-0,132
-723,094	-200,000	-0,001	0,019
-722,079	-200,000	0,004	-0,143
-721,064	-200,000	-0,021	0,127
-720,050	273,481	-0,090	-0,118
-719,035	-39,671	-0,092	0,035
-718,021	-75,457	-0,052	0,014
-717,006	-200,000	-0,002	0,045
-715,991	531,398	-0,035	-0,062
-714,977	-30,074	0,058	-0,024
-713,962	-152,666	-0,093	0,005
-712,948	-135,371	-0,115	-0,010
-711,933	-200,000	-0,019	-0,083
-710,918	-200,000	-0,001	-0,065
-709,904	339,389	-0,111	-0,159
-708,889	-200,000	-0,016	-0,053
-707,875	-200,000	0,003	-0,115
-706,860	800,000	-0,018	-0,050
-705,845	117,419	0,085	0,077
-704,831	495,857	0,039	0,066
-703,816	12,855	-0,108	-0,061
-702,802	-112,155	0,058	0,009
-701,787	641,516	-0,039	-0,073
-700,772	137,976	-0,133	-0,128
-699,758	-47,131	-0,030	0,011
-698,743	800,000	0,018	0,040
-697,729	-200,000	0,026	0,120
-696,714	81,189	0,081	-0,064
-695,699	216,905	-0,089	-0,105
-694,685	97,489	-0,037	-0,032
-693,670	-200,000	0,018	0,090
-692,656	800,000	-0,020	0,059
-691,641	79,051	-0,088	0,069
-690,627	-200,000	-0,039	0,167
-689,612	-198,261	0,142	0,001
-688,597	-174,819	-0,095	0,002
-687,583	800,000	-0,052	-0,140
-686,568	-200,000	0,034	-0,126
-685,554	60,268	-0,051	0,037
-684,539	-159,990	-0,051	0,002
-683,524	800,000	0,010	-0,026
-682,510	82,936	0,081	-0,065
-681,495	62,139	-0,102	0,075
-680,481	-200,000	-0,018	-0,132
-679,466	-28,225	-0,134	0,057
-678,451	-53,970	-0,038	0,013
-677,437	-130,022	-0,122	-0,012
-676,422	-186,521	0,044	-0,000
-675,408	159,154	0,060	0,061
-674,393	336,905	-0,070	0,101
-673,378	53,420	-0,057	-0,040
-672,364	-200,000	-0,021	-0,076
-671,349	671,727	0,049	0,093
-670,335	-63,233	0,048	0,014
-669,320	-200,000	-0,025	0,129
-668,305	112,915	-0,101	0,090
-667,291	-103,928	-0,146	-0,025
-666,276	-200,000	0,002	-0,068
-665,262	60,170	-0,071	0,052
-664,247	466,836	-0,066	-0,109
-663,232	-135,761	-0,166	-0,014
-662,218	196,236	0,055	-0,062
-661,203	-140,784	0,106	-0,008
-660,189	109,679	-0,072	0,063
-659,174	33,309	-0,047	0,030
-658,159	379,562	0,023	0,035
-657,145	-200,000	-0,014	-0,061
-656,130	-200,000	0,009	0,034
-655,116	39,636	0,049	-0,033
-654,101	688,630	0,067	0,130
-653,086	-200,000	0,038	-0,142
-652,072	-200,000	-0,002	0,099
-651,057	800,000	-0,048	-0,153
-650,043	363,524	-0,063	-0,093
-649,028	-200,000	0,027	0,137
-648,014	-48,579	0,022	-0,008
-646,999	800,000	0,078	-0,164
-645,984	-38,172	-0,111	-0,043
-644,970	66,180	-0,135	-0,100
-643,955	58,994	-0,083	-0,060
-642,941	-200,000	-0,006	-0,048
-641,926	674,665	-0,053	-0,101
-640,911	-116,110	0,107	0,015
-639,897	-86,873	0,070	-0,016
-638,882	-121,071	-0,042	0,005
-637,868	11,167	-0,119	-0,067
-636,853	165,343	-0,181	-0,188
-635,838	800,000	-0,024	-0,055
-634,824	-83,629	0,094	-0,022
-633,809	800,000	0,015	-0,045
-632,795	13,482	0,061	0,034
-631,780	-200,000	0,033	0,155
-630,765	-110,693	-0,046	0,007
-629,751	-11,112	-0,158	0,076
-628,736	-200,000	-0,016	-0,148
-627,722	-57,465	-0,136	-0,044
-626,707	-7,096	0,132	0,065
-625,692	389,905	-0,003	-0,004
-624,678	693,250	-0,083	0,160
-623,663	146,536	-0,093	-0,092
-622,649	-200,000	0,007	-0,128
-621,634	169,333	-0,041	-0,043
-620,619	-128,875	0,077	-0,008
-619,605	-200,000	-0,035	0,128
-618,590	-200,000	0,012	0,083
-617,576	-140,255	-0,114	0,009
-616,561	111,492	-0,059	-0,052
-615,546	62,013	-0,103	0,076
-614,532	-12,004	-0,099	-0,048
-613,517	170,728	0,049	-0,052
-612,503	-93,358	-0,171	0,034
-611,488	479,511	-0,030	0,050
-610,474	-49,551	-0,026	-0,009
-609,459	548,856	0,016	0,028
-608,444	4,566	-0,127	-0,068
-607,430	19,969	-0,101	0,060
-606,415	-200,000	0,006	0,047
-605,401	315,839	0,015	-0,020
-604,386	-134,879	0,067	0,006
-603,371	26,178	-0,004	0,002
-602,357	15,383	-0,066	0,038
-601,342	250,872	-0,054	-0,067
-600,328	-47,298	-0,070	0,025
-599,313	106,840	0,029	-0,026
-598,298	-200,000	-0,001	0,089
-597,284	800,000	-0,057	-0,146
-596,269	-200,000	0,015	-0,110
-595,255	800,000	0,035	-0,078
-594,240	-158,788	-0,162	-0,007
-593,225	-114,203	-0,116	0,016
-592,211	-125,032	-0,152	-0,017
-591,196	800,000	-0,058	0,121
-590,182	-151,810	0,050	-0,003
-589,167	123,988	-0,038	-0,035
-588,152	183,520	-0,086	0,094
-587,138	-76,570	0,092	-0,023
-586,123	-200,000	-0,020	-0,126
-585,109	68,535	-0,065	0,049
-584,094	177,125	-0,082	0,088
-583,079	-63,457	0,098	0,029
-582,065	595,919	-0,085	-0,156
-581,050	353,702	0,086	-0,125
-580,036	-200,000	0,005	0,071
-579,021	-200,000	0,010	-0,044
-578,006	507,188	0,013	-0,023
-576,992	-127,160	0,189	0,020
-575,977	-200,000	0,018	-0,113
-574,963	-139,306	-0,100	0,008
-573,948	-200,000	-0,007	-0,074
-572,934	800,000	0,005	0,012
-571,919	288,438	-0,029	-0,038
-570,904	105,074	0,081	-0,070
-569,890	372,486	-0,046	0,068
-568,875	-9,520	0,073	0,036
-567,861	354,333	0,022	0,032
-566,846	94,017	-0,078	0,065
-565,831	-200,000	-0,018	-0,103
-564,817	-80,710	-0,158	-0,038
-563,802	766,255	-0,073	-0,145
-562,788	-200,000	0,016	0,134
-561,773	360,224	0,100	0,148
-560,758	174,147	0,061	0,065
-559,744	-78,576	0,106	0,026
-558,729	-111,332	0,053	0,008
-557,715	696,669	-0,057	-0,110
-556,700	404,022	-0,041	-0,063
-555,685	108,871	-0,114	-0,100
-554,671	-200,000	0,030	0,120
-553,656	-96,531	-0,055	-0,011
-552,642	-60,320	0,149	-0,046
-551,627	-157,149	0,132	0,006
-550,612	-83,752	-0,100	-0,023
-549,598	707,159	0,072	-0,139
-548,583	136,585	-0,038	-0,036
-547,569	75,361	-0,097	0,075
-546,554	-200,000	-0,003	-0,093
-545,539	-200,000	-0,030	0,127
-544,525	-85,636	-0,164	-0,037
-543,510	56,402	0,080	-0,057
-542,496	800,000	-0,061	-0,151
-541,481	-93,570	-0,068	0,014
-540,466	-200,000	0,019	0,084
-539,452	800,000	0,007	-0,018
-538,437	-200,000	-0,014	0,051
-537,423	102,388	0,039	-0,033
-536,408	-33,634	-0,122	-0,049
-535,393	-65,561	0,094	-0,027
-534,379	800,000	-0,057	0,158
-533,364	38,824	0,031	0,020
-532,350	800,000	-0,010	0,022
-531,335	-200,000	-0,003	0,158
-530,321	-63,337	0,062	0,019
-529,306	89,068	-0,009	0,007
-528,291	588,164	-0,053	0,097
-527,277	391,142	0,086	-0,131
-526,262	-3,514	-0,059	-0,030
-525,248	190,736	0,081	0,090
-524,233	-200,000	-0,018	-0,068
-523,218	174,648	-0,011	0,011
-522,204	-200,000	-0,019	0,071
-521,189	-6,683	-0,036	0,018
-520,175	10,591	0,060	-0,033
-519,160	-70,380	0,029	0,008
-518,145	800,000	0,019	-0,041
-517,131	195,954	0,074	0,083
-516,116	124,081	-0,052	0,047
-515,102	154,180	0,092	0,092
-514,087	322,673	0,038	0,053
-513,072	26,522	-0,081	-0,050
-512,058	737,205	-0,023	0,045
-511,043	800,000	0,035	-0,074
-510,029	-52,736	0,061	0,021
-509,014	-35,229	-0,042	0,017
-507,999	322,588	0,017	0,024
-506,985	-200,000	-0,005	-0,030
-505,970	93,569	-0,078	-0,065
-504,956	4,015	-0,042	-0,022
-503,941	-4,911	0,071	0,035
-502,926	-200,000	0,005	0,154
-501,912	-200,000	0,058	-0,198
-500,897	79,776	0,095	0,075
-499,883	-200,000	-0,013	-0,090
-498,868	-200,000	-0,002	-0,016
-497,853	-27,609	-0,108	-0,046
-496,839	79,560	0,071	-0,055
-495,824	476,540	-0,041	-0,068
-494,810	381,850	0,064	-0,096
-493,795	-200,000	-0,003	0,109
-492,781	-65,413	-0,033	0,010
-491,766	-80,722	-0,099	0,024
-490,751	383,851	-0,054	-0,081
-489,737	359,996	-0,073	0,107
-488,722	-200,000	0,015	0,070
-487,708	-38,769	0,072	-0,027
-486,693	228,925	-0,082	-0,097
-485,678	800,000	0,033	-0,071
-484,664	191,574	-0,035	-0,039
-483,649	71,781	-0,077	-0,059
-482,635	411,019	-0,059	-0,092
-481,620	-200,000	-0,002	0,052
-480,605	316,372	-0,069	-0,096
-479,591	342,046	0,045	0,064
-478,576	169,180	0,018	-0,019
-477,562	185,041	0,056	-0,061
-476,547	-55,396	-0,152	-0,050
-475,532	800,000	0,027	-0,082
-474,518	800,000	0,016	-0,044
-473,503	138,133	-0,050	0,048
-472,489	-192,458	0,140	-0,001
-471,474	19,351	0,047	0,027
-470,459	-200,000	-0,012	-0,144
-469,445	800,000	0,030	-0,092
-468,430	742,569	0,049	0,097
-467,416	419,848	-0,089	-0,139
-466,401	800,000	-0,024	0,051
-465,386	-200,000	-0,035	0,147
-464,372	800,000	-0,014	0,037
-463,357	-34,375	-0,063	-0,025
-462,343	213,680	-0,026	0,030
-461,328	272,712	-0,076	-0,098
-460,313	-200,000	0,025	-0,093
-459,299	-200,000	-0,002	0,251
-458,284	-113,812	0,071	-0,010
-457,270	-15,210	-0,096	0,044
-456,255	538,927	-0,076	-0,133
-455,241	14,574	0,053	0,030
-454,226	-137,991	-0,142	0,011
-453,211	-200,000	-0,001	0,109
-452,197	150,347	0,045	0,045
-451,182	800,000	-0,020	-0,048
-450,168	-200,000	0,000	-0,059
-449,153	-200,000	-0,012	-0,062
-448,138	-127,343	-0,125	-0,013
-447,124	13,144	0,091	-0,051
-446,109	-16,093	0,080	0,037
-445,095	-200,000	-0,007	-0,099
-444,080	-200,000	0,031	-0,171
-443,065	14,504	0,043	-0,025
-442,051	-12,586	-0,068	0,032
-441,036	38,766	-0,106	-0,069
-440,022	136,714	0,060	-0,058
-439,007	95,308	-0,036	-0,030
-437,992	124,191	-0,067	-0,061
-436,978	-60,730	0,151	0,046
-435,963	-79,848	-0,073	-0,018
-434,949	-200,000	0,007	-0,086
-433,934	131,897	0,056	-0,052
-432,919	495,230	-0,057	-0,095
-431,905	-200,000	-0,029	-0,140
-430,890	-200,000	-0,015	0,142
-429,876	-200,000	0,006	0,104
-428,861	-200,000	0,012	0,056
-427,846	-112,062	-0,065	-0,009
-426,832	800,000	0,080	-0,226
-425,817	-65,157	-0,099	-0,029
-424,803	-200,000	-0,033	-0,114
-423,788	-200,000	0,007	-0,027
-422,773	-96,296	0,111	0,021
-421,759	-121,049	0,213	-0,026
-420,744	432,134	-0,037	0,058
-419,730	-85,822	0,039	-0,009
-418,715	554,594	-0,016	0,028
-417,701	-200,000	-0,019	-0,155
-416,686	-200,000	0,023	-0,077
-415,671	-200,000	-0,006	0,056
-414,657	-105,068	0,100	0,016
-413,642	-134,562	-0,065	-0,006
-412,628	800,000	0,041	0,108
-411,613	-59,547	0,063	0,020
-410,598	-131,220	-0,042	0,004
-409,584	-200,000	-0,006	-0,040
-408,569	-68,847	0,067	-0,019
-407,555	-20,724	0,041	0,018
-406,540	-93,182	-0,079	-0,016
-405,525	-56,244	0,078	0,025
-404,511	-200,000	0,022	0,071
-403,496	-47,993	-0,129	-0,045
-402,482	-183,578	0,140	0,002
-401,467	800,000	-0,029	0,077
-400,452	-200,000	-0,014	-0,169
-399,438	247,222	-0,018	0,022
-398,423	-198,384	-0,048	0,000
-397,409	57,454	0,030	0,022
-396,394	23,459	0,128	0,077
-395,379	117,246	-0,094	-0,084
-394,365	-0,048	0,030	0,016
-393,350	-102,513	0,049	0,008
-392,336	123,224	0,064	-0,058
-391,321	122,322	0,135	-0,123
-390,306	-100,241	-0,117	-0,021
-389,292	-200,000	-0,001	-0,095
-388,277	-125,157	0,121	0,013
-387,263	-59,709	-0,074	0,023
-386,248	-200,000	-0,022	0,134
-385,233	-7,156	-0,134	0,066
-384,219	138,524	0,087	-0,083
-383,204	-145,801	-0,169	-0,011
-382,190	203,753	0,079	0,089
-381,175	800,000	-0,054	-0,145
-380,160	-152,846	0,115	0,006
-379,146	-105,421	0,211	0,034
-378,131	223,014	0,017	-0,020
-377,117	-33,156	0,063	-0,025
-376,102	-97,984	-0,046	0,009
-375,088	678,286	0,037	-0,070
-374,073	-200,000	-0,016	-0,098
-373,058	151,011	0,111	0,110
-372,044	-174,883	0,142	-0,003
-371,029	311,913	0,104	-0,142
-370,015	200,663	0,081	0,091
-369,000	644,794	0,036	-0,068
-367,985	800,000	0,039	-0,116
-366,971	-30,384	-0,031	0,013
-365,956	193,085	0,074	0,081
-364,942	800,000	0,065	-0,180
-363,927	80,345	0,027	0,021
-362,912	-200,000	-0,002	-0,011
-361,898	86,602	-0,048	0,038
-360,883	-100,675	0,067	0,012
-359,869	24,242	-0,105	-0,063
-358,854	89,340	-0,058	-0,047
-357,839	130,392	0,043	0,040
-356,825	-136,312	0,152	-0,013
-355,810	-200,000	-0,011	0,050
-354,796	303,966	-0,057	-0,077
-353,781	-168,485	-0,154	0,004
-352,766	-83,957	-0,054	0,012
-351,752	-109,518	0,024	-0,004
-350,737	299,695	0,031	-0,042
-349,723	-200,000	0,021	0,114
-348,708	-52,506	-0,052	0,017
-347,693	-184,471	0,129	0,001
-346,679	-33,600	-0,024	0,010
-345,664	30,351	-0,056	-0,034
-344,650	-31,688	-0,071	-0,029
-343,635	-200,000	0,028	0,129
-342,620	-1,773	0,117	0,060
-341,606	57,661	-0,057	-0,041
-340,591	800,000	-0,022	0,072
-339,577	23,636	0,080	0,048
-338,562	-78,747	-0,091	0,022
-337,548	800,000	0,022	-0,051
-336,533	6,108	-0,089	0,048
-335,518	130,822	-0,075	0,070
-334,504	-200,000	0,000	0,040
-333,489	144,922	0,073	0,071
-332,475	-179,248	0,203	-0,003
-331,460	126,105	0,045	-0,041
-330,445	800,000	-0,037	0,104
-329,431	206,998	0,067	0,076
-328,416	-53,642	0,020	0,007
-327,402	-104,179	0,108	-0,018
-326,387	-56,054	-0,104	0,033
-325,372	-200,000	0,010	-0,050
-324,358	-65,292	-0,069	0,020
-323,343	-129,629	-0,073	-0,007
-322,329	-200,000	-0,001	-0,102
-321,314	800,000	0,025	0,053
-320,299	-146,293	0,046	-0,003
-319,285	-52,694	-0,135	-0,045
-318,270	-200,000	-0,008	0,141
-317,256	89,362	-0,075	-0,061
-316,241	123,504	0,083	0,075
-315,226	131,237	-0,124	-0,116
-314,212	125,465	0,105	0,096
-313,197	-186,231	-0,072	0,001
-312,183	269,784	0,101	0,130
-311,168	-106,035	-0,033	-0,005
-310,153	-200,000	-0,004	-0,207
-309,139	-200,000	0,023	-0,165
-308,124	-200,000	0,002	0,051
-307,110	84,908	-0,065	-0,051
-306,095	754,954	0,037	0,073
-305,080	-200,000	-0,017	0,161
-304,066	-88,061	-0,183	0,039
-303,051	-152,976	0,075	0,004
-302,037	117,464	-0,054	0,048
-301,022	202,131	0,106	0,119
-300,008	62,938	0,072	-0,053
-298,993	800,000	-0,046	0,117
-297,978	193,781	0,073	-0,081
-296,964	399,102	-0,023	0,034
-295,949	-6,874	0,056	0,028
-294,935	-16,689	0,099	-0,045
-293,920	77,954	0,090	0,069
-292,905	11,333	-0,098	-0,054
-291,891	179,390	0,115	0,123
-290,876	59,153	0,149	0,106
-289,862	-83,304	-0,045	0,010
-288,847	-14,844	0,054	-0,025
-287,832	228,970	0,042	-0,050
-286,818	-46,090	0,039	-0,014
-285,803	800,000	0,025	-0,066
-284,789	124,156	0,144	0,131
-283,774	-80,498	0,055	-0,013
-282,759	64,769	0,088	0,064
-281,745	-200,000	-0,033	0,126
-280,730	416,587	0,059	-0,091
-279,716	7,328	-0,095	-0,051
-278,701	71,739	0,067	0,051
-277,686	17,964	0,138	-0,079
-276,672	117,528	0,086	0,076
-275,657	-200,000	-0,016	0,087
-274,643	-151,879	-0,067	-0,003
-273,628	-74,960	-0,024	-0,006
-272,613	668,646	-0,013	-0,024
-271,599	-61,587	0,066	0,020
-270,584	-200,000	0,011	0,161
-269,570	354,769	0,103	0,148
-268,555	-200,000	-0,008	-0,056
-267,540	-200,000	0,004	-0,055
-266,526	-200,000	0,020	-0,178
-265,511	-200,000	0,009	-0,047
-264,497	800,000	-0,051	-0,128
-263,482	-200,000	-0,031	0,105
-262,467	-200,000	0,027	0,158
-261,453	800,000	0,057	-0,128
-260,438	17,142	0,062	-0,035
-259,424	-133,952	0,126	0,011
-258,409	224,297	0,045	-0,053
-257,395	73,717	-0,133	0,101
-256,380	800,000	0,018	0,041
-255,365	445,656	0,060	0,096
-254,351	-200,000	0,020	-0,083
-253,336	800,000	-0,042	-0,106
-252,322	540,202	0,038	-0,067
-251,307	-97,431	0,054	-0,010
-250,292	28,270	-0,060	-0,037
-249,278	-29,461	-0,004	0,001
-248,263	-117,972	0,081	0,010
-247,249	-118,105	0,041	0,005
-246,234	482,313	0,080	-0,131
-245,219	408,195	-0,074	-0,114
-244,205	238,931	-0,112	-0,135
-243,190	-33,318	0,120	-0,048
-242,176	-49,430	0,050	-0,017
-241,161	-28,587	0,210	-0,087
-240,146	26,158	-0,081	0,049
-239,132	161,071	-0,093	0,094
-238,117	124,976	-0,059	0,054
-237,103	213,556	0,040	0,045
-236,088	25,240	0,083	-0,050
-235,073	22,929	0,023	-0,014
-234,059	109,264	0,007	0,006
-233,044	-41,790	-0,066	0,024
-232,030	-200,000	-0,012	0,173
-231,015	306,526	0,081	0,110
-230,000	-200,000	-0,007	0,032
-228,986	77,547	-0,097	0,075
-227,971	-200,000	-0,024	0,184
-226,957	88,996	-0,102	0,082
-225,942	-103,713	-0,045	-0,008
-224,927	135,770	0,038	-0,036
-223,913	757,909	0,030	-0,060
-222,898	-0,045	-0,031	-0,016
-221,884	207,525	0,068	-0,077
-220,869	-0,484	0,049	0,025
-219,855	-13,024	-0,011	-0,005
-218,840	800,000	0,046	0,103
-217,825	-138,287	0,100	0,008
-216,811	-2,774	-0,117	-0,059
-215,796	-6,651	-0,110	0,054
-214,782	284,494	0,035	0,046
-213,767	315,428	0,137	0,187
-212,752	800,000	0,076	0,219
-211,738	75,575	0,072	0,055
-210,723	326,953	0,067	0,093
-209,709	-200,000	0,007	-0,040
-208,694	800,000	-0,100	0,244
-207,679	-200,000	-0,009	-0,045
-206,665	-21,508	0,107	0,047
-205,650	-200,000	-0,006	-0,032
-204,636	-200,000	0,005	0,081
-203,621	62,003	-0,092	0,066
-202,606	-150,051	-0,140	0,008
-201,592	63,292	0,052	-0,038
-200,577	-71,223	-0,033	0,009
-199,563	14,406	0,051	0,029
-198,548	159,862	0,100	0,100
-197,533	302,621	0,065	-0,088
-196,519	33,277	0,054	0,034
-195,504	683,860	0,022	0,041
-194,490	-200,000	0,007	0,054
-193,475	-93,932	-0,082	0,016
-192,460	-40,446	0,198	0,074
-191,446	335,143	-0,041	0,058
-190,431	-14,814	0,126	0,058
-189,417	-200,000	-0,004	0,017
-188,402	250,527	0,052	-0,064
-187,387	-0,550	-0,035	0,018
-186,373	-78,942	-0,101	-0,025
-185,358	-200,000	-0,017	0,133
-184,344	-69,418	-0,054	0,015
-183,329	-116,586	-0,112	-0,015
-182,315	136,033	-0,115	0,108
-181,300	273,663	-0,164	0,210
-180,285	108,875	0,034	0,030
-179,271	-6,163	0,084	-0,041
-178,256	-200,000	-0,008	0,099
-177,242	117,604	-0,165	-0,147
-176,227	-129,178	-0,121	-0,012
-175,212	203,780	-0,089	-0,100
-174,198	184,578	-0,026	0,028
-173,183	800,000	0,025	0,057
-172,169	114,613	-0,079	-0,070
-171,154	-112,749	0,201	0,028
-170,139	354,774	-0,049	0,070
-169,125	17,850	-0,008	-0,005
-168,110	-200,000	-0,023	0,078
-167,096	-200,000	0,016	-0,100
-166,081	-200,000	-0,009	-0,041
-165,066	527,584	0,020	-0,034
-164,052	68,352	0,046	0,034
-163,037	156,281	0,027	-0,027
-162,023	-200,000	0,018	0,232
-161,008	-200,000	-0,025	0,107
-159,993	800,000	-0,028	-0,089
-158,979	-200,000	-0,011	-0,115
-157,964	-200,000	-0,002	-0,019
-156,950	-140,508	0,162	0,012
-155,935	800,000	-0,032	-0,074
-154,920	800,000	0,016	-0,035
-153,906	77,141	-0,086	0,066
-152,891	76,078	-0,073	0,055
-151,877	-200,000	0,014	-0,096
-150,862	-16,666	-0,037	0,017
-149,847	82,288	-0,020	0,015
-148,833	-180,009	-0,030	-0,000
-147,818	46,320	-0,012	0,008
-146,804	800,000	-0,010	-0,026
-145,789	800,000	0,037	0,084
-144,775	-200,000	-0,003	-0,048
-143,760	133,773	-0,089	-0,083
-142,745	800,000	-0,010	0,023
-141,731	800,000	0,034	0,079
-140,716	382,867	0,079	0,118
-139,702	103,746	0,123	0,104
-138,687	185,325	0,084	-0,090
-137,672	42,246	0,031	0,020
-136,658	-121,701	-0,181	-0,021
-135,643	-200,000	0,011	-0,062
-134,629	9,855	-0,085	0,046
-133,614	-56,992	0,138	0,044
-132,599	-200,000	-0,006	0,038
-131,585	800,000	-0,041	0,101
-130,570	-73,255	-0,100	-0,026
-129,556	-200,000	-0,001	-0,045
-128,541	-96,320	-0,105	-0,020
-127,526	-118,182	0,080	0,010
-126,512	297,658	0,057	0,075
-125,497	-200,000	-0,014	-0,082
-124,483	23,741	-0,049	0,029
-123,468	800,000	0,028	0,080
-122,453	-200,000	-0,001	-0,018
-121,439	70,127	-0,112	-0,083
-120,424	-200,000	0,008	0,026
-119,410	-124,581	0,042	0,005
