DTS Sentinel unit serial number:	SN410029Multiplexer serial number:	ORYXHardware model number:	OX2-SRSoftware version number:	ORYX F/W v4,00 Oryx Data Collector v3.7.2.0data status	okinstallation	B5 Nyhavnadifferential loss correction	single-endedforward channel	channel 2reverse channel	N/Adate	2023/12/12time	11:47:13forward acquisition time	300,00reverse acquisition time	0,00gamma	499,1914k internal	0,3158k external	0,3158temperature offset calibration	1,0000default loss term (dB/km)	0,3820temperature slope calibration	1,0000multiplexer offset coefficient	1,0000multiplexer slope coefficient	1,0000fibre end	0,00T internal ref (°C)	15,12T ext. ref 1 (°C)	-0,95T ext. ref 2 (°C)	-1,21length (m)	temperature (°C)	Stokes	anti-Stokes-744,400	-61,169	-0,023	-0,007
-743,385	-100,264	-0,368	0,067
-742,371	165,922	0,116	0,121
-741,356	-109,162	-0,191	0,030
-740,342	384,951	0,075	0,114
-739,327	-137,615	-0,454	0,037
-738,312	25,201	0,094	-0,057
-737,298	-91,066	-0,265	-0,056
-736,283	-80,358	0,173	-0,042
-735,269	-147,259	-0,290	0,018
-734,254	800,000	0,040	0,108
-733,239	60,567	-0,408	-0,297
-732,225	109,572	0,108	0,096
-731,210	232,031	-0,059	-0,072
-730,196	-5,418	-0,059	0,030
-729,181	-144,540	-0,066	0,004
-728,167	221,851	-0,071	-0,085
-727,152	-187,439	-0,044	0,000
-726,137	-134,412	-0,063	-0,006
-725,123	-200,000	-0,016	0,067
-724,108	42,884	-0,079	-0,053
-723,094	722,587	-0,017	0,034
-722,079	-104,724	-0,115	0,019
-721,064	-73,745	-0,037	0,010
-720,050	800,000	-0,036	0,075
-719,035	-59,886	-0,083	0,026
-718,021	101,795	-0,024	-0,021
-717,006	452,714	-0,051	-0,083
-715,991	-200,000	-0,002	0,071
-714,977	-196,297	-0,041	0,000
-713,962	-200,000	-0,012	-0,114
-712,948	-158,914	-0,105	-0,004
-711,933	-81,838	0,016	0,004
-710,918	-200,000	0,002	0,041
-709,904	186,490	-0,087	0,096
-708,889	401,233	-0,119	-0,184
-707,875	-200,000	-0,027	-0,193
-706,860	120,462	-0,026	-0,023
-705,845	-200,000	-0,018	-0,091
-704,831	555,091	0,043	0,077
-703,816	12,589	0,065	-0,037
-702,802	800,000	-0,028	-0,073
-701,787	800,000	-0,051	-0,116
-700,772	-200,000	0,014	0,060
-699,758	-200,000	-0,020	0,080
-698,743	-200,000	0,003	0,028
-697,729	-105,483	-0,050	0,008
-696,714	488,856	0,066	-0,111
-695,699	-91,362	-0,177	0,037
-694,685	-200,000	-0,001	0,033
-693,670	-23,711	0,063	-0,028
-692,656	45,278	0,156	0,105
-691,641	18,233	-0,050	0,029
-690,627	800,000	0,028	0,072
-689,612	-200,000	-0,002	-0,161
-688,597	505,300	-0,022	-0,037
-687,583	-200,000	-0,002	0,071
-686,568	175,364	0,049	0,052
-685,554	-122,882	-0,031	0,004
-684,539	-45,950	0,077	0,028
-683,524	56,342	0,078	-0,056
-682,510	-200,000	-0,016	0,060
-681,495	470,574	0,063	-0,105
-680,481	-200,000	-0,005	0,099
-679,466	800,000	-0,068	-0,145
-678,451	-200,000	-0,011	-0,149
-677,437	-102,678	-0,038	0,007
-676,422	-67,346	0,089	0,026
-675,408	383,679	-0,034	0,052
-674,393	-173,843	-0,051	-0,001
-673,378	510,618	-0,081	-0,138
-672,364	-155,289	-0,143	-0,007
-671,349	5,610	0,112	-0,061
-670,335	-200,000	0,005	-0,068
-669,320	104,378	-0,036	-0,032
-668,305	800,000	0,019	0,053
-667,291	53,502	-0,063	-0,044
-666,276	-200,000	-0,022	-0,110
-665,262	362,375	-0,057	-0,084
-664,247	800,000	-0,036	-0,076
-663,232	35,190	0,080	0,051
-662,218	54,556	0,056	-0,040
-661,203	-67,680	-0,068	0,020
-660,189	-200,000	0,011	-0,157
-659,174	-156,054	-0,031	0,001
-658,159	800,000	-0,033	0,103
-657,145	800,000	-0,011	-0,022
-656,130	58,114	0,102	-0,073
-655,116	-20,027	0,062	-0,028
-654,101	18,325	0,082	0,048
-653,086	2,298	-0,076	0,040
-652,072	156,987	0,002	0,002
-651,057	302,004	-0,113	-0,154
-650,043	800,000	0,027	0,055
-649,028	-97,598	-0,098	-0,018
-648,014	-68,836	0,087	-0,024
-646,999	-80,955	-0,075	-0,018
-645,984	-85,544	-0,063	0,014
-644,970	121,286	-0,131	-0,120
-643,955	107,400	0,035	-0,031
-642,941	-200,000	0,041	-0,170
-641,926	151,056	-0,044	-0,044
-640,911	29,205	0,063	0,039
-639,897	-200,000	0,020	-0,073
-638,882	270,577	0,058	-0,075
-637,868	-200,000	-0,003	-0,023
-636,853	-200,000	-0,004	-0,157
-635,838	-20,117	-0,165	0,074
-634,824	-200,000	0,019	-0,112
-633,809	267,170	0,025	0,032
-632,795	271,236	0,032	-0,042
-631,780	34,035	0,058	0,037
-630,765	126,801	-0,042	0,040
-629,751	481,017	0,059	-0,099
-628,736	-47,985	-0,186	-0,066
-627,722	0,795	0,203	-0,106
-626,707	15,803	-0,062	-0,036
-625,692	-196,383	0,020	0,000
-624,678	-38,244	0,094	-0,036
-623,663	-122,622	-0,059	0,007
-622,649	800,000	-0,021	-0,057
-621,634	-107,927	0,095	0,015
-620,619	-200,000	0,009	-0,085
-619,605	33,408	0,059	-0,038
-618,590	800,000	0,019	-0,043
-617,576	800,000	0,009	-0,023
-616,561	146,517	-0,110	0,109
-615,546	95,056	-0,086	-0,072
-614,532	-200,000	0,007	-0,033
-613,517	800,000	0,030	0,076
-612,503	44,973	-0,067	0,045
-611,488	-200,000	-0,006	-0,022
-610,474	103,045	-0,088	-0,076
-609,459	99,059	-0,020	-0,017
-608,444	-200,000	-0,018	0,064
-607,430	73,883	-0,172	-0,132
-606,415	-76,117	-0,040	-0,010
-605,401	235,878	-0,033	-0,040
-604,386	62,974	-0,048	-0,035
-603,371	-200,000	-0,011	0,098
-602,357	-164,519	-0,103	0,003
-601,342	-200,000	0,020	-0,081
-600,328	-200,000	-0,007	-0,141
-599,313	-200,000	-0,039	0,128
-598,298	-89,965	-0,036	-0,008
-597,284	51,085	-0,062	0,043
-596,269	-22,119	0,071	0,032
-595,255	800,000	0,050	0,129
-594,240	800,000	-0,022	-0,055
-593,225	-200,000	0,002	-0,022
-592,211	12,498	-0,065	0,037
-591,196	800,000	0,026	-0,081
-590,182	800,000	0,043	0,090
-589,167	110,363	0,119	0,105
-588,152	37,632	-0,045	-0,029
-587,138	-35,782	-0,082	-0,032
-586,123	-10,601	-0,073	-0,035
-585,109	800,000	-0,031	-0,065
-584,094	221,906	-0,085	0,101
-583,079	-200,000	0,021	0,090
-582,065	143,806	-0,054	0,052
-581,050	260,511	-0,113	-0,144
-580,036	800,000	-0,017	0,039
-579,021	-200,000	0,018	-0,110
-578,006	52,978	0,090	-0,063
-576,992	-139,972	-0,098	-0,007
-575,977	-158,842	0,031	-0,001
-574,963	-200,000	0,011	0,067
-573,948	-78,575	0,119	0,030
-572,934	9,318	0,037	0,021
-571,919	-56,215	-0,134	-0,044
-570,904	83,376	0,097	-0,077
-569,890	106,940	-0,034	0,030
-568,875	-58,187	0,070	0,022
-567,861	800,000	-0,035	0,081
-566,846	701,554	-0,048	0,092
-565,831	-72,357	-0,077	0,021
-564,817	-45,660	0,083	-0,030
-563,802	53,032	-0,077	-0,054
-562,788	-200,000	-0,034	-0,218
-561,773	197,097	0,075	0,083
-560,758	-200,000	-0,008	0,112
-559,744	677,198	0,089	-0,170
-558,729	800,000	-0,048	-0,107
-557,715	800,000	0,108	-0,233
-556,700	800,000	-0,079	-0,172
-555,685	-11,556	0,114	-0,054
-554,671	800,000	0,063	-0,146
-553,656	-33,550	-0,098	0,039
-552,642	720,084	0,010	0,020
-551,627	800,000	-0,061	0,124
-550,612	800,000	0,011	-0,033
-549,598	31,551	0,107	-0,067
-548,583	800,000	0,044	0,125
-547,569	800,000	0,016	-0,041
-546,554	800,000	0,024	0,078
-545,539	-123,650	0,062	0,007
-544,525	-156,256	0,067	0,003
-543,510	-200,000	0,021	-0,078
-542,496	800,000	0,015	-0,048
-541,481	-26,381	-0,084	-0,036
-540,466	-200,000	0,016	0,097
-539,452	293,628	-0,080	0,107
-538,437	-22,468	-0,077	0,034
-537,423	59,842	-0,083	0,060
-536,408	295,769	-0,040	0,053
-535,393	-139,495	-0,050	-0,004
-534,379	-68,224	-0,115	-0,033
-533,364	800,000	-0,030	-0,063
-532,350	-200,000	-0,028	0,150
-531,335	-74,282	0,083	0,022
-530,321	386,718	-0,128	-0,194
-529,306	800,000	0,087	-0,200
-528,291	518,421	0,040	0,069
-527,277	32,155	-0,016	-0,010
-526,262	-91,542	0,085	-0,018
-525,248	-58,273	-0,089	0,028
-524,233	-53,261	0,089	0,030
-523,218	-57,411	-0,057	0,018
-522,204	284,940	-0,054	-0,071
-521,189	351,930	-0,073	-0,105
-520,175	-200,000	-0,006	-0,051
-519,160	-200,000	0,003	-0,098
-518,145	800,000	-0,034	-0,105
-517,131	30,579	0,088	0,055
-516,116	-200,000	-0,007	-0,032
-515,102	43,191	0,044	-0,029
-514,087	-117,432	0,097	0,013
-513,072	-65,233	-0,185	-0,054
-512,058	-72,055	-0,011	-0,003
-511,043	52,556	0,047	0,033
-510,029	-61,421	-0,033	-0,010
-509,014	419,902	0,066	-0,103
-507,999	658,711	-0,077	-0,146
-506,985	-67,012	0,073	-0,021
-505,970	-87,474	-0,095	-0,021
-504,956	149,575	-0,028	-0,027
-503,941	-106,784	0,072	-0,012
-502,926	-1,027	-0,103	0,053
-501,912	-200,000	-0,023	-0,113
-500,897	3,004	-0,083	0,044
-499,883	-61,918	-0,094	0,028
-498,868	-200,000	0,015	-0,058
-497,853	35,571	0,067	0,043
-496,839	472,819	0,038	-0,062
-495,824	9,100	0,047	0,026
-494,810	234,872	-0,164	0,198
-493,795	-13,987	-0,006	0,003
-492,781	381,444	0,039	-0,059
-491,766	-200,000	0,009	0,040
-490,751	115,252	-0,160	0,142
-489,737	264,004	-0,020	-0,026
-488,722	800,000	-0,040	0,101
-487,708	-200,000	0,001	0,134
-486,693	-200,000	0,032	-0,199
-485,678	125,086	0,067	0,062
-484,664	-38,476	-0,081	-0,031
-483,649	425,481	0,016	-0,026
-482,635	-40,448	0,051	0,019
-481,620	800,000	0,033	0,080
-480,605	213,317	0,051	0,059
-479,591	800,000	-0,043	0,125
-478,576	298,212	0,010	0,014
-477,562	800,000	-0,035	0,090
-476,547	-200,000	0,021	-0,108
-475,532	-112,730	0,156	0,022
-474,518	438,263	0,105	-0,168
-473,503	-35,030	0,055	-0,022
-472,489	198,260	-0,058	0,064
-471,474	41,447	-0,060	0,040
-470,459	800,000	-0,039	-0,116
-469,445	-61,117	-0,153	0,047
-468,430	26,556	0,144	0,087
-467,416	-19,700	0,161	0,073
-466,401	-166,095	0,082	-0,002
-465,386	-91,131	0,029	-0,006
-464,372	-54,181	0,067	0,022
-463,357	-127,734	-0,088	0,009
-462,343	-200,000	-0,010	0,059
-461,328	39,729	-0,103	-0,067
-460,313	276,520	0,112	-0,146
-459,299	405,494	-0,013	-0,020
-458,284	-144,303	0,035	-0,002
-457,270	800,000	-0,020	-0,047
-456,255	183,051	0,091	0,098
-455,241	800,000	0,013	-0,042
-454,226	649,493	-0,054	-0,101
-453,211	125,296	0,048	0,044
-452,197	10,292	-0,004	-0,002
-451,182	-98,479	-0,079	0,015
-450,168	-115,439	0,040	0,005
-449,153	174,380	0,042	0,044
-448,138	73,570	0,097	0,074
-447,124	-200,000	0,020	-0,092
-446,109	800,000	0,025	0,058
-445,095	292,237	0,025	0,033
-444,080	664,656	0,049	0,092
-443,065	789,521	0,016	0,031
-442,051	-200,000	0,010	0,114
-441,036	264,354	-0,072	-0,092
-440,022	-122,022	0,131	0,015
-439,007	795,121	0,018	0,036
-437,992	-170,863	0,137	-0,003
-436,978	-11,295	-0,035	-0,017
-435,963	114,728	0,044	0,039
-434,949	419,947	-0,047	0,074
-433,934	242,150	0,034	-0,041
-432,919	21,011	-0,015	0,009
-431,905	47,030	0,083	0,056
-430,890	-200,000	-0,003	0,062
-429,876	800,000	-0,014	-0,036
-428,861	238,287	0,096	0,116
-427,846	50,100	-0,145	-0,099
-426,832	292,439	0,088	-0,117
-425,817	301,141	0,015	0,021
-424,803	-200,000	-0,011	-0,076
-423,788	-200,000	0,007	0,044
-422,773	240,143	0,106	0,129
-421,759	6,285	-0,079	0,043
-420,744	45,917	0,128	-0,086
-419,730	-134,722	-0,030	-0,003
-418,715	450,140	-0,056	0,091
-417,701	-200,000	0,021	-0,129
-416,686	-115,751	0,063	-0,008
-415,671	100,710	-0,072	-0,061
-414,657	-13,645	0,196	0,092
-413,642	119,912	0,070	-0,063
-412,628	-87,884	0,116	-0,025
-411,613	445,961	-0,018	0,029
-410,598	580,194	-0,049	0,087
-409,584	700,179	0,037	0,071
-408,569	-19,409	-0,060	-0,027
-407,555	154,982	0,050	-0,050
-406,540	454,422	-0,071	0,115
-405,525	41,891	-0,107	0,071
-404,511	-96,492	-0,085	0,016
-403,496	-155,186	0,055	-0,003
-402,482	273,952	0,029	0,037
-401,467	-42,397	-0,175	-0,065
-400,452	-200,000	0,010	0,119
-399,438	317,463	0,029	0,040
-398,423	0,303	-0,096	-0,049
-397,409	-200,000	0,006	-0,024
-396,394	8,907	0,059	-0,032
-395,379	-55,400	-0,055	-0,018
-394,365	-200,000	-0,003	-0,034
-393,350	-48,403	0,080	-0,028
-392,336	-53,612	-0,071	0,023
-391,321	-200,000	-0,020	0,089
-390,306	568,417	-0,054	-0,096
-389,292	507,001	-0,015	-0,026
-388,277	-120,286	-0,046	-0,006
-387,263	-200,000	0,001	0,106
-386,248	399,108	0,018	-0,028
-385,233	800,000	-0,082	-0,176
-384,219	612,050	0,028	-0,051
-383,204	60,805	0,044	0,032
-382,190	20,925	0,070	0,041
-381,175	434,712	0,057	0,090
-380,160	61,936	0,105	0,076
-379,146	-200,000	0,005	0,117
-378,131	401,290	0,082	0,126
-377,117	-73,062	0,139	0,037
-376,102	14,887	-0,114	0,065
-375,088	5,385	0,117	-0,062
-374,073	316,381	0,020	0,027
-373,058	800,000	-0,033	0,102
-372,044	64,934	0,103	0,075
-371,029	-200,000	0,002	-0,024
-370,015	-200,000	0,003	0,051
-369,000	-200,000	0,016	-0,146
-367,985	5,191	0,154	0,082
-366,971	478,143	-0,065	-0,108
-365,956	18,218	0,115	-0,067
-364,942	800,000	0,033	0,085
-363,927	35,021	0,073	-0,046
-362,912	-88,022	-0,065	-0,014
-361,898	124,407	-0,053	0,048
-360,883	-200,000	-0,011	-0,127
-359,869	259,730	0,038	0,048
-358,854	33,314	-0,148	0,093
-357,839	-178,251	-0,090	0,001
-356,825	753,327	-0,038	-0,075
-355,810	387,698	0,046	-0,070
-354,796	338,058	-0,092	0,131
-353,781	113,987	0,120	-0,106
-352,766	-66,860	0,030	-0,009
-351,752	-65,004	0,065	-0,019
-350,737	257,734	-0,074	0,092
-349,723	800,000	0,042	0,084
-348,708	41,649	-0,101	0,066
-347,693	626,571	-0,050	-0,091
-346,679	131,228	0,010	0,010
-345,664	-84,225	-0,065	-0,015
-344,650	-45,482	0,087	0,031
-343,635	10,188	-0,065	-0,036
-342,620	59,537	0,041	0,030
-341,606	-200,000	0,015	0,065
-340,591	-200,000	-0,011	0,041
-339,577	-23,430	-0,201	0,087
-338,562	96,019	-0,102	0,085
-337,548	607,799	0,036	-0,066
-336,533	-40,467	-0,101	-0,038
-335,518	800,000	-0,034	0,083
-334,504	173,990	-0,023	-0,024
-333,489	414,250	-0,047	-0,073
-332,475	140,179	-0,085	-0,081
-331,460	750,041	-0,005	-0,010
-330,445	404,142	-0,072	-0,110
-329,431	39,704	-0,040	-0,026
-328,416	-200,000	-0,025	0,083
-327,402	70,598	-0,087	0,065
-326,387	-70,515	-0,105	0,029
-325,372	-103,785	-0,058	-0,010
-324,358	-200,000	0,020	-0,077
-323,343	109,955	-0,082	0,071
-322,329	165,382	0,187	0,192
-321,314	-65,771	0,073	-0,021
-320,299	-11,631	-0,097	0,046
-319,285	-200,000	0,001	0,129
-318,270	-200,000	0,013	0,085
-317,256	13,323	0,155	-0,087
-316,241	-13,439	-0,128	0,060
-315,226	-200,000	-0,032	-0,143
-314,212	-140,446	0,036	-0,003
-313,197	77,575	-0,049	0,038
-312,183	800,000	0,067	0,147
-311,168	166,027	0,065	0,067
-310,153	800,000	-0,001	-0,002
-309,139	-200,000	-0,011	0,048
-308,124	-200,000	-0,031	0,149
-307,110	103,133	0,057	0,048
-306,095	-200,000	0,021	0,091
-305,080	-148,534	0,108	-0,006
-304,066	-71,118	0,016	-0,004
-303,051	-61,537	-0,164	-0,050
-302,037	800,000	-0,016	-0,039
-301,022	800,000	0,024	0,065
-300,008	-133,936	0,039	-0,003
-298,993	-200,000	-0,029	0,107
-297,978	800,000	0,019	0,043
-296,964	-82,444	-0,171	-0,040
-295,949	-41,581	0,059	-0,022
-294,935	-190,502	0,030	-0,000
-293,920	-116,122	0,048	0,006
-292,905	169,579	0,186	0,192
-291,891	800,000	0,016	0,045
-290,876	26,540	-0,101	0,061
-289,862	800,000	0,027	0,065
-288,847	359,117	0,035	0,051
-287,832	-200,000	-0,016	-0,084
-286,818	-113,503	0,016	-0,002
-285,803	-106,982	0,122	0,019
-284,789	800,000	0,056	0,139
-283,774	-200,000	-0,006	0,065
-282,759	-168,924	-0,098	-0,003
-281,745	-122,708	0,131	-0,015
-280,730	799,490	0,044	-0,087
-279,716	-200,000	-0,015	0,069
-278,701	800,000	0,010	-0,026
-277,686	-51,902	0,085	-0,029
-276,672	43,241	-0,070	-0,046
-275,657	-137,947	-0,178	0,014
-274,643	-103,585	-0,066	0,011
-273,628	800,000	0,038	-0,107
-272,613	-73,346	-0,058	-0,015
-271,599	65,843	0,063	0,046
-270,584	131,530	-0,038	-0,035
-269,570	-137,382	0,087	0,007
-268,555	489,865	-0,051	0,084
-267,540	81,076	-0,077	-0,060
-266,526	-200,000	0,054	-0,215
-265,511	-126,181	0,061	-0,006
-264,497	291,171	-0,032	0,042
-263,482	-57,628	-0,036	0,011
-262,467	124,994	0,026	-0,024
-261,453	17,920	-0,035	-0,020
-260,438	336,315	-0,076	-0,106
-259,424	139,608	-0,070	-0,067
-258,409	181,931	-0,044	-0,046
-257,395	-4,343	0,100	-0,050
-256,380	-176,379	0,142	-0,003
-255,365	144,439	0,104	0,100
-254,351	-123,748	0,046	0,005
-253,336	-200,000	0,013	0,044
-252,322	-58,382	-0,154	0,048
-251,307	141,720	-0,092	0,089
-250,292	800,000	-0,039	0,104
-249,278	136,800	0,079	0,075
-248,263	-73,282	0,093	-0,025
-247,249	-200,000	-0,005	0,071
-246,234	147,569	0,083	-0,081
-245,219	800,000	-0,020	-0,064
-244,205	200,902	0,096	-0,106
-243,190	800,000	0,028	-0,085
-242,176	-200,000	0,005	-0,023
-241,161	658,627	-0,033	0,061
-240,146	351,488	-0,059	-0,085
-239,132	-52,739	-0,124	-0,041
-238,117	-200,000	0,017	-0,095
-237,103	-200,000	0,008	0,043
-236,088	-200,000	0,023	-0,074
-235,073	-57,228	0,068	0,021
-234,059	104,694	0,087	0,074
-233,044	90,001	0,055	-0,044
-232,030	-154,564	-0,062	-0,003
-231,015	73,955	-0,064	-0,049
-230,000	-200,000	0,009	-0,086
-228,986	4,124	0,053	-0,028
-227,971	-68,955	0,057	-0,016
-226,957	800,000	0,024	-0,068
-225,942	531,822	-0,018	-0,031
-224,927	800,000	0,059	-0,150
-223,913	387,871	-0,036	-0,054
-222,898	275,063	0,069	0,088
-221,884	-127,211	-0,184	-0,019
-220,869	800,000	0,035	0,101
-219,855	41,681	0,010	-0,007
-218,840	-181,971	-0,073	0,001
-217,825	800,000	0,066	0,146
-216,811	515,448	0,088	-0,149
-215,796	176,061	0,047	-0,049
-214,782	-129,171	0,109	0,011
-213,767	103,944	0,067	0,057
-212,752	-200,000	0,021	-0,108
-211,738	-200,000	0,008	0,110
-210,723	86,905	0,093	0,074
-209,709	208,875	-0,014	-0,016
-208,694	339,004	0,014	-0,019
-207,679	367,357	-0,027	0,040
-206,665	214,253	-0,024	-0,028
-205,650	329,039	0,047	0,065
-204,636	-200,000	0,019	0,127
-203,621	-200,000	-0,006	-0,036
-202,606	222,364	0,043	0,050
-201,592	600,508	-0,089	-0,160
-200,577	800,000	-0,047	0,107
-199,563	800,000	0,010	0,027
-198,548	208,633	0,063	0,072
-197,533	-12,395	0,015	-0,007
-196,519	-200,000	-0,025	0,100
-195,504	154,983	0,026	0,026
-194,490	-200,000	-0,024	-0,082
-193,475	105,549	0,029	0,025
-192,460	-200,000	0,007	-0,043
-191,446	651,229	-0,061	-0,114
-190,431	66,129	0,066	-0,048
-189,417	-38,911	-0,074	0,028
-188,402	378,776	0,010	0,014
-187,387	-77,121	-0,050	0,013
-186,373	551,033	0,023	-0,041
-185,358	502,707	-0,094	0,158
-184,344	88,494	-0,053	0,043
-183,329	800,000	-0,040	0,123
-182,315	-200,000	0,026	0,138
-181,300	-136,120	-0,148	0,012
-180,285	-200,000	-0,021	0,138
-179,271	-200,000	0,007	-0,076
-178,256	-200,000	-0,008	-0,034
-177,242	-200,000	0,003	-0,012
-176,227	12,855	0,137	-0,076
-175,212	-200,000	0,005	-0,115
-174,198	800,000	0,073	-0,148
-173,183	-167,018	0,112	0,003
-172,169	-200,000	-0,012	0,040
-171,154	612,408	0,015	-0,027
-170,139	-200,000	0,046	0,166
-169,125	-36,686	0,104	0,040
-168,110	26,151	-0,038	0,023
-167,096	46,325	-0,094	0,063
-166,081	-84,889	-0,152	0,034
-165,066	320,499	-0,016	0,022
-164,052	125,558	0,009	0,008
-163,037	-200,000	0,035	-0,120
-162,023	-200,000	0,009	0,138
-161,008	-128,105	0,083	0,008
-159,993	800,000	-0,043	-0,119
-158,979	800,000	-0,006	-0,016
-157,964	688,950	0,009	-0,017
-156,950	23,960	-0,082	-0,049
-155,935	75,656	0,098	0,075
-154,920	260,174	-0,057	0,070
-153,906	800,000	0,023	0,064
-152,891	-200,000	-0,012	-0,165
-151,877	577,545	-0,087	-0,154
-150,862	104,568	-0,035	-0,030
-149,847	92,152	-0,056	0,045
-148,833	-200,000	-0,004	-0,037
-147,818	91,120	0,166	0,134
-146,804	765,561	0,037	0,072
-145,789	426,289	-0,063	0,099
-144,775	106,000	-0,092	-0,079
-143,760	-82,176	-0,173	-0,040
-142,745	-120,274	-0,118	-0,014
-141,731	-75,467	-0,105	-0,027
-140,716	428,514	0,019	0,029
-139,702	-155,653	0,043	-0,002
-138,687	800,000	0,044	0,132
-137,672	800,000	0,009	-0,020
-136,658	255,710	0,101	-0,125
-135,643	81,244	-0,086	-0,067
-134,629	34,050	0,076	-0,047
-133,614	-111,472	0,086	0,013
-132,599	-128,050	-0,049	0,005
-131,585	800,000	-0,017	-0,038
-130,570	191,951	0,036	-0,039
-129,556	800,000	0,014	-0,034
-128,541	-113,921	0,065	0,009
-127,526	800,000	-0,057	-0,114
-126,512	-121,932	0,162	-0,019
-125,497	124,992	0,078	-0,071
-124,483	-33,038	0,085	-0,034
-123,468	-200,000	-0,023	0,078
-122,453	107,035	-0,066	0,056
-121,439	-51,799	0,084	-0,028
-120,424	-200,000	0,010	-0,128
-119,410	-200,000	-0,004	0,058
-118,395	-125,439	0,131	0,014
