DTS Sentinel unit serial number:	SN410029Multiplexer serial number:	ORYXHardware model number:	OX2-SRSoftware version number:	ORYX F/W v4,00 Oryx Data Collector v3.7.2.0data status	okinstallation	B5 Nyhavnadifferential loss correction	single-endedforward channel	channel 2reverse channel	N/Adate	2023/12/13time	04:57:13forward acquisition time	300,00reverse acquisition time	0,00gamma	499,1914k internal	0,3160k external	0,3160temperature offset calibration	1,0000default loss term (dB/km)	0,3820temperature slope calibration	1,0000multiplexer offset coefficient	1,0000multiplexer slope coefficient	1,0000fibre end	0,00T internal ref (°C)	13,90T ext. ref 1 (°C)	-2,51T ext. ref 2 (°C)	-2,82length (m)	temperature (°C)	Stokes	anti-Stokes-744,400	563,479	0,101	-0,180
-743,385	-127,333	-0,304	-0,032
-742,371	-89,516	0,131	0,028
-741,356	-103,792	-0,351	0,060
-740,342	-77,105	0,242	-0,062
-739,327	-114,016	-0,458	-0,065
-738,312	-200,000	0,000	0,027
-737,298	-105,840	-0,286	0,047
-736,283	792,028	0,004	-0,009
-735,269	-116,903	-0,365	-0,049
-734,254	-97,661	0,072	0,014
-733,239	-25,449	-0,421	-0,183
-732,225	63,025	0,093	0,069
-731,210	-57,121	-0,092	0,030
-730,196	-200,000	-0,021	-0,119
-729,181	456,770	-0,038	-0,062
-728,167	85,989	-0,078	-0,063
-727,152	605,251	-0,076	-0,140
-726,137	129,850	-0,119	-0,112
-725,123	800,000	-0,007	0,018
-724,108	-118,558	-0,160	0,021
-723,094	-52,999	-0,109	-0,037
-722,079	36,973	-0,082	0,053
-721,064	128,318	-0,052	0,049
-720,050	-200,000	-0,007	-0,085
-719,035	-50,711	-0,061	-0,021
-718,021	251,682	0,082	-0,103
-717,006	-36,371	-0,056	-0,022
-715,991	253,900	-0,139	-0,175
-714,977	270,514	-0,089	-0,115
-713,962	-53,066	0,087	-0,029
-712,948	605,378	-0,092	0,169
-711,933	-92,941	-0,044	0,009
-710,918	800,000	-0,008	0,018
-709,904	-140,157	-0,177	-0,013
-708,889	22,008	-0,115	-0,069
-707,875	-200,000	0,030	-0,102
-706,860	-60,379	0,049	-0,015
-705,845	-200,000	0,004	-0,204
-704,831	-98,067	0,024	0,004
-703,816	-60,476	-0,124	0,038
-702,802	-200,000	-0,020	-0,132
-701,787	-10,762	-0,074	-0,036
-700,772	215,643	0,047	0,056
-699,758	800,000	0,032	0,087
-698,743	-65,683	-0,098	-0,029
-697,729	102,116	0,144	0,124
-696,714	149,752	-0,086	0,085
-695,699	-66,299	-0,024	-0,007
-694,685	-2,851	-0,108	-0,055
-693,670	-200,000	-0,002	0,052
-692,656	-155,621	0,052	0,002
-691,641	-182,843	0,060	0,001
-690,627	257,929	-0,036	-0,046
-689,612	-45,423	0,073	0,027
-688,597	-5,130	-0,068	0,034
-687,583	184,361	-0,069	0,075
-686,568	-123,794	-0,038	-0,004
-685,554	-60,352	0,049	0,015
-684,539	122,922	-0,098	0,090
-683,524	321,065	-0,075	0,105
-682,510	800,000	0,046	0,139
-681,495	800,000	0,040	0,090
-680,481	800,000	-0,032	-0,069
-679,466	-200,000	0,010	-0,086
-678,451	178,687	-0,027	0,029
-677,437	-200,000	0,017	-0,071
-676,422	-200,000	-0,016	-0,062
-675,408	237,613	0,069	-0,085
-674,393	32,447	0,064	-0,040
-673,378	497,997	0,058	0,099
-672,364	800,000	0,022	-0,056
-671,349	52,300	-0,079	-0,055
-670,335	-94,051	-0,020	0,004
-669,320	182,588	-0,022	-0,023
-668,305	-200,000	0,006	0,126
-667,291	24,892	-0,050	-0,030
-666,276	-7,276	-0,094	-0,046
-665,262	-64,687	0,161	-0,048
-664,247	55,753	0,045	-0,032
-663,232	459,497	-0,088	-0,145
-662,218	696,091	0,041	-0,079
-661,203	-140,834	0,021	-0,002
-660,189	51,836	-0,076	0,053
-659,174	149,021	-0,071	-0,071
-658,159	532,169	-0,091	-0,159
-657,145	-103,638	-0,100	0,017
-656,130	-33,504	-0,037	0,015
-655,116	-9,190	-0,067	0,033
-654,101	747,379	-0,016	-0,032
-653,086	-151,176	-0,083	-0,005
-652,072	132,564	-0,063	0,060
-651,057	-164,822	-0,074	0,002
-650,043	-72,948	0,049	0,013
-649,028	-136,157	-0,111	-0,009
-648,014	-64,368	-0,048	0,014
-646,999	-95,236	-0,025	0,005
-645,984	-200,000	0,001	0,100
-644,970	-121,806	0,018	-0,002
-643,955	79,477	-0,019	-0,015
-642,941	-119,091	-0,060	-0,008
-641,926	73,035	0,040	0,031
-640,911	-112,002	-0,074	-0,011
-639,897	546,782	-0,021	-0,038
-638,882	272,228	-0,074	0,096
-637,868	800,000	-0,057	-0,121
-636,853	-200,000	-0,028	-0,170
-635,838	800,000	-0,049	-0,109
-634,824	183,123	-0,043	-0,047
-633,809	-168,331	-0,042	-0,001
-632,795	265,167	-0,057	0,072
-631,780	87,718	0,056	0,045
-630,765	-11,971	0,094	-0,045
-629,751	156,423	-0,020	-0,020
-628,736	192,117	-0,059	-0,066
-627,722	538,379	-0,031	0,055
-626,707	-188,351	0,039	0,000
-625,692	-23,116	0,161	-0,071
-624,678	-35,292	-0,049	-0,020
-623,663	127,338	-0,114	0,106
-622,649	-200,000	0,042	-0,137
-621,634	-127,263	-0,063	-0,007
-620,619	604,346	-0,063	-0,115
-619,605	-200,000	0,013	-0,092
-618,590	515,298	-0,068	-0,117
-617,576	800,000	-0,049	-0,134
-616,561	213,491	0,054	-0,062
-615,546	130,186	-0,186	-0,175
-614,532	-129,176	-0,129	-0,013
-613,517	-178,485	-0,021	0,000
-612,503	800,000	0,014	0,031
-611,488	81,841	-0,039	-0,031
-610,474	361,120	0,108	0,159
-609,459	18,598	-0,095	-0,055
-608,444	-200,000	0,019	-0,072
-607,430	-181,027	-0,134	-0,002
-606,415	-58,480	-0,064	0,020
-605,401	800,000	-0,020	-0,046
-604,386	274,694	0,091	0,118
-603,371	800,000	0,035	-0,098
-602,357	88,906	-0,045	0,036
-601,342	99,037	-0,085	-0,072
-600,328	-7,825	0,134	-0,066
-599,313	126,610	-0,113	-0,105
-598,298	-145,971	0,091	-0,006
-597,284	-13,761	0,029	-0,014
-596,269	-200,000	-0,003	-0,173
-595,255	750,602	-0,065	0,130
-594,240	800,000	-0,017	-0,050
-593,225	204,935	0,091	-0,104
-592,211	91,696	0,043	0,036
-591,196	800,000	-0,027	-0,059
-590,182	4,086	-0,066	0,035
-589,167	45,682	0,134	0,091
-588,152	-143,832	-0,113	0,008
-587,138	800,000	0,040	0,107
-586,123	287,835	-0,007	-0,009
-585,109	183,613	0,105	-0,113
-584,094	-200,000	-0,012	0,053
-583,079	800,000	0,026	0,074
-582,065	674,167	-0,065	0,125
-581,050	-29,259	0,067	-0,028
-580,036	146,573	-0,051	0,050
-579,021	517,895	-0,025	0,043
-578,006	-145,256	-0,007	0,000
-576,992	-79,490	0,128	-0,032
-575,977	-200,000	-0,002	-0,032
-574,963	800,000	0,053	0,132
-573,948	-6,438	-0,066	0,033
-572,934	262,163	0,038	-0,049
-571,919	180,165	-0,028	-0,030
-570,904	-200,000	0,020	0,130
-569,890	7,292	-0,042	-0,023
-568,875	-200,000	0,022	0,084
-567,861	194,386	0,048	-0,054
-566,846	-124,315	0,083	-0,009
-565,831	-4,160	0,090	-0,046
-564,817	-191,791	-0,112	0,001
-563,802	-108,957	-0,057	0,009
-562,788	-91,167	0,031	-0,006
-561,773	73,557	0,073	-0,056
-560,758	-105,728	0,075	-0,012
-559,744	-8,097	-0,015	0,007
-558,729	8,255	0,120	-0,066
-557,715	-200,000	0,006	-0,083
-556,700	800,000	0,021	0,055
-555,685	-68,018	-0,116	-0,033
-554,671	-200,000	-0,003	0,165
-553,656	-15,235	0,071	-0,033
-552,642	-28,540	0,071	0,030
-551,627	-62,701	0,043	0,013
-550,612	-101,634	-0,139	-0,024
-549,598	7,385	-0,090	-0,049
-548,583	-104,493	0,082	-0,014
-547,569	-200,000	0,024	0,153
-546,554	-158,861	-0,145	-0,006
-545,539	746,550	-0,020	-0,039
-544,525	202,287	0,076	0,086
-543,510	71,199	-0,112	0,084
-542,496	-200,000	-0,050	-0,163
-541,481	-120,927	0,019	-0,002
-540,466	-39,162	0,071	0,027
-539,452	-200,000	-0,001	-0,070
-538,437	800,000	-0,051	-0,139
-537,423	-2,529	0,183	0,093
-536,408	-105,649	-0,192	0,031
-535,393	75,353	0,103	-0,079
-534,379	-200,000	-0,023	-0,097
-533,364	-200,000	-0,009	-0,146
-532,350	-75,252	-0,129	0,033
-531,335	-200,000	0,026	0,110
-530,321	449,464	0,073	-0,118
-529,306	241,956	-0,054	0,066
-528,291	-200,000	0,008	-0,077
-527,277	211,015	-0,092	-0,106
-526,262	275,083	-0,065	-0,085
-525,248	256,573	0,071	0,089
-524,233	800,000	0,031	0,096
-523,218	81,997	-0,041	-0,033
-522,204	581,356	-0,057	-0,103
-521,189	84,702	-0,157	-0,125
-520,175	-200,000	0,026	-0,150
-519,160	-95,973	-0,053	-0,010
-518,145	-200,000	-0,007	-0,036
-517,131	-200,000	-0,029	0,097
-516,116	97,677	0,148	0,124
-515,102	800,000	-0,048	0,120
-514,087	-35,802	-0,179	-0,071
-513,072	95,174	-0,085	-0,071
-512,058	800,000	0,012	0,026
-511,043	-51,107	-0,059	-0,020
-510,029	-35,704	0,203	0,080
-509,014	78,083	-0,073	0,057
-507,999	72,483	0,107	-0,081
-506,985	-200,000	-0,004	-0,042
-505,970	216,159	-0,029	-0,034
-504,956	371,023	0,053	0,079
-503,941	-85,463	0,072	-0,016
-502,926	800,000	0,013	0,037
-501,912	-200,000	-0,007	0,058
-500,897	54,953	0,029	0,021
-499,883	404,080	-0,014	0,021
-498,868	307,817	0,026	0,035
-497,853	50,260	-0,078	0,054
-496,839	6,481	0,052	0,028
-495,824	548,329	0,031	0,054
-494,810	-135,816	0,054	-0,005
-493,795	-174,410	0,096	0,002
-492,781	-200,000	-0,040	0,142
-491,766	800,000	0,038	-0,110
-490,751	502,699	0,041	0,070
-489,737	110,507	-0,060	-0,053
-488,722	-200,000	0,051	0,000
-487,708	-153,775	-0,098	-0,005
-486,693	73,208	0,057	-0,044
-485,678	-200,000	-0,022	-0,089
-484,664	405,974	-0,012	0,019
-483,649	426,573	0,049	-0,077
-482,635	-56,250	0,055	-0,018
-481,620	456,698	0,107	0,174
-480,605	-200,000	-0,007	-0,029
-479,591	-21,532	0,092	-0,041
-478,576	-200,000	-0,010	-0,035
-477,562	122,990	-0,030	-0,028
-476,547	200,197	-0,009	-0,010
-475,532	-200,000	0,011	0,094
-474,518	140,336	0,135	0,130
-473,503	749,733	-0,017	-0,034
-472,489	800,000	0,019	0,048
-471,474	282,776	-0,050	0,065
-470,459	35,412	-0,108	-0,069
-469,445	-78,882	-0,093	0,023
-468,430	-108,403	-0,098	-0,015
-467,416	45,226	0,094	-0,063
-466,401	-200,000	0,004	0,058
-465,386	13,579	0,123	-0,069
-464,372	361,900	-0,035	-0,051
-463,357	-57,474	0,012	-0,004
-462,343	800,000	0,023	-0,069
-461,328	-46,762	-0,135	-0,048
-460,313	71,957	0,102	-0,077
-459,299	-200,000	-0,027	0,096
-458,284	-200,000	0,008	0,163
-457,270	87,698	0,054	-0,043
-456,255	-35,525	0,025	-0,010
-455,241	-6,081	-0,151	-0,075
-454,226	800,000	-0,055	-0,147
-453,211	206,130	0,047	-0,054
-452,197	-200,000	0,003	0,061
-451,182	-23,207	-0,044	-0,019
-450,168	31,494	0,083	0,052
-449,153	-200,000	-0,003	0,059
-448,138	-141,503	-0,056	-0,004
-447,124	-82,295	-0,101	0,024
-446,109	339,570	0,060	-0,086
-445,095	282,225	0,053	-0,070
-444,080	-200,000	0,002	0,029
-443,065	-76,914	-0,050	-0,013
-442,051	-8,370	0,079	-0,039
-441,036	61,791	-0,113	-0,082
-440,022	319,035	0,146	-0,202
-439,007	147,305	-0,070	-0,068
-437,992	99,811	0,041	-0,034
-436,978	800,000	-0,008	-0,022
-435,963	255,468	0,106	-0,132
-434,949	-39,053	-0,057	-0,022
-433,934	501,264	0,027	0,045
-432,919	396,818	-0,022	0,034
-431,905	-200,000	0,001	0,086
-430,890	-125,487	0,120	0,013
-429,876	472,167	-0,060	0,098
-428,861	-125,089	0,118	-0,013
-427,846	-200,000	-0,008	-0,046
-426,832	398,100	0,114	0,173
-425,817	800,000	-0,016	-0,038
-424,803	-114,957	-0,137	-0,019
-423,788	-12,934	0,091	0,043
-422,773	-26,613	-0,139	0,059
-421,759	800,000	0,056	0,123
-420,744	-200,000	0,023	0,111
-419,730	-200,000	0,006	0,098
-418,715	252,461	-0,052	-0,065
-417,701	800,000	0,027	0,070
-416,686	-200,000	0,019	-0,139
-415,671	-200,000	0,008	0,039
-414,657	13,925	0,175	0,099
-413,642	-54,752	-0,046	-0,015
-412,628	63,208	-0,096	0,070
-411,613	340,386	-0,044	-0,062
-410,598	229,764	-0,030	-0,036
-409,584	-99,006	0,105	-0,019
-408,569	141,316	-0,068	-0,066
-407,555	37,181	-0,067	-0,043
-406,540	-106,003	0,043	-0,007
-405,525	-73,617	-0,089	0,023
-404,511	-200,000	-0,013	-0,064
-403,496	-200,000	-0,058	0,000
-402,482	213,996	0,068	-0,078
-401,467	800,000	-0,028	0,071
-400,452	800,000	0,016	-0,036
-399,438	654,652	-0,064	0,120
-398,423	278,609	0,045	0,058
-397,409	523,389	0,041	-0,070
-396,394	36,168	0,096	-0,062
-395,379	104,410	-0,058	-0,050
-394,365	-200,000	-0,013	0,045
-393,350	800,000	0,077	-0,227
-392,336	181,156	-0,025	0,026
-391,321	65,879	0,072	-0,053
-390,306	7,903	0,049	-0,026
-389,292	800,000	-0,039	0,109
-388,277	-57,898	0,031	-0,010
-387,263	11,292	0,010	0,006
-386,248	-200,000	-0,026	0,113
-385,233	800,000	0,035	-0,097
-384,219	-29,535	0,027	-0,011
-383,204	636,098	0,047	-0,087
-382,190	-200,000	0,000	-0,150
-381,175	695,239	-0,062	-0,120
-380,160	-55,186	-0,071	-0,023
-379,146	231,909	-0,040	0,048
-378,131	92,824	0,077	0,063
-377,117	58,502	0,046	-0,033
-376,102	2,709	-0,119	0,063
-375,088	557,847	0,034	0,061
-374,073	369,452	-0,060	0,089
-373,058	-200,000	-0,019	0,070
-372,044	70,482	0,133	-0,099
-371,029	-200,000	0,004	0,064
-370,015	225,964	0,027	0,032
-369,000	104,360	0,090	0,077
-367,985	82,102	-0,037	-0,029
-366,971	-35,955	-0,085	0,033
-365,956	-200,000	0,041	0,159
-364,942	-103,604	-0,066	0,011
-363,927	800,000	0,031	0,088
-362,912	800,000	0,016	-0,049
-361,898	-200,000	0,023	-0,105
-360,883	15,525	-0,091	-0,052
-359,869	-26,509	0,103	0,044
-358,854	-71,938	0,140	0,037
-357,839	438,590	-0,066	0,105
-356,825	-86,097	0,072	0,016
-355,810	27,654	0,128	0,078
-354,796	-53,008	0,058	0,019
-353,781	56,942	-0,085	-0,060
-352,766	-200,000	0,026	0,127
-351,752	-130,339	-0,104	0,010
-350,737	431,164	0,039	0,062
-349,723	-200,000	0,001	-0,044
-348,708	-133,921	-0,062	0,006
-347,693	-114,927	-0,046	0,006
-346,679	52,439	0,046	0,032
-345,664	586,098	-0,033	-0,059
-344,650	451,892	-0,050	-0,080
-343,635	-189,213	0,010	0,000
-342,620	-200,000	-0,000	-0,014
-341,606	-75,706	-0,072	-0,018
-340,591	243,658	0,021	-0,025
-339,577	-88,691	-0,032	0,007
-338,562	10,151	0,004	0,002
-337,548	-200,000	-0,003	0,028
-336,533	800,000	-0,016	0,039
-335,518	800,000	-0,027	0,082
-334,504	109,087	-0,138	0,120
-333,489	362,152	-0,110	0,161
-332,475	-30,531	-0,087	0,036
-331,460	800,000	-0,015	-0,036
-330,445	106,976	-0,143	0,123
-329,431	-89,133	0,198	0,042
-328,416	54,685	0,085	0,059
-327,402	524,036	-0,007	-0,012
-326,387	-94,540	0,115	-0,022
-325,372	205,119	-0,059	-0,067
-324,358	-200,000	-0,010	0,051
-323,343	-98,531	0,083	-0,015
-322,329	564,058	0,046	0,082
-321,314	215,205	-0,038	0,044
-320,299	257,654	0,138	-0,173
-319,285	-200,000	-0,030	0,175
-318,270	-200,000	-0,008	-0,086
-317,256	-37,458	0,080	0,031
-316,241	125,044	-0,017	0,015
-315,226	-200,000	0,007	0,093
-314,212	238,620	0,140	0,169
-313,197	-200,000	-0,003	-0,016
-312,183	-200,000	0,122	0,000
-311,168	-49,044	-0,160	-0,055
-310,153	375,298	-0,040	-0,059
-309,139	716,065	-0,029	0,056
-308,124	-200,000	0,008	-0,048
-307,110	800,000	0,036	0,100
-306,095	-88,503	-0,166	-0,036
-305,080	800,000	0,027	-0,055
-304,066	-46,864	-0,034	0,012
-303,051	319,759	-0,026	0,036
-302,037	-200,000	-0,036	-0,147
-301,022	-53,994	0,002	-0,001
-300,008	208,141	0,051	-0,058
-298,993	424,403	-0,007	0,011
-297,978	-28,559	-0,026	-0,011
-296,964	-200,000	-0,007	-0,060
-295,949	-53,523	-0,085	-0,028
-294,935	800,000	-0,056	-0,152
-293,920	-92,654	-0,043	0,009
-292,905	-131,804	0,120	0,011
-291,891	257,490	0,064	0,080
-290,876	253,728	-0,106	0,131
-289,862	-200,000	-0,006	0,175
-288,847	-200,000	0,002	-0,042
-287,832	-74,028	0,087	-0,023
-286,818	145,386	0,044	0,043
-285,803	-200,000	0,016	0,108
-284,789	26,431	-0,094	0,057
-283,774	77,085	-0,075	0,057
-282,759	24,250	0,023	0,014
-281,745	-104,734	0,089	0,015
-280,730	778,419	-0,041	-0,082
-279,716	-122,026	0,134	-0,016
-278,701	245,394	-0,108	-0,132
-277,686	-69,275	-0,157	0,043
-276,672	-49,266	0,136	-0,047
-275,657	800,000	0,017	0,040
-274,643	70,176	-0,050	0,037
-273,628	-121,699	-0,087	-0,010
-272,613	-200,000	0,015	0,076
-271,599	-200,000	0,033	-0,137
-270,584	117,869	0,077	-0,069
-269,570	268,395	-0,057	-0,073
-268,555	373,670	0,037	-0,054
-267,540	225,088	-0,106	-0,125
-266,526	-88,684	0,232	0,049
-265,511	-171,928	-0,121	-0,003
-264,497	-200,000	-0,012	0,046
-263,482	-25,580	0,088	-0,037
-262,467	-5,110	0,169	0,084
-261,453	55,120	-0,068	0,048
-260,438	441,194	-0,034	-0,055
-259,424	-37,743	-0,079	-0,030
-258,409	800,000	-0,046	0,106
-257,395	800,000	0,059	-0,123
-256,380	337,439	0,051	0,072
-255,365	34,238	0,028	-0,017
-254,351	20,689	0,054	0,032
-253,336	116,021	0,073	-0,064
-252,322	249,004	-0,006	-0,008
-251,307	-68,259	0,077	0,021
-250,292	-137,076	-0,190	0,015
-249,278	39,482	-0,094	0,061
-248,263	-116,536	0,118	-0,016
-247,249	40,853	0,053	0,035
-246,234	276,052	0,052	-0,067
-245,219	310,813	0,009	-0,012
-244,205	-11,363	-0,088	-0,042
-243,190	-80,887	0,131	0,031
-242,176	163,838	0,076	0,078
-241,161	-200,000	-0,030	0,140
-240,146	384,252	-0,070	0,104
-239,132	115,948	-0,022	0,019
-238,117	-200,000	0,008	-0,136
-237,103	-63,186	0,044	-0,013
-236,088	145,372	0,119	-0,115
-235,073	82,089	-0,054	0,042
-234,059	800,000	0,040	0,113
-233,044	-200,000	0,018	-0,076
-232,030	-200,000	0,017	0,127
-231,015	19,202	-0,211	0,122
-230,000	-200,000	0,006	-0,076
-228,986	-79,110	-0,023	-0,006
-227,971	-105,379	-0,054	0,009
-226,957	344,805	0,057	0,081
-225,942	-122,334	0,114	-0,013
-224,927	-100,833	0,075	-0,013
-223,913	-19,611	-0,100	0,045
-222,898	63,282	-0,151	0,109
-221,884	800,000	0,060	-0,148
-220,869	800,000	-0,027	0,065
-219,855	-200,000	0,011	0,067
-218,840	-92,571	0,098	-0,020
-217,825	34,958	-0,020	0,013
-216,811	490,173	-0,013	0,022
-215,796	-16,137	0,022	0,010
-214,782	-24,839	0,025	0,011
-213,767	-107,297	-0,116	0,018
-212,752	231,181	0,105	-0,124
-211,738	-200,000	-0,027	-0,129
-210,723	-200,000	0,013	0,108
-209,709	134,565	-0,065	0,061
-208,694	9,263	0,131	0,071
-207,679	100,616	0,098	-0,082
-206,665	-200,000	-0,052	-0,236
-205,650	90,048	0,091	0,073
-204,636	-42,895	-0,015	0,005
-203,621	-200,000	-0,006	0,028
-202,606	-200,000	-0,046	-0,203
-201,592	800,000	0,011	-0,030
-200,577	195,076	0,060	-0,066
-199,563	800,000	-0,021	0,055
-198,548	109,371	-0,071	-0,062
-197,533	800,000	0,018	0,043
-196,519	-200,000	0,017	-0,096
-195,504	-124,595	-0,073	-0,008
-194,490	-128,464	-0,127	0,013
-193,475	91,971	0,079	-0,064
-192,460	800,000	-0,028	-0,069
-191,446	150,429	0,109	0,106
-190,431	-106,903	-0,028	0,004
-189,417	-200,000	0,009	0,069
-188,402	-200,000	-0,004	-0,233
-187,387	9,098	-0,179	0,097
-186,373	61,796	0,132	0,095
-185,358	-200,000	-0,050	-0,197
-184,344	800,000	0,056	0,121
-183,329	703,854	0,022	0,041
-182,315	137,215	0,092	0,087
-181,300	-200,000	0,049	0,217
-180,285	201,447	0,015	0,016
-179,271	-200,000	0,026	0,121
-178,256	-200,000	-0,001	-0,103
-177,242	702,233	-0,048	-0,091
-176,227	-166,986	0,059	-0,002
-175,212	800,000	-0,046	0,098
-174,198	-106,516	-0,083	-0,013
-173,183	-200,000	0,001	-0,016
-172,169	34,058	0,038	0,024
-171,154	92,394	-0,112	-0,091
-170,139	800,000	0,054	0,126
-169,125	-22,023	0,115	0,050
-168,110	495,069	0,007	0,011
-167,096	-200,000	-0,016	-0,066
-166,081	32,066	0,075	-0,047
-165,066	-117,912	0,085	-0,011
-164,052	-74,519	-0,022	-0,006
-163,037	-184,501	0,055	-0,001
-162,023	-52,934	-0,125	0,041
-161,008	-83,670	-0,086	0,020
-159,993	244,492	0,091	0,111
-158,979	26,612	0,034	0,020
-157,964	-164,662	-0,020	-0,001
-156,950	-200,000	0,022	0,080
-155,935	-106,798	-0,109	0,017
-154,920	-200,000	0,000	-0,003
-153,906	299,870	0,092	0,122
-152,891	-62,800	-0,025	0,007
-151,877	-55,690	0,020	0,007
-150,862	19,624	0,026	-0,015
-149,847	-49,148	-0,078	-0,027
-148,833	800,000	0,009	-0,024
-147,818	-48,674	0,203	-0,070
-146,804	290,721	0,089	0,117
-145,789	14,531	0,160	-0,090
-144,775	135,453	-0,051	0,048
-143,760	147,734	-0,048	-0,046
-142,745	-13,369	-0,082	0,038
-141,731	30,714	0,066	0,041
-140,716	-42,980	0,049	0,018
-139,702	-72,098	-0,067	0,018
-138,687	84,529	-0,031	0,025
-137,672	800,000	-0,006	0,015
-136,658	-96,573	-0,047	0,009
-135,643	-0,607	-0,072	-0,037
-134,629	413,199	0,063	-0,096
-133,614	26,551	-0,065	0,039
-132,599	57,056	0,054	-0,038
-131,585	260,697	-0,076	-0,094
-130,570	-200,000	0,012	-0,120
-129,556	-145,831	-0,154	-0,010
-128,541	229,395	-0,027	0,032
-127,526	168,669	0,044	-0,045
-126,512	62,943	0,118	0,085
-125,497	-12,977	-0,085	0,040
-124,483	166,138	0,088	0,089
-123,468	800,000	0,041	-0,092
-122,453	-1,862	-0,067	-0,034
-121,439	24,566	-0,069	0,041
-120,424	-200,000	0,007	0,037
-119,410	119,904	-0,029	0,026
