DTS Sentinel unit serial number:	SN410029Multiplexer serial number:	ORYXHardware model number:	OX2-SRSoftware version number:	ORYX F/W v4,00 Oryx Data Collector v3.7.2.0data status	okinstallation	B5 Nyhavnadifferential loss correction	single-endedforward channel	channel 2reverse channel	N/Adate	2023/12/13time	04:42:13forward acquisition time	300,00reverse acquisition time	0,00gamma	499,1914k internal	0,3160k external	0,3160temperature offset calibration	1,0000default loss term (dB/km)	0,3820temperature slope calibration	1,0000multiplexer offset coefficient	1,0000multiplexer slope coefficient	1,0000fibre end	0,00T internal ref (°C)	13,92T ext. ref 1 (°C)	-2,45T ext. ref 2 (°C)	-2,75length (m)	temperature (°C)	Stokes	anti-Stokes-744,400	800,000	0,001	-0,002
-743,385	-35,425	-0,355	-0,141
-742,371	21,542	0,106	-0,063
-741,356	1,342	-0,188	0,099
-740,342	-200,000	-0,021	0,085
-739,327	-191,352	-0,260	-0,002
-738,312	-63,599	0,084	0,025
-737,298	-123,686	-0,324	0,037
-736,283	273,005	0,069	-0,090
-735,269	36,988	-0,293	0,191
-734,254	98,594	-0,022	0,019
-733,239	-107,276	-0,486	-0,078
-732,225	-200,000	-0,013	-0,077
-731,210	372,624	0,032	-0,048
-730,196	-200,000	-0,027	-0,142
-729,181	112,062	0,070	-0,063
-728,167	-200,000	0,018	-0,127
-727,152	-79,820	-0,126	0,031
-726,137	-140,763	-0,087	0,007
-725,123	702,730	-0,046	0,089
-724,108	-200,000	-0,021	-0,100
-723,094	800,000	-0,056	-0,130
-722,079	800,000	-0,038	-0,094
-721,064	137,010	-0,026	-0,025
-720,050	-161,846	-0,123	0,004
-719,035	-105,384	-0,138	0,023
-718,021	-60,506	-0,084	0,026
-717,006	-71,675	-0,052	-0,014
-715,991	800,000	-0,042	-0,102
-714,977	47,879	0,089	0,061
-713,962	120,935	-0,120	0,110
-712,948	800,000	-0,020	0,049
-711,933	800,000	-0,023	0,059
-710,918	-200,000	0,039	0,149
-709,904	-64,382	-0,192	0,057
-708,889	-55,335	-0,087	-0,028
-707,875	-182,256	0,068	-0,001
-706,860	-145,884	-0,063	-0,004
-705,845	-86,925	0,118	-0,026
-704,831	-200,000	-0,017	0,063
-703,816	-170,861	-0,064	0,002
-702,802	43,376	0,132	-0,089
-701,787	-114,533	-0,144	-0,020
-700,772	-200,000	0,022	-0,073
-699,758	-35,608	-0,161	0,064
-698,743	-3,689	0,044	-0,022
-697,729	-200,000	0,003	0,022
-696,714	129,849	-0,033	0,031
-695,699	-162,753	-0,048	0,002
-694,685	-174,401	0,065	-0,001
-693,670	800,000	-0,081	-0,174
-692,656	561,055	0,035	-0,062
-691,641	474,198	-0,039	-0,065
-690,627	-53,441	0,079	0,026
-689,612	-200,000	-0,003	0,047
-688,597	371,695	-0,074	0,111
-687,583	-23,619	0,064	-0,028
-686,568	-200,000	-0,002	0,104
-685,554	800,000	0,035	0,079
-684,539	-8,593	0,056	-0,027
-683,524	-28,011	0,013	0,005
-682,510	800,000	-0,056	-0,124
-681,495	695,363	-0,059	-0,114
-680,481	480,651	-0,080	0,134
-679,466	800,000	0,013	0,031
-678,451	-2,935	-0,044	0,023
-677,437	-148,773	0,195	0,011
-676,422	-114,303	0,199	0,028
-675,408	-200,000	-0,010	0,077
-674,393	519,564	-0,032	-0,055
-673,378	595,148	-0,060	-0,110
-672,364	-200,000	0,042	-0,163
-671,349	-200,000	-0,024	-0,136
-670,335	800,000	0,008	0,025
-669,320	800,000	0,022	0,050
-668,305	179,191	0,098	0,106
-667,291	-113,160	-0,131	0,019
-666,276	226,371	-0,030	0,036
-665,262	-148,027	0,080	-0,005
-664,247	800,000	0,015	0,042
-663,232	800,000	-0,037	0,102
-662,218	42,842	0,066	-0,044
-661,203	-42,088	0,027	-0,010
-660,189	-200,000	-0,023	0,101
-659,174	-68,126	-0,124	-0,035
-658,159	219,450	-0,049	-0,057
-657,145	-1,756	0,102	0,053
-656,130	146,864	-0,053	0,052
-655,116	-200,000	0,015	0,111
-654,101	-18,710	-0,024	0,011
-653,086	504,414	-0,034	0,057
-652,072	-151,019	-0,092	0,005
-651,057	-47,070	0,026	0,009
-650,043	300,358	-0,046	-0,062
-649,028	-71,666	-0,077	-0,021
-648,014	24,593	0,067	0,041
-646,999	-54,599	0,071	-0,023
-645,984	12,442	0,073	0,041
-644,970	-154,746	-0,091	-0,004
-643,955	59,586	0,012	0,009
-642,941	-138,274	-0,103	0,008
-641,926	-102,018	0,031	-0,005
-640,911	-85,493	0,051	0,012
-639,897	39,247	0,088	-0,058
-638,882	-110,283	0,034	-0,005
-637,868	-200,000	-0,047	-0,207
-636,853	60,617	-0,110	-0,080
-635,838	800,000	0,026	-0,061
-634,824	670,059	-0,044	-0,084
-633,809	-200,000	0,026	0,132
-632,795	754,761	-0,009	-0,018
-631,780	800,000	0,044	-0,098
-630,765	169,682	-0,125	-0,131
-629,751	800,000	-0,049	-0,103
-628,736	-200,000	0,028	-0,095
-627,722	25,622	0,085	0,052
-626,707	299,193	0,025	-0,034
-625,692	134,278	-0,033	-0,031
-624,678	-200,000	-0,008	-0,036
-623,663	-200,000	-0,026	-0,103
-622,649	612,868	-0,039	-0,072
-621,634	-100,084	-0,026	-0,005
-620,619	109,892	-0,091	-0,080
-619,605	474,065	0,041	-0,068
-618,590	296,970	0,036	-0,048
-617,576	-200,000	-0,017	0,142
-616,561	-155,787	0,053	0,002
-615,546	-1,241	-0,105	-0,054
-614,532	-80,230	0,041	0,010
-613,517	800,000	0,052	-0,115
-612,503	800,000	-0,033	0,067
-611,488	-133,930	0,091	0,008
-610,474	199,675	0,050	0,056
-609,459	800,000	-0,042	0,088
-608,444	359,320	-0,030	-0,044
-607,430	-200,000	-0,016	-0,064
-606,415	94,573	-0,045	-0,038
-605,401	237,962	0,092	0,113
-604,386	155,397	0,033	-0,034
-603,371	-56,085	-0,028	-0,009
-602,357	800,000	0,045	0,135
-601,342	800,000	-0,006	0,016
-600,328	741,960	-0,087	-0,172
-599,313	-137,667	-0,118	0,010
-598,298	-200,000	-0,020	-0,087
-597,284	299,551	0,038	-0,051
-596,269	75,159	0,025	0,019
-595,255	800,000	-0,068	0,139
-594,240	-200,000	0,000	0,066
-593,225	-151,153	-0,137	0,007
-592,211	-19,130	-0,037	-0,017
-591,196	66,927	-0,008	0,006
-590,182	-36,118	-0,037	0,014
-589,167	-200,000	0,023	0,136
-588,152	-200,000	-0,019	0,141
-587,138	71,744	0,147	0,112
-586,123	-77,615	0,079	0,020
-585,109	422,474	0,042	0,065
-584,094	415,608	-0,119	-0,186
-583,079	-82,700	0,066	-0,015
-582,065	125,538	-0,054	-0,050
-581,050	-65,897	-0,067	-0,019
-580,036	800,000	0,033	-0,087
-579,021	-200,000	-0,004	-0,087
-578,006	-200,000	-0,020	-0,132
-576,992	-200,000	0,035	0,138
-575,977	-90,592	-0,109	0,023
-574,963	-157,053	0,058	0,003
-573,948	-2,961	-0,036	-0,019
-572,934	-96,714	-0,033	0,006
-571,919	-200,000	-0,009	-0,037
-570,904	-200,000	-0,025	-0,140
-569,890	244,213	-0,121	0,149
-568,875	165,752	-0,057	-0,059
-567,861	-126,993	0,121	-0,013
-566,846	28,916	-0,049	0,030
-565,831	8,747	-0,050	0,027
-564,817	167,717	-0,032	-0,033
-563,802	-200,000	-0,033	-0,215
-562,788	-200,000	-0,004	0,019
-561,773	-42,433	0,033	-0,012
-560,758	800,000	0,045	-0,110
-559,744	71,271	0,151	-0,114
-558,729	-101,891	0,104	-0,018
-557,715	-176,753	-0,134	0,002
-556,700	800,000	-0,062	-0,130
-555,685	-112,384	-0,043	-0,006
-554,671	-200,000	0,004	-0,025
-553,656	548,659	0,009	0,015
-552,642	-170,751	0,147	-0,004
-551,627	-77,327	-0,071	-0,018
-550,612	800,000	-0,018	0,040
-549,598	-123,015	0,019	-0,002
-548,583	132,807	-0,035	-0,033
-547,569	-200,000	0,030	0,109
-546,554	-136,834	0,068	-0,006
-545,539	-66,702	0,150	0,043
-544,525	116,143	-0,068	-0,061
-543,510	174,228	0,066	0,070
-542,496	-8,149	-0,153	-0,075
-541,481	-145,798	0,016	-0,001
-540,466	-8,987	-0,081	0,040
-539,452	144,897	0,067	0,066
-538,437	-200,000	-0,013	-0,063
-537,423	-200,000	-0,022	0,145
-536,408	-89,765	-0,126	0,027
-535,393	1,076	-0,111	-0,058
-534,379	478,182	0,006	0,010
-533,364	67,466	0,011	-0,008
-532,350	626,139	0,024	0,044
-531,335	615,897	0,046	0,085
-530,321	129,522	0,026	-0,024
-529,306	7,934	0,036	0,020
-528,291	148,227	-0,064	-0,063
-527,277	800,000	-0,031	-0,082
-526,262	84,464	-0,023	-0,018
-525,248	97,585	0,111	0,093
-524,233	800,000	0,089	0,191
-523,218	800,000	-0,035	0,110
-522,204	107,116	-0,092	0,080
-521,189	-75,426	-0,062	0,016
-520,175	-110,328	-0,031	-0,005
-519,160	800,000	-0,036	-0,086
-518,145	105,447	0,101	-0,087
-517,131	-200,000	0,004	0,102
-516,116	-200,000	-0,017	0,130
-515,102	-33,164	0,078	-0,031
-514,087	-200,000	0,001	0,046
-513,072	-44,419	-0,101	0,037
-512,058	-153,410	-0,127	-0,006
-511,043	59,555	-0,083	-0,060
-510,029	-151,091	0,139	0,008
-509,014	-200,000	-0,013	0,180
-507,999	132,419	-0,046	-0,043
-506,985	73,921	0,060	-0,046
-505,970	415,405	0,039	-0,062
-504,956	-29,125	-0,148	-0,061
-503,941	800,000	-0,030	-0,068
-502,926	176,096	-0,089	0,095
-501,912	800,000	0,024	0,061
-500,897	189,875	0,121	0,133
-499,883	-73,584	-0,097	-0,026
-498,868	-200,000	-0,011	-0,070
-497,853	237,052	0,079	0,095
-496,839	211,771	0,046	-0,053
-495,824	800,000	-0,071	0,198
-494,810	800,000	0,032	-0,075
-493,795	-200,000	0,020	-0,233
-492,781	800,000	0,025	-0,065
-491,766	-14,150	-0,039	-0,018
-490,751	-200,000	-0,028	-0,125
-489,737	98,262	-0,099	0,083
-488,722	261,549	0,070	-0,089
-487,708	-45,617	0,063	0,023
-486,693	-15,122	0,087	-0,040
-485,678	64,136	0,030	0,022
-484,664	-22,449	-0,159	-0,070
-483,649	-200,000	0,019	0,085
-482,635	290,059	-0,016	-0,021
-481,620	800,000	0,017	0,035
-480,605	800,000	0,092	0,195
-479,591	-200,000	-0,037	0,129
-478,576	498,406	-0,039	0,065
-477,562	800,000	-0,028	-0,070
-476,547	-21,131	-0,164	-0,073
-475,532	52,868	-0,019	0,013
-474,518	800,000	-0,040	0,103
-473,503	219,028	-0,038	0,044
-472,489	18,119	0,103	0,059
-471,474	-150,416	-0,193	-0,011
-470,459	-200,000	0,028	0,096
-469,445	800,000	-0,017	0,044
-468,430	17,747	0,060	-0,035
-467,416	172,346	-0,046	-0,048
-466,401	-150,092	0,110	0,006
-465,386	577,499	-0,057	0,101
-464,372	-32,652	-0,185	-0,075
-463,357	151,952	-0,076	-0,075
-462,343	-72,894	-0,040	0,011
-461,328	-200,000	-0,013	-0,085
-460,313	800,000	0,017	0,048
-459,299	-94,563	0,026	0,005
-458,284	-200,000	0,001	0,014
-457,270	800,000	0,066	0,142
-456,255	-191,063	-0,108	-0,001
-455,241	12,248	0,037	0,021
-454,226	-160,895	0,093	-0,003
-453,211	419,758	-0,035	-0,054
-452,197	479,404	0,063	-0,104
-451,182	-46,451	0,158	-0,056
-450,168	30,280	-0,170	0,105
-449,153	-164,759	0,045	0,001
-448,138	-5,448	-0,082	-0,041
-447,124	199,907	0,124	-0,139
-446,109	328,103	0,043	-0,061
-445,095	-39,093	0,014	0,005
-444,080	-89,144	0,017	-0,004
-443,065	48,347	0,108	0,073
-442,051	-121,670	0,132	0,016
-441,036	163,401	-0,088	-0,090
-440,022	-57,440	0,102	-0,033
-439,007	-18,823	0,097	0,044
-437,992	120,056	0,103	-0,093
-436,978	-200,000	0,029	0,131
-435,963	171,834	0,108	-0,113
-434,949	-57,219	-0,075	-0,024
-433,934	-118,584	0,034	0,004
-432,919	800,000	0,042	-0,112
-431,905	800,000	0,024	-0,058
-430,890	317,626	-0,062	0,085
-429,876	5,820	-0,057	0,031
-428,861	-200,000	-0,003	-0,069
-427,846	-14,496	0,094	-0,044
-426,832	100,583	0,032	-0,027
-425,817	-157,276	0,053	-0,002
-424,803	-81,177	-0,086	-0,020
-423,788	-91,955	0,296	0,061
-422,773	-200,000	-0,004	0,107
-421,759	136,945	-0,077	-0,073
-420,744	-200,000	0,008	0,073
-419,730	-43,638	0,114	0,042
-418,715	-3,055	0,023	0,011
-417,701	-200,000	-0,040	-0,176
-416,686	-200,000	-0,027	0,166
-415,671	-113,335	-0,038	-0,005
-414,657	651,094	-0,069	0,129
-413,642	477,399	0,027	0,045
-412,628	-200,000	-0,005	-0,206
-411,613	800,000	0,037	-0,083
-410,598	203,876	0,098	-0,111
-409,584	58,403	0,007	-0,005
-408,569	800,000	0,014	-0,030
-407,555	153,015	0,020	0,020
-406,540	-76,835	-0,070	0,018
-405,525	-44,147	0,040	-0,014
-404,511	586,866	-0,098	-0,176
-403,496	-73,927	0,104	-0,027
-402,482	670,733	0,019	-0,037
-401,467	33,492	-0,033	0,021
-400,452	227,555	0,031	0,037
-399,438	274,677	-0,045	-0,058
-398,423	696,451	0,012	-0,024
-397,409	307,659	0,043	-0,058
-396,394	-86,656	-0,108	-0,024
-395,379	-114,384	0,028	0,004
-394,365	-108,665	0,128	-0,020
-393,350	305,112	0,057	0,077
-392,336	-44,620	-0,010	0,004
-391,321	-106,899	-0,160	-0,025
-390,306	800,000	0,057	-0,125
-389,292	31,540	0,070	0,044
-388,277	-63,583	-0,057	0,017
-387,263	-200,000	-0,017	0,071
-386,248	-174,300	-0,092	0,002
-385,233	-92,371	-0,083	0,017
-384,219	83,479	0,060	0,047
-383,204	206,171	0,043	-0,049
-382,190	116,782	-0,089	-0,079
-381,175	-200,000	-0,038	-0,154
-380,160	-50,185	0,073	-0,025
-379,146	-26,434	0,112	0,047
-378,131	-112,063	-0,053	-0,008
-377,117	315,636	-0,095	0,130
-376,102	87,224	-0,065	0,052
-375,088	773,568	0,048	0,096
-374,073	727,513	-0,025	0,050
-373,058	-200,000	-0,003	-0,018
-372,044	150,271	-0,125	-0,123
-371,029	-197,070	-0,110	0,000
-370,015	-200,000	0,015	0,111
-369,000	479,868	0,062	-0,103
-367,985	-12,402	-0,074	-0,035
-366,971	800,000	0,027	0,064
-365,956	-200,000	-0,012	0,133
-364,942	21,373	0,057	0,034
-363,927	192,972	0,071	-0,078
-362,912	-200,000	-0,002	-0,076
-361,898	507,821	-0,034	0,057
-360,883	800,000	-0,025	-0,064
-359,869	238,620	-0,060	-0,072
-358,854	-200,000	0,007	-0,096
-357,839	-200,000	0,013	0,078
-356,825	-17,504	0,129	0,059
-355,810	-200,000	-0,007	0,124
-354,796	162,940	-0,050	0,051
-353,781	-200,000	0,001	-0,148
-352,766	-3,656	-0,058	0,029
-351,752	-200,000	-0,023	-0,089
-350,737	-88,064	0,009	-0,002
-349,723	-50,659	0,135	-0,046
-348,708	-200,000	0,006	0,063
-347,693	31,370	0,123	0,076
-346,679	-114,979	-0,086	-0,012
-345,664	800,000	0,045	-0,092
-344,650	-118,874	-0,062	0,008
-343,635	800,000	0,019	0,048
-342,620	-119,777	0,053	0,007
-341,606	134,831	-0,052	-0,049
-340,591	223,623	-0,176	0,206
-339,577	23,951	0,147	-0,088
-338,562	-56,609	0,148	0,047
-337,548	-86,250	0,096	0,021
-336,533	20,053	-0,045	-0,026
-335,518	590,549	-0,005	-0,009
-334,504	256,038	-0,021	-0,027
-333,489	-200,000	-0,018	0,084
-332,475	800,000	0,050	0,152
-331,460	409,206	-0,029	-0,045
-330,445	800,000	0,033	-0,073
-329,431	-57,372	0,075	-0,024
-328,416	800,000	0,057	0,163
-327,402	659,524	-0,045	0,084
-326,387	-200,000	-0,002	0,042
-325,372	18,659	-0,059	-0,034
-324,358	-200,000	0,020	-0,186
-323,343	800,000	0,019	-0,040
-322,329	168,997	0,093	-0,096
-321,314	183,211	0,027	-0,029
-320,299	800,000	0,036	-0,098
-319,285	-200,000	-0,020	-0,080
-318,270	449,781	-0,040	-0,064
-317,256	-63,771	0,041	0,012
-316,241	-200,000	0,002	-0,150
-315,226	-168,044	0,173	0,005
-314,212	326,440	0,019	0,026
-313,197	189,087	0,065	0,071
-312,183	150,483	-0,089	0,088
-311,168	-9,800	-0,087	0,042
-310,153	4,432	-0,176	-0,093
-309,139	-7,912	0,098	0,048
-308,124	-171,956	-0,058	-0,001
-307,110	28,527	-0,102	0,062
-306,095	-200,000	0,009	0,092
-305,080	-35,675	0,104	0,041
-304,066	79,816	-0,046	0,036
-303,051	59,182	-0,130	-0,093
-302,037	-102,420	-0,095	-0,016
-301,022	-44,096	-0,104	-0,038
-300,008	249,156	0,018	-0,022
-298,993	-200,000	0,027	0,130
-297,978	532,746	0,134	0,231
-296,964	92,342	0,103	0,084
-295,949	254,503	0,064	-0,079
-294,935	372,675	0,052	0,077
-293,920	-200,000	0,006	0,206
-292,905	-96,404	0,057	0,011
-291,891	76,422	-0,040	0,030
-290,876	-200,000	0,008	-0,066
-289,862	800,000	0,025	0,075
-288,847	133,598	0,049	0,046
-287,832	599,094	0,092	0,166
-286,818	-81,241	-0,086	-0,020
-285,803	555,467	0,005	0,009
-284,789	22,045	0,025	-0,015
-283,774	47,730	-0,119	-0,080
-282,759	-67,228	-0,047	0,013
-281,745	-124,415	-0,134	0,015
-280,730	-5,991	-0,113	0,056
-279,716	251,578	0,038	0,047
-278,701	-200,000	0,017	-0,132
-277,686	-67,858	0,207	0,058
-276,672	212,133	0,050	-0,057
-275,657	-200,000	0,010	0,079
-274,643	97,026	-0,049	-0,041
-273,628	800,000	-0,035	0,110
-272,613	181,610	0,016	0,018
-271,599	-20,940	0,021	-0,009
-270,584	78,023	-0,095	-0,073
-269,570	-44,128	0,076	-0,027
-268,555	147,654	0,004	-0,004
-267,540	69,980	0,076	-0,056
-266,526	-200,000	-0,006	-0,023
-265,511	50,090	0,116	0,079
-264,497	238,199	0,091	0,110
-263,482	435,860	-0,098	0,154
-262,467	68,423	0,060	0,044
-261,453	-127,828	-0,179	-0,018
-260,438	800,000	0,049	0,154
-259,424	-23,706	-0,112	0,048
-258,409	39,606	0,119	-0,077
-257,395	318,354	0,083	0,113
-256,380	-200,000	0,032	0,118
-255,365	779,863	-0,067	0,133
-254,351	-200,000	-0,017	0,103
-253,336	-90,926	-0,051	0,011
-252,322	256,090	-0,049	0,060
-251,307	-155,765	-0,089	-0,004
-250,292	-32,171	0,060	-0,024
-249,278	-20,287	-0,112	-0,049
-248,263	358,979	-0,091	0,131
-247,249	35,304	-0,045	-0,028
-246,234	-200,000	0,009	0,134
-245,219	-200,000	-0,025	-0,145
-244,205	188,915	0,115	-0,124
-243,190	-200,000	0,005	-0,061
-242,176	426,741	0,112	0,174
-241,161	6,135	0,155	-0,083
-240,146	-98,341	-0,142	-0,026
-239,132	-200,000	0,007	0,050
-238,117	800,000	0,062	-0,178
-237,103	30,011	0,099	-0,061
-236,088	-32,532	-0,103	-0,041
-235,073	-36,968	0,143	0,055
-234,059	-200,000	0,032	-0,182
-233,044	-200,000	-0,009	-0,092
-232,030	-200,000	0,002	-0,066
-231,015	192,150	0,024	-0,026
-230,000	-32,176	-0,160	0,064
-228,986	129,042	0,095	0,087
-227,971	-47,341	0,065	-0,023
-226,957	-200,000	0,002	0,076
-225,942	254,520	-0,063	0,078
-224,927	342,795	-0,053	0,075
-223,913	-111,505	-0,058	-0,008
-222,898	13,299	-0,182	0,102
-221,884	12,870	0,095	-0,053
-220,869	74,480	0,026	0,020
-219,855	161,201	0,154	0,155
-218,840	214,918	0,051	0,059
-217,825	30,872	0,076	0,047
-216,811	-88,146	0,068	0,015
-215,796	761,504	-0,093	-0,182
-214,782	34,858	-0,086	0,054
-213,767	-89,808	0,083	0,017
-212,752	278,486	0,027	0,035
-211,738	-106,267	-0,075	0,012
-210,723	-113,616	0,050	0,007
-209,709	391,396	0,045	-0,068
-208,694	-83,463	-0,040	-0,009
-207,679	800,000	-0,029	-0,092
-206,665	670,084	-0,048	0,091
-205,650	-62,011	0,092	0,028
-204,636	-96,533	0,109	0,021
-203,621	-200,000	-0,042	0,133
-202,606	112,966	0,041	-0,036
-201,592	-82,369	-0,167	0,039
-200,577	321,207	-0,096	0,132
-199,563	-122,545	-0,078	-0,009
-198,548	402,381	-0,022	-0,033
-197,533	-68,111	0,056	-0,016
-196,519	-126,581	-0,131	0,014
-195,504	175,683	0,113	-0,118
-194,490	237,729	-0,104	-0,125
-193,475	800,000	-0,042	0,088
-192,460	-64,761	0,044	-0,013
-191,446	-56,663	0,150	-0,048
-190,431	-200,000	-0,010	0,043
-189,417	-90,150	-0,094	0,019
-188,402	-120,209	-0,187	0,023
-187,387	-200,000	-0,027	-0,133
-186,373	183,117	-0,054	-0,058
-185,358	560,935	0,022	0,038
-184,344	208,835	-0,016	0,018
-183,329	777,112	-0,027	-0,054
-182,315	-124,711	0,121	-0,013
-181,300	189,551	-0,197	-0,213
-180,285	19,216	0,017	0,010
-179,271	352,388	-0,017	0,025
-178,256	800,000	0,021	-0,051
-177,242	800,000	-0,011	-0,028
-176,227	90,992	0,025	0,020
-175,212	-200,000	0,030	-0,182
-174,198	28,667	0,102	-0,062
-173,183	-50,958	0,024	-0,008
-172,169	334,973	0,066	-0,092
-171,154	402,613	-0,029	0,044
-170,139	395,689	0,049	-0,074
-169,125	-200,000	0,050	0,181
-168,110	67,700	-0,117	-0,086
-167,096	-200,000	-0,013	-0,041
-166,081	-200,000	-0,011	-0,107
-165,066	-200,000	0,000	0,105
-164,052	296,332	0,070	0,093
-163,037	33,457	-0,078	0,048
-162,023	149,755	0,079	-0,077
-161,008	29,465	0,047	0,029
-159,993	146,459	0,030	0,029
-158,979	-200,000	-0,013	0,058
-157,964	-200,000	-0,022	0,199
-156,950	-153,705	0,070	-0,003
-155,935	-200,000	-0,055	-0,218
-154,920	796,760	-0,025	0,051
-153,906	2,791	0,122	0,063
-152,891	796,331	-0,023	0,047
-151,877	103,067	-0,047	-0,040
-150,862	800,000	-0,027	0,069
-149,847	-200,000	-0,023	0,108
-148,833	-38,550	0,053	-0,020
-147,818	32,108	-0,044	0,027
-146,804	-200,000	-0,025	-0,098
-145,789	-157,503	-0,080	0,003
-144,775	173,653	0,068	0,071
-143,760	-69,897	-0,068	-0,019
-142,745	191,390	0,022	-0,023
-141,731	-59,069	0,112	-0,035
-140,716	800,000	-0,045	0,100
-139,702	475,500	-0,006	-0,010
-138,687	124,828	0,009	0,008
-137,672	146,829	-0,091	-0,088
-136,658	58,016	-0,080	-0,057
-135,643	208,293	-0,073	-0,082
-134,629	12,749	-0,058	-0,032
-133,614	-200,000	-0,014	-0,113
-132,599	313,612	0,054	0,073
-131,585	373,574	0,114	0,168
-130,570	107,380	-0,139	-0,119
-129,556	276,108	0,103	-0,132
-128,541	19,199	-0,116	-0,067
-127,526	12,789	-0,126	-0,070
-126,512	800,000	0,097	-0,205
-125,497	-56,483	0,014	-0,004
-124,483	-45,120	0,050	0,018
-123,468	406,506	-0,045	-0,068
-122,453	800,000	-0,061	-0,128
-121,439	800,000	0,022	0,057
-120,424	72,580	-0,054	0,040
-119,410	89,228	0,070	-0,056
