DTS Sentinel unit serial number:	SN410029Multiplexer serial number:	ORYXHardware model number:	OX2-SRSoftware version number:	ORYX F/W v4,00 Oryx Data Collector v3.7.2.0data status	okinstallation	B5 Nyhavnadifferential loss correction	single-endedforward channel	channel 2reverse channel	N/Adate	2023/12/12time	06:17:13forward acquisition time	300,00reverse acquisition time	0,00gamma	499,1914k internal	0,3157k external	0,3157temperature offset calibration	1,0000default loss term (dB/km)	0,3820temperature slope calibration	1,0000multiplexer offset coefficient	1,0000multiplexer slope coefficient	1,0000fibre end	0,00T internal ref (°C)	15,25T ext. ref 1 (°C)	-1,15T ext. ref 2 (°C)	-1,44length (m)	temperature (°C)	Stokes	anti-Stokes-744,400	80,985	0,097	-0,077
-743,385	-179,144	-0,292	-0,005
-742,371	289,175	0,080	0,107
-741,356	19,315	-0,214	0,126
-740,342	120,814	-0,046	0,042
-739,327	-94,885	-0,239	-0,047
-738,312	307,412	-0,038	-0,052
-737,298	-88,503	-0,351	-0,077
-736,283	-44,000	0,050	0,019
-735,269	-143,885	-0,376	-0,026
-734,254	800,000	0,044	0,097
-733,239	-13,903	-0,524	-0,249
-732,225	51,225	0,148	0,104
-731,210	-200,000	-0,015	0,134
-730,196	-96,723	-0,151	0,029
-729,181	197,080	-0,063	0,071
-728,167	28,140	-0,103	0,064
-727,152	-200,000	-0,007	0,052
-726,137	800,000	-0,077	-0,186
-725,123	629,229	-0,024	-0,045
-724,108	399,079	-0,121	-0,187
-723,094	124,574	-0,129	-0,120
-722,079	-200,000	0,009	-0,045
-721,064	108,037	0,125	-0,110
-720,050	-32,016	0,105	0,043
-719,035	-91,138	0,070	-0,015
-718,021	800,000	-0,067	-0,176
-717,006	166,685	-0,116	-0,122
-715,991	-36,399	-0,083	0,033
-714,977	-69,870	-0,023	-0,006
-713,962	145,680	0,110	-0,109
-712,948	800,000	0,013	-0,036
-711,933	58,141	0,159	-0,114
-710,918	-118,644	0,111	-0,014
-709,904	-200,000	-0,008	0,030
-708,889	-66,249	-0,213	-0,062
-707,875	177,480	0,011	-0,011
-706,860	273,946	0,034	-0,044
-705,845	83,973	-0,067	-0,054
-704,831	-25,535	0,127	0,055
-703,816	-160,131	-0,054	-0,002
-702,802	245,683	0,071	-0,088
-701,787	-174,366	-0,097	-0,002
-700,772	-98,880	0,070	0,013
-699,758	-200,000	0,018	-0,081
-698,743	-34,124	0,195	0,078
-697,729	738,870	0,030	-0,060
-696,714	800,000	-0,021	0,047
-695,699	575,966	-0,072	-0,129
-694,685	261,711	0,042	-0,053
-693,670	-67,552	-0,050	0,014
-692,656	658,244	-0,022	0,042
-691,641	292,008	-0,021	0,029
-690,627	306,110	-0,048	-0,066
-689,612	-43,038	0,021	-0,008
-688,597	-200,000	0,022	-0,105
-687,583	-200,000	-0,032	-0,112
-686,568	-89,898	-0,167	-0,036
-685,554	209,058	0,048	0,056
-684,539	43,618	-0,038	-0,026
-683,524	72,272	-0,101	0,078
-682,510	409,546	0,068	0,106
-681,495	35,117	-0,112	0,072
-680,481	-200,000	0,007	0,081
-679,466	-10,535	0,037	-0,018
-678,451	93,681	0,043	-0,036
-677,437	-149,165	-0,120	0,007
-676,422	179,262	0,045	-0,048
-675,408	-46,370	-0,016	-0,006
-674,393	81,011	0,116	-0,092
-673,378	611,709	-0,028	-0,051
-672,364	-153,759	-0,143	0,007
-671,349	-7,453	-0,161	0,080
-670,335	-89,017	-0,123	-0,027
-669,320	-111,857	0,050	-0,007
-668,305	-181,828	-0,091	0,001
-667,291	-200,000	0,008	0,074
-666,276	20,158	-0,067	0,040
-665,262	151,344	-0,061	0,061
-664,247	800,000	-0,062	-0,134
-663,232	-200,000	0,005	0,022
-662,218	369,024	-0,072	0,108
-661,203	322,505	-0,046	0,064
-660,189	800,000	-0,016	-0,036
-659,174	-200,000	-0,033	-0,142
-658,159	384,438	-0,173	-0,263
-657,145	-200,000	0,053	-0,254
-656,130	-200,000	0,025	0,118
-655,116	-73,856	0,108	-0,029
-654,101	141,257	-0,059	-0,058
-653,086	459,553	0,088	-0,144
-652,072	-200,000	0,017	-0,109
-651,057	800,000	0,041	-0,084
-650,043	-200,000	-0,010	0,050
-649,028	-70,222	0,052	0,014
-648,014	-200,000	-0,006	-0,059
-646,999	336,013	-0,067	-0,096
-645,984	432,059	-0,078	-0,125
-644,970	-200,000	-0,003	-0,107
-643,955	-111,966	-0,073	0,011
-642,941	419,302	-0,032	0,050
-641,926	-178,618	-0,076	0,001
-640,911	-200,000	0,001	0,112
-639,897	-19,791	0,086	0,039
-638,882	49,697	-0,021	0,014
-637,868	-163,153	-0,107	-0,004
-636,853	345,687	-0,045	-0,065
-635,838	619,074	-0,074	-0,137
-634,824	-200,000	0,003	-0,021
-633,809	350,938	0,026	0,038
-632,795	189,378	0,072	0,079
-631,780	-86,978	-0,082	0,018
-630,765	63,481	-0,052	-0,038
-629,751	-47,573	-0,012	-0,004
-628,736	39,043	-0,124	0,081
-627,722	387,291	-0,048	-0,073
-626,707	244,266	0,059	-0,073
-625,692	-200,000	0,018	0,134
-624,678	153,457	-0,081	-0,081
-623,663	-3,724	-0,025	0,012
-622,649	795,847	-0,071	-0,145
-621,634	-200,000	0,005	0,108
-620,619	715,195	0,056	-0,110
-619,605	34,418	-0,075	0,048
-618,590	-200,000	0,020	-0,068
-617,576	264,094	-0,043	-0,055
-616,561	13,852	-0,076	-0,043
-615,546	-200,000	-0,003	0,095
-614,532	-200,000	-0,024	-0,112
-613,517	24,566	0,061	0,037
-612,503	-40,789	-0,047	-0,018
-611,488	-200,000	-0,006	-0,020
-610,474	800,000	-0,013	-0,030
-609,459	-139,288	-0,101	-0,008
-608,444	800,000	0,029	0,066
-607,430	800,000	-0,039	-0,080
-606,415	-85,384	-0,150	0,034
-605,401	-163,975	0,047	-0,002
-604,386	54,140	0,032	-0,023
-603,371	47,193	-0,054	-0,037
-602,357	-200,000	0,006	0,109
-601,342	800,000	0,044	-0,101
-600,328	-200,000	0,020	-0,085
-599,313	365,861	-0,062	-0,092
-598,298	19,515	-0,132	-0,077
-597,284	-200,000	0,008	-0,060
-596,269	321,582	0,029	0,041
-595,255	-200,000	0,003	-0,072
-594,240	697,503	-0,015	0,028
-593,225	82,111	-0,098	0,078
-592,211	292,408	0,059	-0,079
-591,196	381,697	0,056	0,084
-590,182	-200,000	0,060	0,000
-589,167	57,656	0,143	-0,102
-588,152	-151,958	-0,064	0,003
-587,138	-200,000	-0,011	-0,037
-586,123	-200,000	0,014	-0,060
-585,109	684,782	-0,075	-0,144
-584,094	591,399	0,080	-0,144
-583,079	-82,314	0,027	0,006
-582,065	-39,590	-0,036	0,014
-581,050	468,031	-0,031	0,050
-580,036	275,299	-0,020	0,026
-579,021	35,963	-0,057	-0,036
-578,006	-179,200	-0,124	0,002
-576,992	-30,165	-0,055	-0,023
-575,977	249,340	-0,117	0,146
-574,963	-105,663	-0,123	-0,020
-573,948	350,472	0,041	-0,060
-572,934	-156,582	-0,066	-0,003
-571,919	-106,775	0,110	0,018
-570,904	149,349	0,085	-0,084
-569,890	99,275	0,053	-0,045
-568,875	-200,000	-0,006	0,036
-567,861	628,246	0,049	0,092
-566,846	800,000	-0,053	0,133
-565,831	427,332	-0,070	0,111
-564,817	-200,000	0,019	-0,107
-563,802	163,101	0,036	0,037
-562,788	-200,000	-0,004	-0,076
-561,773	627,324	0,070	0,130
-560,758	231,254	0,108	-0,130
-559,744	-200,000	0,002	0,024
-558,729	12,947	0,134	0,076
-557,715	800,000	0,077	-0,237
-556,700	800,000	-0,034	0,083
-555,685	800,000	0,049	0,100
-554,671	222,406	0,069	0,082
-553,656	-83,844	-0,079	0,018
-552,642	495,985	0,044	0,074
-551,627	-101,378	-0,071	-0,013
-550,612	761,562	0,034	-0,068
-549,598	800,000	0,055	-0,144
-548,583	-200,000	0,015	-0,065
-547,569	800,000	0,063	-0,145
-546,554	-64,622	0,038	0,011
-545,539	100,497	-0,047	-0,040
-544,525	433,950	-0,047	0,075
-543,510	-43,185	0,191	-0,070
-542,496	-30,161	-0,032	0,013
-541,481	416,021	-0,037	-0,058
-540,466	-146,209	-0,047	0,003
-539,452	63,267	0,130	0,095
-538,437	29,275	0,014	0,009
-537,423	22,606	0,125	0,075
-536,408	23,852	-0,089	-0,054
-535,393	-55,229	-0,191	0,062
-534,379	300,854	-0,041	0,056
-533,364	655,291	0,027	0,051
-532,350	291,015	0,075	-0,100
-531,335	151,547	0,041	0,041
-530,321	-59,808	0,037	0,012
-529,306	-200,000	0,010	-0,049
-528,291	-200,000	-0,011	-0,039
-527,277	79,546	-0,120	-0,094
-526,262	89,619	0,039	-0,032
-525,248	439,786	0,098	0,157
-524,233	170,681	0,018	0,019
-523,218	611,009	-0,018	-0,033
-522,204	-13,839	0,084	0,040
-521,189	-200,000	0,032	-0,121
-520,175	-200,000	-0,003	-0,093
-519,160	-63,783	0,020	0,006
-518,145	368,877	-0,046	-0,068
-517,131	-200,000	0,008	-0,028
-516,116	-165,687	-0,075	0,002
-515,102	-137,731	-0,044	0,004
-514,087	329,960	-0,053	-0,075
-513,072	337,230	0,053	-0,075
-512,058	-200,000	-0,035	-0,139
-511,043	-200,000	0,027	0,122
-510,029	-200,000	0,011	0,109
-509,014	800,000	-0,014	0,034
-507,999	-145,465	-0,017	-0,001
-506,985	-7,516	-0,080	0,039
-505,970	48,265	-0,044	-0,030
-504,956	695,006	0,049	0,095
-503,941	800,000	0,040	-0,107
-502,926	-21,964	0,043	0,019
-501,912	29,073	0,071	-0,044
-500,897	-82,218	-0,055	0,013
-499,883	-69,360	0,049	0,014
-498,868	-200,000	-0,020	-0,091
-497,853	-162,874	-0,069	-0,002
-496,839	223,628	0,143	0,169
-495,824	133,675	-0,020	-0,019
-494,810	800,000	0,070	0,188
-493,795	-29,335	0,103	0,043
-492,781	52,537	0,070	0,049
-491,766	-126,397	-0,102	0,011
-490,751	781,534	0,043	0,086
-489,737	-200,000	0,039	0,157
-488,722	-200,000	0,002	-0,123
-487,708	-200,000	0,023	0,121
-486,693	-200,000	-0,028	0,099
-485,678	-200,000	-0,005	-0,072
-484,664	-162,289	-0,185	0,007
-483,649	-39,321	-0,093	0,035
-482,635	-28,309	-0,148	0,062
-481,620	-45,728	0,054	0,019
-480,605	-200,000	-0,035	0,115
-479,591	800,000	-0,029	0,062
-478,576	-52,474	-0,191	-0,064
-477,562	-200,000	0,007	-0,077
-476,547	-200,000	-0,003	-0,012
-475,532	-200,000	0,015	-0,067
-474,518	-200,000	0,017	0,144
-473,503	800,000	0,038	0,090
-472,489	800,000	-0,026	-0,060
-471,474	800,000	-0,012	-0,030
-470,459	-200,000	-0,040	-0,150
-469,445	800,000	0,029	-0,073
-468,430	800,000	0,014	-0,028
-467,416	-107,739	0,046	0,007
-466,401	-200,000	-0,010	0,055
-465,386	-151,840	0,128	-0,007
-464,372	37,576	-0,084	0,054
-463,357	237,491	-0,093	-0,113
-462,343	108,695	0,067	-0,058
-461,328	313,756	0,030	0,042
-460,313	-200,000	0,027	0,195
-459,299	-200,000	0,031	0,111
-458,284	71,652	0,018	0,014
-457,270	-171,768	-0,205	-0,005
-456,255	55,297	-0,071	-0,050
-455,241	800,000	-0,050	0,104
-454,226	-200,000	0,017	-0,155
-453,211	-200,000	-0,009	-0,033
-452,197	174,419	-0,110	-0,116
-451,182	326,850	-0,110	0,154
-450,168	275,118	0,084	-0,109
-449,153	45,316	0,040	-0,027
-448,138	75,710	-0,085	-0,066
-447,124	260,848	0,041	-0,052
-446,109	-88,904	0,154	0,033
-445,095	-127,284	0,159	0,017
-444,080	213,881	0,063	-0,073
-443,065	21,000	0,144	-0,085
-442,051	800,000	-0,033	0,082
-441,036	18,204	-0,048	-0,028
-440,022	258,690	-0,055	-0,070
-439,007	100,813	-0,070	-0,060
-437,992	-200,000	0,007	-0,038
-436,978	-72,329	-0,059	0,016
-435,963	22,558	-0,025	0,015
-434,949	263,900	-0,077	-0,098
-433,934	-200,000	-0,011	-0,155
-432,919	63,853	-0,029	0,021
-431,905	587,994	-0,032	0,057
-430,890	800,000	-0,061	-0,187
-429,876	-144,678	0,112	-0,007
-428,861	-69,211	0,070	0,019
-427,846	800,000	-0,037	0,115
-426,832	-120,377	-0,065	-0,008
-425,817	-41,746	-0,018	0,007
-424,803	-200,000	-0,005	0,058
-423,788	-200,000	-0,004	0,090
-422,773	56,526	-0,060	0,042
-421,759	140,243	-0,034	0,033
-420,744	359,062	-0,066	0,096
-419,730	-55,425	0,031	-0,010
-418,715	233,834	-0,038	-0,046
-417,701	607,230	0,036	0,065
-416,686	-200,000	-0,022	0,153
-415,671	800,000	0,039	0,111
-414,657	800,000	0,041	0,103
-413,642	-200,000	-0,032	0,141
-412,628	-200,000	0,017	-0,117
-411,613	-200,000	-0,043	-0,170
-410,598	-23,876	-0,102	0,044
-409,584	-98,199	0,051	0,010
-408,569	-137,664	-0,082	-0,007
-407,555	800,000	0,069	0,147
-406,540	800,000	0,054	0,116
-405,525	800,000	0,004	0,012
-404,511	-48,043	-0,083	-0,029
-403,496	-200,000	0,019	0,143
-402,482	-107,240	-0,097	-0,015
-401,467	91,452	0,107	-0,088
-400,452	152,162	-0,063	0,062
-399,438	-200,000	-0,008	0,080
-398,423	93,952	0,046	-0,038
-397,409	762,421	-0,031	0,061
-396,394	451,723	0,040	0,064
-395,379	132,023	-0,029	-0,027
-394,365	-200,000	0,013	0,150
-393,350	188,834	-0,019	0,021
-392,336	-200,000	-0,005	0,100
-391,321	-91,899	-0,108	-0,022
-390,306	-2,618	0,056	0,028
-389,292	189,481	0,033	0,036
-388,277	-33,554	-0,054	-0,022
-387,263	-200,000	-0,002	-0,104
-386,248	800,000	0,064	0,146
-385,233	-128,766	-0,160	0,016
-384,219	-200,000	-0,004	-0,056
-383,204	-200,000	0,018	0,070
-382,190	800,000	0,031	-0,081
-381,175	349,951	0,035	0,051
-380,160	393,467	0,040	-0,060
-379,146	-169,837	0,130	-0,003
-378,131	341,921	-0,052	0,075
-377,117	-200,000	0,012	-0,088
-376,102	195,913	0,057	-0,063
-375,088	239,693	-0,097	-0,117
-374,073	429,356	-0,062	-0,097
-373,058	18,455	-0,049	0,028
-372,044	800,000	0,053	0,158
-371,029	-49,956	-0,022	-0,007
-370,015	-200,000	-0,006	-0,093
-369,000	152,348	-0,105	0,104
-367,985	-200,000	-0,020	0,092
-366,971	92,429	-0,102	-0,084
-365,956	-200,000	-0,002	0,080
-364,942	-84,302	0,074	-0,017
-363,927	104,103	-0,049	-0,042
-362,912	353,020	0,012	0,017
-361,898	-21,321	-0,115	-0,051
-360,883	-200,000	0,003	-0,019
-359,869	62,145	0,031	0,023
-358,854	800,000	0,102	-0,231
-357,839	-63,659	-0,136	-0,040
-356,825	-119,836	0,109	0,013
-355,810	87,281	-0,111	0,089
-354,796	311,947	0,013	0,018
-353,781	240,924	-0,102	0,124
-352,766	21,190	0,073	0,043
-351,752	68,098	0,045	0,033
-350,737	800,000	0,020	0,060
-349,723	170,263	0,100	0,104
-348,708	-50,780	-0,055	-0,019
-347,693	40,322	0,133	-0,087
-346,679	754,396	-0,078	-0,154
-345,664	11,621	0,062	-0,034
-344,650	-132,254	0,041	0,004
-343,635	18,810	0,007	-0,004
-342,620	226,140	-0,056	0,066
-341,606	-93,871	-0,017	0,003
-340,591	-200,000	-0,003	0,014
-339,577	-163,916	-0,096	0,003
-338,562	-107,204	-0,099	-0,016
-337,548	28,631	0,047	0,029
-336,533	192,234	0,075	-0,083
-335,518	-17,407	0,050	0,023
-334,504	-3,939	0,128	-0,064
-333,489	687,665	-0,071	0,136
-332,475	-200,000	-0,003	-0,021
-331,460	-200,000	-0,022	-0,117
-330,445	74,577	0,020	-0,016
-329,431	-191,498	0,068	-0,000
-328,416	800,000	0,033	0,103
-327,402	-163,519	0,091	0,003
-326,387	-200,000	-0,051	0,221
-325,372	-6,532	-0,096	0,047
-324,358	-12,031	0,055	0,026
-323,343	800,000	0,051	-0,156
-322,329	101,251	0,053	-0,044
-321,314	86,910	-0,063	-0,050
-320,299	648,641	-0,034	0,064
-319,285	68,882	0,041	-0,030
-318,270	585,399	-0,008	-0,015
-317,256	37,150	0,077	0,050
-316,241	-194,870	0,085	0,000
-315,226	-43,475	0,083	-0,030
-314,212	-55,571	-0,057	0,018
-313,197	4,056	0,134	0,071
-312,183	112,102	0,071	-0,062
-311,168	-82,341	0,069	0,016
-310,153	-63,155	-0,058	0,017
-309,139	800,000	0,051	-0,133
-308,124	-200,000	-0,005	-0,101
-307,110	81,624	0,113	0,089
-306,095	116,780	-0,040	0,036
-305,080	-200,000	0,005	-0,129
-304,066	800,000	-0,029	-0,091
-303,051	-200,000	0,020	-0,083
-302,037	-20,649	-0,079	-0,035
-301,022	70,879	-0,085	-0,064
-300,008	800,000	0,010	-0,029
-298,993	800,000	0,042	0,086
-297,978	-200,000	-0,007	0,044
-296,964	-103,994	-0,065	-0,011
-295,949	-200,000	-0,041	0,143
-294,935	315,907	-0,027	0,037
-293,920	-30,819	-0,015	0,006
-292,905	-42,941	0,108	0,039
-291,891	129,283	0,177	0,163
-290,876	-118,161	0,115	0,015
-289,862	9,465	-0,182	0,100
-288,847	800,000	-0,006	-0,015
-287,832	800,000	0,050	-0,152
-286,818	800,000	-0,009	-0,022
-285,803	-90,767	0,067	-0,014
-284,789	800,000	0,014	0,044
-283,774	-39,249	0,094	0,035
-282,759	-19,296	0,159	-0,071
-281,745	4,168	-0,015	-0,008
-280,730	-66,407	0,095	-0,027
-279,716	-22,558	-0,129	-0,056
-278,701	-36,598	-0,022	-0,008
-277,686	800,000	0,041	0,085
-276,672	800,000	0,019	0,057
-275,657	800,000	0,028	-0,075
-274,643	-200,000	-0,027	-0,164
-273,628	-88,188	-0,175	0,038
-272,613	-29,718	0,029	-0,012
-271,599	78,648	0,117	-0,091
-270,584	-200,000	-0,024	0,080
-269,570	-124,273	0,125	0,014
-268,555	-151,276	-0,135	-0,007
-267,540	-200,000	0,004	0,122
-266,526	611,591	-0,049	-0,090
-265,511	800,000	-0,026	0,061
-264,497	39,795	0,049	-0,031
-263,482	800,000	-0,015	0,031
-262,467	-126,199	-0,013	0,001
-261,453	-1,531	0,064	0,032
-260,438	-200,000	-0,012	0,058
-259,424	-200,000	0,020	0,128
-258,409	-23,082	0,050	-0,022
-257,395	107,480	0,119	0,102
-256,380	125,992	0,067	0,061
-255,365	-192,622	0,021	0,000
-254,351	220,467	-0,079	-0,092
-253,336	-34,801	-0,114	-0,045
-252,322	421,027	-0,029	-0,044
-251,307	484,750	-0,054	0,089
-250,292	-109,485	0,085	0,013
-249,278	68,315	-0,123	-0,091
-248,263	800,000	-0,045	0,092
-247,249	800,000	0,027	-0,062
-246,234	-158,432	-0,103	-0,004
-245,219	-76,530	-0,060	0,015
-244,205	-13,857	-0,026	0,012
-243,190	603,283	-0,010	0,019
-242,176	204,594	-0,009	0,010
-241,161	-45,417	0,155	0,055
-240,146	-200,000	-0,001	0,160
-239,132	-111,222	-0,088	-0,013
-238,117	271,914	-0,044	-0,056
-237,103	229,818	-0,129	-0,153
-236,088	-200,000	0,030	-0,118
-235,073	-10,451	0,024	-0,011
-234,059	-50,355	-0,140	0,048
-233,044	81,238	0,053	0,041
-232,030	-200,000	0,018	0,115
-231,015	-85,510	-0,112	-0,025
-230,000	-108,430	-0,030	-0,005
-228,986	-200,000	0,000	-0,135
-227,971	484,292	0,053	-0,088
-226,957	800,000	0,077	-0,189
-225,942	34,505	0,067	0,042
-224,927	-200,000	0,005	-0,021
-223,913	16,542	0,072	-0,041
-222,898	800,000	-0,026	-0,056
-221,884	501,612	0,037	-0,063
-220,869	800,000	-0,073	-0,165
-219,855	-200,000	-0,008	0,027
-218,840	0,430	0,168	-0,087
-217,825	-19,051	0,107	0,048
-216,811	-76,291	-0,108	-0,027
-215,796	-92,297	-0,093	-0,019
-214,782	20,710	-0,047	0,027
-213,767	-13,360	-0,114	0,053
-212,752	-18,349	0,102	-0,046
-211,738	-83,942	0,170	-0,039
-210,723	-200,000	-0,008	-0,094
-209,709	76,940	0,057	-0,044
-208,694	11,403	-0,188	0,104
-207,679	203,081	-0,104	0,116
-206,665	-91,923	0,120	-0,024
-205,650	-200,000	-0,056	0,241
-204,636	76,309	0,043	-0,033
-203,621	152,155	-0,075	-0,074
-202,606	-200,000	0,005	0,079
-201,592	219,552	-0,071	-0,083
-200,577	-153,479	0,107	-0,005
-199,563	800,000	-0,033	0,081
-198,548	12,628	0,195	0,108
-197,533	234,903	0,067	0,080
-196,519	-200,000	-0,008	-0,066
-195,504	800,000	0,020	-0,052
-194,490	-33,169	-0,093	-0,037
-193,475	-200,000	-0,012	-0,077
-192,460	494,072	0,045	-0,075
-191,446	497,730	-0,026	0,044
-190,431	144,395	0,052	0,050
-189,417	149,422	0,107	-0,105
-188,402	-87,413	-0,045	0,010
-187,387	800,000	-0,048	-0,115
-186,373	-150,906	0,094	-0,005
-185,358	291,230	0,145	0,191
-184,344	-45,576	0,107	0,038
-183,329	-200,000	0,007	0,033
-182,315	1,529	-0,059	0,031
-181,300	19,333	0,037	0,021
-180,285	415,549	0,064	-0,099
-179,271	-200,000	0,030	-0,142
-178,256	-99,056	-0,064	-0,012
-177,242	4,701	0,054	-0,029
-176,227	651,056	-0,021	0,038
-175,212	-18,623	0,061	0,027
-174,198	-200,000	0,008	-0,080
-173,183	-145,598	0,040	0,003
-172,169	271,993	-0,091	-0,116
-171,154	111,090	-0,050	0,043
-170,139	38,949	0,145	0,093
-169,125	100,124	0,026	0,021
-168,110	382,120	-0,108	0,160
-167,096	292,702	0,053	0,070
-166,081	156,345	-0,029	0,029
-165,066	800,000	0,027	-0,064
-164,052	215,504	0,080	0,092
-163,037	-38,268	0,075	0,028
-162,023	261,481	0,094	0,118
-161,008	-117,426	0,175	0,023
-159,993	27,793	-0,097	-0,059
-158,979	-56,073	-0,126	0,040
-157,964	-0,111	-0,029	0,015
-156,950	59,206	-0,006	-0,004
-155,935	331,851	-0,048	0,068
-154,920	-154,875	0,153	-0,007
-153,906	-22,479	0,109	0,047
-152,891	-200,000	0,010	0,059
-151,877	150,357	-0,062	0,061
-150,862	289,703	-0,029	-0,038
-149,847	-61,260	0,029	0,009
-148,833	-200,000	0,007	0,097
-147,818	800,000	0,045	0,128
-146,804	231,662	-0,083	0,098
-145,789	-13,636	0,139	0,064
-144,775	7,200	-0,016	0,009
-143,760	800,000	-0,016	0,047
-142,745	800,000	-0,035	-0,070
-141,731	260,559	0,037	-0,046
-140,716	51,517	0,130	-0,089
-139,702	-94,964	0,031	0,006
-138,687	800,000	-0,051	0,119
-137,672	800,000	0,039	-0,104
-136,658	800,000	-0,044	-0,139
-135,643	800,000	0,035	-0,083
-134,629	539,111	0,048	0,082
-133,614	18,240	0,026	0,015
-132,599	800,000	-0,039	-0,095
-131,585	-95,988	0,090	-0,017
-130,570	17,236	-0,096	-0,054
-129,556	5,396	0,075	-0,040
-128,541	-94,484	-0,102	-0,020
-127,526	322,959	0,078	0,107
-126,512	67,626	0,021	-0,015
-125,497	800,000	-0,023	0,065
-124,483	794,291	-0,076	-0,150
-123,468	-200,000	-0,008	-0,052
-122,453	56,963	-0,065	0,045
-121,439	-57,366	-0,236	0,074
-120,424	-87,791	-0,123	0,026
-119,410	-123,689	0,040	-0,005
-118,395	118,905	0,154	0,137
