DTS Sentinel unit serial number:	SN410029Multiplexer serial number:	ORYXHardware model number:	OX2-SRSoftware version number:	ORYX F/W v4,00 Oryx Data Collector v3.7.2.0data status	okinstallation	B5 Nyhavnadifferential loss correction	single-endedforward channel	channel 2reverse channel	N/Adate	2023/12/12time	23:57:13forward acquisition time	300,00reverse acquisition time	0,00gamma	499,1914k internal	0,3159k external	0,3159temperature offset calibration	1,0000default loss term (dB/km)	0,3820temperature slope calibration	1,0000multiplexer offset coefficient	1,0000multiplexer slope coefficient	1,0000fibre end	0,00T internal ref (°C)	14,37T ext. ref 1 (°C)	-2,12T ext. ref 2 (°C)	-2,43length (m)	temperature (°C)	Stokes	anti-Stokes-744,400	-127,750	0,059	0,006
-743,385	-187,263	-0,255	-0,002
-742,371	800,000	0,053	0,150
-741,356	-61,041	-0,213	0,066
-740,342	-49,852	0,081	-0,028
-739,327	42,012	-0,198	0,132
-738,312	-172,953	0,138	0,003
-737,298	-109,227	-0,300	-0,046
-736,283	-200,000	0,264	0,000
-735,269	-128,489	-0,353	-0,036
-734,254	-200,000	0,129	-0,000
-733,239	-101,157	-0,434	-0,077
-732,225	-129,135	0,161	0,016
-731,210	-200,000	0,000	0,088
-730,196	-200,000	0,010	-0,053
-729,181	-200,000	-0,011	-0,118
-728,167	-200,000	-0,004	-0,083
-727,152	63,088	0,065	-0,048
-726,137	-94,704	-0,206	0,041
-725,123	-200,000	0,003	-0,095
-724,108	-52,042	-0,136	-0,046
-723,094	800,000	-0,132	-0,297
-722,079	-43,426	-0,037	0,014
-721,064	-99,531	-0,087	0,016
-720,050	-178,881	-0,036	-0,001
-719,035	-190,660	0,085	0,001
-718,021	127,647	-0,068	-0,063
-717,006	-141,694	-0,113	0,008
-715,991	553,108	-0,048	-0,086
-714,977	111,379	-0,093	-0,082
-713,962	567,457	-0,101	-0,181
-712,948	-44,324	-0,071	0,026
-711,933	800,000	-0,008	-0,018
-710,918	-200,000	-0,007	0,087
-709,904	169,382	0,038	0,040
-708,889	95,723	-0,083	-0,069
-707,875	135,316	0,106	-0,101
-706,860	-119,386	0,091	-0,011
-705,845	-62,192	0,128	-0,039
-704,831	-200,000	-0,021	0,108
-703,816	495,810	0,056	0,094
-702,802	-4,122	-0,069	-0,035
-701,787	216,026	-0,112	-0,131
-700,772	87,310	-0,046	0,037
-699,758	-50,861	0,043	0,015
-698,743	-107,522	0,035	0,006
-697,729	-109,549	0,145	0,022
-696,714	576,061	-0,044	-0,079
-695,699	-116,059	-0,154	-0,021
-694,685	-16,994	0,023	0,011
-693,670	800,000	0,030	-0,071
-692,656	182,810	0,162	0,176
-691,641	15,355	-0,042	0,024
-690,627	800,000	-0,045	0,103
-689,612	-174,834	-0,121	0,002
-688,597	800,000	0,028	-0,074
-687,583	-110,730	0,066	-0,010
-686,568	-61,147	-0,059	-0,018
-685,554	-190,282	0,104	0,001
-684,539	-92,084	-0,079	0,016
-683,524	161,361	-0,074	0,076
-682,510	481,046	-0,045	-0,076
-681,495	-140,606	-0,126	-0,009
-680,481	88,504	0,049	-0,040
-679,466	-200,000	-0,023	-0,088
-678,451	568,831	-0,036	-0,065
-677,437	-47,859	0,119	-0,042
-676,422	111,267	0,078	0,069
-675,408	120,804	-0,088	-0,081
-674,393	71,404	0,104	0,079
-673,378	690,647	0,010	0,018
-672,364	109,676	-0,080	-0,070
-671,349	800,000	-0,074	-0,207
-670,335	-133,270	-0,104	-0,010
-669,320	-61,356	-0,026	0,008
-668,305	167,061	0,068	0,071
-667,291	193,353	0,039	-0,044
-666,276	800,000	0,005	0,016
-665,262	-200,000	-0,042	-0,267
-664,247	-200,000	0,005	-0,053
-663,232	-200,000	-0,034	-0,121
-662,218	-33,945	0,068	0,027
-661,203	510,951	-0,016	-0,028
-660,189	-26,875	0,111	0,047
-659,174	175,594	-0,065	-0,069
-658,159	800,000	-0,058	-0,119
-657,145	94,119	-0,122	-0,102
-656,130	-151,634	0,069	0,004
-655,116	40,759	-0,082	0,054
-654,101	-131,624	0,112	0,011
-653,086	-142,636	-0,028	0,002
-652,072	-87,043	0,102	-0,023
-651,057	-75,236	-0,157	-0,041
-650,043	-131,907	-0,057	0,005
-649,028	-12,967	-0,081	-0,038
-648,014	-131,253	0,091	-0,009
-646,999	-200,000	0,026	0,128
-645,984	-92,858	0,147	0,030
-644,970	-200,000	0,026	-0,105
-643,955	61,103	-0,134	-0,098
-642,941	404,311	-0,047	-0,073
-641,926	-89,363	0,145	0,031
-640,911	-200,000	-0,029	0,097
-639,897	-69,729	-0,106	0,030
-638,882	-34,151	0,024	0,009
-637,868	220,122	-0,004	-0,004
-636,853	-60,135	0,045	-0,014
-635,838	-10,510	-0,075	-0,036
-634,824	625,164	-0,049	-0,091
-633,809	117,052	-0,016	0,015
-632,795	-200,000	-0,013	-0,046
-631,780	61,993	0,117	0,086
-630,765	440,114	0,053	0,086
-629,751	671,321	-0,004	-0,008
-628,736	593,950	0,067	-0,122
-627,722	578,358	-0,017	-0,030
-626,707	37,015	-0,014	-0,009
-625,692	-200,000	0,000	-0,083
-624,678	-17,245	0,072	-0,033
-623,663	-184,071	-0,118	0,001
-622,649	-102,754	-0,130	0,023
-621,634	407,313	-0,048	-0,074
-620,619	800,000	-0,037	-0,105
-619,605	-78,354	0,090	0,022
-618,590	-200,000	0,002	0,016
-617,576	-62,285	-0,038	-0,012
-616,561	-200,000	-0,003	-0,040
-615,546	67,143	-0,051	0,038
-614,532	-2,561	-0,034	0,018
-613,517	-175,617	-0,089	0,002
-612,503	-200,000	0,015	0,072
-611,488	75,506	0,058	-0,045
-610,474	800,000	0,053	0,140
-609,459	-56,458	-0,107	0,035
-608,444	800,000	0,020	0,056
-607,430	443,478	-0,025	-0,040
-606,415	210,719	0,049	0,057
-605,401	53,683	-0,058	-0,041
-604,386	-200,000	-0,031	-0,132
-603,371	314,641	0,039	-0,054
-602,357	-3,514	-0,056	0,028
-601,342	61,784	-0,084	-0,061
-600,328	-38,734	-0,139	-0,054
-599,313	-200,000	-0,003	0,027
-598,298	-200,000	-0,007	0,104
-597,284	117,537	-0,056	0,050
-596,269	-147,192	-0,015	0,001
-595,255	-57,105	-0,095	0,030
-594,240	715,212	-0,100	-0,194
-593,225	327,623	-0,069	-0,097
-592,211	-200,000	-0,036	-0,208
-591,196	-200,000	-0,007	-0,075
-590,182	97,156	-0,047	-0,039
-589,167	-200,000	0,019	0,194
-588,152	61,009	0,110	0,080
-587,138	298,015	0,002	-0,003
-586,123	-200,000	0,014	-0,075
-585,109	-9,447	-0,070	-0,034
-584,094	125,141	-0,064	-0,059
-583,079	102,129	-0,062	0,053
-582,065	-200,000	-0,011	0,046
-581,050	11,779	-0,091	0,051
-580,036	244,329	-0,051	0,062
-579,021	800,000	-0,024	-0,055
-578,006	60,864	-0,103	0,074
-576,992	-47,457	-0,084	-0,030
-575,977	-194,834	0,149	0,001
-574,963	-200,000	0,012	0,136
-573,948	14,328	0,096	0,054
-572,934	765,872	0,057	-0,115
-571,919	-200,000	-0,027	-0,114
-570,904	189,667	-0,035	-0,039
-569,890	67,295	0,007	-0,005
-568,875	-200,000	-0,018	-0,072
-567,861	800,000	0,035	-0,091
-566,846	-200,000	0,064	0,000
-565,831	-24,666	-0,104	-0,045
-564,817	-200,000	-0,014	-0,079
-563,802	800,000	-0,061	-0,162
-562,788	-108,309	-0,037	-0,006
-561,773	463,211	0,026	-0,042
-560,758	-84,795	0,152	0,035
-559,744	800,000	-0,027	0,057
-558,729	800,000	0,044	0,116
-557,715	64,246	0,084	0,062
-556,700	780,699	0,043	0,087
-555,685	-200,000	-0,008	-0,050
-554,671	-200,000	0,005	0,032
-553,656	-104,307	0,033	0,005
-552,642	-32,703	-0,092	0,037
-551,627	800,000	0,060	0,169
-550,612	-56,855	-0,089	-0,029
-549,598	-200,000	-0,061	-0,255
-548,583	31,708	-0,022	-0,014
-547,569	766,397	0,041	0,083
-546,554	356,688	0,049	-0,071
-545,539	85,653	-0,203	0,163
-544,525	-200,000	0,024	0,115
-543,510	-120,195	-0,063	0,008
-542,496	-28,079	-0,044	0,018
-541,481	-200,000	-0,001	-0,072
-540,466	800,000	0,022	-0,061
-539,452	242,049	0,064	0,078
-538,437	-200,000	-0,026	0,106
-537,423	142,352	0,062	0,060
-536,408	549,604	-0,058	-0,102
-535,393	-200,000	0,010	-0,033
-534,379	-0,738	-0,132	0,068
-533,364	-200,000	0,005	0,029
-532,350	800,000	0,092	0,277
-531,335	-53,611	0,043	0,014
-530,321	94,098	-0,094	0,078
-529,306	-200,000	0,005	-0,033
-528,291	800,000	-0,035	-0,079
-527,277	-200,000	-0,025	-0,134
-526,262	-80,761	-0,190	-0,046
-525,248	-96,765	0,117	0,022
-524,233	-30,656	0,119	0,049
-523,218	188,359	0,048	0,052
-522,204	609,955	-0,023	0,042
-521,189	239,431	-0,036	-0,044
-520,175	137,668	0,053	-0,051
-519,160	4,419	0,054	0,029
-518,145	388,818	0,033	0,049
-517,131	578,016	-0,039	-0,071
-516,116	800,000	0,081	-0,194
-515,102	-67,000	-0,189	0,054
-514,087	-109,933	-0,031	-0,005
-513,072	-7,704	0,112	0,055
-512,058	288,796	0,046	-0,061
-511,043	463,606	-0,016	0,026
-510,029	344,460	-0,038	0,054
-509,014	-11,216	-0,065	0,031
-507,999	-104,598	-0,052	0,009
-506,985	-16,033	0,033	0,015
-505,970	38,274	-0,077	-0,050
-504,956	57,150	0,017	-0,012
-503,941	79,493	-0,090	-0,070
-502,926	800,000	0,029	0,077
-501,912	-200,000	-0,004	0,085
-500,897	-162,598	0,081	0,003
-499,883	-25,686	-0,173	0,074
-498,868	297,040	-0,039	-0,052
-497,853	-71,940	-0,190	0,051
-496,839	-200,000	0,002	-0,096
-495,824	-45,735	-0,094	0,034
-494,810	-200,000	-0,036	0,130
-493,795	-144,057	-0,075	-0,005
-492,781	500,946	-0,086	-0,145
-491,766	370,210	-0,026	0,039
-490,751	205,982	-0,087	-0,099
-489,737	-200,000	-0,009	-0,100
-488,722	-200,000	0,026	0,150
-487,708	-200,000	0,000	0,066
-486,693	-200,000	0,008	-0,145
-485,678	-200,000	-0,006	-0,152
-484,664	73,994	0,123	-0,094
-483,649	-28,023	-0,142	0,060
-482,635	-54,859	0,135	-0,044
-481,620	630,090	0,061	0,114
-480,605	-200,000	0,026	0,104
-479,591	-94,312	0,144	-0,028
-478,576	-200,000	-0,002	-0,013
-477,562	-23,543	0,077	-0,033
-476,547	248,538	-0,051	-0,064
-475,532	-31,634	-0,092	-0,038
-474,518	8,318	-0,121	0,066
-473,503	-200,000	-0,004	0,054
-472,489	0,302	-0,053	0,027
-471,474	800,000	0,039	-0,124
-470,459	279,097	-0,061	0,080
-469,445	-14,405	-0,061	0,029
-468,430	235,682	-0,030	0,036
-467,416	-153,335	0,119	0,006
-466,401	-132,668	0,050	-0,005
-465,386	-173,389	-0,120	-0,003
-464,372	-15,212	-0,172	0,080
-463,357	-200,000	-0,028	-0,111
-462,343	77,620	0,016	-0,012
-461,328	6,310	0,081	-0,044
-460,313	421,288	0,061	-0,096
-459,299	-32,103	0,117	0,047
-458,284	140,609	0,028	0,027
-457,270	51,686	0,101	-0,070
-456,255	297,531	-0,075	-0,100
-455,241	-59,085	0,126	-0,039
-454,226	-87,096	0,152	0,033
-453,211	-200,000	0,007	0,035
-452,197	-200,000	0,000	0,095
-451,182	800,000	-0,020	-0,052
-450,168	-50,372	0,112	0,038
-449,153	-37,547	-0,070	0,027
-448,138	-74,648	-0,084	0,022
-447,124	-148,450	0,116	0,007
-446,109	800,000	-0,019	0,050
-445,095	-64,888	0,202	0,059
-444,080	667,911	0,080	0,151
-443,065	20,751	-0,130	0,077
-442,051	-129,197	-0,161	-0,016
-441,036	207,619	-0,046	0,053
-440,022	732,573	-0,013	-0,025
-439,007	-135,218	0,055	-0,005
-437,992	204,951	0,125	0,141
-436,978	43,462	0,102	0,068
-435,963	-200,000	0,001	0,134
-434,949	166,767	0,032	0,033
-433,934	-188,410	-0,129	0,001
-432,919	118,310	0,118	-0,106
-431,905	800,000	-0,037	0,083
-430,890	800,000	0,058	-0,145
-429,876	666,792	-0,045	0,085
-428,861	-200,000	0,012	0,218
-427,846	292,295	-0,038	0,050
-426,832	-155,740	-0,170	0,008
-425,817	307,248	0,011	0,014
-424,803	10,217	-0,057	-0,032
-423,788	24,277	0,118	-0,071
-422,773	109,244	0,045	0,039
-421,759	48,620	-0,108	0,074
-420,744	-200,000	-0,005	0,043
-419,730	-131,529	-0,147	0,014
-418,715	724,265	-0,040	0,079
-417,701	736,333	-0,063	0,124
-416,686	181,482	0,024	0,026
-415,671	91,313	-0,026	0,021
-414,657	-200,000	0,019	0,122
-413,642	-22,330	-0,078	0,034
-412,628	25,764	-0,100	-0,061
-411,613	-200,000	-0,026	-0,144
-410,598	712,731	-0,008	0,015
-409,584	24,901	0,227	-0,136
-408,569	201,073	0,104	-0,117
-407,555	-64,308	0,203	-0,060
-406,540	-41,987	-0,062	-0,023
-405,525	62,685	0,055	-0,040
-404,511	515,895	-0,030	-0,050
-403,496	-200,000	-0,007	-0,088
-402,482	-200,000	0,003	-0,036
-401,467	800,000	-0,018	0,054
-400,452	303,098	0,089	0,120
-399,438	-200,000	-0,013	0,056
-398,423	178,616	0,095	-0,101
-397,409	800,000	-0,039	-0,085
-396,394	315,572	0,011	0,016
-395,379	-200,000	0,009	-0,063
-394,365	-200,000	0,025	0,109
-393,350	-200,000	0,009	-0,044
-392,336	800,000	-0,064	0,129
-391,321	800,000	0,057	-0,158
-390,306	800,000	0,012	0,029
-389,292	-200,000	-0,023	-0,076
-388,277	257,057	0,067	0,084
-387,263	-133,241	0,045	0,004
-386,248	342,267	0,027	0,039
-385,233	-200,000	-0,008	0,040
-384,219	51,484	0,053	0,037
-383,204	-83,535	-0,183	-0,042
-382,190	419,517	-0,055	-0,086
-381,175	415,752	0,086	-0,133
-380,160	686,883	0,046	-0,088
-379,146	-200,000	0,011	0,120
-378,131	-115,124	0,122	-0,017
-377,117	-200,000	-0,010	-0,036
-376,102	-140,373	-0,105	-0,008
-375,088	341,138	-0,030	-0,042
-374,073	800,000	0,034	-0,093
-373,058	800,000	-0,053	0,133
-372,044	-44,612	0,034	-0,012
-371,029	195,971	0,103	-0,114
-370,015	800,000	0,048	-0,131
-369,000	-200,000	0,008	0,047
-367,985	-62,137	0,017	0,005
-366,971	116,582	0,098	-0,087
-365,956	-200,000	-0,002	0,086
-364,942	-200,000	-0,003	0,084
-363,927	-146,448	0,132	0,008
-362,912	-50,091	-0,104	0,036
-361,898	463,321	0,053	-0,086
-360,883	154,787	-0,023	-0,023
-359,869	800,000	-0,030	0,065
-358,854	-138,539	-0,138	-0,011
-357,839	-44,826	0,116	0,042
-356,825	-7,610	0,047	-0,023
-355,810	-110,915	0,103	-0,015
-354,796	-118,183	-0,117	0,015
-353,781	-59,043	0,077	-0,024
-352,766	-200,000	0,002	0,016
-351,752	-200,000	-0,017	-0,074
-350,737	188,194	0,021	0,022
-349,723	-138,498	-0,041	0,003
-348,708	800,000	-0,018	-0,047
-347,693	-200,000	0,025	-0,156
-346,679	-118,705	-0,134	-0,017
-345,664	-200,000	-0,001	0,104
-344,650	444,980	0,015	0,024
-343,635	800,000	0,008	-0,017
-342,620	-200,000	-0,000	-0,061
-341,606	800,000	0,061	0,163
-340,591	-200,000	0,012	-0,070
-339,577	429,141	-0,033	-0,052
-338,562	68,531	-0,097	0,072
-337,548	-86,433	0,095	-0,021
-336,533	232,028	0,090	0,107
-335,518	-45,235	0,095	0,034
-334,504	172,360	-0,082	-0,086
-333,489	-22,190	-0,113	0,050
-332,475	19,738	0,074	-0,043
-331,460	-77,668	0,063	0,016
-330,445	38,966	-0,035	-0,023
-329,431	-47,032	0,138	-0,049
-328,416	800,000	-0,018	0,053
-327,402	65,861	-0,064	-0,047
-326,387	-200,000	-0,030	0,113
-325,372	-133,412	0,005	-0,000
-324,358	102,414	-0,045	-0,038
-323,343	-200,000	-0,010	0,132
-322,329	800,000	0,027	0,057
-321,314	800,000	0,047	-0,096
-320,299	800,000	-0,015	-0,043
-319,285	175,571	-0,023	0,025
-318,270	-5,038	0,106	-0,053
-317,256	-200,000	0,023	0,090
-316,241	-200,000	0,025	-0,121
-315,226	-200,000	0,018	-0,105
-314,212	185,024	0,101	0,109
-313,197	184,384	-0,006	0,007
-312,183	79,599	-0,017	0,013
-311,168	222,205	0,025	0,029
-310,153	76,681	-0,071	-0,055
-309,139	183,466	0,049	0,053
-308,124	188,434	0,056	-0,061
-307,110	-200,000	-0,009	0,107
-306,095	-120,119	-0,011	0,001
-305,080	-45,413	-0,110	-0,039
-304,066	24,507	0,067	-0,040
-303,051	94,319	0,079	-0,065
-302,037	175,273	0,092	-0,097
-301,022	-7,803	0,031	-0,015
-300,008	-200,000	-0,011	-0,128
-298,993	-39,923	0,019	0,007
-297,978	462,723	-0,046	0,074
-296,964	-90,872	0,089	0,018
-295,949	753,430	0,086	-0,170
-294,935	-44,183	-0,122	-0,044
-293,920	-31,376	-0,014	-0,006
-292,905	489,412	0,034	-0,057
-291,891	800,000	-0,049	0,110
-290,876	-200,000	-0,001	-0,016
-289,862	508,784	-0,066	-0,111
-288,847	-200,000	-0,025	-0,080
-287,832	-18,901	0,052	0,023
-286,818	27,098	0,093	0,056
-285,803	-87,065	0,106	0,023
-284,789	800,000	0,008	0,022
-283,774	-200,000	-0,002	0,109
-282,759	800,000	0,003	-0,007
-281,745	358,758	-0,036	-0,053
-280,730	800,000	0,014	-0,037
-279,716	-200,000	-0,009	0,079
-278,701	-64,453	0,174	-0,051
-277,686	800,000	0,012	0,030
-276,672	247,071	-0,086	0,105
-275,657	553,798	-0,017	0,030
-274,643	20,644	0,043	0,025
-273,628	496,339	0,075	0,124
-272,613	272,524	-0,075	-0,095
-271,599	-113,110	0,101	0,014
-270,584	-113,819	0,146	-0,020
-269,570	-200,000	0,002	0,123
-268,555	131,653	-0,084	0,078
-267,540	-50,313	-0,019	-0,006
-266,526	56,769	-0,151	0,106
-265,511	438,570	-0,020	0,032
-264,497	392,060	0,057	-0,087
-263,482	707,372	0,053	0,102
-262,467	-1,890	0,061	0,031
-261,453	108,626	0,070	0,061
-260,438	44,935	-0,100	0,067
-259,424	-200,000	0,018	-0,074
-258,409	-200,000	0,017	-0,178
-257,395	225,775	0,067	0,079
-256,380	800,000	0,046	0,125
-255,365	25,160	0,055	0,033
-254,351	-155,756	0,150	-0,007
-253,336	-130,653	0,061	-0,006
-252,322	166,348	-0,070	-0,071
-251,307	779,418	-0,063	0,125
-250,292	142,863	-0,008	-0,008
-249,278	171,653	-0,010	-0,011
-248,263	301,551	-0,084	0,112
-247,249	-200,000	0,005	-0,109
-246,234	-200,000	-0,009	-0,076
-245,219	77,235	0,042	0,032
-244,205	-200,000	-0,006	0,038
-243,190	-135,268	-0,006	0,000
-242,176	-200,000	0,000	0,078
-241,161	-89,772	0,026	0,005
-240,146	-10,399	-0,042	0,020
-239,132	-36,682	-0,150	0,058
-238,117	211,481	-0,108	0,123
-237,103	800,000	-0,049	-0,112
-236,088	163,539	0,030	-0,031
-235,073	-28,834	0,031	-0,013
-234,059	-200,000	0,005	0,072
-233,044	800,000	-0,056	0,125
-232,030	675,814	0,034	-0,064
-231,015	166,318	-0,012	-0,012
-230,000	-126,262	-0,128	-0,014
-228,986	800,000	0,047	-0,106
-227,971	-200,000	-0,004	-0,085
-226,957	344,794	0,041	-0,059
-225,942	-200,000	0,003	-0,050
-224,927	-96,689	0,138	0,026
-223,913	-61,327	0,035	0,010
-222,898	-1,272	-0,149	-0,076
-221,884	-85,777	0,053	-0,012
-220,869	-200,000	-0,004	0,028
-219,855	-45,010	0,106	0,038
-218,840	-200,000	-0,013	0,067
-217,825	174,999	-0,094	-0,098
-216,811	416,034	0,057	-0,088
-215,796	71,719	-0,074	0,056
-214,782	-113,504	0,021	0,003
-213,767	-200,000	-0,007	-0,114
-212,752	718,013	0,025	0,047
-211,738	-160,324	-0,017	0,001
-210,723	337,336	-0,098	-0,138
-209,709	271,290	0,067	-0,085
-208,694	-2,978	0,097	0,049
-207,679	18,205	-0,108	-0,062
-206,665	-200,000	0,013	0,056
-205,650	-200,000	-0,013	-0,125
-204,636	98,727	0,096	0,080
-203,621	433,341	0,033	-0,051
-202,606	92,275	-0,056	-0,046
-201,592	465,838	-0,019	-0,031
-200,577	800,000	-0,037	-0,091
-199,563	104,442	0,119	-0,101
-198,548	-200,000	0,006	0,036
-197,533	-200,000	-0,037	0,125
-196,519	798,159	0,086	-0,173
-195,504	76,935	-0,024	0,019
-194,490	570,900	0,008	-0,015
-193,475	-200,000	-0,001	0,103
-192,460	-130,335	0,064	-0,006
-191,446	-200,000	0,067	0,244
-190,431	-200,000	0,032	0,113
-189,417	-23,163	0,061	0,026
-188,402	-31,029	-0,061	0,025
-187,387	-60,178	-0,033	0,010
-186,373	114,774	-0,023	-0,020
-185,358	-32,808	-0,074	-0,029
-184,344	-122,665	0,101	0,012
-183,329	-200,000	-0,031	0,114
-182,315	800,000	-0,062	0,140
-181,300	49,735	0,123	0,083
-180,285	479,911	0,074	-0,121
-179,271	-200,000	-0,061	-0,195
-178,256	-151,479	0,165	0,009
-177,242	650,037	-0,040	0,074
-176,227	143,820	-0,112	0,108
-175,212	65,722	-0,023	0,017
-174,198	277,413	-0,052	-0,067
-173,183	-52,292	-0,045	0,015
-172,169	-200,000	-0,016	0,067
-171,154	53,862	0,144	-0,099
-170,139	800,000	0,019	-0,059
-169,125	43,233	-0,071	-0,047
-168,110	-200,000	0,018	0,070
-167,096	682,274	-0,057	-0,107
-166,081	39,553	-0,091	0,059
-165,066	-200,000	0,016	-0,060
-164,052	-200,000	0,028	0,131
-163,037	34,843	-0,129	-0,081
-162,023	-184,180	-0,059	-0,001
-161,008	-200,000	0,030	0,140
-159,993	282,725	-0,048	-0,063
-158,979	-36,216	-0,045	-0,017
-157,964	128,481	0,078	-0,072
-156,950	-31,164	0,060	-0,024
-155,935	-10,725	0,072	0,034
-154,920	-68,844	0,129	-0,036
-153,906	-200,000	0,017	0,110
-152,891	70,790	-0,075	-0,056
-151,877	198,292	-0,073	-0,081
-150,862	559,316	-0,014	0,025
-149,847	187,524	0,077	-0,083
-148,833	-15,599	-0,028	-0,013
-147,818	36,524	0,117	-0,074
-146,804	-23,729	0,063	-0,027
-145,789	-200,000	0,019	0,137
-144,775	127,254	-0,094	0,085
-143,760	137,941	0,020	0,019
-142,745	-133,159	0,032	-0,003
-141,731	-200,000	-0,060	0,244
-140,716	43,059	0,075	0,049
-139,702	-36,185	-0,023	-0,009
-138,687	57,566	-0,044	0,031
-137,672	87,152	0,083	-0,066
-136,658	-129,877	-0,103	-0,010
-135,643	-72,120	0,107	0,028
-134,629	-200,000	0,015	-0,100
-133,614	-200,000	0,002	-0,013
-132,599	350,353	-0,077	0,110
-131,585	136,675	-0,031	0,029
-130,570	800,000	-0,047	0,145
-129,556	-140,373	0,119	-0,009
-128,541	60,144	-0,091	-0,065
-127,526	325,327	0,077	0,107
-126,512	800,000	0,031	0,096
-125,497	167,445	-0,013	-0,013
-124,483	-42,046	-0,150	0,055
-123,468	-43,011	-0,078	-0,028
-122,453	196,150	-0,153	-0,168
-121,439	304,197	-0,078	-0,104
-120,424	-200,000	0,004	-0,067
