DTS Sentinel unit serial number:	SN410029Multiplexer serial number:	ORYXHardware model number:	OX2-SRSoftware version number:	ORYX F/W v4,00 Oryx Data Collector v3.7.2.0data status	okinstallation	B5 Nyhavnadifferential loss correction	single-endedforward channel	channel 2reverse channel	N/Adate	2023/12/11time	16:12:13forward acquisition time	300,00reverse acquisition time	0,00gamma	499,1914k internal	0,3166k external	0,3166temperature offset calibration	1,0000default loss term (dB/km)	0,3820temperature slope calibration	1,0000multiplexer offset coefficient	1,0000multiplexer slope coefficient	1,0000fibre end	0,00T internal ref (°C)	13,82T ext. ref 1 (°C)	-1,11T ext. ref 2 (°C)	-1,20length (m)	temperature (°C)	Stokes	anti-Stokes-744,400	86,318	0,182	0,147
-743,385	-82,738	-0,278	-0,066
-742,371	328,973	0,102	0,145
-741,356	-2,605	-0,207	0,106
-740,342	-35,833	0,139	-0,055
-739,327	-121,486	-0,296	0,036
-738,312	253,862	0,026	0,033
-737,298	17,015	-0,222	0,129
-736,283	240,249	-0,006	0,007
-735,269	-63,526	-0,160	-0,048
-734,254	307,600	0,026	-0,036
-733,239	-60,968	-0,462	-0,143
-732,225	-33,446	0,172	0,070
-731,210	438,722	0,024	0,038
-730,196	70,951	0,013	0,010
-729,181	-88,568	-0,041	0,009
-728,167	-200,000	-0,041	-0,146
-727,152	-200,000	-0,017	-0,100
-726,137	-18,192	-0,091	0,042
-725,123	2,460	0,093	-0,049
-724,108	80,328	-0,128	-0,101
-723,094	-200,000	-0,016	-0,160
-722,079	-142,466	-0,135	0,010
-721,064	708,175	0,077	-0,151
-720,050	172,914	-0,024	0,025
-719,035	-131,067	-0,080	0,008
-718,021	-32,698	0,099	-0,040
-717,006	358,240	-0,059	0,086
-715,991	-99,156	-0,167	-0,031
-714,977	145,965	0,116	-0,115
-713,962	-102,636	-0,045	-0,008
-712,948	-200,000	0,007	-0,027
-711,933	41,685	-0,053	0,035
-710,918	37,755	-0,143	-0,093
-709,904	-62,824	-0,112	-0,034
-708,889	-95,364	-0,094	-0,018
-707,875	-80,532	-0,067	-0,016
-706,860	-200,000	0,003	0,016
-705,845	-200,000	-0,037	0,133
-704,831	-200,000	-0,009	0,047
-703,816	265,898	-0,070	-0,089
-702,802	-1,158	-0,034	-0,017
-701,787	748,996	-0,075	-0,150
-700,772	-161,070	-0,067	-0,003
-699,758	72,751	0,122	-0,093
-698,743	30,425	0,118	0,074
-697,729	131,103	0,019	0,018
-696,714	-23,702	0,049	0,021
-695,699	-200,000	0,003	-0,068
-694,685	-59,550	-0,099	0,031
-693,670	81,606	-0,146	-0,116
-692,656	-200,000	-0,003	0,111
-691,641	-200,000	0,005	0,054
-690,627	-200,000	0,005	-0,072
-689,612	-200,000	-0,023	-0,151
-688,597	-50,516	-0,160	-0,055
-687,583	238,875	-0,079	-0,097
-686,568	-87,618	-0,183	-0,040
-685,554	72,943	-0,042	0,032
-684,539	-102,859	0,093	0,016
-683,524	16,172	-0,150	0,087
-682,510	-200,000	0,007	0,035
-681,495	-12,843	-0,137	-0,065
-680,481	800,000	-0,076	-0,163
-679,466	222,098	-0,109	0,129
-678,451	-200,000	0,002	0,039
-677,437	800,000	0,039	-0,097
-676,422	800,000	-0,045	-0,116
-675,408	-18,141	-0,126	0,058
-674,393	-58,019	-0,051	-0,016
-673,378	-10,184	-0,184	-0,090
-672,364	145,677	-0,172	-0,169
-671,349	538,297	0,030	0,053
-670,335	9,273	0,132	0,073
-669,320	-56,248	0,150	-0,048
-668,305	439,764	-0,055	0,088
-667,291	-46,726	-0,145	0,052
-666,276	509,708	-0,088	0,151
-665,262	125,990	-0,075	-0,069
-664,247	-200,000	-0,005	-0,049
-663,232	52,554	-0,061	0,042
-662,218	348,375	-0,035	-0,051
-661,203	-96,886	0,113	0,022
-660,189	-43,545	0,068	0,025
-659,174	800,000	-0,028	-0,079
-658,159	-141,156	0,103	0,008
-657,145	90,514	0,029	0,024
-656,130	70,435	-0,125	0,094
-655,116	10,594	-0,071	0,040
-654,101	34,776	0,063	0,040
-653,086	282,285	-0,067	-0,088
-652,072	27,284	0,079	0,049
-651,057	3,540	-0,087	-0,046
-650,043	-200,000	-0,015	-0,117
-649,028	180,582	0,049	0,053
-648,014	800,000	0,072	0,150
-646,999	-200,000	0,035	0,127
-645,984	-200,000	0,032	0,130
-644,970	-108,870	-0,125	0,019
-643,955	-29,212	-0,087	-0,036
-642,941	45,273	0,118	-0,080
-641,926	121,205	-0,052	-0,048
-640,911	-1,006	0,025	-0,013
-639,897	104,853	-0,069	0,060
-638,882	-200,000	0,006	0,066
-637,868	39,982	-0,107	0,070
-636,853	-78,305	-0,192	-0,048
-635,838	-200,000	0,030	-0,198
-634,824	679,178	-0,046	-0,088
-633,809	800,000	0,051	0,155
-632,795	-149,330	0,058	0,003
-631,780	232,965	-0,072	0,086
-630,765	-200,000	0,027	-0,095
-629,751	321,721	-0,050	-0,070
-628,736	-137,715	-0,059	0,005
-627,722	800,000	-0,065	-0,133
-626,707	-12,031	0,078	-0,037
-625,692	153,831	0,125	0,125
-624,678	173,392	0,066	0,070
-623,663	-85,300	-0,110	0,025
-622,649	499,851	-0,049	-0,082
-621,634	-28,687	-0,143	-0,060
-620,619	-61,735	0,085	-0,026
-619,605	-17,248	0,126	0,058
-618,590	577,343	0,046	-0,083
-617,576	-200,000	0,018	-0,187
-616,561	800,000	-0,007	0,021
-615,546	568,918	-0,050	0,089
-614,532	398,456	-0,077	0,118
-613,517	-28,889	-0,038	0,016
-612,503	-164,853	-0,034	0,001
-611,488	-200,000	0,028	0,120
-610,474	322,206	-0,073	-0,102
-609,459	800,000	-0,029	0,092
-608,444	51,443	0,124	0,086
-607,430	800,000	-0,038	0,103
-606,415	-200,000	0,017	-0,066
-605,401	-188,501	0,043	0,000
-604,386	-19,717	-0,014	-0,006
-603,371	358,115	-0,038	0,056
-602,357	73,296	-0,080	-0,061
-601,342	-41,392	-0,082	0,031
-600,328	-61,461	-0,152	0,046
-599,313	95,978	0,071	0,059
-598,298	325,830	-0,082	-0,115
-597,284	56,332	0,047	-0,033
-596,269	-75,668	-0,043	-0,011
-595,255	176,448	-0,058	0,062
-594,240	665,197	-0,048	0,092
-593,225	800,000	0,014	0,039
-592,211	197,144	0,046	0,051
-591,196	-200,000	-0,020	-0,083
-590,182	235,445	0,051	0,062
-589,167	-126,793	0,129	0,014
-588,152	-46,835	-0,033	-0,012
-587,138	800,000	-0,019	0,046
-586,123	-165,796	-0,014	-0,000
-585,109	-200,000	-0,037	-0,121
-584,094	-145,992	0,039	0,002
-583,079	-180,602	0,085	0,001
-582,065	-62,275	0,067	0,020
-581,050	-55,843	0,166	0,054
-580,036	63,513	-0,112	-0,082
-579,021	-200,000	0,066	-0,227
-578,006	800,000	0,055	-0,123
-576,992	-98,072	-0,017	0,003
-575,977	-65,932	0,070	-0,020
-574,963	337,841	-0,049	0,070
-573,948	-200,000	0,011	0,056
-572,934	-200,000	0,002	-0,045
-571,919	-162,720	-0,132	0,005
-570,904	160,900	0,059	-0,060
-569,890	-107,580	-0,076	-0,012
-568,875	-61,483	0,060	0,018
-567,861	492,884	-0,036	0,061
-566,846	-200,000	-0,035	0,131
-565,831	79,754	-0,070	-0,055
-564,817	-65,233	-0,071	-0,021
-563,802	-200,000	-0,009	0,042
-562,788	-65,869	0,037	-0,011
-561,773	381,171	0,052	-0,078
-560,758	-12,565	0,085	0,040
-559,744	654,297	-0,036	-0,068
-558,729	800,000	0,027	-0,072
-557,715	-23,022	-0,029	0,013
-556,700	-24,634	-0,075	-0,032
-555,685	-6,572	0,099	-0,049
-554,671	-91,783	0,058	0,012
-553,656	800,000	-0,027	-0,057
-552,642	172,923	0,082	0,086
-551,627	-200,000	0,014	0,147
-550,612	800,000	-0,027	-0,060
-549,598	-143,171	-0,062	0,004
-548,583	355,461	-0,056	-0,082
-547,569	139,388	-0,082	0,079
-546,554	55,366	0,056	0,040
-545,539	86,071	0,084	0,068
-544,525	-200,000	-0,010	-0,080
-543,510	-200,000	0,014	-0,074
-542,496	-140,848	-0,081	-0,006
-541,481	-150,601	0,159	0,009
-540,466	108,969	-0,093	-0,081
-539,452	-19,464	-0,075	-0,034
-538,437	13,647	0,084	0,047
-537,423	-2,307	0,031	0,016
-536,408	36,716	0,014	-0,009
-535,393	-200,000	-0,033	-0,190
-534,379	-24,788	0,050	-0,021
-533,364	-200,000	-0,077	0,000
-532,350	-200,000	0,005	-0,131
-531,335	234,587	0,075	0,090
-530,321	-200,000	0,025	0,112
-529,306	800,000	-0,046	0,092
-528,291	116,885	-0,046	0,041
-527,277	144,642	-0,093	-0,091
-526,262	247,450	-0,064	0,079
-525,248	-85,969	-0,021	-0,005
-524,233	-200,000	0,042	0,208
-523,218	478,078	-0,027	-0,045
-522,204	56,995	0,044	-0,031
-521,189	158,706	0,039	0,039
-520,175	-200,000	0,032	-0,142
-519,160	-200,000	0,009	-0,063
-518,145	800,000	0,017	0,050
-517,131	197,224	-0,073	-0,082
-516,116	-143,702	-0,052	0,004
-515,102	-200,000	-0,034	-0,145
-514,087	-47,782	-0,117	-0,041
-513,072	-79,951	-0,060	0,015
-512,058	157,889	0,047	-0,047
-511,043	-200,000	-0,011	0,100
-510,029	199,314	0,073	0,081
-509,014	800,000	0,070	0,156
-507,999	30,660	0,141	-0,088
-506,985	-117,725	-0,153	-0,020
-505,970	-3,718	0,098	-0,049
-504,956	190,715	0,067	-0,073
-503,941	252,843	0,007	0,009
-502,926	211,719	0,097	0,111
-501,912	147,398	0,078	0,076
-500,897	-200,000	0,018	0,119
-499,883	445,827	0,068	0,109
-498,868	-200,000	-0,012	-0,076
-497,853	-8,779	-0,098	0,048
-496,839	115,289	-0,105	-0,094
-495,824	-0,567	0,093	-0,048
-494,810	-50,753	-0,025	0,009
-493,795	584,720	0,022	0,040
-492,781	800,000	-0,073	-0,219
-491,766	-57,636	-0,048	0,015
-490,751	67,466	-0,084	0,063
-489,737	-2,172	-0,005	0,003
-488,722	-200,000	0,014	-0,048
-487,708	-104,590	-0,074	-0,012
-486,693	134,819	0,074	0,070
-485,678	521,501	0,043	0,073
-484,664	800,000	-0,010	-0,020
-483,649	378,919	-0,057	-0,086
-482,635	35,993	-0,073	-0,047
-481,620	71,870	-0,016	0,012
-480,605	329,630	-0,009	0,013
-479,591	177,560	-0,088	0,094
-478,576	-200,000	0,003	0,100
-477,562	-74,369	-0,145	0,038
-476,547	-200,000	-0,016	-0,086
-475,532	45,390	0,035	-0,023
-474,518	47,533	0,082	0,055
-473,503	-67,297	0,102	-0,029
-472,489	26,512	0,063	-0,038
-471,474	138,246	-0,011	-0,011
-470,459	351,148	0,037	-0,054
-469,445	-171,105	-0,195	-0,005
-468,430	-14,068	-0,050	0,023
-467,416	794,011	0,033	-0,067
-466,401	-26,295	-0,169	0,072
-465,386	167,027	-0,050	0,052
-464,372	215,279	0,048	0,055
-463,357	-30,136	0,065	-0,027
-462,343	79,756	0,088	0,068
-461,328	477,957	0,032	0,052
-460,313	468,425	-0,043	-0,070
-459,299	-10,618	0,063	-0,030
-458,284	800,000	0,014	0,041
-457,270	73,672	-0,075	-0,057
-456,255	791,390	-0,018	0,036
-455,241	-77,531	-0,084	-0,021
-454,226	291,701	-0,060	-0,079
-453,211	178,455	0,071	-0,076
-452,197	281,550	0,042	0,055
-451,182	28,430	0,016	-0,010
-450,168	665,142	0,045	0,085
-449,153	-94,826	-0,091	-0,018
-448,138	-200,000	0,015	0,052
-447,124	245,355	0,022	0,027
-446,109	-200,000	-0,025	-0,154
-445,095	71,015	0,103	0,078
-444,080	-200,000	-0,026	0,152
-443,065	481,992	0,073	0,121
-442,051	770,852	0,035	0,071
-441,036	800,000	-0,035	-0,090
-440,022	-200,000	0,022	0,086
-439,007	-200,000	0,020	0,170
-437,992	-111,766	-0,059	-0,009
-436,978	576,003	0,064	0,113
-435,963	582,972	-0,028	0,049
-434,949	-45,047	0,048	0,017
-433,934	-79,526	-0,041	0,010
-432,919	-200,000	-0,014	-0,096
-431,905	95,027	0,061	0,050
-430,890	207,994	-0,086	0,098
-429,876	263,471	0,122	0,154
-428,861	300,303	-0,030	0,040
-427,846	-2,295	0,102	-0,052
-426,832	800,000	0,044	0,124
-425,817	44,707	-0,090	-0,060
-424,803	800,000	0,031	-0,086
-423,788	800,000	0,014	0,037
-422,773	-200,000	0,003	0,055
-421,759	517,932	0,057	-0,098
-420,744	56,882	0,095	-0,067
-419,730	18,603	-0,025	0,015
-418,715	-167,917	-0,006	0,000
-417,701	194,935	-0,050	0,055
-416,686	420,624	-0,013	0,020
-415,671	13,958	-0,098	0,055
-414,657	373,586	0,071	0,106
-413,642	-13,877	-0,026	-0,012
-412,628	39,897	-0,065	-0,042
-411,613	-123,859	-0,054	-0,006
-410,598	417,568	-0,058	-0,090
-409,584	337,953	-0,051	0,072
-408,569	29,320	-0,061	0,038
-407,555	335,324	-0,001	0,002
-406,540	294,179	0,055	-0,073
-405,525	-85,233	-0,029	-0,006
-404,511	78,086	-0,070	-0,054
-403,496	-31,513	0,070	0,029
-402,482	-74,241	-0,074	-0,019
-401,467	-192,587	0,215	0,001
-400,452	-200,000	0,019	0,063
-399,438	-200,000	-0,013	0,114
-398,423	800,000	-0,033	0,078
-397,409	63,649	-0,024	0,018
-396,394	186,420	0,055	0,060
-395,379	-54,056	0,099	-0,032
-394,365	800,000	-0,036	0,073
-393,350	800,000	-0,016	0,047
-392,336	-86,708	0,092	0,020
-391,321	512,499	-0,009	-0,015
-390,306	68,721	0,092	-0,068
-389,292	127,687	-0,026	0,024
-388,277	-3,544	-0,075	-0,038
-387,263	800,000	0,035	-0,093
-386,248	109,254	0,032	0,028
-385,233	21,650	0,079	-0,046
-384,219	-132,159	0,077	-0,007
-383,204	-169,618	-0,155	0,004
-382,190	30,187	-0,097	-0,060
-381,175	800,000	-0,042	-0,103
-380,160	293,990	0,057	-0,076
-379,146	63,978	-0,054	0,039
-378,131	7,118	0,110	0,060
-377,117	95,233	-0,078	0,065
-376,102	118,625	-0,046	0,041
-375,088	571,429	0,041	-0,074
-374,073	104,978	-0,110	-0,094
-373,058	584,169	-0,033	0,060
-372,044	500,284	0,032	0,053
-371,029	155,939	0,140	0,140
-370,015	523,909	-0,041	0,070
-369,000	561,578	-0,022	-0,038
-367,985	-200,000	0,012	0,097
-366,971	800,000	0,022	0,056
-365,956	-200,000	-0,012	-0,145
-364,942	60,612	0,136	-0,098
-363,927	-23,269	-0,101	0,044
-362,912	86,355	-0,021	-0,017
-361,898	-118,825	-0,093	-0,012
-360,883	146,766	-0,058	-0,056
-359,869	-200,000	0,027	-0,088
-358,854	670,480	-0,008	0,015
-357,839	-89,243	-0,051	-0,011
-356,825	-200,000	-0,006	0,096
-355,810	137,747	0,047	-0,045
-354,796	-75,433	-0,072	-0,018
-353,781	-23,834	-0,101	0,044
-352,766	-76,848	0,070	0,017
-351,752	151,972	0,077	-0,076
-350,737	92,212	-0,029	0,024
-349,723	800,000	0,021	-0,057
-348,708	-200,000	0,016	0,125
-347,693	-152,945	0,070	-0,004
-346,679	-32,116	-0,076	-0,030
-345,664	800,000	-0,026	0,054
-344,650	-16,438	0,081	-0,037
-343,635	212,412	0,033	-0,038
-342,620	165,257	-0,015	0,015
-341,606	105,384	-0,028	0,024
-340,591	-21,140	-0,123	-0,054
-339,577	-149,637	0,068	0,004
-338,562	480,042	-0,074	-0,122
-337,548	146,355	-0,069	0,067
-336,533	-36,079	0,079	0,031
-335,518	187,047	0,039	-0,042
-334,504	160,183	-0,058	0,058
-333,489	636,985	-0,034	-0,062
-332,475	-0,100	-0,157	0,081
-331,460	800,000	-0,041	-0,101
-330,445	-90,588	0,205	0,042
-329,431	103,266	0,058	0,049
-328,416	-26,777	0,230	0,097
-327,402	-6,618	-0,132	-0,065
-326,387	42,588	0,063	-0,042
-325,372	-200,000	0,007	0,029
-324,358	-73,832	0,080	-0,021
-323,343	7,739	0,131	0,071
-322,329	687,141	0,078	-0,147
-321,314	-200,000	-0,014	0,061
-320,299	-200,000	-0,002	0,087
-319,285	-200,000	0,011	0,064
-318,270	-85,278	-0,036	0,008
-317,256	55,506	0,075	-0,052
-316,241	-200,000	-0,003	0,035
-315,226	-175,461	-0,042	-0,001
-314,212	-1,151	0,033	0,017
-313,197	329,634	-0,080	0,112
-312,183	-106,949	0,083	-0,013
-311,168	133,099	-0,096	-0,090
-310,153	-200,000	0,047	-0,160
-309,139	800,000	0,059	-0,121
-308,124	358,823	0,056	-0,081
-307,110	-91,060	0,020	-0,004
-306,095	-132,879	0,091	-0,008
-305,080	-200,000	-0,001	0,017
-304,066	800,000	-0,047	-0,099
-303,051	-200,000	-0,043	-0,163
-302,037	101,812	0,114	-0,096
-301,022	611,406	0,051	0,093
-300,008	363,557	0,036	0,053
-298,993	122,888	-0,028	0,025
-297,978	22,240	-0,111	0,065
-296,964	-200,000	0,029	-0,107
-295,949	-200,000	-0,015	-0,097
-294,935	800,000	-0,050	-0,125
-293,920	4,525	0,069	0,037
-292,905	541,469	0,061	-0,105
-291,891	-200,000	0,009	0,059
-290,876	118,478	0,077	-0,069
-289,862	800,000	-0,019	0,059
-288,847	800,000	-0,022	-0,059
-287,832	723,867	0,035	-0,067
-286,818	-200,000	-0,002	0,023
-285,803	-200,000	-0,022	-0,219
-284,789	-145,274	0,177	0,011
-283,774	304,817	-0,032	-0,043
-282,759	-17,854	-0,050	-0,023
-281,745	-200,000	-0,013	0,058
-280,730	176,945	0,057	-0,060
-279,716	157,039	-0,104	0,104
-278,701	247,922	0,047	0,057
-277,686	-62,086	0,082	-0,025
-276,672	-42,586	0,096	0,035
-275,657	16,581	0,083	-0,047
-274,643	800,000	-0,063	-0,180
-273,628	53,614	0,085	-0,059
-272,613	800,000	-0,026	0,053
-271,599	118,482	-0,072	-0,064
-270,584	-84,167	0,054	0,012
-269,570	268,310	0,047	0,059
-268,555	7,983	-0,091	0,049
-267,540	-200,000	0,003	0,041
-266,526	-46,759	-0,056	-0,020
-265,511	-72,935	0,024	-0,006
-264,497	283,127	-0,060	0,078
-263,482	31,617	-0,045	-0,028
-262,467	-200,000	-0,026	0,085
-261,453	-113,697	-0,096	-0,013
-260,438	-200,000	0,017	0,074
-259,424	43,605	-0,016	0,011
-258,409	800,000	0,041	0,101
-257,395	660,810	-0,034	0,063
-256,380	-26,965	-0,019	0,008
-255,365	-40,378	0,134	0,050
-254,351	-34,488	-0,051	0,020
-253,336	556,128	-0,037	-0,065
-252,322	-103,673	-0,082	-0,014
-251,307	114,407	0,036	0,031
-250,292	77,288	-0,045	-0,035
-249,278	-31,914	0,105	-0,042
-248,263	-100,803	0,123	-0,022
-247,249	141,117	0,038	-0,037
-246,234	702,622	0,044	-0,085
-245,219	-200,000	-0,006	0,118
-244,205	765,087	0,098	-0,193
-243,190	-200,000	0,006	0,025
-242,176	391,364	-0,042	0,063
-241,161	374,918	0,072	0,105
-240,146	-104,953	-0,147	-0,024
-239,132	48,980	0,118	-0,080
-238,117	800,000	-0,023	0,050
-237,103	-200,000	-0,010	-0,044
-236,088	154,437	-0,052	0,052
-235,073	282,364	0,043	0,056
-234,059	-200,000	0,013	-0,048
-233,044	14,231	-0,049	-0,027
-232,030	457,942	-0,091	-0,146
-231,015	290,377	-0,062	-0,081
-230,000	-12,076	-0,068	-0,032
-228,986	12,908	0,052	-0,029
-227,971	800,000	-0,034	-0,094
-226,957	800,000	0,018	0,056
-225,942	800,000	0,022	0,048
-224,927	-200,000	-0,007	0,027
-223,913	800,000	-0,031	-0,080
-222,898	230,192	-0,010	-0,012
-221,884	-200,000	0,013	0,061
-220,869	212,774	0,046	-0,052
-219,855	-200,000	0,038	0,000
-218,840	-200,000	0,006	0,084
-217,825	499,855	-0,037	0,061
-216,811	-200,000	0,012	-0,067
-215,796	141,827	-0,093	-0,089
-214,782	-200,000	-0,006	-0,041
-213,767	-17,975	0,100	0,045
-212,752	-200,000	0,035	0,136
-211,738	43,739	0,043	0,028
-210,723	-200,000	0,012	0,104
-209,709	32,067	0,045	0,028
-208,694	-200,000	-0,029	-0,203
-207,679	82,701	0,069	0,054
-206,665	-200,000	0,003	0,039
-205,650	-200,000	-0,053	0,187
-204,636	-200,000	-0,056	0,182
-203,621	-50,937	0,046	0,015
-202,606	5,617	-0,150	-0,079
-201,592	-119,405	-0,134	-0,017
-200,577	145,868	-0,069	0,066
-199,563	-49,564	0,131	-0,045
-198,548	466,580	0,032	0,052
-197,533	-200,000	0,060	0,200
-196,519	-164,229	0,113	0,004
-195,504	800,000	0,035	-0,075
-194,490	159,099	-0,019	0,019
-193,475	-200,000	-0,043	-0,178
-192,460	115,586	0,100	-0,088
-191,446	-200,000	0,013	0,059
-190,431	-69,879	0,070	0,019
-189,417	-200,000	0,016	-0,078
-188,402	143,964	-0,043	0,041
-187,387	469,055	-0,083	-0,135
-186,373	-200,000	0,002	-0,065
-185,358	-1,484	-0,054	-0,027
-184,344	161,072	-0,056	0,056
-183,329	-200,000	0,010	0,138
-182,315	-200,000	-0,033	0,107
-181,300	-68,501	-0,112	-0,031
-180,285	129,683	-0,102	-0,094
-179,271	-53,903	-0,114	0,037
-178,256	187,354	-0,005	-0,005
-177,242	-200,000	0,028	-0,091
-176,227	-34,630	0,074	-0,029
-175,212	-200,000	0,003	0,113
-174,198	275,654	0,082	0,105
-173,183	800,000	0,044	-0,133
-172,169	42,546	-0,071	-0,046
-171,154	-101,345	0,051	-0,009
-170,139	330,892	-0,078	-0,109
-169,125	800,000	0,055	-0,155
-168,110	105,182	0,098	-0,083
-167,096	758,381	0,050	0,099
-166,081	106,076	-0,019	0,017
-165,066	258,513	-0,130	-0,162
-164,052	-14,527	-0,089	-0,041
-163,037	110,723	-0,091	-0,078
-162,023	110,101	-0,082	-0,071
-161,008	130,732	0,152	0,140
-159,993	444,639	-0,034	0,053
-158,979	-200,000	-0,012	-0,057
-157,964	35,895	-0,050	-0,032
-156,950	32,418	-0,081	-0,050
-155,935	800,000	0,025	-0,057
-154,920	21,469	0,087	0,051
-153,906	669,527	0,051	0,096
-152,891	38,009	0,091	0,058
-151,877	-91,167	-0,088	0,018
-150,862	800,000	-0,059	-0,129
-149,847	321,936	-0,026	-0,035
-148,833	299,757	0,084	-0,112
-147,818	-200,000	-0,002	-0,171
-146,804	-200,000	-0,018	0,109
-145,789	-176,378	-0,148	-0,003
-144,775	369,345	-0,068	-0,099
-143,760	-96,064	0,047	0,009
-142,745	218,228	-0,098	-0,113
-141,731	-113,280	-0,097	0,013
-140,716	-112,941	0,094	-0,013
-139,702	-185,988	-0,042	-0,000
-138,687	401,954	0,044	-0,067
-137,672	109,285	-0,096	-0,082
-136,658	-200,000	0,006	0,043
-135,643	-27,072	0,021	-0,009
-134,629	-200,000	-0,015	-0,067
-133,614	300,590	-0,035	0,047
-132,599	-85,604	0,080	-0,018
-131,585	550,485	-0,032	0,055
-130,570	-200,000	-0,036	-0,134
-129,556	-200,000	0,000	-0,137
-128,541	-118,882	-0,136	-0,017
-127,526	-88,212	0,026	-0,006
-126,512	401,771	0,141	0,213
-125,497	255,669	0,052	0,064
-124,483	-137,877	-0,033	0,003
-123,468	800,000	0,064	0,138
-122,453	-200,000	0,015	0,084
-121,439	-200,000	-0,002	-0,025
-120,424	-200,000	0,014	0,142
-119,410	-95,428	0,118	0,023
-118,395	-33,997	0,084	-0,033
