DTS Sentinel unit serial number:	SN410029Multiplexer serial number:	ORYXHardware model number:	OX2-SRSoftware version number:	ORYX F/W v4,00 Oryx Data Collector v3.7.2.0data status	okinstallation	B5 Nyhavnadifferential loss correction	single-endedforward channel	channel 2reverse channel	N/Adate	2023/12/12time	21:17:13forward acquisition time	300,00reverse acquisition time	0,00gamma	499,1914k internal	0,3157k external	0,3157temperature offset calibration	1,0000default loss term (dB/km)	0,3820temperature slope calibration	1,0000multiplexer offset coefficient	1,0000multiplexer slope coefficient	1,0000fibre end	0,00T internal ref (°C)	14,94T ext. ref 1 (°C)	-1,72T ext. ref 2 (°C)	-2,04length (m)	temperature (°C)	Stokes	anti-Stokes-744,400	164,301	-0,081	0,084
-743,385	-151,144	-0,241	0,013
-742,371	-50,605	0,094	0,032
-741,356	-120,551	-0,269	0,033
-740,342	-200,000	0,000	0,127
-739,327	-90,866	-0,366	0,077
-738,312	-50,951	0,167	0,058
-737,298	-98,338	-0,285	-0,053
-736,283	208,831	0,018	0,020
-735,269	102,093	-0,182	0,157
-734,254	-62,167	0,177	0,054
-733,239	15,514	-0,457	-0,264
-732,225	13,512	0,152	0,087
-731,210	437,441	0,056	-0,090
-730,196	800,000	-0,035	-0,074
-729,181	-147,219	0,104	-0,006
-728,167	310,153	0,028	0,038
-727,152	800,000	0,037	0,116
-726,137	800,000	-0,032	-0,096
-725,123	93,818	0,060	-0,050
-724,108	-200,000	-0,011	-0,066
-723,094	800,000	-0,028	-0,061
-722,079	-66,942	-0,099	-0,029
-721,064	800,000	-0,014	-0,043
-720,050	-200,000	0,012	0,042
-719,035	36,572	-0,150	-0,097
-718,021	-60,196	-0,098	-0,030
-717,006	57,760	-0,062	-0,044
-715,991	-200,000	-0,035	-0,115
-714,977	47,657	0,091	-0,062
-713,962	215,408	0,046	0,054
-712,948	41,761	0,077	0,051
-711,933	-62,879	-0,108	-0,033
-710,918	134,036	-0,074	0,070
-709,904	-200,000	-0,036	-0,121
-708,889	-82,981	-0,088	-0,021
-707,875	800,000	-0,018	-0,058
-706,860	28,520	-0,047	-0,029
-705,845	800,000	0,035	0,077
-704,831	295,728	-0,046	0,062
-703,816	-200,000	0,024	-0,083
-702,802	199,891	-0,050	0,056
-701,787	368,282	-0,080	0,119
-700,772	227,483	-0,109	0,130
-699,758	800,000	0,032	-0,065
-698,743	-200,000	-0,011	0,101
-697,729	214,676	0,052	0,060
-696,714	-58,745	-0,063	0,020
-695,699	-200,000	0,007	-0,032
-694,685	-55,407	0,112	-0,037
-693,670	117,763	-0,096	-0,087
-692,656	50,649	-0,151	0,105
-691,641	234,545	0,043	0,052
-690,627	277,987	-0,073	0,096
-689,612	-200,000	-0,028	0,136
-688,597	-26,882	0,035	-0,015
-687,583	-200,000	-0,033	-0,192
-686,568	800,000	0,026	-0,061
-685,554	401,823	-0,037	0,057
-684,539	703,708	0,027	-0,053
-683,524	-200,000	0,014	0,050
-682,510	-70,905	0,061	-0,017
-681,495	591,751	-0,019	-0,035
-680,481	-200,000	-0,006	-0,040
-679,466	800,000	0,056	-0,118
-678,451	-169,488	0,076	0,002
-677,437	-36,363	0,089	-0,035
-676,422	-200,000	-0,021	0,172
-675,408	240,623	-0,057	0,070
-674,393	-99,348	-0,164	0,030
-673,378	800,000	-0,017	-0,043
-672,364	67,744	-0,028	0,021
-671,349	-200,000	0,013	-0,069
-670,335	70,980	-0,158	0,120
-669,320	269,447	-0,061	-0,079
-668,305	-200,000	-0,027	0,179
-667,291	188,311	0,033	0,036
-666,276	800,000	-0,006	0,018
-665,262	800,000	-0,081	-0,172
-664,247	100,178	0,140	-0,119
-663,232	111,310	-0,120	0,106
-662,218	351,529	0,024	-0,034
-661,203	151,773	0,083	-0,083
-660,189	-200,000	-0,015	-0,082
-659,174	127,153	0,186	-0,173
-658,159	74,855	-0,143	-0,111
-657,145	67,503	-0,117	-0,088
-656,130	-93,933	0,061	0,012
-655,116	-85,792	0,110	-0,025
-654,101	511,622	0,018	0,031
-653,086	-169,785	-0,122	0,003
-652,072	-200,000	0,010	-0,126
-651,057	273,170	-0,030	-0,039
-650,043	-22,765	-0,051	-0,023
-649,028	93,097	-0,059	-0,049
-648,014	60,097	0,059	0,043
-646,999	129,983	0,032	0,030
-645,984	-200,000	-0,029	0,239
-644,970	60,707	-0,079	-0,058
-643,955	200,712	-0,086	-0,098
-642,941	-57,146	-0,027	-0,009
-641,926	-48,396	-0,054	-0,019
-640,911	-200,000	-0,018	0,084
-639,897	-100,527	0,160	-0,029
-638,882	474,035	-0,068	-0,113
-637,868	574,372	-0,004	-0,007
-636,853	34,629	-0,075	-0,048
-635,838	20,132	0,033	0,020
-634,824	43,618	0,064	0,043
-633,809	-200,000	-0,013	-0,093
-632,795	112,384	-0,040	0,036
-631,780	800,000	0,018	-0,051
-630,765	363,066	-0,036	0,053
-629,751	-200,000	0,014	-0,096
-628,736	25,394	-0,179	-0,109
-627,722	-79,063	-0,045	-0,011
-626,707	800,000	-0,058	-0,153
-625,692	-200,000	0,030	0,097
-624,678	-200,000	0,004	0,033
-623,663	-167,404	-0,121	-0,004
-622,649	388,892	-0,033	0,051
-621,634	311,343	-0,048	0,066
-620,619	-200,000	-0,003	0,057
-619,605	-91,509	0,055	-0,011
-618,590	800,000	-0,043	0,134
-617,576	-200,000	0,008	0,050
-616,561	87,418	-0,071	0,058
-615,546	141,399	-0,035	0,034
-614,532	103,265	-0,080	-0,069
-613,517	44,525	-0,017	0,012
-612,503	800,000	0,031	-0,063
-611,488	-200,000	0,005	0,046
-610,474	-103,242	0,087	-0,015
-609,459	-200,000	-0,006	-0,070
-608,444	-156,563	-0,114	0,005
-607,430	300,482	-0,093	-0,127
-606,415	-121,953	0,047	0,006
-605,401	165,911	-0,088	0,092
-604,386	-87,274	0,065	0,014
-603,371	-200,000	-0,008	-0,028
-602,357	229,363	-0,077	0,092
-601,342	-64,119	-0,105	0,031
-600,328	272,522	0,046	-0,059
-599,313	-200,000	0,004	0,051
-598,298	-48,608	0,132	0,046
-597,284	-124,374	-0,046	-0,005
-596,269	-23,024	-0,044	0,019
-595,255	-200,000	0,005	0,031
-594,240	572,820	-0,047	0,084
-593,225	130,295	0,017	0,016
-592,211	-122,629	-0,085	-0,010
-591,196	-124,288	-0,165	0,019
-590,182	252,585	0,041	0,051
-589,167	173,898	0,095	-0,101
-588,152	-46,131	0,015	0,005
-587,138	-131,236	0,075	0,007
-586,123	-200,000	-0,011	0,058
-585,109	-133,482	0,070	-0,006
-584,094	-12,718	0,106	0,051
-583,079	-78,412	0,051	-0,013
-582,065	-200,000	0,003	0,012
-581,050	-166,294	0,088	0,003
-580,036	521,935	0,028	0,049
-579,021	369,218	0,053	-0,079
-578,006	579,707	-0,029	-0,052
-576,992	174,000	-0,076	0,081
-575,977	-41,188	0,142	-0,053
-574,963	800,000	0,018	0,042
-573,948	-56,935	0,079	0,026
-572,934	38,191	-0,038	0,025
-571,919	261,053	-0,076	0,097
-570,904	-200,000	-0,012	-0,056
-569,890	-200,000	0,011	0,053
-568,875	21,105	0,126	0,074
-567,861	138,712	-0,064	-0,061
-566,846	351,118	0,097	0,140
-565,831	224,436	0,049	-0,058
-564,817	12,017	-0,080	0,045
-563,802	-59,926	0,028	-0,009
-562,788	48,324	0,045	-0,031
-561,773	-200,000	0,025	-0,123
-560,758	-79,021	0,073	0,018
-559,744	-200,000	-0,011	0,103
-558,729	-200,000	-0,010	0,089
-557,715	-35,115	-0,178	-0,071
-556,700	106,354	-0,158	-0,137
-555,685	53,962	-0,146	-0,103
-554,671	12,434	-0,042	0,023
-553,656	722,557	0,025	-0,050
-552,642	677,418	0,057	-0,109
-551,627	392,008	0,048	-0,073
-550,612	-111,345	-0,013	0,002
-549,598	427,092	0,015	-0,024
-548,583	225,490	-0,090	-0,107
-547,569	-200,000	0,002	-0,075
-546,554	-200,000	0,027	0,146
-545,539	103,086	0,071	0,061
-544,525	36,597	0,120	-0,077
-543,510	-115,155	0,047	0,006
-542,496	-200,000	0,008	-0,117
-541,481	-73,776	-0,120	0,032
-540,466	-104,094	-0,089	0,015
-539,452	722,095	-0,018	-0,036
-538,437	46,127	-0,120	0,081
-537,423	800,000	-0,013	0,026
-536,408	733,091	0,032	0,062
-535,393	-166,981	-0,088	-0,003
-534,379	131,255	-0,158	-0,149
-533,364	-200,000	-0,004	-0,122
-532,350	155,293	0,098	0,098
-531,335	556,112	0,056	-0,100
-530,321	-200,000	0,003	0,033
-529,306	-200,000	-0,010	0,080
-528,291	800,000	0,029	-0,082
-527,277	-200,000	0,012	-0,158
-526,262	90,525	-0,095	0,077
-525,248	177,806	0,038	-0,041
-524,233	66,379	-0,119	0,088
-523,218	264,993	-0,056	0,072
-522,204	-86,546	-0,103	0,023
-521,189	194,832	0,035	-0,039
-520,175	583,351	-0,032	-0,057
-519,160	-200,000	-0,007	-0,034
-518,145	-22,147	0,103	0,045
-517,131	-200,000	-0,000	0,141
-516,116	-48,455	0,114	0,040
-515,102	800,000	-0,019	-0,044
-514,087	-36,199	0,065	0,025
-513,072	28,497	-0,042	-0,026
-512,058	-96,855	0,033	-0,006
-511,043	-61,250	0,092	0,028
-510,029	228,710	-0,019	0,023
-509,014	800,000	0,032	-0,078
-507,999	-200,000	0,014	0,067
-506,985	122,947	0,058	0,053
-505,970	-25,359	-0,062	-0,027
-504,956	63,111	-0,094	-0,068
-503,941	-17,318	0,083	-0,038
-502,926	-200,000	0,016	-0,090
-501,912	150,703	0,122	0,121
-500,897	-200,000	-0,003	0,056
-499,883	333,340	-0,042	0,059
-498,868	346,710	-0,031	-0,045
-497,853	653,378	0,029	-0,055
-496,839	294,915	0,160	-0,214
-495,824	132,653	-0,062	0,059
-494,810	192,492	-0,006	0,007
-493,795	82,829	0,024	-0,019
-492,781	-200,000	0,012	-0,043
-491,766	637,065	-0,047	-0,087
-490,751	-200,000	-0,005	-0,032
-489,737	-121,216	-0,081	-0,010
-488,722	-73,923	0,161	0,042
-487,708	728,475	0,043	0,085
-486,693	-119,177	0,102	-0,013
-485,678	-51,226	-0,019	-0,007
-484,664	478,365	0,033	-0,054
-483,649	-200,000	0,003	-0,010
-482,635	800,000	-0,028	0,088
-481,620	800,000	0,033	-0,083
-480,605	-134,561	0,108	0,010
-479,591	660,198	0,035	0,067
-478,576	137,300	-0,044	-0,042
-477,562	47,217	-0,030	-0,020
-476,547	49,205	0,019	-0,013
-475,532	-72,458	0,118	-0,031
-474,518	-200,000	-0,003	0,038
-473,503	3,606	0,044	0,023
-472,489	-200,000	0,045	0,212
-471,474	-27,714	0,061	-0,026
-470,459	-200,000	0,015	-0,133
-469,445	159,840	-0,061	-0,062
-468,430	-200,000	-0,025	0,115
-467,416	163,299	-0,052	-0,053
-466,401	37,178	0,059	0,038
-465,386	258,743	-0,058	0,073
-464,372	774,563	0,017	-0,034
-463,357	-200,000	-0,009	-0,056
-462,343	202,329	-0,098	-0,110
-461,328	106,449	0,071	0,062
-460,313	-111,381	0,049	-0,007
-459,299	-200,000	0,013	0,093
-458,284	-120,678	0,018	0,002
-457,270	800,000	0,021	0,047
-456,255	-200,000	0,038	-0,125
-455,241	-57,792	0,048	-0,015
-454,226	-200,000	-0,028	-0,132
-453,211	800,000	0,008	0,020
-452,197	-21,737	0,144	0,064
-451,182	-200,000	-0,008	0,097
-450,168	800,000	0,006	-0,018
-449,153	-200,000	0,025	-0,251
-448,138	121,652	0,023	-0,021
-447,124	-181,148	-0,186	-0,003
-446,109	800,000	0,050	0,126
-445,095	-10,290	-0,079	0,038
-444,080	-84,577	-0,164	-0,037
-443,065	518,423	0,029	-0,049
-442,051	265,321	0,091	-0,116
-441,036	285,359	0,132	-0,173
-440,022	284,888	0,108	-0,142
-439,007	60,091	-0,024	0,017
-437,992	187,032	0,031	-0,033
-436,978	-200,000	0,024	-0,090
-435,963	-200,000	0,022	-0,083
-434,949	-200,000	0,019	-0,112
-433,934	-69,945	-0,099	-0,027
-432,919	175,213	0,031	-0,033
-431,905	800,000	-0,026	-0,059
-430,890	53,316	0,043	0,030
-429,876	-79,473	0,114	0,028
-428,861	287,318	0,053	0,070
-427,846	-200,000	0,015	0,093
-426,832	-200,000	0,022	-0,126
-425,817	550,354	0,011	0,019
-424,803	-200,000	-0,017	-0,062
-423,788	-48,740	-0,131	-0,046
-422,773	-13,172	0,124	0,059
-421,759	373,666	-0,041	-0,061
-420,744	102,058	-0,053	-0,045
-419,730	391,729	-0,101	-0,153
-418,715	800,000	0,008	-0,017
-417,701	-96,626	-0,068	-0,013
-416,686	-200,000	0,023	0,121
-415,671	-200,000	-0,004	0,064
-414,657	427,923	0,066	0,105
-413,642	-68,115	0,096	0,027
-412,628	171,223	-0,093	0,097
-411,613	184,830	0,106	0,115
-410,598	383,897	0,042	0,064
-409,584	800,000	0,009	-0,019
-408,569	46,833	0,124	0,083
-407,555	340,423	-0,034	0,049
-406,540	323,810	-0,085	0,118
-405,525	-78,226	0,015	0,004
-404,511	72,047	-0,056	0,043
-403,496	800,000	0,013	-0,037
-402,482	20,704	0,136	0,080
-401,467	-90,554	-0,027	-0,006
-400,452	783,412	0,047	0,093
-399,438	9,869	-0,085	-0,047
-398,423	-138,412	0,050	-0,004
-397,409	-200,000	-0,016	-0,176
-396,394	-200,000	-0,003	-0,012
-395,379	-167,298	-0,132	0,004
-394,365	-200,000	0,027	-0,147
-393,350	7,427	0,181	0,098
-392,336	-73,541	-0,063	0,017
-391,321	196,027	-0,052	0,058
-390,306	800,000	-0,016	-0,033
-389,292	275,715	-0,012	-0,015
-388,277	800,000	-0,006	0,021
-387,263	-108,246	0,161	-0,025
-386,248	-200,000	-0,002	0,048
-385,233	-200,000	-0,009	0,090
-384,219	-28,645	0,084	0,035
-383,204	347,957	-0,010	0,015
-382,190	-200,000	0,007	-0,130
-381,175	-14,893	0,145	-0,067
-380,160	-200,000	0,022	-0,120
-379,146	7,958	0,071	-0,039
-378,131	-200,000	-0,008	-0,054
-377,117	-3,531	0,021	0,011
-376,102	35,213	-0,054	-0,034
-375,088	-200,000	-0,023	-0,115
-374,073	800,000	-0,028	-0,061
-373,058	311,742	0,084	0,115
-372,044	287,304	0,051	-0,067
-371,029	-200,000	0,006	0,065
-370,015	-123,416	0,182	-0,021
-369,000	398,415	-0,032	0,049
-367,985	-200,000	-0,029	-0,109
-366,971	-10,996	0,021	0,010
-365,956	56,309	0,173	-0,122
-364,942	800,000	0,053	0,107
-363,927	-200,000	0,011	0,052
-362,912	-61,581	-0,098	-0,030
-361,898	-25,256	-0,128	-0,055
-360,883	426,247	-0,088	0,138
-359,869	210,705	-0,097	0,111
-358,854	241,336	0,071	-0,086
-357,839	154,819	0,062	0,062
-356,825	800,000	-0,058	0,128
-355,810	230,874	0,037	0,044
-354,796	-90,737	-0,061	-0,013
-353,781	-200,000	0,006	-0,052
-352,766	-161,759	-0,059	-0,002
-351,752	343,141	-0,009	0,013
-350,737	16,138	0,123	-0,070
-349,723	-61,503	0,083	0,025
-348,708	-200,000	0,006	0,030
-347,693	-200,000	-0,007	-0,169
-346,679	-200,000	0,003	-0,088
-345,664	800,000	-0,016	0,049
-344,650	-125,791	0,119	-0,013
-343,635	800,000	-0,033	0,077
-342,620	-64,238	-0,105	0,031
-341,606	337,392	-0,038	0,053
-340,591	427,833	-0,080	-0,126
-339,577	97,548	-0,039	-0,033
-338,562	134,237	-0,012	-0,011
-337,548	-200,000	-0,018	-0,071
-336,533	800,000	-0,038	-0,078
-335,518	-200,000	-0,024	-0,142
-334,504	26,529	-0,064	0,038
-333,489	-164,237	-0,021	-0,001
-332,475	50,970	-0,076	-0,052
-331,460	-200,000	0,024	0,115
-330,445	-200,000	0,005	0,023
-329,431	-200,000	0,020	-0,132
-328,416	-200,000	0,039	-0,132
-327,402	-24,493	-0,059	0,026
-326,387	-200,000	-0,008	0,067
-325,372	346,878	0,034	0,048
-324,358	800,000	-0,052	0,145
-323,343	-71,919	-0,022	0,006
-322,329	800,000	-0,060	-0,128
-321,314	-200,000	-0,006	0,021
-320,299	-200,000	0,019	0,138
-319,285	630,338	-0,060	-0,110
-318,270	-200,000	-0,000	0,027
-317,256	-176,181	0,108	0,002
-316,241	-200,000	-0,006	-0,040
-315,226	71,005	0,028	0,021
-314,212	-99,801	0,040	-0,007
-313,197	-76,884	-0,057	0,014
-312,183	-183,479	-0,064	0,001
-311,168	-200,000	-0,013	-0,085
-310,153	-30,215	-0,036	-0,015
-309,139	237,611	-0,078	-0,094
-308,124	-200,000	-0,009	-0,039
-307,110	800,000	-0,015	0,031
-306,095	-200,000	0,006	0,110
-305,080	-200,000	-0,032	0,128
-304,066	-47,800	-0,037	-0,013
-303,051	-107,184	-0,118	-0,019
-302,037	-28,147	0,054	-0,023
-301,022	-134,544	-0,029	0,003
-300,008	69,754	0,085	0,063
-298,993	-116,333	0,027	-0,004
-297,978	-200,000	-0,063	0,000
-296,964	-200,000	0,000	0,005
-295,949	444,755	-0,010	-0,016
-294,935	-45,636	0,081	0,029
-293,920	229,510	-0,081	0,096
-292,905	-200,000	0,036	0,140
-291,891	-49,563	0,105	-0,036
-290,876	-200,000	0,010	-0,172
-289,862	59,552	-0,050	0,035
-288,847	-26,051	-0,167	-0,071
-287,832	800,000	0,025	-0,076
-286,818	-120,665	-0,046	-0,006
-285,803	52,815	0,121	-0,084
-284,789	-158,417	-0,158	-0,007
-283,774	126,957	-0,063	0,058
-282,759	233,220	0,072	-0,086
-281,745	-174,736	-0,047	-0,001
-280,730	-45,620	-0,100	0,035
-279,716	40,981	-0,116	0,076
-278,701	-200,000	-0,003	-0,038
-277,686	-200,000	0,004	0,065
-276,672	-200,000	0,002	0,054
-275,657	286,825	0,055	-0,072
-274,643	-42,749	-0,147	-0,054
-273,628	656,975	-0,042	-0,079
-272,613	733,356	-0,018	0,036
-271,599	3,001	0,126	0,066
-270,584	406,464	0,077	0,118
-269,570	-79,129	0,114	-0,028
-268,555	-110,519	-0,080	0,012
-267,540	-81,076	-0,103	0,024
-266,526	118,979	0,088	-0,079
-265,511	800,000	0,029	-0,088
-264,497	-200,000	-0,017	-0,054
-263,482	216,925	0,082	0,095
-262,467	-200,000	-0,006	0,055
-261,453	713,308	-0,020	0,039
-260,438	382,560	-0,016	0,024
-259,424	325,262	-0,072	-0,100
-258,409	-164,195	0,114	-0,004
-257,395	85,140	0,120	0,095
-256,380	800,000	-0,018	0,047
-255,365	-83,782	-0,023	0,005
-254,351	124,616	-0,058	-0,053
-253,336	-135,837	-0,066	0,006
-252,322	-38,153	-0,197	-0,075
-251,307	167,750	0,018	-0,018
-250,292	800,000	-0,017	-0,036
-249,278	25,381	0,088	0,053
-248,263	-200,000	-0,017	0,081
-247,249	-200,000	0,002	0,110
-246,234	-200,000	0,015	-0,058
-245,219	-32,222	-0,089	-0,036
-244,205	-41,849	0,079	0,029
-243,190	-132,726	0,014	0,001
-242,176	412,752	0,020	-0,030
-241,161	800,000	0,056	0,127
-240,146	68,682	-0,149	0,111
-239,132	130,980	-0,064	-0,059
-238,117	-107,674	-0,099	-0,015
-237,103	800,000	-0,029	-0,062
-236,088	97,684	-0,030	-0,025
-235,073	-200,000	0,016	0,131
-234,059	159,179	0,062	0,063
-233,044	-200,000	0,003	0,037
-232,030	58,251	-0,118	0,083
-231,015	129,998	0,051	-0,047
-230,000	-132,305	-0,070	-0,006
-228,986	-24,521	0,049	-0,021
-227,971	449,089	0,083	0,132
-226,957	413,548	0,030	-0,047
-225,942	-25,277	0,082	0,035
-224,927	2,228	-0,084	0,044
-223,913	83,628	0,027	0,021
-222,898	-119,798	-0,068	-0,008
-221,884	-86,333	-0,133	0,029
-220,869	474,178	-0,027	-0,044
-219,855	162,611	-0,088	0,089
-218,840	439,098	-0,080	0,126
-217,825	-200,000	-0,003	0,184
-216,811	724,876	-0,029	-0,055
-215,796	800,000	0,029	-0,084
-214,782	-19,677	-0,120	0,054
-213,767	190,401	0,058	0,063
-212,752	715,144	-0,031	0,060
-211,738	-200,000	0,004	-0,100
-210,723	40,923	0,086	-0,056
-209,709	-186,519	0,102	-0,001
-208,694	10,219	-0,072	-0,039
-207,679	-56,226	0,096	0,031
-206,665	394,847	0,010	-0,015
-205,650	-200,000	0,007	0,129
-204,636	83,962	0,107	-0,085
-203,621	56,530	-0,040	-0,028
-202,606	81,528	-0,066	0,051
-201,592	800,000	-0,027	-0,083
-200,577	-45,437	0,130	0,046
-199,563	-130,610	-0,036	-0,004
-198,548	674,170	0,047	0,089
-197,533	-200,000	-0,001	-0,019
-196,519	100,070	-0,109	-0,091
-195,504	-166,952	0,088	0,003
-194,490	-200,000	-0,008	-0,106
-193,475	-200,000	0,006	-0,052
-192,460	426,723	-0,018	0,028
-191,446	800,000	-0,010	0,030
-190,431	-200,000	0,021	0,192
-189,417	-3,027	-0,030	-0,015
-188,402	-29,554	0,015	-0,006
-187,387	334,972	-0,059	0,083
-186,373	-146,264	0,123	0,008
-185,358	262,947	-0,029	-0,036
-184,344	65,796	0,084	0,061
-183,329	800,000	0,038	-0,095
-182,315	-183,581	-0,096	-0,001
-181,300	48,814	-0,024	0,016
-180,285	174,632	-0,092	0,097
-179,271	-32,297	0,076	-0,030
-178,256	-190,182	0,114	0,001
-177,242	-113,513	0,102	0,014
-176,227	-200,000	0,008	0,149
-175,212	800,000	0,020	0,052
-174,198	-93,875	-0,084	0,016
-173,183	117,052	-0,120	-0,107
-172,169	-133,736	0,068	-0,006
-171,154	-30,006	0,037	-0,015
-170,139	-200,000	0,009	0,056
-169,125	3,356	0,067	0,035
-168,110	800,000	0,055	0,127
-167,096	-162,478	0,137	-0,005
-166,081	-200,000	-0,030	-0,107
-165,066	-200,000	0,018	-0,178
-164,052	33,179	-0,155	-0,097
-163,037	-132,218	0,031	0,003
-162,023	-200,000	0,005	0,024
-161,008	124,898	-0,012	-0,011
-159,993	-22,482	0,114	0,049
-158,979	800,000	0,007	0,022
-157,964	29,814	-0,089	0,055
-156,950	-60,882	-0,018	-0,006
-155,935	-200,000	-0,002	0,074
-154,920	-24,949	0,147	0,063
-153,906	389,461	0,079	0,119
-152,891	133,266	0,074	-0,069
-151,877	-200,000	-0,016	0,072
-150,862	-129,392	-0,098	-0,010
-149,847	-200,000	-0,010	-0,125
-148,833	137,800	-0,076	0,072
-147,818	-42,685	0,048	0,018
-146,804	-200,000	0,021	-0,136
-145,789	256,286	-0,056	-0,070
-144,775	12,103	-0,059	-0,032
-143,760	-159,555	-0,050	0,002
-142,745	244,686	-0,019	-0,023
-141,731	-22,651	-0,029	-0,013
-140,716	-115,247	-0,047	-0,006
-139,702	-200,000	-0,027	-0,108
-138,687	218,389	-0,030	0,035
-137,672	-39,104	-0,100	-0,038
-136,658	-200,000	-0,021	-0,092
-135,643	88,777	-0,027	-0,022
-134,629	-73,969	0,038	0,010
-133,614	253,443	0,059	0,073
-132,599	114,252	0,086	-0,076
-131,585	48,839	-0,065	-0,044
-130,570	-31,962	-0,100	-0,040
-129,556	-200,000	0,002	0,011
-128,541	-200,000	-0,007	-0,108
-127,526	-149,931	0,044	-0,002
-126,512	794,951	0,010	0,020
-125,497	800,000	0,041	0,095
-124,483	800,000	0,006	-0,016
-123,468	-5,933	-0,056	0,027
-122,453	800,000	0,044	-0,102
-121,439	-200,000	0,014	0,112
-120,424	-187,397	0,062	-0,001
