DTS Sentinel unit serial number:	SN410029Multiplexer serial number:	ORYXHardware model number:	OX2-SRSoftware version number:	ORYX F/W v4,00 Oryx Data Collector v3.7.2.0data status	okinstallation	B5 Nyhavnadifferential loss correction	single-endedforward channel	channel 2reverse channel	N/Adate	2023/12/13time	02:07:13forward acquisition time	300,00reverse acquisition time	0,00gamma	499,1914k internal	0,3160k external	0,3160temperature offset calibration	1,0000default loss term (dB/km)	0,3820temperature slope calibration	1,0000multiplexer offset coefficient	1,0000multiplexer slope coefficient	1,0000fibre end	0,00T internal ref (°C)	14,05T ext. ref 1 (°C)	-2,41T ext. ref 2 (°C)	-2,72length (m)	temperature (°C)	Stokes	anti-Stokes-744,400	147,846	0,047	-0,047
-743,385	-108,154	-0,193	-0,030
-742,371	59,577	0,044	0,032
-741,356	-76,050	-0,225	0,058
-740,342	-200,000	0,011	0,128
-739,327	-138,311	-0,471	0,038
-738,312	800,000	0,060	0,137
-737,298	-179,422	-0,255	0,004
-736,283	256,084	0,029	0,037
-735,269	31,136	-0,198	0,125
-734,254	41,457	0,102	0,068
-733,239	-41,039	-0,393	-0,149
-732,225	-19,936	0,220	0,100
-731,210	192,586	-0,047	0,052
-730,196	800,000	-0,045	0,125
-729,181	-200,000	0,005	0,112
-728,167	800,000	0,038	0,110
-727,152	800,000	-0,036	-0,088
-726,137	-150,110	-0,047	0,003
-725,123	-148,538	-0,100	-0,006
-724,108	-87,826	-0,186	-0,041
-723,094	186,260	-0,073	0,080
-722,079	-200,000	-0,017	-0,097
-721,064	-200,000	-0,036	-0,149
-720,050	-74,358	-0,092	0,024
-719,035	-200,000	-0,054	0,213
-718,021	-49,478	-0,073	-0,026
-717,006	14,972	-0,097	-0,056
-715,991	117,111	-0,170	-0,154
-714,977	-17,309	0,082	0,038
-713,962	541,709	-0,092	-0,162
-712,948	-200,000	0,007	0,079
-711,933	-200,000	-0,026	-0,106
-710,918	-21,417	-0,115	0,052
-709,904	-200,000	0,009	-0,107
-708,889	42,117	-0,134	-0,089
-707,875	-64,840	-0,048	-0,014
-706,860	-157,551	-0,111	-0,005
-705,845	-42,800	0,081	0,030
-704,831	-200,000	0,014	0,080
-703,816	74,267	-0,060	-0,047
-702,802	-114,141	0,119	0,017
-701,787	-158,326	-0,096	-0,004
-700,772	67,634	-0,050	-0,038
-699,758	-66,762	-0,061	-0,018
-698,743	457,410	0,066	0,108
-697,729	61,525	0,127	0,092
-696,714	2,372	0,045	-0,024
-695,699	119,293	-0,081	-0,074
-694,685	-53,333	-0,115	0,039
-693,670	109,639	-0,104	-0,092
-692,656	-200,000	-0,003	0,011
-691,641	-164,449	0,061	-0,002
-690,627	77,406	-0,028	0,022
-689,612	-30,790	0,063	0,026
-688,597	-200,000	0,001	-0,006
-687,583	-97,262	-0,129	-0,024
-686,568	800,000	-0,052	-0,123
-685,554	55,084	-0,069	-0,049
-684,539	27,700	0,080	0,049
-683,524	-153,839	-0,101	-0,005
-682,510	-200,000	0,001	0,035
-681,495	144,276	0,062	-0,061
-680,481	-47,449	-0,107	0,038
-679,466	77,568	0,107	-0,083
-678,451	800,000	0,068	-0,144
-677,437	-200,000	-0,012	-0,070
-676,422	651,151	0,022	0,041
-675,408	-156,298	-0,116	-0,005
-674,393	-52,489	0,098	-0,033
-673,378	193,996	-0,085	-0,094
-672,364	800,000	-0,040	0,085
-671,349	-90,708	-0,125	-0,026
-670,335	175,104	-0,007	-0,007
-669,320	115,018	0,047	-0,042
-668,305	94,981	0,159	0,133
-667,291	-58,676	-0,052	0,016
-666,276	-54,696	-0,178	0,059
-665,262	51,719	0,021	0,015
-664,247	102,579	-0,038	0,032
-663,232	-68,431	0,147	-0,042
-662,218	800,000	0,027	0,064
-661,203	800,000	-0,054	0,127
-660,189	718,397	0,023	-0,046
-659,174	-200,000	-0,001	-0,127
-658,159	-200,000	0,001	-0,020
-657,145	360,015	-0,059	-0,088
-656,130	-200,000	0,002	0,066
-655,116	185,298	-0,102	0,112
-654,101	-130,174	-0,080	0,008
-653,086	288,332	0,038	0,051
-652,072	745,659	-0,025	-0,049
-651,057	397,715	-0,093	-0,143
-650,043	201,899	0,110	-0,125
-649,028	800,000	-0,053	-0,116
-648,014	-200,000	0,003	-0,059
-646,999	-4,895	-0,081	0,041
-645,984	-200,000	0,056	0,254
-644,970	-133,932	-0,029	0,003
-643,955	-200,000	0,026	-0,086
-642,941	499,969	-0,050	-0,085
-641,926	800,000	0,019	0,050
-640,911	-200,000	0,003	-0,067
-639,897	-200,000	-0,028	0,123
-638,882	-109,416	-0,081	0,012
-637,868	-25,805	0,046	0,020
-636,853	-77,443	-0,147	0,037
-635,838	160,415	0,044	-0,045
-634,824	680,888	0,090	-0,172
-633,809	113,452	0,052	-0,047
-632,795	-200,000	-0,002	-0,023
-631,780	-200,000	-0,033	0,126
-630,765	-73,953	-0,123	0,033
-629,751	-175,471	-0,024	0,000
-628,736	-31,584	0,056	-0,023
-627,722	78,981	-0,080	0,063
-626,707	255,573	0,040	0,050
-625,692	673,977	0,055	0,105
-624,678	-200,000	-0,020	-0,079
-623,663	-200,000	-0,024	0,107
-622,649	-32,776	-0,187	0,076
-621,634	800,000	-0,042	-0,106
-620,619	-200,000	0,007	-0,134
-619,605	-22,316	0,124	-0,055
-618,590	-200,000	-0,083	0,000
-617,576	-69,052	0,104	-0,029
-616,561	300,870	-0,054	0,073
-615,546	0,780	-0,132	-0,069
-614,532	92,566	-0,056	-0,046
-613,517	-123,395	0,036	0,004
-612,503	-200,000	-0,007	-0,102
-611,488	27,663	0,134	0,082
-610,474	20,697	0,109	0,065
-609,459	261,488	0,054	0,069
-608,444	-86,403	-0,046	-0,010
-607,430	413,396	-0,025	-0,040
-606,415	87,313	-0,057	-0,046
-605,401	330,288	-0,053	-0,074
-604,386	316,588	-0,073	0,101
-603,371	68,952	-0,056	-0,042
-602,357	-155,956	-0,103	0,005
-601,342	-200,000	-0,013	0,101
-600,328	-64,749	-0,075	-0,022
-599,313	800,000	0,083	-0,174
-598,298	320,784	0,054	-0,075
-597,284	-200,000	0,024	0,087
-596,269	15,934	0,041	0,023
-595,255	-200,000	0,016	0,079
-594,240	74,633	-0,047	0,036
-593,225	5,490	0,077	-0,041
-592,211	800,000	0,033	0,078
-591,196	150,387	0,133	-0,132
-590,182	-121,382	-0,018	-0,002
-589,167	17,038	0,063	-0,037
-588,152	-102,857	0,094	0,016
-587,138	-100,591	-0,042	-0,008
-586,123	-41,555	-0,060	-0,022
-585,109	-92,782	-0,081	-0,016
-584,094	8,642	0,082	0,045
-583,079	94,641	0,050	0,042
-582,065	-200,000	0,005	0,117
-581,050	421,286	0,006	-0,009
-580,036	21,999	0,024	0,014
-579,021	-200,000	-0,012	-0,047
-578,006	-200,000	0,009	-0,055
-576,992	-98,228	-0,042	-0,008
-575,977	-200,000	-0,023	-0,081
-574,963	134,219	-0,119	0,113
-573,948	34,492	0,152	-0,097
-572,934	-200,000	-0,006	-0,105
-571,919	110,565	-0,124	-0,109
-570,904	800,000	-0,053	-0,128
-569,890	800,000	0,015	0,033
-568,875	23,852	-0,022	-0,013
-567,861	-98,291	-0,121	-0,023
-566,846	-86,876	-0,079	-0,017
-565,831	150,552	0,032	-0,032
-564,817	-200,000	0,029	-0,164
-563,802	800,000	-0,048	-0,106
-562,788	223,156	-0,051	-0,060
-561,773	78,003	-0,141	-0,110
-560,758	144,601	0,058	-0,057
-559,744	-26,495	-0,047	-0,020
-558,729	-200,000	-0,020	0,117
-557,715	334,955	-0,031	-0,044
-556,700	229,637	-0,035	-0,042
-555,685	-200,000	-0,001	-0,069
-554,671	194,746	0,082	-0,091
-553,656	75,655	0,041	-0,032
-552,642	193,322	0,129	0,143
-551,627	-70,998	0,036	-0,010
-550,612	-200,000	0,040	-0,141
-549,598	-59,680	-0,022	0,007
-548,583	-200,000	0,005	-0,135
-547,569	-200,000	-0,007	0,068
-546,554	-200,000	0,020	0,111
-545,539	52,879	-0,070	-0,049
-544,525	-22,499	-0,059	0,026
-543,510	800,000	0,018	-0,049
-542,496	-200,000	-0,018	-0,111
-541,481	-200,000	0,006	-0,044
-540,466	-200,000	-0,004	0,121
-539,452	-49,781	0,061	0,021
-538,437	-178,845	-0,091	-0,001
-537,423	-18,635	0,002	-0,001
-536,408	245,225	-0,042	0,052
-535,393	-16,192	-0,118	0,054
-534,379	502,536	-0,040	-0,067
-533,364	-155,510	-0,027	-0,001
-532,350	-170,657	0,037	0,001
-531,335	-100,048	-0,102	-0,018
-530,321	-200,000	0,016	0,127
-529,306	800,000	0,048	0,099
-528,291	-72,791	-0,095	-0,025
-527,277	82,281	-0,086	-0,068
-526,262	91,366	0,096	-0,079
-525,248	629,885	0,032	0,059
-524,233	118,680	0,046	-0,042
-523,218	800,000	-0,017	0,039
-522,204	-200,000	-0,001	0,091
-521,189	6,235	0,064	-0,035
-520,175	-17,962	-0,063	0,029
-519,160	-200,000	0,024	0,083
-518,145	-200,000	-0,007	0,065
-517,131	-91,592	-0,123	-0,025
-516,116	257,944	0,035	-0,043
-515,102	-200,000	-0,015	0,055
-514,087	-200,000	0,003	-0,046
-513,072	-200,000	-0,002	0,011
-512,058	-28,259	-0,009	-0,004
-511,043	113,348	0,056	-0,050
-510,029	800,000	-0,050	-0,125
-509,014	442,772	0,045	0,072
-507,999	-61,915	0,051	-0,016
-506,985	481,146	0,049	0,081
-505,970	-200,000	0,018	-0,071
-504,956	-200,000	-0,013	-0,090
-503,941	-157,631	-0,145	-0,006
-502,926	38,038	0,090	-0,058
-501,912	-200,000	-0,025	-0,122
-500,897	-14,212	-0,003	-0,002
-499,883	-111,716	-0,192	-0,028
-498,868	-67,612	-0,143	-0,041
-497,853	135,100	-0,050	0,048
-496,839	-163,443	-0,024	-0,001
-495,824	800,000	0,035	0,102
-494,810	152,054	0,043	-0,043
-493,795	118,658	-0,035	0,031
-492,781	495,917	-0,011	-0,018
-491,766	800,000	0,034	-0,074
-490,751	-200,000	-0,007	-0,107
-489,737	-186,065	-0,048	-0,000
-488,722	121,704	0,093	0,084
-487,708	-166,705	-0,107	0,003
-486,693	800,000	0,050	0,127
-485,678	22,015	-0,108	-0,064
-484,664	271,454	-0,076	-0,098
-483,649	800,000	-0,025	0,051
-482,635	800,000	-0,005	-0,015
-481,620	-112,506	-0,065	-0,009
-480,605	210,200	0,087	0,099
-479,591	-70,900	0,132	0,036
-478,576	427,732	-0,144	0,227
-477,562	113,220	-0,095	-0,084
-476,547	135,740	0,063	0,060
-475,532	60,551	0,064	-0,046
-474,518	-79,442	-0,131	-0,032
-473,503	198,578	0,075	-0,083
-472,489	-200,000	0,017	-0,153
-471,474	420,436	0,043	0,068
-470,459	800,000	-0,055	-0,120
-469,445	-200,000	-0,006	-0,034
-468,430	-200,000	0,001	0,078
-467,416	15,342	-0,021	-0,012
-466,401	43,835	0,069	0,046
-465,386	278,469	0,063	-0,081
-464,372	2,792	0,157	0,083
-463,357	164,363	0,053	0,054
-462,343	800,000	-0,034	0,077
-461,328	-175,763	-0,189	0,004
-460,313	18,434	0,090	0,052
-459,299	-43,257	0,141	0,052
-458,284	-146,341	-0,008	0,000
-457,270	88,692	0,039	-0,032
-456,255	-25,943	-0,152	0,065
-455,241	-178,394	0,017	-0,000
-454,226	-91,088	-0,067	0,014
-453,211	800,000	0,014	-0,030
-452,197	800,000	-0,046	-0,131
-451,182	-200,000	-0,002	0,132
-450,168	-200,000	0,016	-0,094
-449,153	152,569	-0,122	0,122
-448,138	800,000	-0,041	-0,085
-447,124	800,000	-0,032	-0,091
-446,109	-200,000	0,014	0,091
-445,095	175,244	-0,125	-0,132
-444,080	-88,502	0,210	0,045
-443,065	203,082	0,042	0,048
-442,051	800,000	-0,001	0,003
-441,036	-75,861	0,044	-0,011
-440,022	-25,189	-0,107	-0,046
-439,007	-200,000	0,018	-0,090
-437,992	800,000	-0,026	0,077
-436,978	-200,000	-0,007	0,161
-435,963	-200,000	0,003	-0,027
-434,949	800,000	-0,035	0,099
-433,934	-155,535	-0,081	-0,004
-432,919	35,218	0,094	0,060
-431,905	298,855	-0,045	-0,060
-430,890	183,109	0,093	0,100
-429,876	-200,000	-0,015	0,086
-428,861	7,880	0,188	-0,102
-427,846	800,000	-0,068	-0,139
-426,832	-200,000	0,020	-0,109
-425,817	-38,533	0,053	-0,020
-424,803	-200,000	0,003	0,114
-423,788	-200,000	0,006	-0,066
-422,773	27,087	-0,044	-0,027
-421,759	320,754	0,063	0,087
-420,744	-200,000	0,025	-0,111
-419,730	-122,743	0,078	-0,009
-418,715	222,337	-0,103	-0,121
-417,701	-106,190	0,088	0,014
-416,686	-153,005	0,074	-0,004
-415,671	-200,000	0,002	-0,036
-414,657	-123,202	0,146	0,017
-413,642	-22,015	0,065	-0,029
-412,628	51,451	-0,110	0,076
-411,613	-59,867	-0,167	0,052
-410,598	-101,795	-0,103	-0,018
-409,584	279,933	-0,030	-0,039
-408,569	56,186	0,125	-0,088
-407,555	333,481	-0,082	0,116
-406,540	800,000	0,056	0,136
-405,525	-109,672	0,195	-0,030
-404,511	109,499	-0,152	0,133
-403,496	382,748	0,055	0,082
-402,482	138,954	0,042	-0,040
-401,467	-200,000	0,025	0,200
-400,452	-49,616	0,143	0,049
-399,438	128,649	0,069	0,064
-398,423	800,000	-0,035	-0,109
-397,409	77,788	-0,008	0,006
-396,394	-26,686	-0,046	0,020
-395,379	4,772	0,091	0,049
-394,365	800,000	0,008	-0,018
-393,350	518,330	-0,003	-0,006
-392,336	2,172	-0,033	0,017
-391,321	-160,490	0,151	0,006
-390,306	26,063	-0,111	-0,067
-389,292	-200,000	0,015	-0,110
-388,277	-200,000	-0,008	-0,088
-387,263	-103,177	0,109	0,019
-386,248	-200,000	0,009	0,061
-385,233	-119,253	0,136	-0,017
-384,219	-200,000	-0,034	0,167
-383,204	-64,005	-0,126	-0,037
-382,190	-102,404	0,141	0,024
-381,175	-200,000	0,033	-0,145
-380,160	800,000	0,022	-0,061
-379,146	-22,139	-0,068	0,030
-378,131	-169,268	0,089	-0,002
-377,117	498,582	0,045	0,076
-376,102	800,000	0,060	0,167
-375,088	-200,000	-0,009	0,111
-374,073	-200,000	0,009	-0,049
-373,058	-200,000	-0,026	0,170
-372,044	-146,947	0,062	0,004
-371,029	175,067	0,054	0,057
-370,015	148,375	0,058	0,057
-369,000	-200,000	0,019	0,095
-367,985	740,421	-0,059	-0,115
-366,971	366,548	-0,041	-0,061
-365,956	-200,000	-0,026	0,124
-364,942	-42,833	0,098	-0,036
-363,927	-200,000	-0,024	0,177
-362,912	161,609	-0,062	0,063
-361,898	433,374	0,035	-0,056
-360,883	-200,000	0,023	-0,078
-359,869	95,579	-0,113	0,093
-358,854	800,000	0,063	0,143
-357,839	530,318	0,037	0,063
-356,825	117,033	-0,037	-0,033
-355,810	86,097	-0,065	0,052
-354,796	-200,000	0,021	0,136
-353,781	-200,000	0,003	0,050
-352,766	124,731	-0,086	-0,078
-351,752	-80,532	0,188	0,045
-350,737	370,751	-0,068	0,100
-349,723	-200,000	-0,001	-0,009
-348,708	-200,000	0,002	0,110
-347,693	-118,380	0,165	-0,021
-346,679	-200,000	-0,004	-0,107
-345,664	-200,000	-0,009	-0,096
-344,650	117,815	0,075	0,067
-343,635	800,000	0,050	0,108
-342,620	500,650	-0,075	-0,126
-341,606	342,826	0,118	0,168
-340,591	-183,883	0,086	0,001
-339,577	6,314	0,100	-0,053
-338,562	510,243	0,030	-0,050
-337,548	145,527	-0,065	0,063
-336,533	-10,444	0,128	-0,061
-335,518	133,154	0,050	-0,047
-334,504	10,083	-0,083	-0,046
-333,489	-77,732	-0,066	0,016
-332,475	-72,453	0,043	-0,011
-331,460	224,002	0,047	-0,056
-330,445	-143,963	0,023	0,002
-329,431	528,217	0,032	0,056
-328,416	800,000	0,041	0,086
-327,402	800,000	-0,041	0,092
-326,387	160,148	0,090	0,091
-325,372	10,085	0,020	-0,011
-324,358	-19,577	0,034	-0,015
-323,343	12,212	-0,034	0,019
-322,329	246,854	0,125	0,153
-321,314	800,000	0,049	0,128
-320,299	157,508	0,092	-0,092
-319,285	221,223	-0,041	-0,048
-318,270	32,283	-0,075	-0,047
-317,256	10,520	0,159	-0,087
-316,241	-200,000	0,019	-0,119
-315,226	466,319	-0,046	0,076
-314,212	208,813	0,060	-0,068
-313,197	263,248	0,073	0,092
-312,183	800,000	0,039	0,082
-311,168	-200,000	-0,004	-0,028
-310,153	-200,000	-0,002	0,063
-309,139	-200,000	-0,031	-0,117
-308,124	-200,000	-0,002	0,024
-307,110	-96,181	0,065	-0,012
-306,095	-40,368	-0,054	0,020
-305,080	40,962	-0,187	0,122
-304,066	-89,788	-0,169	-0,036
-303,051	333,752	0,053	-0,074
-302,037	-24,892	0,056	0,024
-301,022	-200,000	0,007	-0,043
-300,008	800,000	-0,031	0,073
-298,993	73,837	0,069	0,052
-297,978	447,181	-0,067	-0,107
-296,964	610,355	0,079	-0,144
-295,949	135,950	0,120	-0,113
-294,935	800,000	-0,061	-0,158
-293,920	80,672	0,090	0,071
-292,905	430,922	-0,014	0,022
-291,891	-63,920	0,068	-0,020
-290,876	-200,000	0,004	0,041
-289,862	-200,000	-0,001	-0,019
-288,847	380,860	-0,049	0,074
-287,832	800,000	-0,007	-0,016
-286,818	-200,000	0,017	-0,220
-285,803	172,691	-0,087	0,091
-284,789	800,000	-0,037	-0,102
-283,774	79,060	-0,063	0,049
-282,759	709,550	-0,061	0,116
-281,745	800,000	0,026	-0,061
-280,730	-162,058	-0,114	-0,004
-279,716	-200,000	-0,006	0,048
-278,701	-32,178	-0,028	0,011
-277,686	23,254	-0,031	0,018
-276,672	-2,130	-0,037	0,019
-275,657	-200,000	0,021	-0,164
-274,643	-131,545	-0,010	-0,001
-273,628	-106,093	-0,153	-0,025
-272,613	-65,203	-0,061	-0,018
-271,599	-86,788	-0,046	0,010
-270,584	-32,065	-0,080	0,032
-269,570	468,594	-0,042	0,069
-268,555	72,251	0,018	0,014
-267,540	800,000	-0,013	0,038
-266,526	70,309	0,057	-0,042
-265,511	122,929	0,074	-0,067
-264,497	-200,000	-0,004	-0,040
-263,482	368,055	-0,025	0,036
-262,467	-200,000	-0,010	-0,089
-261,453	800,000	-0,060	-0,126
-260,438	125,524	-0,067	0,061
-259,424	3,300	-0,125	0,066
-258,409	-200,000	-0,028	-0,120
-257,395	-69,967	-0,101	-0,028
-256,380	-200,000	-0,003	0,051
-255,365	19,827	0,115	-0,067
-254,351	-200,000	-0,011	0,082
-253,336	-200,000	-0,007	0,057
-252,322	-200,000	-0,007	-0,111
-251,307	33,256	0,024	-0,015
-250,292	56,858	-0,124	-0,087
-249,278	-200,000	0,008	-0,054
-248,263	23,935	0,129	0,077
-247,249	252,872	0,034	0,042
-246,234	11,397	-0,149	-0,082
-245,219	-18,908	0,109	-0,049
-244,205	-81,332	-0,089	0,021
-243,190	-200,000	0,011	0,042
-242,176	83,018	0,057	0,045
-241,161	-57,071	0,038	0,012
-240,146	-75,730	-0,018	-0,005
-239,132	800,000	-0,046	0,124
-238,117	-200,000	0,019	-0,113
-237,103	-87,030	0,071	-0,016
-236,088	120,966	-0,013	0,011
-235,073	-20,533	0,090	0,040
-234,059	94,490	-0,083	-0,068
-233,044	550,417	-0,016	-0,028
-232,030	800,000	0,018	-0,039
-231,015	13,769	0,082	-0,046
-230,000	-109,595	-0,155	-0,023
-228,986	528,178	-0,009	-0,015
-227,971	153,487	0,084	0,083
-226,957	22,954	-0,038	0,022
-225,942	-200,000	0,040	0,186
-224,927	59,808	-0,051	-0,037
-223,913	365,548	-0,042	-0,062
-222,898	-71,264	-0,197	-0,053
-221,884	718,933	0,044	0,085
-220,869	-200,000	-0,000	-0,096
-219,855	800,000	-0,029	0,075
-218,840	-200,000	0,038	0,132
-217,825	131,089	-0,063	-0,059
-216,811	-120,004	-0,087	0,011
-215,796	-122,652	0,154	0,018
-214,782	506,402	0,019	0,033
-213,767	294,755	-0,047	0,062
-212,752	186,625	0,092	-0,099
-211,738	800,000	0,052	-0,108
-210,723	164,916	0,113	0,115
-209,709	63,012	-0,059	-0,042
-208,694	660,633	-0,074	-0,138
-207,679	-78,838	0,105	0,026
-206,665	800,000	-0,044	0,121
-205,650	400,740	0,023	0,035
-204,636	-108,931	0,097	-0,015
-203,621	-148,722	0,091	0,005
-202,606	350,152	0,084	-0,120
-201,592	282,030	-0,047	0,061
-200,577	-170,406	-0,072	-0,002
-199,563	484,470	0,023	0,037
-198,548	420,256	0,071	-0,109
-197,533	505,586	-0,077	0,130
-196,519	-34,896	0,065	-0,026
-195,504	-114,358	0,114	0,016
-194,490	800,000	0,015	0,032
-193,475	48,783	0,033	0,022
-192,460	52,617	-0,107	-0,073
-191,446	-114,017	0,092	0,013
-190,431	-86,103	0,112	-0,025
-189,417	30,067	-0,014	0,009
-188,402	-1,276	0,171	0,087
-187,387	57,359	0,061	-0,043
-186,373	800,000	-0,042	-0,111
-185,358	450,291	0,060	0,096
-184,344	800,000	-0,044	-0,105
-183,329	546,419	0,032	-0,056
-182,315	-200,000	-0,012	0,076
-181,300	-74,666	-0,071	0,018
-180,285	-53,536	0,069	-0,023
-179,271	49,248	-0,113	-0,077
-178,256	155,178	0,049	0,049
-177,242	140,483	-0,094	-0,089
-176,227	-136,309	-0,118	-0,010
-175,212	7,388	-0,087	0,047
-174,198	594,580	-0,035	0,063
-173,183	1,823	-0,051	-0,026
-172,169	-200,000	0,013	-0,116
-171,154	342,150	-0,026	-0,037
-170,139	-2,161	0,076	-0,038
-169,125	-200,000	-0,023	-0,120
-168,110	-141,513	0,019	-0,001
-167,096	-114,559	-0,071	0,010
-166,081	54,734	-0,105	0,073
-165,066	800,000	-0,026	-0,078
-164,052	770,046	0,054	0,107
-163,037	388,549	0,020	-0,030
-162,023	-200,000	0,018	0,110
-161,008	362,163	0,021	0,031
-159,993	-200,000	-0,041	0,134
-158,979	6,190	-0,051	0,027
-157,964	-106,406	0,057	-0,009
-156,950	26,301	-0,057	0,034
-155,935	-96,935	0,100	0,019
-154,920	-200,000	-0,004	-0,104
-153,906	-200,000	0,014	0,074
-152,891	-200,000	0,019	0,102
-151,877	346,205	0,072	-0,102
-150,862	-42,940	0,149	-0,054
-149,847	484,032	-0,029	0,047
-148,833	4,153	-0,120	0,063
-147,818	-200,000	-0,004	0,065
-146,804	-188,266	0,141	-0,001
-145,789	-2,840	-0,005	0,003
-144,775	339,940	-0,009	0,013
-143,760	-139,132	0,023	-0,002
-142,745	439,634	0,006	0,009
-141,731	11,126	-0,176	0,096
-140,716	588,546	-0,030	0,054
-139,702	93,306	-0,054	0,044
-138,687	800,000	-0,035	0,083
-137,672	-200,000	-0,022	0,098
-136,658	800,000	0,064	-0,166
-135,643	270,619	-0,043	-0,054
-134,629	-200,000	0,031	-0,106
-133,614	-113,090	-0,130	0,018
-132,599	-116,795	0,157	-0,020
-131,585	-200,000	0,019	0,152
-130,570	290,918	-0,070	-0,092
-129,556	-57,123	0,131	0,041
-128,541	-200,000	-0,004	0,032
-127,526	-86,091	0,070	0,015
-126,512	61,222	0,043	-0,031
-125,497	3,965	0,042	-0,022
-124,483	89,535	0,032	0,025
-123,468	-200,000	-0,024	-0,109
-122,453	-200,000	-0,025	-0,156
-121,439	800,000	0,050	0,104
-120,424	-200,000	0,012	0,102
-119,410	722,282	-0,034	-0,065
