DTS Sentinel unit serial number:	SN410029Multiplexer serial number:	ORYXHardware model number:	OX2-SRSoftware version number:	ORYX F/W v4,00 Oryx Data Collector v3.7.2.0data status	okinstallation	B5 Nyhavnadifferential loss correction	single-endedforward channel	channel 2reverse channel	N/Adate	2023/12/12time	11:37:13forward acquisition time	300,00reverse acquisition time	0,00gamma	499,1914k internal	0,3158k external	0,3158temperature offset calibration	1,0000default loss term (dB/km)	0,3820temperature slope calibration	1,0000multiplexer offset coefficient	1,0000multiplexer slope coefficient	1,0000fibre end	0,00T internal ref (°C)	15,10T ext. ref 1 (°C)	-1,06T ext. ref 2 (°C)	-1,32length (m)	temperature (°C)	Stokes	anti-Stokes-744,400	49,182	0,091	-0,063
-743,385	-99,732	-0,240	-0,044
-742,371	60,293	0,024	-0,018
-741,356	57,450	-0,284	0,204
-740,342	800,000	0,086	0,176
-739,327	-35,002	-0,345	-0,138
-738,312	-14,605	0,110	-0,052
-737,298	-130,176	-0,210	-0,021
-736,283	380,937	0,023	-0,034
-735,269	-197,909	-0,256	0,001
-734,254	-49,396	0,067	-0,023
-733,239	-22,497	-0,564	-0,251
-732,225	-79,602	0,158	0,039
-731,210	104,382	-0,115	0,099
-730,196	-200,000	-0,005	-0,039
-729,181	466,873	-0,008	0,013
-728,167	800,000	-0,025	0,064
-727,152	-14,087	-0,026	0,012
-726,137	800,000	-0,047	0,117
-725,123	198,902	0,082	0,092
-724,108	-200,000	-0,034	-0,143
-723,094	-176,381	-0,034	-0,001
-722,079	266,136	0,059	-0,075
-721,064	94,880	-0,106	-0,089
-720,050	-200,000	-0,005	0,047
-719,035	800,000	0,048	-0,140
-718,021	265,047	-0,043	0,056
-717,006	800,000	-0,092	-0,249
-715,991	189,257	-0,110	-0,122
-714,977	7,550	0,031	0,017
-713,962	96,632	0,069	-0,058
-712,948	-200,000	-0,001	-0,049
-711,933	-31,846	-0,002	0,001
-710,918	49,043	0,004	-0,003
-709,904	-62,457	-0,138	-0,042
-708,889	39,746	0,051	0,034
-707,875	118,505	-0,058	-0,053
-706,860	639,405	-0,016	-0,029
-705,845	-57,967	0,025	0,008
-704,831	62,932	0,070	-0,051
-703,816	-11,941	-0,114	-0,055
-702,802	800,000	0,024	0,065
-701,787	-200,000	0,006	-0,158
-700,772	800,000	0,044	-0,116
-699,758	-200,000	-0,022	-0,082
-698,743	252,926	0,127	0,160
-697,729	-200,000	0,014	0,068
-696,714	350,535	0,048	0,071
-695,699	113,159	-0,062	0,055
-694,685	457,430	0,011	0,019
-693,670	-23,772	-0,092	0,040
-692,656	-68,967	0,042	-0,012
-691,641	-200,000	-0,008	0,042
-690,627	35,824	0,113	-0,073
-689,612	800,000	-0,011	0,034
-688,597	14,900	-0,207	-0,119
-687,583	201,596	-0,035	-0,040
-686,568	-127,851	-0,066	0,007
-685,554	-41,771	0,141	0,053
-684,539	213,983	0,087	0,101
-683,524	216,028	0,054	0,064
-682,510	32,448	-0,025	-0,016
-681,495	-43,467	-0,159	0,059
-680,481	-200,000	-0,001	-0,110
-679,466	-200,000	0,001	-0,116
-678,451	800,000	0,034	-0,105
-677,437	-148,649	0,109	-0,006
-676,422	800,000	0,072	0,174
-675,408	25,561	-0,056	-0,034
-674,393	-81,394	-0,085	-0,021
-673,378	-151,653	-0,069	-0,004
-672,364	2,738	-0,079	0,042
-671,349	395,322	-0,045	0,069
-670,335	-116,327	-0,093	0,013
-669,320	102,024	-0,057	0,049
-668,305	64,392	0,024	-0,018
-667,291	29,811	-0,108	-0,068
-666,276	-9,354	-0,064	0,031
-665,262	800,000	-0,055	-0,132
-664,247	-26,636	-0,138	0,059
-663,232	15,851	0,091	-0,053
-662,218	-200,000	0,006	0,056
-661,203	-200,000	-0,026	-0,151
-660,189	214,499	-0,014	0,016
-659,174	496,003	-0,044	-0,075
-658,159	-45,744	-0,043	-0,016
-657,145	-200,000	-0,010	-0,105
-656,130	-75,168	0,029	-0,008
-655,116	-190,168	-0,010	0,000
-654,101	800,000	0,016	-0,051
-653,086	-200,000	-0,011	-0,062
-652,072	-146,989	0,085	-0,005
-651,057	115,274	-0,117	-0,105
-650,043	59,412	-0,034	-0,024
-649,028	-93,685	0,115	-0,023
-648,014	800,000	0,032	0,092
-646,999	-103,813	-0,095	0,016
-645,984	-105,561	0,064	0,010
-644,970	-200,000	-0,007	0,129
-643,955	247,438	0,016	-0,019
-642,941	318,541	0,041	-0,057
-641,926	621,436	0,039	-0,072
-640,911	119,386	-0,072	-0,066
-639,897	-63,916	0,092	0,027
-638,882	-79,510	-0,108	0,027
-637,868	16,326	-0,092	0,053
-636,853	756,699	0,069	-0,137
-635,838	381,672	0,087	-0,132
-634,824	80,858	0,009	0,007
-633,809	276,167	-0,069	-0,090
-632,795	-47,161	0,062	-0,022
-631,780	-35,046	-0,068	0,027
-630,765	-168,664	-0,114	0,003
-629,751	52,899	-0,069	-0,048
-628,736	212,647	-0,099	-0,115
-627,722	32,341	0,036	-0,023
-626,707	7,131	0,043	0,024
-625,692	-200,000	0,009	0,047
-624,678	800,000	0,022	0,072
-623,663	-150,403	-0,041	-0,002
-622,649	108,695	-0,102	-0,090
-621,634	-200,000	0,000	-0,005
-620,619	-11,107	-0,077	-0,037
-619,605	-28,336	0,148	0,062
-618,590	7,505	-0,043	0,023
-617,576	410,549	-0,056	0,087
-616,561	800,000	0,074	-0,178
-615,546	297,613	-0,102	-0,138
-614,532	-200,000	-0,008	0,075
-613,517	62,436	-0,056	-0,041
-612,503	665,835	0,005	-0,009
-611,488	158,059	0,092	-0,094
-610,474	176,013	0,048	-0,052
-609,459	19,041	-0,025	0,015
-608,444	-84,299	-0,043	0,010
-607,430	115,952	-0,024	0,022
-606,415	-23,288	-0,127	0,056
-605,401	302,055	0,021	-0,028
-604,386	-58,029	-0,021	0,007
-603,371	256,661	0,075	-0,095
-602,357	-65,167	0,067	0,020
-601,342	-38,173	0,053	0,020
-600,328	-46,322	-0,120	-0,043
-599,313	800,000	0,030	-0,086
-598,298	1,431	-0,086	-0,045
-597,284	-133,458	-0,066	0,006
-596,269	585,074	-0,033	-0,060
-595,255	-200,000	0,022	0,163
-594,240	-200,000	-0,001	0,071
-593,225	-77,064	-0,054	0,014
-592,211	800,000	0,017	0,040
-591,196	-200,000	-0,005	0,083
-590,182	-200,000	-0,023	0,078
-589,167	-31,774	-0,044	-0,018
-588,152	184,615	0,062	0,067
-587,138	-117,116	-0,064	-0,008
-586,123	800,000	0,020	-0,044
-585,109	-85,363	0,079	0,018
-584,094	-200,000	-0,024	0,116
-583,079	-200,000	-0,014	-0,122
-582,065	240,609	0,045	0,055
-581,050	52,646	0,119	0,083
-580,036	-144,455	-0,119	0,008
-579,021	-21,750	-0,126	-0,056
-578,006	-91,970	0,125	-0,026
-576,992	800,000	0,022	0,062
-575,977	16,389	0,099	-0,057
-574,963	40,623	-0,007	-0,005
-573,948	123,905	0,057	0,052
-572,934	-67,666	0,101	-0,029
-571,919	-47,317	-0,164	-0,058
-570,904	69,798	-0,125	-0,094
-569,890	-200,000	-0,008	0,029
-568,875	220,316	0,040	-0,047
-567,861	-61,451	-0,084	-0,026
-566,846	132,628	0,097	0,092
-565,831	-51,376	0,072	-0,024
-564,817	-200,000	-0,013	-0,060
-563,802	27,145	-0,186	0,114
-562,788	-43,798	0,137	0,050
-561,773	386,189	0,064	0,098
-560,758	-200,000	0,001	-0,011
-559,744	184,886	0,087	0,095
-558,729	46,782	-0,040	-0,027
-557,715	-164,194	-0,090	0,003
-556,700	800,000	0,019	-0,054
-555,685	476,618	0,064	-0,107
-554,671	-70,063	-0,061	0,017
-553,656	-173,833	-0,044	0,001
-552,642	1,362	0,061	0,032
-551,627	96,884	-0,065	-0,054
-550,612	141,936	-0,062	0,060
-549,598	26,392	-0,120	-0,073
-548,583	-200,000	0,017	-0,070
-547,569	-57,561	-0,100	0,032
-546,554	269,385	0,043	-0,055
-545,539	-54,493	-0,110	0,036
-544,525	94,353	-0,079	-0,066
-543,510	-200,000	0,030	-0,122
-542,496	180,436	0,112	-0,120
-541,481	-200,000	0,039	-0,132
-540,466	-75,144	-0,069	0,018
-539,452	485,129	-0,058	0,097
-538,437	800,000	0,093	0,199
-537,423	-20,837	-0,109	0,049
-536,408	-124,135	-0,203	-0,023
-535,393	-200,000	-0,030	-0,151
-534,379	548,298	-0,016	-0,028
-533,364	800,000	0,020	-0,048
-532,350	-173,673	0,193	0,004
-531,335	-200,000	0,011	0,148
-530,321	95,502	-0,102	0,085
-529,306	600,725	-0,028	0,051
-528,291	163,099	0,043	0,045
-527,277	-200,000	0,010	-0,093
-526,262	800,000	-0,039	0,091
-525,248	-117,630	-0,044	-0,006
-524,233	-200,000	0,040	0,145
-523,218	83,962	-0,054	0,043
-522,204	337,080	-0,041	0,058
-521,189	200,458	-0,039	0,044
-520,175	224,750	-0,049	-0,058
-519,160	-200,000	0,012	-0,143
-518,145	-200,000	-0,005	-0,075
-517,131	761,755	0,043	-0,087
-516,116	-160,723	0,022	-0,001
-515,102	563,401	-0,069	0,123
-514,087	218,143	-0,104	-0,122
-513,072	-200,000	-0,007	-0,070
-512,058	358,995	-0,038	0,056
-511,043	34,716	0,081	-0,052
-510,029	800,000	0,058	-0,131
-509,014	-200,000	0,187	-0,000
-507,999	4,995	-0,126	-0,067
-506,985	800,000	0,009	-0,024
-505,970	-91,602	0,029	-0,006
-504,956	800,000	-0,010	0,026
-503,941	800,000	0,036	-0,087
-502,926	-200,000	-0,031	-0,162
-501,912	347,635	0,029	0,042
-500,897	-68,210	-0,168	-0,048
-499,883	32,689	0,115	0,073
-498,868	-200,000	0,005	-0,055
-497,853	345,692	-0,092	-0,133
-496,839	-47,468	0,046	-0,016
-495,824	800,000	0,025	0,075
-494,810	-71,058	0,076	0,021
-493,795	215,750	-0,093	0,108
-492,781	261,769	0,006	-0,008
-491,766	-114,971	-0,156	-0,021
-490,751	-16,461	-0,118	-0,055
-489,737	-200,000	0,007	-0,028
-488,722	602,362	0,036	-0,066
-487,708	259,114	-0,019	0,024
-486,693	456,816	0,030	0,049
-485,678	-19,810	-0,060	0,027
-484,664	-173,590	-0,052	-0,001
-483,649	-200,000	-0,080	-0,267
-482,635	-200,000	-0,001	-0,073
-481,620	800,000	0,019	-0,054
-480,605	-200,000	0,005	0,086
-479,591	-46,971	0,091	0,032
-478,576	-200,000	-0,005	0,051
-477,562	-88,896	-0,073	-0,016
-476,547	11,889	-0,062	-0,034
-475,532	-53,739	0,100	-0,033
-474,518	-80,578	0,066	-0,016
-473,503	-73,371	0,095	-0,025
-472,489	-200,000	-0,013	0,100
-471,474	36,541	0,059	0,038
-470,459	-81,639	0,128	-0,030
-469,445	53,788	-0,091	0,064
-468,430	-200,000	-0,020	-0,160
-467,416	-89,967	0,107	0,023
-466,401	643,550	-0,015	0,028
-465,386	-200,000	-0,010	0,181
-464,372	159,934	-0,055	0,056
-463,357	114,652	-0,048	-0,042
-462,343	204,000	-0,025	-0,028
-461,328	-68,008	-0,049	0,014
-460,313	208,281	-0,016	0,018
-459,299	71,502	0,055	-0,041
-458,284	800,000	0,031	0,072
-457,270	-181,629	-0,025	0,000
-456,255	-64,481	-0,091	0,027
-455,241	-200,000	-0,010	0,032
-454,226	75,512	-0,102	0,078
-453,211	-200,000	0,007	-0,039
-452,197	-93,877	0,040	-0,008
-451,182	-122,054	-0,118	0,014
-450,168	253,919	0,047	0,059
-449,153	3,985	-0,261	-0,138
-448,138	-200,000	0,009	-0,049
-447,124	612,714	0,018	-0,033
-446,109	115,042	0,057	0,050
-445,095	27,059	0,040	-0,024
-444,080	800,000	0,010	0,024
-443,065	-152,877	-0,089	-0,005
-442,051	-200,000	-0,031	-0,103
-441,036	601,354	0,050	-0,091
-440,022	-97,359	0,051	0,010
-439,007	63,099	-0,107	-0,078
-437,992	43,092	0,085	0,056
-436,978	-200,000	-0,021	0,116
-435,963	133,205	-0,064	0,060
-434,949	-176,631	-0,153	-0,003
-433,934	800,000	-0,055	-0,149
-432,919	800,000	-0,050	-0,107
-431,905	58,495	-0,030	0,021
-430,890	-3,488	0,106	-0,054
-429,876	233,821	0,087	-0,104
-428,861	-70,397	-0,052	-0,014
-427,846	-100,772	0,064	-0,011
-426,832	800,000	0,041	-0,092
-425,817	-200,000	-0,032	-0,165
-424,803	-200,000	-0,019	0,129
-423,788	-200,000	0,036	0,124
-422,773	800,000	0,022	0,066
-421,759	-149,823	-0,140	0,008
-420,744	112,633	0,046	-0,041
-419,730	545,272	-0,061	-0,106
-418,715	-200,000	-0,011	0,039
-417,701	136,726	0,016	0,015
-416,686	-200,000	-0,013	-0,052
-415,671	54,822	0,056	-0,039
-414,657	-200,000	0,094	0,000
-413,642	-200,000	0,010	-0,126
-412,628	139,799	-0,035	-0,034
-411,613	161,678	-0,087	0,088
-410,598	389,948	0,008	-0,012
-409,584	-116,637	-0,013	-0,002
-408,569	-34,446	0,139	0,055
-407,555	-45,932	0,135	-0,048
-406,540	48,616	-0,176	0,120
-405,525	526,262	-0,013	-0,022
-404,511	160,723	-0,149	-0,151
-403,496	-179,205	0,025	0,000
-402,482	70,548	0,097	0,073
-401,467	-59,671	0,070	-0,022
-400,452	-56,963	-0,074	-0,024
-399,438	485,501	0,064	-0,107
-398,423	285,959	-0,025	-0,033
-397,409	20,880	-0,088	0,052
-396,394	-200,000	0,003	-0,070
-395,379	800,000	-0,060	-0,146
-394,365	-43,829	-0,125	0,046
-393,350	-80,670	0,080	-0,019
-392,336	-200,000	0,013	0,054
-391,321	78,462	-0,151	-0,117
-390,306	314,337	0,023	-0,031
-389,292	-200,000	0,023	0,093
-388,277	-146,210	-0,033	0,002
-387,263	800,000	0,052	0,131
-386,248	32,099	-0,065	-0,041
-385,233	498,029	-0,038	0,064
-384,219	5,462	0,180	0,096
-383,204	606,862	-0,031	-0,057
-382,190	-44,417	-0,062	0,022
-381,175	-200,000	-0,011	-0,057
-380,160	-200,000	0,002	-0,066
-379,146	-88,779	0,053	0,011
-378,131	-200,000	-0,002	0,036
-377,117	230,415	-0,097	0,115
-376,102	-22,436	0,049	-0,021
-375,088	800,000	-0,020	-0,047
-374,073	800,000	0,028	0,059
-373,058	-97,077	-0,042	-0,008
-372,044	-31,047	0,135	-0,055
-371,029	334,104	0,021	0,030
-370,015	-34,866	0,056	-0,022
-369,000	-200,000	0,001	-0,054
-367,985	-200,000	-0,016	-0,153
-366,971	62,515	0,058	0,042
-365,956	675,365	-0,034	0,064
-364,942	-200,000	0,016	0,086
-363,927	-200,000	0,000	-0,037
-362,912	83,553	0,093	0,074
-361,898	-130,258	-0,089	0,009
-360,883	118,972	-0,056	0,051
-359,869	113,939	0,052	0,045
-358,854	-200,000	-0,001	0,065
-357,839	-24,206	0,122	-0,053
-356,825	-200,000	0,006	-0,082
-355,810	-200,000	0,030	-0,123
-354,796	132,668	0,079	0,074
-353,781	-92,236	-0,023	-0,005
-352,766	800,000	-0,043	0,121
-351,752	-32,804	0,174	-0,070
-350,737	177,022	0,072	-0,076
-349,723	-200,000	-0,012	0,123
-348,708	-42,901	-0,036	0,013
-347,693	800,000	-0,009	-0,022
-346,679	800,000	-0,036	-0,082
-345,664	432,676	-0,048	-0,075
-344,650	282,019	0,109	0,143
-343,635	-200,000	-0,023	0,152
-342,620	800,000	-0,051	-0,150
-341,606	-200,000	0,108	0,000
-340,591	-200,000	-0,004	-0,103
-339,577	-200,000	0,009	0,088
-338,562	503,062	-0,050	-0,084
-337,548	800,000	0,010	0,029
-336,533	-200,000	0,009	-0,062
-335,518	118,795	0,134	0,120
-334,504	-200,000	-0,004	0,138
-333,489	-200,000	0,009	0,124
-332,475	800,000	0,025	-0,054
-331,460	-200,000	0,001	0,045
-330,445	-150,140	-0,134	0,007
-329,431	-84,902	-0,029	-0,006
-328,416	800,000	-0,067	0,186
-327,402	-200,000	0,006	0,063
-326,387	-200,000	-0,008	-0,120
-325,372	123,004	-0,081	-0,074
-324,358	24,263	-0,028	-0,017
-323,343	-26,015	0,137	-0,058
-322,329	-80,176	0,191	0,046
-321,314	55,808	0,064	0,045
-320,299	-200,000	-0,010	0,103
-319,285	256,541	0,067	-0,084
-318,270	109,896	0,077	-0,067
-317,256	394,368	-0,128	-0,194
-316,241	-200,000	0,013	0,057
-315,226	-52,364	0,147	0,049
-314,212	473,049	-0,045	0,074
-313,197	161,256	0,145	0,147
-312,183	-48,728	-0,135	-0,047
-311,168	-36,657	0,051	0,020
-310,153	53,649	0,075	-0,052
-309,139	-200,000	-0,045	0,190
-308,124	-200,000	-0,004	0,045
-307,110	800,000	0,079	0,183
-306,095	74,101	-0,136	0,103
-305,080	-200,000	-0,002	-0,073
-304,066	-200,000	-0,010	0,130
-303,051	800,000	0,074	-0,159
-302,037	800,000	-0,044	0,105
-301,022	-200,000	-0,002	0,029
-300,008	61,162	0,112	0,080
-298,993	-46,014	0,087	-0,031
-297,978	109,234	-0,047	0,040
-296,964	-101,072	-0,053	-0,009
-295,949	-88,241	0,076	0,016
-294,935	-200,000	0,026	-0,089
-293,920	13,240	0,098	-0,055
-292,905	-200,000	0,023	0,124
-291,891	103,405	0,050	0,043
-290,876	91,340	0,029	-0,024
-289,862	186,537	0,024	-0,026
-288,847	-104,511	-0,115	0,019
-287,832	56,640	-0,048	-0,034
-286,818	-200,000	-0,004	-0,048
-285,803	-34,848	0,051	-0,020
-284,789	448,590	0,029	0,046
-283,774	8,182	0,041	-0,022
-282,759	-200,000	-0,001	-0,050
-281,745	-196,866	0,195	-0,001
-280,730	-17,629	-0,048	-0,022
-279,716	0,727	0,120	0,062
-278,701	-10,524	0,069	0,033
-277,686	800,000	0,011	0,026
-276,672	-173,531	-0,101	-0,002
-275,657	-200,000	-0,031	0,101
-274,643	21,818	0,056	-0,033
-273,628	20,377	0,069	0,040
-272,613	443,863	-0,068	-0,108
-271,599	-63,538	0,054	-0,016
-270,584	203,943	-0,028	0,032
-269,570	278,958	-0,040	-0,051
-268,555	800,000	-0,058	-0,164
-267,540	154,427	0,021	0,020
-266,526	98,663	0,088	0,073
-265,511	610,064	-0,011	-0,020
-264,497	19,856	-0,076	0,044
-263,482	305,976	0,098	0,132
-262,467	-143,643	0,030	-0,002
-261,453	161,923	0,096	-0,097
-260,438	107,076	-0,059	0,051
-259,424	-118,127	-0,188	-0,024
-258,409	-39,581	0,106	0,040
-257,395	716,282	-0,077	-0,148
-256,380	182,074	0,091	0,097
-255,365	-167,551	-0,098	0,003
-254,351	45,337	-0,033	-0,022
-253,336	-200,000	-0,025	0,099
-252,322	-200,000	-0,003	0,057
-251,307	-200,000	-0,014	-0,061
-250,292	-200,000	-0,028	0,127
-249,278	800,000	-0,022	-0,050
-248,263	-5,156	-0,079	-0,039
-247,249	800,000	0,015	-0,046
-246,234	699,192	0,050	0,096
-245,219	-200,000	-0,010	-0,159
-244,205	124,298	-0,074	-0,067
-243,190	425,897	0,023	-0,036
-242,176	192,749	0,095	0,104
-241,161	49,821	0,116	-0,079
-240,146	101,163	-0,073	0,062
-239,132	-200,000	0,001	0,029
-238,117	800,000	0,016	-0,037
-237,103	-115,188	0,131	-0,018
-236,088	41,517	-0,110	-0,072
-235,073	-159,094	-0,060	-0,002
-234,059	118,958	0,048	0,043
-233,044	-200,000	-0,007	0,088
-232,030	800,000	-0,041	0,119
-231,015	155,539	0,088	-0,088
-230,000	-70,816	0,030	0,008
-228,986	133,412	-0,057	-0,054
-227,971	153,775	0,071	-0,070
-226,957	800,000	0,019	0,058
-225,942	-200,000	-0,004	0,244
-224,927	423,769	0,035	-0,055
-223,913	56,774	-0,083	0,058
-222,898	-200,000	0,001	-0,056
-221,884	40,156	-0,065	-0,042
-220,869	-12,281	0,177	0,083
-219,855	-14,719	-0,140	-0,065
-218,840	-200,000	0,003	0,077
-217,825	103,690	0,096	0,081
-216,811	257,104	0,058	0,072
-215,796	80,276	-0,095	-0,074
-214,782	800,000	0,010	0,031
-213,767	-179,195	0,123	-0,002
-212,752	130,668	0,047	0,043
-211,738	48,496	-0,109	0,074
-210,723	256,234	-0,009	-0,011
-209,709	-200,000	-0,010	-0,042
-208,694	-113,980	-0,060	-0,008
-207,679	-24,357	0,061	0,026
-206,665	390,609	-0,084	0,126
-205,650	-200,000	0,026	-0,116
-204,636	-200,000	0,043	0,216
-203,621	-114,713	-0,073	0,010
-202,606	484,295	0,063	-0,103
-201,592	-200,000	0,008	-0,083
-200,577	108,699	0,040	0,035
-199,563	-100,704	-0,154	-0,027
-198,548	-200,000	-0,023	0,090
-197,533	42,089	0,071	-0,047
-196,519	-79,222	0,150	-0,036
-195,504	117,262	0,072	0,064
-194,490	-200,000	0,013	-0,091
-193,475	301,338	0,091	-0,121
-192,460	-200,000	0,029	0,107
-191,446	-81,148	0,088	-0,021
-190,431	-200,000	0,032	0,116
-189,417	147,099	-0,011	0,011
-188,402	304,140	-0,015	0,020
-187,387	663,209	-0,009	0,017
-186,373	170,511	0,035	0,036
-185,358	239,944	-0,030	0,036
-184,344	-200,000	-0,016	-0,058
-183,329	-62,969	0,096	-0,028
-182,315	-6,767	0,079	0,039
-181,300	-200,000	-0,021	-0,084
-180,285	68,599	0,048	0,035
-179,271	157,414	-0,102	-0,102
-178,256	380,208	0,006	-0,009
-177,242	226,770	0,136	0,160
-176,227	-200,000	0,008	0,054
-175,212	-53,157	-0,093	0,030
-174,198	51,370	-0,040	0,027
-173,183	-31,949	0,127	0,051
-172,169	-35,354	-0,087	-0,034
-171,154	582,540	0,085	-0,151
-170,139	-84,149	0,103	0,023
-169,125	-4,354	-0,083	0,041
-168,110	425,316	-0,062	-0,097
-167,096	-200,000	0,017	0,075
-166,081	-200,000	0,011	0,051
-165,066	16,885	-0,119	0,068
-164,052	-116,410	0,115	0,015
-163,037	394,638	-0,072	0,109
-162,023	-65,328	0,021	0,006
-161,008	3,378	0,145	0,076
-159,993	175,173	-0,073	0,077
-158,979	-62,218	-0,102	0,030
-157,964	-200,000	0,000	-0,079
-156,950	562,204	0,013	-0,023
-155,935	-165,610	0,047	-0,001
-154,920	-63,861	0,043	0,013
-153,906	21,615	-0,050	-0,029
-152,891	5,707	-0,135	-0,072
-151,877	236,950	-0,146	-0,175
-150,862	56,101	-0,043	-0,030
-149,847	-200,000	0,033	-0,107
-148,833	141,287	-0,072	0,069
-147,818	-60,678	0,061	-0,019
-146,804	17,263	-0,104	0,059
-145,789	100,186	0,033	0,027
-144,775	-54,814	0,052	0,017
-143,760	-93,501	-0,015	0,003
-142,745	-200,000	-0,012	-0,085
-141,731	-170,901	0,066	0,002
-140,716	-103,699	0,082	0,014
-139,702	-102,105	0,071	-0,012
-138,687	-81,019	0,079	0,019
-137,672	175,894	-0,044	0,046
-136,658	138,622	0,054	-0,051
-135,643	-200,000	0,011	-0,067
-134,629	274,627	0,039	-0,050
-133,614	264,274	-0,034	0,043
-132,599	-105,845	0,118	0,019
-131,585	74,704	0,086	0,065
-130,570	-134,940	0,118	0,010
-129,556	-200,000	-0,068	-0,223
-128,541	-55,454	-0,062	0,020
-127,526	-153,123	0,134	0,007
-126,512	-55,884	0,137	-0,044
-125,497	-71,665	0,157	0,042
-124,483	800,000	0,013	-0,030
-123,468	-117,289	-0,031	0,004
-122,453	-4,590	-0,171	-0,085
-121,439	139,974	0,013	0,012
-120,424	-200,000	-0,043	0,144
-119,410	-54,365	0,020	-0,006
-118,395	-104,566	0,145	0,024
