DTS Sentinel unit serial number:	SN410029Multiplexer serial number:	ORYXHardware model number:	OX2-SRSoftware version number:	ORYX F/W v4,00 Oryx Data Collector v3.7.2.0data status	okinstallation	B5 Nyhavnadifferential loss correction	single-endedforward channel	channel 2reverse channel	N/Adate	2023/12/12time	18:12:13forward acquisition time	300,00reverse acquisition time	0,00gamma	499,1914k internal	0,3157k external	0,3157temperature offset calibration	1,0000default loss term (dB/km)	0,3820temperature slope calibration	1,0000multiplexer offset coefficient	1,0000multiplexer slope coefficient	1,0000fibre end	0,00T internal ref (°C)	15,63T ext. ref 1 (°C)	-0,82T ext. ref 2 (°C)	-1,10length (m)	temperature (°C)	Stokes	anti-Stokes-744,400	167,171	0,102	-0,107
-743,385	-184,203	-0,339	0,004
-742,371	-121,050	0,177	-0,022
-741,356	-179,260	-0,320	0,005
-740,342	238,533	0,101	0,123
-739,327	-117,808	-0,236	-0,031
-738,312	44,709	0,149	0,101
-737,298	-99,283	-0,313	0,058
-736,283	-148,524	0,179	0,011
-735,269	-135,154	-0,390	-0,034
-734,254	-30,960	0,107	0,044
-733,239	-67,203	-0,527	-0,152
-732,225	59,942	0,177	0,129
-731,210	800,000	-0,019	0,052
-730,196	-87,108	-0,031	0,007
-729,181	132,396	-0,084	-0,080
-728,167	9,700	0,082	0,046
-727,152	800,000	0,013	0,035
-726,137	276,231	-0,069	-0,091
-725,123	-200,000	0,006	0,039
-724,108	163,813	-0,012	-0,012
-723,094	319,246	-0,013	0,018
-722,079	106,733	-0,152	-0,133
-721,064	-200,000	-0,026	-0,098
-720,050	85,418	-0,067	0,054
-719,035	-145,727	-0,101	0,007
-718,021	15,731	0,089	0,051
-717,006	-200,000	0,001	0,004
-715,991	800,000	0,016	-0,037
-714,977	-97,891	0,095	0,018
-713,962	262,462	-0,011	0,014
-712,948	756,603	0,057	-0,115
-711,933	87,062	-0,071	0,058
-710,918	-12,064	-0,055	0,026
-709,904	479,821	-0,085	-0,142
-708,889	-64,034	0,045	-0,014
-707,875	-183,947	-0,164	0,002
-706,860	-85,517	-0,038	-0,009
-705,845	138,221	0,077	0,075
-704,831	-114,682	0,114	0,016
-703,816	800,000	0,010	0,028
-702,802	-94,795	-0,188	-0,037
-701,787	118,479	-0,059	-0,054
-700,772	44,382	-0,114	-0,077
-699,758	94,628	0,066	-0,055
-698,743	-200,000	0,030	-0,105
-697,729	800,000	0,028	-0,064
-696,714	123,952	-0,044	-0,041
-695,699	-111,539	-0,209	-0,031
-694,685	-106,955	-0,147	0,024
-693,670	746,326	0,029	-0,059
-692,656	-200,000	-0,009	0,100
-691,641	189,232	0,036	0,040
-690,627	-12,878	0,045	0,022
-689,612	69,836	0,019	0,014
-688,597	98,903	-0,067	-0,057
-687,583	-200,000	-0,002	-0,149
-686,568	-200,000	-0,017	-0,124
-685,554	-182,743	-0,036	0,000
-684,539	545,662	-0,024	0,043
-683,524	384,247	0,117	0,179
-682,510	800,000	-0,063	0,166
-681,495	-187,246	0,147	0,001
-680,481	-111,995	-0,169	0,025
-679,466	800,000	-0,032	0,097
-678,451	43,919	-0,095	0,064
-677,437	-19,045	0,018	0,008
-676,422	800,000	-0,024	-0,068
-675,408	800,000	-0,019	0,056
-674,393	49,635	0,030	-0,021
-673,378	43,683	-0,089	0,060
-672,364	230,153	-0,074	0,089
-671,349	-200,000	0,010	0,051
-670,335	596,060	0,040	0,073
-669,320	7,011	-0,045	0,025
-668,305	140,203	0,011	-0,010
-667,291	800,000	0,003	0,009
-666,276	123,001	-0,081	-0,075
-665,262	50,962	0,211	0,147
-664,247	-200,000	-0,017	-0,058
-663,232	139,863	0,117	0,113
-662,218	-102,017	-0,078	0,014
-661,203	132,411	-0,067	0,063
-660,189	-200,000	-0,002	0,067
-659,174	269,153	-0,023	-0,030
-658,159	256,585	0,082	-0,104
-657,145	49,888	0,067	-0,046
-656,130	-200,000	0,028	-0,119
-655,116	800,000	0,030	-0,072
-654,101	-200,000	0,006	0,021
-653,086	-22,337	-0,064	0,028
-652,072	-200,000	-0,001	0,044
-651,057	-144,165	-0,171	0,012
-650,043	-8,959	-0,107	-0,053
-649,028	-9,453	0,166	-0,081
-648,014	800,000	0,025	0,062
-646,999	124,380	0,068	-0,063
-645,984	-200,000	0,022	-0,128
-644,970	-200,000	0,038	-0,172
-643,955	-200,000	0,005	-0,109
-642,941	-200,000	-0,007	0,049
-641,926	-29,402	-0,020	0,008
-640,911	-1,405	0,065	-0,033
-639,897	122,838	-0,222	0,204
-638,882	-21,768	-0,075	0,033
-637,868	-60,575	-0,050	0,015
-636,853	-129,784	-0,048	-0,005
-635,838	293,974	-0,042	0,056
-634,824	-200,000	-0,003	-0,052
-633,809	217,481	-0,036	0,042
-632,795	-24,869	0,109	0,047
-631,780	-120,368	-0,057	-0,007
-630,765	-6,595	-0,128	-0,064
-629,751	70,483	-0,019	0,015
-628,736	205,972	-0,040	-0,046
-627,722	-42,819	0,077	0,028
-626,707	-80,852	0,077	-0,019
-625,692	21,599	0,117	0,069
-624,678	-151,991	-0,071	-0,004
-623,663	800,000	-0,015	-0,042
-622,649	800,000	0,007	-0,020
-621,634	-33,868	-0,050	-0,020
-620,619	200,503	-0,031	0,036
-619,605	71,150	-0,025	-0,019
-618,590	800,000	0,043	-0,127
-617,576	-200,000	0,024	0,097
-616,561	59,783	-0,143	0,103
-615,546	-61,491	-0,111	0,034
-614,532	770,212	-0,051	-0,102
-613,517	126,162	-0,018	0,017
-612,503	237,520	0,046	-0,057
-611,488	670,870	0,013	0,024
-610,474	-200,000	0,005	0,021
-609,459	-200,000	0,006	-0,081
-608,444	498,223	-0,063	-0,106
-607,430	-97,449	-0,155	0,029
-606,415	49,952	0,106	-0,073
-605,401	-0,170	0,010	-0,005
-604,386	263,124	0,013	0,016
-603,371	384,315	-0,039	0,059
-602,357	-200,000	0,012	0,122
-601,342	-104,751	-0,114	-0,019
-600,328	-200,000	-0,017	-0,180
-599,313	-24,487	-0,036	0,016
-598,298	54,735	-0,050	-0,035
-597,284	-49,155	0,069	-0,024
-596,269	444,020	-0,021	-0,034
-595,255	-200,000	0,020	0,151
-594,240	105,815	-0,088	-0,076
-593,225	-183,733	-0,109	0,001
-592,211	147,292	-0,136	-0,134
-591,196	126,072	0,093	-0,086
-590,182	-71,570	0,023	-0,006
-589,167	-80,482	0,156	-0,038
-588,152	252,334	-0,025	0,031
-587,138	-18,465	0,102	-0,046
-586,123	-189,886	-0,111	0,001
-585,109	109,605	0,006	-0,005
-584,094	-72,792	0,119	0,032
-583,079	-138,942	0,082	-0,006
-582,065	-91,790	-0,068	-0,014
-581,050	300,855	0,061	0,083
-580,036	800,000	-0,028	0,087
-579,021	494,499	-0,038	-0,063
-578,006	-200,000	-0,012	-0,073
-576,992	708,611	-0,042	-0,082
-575,977	456,801	-0,057	-0,094
-574,963	13,631	0,164	0,093
-573,948	131,670	-0,106	0,100
-572,934	800,000	-0,015	-0,044
-571,919	-78,105	0,086	0,022
-570,904	-116,381	-0,121	0,016
-569,890	-200,000	0,010	0,082
-568,875	-29,680	-0,121	-0,050
-567,861	-5,133	0,052	0,026
-566,846	800,000	-0,020	-0,062
-565,831	-171,239	-0,176	0,004
-564,817	-156,177	0,030	-0,001
-563,802	800,000	0,029	0,067
-562,788	-1,726	-0,023	-0,012
-561,773	-95,464	-0,079	0,015
-560,758	-134,373	0,298	-0,026
-559,744	92,364	-0,054	0,044
-558,729	-129,525	-0,100	-0,010
-557,715	-80,540	0,076	0,018
-556,700	-97,139	0,193	-0,037
-555,685	117,941	-0,045	0,041
-554,671	72,846	-0,034	-0,026
-553,656	800,000	-0,029	0,088
-552,642	-75,258	-0,124	-0,032
-551,627	-55,180	0,133	0,044
-550,612	-73,511	-0,132	-0,035
-549,598	-200,000	-0,009	-0,040
-548,583	-141,339	-0,103	-0,008
-547,569	28,022	0,079	-0,048
-546,554	56,798	0,087	0,062
-545,539	-23,539	0,040	0,017
-544,525	-116,648	-0,025	0,003
-543,510	504,381	-0,036	-0,061
-542,496	-200,000	-0,010	-0,052
-541,481	12,470	-0,123	0,069
-540,466	21,237	0,038	0,023
-539,452	18,249	0,091	-0,053
-538,437	346,323	0,043	-0,062
-537,423	-191,762	0,158	0,001
-536,408	285,924	0,017	-0,023
-535,393	800,000	-0,066	-0,144
-534,379	-200,000	-0,019	-0,086
-533,364	16,706	0,083	-0,048
-532,350	171,865	0,029	0,030
-531,335	-200,000	0,044	0,000
-530,321	800,000	0,024	0,065
-529,306	800,000	0,031	-0,098
-528,291	16,671	-0,146	-0,084
-527,277	-2,416	-0,069	-0,035
-526,262	-156,131	-0,028	-0,001
-525,248	289,018	0,043	-0,058
-524,233	98,243	0,068	0,057
-523,218	119,266	0,029	-0,026
-522,204	800,000	0,043	-0,093
-521,189	-14,871	-0,040	-0,019
-520,175	-142,456	-0,048	0,003
-519,160	469,858	-0,053	-0,087
-518,145	43,295	0,023	0,015
-517,131	131,908	0,015	0,014
-516,116	-200,000	0,009	0,111
-515,102	-200,000	0,014	-0,055
-514,087	164,171	0,024	0,025
-513,072	800,000	-0,038	0,107
-512,058	283,662	-0,096	-0,126
-511,043	-23,410	0,133	0,058
-510,029	-200,000	0,015	0,059
-509,014	183,996	-0,070	0,076
-507,999	5,814	0,094	-0,051
-506,985	-120,964	0,130	-0,016
-505,970	-8,535	0,080	-0,039
-504,956	-200,000	-0,003	-0,145
-503,941	-200,000	0,003	0,095
-502,926	-200,000	-0,002	0,114
-501,912	81,064	0,077	0,061
-500,897	-200,000	0,015	-0,108
-499,883	-200,000	0,032	0,139
-498,868	-200,000	-0,004	0,056
-497,853	-200,000	-0,032	-0,105
-496,839	-200,000	-0,020	-0,071
-495,824	-7,663	0,046	0,023
-494,810	82,074	0,122	0,096
-493,795	-46,219	0,083	-0,030
-492,781	-200,000	0,011	-0,146
-491,766	-200,000	0,007	-0,044
-490,751	-200,000	0,008	0,035
-489,737	-200,000	-0,035	-0,115
-488,722	-118,085	0,049	-0,006
-487,708	800,000	0,091	0,205
-486,693	800,000	0,038	0,115
-485,678	441,516	-0,046	-0,074
-484,664	-200,000	0,005	0,060
-483,649	-72,198	0,123	0,033
-482,635	-200,000	0,019	0,101
-481,620	-200,000	-0,015	-0,067
-480,605	134,265	0,074	-0,070
-479,591	800,000	-0,011	0,026
-478,576	173,731	0,120	0,127
-477,562	-4,196	-0,166	0,084
-476,547	98,448	0,099	-0,083
-475,532	-200,000	0,001	0,143
-474,518	299,882	0,043	-0,059
-473,503	-58,874	0,012	-0,004
-472,489	800,000	-0,009	-0,029
-471,474	-200,000	-0,005	0,071
-470,459	-200,000	-0,005	-0,058
-469,445	724,404	-0,033	-0,064
-468,430	60,895	-0,042	-0,031
-467,416	26,271	-0,084	0,051
-466,401	633,803	0,102	0,190
-465,386	-200,000	-0,014	0,081
-464,372	-200,000	0,030	0,118
-463,357	320,987	0,033	0,046
-462,343	-200,000	-0,003	-0,016
-461,328	-141,117	0,183	-0,013
-460,313	102,441	0,076	0,065
-459,299	-118,683	-0,118	-0,015
-458,284	240,032	-0,084	0,102
-457,270	209,252	0,042	-0,048
-456,255	-200,000	-0,002	0,057
-455,241	422,007	-0,040	-0,063
-454,226	13,514	0,052	-0,029
-453,211	-93,564	-0,115	-0,023
-452,197	-115,421	-0,074	-0,010
-451,182	93,013	0,126	0,104
-450,168	-200,000	0,027	0,183
-449,153	83,686	0,026	0,021
-448,138	5,672	0,048	-0,026
-447,124	-0,270	0,146	0,076
-446,109	800,000	-0,058	-0,151
-445,095	-200,000	0,111	-0,000
-444,080	176,708	0,026	0,028
-443,065	104,472	-0,081	0,069
-442,051	-200,000	0,007	0,114
-441,036	-200,000	-0,009	-0,048
-440,022	19,230	0,125	0,073
-439,007	515,361	0,013	-0,022
-437,992	150,250	-0,065	0,064
-436,978	-200,000	-0,007	0,104
-435,963	800,000	0,022	0,061
-434,949	-200,000	0,001	-0,005
-433,934	-24,030	-0,046	-0,020
-432,919	-61,667	-0,145	-0,044
-431,905	225,250	-0,047	0,056
-430,890	-174,541	0,088	-0,002
-429,876	240,500	0,065	0,079
-428,861	800,000	0,028	0,085
-427,846	-56,436	-0,032	0,010
-426,832	-200,000	0,010	-0,098
-425,817	800,000	-0,022	-0,064
-424,803	-112,083	-0,053	-0,008
-423,788	-200,000	0,000	-0,008
-422,773	-121,334	0,133	0,016
-421,759	315,067	-0,075	0,103
-420,744	800,000	0,034	-0,082
-419,730	800,000	-0,018	-0,046
-418,715	800,000	0,022	-0,054
-417,701	-11,690	-0,142	0,068
-416,686	-200,000	-0,009	0,131
-415,671	800,000	0,016	-0,044
-414,657	-200,000	-0,006	-0,070
-413,642	332,261	-0,111	0,156
-412,628	800,000	-0,012	0,027
-411,613	14,194	0,030	-0,017
-410,598	800,000	-0,020	0,056
-409,584	-200,000	0,010	-0,060
-408,569	-99,689	0,171	-0,031
-407,555	239,392	-0,034	0,042
-406,540	781,452	0,034	-0,067
-405,525	286,702	-0,084	0,111
-404,511	-27,798	-0,147	-0,062
-403,496	800,000	-0,042	-0,087
-402,482	-138,728	-0,091	0,007
-401,467	-200,000	-0,011	0,213
-400,452	-2,959	0,144	0,073
-399,438	800,000	0,032	0,091
-398,423	800,000	0,039	-0,123
-397,409	72,052	-0,018	-0,014
-396,394	-200,000	-0,029	0,099
-395,379	-194,987	0,085	0,000
-394,365	-75,585	0,132	0,034
-393,350	800,000	-0,028	-0,065
-392,336	-102,089	0,082	0,014
-391,321	-149,947	-0,231	0,013
-390,306	-200,000	0,020	-0,116
-389,292	144,049	-0,078	0,076
-388,277	6,173	-0,102	-0,055
-387,263	-200,000	0,007	-0,092
-386,248	-152,403	0,034	0,002
-385,233	605,599	0,043	0,079
-384,219	-200,000	0,001	-0,022
-383,204	800,000	0,016	-0,048
-382,190	-33,647	-0,019	-0,008
-381,175	-200,000	-0,030	-0,129
-380,160	-99,149	-0,085	-0,016
-379,146	-30,226	0,126	0,052
-378,131	-34,025	0,146	0,058
-377,117	715,787	-0,044	-0,085
-376,102	800,000	-0,045	-0,104
-375,088	800,000	-0,008	0,019
-374,073	-74,104	-0,081	-0,021
-373,058	-141,614	0,059	-0,004
-372,044	-111,202	0,199	-0,029
-371,029	-200,000	-0,006	-0,066
-370,015	64,842	0,061	-0,045
-369,000	69,738	0,106	-0,080
-367,985	-200,000	0,001	0,134
-366,971	-200,000	0,027	-0,136
-365,956	447,701	-0,048	-0,077
-364,942	-200,000	-0,037	0,148
-363,927	-200,000	-0,016	0,059
-362,912	6,628	0,071	0,038
-361,898	-200,000	0,017	-0,088
-360,883	7,931	-0,034	0,018
-359,869	220,647	0,035	0,041
-358,854	285,414	-0,005	0,007
-357,839	-200,000	-0,009	0,133
-356,825	-71,117	-0,086	-0,023
-355,810	774,620	0,023	0,046
-354,796	-200,000	-0,037	-0,122
-353,781	-70,683	0,166	-0,045
-352,766	-27,680	-0,079	-0,033
-351,752	18,328	-0,061	-0,035
-350,737	-90,331	0,103	-0,022
-349,723	369,917	0,026	0,039
-348,708	-200,000	-0,005	-0,044
-347,693	800,000	-0,093	-0,224
-346,679	-200,000	0,000	-0,125
-345,664	162,243	-0,088	-0,090
-344,650	125,269	0,060	-0,055
-343,635	-97,999	-0,097	0,018
-342,620	289,404	0,067	0,089
-341,606	85,368	0,010	0,008
-340,591	199,600	-0,096	0,108
-339,577	6,005	-0,155	-0,083
-338,562	-200,000	0,004	-0,050
-337,548	-200,000	-0,008	-0,047
-336,533	262,339	0,036	0,046
-335,518	-200,000	-0,014	-0,092
-334,504	-70,171	0,053	0,014
-333,489	-200,000	0,014	-0,055
-332,475	231,723	-0,119	-0,142
-331,460	718,787	0,027	-0,051
-330,445	-125,016	-0,066	-0,007
-329,431	61,910	0,036	0,026
-328,416	-79,151	0,177	-0,043
-327,402	372,966	0,056	-0,083
-326,387	-146,180	-0,102	0,006
-325,372	-11,367	-0,078	-0,037
-324,358	306,802	-0,080	-0,109
-323,343	800,000	0,019	0,051
-322,329	181,843	0,047	-0,050
-321,314	-200,000	0,001	0,143
-320,299	800,000	-0,063	0,177
-319,285	-102,656	0,040	0,007
-318,270	781,306	-0,068	-0,135
-317,256	-69,956	-0,052	0,014
-316,241	-70,461	-0,047	-0,013
-315,226	221,247	-0,046	-0,053
-314,212	46,136	-0,110	0,074
-313,197	-100,774	-0,094	0,017
-312,183	-200,000	0,000	0,058
-311,168	767,796	0,077	0,152
-310,153	76,099	-0,061	-0,046
-309,139	-173,930	-0,131	0,003
-308,124	276,096	0,091	-0,118
-307,110	-118,510	0,130	0,017
-306,095	-200,000	0,009	-0,101
-305,080	57,989	0,097	-0,069
-304,066	-80,195	0,111	-0,027
-303,051	194,044	-0,047	-0,052
-302,037	385,603	-0,031	0,047
-301,022	-97,357	0,134	-0,025
-300,008	152,397	0,031	-0,030
-298,993	227,446	0,046	-0,054
-297,978	-27,120	0,089	0,037
-296,964	-200,000	-0,002	0,009
-295,949	-91,633	-0,185	0,038
-294,935	81,959	-0,123	-0,097
-293,920	-200,000	0,017	0,081
-292,905	800,000	-0,032	0,096
-291,891	27,508	-0,082	0,050
-290,876	2,897	0,103	-0,054
-289,862	768,386	-0,049	0,098
-288,847	129,440	-0,170	-0,157
-287,832	-200,000	-0,007	-0,082
-286,818	-200,000	-0,041	-0,183
-285,803	-200,000	-0,028	-0,134
-284,789	113,474	0,021	0,018
-283,774	105,923	-0,008	0,007
-282,759	800,000	0,011	0,034
-281,745	15,287	-0,073	0,041
-280,730	-200,000	0,010	-0,039
-279,716	72,805	0,052	-0,039
-278,701	-200,000	0,005	0,093
-277,686	139,716	0,050	0,048
-276,672	176,872	-0,047	0,050
-275,657	128,601	0,049	0,045
-274,643	-97,890	-0,177	0,033
-273,628	-153,102	-0,045	-0,002
-272,613	-155,652	0,004	-0,000
-271,599	-200,000	0,003	0,100
-270,584	140,546	-0,075	0,071
-269,570	-200,000	-0,008	-0,081
-268,555	-112,945	0,124	0,018
-267,540	-200,000	0,028	-0,140
-266,526	-131,637	-0,126	0,012
-265,511	333,713	0,044	-0,062
-264,497	-200,000	0,000	-0,102
-263,482	-200,000	-0,005	0,114
-262,467	138,840	0,107	0,102
-261,453	-200,000	-0,029	0,100
-260,438	-27,769	-0,153	-0,064
-259,424	286,969	0,050	-0,066
-258,409	-200,000	-0,011	0,129
-257,395	-200,000	0,021	0,092
-256,380	230,320	0,040	-0,047
-255,365	-200,000	-0,012	-0,089
-254,351	-36,169	0,052	0,020
-253,336	-200,000	-0,019	-0,078
-252,322	800,000	-0,074	0,151
-251,307	-175,942	0,105	0,002
-250,292	96,614	-0,018	0,015
-249,278	800,000	0,078	0,181
-248,263	-200,000	-0,030	0,120
-247,249	-76,444	-0,104	-0,026
-246,234	-200,000	-0,001	-0,035
-245,219	-159,068	-0,088	-0,004
-244,205	-76,274	-0,172	0,044
-243,190	255,016	0,046	0,057
-242,176	800,000	0,059	0,155
-241,161	800,000	-0,046	0,100
-240,146	-200,000	-0,005	-0,081
-239,132	-200,000	0,011	-0,053
-238,117	-108,059	0,076	-0,012
-237,103	-200,000	0,026	-0,133
-236,088	-200,000	0,005	0,032
-235,073	-115,802	0,067	-0,009
-234,059	411,066	-0,067	0,103
-233,044	82,355	0,088	0,069
-232,030	229,856	-0,029	0,035
-231,015	-53,875	-0,158	-0,052
-230,000	124,438	0,082	-0,075
-228,986	-15,977	0,035	0,016
-227,971	-200,000	-0,001	-0,012
-226,957	484,737	-0,078	0,128
-225,942	-173,670	0,044	-0,001
-224,927	800,000	-0,028	-0,086
-223,913	-200,000	-0,000	0,039
-222,898	-177,028	-0,136	0,002
-221,884	307,895	0,092	-0,124
-220,869	-200,000	-0,021	0,151
-219,855	-200,000	-0,028	0,131
-218,840	-26,884	-0,025	0,011
-217,825	-98,711	-0,061	-0,011
-216,811	117,632	-0,058	-0,052
-215,796	-200,000	0,005	0,149
-214,782	-200,000	0,011	0,059
-213,767	-108,196	0,101	0,016
-212,752	-20,490	0,067	0,030
-211,738	-200,000	0,009	-0,037
-210,723	583,090	0,058	0,103
-209,709	-79,443	-0,124	0,030
-208,694	800,000	-0,013	-0,036
-207,679	51,475	-0,012	-0,008
-206,665	-200,000	0,030	-0,156
-205,650	-53,538	-0,098	0,032
-204,636	18,082	0,134	0,077
-203,621	308,962	-0,059	-0,080
-202,606	19,124	-0,124	0,071
-201,592	-200,000	0,008	-0,053
-200,577	-200,000	0,007	-0,046
-199,563	230,719	-0,036	-0,043
-198,548	-200,000	0,010	0,072
-197,533	47,196	-0,094	0,063
-196,519	64,045	0,168	0,122
-195,504	475,528	0,034	-0,056
-194,490	-200,000	-0,006	-0,132
-193,475	-200,000	-0,038	-0,178
-192,460	800,000	0,025	0,057
-191,446	-200,000	-0,007	0,081
-190,431	-200,000	-0,008	0,029
-189,417	800,000	0,033	0,094
-188,402	-140,094	-0,134	-0,010
-187,387	5,790	-0,102	-0,054
-186,373	357,069	0,047	-0,068
-185,358	-188,143	0,209	0,002
-184,344	614,805	0,064	0,117
-183,329	-38,469	0,014	-0,005
-182,315	-61,066	-0,084	-0,025
-181,300	94,587	-0,052	0,042
-180,285	256,087	0,067	0,083
-179,271	110,649	-0,082	-0,071
-178,256	209,105	0,089	-0,101
-177,242	-200,000	0,007	0,040
-176,227	318,158	0,062	0,085
-175,212	-200,000	0,026	0,118
-174,198	800,000	-0,034	0,100
-173,183	-82,456	-0,100	0,023
-172,169	800,000	0,028	-0,081
-171,154	195,571	-0,016	0,018
-170,139	-200,000	0,003	-0,090
-169,125	-84,453	0,182	0,041
-168,110	-171,230	0,067	-0,002
-167,096	-4,142	0,077	-0,038
-166,081	-135,430	0,107	-0,009
-165,066	-156,211	0,082	-0,004
-164,052	-200,000	-0,014	-0,112
-163,037	644,226	-0,105	-0,194
-162,023	-44,883	0,095	0,034
-161,008	83,742	0,111	0,087
-159,993	353,458	-0,039	-0,056
-158,979	-128,521	-0,077	-0,008
-157,964	-143,003	-0,098	0,007
-156,950	-90,940	-0,023	-0,005
-155,935	800,000	-0,034	0,087
-154,920	228,894	0,058	0,068
-153,906	371,222	-0,024	0,035
-152,891	800,000	0,073	-0,202
-151,877	-0,149	-0,165	0,084
-150,862	284,815	-0,036	0,047
-149,847	-175,880	0,182	-0,003
-148,833	46,486	0,047	0,031
-147,818	-88,249	-0,130	-0,028
-146,804	800,000	0,005	0,014
-145,789	75,874	0,077	0,059
-144,775	-127,401	-0,092	-0,010
-143,760	238,444	-0,082	-0,098
-142,745	113,970	-0,144	-0,126
-141,731	-200,000	-0,000	0,121
-140,716	-37,932	0,037	0,014
-139,702	247,780	-0,040	-0,049
-138,687	-195,171	-0,034	-0,000
-137,672	-27,742	-0,059	-0,025
-136,658	263,186	-0,077	-0,096
-135,643	-200,000	0,012	-0,096
-134,629	-200,000	-0,005	0,041
-133,614	-28,751	-0,023	0,010
-132,599	-97,072	0,106	-0,020
-131,585	-200,000	-0,019	-0,084
-130,570	126,490	-0,050	-0,045
-129,556	-200,000	0,042	0,149
-128,541	800,000	-0,057	-0,150
-127,526	56,540	-0,043	0,030
-126,512	-19,825	0,052	-0,023
-125,497	-100,310	0,131	0,023
-124,483	-62,706	-0,089	0,026
-123,468	-200,000	0,039	0,141
-122,453	-173,912	-0,023	0,000
-121,439	78,323	0,091	0,070
-120,424	-200,000	0,010	-0,116
