DTS Sentinel unit serial number:	SN410029Multiplexer serial number:	ORYXHardware model number:	OX2-SRSoftware version number:	ORYX F/W v4,00 Oryx Data Collector v3.7.2.0data status	okinstallation	B5 Nyhavnadifferential loss correction	single-endedforward channel	channel 2reverse channel	N/Adate	2023/12/13time	02:52:13forward acquisition time	300,00reverse acquisition time	0,00gamma	499,1914k internal	0,3160k external	0,3160temperature offset calibration	1,0000default loss term (dB/km)	0,3820temperature slope calibration	1,0000multiplexer offset coefficient	1,0000multiplexer slope coefficient	1,0000fibre end	0,00T internal ref (°C)	14,00T ext. ref 1 (°C)	-2,46T ext. ref 2 (°C)	-2,76length (m)	temperature (°C)	Stokes	anti-Stokes-744,400	-110,885	0,157	-0,023
-743,385	-178,965	-0,298	0,005
-742,371	-29,720	0,196	0,082
-741,356	-89,234	-0,296	0,064
-740,342	166,883	0,134	0,140
-739,327	-200,000	-0,280	-0,001
-738,312	-200,000	0,007	0,040
-737,298	-63,228	-0,320	0,097
-736,283	108,771	0,104	-0,092
-735,269	293,643	-0,104	0,140
-734,254	77,650	0,137	0,107
-733,239	-81,003	-0,670	-0,162
-732,225	-111,631	0,201	0,030
-731,210	15,884	0,022	-0,013
-730,196	539,572	-0,050	0,089
-729,181	-101,322	-0,104	0,018
-728,167	800,000	-0,023	-0,061
-727,152	800,000	-0,025	-0,064
-726,137	-56,564	-0,052	0,017
-725,123	-131,608	-0,096	0,009
-724,108	394,055	-0,043	-0,066
-723,094	-160,448	-0,209	0,008
-722,079	-99,891	-0,181	0,033
-721,064	-200,000	0,008	-0,057
-720,050	-10,315	0,077	0,038
-719,035	-105,029	-0,103	0,017
-718,021	128,469	0,076	-0,071
-717,006	800,000	-0,068	-0,148
-715,991	71,699	0,075	0,057
-714,977	-148,829	-0,096	0,006
-713,962	-200,000	0,005	-0,034
-712,948	363,255	0,126	-0,187
-711,933	136,492	-0,017	-0,016
-710,918	682,455	0,035	-0,067
-709,904	-86,531	0,035	0,008
-708,889	46,589	0,026	-0,018
-707,875	-5,962	-0,122	-0,061
-706,860	231,852	-0,062	0,075
-705,845	-90,197	-0,192	-0,041
-704,831	-130,087	0,107	-0,011
-703,816	-136,348	-0,082	0,007
-702,802	164,755	-0,106	-0,110
-701,787	-73,964	0,061	-0,016
-700,772	124,180	0,041	-0,038
-699,758	-132,775	0,081	-0,008
-698,743	800,000	0,025	-0,069
-697,729	233,287	0,059	-0,071
-696,714	800,000	-0,081	0,165
-695,699	596,922	-0,069	-0,127
-694,685	571,243	-0,004	0,007
-693,670	224,530	-0,030	0,036
-692,656	28,020	0,041	0,026
-691,641	211,127	0,131	-0,152
-690,627	-101,734	0,118	-0,021
-689,612	-62,301	-0,152	-0,046
-688,597	-200,000	-0,006	0,185
-687,583	132,904	-0,060	0,057
-686,568	-200,000	0,006	0,050
-685,554	-3,356	0,173	-0,088
-684,539	-68,735	0,035	-0,010
-683,524	-117,157	-0,233	0,031
-682,510	-200,000	0,029	0,114
-681,495	76,106	-0,067	-0,052
-680,481	-90,165	-0,183	0,039
-679,466	-91,162	0,020	0,004
-678,451	-86,073	-0,092	-0,021
-677,437	-38,329	-0,131	-0,051
-676,422	629,680	0,051	0,096
-675,408	-200,000	-0,044	-0,231
-674,393	-57,082	-0,078	-0,025
-673,378	-32,070	0,102	0,042
-672,364	-200,000	0,012	-0,068
-671,349	-14,448	0,103	-0,049
-670,335	446,560	-0,029	0,048
-669,320	189,978	0,050	0,055
-668,305	800,000	0,024	-0,051
-667,291	-200,000	-0,002	-0,072
-666,276	479,889	0,065	-0,108
-665,262	-200,000	0,007	-0,062
-664,247	271,915	0,081	-0,105
-663,232	-200,000	-0,023	-0,195
-662,218	37,387	0,132	-0,086
-661,203	-200,000	-0,003	-0,042
-660,189	-9,099	0,049	-0,024
-659,174	114,622	-0,104	-0,093
-658,159	26,087	-0,148	-0,090
-657,145	-3,936	-0,095	-0,048
-656,130	424,074	-0,033	-0,052
-655,116	-125,537	0,035	0,004
-654,101	-75,774	-0,020	-0,005
-653,086	375,446	-0,049	-0,073
-652,072	-200,000	0,024	-0,082
-651,057	-200,000	-0,015	-0,090
-650,043	45,146	0,143	-0,097
-649,028	-155,269	0,109	-0,005
-648,014	800,000	-0,048	-0,129
-646,999	-200,000	-0,015	0,144
-645,984	-200,000	-0,001	0,024
-644,970	-98,878	0,075	-0,014
-643,955	45,293	-0,068	0,046
-642,941	194,063	-0,045	-0,050
-641,926	132,901	-0,048	0,046
-640,911	-87,855	-0,171	0,038
-639,897	800,000	0,029	0,063
-638,882	219,246	-0,059	-0,069
-637,868	106,905	-0,063	-0,055
-636,853	-79,139	-0,035	-0,009
-635,838	800,000	0,014	0,038
-634,824	-31,208	0,063	-0,026
-633,809	52,170	-0,111	-0,077
-632,795	-19,066	0,029	0,013
-631,780	311,876	-0,111	-0,153
-630,765	-78,436	-0,070	0,018
-629,751	-115,086	-0,042	-0,006
-628,736	-200,000	0,008	0,039
-627,722	-200,000	-0,025	-0,094
-626,707	55,653	0,105	-0,074
-625,692	96,027	-0,075	-0,063
-624,678	187,714	0,065	-0,072
-623,663	800,000	0,044	-0,143
-622,649	76,322	0,022	0,017
-621,634	-200,000	-0,017	-0,131
-620,619	159,017	-0,038	-0,038
-619,605	420,626	0,032	0,051
-618,590	-200,000	-0,004	0,152
-617,576	712,544	-0,093	0,182
-616,561	800,000	-0,037	0,079
-615,546	-55,423	0,075	-0,024
-614,532	213,921	-0,072	-0,084
-613,517	-200,000	0,032	-0,123
-612,503	37,447	0,079	0,051
-611,488	-82,691	0,080	-0,019
-610,474	36,165	0,083	-0,053
-609,459	117,587	-0,017	0,015
-608,444	-51,339	-0,147	-0,050
-607,430	-0,939	-0,067	-0,034
-606,415	-200,000	0,021	-0,088
-605,401	-200,000	0,006	-0,027
-604,386	-200,000	-0,006	0,022
-603,371	-114,451	-0,129	0,018
-602,357	-200,000	-0,015	-0,072
-601,342	-200,000	0,003	-0,011
-600,328	10,276	-0,067	-0,037
-599,313	92,400	-0,060	0,049
-598,298	33,741	-0,077	-0,049
-597,284	135,334	0,064	0,061
-596,269	-125,381	0,146	0,016
-595,255	-200,000	-0,002	0,041
-594,240	63,972	0,008	-0,006
-593,225	-104,666	-0,064	-0,011
-592,211	-200,000	-0,000	-0,199
-591,196	-200,000	-0,035	-0,115
-590,182	-200,000	-0,021	-0,136
-589,167	-51,088	0,219	-0,075
-588,152	800,000	0,034	-0,110
-587,138	-200,000	-0,008	-0,076
-586,123	-104,571	-0,124	0,021
-585,109	0,908	-0,056	-0,029
-584,094	513,797	-0,087	0,149
-583,079	-51,917	0,059	-0,020
-582,065	-6,564	-0,046	-0,023
-581,050	-188,937	-0,114	-0,001
-580,036	-37,252	-0,100	-0,039
-579,021	-200,000	-0,003	-0,129
-578,006	800,000	-0,048	-0,144
-576,992	-17,539	-0,106	-0,049
-575,977	85,161	-0,028	-0,022
-574,963	-110,035	-0,059	-0,009
-573,948	-74,009	0,015	0,004
-572,934	-200,000	-0,014	0,076
-571,919	-96,428	-0,097	-0,019
-570,904	77,099	0,049	0,038
-569,890	-20,775	-0,030	0,013
-568,875	120,967	-0,110	-0,100
-567,861	800,000	-0,058	0,166
-566,846	-117,653	-0,065	0,009
-565,831	43,485	-0,123	0,082
-564,817	86,517	0,081	-0,065
-563,802	513,009	-0,064	0,109
-562,788	495,180	0,077	0,129
-561,773	-34,306	0,091	0,036
-560,758	-200,000	-0,104	0,000
-559,744	-65,014	0,049	0,015
-558,729	143,374	0,138	0,134
-557,715	137,936	-0,084	-0,081
-556,700	545,747	-0,107	-0,188
-555,685	106,041	0,143	-0,124
-554,671	754,222	0,019	-0,039
-553,656	-25,623	0,219	0,094
-552,642	629,877	0,029	0,053
-551,627	-200,000	-0,026	0,113
-550,612	-9,572	-0,036	0,017
-549,598	15,636	0,063	0,036
-548,583	-152,555	-0,107	0,005
-547,569	-200,000	-0,003	-0,039
-546,554	-200,000	0,006	-0,037
-545,539	50,343	-0,012	0,008
-544,525	-27,364	0,104	0,044
-543,510	70,008	-0,039	-0,030
-542,496	31,333	-0,097	-0,061
-541,481	379,659	0,066	-0,099
-540,466	-90,107	-0,048	-0,010
-539,452	788,991	0,017	-0,034
-538,437	131,027	-0,044	0,042
-537,423	-200,000	0,038	0,136
-536,408	-200,000	-0,005	-0,033
-535,393	128,255	-0,084	-0,078
-534,379	50,376	-0,063	0,044
-533,364	213,357	0,015	0,018
-532,350	271,237	0,084	0,109
-531,335	-182,139	0,068	-0,001
-530,321	274,938	0,060	-0,078
-529,306	-200,000	0,000	0,045
-528,291	-200,000	-0,011	0,132
-527,277	292,782	-0,063	-0,084
-526,262	-200,000	0,018	0,083
-525,248	208,281	0,078	0,090
-524,233	38,876	0,084	0,055
-523,218	457,868	-0,044	0,072
-522,204	34,894	0,014	0,009
-521,189	-129,369	-0,013	-0,001
-520,175	-200,000	0,003	-0,083
-519,160	-200,000	0,016	-0,056
-518,145	-50,101	0,044	0,015
-517,131	-18,672	-0,079	0,036
-516,116	-143,631	0,093	0,006
-515,102	-200,000	0,005	-0,117
-514,087	8,438	-0,074	-0,040
-513,072	-200,000	0,028	-0,140
-512,058	147,437	0,104	-0,102
-511,043	24,928	-0,053	-0,032
-510,029	-200,000	0,005	0,034
-509,014	-75,217	-0,044	0,012
-507,999	-9,859	0,046	-0,022
-506,985	-6,481	-0,186	-0,092
-505,970	240,342	0,011	0,013
-504,956	26,343	-0,062	-0,038
-503,941	-200,000	-0,029	-0,135
-502,926	800,000	0,014	-0,037
-501,912	109,431	0,046	0,040
-500,897	4,930	-0,108	0,058
-499,883	-111,647	-0,055	0,008
-498,868	-200,000	0,007	-0,189
-497,853	-200,000	-0,000	-0,078
-496,839	30,505	0,085	0,053
-495,824	138,883	0,063	0,061
-494,810	321,328	0,052	0,072
-493,795	800,000	0,029	0,064
-492,781	700,718	-0,106	0,205
-491,766	152,039	0,017	-0,017
-490,751	145,532	0,082	-0,080
-489,737	220,584	-0,059	0,069
-488,722	203,700	-0,067	-0,076
-487,708	-200,000	-0,007	-0,022
-486,693	147,367	-0,050	-0,049
-485,678	-112,812	-0,036	-0,005
-484,664	59,237	0,030	0,021
-483,649	11,468	0,086	0,048
-482,635	-12,198	0,014	0,007
-481,620	-39,842	-0,039	-0,015
-480,605	800,000	0,029	0,067
-479,591	50,192	0,054	0,037
-478,576	-134,954	-0,090	0,008
-477,562	800,000	0,036	-0,083
-476,547	-200,000	0,025	-0,224
-475,532	81,537	0,031	-0,025
-474,518	287,524	0,067	-0,088
-473,503	-69,665	-0,130	-0,036
-472,489	222,590	-0,015	-0,018
-471,474	-72,323	0,112	-0,030
-470,459	412,536	-0,042	0,066
-469,445	800,000	-0,055	-0,153
-468,430	-17,925	-0,150	-0,068
-467,416	800,000	0,096	-0,195
-466,401	-57,935	0,121	-0,038
-465,386	-200,000	-0,001	0,140
-464,372	-200,000	-0,015	0,066
-463,357	-38,990	-0,052	-0,020
-462,343	-24,351	-0,163	0,071
-461,328	756,846	-0,054	-0,107
-460,313	-200,000	0,002	-0,023
-459,299	511,822	0,028	0,048
-458,284	-105,186	-0,114	0,019
-457,270	300,468	0,055	0,075
-456,255	119,408	0,042	-0,038
-455,241	-200,000	0,020	-0,077
-454,226	539,074	-0,031	0,054
-453,211	800,000	-0,011	0,026
-452,197	-200,000	0,005	-0,049
-451,182	-66,279	0,176	0,051
-450,168	800,000	-0,043	-0,138
-449,153	-169,789	-0,163	0,004
-448,138	-99,895	0,080	-0,014
-447,124	-35,319	-0,152	0,060
-446,109	-140,074	-0,088	0,007
-445,095	-41,665	-0,017	-0,006
-444,080	535,265	0,075	0,130
-443,065	800,000	0,066	-0,141
-442,051	134,745	-0,121	0,114
-441,036	-143,562	-0,120	-0,008
-440,022	-129,510	-0,050	0,005
-439,007	83,783	-0,026	0,021
-437,992	436,001	0,062	-0,098
-436,978	69,843	0,183	-0,137
-435,963	-3,471	-0,106	0,054
-434,949	-200,000	-0,038	0,129
-433,934	800,000	0,014	-0,039
-432,919	117,118	0,042	-0,037
-431,905	-116,978	0,146	0,019
-430,890	-200,000	-0,010	-0,063
-429,876	-200,000	0,034	0,114
-428,861	67,412	-0,100	0,074
-427,846	800,000	0,007	0,017
-426,832	608,907	0,067	0,122
-425,817	41,014	-0,032	-0,021
-424,803	-200,000	-0,008	-0,129
-423,788	-54,486	-0,127	-0,042
-422,773	-200,000	0,003	0,036
-421,759	-61,142	0,072	0,022
-420,744	-200,000	-0,001	-0,163
-419,730	-200,000	0,040	-0,192
-418,715	496,264	-0,100	-0,167
-417,701	-200,000	-0,001	-0,077
-416,686	-200,000	0,036	0,128
-415,671	271,373	-0,041	0,052
-414,657	800,000	-0,036	0,086
-413,642	-200,000	0,008	0,041
-412,628	152,068	-0,060	-0,060
-411,613	127,502	-0,123	0,114
-410,598	329,975	0,044	0,062
-409,584	-125,381	-0,029	0,003
-408,569	593,167	0,056	0,100
-407,555	800,000	0,034	0,082
-406,540	332,323	0,093	0,131
-405,525	-127,061	-0,170	0,018
-404,511	-41,613	0,140	0,052
-403,496	-53,022	-0,118	-0,039
-402,482	-39,876	0,044	0,017
-401,467	168,861	-0,060	-0,062
-400,452	-53,332	0,042	-0,014
-399,438	-17,451	0,049	-0,022
-398,423	-134,116	-0,049	-0,004
-397,409	6,642	0,085	0,046
-396,394	-49,434	-0,056	0,019
-395,379	111,272	-0,088	0,077
-394,365	482,910	-0,085	0,141
-393,350	119,573	-0,069	-0,062
-392,336	-56,617	0,121	0,039
-391,321	-155,886	-0,049	0,002
-390,306	-27,914	-0,071	-0,030
-389,292	-200,000	-0,041	-0,162
-388,277	-76,303	-0,082	0,021
-387,263	-31,364	0,153	-0,062
-386,248	-52,357	0,127	0,042
-385,233	-138,879	0,057	-0,004
-384,219	338,787	-0,031	-0,045
-383,204	-129,379	-0,168	0,017
-382,190	800,000	0,015	-0,043
-381,175	287,351	-0,104	0,138
-380,160	-138,431	0,097	0,008
-379,146	800,000	-0,046	0,104
-378,131	-99,462	0,096	-0,017
-377,117	151,360	0,100	0,099
-376,102	53,859	-0,060	-0,042
-375,088	-180,816	-0,116	-0,002
-374,073	800,000	-0,038	-0,105
-373,058	-168,141	0,025	-0,001
-372,044	780,183	-0,040	0,080
-371,029	200,371	-0,074	0,082
-370,015	166,106	0,090	0,093
-369,000	-200,000	-0,030	0,123
-367,985	169,736	-0,039	-0,041
-366,971	110,705	-0,086	0,075
-365,956	257,223	0,028	0,035
-364,942	-200,000	0,040	0,131
-363,927	577,464	0,025	0,045
-362,912	-61,214	-0,068	-0,021
-361,898	532,148	0,082	0,142
-360,883	265,419	-0,080	-0,101
-359,869	800,000	0,018	-0,037
-358,854	800,000	-0,031	0,089
-357,839	-200,000	-0,016	0,215
-356,825	-138,862	-0,046	0,004
-355,810	-200,000	0,036	-0,154
-354,796	-134,114	-0,095	-0,008
-353,781	195,107	-0,032	0,035
-352,766	47,275	0,098	-0,066
-351,752	42,892	0,071	0,047
-350,737	145,715	0,067	0,065
-349,723	199,581	-0,011	0,012
-348,708	-40,732	0,125	0,047
-347,693	-42,140	-0,058	0,021
-346,679	800,000	-0,036	0,104
-345,664	108,398	-0,049	0,043
-344,650	-52,835	0,094	0,031
-343,635	800,000	0,055	-0,121
-342,620	408,070	0,029	0,044
-341,606	-41,672	-0,130	-0,048
-340,591	-200,000	0,008	-0,034
-339,577	-106,660	0,084	0,013
-338,562	729,286	-0,093	-0,181
-337,548	3,451	0,047	-0,025
-336,533	-200,000	-0,009	0,111
-335,518	800,000	-0,033	0,078
-334,504	649,752	0,035	0,065
-333,489	29,073	-0,213	-0,131
-332,475	533,030	-0,019	-0,033
-331,460	87,820	-0,056	0,045
-330,445	-200,000	-0,021	-0,068
-329,431	48,644	0,049	0,033
-328,416	-8,742	0,147	0,071
-327,402	-32,856	0,026	-0,010
-326,387	-118,939	0,073	0,009
-325,372	8,350	-0,116	-0,063
-324,358	-84,592	-0,052	-0,012
-323,343	140,467	0,080	0,077
-322,329	109,061	0,039	0,034
-321,314	368,439	-0,044	0,065
-320,299	15,176	0,189	0,107
-319,285	-63,302	-0,150	-0,044
-318,270	-75,524	-0,043	-0,011
-317,256	-200,000	0,024	0,123
-316,241	214,674	-0,035	-0,041
-315,226	42,412	0,016	0,010
-314,212	-100,703	0,092	0,016
-313,197	99,383	0,078	0,066
-312,183	-138,472	0,111	-0,009
-311,168	194,838	0,023	-0,025
-310,153	54,350	-0,058	0,041
-309,139	424,207	0,011	-0,017
-308,124	800,000	-0,037	-0,108
-307,110	-25,656	0,126	0,054
-306,095	-75,982	0,118	0,030
-305,080	-148,070	-0,114	-0,007
-304,066	800,000	0,047	0,125
-303,051	-98,633	-0,051	0,009
-302,037	35,702	-0,067	-0,042
-301,022	-52,244	0,083	0,028
-300,008	-200,000	0,017	-0,162
-298,993	79,706	-0,129	0,100
-297,978	-200,000	0,018	-0,077
-296,964	63,179	-0,062	0,045
-295,949	116,800	0,025	0,022
-294,935	-17,296	-0,012	0,006
-293,920	800,000	-0,024	0,069
-292,905	-33,260	0,139	-0,055
-291,891	-200,000	-0,015	0,064
-290,876	-13,086	0,095	0,045
-289,862	159,941	-0,070	0,070
-288,847	278,046	-0,038	0,050
-287,832	570,675	-0,025	-0,043
-286,818	107,848	0,014	0,012
-285,803	-77,875	0,148	-0,037
-284,789	-45,945	0,025	0,009
-283,774	-136,464	0,041	0,003
-282,759	-165,165	-0,114	-0,004
-281,745	-165,311	-0,050	0,002
-280,730	119,873	-0,043	0,039
-279,716	321,252	0,114	-0,157
-278,701	66,291	0,023	-0,017
-277,686	-200,000	0,010	0,043
-276,672	323,076	0,055	0,076
-275,657	225,859	0,037	-0,043
-274,643	-48,536	-0,052	-0,018
-273,628	53,367	0,015	0,010
-272,613	-200,000	-0,011	0,043
-271,599	800,000	-0,027	0,061
-270,584	-153,380	0,101	-0,005
-269,570	800,000	0,040	-0,103
-268,555	-43,541	-0,160	0,058
-267,540	58,082	-0,122	-0,086
-266,526	128,696	-0,073	-0,068
-265,511	7,632	-0,036	0,019
-264,497	31,479	-0,014	0,009
-263,482	291,353	0,065	0,086
-262,467	800,000	0,036	0,112
-261,453	204,759	-0,008	0,009
-260,438	22,957	0,076	0,045
-259,424	800,000	-0,079	-0,168
-258,409	800,000	-0,027	0,081
-257,395	-103,862	0,106	-0,018
-256,380	550,747	-0,086	0,149
-255,365	15,156	0,127	-0,072
-254,351	217,164	-0,022	-0,025
-253,336	-79,389	-0,131	0,032
-252,322	-45,642	0,085	0,030
-251,307	-124,159	-0,063	0,007
-250,292	50,257	-0,017	0,012
-249,278	65,531	-0,037	0,027
-248,263	-154,270	0,093	-0,004
-247,249	84,221	0,112	0,088
-246,234	-91,196	0,184	-0,038
-245,219	-86,854	0,171	-0,037
-244,205	186,280	0,124	-0,133
-243,190	267,095	-0,067	0,085
-242,176	-200,000	-0,002	0,012
-241,161	-135,005	0,129	0,011
-240,146	-65,893	0,047	0,014
-239,132	-126,530	0,061	-0,006
-238,117	800,000	-0,023	-0,065
-237,103	-200,000	-0,026	-0,151
-236,088	224,471	-0,060	-0,071
-235,073	800,000	0,061	0,149
-234,059	-149,437	0,151	0,009
-233,044	379,865	0,036	0,053
-232,030	-182,119	0,058	-0,001
-231,015	800,000	-0,055	-0,146
-230,000	531,669	0,015	-0,025
-228,986	-200,000	0,026	0,172
-227,971	48,822	0,060	0,040
-226,957	438,643	0,057	-0,089
-225,942	-7,266	0,029	-0,014
-224,927	-200,000	0,006	-0,102
-223,913	17,948	-0,136	-0,078
-222,898	-80,981	0,152	-0,036
-221,884	-160,762	0,101	-0,004
-220,869	-31,120	-0,069	0,028
-219,855	1,037	0,131	0,068
-218,840	-99,269	0,092	0,017
-217,825	63,102	-0,019	-0,014
-216,811	415,792	0,012	-0,018
-215,796	-56,020	0,083	0,026
-214,782	36,702	-0,054	-0,034
-213,767	800,000	-0,015	0,033
-212,752	20,012	-0,123	0,071
-211,738	232,056	0,066	0,078
-210,723	238,050	0,014	-0,016
-209,709	721,206	0,055	0,107
-208,694	99,966	-0,094	0,079
-207,679	800,000	0,032	-0,093
-206,665	800,000	-0,019	0,039
-205,650	-200,000	0,016	0,078
-204,636	424,633	0,056	0,088
-203,621	-160,245	-0,076	0,003
-202,606	-200,000	0,005	0,068
-201,592	-200,000	-0,005	-0,094
-200,577	-200,000	-0,029	-0,122
-199,563	-74,187	0,056	0,014
-198,548	-200,000	0,027	-0,133
-197,533	-200,000	-0,020	-0,084
-196,519	508,508	-0,024	0,040
-195,504	62,059	-0,031	-0,023
-194,490	-200,000	-0,006	-0,097
-193,475	-20,801	-0,155	-0,068
-192,460	800,000	-0,012	-0,028
-191,446	556,524	0,046	0,081
-190,431	3,726	0,109	-0,057
-189,417	-95,336	-0,030	0,006
-188,402	11,063	-0,065	0,036
-187,387	800,000	0,055	-0,138
-186,373	-200,000	-0,005	-0,054
-185,358	-8,828	-0,036	0,017
-184,344	800,000	0,065	0,152
-183,329	171,338	-0,030	-0,032
-182,315	-200,000	0,003	0,138
-181,300	-151,336	-0,084	-0,004
-180,285	800,000	0,023	-0,071
-179,271	211,027	0,066	-0,075
-178,256	-200,000	0,188	-0,001
-177,242	-14,252	-0,031	0,014
-176,227	-4,496	0,120	-0,060
-175,212	-5,235	0,056	-0,027
-174,198	356,321	0,064	-0,093
-173,183	800,000	0,035	0,095
-172,169	-180,284	0,092	0,001
-171,154	-95,262	0,059	0,011
-170,139	-140,030	0,142	-0,011
-169,125	-182,452	-0,166	0,002
-168,110	371,498	0,048	0,071
-167,096	-44,873	0,080	0,029
-166,081	166,025	0,016	-0,016
-165,066	-59,881	-0,155	-0,047
-164,052	-106,506	-0,116	0,019
-163,037	-28,223	0,091	0,038
-162,023	-77,766	0,076	0,019
-161,008	-200,000	0,009	0,120
-159,993	99,435	0,136	0,113
-158,979	-21,305	-0,033	0,015
-157,964	111,572	0,043	0,038
-156,950	217,146	-0,029	0,033
-155,935	-200,000	0,011	0,049
-154,920	-53,001	-0,139	-0,046
-153,906	-200,000	0,048	0,196
-152,891	289,842	0,082	-0,107
-151,877	-161,834	-0,131	0,005
-150,862	68,638	0,068	0,050
-149,847	491,274	0,082	-0,136
-148,833	108,176	-0,026	0,022
-147,818	-200,000	0,027	0,113
-146,804	181,501	-0,115	0,122
-145,789	10,386	0,173	0,095
-144,775	800,000	0,029	0,085
-143,760	-200,000	0,005	0,057
-142,745	286,356	-0,077	-0,101
-141,731	-200,000	0,019	-0,138
-140,716	747,001	-0,060	-0,118
-139,702	121,939	0,127	0,114
-138,687	800,000	0,021	0,065
-137,672	1,314	0,041	0,021
-136,658	-200,000	-0,042	0,193
-135,643	800,000	-0,021	0,060
-134,629	-200,000	0,014	0,055
-133,614	284,460	-0,025	-0,032
-132,599	-53,650	0,024	-0,008
-131,585	9,461	0,139	0,076
-130,570	25,003	0,017	-0,010
-129,556	800,000	0,028	-0,082
-128,541	-200,000	-0,004	-0,098
-127,526	68,972	0,023	0,017
-126,512	57,665	0,121	0,085
-125,497	-170,367	0,230	0,006
-124,483	65,325	-0,089	0,064
-123,468	-100,146	-0,074	0,013
-122,453	409,899	-0,071	-0,108
-121,439	83,871	0,147	-0,115
-120,424	308,905	0,023	0,031
-119,410	-200,000	0,002	-0,015
-118,395	249,835	0,061	-0,075
