DTS Sentinel unit serial number:	SN410029Multiplexer serial number:	ORYXHardware model number:	OX2-SRSoftware version number:	ORYX F/W v4,00 Oryx Data Collector v3.7.2.0data status	okinstallation	B5 Nyhavnadifferential loss correction	single-endedforward channel	channel 2reverse channel	N/Adate	2023/12/14time	14:47:13forward acquisition time	300,00reverse acquisition time	0,00gamma	499,1914k internal	0,3157k external	0,3157temperature offset calibration	1,0000default loss term (dB/km)	0,3820temperature slope calibration	1,0000multiplexer offset coefficient	1,0000multiplexer slope coefficient	1,0000fibre end	0,00T internal ref (°C)	7,99T ext. ref 1 (°C)	-8,12T ext. ref 2 (°C)	-8,16length (m)	temperature (°C)	Stokes	anti-Stokes-744,400	-52,445	0,086	0,029
-743,385	-92,974	-0,236	-0,048
-742,371	-24,418	0,166	0,073
-741,356	-138,891	-0,313	-0,025
-740,342	53,402	0,193	0,136
-739,327	-44,571	-0,467	-0,171
-738,312	381,621	0,171	0,260
-737,298	75,964	-0,311	-0,242
-736,283	56,508	0,215	0,154
-735,269	-140,691	-0,353	-0,026
-734,254	23,955	0,118	0,071
-733,239	-76,024	-0,566	-0,146
-732,225	-119,962	0,249	-0,031
-731,210	-19,508	-0,093	-0,042
-730,196	-200,000	-0,013	0,062
-729,181	800,000	-0,069	-0,174
-728,167	37,240	-0,093	-0,061
-727,152	458,229	0,017	-0,028
-726,137	-86,128	-0,172	-0,039
-725,123	51,357	-0,156	0,109
-724,108	487,592	-0,012	-0,020
-723,094	472,863	-0,058	-0,097
-722,079	415,802	-0,096	-0,151
-721,064	362,382	-0,022	0,032
-720,050	-140,240	0,062	0,005
-719,035	800,000	0,049	0,137
-718,021	-120,384	-0,053	-0,007
-717,006	234,510	-0,154	-0,188
-715,991	-89,177	-0,082	-0,018
-714,977	237,611	-0,055	-0,068
-713,962	349,076	0,016	0,024
-712,948	353,132	0,118	0,173
-711,933	800,000	-0,008	0,022
-710,918	106,943	-0,037	0,032
-709,904	-200,000	0,002	-0,055
-708,889	-200,000	0,007	-0,043
-707,875	165,251	-0,056	-0,058
-706,860	-200,000	0,006	0,077
-705,845	800,000	0,024	-0,058
-704,831	-200,000	-0,013	0,189
-703,816	800,000	0,039	0,084
-702,802	800,000	0,017	0,042
-701,787	590,066	-0,044	-0,081
-700,772	800,000	0,047	-0,098
-699,758	-200,000	0,009	-0,037
-698,743	-48,617	-0,172	0,060
-697,729	800,000	0,022	0,064
-696,714	-200,000	-0,008	-0,053
-695,699	-137,117	-0,068	-0,006
-694,685	800,000	-0,078	-0,200
-693,670	-200,000	0,003	-0,049
-692,656	-64,859	0,155	0,046
-691,641	-110,644	0,087	-0,013
-690,627	-200,000	0,007	-0,041
-689,612	-58,344	-0,066	0,021
-688,597	31,695	0,121	-0,077
-687,583	149,482	-0,063	-0,063
-686,568	-75,184	-0,141	0,037
-685,554	-200,000	-0,004	0,074
-684,539	-23,663	0,080	0,035
-683,524	-200,000	0,021	0,159
-682,510	-183,185	-0,057	0,001
-681,495	-45,056	0,072	-0,026
-680,481	170,944	-0,118	-0,125
-679,466	9,689	0,033	-0,019
-678,451	-81,573	-0,127	0,031
-677,437	-90,597	0,116	0,024
-676,422	800,000	0,038	0,100
-675,408	-132,813	-0,093	0,009
-674,393	-114,766	0,048	-0,007
-673,378	-58,521	-0,143	-0,045
-672,364	800,000	-0,077	-0,160
-671,349	112,955	-0,090	-0,080
-670,335	-200,000	-0,019	-0,074
-669,320	-127,873	-0,078	-0,008
-668,305	298,257	-0,069	-0,094
-667,291	-107,918	0,179	-0,028
-666,276	26,364	-0,088	-0,054
-665,262	13,650	-0,096	0,055
-664,247	800,000	-0,024	-0,050
-663,232	-200,000	0,021	-0,092
-662,218	5,460	-0,097	0,053
-661,203	-200,000	0,001	0,049
-660,189	11,259	0,055	0,031
-659,174	-200,000	0,011	-0,059
-658,159	122,760	-0,061	-0,056
-657,145	222,352	-0,085	-0,101
-656,130	-200,000	0,003	-0,027
-655,116	-107,803	0,176	0,028
-654,101	-85,651	-0,109	0,025
-653,086	-200,000	-0,016	-0,114
-652,072	-36,700	-0,067	-0,026
-651,057	-36,220	-0,062	0,025
-650,043	-200,000	0,003	-0,084
-649,028	800,000	0,025	-0,065
-648,014	162,228	0,007	-0,007
-646,999	47,557	0,098	0,067
-645,984	-200,000	-0,002	0,089
-644,970	217,422	-0,110	-0,129
-643,955	246,299	0,036	0,044
-642,941	-200,000	0,039	-0,128
-641,926	-16,737	-0,090	-0,042
-640,911	117,926	0,096	0,087
-639,897	800,000	0,047	-0,113
-638,882	115,366	0,093	0,083
-637,868	-84,563	-0,075	0,017
-636,853	-123,239	-0,024	0,003
-635,838	5,609	-0,092	0,050
-634,824	543,944	0,027	0,047
-633,809	-96,898	-0,103	-0,020
-632,795	67,096	0,060	-0,045
-631,780	182,588	0,072	-0,078
-630,765	-77,542	-0,099	0,025
-629,751	-157,262	0,056	0,002
-628,736	205,278	-0,025	-0,029
-627,722	137,150	0,084	-0,080
-626,707	-200,000	-0,044	-0,193
-625,692	-93,275	-0,137	0,028
-624,678	-142,997	-0,084	0,006
-623,663	-200,000	0,003	-0,073
-622,649	32,656	-0,044	-0,028
-621,634	-4,493	-0,017	0,008
-620,619	24,807	0,041	-0,025
-619,605	-76,437	0,060	0,015
-618,590	-68,664	-0,053	-0,015
-617,576	800,000	0,020	0,047
-616,561	12,651	0,036	0,020
-615,546	-200,000	-0,015	0,050
-614,532	-94,014	-0,106	0,021
-613,517	-200,000	0,026	-0,101
-612,503	-14,095	0,034	0,016
-611,488	800,000	0,056	0,149
-610,474	-200,000	0,012	0,102
-609,459	-143,186	-0,077	-0,005
-608,444	-137,363	-0,127	-0,010
-607,430	-200,000	-0,014	-0,072
-606,415	-4,737	-0,263	-0,133
-605,401	9,035	0,066	-0,036
-604,386	67,575	0,050	0,037
-603,371	7,992	-0,017	0,010
-602,357	-200,000	0,010	-0,040
-601,342	359,530	-0,050	0,073
-600,328	800,000	-0,028	-0,059
-599,313	72,244	-0,162	-0,123
-598,298	-200,000	-0,017	-0,078
-597,284	74,855	-0,082	-0,064
-596,269	-200,000	-0,021	-0,079
-595,255	476,238	0,061	-0,101
-594,240	567,724	-0,032	0,057
-593,225	-200,000	-0,013	-0,069
-592,211	-55,801	-0,083	-0,027
-591,196	521,274	0,108	-0,186
-590,182	201,531	0,051	0,058
-589,167	-200,000	0,010	0,091
-588,152	-106,318	-0,013	0,002
-587,138	-73,634	-0,108	-0,029
-586,123	-200,000	0,012	-0,043
-585,109	419,673	0,023	-0,036
-584,094	-200,000	0,003	-0,026
-583,079	800,000	-0,070	0,199
-582,065	-101,641	-0,059	0,010
-581,050	585,963	-0,036	0,065
-580,036	-200,000	-0,003	-0,111
-579,021	-200,000	-0,003	-0,012
-578,006	-200,000	0,015	-0,107
-576,992	137,959	0,048	0,046
-575,977	800,000	0,026	-0,078
-574,963	-166,809	-0,079	0,002
-573,948	180,717	0,113	-0,122
-572,934	-93,354	-0,106	-0,021
-571,919	-200,000	-0,026	-0,150
-570,904	580,293	-0,033	-0,060
-569,890	-192,102	-0,152	0,001
-568,875	-200,000	0,003	-0,086
-567,861	-24,730	0,134	0,058
-566,846	647,196	-0,038	0,072
-565,831	-50,055	0,123	-0,042
-564,817	-17,821	-0,008	-0,004
-563,802	800,000	0,054	0,129
-562,788	57,320	-0,021	-0,015
-561,773	-47,214	0,067	-0,024
-560,758	105,222	-0,072	0,062
-559,744	20,897	0,077	0,045
-558,729	-72,983	0,129	-0,034
-557,715	260,531	-0,061	0,077
-556,700	-39,025	-0,173	-0,066
-555,685	800,000	-0,028	-0,065
-554,671	-122,846	-0,023	0,003
-553,656	110,747	-0,079	0,070
-552,642	-200,000	0,006	0,066
-551,627	-200,000	-0,036	-0,143
-550,612	800,000	-0,043	0,097
-549,598	554,142	0,043	-0,076
-548,583	-140,332	0,045	-0,003
-547,569	82,662	-0,073	0,058
-546,554	127,243	-0,026	0,024
-545,539	-200,000	-0,001	-0,011
-544,525	352,887	-0,034	0,049
-543,510	-0,369	-0,140	0,073
-542,496	13,110	-0,035	-0,020
-541,481	38,117	0,076	-0,050
-540,466	5,635	-0,170	-0,092
-539,452	10,178	0,093	0,052
-538,437	-129,575	-0,049	-0,005
-537,423	-35,973	-0,086	-0,034
-536,408	54,666	0,069	-0,049
-535,393	316,922	-0,033	-0,045
-534,379	134,807	-0,107	-0,101
-533,364	-197,706	-0,116	0,001
-532,350	298,227	-0,035	0,047
-531,335	-50,182	0,140	-0,048
-530,321	-56,932	-0,071	0,023
-529,306	-132,821	-0,032	-0,003
-528,291	800,000	-0,017	-0,049
-527,277	-200,000	0,012	-0,094
-526,262	348,756	-0,058	0,083
-525,248	-200,000	-0,022	0,150
-524,233	800,000	0,013	-0,028
-523,218	800,000	0,025	0,074
-522,204	-200,000	0,027	0,093
-521,189	-200,000	-0,039	-0,144
-520,175	86,412	-0,097	-0,078
-519,160	-152,416	-0,039	0,002
-518,145	-82,749	0,101	-0,024
-517,131	272,867	0,118	0,153
-516,116	800,000	-0,014	0,041
-515,102	314,974	-0,058	-0,080
-514,087	800,000	-0,013	0,037
-513,072	-63,757	-0,141	0,042
-512,058	800,000	0,026	-0,059
-511,043	-15,455	-0,047	-0,022
-510,029	-90,358	0,178	-0,037
-509,014	226,436	-0,023	0,027
-507,999	-200,000	0,006	0,047
-506,985	800,000	-0,011	-0,031
-505,970	653,638	-0,076	0,143
-504,956	17,029	0,150	-0,087
-503,941	-115,084	-0,061	-0,008
-502,926	63,745	-0,137	0,100
-501,912	-65,480	0,122	-0,035
-500,897	800,000	0,016	0,039
-499,883	800,000	-0,021	-0,063
-498,868	-200,000	0,020	-0,116
-497,853	-200,000	-0,007	-0,024
-496,839	800,000	-0,021	-0,058
-495,824	52,503	0,045	0,031
-494,810	-40,205	0,051	0,019
-493,795	800,000	-0,016	0,052
-492,781	233,717	0,064	0,077
-491,766	164,254	0,065	-0,067
-490,751	219,953	-0,083	-0,097
-489,737	-200,000	-0,028	-0,089
-488,722	214,815	0,067	0,078
-487,708	11,025	-0,012	-0,007
-486,693	800,000	0,018	0,039
-485,678	593,336	0,069	0,124
-484,664	-200,000	-0,015	0,062
-483,649	-200,000	0,020	0,070
-482,635	800,000	-0,028	0,067
-481,620	-139,921	0,144	-0,011
-480,605	187,304	0,042	0,045
-479,591	-82,325	0,124	0,029
-478,576	-200,000	-0,020	0,099
-477,562	-66,375	0,084	-0,024
-476,547	-200,000	0,023	-0,112
-475,532	514,488	-0,112	-0,191
-474,518	800,000	-0,039	0,091
-473,503	-88,126	-0,121	0,026
-472,489	275,660	-0,031	0,040
-471,474	75,065	-0,129	-0,099
-470,459	762,839	0,055	0,109
-469,445	16,097	-0,077	-0,044
-468,430	-60,783	0,029	0,009
-467,416	-200,000	-0,019	0,076
-466,401	-108,715	0,072	0,011
-465,386	-200,000	-0,011	-0,043
-464,372	63,434	0,105	-0,077
-463,357	327,763	0,104	-0,147
-462,343	-106,068	-0,132	-0,021
-461,328	-71,776	-0,135	-0,036
-460,313	-97,552	-0,030	-0,006
-459,299	799,732	-0,053	-0,108
-458,284	-9,720	0,178	0,086
-457,270	-108,270	0,085	-0,013
-456,255	200,710	-0,074	-0,083
-455,241	87,989	-0,063	0,051
-454,226	-151,238	-0,104	0,006
-453,211	699,977	0,074	0,143
-452,197	-72,533	-0,075	-0,020
-451,182	305,125	0,071	0,097
-450,168	226,509	0,050	-0,059
-449,153	254,962	-0,083	0,103
-448,138	169,678	-0,075	0,078
-447,124	168,410	-0,090	-0,093
-446,109	57,599	0,089	-0,064
-445,095	-7,317	-0,090	-0,044
-444,080	219,075	0,039	0,046
-443,065	0,232	0,054	0,028
-442,051	17,046	0,042	-0,024
-441,036	104,215	-0,126	-0,108
-440,022	-59,129	-0,082	0,026
-439,007	-180,135	0,052	-0,001
-437,992	243,746	0,090	0,110
-436,978	-200,000	-0,019	0,138
-435,963	-62,513	0,095	-0,029
-434,949	684,473	0,029	-0,056
-433,934	-74,449	-0,014	0,004
-432,919	-32,940	0,067	0,027
-431,905	-200,000	-0,038	-0,223
-430,890	126,422	0,128	0,118
-429,876	-200,000	0,013	0,095
-428,861	-135,162	0,168	0,015
-427,846	-16,700	0,049	-0,023
-426,832	346,517	0,027	-0,038
-425,817	-200,000	0,001	-0,047
-424,803	-200,000	0,010	-0,127
-423,788	-200,000	-0,009	-0,132
-422,773	-200,000	0,014	-0,092
-421,759	432,409	-0,039	-0,061
-420,744	800,000	0,080	-0,224
-419,730	800,000	-0,019	-0,054
-418,715	48,340	0,069	0,047
-417,701	-146,396	0,079	0,005
-416,686	231,729	0,091	0,108
-415,671	69,567	0,066	0,049
-414,657	-58,727	0,049	0,015
-413,642	-200,000	-0,027	-0,089
-412,628	-78,945	0,042	0,010
-411,613	-200,000	0,014	-0,157
-410,598	106,852	-0,053	0,046
-409,584	37,347	0,064	-0,042
-408,569	731,071	-0,015	-0,029
-407,555	43,441	0,081	0,054
-406,540	225,401	-0,019	-0,022
-405,525	219,633	0,055	-0,064
-404,511	25,064	-0,029	0,018
-403,496	-200,000	0,018	0,065
-402,482	164,443	0,050	0,052
-401,467	800,000	-0,015	0,046
-400,452	-195,250	-0,076	0,000
-399,438	-200,000	0,009	0,065
-398,423	256,694	-0,032	-0,040
-397,409	-200,000	0,003	-0,102
-396,394	3,520	-0,184	-0,097
-395,379	364,658	0,024	-0,036
-394,365	-200,000	-0,028	0,168
-393,350	-67,503	0,113	-0,032
-392,336	-31,588	-0,026	0,011
-391,321	511,686	-0,054	0,091
-390,306	800,000	-0,069	-0,158
-389,292	800,000	-0,013	0,030
-388,277	-25,651	0,067	-0,029
-387,263	608,503	0,025	-0,045
-386,248	-200,000	-0,020	0,084
-385,233	-200,000	-0,004	0,121
-384,219	-200,000	0,001	0,038
-383,204	-38,325	-0,075	0,029
-382,190	-61,125	0,097	0,030
-381,175	800,000	-0,066	-0,181
-380,160	800,000	0,024	0,057
-379,146	-200,000	-0,000	-0,015
-378,131	800,000	0,012	0,027
-377,117	151,785	-0,042	0,042
-376,102	68,356	-0,038	0,028
-375,088	-135,669	-0,070	-0,006
-374,073	99,152	0,113	-0,095
-373,058	142,094	0,035	-0,034
-372,044	3,661	0,110	0,058
-371,029	228,850	-0,046	-0,054
-370,015	34,276	-0,004	0,002
-369,000	436,918	0,046	0,073
-367,985	102,338	0,094	0,080
-366,971	-57,364	0,212	0,067
-365,956	800,000	0,005	0,013
-364,942	117,578	0,017	-0,015
-363,927	589,092	-0,044	0,079
-362,912	3,096	-0,033	0,017
-361,898	46,650	0,025	0,017
-360,883	58,676	-0,158	-0,113
-359,869	71,787	0,057	-0,043
-358,854	55,331	-0,021	0,015
-357,839	-200,000	-0,019	0,099
-356,825	-200,000	0,027	0,000
-355,810	800,000	0,042	0,120
-354,796	-200,000	-0,003	-0,017
-353,781	800,000	0,084	-0,187
-352,766	-200,000	0,004	0,075
-351,752	-78,258	0,136	0,034
-350,737	476,511	0,017	0,027
-349,723	132,063	-0,091	-0,085
-348,708	-128,586	0,018	-0,002
-347,693	143,007	0,081	0,078
-346,679	-21,924	-0,139	-0,061
-345,664	-200,000	0,006	0,058
-344,650	29,467	-0,074	0,045
-343,635	131,581	0,074	0,069
-342,620	165,198	0,036	0,037
-341,606	309,135	0,008	0,011
-340,591	-89,031	-0,096	-0,020
-339,577	-108,860	-0,126	-0,019
-338,562	255,281	0,049	0,061
-337,548	-146,560	-0,107	-0,007
-336,533	-200,000	-0,009	-0,072
-335,518	446,164	0,010	-0,015
-334,504	407,807	0,082	-0,126
-333,489	800,000	-0,049	0,117
-332,475	-200,000	0,036	-0,122
-331,460	158,763	0,051	-0,051
-330,445	-200,000	0,022	-0,111
-329,431	-48,362	0,057	0,020
-328,416	-200,000	0,004	-0,036
-327,402	274,613	-0,034	0,043
-326,387	114,612	-0,118	0,104
-325,372	-200,000	0,031	-0,105
-324,358	-20,438	-0,018	0,008
-323,343	0,513	-0,099	-0,051
-322,329	-200,000	-0,025	-0,139
-321,314	800,000	0,044	0,106
-320,299	-200,000	-0,045	0,146
-319,285	-165,962	0,044	-0,001
-318,270	791,414	0,012	-0,025
-317,256	1,468	0,092	0,048
-316,241	74,609	0,066	0,051
-315,226	800,000	-0,004	-0,009
-314,212	800,000	0,040	0,099
-313,197	553,315	-0,068	-0,119
-312,183	-83,980	-0,083	-0,019
-311,168	652,001	0,080	-0,150
-310,153	-200,000	0,013	-0,068
-309,139	456,716	0,061	-0,099
-308,124	-200,000	0,010	0,059
-307,110	0,750	0,122	0,063
-306,095	-146,255	0,083	-0,005
-305,080	800,000	0,025	0,065
-304,066	800,000	0,056	-0,126
-303,051	-116,030	0,153	-0,020
-302,037	-17,827	-0,031	0,014
-301,022	-106,562	-0,038	0,006
-300,008	194,887	0,126	0,139
-298,993	-200,000	0,000	-0,034
-297,978	232,691	0,110	0,131
-296,964	757,233	-0,056	-0,111
-295,949	-117,550	-0,143	0,019
-294,935	315,000	0,097	-0,133
-293,920	800,000	-0,027	0,080
-292,905	40,092	0,083	0,054
-291,891	381,603	0,094	-0,140
-290,876	739,517	-0,038	-0,074
-289,862	154,380	0,058	-0,058
-288,847	800,000	-0,033	-0,069
-287,832	257,280	-0,037	-0,046
-286,818	800,000	-0,050	0,114
-285,803	-42,908	0,117	0,043
-284,789	739,169	-0,020	0,039
-283,774	380,684	0,081	0,121
-282,759	800,000	-0,040	0,126
-281,745	372,502	-0,062	0,092
-280,730	-47,781	0,080	0,028
-279,716	-200,000	0,013	0,057
-278,701	800,000	-0,022	0,047
-277,686	106,825	0,045	-0,039
-276,672	-200,000	-0,022	0,172
-275,657	-25,723	-0,190	0,081
-274,643	-200,000	0,003	0,182
-273,628	391,755	-0,090	-0,136
-272,613	-35,090	0,132	-0,052
-271,599	9,098	-0,013	-0,007
-270,584	-200,000	-0,001	-0,006
-269,570	-200,000	-0,023	0,181
-268,555	800,000	0,062	0,130
-267,540	327,008	-0,057	-0,079
-266,526	-57,761	-0,085	-0,027
-265,511	-73,120	0,065	0,017
-264,497	-200,000	-0,001	-0,052
-263,482	123,514	0,040	0,036
-262,467	800,000	-0,031	0,064
-261,453	-200,000	0,006	0,061
-260,438	523,627	0,060	-0,102
-259,424	800,000	-0,026	-0,052
-258,409	154,754	-0,085	0,085
-257,395	-51,680	0,035	0,012
-256,380	-200,000	-0,008	0,182
-255,365	-61,237	0,124	0,038
-254,351	800,000	-0,049	-0,110
-253,336	-200,000	-0,035	-0,223
-252,322	-200,000	0,009	-0,138
-251,307	95,527	0,076	-0,063
-250,292	-46,805	-0,080	-0,028
-249,278	224,442	-0,052	0,061
-248,263	800,000	-0,016	-0,043
-247,249	-99,775	0,061	-0,011
-246,234	-200,000	-0,017	0,090
-245,219	-181,784	-0,101	0,001
-244,205	6,163	-0,028	0,015
-243,190	146,275	-0,029	-0,028
-242,176	158,184	-0,060	0,061
-241,161	211,092	0,050	-0,057
-240,146	-200,000	0,005	0,092
-239,132	-200,000	0,009	0,095
-238,117	279,143	-0,051	-0,066
-237,103	-200,000	0,000	0,008
-236,088	800,000	-0,040	0,112
-235,073	-200,000	-0,002	0,102
-234,059	-200,000	0,022	0,085
-233,044	-200,000	-0,042	0,138
-232,030	109,516	0,136	0,117
-231,015	237,540	-0,047	-0,056
-230,000	-99,873	-0,215	-0,038
-228,986	-5,582	0,038	-0,019
-227,971	35,971	0,164	-0,104
-226,957	800,000	0,039	0,094
-225,942	-200,000	-0,017	0,077
-224,927	-200,000	0,020	0,076
-223,913	-200,000	0,001	0,017
-222,898	117,544	0,029	-0,026
-221,884	-67,333	-0,119	0,033
-220,869	241,669	-0,068	-0,082
-219,855	-200,000	0,014	0,050
-218,840	800,000	-0,054	0,129
-217,825	-200,000	0,015	-0,076
-216,811	77,012	-0,121	-0,092
-215,796	-200,000	-0,016	-0,113
-214,782	-200,000	-0,003	0,149
-213,767	-200,000	-0,013	0,165
-212,752	51,470	0,134	0,092
-211,738	-200,000	0,023	0,079
-210,723	-200,000	0,005	0,135
-209,709	-200,000	0,039	0,153
-208,694	800,000	0,025	-0,057
-207,679	24,298	0,079	-0,047
-206,665	273,327	-0,044	0,057
-205,650	668,678	0,035	0,065
-204,636	-97,850	-0,009	-0,002
-203,621	28,826	0,062	0,038
-202,606	-65,412	-0,091	-0,026
-201,592	-200,000	0,004	-0,105
-200,577	-200,000	0,019	0,119
-199,563	-200,000	-0,021	-0,114
-198,548	35,917	0,038	-0,024
-197,533	350,472	0,036	-0,051
-196,519	-39,946	0,036	0,013
-195,504	-20,479	-0,120	-0,053
-194,490	79,093	0,087	0,068
-193,475	151,809	-0,010	-0,010
-192,460	357,554	-0,066	0,096
-191,446	-131,534	0,069	0,006
-190,431	-200,000	-0,003	0,029
-189,417	41,587	-0,114	-0,074
-188,402	151,012	0,056	0,055
-187,387	77,221	0,085	-0,065
-186,373	-13,345	-0,126	-0,059
-185,358	209,087	0,101	-0,114
-184,344	-62,904	0,115	-0,034
-183,329	-26,127	0,082	0,035
-182,315	-80,454	0,042	0,010
-181,300	45,011	-0,121	0,080
-180,285	43,000	-0,072	0,048
-179,271	149,195	0,026	0,025
-178,256	27,298	0,179	0,108
-177,242	-28,321	0,074	0,031
-176,227	544,016	0,030	-0,051
-175,212	130,004	-0,069	0,064
-174,198	174,818	-0,086	0,090
-173,183	7,636	0,061	0,033
-172,169	205,445	-0,055	-0,062
-171,154	239,060	-0,094	-0,112
-170,139	800,000	0,027	-0,074
-169,125	102,818	0,020	0,017
-168,110	279,966	-0,015	0,020
-167,096	11,028	-0,094	-0,051
-166,081	-200,000	-0,038	-0,140
-165,066	109,634	0,079	-0,068
-164,052	248,118	0,120	-0,147
-163,037	-200,000	0,005	-0,087
-162,023	800,000	-0,049	0,148
-161,008	-200,000	-0,012	0,154
-159,993	-200,000	0,029	0,163
-158,979	-200,000	-0,018	-0,141
-157,964	-16,658	-0,091	0,041
-156,950	-87,614	0,064	-0,014
-155,935	-85,526	0,053	0,012
-154,920	-186,574	-0,057	-0,001
-153,906	722,098	-0,052	0,100
-152,891	46,930	0,089	-0,060
-151,877	-200,000	0,035	-0,143
-150,862	-95,371	-0,175	-0,034
-149,847	231,047	-0,067	0,079
-148,833	422,341	-0,013	0,020
-147,818	67,537	0,120	0,088
-146,804	394,241	0,055	0,083
-145,789	-200,000	-0,008	0,057
-144,775	-106,240	0,053	0,008
-143,760	-200,000	0,016	-0,103
-142,745	-4,235	-0,107	-0,053
-141,731	-108,271	0,176	-0,027
-140,716	189,608	-0,118	0,128
-139,702	-200,000	-0,013	-0,060
-138,687	375,400	-0,035	0,052
-137,672	800,000	0,025	-0,057
-136,658	527,493	0,007	0,011
-135,643	48,849	0,077	0,052
-134,629	-121,636	0,226	-0,027
-133,614	-200,000	-0,008	0,064
-132,599	14,185	0,040	0,022
-131,585	-200,000	0,015	0,060
-130,570	97,305	-0,088	0,073
-129,556	-163,059	-0,020	-0,001
-128,541	800,000	-0,023	0,049
-127,526	800,000	-0,029	-0,073
-126,512	800,000	0,016	0,047
-125,497	-36,032	0,173	-0,067
-124,483	266,917	-0,102	-0,128
-123,468	195,354	0,052	-0,057
-122,453	-106,892	-0,050	0,008
-121,439	-57,495	0,094	-0,030
-120,424	-82,496	-0,026	0,006
-119,410	-12,531	0,067	0,031
