DTS Sentinel unit serial number:	SN410029Multiplexer serial number:	ORYXHardware model number:	OX2-SRSoftware version number:	ORYX F/W v4,00 Oryx Data Collector v3.7.2.0data status	okinstallation	B5 Nyhavnadifferential loss correction	single-endedforward channel	channel 2reverse channel	N/Adate	2023/12/11time	18:47:13forward acquisition time	300,00reverse acquisition time	0,00gamma	499,1914k internal	0,3161k external	0,3161temperature offset calibration	1,0000default loss term (dB/km)	0,3820temperature slope calibration	1,0000multiplexer offset coefficient	1,0000multiplexer slope coefficient	1,0000fibre end	0,00T internal ref (°C)	15,35T ext. ref 1 (°C)	-0,31T ext. ref 2 (°C)	-0,54length (m)	temperature (°C)	Stokes	anti-Stokes-744,400	171,713	0,113	-0,119
-743,385	-129,622	-0,208	-0,021
-742,371	-71,042	0,202	0,056
-741,356	-48,993	-0,351	0,123
-740,342	-134,189	0,280	-0,025
-739,327	-56,873	-0,265	-0,086
-738,312	-82,905	0,108	0,025
-737,298	-146,189	-0,323	-0,021
-736,283	35,472	-0,088	0,057
-735,269	-145,348	-0,374	0,024
-734,254	734,456	0,040	0,078
-733,239	-49,920	-0,402	-0,139
-732,225	-55,144	0,120	0,040
-731,210	-103,624	0,036	0,006
-730,196	18,474	-0,036	-0,021
-729,181	-32,594	-0,062	-0,025
-728,167	-69,513	-0,179	-0,050
-727,152	800,000	0,040	0,104
-726,137	-129,246	-0,081	-0,008
-725,123	-90,620	-0,081	-0,017
-724,108	-200,000	-0,014	-0,082
-723,094	52,262	-0,027	-0,019
-722,079	-200,000	-0,007	-0,129
-721,064	-82,659	-0,093	-0,022
-720,050	-200,000	-0,018	0,069
-719,035	-145,039	-0,052	-0,003
-718,021	-200,000	-0,022	-0,103
-717,006	52,354	-0,138	-0,097
-715,991	616,532	-0,086	-0,159
-714,977	800,000	-0,032	-0,081
-713,962	-73,024	0,082	0,022
-712,948	15,025	-0,052	0,030
-711,933	59,837	-0,114	-0,083
-710,918	386,849	-0,098	-0,149
-709,904	800,000	-0,022	-0,053
-708,889	86,553	-0,069	-0,056
-707,875	-23,827	-0,072	-0,031
-706,860	-200,000	0,000	-0,106
-705,845	-110,109	0,018	0,003
-704,831	48,275	-0,091	-0,063
-703,816	-37,075	0,093	0,036
-702,802	166,872	0,055	-0,057
-701,787	309,606	-0,052	-0,072
-700,772	-20,295	0,097	0,044
-699,758	5,062	-0,060	0,033
-698,743	-200,000	-0,003	0,045
-697,729	268,356	-0,048	0,062
-696,714	-42,566	-0,099	0,037
-695,699	-47,328	0,098	0,035
-694,685	33,606	0,093	-0,059
-693,670	-200,000	-0,012	-0,150
-692,656	39,648	-0,027	0,018
-691,641	265,729	0,012	-0,015
-690,627	782,338	0,074	-0,150
-689,612	-139,064	-0,088	0,007
-688,597	-135,970	-0,132	0,011
-687,583	-200,000	0,011	-0,140
-686,568	-200,000	-0,047	-0,188
-685,554	-43,730	-0,107	0,040
-684,539	4,495	0,037	0,020
-683,524	800,000	-0,035	0,074
-682,510	-2,638	0,120	0,062
-681,495	800,000	-0,034	-0,100
-680,481	249,286	-0,052	-0,065
-679,466	-200,000	-0,013	-0,102
-678,451	-81,370	0,135	-0,032
-677,437	-200,000	0,007	0,126
-676,422	-114,614	0,064	-0,009
-675,408	-77,966	0,121	-0,030
-674,393	-156,307	-0,071	-0,003
-673,378	402,586	-0,047	0,073
-672,364	-200,000	0,052	-0,229
-671,349	274,680	-0,060	-0,079
-670,335	-34,245	0,069	0,028
-669,320	-170,056	0,225	-0,006
-668,305	-73,930	0,105	0,028
-667,291	-3,668	-0,084	0,043
-666,276	21,741	0,063	0,038
-665,262	126,280	-0,061	0,057
-664,247	50,918	-0,074	-0,051
-663,232	205,419	0,083	0,094
-662,218	19,002	0,045	0,027
-661,203	-151,808	-0,120	0,006
-660,189	318,493	-0,034	0,047
-659,174	112,859	-0,032	-0,029
-658,159	139,980	0,117	-0,113
-657,145	-200,000	-0,023	-0,121
-656,130	-200,000	0,012	-0,087
-655,116	-72,519	0,099	0,027
-654,101	124,105	0,048	0,044
-653,086	107,023	0,058	0,051
-652,072	800,000	-0,038	-0,083
-651,057	-98,907	-0,053	-0,010
-650,043	338,846	-0,058	-0,083
-649,028	115,781	0,021	0,019
-648,014	-38,611	0,117	0,045
-646,999	800,000	-0,043	0,105
-645,984	612,077	-0,035	-0,064
-644,970	40,939	0,039	-0,026
-643,955	615,927	-0,034	0,062
-642,941	-0,400	-0,128	0,067
-641,926	-192,458	-0,025	-0,000
-640,911	57,260	0,182	0,130
-639,897	-68,661	-0,112	-0,031
-638,882	-200,000	-0,001	-0,011
-637,868	81,727	-0,120	-0,095
-636,853	-103,987	-0,110	-0,019
-635,838	12,707	-0,030	-0,017
-634,824	-200,000	-0,019	-0,119
-633,809	258,895	0,113	0,143
-632,795	800,000	-0,029	0,074
-631,780	-123,030	-0,158	0,018
-630,765	-200,000	0,028	-0,094
-629,751	5,320	0,041	0,022
-628,736	426,394	-0,098	-0,156
-627,722	-92,121	0,062	-0,013
-626,707	400,443	-0,081	0,125
-625,692	800,000	0,009	0,020
-624,678	438,738	-0,025	-0,040
-623,663	316,258	-0,042	-0,058
-622,649	28,722	0,109	-0,067
-621,634	151,278	0,042	0,042
-620,619	-200,000	-0,025	-0,129
-619,605	-200,000	0,019	0,122
-618,590	-42,799	-0,047	-0,017
-617,576	29,604	-0,093	-0,058
-616,561	48,462	-0,101	-0,069
-615,546	492,704	0,035	-0,060
-614,532	25,136	-0,043	-0,026
-613,517	-200,000	-0,033	-0,128
-612,503	-140,965	-0,174	-0,013
-611,488	-200,000	0,005	0,134
-610,474	-98,905	-0,020	0,004
-609,459	800,000	-0,052	0,119
-608,444	-118,359	0,143	0,018
-607,430	-8,131	-0,079	0,039
-606,415	500,701	-0,037	-0,063
-605,401	358,411	-0,051	-0,074
-604,386	-19,462	0,088	0,040
-603,371	52,101	-0,164	0,115
-602,357	389,942	0,048	0,073
-601,342	-1,180	-0,058	-0,030
-600,328	800,000	0,027	0,062
-599,313	159,474	-0,041	0,042
-598,298	-200,000	-0,010	-0,083
-597,284	-200,000	-0,001	0,034
-596,269	-200,000	0,002	-0,103
-595,255	-200,000	0,012	-0,109
-594,240	-200,000	-0,007	-0,079
-593,225	214,096	-0,040	0,046
-592,211	-200,000	0,012	-0,073
-591,196	-200,000	-0,001	-0,076
-590,182	24,723	-0,137	0,083
-589,167	158,072	0,147	-0,149
-588,152	-200,000	-0,024	0,108
-587,138	118,634	0,090	0,081
-586,123	-200,000	-0,010	0,082
-585,109	785,448	0,073	-0,147
-584,094	-200,000	-0,010	-0,041
-583,079	800,000	-0,035	0,071
-582,065	219,896	-0,017	0,019
-581,050	195,304	0,051	0,057
-580,036	-200,000	0,016	-0,095
-579,021	372,758	-0,019	0,028
-578,006	-200,000	-0,019	0,086
-576,992	95,896	0,029	0,024
-575,977	-200,000	0,009	-0,112
-574,963	96,254	-0,124	0,104
-573,948	187,779	0,023	-0,026
-572,934	-146,643	-0,222	0,014
-571,919	5,197	-0,057	-0,030
-570,904	-53,587	-0,013	-0,004
-569,890	-23,361	-0,052	0,023
-568,875	-65,173	0,068	0,020
-567,861	-88,178	0,080	-0,017
-566,846	147,341	-0,114	0,112
-565,831	192,165	0,059	-0,065
-564,817	115,859	-0,017	-0,015
-563,802	17,341	0,072	-0,042
-562,788	100,378	0,048	-0,041
-561,773	-80,514	-0,107	0,026
-560,758	-51,233	0,087	0,030
-559,744	387,981	0,024	0,037
-558,729	257,310	-0,024	-0,030
-557,715	-130,185	0,129	0,013
-556,700	76,008	0,035	0,027
-555,685	119,288	-0,040	0,036
-554,671	153,662	0,067	-0,067
-553,656	-200,000	0,006	-0,029
-552,642	-200,000	0,003	-0,049
-551,627	237,571	-0,089	0,109
-550,612	-60,795	0,188	-0,058
-549,598	800,000	-0,027	-0,068
-548,583	-200,000	-0,003	-0,065
-547,569	237,319	0,038	0,047
-546,554	-200,000	0,004	0,054
-545,539	-200,000	-0,001	0,056
-544,525	-59,890	-0,021	-0,007
-543,510	154,601	-0,052	-0,052
-542,496	41,705	-0,033	-0,022
-541,481	-110,228	0,065	-0,010
-540,466	-124,070	0,142	-0,016
-539,452	-30,560	-0,112	0,046
-538,437	579,604	0,016	0,028
-537,423	-190,111	-0,147	0,001
-536,408	-69,879	0,016	-0,004
-535,393	14,859	0,184	-0,105
-534,379	-200,000	0,010	-0,128
-533,364	6,232	-0,010	0,005
-532,350	-200,000	0,003	-0,036
-531,335	-200,000	-0,004	0,121
-530,321	-200,000	-0,010	0,132
-529,306	558,182	0,035	0,062
-528,291	160,613	0,077	-0,079
-527,277	-200,000	0,002	-0,031
-526,262	-62,881	0,159	-0,048
-525,248	216,392	0,074	-0,086
-524,233	135,070	-0,048	0,045
-523,218	-185,556	0,012	-0,000
-522,204	160,855	-0,082	-0,083
-521,189	-22,672	-0,186	-0,082
-520,175	-83,955	0,051	-0,012
-519,160	-48,074	-0,097	0,034
-518,145	401,564	0,026	0,041
-517,131	152,704	0,101	-0,101
-516,116	82,275	0,149	0,118
-515,102	-17,708	-0,183	0,083
-514,087	226,917	-0,035	-0,041
-513,072	-200,000	-0,029	-0,107
-512,058	39,867	0,045	0,030
-511,043	-123,718	-0,060	-0,007
-510,029	783,163	-0,044	0,089
-509,014	-200,000	0,010	0,079
-507,999	800,000	-0,028	-0,090
-506,985	62,335	0,064	-0,046
-505,970	-140,051	0,133	-0,010
-504,956	622,598	-0,086	-0,158
-503,941	-55,174	-0,113	-0,037
-502,926	-200,000	0,008	0,121
-501,912	104,504	-0,098	0,084
-500,897	108,586	-0,027	0,024
-499,883	-200,000	-0,020	0,075
-498,868	-71,914	-0,043	-0,011
-497,853	-200,000	-0,014	-0,074
-496,839	166,177	-0,042	-0,043
-495,824	245,847	0,086	0,106
-494,810	-69,831	-0,074	-0,021
-493,795	800,000	0,018	0,036
-492,781	-200,000	-0,014	0,058
-491,766	522,172	0,067	-0,115
-490,751	309,211	-0,133	-0,182
-489,737	217,475	-0,035	-0,041
-488,722	-130,291	0,158	0,015
-487,708	-200,000	-0,038	0,163
-486,693	52,597	0,087	0,060
-485,678	90,170	-0,095	-0,077
-484,664	49,068	0,059	-0,040
-483,649	-82,070	-0,019	-0,004
-482,635	69,928	0,089	-0,067
-481,620	236,917	-0,035	0,043
-480,605	19,459	0,151	-0,088
-479,591	800,000	-0,031	0,063
-478,576	-21,380	0,130	0,057
-477,562	-96,962	-0,171	0,032
-476,547	-121,762	0,099	0,012
-475,532	-200,000	-0,084	-0,000
-474,518	119,103	0,148	0,133
-473,503	-52,474	-0,071	0,024
-472,489	-200,000	0,019	-0,088
-471,474	44,811	-0,049	-0,033
-470,459	-3,027	-0,120	0,061
-469,445	19,536	0,022	-0,013
-468,430	211,445	0,022	0,026
-467,416	800,000	0,011	0,023
-466,401	78,202	0,083	0,065
-465,386	-200,000	0,037	0,125
-464,372	636,108	0,052	-0,097
-463,357	-200,000	-0,010	-0,132
-462,343	800,000	-0,005	0,013
-461,328	437,985	0,034	0,055
-460,313	12,027	0,154	-0,086
-459,299	-58,783	-0,113	0,035
-458,284	119,621	-0,016	-0,015
-457,270	-92,673	-0,054	-0,011
-456,255	-121,500	-0,098	-0,012
-455,241	477,487	-0,025	-0,041
-454,226	-87,247	0,056	-0,012
-453,211	137,713	0,046	0,044
-452,197	-69,127	-0,136	0,038
-451,182	-51,789	0,062	-0,021
-450,168	-34,449	-0,056	0,022
-449,153	256,452	-0,045	0,057
-448,138	800,000	0,052	-0,131
-447,124	280,480	0,053	-0,069
-446,109	-91,429	-0,078	-0,016
-445,095	-200,000	-0,005	-0,032
-444,080	338,407	-0,016	0,022
-443,065	-200,000	0,005	0,032
-442,051	-138,000	-0,032	0,003
-441,036	-200,000	-0,012	-0,179
-440,022	-200,000	-0,010	0,060
-439,007	153,587	0,118	0,118
-437,992	63,615	0,025	-0,018
-436,978	211,184	0,044	-0,050
-435,963	-196,123	-0,093	-0,000
-434,949	800,000	-0,067	0,144
-433,934	-200,000	0,011	-0,086
-432,919	69,204	-0,072	-0,054
-431,905	424,011	-0,058	-0,091
-430,890	-36,952	0,147	0,057
-429,876	800,000	0,029	0,066
-428,861	42,654	-0,062	0,041
-427,846	-99,156	0,078	-0,014
-426,832	800,000	-0,039	-0,079
-425,817	-97,847	0,042	-0,008
-424,803	-91,437	0,121	0,025
-423,788	-200,000	0,015	0,103
-422,773	232,762	0,014	-0,017
-421,759	794,364	-0,028	-0,055
-420,744	632,614	-0,096	0,178
-419,730	67,528	-0,024	-0,018
-418,715	800,000	-0,050	-0,114
-417,701	-173,375	0,054	0,001
-416,686	-52,418	-0,051	-0,017
-415,671	230,144	-0,023	0,027
-414,657	-56,042	0,034	0,011
-413,642	-200,000	0,029	0,102
-412,628	-200,000	0,014	0,159
-411,613	800,000	-0,028	0,060
-410,598	-68,242	0,121	0,034
-409,584	391,316	-0,023	0,036
-408,569	-31,673	0,074	0,030
-407,555	22,286	-0,098	0,058
-406,540	65,123	0,087	0,064
-405,525	224,886	-0,153	0,181
-404,511	83,025	-0,070	-0,055
-403,496	800,000	0,038	-0,105
-402,482	-200,000	0,003	0,193
-401,467	-200,000	0,006	0,088
-400,452	-200,000	0,024	-0,084
-399,438	-153,714	0,083	0,004
-398,423	-132,035	0,032	-0,003
-397,409	-2,463	-0,061	0,031
-396,394	800,000	-0,013	-0,038
-395,379	-200,000	0,027	-0,140
-394,365	56,206	0,078	-0,055
-393,350	-200,000	0,010	-0,069
-392,336	-200,000	0,002	-0,113
-391,321	-142,731	-0,003	-0,000
-390,306	349,073	-0,059	-0,085
-389,292	-200,000	0,008	0,027
-388,277	-58,949	-0,113	0,035
-387,263	800,000	0,091	-0,277
-386,248	-8,732	-0,081	-0,039
-385,233	50,081	0,085	-0,058
-384,219	392,830	0,045	-0,068
-383,204	393,120	-0,038	-0,058
-382,190	-200,000	-0,030	0,101
-381,175	89,281	-0,046	-0,037
-380,160	-200,000	0,007	0,050
-379,146	-200,000	0,003	-0,026
-378,131	-175,392	0,097	0,002
-377,117	800,000	-0,025	0,079
-376,102	-36,832	-0,071	-0,027
-375,088	-105,040	0,105	0,017
-374,073	-132,094	0,062	-0,006
-373,058	-200,000	0,013	-0,089
-372,044	-92,503	0,065	-0,013
-371,029	-200,000	0,007	0,047
-370,015	23,377	0,072	0,043
-369,000	800,000	0,021	-0,042
-367,985	765,277	0,045	-0,089
-366,971	-145,270	0,112	0,007
-365,956	-200,000	0,015	0,056
-364,942	146,353	-0,027	0,027
-363,927	7,146	-0,119	0,064
-362,912	-113,530	0,023	0,003
-361,898	-45,478	-0,045	0,016
-360,883	-200,000	0,013	0,090
-359,869	140,955	-0,114	0,109
-358,854	114,668	0,047	-0,042
-357,839	-28,409	-0,095	0,040
-356,825	233,300	0,064	0,077
-355,810	-125,559	0,036	0,004
-354,796	199,603	-0,074	-0,082
-353,781	-200,000	0,010	0,130
-352,766	-200,000	-0,001	-0,100
-351,752	-200,000	0,032	-0,120
-350,737	92,602	0,070	-0,058
-349,723	-200,000	0,064	0,247
-348,708	244,594	0,129	0,157
-347,693	610,525	-0,115	-0,210
-346,679	285,029	-0,040	-0,052
-345,664	43,201	0,054	0,036
-344,650	-200,000	-0,042	0,138
-343,635	66,323	0,050	0,037
-342,620	-87,647	-0,080	0,017
-341,606	-200,000	-0,001	0,042
-340,591	-79,160	-0,122	-0,030
-339,577	462,170	-0,023	-0,038
-338,562	261,554	0,091	-0,115
-337,548	639,059	0,006	0,010
-336,533	-155,311	0,069	0,003
-335,518	-133,652	0,165	-0,015
-334,504	-111,269	0,058	-0,008
-333,489	34,486	-0,069	0,044
-332,475	-146,009	-0,088	-0,006
-331,460	587,053	-0,069	-0,124
-330,445	-200,000	0,002	0,058
-329,431	-200,000	-0,023	-0,137
-328,416	-2,815	0,029	0,015
-327,402	-75,237	-0,025	-0,006
-326,387	-200,000	-0,003	-0,079
-325,372	-5,306	0,142	-0,070
-324,358	-17,235	0,064	-0,029
-323,343	800,000	-0,046	-0,104
-322,329	800,000	0,028	0,083
-321,314	361,031	-0,018	0,026
-320,299	181,826	0,048	-0,052
-319,285	274,968	0,045	0,058
-318,270	663,833	0,020	0,038
-317,256	82,530	-0,052	-0,041
-316,241	-55,884	-0,040	-0,013
-315,226	-200,000	-0,004	0,127
-314,212	202,406	0,094	-0,106
-313,197	148,978	-0,078	0,077
-312,183	364,262	-0,069	-0,101
-311,168	245,650	-0,017	0,021
-310,153	49,696	-0,090	-0,062
-309,139	800,000	0,047	-0,149
-308,124	800,000	-0,012	0,033
-307,110	800,000	0,054	0,118
-306,095	199,763	0,085	0,095
-305,080	-200,000	-0,034	-0,127
-304,066	-200,000	0,006	0,031
-303,051	-200,000	0,000	-0,104
-302,037	-109,560	-0,149	0,023
-301,022	800,000	0,025	-0,055
-300,008	800,000	-0,092	0,193
-298,993	-7,151	0,146	-0,072
-297,978	128,909	-0,113	-0,104
-296,964	-32,052	-0,077	-0,031
-295,949	-46,000	0,027	0,010
-294,935	-76,636	-0,109	0,028
-293,920	-200,000	0,002	0,121
-292,905	-200,000	-0,001	-0,120
-291,891	-200,000	-0,027	0,093
-290,876	-145,036	0,167	-0,011
-289,862	800,000	0,048	0,132
-288,847	-135,629	0,211	0,018
-287,832	-42,090	-0,005	-0,002
-286,818	-200,000	-0,025	0,134
-285,803	800,000	-0,066	0,188
-284,789	-200,000	0,020	0,107
-283,774	-117,930	0,181	-0,023
-282,759	422,534	-0,059	0,092
-281,745	202,084	-0,069	0,077
-280,730	-200,000	0,010	-0,052
-279,716	177,628	0,048	-0,050
-278,701	-121,004	0,126	0,015
-277,686	-200,000	-0,001	-0,052
-276,672	-153,973	0,046	-0,002
-275,657	-200,000	0,026	-0,122
-274,643	430,355	-0,083	-0,130
-273,628	-53,910	0,095	-0,031
-272,613	-200,000	0,017	-0,195
-271,599	14,654	-0,093	0,052
-270,584	60,371	0,073	0,052
-269,570	-104,864	0,074	-0,012
-268,555	472,138	0,068	-0,111
-267,540	800,000	-0,043	0,123
-266,526	-200,000	0,009	0,108
-265,511	164,484	-0,065	-0,066
-264,497	-97,077	0,109	0,020
-263,482	800,000	0,036	0,098
-262,467	-200,000	-0,007	0,095
-261,453	-5,811	-0,187	0,092
-260,438	-200,000	0,009	-0,083
-259,424	800,000	-0,018	-0,038
-258,409	-200,000	0,012	-0,139
-257,395	-58,908	-0,041	-0,013
-256,380	-200,000	-0,003	0,028
-255,365	-200,000	0,003	0,038
-254,351	-81,176	-0,076	0,018
-253,336	800,000	-0,021	0,056
-252,322	583,266	-0,068	-0,121
-251,307	-200,000	0,017	-0,099
-250,292	101,792	0,122	0,103
-249,278	-200,000	0,018	0,168
-248,263	-23,738	0,003	-0,001
-247,249	479,764	-0,045	-0,074
-246,234	-81,448	-0,113	-0,027
-245,219	-200,000	0,000	-0,013
-244,205	-200,000	-0,028	-0,091
-243,190	-200,000	0,008	0,089
-242,176	-65,136	0,102	0,030
-241,161	-117,330	-0,044	-0,006
-240,146	-68,092	0,035	0,010
-239,132	453,317	0,026	0,042
-238,117	-200,000	0,041	0,165
-237,103	-72,241	0,017	0,005
-236,088	-43,002	-0,085	0,031
-235,073	-151,403	-0,074	-0,004
-234,059	-200,000	-0,004	-0,134
-233,044	412,167	0,051	-0,079
-232,030	800,000	-0,054	-0,150
-231,015	800,000	-0,045	-0,099
-230,000	47,418	-0,020	-0,014
-228,986	21,571	-0,103	0,061
-227,971	-200,000	0,003	-0,117
-226,957	-128,681	0,128	-0,013
-225,942	800,000	0,026	0,062
-224,927	-200,000	-0,014	0,057
-223,913	800,000	-0,049	-0,105
-222,898	800,000	0,004	0,009
-221,884	0,746	-0,094	-0,049
-220,869	-155,614	0,111	0,005
-219,855	249,447	0,024	0,030
-218,840	-26,398	-0,033	-0,014
-217,825	737,068	-0,035	0,068
-216,811	800,000	-0,018	-0,050
-215,796	451,302	0,045	0,072
-214,782	61,486	0,090	0,064
-213,767	-135,525	-0,096	0,008
-212,752	-73,315	0,072	0,019
-211,738	295,387	-0,038	-0,050
-210,723	532,927	-0,082	-0,141
-209,709	-121,449	-0,119	-0,014
-208,694	-200,000	0,013	-0,060
-207,679	-200,000	-0,019	0,062
-206,665	-81,573	0,204	0,048
-205,650	39,728	0,083	0,053
-204,636	800,000	-0,011	0,024
-203,621	448,738	0,032	-0,052
-202,606	-200,000	0,021	-0,101
-201,592	688,493	-0,061	0,115
-200,577	800,000	-0,063	0,138
-199,563	765,349	-0,077	0,151
-198,548	342,305	0,129	0,183
-197,533	131,868	0,028	-0,026
-196,519	-200,000	0,050	0,177
-195,504	444,917	-0,031	0,050
-194,490	415,032	0,043	-0,067
-193,475	-25,812	0,102	0,043
-192,460	-177,097	0,198	-0,003
-191,446	-176,408	-0,139	0,003
-190,431	800,000	-0,016	-0,039
-189,417	20,249	-0,054	-0,032
-188,402	-200,000	-0,008	0,035
-187,387	-62,844	-0,013	-0,004
-186,373	-200,000	-0,036	-0,138
-185,358	-200,000	0,020	0,077
-184,344	49,853	0,083	-0,056
-183,329	104,898	0,106	0,090
-182,315	-128,933	-0,183	0,018
-181,300	-103,680	-0,073	-0,012
-180,285	335,337	0,059	0,082
-179,271	-200,000	-0,016	-0,088
-178,256	246,454	-0,096	-0,116
-177,242	-200,000	0,027	0,111
-176,227	-114,454	0,060	-0,008
-175,212	-20,842	-0,074	-0,033
-174,198	77,048	0,036	0,027
-173,183	306,727	0,071	-0,095
-172,169	-147,998	-0,132	0,008
-171,154	-142,835	0,027	0,002
-170,139	242,839	-0,051	0,062
-169,125	-139,442	0,205	-0,016
-168,110	-64,190	0,051	0,015
-167,096	-200,000	-0,020	-0,187
-166,081	277,689	-0,064	0,083
-165,066	-23,266	-0,086	-0,037
-164,052	800,000	0,038	0,099
-163,037	800,000	0,046	-0,098
-162,023	115,543	0,071	-0,062
-161,008	110,562	0,057	0,049
-159,993	-114,986	0,042	-0,006
-158,979	-200,000	-0,035	-0,125
-157,964	131,919	-0,057	-0,053
-156,950	-73,481	-0,045	-0,012
-155,935	424,679	-0,040	0,062
-154,920	800,000	0,033	0,086
-153,906	-82,757	-0,031	0,007
-152,891	-197,334	0,062	-0,000
-151,877	-200,000	-0,019	-0,152
-150,862	-200,000	0,030	-0,126
-149,847	256,761	-0,058	-0,072
-148,833	20,855	0,065	0,038
-147,818	-187,095	-0,014	-0,000
-146,804	7,857	0,070	-0,038
-145,789	448,073	0,045	-0,072
-144,775	-200,000	0,001	-0,058
-143,760	800,000	-0,080	-0,236
-142,745	-32,544	-0,051	0,020
-141,731	116,425	-0,071	0,062
-140,716	-200,000	0,017	0,057
-139,702	143,190	0,021	0,020
-138,687	-87,139	0,052	0,011
-137,672	-200,000	0,004	0,055
-136,658	800,000	-0,058	-0,132
-135,643	433,471	-0,032	-0,050
-134,629	-200,000	-0,003	0,029
-133,614	42,327	-0,094	0,061
-132,599	3,279	0,118	0,062
-131,585	800,000	-0,019	0,057
-130,570	-200,000	0,001	-0,087
-129,556	-120,026	-0,112	0,014
-128,541	800,000	-0,067	0,137
-127,526	-200,000	0,014	0,099
-126,512	-124,389	0,064	0,007
-125,497	53,543	0,040	0,028
-124,483	-52,035	0,047	0,016
-123,468	10,961	-0,105	-0,057
-122,453	53,179	-0,162	0,111
-121,439	225,796	-0,094	0,109
-120,424	-182,426	-0,163	-0,002
