DTS Sentinel unit serial number:	SN410029Multiplexer serial number:	ORYXHardware model number:	OX2-SRSoftware version number:	ORYX F/W v4,00 Oryx Data Collector v3.7.2.0data status	okinstallation	B5 Nyhavnadifferential loss correction	single-endedforward channel	channel 2reverse channel	N/Adate	2023/12/13time	14:42:13forward acquisition time	300,00reverse acquisition time	0,00gamma	499,1914k internal	0,3161k external	0,3161temperature offset calibration	1,0000default loss term (dB/km)	0,3820temperature slope calibration	1,0000multiplexer offset coefficient	1,0000multiplexer slope coefficient	1,0000fibre end	0,00T internal ref (°C)	14,98T ext. ref 1 (°C)	-1,26T ext. ref 2 (°C)	-1,57length (m)	temperature (°C)	Stokes	anti-Stokes-744,400	-200,000	0,007	-0,089
-743,385	-103,368	-0,275	-0,047
-742,371	97,510	0,095	0,080
-741,356	-82,825	-0,427	0,101
-740,342	-57,456	0,144	0,046
-739,327	-139,231	-0,375	0,029
-738,312	14,540	0,135	0,077
-737,298	-105,643	-0,259	-0,043
-736,283	-24,062	0,193	0,085
-735,269	-79,455	-0,360	0,089
-734,254	-200,000	0,006	-0,046
-733,239	-59,488	-0,555	-0,175
-732,225	-117,469	0,066	-0,009
-731,210	19,439	-0,097	0,058
-730,196	-200,000	-0,033	0,159
-729,181	404,917	-0,043	0,067
-728,167	81,019	-0,114	-0,091
-727,152	800,000	-0,016	-0,051
-726,137	-138,146	-0,168	0,014
-725,123	74,470	-0,169	-0,131
-724,108	800,000	-0,014	-0,040
-723,094	800,000	-0,038	-0,097
-722,079	-200,000	0,011	0,039
-721,064	-200,000	-0,022	-0,078
-720,050	211,620	0,082	-0,095
-719,035	-200,000	-0,017	-0,074
-718,021	-200,000	0,020	0,182
-717,006	-59,920	-0,107	0,034
-715,991	-200,000	-0,011	-0,047
-714,977	292,297	-0,087	-0,117
-713,962	-124,104	-0,109	0,012
-712,948	-200,000	0,002	0,024
-711,933	-200,000	0,008	-0,048
-710,918	-96,443	-0,105	0,020
-709,904	800,000	-0,072	-0,155
-708,889	65,759	-0,166	-0,124
-707,875	-153,025	-0,041	0,002
-706,860	-46,083	0,075	-0,027
-705,845	-200,000	-0,005	-0,064
-704,831	-200,000	0,013	0,066
-703,816	-82,479	0,065	0,015
-702,802	-200,000	-0,010	-0,145
-701,787	-200,000	-0,003	-0,144
-700,772	204,118	0,056	-0,064
-699,758	-50,032	-0,047	0,016
-698,743	-59,793	0,046	0,015
-697,729	800,000	-0,013	-0,041
-696,714	800,000	0,018	0,049
-695,699	-120,948	0,029	0,004
-694,685	-119,477	-0,097	0,012
-693,670	604,262	0,031	-0,057
-692,656	283,800	0,069	-0,092
-691,641	800,000	-0,004	-0,009
-690,627	145,753	-0,156	0,154
-689,612	-200,000	0,034	0,172
-688,597	-74,682	-0,069	0,018
-687,583	2,160	-0,142	0,075
-686,568	117,895	0,072	0,065
-685,554	172,528	0,044	-0,047
-684,539	-44,117	0,075	-0,027
-683,524	580,758	0,037	0,067
-682,510	13,265	0,143	0,081
-681,495	-161,280	-0,067	0,002
-680,481	154,524	0,051	0,052
-679,466	-170,252	-0,178	-0,005
-678,451	-58,431	-0,179	0,057
-677,437	-200,000	0,005	-0,046
-676,422	137,197	-0,016	0,015
-675,408	-7,328	-0,133	0,066
-674,393	118,141	-0,065	-0,059
-673,378	-200,000	0,016	-0,157
-672,364	-37,140	-0,144	-0,056
-671,349	183,500	-0,113	-0,123
-670,335	491,867	0,039	0,066
-669,320	-59,003	0,005	0,002
-668,305	138,782	-0,021	-0,020
-667,291	-8,135	0,013	0,006
-666,276	191,480	-0,022	0,025
-665,262	79,856	-0,059	0,047
-664,247	-1,205	-0,119	-0,062
-663,232	800,000	0,037	-0,082
-662,218	-200,000	0,003	-0,105
-661,203	800,000	0,034	-0,080
-660,189	-92,605	-0,080	-0,016
-659,174	366,655	-0,164	-0,243
-658,159	11,992	0,047	0,027
-657,145	4,444	-0,076	-0,041
-656,130	201,215	-0,022	-0,025
-655,116	-200,000	-0,000	-0,026
-654,101	-48,299	0,067	-0,024
-653,086	5,910	0,048	0,026
-652,072	-200,000	-0,000	0,035
-651,057	443,452	-0,052	-0,085
-650,043	-200,000	0,010	-0,093
-649,028	-99,898	-0,131	0,024
-648,014	196,480	0,068	0,077
-646,999	35,670	-0,091	0,059
-645,984	190,136	0,104	0,115
-644,970	-200,000	0,011	-0,140
-643,955	293,593	-0,073	-0,098
-642,941	126,089	0,052	-0,049
-641,926	49,422	-0,112	0,077
-640,911	260,504	0,055	-0,070
-639,897	135,975	-0,066	0,063
-638,882	-2,348	-0,114	-0,058
-637,868	-200,000	-0,017	0,058
-636,853	-50,758	0,042	0,014
-635,838	-200,000	0,001	-0,031
-634,824	771,273	0,042	-0,083
-633,809	-105,282	0,047	0,008
-632,795	-110,165	0,039	0,006
-631,780	-193,824	-0,100	-0,001
-630,765	225,082	0,035	-0,041
-629,751	523,181	0,035	-0,060
-628,736	-46,906	-0,192	0,068
-627,722	205,672	0,080	-0,091
-626,707	151,764	-0,008	0,008
-625,692	21,277	-0,087	-0,052
-624,678	184,229	0,107	-0,116
-623,663	-200,000	-0,020	-0,093
-622,649	108,859	-0,103	-0,090
-621,634	14,301	-0,044	-0,025
-620,619	-64,315	-0,126	-0,037
-619,605	800,000	-0,015	0,047
-618,590	-43,549	0,087	0,032
-617,576	-200,000	-0,031	0,122
-616,561	85,489	-0,063	-0,050
-615,546	-200,000	-0,006	0,031
-614,532	800,000	-0,062	-0,157
-613,517	-200,000	0,006	-0,078
-612,503	184,571	-0,062	0,067
-611,488	-74,210	0,111	0,029
-610,474	-200,000	0,035	0,114
-609,459	-29,771	-0,079	-0,033
-608,444	800,000	-0,064	-0,149
-607,430	280,508	-0,016	-0,021
-606,415	33,565	-0,108	-0,068
-605,401	800,000	-0,037	-0,116
-604,386	-200,000	0,057	0,188
-603,371	-57,300	-0,060	0,019
-602,357	81,205	0,035	0,028
-601,342	483,191	-0,028	-0,047
-600,328	-127,267	-0,033	-0,003
-599,313	-193,244	-0,146	0,001
-598,298	94,785	0,057	0,048
-597,284	800,000	-0,043	-0,108
-596,269	186,467	0,095	0,103
-595,255	-14,073	0,055	0,026
-594,240	431,290	-0,025	0,039
-593,225	60,639	0,035	-0,025
-592,211	800,000	0,013	0,031
-591,196	-111,002	0,072	-0,011
-590,182	-82,566	-0,051	-0,012
-589,167	-16,279	0,057	0,026
-588,152	-23,029	0,093	-0,041
-587,138	426,159	-0,042	0,066
-586,123	199,528	-0,048	-0,055
-585,109	-15,756	-0,080	-0,037
-584,094	-200,000	-0,003	-0,117
-583,079	800,000	0,042	0,087
-582,065	256,765	-0,095	0,120
-581,050	-200,000	0,014	-0,097
-580,036	800,000	-0,044	-0,118
-579,021	51,038	-0,043	0,030
-578,006	39,873	-0,075	-0,049
-576,992	-141,098	-0,039	0,003
-575,977	800,000	-0,035	0,080
-574,963	-200,000	-0,024	-0,094
-573,948	-101,793	0,108	-0,019
-572,934	-124,411	0,053	-0,006
-571,919	16,815	-0,100	-0,058
-570,904	738,067	-0,011	0,021
-569,890	800,000	-0,020	0,054
-568,875	13,366	0,059	0,034
-567,861	-43,828	-0,068	-0,025
-566,846	-200,000	-0,016	-0,057
-565,831	451,220	-0,056	-0,091
-564,817	-125,361	-0,086	-0,009
-563,802	-200,000	-0,010	0,089
-562,788	7,682	-0,029	0,016
-561,773	-44,083	-0,032	-0,012
-560,758	-80,596	0,028	-0,007
-559,744	-200,000	0,020	-0,093
-558,729	-39,288	-0,071	0,027
-557,715	-43,064	-0,106	0,039
-556,700	800,000	-0,070	-0,183
-555,685	116,109	0,074	-0,067
-554,671	161,866	-0,084	0,086
-553,656	514,174	-0,045	0,078
-552,642	-200,000	-0,014	-0,047
-551,627	-45,002	-0,062	-0,023
-550,612	-7,173	-0,047	-0,023
-549,598	590,898	-0,121	-0,220
-548,583	-200,000	-0,014	-0,085
-547,569	-79,428	0,061	0,015
-546,554	800,000	-0,045	-0,104
-545,539	705,332	-0,023	-0,045
-544,525	800,000	-0,025	0,063
-543,510	-104,724	-0,134	-0,022
-542,496	75,986	-0,067	-0,052
-541,481	72,713	0,043	-0,032
-540,466	-200,000	0,023	0,094
-539,452	331,173	-0,038	0,053
-538,437	-102,605	0,115	0,020
-537,423	-200,000	-0,049	0,162
-536,408	1,215	-0,098	0,051
-535,393	264,776	-0,095	-0,121
-534,379	83,089	-0,066	-0,052
-533,364	109,283	0,101	-0,089
-532,350	124,336	0,064	-0,059
-531,335	800,000	0,005	0,015
-530,321	-200,000	0,006	0,169
-529,306	-200,000	0,007	0,086
-528,291	591,319	-0,045	-0,081
-527,277	-138,149	0,120	0,010
-526,262	-22,247	-0,032	0,014
-525,248	-106,471	0,070	-0,011
-524,233	650,987	-0,047	-0,088
-523,218	800,000	-0,018	0,053
-522,204	205,629	0,068	-0,077
-521,189	-35,786	0,035	0,014
-520,175	-121,345	-0,095	-0,011
-519,160	-161,847	-0,208	0,008
-518,145	-65,547	-0,046	0,013
-517,131	-200,000	0,013	-0,041
-516,116	36,693	0,075	-0,048
-515,102	-200,000	0,012	-0,039
-514,087	-127,770	-0,065	-0,007
-513,072	-33,134	-0,105	-0,042
-512,058	196,704	-0,057	-0,064
-511,043	53,429	0,109	-0,076
-510,029	-200,000	0,039	0,138
-509,014	-10,474	-0,041	0,020
-507,999	119,681	-0,039	0,035
-506,985	-104,231	-0,121	0,020
-505,970	800,000	0,044	-0,095
-504,956	-70,928	-0,029	-0,008
-503,941	620,898	0,040	-0,074
-502,926	103,916	-0,087	0,075
-501,912	-124,289	0,113	0,013
-500,897	-11,382	0,007	0,003
-499,883	-200,000	0,004	-0,084
-498,868	554,465	-0,030	0,053
-497,853	-200,000	0,038	-0,212
-496,839	389,862	0,052	0,079
-495,824	-83,792	-0,104	-0,024
-494,810	-62,083	0,094	-0,028
-493,795	-200,000	0,009	0,206
-492,781	-200,000	-0,055	-0,187
-491,766	-200,000	0,010	0,080
-490,751	216,640	-0,081	-0,094
-489,737	-130,460	0,108	0,011
-488,722	192,469	0,104	0,114
-487,708	194,491	0,017	0,019
-486,693	47,908	-0,073	0,049
-485,678	-200,000	0,000	-0,046
-484,664	36,300	-0,142	0,091
-483,649	275,828	-0,035	-0,046
-482,635	624,395	-0,025	-0,046
-481,620	-200,000	-0,013	-0,048
-480,605	-104,147	-0,023	0,004
-479,591	-74,080	0,069	-0,018
-478,576	209,267	0,098	-0,112
-477,562	711,083	0,044	0,086
-476,547	-55,670	-0,035	0,011
-475,532	64,558	-0,053	0,039
-474,518	19,468	0,056	0,033
-473,503	-143,017	0,071	0,005
-472,489	-69,909	-0,098	-0,027
-471,474	-130,384	0,091	0,009
-470,459	365,494	0,013	0,019
-469,445	168,966	-0,057	-0,060
-468,430	583,210	0,049	-0,088
-467,416	116,156	0,131	-0,117
-466,401	185,342	0,076	0,082
-465,386	-200,000	-0,014	0,109
-464,372	-200,000	-0,034	0,157
-463,357	-100,925	-0,045	0,008
-462,343	-195,756	-0,151	0,001
-461,328	213,983	-0,063	0,073
-460,313	408,868	0,053	0,083
-459,299	-83,503	0,207	0,048
-458,284	111,562	0,085	-0,074
-457,270	21,455	0,082	-0,049
-456,255	82,239	-0,150	-0,119
-455,241	-200,000	-0,000	0,006
-454,226	-102,079	0,065	-0,011
-453,211	630,142	0,022	-0,040
-452,197	46,246	0,100	0,067
-451,182	-69,030	0,073	-0,020
-450,168	-200,000	-0,004	-0,048
-449,153	-200,000	0,015	-0,095
-448,138	-186,041	-0,022	0,000
-447,124	-200,000	-0,000	-0,060
-446,109	737,087	0,058	0,113
-445,095	800,000	0,033	0,084
-444,080	79,920	0,042	-0,032
-443,065	-200,000	0,004	-0,091
-442,051	136,173	0,076	0,072
-441,036	661,740	-0,079	0,149
-440,022	-50,551	-0,048	-0,016
-439,007	-200,000	-0,005	0,025
-437,992	387,621	-0,025	-0,038
-436,978	23,509	-0,048	0,029
-435,963	800,000	-0,010	0,022
-434,949	631,479	-0,006	0,010
-433,934	307,265	-0,087	-0,118
-432,919	-20,733	0,045	0,020
-431,905	-200,000	-0,036	0,152
-430,890	-200,000	-0,020	0,080
-429,876	-90,325	0,049	-0,010
-428,861	-200,000	-0,001	0,120
-427,846	282,693	0,032	-0,042
-426,832	-200,000	0,018	-0,089
-425,817	-102,939	-0,104	-0,018
-424,803	800,000	0,042	-0,092
-423,788	-200,000	0,016	0,068
-422,773	-200,000	0,010	0,059
-421,759	-200,000	0,026	0,143
-420,744	395,449	-0,038	0,058
-419,730	-104,061	-0,092	-0,015
-418,715	-116,159	-0,165	-0,022
-417,701	800,000	0,047	0,113
-416,686	-200,000	-0,003	-0,035
-415,671	800,000	0,018	0,050
-414,657	448,368	0,045	0,072
-413,642	-57,374	0,043	0,014
-412,628	366,424	0,059	0,087
-411,613	-15,866	-0,051	-0,023
-410,598	25,250	0,017	-0,010
-409,584	-88,953	0,079	0,017
-408,569	61,095	0,114	0,082
-407,555	-200,000	0,000	0,076
-406,540	-200,000	0,013	0,102
-405,525	-79,672	0,084	-0,021
-404,511	202,960	-0,080	-0,090
-403,496	593,421	0,024	-0,043
-402,482	-200,000	-0,009	0,084
-401,467	-116,576	0,099	0,013
-400,452	345,000	0,023	0,033
-399,438	-45,542	-0,073	0,026
-398,423	19,444	0,010	-0,006
-397,409	800,000	0,026	0,059
-396,394	74,785	-0,134	-0,103
-395,379	800,000	0,039	-0,085
-394,365	-3,135	0,108	-0,055
-393,350	-200,000	0,033	0,120
-392,336	-200,000	0,003	0,058
-391,321	367,034	-0,023	-0,034
-390,306	-200,000	-0,004	-0,027
-389,292	250,511	-0,024	-0,029
-388,277	-200,000	-0,012	0,042
-387,263	78,289	0,140	-0,108
-386,248	-200,000	0,001	0,069
-385,233	-200,000	-0,087	0,000
-384,219	-200,000	-0,022	0,161
-383,204	59,320	-0,140	-0,100
-382,190	-200,000	0,011	-0,080
-381,175	4,352	0,069	-0,036
-380,160	-200,000	-0,000	-0,083
-379,146	800,000	0,025	0,050
-378,131	-200,000	-0,016	-0,069
-377,117	80,393	0,041	-0,032
-376,102	-41,370	-0,035	0,013
-375,088	800,000	0,025	-0,077
-374,073	-129,185	-0,156	-0,016
-373,058	11,473	-0,011	0,006
-372,044	800,000	0,073	0,170
-371,029	800,000	-0,014	-0,029
-370,015	275,455	-0,024	0,031
-369,000	-100,253	-0,102	0,018
-367,985	6,071	-0,046	-0,025
-366,971	-200,000	0,017	-0,067
-365,956	800,000	0,033	0,084
-364,942	800,000	0,048	-0,119
-363,927	-42,594	0,037	-0,014
-362,912	-200,000	-0,003	0,051
-361,898	316,815	0,022	-0,030
-360,883	182,389	0,089	0,095
-359,869	-200,000	0,002	-0,077
-358,854	93,921	0,090	0,074
-357,839	-44,959	0,106	-0,038
-356,825	800,000	0,037	0,095
-355,810	-84,857	0,064	0,015
-354,796	800,000	0,029	-0,060
-353,781	-200,000	-0,002	0,013
-352,766	457,327	0,061	0,098
-351,752	2,866	0,067	0,035
-350,737	-38,700	0,143	-0,054
-349,723	-51,756	-0,032	0,011
-348,708	800,000	0,016	-0,035
-347,693	115,581	0,017	-0,015
-346,679	-56,110	-0,139	-0,045
-345,664	0,854	0,112	0,058
-344,650	777,106	-0,047	0,094
-343,635	576,050	0,070	0,125
-342,620	800,000	0,025	0,075
-341,606	-43,350	-0,038	-0,014
-340,591	-16,166	0,021	-0,010
-339,577	800,000	0,024	0,070
-338,562	-200,000	0,001	-0,058
-337,548	-200,000	0,017	0,106
-336,533	223,992	0,063	0,074
-335,518	7,373	0,124	-0,067
-334,504	-16,004	-0,062	0,029
-333,489	800,000	-0,022	-0,059
-332,475	-200,000	-0,030	-0,103
-331,460	-56,610	-0,088	0,028
-330,445	-136,429	0,109	-0,009
-329,431	800,000	-0,040	0,102
-328,416	-200,000	-0,023	-0,078
-327,402	-141,129	-0,093	-0,007
-326,387	132,217	-0,041	0,038
-325,372	-200,000	0,030	-0,111
-324,358	-22,367	0,120	-0,053
-323,343	-30,779	-0,129	0,052
-322,329	-146,215	0,140	0,009
-321,314	111,130	0,060	0,052
-320,299	154,489	-0,096	0,096
-319,285	175,839	0,039	-0,041
-318,270	800,000	0,019	-0,045
-317,256	-97,786	0,015	-0,003
-316,241	392,791	0,125	0,189
-315,226	-175,722	-0,088	-0,002
-314,212	-151,012	-0,052	0,003
-313,197	648,264	0,082	0,153
-312,183	-134,390	-0,045	0,004
-311,168	800,000	0,059	-0,144
-310,153	654,088	-0,045	-0,083
-309,139	47,153	-0,088	-0,059
-308,124	36,412	-0,152	-0,097
-307,110	456,608	0,089	0,143
-306,095	-38,902	0,172	0,065
-305,080	126,740	-0,024	0,022
-304,066	157,949	0,128	-0,128
-303,051	-200,000	0,016	0,053
-302,037	-139,870	-0,200	0,015
-301,022	163,001	0,053	-0,054
-300,008	701,021	0,059	0,113
-298,993	-140,925	0,111	0,008
-297,978	81,481	0,073	0,057
-296,964	-7,130	-0,047	0,023
-295,949	-200,000	-0,007	-0,025
-294,935	77,760	-0,026	0,020
-293,920	800,000	-0,041	0,097
-292,905	23,617	-0,068	-0,040
-291,891	143,766	0,052	0,050
-290,876	14,186	-0,119	-0,067
-289,862	-43,809	0,083	0,030
-288,847	-200,000	-0,001	0,024
-287,832	800,000	0,051	-0,126
-286,818	165,136	0,041	0,042
-285,803	-200,000	0,040	0,155
-284,789	-200,000	0,004	0,071
-283,774	-156,443	0,166	0,007
-282,759	251,749	-0,056	0,069
-281,745	-14,778	-0,198	0,092
-280,730	-104,199	0,115	-0,019
-279,716	800,000	-0,057	-0,116
-278,701	-5,448	-0,053	-0,026
-277,686	-200,000	-0,008	0,044
-276,672	-200,000	0,010	-0,076
-275,657	61,291	-0,091	-0,065
-274,643	-200,000	-0,016	-0,067
-273,628	30,763	-0,068	-0,042
-272,613	106,117	-0,089	0,076
-271,599	-10,979	0,044	0,021
-270,584	800,000	0,071	0,145
-269,570	-200,000	0,047	-0,154
-268,555	367,492	0,039	-0,057
-267,540	721,983	0,018	-0,034
-266,526	32,190	-0,088	0,055
-265,511	45,927	0,082	0,054
-264,497	111,192	0,051	0,044
-263,482	-110,527	0,160	0,024
-262,467	749,036	0,019	0,037
-261,453	241,900	-0,012	0,014
-260,438	800,000	0,066	-0,157
-259,424	-200,000	0,008	0,029
-258,409	433,914	-0,087	-0,136
-257,395	-131,395	0,188	-0,018
-256,380	8,706	0,143	0,078
-255,365	-200,000	-0,072	0,000
-254,351	37,398	-0,059	0,038
-253,336	177,451	0,025	0,026
-252,322	-107,265	-0,059	0,009
-251,307	800,000	0,027	-0,061
-250,292	480,722	-0,046	-0,075
-249,278	-24,285	0,024	0,010
-248,263	255,738	-0,036	0,045
-247,249	172,343	-0,105	0,109
-246,234	-125,267	-0,099	0,011
-245,219	-15,871	0,023	0,010
-244,205	40,893	-0,085	0,055
-243,190	248,405	-0,048	0,059
-242,176	96,993	0,117	0,097
-241,161	800,000	0,037	0,082
-240,146	419,408	0,015	0,024
-239,132	577,017	0,017	-0,030
-238,117	-200,000	-0,047	-0,153
-237,103	227,583	-0,081	0,096
-236,088	124,437	0,147	-0,133
-235,073	290,009	-0,070	-0,092
-234,059	-200,000	-0,020	0,102
-233,044	497,279	0,027	0,045
-232,030	-90,385	-0,066	0,014
-231,015	-8,198	-0,114	0,055
-230,000	58,761	-0,059	0,042
-228,986	273,199	-0,115	0,147
-227,971	68,078	0,056	0,041
-226,957	333,897	-0,035	0,049
-225,942	45,664	0,098	-0,065
-224,927	64,787	-0,080	-0,058
-223,913	-200,000	0,007	-0,136
-222,898	-200,000	-0,019	-0,122
-221,884	800,000	0,025	-0,052
-220,869	136,797	0,089	0,083
-219,855	-120,220	0,144	0,018
-218,840	-200,000	0,007	0,048
-217,825	435,282	-0,076	0,120
-216,811	423,016	0,089	-0,138
-215,796	466,846	0,037	-0,060
-214,782	-53,906	-0,030	-0,010
-213,767	-200,000	0,004	0,028
-212,752	-113,146	0,174	-0,025
-211,738	101,753	0,084	0,071
-210,723	-200,000	-0,015	0,133
-209,709	-118,882	-0,088	0,011
-208,694	-200,000	0,015	-0,135
-207,679	530,873	0,035	-0,060
-206,665	-200,000	-0,001	-0,032
-205,650	0,587	0,092	0,047
-204,636	552,383	0,015	0,026
-203,621	-151,733	-0,051	0,003
-202,606	81,517	-0,079	-0,062
-201,592	670,915	0,084	-0,158
-200,577	-79,897	0,084	0,020
-199,563	362,031	-0,058	-0,084
-198,548	239,685	0,062	0,075
-197,533	393,498	-0,063	0,095
-196,519	36,520	0,100	-0,064
-195,504	-76,793	-0,043	0,011
-194,490	-200,000	-0,025	0,118
-193,475	-133,788	-0,043	-0,004
-192,460	96,458	0,021	-0,017
-191,446	144,326	0,079	-0,076
-190,431	-88,473	0,113	0,024
-189,417	-8,923	0,066	0,032
-188,402	-29,496	-0,062	-0,025
-187,387	124,466	-0,100	-0,091
-186,373	800,000	0,022	0,055
-185,358	-18,812	-0,090	-0,040
-184,344	-200,000	-0,004	0,027
-183,329	64,636	-0,069	0,050
-182,315	-200,000	0,015	-0,066
-181,300	27,136	-0,143	-0,087
-180,285	12,501	0,112	0,062
-179,271	619,869	0,122	-0,223
-178,256	800,000	0,013	0,028
-177,242	-200,000	0,001	0,160
-176,227	800,000	-0,006	0,015
-175,212	-200,000	0,000	-0,076
-174,198	-83,580	0,086	0,020
-173,183	-39,011	-0,115	-0,043
-172,169	489,719	-0,015	-0,025
-171,154	212,069	0,049	-0,055
-170,139	297,325	-0,064	-0,085
-169,125	40,783	0,087	0,057
-168,110	100,876	0,047	-0,039
-167,096	348,428	-0,080	0,114
-166,081	5,528	0,123	-0,065
-165,066	20,111	0,115	0,067
-164,052	-46,367	0,016	0,006
-163,037	172,714	0,022	-0,023
-162,023	-200,000	0,012	0,105
-161,008	-129,450	-0,062	0,006
-159,993	-29,170	0,049	-0,020
-158,979	800,000	0,034	-0,105
-157,964	143,618	0,056	-0,054
-156,950	-11,738	0,022	-0,010
-155,935	28,463	-0,045	0,027
-154,920	82,801	0,142	0,111
-153,906	-117,713	-0,142	-0,018
-152,891	149,573	0,046	0,045
-151,877	-200,000	0,013	0,113
-150,862	-200,000	0,003	0,090
-149,847	-108,018	-0,038	-0,006
-148,833	35,839	0,071	-0,045
-147,818	215,774	0,075	0,086
-146,804	140,009	-0,105	0,100
-145,789	-16,541	0,059	0,027
-144,775	800,000	0,029	-0,074
-143,760	-200,000	-0,004	-0,017
-142,745	268,722	-0,088	0,112
-141,731	287,568	0,019	0,025
-140,716	-84,337	0,124	-0,028
-139,702	800,000	0,014	0,040
-138,687	586,751	-0,068	0,121
-137,672	800,000	-0,042	0,086
-136,658	250,415	0,053	-0,065
-135,643	-113,602	-0,026	0,004
-134,629	-43,223	-0,060	-0,022
-133,614	-44,706	-0,046	0,016
-132,599	-200,000	0,012	-0,092
-131,585	-200,000	0,017	0,119
-130,570	-165,003	-0,125	0,004
-129,556	-66,941	0,152	-0,043
-128,541	-200,000	0,004	-0,069
-127,526	16,291	-0,128	-0,072
-126,512	15,929	0,088	-0,050
-125,497	-142,181	0,123	0,009
-124,483	102,793	0,151	-0,127
-123,468	800,000	-0,034	-0,099
-122,453	190,475	-0,030	0,032
-121,439	-200,000	0,010	0,131
-120,424	-200,000	0,001	-0,128
-119,410	237,874	0,064	-0,076
-118,395	-129,613	0,030	-0,003
