DTS Sentinel unit serial number:	SN410029Multiplexer serial number:	ORYXHardware model number:	OX2-SRSoftware version number:	ORYX F/W v4,00 Oryx Data Collector v3.7.2.0data status	okinstallation	B5 Nyhavnadifferential loss correction	single-endedforward channel	channel 2reverse channel	N/Adate	2023/12/12time	16:17:13forward acquisition time	300,00reverse acquisition time	0,00gamma	499,1914k internal	0,3156k external	0,3156temperature offset calibration	1,0000default loss term (dB/km)	0,3820temperature slope calibration	1,0000multiplexer offset coefficient	1,0000multiplexer slope coefficient	1,0000fibre end	0,00T internal ref (°C)	15,87T ext. ref 1 (°C)	-0,62T ext. ref 2 (°C)	-0,95length (m)	temperature (°C)	Stokes	anti-Stokes-744,400	-200,000	0,000	-0,054
-743,385	-167,929	-0,286	0,008
-742,371	-63,111	0,087	0,026
-741,356	-4,581	-0,265	0,135
-740,342	800,000	0,061	0,143
-739,327	-20,795	-0,235	-0,106
-738,312	52,787	0,057	-0,040
-737,298	-71,599	-0,297	-0,081
-736,283	306,100	0,120	-0,165
-735,269	-75,567	-0,362	0,094
-734,254	201,741	0,090	0,103
-733,239	-80,568	-0,463	-0,113
-732,225	23,337	0,090	0,055
-731,210	-106,926	0,058	-0,009
-730,196	543,096	0,056	-0,100
-729,181	73,176	-0,062	-0,048
-728,167	-200,000	0,007	-0,113
-727,152	435,391	-0,028	0,044
-726,137	800,000	-0,060	0,158
-725,123	-200,000	0,003	-0,107
-724,108	-200,000	-0,016	-0,132
-723,094	130,480	-0,082	-0,077
-722,079	-200,000	0,026	-0,091
-721,064	-25,939	-0,091	-0,039
-720,050	800,000	0,025	0,059
-719,035	98,844	0,045	0,039
-718,021	800,000	0,026	-0,078
-717,006	70,561	-0,074	-0,056
-715,991	-200,000	-0,066	-0,224
-714,977	-200,000	-0,031	-0,161
-713,962	295,100	-0,033	0,045
-712,948	554,690	0,052	0,093
-711,933	420,229	-0,030	0,048
-710,918	-171,737	-0,064	0,002
-709,904	800,000	-0,092	-0,208
-708,889	328,411	0,033	-0,046
-707,875	-200,000	0,007	0,132
-706,860	27,112	-0,077	0,047
-705,845	24,265	0,063	-0,038
-704,831	-200,000	0,006	-0,059
-703,816	395,033	-0,040	0,062
-702,802	204,588	-0,049	0,056
-701,787	-58,717	-0,043	-0,014
-700,772	-78,308	-0,111	0,028
-699,758	-128,993	-0,096	-0,010
-698,743	12,298	0,085	0,048
-697,729	519,649	-0,091	0,158
-696,714	-200,000	0,025	0,116
-695,699	-63,700	0,074	-0,022
-694,685	416,272	-0,075	-0,118
-693,670	94,239	-0,082	-0,069
-692,656	-81,212	0,086	0,021
-691,641	19,736	0,059	0,035
-690,627	-32,840	0,111	-0,045
-689,612	76,360	-0,033	0,026
-688,597	800,000	-0,025	-0,067
-687,583	-21,016	-0,116	-0,052
-686,568	125,636	-0,101	-0,094
-685,554	-86,371	0,078	-0,018
-684,539	585,481	-0,041	-0,075
-683,524	-54,933	0,015	0,005
-682,510	-200,000	-0,030	0,151
-681,495	8,160	0,103	0,057
-680,481	43,995	-0,075	0,050
-679,466	800,000	0,042	-0,104
-678,451	513,118	-0,015	-0,025
-677,437	-200,000	0,033	-0,155
-676,422	-200,000	0,026	0,100
-675,408	-55,828	0,051	-0,017
-674,393	-200,000	-0,004	0,018
-673,378	-200,000	-0,013	-0,072
-672,364	-200,000	-0,033	-0,123
-671,349	563,804	0,041	-0,073
-670,335	-99,823	-0,085	0,015
-669,320	-200,000	-0,011	0,067
-668,305	397,006	-0,034	0,053
-667,291	-179,604	-0,059	0,001
-666,276	-117,947	-0,121	0,016
-665,262	284,148	-0,078	-0,103
-664,247	38,846	0,071	0,046
-663,232	41,321	0,105	-0,070
-662,218	-200,000	-0,007	0,091
-661,203	2,452	-0,053	0,028
-660,189	-200,000	-0,010	-0,087
-659,174	105,783	-0,058	-0,051
-658,159	-48,172	-0,085	0,030
-657,145	-95,540	-0,090	-0,018
-656,130	-200,000	-0,019	0,133
-655,116	-200,000	0,105	0,000
-654,101	-200,000	0,033	0,114
-653,086	7,432	-0,044	-0,024
-652,072	15,906	0,074	0,043
-651,057	-139,890	0,088	0,007
-650,043	-27,688	-0,132	0,056
-649,028	214,922	0,058	0,068
-648,014	-100,023	0,177	0,032
-646,999	129,141	-0,043	-0,040
-645,984	311,804	-0,009	0,013
-644,970	304,512	-0,111	-0,152
-643,955	-156,135	-0,161	-0,007
-642,941	299,717	-0,017	0,024
-641,926	202,386	-0,028	0,032
-640,911	-123,443	0,033	-0,004
-639,897	-200,000	0,006	0,056
-638,882	-200,000	0,020	-0,083
-637,868	24,524	-0,023	0,014
-636,853	-104,200	-0,141	-0,024
-635,838	26,735	-0,073	0,045
-634,824	-200,000	-0,012	-0,093
-633,809	-200,000	0,008	-0,091
-632,795	-71,111	-0,031	-0,009
-631,780	-200,000	-0,025	-0,116
-630,765	69,300	-0,029	0,022
-629,751	287,149	-0,088	-0,117
-628,736	-109,356	0,049	-0,008
-627,722	-200,000	0,006	0,051
-626,707	-112,769	0,086	0,012
-625,692	-200,000	-0,034	-0,111
-624,678	201,263	0,056	0,064
-623,663	-200,000	-0,016	0,135
-622,649	-96,275	-0,115	-0,022
-621,634	503,704	-0,069	-0,117
-620,619	-57,181	-0,058	0,019
-619,605	-81,886	-0,005	-0,001
-618,590	219,631	-0,076	-0,089
-617,576	-110,115	0,073	-0,011
-616,561	-78,676	-0,091	-0,023
-615,546	-27,144	0,069	0,029
-614,532	108,407	0,070	-0,061
-613,517	800,000	-0,031	0,072
-612,503	-42,549	-0,066	-0,024
-611,488	489,877	-0,053	0,089
-610,474	800,000	-0,006	-0,020
-609,459	-200,000	-0,020	-0,121
-608,444	-57,207	0,022	0,007
-607,430	-200,000	-0,009	-0,099
-606,415	-42,528	-0,040	-0,015
-605,401	34,594	0,119	0,076
-604,386	-195,274	0,031	0,000
-603,371	44,382	-0,044	-0,030
-602,357	-6,682	0,020	0,010
-601,342	166,969	-0,026	0,027
-600,328	27,133	-0,048	0,029
-599,313	207,098	-0,062	-0,071
-598,298	-200,000	0,033	-0,131
-597,284	196,576	-0,036	0,040
-596,269	466,029	-0,053	0,088
-595,255	-117,760	0,092	-0,012
-594,240	800,000	0,017	0,049
-593,225	106,808	0,057	0,050
-592,211	-162,011	-0,031	0,001
-591,196	585,516	0,066	-0,119
-590,182	800,000	-0,018	0,056
-589,167	-150,677	-0,077	0,004
-588,152	-200,000	-0,007	-0,150
-587,138	-200,000	0,008	-0,056
-586,123	-200,000	-0,010	-0,049
-585,109	134,926	0,055	0,052
-584,094	509,728	-0,028	-0,048
-583,079	-1,065	0,097	0,050
-582,065	476,918	0,059	0,097
-581,050	-200,000	0,026	0,101
-580,036	-200,000	0,014	0,095
-579,021	-171,684	-0,119	-0,003
-578,006	-64,428	-0,053	0,016
-576,992	31,507	0,026	0,017
-575,977	-28,935	0,118	0,049
-574,963	-200,000	0,009	-0,112
-573,948	-27,663	0,046	0,019
-572,934	-54,306	-0,053	-0,017
-571,919	92,876	-0,078	-0,065
-570,904	129,024	-0,071	0,066
-569,890	58,693	0,122	-0,088
-568,875	57,391	-0,028	-0,020
-567,861	-200,000	0,005	0,024
-566,846	550,120	0,074	0,130
-565,831	-143,372	-0,077	0,005
-564,817	-76,443	0,094	-0,024
-563,802	-200,000	-0,010	-0,106
-562,788	-200,000	-0,050	-0,225
-561,773	-65,308	0,127	0,037
-560,758	-8,256	0,055	0,027
-559,744	-86,597	-0,073	-0,016
-558,729	-200,000	0,007	0,121
-557,715	800,000	0,032	0,083
-556,700	-200,000	-0,014	-0,078
-555,685	39,947	-0,061	0,040
-554,671	403,999	0,078	0,121
-553,656	350,070	0,073	0,105
-552,642	-200,000	-0,024	0,088
-551,627	-200,000	-0,042	-0,160
-550,612	7,581	-0,049	-0,027
-549,598	-103,190	0,116	0,020
-548,583	-128,903	-0,061	-0,006
-547,569	800,000	-0,040	0,091
-546,554	-112,273	0,030	-0,004
-545,539	-21,566	0,107	0,047
-544,525	-24,938	0,056	-0,024
-543,510	-87,518	-0,019	0,004
-542,496	800,000	0,030	-0,072
-541,481	171,810	0,007	-0,008
-540,466	743,728	-0,023	0,045
-539,452	-14,576	-0,126	-0,059
-538,437	45,483	-0,052	-0,035
-537,423	-94,360	0,037	0,007
-536,408	141,514	-0,077	0,074
-535,393	-200,000	0,009	0,053
-534,379	-56,695	-0,191	-0,062
-533,364	182,995	-0,083	-0,090
-532,350	-200,000	0,003	-0,120
-531,335	800,000	-0,012	0,037
-530,321	800,000	0,014	0,042
-529,306	-75,699	0,091	-0,023
-528,291	132,736	0,012	0,011
-527,277	84,214	0,064	-0,051
-526,262	-20,158	0,116	0,052
-525,248	118,040	-0,051	0,046
-524,233	623,868	0,044	-0,081
-523,218	-13,846	0,074	0,035
-522,204	-67,953	-0,063	-0,018
-521,189	247,195	-0,073	-0,090
-520,175	211,262	-0,026	-0,030
-519,160	-157,088	-0,135	0,006
-518,145	40,964	0,180	-0,119
-517,131	-200,000	-0,003	0,092
-516,116	800,000	-0,017	-0,042
-515,102	15,956	-0,112	0,064
-514,087	486,123	0,048	0,080
-513,072	-50,624	0,144	-0,049
-512,058	417,937	-0,030	-0,047
-511,043	-92,821	-0,054	-0,011
-510,029	-200,000	0,010	0,112
-509,014	-200,000	-0,019	0,085
-507,999	36,701	-0,123	0,079
-506,985	-200,000	0,005	0,090
-505,970	64,313	-0,057	0,042
-504,956	-200,000	0,028	-0,121
-503,941	177,756	0,084	-0,090
-502,926	-71,479	-0,102	0,028
-501,912	-100,100	0,028	0,005
-500,897	-106,491	0,101	0,016
-499,883	-93,977	-0,083	-0,017
-498,868	471,808	0,038	0,063
-497,853	-66,511	-0,032	-0,009
-496,839	180,354	-0,094	0,101
-495,824	692,966	0,057	0,110
-494,810	330,341	-0,049	0,070
-493,795	241,148	-0,085	-0,104
-492,781	800,000	-0,013	-0,039
-491,766	384,352	0,044	-0,066
-490,751	-200,000	-0,021	-0,162
-489,737	800,000	-0,066	-0,155
-488,722	-164,712	0,082	-0,003
-487,708	-148,135	-0,042	0,002
-486,693	-200,000	-0,021	0,070
-485,678	-115,945	0,047	0,006
-484,664	738,665	0,012	0,023
-483,649	-200,000	-0,027	-0,092
-482,635	-119,525	0,035	0,004
-481,620	387,115	-0,046	0,070
-480,605	441,673	0,064	0,102
-479,591	299,029	0,074	-0,100
-478,576	-38,334	-0,137	0,053
-477,562	-62,640	-0,144	-0,043
-476,547	-200,000	0,000	-0,152
-475,532	49,534	-0,092	0,063
-474,518	-200,000	-0,008	-0,073
-473,503	44,800	0,106	0,071
-472,489	-200,000	0,002	-0,011
-471,474	-200,000	-0,009	-0,131
-470,459	-118,233	0,111	0,014
-469,445	143,695	0,092	-0,090
-468,430	800,000	0,031	-0,095
-467,416	69,299	0,023	0,018
-466,401	-200,000	0,000	0,029
-465,386	423,704	-0,098	0,155
-464,372	-200,000	0,024	0,152
-463,357	84,892	-0,084	0,067
-462,343	-200,000	-0,011	-0,219
-461,328	736,857	-0,092	-0,180
-460,313	583,685	0,022	-0,040
-459,299	-200,000	-0,004	0,030
-458,284	-200,000	0,004	0,057
-457,270	186,271	-0,043	-0,046
-456,255	265,897	-0,070	-0,089
-455,241	191,229	-0,106	-0,116
-454,226	-115,494	0,020	0,003
-453,211	-200,000	0,004	0,018
-452,197	279,486	0,079	0,102
-451,182	-52,745	0,025	-0,008
-450,168	-90,752	-0,072	0,015
-449,153	-200,000	0,017	-0,123
-448,138	800,000	-0,082	-0,171
-447,124	382,173	-0,081	-0,122
-446,109	88,645	-0,137	-0,111
-445,095	86,460	-0,032	0,026
-444,080	-81,641	0,118	0,028
-443,065	-91,976	0,146	-0,030
-442,051	549,006	0,045	0,080
-441,036	800,000	0,034	-0,077
-440,022	-29,150	-0,154	-0,064
-439,007	-200,000	0,008	-0,046
-437,992	-200,000	-0,002	0,145
-436,978	-200,000	0,001	-0,129
-435,963	800,000	0,044	0,095
-434,949	242,389	-0,059	0,073
-433,934	79,839	0,020	-0,016
-432,919	-200,000	0,012	-0,178
-431,905	312,260	0,095	-0,131
-430,890	15,111	0,059	0,034
-429,876	-200,000	-0,003	-0,121
-428,861	-148,939	-0,080	0,005
-427,846	-165,946	-0,065	0,002
-426,832	-200,000	0,056	-0,000
-425,817	16,155	0,076	0,043
-424,803	-200,000	0,020	0,092
-423,788	800,000	0,033	-0,097
-422,773	120,787	-0,065	-0,059
-421,759	87,068	-0,101	-0,081
-420,744	800,000	-0,029	-0,084
-419,730	73,631	-0,024	0,019
-418,715	257,209	0,043	-0,054
-417,701	-166,096	-0,066	-0,002
-416,686	-14,085	-0,024	-0,011
-415,671	16,688	0,054	-0,031
-414,657	199,131	0,050	-0,055
-413,642	61,738	0,051	-0,037
-412,628	-95,600	0,110	-0,021
-411,613	-89,993	-0,058	0,012
-410,598	1,993	-0,093	-0,049
-409,584	-200,000	0,009	-0,062
-408,569	241,259	0,036	0,043
-407,555	-200,000	0,034	0,150
-406,540	-111,126	0,060	0,009
-405,525	-200,000	0,002	0,043
-404,511	-70,875	-0,028	0,008
-403,496	58,285	0,031	0,022
-402,482	-55,389	0,113	-0,037
-401,467	-200,000	0,042	-0,142
-400,452	133,527	-0,114	-0,108
-399,438	-200,000	-0,004	-0,023
-398,423	-200,000	-0,002	-0,037
-397,409	-200,000	-0,044	-0,184
-396,394	48,482	0,093	-0,063
-395,379	-109,860	0,059	-0,009
-394,365	-4,611	0,173	0,087
-393,350	-111,536	-0,162	0,024
-392,336	-75,487	0,054	0,014
-391,321	-200,000	-0,004	-0,033
-390,306	38,382	-0,081	0,053
-389,292	241,583	-0,093	0,113
-388,277	-116,260	0,134	0,018
-387,263	800,000	0,098	-0,245
-386,248	800,000	0,015	0,033
-385,233	137,849	0,107	-0,102
-384,219	800,000	-0,037	0,081
-383,204	163,062	0,065	-0,066
-382,190	-53,797	0,096	-0,032
-381,175	95,574	-0,079	-0,065
-380,160	-200,000	0,021	0,128
-379,146	500,180	-0,033	0,055
-378,131	280,150	-0,028	0,037
-377,117	-189,717	-0,100	0,001
-376,102	800,000	-0,047	-0,128
-375,088	120,439	-0,038	-0,035
-374,073	60,388	-0,107	0,077
-373,058	271,092	-0,074	0,095
-372,044	-200,000	0,021	0,074
-371,029	-200,000	0,004	-0,077
-370,015	800,000	0,031	0,080
-369,000	-200,000	-0,008	0,060
-367,985	256,735	-0,065	-0,081
-366,971	138,660	-0,128	0,122
-365,956	-200,000	-0,018	-0,112
-364,942	-200,000	0,001	-0,038
-363,927	800,000	0,029	0,073
-362,912	-83,768	0,117	0,027
-361,898	-82,247	-0,130	-0,030
-360,883	-29,433	0,113	0,047
-359,869	459,155	-0,033	0,053
-358,854	-200,000	0,013	0,057
-357,839	-63,825	0,040	0,012
-356,825	-200,000	0,054	0,201
-355,810	-131,746	-0,139	-0,013
-354,796	164,139	0,136	-0,139
-353,781	-200,000	0,008	-0,119
-352,766	588,972	0,062	0,111
-351,752	-200,000	-0,008	-0,070
-350,737	405,632	0,079	0,121
-349,723	-81,462	-0,021	-0,005
-348,708	-56,094	0,051	-0,016
-347,693	215,522	0,030	-0,035
-346,679	-58,052	0,048	-0,015
-345,664	-41,814	-0,095	-0,035
-344,650	-13,337	0,065	0,031
-343,635	188,279	-0,109	0,118
-342,620	-157,390	0,102	0,004
-341,606	-85,727	-0,085	0,019
-340,591	-200,000	-0,008	0,074
-339,577	-89,471	-0,118	-0,025
-338,562	169,088	0,131	-0,136
-337,548	78,644	-0,041	0,032
-336,533	294,125	-0,024	-0,032
-335,518	-200,000	0,011	0,130
-334,504	-29,900	0,088	0,036
-333,489	-49,815	0,122	0,042
-332,475	198,765	0,019	-0,021
-331,460	-82,013	0,072	-0,017
-330,445	-22,385	-0,017	-0,008
-329,431	724,974	0,059	0,115
-328,416	-21,308	-0,113	0,050
-327,402	23,970	0,037	0,022
-326,387	-200,000	-0,012	0,088
-325,372	635,575	-0,035	0,065
-324,358	-78,380	-0,141	-0,035
-323,343	-82,001	0,043	-0,010
-322,329	-200,000	0,010	-0,042
-321,314	-166,064	0,032	-0,001
-320,299	182,014	0,190	-0,203
-319,285	-200,000	-0,009	-0,114
-318,270	-27,618	-0,064	0,027
-317,256	410,380	0,081	-0,125
-316,241	-127,362	0,042	-0,004
-315,226	800,000	-0,026	-0,055
-314,212	-127,501	0,111	-0,011
-313,197	29,721	0,046	0,028
-312,183	-97,535	0,104	0,019
-311,168	-36,124	-0,064	0,025
-310,153	368,557	0,017	-0,024
-309,139	-85,707	-0,019	-0,004
-308,124	-200,000	0,021	-0,071
-307,110	424,710	0,048	0,074
-306,095	715,936	-0,017	0,033
-305,080	-200,000	-0,017	-0,062
-304,066	-57,865	0,040	-0,013
-303,051	115,833	-0,069	-0,061
-302,037	309,344	0,022	-0,030
-301,022	442,928	0,053	0,084
-300,008	-180,262	0,084	-0,001
-298,993	-200,000	0,018	0,104
-297,978	-200,000	-0,006	0,022
-296,964	392,585	-0,066	0,099
-295,949	-81,322	-0,082	0,019
-294,935	-200,000	-0,003	0,035
-293,920	-200,000	0,056	-0,000
-292,905	-200,000	-0,014	0,088
-291,891	124,787	0,075	0,068
-290,876	83,994	0,143	0,113
-289,862	57,787	-0,107	0,076
-288,847	310,033	0,036	0,049
-287,832	427,892	-0,088	-0,139
-286,818	163,760	0,079	0,080
-285,803	800,000	-0,050	0,121
-284,789	-200,000	-0,058	0,242
-283,774	289,737	0,113	0,149
-282,759	56,391	0,064	0,045
-281,745	800,000	0,031	0,068
-280,730	-50,881	-0,055	-0,019
-279,716	706,189	-0,038	0,072
-278,701	-62,575	-0,064	-0,019
-277,686	-18,411	0,120	0,054
-276,672	800,000	0,037	0,081
-275,657	-200,000	-0,004	0,027
-274,643	800,000	0,012	-0,028
-273,628	67,607	-0,141	-0,104
-272,613	292,135	-0,014	0,018
-271,599	-120,706	-0,050	0,006
-270,584	121,480	-0,030	-0,027
-269,570	208,906	0,116	0,131
-268,555	800,000	-0,030	-0,066
-267,540	150,781	-0,060	-0,059
-266,526	177,725	0,050	0,052
-265,511	471,940	-0,008	0,012
-264,497	-70,733	-0,080	0,022
-263,482	-19,896	-0,036	-0,016
-262,467	69,066	0,012	0,009
-261,453	-122,472	0,097	-0,011
-260,438	-38,774	0,051	-0,019
-259,424	166,274	-0,135	0,138
-258,409	-15,919	0,106	0,049
-257,395	-200,000	0,008	-0,051
-256,380	663,474	-0,046	0,087
-255,365	-200,000	0,003	0,067
-254,351	800,000	-0,045	0,097
-253,336	6,655	0,130	-0,070
-252,322	-200,000	0,007	-0,146
-251,307	662,821	0,026	-0,049
-250,292	-111,322	0,072	0,011
-249,278	143,182	0,028	0,027
-248,263	-200,000	-0,022	0,193
-247,249	45,822	-0,075	-0,050
-246,234	-200,000	-0,002	-0,041
-245,219	-5,786	-0,145	-0,072
-244,205	57,248	-0,041	0,029
-243,190	-200,000	0,017	0,077
-242,176	-200,000	0,033	-0,106
-241,161	164,894	0,102	-0,104
-240,146	-200,000	0,019	0,069
-239,132	655,031	-0,008	-0,016
-238,117	298,093	-0,157	-0,209
-237,103	4,013	0,066	0,035
-236,088	-99,093	0,102	0,018
-235,073	59,918	-0,035	0,025
-234,059	474,379	0,044	0,073
-233,044	197,517	-0,112	0,124
-232,030	-86,795	0,147	-0,032
-231,015	-200,000	-0,020	-0,099
-230,000	-200,000	-0,034	0,247
-228,986	-101,023	0,093	-0,016
-227,971	-99,249	0,149	0,027
-226,957	-200,000	-0,016	0,186
-225,942	252,350	-0,017	-0,021
-224,927	-50,850	-0,091	-0,031
-223,913	45,271	0,087	0,058
-222,898	162,909	-0,169	0,172
-221,884	136,086	0,099	-0,094
-220,869	800,000	-0,023	0,064
-219,855	-200,000	0,005	0,115
-218,840	-200,000	0,007	0,044
-217,825	-62,976	-0,075	0,022
-216,811	-72,400	-0,086	0,023
-215,796	-200,000	0,021	-0,067
-214,782	-200,000	0,031	0,136
-213,767	-200,000	-0,007	-0,023
-212,752	69,742	0,092	0,068
-211,738	-95,757	0,107	-0,021
-210,723	90,314	0,058	0,047
-209,709	-200,000	0,039	-0,154
-208,694	209,985	-0,032	-0,037
-207,679	-59,804	-0,007	-0,002
-206,665	800,000	0,045	-0,090
-205,650	4,169	-0,086	0,045
-204,636	-85,203	-0,082	0,018
-203,621	800,000	0,055	-0,169
-202,606	146,850	-0,123	-0,119
-201,592	-162,742	-0,237	0,008
-200,577	425,793	-0,048	-0,075
-199,563	170,215	0,047	-0,049
-198,548	-200,000	0,010	0,044
-197,533	800,000	0,040	0,111
-196,519	-58,178	-0,015	0,005
-195,504	-44,874	-0,068	0,024
-194,490	-43,174	0,055	-0,020
-193,475	430,765	0,038	-0,060
-192,460	-142,521	0,100	-0,007
-191,446	-28,695	-0,057	0,023
-190,431	-84,812	-0,069	-0,016
-189,417	94,882	-0,116	0,095
-188,402	-200,000	-0,007	0,095
-187,387	10,173	0,078	-0,042
-186,373	249,308	0,067	0,082
-185,358	69,245	-0,049	0,036
-184,344	504,322	0,100	-0,168
-183,329	-98,106	0,117	0,021
-182,315	182,181	-0,039	0,042
-181,300	61,520	-0,043	0,031
-180,285	127,371	0,022	0,021
-179,271	45,806	-0,084	0,056
-178,256	-49,859	-0,171	0,058
-177,242	-200,000	-0,002	0,165
-176,227	14,966	0,085	-0,048
-175,212	25,189	-0,009	-0,005
-174,198	204,859	0,113	0,127
-173,183	800,000	0,012	-0,038
-172,169	-127,388	-0,061	-0,006
-171,154	487,799	-0,046	0,076
-170,139	103,481	0,096	0,082
-169,125	538,052	0,047	0,081
-168,110	28,702	-0,107	0,065
-167,096	-200,000	0,014	0,075
-166,081	207,913	-0,076	-0,086
-165,066	489,049	0,053	-0,087
-164,052	-30,823	-0,061	-0,025
-163,037	-200,000	-0,002	-0,043
-162,023	-62,202	0,169	-0,050
-161,008	159,100	-0,038	-0,038
-159,993	-84,182	-0,083	-0,019
-158,979	-200,000	0,008	0,101
-157,964	800,000	-0,006	-0,013
-156,950	61,427	0,147	-0,105
-155,935	710,251	-0,024	-0,046
-154,920	-49,847	0,119	0,040
-153,906	-51,225	-0,038	-0,013
-152,891	484,938	0,024	-0,039
-151,877	130,407	-0,159	0,147
-150,862	-200,000	-0,000	-0,006
-149,847	34,675	0,086	0,054
-148,833	480,248	0,096	0,157
-147,818	-200,000	0,009	0,125
-146,804	322,701	0,020	0,027
-145,789	488,556	0,135	0,223
-144,775	-43,500	-0,052	-0,019
-143,760	-200,000	0,002	0,022
-142,745	120,586	-0,042	-0,038
-141,731	-200,000	0,030	-0,207
-140,716	14,768	0,118	-0,066
-139,702	157,067	-0,050	0,049
-138,687	-119,827	-0,036	-0,004
-137,672	102,183	0,074	0,063
-136,658	-91,310	-0,118	0,024
-135,643	-89,297	-0,200	-0,042
-134,629	56,518	-0,086	-0,060
-133,614	-59,443	0,114	-0,035
-132,599	-64,151	0,128	-0,037
-131,585	59,392	-0,018	-0,013
-130,570	-62,152	-0,007	0,002
-129,556	17,685	0,063	0,036
-128,541	-141,983	-0,084	-0,006
-127,526	-126,247	0,034	-0,004
-126,512	-0,719	0,105	0,053
-125,497	-117,644	0,119	-0,015
-124,483	-200,000	0,051	0,167
-123,468	432,255	-0,026	0,041
-122,453	-30,008	-0,060	-0,024
-121,439	-200,000	0,002	-0,028
-120,424	115,128	0,069	-0,060
-119,410	800,000	0,022	-0,064
