DTS Sentinel unit serial number:	SN410029Multiplexer serial number:	ORYXHardware model number:	OX2-SRSoftware version number:	ORYX F/W v4,00 Oryx Data Collector v3.7.2.0data status	okinstallation	B5 Nyhavnadifferential loss correction	single-endedforward channel	channel 2reverse channel	N/Adate	2023/12/14time	09:27:13forward acquisition time	300,00reverse acquisition time	0,00gamma	499,1914k internal	0,3160k external	0,3160temperature offset calibration	1,0000default loss term (dB/km)	0,3820temperature slope calibration	1,0000multiplexer offset coefficient	1,0000multiplexer slope coefficient	1,0000fibre end	0,00T internal ref (°C)	6,94T ext. ref 1 (°C)	-9,27T ext. ref 2 (°C)	-9,34length (m)	temperature (°C)	Stokes	anti-Stokes-744,400	195,191	0,179	0,201
-743,385	-127,240	-0,436	0,046
-742,371	-16,480	0,241	0,112
-741,356	-128,827	-0,360	-0,037
-740,342	368,163	0,098	0,146
-739,327	-92,037	-0,259	-0,053
-738,312	-200,000	-0,003	0,204
-737,298	-86,799	-0,336	-0,075
-736,283	217,140	0,222	0,261
-735,269	-110,204	-0,367	-0,056
-734,254	-28,367	0,115	0,049
-733,239	-7,558	-0,519	-0,258
-732,225	94,227	0,186	0,155
-731,210	-4,459	0,101	0,051
-730,196	74,404	-0,103	-0,080
-729,181	-200,000	0,003	0,038
-728,167	-38,898	0,149	0,058
-727,152	-15,819	-0,050	-0,023
-726,137	-140,164	-0,051	0,004
-725,123	144,935	-0,061	-0,060
-724,108	-1,333	-0,037	0,019
-723,094	1,299	-0,097	0,051
-722,079	-128,321	-0,106	0,011
-721,064	-200,000	-0,033	-0,132
-720,050	143,243	-0,045	0,044
-719,035	-25,787	-0,088	-0,038
-718,021	-80,389	-0,129	0,031
-717,006	132,921	-0,113	0,107
-715,991	650,318	-0,111	-0,210
-714,977	78,756	-0,025	0,019
-713,962	-72,384	0,083	0,023
-712,948	-200,000	0,009	0,069
-711,933	157,780	0,040	-0,041
-710,918	36,957	0,061	-0,040
-709,904	-200,000	-0,021	-0,090
-708,889	-96,893	-0,152	0,029
-707,875	8,819	0,074	0,041
-706,860	800,000	-0,020	0,046
-705,845	800,000	0,053	0,116
-704,831	627,876	-0,022	0,041
-703,816	-95,110	-0,131	0,026
-702,802	-200,000	0,020	0,084
-701,787	-200,000	-0,016	-0,099
-700,772	-48,536	0,135	0,047
-699,758	87,968	0,036	0,029
-698,743	-125,186	0,095	-0,011
-697,729	314,039	0,092	-0,128
-696,714	-59,191	-0,059	-0,019
-695,699	39,258	-0,085	0,056
-694,685	34,631	0,171	-0,110
-693,670	-24,788	-0,169	0,074
-692,656	227,202	0,064	-0,076
-691,641	-200,000	0,020	0,100
-690,627	233,658	0,093	0,113
-689,612	-200,000	0,038	-0,159
-688,597	123,923	0,089	-0,082
-687,583	13,005	-0,127	0,072
-686,568	28,897	-0,073	0,046
-685,554	275,727	0,017	0,022
-684,539	-200,000	0,004	0,062
-683,524	577,037	-0,055	-0,099
-682,510	-200,000	-0,011	-0,072
-681,495	241,409	0,031	-0,038
-680,481	-177,651	-0,125	-0,002
-679,466	-200,000	-0,018	0,093
-678,451	94,152	0,069	-0,058
-677,437	-200,000	0,007	0,035
-676,422	-59,301	-0,057	-0,018
-675,408	68,793	-0,041	0,031
-674,393	357,974	-0,058	0,085
-673,378	-200,000	-0,014	-0,063
-672,364	-200,000	0,013	-0,123
-671,349	555,744	-0,044	-0,079
-670,335	-75,044	0,138	-0,036
-669,320	99,398	0,140	0,119
-668,305	-93,366	-0,157	0,032
-667,291	100,320	0,104	-0,089
-666,276	188,538	0,054	0,059
-665,262	800,000	-0,031	-0,100
-664,247	28,199	-0,128	-0,079
-663,232	-118,853	-0,035	-0,004
-662,218	-200,000	0,001	0,021
-661,203	-200,000	0,003	-0,064
-660,189	-74,764	0,133	0,035
-659,174	7,302	-0,105	0,058
-658,159	-200,000	0,019	0,114
-657,145	45,897	-0,034	0,023
-656,130	104,893	-0,068	0,059
-655,116	-96,578	0,099	0,019
-654,101	253,398	0,069	-0,086
-653,086	389,331	0,030	-0,045
-652,072	-189,742	-0,183	0,001
-651,057	-116,551	0,117	-0,016
-650,043	-200,000	-0,002	0,075
-649,028	87,991	0,008	-0,007
-648,014	240,213	0,045	-0,055
-646,999	-200,000	0,026	0,173
-645,984	321,724	-0,055	-0,077
-644,970	633,895	0,020	-0,038
-643,955	-200,000	-0,007	-0,216
-642,941	-200,000	0,014	-0,134
-641,926	184,535	-0,098	-0,107
-640,911	-181,306	-0,150	0,002
-639,897	440,005	-0,083	-0,134
-638,882	-100,314	0,112	-0,020
-637,868	-33,052	-0,178	-0,072
-636,853	-200,000	0,026	-0,113
-635,838	-200,000	0,031	-0,106
-634,824	-200,000	-0,002	-0,157
-633,809	-57,850	-0,087	-0,028
-632,795	-13,120	0,171	0,081
-631,780	94,801	0,011	-0,009
-630,765	14,715	-0,055	-0,031
-629,751	-96,714	-0,077	0,015
-628,736	-8,520	-0,127	-0,063
-627,722	-87,418	0,167	0,037
-626,707	-200,000	0,003	0,090
-625,692	-126,973	-0,067	0,007
-624,678	-200,000	-0,004	-0,168
-623,663	390,350	0,016	-0,024
-622,649	63,998	0,028	0,021
-621,634	-200,000	-0,024	-0,197
-620,619	-131,052	-0,112	-0,011
-619,605	800,000	0,050	0,159
-618,590	-200,000	0,012	0,088
-617,576	-24,088	0,088	-0,038
-616,561	560,168	-0,062	-0,110
-615,546	-200,000	-0,037	-0,126
-614,532	-170,885	0,041	-0,001
-613,517	800,000	0,047	0,119
-612,503	-71,169	-0,083	0,023
-611,488	538,904	0,085	-0,149
-610,474	65,972	0,115	0,085
-609,459	47,365	-0,015	0,010
-608,444	-200,000	-0,004	-0,033
-607,430	208,148	0,018	-0,021
-606,415	-70,671	-0,111	-0,030
-605,401	-46,257	0,101	0,036
-604,386	352,077	0,094	0,138
-603,371	-19,795	-0,101	-0,045
-602,357	-200,000	0,001	0,088
-601,342	-200,000	-0,020	0,097
-600,328	25,940	-0,093	-0,056
-599,313	800,000	0,049	-0,133
-598,298	-200,000	0,021	-0,080
-597,284	-144,514	-0,050	-0,003
-596,269	-49,024	0,155	0,054
-595,255	34,632	-0,056	0,036
-594,240	800,000	-0,014	0,042
-593,225	17,968	0,038	-0,022
-592,211	240,400	-0,075	-0,091
-591,196	800,000	0,002	0,004
-590,182	53,266	-0,054	-0,038
-589,167	148,176	0,052	0,051
-588,152	76,094	0,060	0,047
-587,138	94,873	-0,016	-0,013
-586,123	-119,320	-0,095	-0,012
-585,109	96,936	-0,057	0,048
-584,094	800,000	-0,042	-0,092
-583,079	-200,000	-0,011	0,094
-582,065	-81,860	0,027	0,006
-581,050	120,671	-0,063	-0,057
-580,036	210,335	-0,113	0,130
-579,021	599,262	0,030	-0,055
-578,006	-98,857	-0,105	-0,019
-576,992	442,902	0,021	0,033
-575,977	-55,923	0,152	0,049
-574,963	298,933	0,058	0,079
-573,948	-115,729	0,058	0,008
-572,934	84,569	-0,102	0,082
-571,919	-57,922	-0,086	0,027
-570,904	325,821	-0,108	0,152
-569,890	-200,000	-0,007	-0,049
-568,875	-27,280	0,031	0,013
-567,861	-12,760	-0,010	0,005
-566,846	21,562	0,088	0,052
-565,831	-161,721	0,031	0,001
-564,817	-200,000	0,015	-0,074
-563,802	257,423	0,024	0,030
-562,788	-200,000	0,002	0,159
-561,773	-200,000	0,025	-0,108
-560,758	-200,000	0,003	0,050
-559,744	640,705	-0,048	0,089
-558,729	-200,000	0,010	-0,127
-557,715	-55,744	-0,069	-0,022
-556,700	-87,910	-0,064	-0,014
-555,685	-200,000	-0,022	-0,082
-554,671	-112,732	0,064	0,009
-553,656	800,000	0,028	-0,087
-552,642	-113,564	-0,039	-0,006
-551,627	-105,282	0,019	-0,003
-550,612	118,119	-0,028	0,025
-549,598	-7,538	-0,124	-0,061
-548,583	-200,000	0,015	0,079
-547,569	13,379	0,040	0,023
-546,554	-200,000	-0,005	-0,040
-545,539	800,000	0,057	-0,145
-544,525	-107,772	-0,149	-0,023
-543,510	51,707	0,038	0,027
-542,496	29,734	0,031	-0,019
-541,481	288,570	0,031	-0,041
-540,466	211,266	0,043	-0,049
-539,452	21,903	0,107	0,063
-538,437	-200,000	0,041	0,270
-537,423	-200,000	-0,007	0,095
-536,408	352,083	-0,069	-0,101
-535,393	20,728	-0,122	-0,072
-534,379	-41,565	-0,054	0,020
-533,364	322,010	-0,033	0,046
-532,350	-200,000	-0,002	0,171
-531,335	800,000	0,060	0,152
-530,321	-200,000	0,013	0,054
-529,306	19,744	-0,057	0,033
-528,291	10,376	0,014	-0,008
-527,277	-133,470	-0,201	-0,018
-526,262	-170,363	-0,039	-0,001
-525,248	-200,000	-0,002	0,033
-524,233	156,688	-0,070	0,070
-523,218	-31,275	-0,026	-0,011
-522,204	-200,000	-0,005	-0,036
-521,189	-20,238	-0,042	0,019
-520,175	76,920	0,081	-0,062
-519,160	-45,748	0,096	-0,034
-518,145	235,103	0,110	0,133
-517,131	-161,032	0,143	0,005
-516,116	-200,000	-0,011	-0,071
-515,102	11,083	-0,028	-0,016
-514,087	-85,803	0,087	0,019
-513,072	-39,297	-0,104	-0,040
-512,058	353,710	-0,067	0,097
-511,043	-58,808	0,124	0,039
-510,029	18,553	0,090	0,053
-509,014	58,542	-0,062	0,045
-507,999	-10,117	0,115	-0,055
-506,985	800,000	-0,005	-0,012
-505,970	800,000	-0,024	0,049
-504,956	229,504	-0,064	-0,076
-503,941	599,017	0,017	-0,031
-502,926	429,789	-0,074	-0,117
-501,912	-59,822	-0,097	-0,030
-500,897	-117,668	-0,079	0,010
-499,883	102,895	0,150	-0,129
-498,868	-180,278	0,084	0,001
-497,853	800,000	-0,015	-0,049
-496,839	-200,000	-0,023	-0,078
-495,824	-200,000	-0,023	0,079
-494,810	-200,000	-0,012	-0,052
-493,795	-68,904	0,173	-0,048
-492,781	-128,230	-0,106	0,011
-491,766	-200,000	0,001	0,131
-490,751	-13,436	0,077	-0,036
-489,737	74,652	0,079	-0,061
-488,722	114,034	0,039	-0,034
-487,708	-114,076	-0,037	0,005
-486,693	-164,934	0,043	0,001
-485,678	96,907	0,013	0,011
-484,664	129,524	-0,037	0,035
-483,649	252,339	0,089	-0,111
-482,635	-200,000	-0,017	-0,087
-481,620	-56,512	-0,034	0,011
-480,605	410,861	-0,067	0,104
-479,591	301,664	0,133	0,180
-478,576	-200,000	0,014	-0,067
-477,562	-99,270	-0,057	0,010
-476,547	731,206	-0,028	-0,055
-475,532	356,374	-0,046	-0,066
-474,518	213,797	-0,053	0,062
-473,503	221,310	0,066	0,077
-472,489	77,213	0,104	0,080
-471,474	26,336	-0,077	-0,047
-470,459	-200,000	0,010	-0,106
-469,445	-200,000	0,004	-0,032
-468,430	800,000	0,034	-0,073
-467,416	800,000	-0,029	0,089
-466,401	231,480	0,067	0,080
-465,386	4,664	-0,061	0,033
-464,372	4,734	-0,036	0,019
-463,357	-6,478	0,090	0,045
-462,343	800,000	-0,012	-0,039
-461,328	538,595	0,054	0,094
-460,313	-200,000	-0,007	-0,053
-459,299	-125,394	0,081	0,009
-458,284	197,763	0,039	-0,044
-457,270	800,000	0,024	-0,050
-456,255	-11,474	-0,069	0,033
-455,241	-65,421	0,085	-0,025
-454,226	43,569	0,101	0,067
-453,211	-200,000	-0,013	-0,064
-452,197	4,673	0,100	0,053
-451,182	-84,652	-0,029	-0,007
-450,168	-200,000	-0,003	0,076
-449,153	495,171	-0,056	-0,093
-448,138	-15,808	-0,056	-0,026
-447,124	-200,000	-0,024	0,106
-446,109	-172,895	-0,075	-0,002
-445,095	78,605	0,070	0,054
-444,080	-84,767	-0,084	0,019
-443,065	156,774	-0,024	-0,024
-442,051	748,066	-0,071	-0,141
-441,036	106,750	-0,123	0,106
-440,022	800,000	-0,024	-0,049
-439,007	-151,571	0,098	-0,005
-437,992	-200,000	0,019	0,074
-436,978	800,000	0,007	0,017
-435,963	-200,000	-0,000	0,046
-434,949	72,177	-0,112	-0,085
-433,934	-28,278	-0,091	-0,038
-432,919	-200,000	-0,001	0,082
-431,905	-3,803	0,013	-0,006
-430,890	-30,031	-0,060	0,025
-429,876	-21,452	0,116	-0,051
-428,861	39,513	0,057	-0,037
-427,846	-200,000	0,017	-0,148
-426,832	394,113	-0,035	-0,053
-425,817	-200,000	-0,016	-0,067
-424,803	101,754	-0,104	-0,088
-423,788	47,870	-0,117	-0,079
-422,773	158,635	0,068	-0,069
-421,759	-200,000	0,002	0,103
-420,744	-116,968	0,132	-0,017
-419,730	-137,381	-0,152	-0,012
-418,715	-200,000	-0,027	-0,168
-417,701	-200,000	-0,006	-0,071
-416,686	-17,753	0,090	-0,041
-415,671	-163,426	-0,055	-0,002
-414,657	-82,502	-0,106	-0,025
-413,642	81,508	-0,050	-0,039
-412,628	800,000	-0,065	-0,131
-411,613	43,765	0,045	-0,030
-410,598	-200,000	-0,004	-0,043
-409,584	438,953	0,044	-0,071
-408,569	-200,000	-0,025	-0,094
-407,555	800,000	-0,031	0,068
-406,540	-81,234	-0,062	-0,015
-405,525	-200,000	0,005	0,038
-404,511	-62,594	0,071	0,021
-403,496	-150,713	-0,126	-0,007
-402,482	18,542	0,086	0,050
-401,467	800,000	-0,056	-0,118
-400,452	-55,488	-0,061	0,020
-399,438	800,000	-0,018	0,047
-398,423	800,000	-0,014	-0,035
-397,409	734,069	-0,050	-0,097
-396,394	800,000	-0,067	-0,141
-395,379	-200,000	-0,008	0,041
-394,365	311,857	-0,006	0,009
-393,350	-20,074	-0,044	-0,019
-392,336	377,741	0,014	-0,021
-391,321	-200,000	0,015	-0,093
-390,306	706,242	-0,021	-0,041
-389,292	343,057	0,099	0,141
-388,277	79,359	0,047	-0,037
-387,263	350,413	0,075	-0,108
-386,248	-200,000	0,008	0,063
-385,233	-200,000	0,017	0,137
-384,219	-200,000	-0,007	-0,068
-383,204	103,088	-0,025	0,021
-382,190	-171,147	0,089	0,002
-381,175	-200,000	0,001	-0,066
-380,160	-200,000	-0,003	-0,056
-379,146	-13,807	0,051	-0,024
-378,131	142,101	-0,065	0,063
-377,117	-171,200	-0,071	0,002
-376,102	-130,335	0,055	-0,005
-375,088	423,723	-0,070	0,110
-374,073	-137,827	-0,099	-0,008
-373,058	-54,420	0,011	-0,003
-372,044	-200,000	0,007	0,026
-371,029	335,784	0,081	0,114
-370,015	403,677	-0,041	-0,063
-369,000	-146,236	-0,040	-0,003
-367,985	233,260	0,046	0,055
-366,971	-28,598	0,101	-0,042
-365,956	263,899	0,016	-0,021
-364,942	800,000	-0,047	0,102
-363,927	66,220	-0,097	0,071
-362,912	-200,000	-0,015	0,067
-361,898	187,292	0,038	0,041
-360,883	6,568	0,051	0,027
-359,869	-200,000	-0,001	0,066
-358,854	-200,000	0,022	0,131
-357,839	278,813	0,063	0,081
-356,825	-200,000	-0,008	0,087
-355,810	19,739	-0,083	-0,048
-354,796	2,006	0,099	0,052
-353,781	-200,000	-0,016	-0,169
-352,766	93,803	-0,105	-0,087
-351,752	-12,374	-0,045	0,021
-350,737	800,000	-0,047	-0,101
-349,723	365,040	0,070	0,102
-348,708	-200,000	0,006	0,061
-347,693	27,388	-0,110	0,067
-346,679	346,969	-0,021	-0,030
-345,664	-200,000	-0,018	0,081
-344,650	-200,000	0,182	0,000
-343,635	54,044	0,037	-0,026
-342,620	-200,000	0,042	-0,143
-341,606	-146,994	0,109	0,007
-340,591	204,581	0,075	-0,084
-339,577	-81,000	-0,074	-0,018
-338,562	-120,426	-0,053	-0,006
-337,548	-183,752	0,035	0,000
-336,533	249,255	0,080	0,098
-335,518	-200,000	0,023	0,120
-334,504	118,109	0,045	0,040
-333,489	21,984	0,048	0,028
-332,475	9,915	-0,088	-0,048
-331,460	515,177	-0,037	-0,062
-330,445	-200,000	-0,012	0,114
-329,431	-6,450	0,132	0,065
-328,416	586,848	0,027	-0,048
-327,402	-94,652	-0,052	0,010
-326,387	-200,000	-0,003	-0,119
-325,372	-81,687	0,082	-0,019
-324,358	-148,635	-0,043	-0,003
-323,343	-200,000	0,004	0,028
-322,329	100,869	-0,054	-0,045
-321,314	250,167	0,106	0,131
-320,299	-200,000	-0,014	0,053
-319,285	-200,000	-0,002	-0,141
-318,270	-76,278	-0,146	-0,037
-317,256	-2,866	0,077	0,039
-316,241	37,921	-0,108	-0,070
-315,226	-17,232	-0,081	0,037
-314,212	800,000	0,072	0,163
-313,197	85,477	0,069	0,055
-312,183	189,537	-0,039	-0,042
-311,168	308,721	0,027	0,037
-310,153	-79,108	-0,067	-0,016
-309,139	56,457	-0,107	0,075
-308,124	-146,604	0,083	0,005
-307,110	-114,397	-0,145	0,020
-306,095	116,172	-0,051	0,045
-305,080	-75,457	-0,085	0,022
-304,066	15,612	0,024	0,013
-303,051	59,637	0,086	0,062
-302,037	-200,000	-0,007	0,034
-301,022	-84,568	0,072	-0,016
-300,008	-83,396	0,050	0,011
-298,993	248,089	-0,029	-0,035
-297,978	110,720	-0,057	-0,049
-296,964	-200,000	-0,023	-0,134
-295,949	312,638	-0,076	0,103
-294,935	-62,473	-0,036	-0,011
-293,920	-14,938	-0,028	0,013
-292,905	800,000	-0,004	0,010
-291,891	14,676	0,107	0,060
-290,876	236,538	0,053	-0,064
-289,862	-56,833	0,154	0,049
-288,847	800,000	-0,039	0,083
-287,832	-130,028	0,002	0,000
-286,818	-200,000	-0,002	0,104
-285,803	-200,000	-0,030	0,109
-284,789	-44,575	0,080	0,029
-283,774	253,729	-0,071	0,088
-282,759	800,000	-0,015	-0,040
-281,745	193,794	-0,096	-0,106
-280,730	85,056	-0,079	0,062
-279,716	238,674	0,054	0,065
-278,701	-200,000	0,030	0,125
-277,686	-200,000	0,028	-0,095
-276,672	158,861	0,073	-0,074
-275,657	-200,000	-0,004	-0,055
-274,643	800,000	-0,010	-0,026
-273,628	-200,000	-0,001	-0,093
-272,613	-200,000	-0,003	-0,083
-271,599	-13,040	0,088	0,041
-270,584	-200,000	-0,024	0,159
-269,570	214,823	0,098	0,112
-268,555	-3,194	-0,045	0,023
-267,540	224,074	0,044	0,052
-266,526	528,989	-0,082	-0,140
-265,511	-200,000	-0,026	-0,097
-264,497	-115,969	0,065	-0,009
-263,482	449,914	0,067	0,107
-262,467	800,000	0,007	0,014
-261,453	-156,891	0,152	-0,007
-260,438	-46,688	0,079	0,028
-259,424	-200,000	-0,009	0,064
-258,409	-200,000	0,012	0,069
-257,395	-80,176	0,040	-0,010
-256,380	85,470	0,105	0,083
-255,365	256,026	0,024	0,030
-254,351	292,984	-0,054	0,071
-253,336	198,332	0,102	-0,112
-252,322	-86,112	-0,055	0,012
-251,307	800,000	0,049	0,113
-250,292	-71,452	0,031	-0,008
-249,278	-108,071	0,101	-0,016
-248,263	-120,006	-0,041	-0,005
-247,249	9,936	0,129	-0,070
-246,234	64,898	-0,087	-0,064
-245,219	-200,000	-0,013	0,085
-244,205	212,755	-0,061	-0,069
-243,190	-200,000	-0,021	-0,085
-242,176	2,981	0,017	0,009
-241,161	-200,000	0,028	0,106
-240,146	800,000	-0,028	-0,058
-239,132	82,372	-0,106	-0,083
-238,117	-102,154	0,009	0,002
-237,103	-39,137	-0,079	0,030
-236,088	800,000	-0,021	0,049
-235,073	92,898	0,155	0,126
-234,059	800,000	0,026	0,052
-233,044	775,546	-0,031	0,062
-232,030	-183,593	-0,079	0,001
-231,015	-77,712	0,080	0,020
-230,000	592,705	-0,064	-0,114
-228,986	-95,232	0,095	-0,018
-227,971	-112,325	0,060	0,009
-226,957	-198,931	0,075	0,000
-225,942	28,218	0,055	-0,033
-224,927	-200,000	-0,009	0,191
-223,913	-110,484	-0,098	0,014
-222,898	74,171	-0,046	0,035
-221,884	267,704	-0,022	0,027
-220,869	-111,333	0,116	0,017
-219,855	136,134	-0,080	0,076
-218,840	-87,473	0,021	0,005
-217,825	-200,000	-0,017	0,152
-216,811	21,482	0,073	0,043
-215,796	-139,000	-0,143	0,011
-214,782	774,493	0,055	0,109
-213,767	229,565	-0,069	-0,082
-212,752	581,632	0,040	0,071
-211,738	-97,425	0,191	0,036
-210,723	229,830	-0,037	0,044
-209,709	-39,014	0,110	-0,041
-208,694	800,000	-0,024	0,075
-207,679	533,551	-0,038	-0,066
-206,665	800,000	0,039	0,079
-205,650	-114,301	0,101	-0,014
-204,636	158,218	-0,053	0,053
-203,621	800,000	0,019	0,049
-202,606	700,080	-0,073	-0,139
-201,592	800,000	0,046	-0,138
-200,577	-200,000	0,013	-0,095
-199,563	-200,000	0,027	0,141
-198,548	-200,000	-0,003	0,033
-197,533	-67,127	0,127	-0,036
-196,519	-200,000	-0,005	-0,076
-195,504	-200,000	0,012	0,069
-194,490	800,000	-0,043	-0,106
-193,475	-200,000	-0,023	-0,097
-192,460	-92,933	0,066	0,013
-191,446	478,865	0,027	0,044
-190,431	-200,000	-0,015	0,074
-189,417	-88,254	0,064	0,014
-188,402	341,977	-0,011	-0,016
-187,387	-200,000	-0,018	-0,075
-186,373	69,048	-0,145	-0,107
-185,358	800,000	0,049	-0,110
-184,344	287,833	0,028	0,037
-183,329	-99,825	0,082	-0,015
-182,315	211,627	-0,054	0,062
-181,300	46,820	-0,099	-0,066
-180,285	-200,000	-0,055	0,182
-179,271	-61,193	-0,072	-0,022
-178,256	-200,000	0,018	-0,150
-177,242	119,741	0,070	0,063
-176,227	-200,000	0,007	0,048
-175,212	10,490	-0,071	0,039
-174,198	-113,212	0,099	-0,014
-173,183	15,599	-0,040	-0,022
-172,169	-77,150	-0,046	0,012
-171,154	156,179	-0,073	0,072
-170,139	-200,000	-0,011	0,062
-169,125	4,500	0,090	0,047
-168,110	800,000	-0,025	-0,056
-167,096	444,439	-0,113	0,179
-166,081	-200,000	0,020	-0,139
-165,066	-200,000	0,010	-0,096
-164,052	12,717	0,141	-0,078
-163,037	800,000	0,042	-0,107
-162,023	212,467	0,108	-0,123
-161,008	-200,000	0,003	-0,014
-159,993	13,105	-0,145	0,081
-158,979	115,433	-0,068	0,060
-157,964	-200,000	0,002	-0,070
-156,950	800,000	-0,036	-0,085
-155,935	-200,000	-0,019	0,089
-154,920	-200,000	-0,010	-0,048
-153,906	800,000	0,009	-0,022
-152,891	-136,764	-0,049	0,004
-151,877	35,779	0,092	-0,058
-150,862	658,249	-0,062	-0,115
-149,847	11,220	-0,106	0,058
-148,833	656,659	0,002	-0,003
-147,818	800,000	0,076	0,183
-146,804	800,000	0,033	-0,078
-145,789	-200,000	0,016	0,148
-144,775	-65,639	-0,096	0,028
-143,760	434,669	0,032	0,050
-142,745	-200,000	-0,049	-0,196
-141,731	800,000	-0,026	0,071
-140,716	-27,035	0,074	-0,031
-139,702	-49,431	0,139	0,047
-138,687	-200,000	0,007	-0,079
-137,672	-200,000	0,014	0,065
-136,658	800,000	-0,025	0,060
-135,643	372,998	-0,063	-0,092
-134,629	-200,000	-0,011	-0,040
-133,614	-127,309	-0,100	-0,010
-132,599	-123,565	0,069	-0,008
-131,585	-200,000	-0,007	0,133
-130,570	89,048	0,041	-0,033
-129,556	800,000	0,079	-0,168
-128,541	-152,034	-0,225	-0,012
-127,526	94,056	-0,045	0,036
-126,512	-191,777	0,108	0,001
-125,497	23,501	-0,041	0,024
-124,483	464,031	-0,028	0,045
-123,468	-34,484	-0,066	-0,026
-122,453	370,648	-0,044	-0,064
-121,439	-112,615	-0,033	0,005
-120,424	259,935	0,033	-0,041
-119,410	344,908	0,040	0,056
