DTS Sentinel unit serial number:	SN410029Multiplexer serial number:	ORYXHardware model number:	OX2-SRSoftware version number:	ORYX F/W v4,00 Oryx Data Collector v3.7.2.0data status	okinstallation	B5 Nyhavnadifferential loss correction	single-endedforward channel	channel 2reverse channel	N/Adate	2023/12/13time	23:37:14forward acquisition time	300,00reverse acquisition time	0,00gamma	499,1914k internal	0,3154k external	0,3154temperature offset calibration	1,0000default loss term (dB/km)	0,3820temperature slope calibration	1,0000multiplexer offset coefficient	1,0000multiplexer slope coefficient	1,0000fibre end	0,00T internal ref (°C)	8,84T ext. ref 1 (°C)	-7,54T ext. ref 2 (°C)	-7,56length (m)	temperature (°C)	Stokes	anti-Stokes-744,400	582,970	0,075	0,137
-743,385	-4,966	-0,328	-0,166
-742,371	222,198	0,142	0,169
-741,356	-86,570	-0,388	-0,087
-740,342	-66,897	0,208	0,060
-739,327	-73,054	-0,405	-0,109
-738,312	-63,738	0,135	0,040
-737,298	-27,391	-0,273	-0,117
-736,283	-99,320	0,179	0,033
-735,269	-38,715	-0,337	-0,130
-734,254	-82,778	0,301	0,071
-733,239	-69,303	-0,484	-0,136
-732,225	263,887	0,160	0,206
-731,210	-200,000	0,000	0,200
-730,196	-170,520	-0,143	0,004
-729,181	-72,540	0,088	-0,024
-728,167	-200,000	-0,056	-0,219
-727,152	800,000	-0,026	0,054
-726,137	-200,000	0,002	-0,039
-725,123	-7,068	-0,123	0,061
-724,108	-0,759	-0,093	-0,049
-723,094	-91,879	-0,192	-0,040
-722,079	-200,000	-0,025	-0,132
-721,064	-200,000	0,025	-0,129
-720,050	-119,700	-0,175	0,022
-719,035	221,235	-0,044	-0,052
-718,021	-200,000	-0,003	0,063
-717,006	-35,958	-0,172	-0,068
-715,991	21,567	-0,104	-0,062
-714,977	-50,122	0,078	-0,027
-713,962	-51,036	-0,112	-0,039
-712,948	-146,531	0,143	-0,009
-711,933	211,973	-0,074	0,086
-710,918	217,089	-0,065	-0,076
-709,904	324,310	-0,025	0,036
-708,889	608,177	0,028	-0,052
-707,875	-142,277	0,067	0,005
-706,860	-52,870	0,090	0,031
-705,845	-80,946	0,059	0,014
-704,831	39,992	0,081	-0,054
-703,816	-129,115	0,112	-0,011
-702,802	747,878	-0,024	-0,049
-701,787	-163,401	-0,098	0,003
-700,772	450,077	0,050	-0,082
-699,758	800,000	-0,018	0,038
-698,743	800,000	0,013	0,036
-697,729	800,000	-0,018	0,051
-696,714	-200,000	0,034	-0,117
-695,699	-200,000	0,018	-0,078
-694,685	390,449	-0,067	-0,102
-693,670	95,543	0,040	0,033
-692,656	-108,138	-0,054	-0,008
-691,641	773,933	0,054	0,110
-690,627	800,000	0,041	0,086
-689,612	-200,000	0,018	0,155
-688,597	52,974	-0,146	0,103
-687,583	302,289	0,085	0,116
-686,568	-52,897	0,038	-0,013
-685,554	27,127	-0,033	0,021
-684,539	800,000	-0,043	-0,126
-683,524	-200,000	0,027	0,092
-682,510	92,353	-0,025	0,021
-681,495	-200,000	-0,007	-0,056
-680,481	26,992	-0,174	-0,107
-679,466	651,448	-0,054	-0,102
-678,451	627,984	-0,022	0,041
-677,437	-105,690	0,075	0,012
-676,422	324,577	-0,037	-0,052
-675,408	-200,000	-0,038	-0,151
-674,393	64,877	-0,097	0,072
-673,378	-100,101	-0,010	-0,002
-672,364	29,786	-0,053	-0,033
-671,349	-200,000	0,042	-0,215
-670,335	144,462	0,051	-0,050
-669,320	-169,885	-0,126	0,003
-668,305	-200,000	-0,013	-0,061
-667,291	38,377	-0,012	-0,008
-666,276	225,553	-0,063	-0,075
-665,262	531,941	0,045	0,079
-664,247	-32,783	0,182	0,074
-663,232	129,748	-0,029	0,027
-662,218	-200,000	-0,056	-0,186
-661,203	-200,000	0,001	0,096
-660,189	-69,769	0,126	0,035
-659,174	-186,776	0,143	0,001
-658,159	800,000	0,019	-0,048
-657,145	0,747	-0,118	-0,062
-656,130	-200,000	0,014	-0,129
-655,116	141,402	0,121	-0,118
-654,101	255,342	0,040	0,050
-653,086	-16,033	0,051	-0,024
-652,072	-18,208	-0,147	-0,068
-651,057	-37,676	0,060	0,023
-650,043	-99,916	0,140	-0,026
-649,028	-50,581	0,063	0,022
-648,014	-200,000	-0,022	0,116
-646,999	-200,000	0,016	-0,167
-645,984	327,841	0,058	-0,081
-644,970	747,854	-0,030	-0,060
-643,955	-200,000	-0,020	-0,150
-642,941	406,071	-0,076	0,119
-641,926	-138,585	0,089	-0,007
-640,911	-102,719	0,117	-0,020
-639,897	-200,000	-0,012	-0,062
-638,882	-200,000	0,006	0,078
-637,868	425,181	0,011	0,018
-636,853	800,000	-0,032	-0,082
-635,838	-110,605	0,089	-0,013
-634,824	-104,129	-0,106	-0,018
-633,809	800,000	0,039	-0,128
-632,795	-200,000	-0,004	0,053
-631,780	-102,498	-0,057	0,010
-630,765	106,297	-0,095	-0,082
-629,751	5,578	-0,177	-0,096
-628,736	-57,854	0,050	-0,016
-627,722	-200,000	-0,024	-0,112
-626,707	-33,698	0,094	0,038
-625,692	800,000	-0,016	-0,032
-624,678	-12,166	-0,033	-0,016
-623,663	11,315	0,109	0,061
-622,649	-145,844	-0,042	0,003
-621,634	-200,000	0,002	0,031
-620,619	-200,000	-0,043	-0,159
-619,605	-200,000	0,028	-0,092
-618,590	59,519	-0,044	0,032
-617,576	300,771	0,036	-0,048
-616,561	-3,186	-0,086	0,044
-615,546	-108,667	-0,149	0,023
-614,532	-200,000	-0,001	-0,044
-613,517	-200,000	0,007	0,175
-612,503	-50,926	0,056	0,019
-611,488	477,588	-0,032	-0,053
-610,474	-23,601	-0,121	0,053
-609,459	-156,337	-0,126	0,006
-608,444	-59,710	-0,097	-0,030
-607,430	-200,000	0,033	0,126
-606,415	76,179	-0,068	-0,053
-605,401	10,565	0,083	-0,047
-604,386	143,121	-0,028	0,027
-603,371	-32,475	-0,087	0,035
-602,357	-73,042	-0,167	0,045
-601,342	-200,000	-0,005	-0,027
-600,328	-49,852	-0,063	-0,022
-599,313	353,264	-0,115	0,168
-598,298	214,051	-0,057	0,066
-597,284	-73,197	-0,050	-0,013
-596,269	38,512	-0,054	0,035
-595,255	800,000	0,013	0,034
-594,240	-200,000	-0,005	-0,031
-593,225	131,950	-0,073	-0,069
-592,211	-200,000	0,015	-0,116
-591,196	59,914	0,027	0,020
-590,182	-200,000	0,042	-0,137
-589,167	800,000	0,044	0,121
-588,152	169,475	-0,054	0,056
-587,138	-200,000	-0,002	-0,020
-586,123	-165,288	-0,137	0,004
-585,109	-63,768	-0,253	-0,075
-584,094	-200,000	-0,004	-0,064
-583,079	-200,000	0,002	0,094
-582,065	-41,874	0,034	0,013
-581,050	-134,457	0,087	0,008
-580,036	-150,608	0,009	-0,001
-579,021	-200,000	0,002	0,051
-578,006	370,006	-0,027	-0,040
-576,992	97,258	-0,072	-0,061
-575,977	-38,401	-0,128	-0,050
-574,963	80,459	0,037	-0,029
-573,948	800,000	-0,026	-0,062
-572,934	-200,000	0,008	-0,053
-571,919	-29,902	-0,047	0,019
-570,904	35,627	0,072	-0,047
-569,890	88,815	0,065	0,053
-568,875	800,000	0,048	0,124
-567,861	239,761	0,085	0,104
-566,846	-200,000	-0,028	0,119
-565,831	45,155	0,061	0,041
-564,817	337,223	0,053	0,076
-563,802	41,492	0,093	-0,061
-562,788	236,116	0,052	0,063
-561,773	-200,000	-0,038	0,126
-560,758	-200,000	-0,035	0,156
-559,744	256,140	-0,055	-0,069
-558,729	-200,000	0,009	0,048
-557,715	-42,526	-0,095	0,035
-556,700	-30,208	-0,047	-0,020
-555,685	-25,102	0,039	-0,017
-554,671	75,331	0,058	0,045
-553,656	72,992	0,069	0,053
-552,642	-200,000	0,001	0,037
-551,627	320,640	0,059	0,083
-550,612	208,035	-0,034	-0,039
-549,598	-200,000	-0,006	-0,089
-548,583	62,046	0,039	-0,029
-547,569	-141,418	0,114	0,008
-546,554	26,616	0,043	-0,027
-545,539	-145,951	0,147	-0,009
-544,525	295,153	0,044	-0,059
-543,510	-16,688	-0,043	-0,020
-542,496	800,000	0,044	-0,113
-541,481	116,742	0,051	-0,046
-540,466	800,000	0,037	-0,103
-539,452	202,012	-0,012	0,013
-538,437	30,623	0,103	0,064
-537,423	132,255	-0,069	0,065
-536,408	96,866	0,037	-0,031
-535,393	82,093	-0,178	-0,141
-534,379	604,520	0,059	-0,108
-533,364	90,131	-0,166	-0,136
-532,350	-16,268	-0,067	-0,031
-531,335	-12,085	0,169	0,081
-530,321	-193,968	0,029	0,000
-529,306	-54,929	-0,082	-0,027
-528,291	241,107	-0,087	-0,106
-527,277	-61,653	0,078	0,024
-526,262	8,202	-0,092	-0,051
-525,248	172,238	-0,038	-0,040
-524,233	29,594	0,071	-0,044
-523,218	800,000	-0,054	-0,121
-522,204	490,528	0,047	-0,079
-521,189	-46,008	-0,050	-0,018
-520,175	-76,658	-0,079	0,020
-519,160	800,000	-0,023	0,068
-518,145	-200,000	0,001	0,169
-517,131	317,819	0,048	0,066
-516,116	-200,000	0,008	0,132
-515,102	57,452	-0,058	0,041
-514,087	119,004	0,072	-0,065
-513,072	250,946	0,016	-0,020
-512,058	-200,000	-0,012	-0,128
-511,043	507,003	0,088	-0,150
-510,029	-52,839	0,096	0,032
-509,014	43,650	0,058	0,039
-507,999	8,631	-0,102	-0,056
-506,985	30,107	0,131	0,082
-505,970	-200,000	0,004	-0,041
-504,956	248,929	0,067	-0,083
-503,941	-119,454	-0,084	-0,011
-502,926	176,206	0,091	-0,096
-501,912	81,870	0,025	0,020
-500,897	408,877	0,072	-0,111
-499,883	737,800	0,076	-0,150
-498,868	102,986	0,060	-0,051
-497,853	30,503	-0,179	-0,112
-496,839	262,971	-0,026	-0,033
-495,824	-200,000	0,006	-0,039
-494,810	800,000	-0,042	0,102
-493,795	-48,930	0,030	0,010
-492,781	-20,563	-0,026	-0,012
-491,766	364,359	0,079	-0,116
-490,751	448,566	-0,102	-0,165
-489,737	800,000	0,004	0,013
-488,722	389,112	0,064	-0,098
-487,708	-200,000	0,020	0,077
-486,693	-13,719	-0,096	0,045
-485,678	21,000	-0,081	0,048
-484,664	-200,000	-0,032	0,137
-483,649	-200,000	-0,021	-0,168
-482,635	112,795	-0,053	0,047
-481,620	800,000	-0,021	0,046
-480,605	249,553	-0,051	-0,064
-479,591	-200,000	0,014	-0,053
-478,576	106,132	-0,052	0,045
-477,562	501,183	-0,065	-0,109
-476,547	12,966	-0,148	-0,084
-475,532	34,008	0,114	-0,072
-474,518	-53,343	0,113	-0,038
-473,503	-80,205	-0,060	0,015
-472,489	-68,676	0,024	0,007
-471,474	-200,000	-0,024	0,081
-470,459	416,941	0,064	-0,100
-469,445	-200,000	-0,003	0,103
-468,430	397,317	-0,038	-0,058
-467,416	96,550	-0,080	0,067
-466,401	800,000	0,047	-0,108
-465,386	-200,000	-0,002	0,024
-464,372	-0,208	-0,139	0,072
-463,357	168,103	-0,075	-0,078
-462,343	-200,000	0,017	-0,121
-461,328	-200,000	0,023	-0,166
-460,313	401,368	-0,022	-0,033
-459,299	-200,000	-0,007	0,056
-458,284	-200,000	-0,014	-0,061
-457,270	312,850	-0,103	-0,141
-456,255	-154,540	-0,112	-0,005
-455,241	-200,000	-0,002	-0,016
-454,226	20,086	0,027	-0,016
-453,211	131,563	0,065	-0,061
-452,197	18,076	-0,059	0,034
-451,182	42,409	0,043	-0,029
-450,168	-110,699	-0,153	-0,023
-449,153	205,553	-0,037	0,042
-448,138	60,576	-0,081	-0,058
-447,124	800,000	0,039	0,124
-446,109	131,494	-0,043	-0,040
-445,095	-200,000	0,023	0,169
-444,080	325,394	-0,067	0,094
-443,065	53,650	-0,047	-0,033
-442,051	302,659	-0,057	-0,077
-441,036	66,437	-0,103	-0,076
-440,022	351,439	0,030	0,044
-439,007	122,334	-0,072	0,066
-437,992	-178,815	0,165	-0,003
-436,978	-200,000	0,003	0,058
-435,963	-109,026	0,160	-0,025
-434,949	800,000	0,013	0,039
-433,934	389,019	-0,029	-0,044
-432,919	-100,922	-0,130	0,023
-431,905	103,648	0,039	0,034
-430,890	21,658	-0,123	0,073
-429,876	583,790	0,053	0,095
-428,861	-114,316	-0,058	0,008
-427,846	-200,000	-0,006	-0,087
-426,832	-71,655	-0,108	-0,029
-425,817	652,296	-0,037	-0,070
-424,803	110,273	0,018	-0,016
-423,788	-1,321	-0,035	0,018
-422,773	494,899	0,065	0,109
-421,759	280,823	0,023	0,030
-420,744	-200,000	-0,003	-0,035
-419,730	325,071	-0,030	-0,042
-418,715	800,000	-0,069	-0,187
-417,701	-107,268	-0,096	0,015
-416,686	308,304	-0,086	-0,118
-415,671	800,000	0,045	0,105
-414,657	214,568	-0,040	0,046
-413,642	-147,615	-0,128	-0,008
-412,628	-28,197	0,057	-0,024
-411,613	-200,000	0,001	0,025
-410,598	210,515	-0,011	-0,012
-409,584	800,000	-0,006	0,016
-408,569	-65,250	0,202	0,059
-407,555	-200,000	0,009	0,050
-406,540	264,070	0,093	0,119
-405,525	-200,000	-0,013	0,080
-404,511	-200,000	0,003	-0,068
-403,496	393,691	0,064	0,097
-402,482	-33,365	-0,052	0,021
-401,467	13,651	-0,052	0,029
-400,452	-200,000	0,018	-0,090
-399,438	-200,000	0,044	0,155
-398,423	-63,160	-0,104	0,031
-397,409	-40,035	-0,076	-0,029
-396,394	-172,752	0,105	0,002
-395,379	-82,157	0,080	-0,019
-394,365	38,803	0,083	0,054
-393,350	42,359	0,069	-0,046
-392,336	34,295	0,088	-0,056
-391,321	-200,000	-0,018	-0,176
-390,306	183,590	-0,081	0,087
-389,292	205,664	-0,041	-0,047
-388,277	231,271	0,047	0,057
-387,263	800,000	-0,039	-0,082
-386,248	-72,363	-0,096	-0,026
-385,233	-67,245	0,135	-0,038
-384,219	153,501	-0,046	0,046
-383,204	14,654	-0,056	0,032
-382,190	-75,863	-0,094	0,024
-381,175	216,689	0,083	0,096
-380,160	758,210	-0,059	0,117
-379,146	-200,000	-0,021	0,109
-378,131	78,164	0,126	0,098
-377,117	134,077	-0,072	0,068
-376,102	800,000	-0,019	-0,053
-375,088	-34,223	0,108	-0,043
-374,073	196,984	-0,017	-0,019
-373,058	-26,894	0,082	-0,035
-372,044	360,339	-0,099	0,144
-371,029	312,408	-0,075	-0,102
-370,015	800,000	0,018	0,057
-369,000	43,000	0,039	0,026
-367,985	39,543	0,072	0,047
-366,971	643,035	-0,040	-0,075
-365,956	-200,000	-0,026	-0,088
-364,942	-200,000	-0,004	0,170
-363,927	-200,000	0,011	0,148
-362,912	-200,000	0,079	0,000
-361,898	-92,112	0,104	-0,021
-360,883	234,566	-0,080	-0,096
-359,869	-119,658	-0,087	0,011
-358,854	140,144	0,057	0,055
-357,839	32,279	0,024	-0,015
-356,825	-110,771	0,040	-0,006
-355,810	407,863	-0,058	-0,090
-354,796	-200,000	0,015	-0,085
-353,781	51,804	0,087	0,060
-352,766	102,000	-0,043	0,037
-351,752	-50,321	-0,026	0,009
-350,737	-200,000	-0,016	-0,059
-349,723	800,000	0,073	0,183
-348,708	43,878	0,110	-0,073
-347,693	352,681	0,076	0,109
-346,679	-200,000	-0,006	0,096
-345,664	-200,000	0,003	-0,072
-344,650	184,262	0,061	0,065
-343,635	-200,000	-0,012	0,107
-342,620	-74,794	-0,114	0,030
-341,606	55,271	0,170	0,119
-340,591	-178,311	0,031	-0,001
-339,577	-200,000	-0,014	-0,101
-338,562	-47,956	0,050	-0,017
-337,548	-200,000	-0,026	0,107
-336,533	800,000	-0,096	0,223
-335,518	125,323	0,022	-0,020
-334,504	27,480	0,087	-0,053
-333,489	800,000	0,014	0,034
-332,475	-200,000	-0,014	-0,089
-331,460	14,302	-0,157	-0,089
-330,445	-14,404	-0,096	0,045
-329,431	-200,000	-0,002	0,046
-328,416	-151,285	0,194	-0,010
-327,402	208,085	0,083	0,094
-326,387	-200,000	0,001	0,055
-325,372	-200,000	0,004	-0,041
-324,358	168,488	0,021	-0,022
-323,343	775,290	-0,038	-0,075
-322,329	242,373	0,050	0,061
-321,314	750,334	0,058	0,113
-320,299	-200,000	0,046	0,198
-319,285	264,164	-0,037	0,047
-318,270	364,757	0,078	-0,115
-317,256	800,000	-0,029	-0,083
-316,241	45,717	-0,046	-0,031
-315,226	-78,471	0,078	-0,019
-314,212	800,000	-0,032	0,092
-313,197	59,888	0,038	-0,027
-312,183	-48,914	0,069	0,024
-311,168	759,143	0,018	-0,036
-310,153	80,571	-0,077	0,060
-309,139	26,513	0,070	-0,043
-308,124	29,099	0,080	-0,049
-307,110	71,088	-0,119	0,089
-306,095	608,386	0,109	0,197
-305,080	155,323	-0,021	0,021
-304,066	159,166	0,005	0,005
-303,051	226,707	0,077	-0,091
-302,037	-40,382	0,062	0,023
-301,022	246,213	-0,089	0,109
-300,008	476,866	-0,058	0,095
-298,993	800,000	-0,028	-0,066
-297,978	-200,000	0,001	0,106
-296,964	-200,000	0,002	0,036
-295,949	-12,645	0,035	-0,016
-294,935	261,353	0,100	-0,126
-293,920	62,947	0,088	-0,064
-292,905	261,862	0,063	0,079
-291,891	-117,669	0,114	-0,015
-290,876	800,000	0,005	-0,011
-289,862	185,084	-0,035	0,038
-288,847	284,251	0,023	-0,030
-287,832	129,578	-0,122	-0,113
-286,818	-200,000	0,001	-0,066
-285,803	-58,440	0,097	-0,030
-284,789	-155,679	-0,124	0,006
-283,774	-142,829	0,202	-0,014
-282,759	49,397	-0,073	-0,050
-281,745	-200,000	0,022	0,070
-280,730	434,596	-0,018	0,028
-279,716	800,000	0,056	-0,139
-278,701	-95,620	0,059	-0,011
-277,686	-36,600	0,091	-0,035
-276,672	230,753	0,047	0,056
-275,657	-200,000	-0,021	-0,073
-274,643	14,827	-0,103	-0,058
-273,628	-39,312	-0,125	-0,047
-272,613	182,973	0,077	0,082
-271,599	333,692	-0,078	0,110
-270,584	-50,718	0,077	0,026
-269,570	800,000	-0,036	0,081
-268,555	130,215	0,116	0,108
-267,540	152,014	-0,052	-0,051
-266,526	800,000	-0,060	-0,122
-265,511	-200,000	0,003	-0,118
-264,497	208,586	-0,089	0,101
-263,482	17,851	0,069	0,040
-262,467	800,000	0,032	0,076
-261,453	-200,000	0,007	-0,053
-260,438	74,128	0,087	-0,066
-259,424	-188,341	-0,070	-0,001
-258,409	-200,000	-0,009	0,132
-257,395	-200,000	0,037	0,141
-256,380	-155,315	0,153	-0,007
-255,365	27,425	-0,043	0,026
-254,351	-200,000	-0,006	0,054
-253,336	-115,740	0,086	0,012
-252,322	128,163	-0,044	0,041
-251,307	91,776	-0,071	0,058
-250,292	-200,000	-0,020	-0,172
-249,278	651,473	-0,113	0,210
-248,263	-25,139	0,070	0,030
-247,249	-165,868	-0,059	-0,002
-246,234	-200,000	-0,004	-0,147
-245,219	-92,289	-0,069	0,014
-244,205	174,848	-0,057	-0,060
-243,190	457,457	-0,076	0,123
-242,176	563,355	0,045	-0,080
-241,161	800,000	-0,020	-0,039
-240,146	-106,885	-0,070	-0,011
-239,132	567,247	0,023	0,041
-238,117	-200,000	-0,004	-0,136
-237,103	-200,000	0,003	-0,080
-236,088	800,000	0,010	-0,020
-235,073	-200,000	-0,012	0,064
-234,059	326,171	-0,063	0,087
-233,044	-200,000	-0,015	0,056
-232,030	216,539	0,108	-0,125
-231,015	-100,250	-0,127	-0,023
-230,000	-200,000	0,003	0,025
-228,986	800,000	0,016	-0,035
-227,971	548,558	-0,007	0,013
-226,957	642,407	0,035	-0,065
-225,942	10,782	-0,056	-0,031
-224,927	-1,412	0,029	0,015
-223,913	800,000	0,023	-0,049
-222,898	-200,000	0,003	-0,033
-221,884	37,080	0,030	0,019
-220,869	-53,022	0,062	-0,020
-219,855	167,009	-0,106	-0,109
-218,840	137,219	-0,064	0,060
-217,825	65,992	-0,046	-0,034
-216,811	134,690	0,057	0,054
-215,796	273,405	0,041	-0,052
-214,782	-120,440	0,076	-0,009
-213,767	479,229	0,031	0,051
-212,752	-200,000	0,004	0,196
-211,738	82,485	0,045	-0,035
-210,723	-52,610	0,051	0,017
-209,709	518,026	-0,045	0,076
-208,694	43,804	-0,036	-0,024
-207,679	42,806	-0,035	-0,023
-206,665	-20,642	0,033	-0,015
-205,650	65,476	0,054	-0,040
-204,636	134,470	-0,053	0,050
-203,621	408,976	0,054	-0,083
-202,606	-11,700	-0,021	-0,010
-201,592	800,000	-0,025	-0,078
-200,577	26,153	0,094	-0,056
-199,563	45,511	0,123	-0,082
-198,548	-200,000	-0,009	0,047
-197,533	99,263	0,080	0,067
-196,519	293,042	0,051	0,067
-195,504	800,000	0,021	-0,050
-194,490	-200,000	-0,016	-0,059
-193,475	139,509	-0,085	0,081
-192,460	-31,946	0,148	-0,060
-191,446	-22,857	0,097	-0,042
-190,431	639,372	0,065	0,119
-189,417	5,064	0,164	0,087
-188,402	800,000	0,006	0,018
-187,387	571,639	-0,019	0,033
-186,373	-30,119	-0,133	-0,054
-185,358	231,379	0,078	0,093
-184,344	-55,041	-0,055	0,018
-183,329	-160,839	0,163	0,006
-182,315	-169,759	-0,096	-0,002
-181,300	-130,222	0,061	-0,006
-180,285	-200,000	-0,001	-0,076
-179,271	67,529	-0,062	-0,046
-178,256	-55,747	0,138	0,044
-177,242	-143,805	-0,174	0,012
-176,227	32,502	0,092	0,057
-175,212	585,247	-0,032	0,056
-174,198	200,496	-0,050	0,055
-173,183	351,445	-0,033	0,047
-172,169	-200,000	-0,001	-0,087
-171,154	-200,000	-0,013	-0,064
-170,139	257,305	-0,028	-0,035
-169,125	-200,000	0,042	0,142
-168,110	-71,349	0,088	0,024
-167,096	-55,918	0,050	0,016
-166,081	69,702	-0,141	0,105
-165,066	-200,000	-0,008	-0,031
-164,052	574,972	0,067	-0,119
-163,037	-58,133	-0,035	-0,011
-162,023	-60,430	0,132	-0,040
-161,008	-200,000	-0,014	0,076
-159,993	-200,000	-0,000	0,054
-158,979	-200,000	-0,002	-0,137
-157,964	-8,956	0,138	-0,066
-156,950	-84,652	-0,127	0,029
-155,935	250,815	0,045	0,055
-154,920	13,955	0,078	0,043
-153,906	-59,254	0,095	0,029
-152,891	730,093	-0,056	0,108
-151,877	603,045	0,027	0,049
-150,862	120,478	-0,049	0,044
-149,847	102,249	-0,058	0,049
-148,833	-200,000	0,003	0,016
-147,818	291,141	0,037	-0,048
-146,804	-200,000	-0,072	0,230
-145,789	-200,000	0,071	0,000
-144,775	-86,614	-0,094	0,021
-143,760	-112,548	-0,098	-0,014
-142,745	89,378	-0,115	-0,093
-141,731	-200,000	-0,043	-0,230
-140,716	624,660	0,077	-0,141
-139,702	35,203	-0,130	0,082
-138,687	76,233	-0,027	-0,021
-137,672	-66,658	-0,086	-0,024
-136,658	157,963	-0,059	0,059
-135,643	-200,000	-0,054	-0,213
-134,629	283,445	-0,029	0,037
-133,614	-24,438	0,073	0,031
-132,599	800,000	0,088	-0,193
-131,585	63,087	0,029	0,021
-130,570	800,000	0,032	-0,102
-129,556	800,000	0,013	-0,041
-128,541	-200,000	-0,033	-0,123
-127,526	173,497	0,093	-0,097
-126,512	-200,000	-0,022	0,113
-125,497	76,917	0,027	-0,021
-124,483	57,134	0,075	0,053
-123,468	30,493	-0,083	0,051
-122,453	-14,306	0,011	-0,005
-121,439	-200,000	0,024	-0,093
-120,424	195,254	-0,072	-0,079
-119,410	373,733	0,052	0,077
-118,395	76,086	0,116	0,088
