DTS Sentinel unit serial number:	SN410029Multiplexer serial number:	ORYXHardware model number:	OX2-SRSoftware version number:	ORYX F/W v4,00 Oryx Data Collector v3.7.2.0data status	okinstallation	B5 Nyhavnadifferential loss correction	single-endedforward channel	channel 2reverse channel	N/Adate	2023/12/13time	17:07:13forward acquisition time	300,00reverse acquisition time	0,00gamma	499,1914k internal	0,3160k external	0,3160temperature offset calibration	1,0000default loss term (dB/km)	0,3820temperature slope calibration	1,0000multiplexer offset coefficient	1,0000multiplexer slope coefficient	1,0000fibre end	0,00T internal ref (°C)	14,18T ext. ref 1 (°C)	-3,13T ext. ref 2 (°C)	-3,23length (m)	temperature (°C)	Stokes	anti-Stokes-744,400	-79,954	0,122	-0,030
-743,385	-154,522	-0,267	-0,013
-742,371	-115,976	0,258	0,035
-741,356	-126,172	-0,355	0,039
-740,342	-200,000	0,150	0,000
-739,327	-195,484	-0,259	-0,001
-738,312	-103,722	0,174	0,030
-737,298	-141,852	-0,398	0,029
-736,283	94,767	0,049	0,041
-735,269	33,863	-0,242	-0,155
-734,254	8,886	0,183	0,101
-733,239	25,553	-0,464	-0,284
-732,225	7,448	0,219	0,120
-731,210	-200,000	-0,004	0,076
-730,196	306,433	-0,090	-0,124
-729,181	117,765	-0,114	-0,104
-728,167	-200,000	-0,023	0,116
-727,152	-99,632	-0,039	0,007
-726,137	-200,000	-0,013	0,061
-725,123	430,695	-0,046	0,074
-724,108	714,348	-0,013	0,026
-723,094	-200,000	-0,065	-0,213
-722,079	-200,000	0,011	-0,160
-721,064	258,584	-0,040	0,051
-720,050	-129,736	-0,123	0,012
-719,035	415,578	-0,018	-0,028
-718,021	800,000	0,046	-0,123
-717,006	58,520	-0,094	-0,068
-715,991	85,907	0,126	-0,102
-714,977	800,000	-0,022	-0,054
-713,962	800,000	0,067	-0,138
-712,948	-4,199	0,092	-0,047
-711,933	383,231	-0,024	0,036
-710,918	-47,030	0,084	-0,030
-709,904	800,000	-0,039	-0,103
-708,889	-200,000	0,002	-0,068
-707,875	-132,701	-0,144	-0,013
-706,860	522,683	-0,099	0,172
-705,845	652,402	0,023	-0,043
-704,831	-43,483	-0,054	0,020
-703,816	98,109	0,083	0,070
-702,802	-50,979	-0,028	0,010
-701,787	-24,386	-0,051	-0,022
-700,772	29,412	-0,110	-0,069
-699,758	800,000	0,029	0,068
-698,743	-200,000	-0,027	0,107
-697,729	800,000	-0,021	-0,055
-696,714	-200,000	-0,009	-0,055
-695,699	-15,878	-0,063	-0,029
-694,685	-114,149	-0,133	0,019
-693,670	460,811	-0,114	-0,187
-692,656	-111,271	-0,032	-0,005
-691,641	-200,000	0,022	0,110
-690,627	13,729	0,078	0,045
-689,612	10,034	-0,035	0,020
-688,597	-104,764	0,106	0,018
-687,583	94,977	-0,059	0,049
-686,568	166,309	-0,080	-0,083
-685,554	-200,000	-0,003	-0,048
-684,539	537,550	0,046	-0,081
-683,524	-9,172	-0,042	0,021
-682,510	85,860	-0,143	-0,115
-681,495	-17,625	-0,154	0,071
-680,481	-137,615	-0,012	0,001
-679,466	334,684	-0,136	-0,194
-678,451	-171,515	-0,024	0,001
-677,437	800,000	0,068	0,180
-676,422	185,961	0,047	0,051
-675,408	-200,000	-0,008	-0,038
-674,393	-200,000	-0,033	0,152
-673,378	-194,644	-0,155	-0,001
-672,364	-53,038	-0,056	0,019
-671,349	229,857	-0,008	-0,010
-670,335	-77,090	-0,020	-0,005
-669,320	792,780	-0,015	-0,030
-668,305	-122,412	-0,056	0,007
-667,291	69,972	-0,021	-0,016
-666,276	-136,761	-0,043	0,004
-665,262	339,480	-0,033	0,048
-664,247	-49,400	-0,214	-0,075
-663,232	-0,946	-0,021	0,011
-662,218	-47,892	0,022	0,008
-661,203	-200,000	-0,011	-0,052
-660,189	-112,117	0,054	-0,008
-659,174	-51,985	-0,079	-0,027
-658,159	47,726	-0,036	0,025
-657,145	-200,000	0,016	-0,137
-656,130	-200,000	-0,012	-0,093
-655,116	51,145	0,117	0,081
-654,101	-200,000	-0,008	-0,109
-653,086	-119,186	-0,095	0,012
-652,072	-76,005	-0,060	-0,016
-651,057	-200,000	-0,017	0,185
-650,043	-72,286	-0,055	-0,015
-649,028	-200,000	0,016	-0,073
-648,014	800,000	0,021	-0,048
-646,999	-82,805	0,125	-0,029
-645,984	472,026	-0,045	0,074
-644,970	800,000	0,059	-0,146
-643,955	171,223	0,035	0,037
-642,941	109,298	-0,131	-0,115
-641,926	-64,701	0,066	-0,019
-640,911	88,693	-0,091	0,074
-639,897	-200,000	0,008	0,116
-638,882	554,722	0,035	0,063
-637,868	-200,000	-0,004	0,030
-636,853	-200,000	0,017	-0,161
-635,838	402,054	0,043	-0,066
-634,824	800,000	-0,029	0,087
-633,809	-71,191	-0,021	0,006
-632,795	339,846	0,062	-0,089
-631,780	-200,000	0,016	0,188
-630,765	18,226	-0,108	-0,063
-629,751	-155,625	-0,113	-0,005
-628,736	123,727	-0,120	-0,110
-627,722	-53,109	-0,116	-0,039
-626,707	615,791	-0,013	0,025
-625,692	90,830	-0,057	0,047
-624,678	-200,000	-0,005	0,052
-623,663	-200,000	0,007	-0,085
-622,649	-200,000	-0,012	-0,116
-621,634	-200,000	0,021	-0,106
-620,619	-49,418	-0,051	-0,018
-619,605	-200,000	0,000	0,019
-618,590	-200,000	0,013	0,156
-617,576	63,552	-0,022	-0,016
-616,561	-200,000	0,005	0,045
-615,546	-200,000	0,036	-0,132
-614,532	-200,000	0,042	-0,233
-613,517	-200,000	-0,007	0,035
-612,503	-200,000	-0,015	0,086
-611,488	606,929	0,027	-0,049
-610,474	-200,000	0,013	0,079
-609,459	161,561	-0,058	0,059
-608,444	-75,944	-0,026	-0,007
-607,430	348,475	-0,079	-0,114
-606,415	-53,607	0,033	0,011
-605,401	45,496	0,062	-0,042
-604,386	-200,000	0,022	0,112
-603,371	45,748	0,093	0,063
-602,357	-200,000	-0,022	0,130
-601,342	-200,000	0,001	0,055
-600,328	555,322	-0,035	-0,062
-599,313	348,956	-0,113	-0,164
-598,298	-14,812	-0,054	-0,025
-597,284	182,766	-0,011	0,012
-596,269	-104,883	-0,016	0,003
-595,255	172,221	0,140	0,148
-594,240	263,693	-0,039	-0,049
-593,225	14,712	-0,068	-0,039
-592,211	-200,000	0,023	0,105
-591,196	425,306	-0,027	-0,043
-590,182	263,093	-0,039	-0,050
-589,167	17,211	0,053	0,031
-588,152	423,230	0,041	-0,064
-587,138	531,182	0,035	-0,060
-586,123	-24,627	-0,137	-0,059
-585,109	130,994	0,063	-0,060
-584,094	-17,429	-0,086	0,039
-583,079	233,429	-0,008	-0,010
-582,065	-200,000	-0,005	0,055
-581,050	-74,157	0,095	0,025
-580,036	50,390	0,080	-0,055
-579,021	-68,862	-0,148	0,042
-578,006	324,793	-0,066	-0,092
-576,992	99,123	0,009	-0,007
-575,977	366,581	0,050	0,074
-574,963	-171,734	-0,126	0,003
-573,948	-200,000	0,002	0,033
-572,934	-58,456	-0,156	-0,049
-571,919	379,493	-0,088	-0,132
-570,904	72,534	0,028	-0,022
-569,890	-98,816	0,144	-0,027
-568,875	23,596	0,141	0,085
-567,861	69,005	0,081	0,061
-566,846	-8,550	-0,092	0,045
-565,831	-200,000	0,021	-0,161
-564,817	-136,144	-0,104	0,009
-563,802	800,000	-0,027	0,067
-562,788	22,458	-0,149	0,089
-561,773	294,704	-0,053	0,071
-560,758	-200,000	-0,023	0,175
-559,744	800,000	0,052	0,124
-558,729	113,522	-0,131	0,117
-557,715	800,000	-0,017	-0,046
-556,700	-99,039	-0,107	-0,020
-555,685	133,980	0,056	-0,053
-554,671	-200,000	-0,007	0,065
-553,656	26,105	0,030	0,018
-552,642	-41,185	0,051	-0,019
-551,627	-163,031	0,037	-0,001
-550,612	66,541	-0,038	-0,029
-549,598	144,890	0,085	-0,083
-548,583	442,351	-0,068	-0,109
-547,569	-200,000	0,002	0,000
-546,554	-200,000	-0,004	0,148
-545,539	-200,000	-0,002	0,155
-544,525	-36,440	0,091	-0,036
-543,510	465,108	-0,055	0,091
-542,496	-36,570	-0,103	-0,040
-541,481	759,821	-0,079	-0,156
-540,466	144,891	-0,116	0,114
-539,452	-200,000	0,001	0,174
-538,437	139,164	0,156	0,150
-537,423	800,000	-0,048	-0,110
-536,408	438,335	0,035	-0,056
-535,393	800,000	0,045	0,123
-534,379	-200,000	0,015	0,110
-533,364	3,509	-0,075	0,040
-532,350	177,935	0,109	0,116
-531,335	85,335	-0,017	0,013
-530,321	-200,000	0,015	-0,050
-529,306	-134,839	-0,232	-0,020
-528,291	800,000	-0,070	-0,150
-527,277	-128,834	-0,106	0,011
-526,262	-112,502	0,071	-0,010
-525,248	-196,599	0,022	0,000
-524,233	-111,932	0,037	0,005
-523,218	107,151	0,047	0,041
-522,204	-66,080	-0,003	-0,001
-521,189	-200,000	0,036	-0,170
-520,175	800,000	0,027	-0,068
-519,160	86,067	-0,075	0,060
-518,145	355,390	0,036	-0,052
-517,131	-75,229	0,094	-0,024
-516,116	-130,652	0,146	0,014
-515,102	-200,000	0,014	0,067
-514,087	-129,793	-0,077	-0,008
-513,072	88,620	-0,090	-0,073
-512,058	484,962	-0,032	0,054
-511,043	20,209	0,140	-0,083
-510,029	220,288	0,094	0,111
-509,014	-200,000	0,011	0,054
-507,999	800,000	0,039	0,089
-506,985	800,000	-0,030	0,085
-505,970	305,469	0,089	-0,121
-504,956	800,000	-0,048	-0,108
-503,941	-87,815	0,118	-0,026
-502,926	494,656	0,029	-0,049
-501,912	800,000	-0,031	-0,100
-500,897	-200,000	-0,021	0,136
-499,883	85,732	-0,023	-0,019
-498,868	7,363	-0,042	-0,023
-497,853	-200,000	0,016	-0,093
-496,839	248,503	0,088	0,109
-495,824	-200,000	-0,010	-0,063
-494,810	800,000	0,019	-0,058
-493,795	-50,633	0,095	0,033
-492,781	-159,042	-0,040	-0,002
-491,766	-200,000	0,008	-0,107
-490,751	414,823	0,045	0,070
-489,737	55,854	-0,026	-0,018
-488,722	32,036	-0,064	-0,040
-487,708	123,338	0,115	0,106
-486,693	-119,905	0,019	0,002
-485,678	-20,878	-0,103	0,046
-484,664	-200,000	0,003	-0,073
-483,649	368,747	-0,087	-0,128
-482,635	779,865	0,090	-0,181
-481,620	126,000	-0,048	-0,044
-480,605	-129,410	0,082	-0,008
-479,591	315,275	-0,075	0,103
-478,576	-200,000	-0,001	0,053
-477,562	800,000	-0,007	0,020
-476,547	800,000	0,051	-0,133
-475,532	800,000	-0,033	-0,070
-474,518	-68,604	0,075	0,021
-473,503	38,528	0,096	0,062
-472,489	800,000	0,027	0,071
-471,474	-110,381	-0,092	-0,014
-470,459	-200,000	0,014	-0,138
-469,445	-200,000	0,006	-0,079
-468,430	48,391	0,073	-0,050
-467,416	684,909	-0,044	0,084
-466,401	170,750	0,081	0,084
-465,386	-170,591	-0,094	-0,002
-464,372	-119,309	-0,057	0,007
-463,357	20,354	-0,071	0,042
-462,343	-200,000	-0,003	0,112
-461,328	-16,335	0,156	-0,072
-460,313	800,000	-0,032	-0,082
-459,299	114,002	0,095	0,084
-458,284	-200,000	0,045	0,148
-457,270	-121,018	0,056	-0,007
-456,255	-39,037	-0,086	0,033
-455,241	87,795	-0,013	0,010
-454,226	-200,000	0,022	-0,071
-453,211	37,524	-0,083	-0,053
-452,197	112,213	0,049	-0,043
-451,182	569,553	0,107	-0,191
-450,168	800,000	-0,047	-0,129
-449,153	-58,915	-0,113	-0,035
-448,138	411,519	-0,066	-0,102
-447,124	800,000	-0,017	0,035
-446,109	-118,633	0,110	-0,014
-445,095	477,803	0,013	0,022
-444,080	-93,016	-0,041	-0,008
-443,065	-200,000	-0,008	-0,059
-442,051	-200,000	-0,000	-0,047
-441,036	164,043	-0,119	0,122
-440,022	173,927	0,070	-0,073
-439,007	193,328	0,041	0,045
-437,992	-132,722	0,093	-0,009
-436,978	-200,000	-0,035	0,161
-435,963	-126,156	-0,117	0,013
-434,949	4,467	-0,063	0,033
-433,934	-200,000	0,017	-0,111
-432,919	800,000	0,077	-0,205
-431,905	-113,621	0,086	0,012
-430,890	328,350	0,053	-0,074
-429,876	800,000	0,018	0,038
-428,861	-179,839	-0,095	0,001
-427,846	-200,000	-0,001	0,004
-426,832	250,622	-0,097	-0,120
-425,817	219,980	-0,078	-0,091
-424,803	-86,502	0,116	0,026
-423,788	-200,000	0,006	0,083
-422,773	800,000	0,063	-0,142
-421,759	461,288	0,060	-0,098
-420,744	631,642	-0,041	0,076
-419,730	5,134	0,072	-0,039
-418,715	410,272	-0,105	-0,163
-417,701	-34,738	0,103	-0,041
-416,686	-101,285	-0,010	0,002
-415,671	511,497	0,071	-0,120
-414,657	127,645	0,060	0,056
-413,642	128,912	0,147	0,136
-412,628	-82,116	-0,044	0,010
-411,613	-141,455	-0,167	-0,012
-410,598	346,763	0,078	0,112
-409,584	245,878	-0,025	-0,031
-408,569	800,000	0,070	0,149
-407,555	-200,000	0,001	0,098
-406,540	-200,000	0,004	-0,094
-405,525	-200,000	0,013	0,123
-404,511	800,000	-0,043	0,088
-403,496	-135,339	0,009	-0,001
-402,482	-200,000	-0,039	-0,139
-401,467	80,887	0,096	-0,075
-400,452	-200,000	0,019	0,097
-399,438	-28,800	0,019	-0,008
-398,423	-200,000	-0,023	0,126
-397,409	-200,000	-0,005	0,138
-396,394	-65,025	-0,056	0,016
-395,379	28,363	-0,069	0,042
-394,365	233,058	0,034	-0,041
-393,350	-200,000	-0,016	0,063
-392,336	-162,831	0,104	0,004
-391,321	-58,105	-0,009	-0,003
-390,306	800,000	0,031	-0,085
-389,292	11,205	0,070	-0,039
-388,277	100,775	-0,027	-0,023
-387,263	-200,000	-0,020	-0,074
-386,248	1,221	-0,144	0,075
-385,233	261,273	-0,044	0,056
-384,219	10,501	0,105	-0,058
-383,204	-200,000	-0,007	0,024
-382,190	-200,000	-0,008	0,039
-381,175	-48,528	-0,187	0,065
-380,160	241,442	-0,068	-0,082
-379,146	-89,242	0,145	0,031
-378,131	-90,225	-0,068	-0,014
-377,117	-193,185	-0,035	-0,000
-376,102	24,274	-0,059	0,036
-375,088	-200,000	0,026	-0,110
-374,073	-200,000	-0,010	-0,072
-373,058	-200,000	0,009	0,080
-372,044	330,521	0,059	0,083
-371,029	202,216	0,075	0,084
-370,015	202,824	0,049	-0,055
-369,000	-200,000	0,036	-0,179
-367,985	76,989	-0,031	0,024
-366,971	-76,055	-0,146	-0,037
-365,956	-28,039	0,212	-0,089
-364,942	-200,000	-0,009	0,062
-363,927	796,582	0,044	-0,088
-362,912	67,128	0,084	0,062
-361,898	213,223	-0,050	-0,058
-360,883	800,000	-0,022	0,067
-359,869	-79,873	0,122	-0,030
-358,854	-200,000	0,003	-0,041
-357,839	800,000	0,059	0,132
-356,825	-200,000	-0,027	-0,162
-355,810	442,534	-0,031	0,050
-354,796	-130,492	-0,110	0,011
-353,781	-130,444	0,066	0,006
-352,766	-48,512	-0,161	-0,056
-351,752	-200,000	-0,035	-0,119
-350,737	774,857	0,077	0,152
-349,723	800,000	0,060	0,128
-348,708	252,376	0,096	0,119
-347,693	-42,583	0,104	0,038
-346,679	67,993	-0,131	-0,097
-345,664	-200,000	0,009	0,045
-344,650	224,057	-0,026	-0,031
-343,635	-49,666	0,101	0,035
-342,620	53,497	0,076	0,053
-341,606	800,000	0,070	-0,152
-340,591	-129,744	-0,169	-0,017
-339,577	-200,000	-0,001	-0,007
-338,562	58,820	-0,039	-0,027
-337,548	-122,869	0,167	0,019
-336,533	-102,919	0,072	0,012
-335,518	43,907	-0,034	0,022
-334,504	576,787	0,038	0,068
-333,489	10,263	0,126	-0,069
-332,475	-198,675	-0,084	-0,000
-331,460	-200,000	-0,008	0,076
-330,445	546,303	0,028	-0,049
-329,431	-200,000	-0,004	-0,092
-328,416	-95,277	0,165	0,032
-327,402	259,403	-0,055	0,069
-326,387	-200,000	-0,004	-0,067
-325,372	-200,000	0,004	-0,106
-324,358	-60,990	-0,082	0,025
-323,343	-14,833	0,112	0,052
-322,329	-75,240	0,093	0,024
-321,314	-200,000	-0,012	0,076
-320,299	65,943	0,166	-0,122
-319,285	14,821	0,076	0,043
-318,270	800,000	-0,012	0,026
-317,256	609,255	-0,022	-0,041
-316,241	26,445	0,116	0,070
-315,226	-200,000	-0,010	0,063
-314,212	147,948	-0,072	0,071
-313,197	-29,921	0,094	0,039
-312,183	82,123	0,052	0,041
-311,168	-30,568	0,094	-0,039
-310,153	-53,321	-0,031	-0,010
-309,139	74,408	-0,103	-0,078
-308,124	245,623	-0,074	0,090
-307,110	244,490	-0,017	-0,021
-306,095	800,000	-0,026	0,062
-305,080	-7,327	0,126	-0,061
-304,066	-200,000	-0,002	0,058
-303,051	-200,000	-0,041	-0,222
-302,037	-120,650	-0,037	-0,004
-301,022	800,000	0,064	0,181
-300,008	9,701	0,103	0,057
-298,993	800,000	-0,018	0,046
-297,978	244,878	-0,043	0,053
-296,964	20,392	0,037	0,022
-295,949	-31,396	-0,065	-0,026
-294,935	800,000	0,019	-0,052
-293,920	117,174	0,090	-0,080
-292,905	800,000	0,058	-0,139
-291,891	279,249	-0,086	0,112
-290,876	800,000	0,014	0,034
-289,862	-200,000	0,013	-0,074
-288,847	-200,000	0,004	-0,096
-287,832	42,403	0,083	0,055
-286,818	-200,000	-0,006	0,133
-285,803	-19,474	-0,078	0,035
-284,789	19,657	0,069	0,040
-283,774	-52,197	0,105	-0,035
-282,759	79,283	-0,087	-0,067
-281,745	4,013	-0,122	-0,064
-280,730	-200,000	-0,041	-0,169
-279,716	-200,000	-0,122	0,000
-278,701	-70,819	-0,080	0,022
-277,686	-33,763	0,082	0,033
-276,672	500,691	0,056	0,094
-275,657	-82,319	-0,069	0,016
-274,643	310,935	-0,044	0,060
-273,628	-200,000	-0,005	-0,074
-272,613	-38,136	-0,058	-0,022
-271,599	-200,000	0,017	0,121
-270,584	-200,000	-0,010	0,114
-269,570	-200,000	0,002	-0,102
-268,555	735,137	0,036	-0,070
-267,540	621,614	0,010	-0,019
-266,526	-10,276	0,029	0,014
-265,511	583,235	-0,029	0,051
-264,497	-200,000	-0,011	-0,056
-263,482	800,000	0,029	0,060
-262,467	359,083	0,043	-0,062
-261,453	-200,000	-0,022	0,082
-260,438	-200,000	-0,010	0,049
-259,424	-8,930	-0,120	-0,058
-258,409	-124,028	0,092	0,010
-257,395	800,000	0,060	0,164
-256,380	-200,000	0,027	0,124
-255,365	265,630	0,113	0,142
-254,351	39,230	-0,130	-0,084
-253,336	-62,107	-0,086	0,026
-252,322	-96,055	-0,148	0,028
-251,307	-200,000	0,011	0,056
-250,292	-200,000	-0,005	0,151
-249,278	-200,000	-0,026	0,141
-248,263	-121,361	0,094	0,011
-247,249	-200,000	-0,002	0,056
-246,234	296,501	-0,063	0,084
-245,219	800,000	0,037	-0,080
-244,205	437,549	-0,037	-0,058
-243,190	-171,350	0,041	-0,001
-242,176	-200,000	-0,005	0,089
-241,161	335,486	0,105	0,147
-240,146	-62,192	-0,041	0,012
-239,132	795,206	-0,085	-0,171
-238,117	-112,723	0,129	0,018
-237,103	-122,769	-0,109	-0,013
-236,088	800,000	-0,046	-0,103
-235,073	38,838	-0,066	-0,042
-234,059	21,515	0,028	0,017
-233,044	180,123	0,056	-0,059
-232,030	800,000	-0,070	-0,163
-231,015	-92,306	-0,029	-0,006
-230,000	49,082	0,068	-0,046
-228,986	254,555	-0,083	0,103
-227,971	528,016	-0,028	0,048
-226,957	225,827	0,069	0,081
-225,942	152,848	-0,051	0,051
-224,927	94,815	-0,089	-0,073
-223,913	188,730	-0,090	-0,098
-222,898	800,000	-0,051	-0,142
-221,884	72,876	0,084	-0,063
-220,869	108,576	0,049	-0,043
-219,855	27,131	-0,105	0,064
-218,840	70,064	-0,083	-0,062
-217,825	430,641	-0,049	0,077
-216,811	-90,351	0,109	0,023
-215,796	-63,742	-0,087	-0,026
-214,782	207,508	-0,011	-0,013
-213,767	123,959	0,124	-0,112
-212,752	67,991	-0,066	-0,049
-211,738	-18,304	0,023	0,011
-210,723	476,757	-0,128	0,209
-209,709	-113,070	0,023	0,003
-208,694	15,969	-0,106	-0,060
-207,679	257,712	0,029	-0,036
-206,665	349,515	0,088	0,125
-205,650	-36,155	0,022	-0,008
-204,636	89,976	0,089	0,072
-203,621	588,579	-0,019	0,033
-202,606	563,423	0,051	-0,090
-201,592	48,317	-0,076	0,051
-200,577	149,120	-0,106	0,103
-199,563	-120,608	-0,065	-0,008
-198,548	449,569	0,013	0,020
-197,533	800,000	-0,044	0,120
-196,519	800,000	0,037	-0,100
-195,504	-157,569	0,123	0,005
-194,490	-31,219	0,092	-0,037
-193,475	399,877	-0,041	-0,062
-192,460	800,000	-0,068	0,183
-191,446	-200,000	-0,014	0,057
-190,431	-27,509	0,080	0,033
-189,417	-200,000	-0,018	-0,084
-188,402	-24,621	0,062	0,026
-187,387	308,193	-0,118	-0,159
-186,373	-122,205	-0,074	0,009
-185,358	681,863	0,039	0,074
-184,344	-200,000	0,023	0,098
-183,329	-200,000	-0,052	0,178
-182,315	-9,496	0,068	0,033
-181,300	609,239	-0,045	-0,082
-180,285	-125,576	-0,084	0,009
-179,271	-80,951	-0,093	-0,022
-178,256	-200,000	-0,053	-0,194
-177,242	224,780	0,023	-0,027
-176,227	-200,000	0,019	-0,174
-175,212	212,303	0,040	-0,045
-174,198	800,000	0,023	-0,063
-173,183	-165,437	-0,068	-0,002
-172,169	-88,483	-0,053	-0,011
-171,154	-44,262	-0,067	0,024
-170,139	800,000	0,038	0,118
-169,125	600,422	0,029	0,052
-168,110	140,991	-0,023	0,022
-167,096	-198,840	0,208	0,001
-166,081	494,241	-0,037	-0,061
-165,066	-77,733	-0,125	-0,031
-164,052	298,714	0,116	-0,154
-163,037	-126,490	0,049	0,005
-162,023	43,360	0,138	0,090
-161,008	359,000	-0,074	0,107
-159,993	372,862	-0,062	-0,091
-158,979	-105,334	-0,020	0,003
-157,964	800,000	0,045	-0,141
-156,950	112,269	-0,078	-0,068
-155,935	39,889	-0,020	0,013
-154,920	113,760	0,075	0,066
-153,906	214,893	0,096	0,110
-152,891	800,000	-0,031	0,098
-151,877	429,561	0,044	-0,069
-150,862	147,938	0,088	-0,085
-149,847	-83,128	0,092	-0,021
-148,833	464,161	-0,046	0,074
-147,818	800,000	-0,043	-0,100
-146,804	345,409	0,044	0,062
-145,789	-164,267	0,043	-0,001
-144,775	737,447	0,043	-0,082
-143,760	607,915	0,024	0,043
-142,745	-200,000	0,006	-0,157
-141,731	-200,000	-0,035	0,169
-140,716	800,000	0,053	0,107
-139,702	497,251	0,085	0,141
-138,687	-62,746	0,128	0,038
-137,672	77,428	0,066	0,050
-136,658	-59,709	0,096	0,029
-135,643	-85,150	0,015	0,003
-134,629	100,801	0,057	0,048
-133,614	-59,844	0,093	-0,029
-132,599	-200,000	-0,000	0,201
-131,585	-148,191	-0,039	-0,002
-130,570	-200,000	-0,012	0,061
-129,556	-102,552	-0,117	-0,020
-128,541	6,261	0,098	-0,052
-127,526	-27,424	-0,093	0,039
-126,512	276,160	0,050	0,065
-125,497	451,848	-0,075	-0,119
-124,483	113,507	-0,011	0,010
-123,468	-200,000	-0,014	-0,087
-122,453	-200,000	-0,014	-0,101
-121,439	66,300	-0,073	-0,054
-120,424	800,000	0,077	-0,184
-119,410	649,250	0,048	0,090
