DTS Sentinel unit serial number:	SN410029Multiplexer serial number:	ORYXHardware model number:	OX2-SRSoftware version number:	ORYX F/W v4,00 Oryx Data Collector v3.7.2.0data status	okinstallation	B5 Nyhavnadifferential loss correction	single-endedforward channel	channel 2reverse channel	N/Adate	2023/12/14time	01:27:13forward acquisition time	300,00reverse acquisition time	0,00gamma	499,1914k internal	0,3155k external	0,3155temperature offset calibration	1,0000default loss term (dB/km)	0,3820temperature slope calibration	1,0000multiplexer offset coefficient	1,0000multiplexer slope coefficient	1,0000fibre end	0,00T internal ref (°C)	8,69T ext. ref 1 (°C)	-7,22T ext. ref 2 (°C)	-7,24length (m)	temperature (°C)	Stokes	anti-Stokes-744,400	-33,698	0,351	0,142
-743,385	-39,267	-0,354	-0,136
-742,371	-94,520	0,337	0,067
-741,356	-102,701	-0,374	0,065
-740,342	266,944	0,163	0,211
-739,327	-116,974	-0,291	0,039
-738,312	-76,521	0,090	-0,023
-737,298	-75,806	-0,425	-0,110
-736,283	-124,050	0,144	0,016
-735,269	-147,901	-0,433	-0,026
-734,254	-62,007	0,193	0,059
-733,239	-32,955	-0,508	-0,207
-732,225	276,559	0,159	0,209
-731,210	-200,000	0,009	-0,076
-730,196	800,000	0,097	-0,198
-729,181	-111,029	-0,165	-0,025
-728,167	800,000	0,052	-0,158
-727,152	-200,000	-0,004	-0,069
-726,137	-200,000	-0,016	-0,080
-725,123	165,770	-0,020	0,021
-724,108	102,455	-0,056	-0,048
-723,094	-200,000	0,010	-0,114
-722,079	469,196	-0,040	-0,067
-721,064	-200,000	-0,023	-0,159
-720,050	70,164	-0,147	-0,112
-719,035	-200,000	-0,035	-0,123
-718,021	800,000	-0,064	-0,132
-717,006	-146,030	-0,072	0,005
-715,991	-189,939	-0,087	-0,001
-714,977	-200,000	0,003	-0,162
-713,962	-16,484	0,064	0,030
-712,948	2,931	0,120	0,064
-711,933	-200,000	-0,001	0,042
-710,918	800,000	-0,060	0,124
-709,904	800,000	0,011	0,030
-708,889	-200,000	-0,013	-0,062
-707,875	-200,000	-0,008	-0,091
-706,860	-28,505	0,092	0,039
-705,845	495,548	0,087	0,148
-704,831	314,303	-0,015	0,021
-703,816	-200,000	-0,013	-0,044
-702,802	419,622	-0,040	-0,063
-701,787	-200,000	-0,008	-0,083
-700,772	-200,000	0,009	-0,043
-699,758	486,707	-0,038	0,064
-698,743	800,000	0,034	-0,085
-697,729	-200,000	0,018	0,082
-696,714	791,928	0,031	-0,064
-695,699	78,659	-0,125	-0,098
-694,685	-42,487	-0,153	-0,057
-693,670	71,206	0,048	-0,037
-692,656	-31,556	-0,070	-0,029
-691,641	-200,000	-0,018	-0,125
-690,627	-116,531	0,076	0,010
-689,612	23,669	-0,017	-0,011
-688,597	19,834	-0,070	-0,042
-687,583	-200,000	-0,031	-0,103
-686,568	-200,000	-0,027	-0,107
-685,554	154,012	-0,097	-0,098
-684,539	-200,000	0,005	-0,147
-683,524	-51,983	0,025	0,008
-682,510	-200,000	0,018	0,065
-681,495	-138,412	-0,097	0,008
-680,481	3,696	0,030	0,016
-679,466	308,678	0,034	-0,047
-678,451	184,765	-0,026	0,029
-677,437	-125,235	-0,041	0,005
-676,422	-6,909	-0,088	0,044
-675,408	-122,269	-0,064	-0,008
-674,393	761,911	-0,048	0,096
-673,378	-56,758	0,141	-0,046
-672,364	-200,000	-0,008	-0,084
-671,349	20,677	-0,112	0,066
-670,335	800,000	0,050	0,130
-669,320	800,000	-0,023	0,068
-668,305	298,892	-0,117	0,159
-667,291	78,539	0,071	-0,056
-666,276	800,000	-0,030	-0,081
-665,262	-66,169	-0,056	-0,016
-664,247	-10,293	-0,164	-0,080
-663,232	-66,503	0,088	-0,025
-662,218	-77,077	-0,142	0,036
-661,203	501,989	-0,059	0,100
-660,189	800,000	0,040	-0,099
-659,174	46,801	-0,065	-0,044
-658,159	800,000	0,023	0,071
-657,145	-200,000	0,009	-0,039
-656,130	193,058	-0,105	-0,117
-655,116	-115,694	0,072	0,010
-654,101	34,208	0,018	0,012
-653,086	800,000	-0,020	-0,063
-652,072	-25,873	-0,128	-0,055
-651,057	36,640	-0,106	-0,069
-650,043	-42,510	-0,156	0,058
-649,028	-33,250	0,107	0,043
-648,014	-200,000	-0,022	-0,128
-646,999	89,644	-0,050	-0,041
-645,984	233,835	-0,046	-0,056
-644,970	52,254	-0,124	-0,087
-643,955	800,000	0,058	-0,167
-642,941	-63,174	0,116	-0,035
-641,926	-200,000	-0,012	0,085
-640,911	-123,987	0,114	0,013
-639,897	-40,790	0,100	-0,038
-638,882	-73,829	0,009	-0,002
-637,868	-153,620	-0,106	0,005
-636,853	-200,000	-0,107	-0,000
-635,838	-200,000	-0,005	-0,088
-634,824	-200,000	-0,011	0,101
-633,809	-6,894	0,143	0,071
-632,795	36,982	-0,052	0,034
-631,780	-200,000	-0,073	-0,000
-630,765	378,855	0,028	-0,043
-629,751	179,879	-0,100	-0,108
-628,736	-56,811	-0,122	-0,039
-627,722	-30,534	0,096	-0,040
-626,707	-95,859	-0,088	0,017
-625,692	139,313	0,001	0,001
-624,678	-72,562	-0,088	-0,024
-623,663	-107,037	0,022	-0,004
-622,649	179,682	-0,065	-0,070
-621,634	-0,170	-0,060	-0,031
-620,619	-32,626	0,034	-0,014
-619,605	705,141	-0,061	-0,119
-618,590	-61,866	-0,057	-0,018
-617,576	-159,376	-0,129	-0,005
-616,561	-139,596	-0,008	-0,001
-615,546	-200,000	0,024	-0,119
-614,532	28,378	-0,132	-0,082
-613,517	-200,000	0,007	0,065
-612,503	298,022	0,064	0,086
-611,488	14,292	-0,040	0,023
-610,474	39,572	0,030	-0,020
-609,459	-200,000	0,021	-0,088
-608,444	-111,304	-0,097	0,014
-607,430	341,688	0,077	-0,111
-606,415	346,743	-0,082	-0,119
-605,401	-200,000	-0,008	-0,079
-604,386	-200,000	-0,023	0,157
-603,371	93,572	-0,042	0,035
-602,357	-75,336	-0,107	0,028
-601,342	-200,000	-0,019	-0,084
-600,328	-200,000	-0,001	-0,075
-599,313	170,181	0,042	-0,044
-598,298	70,368	0,084	-0,064
-597,284	-200,000	-0,003	0,150
-596,269	157,621	0,088	-0,090
-595,255	-95,799	-0,109	-0,021
-594,240	-200,000	-0,051	-0,170
-593,225	113,557	0,044	0,039
-592,211	645,153	-0,024	0,046
-591,196	-200,000	0,010	0,035
-590,182	-126,047	-0,055	0,006
-589,167	-101,752	0,084	-0,015
-588,152	355,401	0,030	-0,045
-587,138	800,000	0,018	0,058
-586,123	62,652	-0,083	-0,061
-585,109	800,000	0,030	-0,062
-584,094	800,000	0,031	-0,066
-583,079	107,611	0,100	-0,087
-582,065	-28,371	-0,156	0,066
-581,050	-31,915	-0,095	-0,039
-580,036	-200,000	0,029	-0,139
-579,021	28,417	0,160	-0,099
-578,006	-143,403	0,062	-0,004
-576,992	-48,341	-0,066	-0,023
-575,977	352,637	0,072	-0,105
-574,963	-23,521	0,122	-0,053
-573,948	800,000	-0,045	-0,111
-572,934	800,000	-0,027	-0,071
-571,919	12,216	-0,118	0,067
-570,904	-37,336	-0,111	0,043
-569,890	196,833	-0,038	-0,043
-568,875	-22,931	0,099	0,043
-567,861	184,960	0,036	-0,039
-566,846	800,000	0,027	0,083
-565,831	54,702	-0,092	0,065
-564,817	-65,933	-0,103	-0,030
-563,802	-200,000	-0,026	-0,173
-562,788	-49,683	-0,077	0,027
-561,773	-122,623	0,103	0,012
-560,758	280,360	0,046	-0,061
-559,744	800,000	0,018	0,040
-558,729	-34,685	0,011	0,005
-557,715	-39,947	0,036	-0,014
-556,700	220,317	-0,052	-0,061
-555,685	168,090	0,051	-0,054
-554,671	-95,735	-0,035	0,007
-553,656	-200,000	0,016	-0,070
-552,642	-76,866	0,125	0,032
-551,627	167,055	-0,078	0,081
-550,612	-98,072	-0,101	-0,019
-549,598	-200,000	-0,032	-0,134
-548,583	-200,000	-0,005	0,051
-547,569	-200,000	0,000	-0,079
-546,554	-101,449	0,146	0,026
-545,539	-10,399	-0,123	0,059
-544,525	-200,000	0,010	0,078
-543,510	-200,000	0,009	0,032
-542,496	328,315	-0,045	-0,064
-541,481	-200,000	0,013	-0,136
-540,466	259,531	0,043	-0,055
-539,452	-200,000	0,009	-0,039
-538,437	800,000	-0,006	0,017
-537,423	112,555	-0,061	-0,054
-536,408	136,212	-0,033	-0,031
-535,393	-3,972	-0,072	-0,036
-534,379	-78,274	0,067	-0,017
-533,364	-54,776	0,063	-0,021
-532,350	800,000	0,022	-0,062
-531,335	-200,000	-0,001	0,109
-530,321	-55,314	-0,085	0,028
-529,306	800,000	-0,068	0,160
-528,291	800,000	-0,043	0,102
-527,277	-132,761	-0,140	0,013
-526,262	-140,066	-0,061	0,005
-525,248	-39,301	-0,071	0,027
-524,233	-147,523	-0,048	0,003
-523,218	226,008	0,097	0,115
-522,204	767,631	-0,071	-0,142
-521,189	-200,000	0,002	-0,073
-520,175	-1,406	0,014	0,007
-519,160	-200,000	0,002	-0,095
-518,145	235,433	0,033	-0,040
-517,131	60,787	0,040	-0,029
-516,116	-74,239	-0,093	0,025
-515,102	-71,652	-0,025	-0,007
-514,087	272,498	-0,101	-0,131
-513,072	800,000	0,021	-0,064
-512,058	-200,000	-0,024	-0,106
-511,043	273,554	0,051	0,067
-510,029	-200,000	-0,025	-0,134
-509,014	800,000	0,040	0,093
-507,999	-200,000	0,005	0,032
-506,985	-200,000	-0,001	0,046
-505,970	177,055	-0,064	-0,068
-504,956	30,053	-0,105	-0,065
-503,941	-200,000	-0,020	0,146
-502,926	244,825	0,071	0,087
-501,912	800,000	0,017	0,045
-500,897	129,992	-0,110	0,103
-499,883	139,396	-0,051	0,049
-498,868	-200,000	0,027	-0,092
-497,853	-200,000	-0,006	0,029
-496,839	-200,000	0,006	-0,051
-495,824	-200,000	-0,012	-0,082
-494,810	-9,844	-0,152	-0,073
-493,795	7,075	0,077	-0,042
-492,781	-200,000	-0,014	-0,111
-491,766	249,787	0,081	0,100
-490,751	-200,000	0,011	-0,126
-489,737	-139,095	0,085	0,007
-488,722	341,039	0,050	0,071
-487,708	-111,396	0,061	0,009
-486,693	800,000	0,019	0,050
-485,678	146,527	0,097	-0,095
-484,664	-11,906	-0,162	0,077
-483,649	-55,321	0,155	0,051
-482,635	345,962	0,036	-0,053
-481,620	70,714	-0,010	-0,008
-480,605	800,000	0,027	0,061
-479,591	-64,684	0,006	-0,002
-478,576	-69,812	-0,106	0,029
-477,562	-200,000	-0,034	-0,168
-476,547	-67,276	-0,036	0,010
-475,532	4,485	0,041	-0,022
-474,518	-200,000	0,025	0,087
-473,503	168,197	0,012	0,013
-472,489	411,023	-0,080	0,125
-471,474	800,000	0,052	-0,149
-470,459	94,421	-0,057	0,047
-469,445	-135,650	-0,161	0,014
-468,430	-71,094	0,083	0,023
-467,416	-200,000	-0,007	0,066
-466,401	-200,000	0,019	-0,127
-465,386	-67,713	-0,089	0,025
-464,372	21,984	0,147	0,088
-463,357	2,460	-0,041	-0,022
-462,343	-74,840	-0,178	0,046
-461,328	-200,000	0,011	-0,170
-460,313	-200,000	-0,014	-0,096
-459,299	110,559	0,085	0,074
-458,284	-40,795	0,066	0,025
-457,270	151,057	-0,090	0,090
-456,255	-88,651	0,163	0,035
-455,241	216,420	-0,070	-0,082
-454,226	-100,306	0,041	-0,007
-453,211	-132,951	-0,083	0,008
-452,197	142,070	0,045	-0,044
-451,182	-200,000	0,006	0,115
-450,168	-106,561	-0,092	-0,015
-449,153	-200,000	0,029	0,099
-448,138	35,719	-0,066	-0,042
-447,124	346,893	0,075	-0,107
-446,109	396,190	0,056	0,085
-445,095	291,673	0,019	0,025
-444,080	6,567	-0,084	-0,045
-443,065	-56,485	0,136	0,044
-442,051	-14,739	-0,057	-0,027
-441,036	101,174	-0,014	0,012
-440,022	-200,000	-0,015	0,097
-439,007	68,722	0,124	0,093
-437,992	107,553	0,036	0,031
-436,978	108,553	0,173	-0,151
-435,963	188,973	0,081	-0,088
-434,949	45,476	0,043	-0,029
-433,934	-200,000	0,026	-0,088
-432,919	68,232	-0,097	0,072
-431,905	278,509	-0,041	-0,053
-430,890	800,000	-0,030	-0,074
-429,876	213,791	0,043	-0,050
-428,861	675,726	-0,075	-0,143
-427,846	534,486	-0,034	-0,058
-426,832	132,416	-0,082	0,077
-425,817	-75,446	0,061	-0,016
-424,803	-200,000	-0,015	0,049
-423,788	-200,000	0,006	0,048
-422,773	215,440	0,027	-0,031
-421,759	-102,614	0,103	0,018
-420,744	-179,300	-0,110	-0,002
-419,730	-200,000	-0,026	0,091
-418,715	-80,577	-0,113	0,027
-417,701	-52,379	-0,114	-0,038
-416,686	800,000	-0,034	0,098
-415,671	-45,815	0,120	0,043
-414,657	-200,000	-0,019	0,124
-413,642	-200,000	0,013	0,121
-412,628	-200,000	0,018	-0,110
-411,613	-131,146	-0,152	-0,015
-410,598	-84,098	0,066	0,015
-409,584	-73,609	-0,008	-0,002
-408,569	-69,999	-0,082	0,023
-407,555	392,055	0,078	0,119
-406,540	-200,000	-0,019	0,117
-405,525	-200,000	-0,034	-0,125
-404,511	-175,032	-0,071	0,001
-403,496	800,000	0,023	-0,058
-402,482	-113,309	0,143	0,020
-401,467	-200,000	0,113	0,000
-400,452	-200,000	0,001	0,053
-399,438	450,498	-0,075	0,121
-398,423	-86,870	0,094	-0,021
-397,409	-68,154	0,100	0,028
-396,394	171,919	-0,058	0,061
-395,379	372,657	0,125	0,185
-394,365	-200,000	-0,001	-0,027
-393,350	-46,903	0,082	0,029
-392,336	-84,527	0,105	0,024
-391,321	-200,000	-0,007	-0,120
-390,306	2,699	-0,096	-0,050
-389,292	226,925	0,043	-0,051
-388,277	800,000	0,056	-0,112
-387,263	404,668	-0,023	0,036
-386,248	360,992	0,088	0,128
-385,233	-116,216	-0,011	0,001
-384,219	800,000	0,044	0,111
-383,204	800,000	-0,026	-0,059
-382,190	33,168	-0,103	-0,065
-381,175	800,000	-0,004	-0,009
-380,160	267,003	0,080	0,102
-379,146	-42,342	0,160	0,059
-378,131	-200,000	-0,011	-0,036
-377,117	146,872	0,057	-0,056
-376,102	340,079	0,046	-0,066
-375,088	-200,000	-0,019	0,139
-374,073	-64,841	-0,057	-0,017
-373,058	800,000	0,049	-0,120
-372,044	-102,711	0,107	0,018
-371,029	-200,000	0,002	0,044
-370,015	800,000	0,050	0,124
-369,000	-97,019	-0,015	0,003
-367,985	-200,000	0,018	-0,075
-366,971	111,766	0,045	-0,040
-365,956	-200,000	-0,005	0,183
-364,942	800,000	0,047	0,130
-363,927	86,665	0,172	0,138
-362,912	62,400	0,015	-0,011
-361,898	-11,431	0,022	0,010
-360,883	-19,768	0,203	-0,091
-359,869	67,539	-0,012	0,009
-358,854	-51,024	-0,064	0,022
-357,839	64,734	0,076	0,055
-356,825	-143,162	-0,029	-0,002
-355,810	76,176	-0,040	0,031
-354,796	-200,000	0,022	-0,111
-353,781	548,358	0,077	-0,134
-352,766	-200,000	-0,013	-0,161
-351,752	312,374	0,074	0,102
-350,737	321,912	0,074	0,102
-349,723	-200,000	-0,014	0,095
-348,708	436,020	-0,043	-0,068
-347,693	800,000	0,032	-0,066
-346,679	-3,363	-0,086	0,044
-345,664	225,358	0,034	0,040
-344,650	85,376	0,103	0,082
-343,635	469,972	0,066	0,109
-342,620	-158,632	0,054	0,002
-341,606	-200,000	-0,037	0,185
-340,591	800,000	-0,028	0,060
-339,577	-113,039	0,088	0,013
-338,562	-200,000	0,009	-0,042
-337,548	-184,670	-0,038	-0,000
-336,533	800,000	-0,033	0,077
-335,518	-200,000	0,035	0,159
-334,504	58,119	0,044	-0,031
-333,489	151,052	-0,081	-0,080
-332,475	800,000	-0,008	-0,022
-331,460	35,305	0,019	-0,012
-330,445	800,000	0,054	-0,164
-329,431	-200,000	0,007	-0,043
-328,416	-81,950	0,136	0,032
-327,402	84,039	-0,110	0,087
-326,387	68,663	0,007	-0,005
-325,372	633,946	-0,036	-0,066
-324,358	248,839	0,058	-0,072
-323,343	800,000	-0,028	0,088
-322,329	76,758	0,103	0,079
-321,314	327,837	-0,054	0,076
-320,299	282,664	0,074	0,097
-319,285	171,167	-0,055	-0,057
-318,270	422,305	-0,058	-0,090
-317,256	69,057	0,122	0,091
-316,241	153,730	0,029	-0,029
-315,226	-200,000	-0,015	-0,093
-314,212	-74,865	0,026	-0,007
-313,197	-200,000	-0,027	-0,086
-312,183	112,706	-0,036	-0,032
-311,168	-142,635	-0,079	0,006
-310,153	800,000	0,017	-0,052
-309,139	324,433	-0,086	0,120
-308,124	-39,293	0,112	-0,042
-307,110	279,220	-0,049	-0,063
-306,095	800,000	0,024	0,071
-305,080	-200,000	-0,024	0,080
-304,066	-200,000	-0,032	0,126
-303,051	-10,641	-0,079	-0,038
-302,037	637,589	0,034	-0,063
-301,022	800,000	-0,021	0,046
-300,008	-200,000	-0,008	0,106
-298,993	1,600	-0,101	-0,053
-297,978	95,936	0,129	-0,107
-296,964	-151,356	-0,069	-0,004
-295,949	-79,699	-0,101	0,025
-294,935	-105,897	-0,111	-0,018
-293,920	149,457	-0,041	0,041
-292,905	-27,570	0,113	0,048
-291,891	800,000	0,046	0,126
-290,876	43,018	-0,078	-0,052
-289,862	-49,075	-0,113	0,039
-288,847	115,346	0,035	0,031
-287,832	-200,000	0,000	0,045
-286,818	104,951	0,014	-0,012
-285,803	46,585	-0,080	0,054
-284,789	148,638	-0,041	0,040
-283,774	-27,253	-0,130	-0,055
-282,759	800,000	-0,011	0,028
-281,745	68,517	-0,090	-0,067
-280,730	532,118	0,059	-0,102
-279,716	16,216	0,130	0,074
-278,701	714,610	-0,017	0,034
-277,686	-200,000	0,005	0,119
-276,672	-10,061	0,156	0,075
-275,657	-200,000	-0,009	0,063
-274,643	-112,487	0,099	-0,014
-273,628	800,000	-0,026	0,062
-272,613	574,790	-0,032	0,057
-271,599	-19,152	-0,131	-0,059
-270,584	-200,000	0,056	0,185
-269,570	-200,000	0,037	0,166
-268,555	-57,053	-0,090	0,029
-267,540	800,000	0,008	0,016
-266,526	800,000	-0,043	0,112
-265,511	-200,000	-0,012	0,117
-264,497	-71,113	0,093	-0,025
-263,482	569,002	0,109	0,192
-262,467	800,000	0,025	0,064
-261,453	-200,000	0,015	0,082
-260,438	36,638	-0,023	-0,015
-259,424	235,605	-0,008	-0,010
-258,409	-200,000	-0,027	-0,095
-257,395	-99,566	0,129	0,023
-256,380	83,187	-0,065	0,052
-255,365	53,341	0,112	0,078
-254,351	149,619	0,037	0,036
-253,336	6,636	-0,073	-0,039
-252,322	-90,998	0,137	0,028
-251,307	258,604	-0,057	-0,071
-250,292	94,111	-0,147	-0,121
-249,278	-200,000	-0,022	0,120
-248,263	-31,428	0,092	-0,037
-247,249	117,432	-0,018	-0,016
-246,234	-200,000	-0,009	0,101
-245,219	-13,893	-0,168	0,078
-244,205	-200,000	-0,002	0,022
-243,190	-11,457	-0,091	-0,043
-242,176	17,593	0,073	-0,042
-241,161	78,114	0,090	0,070
-240,146	56,422	0,047	0,033
-239,132	195,362	-0,016	0,018
-238,117	-200,000	-0,002	-0,122
-237,103	177,461	-0,003	0,003
-236,088	464,216	0,025	0,041
-235,073	800,000	-0,006	0,013
-234,059	66,530	0,167	0,123
-233,044	-200,000	0,000	0,028
-232,030	515,002	-0,027	-0,046
-231,015	800,000	-0,041	0,096
-230,000	-29,161	-0,192	0,079
-228,986	275,561	0,101	-0,130
-227,971	-200,000	-0,012	-0,136
-226,957	644,243	-0,026	0,047
-225,942	195,718	0,061	-0,067
-224,927	-200,000	0,024	-0,115
-223,913	540,429	-0,027	-0,047
-222,898	30,956	0,061	0,038
-221,884	610,333	0,031	0,057
-220,869	800,000	0,040	-0,115
-219,855	-200,000	-0,009	-0,041
-218,840	-200,000	0,009	-0,181
-217,825	298,324	0,022	-0,029
-216,811	-61,885	0,200	-0,060
-215,796	-200,000	-0,007	-0,031
-214,782	-66,952	-0,084	0,024
-213,767	800,000	-0,018	0,051
-212,752	42,845	0,162	0,106
-211,738	437,176	0,075	-0,118
-210,723	795,488	-0,095	-0,190
-209,709	272,225	-0,078	-0,100
-208,694	304,556	-0,006	0,008
-207,679	800,000	-0,025	-0,062
-206,665	350,940	-0,044	0,063
-205,650	-200,000	0,029	0,138
-204,636	-22,342	0,061	-0,026
-203,621	46,160	-0,090	-0,060
-202,606	626,184	-0,059	-0,108
-201,592	-24,912	-0,060	-0,025
-200,577	-16,184	-0,077	0,035
-199,563	-200,000	0,006	-0,021
-198,548	-62,605	0,073	0,022
-197,533	800,000	0,024	-0,059
-196,519	-18,258	-0,063	-0,028
-195,504	800,000	0,011	-0,027
-194,490	87,514	-0,071	-0,057
-193,475	-188,088	0,048	-0,000
-192,460	-187,806	-0,100	-0,001
-191,446	-62,126	0,040	-0,012
-190,431	-200,000	-0,011	0,073
-189,417	-200,000	0,014	-0,059
-188,402	-15,101	-0,035	0,016
-187,387	-200,000	0,010	-0,035
-186,373	104,234	-0,038	-0,033
-185,358	126,818	0,068	0,062
-184,344	240,181	0,069	-0,083
-183,329	-113,776	-0,023	0,003
-182,315	-78,968	0,181	0,044
-181,300	167,702	-0,041	0,042
-180,285	-56,501	0,110	-0,035
-179,271	-116,910	-0,050	0,006
-178,256	586,642	0,024	0,044
-177,242	-200,000	-0,014	0,099
-176,227	647,125	0,098	0,182
-175,212	-130,021	-0,094	0,009
-174,198	76,870	-0,058	-0,045
-173,183	140,298	0,030	-0,029
-172,169	204,895	0,055	-0,061
-171,154	-200,000	-0,004	0,077
-170,139	400,776	0,021	-0,032
-169,125	286,110	0,038	0,050
-168,110	75,561	0,102	-0,078
-167,096	-40,074	-0,096	-0,036
-166,081	-106,411	-0,112	0,018
-165,066	-36,595	-0,077	-0,030
-164,052	-200,000	-0,001	0,166
-163,037	121,784	0,094	0,085
-162,023	-68,944	0,055	0,015
-161,008	418,202	-0,044	0,068
-159,993	36,682	-0,089	0,056
-158,979	67,689	-0,051	0,037
-157,964	-127,068	-0,169	0,018
-156,950	-200,000	-0,012	-0,225
-155,935	538,614	-0,015	-0,027
-154,920	141,887	0,125	0,119
-153,906	209,960	0,048	0,055
-152,891	124,036	-0,134	0,121
-151,877	-162,878	-0,174	0,006
-150,862	-200,000	-0,055	-0,187
-149,847	81,972	-0,074	-0,057
-148,833	601,153	0,076	0,137
-147,818	7,205	0,082	0,044
-146,804	233,597	0,044	-0,052
-145,789	-101,307	0,043	0,008
-144,775	49,251	-0,078	-0,053
-143,760	-200,000	-0,015	-0,112
-142,745	-117,488	-0,089	-0,011
-141,731	266,430	0,062	0,078
-140,716	167,195	0,119	0,121
-139,702	-200,000	-0,006	-0,057
-138,687	-90,831	0,050	0,010
-137,672	800,000	-0,002	0,004
-136,658	-110,957	-0,209	-0,031
-135,643	-200,000	-0,002	-0,011
-134,629	800,000	-0,049	-0,110
-133,614	46,259	0,158	-0,105
-132,599	216,181	-0,089	0,102
-131,585	-108,130	0,079	0,012
-130,570	-31,543	-0,092	-0,037
-129,556	254,528	-0,081	-0,101
-128,541	139,766	0,067	-0,064
-127,526	273,408	-0,107	0,136
-126,512	22,927	-0,028	-0,017
-125,497	800,000	0,016	0,036
-124,483	146,417	0,018	-0,017
-123,468	166,639	-0,006	0,007
-122,453	-200,000	0,008	-0,110
-121,439	90,843	-0,087	-0,070
-120,424	401,294	-0,074	-0,112
