DTS Sentinel unit serial number:	SN410029Multiplexer serial number:	ORYXHardware model number:	OX2-SRSoftware version number:	ORYX F/W v4,00 Oryx Data Collector v3.7.2.0data status	okinstallation	B5 Nyhavnadifferential loss correction	single-endedforward channel	channel 2reverse channel	N/Adate	2023/12/14time	07:37:13forward acquisition time	300,00reverse acquisition time	0,00gamma	499,1914k internal	0,3159k external	0,3159temperature offset calibration	1,0000default loss term (dB/km)	0,3820temperature slope calibration	1,0000multiplexer offset coefficient	1,0000multiplexer slope coefficient	1,0000fibre end	0,00T internal ref (°C)	7,13T ext. ref 1 (°C)	-9,31T ext. ref 2 (°C)	-9,38length (m)	temperature (°C)	Stokes	anti-Stokes-744,400	103,920	0,097	-0,084
-743,385	-89,820	-0,479	-0,102
-742,371	358,598	0,124	0,183
-741,356	-132,333	-0,284	-0,027
-740,342	598,190	0,065	0,119
-739,327	-156,698	-0,450	-0,020
-738,312	9,360	0,198	0,110
-737,298	-61,081	-0,300	-0,093
-736,283	2,934	0,125	0,067
-735,269	-121,671	-0,310	-0,037
-734,254	-152,812	0,195	-0,010
-733,239	-16,435	-0,588	-0,274
-732,225	316,290	0,146	0,203
-731,210	31,423	-0,055	0,035
-730,196	59,467	0,030	0,022
-729,181	48,546	-0,151	0,104
-728,167	107,839	0,055	0,048
-727,152	441,808	-0,123	0,199
-726,137	-200,000	-0,007	-0,140
-725,123	-158,700	-0,210	0,009
-724,108	89,893	0,008	-0,006
-723,094	-200,000	0,018	-0,154
-722,079	800,000	0,032	-0,084
-721,064	419,496	0,085	0,135
-720,050	-76,699	-0,049	0,013
-719,035	-15,706	-0,050	-0,024
-718,021	133,051	-0,014	0,014
-717,006	-35,216	0,033	0,013
-715,991	106,773	-0,071	-0,062
-714,977	-200,000	-0,013	-0,073
-713,962	225,583	-0,044	-0,053
-712,948	-63,012	-0,044	0,013
-711,933	800,000	-0,019	-0,060
-710,918	311,769	-0,070	0,097
-709,904	522,355	-0,045	0,078
-708,889	800,000	-0,048	-0,149
-707,875	-148,307	-0,140	0,008
-706,860	-70,485	0,147	-0,041
-705,845	-200,000	0,010	-0,037
-704,831	75,864	0,108	0,084
-703,816	-34,483	0,042	-0,017
-702,802	-71,737	0,117	0,032
-701,787	-15,033	-0,152	0,071
-700,772	-186,378	0,184	0,002
-699,758	-86,141	0,081	-0,018
-698,743	-200,000	0,004	0,035
-697,729	-200,000	-0,032	0,108
-696,714	614,215	0,093	-0,173
-695,699	-68,873	-0,113	-0,032
-694,685	-85,006	-0,008	-0,002
-693,670	-200,000	0,003	-0,077
-692,656	93,585	0,083	-0,069
-691,641	-200,000	0,018	0,088
-690,627	75,592	0,084	0,065
-689,612	-200,000	0,006	-0,036
-688,597	-70,518	-0,075	-0,021
-687,583	177,476	0,040	-0,042
-686,568	325,819	-0,081	-0,114
-685,554	430,720	-0,054	-0,086
-684,539	232,303	-0,008	0,010
-683,524	-200,000	-0,009	0,034
-682,510	467,585	-0,060	-0,099
-681,495	-22,900	-0,175	0,077
-680,481	-115,943	-0,110	0,015
-679,466	800,000	0,013	-0,038
-678,451	29,297	-0,065	0,040
-677,437	-139,574	-0,046	0,004
-676,422	92,566	0,048	-0,039
-675,408	-183,296	-0,028	0,000
-674,393	-145,759	0,112	0,007
-673,378	-11,120	-0,180	0,087
-672,364	478,355	-0,030	-0,051
-671,349	227,428	0,055	-0,065
-670,335	-67,267	-0,092	-0,026
-669,320	-200,000	-0,014	-0,091
-668,305	-200,000	-0,013	0,077
-667,291	66,995	-0,035	-0,026
-666,276	-154,635	-0,098	-0,005
-665,262	800,000	-0,061	-0,175
-664,247	89,705	-0,070	-0,058
-663,232	-50,895	0,135	-0,046
-662,218	-200,000	0,005	0,052
-661,203	-200,000	0,035	-0,205
-660,189	-127,412	-0,137	-0,014
-659,174	230,043	-0,150	-0,180
-658,159	-184,092	-0,051	0,001
-657,145	-200,000	0,039	-0,154
-656,130	-156,772	0,045	-0,002
-655,116	800,000	-0,018	0,051
-654,101	-17,209	-0,084	-0,039
-653,086	244,416	-0,132	-0,164
-652,072	-194,296	-0,120	-0,001
-651,057	800,000	-0,105	-0,223
-650,043	468,734	0,079	0,131
-649,028	-111,673	-0,121	0,018
-648,014	235,790	-0,078	-0,095
-646,999	-200,000	0,003	-0,082
-645,984	154,441	-0,029	-0,029
-644,970	-200,000	0,022	-0,121
-643,955	-70,086	-0,106	-0,029
-642,941	-200,000	0,005	-0,075
-641,926	-200,000	-0,015	-0,056
-640,911	45,232	0,053	0,036
-639,897	47,719	-0,047	0,032
-638,882	-147,925	-0,090	0,005
-637,868	-155,713	-0,121	0,006
-636,853	-31,124	0,010	-0,004
-635,838	-97,958	-0,037	-0,007
-634,824	357,347	-0,050	-0,073
-633,809	-86,626	0,091	0,020
-632,795	-134,991	0,132	-0,012
-631,780	-200,000	0,002	-0,017
-630,765	-11,660	0,114	0,055
-629,751	-69,574	0,118	-0,033
-628,736	-200,000	0,026	-0,119
-627,722	596,966	0,033	0,060
-626,707	167,069	0,045	-0,047
-625,692	-74,734	0,103	0,027
-624,678	410,638	-0,066	0,103
-623,663	469,859	0,033	0,055
-622,649	34,074	-0,089	-0,056
-621,634	104,489	-0,041	0,035
-620,619	4,196	0,224	-0,120
-619,605	214,696	0,017	0,020
-618,590	800,000	-0,034	-0,105
-617,576	-5,498	0,107	-0,054
-616,561	-121,100	-0,108	-0,013
-615,546	800,000	-0,049	-0,157
-614,532	31,106	-0,052	-0,032
-613,517	-70,694	-0,087	-0,024
-612,503	360,515	0,014	-0,021
-611,488	137,565	-0,096	0,092
-610,474	-200,000	0,004	0,027
-609,459	189,107	-0,105	0,115
-608,444	731,805	-0,052	-0,102
-607,430	-200,000	0,011	-0,157
-606,415	-16,583	-0,061	0,028
-605,401	-200,000	0,011	0,039
-604,386	132,220	-0,117	-0,110
-603,371	-200,000	-0,021	-0,097
-602,357	58,436	0,037	0,027
-601,342	-18,477	-0,060	0,027
-600,328	800,000	0,035	-0,073
-599,313	389,495	-0,065	0,099
-598,298	-105,145	0,159	0,026
-597,284	800,000	0,020	0,047
-596,269	68,552	0,045	0,034
-595,255	416,350	-0,024	0,038
-594,240	-102,113	0,047	0,008
-593,225	-200,000	-0,024	-0,114
-592,211	-21,360	-0,026	0,012
-591,196	-200,000	0,001	0,051
-590,182	268,442	0,029	-0,038
-589,167	558,538	-0,030	0,054
-588,152	-200,000	-0,009	-0,097
-587,138	-200,000	-0,004	0,071
-586,123	339,097	-0,070	0,100
-585,109	-200,000	-0,004	-0,045
-584,094	-200,000	-0,004	-0,104
-583,079	-58,330	0,062	-0,019
-582,065	800,000	-0,034	0,072
-581,050	-200,000	-0,005	0,093
-580,036	170,791	0,084	0,088
-579,021	285,903	-0,042	-0,055
-578,006	192,129	-0,059	-0,066
-576,992	-160,194	-0,048	-0,002
-575,977	-93,087	0,092	0,018
-574,963	-28,687	0,028	0,012
-573,948	32,990	-0,089	0,057
-572,934	-69,518	-0,163	-0,046
-571,919	800,000	0,041	-0,104
-570,904	-65,581	-0,038	0,011
-569,890	-0,716	-0,075	-0,039
-568,875	-200,000	0,018	-0,085
-567,861	477,483	0,057	0,095
-566,846	-53,645	-0,036	-0,012
-565,831	19,144	-0,079	-0,046
-564,817	800,000	-0,069	-0,145
-563,802	16,753	-0,112	-0,065
-562,788	561,225	-0,123	-0,218
-561,773	800,000	0,030	0,064
-560,758	84,300	-0,051	0,041
-559,744	800,000	-0,014	0,029
-558,729	-31,650	0,057	-0,023
-557,715	-37,952	-0,025	-0,010
-556,700	800,000	0,056	-0,137
-555,685	3,385	0,061	-0,032
-554,671	464,801	-0,057	0,093
-553,656	208,122	-0,083	-0,095
-552,642	800,000	0,039	0,122
-551,627	-135,167	-0,077	-0,007
-550,612	800,000	0,079	0,162
-549,598	235,917	-0,060	0,072
-548,583	-50,711	-0,081	-0,028
-547,569	135,275	0,112	-0,106
-546,554	-200,000	-0,006	0,067
-545,539	-93,056	0,143	0,029
-544,525	-130,186	0,089	0,009
-543,510	-200,000	0,027	0,115
-542,496	-21,382	-0,061	-0,027
-541,481	-200,000	0,016	0,116
-540,466	71,957	0,059	0,045
-539,452	-111,710	0,063	-0,009
-538,437	51,599	-0,040	0,028
-537,423	-77,795	-0,096	-0,024
-536,408	94,959	0,071	0,059
-535,393	76,575	-0,066	0,051
-534,379	6,546	0,139	-0,075
-533,364	79,533	-0,109	-0,086
-532,350	361,156	0,052	-0,076
-531,335	221,869	0,075	-0,089
-530,321	-200,000	-0,001	0,092
-529,306	-200,000	0,001	0,006
-528,291	21,022	-0,153	-0,091
-527,277	223,000	-0,057	-0,067
-526,262	424,443	-0,016	0,025
-525,248	109,009	0,129	0,113
-524,233	305,139	-0,073	0,099
-523,218	-88,251	0,104	0,022
-522,204	-9,063	-0,098	-0,048
-521,189	-200,000	0,029	0,124
-520,175	-200,000	0,068	0,000
-519,160	-160,585	-0,193	0,007
-518,145	800,000	-0,035	-0,086
-517,131	-80,382	0,093	0,022
-516,116	277,249	0,050	-0,065
-515,102	-191,256	0,048	0,000
-514,087	800,000	-0,023	0,049
-513,072	482,773	-0,110	-0,184
-512,058	37,302	0,086	0,056
-511,043	-200,000	-0,008	0,080
-510,029	-86,170	0,074	-0,017
-509,014	-30,100	-0,064	0,026
-507,999	-200,000	0,006	0,095
-506,985	210,713	-0,050	-0,058
-505,970	138,647	-0,105	-0,101
-504,956	-94,255	-0,070	-0,014
-503,941	-200,000	-0,002	0,114
-502,926	274,629	-0,020	0,026
-501,912	800,000	0,020	-0,048
-500,897	800,000	0,031	-0,079
-499,883	-120,489	0,020	-0,002
-498,868	800,000	0,023	-0,051
-497,853	338,522	-0,063	-0,090
-496,839	-53,137	-0,031	0,010
-495,824	-172,660	-0,032	0,001
-494,810	25,957	-0,006	0,004
-493,795	81,456	0,042	-0,033
-492,781	171,538	0,073	0,077
-491,766	800,000	-0,029	0,068
-490,751	32,075	0,041	0,026
-489,737	800,000	0,019	0,052
-488,722	47,978	0,075	0,051
-487,708	31,512	-0,114	-0,072
-486,693	-22,338	-0,016	0,007
-485,678	159,850	-0,099	0,100
-484,664	-200,000	-0,005	0,072
-483,649	-200,000	0,002	0,006
-482,635	-131,899	0,112	0,010
-481,620	-200,000	-0,033	0,120
-480,605	22,379	0,053	-0,032
-479,591	-200,000	-0,014	0,061
-478,576	-200,000	-0,055	-0,181
-477,562	-158,845	0,152	0,006
-476,547	138,324	-0,043	-0,041
-475,532	-32,483	0,161	-0,065
-474,518	229,308	0,019	-0,022
-473,503	406,699	0,081	0,125
-472,489	-151,497	-0,110	0,006
-471,474	49,468	0,055	0,037
-470,459	800,000	0,040	0,107
-469,445	210,709	0,044	-0,051
-468,430	-200,000	-0,021	0,114
-467,416	-200,000	0,005	-0,084
-466,401	-200,000	-0,006	0,121
-465,386	-200,000	-0,016	0,169
-464,372	742,189	0,030	-0,059
-463,357	-50,447	-0,136	-0,047
-462,343	-90,980	0,172	-0,036
-461,328	459,937	0,060	-0,098
-460,313	-21,368	-0,088	-0,039
-459,299	-200,000	0,014	0,156
-458,284	59,071	0,060	-0,043
-457,270	-46,077	-0,021	0,007
-456,255	-67,011	-0,149	0,043
-455,241	-79,238	-0,049	0,012
-454,226	-59,669	0,061	-0,019
-453,211	-112,700	-0,071	0,010
-452,197	520,400	0,057	0,098
-451,182	-200,000	-0,007	0,194
-450,168	800,000	0,047	-0,133
-449,153	-44,545	-0,042	0,015
-448,138	1,339	0,114	-0,060
-447,124	-146,611	0,037	-0,002
-446,109	65,063	0,074	-0,054
-445,095	505,531	0,029	-0,049
-444,080	268,951	0,068	0,087
-443,065	274,246	-0,093	0,121
-442,051	800,000	0,073	-0,157
-441,036	800,000	-0,025	0,065
-440,022	-25,875	-0,067	-0,029
-439,007	178,692	-0,012	0,013
-437,992	-200,000	0,010	0,098
-436,978	-200,000	0,004	0,151
-435,963	155,036	-0,141	0,141
-434,949	-23,591	0,091	0,040
-433,934	-19,423	0,086	-0,039
-432,919	-200,000	0,006	-0,062
-431,905	-200,000	0,010	-0,060
-430,890	26,336	0,035	0,021
-429,876	-82,276	0,044	0,010
-428,861	-200,000	0,018	0,091
-427,846	238,821	0,018	-0,022
-426,832	-200,000	-0,016	-0,156
-425,817	800,000	-0,065	-0,151
-424,803	404,983	-0,030	-0,046
-423,788	-200,000	-0,012	0,047
-422,773	67,385	0,136	0,101
-421,759	431,078	-0,010	-0,016
-420,744	-200,000	-0,007	0,083
-419,730	34,618	-0,132	0,084
-418,715	13,686	-0,168	-0,095
-417,701	63,707	-0,078	0,057
-416,686	172,170	0,081	-0,085
-415,671	-80,892	0,182	0,044
-414,657	109,881	-0,140	-0,122
-413,642	-120,644	-0,112	-0,014
-412,628	-200,000	0,005	-0,038
-411,613	-87,066	0,053	-0,012
-410,598	-97,872	0,110	-0,021
-409,584	75,170	0,131	0,100
-408,569	-89,908	0,124	0,026
-407,555	-200,000	0,003	0,029
-406,540	-58,700	-0,088	0,027
-405,525	-59,978	-0,078	0,024
-404,511	132,196	0,094	-0,088
-403,496	134,389	-0,106	-0,100
-402,482	-104,366	-0,057	-0,009
-401,467	526,746	0,035	0,061
-400,452	500,845	0,082	0,138
-399,438	282,389	0,087	0,114
-398,423	757,667	-0,057	0,112
-397,409	71,648	-0,023	-0,018
-396,394	-12,672	0,126	0,059
-395,379	-20,062	0,062	-0,028
-394,365	-80,918	0,157	-0,038
-393,350	-29,914	0,109	0,045
-392,336	14,992	-0,041	0,023
-391,321	-4,928	0,095	-0,047
-390,306	-11,642	-0,114	-0,054
-389,292	-175,874	-0,039	-0,001
-388,277	800,000	-0,007	0,014
-387,263	-200,000	-0,010	-0,084
-386,248	-200,000	-0,009	0,060
-385,233	-200,000	-0,001	-0,098
-384,219	53,357	0,017	0,012
-383,204	-200,000	-0,013	-0,071
-382,190	148,377	0,013	0,013
-381,175	-56,115	0,103	0,033
-380,160	-133,980	0,048	0,004
-379,146	-103,912	-0,084	-0,014
-378,131	117,361	-0,100	-0,089
-377,117	-200,000	0,007	-0,027
-376,102	-200,000	-0,014	-0,087
-375,088	207,455	0,057	-0,065
-374,073	-117,459	0,124	0,016
-373,058	450,282	0,046	0,073
-372,044	179,108	0,085	0,090
-371,029	95,507	-0,090	0,075
-370,015	-200,000	0,031	0,142
-369,000	-103,156	0,112	-0,019
-367,985	355,179	-0,058	-0,084
-366,971	-90,844	0,037	-0,008
-365,956	-200,000	-0,002	0,026
-364,942	219,309	0,036	0,042
-363,927	800,000	0,045	0,112
-362,912	211,652	-0,127	-0,145
-361,898	205,947	-0,050	-0,056
-360,883	42,147	-0,122	-0,080
-359,869	-200,000	0,052	0,207
-358,854	-200,000	0,013	-0,151
-357,839	-200,000	0,016	-0,092
-356,825	493,943	-0,036	0,060
-355,810	-14,347	0,024	-0,011
-354,796	-200,000	0,006	-0,146
-353,781	-200,000	-0,008	-0,198
-352,766	170,569	0,016	0,017
-351,752	-6,660	0,077	-0,038
-350,737	-58,301	-0,115	-0,036
-349,723	-84,770	0,020	-0,004
-348,708	-100,176	0,013	0,002
-347,693	-200,000	0,005	-0,043
-346,679	-9,938	-0,090	-0,044
-345,664	800,000	-0,041	-0,088
-344,650	735,866	-0,024	0,046
-343,635	-176,537	0,140	0,003
-342,620	-130,787	-0,155	-0,015
-341,606	63,603	0,025	-0,018
-340,591	800,000	0,053	-0,119
-339,577	17,825	-0,079	-0,045
-338,562	-106,497	0,080	0,013
-337,548	800,000	-0,041	0,126
-336,533	172,692	-0,082	0,086
-335,518	-200,000	-0,003	0,089
-334,504	-126,946	0,017	-0,002
-333,489	-29,822	-0,059	-0,024
-332,475	-19,682	-0,053	-0,024
-331,460	-52,617	0,092	0,031
-330,445	800,000	-0,018	-0,048
-329,431	-84,087	-0,073	-0,017
-328,416	800,000	0,063	-0,145
-327,402	174,477	-0,045	0,047
-326,387	-200,000	-0,016	-0,080
-325,372	-200,000	0,009	-0,085
-324,358	155,342	-0,062	-0,062
-323,343	-29,456	-0,015	-0,006
-322,329	-48,268	0,043	-0,015
-321,314	39,959	-0,076	0,049
-320,299	800,000	0,064	0,130
-319,285	741,562	0,053	0,103
-318,270	-200,000	-0,015	0,070
-317,256	-200,000	0,005	-0,094
-316,241	478,994	0,012	-0,019
-315,226	3,958	0,054	0,029
-314,212	195,637	-0,097	-0,108
-313,197	800,000	0,056	0,165
-312,183	529,658	-0,008	-0,014
-311,168	800,000	0,028	-0,066
-310,153	-10,355	-0,046	-0,022
-309,139	-200,000	-0,001	-0,053
-308,124	-200,000	0,002	-0,024
-307,110	-144,070	0,099	-0,007
-306,095	-200,000	0,055	0,192
-305,080	-1,190	0,153	-0,078
-304,066	-20,584	-0,053	0,024
-303,051	-200,000	0,009	-0,077
-302,037	402,281	-0,021	-0,032
-301,022	59,687	0,016	-0,012
-300,008	-82,509	-0,107	0,025
-298,993	578,016	-0,009	0,016
-297,978	35,914	0,066	0,042
-296,964	-9,849	0,150	-0,072
-295,949	664,645	-0,040	-0,076
-294,935	87,510	-0,120	-0,096
-293,920	800,000	-0,036	-0,089
-292,905	-200,000	0,008	-0,029
-291,891	-113,599	0,062	0,009
-290,876	-200,000	0,018	0,143
-289,862	-200,000	-0,012	0,055
-288,847	800,000	-0,076	-0,153
-287,832	-200,000	-0,032	-0,123
-286,818	197,850	-0,027	-0,030
-285,803	215,952	-0,022	0,026
-284,789	-56,945	0,178	0,057
-283,774	96,585	-0,037	0,030
-282,759	-38,608	-0,082	0,031
-281,745	-200,000	0,025	0,081
-280,730	800,000	0,040	-0,107
-279,716	800,000	0,018	-0,054
-278,701	-70,975	0,040	0,011
-277,686	-132,623	-0,028	-0,003
-276,672	-200,000	-0,013	0,136
-275,657	-200,000	0,007	-0,098
-274,643	387,537	-0,045	-0,067
-273,628	56,479	0,030	0,021
-272,613	140,904	-0,039	0,037
-271,599	122,147	0,139	0,125
-270,584	-200,000	0,006	-0,098
-269,570	-200,000	-0,003	0,034
-268,555	-200,000	-0,021	0,091
-267,540	-60,583	-0,066	0,020
-266,526	-27,488	-0,106	-0,044
-265,511	-48,597	-0,089	-0,031
-264,497	-147,328	0,079	-0,005
-263,482	140,991	0,034	-0,032
-262,467	-200,000	-0,003	-0,075
-261,453	-80,507	-0,182	-0,044
-260,438	-200,000	-0,001	-0,084
-259,424	486,841	-0,079	0,131
-258,409	11,982	-0,099	-0,055
-257,395	800,000	-0,080	0,197
-256,380	-200,000	-0,003	0,051
-255,365	-200,000	-0,032	0,133
-254,351	-10,045	0,083	0,040
-253,336	-47,336	-0,041	0,014
-252,322	82,457	0,046	0,036
-251,307	125,013	-0,085	-0,077
-250,292	-74,260	0,048	-0,012
-249,278	243,840	0,082	0,099
-248,263	140,793	0,110	-0,105
-247,249	-200,000	-0,004	0,048
-246,234	-200,000	-0,029	-0,114
-245,219	34,967	0,064	0,041
-244,205	-140,464	-0,138	0,010
-243,190	-200,000	0,020	0,086
-242,176	62,887	0,086	-0,062
-241,161	229,800	-0,064	0,076
-240,146	105,523	-0,132	0,112
-239,132	-200,000	0,003	0,083
-238,117	-144,262	-0,066	-0,004
-237,103	69,420	0,038	0,028
-236,088	-80,478	-0,068	-0,016
-235,073	-200,000	0,013	0,061
-234,059	-200,000	0,018	-0,095
-233,044	556,054	-0,035	0,061
-232,030	-200,000	-0,000	-0,023
-231,015	107,645	-0,044	0,038
-230,000	-39,978	0,146	-0,055
-228,986	-171,880	0,010	0,000
-227,971	4,796	0,028	0,015
-226,957	-83,666	-0,123	0,028
-225,942	-101,856	0,036	-0,006
-224,927	293,341	0,079	0,105
-223,913	614,807	-0,034	-0,062
-222,898	94,703	0,020	-0,016
-221,884	-200,000	0,008	-0,127
-220,869	59,082	0,157	0,112
-219,855	-62,913	-0,140	-0,042
-218,840	83,613	0,047	-0,037
-217,825	34,771	-0,070	0,044
-216,811	225,355	-0,027	0,031
-215,796	230,202	-0,076	-0,090
-214,782	221,470	0,013	0,015
-213,767	-12,515	0,083	0,039
-212,752	-132,573	0,133	-0,012
-211,738	-200,000	0,048	0,153
-210,723	32,424	-0,101	0,063
-209,709	-74,409	-0,151	-0,039
-208,694	800,000	0,031	0,097
-207,679	85,456	0,061	0,048
-206,665	180,680	0,061	-0,065
-205,650	-35,587	-0,005	-0,002
-204,636	-200,000	0,020	0,069
-203,621	800,000	0,014	0,029
-202,606	185,736	0,079	-0,085
-201,592	44,138	0,074	-0,049
-200,577	-19,430	-0,112	-0,050
-199,563	74,547	0,054	0,041
-198,548	-200,000	0,008	0,117
-197,533	247,118	0,071	0,086
-196,519	-200,000	0,002	0,020
-195,504	-139,562	-0,039	-0,003
-194,490	-3,340	-0,145	0,073
-193,475	-200,000	-0,008	-0,039
-192,460	-70,338	0,124	-0,034
-191,446	411,264	0,039	0,060
-190,431	-139,658	0,056	0,004
-189,417	631,416	-0,028	-0,052
-188,402	-200,000	0,010	0,054
-187,387	7,676	-0,028	0,015
-186,373	14,922	0,149	-0,084
-185,358	-200,000	0,017	-0,108
-184,344	800,000	0,049	-0,125
-183,329	65,657	0,011	0,008
-182,315	-200,000	0,006	0,053
-181,300	197,768	0,077	-0,085
-180,285	800,000	0,009	-0,021
-179,271	-200,000	-0,048	-0,201
-178,256	115,897	0,076	-0,067
-177,242	-200,000	-0,004	0,182
-176,227	800,000	0,013	-0,028
-175,212	-55,481	-0,104	0,034
-174,198	-40,266	-0,086	0,032
-173,183	431,992	-0,040	0,062
-172,169	143,720	-0,096	-0,092
-171,154	72,424	0,113	0,085
-170,139	635,233	0,054	0,099
-169,125	-142,313	0,095	0,007
-168,110	-200,000	0,011	0,098
-167,096	91,049	-0,049	0,039
-166,081	-73,336	-0,052	-0,014
-165,066	-102,711	-0,104	0,018
-164,052	280,478	-0,044	-0,057
-163,037	37,468	0,174	-0,111
-162,023	-103,323	-0,057	-0,010
-161,008	-200,000	0,006	0,150
-159,993	309,818	0,107	0,144
-158,979	37,264	-0,017	0,011
-157,964	-200,000	-0,005	0,038
-156,950	494,857	0,034	-0,057
-155,935	698,970	-0,075	0,142
-154,920	-48,444	-0,047	-0,016
-153,906	-70,636	0,158	-0,043
-152,891	-107,489	-0,096	-0,015
-151,877	-128,749	-0,053	-0,005
-150,862	-135,725	-0,116	-0,010
-149,847	6,547	0,115	-0,061
-148,833	151,052	0,039	0,039
-147,818	-200,000	0,012	-0,049
-146,804	-21,790	-0,012	0,005
-145,789	-200,000	0,004	0,033
-144,775	25,071	-0,050	-0,030
-143,760	800,000	0,018	0,042
-142,745	-19,936	0,089	-0,040
-141,731	-53,154	-0,148	-0,049
-140,716	800,000	0,020	-0,047
-139,702	-59,984	0,137	0,042
-138,687	800,000	-0,028	-0,075
-137,672	38,261	-0,135	0,087
-136,658	513,455	-0,012	-0,019
-135,643	-93,747	-0,100	0,020
-134,629	-79,561	-0,054	0,013
-133,614	-200,000	-0,010	-0,122
-132,599	-200,000	-0,022	0,100
-131,585	-126,756	-0,089	-0,009
-130,570	132,316	0,029	0,027
-129,556	-3,683	0,025	0,013
-128,541	-200,000	0,003	-0,097
-127,526	-198,855	0,119	0,000
-126,512	800,000	0,028	0,085
-125,497	-127,783	0,183	-0,019
-124,483	-173,254	0,139	0,003
-123,468	-200,000	-0,005	0,032
-122,453	800,000	-0,026	0,055
-121,439	800,000	-0,037	-0,083
-120,424	506,810	0,103	-0,172
-119,410	138,912	-0,053	-0,050
