DTS Sentinel unit serial number:	SN410029Multiplexer serial number:	ORYXHardware model number:	OX2-SRSoftware version number:	ORYX F/W v4,00 Oryx Data Collector v3.7.2.0data status	okinstallation	B5 Nyhavnadifferential loss correction	single-endedforward channel	channel 2reverse channel	N/Adate	2023/12/12time	20:22:13forward acquisition time	300,00reverse acquisition time	0,00gamma	499,1914k internal	0,3157k external	0,3157temperature offset calibration	1,0000default loss term (dB/km)	0,3820temperature slope calibration	1,0000multiplexer offset coefficient	1,0000multiplexer slope coefficient	1,0000fibre end	0,00T internal ref (°C)	15,26T ext. ref 1 (°C)	-1,42T ext. ref 2 (°C)	-1,75length (m)	temperature (°C)	Stokes	anti-Stokes-744,400	-200,000	0,007	-0,100
-743,385	-111,436	-0,195	0,029
-742,371	-80,682	0,147	0,036
-741,356	-119,865	-0,226	-0,028
-740,342	800,000	0,041	-0,101
-739,327	-91,589	-0,066	0,014
-738,312	-124,524	0,036	0,004
-737,298	-86,756	-0,339	0,076
-736,283	51,543	0,124	-0,086
-735,269	-106,080	-0,331	-0,054
-734,254	215,521	0,051	0,060
-733,239	-56,093	-0,556	-0,182
-732,225	126,437	0,160	0,150
-731,210	31,385	-0,041	-0,026
-730,196	-114,191	-0,085	0,012
-729,181	-200,000	-0,004	-0,117
-728,167	101,257	-0,048	0,041
-727,152	-200,000	-0,006	-0,201
-726,137	-48,727	-0,050	-0,018
-725,123	-200,000	-0,016	-0,163
-724,108	800,000	-0,053	-0,145
-723,094	-35,195	-0,108	-0,043
-722,079	540,963	-0,052	-0,092
-721,064	-200,000	-0,019	-0,082
-720,050	32,287	0,104	0,066
-719,035	800,000	-0,050	0,118
-718,021	-200,000	-0,008	-0,145
-717,006	800,000	-0,034	0,109
-715,991	800,000	-0,061	-0,161
-714,977	-200,000	0,059	-0,220
-713,962	132,689	-0,133	-0,126
-712,948	-200,000	0,005	0,064
-711,933	87,083	-0,045	-0,037
-710,918	-24,403	-0,134	-0,059
-709,904	-200,000	-0,009	-0,154
-708,889	800,000	-0,055	-0,168
-707,875	-200,000	-0,033	-0,120
-706,860	258,265	-0,159	-0,202
-705,845	515,033	0,035	0,061
-704,831	-200,000	0,001	-0,042
-703,816	362,903	-0,041	-0,060
-702,802	188,584	0,134	-0,147
-701,787	503,351	-0,098	-0,167
-700,772	25,468	0,047	-0,029
-699,758	234,222	0,027	-0,033
-698,743	241,630	-0,031	0,038
-697,729	800,000	-0,028	-0,072
-696,714	21,641	-0,076	-0,046
-695,699	-6,369	-0,044	0,022
-694,685	-25,805	-0,173	-0,075
-693,670	-26,166	-0,090	-0,039
-692,656	-135,586	0,139	0,012
-691,641	255,159	0,046	0,058
-690,627	-131,490	0,036	-0,003
-689,612	352,418	-0,029	-0,042
-688,597	636,186	-0,062	-0,117
-687,583	-43,384	-0,167	-0,062
-686,568	800,000	-0,021	-0,054
-685,554	327,287	0,052	0,074
-684,539	-200,000	-0,026	0,232
-683,524	708,277	0,045	-0,088
-682,510	293,817	-0,081	-0,109
-681,495	10,939	0,045	-0,025
-680,481	-200,000	-0,053	-0,174
-679,466	409,516	-0,044	0,069
-678,451	800,000	-0,019	-0,051
-677,437	-200,000	-0,010	-0,047
-676,422	-200,000	0,013	-0,056
-675,408	800,000	0,011	0,032
-674,393	0,179	-0,038	0,020
-673,378	-200,000	0,005	-0,097
-672,364	800,000	-0,031	-0,065
-671,349	-200,000	0,001	0,027
-670,335	-79,642	0,070	0,017
-669,320	-200,000	-0,016	0,108
-668,305	106,655	-0,116	-0,101
-667,291	439,386	-0,017	-0,027
-666,276	-200,000	0,024	-0,253
-665,262	-161,085	-0,128	0,005
-664,247	166,924	-0,064	-0,067
-663,232	-109,692	-0,093	-0,014
-662,218	149,506	-0,091	0,091
-661,203	458,611	-0,030	-0,049
-660,189	387,049	-0,079	-0,121
-659,174	800,000	-0,056	-0,129
-658,159	108,683	0,104	-0,092
-657,145	53,926	-0,071	-0,050
-656,130	800,000	-0,025	-0,067
-655,116	-110,217	-0,099	-0,015
-654,101	800,000	-0,019	-0,051
-653,086	-40,167	0,089	-0,034
-652,072	380,690	-0,050	0,076
-651,057	-200,000	-0,016	-0,062
-650,043	67,261	0,074	-0,055
-649,028	579,054	-0,038	-0,069
-648,014	70,713	0,082	-0,062
-646,999	-47,948	0,104	-0,037
-645,984	-200,000	0,010	-0,073
-644,970	82,315	-0,066	0,053
-643,955	691,977	-0,043	-0,083
-642,941	-1,568	-0,086	-0,044
-641,926	774,926	-0,056	0,112
-640,911	-200,000	-0,047	0,190
-639,897	12,956	-0,064	0,036
-638,882	-56,093	0,167	-0,054
-637,868	-200,000	-0,005	0,062
-636,853	-24,853	-0,018	-0,008
-635,838	23,251	0,131	-0,079
-634,824	-50,322	0,062	0,021
-633,809	105,905	0,057	-0,049
-632,795	-82,158	-0,055	0,013
-631,780	172,730	-0,026	-0,028
-630,765	800,000	0,031	-0,085
-629,751	-99,970	-0,085	-0,016
-628,736	580,332	-0,123	-0,222
-627,722	5,634	-0,173	0,094
-626,707	-200,000	0,010	-0,071
-625,692	105,111	-0,065	-0,056
-624,678	-200,000	-0,004	-0,063
-623,663	800,000	-0,060	-0,130
-622,649	-54,453	-0,135	-0,045
-621,634	-35,035	-0,107	-0,043
-620,619	-200,000	-0,109	0,000
-619,605	119,804	0,096	0,087
-618,590	-200,000	0,009	0,050
-617,576	-200,000	0,019	0,064
-616,561	617,228	-0,048	0,088
-615,546	800,000	-0,070	-0,177
-614,532	-28,256	-0,084	-0,035
-613,517	349,963	-0,080	-0,116
-612,503	42,998	-0,024	0,016
-611,488	800,000	-0,025	-0,070
-610,474	-105,299	0,059	0,010
-609,459	257,479	0,020	0,026
-608,444	270,828	-0,063	-0,082
-607,430	-17,693	0,074	-0,034
-606,415	-200,000	-0,032	-0,134
-605,401	800,000	0,006	-0,017
-604,386	-177,874	0,052	-0,001
-603,371	-200,000	0,009	-0,147
-602,357	-200,000	-0,015	-0,142
-601,342	7,572	-0,065	-0,036
-600,328	-200,000	0,020	-0,183
-599,313	253,372	-0,078	-0,098
-598,298	800,000	-0,019	0,056
-597,284	391,956	-0,107	0,163
-596,269	800,000	-0,020	0,052
-595,255	-62,012	0,158	0,048
-594,240	137,819	-0,112	-0,108
-593,225	163,411	0,052	-0,053
-592,211	800,000	-0,031	0,066
-591,196	800,000	-0,021	-0,046
-590,182	287,576	0,067	0,089
-589,167	-79,541	0,049	-0,012
-588,152	-111,506	-0,109	-0,016
-587,138	800,000	-0,023	0,051
-586,123	148,498	-0,123	-0,122
-585,109	-46,780	-0,013	0,005
-584,094	67,579	0,051	-0,038
-583,079	380,414	0,051	0,078
-582,065	800,000	0,008	0,016
-581,050	138,446	0,060	0,058
-580,036	-200,000	-0,020	-0,196
-579,021	27,615	-0,117	-0,072
-578,006	800,000	0,056	-0,144
-576,992	88,666	-0,160	0,131
-575,977	800,000	-0,033	-0,067
-574,963	-54,737	0,046	0,015
-573,948	-61,265	-0,068	0,021
-572,934	-29,094	0,046	-0,019
-571,919	183,972	0,052	0,056
-570,904	-200,000	-0,038	-0,151
-569,890	-200,000	0,036	-0,145
-568,875	-200,000	0,024	0,147
-567,861	-78,368	-0,033	-0,008
-566,846	457,457	0,033	0,053
-565,831	278,761	0,053	0,070
-564,817	-57,842	-0,111	-0,035
-563,802	-200,000	0,027	0,125
-562,788	-76,181	-0,165	-0,042
-561,773	-200,000	0,002	-0,096
-560,758	48,880	-0,098	-0,067
-559,744	-200,000	0,011	-0,153
-558,729	-140,045	0,214	-0,016
-557,715	-200,000	0,013	-0,266
-556,700	-200,000	-0,051	-0,191
-555,685	539,557	0,032	0,056
-554,671	-200,000	-0,036	-0,136
-553,656	-200,000	0,012	-0,075
-552,642	-200,000	0,023	0,111
-551,627	-56,970	0,038	0,012
-550,612	-58,575	0,033	-0,011
-549,598	285,671	-0,036	-0,047
-548,583	60,712	-0,111	-0,080
-547,569	-89,362	-0,098	0,021
-546,554	513,596	0,063	0,108
-545,539	702,629	-0,029	-0,056
-544,525	-200,000	0,016	0,118
-543,510	50,115	0,047	-0,033
-542,496	-30,765	-0,075	0,031
-541,481	128,493	0,031	0,028
-540,466	-125,396	-0,155	0,017
-539,452	6,092	0,082	0,044
-538,437	-135,817	0,097	-0,008
-537,423	164,666	-0,063	-0,065
-536,408	-200,000	0,019	-0,081
-535,393	-4,399	-0,100	-0,050
-534,379	800,000	-0,011	-0,028
-533,364	-200,000	0,004	0,025
-532,350	-121,387	-0,123	-0,015
-531,335	800,000	0,005	-0,012
-530,321	209,021	-0,100	-0,114
-529,306	-200,000	-0,018	0,000
-528,291	-141,326	-0,109	-0,008
-527,277	-29,167	0,090	-0,037
-526,262	-200,000	0,015	0,110
-525,248	-200,000	0,003	0,071
-524,233	-200,000	-0,015	-0,054
-523,218	-21,535	-0,055	0,024
-522,204	-96,062	0,182	-0,035
-521,189	800,000	-0,035	0,085
-520,175	800,000	0,089	-0,189
-519,160	-200,000	-0,008	0,075
-518,145	-31,154	-0,145	0,060
-517,131	374,886	0,044	-0,066
-516,116	-114,077	0,052	-0,007
-515,102	178,375	0,085	-0,090
-514,087	117,228	-0,011	-0,010
-513,072	-200,000	-0,007	-0,148
-512,058	-8,398	-0,088	0,043
-511,043	-47,788	-0,028	-0,010
-510,029	721,269	0,031	0,061
-509,014	450,586	0,074	0,121
-507,999	-127,588	-0,045	0,005
-506,985	452,684	0,012	0,020
-505,970	563,973	0,047	-0,084
-504,956	115,608	-0,023	0,020
-503,941	479,138	-0,070	0,116
-502,926	336,565	-0,069	0,098
-501,912	-200,000	0,010	0,127
-500,897	-200,000	-0,007	0,108
-499,883	-200,000	0,013	0,067
-498,868	195,216	-0,066	-0,074
-497,853	407,531	-0,027	0,041
-496,839	-46,681	0,075	-0,027
-495,824	-30,574	-0,016	0,007
-494,810	-200,000	0,007	0,068
-493,795	-159,403	0,090	0,004
-492,781	720,767	0,025	-0,049
-491,766	800,000	-0,038	-0,112
-490,751	-94,156	-0,118	-0,023
-489,737	-139,980	0,119	0,009
-488,722	-200,000	0,025	-0,176
-487,708	-32,392	0,055	0,022
-486,693	61,204	-0,074	0,054
-485,678	134,706	0,037	-0,035
-484,664	314,041	-0,093	-0,129
-483,649	371,964	0,037	-0,055
-482,635	-200,000	0,038	0,129
-481,620	41,676	0,044	-0,029
-480,605	-200,000	0,022	0,100
-479,591	-33,616	-0,081	0,032
-478,576	535,382	-0,025	0,043
-477,562	40,440	-0,087	-0,057
-476,547	800,000	-0,045	-0,109
-475,532	-39,373	0,069	-0,026
-474,518	-125,972	0,056	0,006
-473,503	-200,000	-0,002	0,018
-472,489	328,537	0,078	0,110
-471,474	-63,933	-0,105	0,031
-470,459	179,033	0,109	-0,116
-469,445	800,000	0,054	-0,125
-468,430	-200,000	0,016	-0,089
-467,416	-200,000	-0,017	0,085
-466,401	-200,000	-0,022	0,169
-465,386	153,483	0,044	0,044
-464,372	346,820	0,052	-0,075
-463,357	-200,000	-0,003	0,033
-462,343	534,395	-0,056	-0,096
-461,328	21,175	0,073	0,043
-460,313	-49,630	-0,076	-0,026
-459,299	415,282	0,059	0,092
-458,284	215,223	0,063	0,072
-457,270	569,717	-0,024	0,044
-456,255	106,730	0,020	0,017
-455,241	451,155	-0,067	0,108
-454,226	-200,000	0,004	-0,045
-453,211	-200,000	-0,004	-0,039
-452,197	-125,693	0,096	0,010
-451,182	-64,678	0,081	-0,024
-450,168	-90,515	0,109	0,023
-449,153	-200,000	-0,025	0,170
-448,138	-200,000	-0,001	0,105
-447,124	682,998	0,015	-0,028
-446,109	-200,000	-0,006	0,103
-445,095	-200,000	0,013	0,046
-444,080	79,298	0,119	0,093
-443,065	-31,824	0,079	-0,032
-442,051	-200,000	-0,007	-0,032
-441,036	800,000	0,012	-0,025
-440,022	68,406	-0,039	0,029
-439,007	-200,000	-0,026	0,178
-437,992	-179,145	0,050	-0,001
-436,978	210,987	-0,054	-0,062
-435,963	800,000	0,019	0,061
-434,949	177,057	-0,115	-0,122
-433,934	-91,405	-0,138	-0,028
-432,919	-63,865	0,119	0,035
-431,905	-200,000	0,007	-0,054
-430,890	95,936	0,029	0,024
-429,876	107,830	-0,061	0,053
-428,861	-200,000	0,003	0,151
-427,846	-200,000	0,004	0,041
-426,832	320,579	-0,080	-0,111
-425,817	-62,753	-0,096	0,029
-424,803	-136,859	0,117	0,010
-423,788	800,000	-0,030	-0,082
-422,773	122,272	-0,081	-0,074
-421,759	11,729	0,084	-0,047
-420,744	416,293	-0,058	0,091
-419,730	153,036	0,081	-0,080
-418,715	140,645	0,006	0,006
-417,701	-200,000	0,032	-0,123
-416,686	295,620	-0,091	0,122
-415,671	390,564	0,042	-0,064
-414,657	-200,000	-0,007	0,091
-413,642	735,034	0,030	-0,059
-412,628	-200,000	-0,008	0,027
-411,613	800,000	-0,024	-0,056
-410,598	168,390	-0,037	0,038
-409,584	619,065	0,082	-0,150
-408,569	-200,000	-0,036	0,130
-407,555	-200,000	0,023	0,103
-406,540	-200,000	0,015	-0,063
-405,525	-102,535	0,141	-0,024
-404,511	-148,657	-0,107	-0,006
-403,496	-200,000	-0,002	-0,034
-402,482	800,000	-0,043	-0,119
-401,467	-108,796	0,140	-0,022
-400,452	-97,888	0,080	-0,015
-399,438	33,180	0,026	-0,016
-398,423	324,477	0,020	-0,028
-397,409	-43,176	-0,108	-0,040
-396,394	-200,000	0,005	-0,038
-395,379	523,952	0,052	-0,090
-394,365	-200,000	0,002	0,119
-393,350	47,134	0,149	-0,101
-392,336	-200,000	0,006	-0,065
-391,321	152,658	-0,066	0,066
-390,306	-16,519	0,061	0,028
-389,292	-34,822	0,095	-0,037
-388,277	15,963	0,095	-0,054
-387,263	299,730	-0,059	0,080
-386,248	800,000	0,009	0,021
-385,233	800,000	-0,040	0,097
-384,219	-152,543	-0,128	-0,007
-383,204	62,556	0,036	-0,026
-382,190	-33,437	0,075	-0,030
-381,175	411,450	-0,067	0,104
-380,160	-155,460	0,123	-0,006
-379,146	160,155	0,044	0,044
-378,131	-0,422	0,065	-0,034
-377,117	1,340	0,129	-0,067
-376,102	32,244	0,080	-0,050
-375,088	800,000	0,033	-0,092
-374,073	800,000	-0,051	0,148
-373,058	172,936	-0,096	0,100
-372,044	91,662	0,099	0,080
-371,029	-143,185	0,047	0,003
-370,015	763,074	0,026	-0,052
-369,000	-200,000	-0,017	0,068
-367,985	-200,000	-0,004	0,040
-366,971	800,000	-0,047	0,127
-365,956	499,916	0,036	-0,061
-364,942	303,974	0,028	-0,037
-363,927	368,857	0,077	0,114
-362,912	-91,600	-0,014	-0,003
-361,898	477,473	0,037	-0,061
-360,883	73,173	-0,116	0,088
-359,869	382,803	0,007	-0,011
-358,854	337,933	0,055	0,078
-357,839	-200,000	-0,018	0,065
-356,825	-200,000	0,017	-0,175
-355,810	139,980	0,077	0,074
-354,796	-115,549	-0,103	-0,014
-353,781	180,991	-0,106	-0,113
-352,766	316,695	-0,067	-0,092
-351,752	-200,000	-0,021	-0,140
-350,737	-200,000	0,011	0,074
-349,723	173,070	-0,073	-0,077
-348,708	-103,345	0,069	-0,012
-347,693	281,056	-0,026	0,033
-346,679	-200,000	0,002	-0,060
-345,664	-200,000	-0,018	-0,144
-344,650	54,143	-0,063	-0,044
-343,635	154,931	0,102	0,102
-342,620	-200,000	-0,029	-0,140
-341,606	173,939	-0,029	-0,030
-340,591	-200,000	-0,000	-0,027
-339,577	124,451	-0,058	-0,053
-338,562	-99,652	-0,082	-0,015
-337,548	-200,000	0,034	0,111
-336,533	-158,354	0,063	-0,003
-335,518	-200,000	0,009	-0,078
-334,504	338,057	0,057	0,081
-333,489	-71,465	0,116	-0,031
-332,475	674,482	-0,100	0,188
-331,460	-35,669	-0,147	-0,058
-330,445	2,611	-0,068	0,035
-329,431	515,311	0,063	0,108
-328,416	-200,000	-0,010	0,187
-327,402	-160,235	0,169	0,007
-326,387	-29,934	-0,082	0,034
-325,372	-15,531	-0,162	-0,075
-324,358	57,128	-0,071	-0,050
-323,343	1,996	0,073	-0,038
-322,329	-50,043	0,114	-0,039
-321,314	16,533	-0,027	0,016
-320,299	-200,000	0,007	0,033
-319,285	-200,000	0,005	0,036
-318,270	-200,000	0,009	-0,074
-317,256	-7,159	-0,045	-0,022
-316,241	-19,953	-0,049	0,022
-315,226	424,035	-0,037	-0,057
-314,212	-89,472	-0,148	0,031
-313,197	432,065	0,018	-0,028
-312,183	800,000	0,011	0,029
-311,168	-200,000	0,001	-0,037
-310,153	800,000	-0,046	0,103
-309,139	800,000	0,014	-0,032
-308,124	-27,058	0,080	0,034
-307,110	-136,961	0,124	0,010
-306,095	86,937	0,104	0,084
-305,080	154,154	-0,048	0,048
-304,066	-69,219	-0,122	0,034
-303,051	-200,000	-0,008	-0,119
-302,037	800,000	-0,055	0,133
-301,022	800,000	-0,017	0,035
-300,008	18,949	0,154	0,089
-298,993	800,000	-0,025	0,054
-297,978	800,000	-0,014	-0,043
-296,964	-106,886	-0,173	-0,027
-295,949	277,951	-0,057	-0,074
-294,935	-200,000	0,011	-0,050
-293,920	800,000	0,052	-0,133
-292,905	800,000	0,004	0,014
-291,891	-22,990	0,094	-0,041
-290,876	507,972	-0,009	0,016
-289,862	-200,000	-0,011	-0,117
-288,847	-144,946	-0,069	-0,004
-287,832	52,658	-0,069	-0,048
-286,818	78,158	-0,063	-0,049
-285,803	144,659	0,117	0,113
-284,789	351,746	0,026	0,038
-283,774	-102,691	0,166	0,028
-282,759	676,733	0,028	0,054
-281,745	-192,980	-0,074	-0,000
-280,730	-200,000	-0,020	-0,103
-279,716	241,693	-0,017	-0,020
-278,701	-55,968	0,104	0,033
-277,686	37,508	0,142	-0,091
-276,672	-84,971	0,185	-0,042
-275,657	-200,000	-0,022	-0,087
-274,643	-200,000	0,009	0,033
-273,628	-53,810	-0,095	-0,031
-272,613	-200,000	0,055	0,192
-271,599	178,930	0,025	0,027
-270,584	-145,330	0,114	-0,007
-269,570	175,437	-0,059	0,062
-268,555	568,378	0,040	0,071
-267,540	-39,947	0,064	-0,024
-266,526	69,802	-0,095	-0,070
-265,511	-200,000	0,041	-0,171
-264,497	-46,918	0,040	0,014
-263,482	655,892	0,039	0,073
-262,467	88,741	0,095	-0,077
-261,453	114,906	-0,083	0,074
-260,438	88,806	-0,083	-0,067
-259,424	165,059	0,013	0,014
-258,409	-82,667	0,011	-0,002
-257,395	166,799	-0,050	0,051
-256,380	-200,000	0,004	0,147
-255,365	-15,211	0,032	-0,015
-254,351	-86,707	0,050	0,011
-253,336	299,935	-0,015	-0,020
-252,322	-200,000	0,001	-0,042
-251,307	-108,657	-0,041	0,006
-250,292	135,108	0,011	0,011
-249,278	-200,000	0,038	0,140
-248,263	457,688	0,029	0,047
-247,249	377,590	-0,119	-0,176
-246,234	-54,666	0,041	-0,013
-245,219	102,817	0,100	0,085
-244,205	-200,000	-0,055	0,193
-243,190	251,766	0,052	0,064
-242,176	165,862	-0,017	0,018
-241,161	-200,000	0,011	0,127
-240,146	800,000	0,034	0,088
-239,132	181,205	-0,043	0,046
-238,117	-200,000	0,004	0,053
-237,103	22,896	0,038	0,022
-236,088	-5,831	0,119	0,059
-235,073	160,818	0,088	-0,089
-234,059	8,090	0,063	-0,034
-233,044	-162,597	0,070	0,002
-232,030	-88,338	-0,045	-0,010
-231,015	49,950	-0,114	0,078
-230,000	-15,832	0,038	-0,017
-228,986	-200,000	0,023	0,104
-227,971	-18,879	-0,057	0,026
-226,957	-6,653	0,035	-0,017
-225,942	-186,188	0,161	0,002
-224,927	800,000	-0,038	0,113
-223,913	800,000	0,023	-0,068
-222,898	-200,000	0,023	-0,100
-221,884	-200,000	-0,034	-0,201
-220,869	-10,390	-0,090	0,043
-219,855	60,115	0,061	-0,043
-218,840	85,124	-0,027	0,021
-217,825	-200,000	0,015	-0,062
-216,811	-200,000	0,001	-0,047
-215,796	15,527	-0,052	0,029
-214,782	-200,000	-0,010	0,052
-213,767	-150,408	-0,022	0,001
-212,752	505,564	0,051	0,086
-211,738	383,363	-0,022	0,033
-210,723	453,155	-0,077	0,123
-209,709	-28,828	-0,095	0,039
-208,694	125,320	-0,026	-0,024
-207,679	141,556	-0,080	-0,076
-206,665	153,456	0,073	0,073
-205,650	-200,000	0,013	0,043
-204,636	800,000	0,038	0,099
-203,621	-117,379	0,159	0,021
-202,606	70,203	-0,027	-0,020
-201,592	800,000	-0,031	0,092
-200,577	-200,000	-0,006	0,046
-199,563	95,313	-0,094	0,078
-198,548	800,000	0,040	0,102
-197,533	-90,057	-0,025	-0,005
-196,519	40,098	-0,023	-0,015
-195,504	115,265	0,052	0,046
-194,490	103,266	-0,040	0,034
-193,475	-200,000	-0,007	-0,094
-192,460	485,653	0,039	0,064
-191,446	-18,351	0,020	0,009
-190,431	-87,544	0,073	0,016
-189,417	-61,452	-0,082	0,025
-188,402	-17,990	-0,036	0,016
-187,387	-100,025	0,068	-0,012
-186,373	-200,000	-0,014	-0,049
-185,358	263,312	0,022	-0,028
-184,344	22,376	0,048	-0,028
-183,329	196,747	0,018	0,020
-182,315	-36,527	-0,090	0,035
-181,300	-90,798	-0,074	0,015
-180,285	-37,477	-0,076	0,029
-179,271	-124,414	0,101	-0,011
-178,256	800,000	0,021	0,047
-177,242	177,202	0,050	0,053
-176,227	800,000	-0,055	0,116
-175,212	-16,232	-0,042	0,019
-174,198	51,893	0,082	-0,056
-173,183	209,416	-0,087	0,098
-172,169	800,000	0,025	-0,073
-171,154	-88,159	-0,076	0,016
-170,139	-65,188	0,185	0,054
-169,125	323,527	0,035	-0,049
-168,110	-75,410	0,140	0,036
-167,096	-128,972	-0,130	0,013
-166,081	270,873	0,063	0,080
-165,066	235,985	0,027	0,032
-164,052	-18,652	-0,087	0,039
-163,037	800,000	-0,021	0,059
-162,023	581,587	-0,065	0,115
-161,008	-200,000	-0,014	-0,111
-159,993	190,696	-0,050	0,055
-158,979	-54,176	0,096	0,031
-157,964	157,678	0,019	0,019
-156,950	363,717	-0,046	-0,067
-155,935	54,184	-0,047	0,033
-154,920	50,224	0,058	-0,040
-153,906	509,068	-0,093	0,156
-152,891	63,689	0,103	0,074
-151,877	557,024	-0,026	0,046
-150,862	800,000	-0,044	-0,115
-149,847	800,000	0,035	0,104
-148,833	20,136	0,063	-0,036
-147,818	-200,000	-0,021	0,170
-146,804	-200,000	0,028	0,168
-145,789	236,648	0,052	-0,063
-144,775	282,393	0,024	0,032
-143,760	50,813	-0,093	-0,063
-142,745	-200,000	0,033	-0,165
-141,731	-200,000	-0,011	0,086
-140,716	-177,426	-0,127	0,002
-139,702	694,953	0,036	0,069
-138,687	37,095	0,072	0,046
-137,672	102,029	0,097	0,081
-136,658	0,915	-0,067	-0,034
-135,643	-200,000	-0,014	-0,081
-134,629	21,567	-0,013	-0,007
-133,614	-85,658	-0,094	0,021
-132,599	97,312	0,080	-0,066
-131,585	800,000	-0,038	0,084
-130,570	104,091	-0,092	0,077
-129,556	-85,377	0,089	0,020
-128,541	234,695	-0,122	-0,145
-127,526	467,510	0,024	-0,039
-126,512	194,542	0,050	-0,055
-125,497	-88,534	0,101	0,021
-124,483	-81,742	-0,132	0,031
-123,468	-200,000	0,012	-0,091
-122,453	423,808	0,054	0,085
-121,439	-200,000	0,009	0,032
-120,424	-200,000	0,009	-0,087
