DTS Sentinel unit serial number:	SN410029Multiplexer serial number:	ORYXHardware model number:	OX2-SRSoftware version number:	ORYX F/W v4,00 Oryx Data Collector v3.7.2.0data status	okinstallation	B5 Nyhavnadifferential loss correction	single-endedforward channel	channel 2reverse channel	N/Adate	2023/12/12time	14:12:13forward acquisition time	300,00reverse acquisition time	0,00gamma	499,1914k internal	0,3157k external	0,3157temperature offset calibration	1,0000default loss term (dB/km)	0,3820temperature slope calibration	1,0000multiplexer offset coefficient	1,0000multiplexer slope coefficient	1,0000fibre end	0,00T internal ref (°C)	15,80T ext. ref 1 (°C)	-0,29T ext. ref 2 (°C)	-0,50length (m)	temperature (°C)	Stokes	anti-Stokes-744,400	-89,463	-0,114	0,025
-743,385	-111,651	-0,330	-0,049
-742,371	-154,561	0,179	0,009
-741,356	-37,174	-0,260	0,102
-740,342	800,000	0,077	0,173
-739,327	-156,414	-0,216	0,010
-738,312	354,631	-0,025	-0,036
-737,298	-149,142	-0,268	-0,016
-736,283	-87,578	0,041	-0,009
-735,269	-77,520	-0,345	0,088
-734,254	800,000	-0,010	0,021
-733,239	-6,921	-0,618	-0,308
-732,225	-36,064	0,165	-0,065
-731,210	202,708	-0,033	0,038
-730,196	52,669	-0,126	-0,088
-729,181	-53,749	0,099	-0,033
-728,167	-62,218	-0,134	-0,041
-727,152	155,475	-0,099	0,100
-726,137	-178,732	-0,112	0,002
-725,123	240,703	0,039	0,048
-724,108	-63,712	-0,109	-0,033
-723,094	800,000	-0,044	-0,125
-722,079	481,438	-0,081	0,136
-721,064	-97,883	-0,036	0,007
-720,050	-28,385	-0,164	-0,069
-719,035	-40,558	0,029	-0,011
-718,021	19,476	0,067	0,040
-717,006	-200,000	-0,016	-0,106
-715,991	-76,934	-0,245	-0,063
-714,977	10,532	-0,141	0,079
-713,962	31,026	-0,082	-0,052
-712,948	-4,001	-0,082	0,042
-711,933	331,513	-0,023	-0,033
-710,918	-101,512	0,001	-0,000
-709,904	800,000	-0,043	-0,131
-708,889	-90,404	-0,019	-0,004
-707,875	800,000	-0,052	-0,132
-706,860	-159,992	-0,037	-0,001
-705,845	30,087	-0,049	-0,031
-704,831	-142,823	-0,103	0,007
-703,816	46,903	-0,114	0,078
-702,802	-200,000	0,046	0,161
-701,787	-149,546	-0,130	-0,007
-700,772	74,067	-0,093	-0,072
-699,758	-55,485	-0,054	0,018
-698,743	-200,000	-0,013	0,052
-697,729	-200,000	-0,016	0,154
-696,714	96,075	-0,100	0,084
-695,699	176,602	-0,039	0,042
-694,685	-200,000	-0,005	0,032
-693,670	-37,899	0,087	0,034
-692,656	180,351	0,075	-0,081
-691,641	284,737	0,077	-0,102
-690,627	-53,013	0,115	-0,039
-689,612	-86,880	-0,050	0,011
-688,597	-200,000	0,032	-0,161
-687,583	-61,103	-0,090	0,028
-686,568	-38,981	-0,021	0,008
-685,554	-200,000	-0,000	0,008
-684,539	-77,509	-0,071	0,018
-683,524	-47,765	-0,103	0,037
-682,510	-200,000	-0,014	-0,186
-681,495	-200,000	0,005	-0,128
-680,481	-22,011	0,027	0,012
-679,466	-200,000	-0,012	-0,140
-678,451	351,625	0,076	-0,112
-677,437	75,531	0,088	0,068
-676,422	492,926	0,071	-0,120
-675,408	635,219	0,016	-0,030
-674,393	-172,229	-0,049	-0,001
-673,378	-47,869	-0,181	-0,064
-672,364	20,978	-0,062	0,037
-671,349	-200,000	0,009	-0,036
-670,335	539,041	0,020	-0,035
-669,320	800,000	0,037	-0,109
-668,305	370,011	0,041	0,061
-667,291	-74,807	-0,092	0,024
-666,276	588,087	0,025	-0,045
-665,262	-55,686	-0,089	0,029
-664,247	201,519	-0,137	-0,155
-663,232	2,777	-0,048	0,025
-662,218	800,000	-0,039	0,097
-661,203	-117,403	-0,078	-0,010
-660,189	144,679	-0,130	0,128
-659,174	210,510	-0,088	-0,102
-658,159	47,962	-0,037	0,025
-657,145	-147,359	-0,162	0,010
-656,130	-146,585	-0,104	0,007
-655,116	-6,379	0,165	0,083
-654,101	250,480	-0,031	-0,039
-653,086	38,755	0,015	-0,010
-652,072	-200,000	-0,003	0,047
-651,057	148,609	-0,034	0,034
-650,043	-200,000	-0,003	-0,059
-649,028	800,000	-0,072	0,177
-648,014	-8,279	0,100	0,049
-646,999	800,000	0,021	0,060
-645,984	169,409	-0,054	0,057
-644,970	-200,000	-0,013	-0,110
-643,955	-200,000	0,003	-0,020
-642,941	-63,979	-0,080	-0,024
-641,926	-43,571	-0,060	-0,022
-640,911	191,533	0,052	0,058
-639,897	-32,401	0,068	-0,028
-638,882	584,061	-0,038	-0,069
-637,868	-78,607	-0,143	-0,036
-636,853	-200,000	-0,002	-0,035
-635,838	800,000	-0,055	-0,140
-634,824	-122,829	0,122	0,014
-633,809	312,413	0,079	-0,109
-632,795	73,346	0,040	-0,031
-631,780	175,715	-0,026	0,028
-630,765	-96,199	-0,153	-0,030
-629,751	49,682	-0,136	0,094
-628,736	11,911	-0,067	-0,038
-627,722	-3,845	-0,087	-0,044
-626,707	-133,060	-0,143	-0,013
-625,692	37,954	0,058	-0,038
-624,678	207,417	-0,118	0,136
-623,663	800,000	-0,011	-0,035
-622,649	25,455	-0,133	-0,081
-621,634	-200,000	0,002	-0,219
-620,619	134,681	0,031	0,030
-619,605	358,355	-0,062	0,091
-618,590	800,000	-0,046	-0,114
-617,576	161,317	0,096	0,099
-616,561	175,256	0,026	0,027
-615,546	-47,966	-0,084	0,030
-614,532	-200,000	-0,005	-0,112
-613,517	-171,264	-0,128	-0,003
-612,503	199,425	0,039	-0,044
-611,488	151,563	0,039	-0,039
-610,474	-158,833	-0,034	0,001
-609,459	-200,000	0,012	0,171
-608,444	800,000	-0,040	-0,097
-607,430	32,532	0,079	-0,050
-606,415	-200,000	-0,029	-0,122
-605,401	25,278	0,108	0,066
-604,386	-124,351	0,079	0,009
-603,371	141,340	0,052	0,051
-602,357	306,107	0,064	-0,088
-601,342	-34,128	-0,109	0,044
-600,328	800,000	-0,020	-0,064
-599,313	-119,293	-0,084	-0,011
-598,298	40,568	-0,055	0,036
-597,284	487,319	-0,009	-0,015
-596,269	103,461	0,109	-0,094
-595,255	800,000	-0,028	-0,084
-594,240	75,999	-0,043	0,033
-593,225	90,588	-0,152	-0,125
-592,211	-177,457	-0,050	0,001
-591,196	31,784	0,059	-0,037
-590,182	800,000	0,076	0,158
-589,167	-200,000	-0,007	0,101
-588,152	-200,000	0,003	-0,097
-587,138	676,373	0,047	0,089
-586,123	145,390	-0,102	-0,101
-585,109	-83,436	0,119	-0,028
-584,094	-200,000	0,039	-0,126
-583,079	392,615	0,065	0,099
-582,065	-200,000	-0,007	0,041
-581,050	102,845	0,071	-0,061
-580,036	-122,839	0,047	-0,005
-579,021	-200,000	0,002	0,009
-578,006	358,601	0,124	-0,182
-576,992	-74,749	0,018	-0,005
-575,977	369,226	-0,037	-0,054
-574,963	800,000	-0,044	0,131
-573,948	-65,705	-0,167	0,049
-572,934	800,000	0,054	0,140
-571,919	800,000	-0,059	-0,128
-570,904	2,226	-0,102	0,054
-569,890	-13,458	0,015	0,007
-568,875	-200,000	0,000	-0,013
-567,861	-50,253	-0,065	0,022
-566,846	115,850	-0,089	0,080
-565,831	-22,337	-0,056	0,025
-564,817	-200,000	-0,023	-0,078
-563,802	-200,000	0,043	-0,222
-562,788	800,000	-0,044	-0,114
-561,773	-69,676	-0,080	0,022
-560,758	-160,570	0,046	-0,002
-559,744	-200,000	-0,014	0,073
-558,729	-85,760	0,081	0,018
-557,715	42,932	0,072	-0,048
-556,700	69,018	-0,031	-0,023
-555,685	-3,298	-0,207	-0,105
-554,671	-93,366	-0,038	-0,008
-553,656	202,934	0,063	0,071
-552,642	124,759	0,065	-0,060
-551,627	529,848	-0,042	-0,073
-550,612	347,761	-0,085	-0,123
-549,598	800,000	-0,046	-0,108
-548,583	800,000	-0,046	-0,094
-547,569	44,571	0,145	-0,097
-546,554	1,811	-0,103	0,054
-545,539	27,254	0,044	0,027
-544,525	800,000	0,020	0,044
-543,510	-200,000	-0,003	0,052
-542,496	160,029	0,090	-0,092
-541,481	-200,000	-0,009	0,040
-540,466	800,000	-0,045	0,093
-539,452	-151,370	0,059	0,003
-538,437	32,457	-0,094	0,060
-537,423	28,231	0,091	0,056
-536,408	-200,000	0,002	-0,113
-535,393	-115,296	-0,084	-0,012
-534,379	-200,000	0,002	0,063
-533,364	571,596	-0,015	0,028
-532,350	237,633	0,049	0,059
-531,335	-200,000	0,027	0,117
-530,321	-153,692	-0,027	0,001
-529,306	-200,000	-0,004	0,016
-528,291	-61,665	0,206	0,063
-527,277	-200,000	0,010	-0,086
-526,262	93,835	0,025	0,020
-525,248	-29,822	0,079	0,033
-524,233	-158,783	-0,130	0,005
-523,218	800,000	0,072	-0,169
-522,204	54,367	0,055	-0,039
-521,189	-89,929	0,131	-0,028
-520,175	-200,000	0,012	-0,117
-519,160	745,039	0,007	0,014
-518,145	-200,000	0,019	0,085
-517,131	-119,122	0,207	-0,026
-516,116	-200,000	0,007	0,100
-515,102	-200,000	0,015	0,114
-514,087	278,383	-0,053	0,069
-513,072	754,933	0,064	0,127
-512,058	-6,414	0,071	-0,035
-511,043	-98,921	-0,062	-0,011
-510,029	68,111	-0,023	0,018
-509,014	-200,000	-0,039	0,157
-507,999	800,000	0,042	0,093
-506,985	800,000	-0,085	0,182
-505,970	-200,000	0,019	0,072
-504,956	-108,704	-0,033	-0,005
-503,941	110,868	0,119	-0,104
-502,926	50,930	0,126	-0,087
-501,912	6,494	0,045	0,024
-500,897	44,754	-0,077	0,052
-499,883	-200,000	-0,005	0,110
-498,868	800,000	0,053	0,115
-497,853	800,000	-0,029	-0,083
-496,839	271,328	-0,057	0,074
-495,824	-200,000	0,042	0,209
-494,810	-200,000	-0,004	0,024
-493,795	192,595	0,030	0,033
-492,781	-84,799	-0,214	-0,049
-491,766	-200,000	0,004	-0,014
-490,751	-126,450	-0,135	-0,014
-489,737	-200,000	-0,004	-0,103
-488,722	-34,896	-0,122	0,048
-487,708	-200,000	-0,002	0,140
-486,693	343,650	0,018	-0,026
-485,678	800,000	-0,080	-0,219
-484,664	-200,000	0,002	-0,033
-483,649	-9,721	-0,057	0,028
-482,635	-112,444	-0,134	0,019
-481,620	468,612	0,040	-0,066
-480,605	-41,283	0,128	0,048
-479,591	479,789	0,031	0,051
-478,576	197,743	-0,090	0,100
-477,562	289,301	-0,054	-0,072
-476,547	-200,000	-0,026	-0,107
-475,532	-54,927	-0,063	-0,021
-474,518	0,083	0,106	-0,055
-473,503	178,169	0,065	-0,070
-472,489	763,210	-0,038	-0,075
-471,474	334,046	-0,018	-0,026
-470,459	-200,000	0,007	0,055
-469,445	15,140	0,157	0,089
-468,430	136,804	0,089	0,085
-467,416	-94,334	0,131	0,026
-466,401	-200,000	0,009	0,176
-465,386	28,451	-0,132	0,081
-464,372	-200,000	-0,005	0,039
-463,357	89,557	0,042	-0,034
-462,343	-200,000	0,032	0,109
-461,328	250,182	0,059	0,073
-460,313	37,443	0,107	-0,069
-459,299	603,327	-0,033	0,060
-458,284	-159,380	-0,178	-0,007
-457,270	185,029	0,052	-0,056
-456,255	800,000	0,016	-0,043
-455,241	165,238	-0,080	-0,083
-454,226	-200,000	0,027	0,102
-453,211	196,658	-0,036	-0,040
-452,197	-200,000	0,014	-0,075
-451,182	467,556	0,060	-0,098
-450,168	800,000	-0,033	0,089
-449,153	54,293	-0,091	0,064
-448,138	168,157	0,048	-0,050
-447,124	13,651	0,148	-0,083
-446,109	-161,958	0,018	-0,001
-445,095	639,467	-0,014	-0,025
-444,080	-12,871	0,079	0,037
-443,065	-200,000	0,016	0,197
-442,051	187,965	0,105	-0,114
-441,036	-200,000	0,021	-0,173
-440,022	251,676	-0,081	-0,100
-439,007	-25,649	0,040	0,017
-437,992	227,935	-0,026	-0,031
-436,978	-51,096	0,174	-0,059
-435,963	584,914	0,020	0,036
-434,949	140,306	-0,085	0,081
-433,934	-83,925	0,036	0,008
-432,919	372,354	0,061	0,090
-431,905	550,666	0,072	0,126
-430,890	65,098	0,087	-0,064
-429,876	-190,684	0,027	-0,000
-428,861	-200,000	0,029	-0,159
-427,846	685,473	0,062	-0,119
-426,832	102,077	-0,096	-0,081
-425,817	-3,337	0,068	-0,035
-424,803	18,203	-0,063	-0,037
-423,788	100,555	-0,076	0,064
-422,773	467,368	0,053	0,086
-421,759	128,344	-0,070	0,065
-420,744	360,318	-0,062	0,090
-419,730	263,950	-0,022	0,027
-418,715	-147,449	0,017	0,001
-417,701	-97,964	-0,060	-0,011
-416,686	-200,000	-0,019	-0,091
-415,671	58,022	-0,131	-0,093
-414,657	-123,868	-0,037	-0,004
-413,642	-134,708	0,163	-0,014
-412,628	52,800	0,078	0,054
-411,613	-200,000	0,013	-0,083
-410,598	235,787	-0,028	0,034
-409,584	-54,068	0,117	0,039
-408,569	-200,000	-0,009	-0,060
-407,555	117,963	0,120	0,108
-406,540	-200,000	0,024	0,239
-405,525	228,414	-0,167	0,199
-404,511	272,107	-0,045	-0,058
-403,496	31,999	-0,108	-0,068
-402,482	206,193	0,071	0,080
-401,467	-139,297	-0,031	-0,002
-400,452	800,000	0,016	0,048
-399,438	37,109	0,118	0,076
-398,423	-25,193	-0,069	0,030
-397,409	-108,457	-0,046	-0,007
-396,394	141,003	-0,094	0,091
-395,379	18,264	0,064	-0,037
-394,365	148,217	-0,048	-0,048
-393,350	124,575	-0,037	-0,034
-392,336	190,742	0,063	-0,069
-391,321	-200,000	0,001	-0,035
-390,306	-200,000	0,014	-0,072
-389,292	0,016	0,135	-0,070
-388,277	-200,000	-0,021	0,139
-387,263	800,000	0,016	0,049
-386,248	-200,000	0,035	0,165
-385,233	800,000	0,052	0,142
-384,219	76,847	0,062	-0,048
-383,204	-66,036	0,042	0,012
-382,190	566,422	-0,043	-0,076
-381,175	-200,000	-0,019	0,110
-380,160	-149,370	0,086	0,005
-379,146	56,427	-0,066	0,047
-378,131	-200,000	0,015	0,111
-377,117	-8,378	-0,043	-0,021
-376,102	215,874	0,043	0,050
-375,088	131,338	-0,102	-0,095
-374,073	38,503	0,061	0,039
-373,058	-200,000	0,029	-0,094
-372,044	-128,320	0,070	0,007
-371,029	800,000	0,019	-0,060
-370,015	19,022	-0,109	-0,063
-369,000	-161,092	-0,078	0,003
-367,985	61,462	-0,149	-0,108
-366,971	-200,000	-0,009	-0,082
-365,956	501,410	-0,044	-0,074
-364,942	-200,000	-0,004	0,162
-363,927	529,110	0,080	-0,138
-362,912	-150,976	-0,050	0,003
-361,898	-103,302	-0,120	0,020
-360,883	-200,000	-0,031	-0,112
-359,869	299,317	0,086	-0,115
-358,854	173,751	-0,087	0,091
-357,839	690,351	-0,015	-0,029
-356,825	413,168	0,022	-0,034
-355,810	-41,090	-0,038	-0,014
-354,796	-200,000	-0,030	0,199
-353,781	525,917	0,007	-0,012
-352,766	-103,089	-0,016	-0,003
-351,752	719,259	0,063	0,122
-350,737	221,013	-0,123	-0,143
-349,723	523,826	0,031	0,053
-348,708	800,000	0,063	0,143
-347,693	791,336	0,046	-0,092
-346,679	800,000	0,051	0,127
-345,664	-200,000	-0,007	-0,115
-344,650	-17,713	0,141	0,064
-343,635	-97,885	-0,049	0,009
-342,620	-200,000	0,022	0,080
-341,606	112,467	0,075	0,065
-340,591	345,041	-0,031	-0,044
-339,577	724,342	0,018	-0,035
-338,562	4,967	-0,079	-0,042
-337,548	-45,423	-0,116	0,041
-336,533	214,191	-0,040	-0,046
-335,518	375,311	-0,038	0,057
-334,504	-71,729	-0,084	0,022
-333,489	-200,000	-0,013	0,051
-332,475	-74,914	0,124	-0,032
-331,460	14,170	0,125	0,070
-330,445	11,268	0,016	0,009
-329,431	-200,000	-0,000	-0,004
-328,416	231,090	-0,019	-0,023
-327,402	242,662	0,061	0,074
-326,387	767,517	-0,046	0,090
-325,372	-200,000	-0,024	-0,138
-324,358	307,260	-0,011	-0,016
-323,343	141,224	0,057	-0,055
-322,329	-42,968	0,108	-0,040
-321,314	-161,481	0,234	-0,009
-320,299	450,723	0,075	0,121
-319,285	47,919	0,079	0,053
-318,270	59,699	-0,137	-0,098
-317,256	18,693	-0,059	0,034
-316,241	-200,000	-0,059	-0,224
-315,226	268,188	-0,016	0,020
-314,212	-79,580	0,122	-0,030
-313,197	12,824	-0,059	0,033
-312,183	-200,000	0,006	0,056
-311,168	-108,005	0,031	0,005
-310,153	-72,669	0,129	-0,034
-309,139	800,000	0,044	-0,093
-308,124	242,595	0,038	-0,046
-307,110	-156,800	-0,073	0,003
-306,095	14,399	0,085	0,048
-305,080	-50,671	0,088	0,030
-304,066	-66,231	0,119	-0,034
-303,051	-92,782	0,086	-0,017
-302,037	719,880	0,065	0,125
-301,022	-151,516	0,007	-0,000
-300,008	800,000	-0,039	-0,112
-298,993	350,056	-0,014	-0,020
-297,978	-156,856	-0,101	0,004
-296,964	-6,305	0,042	0,020
-295,949	159,646	0,058	-0,058
-294,935	-65,368	0,132	-0,038
-293,920	800,000	0,065	0,187
-292,905	16,251	0,140	0,080
-291,891	-200,000	-0,005	0,219
-290,876	-49,828	0,045	0,015
-289,862	9,160	-0,145	-0,079
-288,847	261,782	-0,104	-0,131
-287,832	-200,000	0,022	-0,131
-286,818	-20,822	-0,029	-0,013
-285,803	-2,059	0,060	-0,031
-284,789	-200,000	-0,011	0,092
-283,774	-47,509	0,168	-0,059
-282,759	-51,151	-0,112	0,038
-281,745	16,257	0,017	-0,010
-280,730	535,579	-0,032	-0,056
-279,716	-135,148	0,029	0,002
-278,701	777,161	-0,057	-0,112
-277,686	-68,837	0,138	0,038
-276,672	-60,014	-0,097	0,030
-275,657	159,150	0,089	-0,089
-274,643	-110,901	-0,167	-0,025
-273,628	-200,000	-0,029	-0,130
-272,613	-200,000	0,013	-0,089
-271,599	-200,000	-0,009	0,065
-270,584	800,000	-0,002	-0,006
-269,570	186,455	0,017	-0,018
-268,555	-200,000	0,014	-0,170
-267,540	-52,758	-0,022	0,007
-266,526	800,000	-0,026	-0,053
-265,511	-38,965	0,094	-0,036
-264,497	-200,000	0,014	-0,178
-263,482	500,467	0,105	0,176
-262,467	-80,220	-0,099	0,024
-261,453	187,464	-0,089	0,096
-260,438	-39,423	0,073	-0,028
-259,424	-62,676	-0,049	-0,014
-258,409	-84,356	-0,014	0,003
-257,395	26,613	0,098	-0,059
-256,380	-36,190	0,029	-0,011
-255,365	800,000	-0,031	-0,073
-254,351	28,689	-0,119	0,073
-253,336	74,390	-0,050	0,038
-252,322	454,430	-0,068	-0,109
-251,307	-200,000	0,000	-0,007
-250,292	21,991	-0,052	-0,031
-249,278	800,000	0,030	0,082
-248,263	-112,058	0,066	-0,010
-247,249	-200,000	0,016	0,071
-246,234	440,190	-0,024	0,037
-245,219	-200,000	-0,005	0,071
-244,205	-124,552	-0,075	-0,008
-243,190	-200,000	0,000	-0,023
-242,176	6,204	0,065	0,034
-241,161	800,000	0,050	0,120
-240,146	-200,000	-0,019	0,147
-239,132	699,376	0,026	-0,050
-238,117	99,965	-0,117	-0,098
-237,103	-68,312	-0,111	-0,031
-236,088	547,834	-0,009	-0,016
-235,073	-125,846	0,083	-0,009
-234,059	-200,000	0,018	0,064
-233,044	210,097	-0,052	0,059
-232,030	329,977	-0,050	0,069
-231,015	-25,850	-0,120	0,051
-230,000	57,914	0,052	0,037
-228,986	-200,000	-0,016	-0,071
-227,971	-148,447	-0,179	-0,010
-226,957	-16,410	-0,045	-0,021
-225,942	379,643	0,053	0,079
-224,927	-90,977	0,021	-0,004
-223,913	273,157	-0,026	0,034
-222,898	-200,000	0,022	-0,199
-221,884	-200,000	-0,009	-0,113
-220,869	149,232	0,089	0,087
-219,855	-18,248	0,090	0,041
-218,840	440,132	-0,055	0,087
-217,825	-4,081	0,074	-0,037
-216,811	190,801	-0,053	-0,057
-215,796	524,239	0,016	0,027
-214,782	-156,296	-0,196	-0,009
-213,767	-39,325	0,154	0,058
-212,752	392,390	0,072	-0,109
-211,738	-200,000	0,000	-0,012
-210,723	294,248	-0,040	0,053
-209,709	29,275	-0,090	-0,055
-208,694	128,511	0,063	-0,058
-207,679	800,000	0,065	-0,153
-206,665	135,765	0,094	0,088
-205,650	-200,000	-0,008	0,057
-204,636	-200,000	-0,002	0,027
-203,621	-67,775	-0,063	0,018
-202,606	3,450	-0,035	-0,018
-201,592	800,000	-0,017	-0,039
-200,577	800,000	-0,073	-0,150
-199,563	139,174	-0,088	0,084
-198,548	800,000	-0,041	0,101
-197,533	2,242	-0,092	0,048
-196,519	-139,052	0,095	0,007
-195,504	-115,382	0,089	0,012
-194,490	440,198	0,090	-0,143
-193,475	-200,000	0,003	-0,114
-192,460	48,911	0,081	0,055
-191,446	-200,000	0,000	0,108
-190,431	800,000	-0,039	0,079
-189,417	-200,000	0,016	0,087
-188,402	51,196	-0,059	0,040
-187,387	800,000	-0,019	0,055
-186,373	44,001	0,038	-0,025
-185,358	-165,598	-0,083	0,003
-184,344	-200,000	0,020	0,125
-183,329	-54,291	0,065	0,021
-182,315	296,306	-0,023	-0,031
-181,300	73,579	0,047	-0,036
-180,285	-200,000	-0,029	-0,095
-179,271	-40,892	0,113	-0,042
-178,256	-158,770	0,027	0,001
-177,242	63,083	0,038	0,027
-176,227	18,073	0,059	-0,034
-175,212	-48,153	-0,114	-0,039
-174,198	-107,484	0,062	0,010
-173,183	-104,245	-0,050	0,008
-172,169	-69,059	-0,033	-0,009
-171,154	-68,834	0,048	-0,013
-170,139	-159,085	-0,154	-0,006
-169,125	-39,168	0,082	0,031
-168,110	800,000	0,064	0,132
-167,096	46,773	-0,045	0,030
-166,081	-200,000	-0,018	0,071
-165,066	800,000	-0,008	0,022
-164,052	4,545	-0,110	-0,058
-163,037	548,493	-0,017	-0,029
-162,023	707,988	0,036	0,068
-161,008	716,776	-0,032	-0,062
-159,993	-165,904	0,107	-0,003
-158,979	510,316	-0,016	-0,027
-157,964	-53,162	-0,204	-0,067
-156,950	-80,907	-0,083	-0,020
-155,935	800,000	-0,021	-0,054
-154,920	-86,254	-0,059	-0,013
-153,906	97,240	0,028	0,024
-152,891	-200,000	-0,020	0,081
-151,877	-67,954	-0,096	-0,027
-150,862	129,314	0,023	-0,021
-149,847	-200,000	0,020	-0,069
-148,833	-200,000	-0,034	-0,123
-147,818	-35,581	0,034	0,013
-146,804	117,224	-0,043	0,038
-145,789	327,228	0,016	0,022
-144,775	4,398	-0,107	-0,056
-143,760	242,740	-0,075	-0,091
-142,745	-159,444	-0,048	0,002
-141,731	-99,551	-0,087	-0,016
-140,716	800,000	-0,021	0,042
-139,702	46,398	0,062	-0,041
-138,687	-49,630	0,121	-0,041
-137,672	-129,952	-0,129	0,013
-136,658	51,950	-0,061	0,042
-135,643	-144,077	-0,076	0,005
-134,629	351,369	-0,083	-0,119
-133,614	467,913	-0,006	0,010
-132,599	215,159	0,024	-0,027
-131,585	-200,000	-0,028	0,108
-130,570	-200,000	0,041	-0,142
-129,556	800,000	-0,051	-0,133
-128,541	146,405	-0,052	-0,051
-127,526	38,640	0,055	0,035
-126,512	-143,054	-0,179	0,012
-125,497	10,427	0,095	0,052
-124,483	126,673	0,080	-0,073
-123,468	33,855	0,065	0,041
-122,453	67,778	-0,077	-0,057
-121,439	-200,000	0,020	-0,114
-120,424	-200,000	-0,016	0,122
-119,410	800,000	-0,068	0,142
