DTS Sentinel unit serial number:	SN410029Multiplexer serial number:	ORYXHardware model number:	OX2-SRSoftware version number:	ORYX F/W v4,00 Oryx Data Collector v3.7.2.0data status	okinstallation	B5 Nyhavnadifferential loss correction	single-endedforward channel	channel 2reverse channel	N/Adate	2023/12/11time	19:22:14forward acquisition time	300,00reverse acquisition time	0,00gamma	499,1914k internal	0,3159k external	0,3159temperature offset calibration	1,0000default loss term (dB/km)	0,3820temperature slope calibration	1,0000multiplexer offset coefficient	1,0000multiplexer slope coefficient	1,0000fibre end	0,00T internal ref (°C)	15,60T ext. ref 1 (°C)	-0,17T ext. ref 2 (°C)	-0,37length (m)	temperature (°C)	Stokes	anti-Stokes-744,400	-87,630	0,076	-0,017
-743,385	-11,330	-0,192	0,093
-742,371	-120,439	0,143	-0,018
-741,356	-30,441	-0,278	0,116
-740,342	-200,000	-0,002	0,020
-739,327	-153,634	-0,374	0,019
-738,312	7,488	0,136	0,075
-737,298	-92,914	-0,190	0,039
-736,283	59,680	-0,152	0,111
-735,269	97,566	-0,204	0,173
-734,254	178,600	0,028	0,030
-733,239	-167,175	-0,410	-0,012
-732,225	122,591	0,053	0,049
-731,210	273,507	-0,037	0,048
-730,196	31,121	-0,052	-0,033
-729,181	199,494	0,106	-0,120
-728,167	-0,537	-0,072	0,037
-727,152	-44,097	-0,038	-0,014
-726,137	8,670	-0,012	0,007
-725,123	299,868	-0,025	-0,034
-724,108	754,061	-0,058	-0,117
-723,094	-100,314	-0,177	-0,032
-722,079	178,533	-0,065	0,070
-721,064	-12,403	-0,094	-0,045
-720,050	-38,837	0,031	-0,012
-719,035	476,719	0,027	-0,045
-718,021	77,868	-0,065	-0,051
-717,006	131,391	-0,058	0,055
-715,991	-156,351	0,017	-0,001
-714,977	-138,386	-0,077	0,006
-713,962	203,967	-0,075	0,085
-712,948	800,000	0,098	0,204
-711,933	-200,000	0,025	-0,121
-710,918	218,038	-0,006	0,007
-709,904	-200,000	-0,020	-0,070
-708,889	593,388	0,012	-0,022
-707,875	-32,032	-0,127	-0,052
-706,860	-65,707	-0,100	0,029
-705,845	-200,000	0,004	-0,024
-704,831	23,352	-0,099	0,060
-703,816	688,373	-0,084	-0,162
-702,802	531,434	-0,102	-0,178
-701,787	22,127	-0,047	-0,028
-700,772	353,813	-0,033	-0,049
-699,758	110,877	-0,098	-0,087
-698,743	333,416	-0,025	0,036
-697,729	597,844	-0,081	-0,148
-696,714	-72,586	0,076	0,020
-695,699	347,370	0,020	0,029
-694,685	-200,000	0,001	-0,046
-693,670	-200,000	-0,006	-0,076
-692,656	-47,082	-0,035	0,012
-691,641	-200,000	0,005	-0,023
-690,627	306,408	-0,096	0,132
-689,612	69,653	-0,093	0,071
-688,597	621,822	0,040	-0,075
-687,583	-121,183	-0,040	0,005
-686,568	358,845	-0,050	-0,073
-685,554	57,391	-0,038	0,027
-684,539	16,101	0,096	-0,055
-683,524	800,000	0,037	0,088
-682,510	-200,000	0,025	-0,125
-681,495	-200,000	0,009	-0,226
-680,481	-200,000	-0,016	-0,055
-679,466	62,716	-0,065	-0,048
-678,451	800,000	0,009	0,026
-677,437	417,089	0,020	-0,031
-676,422	-162,869	0,090	-0,003
-675,408	800,000	0,047	-0,107
-674,393	-200,000	0,002	0,046
-673,378	-200,000	-0,030	-0,245
-672,364	-146,762	-0,101	-0,006
-671,349	114,875	-0,059	0,053
-670,335	-36,813	-0,046	-0,018
-669,320	668,632	-0,040	0,075
-668,305	-200,000	-0,048	0,163
-667,291	-174,681	-0,170	-0,003
-666,276	275,806	-0,026	0,034
-665,262	1,060	-0,173	0,091
-664,247	47,932	-0,117	-0,080
-663,232	6,584	-0,044	-0,024
-662,218	10,497	-0,106	-0,059
-661,203	-76,178	-0,105	-0,027
-660,189	-200,000	-0,002	0,045
-659,174	-42,850	-0,018	-0,007
-658,159	-200,000	-0,012	0,043
-657,145	-160,022	-0,071	0,003
-656,130	-107,970	0,086	-0,014
-655,116	800,000	-0,037	-0,097
-654,101	140,328	-0,077	0,075
-653,086	-200,000	-0,009	-0,118
-652,072	-18,862	-0,048	0,022
-651,057	131,831	-0,077	-0,073
-650,043	-141,810	-0,130	-0,009
-649,028	-200,000	0,040	-0,164
-648,014	173,157	-0,109	-0,115
-646,999	-98,136	-0,062	-0,012
-645,984	-80,781	0,145	0,035
-644,970	157,878	-0,096	-0,098
-643,955	182,533	0,125	-0,135
-642,941	-152,839	-0,068	-0,003
-641,926	800,000	-0,058	-0,121
-640,911	356,713	0,022	-0,033
-639,897	237,691	0,090	-0,110
-638,882	800,000	-0,051	-0,147
-637,868	35,539	-0,087	0,056
-636,853	76,559	-0,094	-0,073
-635,838	-68,287	-0,128	0,036
-634,824	-200,000	0,019	-0,192
-633,809	-164,116	0,049	-0,002
-632,795	-95,648	-0,088	0,017
-631,780	-79,331	0,090	-0,022
-630,765	224,683	-0,051	-0,061
-629,751	-16,045	-0,066	0,031
-628,736	-74,423	-0,097	0,026
-627,722	156,595	-0,025	0,025
-626,707	63,735	0,082	0,060
-625,692	-16,707	0,049	-0,022
-624,678	-35,433	-0,071	0,028
-623,663	-200,000	-0,032	-0,202
-622,649	45,707	-0,100	-0,068
-621,634	69,933	-0,081	0,061
-620,619	800,000	0,051	-0,116
-619,605	800,000	0,009	0,020
-618,590	-200,000	-0,004	0,056
-617,576	-200,000	-0,008	-0,042
-616,561	-200,000	0,004	0,095
-615,546	800,000	0,016	-0,035
-614,532	138,939	-0,075	-0,072
-613,517	-33,711	-0,131	-0,053
-612,503	-200,000	0,031	0,163
-611,488	762,123	0,068	0,136
-610,474	321,747	-0,038	0,053
-609,459	-200,000	-0,015	-0,058
-608,444	-26,664	-0,022	-0,010
-607,430	-106,273	-0,027	-0,004
-606,415	333,376	-0,095	0,135
-605,401	-7,920	0,088	0,043
-604,386	-116,204	-0,048	0,006
-603,371	39,540	-0,039	0,025
-602,357	-124,488	-0,078	0,009
-601,342	-200,000	-0,013	-0,124
-600,328	-151,475	-0,079	0,004
-599,313	-160,077	-0,041	0,002
-598,298	-80,722	-0,010	-0,002
-597,284	800,000	0,036	-0,079
-596,269	-90,316	0,111	-0,023
-595,255	118,365	0,047	-0,043
-594,240	-200,000	-0,028	-0,137
-593,225	800,000	-0,040	-0,117
-592,211	-200,000	-0,008	0,078
-591,196	184,563	-0,014	-0,016
-590,182	-200,000	0,029	0,102
-589,167	33,330	-0,060	-0,038
-588,152	-200,000	0,009	-0,045
-587,138	100,730	0,151	-0,128
-586,123	81,960	0,038	-0,030
-585,109	-200,000	-0,010	-0,060
-584,094	-143,186	0,039	0,003
-583,079	465,251	0,070	-0,115
-582,065	-200,000	0,057	-0,195
-581,050	52,043	0,083	0,058
-580,036	743,639	0,045	-0,088
-579,021	-88,132	-0,098	-0,021
-578,006	74,090	0,046	0,035
-576,992	800,000	0,054	-0,126
-575,977	-200,000	0,030	0,117
-574,963	-36,086	0,069	-0,027
-573,948	-67,636	-0,074	0,021
-572,934	383,001	0,118	-0,178
-571,919	800,000	0,037	0,079
-570,904	-200,000	0,014	-0,104
-569,890	800,000	-0,018	-0,054
-568,875	-72,563	0,138	-0,037
-567,861	-200,000	0,008	0,055
-566,846	381,302	0,011	0,017
-565,831	180,959	0,139	-0,149
-564,817	-200,000	0,026	0,104
-563,802	-16,506	-0,102	-0,047
-562,788	800,000	0,024	-0,061
-561,773	457,204	-0,044	-0,071
-560,758	-200,000	-0,052	0,000
-559,744	-200,000	0,019	-0,078
-558,729	99,158	-0,072	-0,061
-557,715	-115,999	-0,058	0,008
-556,700	-150,864	-0,144	0,008
-555,685	-200,000	-0,052	0,190
-554,671	108,941	0,035	0,031
-553,656	-200,000	-0,005	-0,071
-552,642	159,099	0,048	-0,049
-551,627	-30,243	-0,046	0,019
-550,612	800,000	0,026	-0,071
-549,598	-151,939	-0,080	0,004
-548,583	290,829	0,109	-0,145
-547,569	-200,000	-0,011	-0,062
-546,554	510,649	-0,040	-0,068
-545,539	-200,000	0,019	0,104
-544,525	115,159	-0,074	-0,066
-543,510	522,451	-0,064	-0,111
-542,496	326,041	0,037	-0,052
-541,481	610,490	-0,054	-0,098
-540,466	3,981	0,102	-0,054
-539,452	-73,814	0,106	0,028
-538,437	800,000	0,030	-0,086
-537,423	800,000	0,019	0,042
-536,408	110,788	-0,050	-0,044
-535,393	-200,000	-0,018	-0,126
-534,379	800,000	-0,032	0,098
-533,364	-200,000	-0,018	0,073
-532,350	362,849	0,047	0,070
-531,335	-4,626	-0,153	0,077
-530,321	50,212	-0,082	0,056
-529,306	-200,000	0,017	0,071
-528,291	-200,000	0,013	-0,138
-527,277	38,461	-0,022	-0,014
-526,262	698,055	0,043	0,083
-525,248	-139,227	0,122	0,010
-524,233	-65,398	0,055	-0,016
-523,218	-200,000	0,017	0,067
-522,204	421,358	-0,018	-0,028
-521,189	-200,000	0,001	-0,051
-520,175	-200,000	0,010	0,083
-519,160	-96,091	-0,076	-0,015
-518,145	-7,014	-0,159	0,079
-517,131	-25,895	0,041	0,017
-516,116	800,000	-0,081	0,178
-515,102	364,918	-0,045	-0,067
-514,087	800,000	0,046	-0,111
-513,072	501,573	0,050	-0,085
-512,058	-200,000	-0,030	0,133
-511,043	-94,146	0,063	0,012
-510,029	-200,000	0,030	0,136
-509,014	320,157	0,080	0,111
-507,999	-28,517	-0,124	0,052
-506,985	-199,088	0,057	-0,000
-505,970	408,624	-0,123	-0,190
-504,956	668,936	0,015	-0,028
-503,941	-200,000	0,012	0,102
-502,926	800,000	-0,010	0,024
-501,912	-56,135	0,049	0,016
-500,897	-200,000	0,027	0,114
-499,883	-200,000	-0,001	-0,009
-498,868	-200,000	-0,031	-0,217
-497,853	431,960	-0,081	-0,129
-496,839	518,620	-0,032	-0,054
-495,824	-47,820	0,123	-0,043
-494,810	-24,352	0,073	0,032
-493,795	314,024	-0,082	0,112
-492,781	-135,202	0,102	0,009
-491,766	-31,805	-0,053	0,022
-490,751	800,000	0,037	0,094
-489,737	-200,000	0,039	0,134
-488,722	-53,467	0,134	-0,044
-487,708	-200,000	-0,017	0,115
-486,693	800,000	0,067	0,142
-485,678	800,000	-0,023	-0,069
-484,664	128,623	-0,048	-0,044
-483,649	63,523	0,042	-0,031
-482,635	292,620	-0,016	-0,021
-481,620	27,307	0,036	-0,022
-480,605	209,937	0,034	0,039
-479,591	575,994	-0,030	0,054
-478,576	-200,000	0,008	0,028
-477,562	326,681	-0,065	-0,090
-476,547	800,000	-0,033	-0,077
-475,532	-35,478	0,139	0,055
-474,518	-110,072	-0,085	0,013
-473,503	242,560	-0,075	0,091
-472,489	101,793	-0,057	0,048
-471,474	-78,529	0,060	0,015
-470,459	-200,000	-0,003	0,035
-469,445	-9,457	-0,018	0,009
-468,430	-71,227	-0,111	-0,030
-467,416	9,560	0,072	0,039
-466,401	-58,765	0,086	0,027
-465,386	114,108	0,146	-0,130
-464,372	58,655	0,092	-0,066
-463,357	-180,353	-0,125	-0,002
-462,343	182,461	-0,070	0,075
-461,328	800,000	-0,013	0,034
-460,313	-16,505	-0,065	0,030
-459,299	-200,000	0,023	0,175
-458,284	-153,823	0,092	0,005
-457,270	36,345	-0,111	-0,071
-456,255	800,000	-0,024	0,058
-455,241	363,614	-0,127	-0,187
-454,226	-200,000	-0,017	-0,147
-453,211	800,000	0,018	-0,037
-452,197	229,067	0,083	-0,099
-451,182	41,508	0,103	-0,068
-450,168	-200,000	-0,016	-0,091
-449,153	-150,009	-0,053	-0,003
-448,138	-83,073	0,006	-0,001
-447,124	121,030	-0,036	-0,033
-446,109	-200,000	0,009	-0,078
-445,095	-200,000	-0,019	0,096
-444,080	800,000	-0,021	0,056
-443,065	-41,850	0,069	0,026
-442,051	-200,000	0,022	0,106
-441,036	233,170	0,058	-0,070
-440,022	761,960	0,013	-0,026
-439,007	-200,000	-0,020	-0,086
-437,992	-102,651	-0,020	-0,003
-436,978	-150,041	0,153	-0,009
-435,963	68,916	-0,056	-0,042
-434,949	800,000	-0,041	-0,098
-433,934	176,010	-0,073	-0,077
-432,919	-57,082	-0,165	-0,053
-431,905	-186,192	0,084	-0,001
-430,890	380,773	-0,039	-0,059
-429,876	-155,253	-0,093	-0,004
-428,861	-200,000	0,030	0,203
-427,846	-200,000	-0,033	0,145
-426,832	54,858	-0,035	-0,024
-425,817	-200,000	-0,008	-0,054
-424,803	411,699	0,074	0,114
-423,788	-200,000	-0,002	0,036
-422,773	-200,000	0,003	0,091
-421,759	-200,000	-0,004	0,154
-420,744	258,366	0,009	-0,012
-419,730	476,275	-0,062	-0,103
-418,715	800,000	0,052	-0,131
-417,701	800,000	0,012	-0,033
-416,686	-200,000	0,004	0,017
-415,671	278,901	0,060	-0,078
-414,657	-53,195	0,126	-0,042
-413,642	800,000	-0,019	0,045
-412,628	-45,302	0,087	-0,031
-411,613	-69,750	-0,181	0,050
-410,598	82,811	-0,023	0,018
-409,584	800,000	-0,034	0,101
-408,569	22,763	-0,053	-0,031
-407,555	-85,673	0,094	0,021
-406,540	800,000	0,059	0,147
-405,525	386,907	0,032	0,048
-404,511	-200,000	-0,009	-0,053
-403,496	95,031	-0,071	-0,059
-402,482	-200,000	-0,029	-0,204
-401,467	90,411	0,061	0,049
-400,452	-110,305	0,081	0,012
-399,438	242,652	0,032	-0,038
-398,423	-79,137	-0,063	-0,015
-397,409	79,710	-0,025	-0,020
-396,394	332,592	-0,112	0,157
-395,379	266,995	0,009	0,012
-394,365	-200,000	0,014	0,183
-393,350	-68,657	-0,094	0,026
-392,336	42,698	0,127	-0,084
-391,321	537,592	0,049	-0,084
-390,306	317,645	-0,021	0,028
-389,292	-134,604	-0,137	-0,012
-388,277	-57,937	0,054	-0,017
-387,263	106,846	-0,059	-0,051
-386,248	107,559	0,085	0,074
-385,233	25,626	0,120	0,072
-384,219	800,000	-0,067	-0,164
-383,204	-200,000	-0,007	0,047
-382,190	-200,000	0,008	-0,065
-381,175	359,517	-0,024	0,035
-380,160	79,721	0,067	0,052
-379,146	-200,000	0,046	0,182
-378,131	18,841	-0,092	-0,053
-377,117	800,000	0,026	0,062
-376,102	-200,000	0,017	0,114
-375,088	800,000	0,022	0,045
-374,073	125,798	-0,033	0,030
-373,058	-145,310	-0,052	-0,003
-372,044	187,837	0,107	0,117
-371,029	-101,100	-0,181	0,032
-370,015	800,000	-0,036	0,089
-369,000	-164,556	-0,027	0,001
-367,985	187,894	-0,056	0,060
-366,971	520,504	0,091	-0,155
-365,956	99,727	-0,121	-0,102
-364,942	-115,578	0,215	-0,029
-363,927	-113,261	0,172	0,024
-362,912	-131,957	-0,027	0,002
-361,898	236,933	-0,081	-0,098
-360,883	-200,000	0,013	-0,088
-359,869	-164,401	-0,054	-0,002
-358,854	-200,000	0,039	-0,184
-357,839	-200,000	0,025	0,080
-356,825	-200,000	0,019	0,082
-355,810	302,715	0,006	-0,008
-354,796	-120,466	-0,052	0,006
-353,781	-200,000	0,003	0,073
-352,766	215,807	0,069	0,080
-351,752	-21,041	0,054	0,024
-350,737	-134,003	0,022	0,002
-349,723	442,578	-0,043	-0,068
-348,708	-173,240	0,135	-0,003
-347,693	800,000	0,071	-0,155
-346,679	-200,000	-0,028	-0,172
-345,664	-200,000	-0,017	0,117
-344,650	-162,746	0,062	0,002
-343,635	70,135	0,105	0,079
-342,620	-9,528	0,103	0,049
-341,606	589,173	0,056	0,100
-340,591	-200,000	-0,031	-0,110
-339,577	-200,000	0,023	0,098
-338,562	-156,426	-0,029	-0,001
-337,548	800,000	-0,008	-0,025
-336,533	100,749	0,024	0,020
-335,518	331,378	0,093	0,130
-334,504	-53,539	-0,072	0,024
-333,489	800,000	0,014	0,030
-332,475	70,240	-0,033	-0,025
-331,460	-72,407	-0,085	-0,023
-330,445	32,649	0,117	0,073
-329,431	800,000	0,043	0,087
-328,416	-180,197	0,087	0,001
-327,402	-200,000	0,011	-0,087
-326,387	-0,271	0,063	0,032
-325,372	800,000	0,030	-0,075
-324,358	-37,774	-0,079	-0,030
-323,343	-200,000	-0,010	-0,127
-322,329	-1,080	0,139	0,071
-321,314	108,867	-0,052	0,045
-320,299	-194,607	0,059	-0,000
-319,285	174,319	0,055	-0,058
-318,270	-4,725	0,091	-0,045
-317,256	-200,000	0,007	0,121
-316,241	800,000	-0,050	-0,105
-315,226	800,000	-0,048	0,134
-314,212	598,330	-0,037	0,067
-313,197	-73,730	-0,148	0,039
-312,183	-12,519	-0,068	-0,032
-311,168	-200,000	-0,036	0,174
-310,153	-193,650	-0,198	-0,001
-309,139	411,503	-0,132	0,204
-308,124	-195,722	0,043	-0,000
-307,110	800,000	0,040	-0,089
-306,095	800,000	-0,022	-0,067
-305,080	48,500	-0,038	-0,026
-304,066	194,875	-0,077	0,085
-303,051	800,000	0,027	-0,068
-302,037	14,495	-0,098	-0,055
-301,022	-57,752	-0,049	-0,015
-300,008	-200,000	-0,014	-0,064
-298,993	247,866	0,005	0,007
-297,978	106,234	0,065	0,056
-296,964	44,309	0,142	0,094
-295,949	800,000	-0,071	0,163
-294,935	230,970	-0,075	0,089
-293,920	-200,000	-0,000	0,106
-292,905	593,911	0,114	0,205
-291,891	96,534	0,167	0,138
-290,876	-200,000	0,058	0,203
-289,862	136,562	-0,067	-0,063
-288,847	-200,000	0,010	0,072
-287,832	-55,016	0,074	0,024
-286,818	-13,635	-0,132	-0,062
-285,803	333,314	0,038	0,053
-284,789	173,810	0,076	0,080
-283,774	-200,000	-0,008	-0,077
-282,759	-17,379	-0,136	-0,062
-281,745	27,373	-0,122	-0,074
-280,730	-142,627	0,062	0,004
-279,716	149,120	-0,043	-0,042
-278,701	117,036	-0,028	-0,025
-277,686	-200,000	0,037	0,147
-276,672	403,630	0,061	-0,093
-275,657	-89,109	-0,090	-0,019
-274,643	552,152	-0,048	-0,083
-273,628	-200,000	-0,009	-0,047
-272,613	373,047	0,095	0,140
-271,599	-200,000	0,000	0,071
-270,584	66,042	0,053	-0,039
-269,570	-3,931	0,049	0,024
-268,555	-4,297	0,041	-0,020
-267,540	-200,000	-0,024	-0,080
-266,526	800,000	0,040	-0,115
-265,511	800,000	-0,049	-0,124
-264,497	90,672	0,032	0,026
-263,482	-133,876	0,095	0,008
-262,467	800,000	0,057	0,121
-261,453	-200,000	0,001	0,093
-260,438	-200,000	0,035	-0,139
-259,424	130,560	0,068	0,063
-258,409	460,546	-0,057	0,092
-257,395	-109,369	0,170	0,026
-256,380	800,000	0,055	0,165
-255,365	1,324	-0,115	0,059
-254,351	82,086	-0,082	0,064
-253,336	-200,000	0,007	-0,042
-252,322	-84,293	-0,104	-0,024
-251,307	598,323	0,023	-0,042
-250,292	2,442	-0,155	-0,081
-249,278	-39,946	0,174	0,065
-248,263	800,000	-0,024	0,048
-247,249	26,006	-0,039	0,024
-246,234	800,000	-0,027	0,054
-245,219	-76,469	-0,127	-0,032
-244,205	-200,000	0,038	-0,126
-243,190	-200,000	0,013	0,070
-242,176	160,489	0,029	0,029
-241,161	-200,000	-0,005	0,049
-240,146	152,310	-0,122	0,120
-239,132	-66,315	0,057	-0,016
-238,117	800,000	-0,009	0,021
-237,103	-183,159	0,061	0,001
-236,088	36,104	-0,027	-0,017
-235,073	4,111	0,146	-0,077
-234,059	11,063	0,044	0,024
-233,044	-70,663	0,075	0,020
-232,030	208,714	-0,041	0,047
-231,015	441,712	0,016	0,026
-230,000	-1,462	-0,083	0,042
-228,986	57,998	-0,037	0,026
-227,971	-200,000	-0,001	-0,094
-226,957	-200,000	-0,016	0,121
-225,942	229,097	0,046	0,054
-224,927	-200,000	-0,031	0,108
-223,913	-149,730	0,077	0,004
-222,898	800,000	-0,033	-0,088
-221,884	-78,714	0,068	-0,017
-220,869	56,358	0,072	-0,051
-219,855	255,263	-0,025	0,031
-218,840	215,921	0,107	0,123
-217,825	-200,000	-0,017	-0,103
-216,811	800,000	0,072	-0,145
-215,796	200,485	-0,062	-0,069
-214,782	319,169	-0,084	-0,116
-213,767	-90,200	-0,020	-0,004
-212,752	-200,000	0,025	-0,103
-211,738	58,957	0,071	0,051
-210,723	-200,000	0,005	-0,026
-209,709	62,996	0,072	0,052
-208,694	-111,437	-0,138	-0,020
-207,679	-116,478	-0,046	0,006
-206,665	800,000	-0,069	0,147
-205,650	800,000	-0,048	-0,127
-204,636	-107,860	0,156	0,024
-203,621	467,442	-0,075	-0,121
-202,606	-155,170	-0,068	0,003
-201,592	-18,376	-0,137	-0,061
-200,577	-136,786	-0,058	0,005
-199,563	-200,000	0,003	-0,012
-198,548	-200,000	0,001	0,070
-197,533	-66,549	0,227	0,064
-196,519	66,959	0,154	0,113
-195,504	800,000	0,045	0,102
-194,490	-136,986	-0,171	-0,014
-193,475	-73,589	0,098	0,025
-192,460	187,784	-0,034	0,037
-191,446	800,000	0,023	0,071
-190,431	-93,000	0,090	-0,018
-189,417	156,227	0,038	0,038
-188,402	-58,748	-0,131	-0,041
-187,387	-200,000	-0,007	0,049
-186,373	-64,060	-0,036	0,011
-185,358	-125,522	-0,082	0,009
-184,344	-200,000	0,019	-0,071
-183,329	55,690	-0,058	-0,040
-182,315	-81,487	0,182	0,043
-181,300	800,000	-0,017	0,042
-180,285	-200,000	-0,014	0,099
-179,271	-53,782	-0,052	0,017
-178,256	800,000	0,039	-0,097
-177,242	192,158	0,028	-0,030
-176,227	800,000	-0,012	0,035
-175,212	330,311	0,026	-0,036
-174,198	-103,620	0,046	0,008
-173,183	67,207	-0,069	-0,051
-172,169	-200,000	0,002	0,086
-171,154	132,683	-0,034	0,031
-170,139	-41,026	0,107	-0,040
-169,125	-200,000	0,009	-0,062
-168,110	-200,000	0,023	-0,115
-167,096	-99,344	-0,058	-0,010
-166,081	267,986	-0,106	-0,134
-165,066	-20,547	-0,101	0,045
-164,052	800,000	-0,037	0,091
-163,037	-33,534	-0,040	0,016
-162,023	800,000	0,081	0,173
-161,008	174,321	-0,072	0,075
-159,993	-200,000	0,024	0,113
-158,979	672,166	0,068	0,127
-157,964	-111,812	-0,097	0,014
-156,950	-67,758	0,068	-0,019
-155,935	309,449	0,034	-0,045
-154,920	129,580	-0,083	0,076
-153,906	-200,000	0,002	-0,029
-152,891	-200,000	-0,041	-0,179
-151,877	-59,932	0,043	-0,013
-150,862	800,000	-0,081	-0,177
-149,847	-21,249	-0,090	-0,039
-148,833	30,555	0,048	-0,030
-147,818	-144,011	-0,091	-0,006
-146,804	-77,097	0,168	-0,042
-145,789	193,036	-0,043	0,047
-144,775	53,015	-0,011	-0,007
-143,760	777,882	-0,056	0,110
-142,745	-37,285	-0,071	-0,027
-141,731	417,162	-0,029	0,045
-140,716	-65,931	0,108	-0,031
-139,702	782,056	-0,038	0,076
-138,687	800,000	0,032	0,066
-137,672	146,948	-0,068	0,066
-136,658	800,000	-0,020	-0,041
-135,643	158,663	-0,081	-0,081
-134,629	571,065	0,050	-0,089
-133,614	140,965	-0,123	0,117
-132,599	-140,930	0,070	-0,005
-131,585	138,338	0,015	-0,014
-130,570	122,334	0,055	-0,049
-129,556	95,656	-0,093	0,077
-128,541	-34,381	-0,016	0,006
-127,526	-47,284	-0,122	0,042
-126,512	78,327	0,074	-0,057
-125,497	-38,681	0,054	0,021
-124,483	-200,000	0,006	-0,065
-123,468	-200,000	-0,001	-0,036
-122,453	-200,000	-0,005	-0,119
-121,439	800,000	0,028	-0,056
-120,424	212,305	-0,039	-0,044
