DTS Sentinel unit serial number:	SN410029Multiplexer serial number:	ORYXHardware model number:	OX2-SRSoftware version number:	ORYX F/W v4,00 Oryx Data Collector v3.7.2.0data status	okinstallation	B5 Nyhavnadifferential loss correction	single-endedforward channel	channel 2reverse channel	N/Adate	2023/12/14time	01:17:13forward acquisition time	300,00reverse acquisition time	0,00gamma	499,1914k internal	0,3155k external	0,3155temperature offset calibration	1,0000default loss term (dB/km)	0,3820temperature slope calibration	1,0000multiplexer offset coefficient	1,0000multiplexer slope coefficient	1,0000fibre end	0,00T internal ref (°C)	8,69T ext. ref 1 (°C)	-7,16T ext. ref 2 (°C)	-7,16length (m)	temperature (°C)	Stokes	anti-Stokes-744,400	74,868	0,038	0,030
-743,385	-106,321	-0,274	-0,045
-742,371	88,957	0,249	0,204
-741,356	-45,939	-0,373	-0,135
-740,342	32,878	0,090	0,057
-739,327	-74,785	-0,465	0,122
-738,312	53,481	-0,058	-0,041
-737,298	-113,112	-0,320	-0,046
-736,283	-37,066	0,130	0,051
-735,269	50,234	-0,297	-0,206
-734,254	356,834	0,138	0,203
-733,239	-69,511	-0,544	-0,153
-732,225	-24,645	0,204	0,089
-731,210	249,553	0,107	0,134
-730,196	-200,000	0,035	0,191
-729,181	461,955	-0,031	0,051
-728,167	112,193	-0,010	-0,009
-727,152	-39,818	-0,026	0,010
-726,137	-88,105	-0,179	-0,039
-725,123	800,000	0,065	0,158
-724,108	-95,560	-0,109	-0,021
-723,094	-83,912	-0,039	0,009
-722,079	188,276	-0,083	-0,092
-721,064	-118,207	-0,097	0,013
-720,050	-127,932	0,086	0,009
-719,035	320,373	0,036	0,051
-718,021	90,520	-0,137	-0,113
-717,006	-123,783	-0,113	-0,013
-715,991	-131,261	-0,298	-0,029
-714,977	146,602	-0,114	-0,113
-713,962	-200,000	0,005	0,045
-712,948	-200,000	0,005	0,075
-711,933	-200,000	0,002	0,061
-710,918	-200,000	0,036	0,131
-709,904	164,652	-0,076	-0,079
-708,889	173,926	0,030	-0,032
-707,875	9,091	-0,030	0,017
-706,860	-172,888	0,050	-0,001
-705,845	-21,542	0,125	-0,056
-704,831	-25,083	0,178	-0,077
-703,816	-108,409	-0,092	-0,014
-702,802	-72,008	-0,160	-0,044
-701,787	-106,575	-0,106	0,017
-700,772	377,738	-0,020	-0,030
-699,758	-108,377	-0,092	-0,015
-698,743	184,007	0,063	0,069
-697,729	-77,222	0,105	0,027
-696,714	800,000	0,020	0,042
-695,699	800,000	-0,041	-0,105
-694,685	-23,791	0,068	0,030
-693,670	33,200	0,063	-0,040
-692,656	-200,000	0,003	-0,060
-691,641	115,664	-0,065	0,058
-690,627	-200,000	0,017	0,094
-689,612	-119,313	0,108	-0,014
-688,597	48,934	-0,025	0,017
-687,583	-200,000	-0,019	-0,109
-686,568	256,713	0,044	-0,056
-685,554	800,000	0,019	-0,040
-684,539	-200,000	-0,031	0,135
-683,524	800,000	0,016	0,035
-682,510	317,885	0,025	0,034
-681,495	343,541	0,012	-0,017
-680,481	119,516	-0,029	-0,026
-679,466	800,000	-0,035	-0,077
-678,451	-80,913	-0,131	0,032
-677,437	-200,000	0,021	0,097
-676,422	39,808	-0,029	-0,019
-675,408	800,000	0,014	0,043
-674,393	-200,000	-0,032	-0,108
-673,378	-16,617	-0,056	0,026
-672,364	263,578	-0,053	0,068
-671,349	-43,523	0,094	0,035
-670,335	620,247	-0,066	0,122
-669,320	800,000	-0,033	-0,087
-668,305	156,948	0,073	-0,075
-667,291	58,966	-0,040	0,029
-666,276	-200,000	-0,009	0,059
-665,262	-146,531	-0,071	-0,004
-664,247	-106,212	-0,067	0,011
-663,232	-110,364	-0,152	-0,023
-662,218	-200,000	-0,011	0,223
-661,203	-108,436	0,111	-0,017
-660,189	800,000	0,017	-0,044
-659,174	356,000	-0,047	-0,069
-658,159	-101,744	-0,040	-0,007
-657,145	46,313	-0,051	-0,035
-656,130	706,986	0,017	0,033
-655,116	-161,612	0,179	0,007
-654,101	-120,081	-0,152	-0,019
-653,086	-178,549	0,121	-0,002
-652,072	20,975	0,092	-0,055
-651,057	201,477	0,067	-0,076
-650,043	-128,226	0,094	-0,010
-649,028	800,000	0,019	-0,061
-648,014	138,417	-0,039	-0,038
-646,999	-160,320	0,118	-0,005
-645,984	-200,000	0,023	0,105
-644,970	-38,662	-0,117	0,045
-643,955	800,000	0,037	-0,090
-642,941	1,517	-0,099	-0,052
-641,926	800,000	-0,008	0,019
-640,911	800,000	-0,042	0,119
-639,897	-200,000	0,002	0,051
-638,882	-140,642	-0,191	0,014
-637,868	800,000	0,069	-0,154
-636,853	800,000	0,021	0,050
-635,838	10,637	0,065	0,037
-634,824	-80,861	-0,183	-0,044
-633,809	-138,183	0,139	0,011
-632,795	-200,000	-0,002	0,074
-631,780	-200,000	0,044	0,189
-630,765	106,638	0,092	0,080
-629,751	-200,000	0,000	0,048
-628,736	-186,727	-0,103	-0,001
-627,722	-200,000	0,003	-0,086
-626,707	-200,000	-0,005	-0,042
-625,692	-200,000	0,007	0,061
-624,678	758,214	-0,043	-0,086
-623,663	-130,274	-0,089	-0,009
-622,649	731,819	0,047	-0,092
-621,634	230,202	0,049	0,059
-620,619	166,579	0,057	0,060
-619,605	260,021	-0,116	-0,147
-618,590	-200,000	-0,008	-0,099
-617,576	11,729	0,103	-0,058
-616,561	504,116	-0,033	-0,056
-615,546	192,455	0,044	-0,049
-614,532	-58,033	-0,166	0,053
-613,517	-28,386	0,019	0,008
-612,503	-200,000	0,021	-0,189
-611,488	-200,000	0,012	0,099
-610,474	-154,771	-0,189	-0,009
-609,459	-12,897	0,040	0,019
-608,444	324,206	0,028	0,039
-607,430	-200,000	0,008	0,042
-606,415	30,750	0,070	-0,044
-605,401	800,000	0,030	0,095
-604,386	45,950	0,102	0,069
-603,371	-200,000	0,033	0,146
-602,357	38,657	-0,072	-0,047
-601,342	219,358	0,018	-0,022
-600,328	44,697	-0,062	0,042
-599,313	-200,000	0,006	0,043
-598,298	-12,588	-0,022	0,010
-597,284	-78,429	-0,060	0,015
-596,269	-200,000	0,002	0,064
-595,255	-200,000	0,018	0,133
-594,240	113,847	-0,079	0,071
-593,225	-200,000	-0,021	-0,084
-592,211	800,000	-0,059	-0,135
-591,196	222,389	0,027	0,032
-590,182	-45,600	0,045	-0,016
-589,167	763,529	0,039	0,078
-588,152	800,000	-0,031	0,077
-587,138	-34,571	-0,128	0,051
-586,123	-86,295	-0,096	0,021
-585,109	-200,000	0,016	-0,111
-584,094	78,584	-0,061	-0,048
-583,079	715,962	0,055	-0,108
-582,065	-63,956	0,153	0,046
-581,050	-200,000	-0,006	-0,033
-580,036	-50,919	-0,173	0,059
-579,021	-200,000	0,017	0,086
-578,006	-200,000	-0,001	-0,014
-576,992	130,692	-0,094	-0,088
-575,977	-118,401	0,140	0,018
-574,963	-109,427	-0,066	-0,010
-573,948	438,760	0,028	0,044
-572,934	-200,000	-0,004	0,055
-571,919	-200,000	-0,016	0,088
-570,904	-200,000	-0,023	0,165
-569,890	-193,295	-0,045	-0,000
-568,875	69,978	0,085	0,065
-567,861	-99,497	-0,041	0,007
-566,846	-102,152	0,062	-0,011
-565,831	-113,884	0,037	-0,005
-564,817	305,126	-0,067	-0,091
-563,802	84,408	0,021	-0,017
-562,788	-118,321	-0,117	-0,015
-561,773	9,449	0,060	0,033
-560,758	800,000	0,044	0,090
-559,744	6,399	-0,098	0,053
-558,729	-106,626	0,085	0,014
-557,715	-44,324	-0,049	0,018
-556,700	-39,063	-0,105	-0,040
-555,685	-200,000	0,020	-0,071
-554,671	76,993	0,017	-0,014
-553,656	800,000	0,052	-0,130
-552,642	-80,486	-0,011	0,003
-551,627	-109,126	-0,117	-0,018
-550,612	-2,991	0,064	-0,033
-549,598	-101,593	-0,071	-0,012
-548,583	506,313	-0,068	0,115
-547,569	-200,000	0,007	0,097
-546,554	203,960	-0,060	0,069
-545,539	44,033	0,065	0,043
-544,525	-17,119	0,132	-0,061
-543,510	800,000	0,049	-0,141
-542,496	-62,743	-0,218	0,066
-541,481	-200,000	-0,024	-0,091
-540,466	20,806	-0,127	-0,075
-539,452	159,361	-0,019	0,019
-538,437	365,446	-0,039	0,058
-537,423	-47,105	0,057	-0,020
-536,408	-200,000	0,002	0,015
-535,393	800,000	-0,021	-0,063
-534,379	-31,009	-0,050	0,020
-533,364	-79,027	-0,086	-0,021
-532,350	-118,722	0,043	-0,006
-531,335	80,653	0,066	0,052
-530,321	83,114	0,037	0,030
-529,306	160,199	-0,033	0,033
-528,291	-200,000	-0,002	-0,123
-527,277	-200,000	0,014	-0,130
-526,262	-200,000	0,040	-0,149
-525,248	800,000	-0,053	-0,139
-524,233	177,795	-0,013	0,013
-523,218	800,000	-0,009	-0,022
-522,204	766,153	-0,064	0,127
-521,189	-200,000	-0,006	-0,057
-520,175	-129,697	-0,154	0,015
-519,160	-157,175	-0,008	0,000
-518,145	-76,213	0,012	0,003
-517,131	69,004	0,271	0,203
-516,116	800,000	0,027	0,059
-515,102	85,455	0,016	-0,012
-514,087	800,000	0,047	0,118
-513,072	-97,500	0,063	0,012
-512,058	-121,246	0,066	-0,008
-511,043	-200,000	0,010	-0,142
-510,029	203,144	0,069	0,078
-509,014	-200,000	-0,008	-0,026
-507,999	-200,000	-0,008	-0,046
-506,985	-129,681	-0,067	0,007
-505,970	-200,000	-0,014	-0,068
-504,956	-8,299	0,104	-0,051
-503,941	-200,000	0,002	0,032
-502,926	-200,000	0,002	0,069
-501,912	111,989	0,074	0,066
-500,897	-19,928	-0,081	-0,036
-499,883	-115,121	-0,069	0,009
-498,868	-87,403	-0,113	0,025
-497,853	18,033	-0,086	-0,050
-496,839	800,000	0,018	0,050
-495,824	800,000	-0,015	0,047
-494,810	-114,370	0,194	-0,027
-493,795	706,295	-0,032	-0,063
-492,781	-4,723	-0,026	-0,013
-491,766	122,319	0,088	-0,080
-490,751	305,097	-0,079	-0,108
-489,737	501,867	0,090	-0,153
-488,722	117,653	0,089	0,080
-487,708	281,217	0,099	0,130
-486,693	-200,000	0,001	0,122
-485,678	-16,296	-0,045	0,021
-484,664	-200,000	0,002	-0,032
-483,649	-200,000	-0,041	-0,245
-482,635	78,409	0,078	-0,061
-481,620	2,755	0,102	0,054
-480,605	-74,646	0,155	-0,040
-479,591	-14,907	-0,062	-0,029
-478,576	-69,472	-0,161	0,045
-477,562	479,857	0,014	-0,024
-476,547	152,522	-0,092	0,092
-475,532	800,000	0,027	0,062
-474,518	-200,000	-0,012	-0,083
-473,503	50,269	-0,041	0,028
-472,489	-200,000	-0,008	0,129
-471,474	114,506	0,062	0,055
-470,459	180,848	-0,086	0,092
-469,445	-61,328	0,116	-0,036
-468,430	-200,000	-0,033	-0,123
-467,416	117,990	0,065	0,058
-466,401	445,023	0,053	-0,085
-465,386	-200,000	-0,009	0,070
-464,372	800,000	0,035	-0,095
-463,357	-200,000	0,003	0,025
-462,343	-200,000	0,015	-0,098
-461,328	-200,000	0,010	0,054
-460,313	45,044	-0,033	0,022
-459,299	749,664	0,020	-0,039
-458,284	-42,047	0,168	-0,062
-457,270	220,499	0,015	-0,018
-456,255	34,966	0,126	0,080
-455,241	367,243	0,058	-0,086
-454,226	247,099	-0,059	-0,073
-453,211	48,098	-0,048	-0,032
-452,197	-200,000	0,006	0,040
-451,182	-200,000	0,008	0,037
-450,168	-147,536	0,085	-0,005
-449,153	-64,912	-0,062	-0,018
-448,138	-25,798	0,124	-0,053
-447,124	-200,000	0,009	-0,111
-446,109	-200,000	0,019	0,069
-445,095	-34,480	-0,079	-0,032
-444,080	402,093	-0,076	0,116
-443,065	-60,739	-0,085	0,026
-442,051	-16,598	-0,013	-0,006
-441,036	313,204	0,040	-0,054
-440,022	254,045	0,021	-0,026
-439,007	163,430	-0,072	-0,073
-437,992	261,848	0,039	0,049
-436,978	800,000	0,099	0,212
-435,963	6,128	-0,103	-0,055
-434,949	-88,719	0,115	0,025
-433,934	800,000	0,030	-0,096
-432,919	286,385	0,045	-0,059
-431,905	484,699	0,039	0,065
-430,890	78,963	0,089	0,069
-429,876	-196,206	0,097	0,000
-428,861	-87,354	0,190	0,042
-427,846	-142,161	0,049	0,003
-426,832	-174,088	-0,076	0,002
-425,817	800,000	-0,041	0,090
-424,803	712,856	0,021	0,040
-423,788	95,325	0,014	-0,012
-422,773	796,473	-0,079	0,159
-421,759	-200,000	0,058	0,215
-420,744	800,000	-0,016	-0,039
-419,730	131,080	0,092	-0,086
-418,715	-63,032	-0,076	-0,023
-417,701	-200,000	0,013	-0,043
-416,686	434,801	0,030	-0,048
-415,671	666,898	0,029	0,056
-414,657	-200,000	-0,009	0,103
-413,642	-121,503	0,081	-0,010
-412,628	276,185	-0,025	-0,032
-411,613	-104,155	-0,025	0,004
-410,598	-127,882	-0,157	-0,016
-409,584	30,121	-0,091	0,057
-408,569	-200,000	0,002	-0,058
-407,555	-40,670	0,151	0,057
-406,540	-200,000	-0,003	-0,061
-405,525	-15,143	-0,074	-0,035
-404,511	-200,000	0,002	0,092
-403,496	253,085	-0,044	-0,055
-402,482	-200,000	0,028	-0,202
-401,467	800,000	0,037	-0,106
-400,452	-39,201	0,071	-0,027
-399,438	77,519	-0,051	0,039
-398,423	-200,000	0,027	-0,108
-397,409	87,043	-0,038	0,030
-396,394	43,957	0,024	-0,016
-395,379	-200,000	-0,007	-0,072
-394,365	159,141	0,084	-0,086
-393,350	80,880	0,120	-0,094
-392,336	-46,081	0,099	0,035
-391,321	131,010	0,006	-0,005
-390,306	-129,862	-0,155	0,015
-389,292	592,577	0,067	-0,122
-388,277	-200,000	0,010	-0,068
-387,263	-200,000	-0,001	0,089
-386,248	137,892	-0,066	0,063
-385,233	646,977	-0,052	0,097
-384,219	800,000	-0,015	-0,045
-383,204	-200,000	-0,012	-0,042
-382,190	359,182	-0,008	-0,011
-381,175	800,000	-0,068	-0,140
-380,160	16,228	-0,093	0,053
-379,146	146,157	-0,068	0,066
-378,131	-200,000	0,002	-0,028
-377,117	-29,074	-0,032	0,013
-376,102	-200,000	-0,032	-0,131
-375,088	85,218	0,101	-0,081
-374,073	24,349	0,102	0,061
-373,058	472,456	0,054	0,089
-372,044	73,038	0,079	-0,060
-371,029	-200,000	-0,026	0,136
-370,015	-170,151	-0,166	0,004
-369,000	800,000	0,046	-0,119
-367,985	175,194	-0,085	0,089
-366,971	-2,435	-0,114	0,058
-365,956	-69,789	0,095	0,026
-364,942	-65,582	0,052	0,015
-363,927	89,624	0,095	0,077
-362,912	183,575	0,008	0,008
-361,898	55,476	-0,065	-0,046
-360,883	-80,314	-0,099	0,024
-359,869	800,000	-0,048	-0,140
-358,854	99,465	-0,045	-0,038
-357,839	-21,820	-0,057	0,025
-356,825	-200,000	0,011	0,144
-355,810	-200,000	-0,002	-0,034
-354,796	-143,638	0,082	0,006
-353,781	800,000	0,024	0,068
-352,766	-126,487	-0,092	-0,010
-351,752	-56,474	0,104	0,033
-350,737	90,689	0,159	0,129
-349,723	379,550	0,033	0,049
-348,708	35,839	-0,112	0,071
-347,693	679,927	0,030	-0,058
-346,679	95,369	-0,078	-0,065
-345,664	137,408	-0,118	-0,112
-344,650	-200,000	-0,005	0,051
-343,635	800,000	-0,044	0,128
-342,620	26,955	0,036	-0,022
-341,606	270,188	0,054	-0,070
-340,591	55,212	0,024	-0,017
-339,577	26,564	0,067	0,041
-338,562	-10,640	-0,107	-0,051
-337,548	-200,000	0,034	0,112
-336,533	800,000	0,048	0,120
-335,518	800,000	0,026	-0,070
-334,504	-106,889	0,213	-0,034
-333,489	8,364	-0,087	-0,047
-332,475	800,000	0,012	-0,025
-331,460	-91,127	-0,101	-0,021
-330,445	27,777	0,136	-0,083
-329,431	-200,000	0,003	-0,098
-328,416	-200,000	-0,001	-0,070
-327,402	194,069	-0,053	0,058
-326,387	-108,810	0,120	0,019
-325,372	-82,681	-0,058	0,013
-324,358	-200,000	0,010	-0,065
-323,343	800,000	-0,062	-0,139
-322,329	359,397	0,054	0,079
-321,314	82,115	-0,082	0,064
-320,299	-121,893	0,121	-0,014
-319,285	-200,000	0,005	0,182
-318,270	-58,810	-0,157	-0,049
-317,256	323,783	0,102	-0,142
-316,241	-70,756	0,062	-0,017
-315,226	-62,475	-0,063	-0,019
-314,212	800,000	0,040	-0,081
-313,197	-200,000	-0,020	-0,106
-312,183	-4,827	0,045	0,022
-311,168	-200,000	0,017	-0,055
-310,153	-96,169	-0,130	0,025
-309,139	-39,364	0,028	-0,011
-308,124	-92,268	0,085	0,017
-307,110	-200,000	-0,011	0,052
-306,095	456,384	0,020	0,033
-305,080	-200,000	0,057	0,186
-304,066	677,078	-0,008	-0,014
-303,051	-200,000	-0,033	-0,140
-302,037	666,709	0,019	0,036
-301,022	73,203	0,033	-0,025
-300,008	476,808	0,021	-0,035
-298,993	107,558	-0,042	0,036
-297,978	385,627	0,047	0,070
-296,964	-74,669	-0,086	-0,022
-295,949	105,545	-0,126	-0,108
-294,935	370,841	-0,032	0,048
-293,920	-42,900	0,095	-0,035
-292,905	800,000	-0,016	0,043
-291,891	-200,000	0,002	0,067
-290,876	-200,000	-0,004	-0,016
-289,862	623,998	0,036	-0,067
-288,847	-71,991	0,075	0,020
-287,832	-200,000	0,009	0,036
-286,818	-200,000	0,009	0,059
-285,803	-200,000	0,013	-0,069
-284,789	-133,405	0,062	0,006
-283,774	-46,470	-0,104	0,037
-282,759	-200,000	-0,002	-0,099
-281,745	-200,000	0,015	0,087
-280,730	631,314	0,074	0,136
-279,716	145,094	-0,023	-0,022
-278,701	134,429	0,114	-0,107
-277,686	-36,336	0,134	0,052
-276,672	-87,824	-0,071	0,015
-275,657	731,824	-0,037	-0,073
-274,643	95,322	-0,079	-0,065
-273,628	800,000	0,023	-0,071
-272,613	743,664	0,018	-0,035
-271,599	414,593	-0,055	-0,086
-270,584	20,244	0,115	0,067
-269,570	-200,000	-0,027	0,087
-268,555	800,000	-0,029	0,090
-267,540	-200,000	-0,040	-0,174
-266,526	-200,000	-0,005	-0,044
-265,511	-153,907	-0,136	0,007
-264,497	185,331	0,081	0,087
-263,482	57,129	0,089	0,063
-262,467	557,549	-0,120	0,210
-261,453	-35,579	-0,097	-0,038
-260,438	-101,843	0,112	-0,019
-259,424	-200,000	-0,002	-0,094
-258,409	314,202	-0,062	-0,085
-257,395	502,981	0,055	0,093
-256,380	170,355	0,070	-0,072
-255,365	33,668	-0,067	0,042
-254,351	343,003	-0,045	-0,064
-253,336	139,545	0,068	-0,065
-252,322	-200,000	0,030	-0,101
-251,307	62,597	-0,055	0,040
-250,292	-200,000	-0,029	-0,125
-249,278	-93,023	-0,034	0,007
-248,263	-180,200	0,118	-0,002
-247,249	-200,000	-0,002	-0,049
-246,234	-128,792	-0,090	0,009
-245,219	-58,819	0,091	-0,028
-244,205	-53,007	-0,030	-0,010
-243,190	97,901	-0,040	-0,033
-242,176	141,252	0,052	0,050
-241,161	462,128	0,035	0,057
-240,146	224,843	0,099	0,116
-239,132	405,415	-0,070	-0,107
-238,117	-131,626	0,119	-0,011
-237,103	-200,000	-0,026	0,094
-236,088	-200,000	-0,034	-0,174
-235,073	-200,000	-0,003	0,080
-234,059	182,243	0,072	-0,077
-233,044	678,167	-0,036	-0,068
-232,030	589,284	0,061	-0,109
-231,015	416,402	-0,063	-0,097
-230,000	-200,000	0,002	0,098
-228,986	256,809	-0,052	0,064
-227,971	84,059	0,027	-0,021
-226,957	-64,291	0,066	-0,019
-225,942	-200,000	0,022	-0,080
-224,927	-24,124	-0,105	0,045
-223,913	800,000	0,017	0,045
-222,898	66,033	-0,101	0,074
-221,884	-118,112	0,170	0,022
-220,869	-136,112	0,113	-0,009
-219,855	800,000	0,006	-0,013
-218,840	-200,000	-0,008	0,066
-217,825	506,449	0,079	0,134
-216,811	60,879	-0,033	-0,024
-215,796	120,803	-0,062	-0,055
-214,782	13,642	-0,079	0,044
-213,767	-128,327	-0,046	-0,005
-212,752	325,396	0,101	0,140
-211,738	-77,031	-0,078	0,020
-210,723	-200,000	0,027	0,140
-209,709	-42,326	-0,085	-0,031
-208,694	-200,000	-0,030	-0,146
-207,679	52,992	-0,047	-0,032
-206,665	-34,084	0,089	0,035
-205,650	-200,000	0,029	-0,205
-204,636	207,657	-0,038	0,043
-203,621	-6,545	-0,088	0,043
-202,606	35,683	0,045	-0,028
-201,592	-200,000	0,022	-0,139
-200,577	800,000	0,007	-0,016
-199,563	422,796	0,056	-0,087
-198,548	800,000	-0,039	0,104
-197,533	-200,000	-0,006	0,040
-196,519	-200,000	-0,003	0,050
-195,504	58,261	-0,079	-0,056
-194,490	32,767	-0,090	-0,056
-193,475	-159,120	-0,131	0,005
-192,460	-120,579	0,075	-0,009
-191,446	90,973	0,063	0,051
-190,431	10,089	-0,061	0,034
-189,417	-200,000	-0,029	0,124
-188,402	116,010	-0,086	0,076
-187,387	-57,319	-0,126	-0,040
-186,373	-12,335	-0,060	0,028
-185,358	-200,000	-0,008	-0,038
-184,344	-200,000	-0,001	-0,076
-183,329	-12,925	0,133	0,062
-182,315	-75,075	-0,221	0,057
-181,300	-197,212	-0,114	0,001
-180,285	-200,000	0,001	-0,052
-179,271	-90,963	-0,159	0,033
-178,256	-182,419	0,088	-0,001
-177,242	-100,753	0,128	-0,023
-176,227	587,224	0,026	-0,046
-175,212	429,161	0,026	-0,040
-174,198	-123,872	0,065	-0,007
-173,183	38,926	-0,101	-0,065
-172,169	46,970	-0,030	-0,020
-171,154	-200,000	0,015	0,169
-170,139	800,000	0,078	0,206
-169,125	-152,492	0,164	-0,008
-168,110	24,618	0,116	-0,069
-167,096	-122,683	-0,107	-0,012
-166,081	-200,000	0,019	0,096
-165,066	-200,000	0,003	-0,019
-164,052	-148,750	-0,115	0,007
-163,037	45,711	-0,066	-0,044
-162,023	179,615	0,056	-0,059
-161,008	-200,000	0,022	0,070
-159,993	85,819	0,096	-0,076
-158,979	-178,111	-0,108	0,002
-157,964	-200,000	0,013	-0,084
-156,950	44,638	-0,135	0,089
-155,935	-200,000	0,035	0,179
-154,920	9,125	-0,081	0,044
-153,906	63,537	-0,010	0,007
-152,891	238,175	0,057	0,068
-151,877	157,416	-0,052	0,052
-150,862	-200,000	-0,012	-0,099
-149,847	-200,000	0,005	-0,043
-148,833	476,995	0,090	0,148
-147,818	-200,000	0,007	-0,105
-146,804	-12,845	-0,123	0,058
-145,789	-87,850	0,044	-0,009
-144,775	795,589	-0,078	-0,155
-143,760	226,099	-0,039	-0,046
-142,745	28,503	-0,041	-0,025
-141,731	46,301	0,120	0,080
-140,716	800,000	-0,036	-0,103
-139,702	-131,956	-0,078	-0,007
-138,687	800,000	0,042	0,111
-137,672	60,648	0,117	-0,084
-136,658	-82,826	-0,168	0,039
-135,643	730,519	0,042	-0,082
-134,629	143,074	0,152	-0,146
-133,614	195,952	-0,044	0,048
-132,599	-115,800	0,136	0,018
-131,585	-28,027	-0,118	0,049
-130,570	-97,345	0,070	-0,013
-129,556	15,787	0,023	0,013
-128,541	221,266	-0,077	0,089
-127,526	-63,481	0,033	-0,010
-126,512	42,730	0,142	0,093
-125,497	85,953	0,069	-0,054
-124,483	-150,886	-0,028	0,001
-123,468	-200,000	0,003	0,079
-122,453	-68,064	-0,116	-0,032
-121,439	800,000	0,030	-0,087
-120,424	-171,113	-0,092	-0,002
-119,410	-42,888	-0,027	-0,010
