DTS Sentinel unit serial number:	SN410029Multiplexer serial number:	ORYXHardware model number:	OX2-SRSoftware version number:	ORYX F/W v4,00 Oryx Data Collector v3.7.2.0data status	okinstallation	B5 Nyhavnadifferential loss correction	single-endedforward channel	channel 2reverse channel	N/Adate	2023/12/11time	21:27:13forward acquisition time	300,00reverse acquisition time	0,00gamma	499,1914k internal	0,3156k external	0,3156temperature offset calibration	1,0000default loss term (dB/km)	0,3820temperature slope calibration	1,0000multiplexer offset coefficient	1,0000multiplexer slope coefficient	1,0000fibre end	0,00T internal ref (°C)	16,22T ext. ref 1 (°C)	0,21T ext. ref 2 (°C)	-0,01length (m)	temperature (°C)	Stokes	anti-Stokes-744,400	-200,000	0,015	0,117
-743,385	-140,691	-0,269	-0,020
-742,371	-58,446	0,173	0,055
-741,356	-88,102	-0,188	-0,041
-740,342	-200,000	0,006	0,065
-739,327	-62,496	-0,207	0,063
-738,312	-200,000	0,004	-0,148
-737,298	-167,833	-0,213	0,006
-736,283	-76,150	0,268	0,069
-735,269	-49,601	-0,261	0,091
-734,254	19,791	0,089	-0,053
-733,239	-105,790	-0,499	-0,082
-732,225	-69,715	0,310	0,087
-731,210	-163,246	0,009	-0,000
-730,196	-68,701	0,064	-0,018
-729,181	-200,000	0,009	-0,075
-728,167	-200,000	-0,003	-0,021
-727,152	-157,687	-0,142	-0,006
-726,137	-200,000	0,016	-0,110
-725,123	241,944	0,009	-0,012
-724,108	1,090	0,077	-0,041
-723,094	-38,433	-0,169	-0,066
-722,079	-200,000	0,038	-0,128
-721,064	-132,553	0,097	-0,009
-720,050	-200,000	0,019	-0,121
-719,035	-57,093	-0,075	-0,024
-718,021	212,440	-0,079	0,092
-717,006	72,549	-0,049	-0,037
-715,991	-1,855	-0,053	-0,027
-714,977	-69,946	-0,053	-0,015
-713,962	-200,000	0,000	0,056
-712,948	-200,000	-0,016	0,054
-711,933	80,171	-0,109	-0,086
-710,918	-41,627	0,046	0,018
-709,904	800,000	0,070	-0,154
-708,889	-4,323	0,072	-0,036
-707,875	-155,097	-0,070	0,003
-706,860	368,142	-0,005	0,007
-705,845	5,839	0,021	0,011
-704,831	16,424	0,133	-0,077
-703,816	10,869	-0,074	-0,042
-702,802	301,239	0,077	0,105
-701,787	-89,576	-0,175	0,037
-700,772	800,000	0,009	0,027
-699,758	-124,049	-0,075	0,009
-698,743	800,000	0,026	-0,066
-697,729	-75,226	-0,050	-0,013
-696,714	-3,087	-0,097	0,050
-695,699	-55,240	0,080	0,026
-694,685	-200,000	0,009	0,036
-693,670	-30,261	-0,137	-0,057
-692,656	-87,914	-0,115	0,025
-691,641	-200,000	-0,008	0,037
-690,627	-89,159	0,125	-0,027
-689,612	-200,000	-0,011	-0,052
-688,597	-200,000	-0,035	-0,133
-687,583	800,000	-0,055	-0,159
-686,568	-7,082	0,125	0,062
-685,554	0,939	0,144	-0,076
-684,539	800,000	-0,038	0,103
-683,524	75,432	0,116	0,090
-682,510	2,288	0,040	0,021
-681,495	135,914	-0,108	-0,104
-680,481	800,000	-0,020	-0,060
-679,466	720,493	-0,034	-0,067
-678,451	125,175	0,063	0,059
-677,437	-23,665	0,096	-0,042
-676,422	800,000	0,050	-0,141
-675,408	-57,173	-0,051	0,016
-674,393	200,457	0,015	0,017
-673,378	26,783	-0,026	0,016
-672,364	800,000	0,011	-0,028
-671,349	-150,918	0,119	0,007
-670,335	-99,031	0,056	-0,010
-669,320	800,000	0,042	0,126
-668,305	105,647	0,079	0,068
-667,291	800,000	-0,017	0,036
-666,276	319,472	-0,062	-0,086
-665,262	-2,189	-0,147	0,076
-664,247	800,000	-0,028	0,077
-663,232	11,894	-0,029	-0,016
-662,218	-52,511	-0,068	0,023
-661,203	32,342	0,067	-0,043
-660,189	-47,435	0,067	-0,024
-659,174	-139,561	-0,057	0,004
-658,159	48,555	-0,073	0,051
-657,145	800,000	-0,049	-0,123
-656,130	-200,000	0,029	0,148
-655,116	617,736	-0,020	-0,037
-654,101	-32,868	0,093	-0,038
-653,086	-114,650	-0,108	0,015
-652,072	-78,823	-0,018	-0,004
-651,057	-200,000	0,006	-0,076
-650,043	800,000	0,017	0,047
-649,028	800,000	-0,029	0,077
-648,014	263,739	-0,096	-0,122
-646,999	-200,000	-0,004	-0,018
-645,984	300,644	0,086	-0,117
-644,970	800,000	-0,021	-0,063
-643,955	-200,000	-0,064	-0,213
-642,941	800,000	-0,025	-0,070
-641,926	800,000	0,020	-0,045
-640,911	63,398	-0,031	-0,023
-639,897	800,000	-0,014	0,033
-638,882	16,114	0,051	-0,030
-637,868	-87,387	-0,103	0,023
-636,853	-36,970	-0,115	-0,045
-635,838	800,000	-0,021	0,051
-634,824	87,111	-0,034	0,028
-633,809	-63,248	-0,065	0,020
-632,795	413,077	0,136	0,213
-631,780	-200,000	-0,018	0,069
-630,765	325,535	-0,033	-0,046
-629,751	-55,694	-0,055	0,018
-628,736	536,184	-0,044	0,077
-627,722	-200,000	-0,015	0,085
-626,707	-200,000	-0,011	0,057
-625,692	373,536	0,030	0,045
-624,678	-30,792	0,076	-0,031
-623,663	310,613	0,068	-0,094
-622,649	800,000	0,022	-0,055
-621,634	247,771	0,049	-0,060
-620,619	218,515	-0,044	-0,052
-619,605	20,973	0,095	-0,056
-618,590	800,000	0,054	-0,148
-617,576	119,833	0,088	0,080
-616,561	800,000	0,021	-0,054
-615,546	-118,300	0,031	0,004
-614,532	-171,349	-0,056	-0,001
-613,517	-99,876	-0,094	-0,017
-612,503	54,966	-0,157	0,111
-611,488	-97,798	0,061	-0,011
-610,474	122,957	0,105	0,096
-609,459	-55,557	-0,176	0,057
-608,444	-39,105	-0,052	0,020
-607,430	-200,000	-0,003	-0,120
-606,415	72,533	-0,122	0,094
-605,401	767,908	0,043	-0,086
-604,386	614,293	-0,029	-0,054
-603,371	-134,173	-0,080	0,007
-602,357	-65,808	-0,045	-0,013
-601,342	95,596	0,037	0,031
-600,328	455,212	-0,020	-0,033
-599,313	-200,000	0,001	0,098
-598,298	49,572	-0,081	0,056
-597,284	-33,565	0,088	0,035
-596,269	800,000	0,039	0,086
-595,255	254,762	-0,061	0,076
-594,240	-23,313	-0,055	0,024
-593,225	242,858	0,045	-0,055
-592,211	-84,778	-0,165	-0,038
-591,196	635,720	0,085	0,159
-590,182	-67,355	0,085	0,024
-589,167	166,324	0,026	0,027
-588,152	800,000	0,007	0,019
-587,138	57,493	-0,042	-0,030
-586,123	-200,000	0,007	0,026
-585,109	135,820	-0,133	-0,127
-584,094	-200,000	0,006	-0,073
-583,079	-8,787	0,112	0,055
-582,065	116,791	0,005	-0,005
-581,050	4,308	-0,043	-0,023
-580,036	15,742	0,149	-0,086
-579,021	-44,006	0,139	0,051
-578,006	-200,000	-0,016	-0,085
-576,992	104,181	-0,096	0,083
-575,977	-200,000	0,002	-0,032
-574,963	249,492	0,056	0,070
-573,948	800,000	-0,020	0,048
-572,934	-154,122	0,117	0,006
-571,919	166,771	-0,037	-0,039
-570,904	-75,165	-0,127	0,033
-569,890	126,156	-0,018	-0,017
-568,875	-98,167	0,219	0,041
-567,861	464,379	-0,051	0,085
-566,846	-200,000	0,020	0,108
-565,831	800,000	-0,031	0,101
-564,817	2,769	-0,104	-0,055
-563,802	220,777	0,070	-0,083
-562,788	146,794	0,169	-0,167
-561,773	-78,184	-0,132	0,033
-560,758	79,263	-0,036	0,028
-559,744	478,239	0,042	-0,070
-558,729	391,820	-0,083	0,127
-557,715	-200,000	-0,003	0,069
-556,700	222,596	-0,062	-0,073
-555,685	417,469	0,030	-0,046
-554,671	-200,000	0,008	0,096
-553,656	588,501	0,121	-0,220
-552,642	84,845	-0,164	0,132
-551,627	-200,000	-0,033	0,123
-550,612	288,783	-0,062	-0,082
-549,598	236,942	-0,035	-0,042
-548,583	5,393	-0,078	0,042
-547,569	-29,616	0,081	-0,034
-546,554	276,089	0,045	0,058
-545,539	-142,718	-0,154	0,011
-544,525	-200,000	0,013	0,071
-543,510	-200,000	0,040	-0,205
-542,496	-200,000	-0,005	-0,133
-541,481	141,532	-0,039	-0,038
-540,466	260,594	0,098	-0,124
-539,452	-140,594	0,084	0,006
-538,437	29,915	0,075	0,047
-537,423	-80,045	0,072	0,018
-536,408	800,000	0,031	0,090
-535,393	274,300	-0,007	0,009
-534,379	800,000	-0,050	0,152
-533,364	-61,781	-0,034	-0,010
-532,350	80,122	-0,062	0,049
-531,335	163,273	0,075	0,077
-530,321	-200,000	0,012	-0,079
-529,306	-126,214	0,180	0,019
-528,291	-136,893	-0,076	-0,006
-527,277	43,215	0,050	0,034
-526,262	-172,726	0,057	-0,001
-525,248	-200,000	0,008	0,028
-524,233	639,105	-0,063	0,118
-523,218	-80,906	-0,111	0,027
-522,204	-62,869	-0,085	0,026
-521,189	-119,544	-0,086	-0,011
-520,175	143,320	0,031	-0,030
-519,160	-23,846	0,151	-0,066
-518,145	186,784	-0,017	-0,019
-517,131	-200,000	0,004	0,056
-516,116	369,003	0,059	0,088
-515,102	34,597	-0,128	-0,081
-514,087	90,599	-0,124	0,102
-513,072	-89,911	-0,155	0,033
-512,058	67,790	-0,075	-0,056
-511,043	-102,352	0,129	-0,022
-510,029	181,260	0,048	0,052
-509,014	-12,542	-0,128	0,061
-507,999	-200,000	0,011	0,088
-506,985	329,213	-0,103	-0,145
-505,970	-200,000	0,015	-0,095
-504,956	-200,000	-0,023	-0,150
-503,941	27,205	0,132	-0,081
-502,926	-68,692	-0,084	-0,023
-501,912	38,452	0,068	0,044
-500,897	557,079	0,019	0,033
-499,883	349,161	-0,017	-0,025
-498,868	175,951	-0,038	-0,041
-497,853	175,189	-0,072	-0,076
-496,839	-200,000	0,012	0,041
-495,824	-200,000	-0,026	0,111
-494,810	209,157	-0,101	0,116
-493,795	800,000	-0,045	0,105
-492,781	-174,759	0,045	0,001
-491,766	-119,777	-0,053	-0,007
-490,751	539,007	-0,021	-0,036
-489,737	74,425	-0,010	0,008
-488,722	-200,000	-0,008	0,086
-487,708	221,705	0,054	0,064
-486,693	800,000	-0,042	-0,128
-485,678	-17,785	-0,052	-0,024
-484,664	-39,326	-0,110	-0,042
-483,649	37,724	0,088	0,057
-482,635	800,000	0,057	-0,152
-481,620	161,081	0,151	-0,154
-480,605	286,978	0,041	-0,055
-479,591	800,000	0,019	0,047
-478,576	630,643	0,017	-0,031
-477,562	-200,000	0,004	-0,094
-476,547	67,190	0,115	-0,086
-475,532	-200,000	-0,013	-0,202
-474,518	800,000	0,035	-0,093
-473,503	-53,387	-0,093	0,031
-472,489	800,000	0,007	0,021
-471,474	257,484	-0,121	-0,152
-470,459	800,000	0,025	-0,075
-469,445	-43,865	0,074	0,027
-468,430	-190,457	0,063	0,000
-467,416	32,756	-0,111	0,070
-466,401	-200,000	0,047	0,166
-465,386	59,657	0,113	0,082
-464,372	-200,000	0,000	0,034
-463,357	390,906	0,022	-0,033
-462,343	129,620	-0,085	-0,080
-461,328	-77,054	0,051	0,013
-460,313	-200,000	0,001	0,033
-459,299	86,078	-0,046	-0,037
-458,284	-200,000	0,001	0,112
-457,270	131,384	0,007	0,007
-456,255	-200,000	-0,019	-0,066
-455,241	-200,000	-0,012	-0,064
-454,226	800,000	-0,063	-0,169
-453,211	623,003	-0,046	-0,085
-452,197	69,225	0,037	-0,028
-451,182	800,000	-0,010	-0,030
-450,168	-200,000	0,019	-0,123
-449,153	-93,903	0,052	0,010
-448,138	-200,000	-0,008	0,039
-447,124	279,835	0,074	-0,097
-446,109	17,706	0,108	-0,063
-445,095	-200,000	0,019	0,071
-444,080	300,002	0,016	0,021
-443,065	-81,371	-0,230	0,055
-442,051	800,000	-0,033	-0,088
-441,036	800,000	-0,035	-0,083
-440,022	800,000	-0,041	-0,093
-439,007	800,000	-0,010	-0,023
-437,992	217,192	0,128	-0,148
-436,978	-33,872	-0,079	0,032
-435,963	-200,000	0,002	-0,061
-434,949	-158,034	-0,054	0,002
-433,934	-200,000	-0,019	-0,069
-432,919	-200,000	0,019	0,064
-431,905	-89,898	-0,060	-0,013
-430,890	60,107	-0,069	0,050
-429,876	16,116	0,083	0,047
-428,861	-161,013	-0,020	0,001
-427,846	800,000	0,071	0,168
-426,832	-120,024	-0,135	-0,017
-425,817	800,000	-0,024	0,053
-424,803	291,455	0,071	0,094
-423,788	258,367	-0,058	0,073
-422,773	-80,812	0,100	0,024
-421,759	112,882	-0,041	0,036
-420,744	-32,616	0,111	0,045
-419,730	8,274	0,115	-0,063
-418,715	10,426	0,112	-0,062
-417,701	-200,000	0,013	-0,068
-416,686	-200,000	0,006	-0,038
-415,671	-85,445	-0,057	0,013
-414,657	-200,000	0,014	0,121
-413,642	56,347	0,043	-0,030
-412,628	-200,000	0,015	0,067
-411,613	-29,807	0,055	-0,023
-410,598	176,950	-0,042	-0,044
-409,584	113,224	-0,043	0,038
-408,569	-200,000	-0,010	0,040
-407,555	213,410	-0,131	0,150
-406,540	800,000	0,038	0,088
-405,525	24,470	-0,020	0,012
-404,511	302,718	-0,029	0,039
-403,496	-200,000	0,021	0,116
-402,482	-56,984	-0,113	0,036
-401,467	512,915	-0,019	0,033
-400,452	-148,521	-0,040	-0,002
-399,438	-107,118	0,024	-0,004
-398,423	-200,000	0,012	0,110
-397,409	-69,095	0,067	0,019
-396,394	56,790	-0,052	0,037
-395,379	-6,445	-0,053	0,026
-394,365	628,453	0,036	0,067
-393,350	-74,186	0,113	-0,030
-392,336	-36,510	-0,028	-0,011
-391,321	-115,863	-0,081	-0,011
-390,306	64,279	-0,098	0,071
-389,292	381,778	-0,041	0,062
-388,277	-82,773	-0,231	-0,054
-387,263	800,000	0,016	-0,039
-386,248	-178,527	0,165	0,003
-385,233	-200,000	0,008	0,070
-384,219	97,916	0,062	-0,052
-383,204	-200,000	-0,004	0,033
-382,190	147,598	0,036	-0,035
-381,175	380,678	0,045	-0,068
-380,160	-9,547	0,102	-0,049
-379,146	-155,419	-0,102	0,005
-378,131	130,881	0,049	-0,046
-377,117	800,000	-0,027	0,084
-376,102	-200,000	-0,010	-0,062
-375,088	688,336	-0,020	0,038
-374,073	-200,000	-0,021	0,082
-373,058	38,470	0,153	0,099
-372,044	-200,000	0,015	-0,063
-371,029	467,896	0,054	-0,088
-370,015	-137,669	-0,067	-0,005
-369,000	116,815	-0,073	0,065
-367,985	-200,000	0,007	-0,055
-366,971	-200,000	0,029	-0,111
-365,956	-200,000	0,002	-0,056
-364,942	800,000	0,018	-0,047
-363,927	800,000	0,044	0,135
-362,912	116,929	-0,116	-0,103
-361,898	-200,000	0,029	0,102
-360,883	-37,866	-0,089	0,034
-359,869	-39,821	0,057	0,022
-358,854	800,000	0,015	0,037
-357,839	-200,000	0,021	0,073
-356,825	-88,039	-0,042	-0,009
-355,810	-200,000	0,003	0,056
-354,796	-166,399	-0,107	0,003
-353,781	800,000	0,000	-0,001
-352,766	130,117	0,092	-0,086
-351,752	164,943	0,048	0,049
-350,737	-158,057	0,133	-0,006
-349,723	-59,661	0,143	0,044
-348,708	-200,000	-0,022	0,073
-347,693	-64,048	0,067	0,020
-346,679	-200,000	0,003	-0,115
-345,664	-200,000	-0,007	-0,025
-344,650	201,170	0,150	0,168
-343,635	643,695	-0,026	-0,048
-342,620	197,223	0,040	0,044
-341,606	-200,000	0,009	-0,099
-340,591	-26,946	-0,148	-0,062
-339,577	5,995	0,131	0,070
-338,562	248,100	0,031	-0,038
-337,548	-98,290	0,091	0,017
-336,533	-54,138	0,067	0,022
-335,518	800,000	0,049	-0,107
-334,504	-174,107	-0,060	0,001
-333,489	-200,000	-0,030	0,140
-332,475	-104,832	0,177	0,029
-331,460	-200,000	-0,041	-0,161
-330,445	644,840	0,009	-0,018
-329,431	-38,069	0,062	-0,024
-328,416	-200,000	0,001	0,133
-327,402	-200,000	0,005	0,165
-326,387	-10,565	-0,045	-0,021
-325,372	-50,882	0,078	-0,026
-324,358	66,615	0,093	-0,068
-323,343	420,854	-0,089	-0,138
-322,329	202,832	0,011	0,012
-321,314	-104,920	0,143	0,024
-320,299	596,004	-0,057	-0,103
-319,285	229,289	0,035	-0,042
-318,270	210,554	0,048	-0,055
-317,256	518,058	-0,070	-0,119
-316,241	-62,772	0,104	-0,031
-315,226	284,677	0,128	0,167
-314,212	261,220	0,037	0,046
-313,197	800,000	0,025	-0,051
-312,183	581,749	0,070	0,124
-311,168	169,954	-0,089	-0,093
-310,153	-42,180	0,046	-0,017
-309,139	18,321	-0,114	-0,066
-308,124	371,609	0,016	0,023
-307,110	-34,662	0,058	-0,023
-306,095	363,552	0,080	0,117
-305,080	-200,000	-0,012	0,040
-304,066	240,853	-0,046	-0,055
-303,051	-200,000	-0,010	-0,073
-302,037	-47,253	0,075	0,026
-301,022	-42,204	0,020	0,007
-300,008	177,116	-0,096	-0,101
-298,993	-1,371	0,031	0,016
-297,978	-200,000	-0,013	0,132
-296,964	224,978	-0,076	-0,090
-295,949	-72,231	-0,054	-0,014
-294,935	113,965	-0,061	-0,053
-293,920	143,966	-0,059	-0,057
-292,905	-32,017	0,145	-0,059
-291,891	-36,652	0,088	-0,034
-290,876	-133,226	0,036	-0,003
-289,862	-200,000	-0,009	-0,173
-288,847	-117,409	-0,082	-0,011
-287,832	276,194	-0,091	0,117
-286,818	-200,000	0,001	0,055
-285,803	-35,946	0,041	-0,016
-284,789	-200,000	-0,001	0,059
-283,774	138,832	0,070	0,066
-282,759	196,001	-0,049	-0,054
-281,745	800,000	0,045	0,091
-280,730	800,000	-0,040	-0,084
-279,716	-138,906	0,097	-0,008
-278,701	-121,530	-0,040	-0,005
-277,686	501,204	-0,047	0,079
-276,672	169,342	-0,094	0,098
-275,657	-25,778	-0,089	0,038
-274,643	800,000	0,096	0,201
-273,628	-157,765	0,011	-0,000
-272,613	-70,653	-0,145	-0,040
-271,599	-128,639	0,037	-0,004
-270,584	557,654	0,066	0,116
-269,570	-109,139	0,102	-0,016
-268,555	-134,267	0,151	-0,013
-267,540	455,935	0,078	-0,125
-266,526	800,000	0,031	0,078
-265,511	-200,000	-0,093	0,000
-264,497	-130,569	0,047	0,005
-263,482	-47,638	0,086	0,030
-262,467	172,826	0,118	0,124
-261,453	184,861	0,068	0,073
-260,438	92,027	0,063	-0,051
-259,424	800,000	-0,030	-0,092
-258,409	556,660	-0,033	0,059
-257,395	-200,000	0,017	-0,070
-256,380	332,810	-0,025	0,035
-255,365	-200,000	0,025	0,098
-254,351	68,244	-0,166	0,123
-253,336	800,000	-0,047	0,103
-252,322	800,000	-0,104	-0,234
-251,307	800,000	-0,031	-0,087
-250,292	-101,648	0,092	-0,016
-249,278	90,641	-0,126	0,102
-248,263	26,388	0,067	-0,040
-247,249	-200,000	-0,017	0,142
-246,234	112,049	0,019	-0,017
-245,219	800,000	-0,034	0,096
-244,205	-200,000	-0,015	0,078
-243,190	243,796	-0,058	0,070
-242,176	617,249	-0,033	0,060
-241,161	800,000	-0,055	0,165
-240,146	-80,580	-0,076	-0,018
-239,132	347,802	0,028	-0,040
-238,117	23,545	0,103	-0,061
-237,103	800,000	-0,038	-0,099
-236,088	800,000	0,020	0,052
-235,073	-70,204	0,053	0,014
-234,059	177,698	0,101	0,107
-233,044	-200,000	0,031	0,161
-232,030	-138,789	-0,056	0,004
-231,015	-97,340	-0,160	-0,030
-230,000	-200,000	-0,018	-0,082
-228,986	753,083	-0,034	-0,066
-227,971	597,426	-0,031	-0,055
-226,957	424,887	0,063	0,098
-225,942	-86,244	0,039	-0,009
-224,927	-200,000	-0,002	0,071
-223,913	-200,000	0,005	0,043
-222,898	182,395	-0,014	-0,015
-221,884	-94,592	0,024	-0,005
-220,869	646,387	0,055	0,102
-219,855	72,596	0,066	-0,050
-218,840	-10,882	0,087	-0,041
-217,825	268,578	-0,062	-0,078
-216,811	-46,546	-0,083	0,029
-215,796	-200,000	0,019	-0,153
-214,782	305,413	0,139	-0,187
-213,767	-40,742	-0,134	-0,050
-212,752	56,447	0,101	-0,071
-211,738	377,518	-0,059	-0,088
-210,723	800,000	-0,028	0,084
-209,709	-200,000	0,034	-0,114
-208,694	800,000	0,030	-0,065
-207,679	-200,000	0,004	0,046
-206,665	-200,000	-0,005	-0,039
-205,650	-34,013	0,082	0,033
-204,636	-200,000	-0,007	0,029
-203,621	-98,834	-0,088	-0,016
-202,606	-22,756	-0,045	0,019
-201,592	86,583	0,023	0,018
-200,577	125,310	0,066	0,061
-199,563	800,000	0,032	-0,069
-198,548	-200,000	0,021	0,131
-197,533	118,701	0,031	0,028
-196,519	-64,651	0,053	-0,015
-195,504	315,712	-0,049	-0,066
-194,490	248,253	-0,054	-0,065
-193,475	11,204	-0,126	-0,069
-192,460	260,302	0,024	-0,030
-191,446	592,734	-0,059	-0,106
-190,431	104,239	0,136	-0,115
-189,417	282,450	-0,084	-0,109
-188,402	121,555	0,069	-0,062
-187,387	558,363	-0,037	-0,065
-186,373	-200,000	-0,038	0,178
-185,358	-67,637	-0,184	0,052
-184,344	-67,845	-0,051	0,014
-183,329	-52,824	0,185	0,061
-182,315	-129,100	-0,125	-0,012
-181,300	151,610	-0,024	-0,024
-180,285	800,000	0,027	0,056
-179,271	800,000	0,044	-0,090
-178,256	800,000	-0,020	0,057
-177,242	6,672	0,029	0,015
-176,227	442,503	0,077	0,122
-175,212	108,408	0,092	0,079
-174,198	154,256	-0,081	-0,081
-173,183	-149,251	-0,107	0,006
-172,169	-200,000	-0,009	-0,033
-171,154	-73,374	0,078	0,020
-170,139	-200,000	0,002	0,067
-169,125	800,000	0,024	-0,054
-168,110	-117,980	-0,064	-0,008
-167,096	-119,132	-0,189	-0,024
-166,081	647,636	-0,103	-0,191
-165,066	-48,765	-0,050	-0,017
-164,052	-200,000	-0,003	0,156
-163,037	89,396	0,024	0,019
-162,023	180,741	0,044	-0,046
-161,008	82,437	-0,046	-0,036
-159,993	-200,000	0,004	0,037
-158,979	204,983	-0,081	-0,091
-157,964	156,677	-0,035	-0,035
-156,950	2,165	0,092	0,048
-155,935	-70,746	-0,033	0,009
-154,920	-82,854	0,133	-0,031
-153,906	-17,949	-0,047	0,021
-152,891	776,369	-0,020	0,039
-151,877	-200,000	-0,010	-0,073
-150,862	18,170	-0,031	-0,018
-149,847	84,379	-0,093	-0,073
-148,833	-3,702	0,014	0,007
-147,818	204,251	0,120	0,134
-146,804	-200,000	0,034	0,140
-145,789	800,000	-0,029	-0,087
-144,775	614,965	0,031	-0,055
-143,760	159,096	-0,085	0,085
-142,745	800,000	0,028	0,057
-141,731	-148,578	-0,091	0,005
-140,716	-200,000	-0,026	0,104
-139,702	85,151	0,071	0,056
-138,687	-130,132	0,091	0,009
-137,672	-200,000	-0,009	0,045
-136,658	800,000	0,048	-0,097
-135,643	156,845	-0,031	-0,031
-134,629	800,000	-0,022	-0,050
-133,614	100,954	0,055	-0,046
-132,599	-200,000	0,033	0,217
-131,585	0,749	-0,068	0,035
-130,570	320,560	0,066	-0,091
-129,556	800,000	0,007	0,017
-128,541	800,000	-0,020	0,041
-127,526	404,670	0,080	-0,122
-126,512	-200,000	0,022	0,095
-125,497	115,150	-0,095	0,083
-124,483	-200,000	0,033	0,121
-123,468	687,924	-0,027	-0,050
-122,453	-200,000	0,014	-0,072
-121,439	-80,050	0,105	-0,025
-120,424	49,071	-0,056	0,038
-119,410	800,000	-0,038	-0,093
-118,395	-200,000	0,001	-0,010
