DTS Sentinel unit serial number:	SN410029Multiplexer serial number:	ORYXHardware model number:	OX2-SRSoftware version number:	ORYX F/W v4,00 Oryx Data Collector v3.7.2.0data status	okinstallation	B5 Nyhavnadifferential loss correction	single-endedforward channel	channel 2reverse channel	N/Adate	2023/12/14time	05:27:13forward acquisition time	300,00reverse acquisition time	0,00gamma	499,1914k internal	0,3157k external	0,3157temperature offset calibration	1,0000default loss term (dB/km)	0,3820temperature slope calibration	1,0000multiplexer offset coefficient	1,0000multiplexer slope coefficient	1,0000fibre end	0,00T internal ref (°C)	7,78T ext. ref 1 (°C)	-8,70T ext. ref 2 (°C)	-8,82length (m)	temperature (°C)	Stokes	anti-Stokes-744,400	292,563	0,129	0,174
-743,385	46,832	-0,255	-0,175
-742,371	-91,989	0,092	-0,019
-741,356	-32,251	-0,359	-0,147
-740,342	-57,663	0,169	0,054
-739,327	-119,737	-0,354	-0,044
-738,312	75,531	0,129	0,100
-737,298	-130,537	-0,453	-0,044
-736,283	-56,928	0,230	0,075
-735,269	-111,213	-0,222	-0,033
-734,254	48,954	0,055	0,038
-733,239	27,520	-0,632	-0,391
-732,225	103,367	0,178	0,154
-731,210	-200,000	0,019	-0,066
-730,196	11,587	0,084	0,047
-729,181	-200,000	0,024	-0,109
-728,167	-60,361	0,041	0,013
-727,152	-200,000	-0,008	0,047
-726,137	800,000	-0,042	-0,118
-725,123	-90,447	-0,125	0,026
-724,108	800,000	-0,015	-0,044
-723,094	-41,052	-0,088	0,033
-722,079	-200,000	-0,019	-0,061
-721,064	-62,746	0,117	0,036
-720,050	213,580	0,075	-0,087
-719,035	800,000	-0,049	-0,143
-718,021	800,000	-0,046	0,112
-717,006	-189,778	-0,145	0,001
-715,991	481,550	0,068	-0,114
-714,977	211,452	0,064	-0,074
-713,962	-98,105	-0,073	-0,014
-712,948	228,379	0,102	0,123
-711,933	-200,000	-0,004	0,185
-710,918	420,443	0,012	0,020
-709,904	-200,000	0,050	-0,192
-708,889	-200,000	-0,002	-0,117
-707,875	-83,191	-0,034	-0,008
-706,860	-130,416	-0,072	0,007
-705,845	-200,000	0,035	0,136
-704,831	167,277	0,092	-0,096
-703,816	243,268	-0,060	0,074
-702,802	800,000	-0,008	0,023
-701,787	-11,605	-0,109	-0,052
-700,772	65,708	0,061	0,046
-699,758	170,495	-0,046	-0,048
-698,743	1,951	0,065	0,034
-697,729	459,322	0,076	0,125
-696,714	-61,036	0,101	0,031
-695,699	75,752	-0,055	0,043
-694,685	-200,000	0,000	-0,004
-693,670	147,900	-0,024	-0,024
-692,656	800,000	-0,031	-0,085
-691,641	43,728	0,059	0,040
-690,627	-96,546	0,039	0,007
-689,612	326,617	0,052	0,073
-688,597	-58,710	0,074	-0,024
-687,583	-91,752	-0,123	-0,025
-686,568	-27,688	-0,148	-0,063
-685,554	32,685	0,029	-0,018
-684,539	-146,123	0,064	-0,004
-683,524	-72,309	-0,110	0,030
-682,510	75,249	0,068	-0,053
-681,495	-200,000	0,004	0,040
-680,481	-114,762	-0,100	-0,014
-679,466	133,833	-0,104	-0,099
-678,451	600,311	0,016	0,029
-677,437	-200,000	0,005	-0,054
-676,422	-104,447	0,133	0,022
-675,408	-160,694	-0,187	-0,007
-674,393	-119,930	0,133	-0,017
-673,378	370,052	-0,060	-0,090
-672,364	-200,000	-0,001	0,005
-671,349	-26,763	-0,153	0,066
-670,335	97,363	0,052	-0,044
-669,320	86,926	-0,048	0,039
-668,305	-159,784	0,044	-0,002
-667,291	800,000	0,028	0,069
-666,276	97,949	-0,036	0,031
-665,262	602,147	-0,108	-0,198
-664,247	800,000	-0,025	0,075
-663,232	233,602	0,037	0,045
-662,218	224,383	0,042	-0,051
-661,203	331,167	0,070	-0,100
-660,189	800,000	-0,033	0,100
-659,174	-63,645	-0,067	0,020
-658,159	69,053	-0,098	-0,074
-657,145	18,839	0,056	-0,033
-656,130	169,089	-0,003	-0,003
-655,116	-99,722	-0,075	0,014
-654,101	-55,247	0,130	-0,043
-653,086	293,417	-0,082	-0,110
-652,072	-163,226	-0,190	0,007
-651,057	37,364	-0,036	-0,023
-650,043	-200,000	-0,021	-0,120
-649,028	50,636	0,064	0,045
-648,014	-103,795	0,017	0,003
-646,999	800,000	-0,034	-0,107
-645,984	-26,908	-0,030	0,013
-644,970	-86,678	-0,052	-0,012
-643,955	60,870	-0,055	-0,040
-642,941	-200,000	-0,027	-0,222
-641,926	329,549	0,055	0,078
-640,911	-73,070	-0,069	-0,019
-639,897	30,510	0,099	0,062
-638,882	251,931	0,036	-0,046
-637,868	47,947	0,040	0,027
-636,853	-200,000	0,013	0,043
-635,838	-95,883	-0,038	-0,007
-634,824	800,000	-0,099	-0,211
-633,809	-200,000	0,005	-0,075
-632,795	800,000	-0,025	0,082
-631,780	25,693	0,047	0,029
-630,765	-110,695	-0,133	0,020
-629,751	-200,000	-0,007	-0,076
-628,736	655,945	-0,028	0,054
-627,722	800,000	-0,031	0,084
-626,707	54,546	0,077	0,054
-625,692	-32,669	0,104	0,042
-624,678	-200,000	-0,007	0,050
-623,663	275,305	0,039	0,051
-622,649	800,000	-0,055	0,119
-621,634	-71,320	0,057	-0,016
-620,619	-200,000	0,026	0,089
-619,605	-200,000	-0,016	0,156
-618,590	800,000	0,054	0,130
-617,576	-41,756	0,059	-0,022
-616,561	375,055	0,073	0,110
-615,546	61,287	-0,063	-0,046
-614,532	-99,826	-0,213	0,039
-613,517	239,561	0,053	-0,064
-612,503	58,182	-0,044	0,031
-611,488	-200,000	0,013	0,052
-610,474	82,944	-0,025	0,020
-609,459	600,223	-0,023	0,042
-608,444	180,748	-0,042	0,045
-607,430	295,674	0,035	-0,047
-606,415	800,000	0,016	-0,045
-605,401	-200,000	-0,031	-0,143
-604,386	286,663	0,007	-0,009
-603,371	109,065	0,021	0,019
-602,357	-89,970	0,065	-0,014
-601,342	266,303	0,058	0,075
-600,328	800,000	-0,039	0,114
-599,313	-200,000	0,040	-0,167
-598,298	-200,000	-0,006	-0,088
-597,284	-200,000	0,014	0,071
-596,269	800,000	-0,033	0,104
-595,255	-200,000	0,007	0,044
-594,240	124,020	0,027	-0,024
-593,225	-200,000	-0,019	-0,095
-592,211	-200,000	-0,025	-0,081
-591,196	111,980	0,035	0,031
-590,182	-200,000	-0,008	-0,073
-589,167	16,615	-0,154	0,089
-588,152	-10,077	0,018	0,009
-587,138	71,142	0,140	0,106
-586,123	26,356	-0,078	-0,047
-585,109	-200,000	-0,006	0,059
-584,094	-200,000	0,008	0,064
-583,079	-52,989	-0,067	-0,022
-582,065	-200,000	-0,016	0,085
-581,050	-44,159	0,062	-0,023
-580,036	-200,000	0,027	-0,099
-579,021	2,171	0,124	-0,065
-578,006	359,626	0,041	-0,060
-576,992	800,000	0,051	-0,155
-575,977	158,160	-0,041	0,042
-574,963	-36,810	0,095	-0,037
-573,948	-164,398	-0,140	0,005
-572,934	-100,037	0,057	0,010
-571,919	365,393	0,043	0,064
-570,904	-44,665	-0,133	0,048
-569,890	-200,000	0,000	0,054
-568,875	194,873	-0,042	-0,047
-567,861	-16,210	-0,059	-0,027
-566,846	-200,000	0,018	0,115
-565,831	-110,694	0,046	0,007
-564,817	-200,000	-0,001	-0,027
-563,802	-122,504	-0,049	-0,006
-562,788	231,510	0,062	0,074
-561,773	-51,047	0,067	0,023
-560,758	-129,340	-0,147	0,015
-559,744	-181,090	0,042	-0,001
-558,729	77,368	0,072	0,056
-557,715	45,901	-0,104	-0,070
-556,700	-200,000	-0,009	-0,043
-555,685	800,000	-0,018	0,048
-554,671	688,549	0,057	-0,110
-553,656	-200,000	0,001	-0,041
-552,642	800,000	0,076	0,159
-551,627	398,047	0,009	0,014
-550,612	-200,000	-0,008	-0,068
-549,598	-200,000	0,042	-0,234
-548,583	-31,370	-0,011	0,005
-547,569	-200,000	-0,008	-0,034
-546,554	-41,450	0,064	0,024
-545,539	608,867	-0,105	-0,193
-544,525	-63,889	-0,070	0,021
-543,510	378,646	0,078	0,117
-542,496	-85,265	-0,137	0,031
-541,481	38,883	-0,047	0,031
-540,466	800,000	0,015	-0,041
-539,452	800,000	-0,042	0,097
-538,437	-97,222	0,095	0,018
-537,423	47,714	0,031	-0,021
-536,408	-200,000	-0,008	0,040
-535,393	423,293	-0,052	-0,082
-534,379	411,511	-0,089	-0,138
-533,364	466,358	-0,038	-0,063
-532,350	43,331	0,136	0,091
-531,335	-28,810	0,104	0,043
-530,321	-114,621	-0,030	-0,004
-529,306	-200,000	0,000	0,002
-528,291	195,536	-0,087	-0,097
-527,277	-200,000	0,001	-0,080
-526,262	800,000	0,032	0,065
-525,248	-177,414	0,169	0,003
-524,233	32,898	-0,080	-0,051
-523,218	52,421	0,061	-0,042
-522,204	-98,058	-0,243	0,045
-521,189	-115,197	0,073	-0,010
-520,175	-59,083	-0,030	-0,009
-519,160	800,000	0,025	0,058
-518,145	123,907	0,027	0,025
-517,131	800,000	-0,069	-0,171
-516,116	-200,000	0,001	-0,206
-515,102	-200,000	-0,011	-0,078
-514,087	132,311	0,041	-0,039
-513,072	800,000	0,040	-0,124
-512,058	-200,000	0,002	0,014
-511,043	-200,000	0,021	-0,157
-510,029	-100,300	0,172	0,031
-509,014	510,158	-0,036	-0,061
-507,999	228,607	0,057	-0,068
-506,985	800,000	0,036	-0,101
-505,970	-98,813	-0,035	-0,006
-504,956	-119,161	0,093	0,012
-503,941	-20,273	0,068	-0,030
-502,926	63,314	-0,104	0,076
-501,912	-200,000	-0,008	-0,057
-500,897	44,514	0,071	-0,047
-499,883	800,000	-0,033	-0,081
-498,868	-200,000	-0,018	-0,064
-497,853	-40,399	-0,108	-0,041
-496,839	-200,000	-0,007	-0,103
-495,824	116,714	0,052	0,047
-494,810	295,427	0,034	0,046
-493,795	192,056	0,046	-0,051
-492,781	-114,617	-0,126	0,017
-491,766	-81,460	-0,109	-0,026
-490,751	800,000	-0,040	0,106
-489,737	77,351	-0,061	0,047
-488,722	478,745	0,075	0,125
-487,708	800,000	-0,024	-0,049
-486,693	-200,000	0,020	0,077
-485,678	628,452	0,022	0,042
-484,664	-30,578	-0,100	0,041
-483,649	-200,000	0,000	0,041
-482,635	-200,000	0,008	-0,072
-481,620	-177,599	0,087	-0,002
-480,605	287,660	-0,054	0,072
-479,591	-22,453	0,086	0,038
-478,576	800,000	0,030	0,093
-477,562	32,514	0,040	-0,025
-476,547	35,901	0,103	-0,066
-475,532	607,945	0,067	0,122
-474,518	261,579	-0,045	0,058
-473,503	800,000	0,008	-0,016
-472,489	326,703	-0,031	0,043
-471,474	18,990	0,026	0,015
-470,459	-91,273	0,041	0,008
-469,445	-200,000	0,009	-0,136
-468,430	800,000	-0,018	0,053
-467,416	800,000	0,063	0,134
-466,401	800,000	-0,009	-0,029
-465,386	-200,000	0,002	-0,006
-464,372	370,243	-0,038	0,057
-463,357	-159,096	-0,144	-0,006
-462,343	-200,000	-0,007	0,041
-461,328	-200,000	0,013	-0,097
-460,313	-136,291	-0,084	0,007
-459,299	-30,545	0,129	0,053
-458,284	-18,545	0,036	0,016
-457,270	-6,343	0,069	0,034
-456,255	-64,785	-0,102	-0,030
-455,241	-200,000	-0,027	0,096
-454,226	-87,702	-0,036	-0,008
-453,211	77,287	-0,078	0,060
-452,197	10,493	-0,093	-0,052
-451,182	286,944	-0,059	0,078
-450,168	29,021	0,065	-0,040
-449,153	-200,000	-0,019	-0,075
-448,138	-16,499	-0,108	0,050
-447,124	-200,000	-0,004	-0,024
-446,109	-200,000	-0,000	0,008
-445,095	-29,385	0,073	-0,030
-444,080	800,000	-0,023	0,066
-443,065	-55,570	-0,129	-0,042
-442,051	-200,000	-0,001	0,008
-441,036	131,601	-0,020	0,019
-440,022	-200,000	-0,027	-0,188
-439,007	-91,132	0,191	-0,040
-437,992	0,335	0,081	0,042
-436,978	87,406	-0,132	0,107
-435,963	138,406	0,148	-0,141
-434,949	-102,929	-0,215	0,037
-433,934	-15,171	-0,055	-0,026
-432,919	158,315	-0,059	-0,060
-431,905	-3,230	0,035	0,018
-430,890	-2,430	0,121	-0,061
-429,876	-200,000	0,007	0,040
-428,861	-155,006	0,057	0,003
-427,846	-200,000	-0,032	-0,136
-426,832	-138,443	0,097	0,008
-425,817	-114,691	-0,092	-0,013
-424,803	-30,758	0,101	0,041
-423,788	-124,534	0,105	0,012
-422,773	416,275	-0,054	0,084
-421,759	173,334	-0,035	-0,036
-420,744	-153,518	0,102	0,005
-419,730	77,926	-0,014	0,011
-418,715	458,346	-0,030	-0,048
-417,701	100,157	0,078	0,066
-416,686	-54,229	0,075	0,025
-415,671	-200,000	-0,012	-0,061
-414,657	74,647	0,097	0,074
-413,642	-200,000	-0,090	-0,000
-412,628	-19,083	-0,135	-0,061
-411,613	-43,233	-0,043	0,016
-410,598	77,781	0,076	0,059
-409,584	-151,665	0,142	0,008
-408,569	355,053	0,071	0,103
-407,555	-200,000	0,007	0,029
-406,540	5,980	-0,032	0,017
-405,525	-200,000	-0,035	0,175
-404,511	-200,000	-0,024	-0,132
-403,496	-200,000	0,010	0,074
-402,482	780,927	0,052	-0,104
-401,467	405,336	-0,041	0,062
-400,452	-200,000	-0,020	-0,096
-399,438	800,000	-0,031	0,084
-398,423	-113,886	0,121	0,017
-397,409	-200,000	-0,019	0,091
-396,394	800,000	-0,026	-0,055
-395,379	-103,331	-0,112	-0,019
-394,365	67,171	0,052	-0,039
-393,350	136,169	0,045	-0,043
-392,336	-3,805	-0,035	0,017
-391,321	-185,294	-0,054	0,001
-390,306	45,294	-0,077	-0,052
-389,292	80,663	-0,180	-0,141
-388,277	800,000	0,037	0,099
-387,263	-154,398	-0,037	0,002
-386,248	703,201	0,068	0,131
-385,233	-200,000	-0,004	-0,021
-384,219	-45,426	0,046	0,017
-383,204	-200,000	0,012	-0,127
-382,190	191,967	-0,148	-0,163
-381,175	212,161	-0,058	0,067
-380,160	-200,000	-0,007	-0,052
-379,146	75,123	0,146	0,112
-378,131	-200,000	0,001	0,089
-377,117	77,422	-0,051	-0,039
-376,102	74,003	-0,059	0,045
-375,088	442,014	-0,022	-0,035
-374,073	800,000	-0,031	-0,082
-373,058	242,599	0,129	0,157
-372,044	-180,400	0,213	-0,003
-371,029	-200,000	-0,014	0,093
-370,015	-200,000	0,015	-0,078
-369,000	126,642	-0,076	0,070
-367,985	637,872	0,032	-0,059
-366,971	126,612	-0,023	0,021
-365,956	305,889	0,109	-0,147
-364,942	15,833	0,061	0,035
-363,927	-164,919	-0,068	-0,002
-362,912	-200,000	0,029	0,135
-361,898	-200,000	-0,009	-0,062
-360,883	-98,785	-0,142	-0,026
-359,869	-81,755	0,049	-0,012
-358,854	-43,157	0,049	-0,018
-357,839	800,000	0,018	0,038
-356,825	800,000	-0,059	0,159
-355,810	-200,000	0,021	0,075
-354,796	800,000	-0,052	0,141
-353,781	800,000	-0,028	0,070
-352,766	492,345	-0,074	-0,124
-351,752	-110,747	-0,095	-0,014
-350,737	-200,000	-0,018	0,074
-349,723	43,096	0,123	0,081
-348,708	800,000	-0,072	0,171
-347,693	7,981	-0,032	-0,017
-346,679	177,350	0,029	0,030
-345,664	-156,444	-0,078	0,003
-344,650	178,161	0,060	-0,063
-343,635	-96,195	0,094	0,018
-342,620	-200,000	0,000	0,005
-341,606	120,475	-0,058	-0,052
-340,591	-200,000	-0,045	-0,227
-339,577	6,827	0,051	-0,028
-338,562	605,317	0,031	-0,056
-337,548	714,049	0,017	-0,033
-336,533	800,000	0,070	-0,178
-335,518	-200,000	0,004	0,039
-334,504	55,646	-0,110	-0,077
-333,489	-71,706	0,110	-0,030
-332,475	125,625	-0,014	0,013
-331,460	75,504	0,021	0,016
-330,445	430,164	-0,021	-0,034
-329,431	-200,000	0,001	0,038
-328,416	56,857	-0,086	-0,061
-327,402	800,000	-0,020	0,060
-326,387	-37,627	-0,110	-0,042
-325,372	232,657	-0,062	-0,074
-324,358	619,660	-0,016	-0,029
-323,343	73,768	0,045	-0,035
-322,329	-38,325	0,055	-0,021
-321,314	-200,000	0,028	0,119
-320,299	138,147	0,075	0,071
-319,285	-71,457	0,124	-0,033
-318,270	69,140	0,111	-0,082
-317,256	-184,126	-0,074	-0,001
-316,241	215,138	0,051	-0,059
-315,226	800,000	0,049	0,120
-314,212	800,000	0,071	0,165
-313,197	-20,531	0,070	-0,031
-312,183	-119,491	0,044	0,005
-311,168	164,517	-0,057	-0,058
-310,153	250,191	-0,036	-0,045
-309,139	-101,178	-0,017	-0,003
-308,124	-163,614	0,134	-0,004
-307,110	103,177	-0,072	0,061
-306,095	800,000	0,012	0,032
-305,080	-63,522	-0,107	0,032
-304,066	225,888	0,076	0,089
-303,051	-35,026	-0,092	-0,036
-302,037	4,367	0,147	-0,078
-301,022	-200,000	-0,039	-0,139
-300,008	800,000	-0,040	0,096
-298,993	40,775	0,121	0,079
-297,978	408,640	-0,102	0,158
-296,964	800,000	-0,043	0,110
-295,949	70,578	-0,034	0,025
-294,935	-11,372	-0,054	0,026
-293,920	13,822	0,149	0,084
-292,905	-200,000	-0,001	0,006
-291,891	-171,563	-0,145	0,003
-290,876	800,000	-0,032	0,094
-289,862	395,358	0,085	-0,129
-288,847	-53,058	-0,161	0,053
-287,832	72,109	0,104	-0,078
-286,818	800,000	-0,004	-0,009
-285,803	-97,494	-0,027	0,005
-284,789	435,906	0,054	-0,085
-283,774	800,000	0,053	0,141
-282,759	31,928	0,128	0,080
-281,745	-68,189	-0,058	-0,016
-280,730	800,000	0,041	-0,091
-279,716	-200,000	0,034	-0,123
-278,701	-123,149	-0,143	0,016
-277,686	-69,623	0,149	0,041
-276,672	-200,000	-0,048	0,159
-275,657	522,205	-0,030	-0,051
-274,643	800,000	-0,065	-0,193
-273,628	-200,000	0,019	0,066
-272,613	16,660	-0,102	-0,058
-271,599	800,000	0,049	0,122
-270,584	-200,000	-0,012	-0,098
-269,570	155,859	-0,039	-0,039
-268,555	139,025	-0,056	0,053
-267,540	527,938	0,081	-0,138
-266,526	84,924	0,060	-0,047
-265,511	362,986	-0,029	-0,042
-264,497	-157,030	0,060	-0,003
-263,482	-114,736	0,117	-0,016
-262,467	800,000	0,046	0,096
-261,453	-200,000	0,025	0,114
-260,438	104,215	-0,044	-0,037
-259,424	-200,000	0,040	0,194
-258,409	785,753	-0,026	-0,052
-257,395	-147,444	0,067	0,004
-256,380	-200,000	0,037	-0,118
-255,365	-200,000	-0,005	0,134
-254,351	33,906	-0,085	-0,054
-253,336	-73,940	0,050	0,013
-252,322	-72,417	-0,043	0,011
-251,307	-200,000	-0,005	-0,145
-250,292	16,591	-0,049	-0,028
-249,278	-114,886	0,049	0,007
-248,263	441,216	0,027	-0,042
-247,249	146,650	-0,104	0,102
-246,234	2,323	-0,078	0,041
-245,219	-200,000	-0,019	-0,082
-244,205	35,350	0,065	-0,041
-243,190	295,797	-0,058	-0,078
-242,176	-200,000	0,003	0,073
-241,161	-61,290	-0,141	0,043
-240,146	-22,941	-0,066	0,029
-239,132	-0,281	-0,043	-0,022
-238,117	297,920	-0,031	0,042
-237,103	-200,000	0,015	-0,050
-236,088	800,000	-0,007	0,017
-235,073	-49,482	0,079	0,027
-234,059	31,931	-0,164	0,102
-233,044	-148,815	0,061	-0,004
-232,030	-132,763	-0,078	-0,007
-231,015	-132,865	0,018	-0,002
-230,000	-200,000	-0,010	0,048
-228,986	-0,105	0,043	-0,022
-227,971	469,767	0,055	0,090
-226,957	461,450	-0,053	0,085
-225,942	800,000	0,038	-0,112
-224,927	45,101	-0,109	-0,073
-223,913	-200,000	-0,007	-0,025
-222,898	-100,835	0,067	0,012
-221,884	137,754	0,092	0,087
-220,869	201,522	0,085	0,095
-219,855	-200,000	0,001	0,142
-218,840	-200,000	-0,010	0,074
-217,825	800,000	-0,043	-0,091
-216,811	-25,335	-0,102	0,044
-215,796	38,129	-0,088	-0,057
-214,782	-40,722	0,070	-0,026
-213,767	-116,134	0,044	-0,006
-212,752	800,000	-0,048	0,125
-211,738	-200,000	-0,008	0,046
-210,723	800,000	0,011	-0,032
-209,709	198,809	0,098	0,109
-208,694	-200,000	-0,009	-0,079
-207,679	-49,793	-0,116	-0,040
-206,665	-200,000	-0,010	0,117
-205,650	-49,505	0,053	-0,018
-204,636	-200,000	-0,025	0,084
-203,621	-169,277	0,120	0,003
-202,606	-200,000	-0,011	-0,164
-201,592	555,304	0,057	0,099
-200,577	6,882	-0,061	0,033
-199,563	-200,000	0,001	-0,067
-198,548	35,047	-0,018	-0,011
-197,533	-200,000	-0,017	0,075
-196,519	138,759	0,081	-0,077
-195,504	-66,260	0,067	-0,019
-194,490	-107,514	0,166	-0,026
-193,475	-28,198	-0,132	0,055
-192,460	-20,562	0,135	0,060
-191,446	-33,823	-0,154	0,061
-190,431	-92,334	0,180	-0,036
-189,417	416,677	0,048	0,074
-188,402	-200,000	0,009	0,047
-187,387	505,756	-0,058	0,097
-186,373	-119,446	0,156	-0,019
-185,358	16,360	-0,052	0,030
-184,344	-59,927	0,127	-0,039
-183,329	-200,000	-0,015	0,058
-182,315	-70,128	-0,055	-0,015
-181,300	416,424	0,061	-0,094
-180,285	13,012	-0,050	-0,028
-179,271	775,587	0,002	-0,005
-178,256	-23,094	-0,074	-0,032
-177,242	-141,936	0,033	0,002
-176,227	-69,521	-0,045	0,012
-175,212	66,152	0,088	-0,064
-174,198	-200,000	-0,016	-0,086
-173,183	-2,194	-0,111	-0,056
-172,169	482,312	-0,088	-0,144
-171,154	259,507	-0,066	-0,083
-170,139	800,000	0,083	-0,188
-169,125	798,779	-0,041	0,082
-168,110	-31,076	0,164	0,066
-167,096	2,185	-0,112	-0,058
-166,081	102,642	-0,053	-0,045
-165,066	-126,299	-0,056	0,006
-164,052	800,000	0,027	-0,055
-163,037	-122,722	-0,121	-0,014
-162,023	-200,000	0,006	-0,055
-161,008	18,733	0,050	0,029
-159,993	32,317	-0,057	0,035
-158,979	-134,887	-0,041	0,004
-157,964	8,591	-0,051	-0,028
-156,950	-200,000	-0,030	-0,116
-155,935	-41,373	0,044	-0,016
-154,920	-200,000	-0,003	-0,030
-153,906	-200,000	-0,007	0,189
-152,891	-200,000	-0,035	-0,117
-151,877	20,499	0,137	0,080
-150,862	259,101	-0,030	0,037
-149,847	9,604	0,097	0,053
-148,833	318,623	0,066	-0,091
-147,818	83,240	0,052	0,041
-146,804	-54,768	0,078	0,025
-145,789	-114,227	-0,111	-0,015
-144,775	-17,335	-0,122	0,055
-143,760	68,779	0,054	-0,040
-142,745	583,116	-0,034	-0,060
-141,731	782,610	0,027	0,053
-140,716	-149,704	-0,035	0,002
-139,702	-93,010	0,005	-0,001
-138,687	-110,583	-0,049	0,007
-137,672	215,354	0,026	0,030
-136,658	800,000	0,028	-0,077
-135,643	-124,141	-0,210	-0,023
-134,629	46,117	0,030	0,020
-133,614	-21,150	-0,072	0,032
-132,599	800,000	0,040	0,091
-131,585	20,592	0,008	-0,005
-130,570	406,656	-0,036	-0,055
-129,556	-200,000	0,001	-0,032
-128,541	142,648	-0,135	-0,129
-127,526	800,000	-0,050	-0,151
-126,512	76,791	0,134	-0,102
-125,497	-200,000	-0,015	0,066
-124,483	-74,186	0,068	0,017
-123,468	-85,497	-0,148	-0,033
-122,453	-200,000	0,037	-0,126
-121,439	-22,214	-0,018	0,008
-120,424	800,000	-0,020	0,058
-119,410	-79,133	0,112	0,027
-118,395	186,831	0,023	0,025
