DTS Sentinel unit serial number:	SN410029Multiplexer serial number:	ORYXHardware model number:	OX2-SRSoftware version number:	ORYX F/W v4,00 Oryx Data Collector v3.7.2.0data status	okinstallation	B5 Nyhavnadifferential loss correction	single-endedforward channel	channel 2reverse channel	N/Adate	2023/12/12time	08:02:13forward acquisition time	300,00reverse acquisition time	0,00gamma	499,1914k internal	0,3158k external	0,3158temperature offset calibration	1,0000default loss term (dB/km)	0,3820temperature slope calibration	1,0000multiplexer offset coefficient	1,0000multiplexer slope coefficient	1,0000fibre end	0,00T internal ref (°C)	15,12T ext. ref 1 (°C)	-1,19T ext. ref 2 (°C)	-1,49length (m)	temperature (°C)	Stokes	anti-Stokes-744,400	62,066	-0,055	-0,040
-743,385	-136,142	-0,403	-0,034
-742,371	-56,183	0,168	0,055
-741,356	-53,035	-0,227	0,077
-740,342	-191,881	0,060	-0,000
-739,327	-67,672	-0,230	0,066
-738,312	-123,168	-0,075	0,009
-737,298	-67,127	-0,261	-0,075
-736,283	800,000	0,013	0,030
-735,269	-98,599	-0,314	0,059
-734,254	35,371	0,080	0,052
-733,239	1,647	-0,331	-0,175
-732,225	-60,323	0,107	-0,033
-731,210	-200,000	-0,008	0,057
-730,196	-60,642	-0,123	0,038
-729,181	640,887	-0,020	-0,038
-728,167	-31,935	0,098	0,040
-727,152	213,509	-0,048	0,056
-726,137	-84,426	-0,089	0,021
-725,123	-200,000	0,003	-0,082
-724,108	-53,674	-0,192	-0,064
-723,094	800,000	-0,057	-0,152
-722,079	8,324	-0,067	0,037
-721,064	34,709	0,036	-0,023
-720,050	-52,630	-0,169	-0,057
-719,035	-108,065	0,106	-0,017
-718,021	-200,000	-0,016	-0,108
-717,006	-59,261	-0,122	0,039
-715,991	-12,901	0,051	-0,024
-714,977	800,000	0,019	-0,044
-713,962	85,517	-0,110	0,089
-712,948	-200,000	0,011	0,079
-711,933	8,506	-0,100	-0,055
-710,918	-200,000	0,001	0,122
-709,904	-26,907	0,077	0,033
-708,889	-200,000	-0,025	-0,146
-707,875	269,535	-0,124	-0,161
-706,860	-200,000	-0,034	-0,209
-705,845	461,670	0,060	0,099
-704,831	-200,000	-0,001	-0,008
-703,816	-156,203	-0,114	0,005
-702,802	61,441	-0,118	-0,086
-701,787	391,855	-0,069	-0,105
-700,772	255,841	-0,054	0,068
-699,758	-2,056	0,138	0,071
-698,743	-158,903	0,138	-0,006
-697,729	101,162	-0,032	0,028
-696,714	-113,721	-0,065	-0,009
-695,699	54,710	-0,063	-0,044
-694,685	-157,505	-0,088	0,004
-693,670	-98,139	-0,022	-0,004
-692,656	259,369	0,024	0,030
-691,641	166,779	-0,056	0,058
-690,627	189,508	-0,057	-0,063
-689,612	-50,286	-0,068	-0,023
-688,597	49,993	0,054	0,037
-687,583	11,699	-0,207	-0,116
-686,568	106,371	0,181	-0,157
-685,554	800,000	-0,020	-0,045
-684,539	504,517	0,064	-0,109
-683,524	-200,000	-0,011	0,044
-682,510	11,447	0,046	0,026
-681,495	800,000	0,047	-0,101
-680,481	192,981	0,072	-0,080
-679,466	-200,000	0,004	0,044
-678,451	-97,785	-0,070	-0,013
-677,437	800,000	0,052	0,123
-676,422	800,000	-0,055	-0,126
-675,408	800,000	0,022	0,051
-674,393	800,000	-0,025	-0,067
-673,378	-200,000	-0,030	-0,149
-672,364	-3,880	-0,075	0,038
-671,349	-73,792	-0,080	-0,021
-670,335	-200,000	-0,014	-0,120
-669,320	-200,000	-0,017	0,093
-668,305	-131,482	0,107	-0,010
-667,291	-61,322	-0,171	-0,052
-666,276	-200,000	-0,022	-0,178
-665,262	248,649	-0,083	-0,104
-664,247	11,505	-0,068	-0,038
-663,232	28,996	-0,075	-0,047
-662,218	22,833	0,076	-0,045
-661,203	-200,000	-0,013	0,122
-660,189	118,579	0,112	-0,102
-659,174	-200,000	-0,029	-0,253
-658,159	58,311	0,088	-0,063
-657,145	100,391	-0,110	-0,094
-656,130	19,150	-0,220	-0,129
-655,116	-34,800	-0,076	-0,030
-654,101	118,698	0,086	-0,078
-653,086	-200,000	0,027	0,139
-652,072	-151,692	-0,056	-0,003
-651,057	-200,000	-0,007	0,035
-650,043	17,546	0,055	0,032
-649,028	-200,000	-0,016	-0,098
-648,014	-2,054	0,090	0,046
-646,999	26,122	-0,041	-0,025
-645,984	-200,000	-0,046	0,154
-644,970	-200,000	-0,017	-0,066
-643,955	130,493	-0,064	-0,060
-642,941	-101,289	-0,049	0,009
-641,926	-54,364	-0,086	-0,029
-640,911	800,000	0,026	-0,067
-639,897	-200,000	-0,004	0,026
-638,882	-35,451	0,166	0,066
-637,868	800,000	0,025	-0,052
-636,853	800,000	-0,064	-0,149
-635,838	-200,000	0,003	-0,028
-634,824	78,101	-0,053	-0,042
-633,809	237,883	0,030	-0,036
-632,795	75,706	-0,058	0,045
-631,780	-73,911	-0,051	0,014
-630,765	30,306	-0,139	-0,087
-629,751	777,111	0,062	0,124
-628,736	-200,000	0,004	-0,228
-627,722	160,990	0,089	-0,091
-626,707	-11,965	0,072	0,035
-625,692	-137,837	0,023	-0,002
-624,678	230,504	-0,050	0,060
-623,663	358,822	-0,048	-0,070
-622,649	-36,406	0,066	0,026
-621,634	-167,172	-0,083	0,002
-620,619	74,080	-0,037	-0,028
-619,605	245,927	-0,041	-0,051
-618,590	81,765	-0,067	0,054
-617,576	61,405	0,054	0,040
-616,561	383,144	0,029	0,044
-615,546	800,000	0,011	0,028
-614,532	132,894	-0,121	0,114
-613,517	-200,000	0,038	0,175
-612,503	-24,685	0,061	0,027
-611,488	27,079	0,054	0,033
-610,474	143,435	0,089	0,087
-609,459	-18,689	0,145	0,066
-608,444	388,968	0,025	-0,038
-607,430	179,833	-0,069	-0,074
-606,415	800,000	0,031	-0,071
-605,401	195,679	0,035	-0,039
-604,386	-3,624	0,093	-0,047
-603,371	800,000	-0,034	0,096
-602,357	39,049	-0,025	-0,016
-601,342	-200,000	0,017	-0,063
-600,328	-41,200	-0,123	0,046
-599,313	-200,000	0,027	0,119
-598,298	18,679	-0,114	0,067
-597,284	-200,000	0,003	0,024
-596,269	-122,443	0,101	-0,012
-595,255	-76,787	-0,101	0,026
-594,240	-121,689	0,049	-0,006
-593,225	293,082	-0,058	0,078
-592,211	800,000	-0,035	-0,074
-591,196	746,198	0,002	-0,004
-590,182	-200,000	0,013	0,054
-589,167	-200,000	-0,013	0,059
-588,152	169,023	0,052	0,054
-587,138	652,416	0,042	0,080
-586,123	437,448	-0,039	-0,063
-585,109	-200,000	-0,034	-0,145
-584,094	287,820	0,039	-0,052
-583,079	-200,000	-0,004	-0,057
-582,065	-103,907	-0,041	-0,007
-581,050	6,962	0,143	0,078
-580,036	141,733	0,034	-0,033
-579,021	-23,966	0,082	-0,036
-578,006	-200,000	0,001	-0,111
-576,992	-200,000	0,008	-0,095
-575,977	800,000	-0,023	-0,072
-574,963	-200,000	0,002	-0,025
-573,948	307,092	-0,056	0,077
-572,934	14,216	-0,113	0,064
-571,919	401,401	-0,060	-0,093
-570,904	263,165	-0,101	0,128
-569,890	-200,000	-0,006	-0,110
-568,875	-200,000	-0,002	0,036
-567,861	-200,000	-0,003	0,018
-566,846	-41,729	-0,045	-0,017
-565,831	597,376	0,027	-0,049
-564,817	-6,072	0,075	-0,038
-563,802	800,000	0,008	-0,017
-562,788	-200,000	-0,033	0,143
-561,773	691,218	-0,025	-0,049
-560,758	-152,637	0,070	0,004
-559,744	-128,818	0,064	0,006
-558,729	-200,000	-0,005	0,022
-557,715	235,065	-0,091	-0,110
-556,700	63,442	-0,019	-0,014
-555,685	-200,000	-0,014	0,068
-554,671	-12,068	0,069	-0,033
-553,656	192,785	0,110	0,122
-552,642	-200,000	0,015	-0,090
-551,627	64,835	0,075	-0,056
-550,612	44,800	-0,106	0,071
-549,598	767,514	-0,024	0,047
-548,583	800,000	0,032	-0,092
-547,569	339,574	0,043	-0,061
-546,554	-120,262	0,078	-0,010
-545,539	570,618	-0,021	0,038
-544,525	398,331	0,077	0,118
-543,510	-200,000	-0,002	0,038
-542,496	-25,397	0,141	-0,061
-541,481	65,739	0,079	0,059
-540,466	-83,850	0,122	0,028
-539,452	-78,735	-0,126	-0,031
-538,437	-34,964	0,126	0,050
-537,423	21,855	0,065	0,038
-536,408	447,067	-0,013	0,021
-535,393	-200,000	-0,026	-0,087
-534,379	-80,323	0,075	-0,018
-533,364	59,433	-0,087	-0,063
-532,350	13,541	0,082	-0,046
-531,335	-113,801	0,057	-0,008
-530,321	16,882	0,072	0,042
-529,306	388,485	-0,095	0,145
-528,291	800,000	0,020	-0,048
-527,277	800,000	-0,091	-0,210
-526,262	800,000	-0,060	-0,138
-525,248	205,960	0,052	-0,059
-524,233	-20,035	0,118	0,053
-523,218	107,210	0,062	0,053
-522,204	-128,615	0,096	0,010
-521,189	-51,424	-0,032	-0,011
-520,175	13,374	-0,121	0,068
-519,160	416,208	-0,102	-0,160
-518,145	-77,514	-0,092	-0,023
-517,131	341,677	0,077	0,111
-516,116	-53,279	-0,099	-0,033
-515,102	800,000	0,043	-0,128
-514,087	7,137	0,067	0,036
-513,072	647,980	-0,064	0,120
-512,058	-200,000	0,020	-0,118
-511,043	800,000	-0,058	0,162
-510,029	800,000	0,037	-0,083
-509,014	-86,699	-0,081	0,018
-507,999	-200,000	-0,007	0,036
-506,985	97,609	-0,095	-0,080
-505,970	218,171	0,085	-0,099
-504,956	32,261	-0,218	-0,137
-503,941	-50,489	0,041	-0,014
-502,926	43,080	-0,110	-0,073
-501,912	800,000	0,030	-0,083
-500,897	-120,509	0,098	0,012
-499,883	122,261	0,054	0,049
-498,868	-200,000	0,005	0,025
-497,853	76,923	0,104	-0,081
-496,839	-200,000	0,065	0,000
-495,824	-200,000	0,014	0,098
-494,810	647,451	0,026	0,048
-493,795	-35,258	-0,090	-0,036
-492,781	149,459	0,039	0,038
-491,766	-200,000	-0,031	-0,150
-490,751	-200,000	-0,052	-0,190
-489,737	-200,000	0,004	-0,116
-488,722	-200,000	0,023	0,124
-487,708	-88,317	-0,061	0,013
-486,693	-112,720	-0,027	-0,004
-485,678	675,504	-0,044	0,083
-484,664	-22,022	-0,119	0,052
-483,649	-200,000	0,031	-0,131
-482,635	114,689	0,063	-0,056
-481,620	800,000	-0,050	0,109
-480,605	-200,000	0,007	0,072
-479,591	-47,312	0,026	0,009
-478,576	-200,000	0,003	-0,028
-477,562	-111,904	0,080	-0,012
-476,547	558,544	-0,049	-0,086
-475,532	-15,046	-0,034	-0,016
-474,518	-200,000	-0,010	0,058
-473,503	84,082	0,108	-0,086
-472,489	487,977	-0,035	0,059
-471,474	800,000	-0,042	-0,097
-470,459	-200,000	-0,021	-0,116
-469,445	-46,564	-0,073	-0,026
-468,430	-200,000	-0,001	-0,052
-467,416	297,959	-0,030	-0,040
-466,401	297,883	-0,039	0,052
-465,386	800,000	0,086	0,240
-464,372	66,392	0,136	0,101
-463,357	267,946	0,060	0,077
-462,343	15,294	-0,009	0,005
-461,328	-134,866	0,029	0,003
-460,313	-18,094	0,092	-0,042
-459,299	800,000	0,034	0,076
-458,284	-200,000	-0,004	0,079
-457,270	-139,732	0,093	0,007
-456,255	-18,667	-0,094	-0,043
-455,241	403,953	-0,101	0,155
-454,226	-59,765	-0,131	0,040
-453,211	-157,159	0,130	0,006
-452,197	800,000	0,034	0,095
-451,182	-136,026	0,120	-0,010
-450,168	29,669	-0,037	-0,023
-449,153	-101,557	0,173	0,030
-448,138	226,780	0,015	-0,018
-447,124	353,088	-0,049	-0,070
-446,109	530,832	-0,017	0,030
-445,095	360,731	0,081	0,118
-444,080	3,096	0,104	0,055
-443,065	9,473	0,168	0,092
-442,051	104,475	-0,080	0,068
-441,036	330,608	-0,068	0,095
-440,022	-200,000	-0,020	-0,090
-439,007	-200,000	-0,003	0,051
-437,992	274,706	-0,058	-0,075
-436,978	-137,705	-0,058	-0,005
-435,963	800,000	0,062	0,132
-434,949	501,579	-0,075	-0,126
-433,934	800,000	-0,066	-0,194
-432,919	-200,000	0,007	0,072
-431,905	41,162	-0,081	0,053
-430,890	146,461	0,079	0,077
-429,876	-28,058	0,136	0,057
-428,861	800,000	0,030	0,087
-427,846	-200,000	-0,023	0,080
-426,832	-94,520	-0,102	-0,020
-425,817	800,000	0,023	-0,052
-424,803	800,000	0,014	-0,043
-423,788	-200,000	0,010	0,047
-422,773	237,098	0,026	0,032
-421,759	-67,527	0,098	0,028
-420,744	-90,144	0,042	-0,009
-419,730	-115,475	-0,139	-0,019
-418,715	-122,668	0,018	-0,002
-417,701	-153,445	-0,061	0,003
-416,686	800,000	-0,040	-0,096
-415,671	-200,000	-0,007	0,040
-414,657	-124,613	0,052	0,006
-413,642	458,744	-0,048	-0,078
-412,628	-200,000	-0,031	0,131
-411,613	-33,379	0,116	-0,047
-410,598	-200,000	-0,048	-0,221
-409,584	-200,000	0,026	-0,095
-408,569	-8,283	-0,040	-0,019
-407,555	-200,000	-0,038	0,129
-406,540	800,000	0,006	0,019
-405,525	800,000	-0,014	-0,044
-404,511	800,000	0,037	-0,088
-403,496	-200,000	0,003	-0,059
-402,482	-120,373	-0,138	0,017
-401,467	-21,904	0,071	0,031
-400,452	800,000	-0,048	0,131
-399,438	-67,326	-0,079	0,023
-398,423	800,000	-0,030	0,095
-397,409	-200,000	0,009	-0,048
-396,394	307,674	-0,046	-0,062
-395,379	-200,000	-0,040	0,138
-394,365	800,000	0,027	0,061
-393,350	797,743	-0,020	-0,040
-392,336	753,211	-0,019	-0,037
-391,321	-200,000	-0,007	-0,053
-390,306	-200,000	-0,010	-0,156
-389,292	-200,000	-0,001	0,024
-388,277	263,334	0,046	-0,058
-387,263	29,932	0,168	-0,104
-386,248	-14,448	-0,009	-0,004
-385,233	-200,000	-0,011	0,040
-384,219	90,340	-0,156	-0,127
-383,204	180,375	-0,056	-0,059
-382,190	-67,720	-0,089	-0,025
-381,175	-99,802	0,031	-0,006
-380,160	275,778	0,061	0,078
-379,146	469,604	0,017	-0,027
-378,131	-97,963	0,049	-0,009
-377,117	32,855	-0,031	-0,020
-376,102	64,659	0,084	-0,061
-375,088	-161,027	-0,089	-0,003
-374,073	-112,284	0,075	0,011
-373,058	-58,616	0,012	0,004
-372,044	-200,000	-0,021	0,084
-371,029	44,461	0,163	0,109
-370,015	800,000	-0,032	-0,086
-369,000	-80,928	-0,070	-0,017
-367,985	64,078	-0,067	-0,049
-366,971	539,142	-0,081	-0,141
-365,956	-22,118	-0,095	0,042
-364,942	-101,082	0,031	0,006
-363,927	352,670	0,036	0,052
-362,912	-200,000	0,018	-0,076
-361,898	-200,000	0,022	-0,199
-360,883	192,466	0,067	-0,074
-359,869	-200,000	0,005	-0,211
-358,854	-109,642	0,073	-0,011
-357,839	131,417	0,049	-0,046
-356,825	-138,126	-0,043	-0,003
-355,810	19,145	-0,039	-0,023
-354,796	544,724	0,003	0,006
-353,781	106,396	0,024	-0,020
-352,766	-200,000	0,006	0,108
-351,752	-47,747	0,075	-0,026
-350,737	-75,930	0,093	0,024
-349,723	-200,000	0,006	-0,072
-348,708	-200,000	0,005	0,038
-347,693	21,358	0,098	-0,058
-346,679	-1,733	0,093	0,047
-345,664	-49,155	-0,199	0,069
-344,650	0,856	0,088	-0,046
-343,635	215,134	0,103	-0,119
-342,620	-31,352	0,169	0,069
-341,606	161,764	0,073	0,074
-340,591	-43,825	0,081	-0,029
-339,577	422,737	-0,095	-0,148
-338,562	375,327	-0,084	0,124
-337,548	176,887	-0,035	0,037
-336,533	-129,199	0,239	0,024
-335,518	-85,446	-0,078	-0,018
-334,504	-200,000	-0,003	0,072
-333,489	10,072	-0,131	0,072
-332,475	63,904	-0,174	-0,127
-331,460	109,240	-0,045	-0,039
-330,445	128,108	-0,045	-0,042
-329,431	-169,304	0,147	-0,004
-328,416	86,170	-0,011	-0,009
-327,402	145,243	0,058	-0,056
-326,387	-145,271	-0,144	0,009
-325,372	-200,000	-0,008	0,047
-324,358	800,000	0,010	-0,021
-323,343	-2,873	-0,172	-0,087
-322,329	254,135	-0,025	0,031
-321,314	-161,459	0,128	-0,005
-320,299	-105,095	0,017	0,003
-319,285	-116,889	0,060	0,008
-318,270	-41,681	-0,079	0,029
-317,256	47,216	-0,021	0,014
-316,241	-200,000	0,010	-0,114
-315,226	-35,317	0,137	0,054
-314,212	628,598	0,039	-0,072
-313,197	656,190	-0,051	-0,095
-312,183	-200,000	-0,000	0,061
-311,168	800,000	-0,022	0,066
-310,153	-106,587	0,124	0,020
-309,139	-200,000	-0,008	-0,073
-308,124	-34,755	0,205	-0,081
-307,110	63,069	0,080	0,058
-306,095	-3,638	0,060	0,030
-305,080	233,790	-0,121	0,145
-304,066	412,749	0,072	-0,112
-303,051	69,068	-0,081	-0,060
-302,037	-110,064	0,047	-0,007
-301,022	-200,000	-0,002	-0,033
-300,008	55,224	-0,095	0,067
-298,993	332,299	-0,062	0,087
-297,978	-200,000	-0,034	0,113
-296,964	-61,342	0,120	0,036
-295,949	-114,063	-0,212	0,029
-294,935	70,300	-0,070	-0,052
-293,920	257,270	0,043	-0,053
-292,905	800,000	0,032	-0,079
-291,891	-200,000	0,014	0,074
-290,876	-200,000	0,015	-0,052
-289,862	182,791	-0,015	-0,016
-288,847	800,000	-0,051	0,103
-287,832	-200,000	-0,014	0,075
-286,818	-142,297	-0,065	-0,005
-285,803	-135,859	0,083	-0,007
-284,789	478,448	-0,033	0,053
-283,774	-200,000	0,018	0,101
-282,759	60,589	0,052	0,037
-281,745	561,266	-0,028	-0,050
-280,730	-109,960	-0,141	0,021
-279,716	-101,867	-0,052	-0,009
-278,701	-129,357	-0,100	-0,010
-277,686	800,000	0,025	-0,060
-276,672	-174,658	0,143	-0,003
-275,657	800,000	0,020	0,056
-274,643	-200,000	-0,018	-0,077
-273,628	73,511	-0,065	-0,049
-272,613	-200,000	-0,006	-0,052
-271,599	597,803	-0,010	-0,018
-270,584	-200,000	-0,006	0,070
-269,570	800,000	0,043	0,129
-268,555	-163,030	0,036	-0,001
-267,540	-104,577	-0,158	0,026
-266,526	-34,512	-0,058	0,023
-265,511	75,749	0,036	-0,028
-264,497	40,981	-0,028	-0,018
-263,482	-200,000	-0,001	0,051
-262,467	-200,000	0,001	0,060
-261,453	-149,164	0,121	-0,007
-260,438	-106,402	-0,050	0,008
-259,424	604,785	-0,036	0,064
-258,409	-95,601	0,081	-0,016
-257,395	800,000	0,030	-0,068
-256,380	800,000	-0,088	0,207
-255,365	-16,363	-0,039	-0,018
-254,351	725,008	0,028	-0,054
-253,336	-116,671	-0,079	0,010
-252,322	155,218	0,065	0,064
-251,307	-40,101	-0,035	-0,013
-250,292	-65,106	-0,093	0,027
-249,278	-142,717	-0,099	-0,007
-248,263	167,444	-0,082	0,084
-247,249	-200,000	0,006	0,074
-246,234	-200,000	-0,004	-0,065
-245,219	404,399	-0,006	0,009
-244,205	-106,766	-0,106	-0,017
-243,190	-61,757	0,158	0,047
-242,176	424,512	-0,061	-0,096
-241,161	-200,000	-0,014	0,168
-240,146	-52,552	-0,081	0,027
-239,132	291,634	0,047	-0,062
-238,117	-200,000	0,010	-0,040
-237,103	-200,000	-0,011	0,044
-236,088	-7,522	-0,116	0,056
-235,073	800,000	0,038	-0,095
-234,059	800,000	0,043	-0,088
-233,044	130,641	0,066	0,061
-232,030	59,984	-0,104	0,074
-231,015	-36,974	-0,102	0,039
-230,000	60,882	0,031	-0,022
-228,986	82,929	0,079	0,062
-227,971	105,359	-0,084	-0,072
-226,957	-51,947	-0,014	0,005
-225,942	786,257	0,093	-0,185
-224,927	449,135	0,022	0,036
-223,913	11,974	-0,074	0,041
-222,898	384,244	0,048	0,072
-221,884	80,677	-0,036	-0,028
-220,869	800,000	0,066	0,162
-219,855	-200,000	-0,006	0,148
-218,840	-28,921	0,090	0,037
-217,825	291,026	0,068	-0,090
-216,811	97,201	0,045	-0,038
-215,796	1,633	0,068	-0,035
-214,782	-90,024	0,026	-0,005
-213,767	-102,221	0,081	-0,014
-212,752	16,130	0,062	0,035
-211,738	188,590	-0,052	0,056
-210,723	669,233	-0,042	0,079
-209,709	90,238	0,024	-0,020
-208,694	-200,000	-0,020	-0,106
-207,679	111,655	-0,062	-0,054
-206,665	-48,186	0,119	-0,041
-205,650	388,161	0,035	0,053
-204,636	2,980	0,173	-0,090
-203,621	-76,248	0,140	-0,035
-202,606	-104,433	-0,121	-0,020
-201,592	49,471	-0,089	-0,060
-200,577	23,228	-0,113	-0,067
-199,563	153,974	0,073	0,072
-198,548	-200,000	0,000	-0,002
-197,533	29,305	-0,085	0,052
-196,519	-82,667	-0,143	-0,033
-195,504	-42,087	0,148	-0,054
-194,490	-51,132	-0,090	-0,030
-193,475	-119,635	-0,148	-0,018
-192,460	-99,859	0,181	-0,032
-191,446	-106,499	-0,019	-0,003
-190,431	-68,868	-0,029	-0,008
-189,417	-200,000	-0,015	0,073
-188,402	26,131	0,069	0,042
-187,387	614,046	-0,079	-0,143
-186,373	544,816	0,102	-0,177
-185,358	-4,453	-0,003	0,002
-184,344	-79,342	0,069	-0,017
-183,329	800,000	0,097	0,213
-182,315	-200,000	0,012	0,161
-181,300	800,000	-0,037	0,091
-180,285	-43,176	-0,039	0,014
-179,271	-64,387	-0,132	0,038
-178,256	-200,000	-0,015	0,075
-177,242	222,692	0,035	0,040
-176,227	107,189	0,103	-0,089
-175,212	115,346	-0,118	-0,104
-174,198	10,168	-0,046	0,025
-173,183	314,799	-0,050	-0,068
-172,169	38,911	-0,072	-0,046
-171,154	800,000	-0,035	0,102
-170,139	405,980	-0,023	0,034
-169,125	-36,159	0,135	-0,052
-168,110	71,885	-0,074	-0,055
-167,096	331,259	-0,060	0,084
-166,081	800,000	0,018	0,050
-165,066	-92,744	-0,148	0,030
-164,052	-200,000	0,027	0,109
-163,037	74,724	0,116	-0,088
-162,023	-200,000	-0,039	0,179
-161,008	-96,312	-0,061	0,012
-159,993	65,961	0,041	0,030
-158,979	-200,000	-0,001	0,063
-157,964	-90,693	-0,022	-0,005
-156,950	-200,000	0,000	-0,064
-155,935	-200,000	-0,006	0,070
-154,920	575,072	-0,038	0,067
-153,906	800,000	-0,037	0,078
-152,891	118,280	-0,103	0,092
-151,877	-32,908	-0,009	-0,003
-150,862	-200,000	0,012	-0,123
-149,847	775,714	0,063	-0,125
-148,833	16,762	0,134	-0,076
-147,818	321,108	-0,085	-0,116
-146,804	-57,839	-0,052	-0,016
-145,789	-116,400	-0,040	0,005
-144,775	158,589	-0,065	0,065
-143,760	364,279	-0,035	0,050
-142,745	-5,668	0,054	0,027
-141,731	-151,699	-0,048	0,002
-140,716	-28,554	0,057	0,023
-139,702	800,000	0,015	0,041
-138,687	366,541	0,012	-0,018
-137,672	86,146	-0,028	0,022
-136,658	-101,832	-0,050	-0,009
-135,643	800,000	0,020	-0,040
-134,629	232,430	-0,033	0,039
-133,614	-200,000	-0,013	0,052
-132,599	155,290	-0,032	0,032
-131,585	800,000	0,035	-0,080
-130,570	-30,777	-0,061	-0,025
-129,556	800,000	0,037	0,083
-128,541	59,258	-0,116	-0,082
-127,526	663,153	-0,017	-0,032
-126,512	538,552	0,043	0,074
-125,497	-200,000	0,013	0,136
-124,483	381,086	0,088	0,130
-123,468	-129,534	-0,019	0,002
-122,453	-183,315	-0,074	0,001
-121,439	10,477	-0,063	-0,035
-120,424	36,724	-0,041	-0,026
-119,410	-200,000	-0,021	0,101
