DTS Sentinel unit serial number:	SN410029Multiplexer serial number:	ORYXHardware model number:	OX2-SRSoftware version number:	ORYX F/W v4,00 Oryx Data Collector v3.7.2.0data status	okinstallation	B5 Nyhavnadifferential loss correction	single-endedforward channel	channel 2reverse channel	N/Adate	2023/12/14time	16:12:13forward acquisition time	300,00reverse acquisition time	0,00gamma	499,1914k internal	0,3157k external	0,3157temperature offset calibration	1,0000default loss term (dB/km)	0,3820temperature slope calibration	1,0000multiplexer offset coefficient	1,0000multiplexer slope coefficient	1,0000fibre end	0,00T internal ref (°C)	7,94T ext. ref 1 (°C)	-7,69T ext. ref 2 (°C)	-7,72length (m)	temperature (°C)	Stokes	anti-Stokes-744,400	26,516	0,245	0,151
-743,385	-61,392	-0,422	-0,130
-742,371	-17,028	0,121	0,056
-741,356	-24,205	-0,368	-0,161
-740,342	-34,685	0,079	0,032
-739,327	-78,556	-0,442	-0,111
-738,312	-51,167	0,177	0,061
-737,298	-116,486	-0,379	0,051
-736,283	5,932	0,159	0,086
-735,269	8,465	-0,335	-0,185
-734,254	-90,569	0,199	0,042
-733,239	-15,769	-0,589	-0,276
-732,225	-39,590	0,215	0,083
-731,210	-200,000	-0,006	-0,032
-730,196	35,842	-0,156	-0,101
-729,181	-9,896	-0,076	-0,037
-728,167	625,870	-0,086	0,160
-727,152	800,000	-0,025	-0,053
-726,137	-16,849	-0,082	-0,038
-725,123	516,342	-0,024	-0,041
-724,108	263,417	-0,060	0,077
-723,094	800,000	0,006	0,014
-722,079	-67,087	0,025	0,007
-721,064	404,973	0,038	0,060
-720,050	-88,648	0,083	0,018
-719,035	163,245	-0,098	0,102
-718,021	29,646	0,064	0,040
-717,006	211,663	-0,022	-0,026
-715,991	130,894	-0,117	-0,111
-714,977	690,633	-0,031	-0,061
-713,962	479,641	-0,089	-0,149
-712,948	-200,000	0,100	-0,000
-711,933	171,481	-0,003	-0,004
-710,918	-200,000	-0,065	-0,000
-709,904	800,000	0,051	-0,140
-708,889	-200,000	-0,011	0,070
-707,875	800,000	0,069	-0,172
-706,860	-200,000	0,026	-0,138
-705,845	-125,229	-0,033	-0,004
-704,831	702,743	0,012	-0,023
-703,816	600,713	-0,053	-0,097
-702,802	-200,000	-0,010	0,132
-701,787	-200,000	-0,015	-0,115
-700,772	68,546	0,117	0,088
-699,758	116,651	-0,067	0,061
-698,743	800,000	0,009	0,022
-697,729	472,950	-0,111	0,185
-696,714	72,791	-0,063	0,049
-695,699	-66,968	-0,124	0,036
-694,685	39,786	-0,106	-0,070
-693,670	4,670	-0,188	-0,101
-692,656	-200,000	0,001	-0,043
-691,641	277,566	-0,085	-0,112
-690,627	-200,000	-0,040	0,218
-689,612	-109,295	0,077	0,012
-688,597	29,270	-0,009	0,006
-687,583	-144,206	-0,047	0,003
-686,568	-71,012	-0,061	-0,017
-685,554	13,111	-0,121	0,069
-684,539	-129,588	0,015	-0,001
-683,524	-73,840	0,074	-0,020
-682,510	284,627	0,070	0,093
-681,495	160,923	-0,075	0,077
-680,481	-14,120	-0,080	-0,038
-679,466	800,000	0,038	-0,083
-678,451	307,049	0,024	-0,033
-677,437	-188,670	-0,179	-0,002
-676,422	10,977	-0,046	0,026
-675,408	-59,035	-0,101	-0,032
-674,393	-200,000	-0,027	-0,115
-673,378	-200,000	-0,028	0,119
-672,364	-126,835	0,039	0,004
-671,349	-132,786	-0,104	-0,010
-670,335	164,879	-0,098	0,102
-669,320	-200,000	0,010	0,046
-668,305	-155,064	0,038	-0,002
-667,291	211,944	-0,112	-0,130
-666,276	-24,119	-0,134	-0,059
-665,262	800,000	-0,020	-0,052
-664,247	695,682	0,021	0,040
-663,232	50,357	-0,066	-0,046
-662,218	-66,072	-0,054	-0,016
-661,203	-200,000	-0,037	0,125
-660,189	319,153	0,050	0,070
-659,174	-183,518	-0,206	-0,003
-658,159	-200,000	0,001	-0,020
-657,145	49,827	-0,037	0,026
-656,130	41,239	0,084	-0,055
-655,116	-200,000	-0,004	-0,047
-654,101	67,689	0,143	0,107
-653,086	63,173	0,072	0,053
-652,072	-175,746	-0,075	0,001
-651,057	800,000	0,025	-0,052
-650,043	-100,390	-0,125	0,023
-649,028	-50,442	0,138	0,048
-648,014	-73,166	0,094	-0,025
-646,999	562,596	0,060	-0,106
-645,984	-200,000	-0,006	-0,051
-644,970	-106,683	0,028	0,004
-643,955	-200,000	-0,022	-0,078
-642,941	144,822	-0,105	-0,103
-641,926	-19,852	-0,090	-0,041
-640,911	800,000	0,015	-0,035
-639,897	-69,238	0,050	0,014
-638,882	252,491	0,052	-0,065
-637,868	67,131	0,025	0,019
-636,853	59,873	-0,072	-0,052
-635,838	800,000	-0,039	-0,114
-634,824	245,307	-0,078	-0,097
-633,809	10,465	-0,064	-0,036
-632,795	-200,000	-0,015	-0,108
-631,780	800,000	-0,044	0,113
-630,765	21,445	-0,059	-0,035
-629,751	800,000	-0,022	-0,068
-628,736	306,532	0,029	0,040
-627,722	-200,000	0,011	-0,102
-626,707	6,103	0,034	0,018
-625,692	356,466	-0,040	0,058
-624,678	-29,705	-0,032	-0,013
-623,663	603,709	0,043	0,078
-622,649	647,045	0,048	-0,091
-621,634	-200,000	0,016	-0,125
-620,619	-67,420	-0,070	-0,020
-619,605	800,000	0,033	-0,071
-618,590	800,000	-0,028	-0,060
-617,576	800,000	-0,044	-0,103
-616,561	-200,000	0,000	-0,069
-615,546	75,811	0,054	0,042
-614,532	269,814	-0,070	-0,090
-613,517	443,961	0,014	-0,022
-612,503	117,124	-0,146	-0,131
-611,488	175,774	-0,057	-0,060
-610,474	-55,527	-0,115	-0,037
-609,459	-66,937	0,069	-0,020
-608,444	-200,000	-0,007	-0,067
-607,430	-124,890	-0,125	0,014
-606,415	-200,000	0,028	-0,137
-605,401	-81,564	-0,070	-0,017
-604,386	-36,262	-0,025	0,010
-603,371	90,596	0,032	-0,026
-602,357	-200,000	0,015	-0,149
-601,342	-200,000	-0,018	0,170
-600,328	134,758	0,033	0,032
-599,313	-24,962	0,127	0,055
-598,298	54,754	-0,023	0,016
-597,284	-105,514	0,087	0,014
-596,269	-200,000	0,004	0,057
-595,255	46,287	0,089	-0,060
-594,240	-144,739	-0,167	0,011
-593,225	756,155	0,038	-0,075
-592,211	362,625	-0,048	-0,070
-591,196	438,388	-0,026	-0,042
-590,182	-76,202	-0,055	-0,014
-589,167	226,716	-0,037	0,044
-588,152	-200,000	-0,006	0,063
-587,138	-200,000	-0,003	0,036
-586,123	800,000	-0,056	-0,135
-585,109	391,881	-0,053	-0,081
-584,094	-200,000	-0,021	0,102
-583,079	-36,853	0,064	0,025
-582,065	58,840	-0,100	0,072
-581,050	24,359	0,074	-0,045
-580,036	-200,000	-0,007	0,029
-579,021	-200,000	0,010	-0,092
-578,006	108,133	-0,042	-0,037
-576,992	-200,000	-0,002	-0,109
-575,977	156,977	-0,031	-0,031
-574,963	800,000	-0,050	0,117
-573,948	-96,871	-0,120	0,023
-572,934	-200,000	-0,024	0,096
-571,919	-200,000	0,012	0,090
-570,904	60,628	-0,027	0,020
-569,890	-200,000	0,011	-0,050
-568,875	-66,329	0,127	-0,037
-567,861	-200,000	-0,029	-0,095
-566,846	96,417	-0,078	0,065
-565,831	800,000	0,062	0,195
-564,817	-173,249	-0,112	-0,002
-563,802	-34,337	-0,039	0,016
-562,788	50,621	0,144	-0,100
-561,773	159,056	-0,069	-0,070
-560,758	252,057	0,024	-0,030
-559,744	242,648	-0,036	-0,045
-558,729	800,000	-0,029	-0,065
-557,715	-89,927	0,064	-0,014
-556,700	-200,000	0,030	0,155
-555,685	-200,000	0,017	0,056
-554,671	23,812	0,030	-0,018
-553,656	289,110	-0,089	-0,118
-552,642	-200,000	-0,035	0,128
-551,627	131,871	-0,090	-0,085
-550,612	-200,000	0,037	0,144
-549,598	-84,407	-0,139	-0,032
-548,583	-87,953	-0,095	-0,021
-547,569	-47,031	0,066	0,023
-546,554	800,000	0,025	-0,053
-545,539	-200,000	0,006	-0,055
-544,525	-200,000	-0,023	0,081
-543,510	-185,250	-0,123	-0,001
-542,496	92,882	-0,059	-0,049
-541,481	-21,312	0,110	0,049
-540,466	258,847	0,027	0,034
-539,452	-150,850	0,108	-0,006
-538,437	-109,700	0,066	0,010
-537,423	100,710	-0,080	0,068
-536,408	390,337	-0,063	0,096
-535,393	65,015	0,091	0,067
-534,379	151,726	-0,073	-0,073
-533,364	-84,225	-0,161	0,037
-532,350	-60,012	0,061	-0,019
-531,335	800,000	0,023	0,058
-530,321	-200,000	-0,013	-0,162
-529,306	-116,016	0,119	-0,016
-528,291	59,311	0,110	-0,079
-527,277	488,588	-0,044	-0,074
-526,262	-70,878	0,022	-0,006
-525,248	15,854	0,079	-0,045
-524,233	213,956	-0,038	0,044
-523,218	49,288	0,068	-0,047
-522,204	122,417	-0,062	-0,057
-521,189	800,000	-0,005	-0,014
-520,175	57,171	-0,114	0,081
-519,160	148,759	-0,077	-0,076
-518,145	-135,135	-0,053	-0,005
-517,131	154,269	0,066	0,066
-516,116	608,527	0,066	-0,121
-515,102	112,074	-0,047	-0,042
-514,087	603,106	0,026	0,048
-513,072	38,141	-0,128	-0,083
-512,058	-22,929	0,132	-0,058
-511,043	194,150	0,076	0,084
-510,029	162,200	-0,026	0,027
-509,014	-200,000	0,009	-0,061
-507,999	-68,528	-0,054	-0,015
-506,985	-200,000	0,018	-0,079
-505,970	280,078	0,058	0,076
-504,956	-200,000	0,013	-0,045
-503,941	-106,579	0,059	0,009
-502,926	6,589	0,131	0,071
-501,912	-200,000	0,015	-0,108
-500,897	-155,045	-0,125	0,006
-499,883	244,232	-0,075	-0,092
-498,868	48,453	-0,071	-0,049
-497,853	-198,834	-0,094	0,000
-496,839	800,000	-0,049	0,102
-495,824	33,103	-0,052	-0,033
-494,810	-200,000	-0,030	0,177
-493,795	-39,408	-0,083	-0,031
-492,781	-200,000	-0,011	0,161
-491,766	334,279	-0,106	-0,151
-490,751	151,344	0,091	-0,091
-489,737	-200,000	0,011	0,048
-488,722	-200,000	-0,006	0,056
-487,708	76,808	-0,073	0,057
-486,693	-200,000	-0,005	0,040
-485,678	646,767	0,040	0,075
-484,664	-74,592	-0,015	0,004
-483,649	-35,914	-0,095	-0,037
-482,635	-118,085	-0,062	0,008
-481,620	-30,276	0,061	-0,025
-480,605	194,808	0,117	-0,130
-479,591	448,887	-0,052	0,084
-478,576	442,367	0,043	0,069
-477,562	-200,000	0,015	-0,146
-476,547	-148,030	0,111	0,007
-475,532	120,157	-0,085	-0,077
-474,518	-93,167	-0,058	-0,012
-473,503	-48,690	0,075	0,026
-472,489	65,116	0,065	0,048
-471,474	17,177	-0,035	0,020
-470,459	-163,975	-0,086	0,003
-469,445	406,874	-0,131	-0,202
-468,430	-113,944	0,105	-0,015
-467,416	-78,110	-0,086	0,022
-466,401	-33,501	0,105	-0,042
-465,386	135,395	0,051	-0,048
-464,372	292,455	-0,064	0,085
-463,357	-123,107	-0,045	-0,005
-462,343	4,604	-0,025	-0,013
-461,328	-200,000	0,007	-0,045
-460,313	800,000	0,037	0,078
-459,299	51,533	-0,026	-0,018
-458,284	24,807	-0,058	-0,035
-457,270	800,000	0,029	-0,081
-456,255	-100,336	-0,018	0,003
-455,241	455,264	0,032	-0,051
-454,226	630,107	-0,061	-0,112
-453,211	-200,000	-0,018	0,070
-452,197	-45,327	0,152	0,055
-451,182	-200,000	0,044	0,154
-450,168	-47,481	0,079	-0,028
-449,153	-84,344	-0,071	0,016
-448,138	-34,694	0,082	-0,032
-447,124	72,597	-0,052	0,039
-446,109	-200,000	0,015	0,116
-445,095	800,000	0,077	0,190
-444,080	406,440	0,031	0,048
-443,065	-200,000	-0,004	-0,015
-442,051	-176,708	0,056	0,001
-441,036	92,951	0,071	-0,058
-440,022	149,243	-0,092	-0,090
-439,007	215,850	0,082	0,095
-437,992	42,048	0,216	0,142
-436,978	800,000	0,050	0,112
-435,963	-45,267	-0,119	0,043
-434,949	396,447	-0,061	0,093
-433,934	800,000	-0,008	0,022
-432,919	-102,553	0,119	0,020
-431,905	800,000	0,059	-0,123
-430,890	-200,000	-0,032	0,133
-429,876	-157,667	0,062	-0,003
-428,861	274,732	-0,059	0,077
-427,846	155,767	-0,020	-0,020
-426,832	-200,000	-0,035	-0,122
-425,817	108,894	-0,063	-0,055
-424,803	92,812	0,057	-0,047
-423,788	0,555	-0,109	-0,057
-422,773	154,282	-0,069	0,069
-421,759	-200,000	-0,028	0,104
-420,744	-11,760	0,056	0,027
-419,730	-126,092	-0,044	0,005
-418,715	800,000	0,033	-0,091
-417,701	375,846	-0,084	-0,124
-416,686	-196,968	0,056	0,000
-415,671	-200,000	-0,011	0,196
-414,657	334,487	0,052	0,073
-413,642	-200,000	0,027	-0,126
-412,628	23,892	0,059	0,035
-411,613	-11,879	-0,084	0,040
-410,598	-200,000	-0,010	0,071
-409,584	-200,000	-0,030	-0,118
-408,569	-200,000	0,015	0,074
-407,555	-130,802	-0,080	-0,008
-406,540	-200,000	0,002	-0,059
-405,525	40,161	0,167	0,109
-404,511	-200,000	-0,030	0,118
-403,496	-127,102	-0,202	0,021
-402,482	259,524	0,089	0,111
-401,467	-200,000	0,005	0,084
-400,452	149,023	-0,041	-0,040
-399,438	300,870	-0,031	0,042
-398,423	126,395	-0,055	0,050
-397,409	-200,000	0,019	-0,113
-396,394	366,494	-0,057	-0,084
-395,379	286,352	0,030	0,040
-394,365	-200,000	0,010	-0,075
-393,350	10,785	0,084	0,047
-392,336	-113,678	0,070	-0,010
-391,321	92,188	0,064	0,053
-390,306	109,333	-0,047	-0,041
-389,292	451,052	0,030	-0,049
-388,277	800,000	-0,018	0,038
-387,263	101,263	0,008	0,006
-386,248	-32,714	-0,018	-0,007
-385,233	2,844	0,133	-0,070
-384,219	-200,000	0,001	0,090
-383,204	78,287	0,050	-0,039
-382,190	-68,523	0,042	-0,012
-381,175	48,895	-0,096	0,065
-380,160	-200,000	0,001	0,011
-379,146	130,333	-0,158	0,147
-378,131	146,362	-0,018	-0,017
-377,117	6,209	0,067	0,036
-376,102	159,467	-0,072	-0,073
-375,088	6,289	-0,055	-0,030
-374,073	-69,911	0,135	-0,037
-373,058	19,499	-0,130	0,076
-372,044	800,000	-0,074	-0,177
-371,029	326,096	0,032	-0,044
-370,015	-103,308	-0,110	0,019
-369,000	570,564	-0,015	0,027
-367,985	237,684	0,019	0,023
-366,971	286,808	0,050	-0,066
-365,956	43,577	0,079	-0,052
-364,942	-200,000	0,035	0,117
-363,927	750,457	-0,058	-0,114
-362,912	-200,000	0,007	-0,122
-361,898	-200,000	0,037	-0,229
-360,883	-25,246	-0,202	-0,086
-359,869	-200,000	-0,012	-0,148
-358,854	8,518	0,148	0,081
-357,839	118,858	-0,052	0,046
-356,825	149,120	0,069	0,068
-355,810	-63,648	-0,107	-0,032
-354,796	161,624	-0,043	-0,043
-353,781	-172,169	-0,073	0,002
-352,766	-117,315	0,060	-0,008
-351,752	-200,000	0,040	0,137
-350,737	-129,728	-0,059	-0,006
-349,723	-120,108	-0,027	0,003
-348,708	-200,000	0,017	-0,081
-347,693	402,722	0,029	0,045
-346,679	43,183	0,071	0,047
-345,664	215,175	-0,114	-0,132
-344,650	220,900	0,077	0,090
-343,635	6,928	-0,076	0,041
-342,620	-36,736	0,130	0,050
-341,606	705,327	0,047	0,090
-340,591	-200,000	0,028	-0,094
-339,577	39,285	-0,055	0,035
-338,562	-166,779	-0,079	0,002
-337,548	800,000	-0,033	-0,075
-336,533	-200,000	-0,009	-0,098
-335,518	-101,519	-0,139	0,024
-334,504	-200,000	-0,050	0,163
-333,489	-46,235	-0,086	0,030
-332,475	736,019	-0,026	-0,050
-331,460	-102,633	-0,071	0,012
-330,445	-186,254	-0,048	-0,000
-329,431	17,113	0,091	0,052
-328,416	-200,000	0,010	0,067
-327,402	526,713	-0,036	-0,062
-326,387	-105,809	0,175	0,028
-325,372	800,000	-0,032	0,086
-324,358	50,595	-0,101	-0,069
-323,343	-128,572	0,065	0,007
-322,329	-140,299	0,144	-0,011
-321,314	529,507	-0,011	0,019
-320,299	-8,213	-0,007	-0,003
-319,285	58,284	0,142	-0,100
-318,270	-200,000	-0,013	-0,061
-317,256	-96,712	0,124	-0,023
-316,241	-200,000	-0,011	0,036
-315,226	17,716	0,029	0,017
-314,212	800,000	0,018	0,052
-313,197	-200,000	0,027	-0,129
-312,183	-74,937	0,153	-0,039
-311,168	166,044	-0,092	-0,094
-310,153	-200,000	-0,009	-0,183
-309,139	-47,533	0,075	-0,026
-308,124	-200,000	-0,009	0,139
-307,110	-83,336	0,078	0,018
-306,095	-200,000	0,015	0,142
-305,080	-200,000	-0,010	0,165
-304,066	72,698	0,058	0,044
-303,051	232,393	-0,070	-0,083
-302,037	0,965	-0,104	-0,054
-301,022	-200,000	-0,006	0,149
-300,008	3,313	0,172	0,091
-298,993	43,898	0,071	0,047
-297,978	-200,000	0,010	0,052
-296,964	800,000	-0,023	0,052
-295,949	373,621	-0,032	0,047
-294,935	125,312	-0,081	-0,074
-293,920	-112,197	0,042	-0,006
-292,905	-200,000	-0,007	0,118
-291,891	205,710	0,114	0,129
-290,876	181,058	-0,030	0,031
-289,862	27,321	0,031	0,019
-288,847	-200,000	0,004	0,041
-287,832	461,683	0,078	0,126
-286,818	154,945	0,157	0,156
-285,803	-200,000	-0,008	0,052
-284,789	800,000	0,055	0,113
-283,774	-24,988	-0,105	0,045
-282,759	-59,497	0,082	0,025
-281,745	434,505	0,047	0,075
-280,730	800,000	-0,059	0,133
-279,716	800,000	0,030	0,077
-278,701	800,000	0,093	0,231
-277,686	-47,478	-0,042	0,015
-276,672	165,025	0,074	0,076
-275,657	-177,984	-0,073	0,001
-274,643	483,419	-0,077	-0,126
-273,628	800,000	0,031	-0,087
-272,613	-200,000	0,002	-0,033
-271,599	124,579	0,088	-0,080
-270,584	-144,044	-0,080	0,005
-269,570	48,437	0,055	-0,037
-268,555	-200,000	-0,011	-0,054
-267,540	404,474	0,054	-0,082
-266,526	-68,225	0,156	0,044
-265,511	462,692	0,049	-0,079
-264,497	-81,280	-0,045	-0,011
-263,482	530,332	-0,011	-0,018
-262,467	-0,994	-0,088	-0,045
-261,453	-200,000	-0,040	-0,206
-260,438	-200,000	-0,016	0,114
-259,424	800,000	0,034	-0,079
-258,409	111,413	-0,078	0,068
-257,395	-200,000	0,002	0,021
-256,380	800,000	0,032	0,101
-255,365	-200,000	-0,002	0,087
-254,351	800,000	0,029	-0,061
-253,336	800,000	0,029	0,060
-252,322	165,842	-0,014	-0,014
-251,307	-200,000	-0,002	-0,085
-250,292	-7,198	0,102	-0,050
-249,278	800,000	0,052	-0,159
-248,263	36,488	0,180	0,115
-247,249	-200,000	0,047	-0,177
-246,234	97,503	-0,139	0,115
-245,219	-200,000	-0,036	-0,204
-244,205	0,066	0,014	-0,007
-243,190	43,093	0,158	-0,104
-242,176	64,491	0,056	-0,041
-241,161	-62,264	-0,032	0,010
-240,146	-200,000	-0,019	0,078
-239,132	82,571	-0,081	-0,064
-238,117	-139,607	0,024	-0,002
-237,103	-60,325	-0,084	0,026
-236,088	-103,028	0,084	-0,014
-235,073	727,092	0,083	0,161
-234,059	-200,000	0,029	0,105
-233,044	353,540	0,079	0,114
-232,030	-200,000	0,042	0,173
-231,015	61,140	0,018	0,013
-230,000	-200,000	0,004	-0,144
-228,986	470,258	-0,046	0,075
-227,971	-152,388	0,083	0,004
-226,957	-200,000	-0,048	0,155
-225,942	-110,832	0,074	0,011
-224,927	-200,000	-0,005	-0,087
-223,913	-20,647	-0,073	0,032
-222,898	800,000	-0,008	0,019
-221,884	-54,730	0,027	-0,009
-220,869	200,536	-0,073	0,081
-219,855	-78,272	0,164	-0,040
-218,840	-200,000	-0,008	0,116
-217,825	44,336	-0,093	-0,061
-216,811	2,528	-0,046	-0,024
-215,796	-12,559	-0,037	0,017
-214,782	800,000	0,019	0,057
-213,767	-200,000	0,052	-0,236
-212,752	142,166	0,069	-0,066
-211,738	800,000	0,034	-0,069
-210,723	-200,000	0,028	-0,089
-209,709	14,546	-0,024	0,013
-208,694	381,221	0,024	0,035
-207,679	-122,168	0,138	0,016
-206,665	-200,000	-0,027	0,165
-205,650	473,051	-0,035	0,057
-204,636	774,471	0,031	-0,061
-203,621	249,664	0,040	0,049
-202,606	-11,243	-0,078	0,037
-201,592	345,961	0,047	-0,066
-200,577	-33,040	0,128	-0,051
-199,563	-200,000	-0,027	-0,102
-198,548	800,000	-0,061	0,156
-197,533	145,298	0,046	0,044
-196,519	211,742	0,072	-0,082
-195,504	-78,606	0,017	-0,004
-194,490	169,077	-0,031	-0,032
-193,475	-200,000	-0,018	-0,064
-192,460	259,171	-0,017	-0,021
-191,446	800,000	0,038	0,108
-190,431	-127,129	-0,010	-0,001
-189,417	-54,951	0,121	-0,039
-188,402	-92,920	-0,058	-0,012
-187,387	-200,000	-0,040	-0,170
-186,373	-200,000	-0,001	-0,012
-185,358	-78,944	-0,115	-0,028
-184,344	-184,111	0,133	0,002
-183,329	-200,000	-0,032	0,105
-182,315	-200,000	-0,017	0,143
-181,300	-200,000	-0,007	0,067
-180,285	35,140	-0,076	0,048
-179,271	160,089	-0,110	-0,110
-178,256	-200,000	0,006	0,051
-177,242	-200,000	0,008	0,121
-176,227	590,808	-0,039	0,070
-175,212	-200,000	-0,023	-0,075
-174,198	-200,000	-0,108	0,000
-173,183	800,000	-0,047	-0,136
-172,169	-118,286	-0,142	0,018
-171,154	-200,000	0,016	0,052
-170,139	139,127	-0,049	0,046
-169,125	773,183	0,056	0,111
-168,110	718,283	-0,078	-0,150
-167,096	211,626	-0,043	-0,049
-166,081	105,257	0,011	0,009
-165,066	15,485	-0,121	0,068
-164,052	8,460	0,135	-0,073
-163,037	-200,000	0,011	0,144
-162,023	-200,000	0,035	0,250
-161,008	-200,000	0,005	-0,020
-159,993	264,312	0,091	0,114
-158,979	-200,000	0,030	-0,119
-157,964	-107,878	0,025	0,004
-156,950	32,146	-0,018	-0,011
-155,935	199,321	-0,058	0,064
-154,920	-104,646	0,138	-0,023
-153,906	-191,841	0,104	-0,001
-152,891	-84,558	-0,177	-0,040
-151,877	800,000	-0,012	-0,027
-150,862	-14,431	0,049	-0,023
-149,847	431,589	-0,030	-0,047
-148,833	352,778	-0,046	0,066
-147,818	-200,000	0,031	0,130
-146,804	-200,000	-0,004	0,021
-145,789	-200,000	0,000	-0,108
-144,775	-118,038	-0,032	-0,004
-143,760	-42,358	0,172	-0,063
-142,745	553,062	-0,012	0,021
-141,731	150,009	0,065	-0,064
-140,716	310,957	0,013	0,017
-139,702	221,981	-0,075	-0,087
-138,687	-32,181	0,150	-0,060
-137,672	64,790	0,033	0,024
-136,658	-5,581	-0,128	0,063
-135,643	-60,861	-0,023	0,007
-134,629	474,831	-0,035	0,057
-133,614	-200,000	-0,010	0,086
-132,599	329,691	0,046	0,064
-131,585	275,627	0,053	0,068
-130,570	76,173	-0,031	-0,024
-129,556	457,136	-0,066	-0,105
-128,541	107,631	0,058	0,050
-127,526	13,653	0,081	-0,045
-126,512	38,848	-0,040	-0,026
-125,497	72,645	0,008	0,006
-124,483	135,476	-0,085	0,080
-123,468	511,960	0,036	-0,060
-122,453	800,000	-0,047	0,097
-121,439	-138,819	-0,106	-0,008
-120,424	-200,000	-0,004	0,088
-119,410	-37,754	0,018	-0,007
