DTS Sentinel unit serial number:	SN410029Multiplexer serial number:	ORYXHardware model number:	OX2-SRSoftware version number:	ORYX F/W v4,00 Oryx Data Collector v3.7.2.0data status	okinstallation	B5 Nyhavnadifferential loss correction	single-endedforward channel	channel 2reverse channel	N/Adate	2023/12/13time	23:17:13forward acquisition time	300,00reverse acquisition time	0,00gamma	499,1914k internal	0,3154k external	0,3154temperature offset calibration	1,0000default loss term (dB/km)	0,3820temperature slope calibration	1,0000multiplexer offset coefficient	1,0000multiplexer slope coefficient	1,0000fibre end	0,00T internal ref (°C)	8,96T ext. ref 1 (°C)	-7,56T ext. ref 2 (°C)	-7,55length (m)	temperature (°C)	Stokes	anti-Stokes-744,400	86,548	0,115	0,094
-743,385	-41,204	-0,275	0,104
-742,371	14,049	0,206	0,118
-741,356	-79,107	-0,306	-0,076
-740,342	67,072	0,152	0,114
-739,327	-42,544	-0,432	-0,162
-738,312	-22,979	0,171	0,076
-737,298	-134,975	-0,429	-0,038
-736,283	-51,837	0,119	-0,041
-735,269	-37,205	-0,396	-0,155
-734,254	93,274	0,089	0,074
-733,239	-103,993	-0,633	-0,108
-732,225	-120,502	0,223	0,028
-731,210	-200,000	0,012	-0,043
-730,196	-200,000	-0,016	0,065
-729,181	-51,107	-0,040	-0,014
-728,167	-2,473	0,033	0,017
-727,152	128,324	-0,046	-0,043
-726,137	-47,232	-0,161	-0,057
-725,123	98,430	0,014	-0,012
-724,108	-200,000	0,008	0,139
-723,094	-200,000	-0,006	-0,056
-722,079	417,949	-0,112	-0,178
-721,064	617,993	-0,031	-0,058
-720,050	119,893	-0,026	0,024
-719,035	-200,000	0,017	0,102
-718,021	-11,782	0,084	-0,041
-717,006	-200,000	0,013	-0,173
-715,991	444,223	-0,086	-0,140
-714,977	-133,078	-0,040	-0,004
-713,962	-102,982	0,012	0,002
-712,948	-82,444	-0,100	-0,024
-711,933	-122,075	-0,145	0,017
-710,918	800,000	0,051	0,140
-709,904	-117,972	-0,051	0,007
-708,889	-200,000	0,002	-0,011
-707,875	-82,259	-0,047	0,011
-706,860	-60,171	0,022	0,007
-705,845	-200,000	-0,012	-0,097
-704,831	48,869	0,092	-0,063
-703,816	-168,967	0,059	-0,002
-702,802	228,003	0,035	-0,042
-701,787	316,535	0,060	0,084
-700,772	95,518	-0,033	-0,028
-699,758	800,000	-0,047	-0,110
-698,743	-159,419	0,113	-0,005
-697,729	73,798	-0,072	0,056
-696,714	800,000	0,042	0,135
-695,699	9,386	0,092	-0,051
-694,685	-18,039	-0,025	-0,011
-693,670	-131,743	-0,065	-0,006
-692,656	-200,000	-0,031	0,126
-691,641	-57,597	-0,097	-0,031
-690,627	-0,040	0,077	0,040
-689,612	58,455	0,146	-0,105
-688,597	100,038	-0,020	-0,017
-687,583	478,968	0,018	-0,029
-686,568	800,000	0,087	-0,198
-685,554	-139,273	-0,166	0,013
-684,539	-133,888	-0,038	-0,003
-683,524	800,000	0,062	0,160
-682,510	94,951	-0,084	-0,070
-681,495	246,498	0,038	-0,048
-680,481	-200,000	0,009	-0,054
-679,466	120,331	-0,174	-0,159
-678,451	25,461	-0,071	-0,043
-677,437	-109,132	-0,046	0,007
-676,422	131,861	0,012	0,012
-675,408	-200,000	-0,023	-0,075
-674,393	-53,994	-0,081	0,027
-673,378	-147,876	-0,106	0,006
-672,364	-84,228	-0,103	0,024
-671,349	-200,000	0,002	0,025
-670,335	-24,719	0,161	-0,070
-669,320	-200,000	-0,009	0,108
-668,305	-200,000	0,009	0,104
-667,291	-200,000	-0,037	0,253
-666,276	257,080	-0,057	0,073
-665,262	180,550	-0,105	-0,114
-664,247	355,556	0,006	-0,008
-663,232	-181,079	0,186	-0,003
-662,218	101,541	-0,097	0,083
-661,203	-10,822	-0,021	0,010
-660,189	-181,485	0,190	0,003
-659,174	51,278	-0,087	-0,060
-658,159	125,617	-0,056	-0,052
-657,145	634,112	0,066	-0,124
-656,130	-200,000	-0,019	-0,075
-655,116	-200,000	0,014	0,066
-654,101	-200,000	-0,021	0,075
-653,086	-200,000	0,019	0,129
-652,072	-200,000	-0,016	-0,067
-651,057	-200,000	0,000	0,022
-650,043	-28,851	0,019	-0,008
-649,028	90,925	0,070	0,058
-648,014	-153,012	0,200	-0,010
-646,999	800,000	0,034	0,073
-645,984	-62,547	0,049	-0,015
-644,970	-49,352	-0,125	0,044
-643,955	84,692	-0,133	0,107
-642,941	800,000	-0,035	-0,071
-641,926	292,549	0,097	-0,130
-640,911	800,000	-0,049	0,107
-639,897	-200,000	0,004	0,138
-638,882	104,094	0,101	0,087
-637,868	-27,969	-0,156	0,066
-636,853	67,227	-0,180	-0,135
-635,838	10,699	-0,025	-0,014
-634,824	-39,674	-0,073	-0,028
-633,809	-18,004	0,045	0,021
-632,795	-17,094	-0,078	0,036
-631,780	29,077	0,088	0,055
-630,765	-33,533	-0,065	-0,026
-629,751	800,000	-0,015	-0,032
-628,736	741,178	-0,024	-0,048
-627,722	286,440	-0,041	-0,054
-626,707	114,338	-0,048	-0,043
-625,692	-200,000	0,025	-0,097
-624,678	-118,837	-0,066	-0,008
-623,663	-26,535	0,147	-0,063
-622,649	-95,897	-0,143	0,028
-621,634	800,000	-0,036	-0,075
-620,619	200,239	-0,096	0,109
-619,605	-200,000	0,045	0,179
-618,590	-148,547	0,074	0,004
-617,576	800,000	0,028	0,076
-616,561	473,005	-0,069	0,114
-615,546	-200,000	0,034	-0,135
-614,532	64,632	-0,043	-0,032
-613,517	745,061	-0,087	-0,172
-612,503	371,257	0,021	0,032
-611,488	-14,039	0,146	-0,069
-610,474	422,321	-0,055	0,086
-609,459	800,000	-0,038	0,083
-608,444	-200,000	-0,003	0,048
-607,430	55,317	-0,060	0,043
-606,415	736,244	-0,083	-0,163
-605,401	33,091	-0,106	0,067
-604,386	-16,421	-0,164	0,076
-603,371	-200,000	0,009	-0,119
-602,357	77,468	-0,087	-0,068
-601,342	61,849	-0,076	0,055
-600,328	163,892	-0,082	-0,085
-599,313	575,272	-0,042	-0,075
-598,298	66,913	-0,034	-0,025
-597,284	-89,508	-0,038	-0,008
-596,269	800,000	0,030	-0,076
-595,255	-135,032	0,085	0,007
-594,240	170,398	0,011	0,011
-593,225	-200,000	0,019	-0,110
-592,211	470,251	-0,078	-0,128
-591,196	390,942	-0,097	-0,148
-590,182	190,949	0,119	0,132
-589,167	-129,386	-0,096	-0,010
-588,152	171,007	0,070	0,073
-587,138	168,156	0,010	0,010
-586,123	105,476	-0,040	0,035
-585,109	104,251	-0,031	0,027
-584,094	149,855	-0,054	0,054
-583,079	-140,742	0,073	0,005
-582,065	-7,570	0,112	0,055
-581,050	-45,754	-0,160	-0,058
-580,036	-90,597	0,078	0,016
-579,021	118,174	-0,100	-0,091
-578,006	-87,020	-0,074	0,016
-576,992	-43,814	-0,065	0,024
-575,977	800,000	-0,013	0,026
-574,963	184,714	0,115	-0,125
-573,948	-118,259	-0,027	-0,004
-572,934	-200,000	0,015	-0,078
-571,919	800,000	0,041	-0,125
-570,904	-119,749	-0,077	0,010
-569,890	-106,898	-0,013	-0,002
-568,875	130,278	0,080	-0,076
-567,861	186,351	-0,033	0,037
-566,846	87,675	0,075	0,061
-565,831	-166,145	-0,042	-0,001
-564,817	-32,538	-0,106	0,043
-563,802	248,346	-0,035	-0,044
-562,788	-9,758	-0,079	0,038
-561,773	278,765	0,076	-0,100
-560,758	598,781	0,028	0,050
-559,744	-200,000	0,035	0,165
-558,729	-200,000	0,003	0,030
-557,715	122,332	-0,093	-0,086
-556,700	187,853	0,075	0,082
-555,685	51,509	0,105	-0,073
-554,671	-74,165	0,138	-0,036
-553,656	-151,401	0,056	-0,003
-552,642	-113,072	0,054	-0,008
-551,627	106,111	-0,070	0,061
-550,612	50,258	-0,200	0,139
-549,598	800,000	0,025	0,051
-548,583	-33,162	-0,065	-0,026
-547,569	88,767	0,043	0,035
-546,554	800,000	0,046	0,095
-545,539	80,465	0,093	0,073
-544,525	-200,000	0,027	-0,131
-543,510	8,444	0,132	0,072
-542,496	-86,024	-0,110	0,025
-541,481	169,512	-0,088	-0,092
-540,466	-115,141	0,127	0,017
-539,452	-200,000	-0,017	0,070
-538,437	213,637	0,026	0,031
-537,423	-29,637	0,134	0,056
-536,408	800,000	0,020	-0,064
-535,393	82,814	-0,115	-0,091
-534,379	-2,969	-0,105	-0,053
-533,364	557,442	0,063	-0,112
-532,350	291,609	0,075	0,100
-531,335	-16,189	0,098	-0,045
-530,321	-200,000	0,014	0,062
-529,306	23,000	-0,218	-0,130
-528,291	35,293	-0,158	-0,101
-527,277	800,000	-0,074	-0,163
-526,262	-96,839	0,118	0,023
-525,248	-55,604	0,071	-0,023
-524,233	-6,009	-0,082	0,041
-523,218	-200,000	-0,009	0,115
-522,204	296,332	-0,068	0,092
-521,189	-60,540	-0,090	-0,028
-520,175	-200,000	-0,037	-0,129
-519,160	-157,406	-0,056	0,002
-518,145	370,574	-0,066	-0,099
-517,131	380,156	-0,051	-0,077
-516,116	-41,991	0,054	-0,020
-515,102	488,272	-0,083	0,138
-514,087	-10,727	-0,057	0,028
-513,072	29,488	0,080	0,050
-512,058	-200,000	-0,002	-0,055
-511,043	246,044	0,049	-0,060
-510,029	-200,000	-0,003	-0,012
-509,014	800,000	0,053	-0,121
-507,999	280,966	0,079	-0,104
-506,985	-124,694	-0,122	0,014
-505,970	131,132	-0,078	0,073
-504,956	21,864	-0,031	0,018
-503,941	243,625	0,103	0,126
-502,926	225,099	-0,067	0,079
-501,912	7,935	0,107	-0,058
-500,897	-134,666	-0,147	-0,013
-499,883	-200,000	-0,003	0,046
-498,868	133,925	0,081	-0,076
-497,853	800,000	0,043	-0,128
-496,839	800,000	0,019	-0,045
-495,824	-200,000	0,013	0,055
-494,810	800,000	0,033	0,073
-493,795	-200,000	-0,010	0,042
-492,781	800,000	0,040	-0,099
-491,766	-200,000	-0,014	-0,051
-490,751	84,307	-0,037	0,030
-489,737	282,768	0,015	-0,019
-488,722	-113,596	-0,113	0,016
-487,708	-87,656	0,092	0,020
-486,693	338,884	0,021	0,030
-485,678	-200,000	0,005	-0,016
-484,664	567,837	0,110	-0,196
-483,649	102,506	0,019	-0,016
-482,635	156,486	-0,035	-0,035
-481,620	72,254	0,109	0,083
-480,605	85,300	-0,024	0,019
-479,591	183,181	-0,048	0,051
-478,576	559,005	0,010	0,017
-477,562	-200,000	-0,004	-0,042
-476,547	-38,886	-0,079	-0,030
-475,532	222,784	0,040	-0,047
-474,518	-200,000	-0,004	-0,040
-473,503	47,447	-0,026	-0,018
-472,489	37,060	0,155	0,100
-471,474	169,834	-0,126	0,132
-470,459	-24,379	-0,056	-0,024
-469,445	344,678	0,067	-0,097
-468,430	-37,141	-0,086	0,033
-467,416	800,000	0,019	-0,044
-466,401	46,238	0,194	0,131
-465,386	314,128	-0,098	0,134
-464,372	-49,958	-0,118	0,041
-463,357	-146,440	-0,130	-0,008
-462,343	-200,000	-0,024	-0,139
-461,328	-200,000	0,021	-0,152
-460,313	14,804	0,009	0,005
-459,299	-69,884	0,062	-0,017
-458,284	-30,855	0,030	0,012
-457,270	800,000	-0,036	0,093
-456,255	-33,890	-0,152	-0,061
-455,241	139,590	0,014	0,013
-454,226	-200,000	-0,010	-0,060
-453,211	130,679	0,058	-0,054
-452,197	65,313	0,059	-0,043
-451,182	628,685	-0,041	0,076
-450,168	-200,000	-0,008	0,038
-449,153	-200,000	-0,009	0,045
-448,138	99,215	-0,028	0,023
-447,124	800,000	-0,027	-0,071
-446,109	245,547	0,047	0,058
-445,095	-72,154	-0,067	0,018
-444,080	-76,954	0,144	-0,036
-443,065	215,014	0,062	-0,072
-442,051	-200,000	-0,043	0,197
-441,036	10,041	-0,051	0,028
-440,022	-15,395	0,065	-0,030
-439,007	-200,000	0,007	-0,065
-437,992	64,226	-0,057	-0,042
-436,978	143,054	0,037	0,035
-435,963	-108,723	0,031	0,005
-434,949	-200,000	0,003	0,152
-433,934	-34,536	-0,124	-0,049
-432,919	164,219	0,065	0,067
-431,905	452,679	-0,025	0,041
-430,890	752,414	0,024	0,047
-429,876	163,722	0,036	0,037
-428,861	-21,805	-0,100	-0,044
-427,846	-200,000	0,008	0,082
-426,832	-7,336	-0,110	0,054
-425,817	-97,397	0,052	-0,010
-424,803	119,690	0,086	0,078
-423,788	243,361	-0,059	-0,072
-422,773	-22,750	0,047	0,020
-421,759	-127,678	0,145	0,015
-420,744	204,927	0,097	0,110
-419,730	31,279	0,139	-0,087
-418,715	14,087	-0,139	-0,078
-417,701	-37,237	0,048	-0,018
-416,686	-9,417	0,092	-0,045
-415,671	484,118	0,053	0,088
-414,657	-77,660	0,166	0,041
-413,642	-200,000	0,040	0,187
-412,628	-61,611	0,086	-0,026
-411,613	-71,316	0,103	-0,028
-410,598	8,645	-0,113	0,062
-409,584	-157,321	0,128	0,006
-408,569	129,059	-0,044	0,041
-407,555	-40,413	0,071	0,027
-406,540	-100,810	-0,067	-0,012
-405,525	-200,000	0,005	-0,088
-404,511	58,718	0,103	-0,073
-403,496	6,107	-0,092	0,049
-402,482	-178,607	-0,161	-0,003
-401,467	-51,096	0,022	-0,008
-400,452	545,590	0,046	0,081
-399,438	70,259	0,038	-0,028
-398,423	763,152	-0,057	-0,114
-397,409	392,464	-0,030	-0,045
-396,394	83,408	-0,090	0,071
-395,379	157,534	0,025	0,025
-394,365	800,000	0,022	0,050
-393,350	-200,000	0,029	0,137
-392,336	-59,560	-0,083	0,026
-391,321	210,311	-0,046	-0,052
-390,306	52,900	-0,015	0,011
-389,292	201,387	-0,086	-0,097
-388,277	-200,000	-0,010	0,044
-387,263	-79,168	0,130	-0,032
-386,248	-200,000	-0,011	0,075
-385,233	-200,000	0,004	0,135
-384,219	-200,000	-0,050	-0,164
-383,204	28,360	0,085	-0,052
-382,190	800,000	0,028	-0,084
-381,175	35,000	-0,106	-0,067
-380,160	83,194	-0,054	0,043
-379,146	-31,701	0,030	-0,012
-378,131	-70,401	0,019	0,005
-377,117	-200,000	-0,003	-0,110
-376,102	-200,000	0,002	-0,083
-375,088	-160,967	-0,153	0,006
-374,073	-47,248	0,102	0,036
-373,058	-124,451	-0,134	-0,015
-372,044	84,201	0,106	-0,084
-371,029	-120,290	0,059	-0,007
-370,015	-139,716	-0,057	-0,004
-369,000	218,701	0,015	0,018
-367,985	-200,000	0,003	0,077
-366,971	31,818	0,182	-0,114
-365,956	-200,000	-0,007	0,082
-364,942	178,952	0,063	-0,067
-363,927	-200,000	-0,034	0,151
-362,912	115,173	0,087	0,077
-361,898	148,302	0,075	-0,073
-360,883	-200,000	0,010	-0,097
-359,869	421,642	-0,071	-0,111
-358,854	-41,207	0,122	-0,046
-357,839	497,565	0,018	0,031
-356,825	-84,721	0,086	0,019
-355,810	800,000	-0,022	-0,061
-354,796	569,040	0,085	0,151
-353,781	709,092	-0,031	0,060
-352,766	-5,370	-0,006	-0,003
-351,752	-200,000	0,010	-0,060
-350,737	73,092	0,096	0,073
-349,723	800,000	-0,056	0,119
-348,708	-166,767	-0,036	-0,001
-347,693	47,513	-0,082	-0,055
-346,679	-28,493	-0,090	-0,038
-345,664	800,000	-0,068	-0,144
-344,650	-200,000	-0,014	-0,049
-343,635	-119,208	0,027	0,003
-342,620	-200,000	0,027	-0,090
-341,606	-200,000	-0,007	-0,093
-340,591	213,477	0,087	0,100
-339,577	-200,000	-0,010	-0,085
-338,562	188,162	0,087	0,094
-337,548	-43,251	-0,023	0,008
-336,533	-159,461	-0,115	0,005
-335,518	-36,423	0,149	-0,058
-334,504	-50,639	0,091	0,031
-333,489	-200,000	-0,012	-0,099
-332,475	-200,000	0,010	-0,044
-331,460	-200,000	-0,003	-0,060
-330,445	-200,000	-0,003	0,053
-329,431	628,094	0,018	0,034
-328,416	-200,000	0,034	0,111
-327,402	191,156	-0,043	0,047
-326,387	800,000	-0,040	0,092
-325,372	114,190	0,046	0,041
-324,358	122,213	0,008	0,007
-323,343	-117,656	-0,131	0,017
-322,329	-109,118	-0,116	-0,018
-321,314	-200,000	0,025	0,106
-320,299	-200,000	-0,007	0,111
-319,285	34,988	-0,065	-0,041
-318,270	155,425	0,046	0,046
-317,256	800,000	-0,015	-0,035
-316,241	194,608	0,042	-0,046
-315,226	-200,000	0,015	-0,081
-314,212	87,966	0,097	-0,078
-313,197	-157,222	-0,129	0,006
-312,183	-65,148	-0,088	0,026
-311,168	468,416	0,066	0,109
-310,153	65,389	-0,018	0,013
-309,139	-145,146	-0,038	0,002
-308,124	-17,791	0,110	-0,050
-307,110	179,589	-0,028	0,029
-306,095	-8,114	-0,039	-0,019
-305,080	-120,809	0,044	0,005
-304,066	-22,425	0,087	0,038
-303,051	351,910	0,105	-0,152
-302,037	110,415	-0,038	-0,033
-301,022	61,882	0,084	0,061
-300,008	-79,289	0,103	0,025
-298,993	-178,775	-0,105	0,002
-297,978	492,894	-0,089	0,148
-296,964	800,000	0,020	-0,061
-295,949	-48,950	0,159	-0,055
-294,935	133,508	-0,088	-0,082
-293,920	-200,000	-0,017	0,082
-292,905	-200,000	-0,030	0,139
-291,891	91,786	0,126	-0,103
-290,876	800,000	0,023	0,052
-289,862	-13,979	-0,099	0,046
-288,847	-105,126	0,102	-0,017
-287,832	800,000	-0,025	0,075
-286,818	800,000	-0,024	0,051
-285,803	-117,634	0,114	-0,015
-284,789	-67,797	-0,053	-0,015
-283,774	-90,337	-0,029	0,006
-282,759	38,519	0,113	0,073
-281,745	-200,000	-0,011	-0,052
-280,730	-200,000	-0,043	-0,146
-279,716	-200,000	-0,051	-0,170
-278,701	148,312	0,043	-0,042
-277,686	-46,792	0,131	0,046
-276,672	184,284	0,037	-0,040
-275,657	283,891	-0,014	-0,018
-274,643	-200,000	-0,044	-0,238
-273,628	34,394	-0,023	0,015
-272,613	-200,000	0,003	0,072
-271,599	1,345	-0,042	0,022
-270,584	-200,000	0,003	0,026
-269,570	800,000	0,023	-0,057
-268,555	173,605	0,095	0,100
-267,540	235,722	0,035	-0,043
-266,526	800,000	0,018	-0,048
-265,511	800,000	0,060	-0,171
-264,497	-200,000	-0,007	0,034
-263,482	-200,000	-0,008	0,030
-262,467	-200,000	0,008	0,032
-261,453	67,308	-0,023	0,017
-260,438	-111,880	0,138	-0,020
-259,424	-200,000	0,000	-0,038
-258,409	800,000	0,035	0,087
-257,395	-200,000	0,006	0,051
-256,380	283,398	0,093	0,121
-255,365	-200,000	0,030	0,101
-254,351	231,018	-0,042	0,050
-253,336	-116,425	-0,078	-0,010
-252,322	-32,430	-0,023	-0,009
-251,307	-109,933	-0,016	-0,002
-250,292	-148,911	-0,104	-0,006
-249,278	10,749	-0,003	0,002
-248,263	643,646	-0,050	-0,093
-247,249	606,434	-0,010	0,019
-246,234	-84,830	-0,082	0,018
-245,219	-200,000	-0,004	-0,083
-244,205	800,000	0,085	-0,185
-243,190	-200,000	0,033	-0,106
-242,176	153,640	0,055	0,055
-241,161	-113,219	-0,022	0,003
-240,146	-121,875	0,112	0,013
-239,132	-200,000	-0,021	0,071
-238,117	72,304	-0,039	0,029
-237,103	84,682	0,081	0,064
-236,088	-89,401	-0,002	0,000
-235,073	-200,000	-0,005	0,029
-234,059	-200,000	-0,021	0,238
-233,044	514,894	0,030	-0,050
-232,030	-200,000	-0,006	0,058
-231,015	-152,098	0,100	-0,005
-230,000	-200,000	0,007	0,031
-228,986	-200,000	-0,012	-0,049
-227,971	800,000	-0,068	0,184
-226,957	120,871	0,125	0,112
-225,942	-167,351	0,107	-0,003
-224,927	-200,000	-0,006	0,142
-223,913	88,786	-0,097	0,078
-222,898	800,000	-0,040	-0,080
-221,884	-73,838	0,027	0,007
-220,869	-200,000	-0,002	-0,009
-219,855	-105,977	0,134	0,022
-218,840	800,000	-0,044	-0,118
-217,825	-53,338	-0,088	0,029
-216,811	-200,000	0,012	0,100
-215,796	800,000	-0,062	-0,137
-214,782	-200,000	0,011	-0,047
-213,767	-200,000	0,016	-0,089
-212,752	-200,000	-0,004	-0,055
-211,738	-13,124	0,110	0,052
-210,723	-100,528	-0,005	0,001
-209,709	397,979	0,031	-0,047
-208,694	-74,096	-0,098	-0,026
-207,679	-200,000	0,010	-0,063
-206,665	-200,000	-0,011	-0,041
-205,650	800,000	-0,018	0,051
-204,636	399,576	-0,043	-0,065
-203,621	-200,000	-0,009	0,036
-202,606	-200,000	0,001	0,054
-201,592	145,906	-0,103	-0,099
-200,577	718,581	-0,072	-0,139
-199,563	7,322	-0,139	-0,075
-198,548	-49,578	0,130	0,044
-197,533	98,143	0,117	0,097
-196,519	-94,034	-0,108	0,021
-195,504	357,401	-0,039	-0,056
-194,490	-200,000	0,049	-0,211
-193,475	-200,000	-0,041	0,173
-192,460	-200,000	0,009	0,031
-191,446	800,000	-0,035	0,077
-190,431	800,000	-0,005	0,012
-189,417	-200,000	-0,011	-0,153
-188,402	516,403	-0,031	0,053
-187,387	268,880	0,053	0,067
-186,373	161,271	-0,061	-0,062
-185,358	195,561	0,075	-0,082
-184,344	310,205	0,084	0,114
-183,329	337,330	0,057	0,080
-182,315	393,017	0,060	0,090
-181,300	-76,240	0,081	0,020
-180,285	-200,000	0,005	0,106
-179,271	622,255	-0,022	0,041
-178,256	-200,000	-0,048	0,175
-177,242	214,622	0,078	0,089
-176,227	800,000	-0,052	0,119
-175,212	-147,906	0,074	0,004
-174,198	-200,000	0,010	-0,078
-173,183	-180,391	-0,084	-0,001
-172,169	-200,000	-0,034	-0,128
-171,154	-200,000	-0,006	0,033
-170,139	332,090	-0,073	0,101
-169,125	-200,000	-0,014	-0,069
-168,110	-50,562	0,043	-0,014
-167,096	-200,000	-0,012	-0,092
-166,081	558,272	-0,038	0,067
-165,066	-200,000	-0,003	-0,100
-164,052	800,000	-0,084	-0,239
-163,037	28,759	0,170	0,103
-162,023	297,768	0,015	-0,020
-161,008	-200,000	-0,018	0,118
-159,993	800,000	0,014	-0,035
-158,979	-200,000	0,001	-0,108
-157,964	47,070	-0,015	0,010
-156,950	-200,000	0,002	0,024
-155,935	-103,949	-0,078	0,013
-154,920	77,443	0,060	-0,046
-153,906	-200,000	-0,010	0,048
-152,891	9,551	-0,089	0,049
-151,877	-99,930	-0,079	0,014
-150,862	-42,261	-0,143	-0,052
-149,847	-200,000	0,005	-0,049
-148,833	38,844	0,084	-0,054
-147,818	14,569	0,055	0,031
-146,804	-42,741	0,122	-0,044
-145,789	194,279	-0,060	-0,065
-144,775	-51,012	0,199	0,067
-143,760	-51,061	-0,042	-0,014
-142,745	-97,813	0,056	-0,010
-141,731	-200,000	0,028	0,170
-140,716	-200,000	-0,009	0,041
-139,702	-158,381	0,053	0,002
-138,687	-139,112	-0,052	0,004
-137,672	202,891	-0,114	0,127
-136,658	-102,971	0,116	-0,020
-135,643	-200,000	0,019	-0,133
-134,629	-5,194	0,071	-0,035
-133,614	800,000	0,065	0,171
-132,599	218,176	-0,020	0,023
-131,585	-104,571	0,115	0,019
-130,570	-39,170	-0,126	-0,047
-129,556	3,662	-0,064	-0,034
-128,541	18,991	0,022	-0,013
-127,526	-90,587	-0,075	-0,016
-126,512	800,000	0,045	-0,101
-125,497	-200,000	-0,005	0,051
-124,483	261,538	0,067	0,084
-123,468	800,000	-0,020	-0,043
-122,453	-200,000	0,032	-0,109
-121,439	191,121	-0,075	-0,081
-120,424	82,114	0,117	-0,091
-119,410	-11,466	0,069	-0,033
