DTS Sentinel unit serial number:	SN410029Multiplexer serial number:	ORYXHardware model number:	OX2-SRSoftware version number:	ORYX F/W v4,00 Oryx Data Collector v3.7.2.0data status	okinstallation	B5 Nyhavnadifferential loss correction	single-endedforward channel	channel 2reverse channel	N/Adate	2023/12/13time	02:47:13forward acquisition time	300,00reverse acquisition time	0,00gamma	499,1914k internal	0,3160k external	0,3160temperature offset calibration	1,0000default loss term (dB/km)	0,3820temperature slope calibration	1,0000multiplexer offset coefficient	1,0000multiplexer slope coefficient	1,0000fibre end	0,00T internal ref (°C)	14,00T ext. ref 1 (°C)	-2,44T ext. ref 2 (°C)	-2,75length (m)	temperature (°C)	Stokes	anti-Stokes-744,400	-157,709	0,145	-0,006
-743,385	-144,538	-0,277	-0,019
-742,371	-194,443	0,224	-0,001
-741,356	-105,129	-0,237	0,039
-740,342	-200,000	-0,015	0,103
-739,327	-81,238	-0,290	-0,070
-738,312	-200,000	0,016	0,137
-737,298	-88,060	-0,265	-0,058
-736,283	-93,958	0,139	-0,028
-735,269	-1,608	-0,361	0,187
-734,254	-151,196	0,215	0,012
-733,239	-0,383	-0,668	-0,349
-732,225	-2,994	0,205	-0,105
-731,210	-134,307	0,015	-0,001
-730,196	42,354	-0,086	0,057
-729,181	141,724	0,088	-0,086
-728,167	-105,466	0,093	-0,015
-727,152	220,162	-0,071	-0,084
-726,137	-82,938	0,066	-0,016
-725,123	257,641	-0,109	-0,138
-724,108	249,515	0,045	-0,056
-723,094	-136,262	0,014	-0,001
-722,079	-179,972	0,114	0,002
-721,064	-200,000	0,013	-0,055
-720,050	303,331	0,016	-0,022
-719,035	710,096	-0,044	-0,085
-718,021	-200,000	-0,002	-0,098
-717,006	-200,000	-0,039	-0,181
-715,991	-200,000	-0,010	-0,033
-714,977	-200,000	0,007	-0,043
-713,962	-1,909	-0,121	-0,062
-712,948	-108,705	-0,087	-0,014
-711,933	-46,343	-0,083	-0,030
-710,918	-27,462	-0,074	-0,032
-709,904	800,000	-0,015	-0,046
-708,889	-200,000	-0,049	-0,170
-707,875	-200,000	-0,007	0,048
-706,860	28,389	-0,065	0,041
-705,845	342,417	-0,018	0,026
-704,831	800,000	0,030	0,082
-703,816	185,539	-0,033	-0,036
-702,802	262,573	0,008	-0,011
-701,787	121,554	-0,093	-0,085
-700,772	-200,000	0,005	-0,072
-699,758	-200,000	-0,002	0,015
-698,743	44,999	0,050	0,034
-697,729	-1,852	0,043	0,022
-696,714	-54,815	0,075	-0,025
-695,699	-200,000	-0,020	-0,067
-694,685	-81,473	-0,032	0,008
-693,670	175,086	0,049	-0,053
-692,656	-200,000	-0,013	-0,057
-691,641	-108,037	-0,108	0,017
-690,627	-45,306	0,122	-0,044
-689,612	-59,314	-0,049	0,016
-688,597	-148,507	0,040	-0,002
-687,583	-200,000	0,003	-0,077
-686,568	90,249	-0,090	-0,074
-685,554	-75,670	0,097	-0,025
-684,539	245,751	0,014	-0,017
-683,524	104,702	-0,009	-0,008
-682,510	98,187	-0,038	-0,032
-681,495	-200,000	-0,005	0,027
-680,481	-85,965	0,096	-0,022
-679,466	-200,000	0,007	0,032
-678,451	-200,000	0,006	0,029
-677,437	-100,633	-0,030	0,005
-676,422	-200,000	-0,001	0,068
-675,408	-70,532	-0,028	-0,008
-674,393	-200,000	-0,008	0,050
-673,378	-59,968	-0,031	-0,010
-672,364	-200,000	0,002	-0,019
-671,349	2,991	0,021	0,011
-670,335	-200,000	0,001	0,028
-669,320	159,944	-0,011	-0,012
-668,305	800,000	-0,009	0,022
-667,291	800,000	-0,017	0,041
-666,276	800,000	0,032	0,072
-665,262	-200,000	-0,196	0,000
-664,247	-57,404	0,036	0,011
-663,232	635,560	0,081	0,152
-662,218	-127,033	0,083	-0,009
-661,203	-82,912	-0,041	-0,010
-660,189	25,657	0,046	0,028
-659,174	-110,169	-0,049	0,007
-658,159	23,137	-0,090	-0,054
-657,145	499,646	0,037	0,064
-656,130	252,616	-0,006	0,008
-655,116	441,234	0,022	0,036
-654,101	344,641	0,026	0,037
-653,086	-83,963	0,033	0,008
-652,072	43,955	0,022	-0,014
-651,057	413,598	-0,095	-0,149
-650,043	-200,000	-0,021	-0,085
-649,028	-27,003	-0,002	0,001
-648,014	-38,152	0,120	0,047
-646,999	-118,250	0,165	-0,021
-645,984	70,922	0,043	0,033
-644,970	-86,589	-0,111	0,025
-643,955	124,536	-0,075	-0,069
-642,941	175,863	-0,016	0,017
-641,926	-11,436	0,019	0,009
-640,911	800,000	0,020	0,044
-639,897	478,681	0,076	0,126
-638,882	-173,026	-0,038	-0,001
-637,868	182,349	0,040	-0,043
-636,853	-48,866	-0,077	-0,027
-635,838	-173,847	-0,070	-0,001
-634,824	-200,000	0,028	-0,104
-633,809	116,393	-0,025	0,023
-632,795	548,971	-0,006	0,010
-631,780	-200,000	0,004	0,060
-630,765	137,216	0,079	0,076
-629,751	216,826	-0,024	-0,028
-628,736	118,033	-0,111	-0,100
-627,722	-200,000	-0,018	-0,058
-626,707	-136,659	0,069	0,006
-625,692	-2,546	0,042	0,022
-624,678	-88,981	0,122	0,026
-623,663	569,608	-0,025	0,045
-622,649	-23,038	-0,138	0,061
-621,634	-73,942	-0,034	0,009
-620,619	287,225	-0,099	-0,131
-619,605	79,437	0,064	0,050
-618,590	89,936	-0,070	-0,057
-617,576	-200,000	0,002	-0,019
-616,561	800,000	-0,032	0,089
-615,546	15,185	0,071	0,041
-614,532	-53,394	-0,138	0,046
-613,517	109,673	-0,072	-0,063
-612,503	-125,249	0,113	-0,013
-611,488	-173,903	0,091	-0,002
-610,474	800,000	0,054	0,136
-609,459	88,870	0,067	0,054
-608,444	53,069	-0,039	0,027
-607,430	-200,000	-0,017	-0,119
-606,415	800,000	0,031	-0,078
-605,401	800,000	-0,025	0,055
-604,386	-20,217	0,132	0,059
-603,371	-200,000	0,010	0,106
-602,357	800,000	0,013	-0,040
-601,342	301,217	0,027	-0,037
-600,328	-146,333	-0,036	0,002
-599,313	-200,000	0,033	-0,116
-598,298	-178,142	0,045	0,001
-597,284	277,268	0,069	-0,090
-596,269	-200,000	0,013	0,065
-595,255	-35,996	-0,123	-0,048
-594,240	800,000	0,050	-0,117
-593,225	-200,000	0,015	-0,072
-592,211	-200,000	0,015	-0,078
-591,196	-200,000	-0,021	-0,070
-590,182	-200,000	-0,012	-0,076
-589,167	42,861	0,088	-0,059
-588,152	800,000	-0,031	0,068
-587,138	446,382	-0,032	0,051
-586,123	236,486	-0,027	-0,033
-585,109	-200,000	0,011	0,053
-584,094	153,473	-0,086	-0,086
-583,079	100,037	0,104	-0,089
-582,065	800,000	-0,047	-0,126
-581,050	800,000	-0,030	-0,079
-580,036	612,208	-0,021	-0,038
-579,021	-106,337	-0,198	-0,032
-578,006	112,487	-0,074	0,065
-576,992	-200,000	-0,003	-0,028
-575,977	-3,939	-0,049	-0,025
-574,963	573,900	-0,046	0,082
-573,948	75,545	0,105	-0,081
-572,934	15,860	-0,059	0,034
-571,919	34,840	-0,160	0,102
-570,904	-200,000	0,002	-0,062
-569,890	-25,571	-0,174	-0,075
-568,875	800,000	0,039	-0,107
-567,861	-80,997	0,198	-0,048
-566,846	-173,910	0,134	0,003
-565,831	800,000	-0,061	-0,124
-564,817	-200,000	-0,019	-0,073
-563,802	95,505	-0,076	-0,064
-562,788	-200,000	-0,013	-0,140
-561,773	35,519	-0,063	-0,040
-560,758	-119,278	0,113	-0,014
-559,744	800,000	-0,022	-0,057
-558,729	-200,000	0,016	-0,058
-557,715	-10,252	-0,056	0,027
-556,700	-200,000	0,017	0,100
-555,685	-185,406	-0,041	0,000
-554,671	-5,185	0,009	0,005
-553,656	704,222	0,030	0,058
-552,642	119,130	-0,049	0,045
-551,627	-128,255	0,026	-0,003
-550,612	19,600	0,068	-0,040
-549,598	-133,671	-0,138	-0,012
-548,583	-109,158	-0,071	-0,011
-547,569	191,970	0,061	0,067
-546,554	166,632	0,036	-0,038
-545,539	741,189	0,041	0,082
-544,525	280,574	0,038	0,050
-543,510	132,058	-0,158	-0,149
-542,496	226,830	-0,063	-0,075
-541,481	424,946	-0,099	-0,157
-540,466	-200,000	-0,008	0,059
-539,452	40,855	0,051	0,034
-538,437	461,022	-0,031	0,050
-537,423	-1,811	0,090	-0,046
-536,408	-131,520	-0,094	-0,009
-535,393	-200,000	-0,032	0,157
-534,379	181,863	-0,017	-0,018
-533,364	209,745	-0,082	-0,094
-532,350	-200,000	-0,013	0,060
-531,335	-200,000	0,024	-0,084
-530,321	180,272	-0,064	-0,068
-529,306	-49,773	0,023	0,008
-528,291	-87,774	0,094	-0,020
-527,277	134,882	-0,058	-0,055
-526,262	-53,260	-0,088	-0,029
-525,248	7,994	0,054	-0,029
-524,233	-56,774	-0,141	0,045
-523,218	242,116	-0,090	0,110
-522,204	683,148	-0,037	0,070
-521,189	-200,000	-0,008	0,173
-520,175	324,445	-0,084	0,117
-519,160	87,426	-0,074	0,060
-518,145	-200,000	0,027	0,221
-517,131	-111,490	-0,107	-0,016
-516,116	35,264	0,063	0,041
-515,102	188,676	-0,091	0,099
-514,087	-40,730	0,090	0,034
-513,072	94,203	-0,030	-0,025
-512,058	-10,821	-0,099	0,048
-511,043	113,247	-0,050	0,045
-510,029	800,000	0,069	0,152
-509,014	-200,000	-0,004	0,139
-507,999	487,225	-0,061	-0,102
-506,985	-15,558	0,043	-0,020
-505,970	-200,000	-0,001	0,112
-504,956	-102,268	-0,055	0,010
-503,941	-200,000	-0,048	0,208
-502,926	800,000	-0,047	0,151
-501,912	169,264	-0,089	-0,092
-500,897	243,813	0,043	0,053
-499,883	-98,719	-0,024	0,004
-498,868	279,540	-0,009	0,012
-497,853	25,428	0,082	-0,049
-496,839	-13,113	0,019	0,009
-495,824	58,693	0,109	-0,078
-494,810	34,276	-0,229	0,145
-493,795	-200,000	-0,002	-0,101
-492,781	-36,034	-0,054	-0,021
-491,766	-200,000	-0,001	-0,075
-490,751	-200,000	-0,011	-0,069
-489,737	800,000	0,031	-0,067
-488,722	-200,000	0,017	0,059
-487,708	-200,000	0,042	0,228
-486,693	-149,693	-0,252	-0,014
-485,678	800,000	0,062	-0,130
-484,664	-200,000	-0,000	-0,029
-483,649	202,811	0,093	0,105
-482,635	-140,227	0,057	-0,004
-481,620	705,427	0,028	0,054
-480,605	-79,595	0,062	0,015
-479,591	-70,373	-0,075	0,021
-478,576	-200,000	-0,006	-0,058
-477,562	-9,532	-0,040	0,019
-476,547	-69,911	0,093	-0,026
-475,532	-100,772	-0,074	-0,013
-474,518	239,368	0,022	-0,026
-473,503	140,683	-0,080	-0,077
-472,489	179,730	-0,042	0,045
-471,474	-86,465	0,022	-0,005
-470,459	800,000	0,028	-0,084
-469,445	36,691	0,055	-0,036
-468,430	461,992	0,034	-0,055
-467,416	90,837	0,158	0,129
-466,401	-17,486	-0,086	0,039
-465,386	-200,000	-0,001	0,019
-464,372	800,000	0,028	-0,057
-463,357	-132,306	-0,133	0,012
-462,343	-200,000	0,003	-0,131
-461,328	544,607	-0,013	-0,022
-460,313	69,481	-0,072	0,054
-459,299	800,000	0,044	0,138
-458,284	-200,000	-0,009	0,042
-457,270	382,548	0,017	0,026
-456,255	442,700	0,030	0,048
-455,241	395,903	-0,013	-0,020
-454,226	-13,897	0,090	-0,042
-453,211	-25,662	-0,183	0,078
-452,197	17,265	0,138	-0,079
-451,182	-112,328	-0,029	0,004
-450,168	-200,000	-0,004	0,128
-449,153	-61,100	0,050	-0,015
-448,138	-2,991	-0,103	0,052
-447,124	245,488	0,034	0,041
-446,109	-95,785	-0,097	-0,019
-445,095	146,991	0,035	-0,034
-444,080	50,883	0,078	-0,054
-443,065	800,000	0,037	0,084
-442,051	47,626	-0,078	0,053
-441,036	-75,566	-0,125	-0,032
-440,022	488,833	0,016	-0,027
-439,007	800,000	0,021	0,057
-437,992	-50,742	-0,056	-0,019
-436,978	-33,249	0,100	0,040
-435,963	-200,000	-0,015	0,052
-434,949	800,000	-0,051	0,109
-433,934	86,821	0,076	-0,061
-432,919	-33,074	-0,056	0,022
-431,905	585,343	-0,016	-0,028
-430,890	311,903	0,069	0,095
-429,876	21,883	0,153	0,090
-428,861	800,000	-0,039	0,089
-427,846	800,000	-0,058	0,130
-426,832	-113,993	-0,085	0,012
-425,817	45,789	-0,036	-0,024
-424,803	800,000	-0,017	0,048
-423,788	-18,933	0,070	0,031
-422,773	-89,770	-0,107	-0,023
-421,759	-81,983	-0,027	0,006
-420,744	244,571	-0,065	-0,079
-419,730	-182,691	-0,152	0,002
-418,715	-57,718	0,171	-0,054
-417,701	28,224	0,049	-0,030
-416,686	87,200	-0,046	-0,037
-415,671	-200,000	0,024	0,100
-414,657	-200,000	-0,006	0,038
-413,642	-200,000	0,099	0,000
-412,628	-200,000	0,010	-0,051
-411,613	-115,629	-0,056	0,008
-410,598	-200,000	-0,017	-0,138
-409,584	272,778	-0,073	0,094
-408,569	-56,961	0,062	0,020
-407,555	-84,560	-0,078	0,018
-406,540	34,168	-0,057	0,036
-405,525	140,639	-0,073	-0,070
-404,511	-121,709	0,053	-0,006
-403,496	125,874	0,058	-0,053
-402,482	-60,168	-0,095	0,029
-401,467	-124,073	0,154	-0,017
-400,452	-200,000	0,001	-0,052
-399,438	-200,000	0,006	-0,095
-398,423	143,364	0,025	-0,024
-397,409	-68,509	-0,063	0,018
-396,394	53,075	0,141	-0,098
-395,379	-200,000	0,010	-0,052
-394,365	-60,709	-0,072	-0,022
-393,350	800,000	0,039	0,081
-392,336	-61,923	0,052	0,016
-391,321	150,656	-0,074	0,073
-390,306	205,593	0,030	-0,034
-389,292	-200,000	0,024	0,094
-388,277	51,658	0,011	0,008
-387,263	-40,014	0,028	-0,011
-386,248	683,272	-0,062	0,118
-385,233	105,021	0,071	0,060
-384,219	-4,137	0,048	-0,024
-383,204	695,498	-0,068	-0,130
-382,190	-59,780	-0,076	0,023
-381,175	-200,000	-0,017	-0,079
-380,160	89,795	0,109	-0,088
-379,146	223,770	-0,038	-0,044
-378,131	-102,315	-0,111	0,019
-377,117	-176,408	-0,100	0,002
-376,102	-147,860	0,016	-0,001
-375,088	-200,000	-0,012	-0,111
-374,073	-51,704	0,084	0,028
-373,058	-163,194	0,142	-0,005
-372,044	565,516	0,038	-0,068
-371,029	610,308	0,038	0,069
-370,015	606,001	0,061	-0,111
-369,000	-200,000	-0,001	-0,032
-367,985	12,825	-0,107	0,060
-366,971	3,348	0,147	0,078
-365,956	-90,905	0,081	-0,017
-364,942	-200,000	0,019	0,126
-363,927	-200,000	-0,015	0,076
-362,912	682,333	-0,045	0,086
-361,898	-200,000	-0,032	0,142
-360,883	-200,000	0,031	-0,123
-359,869	-81,475	-0,006	0,001
-358,854	-108,879	0,127	0,019
-357,839	-200,000	-0,008	-0,034
-356,825	14,523	0,120	-0,068
-355,810	166,298	-0,054	0,056
-354,796	-200,000	-0,027	-0,096
-353,781	-200,000	0,009	-0,087
-352,766	-200,000	0,015	-0,101
-351,752	14,364	0,062	-0,035
-350,737	281,611	-0,078	0,102
-349,723	654,392	0,089	0,167
-348,708	-91,181	0,133	0,027
-347,693	349,136	-0,028	-0,041
-346,679	183,182	-0,081	0,087
-345,664	261,195	0,126	-0,159
-344,650	-114,309	-0,151	-0,021
-343,635	41,921	0,028	0,019
-342,620	668,389	0,126	0,237
-341,606	800,000	0,042	0,111
-340,591	-107,052	-0,144	-0,023
-339,577	156,826	-0,117	-0,117
-338,562	104,006	-0,043	-0,037
-337,548	304,121	-0,056	0,076
-336,533	-25,289	0,068	-0,029
-335,518	445,752	-0,019	0,030
-334,504	423,248	0,013	-0,021
-333,489	-200,000	-0,051	0,214
-332,475	800,000	-0,014	-0,040
-331,460	164,734	-0,075	0,077
-330,445	-200,000	0,003	0,018
-329,431	-60,222	0,143	-0,044
-328,416	-29,150	0,162	0,067
-327,402	-200,000	0,012	0,111
-326,387	800,000	0,009	-0,021
-325,372	435,667	0,028	-0,044
-324,358	497,493	0,072	-0,121
-323,343	281,879	0,054	-0,071
-322,329	-82,822	0,138	0,032
-321,314	-48,228	-0,097	0,034
-320,299	800,000	0,059	0,140
-319,285	-32,699	-0,128	0,051
-318,270	640,643	0,021	0,038
-317,256	-192,551	0,070	0,000
-316,241	181,978	-0,028	-0,030
-315,226	94,839	-0,146	0,120
-314,212	-75,672	0,059	0,015
-313,197	45,309	-0,009	0,006
-312,183	-134,925	0,058	0,005
-311,168	291,664	0,091	-0,120
-310,153	114,513	-0,023	-0,021
-309,139	-88,931	0,047	-0,010
-308,124	126,723	-0,018	-0,016
-307,110	-200,000	-0,009	-0,109
-306,095	-143,831	-0,125	-0,008
-305,080	800,000	0,031	-0,076
-304,066	455,012	-0,049	-0,079
-303,051	-200,000	-0,040	-0,171
-302,037	800,000	-0,041	-0,110
-301,022	-86,737	0,031	0,007
-300,008	800,000	-0,016	-0,040
-298,993	-87,208	-0,049	0,011
-297,978	599,648	0,062	0,113
-296,964	526,486	-0,067	-0,114
-295,949	-200,000	-0,038	-0,156
-294,935	-37,918	0,034	0,013
-293,920	-200,000	-0,006	-0,052
-292,905	-12,204	-0,081	-0,038
-291,891	-47,735	0,068	0,024
-290,876	800,000	0,006	-0,014
-289,862	50,095	-0,040	-0,027
-288,847	464,845	0,038	-0,061
-287,832	-200,000	-0,032	-0,192
-286,818	-40,985	0,097	-0,036
-285,803	-48,789	-0,030	0,010
-284,789	563,548	0,035	0,062
-283,774	24,207	0,077	-0,046
-282,759	-200,000	-0,002	0,049
-281,745	-24,622	-0,046	-0,020
-280,730	111,758	-0,057	-0,050
-279,716	412,852	-0,069	0,107
-278,701	800,000	-0,015	0,039
-277,686	800,000	0,024	0,062
-276,672	1,607	-0,070	0,036
-275,657	115,750	0,123	-0,109
-274,643	-200,000	0,009	-0,049
-273,628	-37,863	0,070	0,027
-272,613	-42,197	0,075	-0,028
-271,599	55,583	0,077	-0,054
-270,584	-140,430	0,051	0,004
-269,570	-197,631	-0,078	0,000
-268,555	800,000	-0,024	-0,049
-267,540	33,022	-0,063	-0,039
-266,526	-200,000	0,003	0,020
-265,511	-22,632	0,198	-0,086
-264,497	-36,731	-0,106	0,041
-263,482	-68,283	0,071	-0,020
-262,467	-200,000	-0,005	0,122
-261,453	-200,000	-0,042	0,143
-260,438	800,000	0,007	0,019
-259,424	-128,348	0,117	-0,012
-258,409	176,611	-0,055	0,058
-257,395	791,255	0,049	-0,098
-256,380	-30,396	0,145	-0,059
-255,365	231,894	0,057	0,068
-254,351	-200,000	0,025	0,158
-253,336	98,325	-0,045	-0,037
-252,322	-69,724	-0,046	-0,013
-251,307	-17,119	0,035	-0,016
-250,292	332,459	0,053	-0,074
-249,278	-200,000	-0,023	0,235
-248,263	-92,964	0,153	0,031
-247,249	183,934	0,056	0,060
-246,234	800,000	0,045	-0,144
-245,219	-20,445	-0,088	-0,039
-244,205	-115,582	0,089	-0,012
-243,190	800,000	0,069	0,160
-242,176	800,000	0,043	-0,112
-241,161	64,314	-0,073	-0,053
-240,146	800,000	0,040	-0,080
-239,132	800,000	0,020	-0,049
-238,117	-145,723	-0,142	0,009
-237,103	800,000	-0,065	-0,133
-236,088	84,647	0,035	-0,028
-235,073	520,033	0,031	-0,053
-234,059	800,000	-0,086	-0,192
-233,044	-111,141	0,178	-0,026
-232,030	96,733	0,038	-0,031
-231,015	277,238	0,071	-0,092
-230,000	800,000	-0,048	-0,147
-228,986	-90,607	-0,072	0,015
-227,971	407,462	0,066	0,101
-226,957	-200,000	-0,022	0,109
-225,942	-7,083	0,104	-0,051
-224,927	-90,186	-0,103	-0,021
-223,913	-143,775	-0,116	0,008
-222,898	103,167	0,100	-0,085
-221,884	135,071	0,010	-0,009
-220,869	-85,477	-0,088	0,020
-219,855	383,249	0,027	-0,040
-218,840	-16,950	0,184	0,084
-217,825	25,734	-0,038	-0,023
-216,811	-60,734	0,083	-0,025
-215,796	-200,000	0,002	-0,062
-214,782	800,000	-0,057	-0,125
-213,767	-149,598	-0,062	0,003
-212,752	-28,755	0,123	0,051
-211,738	-200,000	0,008	0,122
-210,723	-2,051	0,098	0,049
-209,709	334,541	-0,011	-0,015
-208,694	-21,200	-0,100	-0,044
-207,679	-200,000	-0,020	-0,072
-206,665	-77,262	0,069	0,017
-205,650	143,248	-0,089	0,085
-204,636	-103,594	0,088	0,015
-203,621	-164,266	-0,062	-0,002
-202,606	-200,000	0,031	0,171
-201,592	35,145	-0,147	-0,092
-200,577	-141,459	-0,066	-0,005
-199,563	41,296	-0,118	-0,077
-198,548	168,579	0,055	0,056
-197,533	-81,991	0,066	0,015
-196,519	-200,000	0,010	-0,049
-195,504	50,090	0,039	0,027
-194,490	-17,887	-0,107	-0,048
-193,475	13,913	-0,085	-0,048
-192,460	44,969	-0,019	-0,012
-191,446	372,135	0,028	-0,041
-190,431	220,276	0,049	0,057
-189,417	-1,744	0,084	0,043
-188,402	42,224	0,060	-0,040
-187,387	131,996	-0,075	0,069
-186,373	220,923	-0,043	0,049
-185,358	-36,168	0,092	-0,036
-184,344	495,819	0,084	0,140
-183,329	-200,000	-0,000	0,108
-182,315	53,037	-0,068	0,047
-181,300	90,229	0,124	0,100
-180,285	-106,422	-0,155	0,025
-179,271	-200,000	0,005	0,047
-178,256	68,976	0,131	0,097
-177,242	800,000	-0,025	0,060
-176,227	800,000	0,041	0,099
-175,212	169,542	0,038	-0,039
-174,198	-107,213	-0,020	0,003
-173,183	72,277	-0,029	-0,022
-172,169	-100,007	-0,149	-0,027
-171,154	696,723	-0,076	-0,145
-170,139	17,809	0,053	0,030
-169,125	-9,097	0,076	0,037
-168,110	136,298	0,062	0,058
-167,096	76,438	0,128	0,098
-166,081	-200,000	-0,019	-0,106
-165,066	-200,000	0,005	-0,026
-164,052	35,378	0,023	0,014
-163,037	-104,126	-0,079	0,013
-162,023	-200,000	-0,023	0,108
-161,008	436,046	0,066	0,103
-159,993	-200,000	0,004	-0,088
-158,979	482,933	-0,076	-0,126
-157,964	-200,000	0,035	-0,132
-156,950	-50,096	-0,105	0,036
-155,935	-129,376	-0,019	0,002
-154,920	136,917	0,070	0,065
-153,906	-106,031	0,140	-0,022
-152,891	-200,000	-0,012	-0,120
-151,877	-82,352	-0,120	0,028
-150,862	50,369	0,074	-0,050
-149,847	66,218	0,094	0,069
-148,833	-58,927	0,040	0,012
-147,818	800,000	0,015	0,044
-146,804	-200,000	0,004	0,020
-145,789	-37,621	-0,098	-0,037
-144,775	-103,033	0,147	-0,025
-143,760	-200,000	0,001	0,025
-142,745	-200,000	-0,020	-0,170
-141,731	-200,000	-0,017	0,088
-140,716	-200,000	0,006	0,050
-139,702	-38,989	-0,116	0,044
-138,687	177,861	-0,059	0,062
-137,672	179,314	0,049	0,052
-136,658	39,657	-0,054	0,035
-135,643	232,990	-0,029	-0,034
-134,629	-78,448	0,090	-0,022
-133,614	-92,434	0,109	0,022
-132,599	-200,000	-0,016	-0,066
-131,585	180,801	-0,075	0,079
-130,570	800,000	-0,034	0,075
-129,556	-108,725	0,050	0,008
-128,541	-200,000	0,007	-0,170
-127,526	-200,000	0,013	0,054
-126,512	218,083	0,082	-0,094
-125,497	149,814	0,077	0,075
-124,483	186,409	0,042	0,045
-123,468	690,804	-0,019	0,037
-122,453	216,579	-0,030	0,034
-121,439	180,292	-0,085	0,089
-120,424	439,538	0,103	0,163
-119,410	-200,000	0,006	0,056
