DTS Sentinel unit serial number:	SN410029Multiplexer serial number:	ORYXHardware model number:	OX2-SRSoftware version number:	ORYX F/W v4,00 Oryx Data Collector v3.7.2.0data status	okinstallation	B5 Nyhavnadifferential loss correction	single-endedforward channel	channel 2reverse channel	N/Adate	2023/12/12time	18:32:13forward acquisition time	300,00reverse acquisition time	0,00gamma	499,1914k internal	0,3157k external	0,3157temperature offset calibration	1,0000default loss term (dB/km)	0,3820temperature slope calibration	1,0000multiplexer offset coefficient	1,0000multiplexer slope coefficient	1,0000fibre end	0,00T internal ref (°C)	15,60T ext. ref 1 (°C)	-0,92T ext. ref 2 (°C)	-1,23length (m)	temperature (°C)	Stokes	anti-Stokes-744,400	106,127	0,093	-0,081
-743,385	-131,546	-0,261	-0,025
-742,371	68,741	0,107	-0,081
-741,356	-126,106	-0,299	-0,033
-740,342	800,000	-0,030	0,074
-739,327	-101,072	-0,155	-0,028
-738,312	170,370	0,086	-0,091
-737,298	25,022	-0,095	-0,058
-736,283	-151,830	0,047	0,003
-735,269	22,181	-0,220	0,132
-734,254	-19,717	0,067	-0,030
-733,239	18,190	-0,433	-0,254
-732,225	-38,634	0,143	0,055
-731,210	35,636	-0,185	0,119
-730,196	363,866	0,093	-0,139
-729,181	570,100	-0,021	-0,038
-728,167	-142,160	-0,138	-0,010
-727,152	-52,294	0,056	-0,019
-726,137	125,864	-0,078	-0,072
-725,123	-152,137	-0,089	-0,005
-724,108	12,723	-0,098	-0,055
-723,094	-200,000	0,015	-0,121
-722,079	506,858	0,031	-0,053
-721,064	-141,090	0,041	-0,003
-720,050	-48,451	-0,024	-0,009
-719,035	-83,373	0,058	-0,014
-718,021	9,889	0,082	0,046
-717,006	800,000	-0,035	-0,091
-715,991	800,000	-0,062	-0,160
-714,977	296,672	-0,054	-0,073
-713,962	800,000	-0,049	-0,145
-712,948	140,001	-0,027	-0,026
-711,933	1,593	-0,038	0,020
-710,918	-36,042	0,084	-0,033
-709,904	97,583	-0,087	-0,074
-708,889	-200,000	-0,001	-0,210
-707,875	-131,191	0,038	0,004
-706,860	215,186	-0,063	0,073
-705,845	40,704	-0,047	0,031
-704,831	-105,149	0,132	0,022
-703,816	-126,053	0,070	0,008
-702,802	256,032	0,004	-0,005
-701,787	-200,000	0,149	0,000
-700,772	-200,000	0,038	-0,147
-699,758	327,091	-0,072	0,102
-698,743	341,216	0,061	0,088
-697,729	800,000	-0,018	0,054
-696,714	149,638	-0,070	0,070
-695,699	-130,353	-0,117	0,012
-694,685	65,345	-0,060	-0,045
-693,670	308,358	-0,103	-0,142
-692,656	11,010	0,046	-0,026
-691,641	800,000	-0,017	-0,039
-690,627	-200,000	0,010	0,110
-689,612	256,669	0,077	-0,097
-688,597	167,397	-0,044	0,046
-687,583	98,077	-0,035	0,030
-686,568	117,985	-0,037	-0,034
-685,554	144,642	-0,030	-0,029
-684,539	-25,255	-0,087	0,038
-683,524	800,000	0,017	0,042
-682,510	800,000	0,069	0,153
-681,495	549,660	-0,044	-0,078
-680,481	-135,776	0,068	-0,006
-679,466	105,858	0,099	-0,086
-678,451	-156,923	-0,034	0,001
-677,437	800,000	0,059	0,131
-676,422	800,000	0,064	-0,152
-675,408	260,417	-0,107	0,136
-674,393	394,578	-0,101	0,155
-673,378	204,373	-0,046	-0,053
-672,364	-14,515	-0,075	-0,035
-671,349	800,000	-0,057	-0,128
-670,335	33,625	-0,060	0,038
-669,320	-160,189	-0,064	0,003
-668,305	-200,000	-0,035	-0,117
-667,291	117,581	0,089	-0,081
-666,276	-159,962	-0,085	-0,003
-665,262	319,140	-0,122	-0,171
-664,247	-200,000	0,023	0,123
-663,232	-200,000	0,014	0,087
-662,218	567,686	0,034	0,061
-661,203	-200,000	-0,004	0,111
-660,189	-89,784	0,113	0,024
-659,174	215,519	-0,027	0,031
-658,159	-200,000	0,025	-0,106
-657,145	212,663	0,055	0,063
-656,130	-110,866	0,045	0,007
-655,116	195,511	0,089	0,099
-654,101	-2,274	0,089	0,046
-653,086	-10,476	-0,107	-0,052
-652,072	-98,788	0,056	0,010
-651,057	-117,171	-0,103	0,014
-650,043	93,430	-0,133	0,111
-649,028	61,172	-0,069	0,051
-648,014	-200,000	0,003	0,044
-646,999	-22,829	0,097	0,043
-645,984	-200,000	-0,004	0,098
-644,970	-5,782	-0,052	-0,026
-643,955	215,144	-0,131	-0,153
-642,941	-146,609	0,117	-0,007
-641,926	-200,000	0,017	-0,149
-640,911	128,707	-0,145	-0,136
-639,897	-55,847	0,072	-0,023
-638,882	19,461	-0,077	-0,046
-637,868	-200,000	0,008	-0,058
-636,853	-200,000	-0,027	-0,125
-635,838	162,583	-0,051	0,053
-634,824	-50,337	-0,053	-0,018
-633,809	6,553	0,131	0,071
-632,795	420,790	0,069	0,109
-631,780	473,896	0,045	-0,075
-630,765	202,269	-0,058	0,065
-629,751	54,003	0,051	-0,036
-628,736	112,522	0,087	0,077
-627,722	20,017	-0,162	-0,095
-626,707	562,027	-0,010	0,018
-625,692	342,565	-0,083	0,119
-624,678	162,499	0,044	0,045
-623,663	-107,827	-0,082	-0,013
-622,649	334,624	-0,031	-0,045
-621,634	66,406	-0,054	-0,040
-620,619	546,732	0,018	-0,032
-619,605	95,355	-0,048	0,040
-618,590	-31,507	-0,019	0,008
-617,576	615,343	-0,016	-0,029
-616,561	516,947	-0,062	-0,106
-615,546	298,380	0,057	-0,078
-614,532	-200,000	-0,044	-0,200
-613,517	114,755	-0,030	-0,027
-612,503	-200,000	-0,010	0,061
-611,488	135,530	-0,104	0,099
-610,474	67,683	0,055	0,041
-609,459	-200,000	-0,021	0,075
-608,444	-200,000	0,023	0,085
-607,430	559,325	0,037	-0,065
-606,415	109,452	0,056	0,049
-605,401	-200,000	-0,018	-0,162
-604,386	52,632	-0,018	0,013
-603,371	7,811	0,057	-0,031
-602,357	-200,000	-0,008	-0,048
-601,342	800,000	-0,056	-0,140
-600,328	174,735	-0,030	-0,032
-599,313	-200,000	-0,011	-0,041
-598,298	-107,391	-0,094	0,015
-597,284	-128,944	-0,055	-0,006
-596,269	-200,000	-0,003	-0,042
-595,255	138,303	-0,081	0,078
-594,240	-52,273	-0,106	0,036
-593,225	-200,000	-0,019	-0,163
-592,211	148,902	-0,100	-0,099
-591,196	3,903	0,095	0,051
-590,182	-200,000	-0,007	-0,041
-589,167	531,591	0,088	0,153
-588,152	75,309	0,028	0,022
-587,138	123,513	0,079	-0,072
-586,123	-5,220	0,137	0,069
-585,109	-150,004	-0,012	-0,001
-584,094	35,148	0,126	-0,081
-583,079	800,000	-0,020	0,060
-582,065	-41,108	-0,089	0,033
-581,050	125,807	-0,067	0,062
-580,036	1,708	0,074	-0,039
-579,021	214,691	-0,076	-0,089
-578,006	70,304	-0,079	-0,060
-576,992	135,849	-0,083	-0,079
-575,977	-200,000	0,009	-0,107
-574,963	259,604	0,062	-0,079
-573,948	-200,000	-0,012	-0,098
-572,934	-200,000	-0,036	0,140
-571,919	-41,659	-0,160	0,060
-570,904	-158,105	-0,034	-0,001
-569,890	-200,000	0,002	-0,095
-568,875	-97,145	-0,018	-0,003
-567,861	785,521	0,062	-0,126
-566,846	92,548	0,116	-0,096
-565,831	800,000	-0,038	0,093
-564,817	126,159	0,072	0,067
-563,802	108,445	-0,055	0,048
-562,788	-53,396	-0,098	0,033
-561,773	-48,999	0,058	-0,020
-560,758	-70,495	-0,054	0,015
-559,744	483,038	-0,035	0,058
-558,729	95,214	0,122	0,102
-557,715	800,000	0,039	-0,082
-556,700	458,329	0,081	-0,132
-555,685	85,999	-0,071	-0,057
-554,671	800,000	0,005	-0,014
-553,656	69,950	-0,035	0,026
-552,642	293,610	0,036	0,048
-551,627	-18,850	-0,035	-0,016
-550,612	-70,223	-0,171	-0,047
-549,598	-200,000	0,030	-0,215
-548,583	-43,609	-0,106	-0,039
-547,569	-20,122	-0,150	-0,067
-546,554	-171,866	-0,064	0,001
-545,539	-34,626	0,052	0,021
-544,525	-200,000	0,030	0,146
-543,510	-57,175	-0,038	-0,012
-542,496	-57,622	-0,307	0,098
-541,481	14,939	0,090	0,051
-540,466	800,000	0,029	0,058
-539,452	-200,000	-0,015	0,103
-538,437	612,429	-0,044	-0,081
-537,423	393,787	-0,051	0,077
-536,408	419,289	-0,078	0,123
-535,393	155,560	-0,065	0,065
-534,379	-118,952	0,045	0,006
-533,364	-200,000	-0,015	-0,081
-532,350	72,433	-0,039	-0,030
-531,335	-200,000	-0,010	-0,043
-530,321	136,016	0,069	0,066
-529,306	-80,050	-0,036	0,009
-528,291	18,273	0,056	-0,033
-527,277	800,000	0,009	-0,020
-526,262	-1,180	-0,041	0,021
-525,248	152,190	-0,078	0,078
-524,233	331,053	-0,007	0,010
-523,218	-200,000	-0,044	0,178
-522,204	218,030	0,097	0,113
-521,189	500,851	-0,088	-0,149
-520,175	-13,165	0,086	-0,041
-519,160	800,000	-0,040	-0,112
-518,145	95,465	0,157	0,131
-517,131	5,193	0,086	-0,046
-516,116	-31,044	0,079	-0,033
-515,102	-51,923	-0,134	0,045
-514,087	-200,000	0,028	-0,180
-513,072	-200,000	0,010	0,074
-512,058	800,000	0,047	0,103
-511,043	-200,000	0,030	-0,164
-510,029	23,877	-0,071	-0,043
-509,014	-1,538	0,076	-0,039
-507,999	-101,697	-0,082	0,014
-506,985	104,508	0,005	0,004
-505,970	-81,841	-0,083	0,020
-504,956	-200,000	-0,035	0,156
-503,941	312,765	0,031	0,043
-502,926	113,067	0,011	-0,010
-501,912	-200,000	-0,017	0,082
-500,897	292,965	0,112	0,150
-499,883	800,000	-0,062	0,158
-498,868	501,956	0,027	-0,045
-497,853	79,485	-0,069	0,054
-496,839	450,869	0,024	0,039
-495,824	313,399	0,017	0,024
-494,810	-60,730	0,137	0,042
-493,795	44,218	0,094	0,063
-492,781	-142,350	-0,148	0,010
-491,766	-146,698	-0,055	0,003
-490,751	10,340	-0,037	0,020
-489,737	-200,000	-0,008	-0,036
-488,722	-200,000	-0,022	-0,128
-487,708	-54,073	0,129	0,043
-486,693	-139,868	-0,101	0,008
-485,678	-108,241	0,037	0,006
-484,664	-200,000	0,004	-0,107
-483,649	226,466	-0,053	-0,062
-482,635	-131,780	-0,013	0,001
-481,620	340,944	0,077	0,110
-480,605	201,799	0,062	-0,069
-479,591	800,000	0,054	0,154
-478,576	-88,133	-0,088	-0,019
-477,562	-145,399	-0,041	0,003
-476,547	227,579	-0,031	-0,037
-475,532	-136,216	-0,049	0,004
-474,518	439,985	0,083	0,133
-473,503	-4,479	-0,033	0,017
-472,489	-200,000	0,024	0,083
-471,474	800,000	-0,021	0,064
-470,459	154,893	0,073	0,073
-469,445	149,479	-0,087	-0,086
-468,430	800,000	-0,048	-0,107
-467,416	0,492	0,068	0,035
-466,401	776,965	0,021	-0,041
-465,386	-5,601	-0,069	-0,034
-464,372	218,835	0,004	-0,005
-463,357	9,251	0,096	0,053
-462,343	103,945	-0,009	-0,008
-461,328	20,265	0,042	-0,024
-460,313	-20,032	-0,163	0,073
-459,299	44,441	0,171	0,114
-458,284	182,066	-0,133	0,143
-457,270	-86,466	0,056	-0,013
-456,255	-123,977	-0,091	-0,010
-455,241	800,000	0,028	-0,079
-454,226	-4,087	0,045	-0,023
-453,211	-26,517	-0,022	-0,009
-452,197	800,000	-0,062	0,132
-451,182	-94,598	0,141	-0,028
-450,168	-200,000	0,001	-0,052
-449,153	156,623	-0,114	-0,115
-448,138	281,500	-0,081	-0,106
-447,124	91,098	0,093	-0,076
-446,109	-134,676	0,037	0,003
-445,095	-82,214	-0,103	0,024
-444,080	95,975	-0,066	0,055
-443,065	343,959	0,028	0,040
-442,051	184,831	-0,021	0,023
-441,036	800,000	-0,032	-0,064
-440,022	800,000	-0,032	-0,072
-439,007	10,309	0,132	-0,073
-437,992	-19,229	-0,109	-0,049
-436,978	800,000	-0,019	0,046
-435,963	800,000	0,050	0,102
-434,949	-112,679	0,066	0,009
-433,934	16,245	0,055	0,032
-432,919	800,000	-0,052	-0,126
-431,905	287,242	-0,115	0,152
-430,890	-127,994	0,088	-0,009
-429,876	-200,000	-0,011	0,093
-428,861	-19,448	-0,022	-0,010
-427,846	-200,000	-0,006	-0,025
-426,832	-161,189	-0,087	-0,003
-425,817	100,431	-0,091	-0,077
-424,803	703,683	0,038	0,073
-423,788	-51,488	-0,096	0,033
-422,773	11,723	0,083	0,047
-421,759	-200,000	-0,008	-0,030
-420,744	-76,953	0,051	-0,013
-419,730	800,000	-0,031	-0,097
-418,715	195,475	0,067	0,074
-417,701	48,771	-0,125	-0,085
-416,686	761,671	-0,024	0,047
-415,671	271,803	0,079	-0,101
-414,657	-88,308	-0,012	-0,002
-413,642	-100,557	0,058	-0,010
-412,628	713,522	-0,032	0,062
-411,613	105,436	-0,086	0,074
-410,598	-200,000	-0,026	0,158
-409,584	141,598	0,145	0,140
-408,569	465,498	0,029	0,048
-407,555	-160,701	0,114	0,004
-406,540	-123,352	-0,202	-0,023
-405,525	-200,000	-0,004	0,036
-404,511	800,000	0,016	0,040
-403,496	800,000	-0,042	-0,097
-402,482	-38,962	0,098	0,037
-401,467	800,000	-0,040	0,101
-400,452	109,958	-0,046	-0,040
-399,438	124,736	0,073	0,067
-398,423	96,869	-0,080	-0,067
-397,409	800,000	0,037	-0,116
-396,394	-200,000	0,008	-0,039
-395,379	-200,000	-0,000	-0,061
-394,365	-200,000	0,001	0,043
-393,350	217,331	-0,111	-0,129
-392,336	-154,321	0,133	-0,006
-391,321	800,000	-0,038	0,107
-390,306	800,000	0,042	-0,091
-389,292	235,413	-0,046	-0,056
-388,277	-122,265	0,144	-0,017
-387,263	1,269	0,191	0,100
-386,248	-133,440	0,132	-0,012
-385,233	56,539	-0,073	0,052
-384,219	146,929	0,015	0,015
-383,204	-200,000	0,009	-0,119
-382,190	226,535	0,071	-0,084
-381,175	-200,000	0,008	0,148
-380,160	346,440	0,074	0,106
-379,146	-200,000	0,004	-0,032
-378,131	-54,354	-0,030	0,010
-377,117	800,000	-0,002	-0,005
-376,102	800,000	0,017	0,035
-375,088	-39,485	-0,058	0,022
-374,073	800,000	-0,042	-0,091
-373,058	61,663	0,046	0,033
-372,044	390,391	0,053	0,080
-371,029	47,708	-0,041	-0,028
-370,015	-200,000	-0,004	0,106
-369,000	44,953	0,055	-0,036
-367,985	75,584	-0,095	0,073
-366,971	230,413	-0,040	0,047
-365,956	191,149	-0,042	0,046
-364,942	340,868	0,066	0,094
-363,927	-200,000	0,026	-0,097
-362,912	800,000	0,020	0,047
-361,898	800,000	0,026	-0,054
-360,883	800,000	-0,011	-0,034
-359,869	800,000	-0,022	-0,050
-358,854	-129,589	0,111	-0,011
-357,839	26,593	0,134	0,081
-356,825	475,879	0,035	-0,057
-355,810	-174,402	-0,079	0,002
-354,796	-195,891	0,133	0,001
-353,781	183,227	-0,042	-0,045
-352,766	261,640	0,065	0,082
-351,752	499,935	0,067	0,113
-350,737	244,827	-0,038	-0,046
-349,723	-200,000	0,010	-0,118
-348,708	-106,333	0,073	0,012
-347,693	-23,495	0,118	0,051
-346,679	-200,000	-0,006	0,042
-345,664	332,491	-0,112	0,158
-344,650	-68,418	0,134	-0,038
-343,635	-90,789	0,076	0,016
-342,620	-200,000	-0,005	0,046
-341,606	-200,000	-0,020	0,064
-340,591	26,853	0,010	-0,006
-339,577	-141,776	0,106	-0,008
-338,562	-134,588	0,126	0,011
-337,548	800,000	-0,038	-0,099
-336,533	31,161	0,127	-0,079
-335,518	-200,000	0,033	0,116
-334,504	-200,000	0,012	0,102
-333,489	-200,000	0,035	0,211
-332,475	-147,563	0,045	-0,003
-331,460	-200,000	-0,008	-0,028
-330,445	-200,000	0,008	0,082
-329,431	560,085	0,020	0,036
-328,416	361,429	-0,047	0,068
-327,402	-35,160	0,062	0,025
-326,387	-137,477	0,090	0,007
-325,372	800,000	0,064	-0,144
-324,358	-63,013	-0,188	-0,056
-323,343	-9,801	-0,131	0,063
-322,329	-200,000	0,002	0,025
-321,314	269,118	0,051	-0,065
-320,299	-17,638	-0,049	0,022
-319,285	167,266	0,101	0,104
-318,270	138,081	-0,133	0,127
-317,256	-200,000	-0,050	-0,160
-316,241	106,973	0,083	0,071
-315,226	800,000	0,033	0,101
-314,212	-69,206	-0,040	-0,011
-313,197	-98,808	-0,043	-0,008
-312,183	-5,347	-0,025	-0,012
-311,168	-200,000	0,042	-0,140
-310,153	-8,570	0,106	-0,051
-309,139	-200,000	-0,020	0,067
-308,124	-37,442	0,083	0,032
-307,110	800,000	-0,027	-0,078
-306,095	167,647	0,018	-0,018
-305,080	800,000	-0,029	-0,059
-304,066	-76,850	0,145	0,036
-303,051	-78,600	-0,152	-0,037
-302,037	-70,849	-0,063	-0,017
-301,022	-200,000	-0,000	0,029
-300,008	-12,209	0,056	0,026
-298,993	-200,000	-0,021	0,098
-297,978	-58,979	0,115	-0,036
-296,964	-49,072	-0,085	-0,029
-295,949	-22,020	0,075	-0,033
-294,935	183,866	-0,193	-0,207
-293,920	800,000	0,014	0,042
-292,905	800,000	-0,013	0,037
-291,891	94,014	-0,057	0,047
-290,876	-118,981	-0,022	-0,003
-289,862	116,914	0,032	0,028
-288,847	-111,310	-0,078	-0,011
-287,832	310,956	0,018	-0,024
-286,818	800,000	-0,050	0,130
-285,803	-200,000	0,009	0,041
-284,789	800,000	-0,085	0,179
-283,774	281,611	0,079	0,103
-282,759	526,786	-0,031	-0,054
-281,745	85,983	-0,103	0,082
-280,730	122,797	0,066	0,060
-279,716	143,945	-0,039	0,037
-278,701	538,953	-0,034	0,060
-277,686	237,806	-0,014	-0,016
-276,672	800,000	0,023	0,057
-275,657	-200,000	0,015	0,080
-274,643	333,612	-0,054	-0,076
-273,628	271,616	-0,057	-0,073
-272,613	800,000	0,049	0,126
-271,599	-200,000	0,020	0,094
-270,584	27,419	0,097	0,059
-269,570	-125,382	-0,085	0,009
-268,555	-48,037	0,078	0,027
-267,540	27,474	0,041	-0,025
-266,526	800,000	-0,032	-0,088
-265,511	-13,965	-0,152	-0,071
-264,497	40,791	0,116	-0,076
-263,482	152,967	-0,039	-0,039
-262,467	-200,000	0,004	0,085
-261,453	-122,797	0,057	-0,007
-260,438	397,596	-0,062	-0,095
-259,424	-200,000	0,001	-0,035
-258,409	-200,000	0,010	-0,117
-257,395	78,264	0,079	-0,061
-256,380	-125,841	-0,056	0,006
-255,365	-200,000	-0,003	0,037
-254,351	16,282	-0,041	-0,024
-253,336	-200,000	-0,018	0,086
-252,322	-53,677	-0,109	0,036
-251,307	-200,000	0,032	-0,121
-250,292	800,000	0,046	-0,107
-249,278	128,633	0,078	0,072
-248,263	-171,131	-0,082	-0,002
-247,249	-83,171	0,055	-0,013
-246,234	-200,000	-0,008	-0,032
-245,219	168,152	-0,066	-0,068
-244,205	181,728	-0,082	-0,088
-243,190	800,000	0,031	-0,069
-242,176	-46,528	0,106	-0,037
-241,161	7,380	0,187	-0,101
-240,146	150,344	0,035	-0,034
-239,132	-200,000	0,018	-0,070
-238,117	800,000	-0,041	-0,087
-237,103	800,000	-0,058	-0,143
-236,088	800,000	0,029	-0,062
-235,073	149,871	0,031	0,030
-234,059	800,000	-0,035	0,078
-233,044	-200,000	-0,004	-0,074
-232,030	-155,925	-0,084	-0,004
-231,015	502,702	0,065	0,110
-230,000	494,886	-0,020	-0,033
-228,986	-68,709	-0,097	0,027
-227,971	-200,000	-0,010	0,034
-226,957	215,074	0,051	-0,058
-225,942	-80,811	-0,047	-0,011
-224,927	0,927	-0,063	0,033
-223,913	-200,000	0,007	-0,095
-222,898	-93,943	-0,120	0,024
-221,884	484,101	-0,060	-0,099
-220,869	-64,736	0,125	-0,036
-219,855	31,060	-0,061	0,038
-218,840	-90,528	-0,075	0,016
-217,825	-141,507	0,045	-0,003
-216,811	68,228	-0,016	-0,012
-215,796	-137,111	0,081	-0,007
-214,782	96,881	-0,072	0,059
-213,767	-200,000	-0,007	-0,133
-212,752	400,848	0,019	0,029
-211,738	-200,000	0,040	0,145
-210,723	-129,259	-0,140	-0,014
-209,709	180,641	-0,035	0,037
-208,694	89,117	0,097	-0,078
-207,679	-200,000	-0,007	0,028
-206,665	-160,096	0,079	0,003
-205,650	31,499	0,056	-0,035
-204,636	-200,000	0,003	0,145
-203,621	-33,914	0,060	-0,024
-202,606	-200,000	-0,019	-0,240
-201,592	800,000	0,039	-0,117
-200,577	136,451	-0,095	-0,089
-199,563	638,032	0,065	-0,120
-198,548	800,000	0,021	0,058
-197,533	-7,603	0,140	0,068
-196,519	-200,000	-0,011	-0,117
-195,504	43,998	-0,132	-0,087
-194,490	-84,200	-0,108	-0,024
-193,475	716,206	0,085	-0,163
-192,460	-200,000	0,001	-0,039
-191,446	-85,514	-0,101	-0,022
-190,431	87,273	0,110	0,087
-189,417	333,942	0,029	0,041
-188,402	235,831	0,040	0,047
-187,387	-83,752	-0,052	0,012
-186,373	-200,000	-0,018	-0,094
-185,358	-158,607	0,101	-0,004
-184,344	33,379	0,112	0,070
-183,329	29,052	-0,052	0,032
-182,315	363,666	0,044	-0,065
-181,300	-158,930	0,075	0,003
-180,285	-200,000	0,006	-0,075
-179,271	323,605	-0,076	-0,106
-178,256	-130,139	-0,044	-0,004
-177,242	16,820	0,012	-0,007
-176,227	121,667	-0,081	0,073
-175,212	128,443	-0,034	0,031
-174,198	65,829	0,061	-0,045
-173,183	-200,000	0,021	-0,090
-172,169	800,000	0,025	0,056
-171,154	314,107	0,077	-0,105
-170,139	-200,000	-0,002	0,054
-169,125	-146,433	-0,127	0,008
-168,110	-200,000	0,055	0,312
-167,096	800,000	0,027	0,056
-166,081	73,091	-0,031	-0,024
-165,066	225,396	0,042	-0,049
-164,052	252,991	0,046	0,057
-163,037	-200,000	-0,002	0,057
-162,023	-45,902	0,115	0,041
-161,008	-13,852	0,039	-0,018
-159,993	-64,594	0,125	-0,036
-158,979	-200,000	-0,018	-0,084
-157,964	-200,000	-0,030	-0,190
-156,950	525,320	-0,037	0,062
-155,935	-72,449	0,083	0,022
-154,920	159,836	-0,064	0,064
-153,906	45,440	0,178	0,118
-152,891	121,987	0,096	0,086
-151,877	97,676	-0,015	-0,013
-150,862	145,787	0,134	-0,130
-149,847	-133,093	-0,115	0,010
-148,833	33,209	0,064	-0,040
-147,818	42,996	0,046	-0,030
-146,804	-200,000	0,003	-0,069
-145,789	-3,838	0,012	0,006
-144,775	224,836	-0,023	-0,026
-143,760	800,000	0,026	-0,055
-142,745	-200,000	0,004	-0,060
-141,731	781,009	0,031	-0,062
-140,716	55,906	-0,030	-0,021
-139,702	-96,500	0,089	0,017
-138,687	-200,000	-0,002	0,079
-137,672	800,000	0,049	0,120
-136,658	-200,000	-0,063	-0,224
-135,643	68,803	0,096	-0,071
-134,629	-30,140	-0,119	0,049
-133,614	-186,694	0,111	0,001
-132,599	-131,705	-0,128	-0,012
-131,585	-200,000	-0,004	0,104
-130,570	-200,000	0,005	0,029
-129,556	-200,000	0,017	0,077
-128,541	-134,213	-0,125	-0,011
-127,526	-151,036	0,053	0,003
-126,512	458,575	0,046	0,074
-125,497	-200,000	0,011	0,087
-124,483	-200,000	0,008	0,063
-123,468	800,000	0,003	-0,010
-122,453	-92,971	-0,040	0,008
-121,439	586,851	0,024	0,044
-120,424	54,828	-0,111	-0,077
-119,410	495,894	0,005	-0,009
