DTS Sentinel unit serial number:	SN410029Multiplexer serial number:	ORYXHardware model number:	OX2-SRSoftware version number:	ORYX F/W v4,00 Oryx Data Collector v3.7.2.0data status	okinstallation	B5 Nyhavnadifferential loss correction	single-endedforward channel	channel 2reverse channel	N/Adate	2023/12/13time	05:07:13forward acquisition time	300,00reverse acquisition time	0,00gamma	499,1914k internal	0,3160k external	0,3160temperature offset calibration	1,0000default loss term (dB/km)	0,3820temperature slope calibration	1,0000multiplexer offset coefficient	1,0000multiplexer slope coefficient	1,0000fibre end	0,00T internal ref (°C)	13,88T ext. ref 1 (°C)	-2,52T ext. ref 2 (°C)	-2,82length (m)	temperature (°C)	Stokes	anti-Stokes-744,400	-133,968	0,149	-0,013
-743,385	-63,765	-0,292	-0,088
-742,371	80,329	0,156	0,123
-741,356	-73,282	-0,234	0,063
-740,342	-200,000	0,043	0,196
-739,327	-136,498	-0,180	-0,015
-738,312	530,237	-0,045	0,079
-737,298	-10,893	-0,269	0,131
-736,283	-99,751	0,251	0,046
-735,269	-108,096	-0,294	-0,046
-734,254	-30,086	0,060	0,025
-733,239	-14,764	-0,428	-0,202
-732,225	-161,082	0,159	-0,006
-731,210	22,639	-0,084	0,051
-730,196	417,013	-0,029	-0,045
-729,181	800,000	-0,029	0,067
-728,167	-200,000	-0,016	0,097
-727,152	323,672	0,054	-0,076
-726,137	309,639	-0,019	0,026
-725,123	-61,016	-0,048	0,015
-724,108	-80,771	-0,203	-0,049
-723,094	-91,608	-0,052	-0,011
-722,079	179,655	-0,043	-0,046
-721,064	19,030	-0,072	-0,042
-720,050	-141,958	0,017	-0,001
-719,035	144,532	0,036	-0,035
-718,021	800,000	-0,047	-0,133
-717,006	34,882	-0,163	-0,104
-715,991	53,532	-0,100	-0,071
-714,977	-92,221	-0,098	0,020
-713,962	-200,000	-0,009	-0,111
-712,948	-200,000	0,003	0,021
-711,933	-139,749	-0,040	0,003
-710,918	800,000	-0,035	0,112
-709,904	-164,020	-0,150	-0,005
-708,889	-200,000	-0,021	0,114
-707,875	168,907	0,031	-0,033
-706,860	-24,701	0,021	-0,009
-705,845	127,210	-0,069	-0,064
-704,831	139,694	-0,087	0,084
-703,816	-11,217	0,127	-0,061
-702,802	-77,622	0,085	-0,021
-701,787	-36,330	-0,189	0,075
-700,772	304,558	-0,039	-0,054
-699,758	-16,906	-0,127	-0,059
-698,743	-200,000	-0,007	0,142
-697,729	-200,000	0,014	0,062
-696,714	-200,000	-0,026	0,107
-695,699	800,000	-0,027	0,079
-694,685	-200,000	0,023	-0,076
-693,670	-23,343	-0,090	0,040
-692,656	-200,000	0,041	-0,149
-691,641	0,821	0,032	-0,017
-690,627	193,937	0,146	-0,163
-689,612	314,420	-0,033	-0,045
-688,597	316,128	-0,015	-0,021
-687,583	11,217	-0,128	-0,072
-686,568	-200,000	-0,030	-0,123
-685,554	25,585	0,036	-0,022
-684,539	-75,413	-0,042	-0,011
-683,524	38,833	-0,042	0,028
-682,510	800,000	0,003	0,007
-681,495	800,000	-0,036	-0,111
-680,481	114,649	-0,064	-0,057
-679,466	22,155	-0,177	-0,106
-678,451	-93,829	0,092	-0,019
-677,437	-23,547	0,151	-0,066
-676,422	544,874	0,038	0,067
-675,408	-40,539	-0,095	0,036
-674,393	-200,000	-0,011	-0,126
-673,378	157,710	0,079	-0,080
-672,364	800,000	0,061	-0,149
-671,349	-33,641	-0,144	-0,058
-670,335	15,735	-0,117	0,067
-669,320	351,145	0,070	-0,102
-668,305	691,535	-0,090	0,174
-667,291	-67,918	-0,116	-0,033
-666,276	-112,723	-0,117	0,017
-665,262	163,246	0,080	-0,082
-664,247	-196,446	-0,233	-0,001
-663,232	800,000	-0,034	0,090
-662,218	2,800	0,089	0,047
-661,203	7,756	0,070	-0,038
-660,189	-111,428	-0,071	0,011
-659,174	580,925	-0,071	-0,129
-658,159	-200,000	-0,013	-0,073
-657,145	262,083	0,028	0,036
-656,130	-70,507	-0,066	-0,018
-655,116	551,555	0,069	-0,123
-654,101	16,791	0,126	-0,073
-653,086	-200,000	-0,005	0,089
-652,072	76,502	-0,091	0,071
-651,057	800,000	0,036	0,104
-650,043	-101,808	-0,148	0,026
-649,028	-130,436	0,096	0,009
-648,014	209,673	0,076	0,087
-646,999	116,251	-0,087	0,079
-645,984	-164,161	0,066	-0,002
-644,970	278,580	-0,079	-0,103
-643,955	65,402	-0,074	-0,055
-642,941	460,504	-0,007	0,012
-641,926	-22,040	-0,055	-0,024
-640,911	245,058	0,055	0,067
-639,897	800,000	0,029	-0,076
-638,882	192,049	-0,037	-0,041
-637,868	-160,749	-0,086	-0,003
-636,853	-200,000	0,001	-0,086
-635,838	-200,000	0,006	0,069
-634,824	-111,137	-0,091	0,014
-633,809	-91,588	0,147	0,031
-632,795	800,000	0,042	-0,097
-631,780	-114,637	0,112	0,016
-630,765	800,000	-0,032	0,079
-629,751	-200,000	0,018	0,090
-628,736	121,160	-0,044	-0,040
-627,722	53,177	-0,134	0,094
-626,707	243,488	-0,165	0,203
-625,692	-200,000	-0,002	0,136
-624,678	-19,536	0,074	-0,033
-623,663	65,296	-0,102	-0,076
-622,649	130,183	0,029	0,028
-621,634	-200,000	0,007	-0,080
-620,619	-200,000	0,033	-0,165
-619,605	42,995	-0,042	-0,028
-618,590	-147,821	0,135	-0,008
-617,576	146,763	0,071	0,070
-616,561	212,200	0,035	-0,041
-615,546	-67,663	-0,120	0,034
-614,532	517,135	-0,102	-0,175
-613,517	800,000	-0,065	-0,158
-612,503	22,551	0,097	0,058
-611,488	-30,784	0,033	-0,014
-610,474	-39,384	0,070	0,027
-609,459	-200,000	-0,001	0,200
-608,444	-66,026	-0,134	0,039
-607,430	-25,383	-0,140	0,060
-606,415	464,891	-0,044	-0,072
-605,401	531,897	-0,031	0,053
-604,386	-60,534	-0,102	-0,032
-603,371	293,745	0,126	0,169
-602,357	327,920	-0,075	0,106
-601,342	-200,000	0,004	-0,108
-600,328	-200,000	-0,050	-0,172
-599,313	800,000	0,016	0,049
-598,298	800,000	-0,017	0,043
-597,284	800,000	-0,034	0,082
-596,269	40,281	-0,136	0,089
-595,255	-108,035	0,026	0,004
-594,240	362,926	-0,039	-0,058
-593,225	800,000	0,040	0,102
-592,211	2,670	-0,125	-0,066
-591,196	-200,000	0,018	0,169
-590,182	68,481	-0,062	0,046
-589,167	-103,808	0,151	0,026
-588,152	800,000	-0,071	-0,175
-587,138	206,449	-0,110	-0,125
-586,123	547,094	-0,016	-0,028
-585,109	-53,463	-0,178	0,059
-584,094	-200,000	0,015	0,093
-583,079	180,323	-0,091	0,098
-582,065	112,177	0,082	0,073
-581,050	-200,000	-0,005	-0,027
-580,036	-5,949	0,118	-0,059
-579,021	-49,688	-0,029	0,010
-578,006	800,000	0,043	-0,111
-576,992	113,909	-0,056	0,049
-575,977	-25,424	0,139	0,060
-574,963	-200,000	-0,011	-0,064
-573,948	41,769	-0,108	-0,071
-572,934	-200,000	0,007	0,023
-571,919	-200,000	0,005	0,045
-570,904	652,966	-0,032	0,060
-569,890	300,538	-0,048	-0,065
-568,875	41,885	0,157	-0,104
-567,861	-200,000	-0,005	0,021
-566,846	33,344	0,097	0,062
-565,831	4,017	-0,055	0,029
-564,817	264,737	-0,140	-0,178
-563,802	-56,886	-0,090	-0,029
-562,788	197,112	-0,025	-0,028
-561,773	34,732	-0,049	0,031
-560,758	-200,000	-0,011	-0,051
-559,744	-200,000	-0,001	0,034
-558,729	-18,639	-0,162	-0,074
-557,715	-147,368	-0,019	0,001
-556,700	-200,000	0,004	-0,022
-555,685	800,000	-0,068	0,146
-554,671	-200,000	-0,008	0,083
-553,656	800,000	-0,035	0,098
-552,642	-96,358	0,122	-0,023
-551,627	-140,105	-0,220	-0,017
-550,612	18,930	0,143	0,083
-549,598	-200,000	0,001	-0,051
-548,583	-2,949	-0,022	-0,011
-547,569	303,600	-0,034	-0,046
-546,554	-90,803	0,034	0,007
-545,539	-200,000	0,001	-0,021
-544,525	-86,996	0,071	0,016
-543,510	-37,984	-0,135	0,052
-542,496	-200,000	0,019	0,090
-541,481	-18,254	0,128	-0,058
-540,466	-200,000	0,015	0,108
-539,452	475,696	-0,049	0,082
-538,437	69,878	0,088	0,066
-537,423	95,997	-0,018	-0,015
-536,408	-126,493	-0,070	-0,007
-535,393	17,566	0,089	-0,052
-534,379	-200,000	0,014	-0,112
-533,364	58,717	0,055	-0,039
-532,350	206,608	-0,022	-0,025
-531,335	-19,105	0,016	0,007
-530,321	-200,000	0,000	0,045
-529,306	408,722	-0,019	-0,030
-528,291	-0,094	0,109	-0,056
-527,277	68,357	-0,073	0,054
-526,262	-96,493	0,134	0,026
-525,248	375,361	0,010	-0,015
-524,233	19,876	0,031	0,018
-523,218	525,623	0,039	0,068
-522,204	800,000	0,031	-0,098
-521,189	643,598	-0,049	-0,091
-520,175	177,543	-0,106	-0,113
-519,160	800,000	-0,026	-0,083
-518,145	-92,301	-0,154	0,031
-517,131	179,999	-0,046	-0,049
-516,116	-77,981	-0,066	-0,017
-515,102	-200,000	0,001	-0,027
-514,087	-200,000	0,005	0,024
-513,072	165,585	-0,063	-0,065
-512,058	800,000	0,048	-0,129
-511,043	64,184	0,103	0,076
-510,029	-200,000	0,003	0,017
-509,014	-200,000	0,015	0,063
-507,999	-98,165	-0,020	-0,004
-506,985	-200,000	-0,032	-0,106
-505,970	-114,334	-0,029	-0,004
-504,956	-200,000	0,016	-0,110
-503,941	800,000	-0,020	0,045
-502,926	151,000	0,121	0,121
-501,912	-200,000	-0,002	0,030
-500,897	-200,000	0,014	-0,131
-499,883	800,000	0,011	-0,023
-498,868	56,615	0,184	-0,130
-497,853	-200,000	0,007	0,106
-496,839	800,000	0,018	0,056
-495,824	21,772	0,066	0,039
-494,810	-121,005	-0,031	-0,004
-493,795	271,131	0,058	-0,075
-492,781	248,135	-0,045	0,056
-491,766	800,000	-0,015	-0,045
-490,751	-53,806	-0,078	-0,026
-489,737	800,000	0,007	-0,018
-488,722	-200,000	0,011	0,074
-487,708	348,493	0,047	0,069
-486,693	800,000	0,006	0,020
-485,678	152,583	-0,062	-0,062
-484,664	-97,027	0,105	0,020
-483,649	-128,094	0,078	-0,008
-482,635	-75,289	-0,042	-0,011
-481,620	-97,131	0,056	-0,011
-480,605	43,628	0,082	0,055
-479,591	590,199	-0,038	0,068
-478,576	233,571	-0,079	0,095
-477,562	-65,414	-0,078	0,023
-476,547	-48,594	-0,030	0,010
-475,532	800,000	-0,010	0,024
-474,518	-200,000	-0,002	-0,019
-473,503	201,731	0,027	0,030
-472,489	800,000	0,031	0,082
-471,474	800,000	-0,016	0,049
-470,459	71,440	0,031	0,023
-469,445	-52,689	-0,086	0,029
-468,430	-200,000	0,033	0,166
-467,416	-200,000	0,040	0,137
-466,401	-200,000	0,007	-0,039
-465,386	800,000	-0,040	0,082
-464,372	126,370	-0,047	0,043
-463,357	-30,427	0,091	0,037
-462,343	800,000	0,029	0,072
-461,328	-9,562	0,130	-0,063
-460,313	160,685	-0,027	-0,028
-459,299	-200,000	0,006	-0,089
-458,284	-45,083	-0,091	0,033
-457,270	68,447	0,070	0,052
-456,255	-182,005	0,084	0,001
-455,241	-128,656	-0,047	-0,005
-454,226	-55,558	-0,098	-0,032
-453,211	320,301	-0,063	0,088
-452,197	324,165	-0,012	0,017
-451,182	-91,440	0,106	-0,022
-450,168	800,000	-0,023	-0,074
-449,153	120,565	0,093	0,085
-448,138	-200,000	0,011	0,081
-447,124	-34,509	0,119	-0,047
-446,109	-68,630	0,119	0,033
-445,095	155,121	-0,058	-0,059
-444,080	-98,858	0,090	0,017
-443,065	-53,584	0,008	-0,003
-442,051	-39,029	0,043	-0,016
-441,036	-200,000	0,001	0,018
-440,022	88,491	0,031	0,025
-439,007	224,231	-0,008	0,010
-437,992	-200,000	-0,023	0,086
-436,978	-187,997	0,148	0,001
-435,963	800,000	-0,033	0,081
-434,949	155,465	-0,047	-0,048
-433,934	800,000	-0,029	0,077
-432,919	-49,259	-0,050	-0,017
-431,905	360,308	-0,018	-0,026
-430,890	250,716	0,040	0,049
-429,876	85,760	0,047	-0,038
-428,861	424,716	0,071	0,111
-427,846	-64,410	-0,154	-0,045
-426,832	-107,889	-0,111	-0,017
-425,817	112,369	-0,064	-0,057
-424,803	-130,259	0,065	0,006
-423,788	-163,584	0,168	-0,006
-422,773	16,366	0,052	-0,030
-421,759	73,556	0,050	0,038
-420,744	-200,000	0,008	-0,128
-419,730	277,729	0,039	-0,051
-418,715	105,486	0,048	0,041
-417,701	-64,911	-0,099	-0,029
-416,686	800,000	0,037	0,101
-415,671	800,000	0,036	0,112
-414,657	-200,000	-0,013	-0,044
-413,642	-130,111	0,063	-0,006
-412,628	-200,000	0,019	-0,108
-411,613	99,272	-0,061	-0,051
-410,598	-56,692	-0,082	0,026
-409,584	-200,000	0,009	-0,118
-408,569	-2,900	0,095	-0,048
-407,555	-200,000	0,002	-0,098
-406,540	157,163	-0,126	0,126
-405,525	190,974	-0,093	-0,101
-404,511	800,000	-0,007	-0,023
-403,496	135,281	-0,021	-0,020
-402,482	663,637	-0,071	-0,133
-401,467	95,384	0,044	0,037
-400,452	-28,708	0,134	0,056
-399,438	-2,787	0,024	0,012
-398,423	-19,175	-0,041	0,018
-397,409	21,601	-0,059	0,035
-396,394	136,915	-0,105	0,100
-395,379	800,000	-0,019	0,053
-394,365	-200,000	-0,024	0,093
-393,350	264,759	-0,037	-0,047
-392,336	583,243	0,043	-0,077
-391,321	-76,692	-0,087	0,022
-390,306	-127,300	-0,073	0,008
-389,292	497,077	0,017	-0,028
-388,277	-52,313	0,041	-0,014
-387,263	56,278	0,113	0,080
-386,248	-1,028	-0,088	0,045
-385,233	-200,000	0,011	0,110
-384,219	-200,000	0,009	0,038
-383,204	800,000	-0,055	0,128
-382,190	8,847	-0,139	-0,076
-381,175	800,000	-0,029	0,072
-380,160	-200,000	0,005	-0,096
-379,146	73,727	0,082	-0,062
-378,131	-57,551	-0,084	-0,027
-377,117	-57,632	0,096	0,031
-376,102	-72,238	-0,043	-0,011
-375,088	7,529	0,162	-0,088
-374,073	367,063	-0,010	0,014
-373,058	125,181	0,014	-0,012
-372,044	19,842	0,167	0,097
-371,029	25,756	-0,128	-0,077
-370,015	-200,000	0,011	0,089
-369,000	402,084	-0,103	-0,157
-367,985	486,710	0,036	-0,061
-366,971	-200,000	-0,005	-0,117
-365,956	-200,000	0,028	-0,117
-364,942	-21,234	0,124	0,055
-363,927	-200,000	0,027	0,127
-362,912	206,932	0,078	-0,089
-361,898	110,495	0,105	-0,092
-360,883	-102,119	0,025	-0,004
-359,869	-54,911	-0,108	-0,035
-358,854	166,143	0,062	0,064
-357,839	97,887	0,065	0,054
-356,825	-55,474	0,067	-0,022
-355,810	-200,000	0,017	-0,067
-354,796	35,831	0,123	0,078
-353,781	-51,881	0,023	-0,008
-352,766	800,000	-0,028	-0,068
-351,752	41,566	0,058	-0,038
-350,737	800,000	0,060	-0,157
-349,723	-26,006	0,067	-0,028
-348,708	-76,448	0,085	-0,021
-347,693	-134,291	0,057	-0,005
-346,679	521,219	-0,040	0,069
-345,664	269,398	-0,112	-0,143
-344,650	-200,000	0,003	-0,038
-343,635	446,958	-0,084	0,134
-342,620	-200,000	0,036	0,126
-341,606	-125,545	0,098	0,011
-340,591	-3,761	-0,084	-0,042
-339,577	320,359	-0,050	-0,069
-338,562	800,000	0,065	0,151
-337,548	2,279	0,062	-0,032
-336,533	70,002	0,066	0,049
-335,518	235,115	-0,089	0,107
-334,504	-200,000	0,045	0,146
-333,489	363,957	0,063	-0,091
-332,475	-200,000	-0,005	0,115
-331,460	-64,115	-0,041	-0,012
-330,445	147,821	-0,041	0,040
-329,431	-197,919	0,092	0,000
-328,416	316,513	0,092	0,126
-327,402	-200,000	-0,011	0,070
-326,387	18,969	-0,095	-0,055
-325,372	-120,380	-0,130	0,016
-324,358	-64,714	-0,136	-0,040
-323,343	38,202	-0,032	-0,020
-322,329	-160,932	0,146	0,005
-321,314	-57,711	0,159	-0,050
-320,299	-100,495	0,115	-0,020
-319,285	-200,000	-0,007	0,027
-318,270	-154,627	-0,040	0,002
-317,256	800,000	0,037	-0,079
-316,241	-200,000	-0,001	-0,061
-315,226	59,375	0,013	-0,009
-314,212	-200,000	-0,011	0,044
-313,197	241,155	0,035	-0,042
-312,183	453,663	-0,066	-0,107
-311,168	-171,325	-0,111	-0,003
-310,153	19,951	0,137	0,080
-309,139	-82,388	0,045	-0,010
-308,124	-200,000	0,009	0,035
-307,110	-200,000	0,065	0,000
-306,095	-200,000	-0,006	-0,024
-305,080	66,818	-0,022	0,016
-304,066	219,239	-0,044	0,050
-303,051	-200,000	-0,003	-0,068
-302,037	-83,982	0,076	-0,017
-301,022	220,460	0,074	-0,086
-300,008	800,000	0,032	0,074
-298,993	-200,000	-0,009	0,185
-297,978	-200,000	-0,010	0,059
-296,964	337,769	-0,044	0,063
-295,949	70,472	-0,083	0,062
-294,935	-200,000	0,001	-0,075
-293,920	29,102	0,066	-0,040
-292,905	-200,000	0,029	-0,129
-291,891	800,000	0,025	-0,055
-290,876	-195,144	-0,073	0,000
-289,862	-89,282	-0,036	-0,008
-288,847	-200,000	-0,057	-0,191
-287,832	11,657	-0,062	-0,035
-286,818	-200,000	0,028	-0,096
-285,803	-50,246	0,043	0,015
-284,789	163,632	0,060	-0,062
-283,774	-200,000	-0,010	-0,058
-282,759	800,000	-0,028	-0,076
-281,745	85,672	-0,147	0,116
-280,730	-171,791	0,059	0,001
-279,716	-178,777	-0,171	-0,003
-278,701	48,347	0,102	0,069
-277,686	-11,910	0,053	0,025
-276,672	-200,000	0,008	0,102
-275,657	449,490	0,058	-0,092
-274,643	252,647	0,018	-0,022
-273,628	-200,000	-0,047	-0,164
-272,613	18,708	-0,102	-0,059
-271,599	-51,279	0,071	-0,024
-270,584	-32,499	0,092	0,037
-269,570	-34,487	-0,062	-0,025
-268,555	141,748	0,085	-0,081
-267,540	-13,317	-0,113	-0,053
-266,526	-1,727	-0,134	-0,068
-265,511	-200,000	-0,010	-0,122
-264,497	-189,527	0,059	-0,000
-263,482	-200,000	-0,033	0,144
-262,467	282,972	0,053	0,069
-261,453	-145,877	-0,069	-0,004
-260,438	177,568	-0,157	-0,165
-259,424	25,834	-0,091	-0,055
-258,409	274,149	-0,032	0,041
-257,395	77,275	0,108	-0,083
-256,380	-87,071	0,050	0,011
-255,365	-200,000	-0,034	0,159
-254,351	317,484	-0,078	0,107
-253,336	-113,943	0,032	0,004
-252,322	674,810	-0,032	-0,060
-251,307	-101,820	0,030	-0,005
-250,292	146,951	-0,022	-0,022
-249,278	80,210	-0,055	-0,043
-248,263	-117,554	0,080	-0,010
-247,249	-200,000	0,001	-0,072
-246,234	271,634	0,028	0,036
-245,219	-166,734	-0,090	-0,003
-244,205	800,000	-0,071	-0,197
-243,190	-200,000	0,026	0,143
-242,176	581,842	-0,048	0,086
-241,161	154,256	0,061	-0,061
-240,146	800,000	-0,012	-0,026
-239,132	249,512	0,067	0,082
-238,117	-200,000	-0,016	-0,123
-237,103	-32,358	-0,030	-0,012
-236,088	-166,439	-0,151	-0,004
-235,073	12,353	-0,094	0,052
-234,059	-200,000	-0,012	-0,050
-233,044	800,000	-0,036	-0,097
-232,030	10,111	-0,051	-0,028
-231,015	-94,723	-0,063	-0,012
-230,000	88,941	0,071	0,057
-228,986	170,390	0,073	0,076
-227,971	-58,244	-0,058	0,018
-226,957	800,000	0,080	0,192
-225,942	-200,000	-0,010	0,048
-224,927	-121,825	0,048	-0,006
-223,913	351,255	-0,077	-0,111
-222,898	-200,000	0,008	-0,065
-221,884	-200,000	0,001	-0,172
-220,869	-119,703	0,142	-0,017
-219,855	108,253	-0,069	-0,059
-218,840	134,624	0,023	0,022
-217,825	518,762	0,037	0,062
-216,811	-200,000	-0,028	-0,112
-215,796	763,036	0,031	0,061
-214,782	800,000	0,052	0,121
-213,767	14,709	0,068	-0,038
-212,752	800,000	-0,040	0,102
-211,738	-200,000	0,035	0,202
-210,723	-200,000	-0,021	-0,083
-209,709	336,052	-0,060	-0,084
-208,694	-34,080	-0,076	0,030
-207,679	-64,623	0,139	0,040
-206,665	800,000	0,029	-0,073
-205,650	-60,442	0,076	0,023
-204,636	20,090	0,046	0,027
-203,621	-191,564	-0,084	-0,001
-202,606	800,000	0,019	-0,040
-201,592	25,601	0,175	-0,105
-200,577	-55,831	0,004	-0,001
-199,563	-200,000	0,028	-0,099
-198,548	-200,000	-0,003	-0,038
-197,533	5,736	-0,030	-0,016
-196,519	-32,796	0,103	0,041
-195,504	63,100	0,115	-0,083
-194,490	-137,628	-0,114	-0,009
-193,475	-17,266	-0,061	-0,027
-192,460	-71,266	0,073	0,019
-191,446	255,065	-0,094	-0,116
-190,431	-4,108	0,026	-0,013
-189,417	-200,000	0,017	0,089
-188,402	-200,000	-0,021	-0,069
-187,387	-81,842	-0,126	-0,029
-186,373	11,276	-0,099	0,054
-185,358	-200,000	-0,013	-0,055
-184,344	-121,594	0,098	0,012
-183,329	-72,844	0,070	0,018
-182,315	-41,209	0,134	-0,050
-181,300	-50,233	-0,115	-0,039
-180,285	21,084	0,142	-0,083
-179,271	-25,399	-0,084	-0,036
-178,256	35,111	-0,067	-0,042
-177,242	217,690	0,067	0,077
-176,227	-100,897	0,094	0,017
-175,212	770,801	-0,038	0,075
-174,198	-200,000	0,019	0,063
-173,183	-121,875	-0,065	-0,008
-172,169	-108,823	-0,033	-0,005
-171,154	-92,368	0,061	0,012
-170,139	347,425	-0,008	0,012
-169,125	-42,523	-0,055	0,020
-168,110	243,910	0,018	0,021
-167,096	-55,297	0,071	0,023
-166,081	-182,367	-0,054	-0,001
-165,066	72,422	-0,072	-0,054
-164,052	53,483	-0,108	-0,075
-163,037	800,000	0,047	0,129
-162,023	-83,755	0,149	-0,034
-161,008	-28,981	-0,066	0,027
-159,993	-117,207	0,154	0,020
-158,979	-144,085	-0,100	-0,007
-157,964	800,000	0,008	-0,018
-156,950	-55,154	-0,031	-0,010
-155,935	-200,000	0,018	0,117
-154,920	-200,000	0,032	0,124
-153,906	-30,666	-0,124	-0,050
-152,891	602,098	-0,085	0,153
-151,877	-200,000	0,010	-0,092
-150,862	800,000	-0,006	0,014
-149,847	331,579	0,025	0,034
-148,833	-88,753	0,106	-0,023
-147,818	155,818	-0,050	0,050
-146,804	410,769	0,074	0,114
-145,789	649,787	-0,038	0,070
-144,775	6,704	-0,121	-0,064
-143,760	85,226	0,059	0,047
-142,745	-71,034	-0,033	0,009
-141,731	-116,254	0,090	0,012
-140,716	800,000	-0,048	-0,101
-139,702	-134,827	-0,083	-0,007
-138,687	800,000	0,059	-0,149
-137,672	388,296	-0,049	-0,073
-136,658	-200,000	0,003	-0,092
-135,643	526,496	0,091	0,155
-134,629	94,645	0,011	-0,009
-133,614	800,000	0,021	0,047
-132,599	132,094	0,052	-0,048
-131,585	-146,078	-0,025	0,002
-130,570	140,645	-0,132	0,126
-129,556	-200,000	0,032	-0,116
-128,541	33,374	-0,096	-0,060
-127,526	-20,514	0,093	-0,041
-126,512	-50,799	0,106	0,036
-125,497	-62,027	0,122	0,037
-124,483	-18,541	-0,059	0,026
-123,468	79,562	-0,099	0,076
-122,453	-25,996	-0,045	-0,019
-121,439	133,149	0,176	-0,164
-120,424	-200,000	-0,013	-0,156
-119,410	150,884	-0,047	0,046
