DTS Sentinel unit serial number:	SN410029Multiplexer serial number:	ORYXHardware model number:	OX2-SRSoftware version number:	ORYX F/W v4,00 Oryx Data Collector v3.7.2.0data status	okinstallation	B5 Nyhavnadifferential loss correction	single-endedforward channel	channel 2reverse channel	N/Adate	2023/12/12time	09:22:13forward acquisition time	300,00reverse acquisition time	0,00gamma	499,1914k internal	0,3158k external	0,3158temperature offset calibration	1,0000default loss term (dB/km)	0,3820temperature slope calibration	1,0000multiplexer offset coefficient	1,0000multiplexer slope coefficient	1,0000fibre end	0,00T internal ref (°C)	15,02T ext. ref 1 (°C)	-1,28T ext. ref 2 (°C)	-1,57length (m)	temperature (°C)	Stokes	anti-Stokes-744,400	344,180	0,092	-0,133
-743,385	-107,612	-0,308	0,049
-742,371	-69,070	0,116	0,033
-741,356	-130,642	-0,301	-0,029
-740,342	-9,286	0,113	-0,055
-739,327	-99,148	-0,248	0,046
-738,312	-37,908	0,119	-0,046
-737,298	-68,073	-0,306	-0,087
-736,283	-7,131	0,144	0,072
-735,269	0,814	-0,225	0,118
-734,254	-140,607	0,217	-0,016
-733,239	-20,129	-0,635	-0,287
-732,225	82,326	0,130	0,104
-731,210	121,662	0,041	-0,038
-730,196	75,323	-0,041	0,032
-729,181	-200,000	0,009	-0,114
-728,167	-100,790	-0,105	-0,019
-727,152	800,000	-0,039	-0,112
-726,137	490,076	-0,040	-0,068
-725,123	-200,000	-0,028	0,143
-724,108	113,525	-0,045	-0,040
-723,094	201,833	-0,098	-0,112
-722,079	-200,000	-0,013	0,080
-721,064	-20,117	-0,053	0,024
-720,050	385,416	-0,016	-0,025
-719,035	-21,960	-0,138	-0,062
-718,021	-200,000	-0,026	-0,104
-717,006	-159,636	-0,075	0,003
-715,991	25,241	-0,119	-0,073
-714,977	548,773	-0,126	-0,224
-713,962	-200,000	0,001	-0,112
-712,948	228,046	0,035	0,042
-711,933	-200,000	0,016	0,064
-710,918	94,928	-0,020	-0,017
-709,904	-62,134	0,151	-0,046
-708,889	-200,000	-0,083	-0,000
-707,875	-12,548	-0,120	-0,058
-706,860	15,433	-0,112	-0,064
-705,845	-200,000	0,051	-0,175
-704,831	-4,583	0,026	-0,013
-703,816	328,546	0,041	0,058
-702,802	800,000	-0,026	-0,080
-701,787	248,726	-0,101	-0,126
-700,772	800,000	0,016	0,042
-699,758	800,000	0,040	-0,085
-698,743	-28,095	0,058	0,025
-697,729	54,605	0,031	-0,022
-696,714	14,335	0,100	0,057
-695,699	-200,000	-0,014	0,104
-694,685	-9,419	-0,046	-0,023
-693,670	568,992	-0,031	0,056
-692,656	-155,022	-0,100	-0,005
-691,641	800,000	0,021	-0,045
-690,627	249,248	-0,016	-0,020
-689,612	-28,914	-0,063	0,027
-688,597	-138,976	-0,114	0,009
-687,583	-7,709	0,029	0,015
-686,568	800,000	0,045	-0,101
-685,554	800,000	-0,030	-0,080
-684,539	-200,000	-0,009	-0,100
-683,524	-167,497	0,114	0,003
-682,510	153,801	0,075	0,076
-681,495	800,000	0,032	-0,099
-680,481	143,099	-0,056	-0,055
-679,466	-68,656	-0,105	0,030
-678,451	800,000	-0,035	-0,093
-677,437	-200,000	-0,008	-0,039
-676,422	-58,823	0,043	-0,014
-675,408	347,912	0,056	0,081
-674,393	314,906	0,076	0,106
-673,378	800,000	0,062	-0,150
-672,364	77,873	-0,052	0,041
-671,349	-120,380	-0,161	-0,020
-670,335	35,985	-0,054	0,035
-669,320	-200,000	-0,028	0,145
-668,305	90,027	0,057	0,047
-667,291	4,576	0,086	0,046
-666,276	22,564	-0,119	-0,071
-665,262	28,279	-0,143	-0,089
-664,247	131,471	-0,085	-0,080
-663,232	443,186	-0,076	-0,122
-662,218	-200,000	0,008	0,100
-661,203	-200,000	0,022	-0,086
-660,189	284,311	-0,098	-0,130
-659,174	1,219	-0,085	0,045
-658,159	1,126	-0,098	0,052
-657,145	-103,062	-0,056	0,010
-656,130	-200,000	0,003	0,020
-655,116	-79,650	-0,078	0,019
-654,101	81,545	0,066	-0,052
-653,086	-200,000	-0,004	-0,100
-652,072	-159,437	-0,046	-0,002
-651,057	-24,823	0,047	-0,020
-650,043	800,000	-0,023	0,061
-649,028	456,519	-0,027	0,045
-648,014	-142,688	-0,073	-0,005
-646,999	-200,000	-0,002	0,064
-645,984	-200,000	-0,004	-0,043
-644,970	694,043	0,061	0,117
-643,955	536,283	0,056	-0,097
-642,941	-56,374	-0,033	0,011
-641,926	-50,390	0,081	0,028
-640,911	539,033	0,038	-0,066
-639,897	-200,000	-0,006	0,033
-638,882	-200,000	0,020	-0,074
-637,868	140,076	0,069	0,066
-636,853	-200,000	-0,017	0,130
-635,838	-200,000	-0,006	-0,073
-634,824	48,638	-0,142	-0,097
-633,809	78,231	0,093	0,073
-632,795	-200,000	0,036	0,154
-631,780	800,000	0,034	-0,082
-630,765	-155,516	-0,043	0,002
-629,751	2,237	-0,029	0,016
-628,736	800,000	-0,050	-0,142
-627,722	800,000	0,011	-0,032
-626,707	-65,469	-0,068	-0,020
-625,692	190,264	0,077	0,085
-624,678	70,311	-0,071	0,054
-623,663	662,324	-0,012	-0,023
-622,649	-200,000	0,032	-0,193
-621,634	800,000	-0,045	-0,142
-620,619	39,990	0,176	-0,116
-619,605	244,110	-0,019	-0,024
-618,590	184,434	0,083	0,091
-617,576	-200,000	0,027	-0,134
-616,561	-200,000	-0,176	0,000
-615,546	77,108	0,015	0,012
-614,532	104,173	0,101	-0,087
-613,517	171,111	-0,059	-0,062
-612,503	-54,604	-0,119	0,039
-611,488	698,603	0,126	0,244
-610,474	359,718	-0,034	-0,050
-609,459	-200,000	0,004	-0,075
-608,444	427,978	0,038	-0,061
-607,430	800,000	-0,006	0,016
-606,415	800,000	-0,029	-0,093
-605,401	800,000	0,044	0,139
-604,386	-181,578	0,026	0,000
-603,371	25,024	0,068	-0,041
-602,357	106,360	0,042	0,036
-601,342	-165,146	-0,057	0,002
-600,328	-80,046	-0,063	0,015
-599,313	-126,403	0,155	-0,017
-598,298	-200,000	0,009	0,075
-597,284	-200,000	0,018	0,083
-596,269	800,000	-0,019	-0,051
-595,255	2,598	-0,081	-0,043
-594,240	68,939	0,057	0,043
-593,225	452,006	-0,014	-0,024
-592,211	754,124	-0,008	-0,016
-591,196	83,882	-0,068	0,054
-590,182	94,334	-0,056	-0,046
-589,167	209,573	0,083	-0,095
-588,152	-131,852	-0,102	-0,010
-587,138	-60,090	0,162	-0,050
-586,123	800,000	-0,024	0,070
-585,109	157,043	0,079	0,080
-584,094	231,258	-0,045	0,054
-583,079	7,571	0,049	0,027
-582,065	-200,000	0,006	-0,033
-581,050	5,376	0,038	-0,020
-580,036	57,236	-0,159	0,114
-579,021	222,067	-0,022	0,026
-578,006	-2,568	-0,109	-0,056
-576,992	119,936	0,067	0,061
-575,977	-28,748	-0,076	0,032
-574,963	-153,756	-0,087	0,004
-573,948	58,776	0,012	-0,008
-572,934	-200,000	0,033	0,112
-571,919	-31,694	0,029	-0,012
-570,904	-200,000	-0,017	-0,097
-569,890	649,347	0,059	-0,110
-568,875	-105,241	0,087	0,014
-567,861	-152,239	-0,034	-0,002
-566,846	-64,286	0,063	-0,019
-565,831	626,003	-0,033	0,061
-564,817	193,989	-0,026	-0,029
-563,802	-49,183	-0,077	-0,027
-562,788	-72,320	0,042	0,011
-561,773	-110,232	0,108	-0,016
-560,758	657,433	0,078	0,148
-559,744	181,344	-0,053	0,057
-558,729	190,271	0,055	-0,060
-557,715	1,098	-0,061	-0,032
-556,700	-200,000	0,013	0,070
-555,685	288,186	-0,009	0,012
-554,671	562,770	-0,031	-0,055
-553,656	256,149	-0,020	-0,025
-552,642	-48,981	0,085	0,030
-551,627	280,588	-0,062	0,081
-550,612	-112,316	-0,067	-0,010
-549,598	-200,000	0,018	-0,137
-548,583	-10,914	0,078	-0,037
-547,569	-48,460	0,036	0,013
-546,554	545,695	-0,060	0,105
-545,539	-35,333	-0,007	0,003
-544,525	-200,000	0,035	0,137
-543,510	255,942	-0,016	0,020
-542,496	800,000	-0,018	-0,047
-541,481	-119,351	-0,029	0,004
-540,466	517,659	-0,056	0,097
-539,452	-200,000	0,006	-0,063
-538,437	360,474	0,030	-0,044
-537,423	125,999	-0,039	-0,036
-536,408	-112,912	-0,090	-0,013
-535,393	536,690	0,060	-0,104
-534,379	-30,543	-0,018	0,007
-533,364	-40,628	-0,076	-0,029
-532,350	-115,814	0,104	0,014
-531,335	289,857	-0,016	0,021
-530,321	-10,024	0,062	0,030
-529,306	800,000	0,027	0,068
-528,291	64,455	-0,135	-0,100
-527,277	-8,306	0,111	-0,054
-526,262	800,000	-0,053	-0,122
-525,248	-200,000	-0,011	0,050
-524,233	-26,196	-0,057	0,024
-523,218	-132,525	-0,043	-0,004
-522,204	110,797	0,134	-0,118
-521,189	800,000	-0,008	0,020
-520,175	800,000	-0,008	0,017
-519,160	-110,424	-0,073	-0,011
-518,145	42,726	0,088	-0,058
-517,131	-1,063	-0,107	0,055
-516,116	-200,000	0,038	0,185
-515,102	520,091	0,035	-0,061
-514,087	-63,822	0,089	0,026
-513,072	-174,359	-0,217	0,004
-512,058	-200,000	-0,020	-0,114
-511,043	140,927	0,131	0,126
-510,029	207,643	0,049	0,056
-509,014	-200,000	0,020	0,076
-507,999	-143,437	-0,017	0,001
-506,985	-200,000	0,012	0,075
-505,970	173,055	-0,118	0,125
-504,956	125,413	-0,102	-0,094
-503,941	-200,000	-0,004	-0,021
-502,926	-63,938	0,036	-0,011
-501,912	-200,000	-0,006	0,000
-500,897	-200,000	-0,024	0,119
-499,883	-200,000	0,036	-0,135
-498,868	800,000	0,031	-0,074
-497,853	-200,000	0,007	-0,061
-496,839	-200,000	0,005	-0,108
-495,824	93,927	0,129	0,107
-494,810	388,187	0,066	0,099
-493,795	449,270	-0,056	-0,090
-492,781	-45,348	-0,053	0,019
-491,766	-200,000	0,011	-0,034
-490,751	260,814	-0,124	-0,156
-489,737	702,700	-0,039	-0,075
-488,722	-89,569	0,127	-0,027
-487,708	69,747	-0,040	0,030
-486,693	800,000	0,084	0,188
-485,678	-200,000	-0,015	-0,143
-484,664	-54,831	0,108	-0,035
-483,649	-106,329	0,026	0,004
-482,635	-200,000	0,002	-0,033
-481,620	-76,286	0,069	-0,018
-480,605	310,049	0,041	0,057
-479,591	328,105	0,032	0,044
-478,576	71,987	0,069	0,052
-477,562	800,000	-0,042	-0,103
-476,547	411,727	0,037	0,057
-475,532	-200,000	0,005	-0,048
-474,518	-10,471	-0,019	-0,009
-473,503	-77,425	0,105	-0,026
-472,489	-25,737	-0,110	0,047
-471,474	-200,000	-0,032	0,128
-470,459	-113,659	-0,164	0,023
-469,445	-88,015	-0,086	0,019
-468,430	42,709	0,114	0,075
-467,416	-200,000	0,011	0,064
-466,401	-46,504	-0,043	-0,015
-465,386	350,259	-0,071	0,103
-464,372	14,127	0,023	-0,013
-463,357	-159,716	-0,066	-0,003
-462,343	-200,000	-0,004	0,040
-461,328	-200,000	0,013	-0,148
-460,313	-79,160	-0,122	0,030
-459,299	-200,000	-0,019	-0,073
-458,284	155,432	0,076	0,076
-457,270	-200,000	-0,015	-0,054
-456,255	149,356	-0,070	-0,069
-455,241	800,000	0,055	-0,133
-454,226	-82,638	0,120	0,028
-453,211	-200,000	0,008	-0,028
-452,197	-2,348	0,123	0,063
-451,182	64,123	-0,083	0,061
-450,168	104,089	-0,092	-0,079
-449,153	-200,000	-0,010	0,066
-448,138	-200,000	-0,031	-0,102
-447,124	-94,742	-0,256	-0,050
-446,109	800,000	0,039	-0,081
-445,095	232,441	0,049	-0,059
-444,080	-96,146	0,087	0,017
-443,065	38,850	0,080	0,052
-442,051	-200,000	0,038	0,242
-441,036	-113,578	-0,255	-0,036
-440,022	800,000	-0,024	-0,064
-439,007	79,086	-0,054	-0,042
-437,992	-20,310	0,071	-0,032
-436,978	2,271	0,073	0,038
-435,963	200,497	-0,040	0,045
-434,949	-66,171	0,040	0,012
-433,934	-200,000	-0,009	0,042
-432,919	30,010	-0,100	-0,062
-431,905	-152,036	0,084	-0,004
-430,890	800,000	0,025	0,060
-429,876	-184,300	-0,061	-0,001
-428,861	-153,742	0,095	-0,005
-427,846	-86,255	-0,107	-0,024
-426,832	-200,000	-0,009	-0,130
-425,817	355,257	0,033	0,049
-424,803	194,884	-0,038	-0,043
-423,788	-1,486	-0,080	-0,041
-422,773	-65,984	-0,061	0,018
-421,759	727,240	0,056	-0,109
-420,744	137,212	0,022	-0,021
-419,730	-200,000	0,012	-0,109
-418,715	-129,042	-0,114	-0,011
-417,701	21,967	0,151	0,090
-416,686	76,704	-0,076	0,058
-415,671	-11,818	0,134	-0,064
-414,657	650,413	0,023	0,044
-413,642	-120,417	-0,091	-0,011
-412,628	93,533	-0,021	-0,017
-411,613	-123,391	-0,024	0,003
-410,598	297,926	-0,068	-0,091
-409,584	800,000	0,021	0,047
-408,569	-200,000	0,019	0,060
-407,555	53,230	0,072	0,050
-406,540	615,626	0,044	-0,081
-405,525	800,000	0,016	0,040
-404,511	800,000	-0,042	-0,110
-403,496	800,000	0,042	-0,090
-402,482	17,475	-0,045	-0,026
-401,467	-165,961	0,019	0,001
-400,452	86,887	0,063	0,051
-399,438	108,587	0,084	-0,073
-398,423	128,698	-0,071	-0,066
-397,409	199,273	-0,094	-0,105
-396,394	-200,000	0,001	0,041
-395,379	243,958	-0,035	-0,043
-394,365	-25,753	-0,073	0,031
-393,350	156,031	0,033	0,033
-392,336	312,700	0,059	0,081
-391,321	-200,000	-0,008	-0,039
-390,306	-138,858	0,105	-0,008
-389,292	65,679	-0,071	-0,052
-388,277	-69,879	-0,033	0,009
-387,263	-53,389	-0,007	0,002
-386,248	-200,000	0,023	0,084
-385,233	31,973	0,100	-0,062
-384,219	-35,837	-0,117	-0,046
-383,204	-200,000	0,008	-0,076
-382,190	14,215	-0,093	-0,053
-381,175	-200,000	-0,002	0,150
-380,160	-158,272	0,117	-0,005
-379,146	-98,569	0,018	0,003
-378,131	433,313	0,061	-0,096
-377,117	10,301	0,135	0,074
-376,102	-200,000	-0,030	-0,148
-375,088	482,007	-0,038	-0,062
-374,073	-145,035	-0,093	-0,006
-373,058	557,421	0,079	0,138
-372,044	286,758	0,027	-0,035
-371,029	-200,000	-0,035	0,206
-370,015	376,789	-0,048	0,072
-369,000	800,000	0,011	-0,029
-367,985	-14,584	-0,170	-0,079
-366,971	189,801	0,088	-0,096
-365,956	-200,000	-0,013	0,133
-364,942	800,000	-0,021	-0,048
-363,927	88,641	0,019	0,015
-362,912	130,541	0,088	-0,082
-361,898	287,825	-0,063	-0,083
-360,883	225,366	0,053	-0,063
-359,869	800,000	-0,023	-0,055
-358,854	800,000	0,079	-0,169
-357,839	-87,211	-0,063	0,014
-356,825	800,000	-0,019	-0,049
-355,810	-28,992	0,060	0,025
-354,796	115,012	0,036	-0,032
-353,781	57,275	-0,181	-0,128
-352,766	800,000	0,005	-0,011
-351,752	-1,212	0,030	-0,015
-350,737	273,262	0,056	-0,072
-349,723	614,863	-0,088	0,161
-348,708	8,375	0,135	0,073
-347,693	429,048	-0,042	0,067
-346,679	-119,047	0,098	-0,012
-345,664	-55,431	-0,078	-0,025
-344,650	-76,842	-0,103	-0,026
-343,635	-200,000	0,015	0,179
-342,620	772,899	-0,093	0,184
-341,606	-176,820	0,162	0,003
-340,591	-97,108	-0,160	0,030
-339,577	800,000	0,014	0,042
-338,562	-32,622	-0,038	0,015
-337,548	-74,276	-0,112	-0,029
-336,533	-126,024	0,227	-0,024
-335,518	148,504	0,077	-0,075
-334,504	-94,665	0,073	-0,014
-333,489	92,070	0,065	0,053
-332,475	-97,192	0,108	0,020
-331,460	-72,637	-0,048	-0,013
-330,445	-200,000	-0,009	-0,067
-329,431	-93,375	0,106	0,021
-328,416	800,000	0,036	0,100
-327,402	-106,440	-0,024	0,004
-326,387	-0,017	0,007	-0,003
-325,372	2,395	-0,067	0,035
-324,358	108,917	-0,111	-0,096
-323,343	425,656	0,048	-0,075
-322,329	112,149	-0,033	0,029
-321,314	454,777	-0,072	0,116
-320,299	800,000	-0,048	-0,103
-319,285	17,927	-0,110	0,064
-318,270	587,567	0,035	-0,064
-317,256	-24,902	-0,089	-0,038
-316,241	221,399	-0,038	-0,045
-315,226	800,000	0,043	0,124
-314,212	-114,453	-0,035	-0,005
-313,197	-118,687	0,093	-0,012
-312,183	48,399	0,039	-0,027
-311,168	482,732	0,088	-0,146
-310,153	394,348	-0,126	-0,192
-309,139	130,907	0,132	-0,122
-308,124	-200,000	-0,013	0,054
-307,110	-200,000	0,031	0,156
-306,095	50,154	0,112	0,076
-305,080	669,808	0,110	0,208
-304,066	-77,039	-0,158	-0,040
-303,051	-200,000	0,033	-0,122
-302,037	-200,000	0,031	-0,102
-301,022	305,167	-0,026	-0,035
-300,008	-43,136	0,128	0,047
-298,993	37,361	0,105	0,067
-297,978	800,000	-0,039	0,084
-296,964	255,791	0,022	-0,027
-295,949	282,972	0,079	-0,104
-294,935	800,000	-0,044	-0,089
-293,920	-200,000	-0,006	0,047
-292,905	800,000	0,012	-0,027
-291,891	531,819	-0,065	0,112
-290,876	11,044	0,066	0,037
-289,862	-200,000	0,008	-0,141
-288,847	-69,130	-0,088	0,024
-287,832	-148,734	-0,024	-0,001
-286,818	133,577	-0,033	0,031
-285,803	84,556	0,034	-0,027
-284,789	-200,000	0,040	0,147
-283,774	800,000	-0,010	-0,024
-282,759	-200,000	-0,005	-0,098
-281,745	-200,000	0,007	-0,179
-280,730	414,067	-0,090	0,138
-279,716	-200,000	-0,026	0,136
-278,701	-200,000	0,002	0,012
-277,686	-200,000	0,008	-0,026
-276,672	-200,000	0,004	0,075
-275,657	-200,000	-0,023	-0,141
-274,643	4,714	0,176	0,093
-273,628	517,126	-0,060	0,101
-272,613	-200,000	-0,001	-0,081
-271,599	-200,000	-0,029	0,101
-270,584	-4,718	-0,028	0,014
-269,570	800,000	-0,046	0,108
-268,555	-200,000	-0,009	0,048
-267,540	-68,022	-0,084	0,023
-266,526	132,275	0,024	0,022
-265,511	46,614	0,019	-0,013
-264,497	-40,007	0,146	0,055
-263,482	-200,000	0,001	-0,103
-262,467	-17,538	0,029	0,013
-261,453	-200,000	-0,026	-0,100
-260,438	800,000	0,040	-0,118
-259,424	-200,000	0,003	-0,101
-258,409	800,000	0,036	-0,094
-257,395	34,544	0,068	-0,043
-256,380	-153,370	0,068	-0,003
-255,365	12,849	0,079	0,044
-254,351	519,068	-0,025	-0,042
-253,336	50,326	0,081	0,055
-252,322	-40,560	-0,123	-0,046
-251,307	800,000	0,036	0,093
-250,292	270,891	0,080	0,101
-249,278	800,000	-0,049	0,132
-248,263	-94,501	0,098	-0,019
-247,249	-200,000	0,004	0,113
-246,234	-73,057	-0,090	0,024
-245,219	-21,726	-0,054	-0,024
-244,205	-60,399	-0,084	-0,026
-243,190	257,058	-0,020	0,025
-242,176	-121,592	0,071	0,008
-241,161	800,000	-0,036	0,096
-240,146	-200,000	0,000	-0,007
-239,132	-61,545	-0,127	0,038
-238,117	-152,182	-0,065	-0,003
-237,103	-84,594	0,027	-0,006
-236,088	800,000	0,032	0,071
-235,073	-126,284	-0,162	0,017
-234,059	800,000	-0,058	-0,152
-233,044	-200,000	-0,009	0,038
-232,030	-84,603	0,082	0,019
-231,015	-54,693	-0,112	-0,036
-230,000	152,379	-0,018	0,018
-228,986	393,582	0,049	-0,074
-227,971	800,000	0,013	-0,040
-226,957	111,896	0,012	0,010
-225,942	360,146	0,035	-0,051
-224,927	-99,232	-0,076	0,014
-223,913	61,267	-0,035	0,025
-222,898	237,703	0,039	-0,047
-221,884	-200,000	-0,069	-0,242
-220,869	800,000	0,024	-0,053
-219,855	-128,467	-0,171	0,017
-218,840	155,399	0,126	0,125
-217,825	11,856	-0,033	0,018
-216,811	230,815	-0,069	-0,081
-215,796	339,728	-0,049	0,070
-214,782	-150,790	0,129	0,007
-213,767	-8,196	0,076	-0,037
-212,752	-37,056	0,054	0,021
-211,738	-200,000	0,020	-0,080
-210,723	101,098	-0,107	-0,090
-209,709	161,266	0,054	-0,055
-208,694	-200,000	-0,024	-0,164
-207,679	671,608	-0,092	0,174
-206,665	481,287	-0,044	0,073
-205,650	139,928	0,060	-0,057
-204,636	-127,873	0,061	-0,006
-203,621	-200,000	0,013	-0,094
-202,606	743,454	-0,072	0,140
-201,592	-35,279	-0,196	0,077
-200,577	-7,971	0,085	0,041
-199,563	93,107	-0,112	0,091
-198,548	-200,000	0,008	-0,066
-197,533	88,436	0,040	0,032
-196,519	-19,878	0,116	-0,051
-195,504	-200,000	0,031	-0,122
-194,490	-2,727	-0,039	0,020
-193,475	65,449	-0,096	-0,070
-192,460	-113,355	0,053	0,007
-191,446	-120,153	0,055	0,007
-190,431	83,862	0,057	0,045
-189,417	-96,327	-0,094	0,018
-188,402	800,000	0,040	0,105
-187,387	594,782	-0,064	0,114
-186,373	800,000	-0,047	0,100
-185,358	47,301	-0,079	-0,053
-184,344	-86,523	0,062	0,014
-183,329	153,543	0,065	0,064
-182,315	258,532	0,043	-0,053
-181,300	-31,619	-0,236	-0,095
-180,285	82,718	-0,049	-0,039
-179,271	-200,000	-0,004	-0,020
-178,256	-200,000	-0,015	0,128
-177,242	240,182	0,092	-0,111
-176,227	116,327	0,107	0,094
-175,212	-200,000	0,010	0,101
-174,198	800,000	-0,037	-0,111
-173,183	250,441	0,015	0,018
-172,169	270,883	0,041	-0,052
-171,154	-6,708	-0,040	0,020
-170,139	800,000	0,044	0,100
-169,125	800,000	0,022	0,044
-168,110	576,142	-0,043	-0,076
-167,096	-94,132	0,018	-0,004
-166,081	20,717	-0,125	-0,073
-165,066	-200,000	0,013	0,064
-164,052	-200,000	-0,013	0,148
-163,037	-200,000	-0,020	0,148
-162,023	485,486	0,116	0,191
-161,008	13,164	0,038	0,021
-159,993	90,911	-0,030	0,024
-158,979	235,100	0,090	0,108
-157,964	-200,000	-0,002	-0,045
-156,950	-24,031	0,084	-0,036
-155,935	-70,999	-0,018	0,005
-154,920	-200,000	-0,001	0,068
-153,906	225,944	0,022	0,025
-152,891	-200,000	0,032	0,164
-151,877	-200,000	0,046	0,165
-150,862	-93,981	-0,169	0,033
-149,847	68,897	0,076	-0,056
-148,833	46,619	0,097	-0,065
-147,818	84,644	0,035	-0,028
-146,804	-48,685	-0,054	-0,019
-145,789	800,000	-0,035	0,076
-144,775	-135,957	-0,056	-0,005
-143,760	-200,000	0,017	-0,084
-142,745	417,759	0,009	0,014
-141,731	-66,587	-0,056	0,016
-140,716	514,190	0,077	0,130
-139,702	800,000	-0,055	0,130
-138,687	-69,885	0,132	-0,036
-137,672	800,000	-0,005	-0,014
-136,658	-141,990	-0,107	-0,008
-135,643	-200,000	0,011	0,084
-134,629	800,000	-0,036	0,113
-133,614	4,285	0,099	0,052
-132,599	-79,999	0,213	-0,051
-131,585	800,000	-0,027	0,058
-130,570	173,935	0,080	-0,084
-129,556	-24,423	-0,053	0,023
-128,541	-20,933	-0,106	-0,046
-127,526	-44,527	0,239	-0,085
-126,512	-200,000	0,005	-0,023
-125,497	-200,000	0,024	0,086
-124,483	-0,274	0,108	0,055
-123,468	-5,069	-0,088	-0,043
-122,453	-89,887	-0,125	-0,026
-121,439	-200,000	0,002	0,191
-120,424	182,261	-0,087	0,093
-119,410	800,000	0,008	0,021
-118,395	191,152	-0,063	0,068
