DTS Sentinel unit serial number:	SN410029Multiplexer serial number:	ORYXHardware model number:	OX2-SRSoftware version number:	ORYX F/W v4,00 Oryx Data Collector v3.7.2.0data status	okinstallation	B5 Nyhavnadifferential loss correction	single-endedforward channel	channel 2reverse channel	N/Adate	2023/12/14time	18:22:13forward acquisition time	300,00reverse acquisition time	0,00gamma	499,1914k internal	0,3156k external	0,3156temperature offset calibration	1,0000default loss term (dB/km)	0,3820temperature slope calibration	1,0000multiplexer offset coefficient	1,0000multiplexer slope coefficient	1,0000fibre end	0,00T internal ref (°C)	8,44T ext. ref 1 (°C)	-6,83T ext. ref 2 (°C)	-6,87length (m)	temperature (°C)	Stokes	anti-Stokes-744,400	-56,944	0,075	-0,024
-743,385	-57,381	-0,308	0,099
-742,371	97,690	0,102	0,087
-741,356	-98,198	-0,348	-0,065
-740,342	-200,000	0,046	0,212
-739,327	-78,399	-0,360	-0,090
-738,312	-72,343	0,307	0,083
-737,298	-139,184	-0,385	-0,030
-736,283	-57,623	0,097	0,031
-735,269	0,729	-0,344	-0,181
-734,254	-180,708	0,108	-0,002
-733,239	-29,211	-0,495	-0,208
-732,225	195,167	0,133	0,150
-731,210	637,958	-0,096	0,181
-730,196	773,163	-0,033	-0,068
-729,181	-127,147	0,056	0,006
-728,167	-200,000	-0,031	-0,125
-727,152	-200,000	-0,031	-0,140
-726,137	-200,000	0,005	-0,072
-725,123	-97,426	-0,104	0,020
-724,108	-158,371	-0,098	0,004
-723,094	56,469	-0,047	0,034
-722,079	51,274	-0,014	-0,010
-721,064	-1,634	-0,134	0,069
-720,050	128,969	0,030	-0,028
-719,035	554,226	-0,067	0,119
-718,021	129,914	0,045	-0,042
-717,006	165,638	-0,117	-0,122
-715,991	203,419	0,061	-0,069
-714,977	800,000	-0,050	-0,119
-713,962	359,589	-0,066	-0,097
-712,948	-63,644	0,041	-0,012
-711,933	-200,000	-0,002	0,082
-710,918	64,453	0,041	-0,030
-709,904	377,514	-0,069	-0,104
-708,889	800,000	-0,034	-0,095
-707,875	-200,000	0,008	0,055
-706,860	800,000	0,027	0,082
-705,845	-200,000	-0,002	-0,113
-704,831	-200,000	-0,003	0,016
-703,816	800,000	0,014	-0,031
-702,802	8,569	0,106	-0,059
-701,787	40,882	-0,069	-0,046
-700,772	-96,743	-0,214	-0,041
-699,758	-200,000	-0,022	-0,088
-698,743	-200,000	0,010	-0,048
-697,729	50,948	0,107	-0,074
-696,714	-131,242	0,142	0,014
-695,699	-200,000	0,029	-0,108
-694,685	620,151	0,037	0,069
-693,670	800,000	-0,057	-0,137
-692,656	-34,993	0,020	0,008
-691,641	-138,169	0,018	-0,001
-690,627	95,238	-0,081	0,068
-689,612	-92,392	0,145	-0,030
-688,597	-167,252	-0,072	-0,002
-687,583	-33,585	0,052	0,021
-686,568	89,953	-0,063	0,052
-685,554	-63,582	0,076	-0,023
-684,539	800,000	-0,011	0,022
-683,524	-26,610	0,141	-0,061
-682,510	800,000	-0,041	-0,120
-681,495	470,189	0,002	-0,003
-680,481	-46,717	-0,108	-0,039
-679,466	58,205	0,032	0,023
-678,451	-200,000	0,006	-0,133
-677,437	245,402	0,021	0,026
-676,422	-97,886	-0,135	0,025
-675,408	61,916	0,100	0,073
-674,393	-111,056	-0,176	0,026
-673,378	-25,322	-0,182	0,079
-672,364	-100,714	-0,057	-0,010
-671,349	571,604	-0,051	-0,091
-670,335	-200,000	-0,025	-0,129
-669,320	-200,000	-0,021	-0,147
-668,305	77,680	-0,035	-0,027
-667,291	2,090	-0,190	0,101
-666,276	80,479	0,026	0,020
-665,262	-200,000	0,016	-0,163
-664,247	-30,119	0,057	-0,024
-663,232	381,348	0,054	-0,082
-662,218	-103,470	-0,152	-0,026
-661,203	362,802	0,072	0,106
-660,189	-132,030	-0,097	0,009
-659,174	-200,000	-0,017	-0,100
-658,159	-110,920	-0,139	0,021
-657,145	-97,200	-0,131	0,025
-656,130	-141,654	-0,120	-0,009
-655,116	-200,000	-0,013	0,083
-654,101	602,068	0,022	0,041
-653,086	-108,550	-0,127	-0,020
-652,072	194,340	0,051	0,057
-651,057	73,949	-0,046	-0,035
-650,043	202,280	-0,049	-0,056
-649,028	35,672	0,048	-0,031
-648,014	155,752	0,064	-0,065
-646,999	29,485	-0,108	-0,067
-645,984	187,455	-0,093	0,102
-644,970	-77,373	-0,027	0,007
-643,955	524,380	0,033	-0,058
-642,941	-200,000	0,018	0,102
-641,926	184,942	0,054	-0,059
-640,911	1,300	-0,104	-0,055
-639,897	-10,049	-0,080	-0,039
-638,882	-70,412	-0,049	0,014
-637,868	-200,000	0,058	-0,203
-636,853	-200,000	-0,036	-0,227
-635,838	7,537	0,038	0,021
-634,824	25,491	-0,034	0,021
-633,809	373,770	0,052	0,078
-632,795	-11,217	0,073	-0,035
-631,780	-84,868	0,038	-0,009
-630,765	-53,224	-0,085	0,029
-629,751	-200,000	0,007	-0,037
-628,736	-7,397	-0,065	-0,032
-627,722	5,178	-0,087	0,047
-626,707	286,998	-0,081	-0,108
-625,692	87,118	0,091	-0,074
-624,678	258,916	0,010	0,012
-623,663	-18,559	-0,102	0,046
-622,649	800,000	0,010	0,030
-621,634	365,564	0,051	-0,076
-620,619	255,988	0,107	-0,135
-619,605	137,998	-0,078	0,075
-618,590	260,957	0,118	0,151
-617,576	-158,664	-0,121	-0,005
-616,561	151,028	-0,048	0,048
-615,546	-200,000	-0,022	-0,096
-614,532	-71,608	-0,151	-0,041
-613,517	800,000	-0,032	0,092
-612,503	-96,115	0,152	-0,029
-611,488	-100,881	-0,028	0,005
-610,474	-83,063	0,093	-0,022
-609,459	49,840	0,106	-0,073
-608,444	496,011	-0,052	0,088
-607,430	-200,000	-0,016	-0,082
-606,415	-72,264	0,081	0,022
-605,401	53,017	0,039	0,027
-604,386	6,387	-0,017	0,009
-603,371	461,567	-0,127	0,209
-602,357	800,000	-0,033	0,076
-601,342	23,388	-0,177	0,107
-600,328	320,020	0,009	0,013
-599,313	779,348	0,041	0,083
-598,298	-3,166	-0,148	0,076
-597,284	-200,000	-0,001	-0,010
-596,269	800,000	0,043	-0,112
-595,255	-57,625	-0,025	-0,008
-594,240	176,876	-0,013	-0,014
-593,225	-200,000	-0,002	0,039
-592,211	-108,839	-0,064	0,010
-591,196	-200,000	0,008	0,106
-590,182	-190,332	0,065	-0,001
-589,167	800,000	-0,056	-0,137
-588,152	-200,000	0,005	-0,049
-587,138	800,000	0,035	-0,102
-586,123	561,704	-0,034	-0,060
-585,109	128,284	0,051	0,048
-584,094	49,883	0,040	0,028
-583,079	-113,826	-0,081	-0,011
-582,065	171,885	0,047	-0,049
-581,050	-200,000	-0,043	0,196
-580,036	40,060	-0,034	0,022
-579,021	800,000	0,037	0,081
-578,006	-200,000	-0,008	0,187
-576,992	-200,000	-0,031	-0,126
-575,977	100,890	-0,039	0,033
-574,963	-200,000	0,024	0,224
-573,948	-200,000	0,025	0,089
-572,934	173,677	0,045	0,047
-571,919	-33,473	-0,147	0,059
-570,904	-200,000	0,003	-0,036
-569,890	-200,000	-0,015	-0,079
-568,875	-31,257	-0,058	0,024
-567,861	-21,916	0,128	0,057
-566,846	-12,812	0,035	-0,016
-565,831	800,000	-0,021	0,054
-564,817	-200,000	-0,006	-0,036
-563,802	-82,165	-0,100	0,024
-562,788	73,756	0,045	-0,034
-561,773	-74,652	0,078	-0,020
-560,758	34,952	-0,101	0,065
-559,744	800,000	0,017	0,051
-558,729	400,111	-0,043	0,066
-557,715	-200,000	0,007	-0,035
-556,700	-200,000	0,006	-0,164
-555,685	-200,000	0,010	-0,118
-554,671	800,000	-0,097	-0,241
-553,656	-126,628	0,081	0,009
-552,642	101,030	0,084	0,072
-551,627	321,380	-0,053	-0,074
-550,612	-200,000	-0,002	-0,203
-549,598	800,000	-0,038	-0,111
-548,583	-135,757	-0,117	-0,010
-547,569	53,804	0,054	0,038
-546,554	800,000	0,017	-0,035
-545,539	800,000	0,028	0,077
-544,525	-200,000	0,011	0,096
-543,510	143,178	-0,046	-0,045
-542,496	-200,000	0,011	-0,136
-541,481	-9,019	-0,060	0,029
-540,466	124,349	0,130	-0,120
-539,452	-74,669	-0,085	0,022
-538,437	800,000	0,034	0,070
-537,423	800,000	-0,007	-0,017
-536,408	601,052	0,032	-0,058
-535,393	383,404	0,096	-0,145
-534,379	-142,453	-0,057	0,004
-533,364	800,000	-0,023	0,065
-532,350	78,347	0,039	0,031
-531,335	230,047	-0,057	-0,069
-530,321	-19,313	-0,053	-0,024
-529,306	-127,203	0,046	-0,005
-528,291	-156,079	0,079	-0,004
-527,277	-200,000	-0,016	-0,132
-526,262	-200,000	-0,029	0,110
-525,248	800,000	0,017	0,039
-524,233	-56,214	0,114	0,037
-523,218	130,668	0,116	-0,109
-522,204	11,975	-0,112	0,063
-521,189	800,000	-0,070	-0,184
-520,175	-200,000	0,005	-0,061
-519,160	99,606	-0,135	-0,114
-518,145	-104,862	0,100	0,017
-517,131	-83,424	-0,058	0,013
-516,116	-114,943	-0,032	0,004
-515,102	271,223	0,074	0,095
-514,087	3,260	0,083	0,044
-513,072	259,292	-0,029	-0,037
-512,058	-79,783	-0,032	0,008
-511,043	-150,963	0,094	0,005
-510,029	-200,000	-0,027	0,099
-509,014	-44,923	0,057	-0,021
-507,999	323,529	0,033	-0,045
-506,985	496,176	-0,046	-0,078
-505,970	785,556	0,046	0,093
-504,956	-200,000	-0,009	-0,064
-503,941	157,701	0,036	0,036
-502,926	-200,000	0,032	-0,108
-501,912	-46,345	-0,123	0,044
-500,897	-186,232	0,107	0,001
-499,883	-200,000	-0,023	-0,109
-498,868	800,000	-0,041	-0,098
-497,853	58,735	0,041	0,029
-496,839	101,273	0,059	0,050
-495,824	800,000	-0,030	0,094
-494,810	-200,000	0,025	0,104
-493,795	434,242	0,025	-0,039
-492,781	-119,126	-0,056	-0,007
-491,766	-98,079	-0,108	0,020
-490,751	800,000	0,034	-0,077
-489,737	-30,265	-0,130	0,054
-488,722	-25,979	0,176	-0,075
-487,708	255,566	-0,022	0,027
-486,693	341,540	-0,052	0,075
-485,678	-200,000	0,014	0,066
-484,664	211,622	-0,128	-0,148
-483,649	-200,000	0,006	-0,037
-482,635	73,816	0,046	0,035
-481,620	-83,824	0,091	0,021
-480,605	800,000	-0,065	0,157
-479,591	-200,000	-0,007	-0,036
-478,576	-86,330	-0,025	0,006
-477,562	-200,000	0,005	0,047
-476,547	-200,000	-0,048	-0,172
-475,532	27,804	0,081	-0,050
-474,518	-41,009	0,154	0,058
-473,503	-200,000	0,025	0,158
-472,489	-200,000	-0,002	-0,022
-471,474	-200,000	0,002	0,143
-470,459	800,000	-0,067	0,135
-469,445	800,000	-0,040	-0,103
-468,430	-18,487	-0,062	-0,028
-467,416	-104,641	0,088	-0,015
-466,401	231,360	-0,039	0,047
-465,386	-67,146	0,061	-0,018
-464,372	-126,919	0,114	-0,012
-463,357	-200,000	0,008	-0,057
-462,343	-200,000	-0,002	0,104
-461,328	293,018	-0,086	-0,115
-460,313	79,827	-0,005	-0,004
-459,299	-123,373	0,058	-0,007
-458,284	-12,534	-0,129	0,061
-457,270	317,787	-0,051	-0,070
-456,255	-200,000	-0,018	-0,075
-455,241	-66,038	0,051	-0,015
-454,226	62,392	-0,053	-0,039
-453,211	-200,000	0,034	-0,112
-452,197	-26,413	0,101	-0,043
-451,182	-200,000	0,017	-0,081
-450,168	-200,000	0,035	0,126
-449,153	-200,000	0,001	0,024
-448,138	42,440	-0,097	0,064
-447,124	-200,000	0,017	-0,133
-446,109	-200,000	0,002	0,056
-445,095	800,000	-0,045	-0,095
-444,080	138,427	-0,119	-0,114
-443,065	-147,306	0,045	-0,003
-442,051	-200,000	0,010	0,042
-441,036	256,820	-0,074	0,092
-440,022	-24,131	-0,082	-0,036
-439,007	-95,085	0,078	-0,015
-437,992	245,169	0,072	-0,089
-436,978	-3,585	0,235	-0,119
-435,963	-200,000	-0,025	0,082
-434,949	681,864	0,042	-0,079
-433,934	5,996	-0,134	0,072
-432,919	-7,358	-0,062	0,031
-431,905	800,000	0,041	-0,094
-430,890	85,922	-0,019	-0,015
-429,876	-200,000	0,018	0,092
-428,861	391,159	0,059	0,090
-427,846	-200,000	-0,023	0,103
-426,832	-200,000	0,005	0,069
-425,817	-93,857	-0,174	-0,035
-424,803	800,000	-0,032	-0,068
-423,788	-20,484	0,159	-0,071
-422,773	216,196	-0,074	-0,086
-421,759	24,232	0,042	0,025
-420,744	-76,361	0,083	-0,021
-419,730	-61,388	-0,079	-0,024
-418,715	-171,082	-0,092	0,002
-417,701	29,984	0,136	0,084
-416,686	-146,632	0,185	0,012
-415,671	329,712	0,023	0,033
-414,657	-113,777	0,093	0,013
-413,642	-7,024	0,057	0,028
-412,628	152,243	-0,077	0,077
-411,613	-40,712	-0,152	-0,057
-410,598	-200,000	0,010	-0,087
-409,584	-200,000	0,039	-0,127
-408,569	192,841	0,017	-0,019
-407,555	-123,631	0,131	0,015
-406,540	127,846	0,093	0,086
-405,525	800,000	-0,020	-0,058
-404,511	-61,541	-0,152	-0,046
-403,496	68,091	-0,099	0,074
-402,482	40,581	0,092	0,060
-401,467	-200,000	-0,025	0,114
-400,452	445,355	0,103	0,165
-399,438	-200,000	0,019	0,165
-398,423	285,185	-0,067	-0,088
-397,409	168,090	0,056	0,058
-396,394	-124,624	-0,129	-0,014
-395,379	-24,973	-0,125	-0,054
-394,365	64,448	-0,032	-0,023
-393,350	-200,000	0,000	-0,049
-392,336	55,901	-0,084	-0,059
-391,321	800,000	0,023	0,065
-390,306	112,696	-0,023	0,020
-389,292	-200,000	-0,012	-0,088
-388,277	144,133	-0,128	-0,125
-387,263	-59,887	0,098	0,030
-386,248	-200,000	-0,039	0,131
-385,233	11,094	-0,040	0,022
-384,219	-65,850	0,121	0,035
-383,204	800,000	-0,046	0,120
-382,190	-96,919	-0,120	-0,023
-381,175	800,000	-0,037	-0,113
-380,160	186,775	-0,080	0,087
-379,146	188,953	0,087	0,095
-378,131	-22,456	0,019	-0,008
-377,117	-99,629	0,037	-0,007
-376,102	-147,314	0,052	-0,003
-375,088	800,000	-0,034	-0,070
-374,073	800,000	0,044	-0,131
-373,058	800,000	0,067	-0,140
-372,044	-118,493	-0,052	0,007
-371,029	-200,000	-0,010	-0,045
-370,015	800,000	-0,013	0,027
-369,000	28,281	-0,101	-0,062
-367,985	168,604	0,070	-0,073
-366,971	-13,259	-0,040	-0,019
-365,956	-15,061	-0,011	0,005
-364,942	47,070	0,052	0,035
-363,927	-80,079	0,124	0,030
-362,912	800,000	0,031	-0,086
-361,898	-17,826	-0,019	0,009
-360,883	-104,421	-0,178	-0,030
-359,869	98,840	0,011	0,009
-358,854	-112,360	0,131	-0,019
-357,839	65,995	0,043	-0,032
-356,825	146,347	-0,074	0,072
-355,810	-106,896	0,103	0,016
-354,796	-84,495	-0,126	-0,029
-353,781	-157,021	-0,073	-0,003
-352,766	0,033	0,055	-0,028
-351,752	1,411	0,032	-0,017
-350,737	800,000	0,035	0,107
-349,723	-200,000	-0,018	0,131
-348,708	233,619	0,133	0,159
-347,693	800,000	-0,018	0,046
-346,679	27,489	0,047	-0,029
-345,664	-19,245	0,064	-0,029
-344,650	129,106	0,103	-0,096
-343,635	37,823	0,068	0,044
-342,620	-95,606	-0,039	0,008
-341,606	162,529	0,151	0,154
-340,591	-69,234	-0,073	-0,020
-339,577	-76,658	-0,185	-0,047
-338,562	247,668	-0,078	0,096
-337,548	-139,693	-0,090	0,007
-336,533	800,000	0,024	0,049
-335,518	-200,000	0,031	0,142
-334,504	46,414	0,049	-0,033
-333,489	-200,000	0,001	0,043
-332,475	800,000	-0,023	0,048
-331,460	800,000	0,022	-0,053
-330,445	-200,000	-0,028	0,107
-329,431	483,344	0,021	-0,035
-328,416	-4,145	0,118	0,059
-327,402	148,256	0,009	0,009
-326,387	68,593	-0,048	-0,036
-325,372	-99,050	-0,061	-0,011
-324,358	-177,785	-0,118	-0,002
-323,343	-200,000	-0,000	-0,080
-322,329	-77,024	0,249	-0,063
-321,314	-149,524	0,133	0,008
-320,299	-132,728	0,043	0,004
-319,285	788,750	-0,055	-0,111
-318,270	800,000	0,022	0,054
-317,256	-200,000	-0,004	-0,153
-316,241	43,646	0,137	-0,090
-315,226	357,563	0,140	-0,203
-314,212	211,184	-0,063	0,072
-313,197	800,000	0,039	0,089
-312,183	800,000	0,037	0,089
-311,168	-200,000	-0,032	-0,191
-310,153	353,447	-0,045	0,064
-309,139	-17,075	0,100	-0,046
-308,124	51,957	0,023	-0,016
-307,110	800,000	-0,020	0,041
-306,095	261,348	-0,017	-0,022
-305,080	-115,022	0,055	0,008
-304,066	110,641	-0,077	-0,067
-303,051	173,509	-0,061	-0,064
-302,037	-200,000	-0,031	-0,161
-301,022	-108,482	0,127	0,020
-300,008	-200,000	0,033	-0,106
-298,993	-84,555	-0,061	-0,014
-297,978	79,181	0,109	-0,085
-296,964	48,712	0,105	0,072
-295,949	104,919	-0,102	0,087
-294,935	-200,000	-0,003	-0,032
-293,920	-76,430	-0,028	-0,007
-292,905	800,000	-0,020	-0,059
-291,891	800,000	0,047	0,133
-290,876	376,675	0,030	0,045
-289,862	-200,000	-0,001	-0,047
-288,847	-157,608	-0,046	-0,002
-287,832	48,719	0,025	0,017
-286,818	-127,263	0,042	0,004
-285,803	189,534	0,057	-0,062
-284,789	800,000	0,015	-0,039
-283,774	-141,159	0,181	0,013
-282,759	-13,121	-0,072	-0,034
-281,745	-200,000	0,017	-0,072
-280,730	322,762	-0,020	-0,028
-279,716	-200,000	0,009	-0,120
-278,701	192,726	-0,121	-0,132
-277,686	-40,555	0,114	0,043
-276,672	-43,124	0,120	0,044
-275,657	-69,861	-0,084	-0,023
-274,643	499,875	0,026	0,044
-273,628	502,398	-0,093	-0,156
-272,613	601,083	0,033	0,060
-271,599	235,176	0,096	0,114
-270,584	-200,000	0,009	0,128
-269,570	800,000	0,023	-0,049
-268,555	0,260	-0,065	-0,033
-267,540	-200,000	-0,016	-0,064
-266,526	-109,483	-0,102	-0,015
-265,511	40,706	0,049	-0,032
-264,497	422,968	0,045	-0,070
-263,482	14,681	0,072	-0,040
-262,467	-105,117	0,027	0,005
-261,453	-97,915	-0,127	0,023
-260,438	181,600	0,062	0,066
-259,424	-200,000	0,027	0,149
-258,409	-38,934	-0,036	0,014
-257,395	21,474	0,121	-0,071
-256,380	3,771	0,066	0,035
-255,365	333,241	0,055	0,077
-254,351	-4,747	-0,136	0,068
-253,336	-138,594	0,070	-0,005
-252,322	-21,417	-0,126	-0,056
-251,307	128,685	0,054	0,050
-250,292	-47,780	-0,085	0,030
-249,278	114,133	0,033	0,029
-248,263	-200,000	0,002	0,127
-247,249	64,328	0,009	-0,006
-246,234	-113,699	0,052	-0,007
-245,219	-155,264	-0,137	-0,006
-244,205	-149,905	-0,008	-0,000
-243,190	59,368	-0,053	-0,038
-242,176	579,887	0,031	0,055
-241,161	-200,000	0,011	0,088
-240,146	98,846	-0,054	0,045
-239,132	453,555	-0,038	-0,061
-238,117	-200,000	-0,008	-0,062
-237,103	55,187	-0,105	-0,073
-236,088	411,079	-0,061	-0,094
-235,073	76,233	0,074	0,057
-234,059	-200,000	0,011	-0,066
-233,044	-200,000	-0,026	0,123
-232,030	132,979	-0,103	0,096
-231,015	40,020	-0,111	-0,072
-230,000	-200,000	-0,005	-0,137
-228,986	169,040	-0,017	-0,017
-227,971	-67,248	0,072	-0,020
-226,957	-200,000	-0,001	0,160
-225,942	360,661	-0,083	0,120
-224,927	-120,811	-0,073	0,009
-223,913	-200,000	-0,006	0,055
-222,898	206,660	-0,098	0,110
-221,884	-82,019	0,124	-0,029
-220,869	-200,000	-0,008	0,048
-219,855	800,000	0,018	0,042
-218,840	-105,915	0,142	0,023
-217,825	488,920	-0,039	0,065
-216,811	800,000	0,060	-0,131
-215,796	437,011	-0,027	0,043
-214,782	800,000	-0,020	0,045
-213,767	-3,141	-0,065	0,033
-212,752	800,000	0,054	0,134
-211,738	-200,000	0,020	0,133
-210,723	618,840	0,027	-0,050
-209,709	-200,000	-0,006	-0,103
-208,694	800,000	-0,019	-0,044
-207,679	-180,833	0,035	0,001
-206,665	-46,248	0,102	-0,036
-205,650	630,852	0,033	0,061
-204,636	383,491	0,094	0,140
-203,621	45,709	0,110	0,073
-202,606	-200,000	-0,007	-0,215
-201,592	-172,005	-0,017	0,000
-200,577	800,000	-0,043	-0,092
-199,563	-200,000	-0,015	-0,123
-198,548	800,000	-0,050	-0,108
-197,533	800,000	0,026	0,058
-196,519	800,000	-0,021	-0,060
-195,504	-200,000	0,008	0,072
-194,490	-86,958	-0,148	0,032
-193,475	-75,060	-0,084	0,021
-192,460	-29,980	0,042	-0,017
-191,446	386,395	0,032	0,048
-190,431	-117,887	0,070	-0,009
-189,417	183,644	0,052	0,056
-188,402	-200,000	-0,042	-0,142
-187,387	-42,427	-0,053	-0,019
-186,373	-133,744	-0,036	-0,003
-185,358	-53,509	-0,069	0,023
-184,344	800,000	0,051	0,153
-183,329	-54,181	0,046	0,015
-182,315	-200,000	-0,019	0,116
-181,300	-87,662	-0,171	-0,037
-180,285	-200,000	-0,003	0,072
-179,271	-200,000	-0,011	-0,061
-178,256	81,456	-0,037	0,029
-177,242	90,027	0,121	0,097
-176,227	-200,000	-0,023	0,074
-175,212	-107,549	0,041	0,006
-174,198	-92,415	-0,051	-0,010
-173,183	-64,244	-0,164	-0,048
-172,169	-19,534	0,052	-0,023
-171,154	115,956	-0,080	-0,070
-170,139	-104,862	-0,115	0,019
-169,125	-72,192	0,053	-0,014
-168,110	800,000	0,017	0,038
-167,096	-104,508	-0,051	-0,008
-166,081	-107,359	0,091	-0,014
-165,066	-61,420	-0,129	-0,039
-164,052	800,000	-0,043	0,092
-163,037	-86,490	0,110	0,024
-162,023	86,546	0,193	0,153
-161,008	-200,000	0,008	0,027
-159,993	800,000	0,025	0,055
-158,979	-200,000	-0,034	-0,109
-157,964	48,018	-0,032	0,022
-156,950	235,913	0,024	-0,029
-155,935	114,230	0,046	0,040
-154,920	-200,000	0,035	0,155
-153,906	26,378	-0,130	0,078
-152,891	344,586	0,056	0,079
-151,877	455,189	-0,023	-0,036
-150,862	-10,794	-0,124	-0,059
-149,847	-168,022	-0,064	0,002
-148,833	374,157	-0,039	0,058
-147,818	-200,000	-0,004	0,150
-146,804	-76,274	0,103	-0,026
-145,789	-200,000	-0,041	0,153
-144,775	252,763	0,046	-0,057
-143,760	476,730	-0,046	-0,075
-142,745	800,000	-0,033	0,073
-141,731	-200,000	0,004	0,045
-140,716	-200,000	0,002	0,012
-139,702	-200,000	0,012	-0,049
-138,687	-200,000	-0,004	0,096
-137,672	-112,621	0,152	0,022
-136,658	-84,277	-0,087	-0,020
-135,643	3,080	0,037	0,020
-134,629	-200,000	0,018	0,127
-133,614	800,000	0,064	-0,133
-132,599	258,875	0,030	0,037
-131,585	-3,819	-0,068	0,034
-130,570	-200,000	-0,017	-0,072
-129,556	800,000	0,015	-0,035
-128,541	-126,057	0,154	-0,016
-127,526	0,056	0,062	0,032
-126,512	-200,000	0,027	0,170
-125,497	800,000	0,011	0,031
-124,483	-99,010	-0,070	0,013
-123,468	13,928	0,012	0,007
-122,453	353,701	0,087	-0,124
-121,439	195,762	0,015	-0,016
-120,424	-67,670	0,116	0,033
-119,410	260,029	0,090	0,113
