DTS Sentinel unit serial number:	SN410029Multiplexer serial number:	ORYXHardware model number:	OX2-SRSoftware version number:	ORYX F/W v4,00 Oryx Data Collector v3.7.2.0data status	okinstallation	B5 Nyhavnadifferential loss correction	single-endedforward channel	channel 2reverse channel	N/Adate	2023/12/13time	09:27:14forward acquisition time	300,00reverse acquisition time	0,00gamma	499,1914k internal	0,3160k external	0,3160temperature offset calibration	1,0000default loss term (dB/km)	0,3820temperature slope calibration	1,0000multiplexer offset coefficient	1,0000multiplexer slope coefficient	1,0000fibre end	0,00T internal ref (°C)	13,65T ext. ref 1 (°C)	-2,75T ext. ref 2 (°C)	-3,05length (m)	temperature (°C)	Stokes	anti-Stokes-744,400	-200,000	0,044	-0,226
-743,385	-135,608	-0,328	0,028
-742,371	-200,000	0,013	0,097
-741,356	-84,385	-0,392	-0,090
-740,342	-91,030	0,116	-0,024
-739,327	-136,137	-0,263	-0,022
-738,312	319,336	0,095	0,133
-737,298	-107,661	-0,311	0,049
-736,283	121,531	-0,025	-0,023
-735,269	-18,554	-0,300	0,137
-734,254	-121,046	0,077	-0,009
-733,239	-104,590	-0,450	-0,076
-732,225	-18,968	0,119	0,054
-731,210	702,273	0,034	-0,066
-730,196	-142,307	-0,111	-0,008
-729,181	358,986	-0,080	0,118
-728,167	197,517	-0,028	-0,032
-727,152	-113,241	0,123	-0,018
-726,137	-52,681	-0,078	-0,026
-725,123	136,986	0,088	-0,084
-724,108	-200,000	-0,036	-0,157
-723,094	713,776	-0,060	-0,117
-722,079	-200,000	-0,004	-0,140
-721,064	-66,317	-0,104	0,030
-720,050	-200,000	-0,026	0,112
-719,035	-200,000	-0,018	-0,096
-718,021	-200,000	0,010	0,113
-717,006	37,787	-0,089	0,058
-715,991	-57,147	-0,145	0,047
-714,977	-59,547	0,079	0,025
-713,962	800,000	0,091	-0,210
-712,948	480,326	0,055	-0,092
-711,933	-106,883	-0,060	-0,010
-710,918	-26,815	0,013	-0,006
-709,904	-18,137	0,031	0,014
-708,889	800,000	0,021	-0,050
-707,875	-200,000	-0,013	-0,098
-706,860	716,250	-0,056	-0,110
-705,845	147,966	0,073	-0,073
-704,831	18,199	0,079	-0,046
-703,816	-154,623	-0,139	0,007
-702,802	-21,214	-0,168	-0,075
-701,787	-86,362	-0,142	-0,032
-700,772	-62,814	0,032	-0,010
-699,758	-200,000	-0,005	0,058
-698,743	-200,000	-0,022	-0,075
-697,729	-200,000	-0,046	0,181
-696,714	293,896	0,012	0,016
-695,699	148,012	-0,060	-0,059
-694,685	-200,000	0,034	-0,124
-693,670	-69,002	0,110	-0,031
-692,656	184,275	-0,094	-0,102
-691,641	-200,000	0,002	0,070
-690,627	141,005	0,076	0,074
-689,612	355,072	-0,059	-0,086
-688,597	-78,820	-0,055	0,014
-687,583	84,807	0,010	-0,008
-686,568	-76,675	-0,119	0,030
-685,554	-94,334	-0,098	-0,019
-684,539	55,553	0,154	-0,110
-683,524	-200,000	0,002	-0,096
-682,510	-50,164	0,039	0,013
-681,495	-97,342	-0,106	-0,020
-680,481	-116,873	-0,098	0,013
-679,466	97,251	0,111	-0,093
-678,451	-200,000	-0,015	-0,107
-677,437	85,245	-0,110	0,089
-676,422	647,382	0,074	0,140
-675,408	-92,072	-0,137	0,028
-674,393	-30,023	-0,143	-0,059
-673,378	800,000	-0,066	-0,150
-672,364	166,066	-0,125	-0,130
-671,349	-200,000	0,037	-0,130
-670,335	123,877	-0,121	-0,111
-669,320	-113,648	0,129	0,018
-668,305	-61,612	-0,145	-0,044
-667,291	181,260	-0,093	-0,100
-666,276	-200,000	-0,011	0,041
-665,262	123,549	-0,131	-0,121
-664,247	319,072	0,038	0,052
-663,232	-200,000	-0,012	-0,047
-662,218	272,962	-0,038	-0,049
-661,203	617,223	0,040	0,073
-660,189	-200,000	0,001	0,090
-659,174	800,000	-0,049	-0,120
-658,159	-200,000	-0,010	-0,039
-657,145	800,000	-0,016	-0,048
-656,130	-200,000	0,036	-0,175
-655,116	167,974	-0,088	0,092
-654,101	-200,000	0,008	0,115
-653,086	227,189	-0,038	0,046
-652,072	-99,144	0,095	-0,017
-651,057	-200,000	-0,005	-0,079
-650,043	-79,823	-0,167	-0,041
-649,028	223,191	-0,068	0,080
-648,014	409,509	0,033	0,052
-646,999	303,855	-0,069	0,095
-645,984	-12,410	0,016	-0,007
-644,970	427,535	0,039	-0,062
-643,955	-200,000	-0,000	0,013
-642,941	72,758	-0,037	0,028
-641,926	174,326	-0,079	-0,084
-640,911	800,000	-0,084	-0,237
-639,897	210,343	-0,052	-0,059
-638,882	800,000	-0,007	-0,016
-637,868	69,326	0,089	-0,067
-636,853	16,099	0,029	0,017
-635,838	95,102	0,008	-0,007
-634,824	800,000	-0,008	-0,024
-633,809	100,532	-0,035	0,029
-632,795	-200,000	-0,014	-0,109
-631,780	-65,896	-0,060	-0,018
-630,765	348,924	0,075	0,109
-629,751	-200,000	0,028	0,098
-628,736	800,000	-0,028	-0,086
-627,722	293,503	-0,007	0,010
-626,707	217,737	0,018	-0,021
-625,692	-115,678	-0,105	-0,014
-624,678	56,026	-0,065	0,046
-623,663	-200,000	-0,008	0,141
-622,649	-136,101	-0,127	0,011
-621,634	-200,000	-0,138	0,000
-620,619	-24,746	0,040	-0,017
-619,605	-97,765	-0,123	0,023
-618,590	128,422	-0,071	-0,066
-617,576	-96,056	0,128	-0,025
-616,561	-200,000	-0,003	-0,138
-615,546	-117,019	-0,147	0,019
-614,532	24,695	-0,193	-0,117
-613,517	-67,238	-0,107	0,031
-612,503	-132,280	0,081	0,008
-611,488	53,545	0,040	-0,028
-610,474	800,000	-0,008	-0,023
-609,459	-200,000	-0,008	-0,052
-608,444	-200,000	0,027	-0,190
-607,430	-42,550	-0,100	0,037
-606,415	800,000	-0,030	-0,085
-605,401	-6,075	-0,094	-0,047
-604,386	800,000	0,024	0,052
-603,371	800,000	-0,075	0,160
-602,357	293,861	-0,173	-0,232
-601,342	800,000	0,044	-0,109
-600,328	-200,000	-0,014	-0,115
-599,313	-200,000	0,011	-0,093
-598,298	88,653	0,049	0,040
-597,284	-10,973	-0,079	0,038
-596,269	457,382	-0,083	0,136
-595,255	-200,000	-0,012	0,125
-594,240	199,429	-0,054	0,060
-593,225	-103,464	-0,088	-0,015
-592,211	365,364	-0,063	-0,093
-591,196	10,843	-0,096	0,054
-590,182	-200,000	-0,006	0,095
-589,167	-22,470	0,109	0,048
-588,152	364,044	0,044	-0,065
-587,138	-200,000	-0,018	0,136
-586,123	800,000	-0,037	-0,077
-585,109	-70,683	0,205	0,056
-584,094	16,297	-0,064	0,037
-583,079	-42,149	0,096	-0,036
-582,065	227,848	-0,031	0,037
-581,050	-200,000	0,009	0,032
-580,036	800,000	-0,050	0,108
-579,021	676,301	0,019	-0,037
-578,006	-200,000	0,006	-0,020
-576,992	177,611	0,031	-0,033
-575,977	414,974	-0,040	-0,062
-574,963	-53,839	-0,131	0,043
-573,948	485,994	0,032	0,054
-572,934	-186,387	0,063	-0,001
-571,919	-200,000	0,006	-0,045
-570,904	-200,000	0,011	-0,080
-569,890	-124,550	0,096	-0,011
-568,875	800,000	0,038	0,083
-567,861	225,694	-0,060	0,072
-566,846	424,812	-0,064	0,102
-565,831	82,953	0,080	-0,063
-564,817	365,839	-0,045	-0,067
-563,802	54,073	-0,137	0,096
-562,788	-45,960	-0,089	0,032
-561,773	800,000	0,058	0,179
-560,758	800,000	-0,021	-0,047
-559,744	-131,133	-0,021	-0,002
-558,729	3,682	-0,103	0,055
-557,715	787,861	0,026	-0,052
-556,700	767,873	-0,016	-0,031
-555,685	-67,599	0,018	-0,005
-554,671	30,399	0,067	-0,042
-553,656	9,001	0,035	0,019
-552,642	-108,272	0,165	-0,026
-551,627	254,383	0,130	0,163
-550,612	-105,745	-0,129	-0,021
-549,598	-94,059	0,083	0,017
-548,583	800,000	0,017	-0,048
-547,569	800,000	0,026	0,074
-546,554	-165,065	0,098	0,003
-545,539	-200,000	-0,007	0,180
-544,525	800,000	0,015	0,040
-543,510	-110,243	-0,022	0,003
-542,496	44,589	0,125	0,084
-541,481	-200,000	-0,005	0,056
-540,466	204,419	0,035	-0,040
-539,452	800,000	-0,042	0,096
-538,437	-0,433	0,008	-0,004
-537,423	8,962	0,132	-0,073
-536,408	-29,822	0,114	0,047
-535,393	-11,477	-0,125	0,060
-534,379	-200,000	-0,032	-0,132
-533,364	-29,820	0,111	-0,046
-532,350	73,373	0,139	-0,106
-531,335	64,214	0,116	-0,085
-530,321	218,782	0,053	0,062
-529,306	-17,732	-0,115	0,053
-528,291	162,892	0,014	-0,015
-527,277	319,275	-0,053	-0,073
-526,262	308,268	-0,116	0,158
-525,248	51,895	0,076	0,053
-524,233	-150,418	0,063	-0,003
-523,218	28,045	0,077	0,047
-522,204	75,176	0,041	0,032
-521,189	-80,381	0,041	-0,010
-520,175	155,990	-0,049	0,049
-519,160	91,525	-0,019	-0,016
-518,145	623,295	0,048	0,089
-517,131	-97,888	0,108	0,020
-516,116	-200,000	0,040	0,000
-515,102	114,041	-0,102	0,091
-514,087	59,179	-0,066	0,047
-513,072	488,102	0,048	0,080
-512,058	333,959	0,079	-0,112
-511,043	-26,714	0,074	-0,031
-510,029	-200,000	0,006	0,107
-509,014	800,000	-0,063	0,130
-507,999	-113,636	-0,145	-0,020
-506,985	-45,758	0,092	-0,033
-505,970	-200,000	-0,019	-0,093
-504,956	171,679	-0,077	0,080
-503,941	-46,292	0,074	0,026
-502,926	55,381	0,147	0,104
-501,912	-30,640	-0,135	0,056
-500,897	-98,146	0,114	0,021
-499,883	94,513	-0,019	-0,016
-498,868	-200,000	0,018	0,096
-497,853	262,546	0,069	-0,087
-496,839	800,000	-0,053	0,114
-495,824	-26,414	0,146	-0,062
-494,810	800,000	0,018	0,050
-493,795	-200,000	-0,039	0,147
-492,781	-200,000	-0,114	0,000
-491,766	312,002	-0,156	-0,214
-490,751	-200,000	0,001	0,068
-489,737	800,000	0,022	0,048
-488,722	-200,000	-0,002	-0,049
-487,708	-200,000	-0,022	0,110
-486,693	109,539	-0,082	-0,072
-485,678	-200,000	-0,010	0,042
-484,664	-133,641	-0,048	-0,004
-483,649	-47,447	0,055	-0,019
-482,635	-200,000	-0,001	0,047
-481,620	-200,000	-0,028	-0,129
-480,605	48,956	0,150	0,103
-479,591	-127,873	0,014	-0,001
-478,576	-200,000	-0,013	-0,050
-477,562	-33,401	-0,063	-0,025
-476,547	-96,814	-0,105	-0,020
-475,532	36,615	0,079	-0,051
-474,518	-200,000	-0,012	0,043
-473,503	-44,581	0,070	-0,025
-472,489	800,000	-0,095	0,224
-471,474	193,939	-0,106	0,117
-470,459	-200,000	0,018	-0,061
-469,445	-25,095	0,045	-0,019
-468,430	-100,850	-0,178	-0,032
-467,416	-110,041	0,117	-0,018
-466,401	-34,280	0,050	0,020
-465,386	800,000	0,014	0,037
-464,372	-200,000	0,003	-0,067
-463,357	-77,628	-0,209	0,052
-462,343	4,997	-0,028	-0,015
-461,328	-200,000	-0,001	-0,066
-460,313	-200,000	0,019	0,077
-459,299	-59,624	0,126	0,039
-458,284	376,794	-0,065	0,098
-457,270	800,000	-0,025	-0,067
-456,255	-200,000	-0,023	-0,078
-455,241	800,000	0,032	0,092
-454,226	-200,000	0,031	-0,101
-453,211	37,772	0,058	-0,038
-452,197	-171,890	0,120	-0,003
-451,182	800,000	-0,035	-0,084
-450,168	-65,427	0,178	0,052
-449,153	54,255	-0,041	-0,029
-448,138	323,021	0,105	-0,147
-447,124	444,472	-0,066	0,106
-446,109	60,241	-0,066	0,048
-445,095	-63,305	0,115	0,034
-444,080	513,919	0,010	0,017
-443,065	71,540	0,077	-0,059
-442,051	-111,393	0,052	0,008
-441,036	-200,000	-0,014	-0,128
-440,022	-32,072	-0,078	-0,032
-439,007	-200,000	-0,004	-0,056
-437,992	70,618	0,092	-0,069
-436,978	714,851	0,035	0,069
-435,963	65,012	0,054	0,040
-434,949	-200,000	0,001	0,052
-433,934	800,000	-0,020	0,056
-432,919	64,202	-0,087	-0,063
-431,905	727,716	0,039	0,077
-430,890	-60,250	0,069	-0,021
-429,876	121,262	0,032	0,029
-428,861	276,168	-0,063	0,082
-427,846	-200,000	0,039	-0,145
-426,832	-200,000	0,019	0,109
-425,817	-63,671	0,062	-0,018
-424,803	800,000	-0,085	-0,246
-423,788	-163,794	0,261	-0,009
-422,773	-27,582	-0,094	0,039
-421,759	218,040	0,110	0,128
-420,744	-169,606	0,029	0,001
-419,730	129,727	-0,024	-0,022
-418,715	-25,910	0,061	0,026
-417,701	-108,039	-0,049	-0,008
-416,686	800,000	-0,058	0,120
-415,671	-200,000	-0,010	0,066
-414,657	-200,000	0,005	-0,124
-413,642	562,569	-0,046	-0,081
-412,628	37,186	0,117	0,075
-411,613	105,104	-0,084	0,072
-410,598	-89,549	-0,087	0,018
-409,584	1,099	-0,109	-0,057
-408,569	1,907	0,192	0,101
-407,555	123,911	0,066	-0,060
-406,540	800,000	0,075	-0,151
-405,525	-161,600	-0,139	0,005
-404,511	800,000	0,041	-0,127
-403,496	23,935	0,044	-0,026
-402,482	15,839	-0,022	0,012
-401,467	-180,697	-0,081	-0,001
-400,452	800,000	-0,019	-0,039
-399,438	225,108	0,024	-0,028
-398,423	-200,000	-0,007	-0,076
-397,409	157,987	-0,076	-0,077
-396,394	444,408	-0,024	0,038
-395,379	800,000	-0,030	0,070
-394,365	800,000	0,010	-0,020
-393,350	-200,000	-0,005	0,022
-392,336	110,828	0,068	-0,060
-391,321	-150,921	-0,106	0,006
-390,306	-45,619	0,088	-0,032
-389,292	164,128	0,106	-0,109
-388,277	-200,000	0,003	0,040
-387,263	225,506	-0,060	0,070
-386,248	-0,276	0,107	0,055
-385,233	-200,000	0,051	0,179
-384,219	-15,839	-0,113	-0,052
-383,204	-170,918	0,094	0,002
-382,190	800,000	-0,046	0,099
-381,175	-200,000	-0,011	0,099
-380,160	31,797	-0,130	0,081
-379,146	101,196	-0,074	0,063
-378,131	481,441	0,040	-0,067
-377,117	271,943	0,053	-0,068
-376,102	-200,000	-0,002	-0,079
-375,088	224,181	-0,041	0,048
-374,073	506,388	-0,027	-0,045
-373,058	-200,000	0,020	0,097
-372,044	84,917	0,017	0,014
-371,029	-77,628	-0,081	-0,020
-370,015	800,000	-0,067	0,163
-369,000	-135,616	-0,112	-0,009
-367,985	-78,952	0,098	-0,024
-366,971	302,665	0,009	-0,012
-365,956	800,000	0,037	0,090
-364,942	-101,929	0,069	-0,012
-363,927	-30,629	-0,125	0,051
-362,912	205,177	-0,023	-0,026
-361,898	-91,791	0,052	0,011
-360,883	-70,809	0,026	-0,007
-359,869	283,944	0,071	-0,092
-358,854	-108,668	0,096	-0,015
-357,839	-156,782	-0,047	-0,002
-356,825	-200,000	0,005	0,021
-355,810	80,745	-0,069	0,054
-354,796	-200,000	-0,020	-0,155
-353,781	119,421	0,081	-0,073
-352,766	133,047	0,062	-0,058
-351,752	800,000	-0,036	-0,076
-350,737	24,333	-0,084	0,050
-349,723	-85,615	0,052	0,012
-348,708	-25,012	-0,088	-0,038
-347,693	-200,000	0,013	0,048
-346,679	-56,433	0,154	-0,049
-345,664	-200,000	-0,002	-0,112
-344,650	292,464	0,072	-0,095
-343,635	270,254	-0,034	-0,043
-342,620	-200,000	0,018	0,062
-341,606	-200,000	0,003	-0,079
-340,591	139,951	-0,045	0,043
-339,577	-200,000	0,008	-0,102
-338,562	313,062	-0,067	0,092
-337,548	219,787	-0,078	-0,090
-336,533	143,102	0,027	0,026
-335,518	-18,878	0,162	-0,073
-334,504	-121,087	-0,107	-0,013
-333,489	216,025	0,077	-0,089
-332,475	26,306	-0,060	-0,036
-331,460	-79,773	-0,064	-0,016
-330,445	-200,000	0,034	-0,141
-329,431	-68,624	0,053	0,015
-328,416	20,326	-0,135	0,079
-327,402	207,955	0,042	0,048
-326,387	800,000	0,033	-0,090
-325,372	800,000	-0,043	-0,111
-324,358	-135,305	-0,037	-0,003
-323,343	20,788	0,056	-0,033
-322,329	145,316	0,029	0,028
-321,314	-106,917	-0,075	-0,012
-320,299	104,193	0,028	0,024
-319,285	-164,926	0,163	0,005
-318,270	-200,000	0,012	0,041
-317,256	-14,114	0,097	-0,045
-316,241	274,990	0,039	-0,050
-315,226	-138,032	0,190	0,015
-314,212	-200,000	0,004	-0,015
-313,197	-200,000	-0,006	0,084
-312,183	-196,868	0,119	0,001
-311,168	113,258	0,171	-0,151
-310,153	3,771	-0,057	-0,030
-309,139	322,817	-0,065	-0,089
-308,124	-200,000	-0,007	-0,105
-307,110	-101,611	0,071	-0,012
-306,095	-165,096	-0,089	-0,003
-305,080	-200,000	0,002	0,147
-304,066	97,386	-0,069	-0,057
-303,051	-30,997	-0,100	0,040
-302,037	55,202	0,087	0,061
-301,022	-200,000	-0,009	-0,055
-300,008	800,000	0,043	-0,092
-298,993	131,053	-0,018	0,017
-297,978	-97,955	-0,026	0,005
-296,964	405,910	0,051	-0,078
-295,949	210,480	-0,094	-0,107
-294,935	-35,819	-0,149	0,058
-293,920	-136,152	0,134	0,011
-292,905	800,000	-0,076	-0,194
-291,891	-50,548	-0,042	0,014
-290,876	-129,031	-0,069	-0,007
-289,862	-66,519	0,055	0,016
-288,847	-8,238	-0,117	-0,057
-287,832	73,591	-0,045	-0,034
-286,818	-12,644	0,044	-0,021
-285,803	15,398	-0,124	0,070
-284,789	-2,769	-0,031	0,016
-283,774	-120,495	0,133	0,016
-282,759	-95,782	0,037	-0,007
-281,745	800,000	-0,043	-0,134
-280,730	246,547	-0,116	-0,141
-279,716	653,481	0,070	0,131
-278,701	-200,000	0,024	0,154
-277,686	103,851	0,065	0,055
-276,672	-145,233	0,141	0,009
-275,657	-200,000	0,015	0,083
-274,643	800,000	-0,022	0,057
-273,628	42,892	-0,059	0,039
-272,613	-13,288	-0,101	0,047
-271,599	-124,954	0,101	-0,011
-270,584	-34,905	-0,098	-0,038
-269,570	-200,000	0,006	-0,070
-268,555	-36,414	-0,053	-0,020
-267,540	17,448	0,039	0,022
-266,526	-94,669	0,018	0,004
-265,511	800,000	-0,032	0,070
-264,497	14,389	-0,113	-0,064
-263,482	-33,487	0,134	0,053
-262,467	-61,284	0,133	0,040
-261,453	-200,000	0,008	0,040
-260,438	76,172	0,058	0,045
-259,424	-75,845	0,066	0,017
-258,409	-133,891	-0,119	-0,011
-257,395	-112,544	0,154	0,022
-256,380	800,000	-0,042	0,090
-255,365	800,000	0,023	0,070
-254,351	-25,054	-0,080	-0,034
-253,336	-200,000	-0,020	-0,079
-252,322	-200,000	-0,001	0,007
-251,307	800,000	-0,062	-0,189
-250,292	800,000	-0,006	0,015
-249,278	524,594	0,026	0,044
-248,263	119,279	0,074	0,066
-247,249	-200,000	-0,019	-0,120
-246,234	-127,008	-0,100	-0,010
-245,219	800,000	0,003	-0,007
-244,205	-200,000	-0,014	0,070
-243,190	-87,390	0,048	-0,010
-242,176	36,969	0,075	0,048
-241,161	51,666	-0,089	0,061
-240,146	228,371	0,038	0,045
-239,132	-74,144	-0,090	0,023
-238,117	379,703	-0,104	-0,155
-237,103	258,976	-0,063	0,079
-236,088	198,534	-0,056	-0,062
-235,073	-200,000	0,024	0,096
-234,059	-200,000	-0,021	0,143
-233,044	-114,999	0,060	0,008
-232,030	273,863	-0,033	-0,043
-231,015	800,000	-0,023	0,063
-230,000	-80,985	0,131	-0,031
-228,986	-56,827	-0,170	0,054
-227,971	-200,000	-0,007	0,065
-226,957	800,000	-0,049	0,138
-225,942	-200,000	-0,001	0,041
-224,927	21,028	-0,123	0,072
-223,913	800,000	0,036	-0,078
-222,898	-200,000	-0,005	-0,121
-221,884	-23,124	-0,103	-0,044
-220,869	-200,000	0,017	0,122
-219,855	-200,000	0,029	-0,099
-218,840	-200,000	-0,003	-0,030
-217,825	-134,774	-0,054	-0,005
-216,811	79,640	0,051	0,040
-215,796	-91,510	0,046	0,009
-214,782	18,773	0,076	0,044
-213,767	-69,304	0,115	-0,032
-212,752	50,856	-0,214	-0,146
-211,738	800,000	0,039	0,125
-210,723	-200,000	-0,023	0,104
-209,709	723,011	-0,071	-0,137
-208,694	-133,037	-0,060	0,005
-207,679	207,657	-0,051	0,058
-206,665	59,256	0,064	0,046
-205,650	-200,000	0,015	0,047
-204,636	-16,529	0,081	0,037
-203,621	236,997	-0,033	-0,039
-202,606	-200,000	-0,022	-0,172
-201,592	235,572	-0,060	0,071
-200,577	156,112	0,043	0,043
-199,563	800,000	-0,085	0,207
-198,548	113,086	-0,031	-0,027
-197,533	-45,380	-0,044	-0,016
-196,519	60,389	-0,011	-0,008
-195,504	108,275	0,094	0,081
-194,490	-20,673	0,020	-0,009
-193,475	169,754	-0,046	-0,048
-192,460	608,687	0,028	-0,052
-191,446	800,000	0,011	0,030
-190,431	39,771	0,027	-0,018
-189,417	-140,291	-0,097	-0,007
-188,402	209,891	0,025	0,028
-187,387	-78,492	0,126	0,031
-186,373	452,580	-0,048	-0,077
-185,358	-120,780	-0,086	0,010
-184,344	58,832	0,041	-0,029
-183,329	507,650	0,008	0,013
-182,315	57,750	0,093	-0,065
-181,300	4,292	0,112	-0,059
-180,285	-200,000	0,012	-0,080
-179,271	800,000	0,045	0,094
-178,256	-200,000	0,024	-0,101
-177,242	800,000	-0,017	0,046
-176,227	-19,644	0,127	-0,057
-175,212	-59,299	0,068	0,021
-174,198	559,356	-0,084	0,147
-173,183	247,297	0,083	-0,101
-172,169	800,000	-0,097	-0,245
-171,154	110,132	0,057	0,049
-170,139	480,942	-0,054	-0,088
-169,125	800,000	0,035	0,088
-168,110	800,000	0,022	0,065
-167,096	-38,743	-0,062	0,024
-166,081	729,559	0,038	-0,074
-165,066	457,757	-0,053	0,085
-164,052	-200,000	0,011	0,038
-163,037	773,371	0,028	-0,056
-162,023	413,956	0,036	-0,056
-161,008	800,000	0,018	-0,052
-159,993	-34,529	0,030	0,012
-158,979	97,578	-0,034	0,028
-157,964	-200,000	-0,020	-0,174
-156,950	800,000	-0,035	0,082
-155,935	-138,673	0,072	-0,006
-154,920	-71,719	0,101	0,027
-153,906	-200,000	-0,014	-0,097
-152,891	-200,000	0,003	0,016
-151,877	-24,401	0,105	-0,045
-150,862	-54,189	-0,117	-0,038
-149,847	185,633	-0,007	-0,008
-148,833	-200,000	0,020	0,080
-147,818	24,345	0,101	0,060
-146,804	800,000	-0,013	0,031
-145,789	-24,426	0,043	0,018
-144,775	68,639	-0,095	-0,070
-143,760	33,892	-0,140	-0,088
-142,745	614,373	-0,041	-0,074
-141,731	753,915	-0,067	-0,130
-140,716	-144,207	0,109	-0,007
-139,702	12,379	0,047	-0,026
-138,687	-36,794	0,110	-0,042
-137,672	-87,214	0,038	0,008
-136,658	790,089	-0,017	-0,033
-135,643	39,387	0,062	0,040
-134,629	-55,174	0,081	0,026
-133,614	-200,000	0,013	0,061
-132,599	616,387	0,077	-0,139
-131,585	17,478	-0,069	0,039
-130,570	121,087	0,191	-0,171
-129,556	32,893	-0,035	-0,022
-128,541	141,821	0,045	-0,043
-127,526	262,093	-0,057	-0,072
-126,512	-200,000	0,005	0,133
-125,497	-8,975	0,096	0,046
-124,483	20,840	-0,093	-0,054
-123,468	223,496	-0,017	-0,019
-122,453	-200,000	0,006	-0,030
-121,439	-147,463	0,020	-0,001
-120,424	-111,289	0,142	-0,021
-119,410	-5,466	0,143	0,070
