DTS Sentinel unit serial number:	SN410029Multiplexer serial number:	ORYXHardware model number:	OX2-SRSoftware version number:	ORYX F/W v4,00 Oryx Data Collector v3.7.2.0data status	okinstallation	B5 Nyhavnadifferential loss correction	single-endedforward channel	channel 2reverse channel	N/Adate	2023/12/14time	19:27:13forward acquisition time	300,00reverse acquisition time	0,00gamma	499,1914k internal	0,3156k external	0,3156temperature offset calibration	1,0000default loss term (dB/km)	0,3820temperature slope calibration	1,0000multiplexer offset coefficient	1,0000multiplexer slope coefficient	1,0000fibre end	0,00T internal ref (°C)	8,91T ext. ref 1 (°C)	-5,74T ext. ref 2 (°C)	-5,79length (m)	temperature (°C)	Stokes	anti-Stokes-744,400	76,080	0,084	0,065
-743,385	-55,340	-0,368	-0,121
-742,371	157,456	0,122	0,124
-741,356	-200,000	-0,247	0,000
-740,342	125,833	0,177	0,165
-739,327	-67,224	-0,298	-0,086
-738,312	-156,132	0,341	0,016
-737,298	37,368	-0,223	-0,145
-736,283	303,865	0,097	0,134
-735,269	-88,754	-0,376	-0,082
-734,254	-66,749	0,142	0,041
-733,239	-9,886	-0,474	-0,232
-732,225	49,211	0,285	0,197
-731,210	15,186	0,055	-0,032
-730,196	28,489	0,108	-0,067
-729,181	-200,000	0,023	0,112
-728,167	330,954	0,026	-0,036
-727,152	800,000	-0,013	-0,041
-726,137	57,814	-0,068	-0,049
-725,123	126,207	-0,086	-0,081
-724,108	-200,000	-0,010	0,044
-723,094	800,000	-0,065	-0,161
-722,079	159,293	-0,094	-0,097
-721,064	800,000	-0,031	-0,071
-720,050	-200,000	0,009	0,063
-719,035	-87,145	-0,153	0,034
-718,021	211,554	-0,089	-0,104
-717,006	-191,937	0,049	0,000
-715,991	-50,604	0,049	0,017
-714,977	-200,000	0,017	-0,099
-713,962	57,726	0,041	-0,030
-712,948	-14,793	-0,167	-0,079
-711,933	708,871	0,018	-0,036
-710,918	486,688	-0,063	-0,106
-709,904	82,155	0,022	0,017
-708,889	130,254	-0,056	-0,052
-707,875	21,112	-0,082	-0,049
-706,860	-200,000	0,032	0,143
-705,845	-200,000	-0,002	0,067
-704,831	-200,000	-0,009	0,071
-703,816	-200,000	-0,034	0,123
-702,802	-200,000	0,011	-0,137
-701,787	-164,629	-0,052	-0,002
-700,772	-51,616	-0,138	0,047
-699,758	-0,135	0,080	-0,042
-698,743	-46,596	0,108	0,039
-697,729	-200,000	-0,012	-0,075
-696,714	800,000	0,020	-0,055
-695,699	47,358	-0,042	0,029
-694,685	-25,036	-0,066	-0,029
-693,670	50,094	-0,062	-0,043
-692,656	-111,899	0,073	-0,011
-691,641	-81,872	-0,071	-0,017
-690,627	-200,000	-0,005	0,084
-689,612	-200,000	0,006	-0,154
-688,597	-142,806	-0,052	-0,004
-687,583	-137,053	-0,248	0,021
-686,568	326,955	-0,095	-0,134
-685,554	-200,000	0,004	0,023
-684,539	-200,000	0,023	-0,082
-683,524	420,953	-0,067	0,106
-682,510	-174,716	-0,123	0,002
-681,495	48,498	-0,058	-0,040
-680,481	114,870	-0,020	0,018
-679,466	-200,000	-0,016	-0,145
-678,451	-200,000	0,010	-0,074
-677,437	-200,000	-0,152	0,000
-676,422	-32,538	0,035	-0,014
-675,408	78,643	0,051	-0,040
-674,393	-24,780	-0,021	0,009
-673,378	101,918	-0,058	-0,050
-672,364	800,000	-0,004	-0,013
-671,349	111,477	-0,082	-0,072
-670,335	-35,985	0,061	-0,024
-669,320	-200,000	-0,012	0,099
-668,305	-200,000	0,026	0,087
-667,291	31,599	-0,050	-0,031
-666,276	51,282	-0,087	0,061
-665,262	800,000	-0,078	-0,177
-664,247	-200,000	-0,034	-0,175
-663,232	-38,790	0,058	0,022
-662,218	-109,244	0,078	0,012
-661,203	124,845	0,144	0,134
-660,189	43,085	-0,056	0,038
-659,174	-131,875	-0,122	0,012
-658,159	292,619	-0,083	-0,112
-657,145	274,753	0,007	-0,009
-656,130	-83,981	-0,053	0,012
-655,116	319,818	0,044	0,061
-654,101	-200,000	-0,036	0,129
-653,086	-200,000	0,015	0,102
-652,072	-71,607	0,079	-0,022
-651,057	-67,969	-0,160	-0,046
-650,043	800,000	0,037	-0,088
-649,028	0,444	0,083	0,043
-648,014	-95,397	0,079	-0,015
-646,999	243,575	-0,072	-0,089
-645,984	-200,000	-0,029	0,098
-644,970	-200,000	-0,024	-0,133
-643,955	800,000	-0,034	0,082
-642,941	800,000	-0,039	-0,084
-641,926	-138,943	-0,141	-0,011
-640,911	-43,971	0,046	-0,017
-639,897	188,671	-0,051	0,056
-638,882	-108,473	0,120	0,019
-637,868	-130,250	-0,025	-0,002
-636,853	-111,954	-0,074	0,011
-635,838	230,029	0,058	0,070
-634,824	-71,608	-0,121	-0,033
-633,809	104,012	0,064	0,055
-632,795	-200,000	0,033	0,111
-631,780	-164,369	-0,114	-0,004
-630,765	-200,000	-0,006	0,022
-629,751	411,439	0,068	0,106
-628,736	224,207	-0,047	-0,056
-627,722	-200,000	0,004	0,109
-626,707	-13,287	0,058	0,028
-625,692	800,000	0,054	0,115
-624,678	239,030	-0,054	0,066
-623,663	-200,000	0,051	0,325
-622,649	-136,803	-0,056	0,005
-621,634	-10,023	-0,061	0,030
-620,619	71,475	-0,133	-0,101
-619,605	-30,091	-0,062	0,026
-618,590	83,972	0,113	0,091
-617,576	-8,864	0,090	-0,044
-616,561	-97,949	-0,096	-0,018
-615,546	80,665	-0,001	-0,000
-614,532	428,085	-0,018	0,028
-613,517	-200,000	-0,021	-0,092
-612,503	453,976	-0,052	-0,084
-611,488	-200,000	0,027	0,090
-610,474	57,510	0,020	-0,015
-609,459	93,530	0,041	0,034
-608,444	-200,000	-0,006	-0,039
-607,430	-49,937	0,091	0,031
-606,415	-81,099	0,057	0,014
-605,401	-8,002	0,126	-0,062
-604,386	42,697	-0,033	0,022
-603,371	800,000	0,008	0,022
-602,357	-200,000	0,000	0,098
-601,342	25,454	-0,028	0,017
-600,328	-101,776	-0,083	0,015
-599,313	78,914	0,082	0,064
-598,298	9,241	0,034	-0,019
-597,284	16,070	0,147	0,085
-596,269	-200,000	-0,000	-0,109
-595,255	-200,000	0,015	-0,081
-594,240	274,087	-0,064	0,084
-593,225	-2,385	0,119	0,061
-592,211	32,642	-0,126	-0,080
-591,196	87,721	-0,027	-0,022
-590,182	-83,387	0,060	-0,014
-589,167	-200,000	0,001	0,029
-588,152	-200,000	0,005	0,120
-587,138	-194,122	0,053	-0,000
-586,123	275,357	-0,064	-0,083
-585,109	-200,000	-0,001	0,034
-584,094	84,714	0,078	-0,063
-583,079	27,380	-0,070	0,043
-582,065	-10,602	0,042	-0,020
-581,050	230,202	-0,098	-0,118
-580,036	-170,049	-0,083	-0,002
-579,021	800,000	-0,038	0,111
-578,006	203,507	0,035	0,040
-576,992	800,000	0,001	-0,003
-575,977	312,122	-0,055	0,076
-574,963	-200,000	0,007	0,078
-573,948	-200,000	-0,029	-0,124
-572,934	58,108	-0,057	-0,041
-571,919	-105,848	-0,161	-0,026
-570,904	-46,646	-0,115	-0,041
-569,890	288,872	-0,033	-0,043
-568,875	117,990	-0,080	0,072
-567,861	-21,733	0,050	0,022
-566,846	538,310	0,055	-0,096
-565,831	-103,432	-0,099	-0,017
-564,817	-200,000	0,001	0,006
-563,802	54,798	-0,011	-0,008
-562,788	171,685	-0,041	-0,043
-561,773	-170,233	0,024	-0,001
-560,758	452,868	0,010	0,016
-559,744	-38,152	0,081	0,031
-558,729	33,341	-0,090	-0,057
-557,715	800,000	-0,029	-0,074
-556,700	192,219	0,111	0,123
-555,685	214,694	-0,057	0,066
-554,671	124,024	0,048	-0,044
-553,656	79,456	0,037	-0,029
-552,642	86,226	-0,062	0,050
-551,627	800,000	0,030	0,083
-550,612	-200,000	0,004	-0,074
-549,598	239,155	-0,067	-0,082
-548,583	602,944	0,051	0,093
-547,569	49,081	-0,019	-0,013
-546,554	-200,000	0,001	0,119
-545,539	-111,984	0,044	0,006
-544,525	800,000	-0,009	-0,023
-543,510	-86,796	-0,309	-0,069
-542,496	-200,000	-0,016	-0,076
-541,481	-161,808	-0,259	-0,009
-540,466	-156,740	0,153	-0,007
-539,452	-200,000	0,020	-0,112
-538,437	800,000	-0,060	0,133
-537,423	-200,000	-0,010	0,152
-536,408	20,877	-0,079	0,047
-535,393	561,158	-0,038	-0,067
-534,379	-199,000	-0,116	0,000
-533,364	-119,658	0,115	-0,014
-532,350	49,194	0,111	0,076
-531,335	800,000	-0,061	-0,126
-530,321	3,845	-0,038	-0,020
-529,306	55,203	-0,103	0,073
-528,291	-200,000	0,004	0,071
-527,277	579,093	-0,052	-0,093
-526,262	-178,729	0,039	-0,001
-525,248	189,538	0,010	-0,010
-524,233	-17,200	0,083	0,038
-523,218	690,636	0,026	0,050
-522,204	-162,674	0,163	0,006
-521,189	-166,718	-0,028	-0,001
-520,175	55,957	-0,009	0,006
-519,160	-175,991	0,065	0,001
-518,145	216,539	0,112	-0,130
-517,131	445,550	0,052	0,083
-516,116	-63,707	0,105	0,031
-515,102	165,429	-0,077	0,080
-514,087	-25,270	-0,228	-0,098
-513,072	-181,743	-0,082	0,001
-512,058	-78,049	0,114	-0,029
-511,043	-108,883	-0,097	0,015
-510,029	315,769	0,047	0,066
-509,014	800,000	-0,023	0,068
-507,999	532,189	-0,035	0,060
-506,985	-200,000	0,023	0,088
-505,970	-18,423	-0,103	-0,047
-504,956	-162,857	-0,027	-0,001
-503,941	-200,000	0,005	-0,094
-502,926	17,166	0,025	0,015
-501,912	77,622	0,049	0,038
-500,897	-31,015	0,014	-0,006
-499,883	-28,023	-0,042	-0,018
-498,868	-123,285	-0,091	-0,011
-497,853	38,916	0,104	-0,067
-496,839	800,000	-0,038	-0,092
-495,824	-167,957	-0,047	0,001
-494,810	292,455	0,079	0,105
-493,795	575,293	0,048	0,085
-492,781	199,148	-0,054	0,061
-491,766	-8,696	0,020	-0,010
-490,751	-200,000	0,031	-0,149
-489,737	-74,862	-0,125	0,032
-488,722	800,000	0,089	0,187
-487,708	800,000	0,045	0,135
-486,693	800,000	-0,020	-0,050
-485,678	187,316	0,059	-0,065
-484,664	-200,000	-0,003	-0,050
-483,649	-200,000	-0,003	0,054
-482,635	-29,319	0,070	0,029
-481,620	-73,306	0,113	0,030
-480,605	446,426	-0,093	0,150
-479,591	22,528	0,062	-0,037
-478,576	36,054	0,121	0,078
-477,562	-133,737	-0,038	-0,003
-476,547	-0,746	-0,066	-0,034
-475,532	-200,000	-0,017	0,066
-474,518	-20,374	-0,053	0,024
-473,503	373,180	0,110	0,163
-472,489	-163,265	0,037	-0,001
-471,474	23,892	-0,143	-0,086
-470,459	-20,198	-0,033	-0,015
-469,445	-200,000	-0,030	-0,113
-468,430	-200,000	-0,020	-0,081
-467,416	219,068	0,032	-0,037
-466,401	508,749	-0,064	0,109
-465,386	77,793	0,032	0,025
-464,372	-101,270	0,027	-0,005
-463,357	-158,496	-0,146	-0,006
-462,343	7,857	-0,089	-0,048
-461,328	218,831	0,107	-0,125
-460,313	-200,000	-0,001	0,034
-459,299	440,203	0,022	0,035
-458,284	-27,810	0,019	0,008
-457,270	-200,000	0,012	0,074
-456,255	98,570	0,059	-0,050
-455,241	-76,141	-0,037	0,010
-454,226	-200,000	-0,020	0,086
-453,211	-200,000	-0,003	-0,181
-452,197	-200,000	-0,009	0,075
-451,182	-52,997	0,110	-0,037
-450,168	155,895	-0,044	0,045
-449,153	537,312	-0,066	0,114
-448,138	-87,861	-0,104	-0,023
-447,124	373,387	0,065	0,097
-446,109	166,975	-0,141	-0,147
-445,095	800,000	0,035	0,079
-444,080	-121,428	0,091	-0,011
-443,065	539,816	0,018	-0,031
-442,051	-73,046	-0,103	0,027
-441,036	-200,000	-0,004	-0,052
-440,022	514,168	-0,046	-0,078
-439,007	800,000	-0,028	-0,064
-437,992	130,014	0,081	-0,076
-436,978	-39,631	-0,106	-0,040
-435,963	90,407	0,090	0,073
-434,949	-154,075	0,151	0,007
-433,934	-35,997	-0,104	0,041
-432,919	-200,000	-0,002	-0,022
-431,905	537,946	0,010	0,018
-430,890	-200,000	0,014	0,046
-429,876	-200,000	0,007	-0,069
-428,861	424,696	-0,027	0,042
-427,846	-200,000	-0,011	0,074
-426,832	-174,117	-0,036	-0,001
-425,817	800,000	-0,024	-0,067
-424,803	800,000	-0,020	-0,040
-423,788	-200,000	-0,024	0,103
-422,773	-40,112	0,086	0,033
-421,759	800,000	-0,026	0,053
-420,744	-46,168	-0,052	0,018
-419,730	-200,000	0,011	-0,069
-418,715	-200,000	-0,013	-0,095
-417,701	316,124	0,056	-0,077
-416,686	45,596	-0,028	-0,019
-415,671	-44,742	0,183	0,066
-414,657	143,274	0,046	0,045
-413,642	-200,000	0,012	-0,124
-412,628	340,553	0,039	0,056
-411,613	19,173	-0,143	0,084
-410,598	105,696	0,069	0,059
-409,584	800,000	-0,014	0,044
-408,569	468,076	0,106	-0,174
-407,555	211,489	-0,003	-0,004
-406,540	-113,348	0,148	-0,021
-405,525	-162,991	-0,092	0,003
-404,511	245,627	-0,034	-0,042
-403,496	800,000	-0,028	0,069
-402,482	-62,393	-0,101	-0,030
-401,467	-200,000	-0,005	-0,019
-400,452	-89,711	0,103	0,022
-399,438	38,831	0,055	-0,035
-398,423	-200,000	0,002	-0,105
-397,409	-200,000	0,043	-0,153
-396,394	188,498	0,014	0,016
-395,379	-4,771	0,078	-0,039
-394,365	-41,861	-0,020	0,007
-393,350	-11,248	0,082	-0,039
-392,336	-200,000	-0,002	0,037
-391,321	800,000	-0,012	0,028
-390,306	81,845	-0,098	-0,078
-389,292	800,000	-0,028	-0,057
-388,277	533,007	0,043	-0,075
-387,263	-4,692	0,177	0,089
-386,248	206,218	0,162	0,184
-385,233	-89,342	0,026	0,006
-384,219	256,167	-0,004	0,005
-383,204	-200,000	-0,016	-0,108
-382,190	-200,000	-0,001	0,082
-381,175	116,249	0,075	-0,067
-380,160	647,588	0,080	0,149
-379,146	-200,000	-0,002	0,147
-378,131	-200,000	0,036	0,118
-377,117	198,839	0,037	0,041
-376,102	397,270	-0,015	-0,024
-375,088	26,317	0,185	-0,112
-374,073	-200,000	0,020	-0,068
-373,058	800,000	0,097	-0,202
-372,044	341,487	-0,020	-0,029
-371,029	139,746	0,086	-0,082
-370,015	139,593	0,082	-0,079
-369,000	522,776	-0,052	0,088
-367,985	510,066	-0,006	0,010
-366,971	-200,000	-0,016	-0,119
-365,956	329,154	0,012	-0,017
-364,942	800,000	-0,018	-0,042
-363,927	-63,201	0,060	0,018
-362,912	-200,000	0,013	-0,057
-361,898	800,000	-0,054	0,117
-360,883	-75,722	-0,098	0,025
-359,869	10,823	0,032	0,018
-358,854	305,679	0,116	-0,158
-357,839	-47,255	0,076	0,027
-356,825	-142,274	0,037	0,003
-355,810	-106,616	-0,087	-0,014
-354,796	13,309	-0,083	-0,046
-353,781	-53,882	-0,109	0,036
-352,766	541,488	-0,024	-0,042
-351,752	-23,590	-0,061	-0,027
-350,737	800,000	0,035	0,104
-349,723	61,883	0,102	0,074
-348,708	-200,000	-0,004	0,075
-347,693	-200,000	0,029	-0,106
-346,679	-200,000	-0,025	-0,104
-345,664	188,608	0,046	-0,051
-344,650	-50,727	0,095	0,032
-343,635	257,862	-0,045	-0,057
-342,620	-95,945	-0,057	-0,011
-341,606	592,180	-0,052	0,094
-340,591	220,382	-0,116	-0,135
-339,577	-87,642	0,088	-0,019
-338,562	-193,342	-0,098	-0,001
-337,548	588,280	0,013	-0,024
-336,533	210,780	0,062	0,071
-335,518	257,377	-0,062	0,077
-334,504	-36,399	-0,048	0,019
-333,489	68,633	-0,050	-0,037
-332,475	506,425	-0,051	0,086
-331,460	-200,000	0,000	-0,015
-330,445	-200,000	-0,047	0,210
-329,431	-34,792	-0,018	-0,007
-328,416	182,507	0,070	0,075
-327,402	-200,000	0,005	-0,083
-326,387	-48,750	0,198	-0,068
-325,372	800,000	-0,016	-0,049
-324,358	800,000	0,009	0,026
-323,343	-67,439	-0,129	-0,036
-322,329	-84,613	0,035	-0,008
-321,314	800,000	-0,031	0,069
-320,299	800,000	-0,036	-0,095
-319,285	-30,845	-0,121	0,049
-318,270	128,782	0,081	-0,075
-317,256	134,136	-0,119	-0,112
-316,241	198,529	0,025	0,027
-315,226	-200,000	0,002	0,079
-314,212	290,881	0,027	0,036
-313,197	-200,000	-0,008	0,045
-312,183	800,000	-0,020	-0,043
-311,168	800,000	-0,026	-0,057
-310,153	-200,000	0,021	-0,127
-309,139	445,202	-0,092	-0,148
-308,124	125,113	0,103	0,094
-307,110	19,586	0,085	0,050
-306,095	362,921	-0,072	0,105
-305,080	-35,778	0,066	-0,026
-304,066	323,385	-0,024	-0,034
-303,051	800,000	-0,047	-0,117
-302,037	-2,290	0,096	-0,049
-301,022	-38,033	-0,130	-0,050
-300,008	800,000	0,036	-0,086
-298,993	-200,000	-0,003	0,176
-297,978	358,555	-0,093	0,135
-296,964	725,293	-0,031	-0,060
-295,949	75,981	0,030	0,023
-294,935	-133,650	-0,097	0,009
-293,920	29,055	-0,034	0,021
-292,905	177,164	0,067	0,071
-291,891	26,902	-0,031	0,019
-290,876	47,103	0,045	0,030
-289,862	179,269	0,046	0,049
-288,847	212,978	-0,036	-0,042
-287,832	-200,000	0,015	-0,081
-286,818	224,169	-0,080	-0,094
-285,803	742,066	-0,021	-0,041
-284,789	247,978	-0,065	-0,079
-283,774	456,914	0,040	0,065
-282,759	-54,256	-0,121	-0,040
-281,745	800,000	-0,014	0,032
-280,730	-103,337	-0,089	-0,015
-279,716	-200,000	-0,015	0,089
-278,701	-52,725	-0,046	0,015
-277,686	-49,386	0,077	-0,026
-276,672	-17,130	-0,151	0,069
-275,657	179,270	-0,024	0,025
-274,643	-200,000	0,003	-0,018
-273,628	85,219	-0,051	0,041
-272,613	79,142	-0,081	-0,063
-271,599	195,686	0,040	-0,044
-270,584	-116,900	0,146	-0,019
-269,570	-26,715	-0,014	0,006
-268,555	-200,000	0,002	-0,153
-267,540	-200,000	-0,005	0,094
-266,526	-200,000	-0,015	-0,126
-265,511	-139,100	0,025	-0,002
-264,497	282,400	0,104	0,135
-263,482	128,972	-0,105	-0,097
-262,467	729,751	0,029	-0,056
-261,453	142,314	0,057	-0,054
-260,438	-200,000	0,009	-0,080
-259,424	451,107	-0,062	-0,099
-258,409	-42,063	-0,024	-0,009
-257,395	113,532	-0,088	-0,077
-256,380	-116,109	0,132	0,018
-255,365	-200,000	-0,007	0,071
-254,351	-110,294	0,110	0,016
-253,336	800,000	0,032	-0,082
-252,322	-200,000	-0,030	-0,144
-251,307	-16,899	0,097	-0,044
-250,292	213,716	0,037	-0,042
-249,278	341,404	-0,042	0,060
-248,263	364,785	0,074	-0,107
-247,249	800,000	0,033	-0,082
-246,234	800,000	0,014	-0,033
-245,219	-19,934	-0,110	-0,049
-244,205	-5,200	-0,078	-0,038
-243,190	-200,000	-0,037	0,203
-242,176	149,198	0,063	0,062
-241,161	-200,000	-0,002	0,071
-240,146	-200,000	-0,013	-0,054
-239,132	800,000	-0,041	-0,088
-238,117	-24,869	-0,057	-0,024
-237,103	-200,000	-0,005	-0,113
-236,088	21,216	-0,110	0,065
-235,073	49,618	0,105	-0,071
-234,059	-200,000	-0,004	0,020
-233,044	789,256	0,038	0,076
-232,030	208,938	-0,102	0,116
-231,015	-200,000	0,003	0,025
-230,000	-128,233	-0,027	-0,003
-228,986	421,359	-0,020	-0,030
-227,971	-145,508	-0,057	-0,004
-226,957	-81,816	0,212	0,050
-225,942	-200,000	0,001	0,004
-224,927	-200,000	-0,004	-0,041
-223,913	-11,678	-0,124	-0,059
-222,898	16,418	0,061	-0,035
-221,884	83,357	0,098	-0,077
-220,869	331,310	-0,024	0,033
-219,855	-80,839	-0,035	0,008
-218,840	-200,000	-0,041	0,170
-217,825	-76,112	-0,047	0,012
-216,811	-131,749	0,060	-0,006
-215,796	155,803	-0,090	-0,090
-214,782	0,588	-0,050	0,026
-213,767	561,187	0,041	-0,073
-212,752	122,801	0,045	0,040
-211,738	-200,000	-0,005	0,015
-210,723	-120,304	0,036	0,004
-209,709	70,353	-0,046	-0,034
-208,694	46,627	0,029	0,019
-207,679	800,000	0,071	-0,174
-206,665	-98,627	0,200	-0,036
-205,650	2,854	-0,120	0,063
-204,636	-71,452	0,117	0,031
-203,621	-200,000	0,008	-0,073
-202,606	445,840	-0,084	-0,134
-201,592	-200,000	0,003	-0,029
-200,577	-200,000	-0,025	-0,087
-199,563	800,000	-0,025	-0,068
-198,548	62,860	0,123	0,089
-197,533	-200,000	-0,002	-0,014
-196,519	301,247	-0,094	0,126
-195,504	179,036	0,127	0,134
-194,490	-73,778	-0,148	-0,039
-193,475	450,526	0,062	-0,100
-192,460	-60,699	-0,082	0,025
-191,446	-200,000	-0,017	0,072
-190,431	-35,644	0,116	0,045
-189,417	80,886	0,055	0,043
-188,402	47,853	0,064	0,043
-187,387	-39,074	-0,185	-0,070
-186,373	-22,593	-0,092	0,040
-185,358	0,374	0,044	0,023
-184,344	-90,826	0,101	-0,021
-183,329	15,273	0,039	0,022
-182,315	109,058	0,075	0,065
-181,300	-200,000	-0,029	-0,163
-180,285	86,880	0,058	0,046
-179,271	-64,011	-0,072	-0,021
-178,256	-200,000	-0,006	-0,021
-177,242	190,726	0,157	0,171
-176,227	-104,891	0,056	-0,009
-175,212	-21,723	0,064	-0,028
-174,198	800,000	-0,012	-0,037
-173,183	13,786	-0,084	-0,047
-172,169	110,102	0,082	-0,071
-171,154	-71,841	-0,028	-0,008
-170,139	-4,711	0,037	-0,019
-169,125	38,556	-0,063	0,041
-168,110	-144,040	0,126	-0,008
-167,096	173,901	0,068	-0,071
-166,081	-9,260	0,063	0,030
-165,066	128,547	-0,067	-0,061
-164,052	-111,007	-0,025	0,004
-163,037	-87,030	0,100	-0,022
-162,023	191,254	0,019	0,021
-161,008	71,738	-0,004	-0,003
-159,993	800,000	0,069	0,192
-158,979	-30,976	-0,129	0,052
-157,964	-200,000	-0,027	0,106
-156,950	136,642	-0,105	-0,099
-155,935	113,311	0,064	0,056
-154,920	-26,144	0,035	-0,015
-153,906	-18,607	0,099	0,045
-152,891	210,964	0,029	0,033
-151,877	68,658	0,107	-0,079
-150,862	281,710	-0,103	0,134
-149,847	-27,528	0,065	0,027
-148,833	60,372	-0,019	-0,013
-147,818	-194,387	0,107	-0,001
-146,804	235,151	-0,007	0,008
-145,789	-7,371	0,078	-0,038
-144,775	374,987	0,060	0,088
-143,760	99,279	-0,103	-0,086
-142,745	-200,000	0,009	-0,055
-141,731	-14,328	-0,023	0,011
-140,716	32,803	0,067	-0,042
-139,702	-200,000	0,007	0,069
-138,687	227,246	0,101	0,118
-137,672	537,825	0,030	-0,051
-136,658	-91,713	-0,090	0,018
-135,643	220,648	-0,074	-0,085
-134,629	-200,000	0,019	0,133
-133,614	453,619	0,031	-0,049
-132,599	-151,122	0,055	-0,003
-131,585	800,000	0,012	0,031
-130,570	143,305	-0,203	-0,194
-129,556	800,000	0,059	-0,123
-128,541	-200,000	-0,002	-0,064
-127,526	-162,925	-0,048	0,002
-126,512	800,000	0,016	0,042
-125,497	7,182	0,160	0,086
-124,483	278,013	0,052	0,067
-123,468	2,492	-0,043	0,023
-122,453	-15,890	-0,196	0,090
-121,439	-200,000	0,003	-0,039
-120,424	761,767	0,047	-0,092
-119,410	351,885	-0,042	-0,061
