DTS Sentinel unit serial number:	SN410029Multiplexer serial number:	ORYXHardware model number:	OX2-SRSoftware version number:	ORYX F/W v4,00 Oryx Data Collector v3.7.2.0data status	okinstallation	B5 Nyhavnadifferential loss correction	single-endedforward channel	channel 2reverse channel	N/Adate	2023/12/11time	23:42:13forward acquisition time	300,00reverse acquisition time	0,00gamma	499,1914k internal	0,3155k external	0,3155temperature offset calibration	1,0000default loss term (dB/km)	0,3820temperature slope calibration	1,0000multiplexer offset coefficient	1,0000multiplexer slope coefficient	1,0000fibre end	0,00T internal ref (°C)	16,23T ext. ref 1 (°C)	-0,09T ext. ref 2 (°C)	-0,39length (m)	temperature (°C)	Stokes	anti-Stokes-744,400	-121,257	-0,017	0,002
-743,385	-155,046	-0,302	-0,014
-742,371	-200,000	0,016	0,076
-741,356	800,000	-0,062	0,143
-740,342	226,081	-0,054	0,065
-739,327	-9,760	-0,173	0,085
-738,312	344,164	0,097	-0,140
-737,298	-28,242	-0,328	0,139
-736,283	-105,030	0,133	-0,022
-735,269	12,004	-0,237	0,134
-734,254	-18,698	-0,044	0,020
-733,239	-50,877	-0,444	-0,153
-732,225	-34,026	0,124	0,050
-731,210	800,000	-0,029	-0,090
-730,196	-54,294	0,102	-0,034
-729,181	-200,000	0,001	-0,137
-728,167	90,398	0,035	-0,029
-727,152	46,924	0,068	-0,047
-726,137	292,289	-0,025	0,034
-725,123	245,980	0,061	0,076
-724,108	70,958	-0,101	-0,077
-723,094	177,001	-0,103	-0,111
-722,079	358,842	-0,133	0,197
-721,064	-200,000	0,025	0,104
-720,050	51,867	0,078	0,055
-719,035	-200,000	0,024	-0,100
-718,021	278,781	0,090	-0,118
-717,006	141,385	-0,083	-0,081
-715,991	800,000	-0,049	-0,143
-714,977	343,897	-0,073	-0,105
-713,962	-142,052	-0,092	0,007
-712,948	-39,350	0,036	0,014
-711,933	800,000	-0,044	-0,122
-710,918	178,725	-0,066	-0,071
-709,904	-10,618	0,048	0,023
-708,889	137,463	0,086	-0,082
-707,875	800,000	-0,049	-0,108
-706,860	-62,349	0,163	-0,050
-705,845	800,000	0,022	0,070
-704,831	-200,000	-0,003	0,046
-703,816	149,566	0,073	0,073
-702,802	-200,000	0,003	-0,069
-701,787	689,096	-0,035	-0,067
-700,772	-162,717	-0,141	0,005
-699,758	188,390	0,061	-0,067
-698,743	-123,574	0,127	0,015
-697,729	514,908	-0,073	-0,127
-696,714	119,321	0,045	0,041
-695,699	-23,091	-0,040	0,018
-694,685	-51,975	0,061	0,021
-693,670	-200,000	0,009	-0,099
-692,656	-183,932	-0,079	-0,001
-691,641	-200,000	0,011	-0,081
-690,627	42,843	-0,074	0,050
-689,612	-200,000	0,006	0,132
-688,597	-200,000	-0,008	0,083
-687,583	780,534	-0,069	0,140
-686,568	-7,961	-0,161	-0,079
-685,554	800,000	0,034	0,103
-684,539	265,795	-0,048	-0,061
-683,524	-28,846	0,011	-0,005
-682,510	-200,000	0,015	0,053
-681,495	-178,538	0,113	0,002
-680,481	-47,426	-0,112	-0,040
-679,466	-37,518	-0,162	-0,063
-678,451	438,944	-0,051	-0,082
-677,437	-200,000	0,019	0,064
-676,422	125,745	0,031	-0,029
-675,408	-97,425	0,095	-0,018
-674,393	-10,011	0,057	0,028
-673,378	-200,000	0,031	-0,107
-672,364	-2,218	-0,175	-0,090
-671,349	-200,000	0,042	-0,188
-670,335	737,442	-0,024	0,048
-669,320	76,444	0,168	-0,131
-668,305	40,244	0,082	0,054
-667,291	-111,378	0,060	0,009
-666,276	-82,712	-0,075	0,018
-665,262	-200,000	0,002	-0,146
-664,247	310,869	0,032	0,044
-663,232	-122,205	-0,096	0,011
-662,218	150,739	-0,056	0,056
-661,203	566,923	0,042	0,075
-660,189	-63,452	-0,079	-0,024
-659,174	-178,950	-0,083	0,001
-658,159	452,258	0,052	-0,085
-657,145	135,103	-0,086	-0,082
-656,130	1,181	0,067	-0,036
-655,116	-164,525	0,048	-0,002
-654,101	-200,000	-0,004	0,025
-653,086	78,799	-0,120	0,094
-652,072	10,436	-0,073	-0,041
-651,057	-200,000	-0,001	-0,018
-650,043	-178,304	-0,185	-0,003
-649,028	-200,000	-0,009	0,059
-648,014	-78,293	0,123	0,031
-646,999	352,884	-0,088	0,128
-645,984	-200,000	0,028	-0,140
-644,970	-182,988	-0,089	-0,001
-643,955	29,260	-0,085	-0,053
-642,941	104,949	-0,117	-0,102
-641,926	-124,802	-0,078	0,009
-640,911	800,000	-0,039	0,101
-639,897	-52,574	0,084	0,028
-638,882	-200,000	0,009	0,034
-637,868	-200,000	0,003	-0,072
-636,853	47,542	-0,106	0,073
-635,838	-200,000	0,022	-0,104
-634,824	-200,000	-0,003	0,052
-633,809	315,258	-0,098	0,137
-632,795	-200,000	0,018	0,156
-631,780	-53,850	0,049	-0,016
-630,765	-88,226	0,101	-0,022
-629,751	15,698	-0,119	-0,069
-628,736	-200,000	-0,023	0,079
-627,722	-200,000	-0,001	-0,097
-626,707	274,251	-0,043	0,057
-625,692	779,547	-0,024	0,048
-624,678	800,000	0,034	0,094
-623,663	-39,202	-0,077	0,029
-622,649	-200,000	-0,010	-0,056
-621,634	-144,080	-0,077	0,005
-620,619	-200,000	0,026	-0,103
-619,605	92,307	-0,088	0,073
-618,590	36,279	-0,046	0,030
-617,576	-200,000	-0,038	0,186
-616,561	-200,000	0,001	-0,135
-615,546	-200,000	-0,025	-0,129
-614,532	-200,000	-0,041	-0,169
-613,517	335,719	0,036	-0,051
-612,503	-200,000	-0,019	-0,120
-611,488	167,374	-0,079	-0,082
-610,474	-129,027	-0,110	-0,011
-609,459	668,017	0,020	0,039
-608,444	50,993	-0,052	0,036
-607,430	13,401	-0,056	-0,032
-606,415	-89,499	-0,082	-0,017
-605,401	-200,000	0,001	-0,139
-604,386	-76,988	0,093	-0,024
-603,371	-99,469	0,085	0,015
-602,357	800,000	-0,012	0,027
-601,342	-7,940	-0,044	-0,022
-600,328	-103,466	0,097	-0,017
-599,313	-34,540	0,091	-0,036
-598,298	19,497	-0,081	-0,048
-597,284	-44,186	0,123	-0,045
-596,269	476,089	-0,029	0,048
-595,255	-103,790	-0,028	0,005
-594,240	-200,000	0,000	-0,058
-593,225	800,000	-0,039	0,103
-592,211	-86,794	-0,096	0,021
-591,196	28,154	0,096	0,059
-590,182	-185,994	-0,045	0,000
-589,167	139,127	-0,032	-0,031
-588,152	407,441	-0,033	-0,051
-587,138	-200,000	-0,010	-0,091
-586,123	198,595	-0,100	0,113
-585,109	363,394	0,075	-0,112
-584,094	-200,000	0,002	0,101
-583,079	106,433	0,026	-0,023
-582,065	679,275	0,028	-0,053
-581,050	221,873	0,098	0,116
-580,036	23,491	-0,058	-0,035
-579,021	-97,687	0,129	0,024
-578,006	-181,159	-0,148	-0,002
-576,992	-200,000	0,000	-0,014
-575,977	-17,016	0,071	-0,033
-574,963	50,530	0,111	0,077
-573,948	-200,000	-0,023	-0,123
-572,934	133,983	-0,082	-0,078
-571,919	-59,034	0,107	0,034
-570,904	-200,000	-0,011	-0,112
-569,890	-200,000	0,003	0,047
-568,875	171,238	-0,042	0,044
-567,861	655,159	-0,045	-0,084
-566,846	-200,000	-0,014	-0,136
-565,831	-41,588	-0,045	-0,017
-564,817	-200,000	0,015	-0,081
-563,802	792,186	0,055	0,112
-562,788	146,530	-0,062	0,061
-561,773	-24,437	0,114	0,049
-560,758	-137,832	0,063	0,005
-559,744	758,664	0,025	0,049
-558,729	-200,000	-0,014	0,113
-557,715	30,826	-0,083	-0,052
-556,700	-20,394	-0,051	0,023
-555,685	30,631	-0,039	0,024
-554,671	214,207	0,054	0,063
-553,656	-3,860	-0,118	0,060
-552,642	800,000	-0,021	-0,054
-551,627	-130,930	0,091	0,009
-550,612	-109,228	0,079	0,012
-549,598	1,657	-0,125	-0,066
-548,583	-56,373	-0,074	-0,024
-547,569	-170,225	0,087	0,002
-546,554	-200,000	0,027	0,122
-545,539	-159,394	0,077	-0,003
-544,525	457,552	0,072	0,118
-543,510	257,762	-0,026	0,033
-542,496	-200,000	-0,025	-0,103
-541,481	-200,000	-0,021	-0,210
-540,466	-74,932	-0,049	-0,013
-539,452	81,980	-0,089	0,070
-538,437	11,245	-0,089	-0,050
-537,423	800,000	0,017	0,052
-536,408	444,232	0,013	0,022
-535,393	440,275	0,088	-0,141
-534,379	52,833	0,058	0,041
-533,364	343,301	-0,016	-0,023
-532,350	-34,224	0,133	-0,053
-531,335	135,980	-0,073	0,069
-530,321	800,000	0,038	-0,110
-529,306	800,000	0,052	0,106
-528,291	5,235	-0,074	-0,040
-527,277	-200,000	-0,013	0,053
-526,262	498,949	0,058	-0,098
-525,248	-200,000	0,035	0,131
-524,233	-188,535	0,100	0,001
-523,218	-153,647	0,092	0,005
-522,204	-200,000	-0,015	-0,051
-521,189	18,720	-0,037	0,022
-520,175	-108,171	-0,007	0,001
-519,160	264,987	-0,043	0,055
-518,145	-51,851	0,054	-0,018
-517,131	-103,304	0,125	0,021
-516,116	-200,000	0,040	0,161
-515,102	-95,431	-0,054	0,010
-514,087	800,000	0,038	-0,103
-513,072	93,073	-0,048	-0,039
-512,058	44,207	-0,050	-0,034
-511,043	-200,000	0,022	-0,124
-510,029	100,942	0,117	-0,100
-509,014	-120,682	-0,115	0,014
-507,999	-87,129	-0,064	-0,014
-506,985	-30,422	-0,030	-0,012
-505,970	-200,000	-0,004	-0,081
-504,956	249,773	-0,140	-0,174
-503,941	132,152	-0,041	-0,039
-502,926	-84,150	0,116	0,027
-501,912	-129,735	-0,083	0,008
-500,897	51,046	0,117	-0,081
-499,883	238,221	0,054	-0,065
-498,868	-72,523	-0,077	0,021
-497,853	-200,000	-0,001	0,055
-496,839	-72,039	-0,084	0,023
-495,824	-7,316	0,059	-0,029
-494,810	-166,276	0,041	0,001
-493,795	800,000	0,021	0,047
-492,781	-200,000	-0,035	0,135
-491,766	-83,839	-0,124	-0,029
-490,751	-74,486	0,073	-0,019
-489,737	269,567	0,072	0,093
-488,722	-113,607	0,004	-0,001
-487,708	-79,105	0,107	0,026
-486,693	-200,000	0,003	0,015
-485,678	800,000	-0,048	-0,118
-484,664	-115,459	0,089	-0,012
-483,649	146,995	-0,065	-0,064
-482,635	712,821	-0,045	-0,087
-481,620	392,548	-0,044	0,067
-480,605	800,000	0,038	-0,089
-479,591	47,835	-0,090	0,061
-478,576	27,060	0,069	0,042
-477,562	-143,821	-0,062	-0,004
-476,547	-39,412	-0,093	-0,035
-475,532	108,069	-0,033	-0,028
-474,518	9,303	0,057	-0,032
-473,503	709,219	-0,034	0,066
-472,489	-61,217	0,064	0,020
-471,474	102,563	0,038	0,033
-470,459	481,533	0,038	-0,063
-469,445	-200,000	-0,014	0,051
-468,430	800,000	0,027	-0,073
-467,416	80,099	0,053	0,041
-466,401	671,431	0,020	-0,037
-465,386	800,000	0,056	0,139
-464,372	203,777	0,138	0,156
-463,357	-200,000	-0,023	-0,117
-462,343	-169,383	-0,039	0,001
-461,328	532,178	0,039	-0,067
-460,313	800,000	-0,017	0,051
-459,299	-71,509	0,088	-0,024
-458,284	233,467	0,027	-0,032
-457,270	-104,699	0,094	0,016
-456,255	730,602	0,080	-0,156
-455,241	800,000	-0,088	-0,213
-454,226	418,042	-0,072	-0,112
-453,211	-8,643	0,140	-0,068
-452,197	49,047	0,046	0,032
-451,182	519,395	-0,054	-0,092
-450,168	185,098	0,086	-0,093
-449,153	118,612	0,042	-0,038
-448,138	429,559	0,029	-0,046
-447,124	247,624	-0,075	0,093
-446,109	800,000	0,018	0,036
-445,095	227,909	-0,021	-0,025
-444,080	48,959	0,135	0,093
-443,065	-54,221	-0,049	0,016
-442,051	461,421	-0,051	0,083
-441,036	-46,528	-0,031	0,011
-440,022	237,478	0,092	-0,112
-439,007	239,705	0,041	0,050
-437,992	109,148	0,195	0,170
-436,978	-200,000	-0,002	-0,120
-435,963	17,520	-0,031	0,018
-434,949	331,837	-0,053	0,075
-433,934	112,676	-0,046	-0,041
-432,919	-131,637	-0,022	0,002
-431,905	60,639	0,037	0,027
-430,890	-53,137	0,172	-0,057
-429,876	137,913	-0,060	-0,058
-428,861	-38,335	-0,050	0,019
-427,846	86,528	0,084	-0,067
-426,832	139,419	0,015	0,014
-425,817	-200,000	-0,010	-0,159
-424,803	205,055	-0,142	-0,161
-423,788	637,761	-0,051	-0,095
-422,773	-200,000	-0,017	0,267
-421,759	143,922	0,108	0,105
-420,744	-78,025	0,119	0,030
-419,730	-200,000	-0,000	-0,036
-418,715	-101,792	0,064	0,011
-417,701	-150,359	-0,181	-0,010
-416,686	-98,271	0,029	-0,005
-415,671	75,543	-0,118	0,090
-414,657	-200,000	-0,034	0,120
-413,642	213,342	-0,093	0,108
-412,628	-74,605	0,043	-0,011
-411,613	-62,600	0,135	0,041
-410,598	-200,000	0,004	-0,082
-409,584	800,000	-0,048	-0,148
-408,569	5,091	0,012	0,006
-407,555	-200,000	-0,021	0,079
-406,540	254,509	0,085	0,107
-405,525	-200,000	0,001	-0,005
-404,511	-200,000	-0,026	-0,157
-403,496	299,640	-0,062	-0,083
-402,482	73,597	-0,111	-0,085
-401,467	307,003	0,057	0,078
-400,452	-200,000	0,018	0,060
-399,438	120,088	0,020	-0,018
-398,423	-173,804	-0,178	-0,004
-397,409	-163,364	-0,071	0,002
-396,394	693,804	0,038	-0,073
-395,379	30,492	0,057	-0,036
-394,365	68,464	-0,018	-0,014
-393,350	59,696	0,124	0,089
-392,336	177,249	-0,070	0,074
-391,321	-143,999	-0,160	-0,011
-390,306	460,847	-0,032	0,052
-389,292	705,319	0,052	-0,100
-388,277	-167,225	0,136	0,004
-387,263	800,000	0,038	-0,085
-386,248	-200,000	-0,039	0,146
-385,233	-116,818	-0,051	0,007
-384,219	-149,676	-0,128	-0,007
-383,204	-17,925	0,076	-0,035
-382,190	180,922	-0,037	-0,039
-381,175	-200,000	0,003	-0,078
-380,160	-200,000	0,006	0,072
-379,146	800,000	-0,043	0,128
-378,131	337,048	0,035	0,050
-377,117	-131,163	0,029	0,003
-376,102	-200,000	0,021	-0,112
-375,088	304,346	0,089	-0,120
-374,073	110,932	0,067	0,059
-373,058	-58,698	0,252	-0,079
-372,044	72,833	-0,144	0,109
-371,029	134,144	0,045	0,042
-370,015	158,824	-0,121	0,122
-369,000	-200,000	0,005	-0,098
-367,985	446,938	-0,075	-0,121
-366,971	-136,362	0,169	0,014
-365,956	381,085	0,048	-0,072
-364,942	55,472	-0,034	0,024
-363,927	-12,161	0,154	-0,073
-362,912	-200,000	0,015	0,051
-361,898	10,153	0,125	-0,069
-360,883	-200,000	0,014	-0,075
-359,869	-200,000	-0,000	-0,133
-358,854	800,000	0,030	-0,069
-357,839	-113,366	0,064	-0,009
-356,825	800,000	0,014	0,042
-355,810	-103,583	-0,103	0,017
-354,796	-74,800	0,057	-0,015
-353,781	-52,233	-0,143	-0,048
-352,766	-84,738	0,106	-0,024
-351,752	800,000	-0,032	0,065
-350,737	800,000	0,025	-0,081
-349,723	6,476	-0,132	0,071
-348,708	-123,019	0,102	0,012
-347,693	-18,763	-0,085	-0,038
-346,679	417,500	-0,068	-0,106
-345,664	104,826	0,011	-0,009
-344,650	400,830	-0,043	-0,066
-343,635	132,660	0,040	-0,037
-342,620	72,781	-0,098	0,074
-341,606	220,902	0,025	0,029
-340,591	-200,000	0,006	-0,031
-339,577	-62,710	-0,185	0,055
-338,562	54,159	-0,081	0,057
-337,548	149,917	-0,068	-0,067
-336,533	-200,000	0,008	-0,045
-335,518	33,438	0,124	-0,078
-334,504	-125,920	-0,006	0,001
-333,489	-172,156	0,122	-0,003
-332,475	-60,217	-0,120	0,037
-331,460	601,369	0,044	0,080
-330,445	-200,000	-0,002	0,031
-329,431	-200,000	-0,010	0,093
-328,416	-200,000	-0,045	0,151
-327,402	-180,367	-0,108	-0,002
-326,387	-200,000	0,014	0,114
-325,372	-100,652	-0,217	-0,039
-324,358	-86,766	-0,086	0,019
-323,343	-153,423	0,106	-0,005
-322,329	132,951	0,055	-0,051
-321,314	-200,000	-0,011	-0,047
-320,299	-200,000	0,013	0,088
-319,285	688,126	-0,084	0,160
-318,270	488,758	0,045	-0,075
-317,256	76,562	0,102	-0,079
-316,241	-148,953	-0,134	-0,008
-315,226	0,782	-0,007	-0,004
-314,212	-120,747	0,062	0,007
-313,197	-200,000	0,028	0,116
-312,183	800,000	-0,059	0,150
-311,168	36,909	0,075	-0,048
-310,153	-200,000	-0,006	-0,072
-309,139	377,410	0,030	0,044
-308,124	800,000	-0,015	-0,034
-307,110	-41,656	-0,018	0,007
-306,095	16,660	0,033	-0,019
-305,080	401,955	0,060	-0,092
-304,066	288,580	0,056	-0,074
-303,051	-82,060	-0,193	-0,045
-302,037	-124,788	-0,099	-0,011
-301,022	-200,000	0,009	0,039
-300,008	-74,432	0,117	-0,030
-298,993	-75,358	0,032	0,008
-297,978	100,502	-0,054	0,045
-296,964	726,926	-0,048	0,093
-295,949	-200,000	-0,011	-0,040
-294,935	-200,000	-0,024	-0,139
-293,920	137,088	-0,060	0,057
-292,905	66,924	0,083	-0,061
-291,891	-56,565	-0,062	0,020
-290,876	96,789	0,058	0,048
-289,862	132,179	0,124	-0,116
-288,847	-89,764	0,094	0,020
-287,832	403,575	0,057	-0,087
-286,818	558,704	-0,042	-0,074
-285,803	-103,106	-0,127	-0,022
-284,789	-158,466	0,110	-0,005
-283,774	162,283	-0,057	0,058
-282,759	800,000	0,010	0,025
-281,745	620,756	-0,046	-0,083
-280,730	-109,838	0,036	-0,005
-279,716	-141,961	-0,021	-0,001
-278,701	282,570	0,038	0,049
-277,686	94,041	-0,106	0,087
-276,672	83,504	0,090	-0,071
-275,657	800,000	-0,019	0,050
-274,643	800,000	0,009	-0,019
-273,628	154,904	0,090	0,090
-272,613	-200,000	-0,000	0,032
-271,599	300,752	0,086	-0,115
-270,584	-42,557	0,078	0,029
-269,570	-200,000	-0,035	0,124
-268,555	-200,000	0,002	0,047
-267,540	-200,000	0,010	0,105
-266,526	800,000	0,049	-0,099
-265,511	-109,287	0,077	-0,012
-264,497	313,395	-0,046	0,062
-263,482	-57,808	0,080	0,025
-262,467	-200,000	-0,004	0,014
-261,453	-200,000	-0,029	0,152
-260,438	744,712	-0,070	-0,136
-259,424	-6,814	0,025	-0,012
-258,409	800,000	-0,020	-0,043
-257,395	172,944	0,054	0,057
-256,380	123,393	0,145	-0,132
-255,365	162,187	0,021	0,021
-254,351	-200,000	0,036	0,123
-253,336	800,000	0,015	0,036
-252,322	800,000	-0,024	0,053
-251,307	287,511	-0,060	0,079
-250,292	-24,995	-0,027	0,011
-249,278	44,232	-0,093	0,061
-248,263	-32,984	-0,103	0,041
-247,249	-114,023	0,072	-0,010
-246,234	-96,824	-0,076	-0,014
-245,219	82,228	0,038	0,029
-244,205	-135,056	0,046	-0,004
-243,190	680,212	-0,037	0,070
-242,176	-200,000	0,000	0,104
-241,161	66,805	0,146	-0,108
-240,146	218,702	-0,057	0,066
-239,132	-41,864	-0,079	0,029
-238,117	158,071	-0,033	0,033
-237,103	42,174	-0,074	-0,049
-236,088	8,494	0,068	-0,037
-235,073	800,000	-0,042	0,100
-234,059	41,388	0,175	0,115
-233,044	124,295	-0,058	-0,053
-232,030	86,344	-0,009	-0,007
-231,015	114,731	-0,065	0,057
-230,000	-181,658	-0,181	-0,002
-228,986	-200,000	-0,010	-0,093
-227,971	302,543	0,035	-0,047
-226,957	-119,455	0,098	0,012
-225,942	153,229	0,083	0,082
-224,927	699,121	0,033	-0,063
-223,913	147,921	-0,006	-0,006
-222,898	-97,933	-0,110	0,020
-221,884	96,666	-0,141	0,117
-220,869	558,000	0,033	0,058
-219,855	585,130	0,104	0,185
-218,840	800,000	-0,027	0,058
-217,825	-183,606	-0,020	0,000
-216,811	-106,675	-0,055	0,009
-215,796	800,000	-0,050	-0,110
-214,782	54,163	0,035	-0,024
-213,767	-200,000	-0,012	-0,043
-212,752	58,608	0,141	0,100
-211,738	261,533	0,047	0,059
-210,723	-200,000	-0,016	0,096
-209,709	-44,915	-0,062	0,022
-208,694	49,129	0,058	-0,039
-207,679	-187,536	0,171	-0,002
-206,665	37,742	-0,139	0,089
-205,650	99,394	0,196	0,164
-204,636	-200,000	-0,015	0,121
-203,621	-200,000	-0,009	0,104
-202,606	526,185	0,088	-0,151
-201,592	320,353	-0,089	-0,123
-200,577	800,000	0,025	-0,063
-199,563	649,516	0,020	0,037
-198,548	800,000	0,067	0,140
-197,533	27,704	-0,053	0,032
-196,519	652,797	-0,022	0,041
-195,504	-200,000	-0,034	0,190
-194,490	184,200	-0,032	-0,035
-193,475	-19,589	-0,071	0,031
-192,460	776,899	0,044	0,088
-191,446	58,072	-0,114	-0,080
-190,431	71,823	0,052	-0,039
-189,417	3,452	-0,131	0,069
-188,402	577,756	-0,026	-0,047
-187,387	110,561	-0,063	-0,055
-186,373	-200,000	-0,013	-0,144
-185,358	56,785	0,049	-0,034
-184,344	-162,973	0,071	0,002
-183,329	293,552	-0,065	0,086
-182,315	718,167	0,021	-0,040
-181,300	187,789	0,047	0,051
-180,285	-16,311	-0,074	0,034
-179,271	-200,000	-0,023	-0,138
-178,256	13,243	0,101	-0,056
-177,242	-200,000	0,005	0,128
-176,227	-8,579	-0,096	-0,046
-175,212	61,299	0,033	0,024
-174,198	-200,000	-0,016	-0,144
-173,183	-130,674	-0,187	0,018
-172,169	-142,400	-0,073	-0,005
-171,154	-200,000	-0,042	0,172
-170,139	-200,000	-0,017	0,083
-169,125	162,167	-0,046	0,047
-168,110	-200,000	-0,015	0,105
-167,096	-200,000	0,027	0,098
-166,081	437,204	0,043	-0,068
-165,066	800,000	-0,066	-0,198
-164,052	-200,000	-0,004	0,049
-163,037	-135,761	0,140	-0,012
-162,023	800,000	0,029	-0,077
-161,008	-176,083	0,077	0,001
-159,993	800,000	-0,022	0,058
-158,979	800,000	0,018	0,048
-157,964	740,920	-0,025	-0,049
-156,950	219,145	0,089	-0,103
-155,935	117,403	-0,064	-0,057
-154,920	-94,647	0,007	-0,001
-153,906	88,939	0,072	0,058
-152,891	-79,391	0,068	0,017
-151,877	124,290	0,113	-0,102
-150,862	-62,898	-0,085	0,025
-149,847	-200,000	-0,013	0,060
-148,833	800,000	0,024	-0,058
-147,818	-35,589	-0,036	0,014
-146,804	-200,000	-0,018	-0,086
-145,789	-4,196	-0,055	0,027
-144,775	-200,000	-0,006	-0,021
-143,760	-200,000	0,016	-0,096
-142,745	604,989	0,041	0,074
-141,731	631,993	-0,033	-0,061
-140,716	-200,000	0,010	0,099
-139,702	-101,066	0,039	-0,007
-138,687	-200,000	0,053	0,174
-137,672	-23,933	0,063	-0,027
-136,658	19,502	-0,092	0,053
-135,643	244,037	-0,083	0,101
-134,629	359,027	-0,018	-0,026
-133,614	776,070	-0,031	0,061
-132,599	-200,000	-0,006	0,092
-131,585	215,809	-0,029	-0,033
-130,570	84,730	0,016	0,012
-129,556	709,616	-0,011	0,021
-128,541	23,112	-0,047	0,028
-127,526	255,844	0,049	0,061
-126,512	-17,980	-0,027	-0,012
-125,497	800,000	-0,041	0,116
-124,483	17,461	0,117	-0,067
-123,468	-200,000	-0,021	-0,117
-122,453	-200,000	-0,016	-0,091
-121,439	800,000	0,077	-0,201
-120,424	-200,000	-0,003	-0,025
-119,410	-200,000	0,025	-0,088
