DTS Sentinel unit serial number:	SN410029Multiplexer serial number:	ORYXHardware model number:	OX2-SRSoftware version number:	ORYX F/W v4,00 Oryx Data Collector v3.7.2.0data status	okinstallation	B5 Nyhavnadifferential loss correction	single-endedforward channel	channel 2reverse channel	N/Adate	2023/12/13time	18:12:13forward acquisition time	300,00reverse acquisition time	0,00gamma	499,1914k internal	0,3160k external	0,3160temperature offset calibration	1,0000default loss term (dB/km)	0,3820temperature slope calibration	1,0000multiplexer offset coefficient	1,0000multiplexer slope coefficient	1,0000fibre end	0,00T internal ref (°C)	13,01T ext. ref 1 (°C)	-4,26T ext. ref 2 (°C)	-4,33length (m)	temperature (°C)	Stokes	anti-Stokes-744,400	-149,727	0,153	-0,009
-743,385	-98,328	-0,245	-0,046
-742,371	-98,486	0,142	0,026
-741,356	-153,696	-0,351	0,017
-740,342	6,299	0,129	0,071
-739,327	-156,143	-0,220	-0,010
-738,312	800,000	0,048	0,141
-737,298	-153,335	-0,311	-0,016
-736,283	-164,831	0,089	-0,003
-735,269	-137,121	-0,279	0,023
-734,254	-154,232	0,165	-0,008
-733,239	-58,152	-0,442	-0,141
-732,225	122,754	0,214	0,197
-731,210	222,769	0,137	0,163
-730,196	-76,368	-0,059	-0,015
-729,181	375,263	-0,074	-0,111
-728,167	-200,000	-0,002	-0,025
-727,152	-70,142	-0,018	-0,005
-726,137	98,583	0,112	-0,095
-725,123	-200,000	-0,019	-0,086
-724,108	-200,000	-0,003	-0,079
-723,094	-188,495	0,049	-0,000
-722,079	73,689	-0,037	-0,029
-721,064	192,503	-0,106	0,118
-720,050	-200,000	-0,005	0,096
-719,035	800,000	0,054	-0,128
-718,021	800,000	-0,008	-0,020
-717,006	101,897	-0,099	-0,085
-715,991	-118,434	-0,105	0,014
-714,977	-131,664	-0,076	-0,007
-713,962	-87,408	-0,103	-0,023
-712,948	-130,425	-0,127	-0,013
-711,933	-200,000	0,015	0,060
-710,918	3,690	0,063	0,033
-709,904	-45,660	0,103	-0,037
-708,889	800,000	-0,036	0,107
-707,875	-2,501	0,171	-0,088
-706,860	-13,440	0,081	0,038
-705,845	-38,102	-0,072	0,028
-704,831	-200,000	-0,018	0,088
-703,816	157,377	-0,019	-0,019
-702,802	492,435	0,022	0,037
-701,787	-200,000	-0,022	-0,107
-700,772	-200,000	0,005	0,079
-699,758	-200,000	0,018	0,114
-698,743	203,914	0,038	0,043
-697,729	-72,799	0,166	-0,045
-696,714	-200,000	-0,006	-0,066
-695,699	800,000	0,027	0,057
-694,685	-72,396	-0,074	-0,020
-693,670	-200,000	-0,001	-0,114
-692,656	800,000	0,050	-0,112
-691,641	42,096	-0,118	-0,079
-690,627	7,074	0,106	0,058
-689,612	-83,094	0,087	0,020
-688,597	136,721	-0,197	-0,189
-687,583	155,398	-0,095	0,096
-686,568	101,133	-0,096	0,082
-685,554	94,669	0,082	-0,069
-684,539	16,759	-0,092	-0,054
-683,524	-50,874	-0,081	0,028
-682,510	1,741	0,060	-0,032
-681,495	-85,723	-0,090	0,020
-680,481	73,315	-0,081	-0,062
-679,466	491,247	0,056	0,094
-678,451	-200,000	-0,023	-0,091
-677,437	209,435	-0,029	-0,034
-676,422	-51,439	0,041	-0,014
-675,408	74,826	-0,064	-0,050
-674,393	246,685	-0,064	0,079
-673,378	800,000	-0,035	-0,094
-672,364	-34,139	0,089	-0,036
-671,349	97,716	-0,096	-0,081
-670,335	-200,000	0,043	-0,147
-669,320	800,000	-0,022	-0,046
-668,305	-21,949	-0,013	-0,006
-667,291	-200,000	-0,022	-0,130
-666,276	-2,130	-0,080	-0,041
-665,262	-60,506	-0,197	0,061
-664,247	-75,349	-0,090	-0,023
-663,232	-21,411	0,077	0,035
-662,218	-103,188	0,063	-0,011
-661,203	24,527	-0,104	-0,063
-660,189	-116,735	-0,015	-0,002
-659,174	-148,059	-0,017	0,001
-658,159	70,389	-0,065	-0,049
-657,145	-64,308	-0,125	0,037
-656,130	-99,617	0,189	0,035
-655,116	679,986	0,047	-0,091
-654,101	412,332	-0,102	0,160
-653,086	-111,406	-0,073	-0,011
-652,072	-129,000	0,054	-0,006
-651,057	346,941	0,047	-0,068
-650,043	177,910	0,018	0,019
-649,028	800,000	0,033	-0,102
-648,014	-102,122	0,066	0,012
-646,999	-200,000	-0,009	0,090
-645,984	-174,873	-0,112	0,002
-644,970	-200,000	-0,010	-0,038
-643,955	-200,000	-0,011	0,172
-642,941	90,523	-0,085	-0,070
-641,926	202,342	-0,068	0,077
-640,911	-114,588	0,056	-0,008
-639,897	348,320	0,096	0,139
-638,882	-200,000	-0,001	-0,078
-637,868	-200,000	-0,018	-0,125
-636,853	293,686	-0,057	0,077
-635,838	249,680	-0,047	-0,058
-634,824	467,677	0,062	0,102
-633,809	800,000	-0,017	-0,046
-632,795	0,455	0,051	0,026
-631,780	-200,000	-0,012	0,167
-630,765	149,702	-0,097	-0,096
-629,751	-101,177	-0,066	-0,012
-628,736	-128,161	-0,104	0,011
-627,722	-101,034	-0,008	0,002
-626,707	-200,000	-0,011	-0,165
-625,692	24,130	0,053	0,032
-624,678	800,000	-0,041	0,098
-623,663	250,890	-0,039	-0,049
-622,649	35,953	-0,096	0,062
-621,634	9,918	-0,064	0,036
-620,619	151,553	0,032	-0,032
-619,605	800,000	0,070	-0,144
-618,590	-90,078	-0,125	-0,027
-617,576	800,000	0,016	0,051
-616,561	25,961	-0,084	-0,051
-615,546	19,191	-0,013	0,008
-614,532	-15,120	-0,083	0,039
-613,517	40,442	0,101	0,067
-612,503	390,265	-0,020	-0,031
-611,488	800,000	0,024	0,050
-610,474	-107,889	-0,106	-0,017
-609,459	-138,605	0,026	0,002
-608,444	-145,106	0,142	-0,009
-607,430	171,757	-0,102	-0,108
-606,415	-200,000	0,018	-0,093
-605,401	800,000	0,030	-0,069
-604,386	-79,704	0,104	0,025
-603,371	-200,000	-0,011	0,169
-602,357	228,650	-0,072	-0,086
-601,342	-200,000	0,002	0,040
-600,328	800,000	-0,022	-0,056
-599,313	800,000	-0,016	0,039
-598,298	-200,000	0,023	-0,079
-597,284	-12,027	-0,101	-0,048
-596,269	-93,040	0,120	-0,024
-595,255	800,000	0,016	0,041
-594,240	800,000	0,007	0,019
-593,225	-200,000	0,034	-0,140
-592,211	-24,955	-0,074	-0,032
-591,196	-137,147	-0,075	-0,006
-590,182	76,896	-0,058	0,045
-589,167	-19,779	0,017	-0,008
-588,152	800,000	-0,019	0,041
-587,138	-155,671	-0,084	0,004
-586,123	-105,386	-0,157	-0,026
-585,109	-76,576	-0,106	-0,027
-584,094	236,846	0,036	-0,043
-583,079	-99,249	0,136	-0,025
-582,065	800,000	-0,018	0,050
-581,050	-41,256	0,050	-0,019
-580,036	7,390	-0,056	0,031
-579,021	23,041	-0,055	-0,033
-578,006	-147,626	-0,072	0,004
-576,992	800,000	0,010	-0,021
-575,977	-200,000	0,003	-0,050
-574,963	-200,000	-0,010	-0,096
-573,948	800,000	-0,011	-0,027
-572,934	379,729	-0,054	0,082
-571,919	-102,401	0,094	-0,016
-570,904	198,610	-0,043	0,049
-569,890	-48,933	0,053	0,018
-568,875	-200,000	0,025	0,138
-567,861	161,664	0,094	-0,096
-566,846	165,027	-0,088	0,091
-565,831	800,000	-0,057	-0,161
-564,817	-200,000	-0,021	0,081
-563,802	76,296	-0,087	-0,068
-562,788	204,043	-0,047	-0,054
-561,773	-71,795	0,049	-0,013
-560,758	-150,097	0,150	0,008
-559,744	-1,794	0,006	-0,003
-558,729	23,776	-0,055	0,033
-557,715	-139,064	-0,098	-0,008
-556,700	-200,000	-0,010	0,038
-555,685	-200,000	-0,014	0,091
-554,671	-200,000	0,003	0,017
-553,656	-43,474	0,121	0,044
-552,642	128,698	0,089	-0,083
-551,627	800,000	0,057	-0,136
-550,612	-200,000	0,000	0,043
-549,598	-200,000	0,003	-0,069
-548,583	100,186	-0,017	0,015
-547,569	800,000	0,079	-0,204
-546,554	218,018	-0,017	0,019
-545,539	800,000	0,040	0,085
-544,525	-200,000	-0,007	0,025
-543,510	708,317	-0,042	0,082
-542,496	18,547	-0,057	-0,033
-541,481	-200,000	0,042	-0,151
-540,466	431,158	0,130	0,206
-539,452	131,437	0,051	0,048
-538,437	20,259	0,077	-0,046
-537,423	262,800	-0,073	0,093
-536,408	-200,000	0,008	-0,037
-535,393	-35,399	0,099	-0,039
-534,379	-124,477	-0,103	-0,012
-533,364	-200,000	-0,016	-0,214
-532,350	-60,877	0,164	0,050
-531,335	-171,925	-0,016	0,000
-530,321	-200,000	-0,003	0,012
-529,306	-200,000	0,003	0,044
-528,291	800,000	-0,049	-0,147
-527,277	-200,000	0,029	0,110
-526,262	-92,698	0,058	0,012
-525,248	-144,154	-0,118	-0,008
-524,233	-51,582	0,012	0,004
-523,218	-200,000	0,014	0,056
-522,204	312,784	0,034	-0,046
-521,189	-181,289	-0,135	-0,002
-520,175	26,051	-0,102	0,062
-519,160	231,961	0,047	0,057
-518,145	95,672	0,062	0,052
-517,131	622,703	0,083	0,154
-516,116	105,401	0,073	-0,063
-515,102	182,778	-0,029	-0,031
-514,087	292,868	-0,068	-0,090
-513,072	-168,850	-0,099	-0,003
-512,058	-64,904	-0,153	-0,045
-511,043	-72,063	-0,096	-0,026
-510,029	108,269	0,150	0,131
-509,014	38,048	0,121	0,078
-507,999	370,353	-0,051	-0,076
-506,985	800,000	-0,010	-0,027
-505,970	800,000	0,050	-0,141
-504,956	-200,000	0,018	-0,074
-503,941	800,000	-0,010	0,032
-502,926	-69,412	0,160	-0,045
-501,912	255,801	-0,090	0,113
-500,897	-125,397	0,162	-0,018
-499,883	79,753	-0,077	-0,060
-498,868	-200,000	0,017	-0,163
-497,853	237,882	0,115	-0,140
-496,839	800,000	-0,060	0,125
-495,824	-96,402	0,143	0,027
-494,810	240,328	0,054	-0,065
-493,795	-76,933	0,034	0,009
-492,781	-26,615	-0,065	-0,028
-491,766	-200,000	-0,049	-0,191
-490,751	-83,798	-0,048	0,011
-489,737	773,431	-0,026	-0,052
-488,722	-42,902	-0,019	0,007
-487,708	-200,000	-0,031	0,000
-486,693	-114,603	0,032	0,004
-485,678	212,228	-0,040	-0,046
-484,664	1,514	-0,023	-0,012
-483,649	-200,000	0,016	0,063
-482,635	-48,225	-0,107	-0,037
-481,620	214,288	0,094	-0,109
-480,605	-200,000	0,005	-0,152
-479,591	-61,830	0,028	0,008
-478,576	71,755	0,093	-0,070
-477,562	-200,000	0,056	-0,184
-476,547	54,456	-0,081	0,057
-475,532	77,673	0,105	-0,081
-474,518	11,472	0,137	-0,076
-473,503	800,000	-0,030	-0,080
-472,489	33,706	0,045	-0,029
-471,474	-0,187	-0,104	0,054
-470,459	-200,000	-0,007	0,117
-469,445	271,865	-0,045	-0,057
-468,430	-154,568	-0,078	0,004
-467,416	194,458	0,075	-0,083
-466,401	-55,424	0,220	-0,072
-465,386	-200,000	-0,004	-0,087
-464,372	567,920	0,041	0,072
-463,357	-200,000	-0,000	0,056
-462,343	285,403	-0,036	0,047
-461,328	-0,819	0,026	0,013
-460,313	800,000	0,056	0,143
-459,299	229,020	0,112	0,134
-458,284	0,929	-0,106	0,055
-457,270	-132,567	-0,040	-0,004
-456,255	-200,000	-0,031	-0,114
-455,241	473,650	-0,035	-0,057
-454,226	496,334	-0,064	-0,108
-453,211	336,184	0,076	0,108
-452,197	439,694	-0,041	0,065
-451,182	3,006	0,096	0,051
-450,168	66,356	-0,103	0,076
-449,153	83,264	-0,079	-0,063
-448,138	-177,237	-0,120	-0,002
-447,124	-26,254	0,056	-0,024
-446,109	-200,000	-0,039	-0,177
-445,095	-86,066	-0,043	0,009
-444,080	800,000	0,011	0,027
-443,065	-200,000	-0,001	-0,026
-442,051	-35,638	-0,089	-0,035
-441,036	137,344	-0,078	-0,074
-440,022	800,000	-0,018	0,041
-439,007	99,147	-0,114	0,096
-437,992	-13,755	0,080	0,038
-436,978	225,925	-0,050	0,059
-435,963	124,402	-0,089	-0,082
-434,949	179,837	0,008	-0,009
-433,934	-200,000	0,001	-0,074
-432,919	-200,000	0,004	-0,032
-431,905	800,000	0,040	0,096
-430,890	-200,000	0,001	-0,045
-429,876	-200,000	-0,048	0,212
-428,861	54,837	-0,052	-0,036
-427,846	-200,000	0,003	0,088
-426,832	565,050	0,036	-0,063
-425,817	117,260	-0,031	-0,028
-424,803	800,000	-0,041	-0,110
-423,788	339,096	0,052	0,074
-422,773	389,204	0,095	0,144
-421,759	-168,821	0,030	0,001
-420,744	549,425	-0,092	-0,162
-419,730	-200,000	0,002	-0,012
-418,715	653,224	0,038	0,072
-417,701	-200,000	0,018	0,061
-416,686	-200,000	0,005	0,166
-415,671	176,863	0,032	0,034
-414,657	800,000	-0,079	0,232
-413,642	800,000	0,049	-0,117
-412,628	800,000	-0,032	-0,101
-411,613	-27,316	-0,133	-0,056
-410,598	800,000	0,071	-0,154
-409,584	-87,751	-0,072	0,016
-408,569	664,110	0,030	0,056
-407,555	800,000	0,044	0,113
-406,540	-160,819	0,072	-0,003
-405,525	356,360	0,071	0,103
-404,511	52,372	-0,055	-0,038
-403,496	-92,054	-0,093	0,019
-402,482	-114,996	0,054	0,007
-401,467	-200,000	-0,013	0,055
-400,452	800,000	0,050	0,103
-399,438	8,813	0,018	-0,010
-398,423	-110,728	0,051	0,008
-397,409	23,612	-0,123	0,074
-396,394	-13,482	0,086	0,041
-395,379	-200,000	-0,033	-0,157
-394,365	-19,389	0,184	0,082
-393,350	-48,928	-0,079	-0,027
-392,336	128,616	0,022	0,020
-391,321	-63,185	0,050	-0,015
-390,306	-200,000	0,004	-0,085
-389,292	9,070	-0,095	-0,052
-388,277	333,573	-0,039	-0,055
-387,263	-176,146	-0,032	-0,001
-386,248	-127,501	-0,093	0,010
-385,233	-200,000	-0,017	0,079
-384,219	-200,000	-0,003	0,061
-383,204	-200,000	-0,010	-0,080
-382,190	205,564	0,084	-0,095
-381,175	800,000	0,063	-0,146
-380,160	-200,000	0,020	0,077
-379,146	53,391	0,127	-0,088
-378,131	489,806	0,033	0,055
-377,117	289,866	-0,033	0,043
-376,102	242,504	0,034	-0,041
-375,088	58,494	-0,146	0,104
-374,073	45,125	0,048	0,032
-373,058	-142,312	-0,071	-0,005
-372,044	129,949	0,027	-0,025
-371,029	104,446	-0,050	0,042
-370,015	800,000	-0,003	0,008
-369,000	-59,471	0,066	-0,021
-367,985	-165,651	-0,172	-0,005
-366,971	800,000	0,042	-0,085
-365,956	-41,502	0,086	-0,032
-364,942	567,682	-0,008	-0,015
-363,927	800,000	0,057	-0,174
-362,912	-200,000	0,014	0,136
-361,898	-200,000	-0,000	0,031
-360,883	716,451	0,038	-0,074
-359,869	-61,920	0,077	0,023
-358,854	-200,000	-0,028	-0,136
-357,839	800,000	-0,046	0,137
-356,825	110,866	0,139	0,122
-355,810	-200,000	0,009	0,160
-354,796	-200,000	-0,021	0,074
-353,781	800,000	-0,025	0,059
-352,766	492,033	0,056	-0,094
-351,752	12,132	0,055	0,031
-350,737	-142,558	0,135	-0,009
-349,723	310,762	0,018	0,024
-348,708	800,000	0,022	-0,051
-347,693	60,245	0,033	-0,024
-346,679	-56,293	0,024	0,008
-345,664	108,642	-0,056	0,048
-344,650	-200,000	0,031	-0,109
-343,635	187,014	-0,027	-0,030
-342,620	800,000	0,006	0,014
-341,606	364,230	-0,024	0,036
-340,591	800,000	0,039	-0,101
-339,577	79,092	-0,133	-0,103
-338,562	52,783	0,061	-0,042
-337,548	-200,000	-0,001	-0,015
-336,533	169,046	-0,031	-0,032
-335,518	800,000	0,024	0,072
-334,504	-152,795	0,025	-0,001
-333,489	-114,220	-0,065	-0,009
-332,475	386,899	-0,065	-0,098
-331,460	-200,000	-0,027	-0,129
-330,445	78,037	0,061	0,047
-329,431	-137,022	0,162	0,013
-328,416	800,000	-0,075	0,165
-327,402	-200,000	-0,007	0,055
-326,387	139,834	0,083	-0,079
-325,372	614,327	0,026	-0,048
-324,358	-200,000	-0,029	0,163
-323,343	-200,000	-0,011	0,062
-322,329	64,084	-0,082	0,060
-321,314	97,844	-0,042	0,035
-320,299	776,686	0,020	0,039
-319,285	-101,250	-0,050	0,009
-318,270	13,228	0,129	0,072
-317,256	368,350	0,085	-0,125
-316,241	-10,752	-0,180	0,086
-315,226	-99,668	0,065	-0,012
-314,212	457,712	0,059	0,095
-313,197	800,000	0,038	0,080
-312,183	67,885	0,032	-0,024
-311,168	-167,346	-0,075	0,002
-310,153	628,253	-0,012	-0,022
-309,139	-200,000	-0,013	-0,132
-308,124	-114,814	0,114	-0,016
-307,110	350,191	-0,047	0,067
-306,095	18,654	-0,091	0,053
-305,080	9,473	0,058	-0,032
-304,066	-200,000	0,013	-0,046
-303,051	-47,835	0,050	-0,017
-302,037	50,327	-0,080	-0,055
-301,022	-5,356	0,059	-0,029
-300,008	-103,993	0,096	-0,016
-298,993	180,115	0,036	0,038
-297,978	-200,000	0,024	0,079
-296,964	78,936	-0,033	-0,026
-295,949	-47,085	-0,075	-0,026
-294,935	232,374	0,087	-0,103
-293,920	-200,000	0,011	0,050
-292,905	-200,000	-0,004	0,091
-291,891	-200,000	-0,020	0,072
-290,876	-58,962	-0,157	0,049
-289,862	6,786	0,147	0,079
-288,847	-104,569	-0,168	-0,028
-287,832	800,000	0,028	-0,085
-286,818	415,660	0,022	-0,034
-285,803	87,748	0,066	0,053
-284,789	-134,961	0,174	0,015
-283,774	-81,237	-0,076	0,018
-282,759	-200,000	-0,008	-0,164
-281,745	-200,000	-0,002	0,024
-280,730	436,307	-0,063	-0,099
-279,716	-200,000	0,018	0,066
-278,701	800,000	-0,029	-0,080
-277,686	398,741	0,024	0,036
-276,672	209,949	-0,041	-0,047
-275,657	800,000	0,016	-0,040
-274,643	583,562	0,061	-0,109
-273,628	-40,069	-0,053	0,020
-272,613	800,000	0,011	-0,034
-271,599	800,000	-0,016	0,050
-270,584	-200,000	0,001	-0,018
-269,570	-200,000	0,002	0,031
-268,555	763,787	0,027	-0,053
-267,540	40,134	-0,047	0,031
-266,526	-61,106	-0,164	-0,050
-265,511	253,016	0,074	-0,092
-264,497	-200,000	-0,016	0,105
-263,482	800,000	-0,022	0,061
-262,467	-56,338	-0,070	0,022
-261,453	-19,045	-0,062	0,028
-260,438	-83,581	0,056	0,013
-259,424	240,970	-0,013	-0,015
-258,409	-125,875	-0,119	-0,013
-257,395	232,382	-0,063	-0,075
-256,380	-200,000	-0,003	0,199
-255,365	-169,106	-0,166	-0,004
-254,351	22,298	0,062	0,036
-253,336	-93,789	-0,247	0,049
-252,322	-118,102	0,104	-0,013
-251,307	-47,763	-0,038	0,013
-250,292	-99,004	0,072	-0,013
-249,278	-47,631	0,090	0,031
-248,263	-121,435	-0,183	-0,022
-247,249	321,321	-0,022	-0,030
-246,234	-64,373	0,068	-0,020
-245,219	-89,914	0,171	0,036
-244,205	86,255	-0,072	-0,058
-243,190	-200,000	-0,003	-0,013
-242,176	-200,000	0,033	0,121
-241,161	-148,662	-0,019	0,001
-240,146	-91,456	0,056	-0,011
-239,132	-200,000	0,049	0,165
-238,117	421,966	-0,059	0,092
-237,103	283,259	0,032	-0,042
-236,088	39,798	-0,126	0,081
-235,073	649,312	-0,032	-0,059
-234,059	334,911	-0,064	0,090
-233,044	-96,361	0,118	-0,022
-232,030	149,861	-0,032	-0,032
-231,015	388,733	0,031	-0,047
-230,000	116,036	0,029	-0,025
-228,986	-200,000	-0,011	-0,170
-227,971	-200,000	-0,007	-0,037
-226,957	-6,042	0,124	-0,061
-225,942	-33,895	0,077	0,030
-224,927	267,031	-0,070	0,088
-223,913	362,200	0,045	-0,066
-222,898	-129,984	-0,061	0,006
-221,884	-108,441	-0,132	-0,020
-220,869	-78,178	0,184	0,045
-219,855	-200,000	-0,004	0,192
-218,840	87,718	0,100	0,080
-217,825	-200,000	-0,015	-0,067
-216,811	-200,000	0,009	-0,046
-215,796	-200,000	-0,004	-0,039
-214,782	-200,000	-0,001	0,107
-213,767	73,615	0,092	0,069
-212,752	307,753	0,076	-0,103
-211,738	-6,138	-0,093	-0,046
-210,723	-200,000	-0,001	-0,054
-209,709	455,766	-0,097	-0,156
-208,694	486,344	-0,081	0,134
-207,679	-174,027	-0,036	0,001
-206,665	-77,265	-0,144	0,036
-205,650	23,111	0,017	-0,010
-204,636	-200,000	0,033	0,209
-203,621	-175,027	0,083	-0,002
-202,606	800,000	0,046	0,108
-201,592	-131,344	-0,149	-0,014
-200,577	-116,336	0,113	-0,015
-199,563	265,053	0,078	-0,098
-198,548	800,000	0,031	0,074
-197,533	56,977	0,036	-0,025
-196,519	178,232	0,100	0,105
-195,504	135,341	-0,056	0,053
-194,490	60,153	0,111	-0,079
-193,475	800,000	-0,044	-0,108
-192,460	-200,000	-0,021	0,068
-191,446	800,000	-0,026	-0,058
-190,431	414,320	-0,029	-0,044
-189,417	-99,167	0,091	-0,016
-188,402	-200,000	0,007	-0,089
-187,387	-200,000	0,003	-0,011
-186,373	-85,840	-0,199	-0,044
-185,358	-110,458	0,133	0,020
-184,344	-32,439	-0,063	-0,025
-183,329	608,906	0,029	0,052
-182,315	676,052	0,026	-0,049
-181,300	800,000	-0,047	0,129
-180,285	311,141	-0,011	-0,015
-179,271	-54,110	0,190	-0,062
-178,256	-200,000	0,011	-0,051
-177,242	578,051	-0,072	0,128
-176,227	-7,342	0,058	-0,028
-175,212	-200,000	-0,001	0,048
-174,198	323,113	-0,036	0,050
-173,183	-46,572	-0,130	-0,046
-172,169	164,870	-0,032	-0,033
-171,154	2,134	-0,049	-0,025
-170,139	-2,443	-0,015	-0,007
-169,125	351,938	0,016	-0,023
-168,110	-200,000	0,001	0,110
-167,096	800,000	0,015	-0,037
-166,081	65,416	0,128	-0,093
-165,066	584,210	-0,010	0,017
-164,052	187,462	0,042	-0,046
-163,037	-113,674	0,070	0,010
-162,023	263,474	0,074	0,092
-161,008	-31,353	-0,045	0,018
-159,993	25,007	0,181	0,108
-158,979	28,784	-0,180	0,110
-157,964	362,701	-0,080	0,116
-156,950	-81,061	-0,067	0,016
-155,935	64,979	-0,044	-0,032
-154,920	283,167	0,129	0,167
-153,906	31,854	0,091	0,056
-152,891	70,898	0,091	0,068
-151,877	618,838	-0,046	-0,084
-150,862	521,253	-0,069	-0,117
-149,847	-7,195	-0,100	-0,049
-148,833	385,300	0,042	-0,063
-147,818	-69,295	-0,062	0,017
-146,804	-200,000	0,009	0,071
-145,789	219,013	0,102	-0,117
-144,775	54,832	-0,079	-0,055
-143,760	54,898	-0,118	-0,082
-142,745	-8,532	-0,077	-0,037
-141,731	800,000	0,025	-0,068
-140,716	-79,437	-0,052	0,013
-139,702	-125,435	0,178	-0,019
-138,687	-83,595	-0,053	-0,012
-137,672	-77,791	-0,122	0,030
-136,658	-134,769	-0,120	0,010
-135,643	-53,650	-0,020	-0,006
-134,629	-200,000	-0,010	-0,109
-133,614	-36,281	-0,140	0,054
-132,599	100,015	-0,107	-0,089
-131,585	800,000	0,087	-0,182
-130,570	238,401	0,086	-0,103
-129,556	-134,209	-0,212	0,019
-128,541	90,315	-0,035	-0,028
-127,526	-132,606	0,104	-0,009
-126,512	335,239	-0,016	-0,022
-125,497	800,000	0,017	-0,036
-124,483	-200,000	0,013	0,076
-123,468	-200,000	-0,015	0,049
-122,453	23,428	0,056	-0,033
-121,439	12,763	-0,050	0,027
-120,424	42,442	-0,045	0,030
