DTS Sentinel unit serial number:	SN410029Multiplexer serial number:	ORYXHardware model number:	OX2-SRSoftware version number:	ORYX F/W v4,00 Oryx Data Collector v3.7.2.0data status	okinstallation	B5 Nyhavnadifferential loss correction	single-endedforward channel	channel 2reverse channel	N/Adate	2023/12/13time	01:02:13forward acquisition time	300,00reverse acquisition time	0,00gamma	499,1914k internal	0,3159k external	0,3159temperature offset calibration	1,0000default loss term (dB/km)	0,3820temperature slope calibration	1,0000multiplexer offset coefficient	1,0000multiplexer slope coefficient	1,0000fibre end	0,00T internal ref (°C)	14,18T ext. ref 1 (°C)	-2,34T ext. ref 2 (°C)	-2,64length (m)	temperature (°C)	Stokes	anti-Stokes-744,400	-200,000	0,004	-0,020
-743,385	-183,799	-0,179	0,002
-742,371	-121,910	0,207	0,025
-741,356	-132,581	-0,233	0,022
-740,342	-200,000	0,007	0,252
-739,327	-91,445	-0,253	-0,053
-738,312	-69,391	0,048	-0,013
-737,298	-117,033	-0,218	-0,029
-736,283	487,154	0,046	-0,077
-735,269	-104,030	-0,325	0,055
-734,254	-46,578	0,156	0,056
-733,239	-29,297	-0,439	-0,184
-732,225	28,604	0,131	0,081
-731,210	779,957	0,036	0,074
-730,196	29,875	-0,109	0,068
-729,181	124,191	-0,076	-0,070
-728,167	800,000	-0,059	-0,148
-727,152	-94,107	0,044	0,009
-726,137	112,539	-0,076	0,068
-725,123	-100,956	-0,171	-0,031
-724,108	-88,339	-0,085	-0,019
-723,094	-94,388	-0,075	0,015
-722,079	48,841	-0,210	0,145
-721,064	189,231	0,028	0,031
-720,050	-200,000	-0,014	-0,080
-719,035	-44,170	-0,037	-0,014
-718,021	132,552	-0,030	0,028
-717,006	313,962	0,029	-0,041
-715,991	264,866	-0,117	-0,150
-714,977	-156,256	0,028	-0,001
-713,962	154,635	0,110	-0,111
-712,948	187,911	-0,056	0,062
-711,933	-200,000	-0,016	-0,128
-710,918	-86,650	-0,044	-0,010
-709,904	726,128	0,044	0,088
-708,889	190,978	-0,058	-0,064
-707,875	112,735	-0,171	-0,152
-706,860	63,543	0,103	-0,076
-705,845	-200,000	0,123	0,000
-704,831	-147,178	0,048	0,003
-703,816	-52,943	0,043	-0,015
-702,802	65,872	-0,055	-0,041
-701,787	-122,453	-0,057	-0,007
-700,772	533,052	-0,047	0,082
-699,758	-125,058	0,028	-0,003
-698,743	473,866	-0,016	-0,026
-697,729	-200,000	-0,002	0,123
-696,714	-141,619	0,151	-0,011
-695,699	-20,871	-0,149	-0,067
-694,685	89,003	0,040	-0,033
-693,670	-200,000	0,010	-0,037
-692,656	64,562	-0,077	0,057
-691,641	-200,000	0,013	-0,093
-690,627	216,051	0,105	0,123
-689,612	-200,000	-0,006	0,024
-688,597	-200,000	-0,002	-0,022
-687,583	-200,000	-0,003	-0,117
-686,568	-33,964	-0,101	-0,041
-685,554	300,041	0,084	0,114
-684,539	-200,000	-0,043	-0,204
-683,524	161,436	0,096	-0,099
-682,510	642,835	0,023	0,043
-681,495	-200,000	-0,012	0,063
-680,481	-35,629	-0,100	0,040
-679,466	65,786	-0,075	-0,056
-678,451	-200,000	0,011	-0,094
-677,437	-200,000	-0,008	-0,128
-676,422	-200,000	-0,035	0,230
-675,408	129,998	-0,058	-0,055
-674,393	-200,000	-0,001	0,030
-673,378	-27,723	-0,128	0,054
-672,364	-180,547	-0,035	-0,001
-671,349	-24,700	-0,126	0,055
-670,335	97,248	-0,079	-0,067
-669,320	-200,000	-0,002	-0,082
-668,305	278,803	0,031	0,040
-667,291	-28,979	-0,018	0,008
-666,276	800,000	0,025	-0,058
-665,262	136,428	0,066	-0,063
-664,247	624,177	-0,020	-0,038
-663,232	800,000	-0,047	0,098
-662,218	-200,000	0,002	0,019
-661,203	475,882	0,097	-0,162
-660,189	-200,000	-0,013	0,043
-659,174	-174,260	-0,138	-0,003
-658,159	-200,000	0,011	-0,037
-657,145	236,535	0,076	-0,092
-656,130	268,999	0,046	-0,059
-655,116	-92,169	0,038	0,008
-654,101	20,484	-0,036	0,021
-653,086	40,823	-0,082	0,054
-652,072	-200,000	-0,006	-0,152
-651,057	-92,342	-0,070	-0,014
-650,043	114,032	-0,087	-0,078
-649,028	-95,015	-0,116	-0,023
-648,014	800,000	-0,031	-0,070
-646,999	800,000	-0,037	0,118
-645,984	-30,984	-0,121	0,050
-644,970	204,455	0,047	-0,054
-643,955	100,809	0,066	-0,056
-642,941	-142,120	0,065	0,005
-641,926	145,813	0,047	0,046
-640,911	800,000	-0,015	0,033
-639,897	413,736	0,037	0,058
-638,882	-190,110	0,062	-0,000
-637,868	164,411	-0,112	-0,116
-636,853	29,614	-0,123	-0,077
-635,838	215,932	-0,011	-0,013
-634,824	-160,408	-0,057	-0,002
-633,809	-200,000	-0,020	0,190
-632,795	-200,000	-0,006	-0,086
-631,780	-41,666	0,012	0,004
-630,765	7,342	0,089	0,049
-629,751	151,024	0,053	0,053
-628,736	800,000	-0,028	-0,067
-627,722	800,000	-0,024	-0,073
-626,707	-200,000	-0,007	-0,079
-625,692	432,718	0,091	0,146
-624,678	-65,222	-0,096	-0,028
-623,663	-200,000	0,004	0,067
-622,649	-134,474	-0,109	-0,010
-621,634	-132,389	-0,123	0,011
-620,619	52,666	-0,061	-0,042
-619,605	-2,550	0,094	0,048
-618,590	-7,287	-0,027	-0,013
-617,576	50,062	0,075	0,052
-616,561	800,000	0,012	-0,037
-615,546	9,213	-0,163	-0,090
-614,532	800,000	-0,030	0,062
-613,517	130,759	0,126	-0,118
-612,503	-50,830	0,111	-0,038
-611,488	-200,000	0,033	0,161
-610,474	800,000	-0,012	0,029
-609,459	36,238	-0,101	0,065
-608,444	131,806	-0,078	0,074
-607,430	800,000	-0,007	-0,016
-606,415	603,700	0,019	-0,035
-605,401	-173,476	-0,106	0,002
-604,386	-107,365	0,171	0,027
-603,371	-96,604	0,038	-0,007
-602,357	-151,175	-0,055	-0,003
-601,342	329,135	-0,081	-0,114
-600,328	254,768	0,041	-0,051
-599,313	-200,000	-0,002	0,021
-598,298	-139,055	-0,055	-0,004
-597,284	91,649	0,077	0,063
-596,269	800,000	0,047	0,114
-595,255	401,241	-0,019	-0,030
-594,240	220,726	-0,068	0,080
-593,225	-200,000	0,003	0,051
-592,211	96,391	-0,032	-0,027
-591,196	-200,000	0,009	-0,109
-590,182	-200,000	-0,019	-0,143
-589,167	-200,000	-0,016	-0,056
-588,152	800,000	-0,054	0,133
-587,138	-145,676	-0,094	0,006
-586,123	35,808	-0,119	-0,077
-585,109	-200,000	-0,011	-0,083
-584,094	19,186	-0,119	-0,070
-583,079	-90,562	0,215	-0,045
-582,065	-200,000	-0,003	0,077
-581,050	-200,000	-0,003	0,101
-580,036	-71,430	0,061	0,017
-579,021	-103,665	0,198	-0,034
-578,006	-200,000	0,036	0,182
-576,992	74,056	0,046	-0,035
-575,977	800,000	-0,018	0,038
-574,963	-26,265	-0,033	0,014
-573,948	62,869	-0,033	0,024
-572,934	-106,797	-0,032	0,005
-571,919	-94,126	-0,148	0,029
-570,904	-50,334	0,053	0,018
-569,890	-138,116	0,079	0,006
-568,875	800,000	0,025	-0,053
-567,861	-67,017	0,220	0,063
-566,846	-7,469	-0,088	-0,044
-565,831	64,830	-0,049	0,036
-564,817	224,700	-0,072	0,086
-563,802	-18,410	0,054	-0,024
-562,788	-167,723	0,184	0,005
-561,773	-52,767	0,087	-0,029
-560,758	-200,000	-0,017	-0,067
-559,744	97,299	0,067	0,057
-558,729	-5,714	-0,065	0,032
-557,715	-60,031	-0,143	-0,044
-556,700	104,038	-0,055	0,047
-555,685	-160,799	-0,112	0,004
-554,671	-167,527	-0,048	-0,001
-553,656	800,000	-0,034	0,078
-552,642	800,000	0,035	-0,092
-551,627	578,821	0,047	0,084
-550,612	800,000	-0,034	0,104
-549,598	-90,303	0,098	0,021
-548,583	-75,752	-0,140	-0,036
-547,569	-200,000	0,022	0,151
-546,554	-102,163	-0,051	0,009
-545,539	800,000	-0,035	0,109
-544,525	-42,485	0,103	0,038
-543,510	141,086	0,056	-0,055
-542,496	-51,677	-0,050	0,017
-541,481	127,528	0,080	-0,075
-540,466	800,000	0,007	-0,018
-539,452	30,271	0,092	-0,058
-538,437	-134,515	-0,142	0,013
-537,423	-200,000	-0,008	0,050
-536,408	-101,481	0,090	0,016
-535,393	-200,000	0,009	0,046
-534,379	88,654	-0,032	-0,026
-533,364	-48,159	-0,112	0,039
-532,350	399,315	0,026	0,040
-531,335	-15,298	-0,041	-0,019
-530,321	12,641	0,107	0,060
-529,306	-117,978	0,073	0,009
-528,291	-160,018	-0,113	-0,004
-527,277	86,537	-0,146	-0,117
-526,262	32,917	0,071	-0,045
-525,248	248,054	0,098	0,122
-524,233	800,000	0,058	0,167
-523,218	-40,967	0,057	0,021
-522,204	-102,497	-0,114	-0,020
-521,189	379,297	-0,044	0,066
-520,175	-200,000	-0,000	0,020
-519,160	-99,338	-0,063	0,011
-518,145	-39,111	0,087	-0,033
-517,131	17,437	-0,044	0,025
-516,116	-200,000	0,019	0,084
-515,102	-47,846	0,017	0,006
-514,087	372,143	-0,063	-0,094
-513,072	-200,000	-0,003	-0,091
-512,058	-119,121	0,152	-0,019
-511,043	49,552	-0,072	0,049
-510,029	276,681	-0,056	-0,072
-509,014	390,188	-0,022	0,033
-507,999	248,926	0,062	-0,077
-506,985	-27,774	-0,100	-0,042
-505,970	500,349	-0,021	-0,036
-504,956	-1,910	-0,118	-0,060
-503,941	-144,576	0,174	-0,012
-502,926	-45,716	0,067	0,024
-501,912	97,240	-0,068	0,057
-500,897	-200,000	-0,003	0,019
-499,883	715,847	-0,035	0,068
-498,868	-53,022	0,100	-0,034
-497,853	44,534	0,042	-0,028
-496,839	-200,000	-0,038	0,154
-495,824	63,653	0,022	0,016
-494,810	-200,000	0,051	0,261
-493,795	577,980	-0,031	0,055
-492,781	800,000	-0,023	-0,061
-491,766	-200,000	-0,029	-0,139
-490,751	800,000	-0,013	0,029
-489,737	-84,830	0,102	0,023
-488,722	-200,000	0,022	0,081
-487,708	-62,743	0,077	-0,023
-486,693	258,252	-0,035	-0,045
-485,678	42,058	-0,036	-0,024
-484,664	800,000	-0,006	-0,018
-483,649	48,040	-0,022	0,015
-482,635	-31,880	-0,065	0,027
-481,620	-92,647	0,130	0,026
-480,605	685,742	-0,065	0,125
-479,591	-78,595	-0,011	0,003
-478,576	-125,471	-0,118	-0,013
-477,562	800,000	-0,055	-0,165
-476,547	-200,000	-0,045	-0,167
-475,532	800,000	-0,026	0,076
-474,518	-200,000	0,005	0,179
-473,503	78,609	0,068	0,053
-472,489	-200,000	0,064	0,213
-471,474	331,417	0,118	0,166
-470,459	-6,601	-0,066	-0,033
-469,445	800,000	0,020	0,053
-468,430	146,224	-0,072	0,070
-467,416	800,000	0,060	0,173
-466,401	67,727	0,137	-0,102
-465,386	-189,213	0,113	-0,001
-464,372	449,086	0,046	-0,074
-463,357	-124,585	-0,075	0,008
-462,343	76,288	-0,056	-0,043
-461,328	163,239	0,038	-0,039
-460,313	-200,000	0,001	-0,037
-459,299	72,828	0,051	-0,038
-458,284	357,948	0,084	0,122
-457,270	617,250	-0,008	-0,015
-456,255	-200,000	-0,023	-0,124
-455,241	-200,000	-0,020	-0,087
-454,226	143,884	-0,138	-0,134
-453,211	800,000	-0,014	0,033
-452,197	-200,000	0,020	-0,103
-451,182	-36,444	-0,102	-0,040
-450,168	-73,447	0,026	0,007
-449,153	1,127	-0,119	-0,062
-448,138	-200,000	0,004	-0,206
-447,124	185,512	-0,035	-0,038
-446,109	-200,000	0,021	-0,071
-445,095	333,706	0,062	0,087
-444,080	800,000	-0,024	-0,066
-443,065	293,038	0,025	0,034
-442,051	-90,626	-0,107	0,022
-441,036	52,097	0,112	-0,077
-440,022	65,029	0,090	-0,066
-439,007	800,000	-0,037	-0,108
-437,992	-163,595	0,078	-0,003
-436,978	53,421	-0,059	0,041
-435,963	800,000	0,024	0,057
-434,949	25,355	0,022	-0,013
-433,934	-200,000	-0,014	-0,055
-432,919	-64,085	-0,112	0,033
-431,905	67,434	0,030	-0,022
-430,890	800,000	-0,020	0,043
-429,876	-80,146	0,150	0,036
-428,861	497,701	0,058	-0,097
-427,846	538,991	0,027	0,047
-426,832	126,728	-0,077	0,071
-425,817	-200,000	-0,018	-0,078
-424,803	-143,921	0,081	-0,005
-423,788	136,616	0,018	0,017
-422,773	-45,092	-0,061	-0,022
-421,759	31,557	-0,041	-0,026
-420,744	706,807	0,023	0,044
-419,730	-130,549	-0,144	0,014
-418,715	-111,349	-0,143	-0,021
-417,701	-133,064	0,161	-0,015
-416,686	192,958	-0,120	-0,132
-415,671	1,905	0,204	0,107
-414,657	7,646	0,109	-0,059
-413,642	-200,000	-0,011	0,071
-412,628	-200,000	-0,005	-0,114
-411,613	-88,188	0,067	-0,015
-410,598	156,087	-0,050	-0,050
-409,584	-60,696	0,097	-0,030
-408,569	-44,644	0,173	0,063
-407,555	-92,828	0,039	0,008
-406,540	-200,000	-0,009	0,084
-405,525	113,564	-0,113	0,100
-404,511	188,644	0,064	-0,070
-403,496	645,075	0,051	-0,096
-402,482	800,000	-0,072	-0,166
-401,467	-92,062	0,184	-0,038
-400,452	-76,205	-0,196	0,050
-399,438	97,900	-0,026	-0,021
-398,423	61,770	0,050	0,036
-397,409	769,358	0,072	0,143
-396,394	361,456	-0,060	0,088
-395,379	173,423	0,046	0,048
-394,365	-15,077	0,029	0,014
-393,350	156,248	0,089	0,089
-392,336	262,054	-0,057	0,072
-391,321	-45,175	0,036	0,013
-390,306	-69,204	-0,105	0,029
-389,292	-136,902	0,019	-0,002
-388,277	-26,554	-0,038	-0,016
-387,263	170,626	0,108	0,113
-386,248	137,716	-0,030	-0,028
-385,233	800,000	0,035	-0,110
-384,219	120,821	-0,050	-0,045
-383,204	-33,219	-0,066	-0,026
-382,190	26,964	0,130	-0,079
-381,175	-200,000	-0,169	0,000
-380,160	-141,906	0,032	0,002
-379,146	-14,692	0,045	-0,021
-378,131	328,315	0,029	0,040
-377,117	800,000	0,047	-0,131
-376,102	104,571	-0,121	-0,104
-375,088	800,000	0,022	0,057
-374,073	-13,908	0,111	-0,052
-373,058	-165,959	0,083	-0,003
-372,044	-92,608	-0,190	0,038
-371,029	-200,000	-0,001	0,073
-370,015	662,483	0,086	0,161
-369,000	317,572	-0,117	-0,161
-367,985	-200,000	0,000	0,058
-366,971	-170,005	-0,028	0,001
-365,956	-40,336	0,153	-0,058
-364,942	800,000	0,053	0,108
-363,927	72,246	0,073	0,055
-362,912	26,377	0,042	0,026
-361,898	153,115	-0,126	-0,125
-360,883	-61,551	-0,085	-0,026
-359,869	-200,000	0,003	0,040
-358,854	60,643	0,087	-0,062
-357,839	-200,000	-0,058	0,186
-356,825	38,019	0,106	0,068
-355,810	259,491	-0,046	-0,057
-354,796	-200,000	-0,023	-0,103
-353,781	46,642	-0,139	-0,093
-352,766	344,180	0,025	-0,036
-351,752	108,386	-0,027	-0,023
-350,737	64,744	0,033	-0,024
-349,723	255,175	-0,078	0,097
-348,708	412,158	-0,018	0,028
-347,693	85,676	0,020	0,016
-346,679	15,443	-0,074	-0,042
-345,664	-34,563	0,128	0,051
-344,650	-156,920	-0,125	-0,005
-343,635	84,816	0,070	0,056
-342,620	55,267	0,127	-0,089
-341,606	-200,000	-0,008	0,057
-340,591	-200,000	-0,006	-0,023
-339,577	-20,765	0,082	-0,036
-338,562	-89,086	0,058	-0,012
-337,548	800,000	0,031	-0,078
-336,533	205,250	-0,033	-0,037
-335,518	800,000	0,032	0,090
-334,504	49,175	-0,030	0,020
-333,489	512,290	0,045	0,077
-332,475	-161,504	-0,031	-0,001
-331,460	330,372	-0,039	0,055
-330,445	242,873	0,036	-0,044
-329,431	3,916	0,028	-0,015
-328,416	36,330	0,106	0,068
-327,402	-200,000	0,002	0,034
-326,387	-200,000	-0,017	0,090
-325,372	-200,000	0,002	0,059
-324,358	233,196	0,100	-0,119
-323,343	-200,000	-0,002	-0,054
-322,329	193,651	-0,075	-0,082
-321,314	41,001	0,020	0,013
-320,299	-200,000	0,034	-0,118
-319,285	800,000	0,038	-0,106
-318,270	146,723	-0,106	-0,103
-317,256	800,000	-0,015	-0,046
-316,241	55,587	0,169	-0,118
-315,226	39,001	0,090	-0,059
-314,212	-32,439	-0,044	0,018
-313,197	-200,000	0,016	0,112
-312,183	2,354	-0,090	0,047
-311,168	800,000	-0,043	0,115
-310,153	-200,000	0,000	-0,046
-309,139	88,734	0,046	0,037
-308,124	63,822	-0,084	0,061
-307,110	407,964	-0,061	0,093
-306,095	24,006	0,103	0,061
-305,080	101,760	0,081	-0,068
-304,066	-110,588	-0,107	-0,016
-303,051	-200,000	-0,001	-0,013
-302,037	122,930	-0,069	0,063
-301,022	-200,000	0,035	-0,124
-300,008	800,000	0,021	-0,049
-298,993	-33,208	0,126	-0,050
-297,978	-170,887	-0,020	-0,000
-296,964	-126,730	0,082	0,009
-295,949	800,000	-0,063	0,134
-294,935	-200,000	-0,008	-0,094
-293,920	-200,000	0,023	-0,101
-292,905	-143,915	-0,135	-0,009
-291,891	301,383	-0,038	-0,051
-290,876	-68,455	-0,102	0,028
-289,862	347,916	-0,142	0,204
-288,847	-200,000	-0,009	0,030
-287,832	-200,000	-0,032	-0,114
-286,818	-200,000	0,005	-0,051
-285,803	-124,533	0,088	-0,010
-284,789	-30,153	0,101	0,041
-283,774	-200,000	0,004	0,168
-282,759	250,835	0,052	-0,065
-281,745	-27,569	-0,096	-0,040
-280,730	-133,595	-0,127	0,011
-279,716	55,190	-0,037	-0,026
-278,701	36,375	0,127	0,081
-277,686	21,116	0,129	0,076
-276,672	-89,438	-0,028	0,006
-275,657	75,317	-0,023	0,017
-274,643	-200,000	-0,006	0,109
-273,628	-200,000	0,003	-0,062
-272,613	-200,000	-0,001	0,076
-271,599	-37,473	-0,084	0,032
-270,584	15,637	-0,017	-0,009
-269,570	800,000	0,027	0,084
-268,555	-115,805	0,055	0,007
-267,540	-200,000	-0,001	-0,024
-266,526	328,211	-0,023	-0,032
-265,511	-200,000	0,002	-0,041
-264,497	-78,086	0,119	-0,029
-263,482	-55,251	0,242	-0,078
-262,467	-200,000	0,011	-0,055
-261,453	-86,826	-0,148	0,032
-260,438	349,661	0,103	0,148
-259,424	-200,000	-0,007	0,064
-258,409	-11,393	0,072	-0,034
-257,395	69,615	-0,084	0,062
-256,380	-143,720	0,122	0,008
-255,365	649,637	0,042	-0,079
-254,351	186,048	0,092	0,099
-253,336	29,928	0,045	0,028
-252,322	-102,826	-0,087	-0,015
-251,307	14,141	0,129	0,073
-250,292	-26,304	-0,057	-0,024
-249,278	-82,288	-0,090	-0,021
-248,263	37,742	0,040	0,026
-247,249	149,225	0,036	0,035
-246,234	-128,843	-0,128	0,013
-245,219	214,873	-0,100	0,115
-244,205	3,645	0,058	-0,031
-243,190	191,175	-0,055	-0,060
-242,176	800,000	-0,022	0,060
-241,161	289,898	-0,062	0,082
-240,146	-200,000	0,031	0,106
-239,132	-200,000	0,001	-0,068
-238,117	-13,303	-0,050	-0,023
-237,103	-200,000	-0,011	-0,118
-236,088	-200,000	-0,008	0,036
-235,073	-11,741	0,142	0,067
-234,059	191,140	0,036	0,039
-233,044	75,913	0,099	0,076
-232,030	800,000	-0,022	0,066
-231,015	-19,998	0,106	0,047
-230,000	-134,319	-0,123	-0,011
-228,986	-184,717	-0,033	0,000
-227,971	-200,000	0,059	0,000
-226,957	-200,000	0,008	-0,035
-225,942	348,501	-0,049	-0,070
-224,927	-200,000	-0,002	-0,073
-223,913	373,974	0,122	-0,180
-222,898	800,000	-0,017	-0,045
-221,884	212,906	-0,076	-0,087
-220,869	58,988	0,085	-0,060
-219,855	42,067	-0,117	-0,077
-218,840	128,899	0,052	0,048
-217,825	325,547	-0,028	0,039
-216,811	15,754	-0,051	-0,029
-215,796	65,329	0,017	-0,012
-214,782	143,908	-0,093	-0,089
-213,767	-200,000	-0,016	-0,095
-212,752	-91,092	-0,077	-0,016
-211,738	54,318	-0,015	-0,010
-210,723	444,276	-0,031	-0,050
-209,709	800,000	-0,082	-0,196
-208,694	-112,505	-0,207	0,029
-207,679	237,416	-0,033	-0,039
-206,665	323,630	-0,061	0,084
-205,650	-200,000	-0,014	0,113
-204,636	-200,000	-0,030	-0,111
-203,621	131,173	-0,033	-0,030
-202,606	-200,000	-0,003	0,109
-201,592	-164,605	0,040	-0,001
-200,577	-200,000	-0,016	-0,130
-199,563	-28,878	-0,091	0,037
-198,548	242,335	-0,057	0,069
-197,533	-2,788	0,072	0,036
-196,519	-148,411	0,081	-0,005
-195,504	-85,844	0,037	0,008
-194,490	90,678	0,139	-0,112
-193,475	800,000	0,031	-0,091
-192,460	34,172	0,056	0,035
-191,446	292,165	0,017	-0,022
-190,431	-200,000	-0,024	-0,113
-189,417	90,700	0,096	0,078
-188,402	-184,127	-0,014	0,000
-187,387	-39,049	-0,089	-0,034
-186,373	-54,382	-0,035	0,011
-185,358	759,150	-0,023	0,044
-184,344	775,701	0,052	0,102
-183,329	624,645	0,047	0,086
-182,315	-63,809	-0,030	0,009
-181,300	800,000	0,012	-0,028
-180,285	252,958	-0,095	-0,117
-179,271	-33,079	-0,170	0,068
-178,256	-3,934	0,082	0,041
-177,242	55,562	0,034	0,024
-176,227	800,000	0,042	0,099
-175,212	-200,000	0,010	-0,074
-174,198	-200,000	-0,002	0,063
-173,183	800,000	-0,002	-0,005
-172,169	-150,888	0,110	-0,006
-171,154	-200,000	-0,002	-0,059
-170,139	501,974	-0,038	-0,063
-169,125	-200,000	0,025	-0,121
-168,110	-200,000	0,001	-0,009
-167,096	-1,090	-0,114	-0,058
-166,081	-200,000	-0,021	-0,191
-165,066	-200,000	-0,031	-0,126
-164,052	800,000	0,052	-0,140
-163,037	-12,857	-0,049	-0,023
-162,023	-200,000	-0,004	0,059
-161,008	41,935	-0,027	-0,017
-159,993	-115,245	0,016	0,002
-158,979	118,930	-0,106	-0,095
-157,964	390,718	-0,019	-0,029
-156,950	82,071	-0,026	-0,020
-155,935	793,630	0,046	0,091
-154,920	283,580	-0,043	0,056
-153,906	800,000	-0,045	-0,117
-152,891	800,000	0,040	0,113
-151,877	-156,095	-0,141	-0,006
-150,862	-121,591	-0,183	-0,022
-149,847	-200,000	0,019	-0,147
-148,833	-170,549	0,030	-0,001
-147,818	171,315	0,086	-0,089
-146,804	-3,439	-0,126	-0,063
-145,789	-200,000	-0,025	-0,091
-144,775	-36,225	-0,061	-0,024
-143,760	-135,611	0,171	-0,014
-142,745	-200,000	-0,014	0,146
-141,731	800,000	-0,051	0,135
-140,716	800,000	0,045	0,091
-139,702	55,145	0,080	0,056
-138,687	536,743	0,045	0,078
-137,672	95,727	0,032	0,026
-136,658	800,000	-0,026	0,076
-135,643	-200,000	-0,021	-0,103
-134,629	-200,000	-0,015	-0,102
-133,614	-104,397	-0,107	-0,018
-132,599	800,000	0,028	-0,064
-131,585	-200,000	0,010	0,055
-130,570	186,458	0,080	0,085
-129,556	107,942	0,102	0,088
-128,541	-200,000	-0,007	-0,124
-127,526	407,238	-0,038	-0,058
-126,512	-15,919	0,103	-0,047
-125,497	182,364	0,026	0,028
-124,483	89,409	0,047	0,038
-123,468	-200,000	-0,005	-0,029
-122,453	300,963	-0,043	-0,058
-121,439	-200,000	0,003	0,037
-120,424	-6,795	0,079	-0,038
