DTS Sentinel unit serial number:	SN410029Multiplexer serial number:	ORYXHardware model number:	OX2-SRSoftware version number:	ORYX F/W v4,00 Oryx Data Collector v3.7.2.0data status	okinstallation	B5 Nyhavnadifferential loss correction	single-endedforward channel	channel 2reverse channel	N/Adate	2023/12/13time	15:32:13forward acquisition time	300,00reverse acquisition time	0,00gamma	499,1914k internal	0,3160k external	0,3160temperature offset calibration	1,0000default loss term (dB/km)	0,3820temperature slope calibration	1,0000multiplexer offset coefficient	1,0000multiplexer slope coefficient	1,0000fibre end	0,00T internal ref (°C)	14,97T ext. ref 1 (°C)	-1,42T ext. ref 2 (°C)	-1,74length (m)	temperature (°C)	Stokes	anti-Stokes-744,400	-38,757	0,077	0,030
-743,385	33,233	-0,231	0,147
-742,371	-63,523	0,211	-0,063
-741,356	-114,469	-0,189	0,026
-740,342	-105,684	0,117	-0,019
-739,327	-125,359	-0,303	-0,034
-738,312	-107,903	0,048	0,008
-737,298	-48,405	-0,307	0,108
-736,283	-147,680	0,081	-0,005
-735,269	-100,989	-0,374	0,067
-734,254	180,585	0,101	0,110
-733,239	-123,952	-0,411	-0,047
-732,225	24,691	0,127	0,077
-731,210	800,000	-0,033	-0,082
-730,196	-23,852	0,039	-0,017
-729,181	-200,000	0,017	-0,102
-728,167	84,488	0,111	-0,089
-727,152	-184,159	-0,079	-0,001
-726,137	-173,669	-0,041	0,001
-725,123	-200,000	-0,008	0,057
-724,108	-11,361	-0,049	-0,024
-723,094	-200,000	0,007	-0,039
-722,079	732,382	-0,004	0,009
-721,064	221,439	-0,020	-0,024
-720,050	39,926	0,014	-0,009
-719,035	48,501	0,043	-0,030
-718,021	-73,667	0,015	0,004
-717,006	120,813	0,019	-0,017
-715,991	40,165	-0,092	-0,061
-714,977	520,799	-0,071	-0,123
-713,962	-200,000	0,034	0,128
-712,948	-103,362	0,088	-0,015
-711,933	-27,252	0,167	-0,071
-710,918	-159,909	-0,024	-0,001
-709,904	-200,000	-0,001	0,023
-708,889	412,513	-0,035	0,054
-707,875	-66,370	0,073	0,021
-706,860	-82,787	0,164	0,039
-705,845	69,450	0,054	0,041
-704,831	-200,000	-0,024	-0,123
-703,816	114,903	0,068	0,061
-702,802	63,158	-0,024	-0,018
-701,787	-200,000	-0,109	0,000
-700,772	489,222	0,067	-0,114
-699,758	-169,820	-0,055	0,001
-698,743	-165,061	0,065	0,002
-697,729	121,365	-0,013	0,012
-696,714	-12,140	0,132	0,063
-695,699	24,087	0,134	-0,081
-694,685	-146,434	-0,041	-0,003
-693,670	-200,000	-0,027	-0,126
-692,656	-200,000	-0,003	0,069
-691,641	-71,899	0,085	-0,023
-690,627	301,093	-0,038	-0,052
-689,612	-42,916	-0,132	0,049
-688,597	156,376	-0,135	-0,137
-687,583	164,823	-0,050	-0,052
-686,568	-200,000	-0,024	-0,109
-685,554	325,154	-0,015	-0,021
-684,539	157,300	-0,075	-0,076
-683,524	53,186	0,061	0,043
-682,510	-50,461	-0,097	0,034
-681,495	323,059	-0,040	0,056
-680,481	-187,394	-0,165	-0,002
-679,466	-65,658	-0,045	-0,013
-678,451	-28,606	0,012	-0,005
-677,437	-200,000	0,013	-0,066
-676,422	800,000	-0,033	0,070
-675,408	67,496	0,124	0,093
-674,393	-77,150	-0,036	-0,009
-673,378	-120,040	0,103	-0,013
-672,364	163,770	-0,094	-0,097
-671,349	63,777	0,090	-0,067
-670,335	-5,174	0,016	0,008
-669,320	399,349	0,117	0,181
-668,305	208,173	-0,065	0,075
-667,291	-100,733	0,079	0,014
-666,276	800,000	-0,013	0,028
-665,262	-200,000	-0,002	-0,018
-664,247	-36,183	0,053	-0,021
-663,232	800,000	0,005	-0,015
-662,218	103,610	0,080	0,069
-661,203	800,000	-0,043	-0,116
-660,189	60,328	-0,061	0,045
-659,174	-27,484	-0,184	-0,078
-658,159	800,000	-0,061	-0,151
-657,145	-141,837	-0,028	-0,002
-656,130	43,525	0,063	-0,042
-655,116	-24,436	0,095	-0,041
-654,101	-200,000	-0,022	0,083
-653,086	-200,000	-0,021	-0,170
-652,072	39,658	-0,079	-0,052
-651,057	-200,000	0,014	-0,093
-650,043	-87,116	-0,072	0,016
-649,028	-63,460	0,105	-0,031
-648,014	-32,708	0,042	-0,017
-646,999	800,000	-0,059	0,143
-645,984	-120,833	0,174	0,021
-644,970	-198,304	0,059	0,000
-643,955	-37,872	-0,112	0,043
-642,941	-90,603	-0,155	0,033
-641,926	-151,015	0,028	0,002
-640,911	-77,828	0,054	-0,014
-639,897	800,000	0,013	-0,041
-638,882	492,333	0,063	-0,106
-637,868	-37,642	-0,093	0,036
-636,853	-66,366	-0,100	-0,029
-635,838	-55,907	-0,062	0,020
-634,824	-83,089	-0,096	0,023
-633,809	446,184	0,123	-0,199
-632,795	516,256	0,052	0,089
-631,780	-92,427	-0,071	0,014
-630,765	800,000	-0,018	-0,052
-629,751	-200,000	-0,018	-0,097
-628,736	-51,201	0,097	-0,033
-627,722	161,925	0,065	0,066
-626,707	121,004	-0,056	-0,051
-625,692	580,835	0,046	-0,082
-624,678	-38,544	0,066	-0,026
-623,663	-150,194	-0,071	-0,004
-622,649	311,717	-0,022	-0,031
-621,634	-24,716	-0,061	-0,026
-620,619	-200,000	0,009	-0,068
-619,605	-200,000	-0,008	-0,066
-618,590	120,069	0,019	-0,018
-617,576	236,735	0,053	0,064
-616,561	-49,830	0,134	0,046
-615,546	-200,000	-0,034	-0,193
-614,532	-200,000	-0,006	-0,072
-613,517	800,000	-0,044	-0,131
-612,503	-200,000	0,003	-0,092
-611,488	-111,166	0,078	-0,012
-610,474	-22,757	-0,020	0,009
-609,459	800,000	-0,040	0,125
-608,444	-200,000	-0,014	0,083
-607,430	800,000	-0,012	-0,031
-606,415	-15,740	0,047	0,022
-605,401	430,333	-0,011	-0,017
-604,386	72,183	-0,054	0,041
-603,371	145,299	-0,099	0,098
-602,357	-200,000	-0,008	0,052
-601,342	800,000	0,042	-0,101
-600,328	-200,000	-0,005	0,024
-599,313	-77,718	-0,189	-0,048
-598,298	414,317	-0,049	0,076
-597,284	-200,000	-0,011	0,065
-596,269	-127,711	-0,028	-0,003
-595,255	-85,236	-0,049	-0,011
-594,240	-92,735	-0,073	0,015
-593,225	40,609	0,024	0,016
-592,211	-135,849	0,136	-0,012
-591,196	269,557	-0,056	0,072
-590,182	800,000	0,041	0,116
-589,167	346,534	-0,040	0,058
-588,152	-200,000	0,000	0,122
-587,138	739,030	-0,052	-0,102
-586,123	-200,000	0,053	-0,181
-585,109	54,768	-0,123	-0,087
-584,094	-200,000	0,029	0,119
-583,079	-112,644	0,135	0,019
-582,065	406,678	-0,114	0,178
-581,050	91,050	0,135	0,111
-580,036	-65,936	-0,042	-0,012
-579,021	170,411	0,045	-0,047
-578,006	97,444	-0,080	-0,067
-576,992	702,390	0,025	-0,048
-575,977	-200,000	-0,030	-0,139
-574,963	-40,924	0,083	0,031
-573,948	742,786	-0,051	0,101
-572,934	449,261	0,088	0,143
-571,919	-74,120	-0,068	-0,018
-570,904	44,922	0,019	-0,013
-569,890	-200,000	-0,013	-0,048
-568,875	124,843	-0,033	-0,030
-567,861	-200,000	0,020	0,071
-566,846	332,031	0,038	-0,054
-565,831	107,071	-0,088	0,077
-564,817	98,139	-0,058	0,049
-563,802	800,000	0,049	-0,145
-562,788	-55,957	-0,061	-0,020
-561,773	431,989	0,087	0,139
-560,758	800,000	-0,021	0,054
-559,744	94,373	-0,139	0,115
-558,729	299,800	0,094	0,127
-557,715	195,404	-0,018	0,020
-556,700	-200,000	-0,005	-0,022
-555,685	448,931	-0,053	-0,086
-554,671	44,446	-0,100	0,067
-553,656	800,000	0,059	0,123
-552,642	-60,053	0,178	-0,055
-551,627	-0,062	0,115	0,060
-550,612	107,082	-0,061	-0,053
-549,598	-200,000	0,024	-0,115
-548,583	220,181	-0,078	-0,091
-547,569	-83,467	-0,110	0,026
-546,554	-200,000	-0,039	-0,130
-545,539	574,135	0,041	0,073
-544,525	-10,393	0,110	0,053
-543,510	-200,000	-0,023	-0,081
-542,496	-38,540	-0,161	-0,062
-541,481	456,774	-0,016	-0,026
-540,466	216,230	0,056	-0,065
-539,452	-200,000	0,026	-0,093
-538,437	194,409	0,144	-0,160
-537,423	336,577	0,072	0,102
-536,408	259,338	0,035	0,044
-535,393	-157,333	-0,050	0,002
-534,379	800,000	-0,009	0,021
-533,364	283,094	0,034	0,044
-532,350	-200,000	-0,022	0,110
-531,335	102,031	-0,049	-0,042
-530,321	800,000	0,014	0,043
-529,306	630,279	0,020	-0,038
-528,291	-18,272	-0,052	-0,024
-527,277	-85,367	0,071	0,016
-526,262	312,362	0,029	-0,040
-525,248	-156,157	0,209	-0,009
-524,233	-200,000	-0,002	0,046
-523,218	414,526	0,040	-0,062
-522,204	1,630	0,060	0,032
-521,189	-28,394	-0,088	0,037
-520,175	659,892	-0,027	-0,052
-519,160	297,169	0,036	-0,048
-518,145	-57,665	0,163	0,052
-517,131	-200,000	0,024	-0,112
-516,116	-13,646	0,145	0,068
-515,102	63,840	0,019	-0,014
-514,087	30,952	-0,051	0,032
-513,072	-41,996	-0,071	-0,026
-512,058	11,974	0,089	0,050
-511,043	-95,196	0,064	0,012
-510,029	51,135	-0,117	0,081
-509,014	-133,934	0,141	-0,013
-507,999	76,563	0,113	0,087
-506,985	-200,000	-0,013	-0,094
-505,970	-58,950	0,154	-0,048
-504,956	-45,851	-0,102	-0,037
-503,941	114,145	0,037	-0,033
-502,926	-57,191	0,215	0,069
-501,912	-200,000	-0,042	0,000
-500,897	-13,997	0,031	0,014
-499,883	-68,614	-0,101	-0,028
-498,868	-200,000	-0,007	-0,148
-497,853	460,453	0,013	-0,021
-496,839	800,000	0,030	0,096
-495,824	-200,000	0,019	-0,117
-494,810	-4,176	-0,068	-0,034
-493,795	244,812	-0,061	-0,074
-492,781	164,476	0,058	-0,060
-491,766	61,443	0,029	-0,021
-490,751	28,502	-0,102	-0,063
-489,737	475,088	-0,008	-0,014
-488,722	279,279	-0,067	-0,087
-487,708	800,000	-0,045	0,121
-486,693	79,640	-0,131	0,102
-485,678	-200,000	-0,029	-0,116
-484,664	344,356	0,027	-0,038
-483,649	-200,000	-0,010	0,034
-482,635	354,773	0,073	0,107
-481,620	191,887	0,010	-0,011
-480,605	-200,000	0,022	0,101
-479,591	800,000	-0,020	0,063
-478,576	-73,345	-0,127	-0,034
-477,562	-122,120	0,077	0,009
-476,547	-200,000	-0,037	-0,126
-475,532	125,145	0,038	0,035
-474,518	72,021	0,069	0,052
-473,503	177,693	0,088	0,093
-472,489	-98,971	-0,108	0,020
-471,474	54,036	0,051	-0,036
-470,459	44,084	-0,043	0,029
-469,445	450,482	0,022	-0,035
-468,430	71,550	0,031	-0,024
-467,416	23,503	0,079	-0,047
-466,401	17,489	0,072	0,042
-465,386	-16,398	0,049	0,023
-464,372	-200,000	-0,022	0,075
-463,357	800,000	0,007	-0,020
-462,343	-47,576	-0,045	-0,016
-461,328	31,234	-0,076	0,048
-460,313	60,359	-0,090	-0,065
-459,299	-200,000	0,008	0,112
-458,284	35,917	0,076	-0,048
-457,270	104,248	-0,077	-0,066
-456,255	800,000	-0,034	-0,073
-455,241	130,610	-0,036	0,034
-454,226	-200,000	0,011	-0,069
-453,211	245,908	0,050	0,062
-452,197	-135,434	0,180	0,015
-451,182	323,790	-0,023	-0,032
-450,168	10,775	0,055	-0,031
-449,153	65,920	-0,142	-0,105
-448,138	-155,859	0,012	0,001
-447,124	76,215	-0,069	-0,054
-446,109	-22,490	-0,127	0,056
-445,095	412,551	0,110	0,171
-444,080	43,384	0,046	0,030
-443,065	-182,620	0,094	0,001
-442,051	416,938	0,038	-0,059
-441,036	505,159	-0,013	-0,023
-440,022	-4,845	-0,166	-0,083
-439,007	13,434	-0,011	0,006
-437,992	288,208	-0,124	0,163
-436,978	-200,000	0,042	0,142
-435,963	269,280	0,085	0,109
-434,949	184,611	-0,154	-0,166
-433,934	800,000	0,021	-0,049
-432,919	36,212	0,057	0,037
-431,905	-177,373	0,082	0,001
-430,890	-136,166	0,082	-0,007
-429,876	96,001	0,067	-0,055
-428,861	5,597	-0,057	0,031
-427,846	17,802	0,014	0,008
-426,832	212,537	-0,033	-0,038
-425,817	-200,000	0,021	-0,131
-424,803	-161,539	-0,157	0,006
-423,788	2,706	-0,061	0,032
-422,773	95,873	-0,090	-0,074
-421,759	247,435	-0,067	0,082
-420,744	-114,211	-0,222	0,031
-419,730	741,525	-0,016	-0,031
-418,715	-177,454	0,122	-0,002
-417,701	-47,374	0,063	0,022
-416,686	7,664	0,111	-0,060
-415,671	598,692	0,080	0,145
-414,657	800,000	0,041	0,085
-413,642	800,000	-0,017	0,053
-412,628	-200,000	0,030	-0,119
-411,613	299,465	-0,049	-0,066
-410,598	-45,803	-0,122	0,044
-409,584	92,931	0,053	-0,044
-408,569	-80,025	0,084	0,020
-407,555	-133,380	0,204	-0,018
-406,540	-200,000	-0,033	0,121
-405,525	147,808	-0,030	-0,029
-404,511	194,442	0,042	-0,046
-403,496	-129,256	-0,153	-0,015
-402,482	243,841	0,074	0,091
-401,467	-200,000	0,014	0,064
-400,452	518,380	-0,035	-0,060
-399,438	-63,209	0,048	-0,014
-398,423	800,000	-0,023	-0,057
-397,409	104,183	-0,169	-0,144
-396,394	-200,000	0,012	-0,077
-395,379	-158,801	-0,055	-0,002
-394,365	-118,677	0,072	-0,009
-393,350	178,934	0,102	0,109
-392,336	591,815	-0,040	0,071
-391,321	50,658	0,105	-0,072
-390,306	-200,000	-0,016	0,068
-389,292	302,256	-0,054	-0,073
-388,277	-58,363	0,077	0,024
-387,263	-200,000	0,002	0,115
-386,248	775,674	0,058	0,115
-385,233	-200,000	0,005	0,016
-384,219	198,891	0,071	-0,079
-383,204	-200,000	0,035	-0,195
-382,190	800,000	0,015	0,040
-381,175	-200,000	-0,002	-0,208
-380,160	172,321	0,078	-0,082
-379,146	-8,534	-0,076	-0,037
-378,131	-200,000	-0,006	0,045
-377,117	800,000	-0,015	-0,035
-376,102	177,037	-0,142	-0,150
-375,088	43,895	-0,053	-0,035
-374,073	238,794	-0,102	-0,123
-373,058	4,721	0,059	-0,031
-372,044	-79,799	-0,012	0,003
-371,029	-127,535	0,112	-0,012
-370,015	-77,015	0,095	-0,024
-369,000	-36,512	-0,182	-0,071
-367,985	-200,000	0,003	-0,047
-366,971	224,615	0,078	-0,092
-365,956	390,645	0,029	-0,044
-364,942	800,000	0,038	0,084
-363,927	800,000	-0,028	0,061
-362,912	-200,000	0,012	0,048
-361,898	-200,000	-0,008	0,065
-360,883	-114,241	-0,037	0,005
-359,869	146,980	0,043	0,042
-358,854	-22,064	0,147	0,064
-357,839	57,182	-0,067	0,047
-356,825	607,203	-0,054	0,099
-355,810	-200,000	-0,039	0,138
-354,796	490,356	-0,041	0,068
-353,781	-161,290	-0,129	0,005
-352,766	404,612	-0,018	-0,028
-351,752	644,613	-0,037	0,068
-350,737	-200,000	-0,027	0,203
-349,723	-200,000	-0,027	0,097
-348,708	-200,000	-0,003	-0,011
-347,693	-174,110	-0,082	-0,002
-346,679	566,575	-0,026	-0,045
-345,664	157,372	-0,078	-0,078
-344,650	-34,257	-0,089	-0,035
-343,635	-200,000	-0,017	0,098
-342,620	111,819	0,138	0,121
-341,606	-85,914	0,044	0,010
-340,591	116,096	-0,086	-0,077
-339,577	-2,111	-0,127	-0,065
-338,562	-200,000	0,004	-0,041
-337,548	136,151	-0,056	0,053
-336,533	-200,000	-0,007	0,038
-335,518	-200,000	0,013	0,086
-334,504	-61,836	-0,113	-0,034
-333,489	159,057	0,060	0,061
-332,475	80,676	-0,087	-0,068
-331,460	800,000	0,063	-0,128
-330,445	800,000	-0,035	-0,072
-329,431	-24,765	0,173	0,074
-328,416	-101,164	0,125	-0,022
-327,402	-67,204	0,146	0,041
-326,387	-200,000	0,010	-0,089
-325,372	123,730	0,072	-0,065
-324,358	-33,508	0,025	0,010
-323,343	16,305	-0,088	0,050
-322,329	24,422	0,050	-0,030
-321,314	800,000	-0,009	0,018
-320,299	-200,000	0,012	0,116
-319,285	800,000	-0,051	0,115
-318,270	-200,000	-0,012	0,088
-317,256	-200,000	0,039	-0,162
-316,241	261,936	0,036	0,045
-315,226	-28,766	0,098	-0,041
-314,212	-46,668	-0,098	-0,034
-313,197	-159,376	0,156	0,006
-312,183	-200,000	0,013	-0,072
-311,168	-60,398	-0,126	-0,039
-310,153	-42,162	-0,171	0,063
-309,139	-162,472	-0,156	-0,005
-308,124	-200,000	-0,032	-0,119
-307,110	-104,686	0,022	0,004
-306,095	414,029	0,060	0,093
-305,080	-200,000	0,012	-0,055
-304,066	-56,664	-0,094	0,030
-303,051	800,000	0,025	-0,068
-302,037	-200,000	-0,025	-0,097
-301,022	800,000	0,031	-0,062
-300,008	456,140	0,088	0,142
-298,993	-200,000	-0,004	0,156
-297,978	41,124	-0,017	0,011
-296,964	706,301	-0,036	0,069
-295,949	-84,642	0,122	-0,028
-294,935	800,000	-0,025	-0,075
-293,920	800,000	0,036	0,097
-292,905	-76,942	-0,144	-0,036
-291,891	-105,607	0,083	0,013
-290,876	-200,000	0,004	0,032
-289,862	267,031	0,084	-0,107
-288,847	408,319	0,021	-0,032
-287,832	-200,000	0,016	-0,187
-286,818	-200,000	0,006	0,139
-285,803	-200,000	0,051	0,171
-284,789	-57,148	0,095	0,030
-283,774	800,000	0,055	0,135
-282,759	-200,000	0,007	0,106
-281,745	517,119	-0,043	0,074
-280,730	800,000	-0,032	-0,082
-279,716	-85,219	-0,167	-0,037
-278,701	167,732	0,127	0,131
-277,686	800,000	0,023	0,052
-276,672	-200,000	0,029	0,127
-275,657	800,000	-0,040	-0,112
-274,643	-43,285	-0,167	0,061
-273,628	89,644	0,052	-0,042
-272,613	47,393	0,068	0,046
-271,599	-36,587	-0,123	-0,047
-270,584	-67,124	-0,041	-0,012
-269,570	800,000	0,046	0,096
-268,555	412,345	0,047	-0,072
-267,540	-32,368	-0,068	0,027
-266,526	800,000	0,023	0,071
-265,511	-37,341	-0,132	-0,051
-264,497	-200,000	0,012	-0,049
-263,482	-95,689	-0,052	-0,010
-262,467	800,000	0,032	-0,071
-261,453	34,989	-0,076	-0,048
-260,438	35,838	0,046	-0,029
-259,424	800,000	0,038	0,087
-258,409	-200,000	0,004	-0,020
-257,395	736,484	0,053	-0,103
-256,380	-200,000	0,020	0,079
-255,365	800,000	0,020	-0,056
-254,351	198,559	-0,038	-0,043
-253,336	800,000	-0,014	0,037
-252,322	270,752	-0,084	-0,107
-251,307	353,216	0,026	-0,037
-250,292	199,784	0,064	-0,071
-249,278	477,883	-0,046	-0,075
-248,263	-200,000	0,003	0,259
-247,249	-200,000	-0,002	0,104
-246,234	1,781	0,054	0,028
-245,219	156,458	0,067	-0,067
-244,205	-77,255	-0,145	-0,036
-243,190	558,126	-0,036	-0,064
-242,176	777,916	-0,062	-0,122
-241,161	-200,000	0,015	0,116
-240,146	-200,000	-0,019	0,158
-239,132	-50,402	0,116	0,039
-238,117	-200,000	-0,015	-0,155
-237,103	262,566	-0,053	-0,067
-236,088	-68,488	0,076	0,021
-235,073	800,000	-0,083	0,194
-234,059	-147,584	-0,048	-0,003
-233,044	-97,094	0,111	-0,021
-232,030	-75,246	0,052	-0,013
-231,015	-59,546	0,048	-0,015
-230,000	-200,000	-0,004	-0,041
-228,986	328,999	-0,036	0,050
-227,971	60,035	0,023	-0,016
-226,957	526,151	0,049	0,083
-225,942	744,209	-0,026	0,051
-224,927	131,474	-0,026	-0,024
-223,913	126,481	-0,050	-0,046
-222,898	-200,000	-0,004	-0,061
-221,884	317,108	-0,054	-0,074
-220,869	40,737	0,093	-0,060
-219,855	202,668	0,114	-0,127
-218,840	800,000	-0,077	0,168
-217,825	378,752	-0,080	-0,119
-216,811	-68,533	0,051	0,014
-215,796	78,002	-0,123	-0,094
-214,782	-69,267	-0,075	0,021
-213,767	-63,715	-0,017	0,005
-212,752	-157,929	0,056	-0,002
-211,738	-151,640	0,103	-0,005
-210,723	514,519	0,039	-0,066
-209,709	-200,000	-0,004	-0,030
-208,694	140,083	-0,084	-0,080
-207,679	-200,000	0,057	0,000
-206,665	86,768	-0,082	0,066
-205,650	-143,462	0,059	0,004
-204,636	-6,719	0,062	0,030
-203,621	-200,000	0,008	0,075
-202,606	-200,000	-0,022	0,080
-201,592	800,000	-0,020	-0,041
-200,577	465,546	0,026	0,043
-199,563	-200,000	-0,012	-0,074
-198,548	34,784	0,070	-0,044
-197,533	-3,503	0,062	0,031
-196,519	140,960	-0,025	0,024
-195,504	800,000	-0,022	-0,054
-194,490	17,879	-0,012	-0,007
-193,475	-200,000	-0,017	0,122
-192,460	-82,928	0,131	0,030
-191,446	-200,000	0,025	-0,100
-190,431	-200,000	0,026	0,119
-189,417	445,015	0,093	0,148
-188,402	-200,000	-0,004	0,037
-187,387	-8,539	-0,111	0,054
-186,373	98,798	-0,104	-0,087
-185,358	-200,000	0,009	0,146
-184,344	-71,864	0,056	0,015
-183,329	-200,000	0,002	0,081
-182,315	474,074	-0,037	0,061
-181,300	385,895	0,048	-0,071
-180,285	-200,000	-0,025	-0,091
-179,271	615,536	-0,033	-0,060
-178,256	-77,131	0,036	0,009
-177,242	-200,000	-0,008	-0,066
-176,227	294,224	0,044	-0,058
-175,212	-29,528	0,019	-0,008
-174,198	544,314	0,025	-0,043
-173,183	-200,000	-0,026	-0,098
-172,169	53,228	-0,128	-0,088
-171,154	-200,000	0,009	-0,054
-170,139	-188,192	-0,075	0,001
-169,125	-108,383	0,029	0,004
-168,110	-21,064	0,060	-0,026
-167,096	-200,000	-0,011	-0,050
-166,081	-35,758	-0,030	-0,012
-165,066	43,997	-0,099	0,065
-164,052	800,000	-0,018	0,039
-163,037	651,144	-0,064	0,118
-162,023	-34,831	0,136	0,053
-161,008	614,937	-0,068	0,123
-159,993	-200,000	-0,003	-0,025
-158,979	-131,795	0,002	-0,000
-157,964	-84,923	0,076	0,017
-156,950	26,233	0,077	-0,046
-155,935	567,166	-0,051	-0,090
-154,920	209,664	0,006	0,007
-153,906	391,686	-0,066	0,099
-152,891	-117,822	-0,156	-0,020
-151,877	800,000	-0,026	-0,058
-150,862	236,777	-0,067	-0,081
-149,847	-4,810	0,125	0,062
-148,833	-200,000	-0,003	-0,073
-147,818	-200,000	0,024	0,114
-146,804	146,614	0,064	0,062
-145,789	-200,000	-0,014	0,047
-144,775	246,847	0,055	0,067
-143,760	-200,000	0,001	-0,093
-142,745	791,010	-0,041	0,082
-141,731	84,638	0,130	0,102
-140,716	-15,570	0,079	0,036
-139,702	-81,792	0,116	-0,027
-138,687	205,052	0,095	0,106
-137,672	59,826	-0,125	0,089
-136,658	-76,285	-0,111	0,028
-135,643	-101,760	0,047	0,008
-134,629	85,282	0,111	-0,088
-133,614	-111,596	0,160	-0,023
-132,599	800,000	0,029	0,088
-131,585	-200,000	-0,021	-0,092
-130,570	-200,000	0,001	-0,089
-129,556	594,778	-0,023	0,041
-128,541	-200,000	-0,021	-0,124
-127,526	242,717	-0,067	-0,081
-126,512	475,539	0,085	0,139
-125,497	487,158	0,057	-0,094
-124,483	-200,000	0,013	0,114
-123,468	457,405	0,022	-0,035
-122,453	305,302	-0,060	-0,080
-121,439	800,000	-0,055	-0,111
-120,424	-20,172	0,085	0,038
-119,410	800,000	0,067	0,135
