DTS Sentinel unit serial number:	SN410029Multiplexer serial number:	ORYXHardware model number:	OX2-SRSoftware version number:	ORYX F/W v4,00 Oryx Data Collector v3.7.2.0data status	okinstallation	B5 Nyhavnadifferential loss correction	single-endedforward channel	channel 2reverse channel	N/Adate	2023/12/13time	20:07:14forward acquisition time	300,00reverse acquisition time	0,00gamma	499,1914k internal	0,3158k external	0,3158temperature offset calibration	1,0000default loss term (dB/km)	0,3820temperature slope calibration	1,0000multiplexer offset coefficient	1,0000multiplexer slope coefficient	1,0000fibre end	0,00T internal ref (°C)	11,09T ext. ref 1 (°C)	-5,98T ext. ref 2 (°C)	-6,05length (m)	temperature (°C)	Stokes	anti-Stokes-744,400	61,926	0,135	0,099
-743,385	104,760	-0,274	-0,238
-742,371	266,511	0,136	0,176
-741,356	-112,033	-0,364	-0,054
-740,342	52,061	0,215	0,151
-739,327	-104,993	-0,259	0,043
-738,312	160,347	0,162	-0,167
-737,298	35,076	-0,297	-0,191
-736,283	-75,730	0,144	-0,037
-735,269	-78,905	-0,371	-0,092
-734,254	-30,910	0,091	0,038
-733,239	-35,399	-0,428	-0,171
-732,225	30,155	0,265	0,167
-731,210	-200,000	-0,032	0,129
-730,196	590,791	0,051	0,092
-729,181	-161,568	-0,153	-0,006
-728,167	-124,479	0,079	-0,009
-727,152	-145,998	-0,130	0,008
-726,137	-49,622	-0,276	0,096
-725,123	101,514	0,083	-0,071
-724,108	276,041	0,070	-0,092
-723,094	80,410	0,102	-0,081
-722,079	8,172	-0,104	0,057
-721,064	246,494	0,056	-0,069
-720,050	201,153	0,014	0,016
-719,035	-200,000	-0,026	-0,094
-718,021	257,700	-0,072	-0,091
-717,006	-200,000	-0,023	-0,078
-715,991	470,855	-0,036	-0,060
-714,977	-200,000	-0,003	0,023
-713,962	75,700	-0,062	-0,048
-712,948	-77,502	-0,058	0,015
-711,933	-200,000	-0,021	0,080
-710,918	-200,000	-0,009	0,054
-709,904	-69,275	-0,129	-0,036
-708,889	-16,594	-0,034	-0,016
-707,875	40,192	-0,044	-0,029
-706,860	-200,000	-0,035	0,119
-705,845	162,083	0,071	-0,073
-704,831	-200,000	0,002	-0,032
-703,816	169,274	-0,033	-0,035
-702,802	-200,000	0,002	0,055
-701,787	-89,006	0,038	0,008
-700,772	800,000	0,052	-0,123
-699,758	389,788	-0,075	-0,114
-698,743	2,167	0,123	-0,065
-697,729	800,000	0,014	-0,038
-696,714	18,721	-0,099	0,058
-695,699	-200,000	0,005	0,032
-694,685	800,000	0,017	-0,035
-693,670	-200,000	-0,019	-0,109
-692,656	-200,000	0,005	-0,023
-691,641	-200,000	-0,005	-0,104
-690,627	-67,217	-0,099	0,029
-689,612	34,552	-0,095	0,061
-688,597	-60,233	-0,123	0,038
-687,583	133,183	-0,059	0,056
-686,568	49,113	-0,037	-0,025
-685,554	-200,000	0,040	-0,163
-684,539	800,000	0,012	0,030
-683,524	-132,595	0,080	-0,007
-682,510	-5,821	-0,021	-0,011
-681,495	-99,617	0,031	0,006
-680,481	588,356	-0,065	0,119
-679,466	285,667	-0,028	0,037
-678,451	-200,000	0,016	-0,086
-677,437	800,000	-0,051	0,105
-676,422	-117,669	0,036	-0,005
-675,408	123,575	0,112	0,104
-674,393	199,382	0,028	0,031
-673,378	125,668	-0,086	0,080
-672,364	-76,976	0,088	-0,022
-671,349	61,944	-0,134	-0,098
-670,335	326,855	0,057	-0,081
-669,320	306,085	-0,065	-0,089
-668,305	-199,757	-0,163	0,001
-667,291	-200,000	0,010	0,081
-666,276	246,111	-0,113	-0,140
-665,262	-200,000	-0,022	-0,111
-664,247	156,095	0,030	-0,031
-663,232	-132,876	0,068	0,006
-662,218	-61,195	0,124	-0,038
-661,203	-200,000	0,000	-0,020
-660,189	114,096	-0,056	0,050
-659,174	127,746	-0,018	0,017
-658,159	-200,000	0,004	-0,051
-657,145	-200,000	-0,001	0,067
-656,130	624,592	-0,030	-0,055
-655,116	-62,458	0,074	0,023
-654,101	110,233	0,068	0,060
-653,086	32,694	-0,089	-0,056
-652,072	800,000	0,020	0,057
-651,057	-200,000	-0,000	0,024
-650,043	104,741	-0,062	-0,054
-649,028	800,000	0,013	-0,038
-648,014	-200,000	-0,007	-0,037
-646,999	-200,000	-0,028	0,158
-645,984	-3,939	-0,060	0,031
-644,970	-200,000	-0,030	-0,157
-643,955	-21,584	0,024	-0,011
-642,941	-138,977	0,162	0,013
-641,926	-11,476	-0,150	-0,072
-640,911	-137,425	0,223	0,018
-639,897	800,000	-0,048	0,116
-638,882	4,867	0,036	-0,019
-637,868	116,904	-0,112	0,101
-636,853	150,856	-0,086	-0,086
-635,838	-200,000	-0,001	-0,020
-634,824	-127,958	0,077	0,008
-633,809	126,884	-0,042	0,039
-632,795	-62,114	0,126	0,038
-631,780	4,554	0,094	0,050
-630,765	127,093	-0,102	-0,095
-629,751	497,904	-0,056	0,095
-628,736	-200,000	0,006	-0,180
-627,722	800,000	0,085	-0,248
-626,707	602,093	-0,044	-0,081
-625,692	102,911	0,100	-0,086
-624,678	-200,000	-0,008	-0,033
-623,663	-122,131	-0,113	0,013
-622,649	-9,475	-0,200	-0,097
-621,634	14,841	-0,114	0,065
-620,619	-26,646	0,095	-0,041
-619,605	-190,464	0,132	0,001
-618,590	2,936	0,098	-0,052
-617,576	240,534	0,075	0,092
-616,561	346,388	-0,063	0,092
-615,546	146,834	-0,055	-0,054
-614,532	90,480	0,124	-0,102
-613,517	236,855	-0,043	-0,052
-612,503	-200,000	-0,015	0,074
-611,488	-75,532	0,112	0,029
-610,474	-35,265	0,050	0,020
-609,459	-48,746	-0,157	0,055
-608,444	-135,397	0,110	0,010
-607,430	-76,797	-0,082	0,021
-606,415	144,881	0,089	0,087
-605,401	800,000	0,052	0,106
-604,386	136,772	-0,113	-0,108
-603,371	54,539	0,139	0,098
-602,357	412,518	-0,033	-0,052
-601,342	-200,000	-0,004	-0,020
-600,328	-72,410	-0,098	0,026
-599,313	-74,086	-0,021	0,005
-598,298	-200,000	-0,011	-0,066
-597,284	486,595	0,061	0,103
-596,269	219,350	0,154	0,181
-595,255	464,272	-0,064	0,105
-594,240	-200,000	-0,027	-0,112
-593,225	443,219	-0,026	-0,043
-592,211	-63,519	-0,130	-0,039
-591,196	14,918	0,059	0,034
-590,182	-28,923	-0,105	-0,044
-589,167	52,784	-0,040	0,028
-588,152	-200,000	-0,013	0,043
-587,138	464,537	0,045	-0,075
-586,123	-90,110	-0,046	-0,010
-585,109	-68,666	-0,101	-0,028
-584,094	800,000	-0,025	0,082
-583,079	16,469	0,063	0,036
-582,065	-200,000	0,025	-0,099
-581,050	-10,659	0,071	0,034
-580,036	22,498	-0,086	-0,051
-579,021	-97,801	0,025	0,005
-578,006	-73,061	-0,074	-0,020
-576,992	-200,000	0,019	-0,073
-575,977	-200,000	-0,004	0,048
-574,963	-200,000	-0,012	0,116
-573,948	-200,000	0,011	-0,072
-572,934	-200,000	0,000	-0,009
-571,919	139,118	-0,074	-0,071
-570,904	128,816	-0,080	-0,074
-569,890	585,009	-0,015	-0,028
-568,875	-112,517	0,058	-0,008
-567,861	246,521	0,067	0,082
-566,846	144,324	-0,048	0,047
-565,831	258,918	0,102	0,129
-564,817	16,500	0,114	-0,066
-563,802	706,873	-0,032	-0,062
-562,788	118,767	-0,056	-0,051
-561,773	498,537	0,029	0,049
-560,758	-91,684	-0,098	0,020
-559,744	284,610	-0,026	0,035
-558,729	17,492	-0,096	-0,055
-557,715	-200,000	-0,021	-0,153
-556,700	-82,213	-0,103	0,024
-555,685	34,995	-0,036	-0,023
-554,671	221,817	-0,107	-0,126
-553,656	-38,187	-0,087	0,033
-552,642	-200,000	0,000	-0,034
-551,627	33,313	0,021	0,014
-550,612	-27,256	-0,032	0,013
-549,598	-200,000	-0,008	0,058
-548,583	-200,000	0,004	-0,100
-547,569	90,576	-0,075	0,061
-546,554	-123,839	0,091	0,010
-545,539	800,000	0,027	0,068
-544,525	-200,000	-0,008	-0,060
-543,510	-200,000	-0,013	0,047
-542,496	67,911	0,073	-0,055
-541,481	122,967	-0,137	-0,126
-540,466	33,731	0,116	0,074
-539,452	587,341	0,032	-0,058
-538,437	-200,000	0,021	0,185
-537,423	-152,799	-0,070	0,004
-536,408	684,696	0,061	-0,116
-535,393	-25,293	-0,045	-0,020
-534,379	800,000	0,030	-0,091
-533,364	800,000	-0,008	-0,020
-532,350	-200,000	-0,011	-0,086
-531,335	-200,000	-0,020	0,063
-530,321	-200,000	0,011	0,037
-529,306	-200,000	0,013	0,119
-528,291	138,633	-0,065	-0,062
-527,277	-200,000	-0,023	0,081
-526,262	-200,000	0,013	0,160
-525,248	-75,419	0,103	0,027
-524,233	-200,000	-0,025	0,092
-523,218	800,000	0,034	0,080
-522,204	-92,167	-0,207	0,042
-521,189	-200,000	0,008	-0,147
-520,175	608,765	-0,032	0,058
-519,160	140,843	-0,064	0,062
-518,145	-30,342	-0,084	-0,035
-517,131	-200,000	0,033	0,132
-516,116	800,000	0,050	0,127
-515,102	108,785	-0,038	0,033
-514,087	-200,000	-0,003	-0,159
-513,072	192,258	-0,027	0,030
-512,058	-142,361	0,214	0,015
-511,043	184,407	-0,071	0,077
-510,029	-77,913	0,065	0,016
-509,014	-200,000	-0,028	-0,146
-507,999	-200,000	0,004	-0,069
-506,985	800,000	-0,039	-0,097
-505,970	-200,000	0,046	-0,180
-504,956	252,606	0,062	-0,077
-503,941	800,000	0,031	-0,100
-502,926	182,109	-0,056	0,060
-501,912	168,346	0,053	-0,055
-500,897	-104,024	-0,019	0,003
-499,883	609,355	0,030	0,055
-498,868	156,148	-0,082	-0,083
-497,853	276,868	0,094	-0,123
-496,839	-134,572	0,145	0,013
-495,824	800,000	-0,040	0,082
-494,810	800,000	0,063	0,152
-493,795	-141,656	0,039	0,003
-492,781	-200,000	-0,022	0,079
-491,766	563,275	-0,092	-0,162
-490,751	14,165	-0,175	0,099
-489,737	-110,164	0,202	-0,030
-488,722	800,000	0,031	0,079
-487,708	-63,722	0,047	-0,014
-486,693	-105,432	-0,068	-0,011
-485,678	800,000	0,015	-0,030
-484,664	440,089	0,017	0,027
-483,649	800,000	-0,043	-0,088
-482,635	603,044	0,017	-0,032
-481,620	317,834	0,014	-0,020
-480,605	67,451	0,105	0,078
-479,591	-200,000	0,027	0,119
-478,576	-68,434	0,054	-0,015
-477,562	103,735	0,045	-0,039
-476,547	800,000	-0,013	-0,035
-475,532	-200,000	-0,004	0,120
-474,518	-151,761	-0,197	0,010
-473,503	-2,430	0,036	0,018
-472,489	-200,000	0,022	-0,076
-471,474	-66,788	-0,085	-0,024
-470,459	411,806	-0,054	0,084
-469,445	-200,000	-0,023	-0,160
-468,430	58,690	-0,093	-0,067
-467,416	800,000	0,035	-0,094
-466,401	371,358	0,123	0,182
-465,386	322,011	-0,063	0,088
-464,372	228,229	-0,022	-0,026
-463,357	183,537	-0,058	-0,062
-462,343	-200,000	-0,008	-0,057
-461,328	-96,334	0,074	-0,014
-460,313	-200,000	0,026	0,156
-459,299	-110,369	0,184	-0,028
-458,284	11,236	0,104	-0,058
-457,270	-200,000	-0,006	-0,031
-456,255	-200,000	-0,007	-0,174
-455,241	166,617	-0,095	-0,098
-454,226	-17,582	-0,068	0,031
-453,211	-200,000	0,015	0,084
-452,197	153,262	0,100	0,100
-451,182	165,316	0,053	-0,054
-450,168	565,982	0,040	0,071
-449,153	263,249	-0,028	-0,035
-448,138	181,643	0,030	-0,032
-447,124	-143,006	-0,178	-0,012
-446,109	389,866	0,026	-0,040
-445,095	276,887	-0,032	-0,041
-444,080	800,000	-0,038	-0,078
-443,065	766,306	0,040	0,079
-442,051	-116,527	-0,109	0,014
-441,036	170,817	0,036	0,037
-440,022	-200,000	0,000	-0,056
-439,007	-125,368	-0,055	0,006
-437,992	35,661	0,102	0,065
-436,978	230,854	-0,081	0,097
-435,963	800,000	0,109	0,253
-434,949	-200,000	-0,002	0,099
-433,934	-200,000	-0,002	-0,080
-432,919	800,000	0,027	0,075
-431,905	111,858	0,076	-0,067
-430,890	-84,672	0,047	-0,011
-429,876	-52,655	-0,084	0,028
-428,861	-68,978	-0,042	0,012
-427,846	-108,677	-0,057	-0,009
-426,832	403,093	-0,017	0,027
-425,817	-40,042	-0,080	0,030
-424,803	254,172	0,031	0,039
-423,788	-200,000	-0,006	-0,076
-422,773	121,300	0,048	0,043
-421,759	-200,000	0,036	-0,133
-420,744	3,921	-0,138	0,073
-419,730	22,261	-0,145	-0,086
-418,715	168,524	-0,086	0,089
-417,701	-13,296	0,047	0,022
-416,686	-116,340	-0,042	0,006
-415,671	33,594	0,078	0,049
-414,657	-200,000	0,005	0,052
-413,642	-91,004	0,065	-0,013
-412,628	-200,000	-0,004	-0,101
-411,613	-200,000	-0,022	0,097
-410,598	51,984	0,113	0,078
-409,584	-53,955	-0,048	-0,016
-408,569	800,000	0,090	0,241
-407,555	134,329	0,088	0,083
-406,540	-135,354	-0,106	-0,009
-405,525	800,000	-0,054	-0,168
-404,511	800,000	-0,013	-0,029
-403,496	-200,000	-0,005	-0,112
-402,482	210,239	0,028	-0,032
-401,467	-200,000	-0,003	0,010
-400,452	-178,164	-0,119	-0,002
-399,438	33,362	-0,017	-0,011
-398,423	44,121	0,022	-0,015
-397,409	-200,000	0,012	-0,184
-396,394	-200,000	0,010	0,050
-395,379	-7,111	-0,085	-0,042
-394,365	-27,721	0,140	-0,059
-393,350	-50,311	-0,094	-0,032
-392,336	-154,589	0,001	0,000
-391,321	324,297	0,008	0,012
-390,306	106,009	-0,018	0,015
-389,292	273,725	-0,034	0,044
-388,277	729,456	0,048	-0,093
-387,263	-28,600	0,180	0,075
-386,248	-200,000	0,018	0,169
-385,233	800,000	-0,019	0,050
-384,219	-200,000	0,019	-0,073
-383,204	118,152	-0,072	-0,064
-382,190	623,142	-0,048	-0,088
-381,175	800,000	-0,021	-0,043
-380,160	-41,173	-0,045	0,017
-379,146	513,891	0,021	-0,036
-378,131	86,404	-0,103	-0,083
-377,117	-200,000	0,004	-0,046
-376,102	136,861	0,035	0,033
-375,088	-18,301	-0,119	-0,054
-374,073	-10,627	-0,122	-0,058
-373,058	-80,611	-0,073	-0,018
-372,044	-51,482	0,130	0,044
-371,029	800,000	-0,046	0,139
-370,015	-200,000	-0,011	0,047
-369,000	-20,216	-0,065	0,029
-367,985	-92,104	-0,075	-0,015
-366,971	-8,450	-0,032	0,016
-365,956	410,343	0,069	0,106
-364,942	72,320	0,105	0,080
-363,927	415,482	0,016	0,025
-362,912	800,000	-0,027	0,081
-361,898	-200,000	-0,028	-0,092
-360,883	46,480	-0,121	-0,081
-359,869	12,520	0,083	-0,047
-358,854	-40,202	0,092	0,035
-357,839	-78,505	-0,029	0,007
-356,825	-200,000	0,010	0,045
-355,810	800,000	0,048	0,108
-354,796	35,527	0,044	0,028
-353,781	-200,000	-0,014	-0,089
-352,766	634,269	-0,043	-0,080
-351,752	35,473	-0,098	0,062
-350,737	37,892	0,053	0,034
-349,723	-125,027	0,128	-0,014
-348,708	-99,663	-0,197	0,036
-347,693	-35,309	0,060	0,024
-346,679	-200,000	-0,045	-0,160
-345,664	-200,000	-0,015	0,139
-344,650	-40,263	0,149	0,056
-343,635	-58,464	-0,034	-0,011
-342,620	-200,000	0,015	0,117
-341,606	130,952	-0,093	0,087
-340,591	-197,589	0,100	-0,000
-339,577	16,018	-0,031	-0,018
-338,562	264,331	0,053	-0,067
-337,548	-142,122	-0,030	-0,002
-336,533	-200,000	0,013	0,084
-335,518	800,000	0,055	0,155
-334,504	13,152	0,040	-0,023
-333,489	-3,337	0,069	-0,035
-332,475	-200,000	0,028	-0,213
-331,460	28,112	-0,130	-0,079
-330,445	237,249	0,090	-0,108
-329,431	-200,000	0,018	-0,065
-328,416	800,000	0,020	0,056
-327,402	-68,628	0,114	-0,032
-326,387	-2,546	0,098	0,050
-325,372	800,000	-0,056	-0,131
-324,358	-200,000	0,013	-0,199
-323,343	-200,000	0,006	0,117
-322,329	-27,691	0,051	-0,021
-321,314	58,461	0,098	-0,070
-320,299	-50,074	0,123	0,042
-319,285	487,803	0,023	0,038
-318,270	-121,297	0,146	-0,017
-317,256	-6,043	-0,170	-0,084
-316,241	800,000	0,053	0,147
-315,226	70,181	0,096	0,072
-314,212	-200,000	-0,024	0,132
-313,197	-200,000	0,005	0,060
-312,183	-200,000	-0,012	0,106
-311,168	-133,685	-0,128	-0,011
-310,153	-108,671	-0,102	0,016
-309,139	45,445	0,070	0,047
-308,124	243,773	0,116	0,142
-307,110	326,389	0,012	0,017
-306,095	540,666	-0,018	0,032
-305,080	-72,145	-0,103	-0,027
-304,066	800,000	-0,046	-0,144
-303,051	-35,365	0,055	-0,022
-302,037	208,084	0,103	-0,116
-301,022	-99,742	-0,018	0,003
-300,008	-88,396	0,103	0,022
-298,993	-200,000	0,013	0,155
-297,978	-200,000	-0,049	-0,191
-296,964	70,666	0,131	0,098
-295,949	290,542	-0,042	-0,055
-294,935	627,414	0,022	-0,041
-293,920	-200,000	-0,002	-0,010
-292,905	-131,468	0,141	-0,013
-291,891	-200,000	0,017	0,085
-290,876	-200,000	-0,011	0,111
-289,862	-106,255	-0,033	0,005
-288,847	-200,000	0,019	-0,187
-287,832	-87,003	0,028	-0,006
-286,818	210,648	-0,040	-0,046
-285,803	147,144	-0,048	-0,046
-284,789	-200,000	-0,012	0,107
-283,774	-100,225	0,081	0,014
-282,759	224,703	-0,062	0,073
-281,745	-200,000	0,009	-0,105
-280,730	-34,845	-0,048	0,019
-279,716	244,570	0,042	0,051
-278,701	-200,000	0,009	-0,076
-277,686	-200,000	0,032	-0,116
-276,672	800,000	-0,009	0,018
-275,657	-81,167	-0,113	0,027
-274,643	165,305	-0,079	-0,081
-273,628	-200,000	0,051	0,165
-272,613	-200,000	0,017	-0,057
-271,599	-90,914	0,097	-0,020
-270,584	22,383	0,094	0,056
-269,570	-59,451	0,068	0,021
-268,555	49,390	0,089	0,061
-267,540	9,284	-0,053	0,029
-266,526	22,169	-0,056	0,033
-265,511	800,000	0,023	0,051
-264,497	310,037	0,129	-0,175
-263,482	671,215	-0,044	0,084
-262,467	-80,303	0,120	0,029
-261,453	-176,735	0,126	0,002
-260,438	53,701	-0,084	0,058
-259,424	-48,827	-0,095	-0,033
-258,409	22,495	-0,027	-0,016
-257,395	51,266	-0,015	-0,010
-256,380	-137,944	0,089	0,007
-255,365	19,689	-0,039	-0,023
-254,351	-17,181	-0,078	0,036
-253,336	123,422	-0,097	0,088
-252,322	-200,000	-0,019	-0,109
-251,307	52,105	-0,074	-0,051
-250,292	-200,000	-0,003	-0,025
-249,278	264,996	0,025	0,032
-248,263	-200,000	0,007	0,085
-247,249	-200,000	0,006	0,085
-246,234	-200,000	-0,017	-0,148
-245,219	85,845	-0,129	-0,103
-244,205	274,114	-0,024	-0,031
-243,190	477,315	-0,067	-0,110
-242,176	285,714	0,013	0,017
-241,161	5,690	0,098	0,052
-240,146	133,621	0,089	-0,083
-239,132	348,173	0,065	0,093
-238,117	183,083	-0,082	0,088
-237,103	800,000	0,040	-0,111
-236,088	595,892	-0,036	-0,064
-235,073	-200,000	-0,004	-0,019
-234,059	800,000	-0,047	0,139
-233,044	33,360	0,055	0,034
-232,030	-200,000	-0,017	-0,090
-231,015	800,000	-0,030	-0,093
-230,000	-121,465	-0,077	0,009
-228,986	-200,000	0,003	0,070
-227,971	-200,000	-0,006	0,187
-226,957	-105,404	-0,032	0,005
-225,942	-132,294	0,097	-0,009
-224,927	800,000	0,017	0,050
-223,913	246,247	-0,119	-0,145
-222,898	800,000	-0,005	-0,014
-221,884	157,770	-0,005	0,005
-220,869	-200,000	0,014	-0,051
-219,855	-200,000	-0,018	0,111
-218,840	309,373	0,062	0,084
-217,825	-200,000	0,027	0,122
-216,811	-113,214	0,055	-0,008
-215,796	-49,993	-0,016	-0,006
-214,782	-70,032	0,087	0,024
-213,767	-109,021	-0,031	0,005
-212,752	-200,000	-0,003	0,087
-211,738	-200,000	0,004	-0,032
-210,723	-200,000	-0,008	0,051
-209,709	800,000	-0,068	-0,138
-208,694	-10,880	-0,007	-0,003
-207,679	-200,000	-0,044	-0,201
-206,665	175,988	-0,130	-0,137
-205,650	-109,286	0,077	-0,012
-204,636	-200,000	-0,008	0,051
-203,621	-182,913	0,082	-0,001
-202,606	282,073	0,083	-0,108
-201,592	800,000	0,020	0,041
-200,577	447,041	-0,066	-0,105
-199,563	225,440	0,014	-0,016
-198,548	800,000	0,044	0,112
-197,533	380,272	0,070	-0,104
-196,519	-200,000	0,012	0,158
-195,504	-92,430	0,058	-0,012
-194,490	-75,149	-0,085	-0,022
-193,475	-200,000	-0,022	-0,080
-192,460	-200,000	0,006	0,062
-191,446	37,528	-0,110	0,070
-190,431	238,036	0,132	0,159
-189,417	-200,000	-0,012	0,046
-188,402	-41,538	-0,120	0,044
-187,387	-119,598	-0,083	-0,010
-186,373	-200,000	0,009	-0,049
-185,358	-16,684	0,089	0,040
-184,344	-200,000	0,005	0,068
-183,329	800,000	-0,021	0,064
-182,315	415,825	-0,015	0,023
-181,300	800,000	-0,009	-0,021
-180,285	-58,617	0,092	0,029
-179,271	-90,150	-0,070	-0,015
-178,256	-200,000	-0,079	0,000
-177,242	-200,000	0,013	-0,095
-176,227	92,148	0,058	0,047
-175,212	147,449	0,019	-0,019
-174,198	800,000	0,051	-0,139
-173,183	127,188	-0,086	-0,079
-172,169	-200,000	0,018	0,072
-171,154	36,920	0,067	-0,042
-170,139	800,000	0,040	-0,095
-169,125	3,093	-0,038	-0,020
-168,110	753,224	-0,018	-0,035
-167,096	353,294	0,063	0,091
-166,081	513,311	0,019	0,032
-165,066	-132,992	0,113	0,010
-164,052	-19,577	-0,138	-0,061
-163,037	-45,753	0,124	-0,044
-162,023	43,963	-0,092	0,060
-161,008	214,734	0,025	-0,028
-159,993	-140,814	0,058	-0,004
-158,979	58,097	-0,039	-0,028
-157,964	47,664	-0,047	-0,031
-156,950	642,489	0,036	0,066
-155,935	359,178	-0,058	-0,083
-154,920	800,000	-0,044	0,092
-153,906	-200,000	-0,012	0,120
-152,891	-50,981	-0,139	-0,047
-151,877	-152,816	0,151	-0,008
-150,862	-200,000	0,014	0,069
-149,847	-138,874	-0,130	0,010
-148,833	-91,454	-0,107	0,022
-147,818	-15,037	0,076	0,035
-146,804	-200,000	0,008	-0,034
-145,789	456,403	0,056	0,090
-144,775	-15,227	-0,069	-0,032
-143,760	-200,000	-0,039	0,000
-142,745	-200,000	-0,020	-0,099
-141,731	-24,695	0,031	0,013
-140,716	-58,942	0,089	-0,028
-139,702	168,861	0,036	0,037
-138,687	-200,000	-0,009	0,059
-137,672	113,979	-0,043	0,038
-136,658	800,000	-0,010	-0,023
-135,643	191,735	0,094	0,102
-134,629	113,209	-0,051	-0,044
-133,614	800,000	0,051	0,132
-132,599	15,480	-0,088	0,050
-131,585	800,000	-0,043	0,086
-130,570	-48,278	0,021	-0,007
-129,556	289,281	0,090	-0,118
-128,541	-200,000	-0,041	-0,138
-127,526	-181,753	0,152	-0,002
-126,512	24,249	-0,114	0,067
-125,497	-41,869	0,117	0,043
-124,483	-200,000	-0,017	0,077
-123,468	-120,372	-0,110	-0,013
-122,453	-200,000	-0,002	-0,068
-121,439	-200,000	-0,031	-0,148
-120,424	-200,000	0,006	-0,027
