DTS Sentinel unit serial number:	SN410029Multiplexer serial number:	ORYXHardware model number:	OX2-SRSoftware version number:	ORYX F/W v4,00 Oryx Data Collector v3.7.2.0data status	okinstallation	B5 Nyhavnadifferential loss correction	single-endedforward channel	channel 2reverse channel	N/Adate	2023/12/14time	08:42:13forward acquisition time	300,00reverse acquisition time	0,00gamma	499,1914k internal	0,3161k external	0,3161temperature offset calibration	1,0000default loss term (dB/km)	0,3820temperature slope calibration	1,0000multiplexer offset coefficient	1,0000multiplexer slope coefficient	1,0000fibre end	0,00T internal ref (°C)	7,03T ext. ref 1 (°C)	-9,19T ext. ref 2 (°C)	-9,26length (m)	temperature (°C)	Stokes	anti-Stokes-744,400	13,073	0,211	0,120
-743,385	-100,177	-0,332	-0,060
-742,371	295,638	0,184	0,248
-741,356	-61,337	-0,411	-0,127
-740,342	133,481	0,138	0,131
-739,327	-87,134	-0,288	-0,064
-738,312	27,797	0,126	0,078
-737,298	-97,159	-0,292	-0,056
-736,283	360,825	0,060	0,089
-735,269	-65,097	-0,351	0,103
-734,254	22,461	0,158	0,095
-733,239	-41,353	-0,649	-0,245
-732,225	-17,288	0,261	0,121
-731,210	-200,000	-0,032	0,113
-730,196	-24,812	-0,027	-0,012
-729,181	-107,404	0,046	0,007
-728,167	-200,000	-0,015	0,257
-727,152	215,050	0,033	-0,039
-726,137	-114,382	-0,081	-0,011
-725,123	800,000	-0,028	-0,067
-724,108	136,796	-0,098	-0,094
-723,094	-200,000	-0,030	-0,100
-722,079	-200,000	0,006	0,025
-721,064	-200,000	0,013	0,108
-720,050	-93,926	-0,224	-0,045
-719,035	-200,000	-0,024	0,091
-718,021	-72,155	-0,109	-0,030
-717,006	800,000	-0,043	-0,090
-715,991	-200,000	0,019	-0,149
-714,977	-200,000	0,047	-0,201
-713,962	144,639	-0,084	0,083
-712,948	237,388	-0,028	-0,034
-711,933	-200,000	-0,014	0,070
-710,918	-63,852	0,135	0,040
-709,904	-28,481	-0,053	0,022
-708,889	-200,000	0,030	-0,133
-707,875	-102,620	-0,025	0,004
-706,860	36,906	0,073	0,047
-705,845	629,510	-0,049	0,091
-704,831	11,187	0,074	-0,042
-703,816	800,000	0,010	-0,026
-702,802	505,832	-0,061	0,104
-701,787	-200,000	-0,006	-0,078
-700,772	-200,000	0,120	0,000
-699,758	343,467	-0,030	0,043
-698,743	-200,000	-0,010	0,076
-697,729	800,000	-0,016	0,052
-696,714	27,968	0,085	0,053
-695,699	800,000	0,022	0,054
-694,685	800,000	-0,051	0,155
-693,670	87,911	0,023	-0,019
-692,656	-31,243	-0,033	-0,014
-691,641	-92,133	-0,130	-0,027
-690,627	-200,000	0,041	0,137
-689,612	652,064	-0,023	0,043
-688,597	423,883	0,073	0,116
-687,583	-48,800	-0,091	0,032
-686,568	-44,441	0,181	-0,066
-685,554	-13,316	-0,085	0,040
-684,539	800,000	-0,050	0,154
-683,524	154,087	-0,052	0,052
-682,510	496,214	0,038	0,064
-681,495	800,000	0,050	0,128
-680,481	-190,233	-0,105	-0,001
-679,466	800,000	-0,028	-0,088
-678,451	-200,000	-0,009	0,036
-677,437	-200,000	0,012	-0,102
-676,422	-90,615	-0,055	0,011
-675,408	306,205	0,017	0,023
-674,393	-12,801	-0,066	0,031
-673,378	481,548	0,064	-0,108
-672,364	-200,000	-0,022	-0,098
-671,349	70,930	0,113	-0,086
-670,335	800,000	-0,029	0,074
-669,320	94,827	0,031	-0,026
-668,305	-0,948	-0,094	0,049
-667,291	-200,000	0,032	0,168
-666,276	318,269	-0,044	-0,061
-665,262	800,000	-0,032	-0,097
-664,247	-61,236	-0,100	0,031
-663,232	39,321	-0,012	-0,008
-662,218	-200,000	-0,007	-0,035
-661,203	-64,566	-0,088	0,026
-660,189	-110,347	-0,095	0,014
-659,174	129,439	0,122	-0,115
-658,159	3,006	-0,120	0,064
-657,145	-200,000	-0,003	-0,101
-656,130	442,165	0,046	-0,074
-655,116	-31,247	-0,092	0,038
-654,101	-200,000	0,001	0,137
-653,086	800,000	0,061	-0,164
-652,072	-200,000	-0,023	-0,087
-651,057	800,000	-0,052	-0,123
-650,043	-200,000	-0,038	-0,146
-649,028	86,190	-0,103	-0,083
-648,014	372,135	-0,033	0,049
-646,999	-200,000	0,012	-0,070
-645,984	17,661	-0,055	-0,032
-644,970	183,484	-0,019	0,021
-643,955	181,355	-0,111	-0,120
-642,941	-3,309	0,154	-0,079
-641,926	290,265	-0,054	-0,073
-640,911	-7,360	0,103	-0,051
-639,897	-200,000	-0,002	-0,048
-638,882	-95,352	-0,003	-0,001
-637,868	414,087	0,061	-0,095
-636,853	-64,748	-0,067	0,020
-635,838	4,793	-0,080	-0,043
-634,824	508,265	-0,029	0,050
-633,809	-135,389	0,152	-0,013
-632,795	-200,000	0,000	0,114
-631,780	79,997	0,076	0,060
-630,765	-30,417	-0,037	0,015
-629,751	435,069	-0,041	-0,065
-628,736	-41,629	0,084	0,031
-627,722	-200,000	-0,023	-0,128
-626,707	800,000	-0,023	-0,067
-625,692	800,000	0,038	-0,079
-624,678	800,000	-0,038	0,108
-623,663	4,854	-0,165	0,089
-622,649	-107,976	-0,149	0,024
-621,634	-15,968	-0,057	0,026
-620,619	304,221	-0,054	0,073
-619,605	-200,000	-0,040	0,177
-618,590	800,000	-0,014	-0,035
-617,576	-132,540	0,123	-0,011
-616,561	-64,628	0,115	-0,034
-615,546	-50,956	-0,033	-0,011
-614,532	-144,718	0,039	-0,003
-613,517	-69,560	0,086	0,024
-612,503	-200,000	-0,033	0,164
-611,488	92,602	-0,064	0,053
-610,474	-200,000	0,033	0,122
-609,459	-200,000	0,005	-0,018
-608,444	-49,935	-0,138	-0,048
-607,430	800,000	-0,036	-0,074
-606,415	-200,000	-0,020	0,081
-605,401	381,897	-0,055	0,083
-604,386	-200,000	-0,021	-0,096
-603,371	116,849	0,050	-0,045
-602,357	389,884	0,051	0,078
-601,342	-200,000	0,006	-0,020
-600,328	127,944	-0,143	-0,134
-599,313	-200,000	0,004	-0,051
-598,298	-200,000	0,001	-0,041
-597,284	59,983	-0,025	0,018
-596,269	800,000	0,048	-0,123
-595,255	373,301	0,050	0,075
-594,240	-111,491	-0,108	0,016
-593,225	-200,000	-0,014	-0,089
-592,211	800,000	-0,029	-0,095
-591,196	14,641	0,039	0,022
-590,182	760,158	0,064	-0,128
-589,167	796,117	-0,040	-0,081
-588,152	328,560	0,025	-0,035
-587,138	784,212	0,057	-0,115
-586,123	-200,000	0,000	-0,132
-585,109	800,000	-0,098	-0,213
-584,094	84,134	0,032	0,025
-583,079	344,476	0,057	0,082
-582,065	547,520	0,035	-0,061
-581,050	217,285	-0,068	0,080
-580,036	337,736	0,023	-0,033
-579,021	-78,468	-0,158	-0,039
-578,006	497,210	-0,041	0,069
-576,992	205,378	-0,056	0,064
-575,977	121,428	-0,088	-0,080
-574,963	-200,000	-0,005	0,101
-573,948	-4,764	0,067	0,034
-572,934	36,800	0,110	-0,071
-571,919	22,303	-0,045	0,027
-570,904	800,000	-0,045	-0,121
-569,890	46,890	0,086	0,059
-568,875	159,499	0,009	-0,009
-567,861	50,127	0,133	-0,092
-566,846	-200,000	-0,024	0,092
-565,831	-200,000	0,009	0,086
-564,817	-200,000	-0,007	-0,060
-563,802	-103,477	-0,036	-0,006
-562,788	-24,124	0,135	0,059
-561,773	59,226	0,059	0,042
-560,758	-127,220	0,091	0,010
-559,744	57,771	0,028	-0,020
-558,729	800,000	0,045	0,133
-557,715	800,000	-0,027	0,074
-556,700	130,345	-0,149	-0,140
-555,685	800,000	-0,023	-0,051
-554,671	-34,808	0,130	-0,052
-553,656	352,261	-0,081	0,118
-552,642	28,403	-0,092	0,057
-551,627	-120,045	-0,077	-0,010
-550,612	-200,000	-0,041	0,136
-549,598	-200,000	0,027	-0,091
-548,583	-200,000	-0,005	0,052
-547,569	-200,000	0,006	-0,046
-546,554	20,492	0,095	0,056
-545,539	44,024	0,062	-0,041
-544,525	-197,334	-0,041	-0,000
-543,510	258,018	0,097	0,122
-542,496	-34,233	-0,149	-0,059
-541,481	55,673	-0,136	-0,096
-540,466	-107,270	0,084	0,013
-539,452	-161,844	-0,086	0,003
-538,437	126,760	0,062	0,058
-537,423	707,319	-0,063	-0,122
-536,408	304,035	0,065	-0,089
-535,393	84,226	-0,132	-0,106
-534,379	-200,000	-0,013	0,070
-533,364	-114,389	0,100	-0,014
-532,350	-200,000	-0,003	-0,035
-531,335	-86,550	0,102	-0,023
-530,321	-200,000	-0,010	-0,047
-529,306	-131,284	-0,128	0,012
-528,291	721,961	-0,044	-0,086
-527,277	-200,000	-0,039	-0,138
-526,262	688,378	-0,019	-0,036
-525,248	-200,000	0,007	0,081
-524,233	286,633	0,032	-0,043
-523,218	668,420	0,011	0,021
-522,204	59,986	0,043	-0,031
-521,189	-57,866	-0,066	-0,021
-520,175	54,800	-0,026	-0,018
-519,160	-200,000	0,001	0,083
-518,145	800,000	-0,038	0,083
-517,131	731,875	0,044	0,086
-516,116	800,000	-0,045	-0,119
-515,102	-88,734	-0,054	0,012
-514,087	189,576	-0,058	0,063
-513,072	201,276	0,107	-0,120
-512,058	-88,488	0,067	0,015
-511,043	107,865	-0,040	-0,034
-510,029	-200,000	-0,008	0,031
-509,014	213,859	-0,126	0,146
-507,999	152,972	-0,049	0,049
-506,985	191,869	0,083	0,091
-505,970	311,979	0,050	-0,068
-504,956	-200,000	0,003	0,133
-503,941	-200,000	0,016	-0,084
-502,926	182,941	0,042	0,046
-501,912	-66,693	-0,068	-0,019
-500,897	305,446	0,011	0,015
-499,883	353,990	-0,082	0,120
-498,868	-189,058	0,050	0,000
-497,853	543,682	-0,088	-0,154
-496,839	-50,732	0,075	-0,026
-495,824	-200,000	-0,026	0,126
-494,810	-130,044	0,080	-0,008
-493,795	406,806	-0,003	0,005
-492,781	-200,000	0,008	-0,212
-491,766	152,903	-0,112	-0,112
-490,751	136,791	-0,098	0,094
-489,737	14,422	-0,063	-0,036
-488,722	-90,275	0,064	-0,014
-487,708	-130,314	0,095	0,009
-486,693	19,571	-0,057	-0,033
-485,678	45,456	-0,130	-0,087
-484,664	759,035	0,046	-0,091
-483,649	271,023	0,070	0,090
-482,635	518,924	-0,028	-0,048
-481,620	55,298	0,073	-0,051
-480,605	73,775	0,110	0,084
-479,591	-80,854	0,052	-0,013
-478,576	-15,385	0,119	0,055
-477,562	800,000	0,038	-0,083
-476,547	622,723	0,045	0,082
-475,532	-173,454	-0,104	-0,002
-474,518	-26,285	0,163	0,069
-473,503	-39,474	-0,090	0,034
-472,489	-180,194	0,116	-0,002
-471,474	360,876	-0,050	0,073
-470,459	800,000	-0,045	0,099
-469,445	-98,252	-0,096	0,018
-468,430	161,370	-0,028	0,029
-467,416	-79,954	-0,133	-0,032
-466,401	139,579	0,146	0,140
-465,386	-200,000	0,033	0,166
-464,372	85,823	-0,029	-0,023
-463,357	354,059	-0,053	-0,076
-462,343	80,164	-0,065	-0,051
-461,328	34,877	-0,049	0,031
-460,313	285,246	-0,019	0,025
-459,299	800,000	0,004	-0,009
-458,284	-200,000	-0,027	0,091
-457,270	-200,000	0,003	0,057
-456,255	62,463	-0,130	0,095
-455,241	800,000	-0,075	-0,183
-454,226	-200,000	-0,018	0,093
-453,211	488,810	-0,015	0,025
-452,197	262,347	0,081	0,103
-451,182	-200,000	0,024	0,149
-450,168	-131,804	-0,043	-0,004
-449,153	-200,000	0,021	-0,093
-448,138	8,886	0,086	-0,047
-447,124	-200,000	0,030	-0,125
-446,109	-3,293	-0,100	-0,051
-445,095	273,890	-0,053	0,068
-444,080	171,287	0,066	0,069
-443,065	800,000	-0,020	0,046
-442,051	-200,000	-0,000	-0,084
-441,036	531,361	-0,082	-0,142
-440,022	181,427	0,046	-0,050
-439,007	66,779	-0,111	-0,082
-437,992	800,000	0,006	-0,014
-436,978	53,292	0,113	0,079
-435,963	-200,000	-0,015	0,103
-434,949	225,620	0,038	-0,045
-433,934	-78,095	-0,114	0,028
-432,919	-200,000	0,024	-0,097
-431,905	800,000	-0,039	0,103
-430,890	-6,027	-0,016	0,008
-429,876	296,386	0,003	-0,003
-428,861	468,487	0,087	-0,143
-427,846	-116,369	-0,155	-0,021
-426,832	79,337	-0,055	0,043
-425,817	-200,000	0,020	-0,141
-424,803	-64,061	0,102	-0,030
-423,788	401,748	0,010	0,016
-422,773	800,000	-0,016	0,046
-421,759	-200,000	-0,023	0,111
-420,744	800,000	-0,013	0,032
-419,730	263,157	-0,041	-0,052
-418,715	-200,000	-0,005	-0,131
-417,701	255,887	0,052	0,065
-416,686	-200,000	0,024	0,096
-415,671	-83,755	-0,088	0,020
-414,657	520,505	-0,080	-0,137
-413,642	242,842	-0,018	0,022
-412,628	800,000	0,058	0,144
-411,613	-58,500	-0,084	0,026
-410,598	655,691	-0,023	-0,043
-409,584	216,790	-0,014	-0,017
-408,569	-191,119	0,049	0,000
-407,555	-93,506	-0,055	-0,011
-406,540	46,629	0,135	0,091
-405,525	-200,000	0,000	-0,106
-404,511	-200,000	0,013	-0,193
-403,496	299,751	0,015	0,021
-402,482	-200,000	-0,011	-0,071
-401,467	800,000	0,005	0,015
-400,452	480,405	-0,082	0,135
-399,438	-200,000	0,036	-0,217
-398,423	-200,000	-0,038	0,143
-397,409	-200,000	0,003	-0,039
-396,394	250,382	0,085	0,105
-395,379	26,800	0,083	-0,050
-394,365	-87,283	-0,094	-0,021
-393,350	2,782	-0,028	-0,015
-392,336	-200,000	0,006	0,068
-391,321	800,000	0,018	0,049
-390,306	800,000	0,022	-0,048
-389,292	390,230	0,021	-0,032
-388,277	61,041	0,129	-0,093
-387,263	-200,000	0,025	-0,131
-386,248	266,974	0,068	-0,086
-385,233	800,000	0,020	-0,063
-384,219	-0,293	0,100	-0,052
-383,204	-200,000	0,011	0,043
-382,190	800,000	0,023	-0,048
-381,175	-91,451	-0,063	0,013
-380,160	315,533	-0,050	0,068
-379,146	-200,000	-0,021	0,085
-378,131	19,543	-0,044	-0,025
-377,117	-85,134	0,114	-0,026
-376,102	-200,000	-0,029	-0,143
-375,088	-75,337	-0,044	-0,011
-374,073	-82,934	-0,064	0,015
-373,058	-200,000	-0,025	-0,103
-372,044	122,830	0,075	-0,068
-371,029	-126,232	-0,084	0,009
-370,015	283,425	0,058	0,076
-369,000	-17,843	-0,130	-0,059
-367,985	-82,091	0,109	-0,026
-366,971	31,751	0,073	-0,046
-365,956	-51,625	0,262	0,088
-364,942	-200,000	0,009	0,074
-363,927	151,949	0,116	-0,115
-362,912	-14,808	-0,129	0,060
-361,898	-124,115	-0,047	-0,005
-360,883	186,661	0,054	-0,058
-359,869	800,000	-0,062	-0,141
-358,854	-63,030	0,074	-0,022
-357,839	-24,918	0,112	0,048
-356,825	-200,000	-0,019	0,075
-355,810	-20,954	-0,044	0,019
-354,796	372,573	0,064	-0,095
-353,781	-200,000	-0,004	-0,043
-352,766	800,000	-0,069	-0,209
-351,752	-200,000	0,015	-0,116
-350,737	125,289	-0,033	0,030
-349,723	-200,000	0,016	0,126
-348,708	-200,000	0,012	0,060
-347,693	69,911	-0,040	-0,030
-346,679	-200,000	-0,021	-0,138
-345,664	-200,000	-0,000	-0,146
-344,650	-200,000	-0,013	-0,149
-343,635	-147,921	0,147	-0,009
-342,620	-83,010	0,022	-0,005
-341,606	-147,272	0,041	0,003
-340,591	-180,139	-0,080	-0,001
-339,577	-177,538	0,104	-0,002
-338,562	-5,338	-0,028	0,014
-337,548	141,569	0,092	-0,088
-336,533	-69,120	0,055	0,015
-335,518	-55,976	-0,093	0,030
-334,504	-57,740	0,161	0,051
-333,489	789,908	0,098	0,197
-332,475	-200,000	-0,008	-0,051
-331,460	462,473	0,077	0,124
-330,445	44,330	0,082	0,054
-329,431	394,902	0,032	0,048
-328,416	188,946	-0,080	0,087
-327,402	24,082	-0,157	0,094
-326,387	36,258	0,111	0,071
-325,372	-200,000	-0,002	0,016
-324,358	-59,082	0,137	0,043
-323,343	466,022	0,033	0,053
-322,329	226,008	0,018	0,021
-321,314	61,493	0,070	0,050
-320,299	107,265	0,080	-0,068
-319,285	278,260	0,098	0,126
-318,270	-200,000	-0,004	-0,045
-317,256	-200,000	0,017	-0,055
-316,241	800,000	-0,052	0,154
-315,226	-200,000	0,023	0,085
-314,212	800,000	0,010	0,028
-313,197	449,340	0,064	-0,103
-312,183	-196,147	-0,023	-0,000
-311,168	71,021	0,071	-0,054
-310,153	-146,403	-0,045	0,003
-309,139	-200,000	0,021	-0,093
-308,124	-200,000	0,013	0,080
-307,110	-200,000	0,009	0,046
-306,095	46,427	0,118	0,079
-305,080	800,000	-0,050	0,133
-304,066	81,201	0,137	0,107
-303,051	474,209	-0,025	-0,042
-302,037	-49,551	-0,068	0,023
-301,022	721,860	-0,058	0,112
-300,008	-150,730	0,028	-0,002
-298,993	447,263	0,018	0,028
-297,978	-200,000	0,013	0,174
-296,964	102,563	-0,096	-0,081
-295,949	120,143	-0,044	0,040
-294,935	248,205	-0,066	0,081
-293,920	9,883	0,027	0,015
-292,905	44,172	0,039	0,026
-291,891	800,000	-0,029	0,059
-290,876	-200,000	-0,005	0,100
-289,862	-44,727	0,017	-0,006
-288,847	-23,518	-0,064	0,028
-287,832	343,209	0,097	-0,137
-286,818	-48,867	0,173	-0,060
-285,803	399,828	0,031	-0,048
-284,789	-200,000	-0,027	0,139
-283,774	800,000	0,058	-0,147
-282,759	-164,271	0,087	0,003
-281,745	800,000	0,062	-0,164
-280,730	209,826	0,020	0,023
-279,716	257,003	0,061	-0,076
-278,701	15,368	-0,050	0,029
-277,686	800,000	-0,017	0,037
-276,672	-44,972	-0,020	0,007
-275,657	-86,532	-0,083	0,018
-274,643	246,196	0,015	0,019
-273,628	800,000	-0,094	-0,253
-272,613	19,828	-0,060	-0,035
-271,599	800,000	0,013	0,035
-270,584	-168,294	0,082	-0,002
-269,570	-163,904	0,036	0,001
-268,555	-200,000	-0,055	0,200
-267,540	-200,000	0,021	0,119
-266,526	58,916	-0,037	0,026
-265,511	-200,000	0,025	-0,138
-264,497	-118,017	0,117	-0,015
-263,482	-116,725	-0,090	-0,012
-262,467	-36,964	-0,132	-0,051
-261,453	-200,000	-0,043	0,194
-260,438	-12,765	0,059	0,028
-259,424	84,547	-0,109	-0,086
-258,409	800,000	-0,037	-0,082
-257,395	778,610	0,011	0,021
-256,380	305,653	0,038	0,052
-255,365	-154,875	0,023	-0,001
-254,351	-200,000	-0,002	-0,073
-253,336	-81,771	-0,102	0,024
-252,322	-200,000	0,001	-0,202
-251,307	800,000	-0,042	0,085
-250,292	-200,000	0,010	0,085
-249,278	-200,000	0,010	0,062
-248,263	269,795	-0,068	-0,086
-247,249	-200,000	-0,004	0,089
-246,234	-122,336	0,087	0,010
-245,219	-200,000	0,013	0,133
-244,205	800,000	-0,030	-0,096
-243,190	800,000	-0,034	0,089
-242,176	-200,000	-0,007	-0,095
-241,161	-200,000	0,006	0,064
-240,146	-200,000	0,000	0,210
-239,132	-85,214	0,130	0,029
-238,117	-200,000	-0,008	0,100
-237,103	-200,000	-0,006	0,052
-236,088	800,000	-0,029	0,077
-235,073	53,685	0,123	0,085
-234,059	-158,120	-0,017	-0,001
-233,044	27,041	-0,038	-0,023
-232,030	112,719	-0,035	-0,031
-231,015	-68,626	-0,208	0,058
-230,000	-78,373	0,144	0,035
-228,986	800,000	0,020	-0,043
-227,971	62,340	-0,063	0,045
-226,957	-78,583	0,157	-0,038
-225,942	-80,535	-0,059	0,014
-224,927	89,603	-0,066	-0,053
-223,913	-20,021	0,021	0,009
-222,898	459,784	-0,041	-0,065
-221,884	-200,000	-0,001	0,024
-220,869	-143,110	-0,074	0,005
-219,855	-6,129	-0,047	-0,023
-218,840	800,000	0,080	-0,177
-217,825	140,620	0,124	-0,118
-216,811	-200,000	-0,044	-0,158
-215,796	224,322	0,047	-0,055
-214,782	142,727	0,077	-0,074
-213,767	-6,355	-0,075	0,037
-212,752	-4,141	0,147	0,073
-211,738	719,518	0,045	0,087
-210,723	-200,000	0,000	-0,023
-209,709	-141,446	-0,070	-0,005
-208,694	-4,634	-0,010	-0,005
-207,679	125,607	-0,079	-0,072
-206,665	-200,000	0,008	0,045
-205,650	-3,772	0,163	0,081
-204,636	-24,578	-0,097	-0,041
-203,621	122,305	0,058	0,052
-202,606	462,455	0,013	-0,021
-201,592	-200,000	-0,023	0,086
-200,577	-27,224	0,083	-0,035
-199,563	171,946	0,053	0,055
-198,548	-200,000	-0,002	0,108
-197,533	174,319	-0,086	0,089
-196,519	89,713	-0,073	0,059
-195,504	3,957	0,020	0,011
-194,490	-200,000	0,000	-0,016
-193,475	800,000	-0,054	-0,142
-192,460	-200,000	-0,007	-0,026
-191,446	14,800	-0,028	-0,016
-190,431	192,192	0,058	0,063
-189,417	91,403	-0,116	0,094
-188,402	-70,081	-0,081	-0,022
-187,387	-200,000	-0,003	-0,031
-186,373	327,939	0,110	-0,152
-185,358	800,000	-0,068	-0,148
-184,344	-200,000	0,006	-0,024
-183,329	-200,000	0,003	0,130
-182,315	-200,000	-0,024	-0,093
-181,300	-36,526	0,116	-0,045
-180,285	-200,000	0,018	-0,084
-179,271	-200,000	-0,022	-0,102
-178,256	800,000	0,014	-0,035
-177,242	800,000	-0,075	0,198
-176,227	149,146	-0,078	0,076
-175,212	320,868	0,056	0,077
-174,198	69,823	-0,066	0,049
-173,183	800,000	-0,066	0,156
-172,169	800,000	0,036	0,097
-171,154	-77,132	0,107	-0,027
-170,139	660,593	0,048	0,089
-169,125	6,249	-0,066	0,035
-168,110	55,034	-0,117	0,081
-167,096	-15,168	-0,067	-0,031
-166,081	16,240	-0,109	0,062
-165,066	-58,849	-0,028	-0,009
-164,052	-112,202	0,008	-0,001
-163,037	800,000	-0,070	0,148
-162,023	146,165	-0,041	-0,040
-161,008	380,447	-0,009	0,013
-159,993	300,155	-0,004	0,005
-158,979	252,364	0,036	0,044
-157,964	-200,000	-0,007	-0,117
-156,950	615,912	-0,076	-0,137
-155,935	-200,000	0,026	0,148
-154,920	70,593	0,088	0,066
-153,906	-200,000	0,011	-0,094
-152,891	366,450	0,043	-0,063
-151,877	-200,000	0,013	0,065
-150,862	-62,952	-0,170	-0,050
-149,847	800,000	0,064	-0,174
-148,833	60,573	-0,098	-0,070
-147,818	3,896	-0,085	0,044
-146,804	-73,283	0,261	-0,068
-145,789	57,433	-0,024	0,017
-144,775	24,647	-0,047	-0,028
-143,760	418,145	-0,084	-0,129
-142,745	250,524	-0,067	-0,082
-141,731	-92,164	0,015	-0,003
-140,716	118,811	0,054	0,048
-139,702	408,458	-0,067	0,102
-138,687	-63,562	0,083	-0,024
-137,672	575,510	0,042	0,074
-136,658	-121,405	0,166	-0,020
-135,643	325,622	0,040	-0,055
-134,629	315,621	-0,082	-0,112
-133,614	-49,906	0,118	-0,040
-132,599	279,295	-0,066	0,085
-131,585	800,000	-0,013	0,033
-130,570	670,450	0,064	0,120
-129,556	-57,764	-0,163	0,051
-128,541	-6,867	-0,082	-0,040
-127,526	88,258	-0,090	0,071
-126,512	253,066	0,029	0,036
-125,497	-8,393	-0,079	-0,038
-124,483	118,935	-0,083	0,074
-123,468	-78,550	-0,168	-0,041
-122,453	-120,584	-0,080	-0,010
-121,439	-102,475	-0,138	-0,024
-120,424	-200,000	-0,012	-0,126
-119,410	123,599	0,106	0,096
