DTS Sentinel unit serial number:	SN410029Multiplexer serial number:	ORYXHardware model number:	OX2-SRSoftware version number:	ORYX F/W v4,00 Oryx Data Collector v3.7.2.0data status	okinstallation	B5 Nyhavnadifferential loss correction	single-endedforward channel	channel 2reverse channel	N/Adate	2023/12/12time	05:52:13forward acquisition time	300,00reverse acquisition time	0,00gamma	499,1914k internal	0,3157k external	0,3157temperature offset calibration	1,0000default loss term (dB/km)	0,3820temperature slope calibration	1,0000multiplexer offset coefficient	1,0000multiplexer slope coefficient	1,0000fibre end	0,00T internal ref (°C)	15,31T ext. ref 1 (°C)	-1,08T ext. ref 2 (°C)	-1,38length (m)	temperature (°C)	Stokes	anti-Stokes-744,400	800,000	0,023	-0,064
-743,385	-77,031	-0,331	-0,085
-742,371	-200,000	-0,013	0,143
-741,356	-96,123	-0,220	0,043
-740,342	194,628	-0,025	-0,027
-739,327	-104,529	-0,273	-0,046
-738,312	-161,187	0,147	-0,006
-737,298	-130,938	-0,319	-0,031
-736,283	195,631	0,093	0,105
-735,269	-60,885	-0,302	0,094
-734,254	-200,000	0,034	0,114
-733,239	-107,539	-0,500	-0,080
-732,225	-27,425	0,295	0,126
-731,210	-71,875	-0,063	0,017
-730,196	543,801	0,011	-0,020
-729,181	-12,726	-0,043	-0,020
-728,167	85,427	-0,046	0,037
-727,152	38,220	-0,075	-0,049
-726,137	-122,457	-0,145	0,017
-725,123	-200,000	0,001	0,090
-724,108	-23,897	-0,051	-0,022
-723,094	-200,000	-0,039	-0,170
-722,079	115,011	-0,132	0,119
-721,064	667,281	-0,046	-0,088
-720,050	-75,379	0,074	0,019
-719,035	-9,102	0,082	-0,040
-718,021	800,000	-0,025	-0,061
-717,006	-27,878	-0,097	0,041
-715,991	664,828	-0,078	-0,149
-714,977	-12,184	-0,075	0,036
-713,962	800,000	-0,026	-0,065
-712,948	-200,000	0,015	-0,063
-711,933	91,846	0,118	0,098
-710,918	-105,440	-0,068	-0,011
-709,904	203,422	-0,103	0,118
-708,889	-142,883	-0,012	-0,001
-707,875	-69,104	-0,123	-0,035
-706,860	118,819	0,047	-0,043
-705,845	-114,965	0,076	-0,011
-704,831	-83,987	0,072	0,017
-703,816	361,004	-0,063	-0,093
-702,802	563,585	0,041	-0,073
-701,787	-164,067	-0,060	-0,002
-700,772	742,975	-0,104	-0,206
-699,758	96,842	0,075	-0,063
-698,743	-107,921	0,072	-0,011
-697,729	-200,000	0,016	-0,068
-696,714	-13,538	0,044	-0,021
-695,699	-139,081	-0,090	-0,007
-694,685	75,937	-0,029	0,023
-693,670	-200,000	0,029	0,128
-692,656	-22,443	0,068	-0,030
-691,641	-200,000	-0,011	0,071
-690,627	599,050	-0,034	0,062
-689,612	-200,000	0,014	0,066
-688,597	-111,637	-0,029	-0,004
-687,583	-200,000	-0,054	-0,234
-686,568	800,000	-0,058	-0,150
-685,554	-200,000	0,004	-0,094
-684,539	-109,843	0,051	-0,008
-683,524	557,402	-0,077	-0,138
-682,510	297,869	0,079	-0,108
-681,495	-200,000	0,000	0,081
-680,481	-200,000	-0,022	-0,273
-679,466	800,000	-0,058	-0,142
-678,451	650,183	0,059	-0,112
-677,437	-200,000	-0,004	-0,076
-676,422	179,968	-0,086	0,093
-675,408	800,000	0,031	0,081
-674,393	84,971	0,069	0,056
-673,378	13,394	-0,038	-0,021
-672,364	-200,000	-0,018	-0,153
-671,349	225,528	-0,110	-0,132
-670,335	-76,670	0,077	-0,020
-669,320	-200,000	-0,001	0,027
-668,305	-92,277	-0,051	-0,010
-667,291	-200,000	0,002	0,049
-666,276	800,000	-0,046	0,116
-665,262	116,661	-0,059	-0,053
-664,247	-77,521	0,007	-0,002
-663,232	-200,000	0,004	0,107
-662,218	-200,000	0,012	-0,157
-661,203	211,650	-0,072	0,083
-660,189	-7,239	0,093	0,046
-659,174	59,136	-0,101	0,073
-658,159	-109,259	0,047	-0,007
-657,145	49,331	-0,077	0,053
-656,130	15,545	0,106	0,061
-655,116	-200,000	0,001	0,029
-654,101	-200,000	0,014	0,088
-653,086	-200,000	0,001	-0,038
-652,072	-21,251	-0,126	0,056
-651,057	666,829	-0,070	-0,134
-650,043	182,792	0,078	-0,085
-649,028	-200,000	-0,020	0,070
-648,014	164,263	-0,067	-0,069
-646,999	-200,000	0,018	-0,115
-645,984	535,063	-0,052	-0,090
-644,970	-123,834	-0,052	-0,006
-643,955	-200,000	-0,005	-0,102
-642,941	-32,923	-0,184	-0,075
-641,926	-200,000	-0,015	0,073
-640,911	60,459	0,039	0,028
-639,897	-200,000	0,005	-0,018
-638,882	342,841	0,028	0,040
-637,868	119,012	-0,043	0,039
-636,853	70,595	-0,156	-0,119
-635,838	-49,088	-0,067	0,023
-634,824	170,346	-0,032	0,033
-633,809	-200,000	0,016	0,069
-632,795	-172,026	0,216	0,005
-631,780	156,907	-0,029	0,029
-630,765	312,347	-0,079	-0,109
-629,751	1,495	-0,157	-0,083
-628,736	-200,000	-0,009	-0,034
-627,722	-66,453	0,027	-0,008
-626,707	-200,000	0,028	0,186
-625,692	-113,961	-0,036	0,005
-624,678	109,635	0,112	0,099
-623,663	-30,162	0,117	0,049
-622,649	424,999	-0,069	-0,110
-621,634	72,377	0,106	-0,081
-620,619	-200,000	-0,024	-0,085
-619,605	429,343	0,038	-0,060
-618,590	200,547	-0,017	-0,019
-617,576	697,073	0,063	0,123
-616,561	147,760	-0,111	-0,110
-615,546	-150,795	-0,131	-0,007
-614,532	26,254	-0,045	0,027
-613,517	-10,270	-0,058	-0,028
-612,503	451,569	0,063	0,103
-611,488	-200,000	0,005	-0,034
-610,474	-200,000	0,009	-0,111
-609,459	800,000	-0,028	0,062
-608,444	800,000	-0,062	-0,145
-607,430	800,000	0,056	-0,147
-606,415	-200,000	0,024	-0,098
-605,401	800,000	-0,016	0,041
-604,386	-5,774	-0,076	0,038
-603,371	163,959	-0,008	-0,008
-602,357	400,909	0,032	0,049
-601,342	207,241	-0,103	0,118
-600,328	-16,206	0,027	-0,012
-599,313	800,000	0,028	-0,070
-598,298	800,000	-0,042	-0,097
-597,284	180,616	-0,071	0,077
-596,269	51,827	0,196	0,136
-595,255	-200,000	0,020	-0,067
-594,240	151,219	-0,048	-0,048
-593,225	30,771	-0,082	0,052
-592,211	60,688	-0,094	0,068
-591,196	-120,136	0,074	-0,009
-590,182	305,413	0,062	0,085
-589,167	-14,704	0,124	0,058
-588,152	800,000	-0,010	-0,027
-587,138	237,172	0,045	-0,054
-586,123	-11,632	-0,078	-0,037
-585,109	54,003	0,078	0,055
-584,094	-57,302	-0,115	-0,037
-583,079	54,217	0,020	-0,014
-582,065	-132,936	0,055	0,005
-581,050	41,284	0,038	-0,025
-580,036	611,298	0,036	0,067
-579,021	-141,791	-0,071	-0,005
-578,006	-82,605	-0,150	0,035
-576,992	-61,895	-0,080	-0,024
-575,977	266,341	0,062	0,079
-574,963	17,301	-0,067	0,039
-573,948	800,000	-0,034	-0,098
-572,934	32,769	-0,073	0,046
-571,919	-200,000	-0,044	-0,157
-570,904	-200,000	0,014	-0,057
-569,890	-101,794	-0,056	-0,010
-568,875	-66,309	0,049	-0,014
-567,861	-3,330	0,111	-0,056
-566,846	800,000	0,042	0,124
-565,831	21,232	0,015	0,009
-564,817	11,416	0,024	-0,013
-563,802	85,699	-0,071	-0,057
-562,788	92,626	-0,104	-0,086
-561,773	105,971	-0,088	-0,076
-560,758	-1,729	0,074	0,038
-559,744	76,014	0,054	-0,042
-558,729	-200,000	-0,029	0,098
-557,715	733,849	0,035	0,068
-556,700	277,234	-0,027	-0,035
-555,685	-200,000	0,025	-0,186
-554,671	-24,899	-0,029	-0,012
-553,656	-110,550	0,202	-0,030
-552,642	7,916	0,061	-0,034
-551,627	800,000	0,040	-0,085
-550,612	800,000	0,005	0,012
-549,598	800,000	-0,054	-0,156
-548,583	-65,827	0,039	0,011
-547,569	-200,000	-0,058	-0,202
-546,554	-22,090	0,038	0,017
-545,539	-47,162	-0,061	-0,022
-544,525	-200,000	0,018	-0,068
-543,510	-200,000	0,007	-0,028
-542,496	36,237	-0,140	-0,090
-541,481	52,840	0,084	-0,058
-540,466	161,272	0,067	0,068
-539,452	-200,000	-0,029	0,134
-538,437	-200,000	0,013	0,057
-537,423	800,000	-0,055	0,152
-536,408	56,368	0,051	-0,036
-535,393	379,681	0,045	-0,068
-534,379	265,529	-0,147	0,188
-533,364	800,000	0,058	-0,123
-532,350	-184,262	-0,015	-0,000
-531,335	-57,822	-0,034	0,011
-530,321	-200,000	-0,034	0,122
-529,306	146,197	-0,076	-0,074
-528,291	-200,000	-0,014	0,069
-527,277	800,000	0,013	0,040
-526,262	51,496	0,110	-0,076
-525,248	25,673	0,103	-0,063
-524,233	3,051	0,119	-0,063
-523,218	77,061	0,067	-0,052
-522,204	52,473	0,056	0,039
-521,189	44,944	0,102	-0,069
-520,175	-104,774	-0,082	0,014
-519,160	-40,446	-0,064	-0,024
-518,145	31,817	0,069	0,043
-517,131	-200,000	0,016	0,000
-516,116	88,956	0,073	0,059
-515,102	-108,214	0,071	0,011
-514,087	127,160	-0,139	-0,129
-513,072	56,526	0,163	-0,115
-512,058	38,473	-0,117	-0,076
-511,043	356,893	-0,055	-0,080
-510,029	122,008	-0,070	-0,063
-509,014	-200,000	-0,013	0,052
-507,999	-75,712	-0,045	-0,012
-506,985	343,883	-0,051	-0,073
-505,970	239,634	-0,079	0,096
-504,956	-114,916	0,190	0,026
-503,941	-84,974	0,088	0,020
-502,926	-12,182	0,161	0,077
-501,912	-200,000	-0,027	-0,175
-500,897	-200,000	-0,016	0,070
-499,883	800,000	0,050	-0,131
-498,868	70,092	-0,149	0,112
-497,853	-15,460	0,080	-0,037
-496,839	164,023	-0,063	-0,065
-495,824	800,000	0,025	-0,077
-494,810	-200,000	0,019	-0,108
-493,795	-33,102	0,134	0,054
-492,781	-107,734	-0,022	0,004
-491,766	89,630	-0,026	-0,021
-490,751	-200,000	0,053	-0,174
-489,737	-200,000	-0,009	-0,063
-488,722	68,087	-0,022	-0,016
-487,708	9,324	0,030	0,016
-486,693	-200,000	-0,008	0,056
-485,678	-136,641	-0,184	0,015
-484,664	-60,802	0,040	-0,012
-483,649	-200,000	0,026	-0,232
-482,635	223,116	-0,053	0,063
-481,620	-200,000	0,000	0,013
-480,605	-46,885	0,119	0,042
-479,591	-58,017	0,072	0,023
-478,576	800,000	-0,024	0,072
-477,562	-200,000	-0,018	0,095
-476,547	-200,000	-0,002	-0,048
-475,532	800,000	-0,025	0,075
-474,518	800,000	-0,022	0,060
-473,503	-92,795	0,160	0,032
-472,489	309,866	0,023	-0,032
-471,474	-200,000	0,007	-0,045
-470,459	-200,000	0,008	-0,101
-469,445	-27,254	0,160	-0,068
-468,430	800,000	0,036	-0,073
-467,416	671,867	0,038	-0,073
-466,401	-200,000	0,042	0,157
-465,386	-110,120	0,070	0,011
-464,372	108,001	0,049	0,042
-463,357	77,597	-0,057	-0,044
-462,343	-121,731	0,104	-0,012
-461,328	-21,487	-0,135	-0,060
-460,313	104,825	-0,089	-0,077
-459,299	-76,447	-0,038	-0,010
-458,284	458,773	-0,134	0,218
-457,270	-200,000	0,035	0,129
-456,255	120,240	0,014	0,013
-455,241	-90,549	-0,096	-0,020
-454,226	-200,000	0,019	-0,074
-453,211	-63,710	-0,047	-0,014
-452,197	125,754	0,070	0,064
-451,182	-200,000	0,004	-0,056
-450,168	314,978	-0,063	-0,087
-449,153	-200,000	0,002	-0,079
-448,138	-10,239	0,059	0,028
-447,124	16,887	0,020	-0,011
-446,109	800,000	-0,011	-0,030
-445,095	800,000	-0,054	0,154
-444,080	143,058	-0,074	0,072
-443,065	183,604	0,096	-0,103
-442,051	47,315	0,055	-0,038
-441,036	100,397	-0,093	0,079
-440,022	32,249	-0,213	-0,134
-439,007	420,766	-0,032	-0,050
-437,992	-141,180	0,060	-0,004
-436,978	-145,810	0,114	0,007
-435,963	800,000	0,037	0,114
-434,949	64,391	-0,097	0,071
-433,934	-46,337	0,102	-0,036
-432,919	-200,000	0,009	-0,054
-431,905	-80,089	-0,103	0,025
-430,890	344,895	0,011	-0,015
-429,876	611,522	0,019	-0,035
-428,861	-200,000	-0,022	0,154
-427,846	800,000	0,037	0,093
-426,832	-61,251	-0,042	0,013
-425,817	223,649	-0,058	-0,068
-424,803	800,000	-0,037	-0,112
-423,788	348,090	0,042	0,061
-422,773	-81,078	0,099	-0,024
-421,759	-200,000	-0,036	0,125
-420,744	188,518	-0,086	0,094
-419,730	-200,000	-0,043	0,155
-418,715	-200,000	0,012	0,098
-417,701	-69,925	-0,047	0,013
-416,686	793,008	0,095	-0,192
-415,671	-41,765	0,065	0,024
-414,657	12,770	0,136	0,076
-413,642	-200,000	-0,019	-0,205
-412,628	800,000	0,015	-0,039
-411,613	-186,569	-0,069	-0,001
-410,598	-200,000	-0,003	-0,122
-409,584	227,148	-0,061	0,072
-408,569	800,000	-0,050	0,128
-407,555	800,000	0,031	0,065
-406,540	236,720	-0,084	0,101
-405,525	-200,000	0,002	-0,066
-404,511	-200,000	-0,004	-0,038
-403,496	-82,085	-0,017	0,004
-402,482	-200,000	-0,034	-0,115
-401,467	800,000	0,034	-0,080
-400,452	-75,208	0,063	-0,016
-399,438	-149,450	0,058	-0,003
-398,423	513,024	0,064	-0,109
-397,409	28,298	-0,106	0,065
-396,394	-200,000	0,011	-0,083
-395,379	800,000	-0,056	0,113
-394,365	90,385	0,115	0,093
-393,350	-200,000	0,005	-0,025
-392,336	-91,001	0,102	0,021
-391,321	-131,869	-0,077	0,007
-390,306	-165,710	-0,104	-0,003
-389,292	800,000	0,012	0,033
-388,277	683,846	-0,027	-0,052
-387,263	-200,000	-0,021	0,096
-386,248	800,000	0,038	-0,102
-385,233	-200,000	0,029	0,111
-384,219	-136,060	0,019	-0,002
-383,204	231,383	-0,023	0,027
-382,190	-200,000	-0,010	-0,053
-381,175	303,539	-0,036	-0,049
-380,160	-200,000	-0,008	0,047
-379,146	610,376	0,044	-0,081
-378,131	80,425	-0,098	0,077
-377,117	-200,000	0,014	-0,054
-376,102	-200,000	-0,025	-0,091
-375,088	800,000	-0,044	-0,108
-374,073	124,915	-0,047	0,043
-373,058	800,000	0,012	-0,031
-372,044	-40,322	0,063	-0,024
-371,029	218,881	-0,036	0,042
-370,015	-200,000	-0,002	0,035
-369,000	-200,000	0,011	0,052
-367,985	-200,000	-0,008	-0,036
-366,971	-48,049	0,056	-0,019
-365,956	-158,510	0,048	0,002
-364,942	24,543	0,071	-0,043
-363,927	186,391	-0,062	0,067
-362,912	267,258	0,052	0,066
-361,898	452,755	-0,035	-0,056
-360,883	-200,000	-0,023	-0,108
-359,869	800,000	-0,010	0,026
-358,854	800,000	-0,048	0,115
-357,839	800,000	0,020	0,053
-356,825	-67,126	-0,042	0,012
-355,810	168,814	-0,075	0,077
-354,796	-41,771	-0,125	0,046
-353,781	-40,575	-0,071	0,027
-352,766	-200,000	0,014	0,064
-351,752	-200,000	-0,022	-0,141
-350,737	-158,135	0,030	0,001
-349,723	-200,000	0,042	0,195
-348,708	-53,364	0,045	0,015
-347,693	-23,030	0,031	-0,013
-346,679	81,427	-0,107	0,084
-345,664	800,000	0,056	-0,138
-344,650	189,627	0,089	-0,096
-343,635	800,000	0,051	0,124
-342,620	-106,782	-0,101	0,016
-341,606	6,368	-0,148	0,080
-340,591	800,000	-0,041	0,102
-339,577	141,651	-0,019	0,019
-338,562	179,256	0,142	-0,151
-337,548	-29,022	0,096	0,040
-336,533	-200,000	0,014	-0,086
-335,518	551,306	0,044	-0,077
-334,504	-165,317	-0,129	-0,004
-333,489	515,513	0,047	0,080
-332,475	-200,000	0,030	-0,118
-331,460	255,443	-0,038	0,048
-330,445	533,232	-0,028	-0,048
-329,431	-109,961	0,125	-0,019
-328,416	800,000	-0,036	-0,108
-327,402	800,000	-0,044	0,120
-326,387	-200,000	0,009	0,053
-325,372	-50,158	0,050	0,017
-324,358	-113,755	-0,053	0,007
-323,343	-200,000	-0,010	-0,037
-322,329	-43,135	-0,121	0,044
-321,314	-200,000	0,007	0,115
-320,299	-141,501	0,102	0,007
-319,285	-138,999	-0,136	0,011
-318,270	45,154	-0,060	0,040
-317,256	-200,000	-0,036	-0,234
-316,241	233,221	0,090	-0,107
-315,226	-89,226	-0,081	0,017
-314,212	65,478	0,035	0,026
-313,197	413,586	0,066	0,103
-312,183	-200,000	-0,037	0,126
-311,168	35,668	0,118	-0,075
-310,153	-200,000	-0,019	-0,192
-309,139	-200,000	0,003	-0,049
-308,124	-135,651	0,054	-0,005
-307,110	48,606	-0,082	0,056
-306,095	-200,000	-0,006	-0,069
-305,080	-200,000	-0,005	0,031
-304,066	-200,000	-0,001	-0,054
-303,051	279,366	-0,040	-0,052
-302,037	-62,297	-0,096	-0,029
-301,022	-200,000	0,003	0,010
-300,008	800,000	0,051	0,108
-298,993	-200,000	-0,014	0,124
-297,978	83,541	0,125	0,098
-296,964	-200,000	0,003	-0,018
-295,949	87,118	-0,023	-0,019
-294,935	-30,684	-0,065	-0,026
-293,920	-200,000	-0,001	0,009
-292,905	128,445	0,046	-0,043
-291,891	-117,516	0,047	0,006
-290,876	244,831	0,046	0,057
-289,862	175,202	-0,086	0,090
-288,847	-200,000	0,020	0,121
-287,832	-159,277	-0,015	-0,001
-286,818	800,000	0,049	0,138
-285,803	89,105	0,083	0,067
-284,789	68,038	0,086	-0,064
-283,774	800,000	0,043	0,103
-282,759	110,657	0,083	0,072
-281,745	-57,492	-0,097	-0,031
-280,730	471,135	0,068	-0,111
-279,716	61,871	-0,059	-0,043
-278,701	-200,000	0,017	0,195
-277,686	-61,066	0,158	0,048
-276,672	89,770	0,113	-0,091
-275,657	-128,520	0,082	-0,008
-274,643	343,676	0,025	0,035
-273,628	17,606	0,036	-0,021
-272,613	525,865	0,086	-0,147
-271,599	-4,396	-0,060	-0,030
-270,584	-88,180	-0,035	0,008
-269,570	0,467	0,060	-0,031
-268,555	-46,424	0,033	0,012
-267,540	-200,000	-0,001	0,061
-266,526	-112,459	-0,108	-0,015
-265,511	232,609	-0,083	-0,099
-264,497	-20,898	0,127	0,056
-263,482	116,169	0,050	0,044
-262,467	-200,000	0,016	-0,053
-261,453	800,000	-0,008	0,020
-260,438	-121,445	-0,137	-0,016
-259,424	49,368	0,064	0,044
-258,409	218,818	-0,084	-0,097
-257,395	800,000	0,006	0,018
-256,380	800,000	-0,006	-0,016
-255,365	-200,000	0,035	-0,144
-254,351	800,000	-0,031	0,088
-253,336	360,179	0,123	0,179
-252,322	-200,000	0,008	-0,032
-251,307	-200,000	0,005	0,123
-250,292	800,000	-0,057	-0,118
-249,278	320,679	-0,015	-0,021
-248,263	-189,828	0,113	0,001
-247,249	714,870	-0,016	-0,031
-246,234	-138,614	-0,076	-0,006
-245,219	-69,668	-0,100	-0,028
-244,205	-200,000	-0,019	0,062
-243,190	-200,000	0,010	0,090
-242,176	-200,000	0,010	-0,061
-241,161	288,196	0,061	0,080
-240,146	227,133	0,034	-0,040
-239,132	-200,000	0,023	0,133
-238,117	230,792	-0,063	-0,074
-237,103	587,263	-0,031	-0,055
-236,088	-200,000	0,009	0,075
-235,073	800,000	-0,007	-0,020
-234,059	800,000	-0,041	0,106
-233,044	-200,000	-0,012	0,043
-232,030	800,000	-0,044	-0,109
-231,015	541,425	-0,054	-0,093
-230,000	-200,000	-0,049	-0,205
-228,986	-54,792	0,069	0,022
-227,971	707,068	-0,023	-0,045
-226,957	161,522	-0,075	0,076
-225,942	39,492	0,032	0,021
-224,927	96,318	0,064	0,053
-223,913	186,027	-0,043	0,046
-222,898	800,000	-0,045	-0,106
-221,884	800,000	0,003	-0,007
-220,869	35,086	0,028	0,017
-219,855	800,000	-0,040	0,090
-218,840	800,000	0,072	0,165
-217,825	-165,672	-0,122	-0,004
-216,811	29,748	0,103	-0,063
-215,796	-94,937	-0,117	-0,023
-214,782	49,124	-0,079	-0,054
-213,767	-200,000	0,028	-0,089
-212,752	800,000	0,056	0,143
-211,738	800,000	0,049	0,119
-210,723	87,759	-0,149	0,119
-209,709	159,011	-0,052	0,052
-208,694	800,000	-0,017	0,036
-207,679	-40,027	0,079	0,030
-206,665	-200,000	-0,008	-0,058
-205,650	360,327	0,045	0,065
-204,636	273,124	-0,030	0,039
-203,621	-132,323	-0,057	-0,005
-202,606	223,601	-0,111	0,129
-201,592	686,283	-0,046	0,087
-200,577	-200,000	-0,003	0,043
-199,563	406,965	-0,063	0,097
-198,548	-121,163	0,137	-0,016
-197,533	109,100	0,067	0,058
-196,519	-96,755	-0,043	0,008
-195,504	253,577	0,030	-0,037
-194,490	-200,000	-0,043	0,219
-193,475	-87,226	-0,112	-0,024
-192,460	-200,000	0,003	0,033
-191,446	154,872	-0,056	0,056
-190,431	718,554	0,042	-0,081
-189,417	-136,485	0,123	0,010
-188,402	520,068	-0,079	-0,134
-187,387	692,112	0,100	-0,189
-186,373	800,000	0,048	-0,097
-185,358	800,000	0,014	0,041
-184,344	-200,000	-0,004	0,062
-183,329	-200,000	-0,003	0,157
-182,315	-29,302	-0,166	0,068
-181,300	579,264	0,036	0,064
-180,285	-13,635	0,119	0,055
-179,271	-200,000	0,028	-0,098
-178,256	75,151	0,097	-0,074
-177,242	-200,000	0,097	0,000
-176,227	800,000	-0,024	0,055
-175,212	27,943	0,029	-0,017
-174,198	-200,000	-0,014	0,079
-173,183	-155,556	-0,039	-0,002
-172,169	-200,000	0,001	-0,059
-171,154	-102,267	0,063	-0,011
-170,139	-200,000	-0,024	-0,078
-169,125	-11,398	-0,069	-0,033
-168,110	-84,719	0,180	-0,040
-167,096	800,000	-0,011	-0,028
-166,081	800,000	0,025	-0,063
-165,066	-200,000	0,015	-0,052
-164,052	-80,985	-0,152	-0,036
-163,037	-76,864	0,099	0,025
-162,023	98,588	0,072	0,060
-161,008	800,000	0,025	0,056
-159,993	-200,000	-0,035	0,142
-158,979	43,667	0,045	0,029
-157,964	74,905	-0,066	0,050
-156,950	-67,724	-0,066	0,018
-155,935	-200,000	-0,030	0,110
-154,920	-41,805	0,062	-0,023
-153,906	52,395	0,172	0,118
-152,891	44,137	-0,095	0,062
-151,877	-200,000	0,002	0,060
-150,862	800,000	0,043	-0,113
-149,847	-200,000	0,013	0,096
-148,833	614,032	0,017	-0,030
-147,818	75,421	0,042	0,032
-146,804	639,012	0,026	0,049
-145,789	614,399	0,033	-0,059
-144,775	59,929	-0,045	-0,032
-143,760	10,332	0,019	0,010
-142,745	-200,000	0,008	0,076
-141,731	-21,847	0,139	0,061
-140,716	-200,000	0,022	-0,089
-139,702	-200,000	0,004	0,048
-138,687	423,050	-0,061	-0,095
-137,672	-200,000	-0,001	-0,121
-136,658	1,880	-0,070	-0,036
-135,643	-200,000	0,017	0,118
-134,629	800,000	0,062	-0,189
-133,614	-200,000	0,015	0,087
-132,599	-200,000	-0,012	0,077
-131,585	452,944	-0,045	0,071
-130,570	-70,346	-0,100	-0,027
-129,556	-200,000	-0,001	-0,076
-128,541	-200,000	-0,000	0,051
-127,526	621,739	-0,030	0,055
-126,512	371,489	0,086	0,126
-125,497	800,000	-0,043	0,108
-124,483	115,382	-0,079	-0,070
-123,468	-200,000	0,004	-0,087
-122,453	800,000	0,057	-0,159
-121,439	59,932	-0,081	-0,057
-120,424	-63,232	0,007	0,002
