DTS Sentinel unit serial number:	SN410029Multiplexer serial number:	ORYXHardware model number:	OX2-SRSoftware version number:	ORYX F/W v4,00 Oryx Data Collector v3.7.2.0data status	okinstallation	B5 Nyhavnadifferential loss correction	single-endedforward channel	channel 2reverse channel	N/Adate	2023/12/11time	14:57:13forward acquisition time	300,00reverse acquisition time	0,00gamma	499,1914k internal	0,3167k external	0,3167temperature offset calibration	1,0000default loss term (dB/km)	0,3820temperature slope calibration	1,0000multiplexer offset coefficient	1,0000multiplexer slope coefficient	1,0000fibre end	0,00T internal ref (°C)	12,97T ext. ref 1 (°C)	-1,95T ext. ref 2 (°C)	-1,95length (m)	temperature (°C)	Stokes	anti-Stokes-744,400	5,670	0,099	0,054
-743,385	-36,906	-0,248	0,097
-742,371	5,195	0,121	0,065
-741,356	-64,961	-0,225	0,066
-740,342	12,151	0,172	0,097
-739,327	-67,302	-0,203	0,058
-738,312	-200,000	0,006	0,033
-737,298	-100,065	-0,256	-0,046
-736,283	-81,867	0,053	0,013
-735,269	-59,654	-0,307	-0,096
-734,254	10,865	0,119	0,066
-733,239	-110,719	-0,425	-0,064
-732,225	-8,571	0,231	0,113
-731,210	-200,000	0,009	-0,066
-730,196	-200,000	-0,109	-0,000
-729,181	-121,742	0,082	0,010
-728,167	-148,740	-0,113	0,007
-727,152	681,399	-0,083	-0,160
-726,137	89,661	-0,052	0,043
-725,123	257,383	-0,065	0,083
-724,108	488,652	-0,090	-0,152
-723,094	420,896	-0,102	-0,161
-722,079	-200,000	0,012	0,071
-721,064	9,877	0,039	-0,021
-720,050	-31,783	0,151	-0,062
-719,035	-167,054	0,087	-0,003
-718,021	-98,727	0,047	0,009
-717,006	470,544	-0,036	-0,060
-715,991	-200,000	0,044	-0,156
-714,977	0,986	-0,035	0,018
-713,962	291,137	-0,059	-0,078
-712,948	-200,000	-0,030	0,115
-711,933	-64,803	0,109	0,032
-710,918	269,163	-0,077	0,100
-709,904	70,087	-0,063	0,048
-708,889	-144,596	-0,062	0,004
-707,875	-158,073	-0,075	-0,003
-706,860	-96,968	0,134	-0,025
-705,845	642,075	-0,072	0,135
-704,831	-200,000	0,023	0,084
-703,816	-200,000	-0,003	-0,039
-702,802	800,000	-0,052	0,126
-701,787	525,147	-0,056	-0,097
-700,772	-200,000	-0,004	0,031
-699,758	-92,557	-0,045	-0,009
-698,743	-200,000	-0,020	-0,153
-697,729	17,167	0,017	-0,010
-696,714	107,988	0,060	0,052
-695,699	-200,000	-0,000	-0,003
-694,685	134,774	-0,045	-0,043
-693,670	57,489	-0,087	-0,062
-692,656	111,117	0,043	0,038
-691,641	-20,685	0,163	0,073
-690,627	-200,000	-0,004	-0,060
-689,612	100,689	0,028	-0,024
-688,597	-142,911	0,045	0,003
-687,583	272,351	-0,032	-0,042
-686,568	-128,433	-0,076	0,008
-685,554	254,860	0,066	-0,083
-684,539	-52,654	-0,084	-0,028
-683,524	-120,491	0,109	0,013
-682,510	-87,353	0,118	0,026
-681,495	-200,000	0,004	0,112
-680,481	-184,523	-0,068	0,001
-679,466	-11,744	-0,228	-0,109
-678,451	-28,229	0,069	-0,029
-677,437	608,098	0,097	-0,178
-676,422	-200,000	0,023	0,104
-675,408	-113,813	-0,106	0,015
-674,393	-37,860	0,151	-0,059
-673,378	-200,000	-0,029	0,096
-672,364	800,000	-0,066	-0,135
-671,349	299,850	-0,098	-0,133
-670,335	203,634	0,059	0,067
-669,320	-46,713	0,102	0,037
-668,305	-200,000	-0,034	0,125
-667,291	11,141	0,085	0,047
-666,276	408,650	0,030	-0,046
-665,262	401,391	0,011	-0,017
-664,247	80,951	-0,061	0,049
-663,232	-200,000	-0,038	-0,131
-662,218	223,956	-0,042	-0,050
-661,203	53,979	-0,054	0,038
-660,189	-200,000	0,004	-0,038
-659,174	-13,748	0,025	-0,012
-658,159	536,390	0,017	0,030
-657,145	-55,946	-0,114	0,037
-656,130	-200,000	-0,007	-0,072
-655,116	744,822	0,060	0,119
-654,101	-20,503	0,103	-0,046
-653,086	259,803	-0,022	0,028
-652,072	133,484	0,109	-0,103
-651,057	603,209	-0,035	-0,063
-650,043	82,157	-0,133	-0,106
-649,028	93,653	0,091	0,075
-648,014	-200,000	0,010	0,049
-646,999	-102,175	0,075	-0,013
-645,984	-32,682	0,140	-0,057
-644,970	-200,000	0,005	-0,019
-643,955	-200,000	0,004	-0,019
-642,941	91,576	0,096	-0,079
-641,926	800,000	0,023	0,066
-640,911	254,238	0,079	0,099
-639,897	164,236	-0,079	0,081
-638,882	72,485	0,042	0,032
-637,868	251,755	0,066	-0,082
-636,853	-184,981	-0,148	0,002
-635,838	-58,264	0,074	-0,024
-634,824	-131,299	0,042	0,004
-633,809	-200,000	0,001	-0,137
-632,795	-144,567	-0,063	-0,004
-631,780	-200,000	-0,015	-0,114
-630,765	85,528	-0,086	0,069
-629,751	463,277	-0,013	-0,021
-628,736	-200,000	0,037	-0,170
-627,722	-200,000	0,004	0,091
-626,707	400,450	0,034	-0,052
-625,692	800,000	-0,036	0,091
-624,678	-173,319	0,072	-0,002
-623,663	-200,000	0,017	0,063
-622,649	109,634	0,054	-0,047
-621,634	555,174	0,054	-0,095
-620,619	-133,007	0,090	-0,008
-619,605	108,002	0,072	-0,063
-618,590	-115,909	-0,124	0,017
-617,576	270,272	0,017	-0,022
-616,561	239,685	-0,026	0,031
-615,546	22,822	0,095	-0,057
-614,532	800,000	-0,017	-0,040
-613,517	800,000	0,008	-0,018
-612,503	312,885	0,012	0,017
-611,488	-139,730	0,103	-0,008
-610,474	243,137	0,088	-0,108
-609,459	-200,000	0,020	-0,106
-608,444	-42,829	-0,072	-0,027
-607,430	3,568	0,041	0,022
-606,415	278,841	0,020	-0,026
-605,401	-23,099	-0,111	-0,049
-604,386	-200,000	-0,009	-0,065
-603,371	-49,510	0,177	0,061
-602,357	41,143	-0,093	0,061
-601,342	-200,000	-0,000	-0,068
-600,328	109,467	-0,031	-0,027
-599,313	119,959	-0,060	-0,054
-598,298	653,994	-0,017	-0,032
-597,284	800,000	0,014	-0,031
-596,269	800,000	-0,046	0,122
-595,255	-122,797	0,009	0,001
-594,240	-200,000	0,028	-0,109
-593,225	381,593	-0,106	-0,160
-592,211	131,444	-0,101	-0,095
-591,196	-200,000	-0,005	-0,097
-590,182	151,235	0,035	0,035
-589,167	-200,000	-0,015	0,095
-588,152	11,581	-0,051	-0,028
-587,138	800,000	-0,009	-0,018
-586,123	70,832	0,061	-0,046
-585,109	-200,000	-0,014	0,071
-584,094	800,000	-0,052	0,134
-583,079	127,654	-0,080	0,075
-582,065	70,284	0,026	0,019
-581,050	38,794	0,011	-0,007
-580,036	-77,488	-0,057	-0,014
-579,021	800,000	0,041	-0,085
-578,006	-100,817	-0,042	0,007
-576,992	-200,000	0,004	-0,140
-575,977	98,338	-0,023	-0,020
-574,963	-200,000	0,008	0,213
-573,948	392,961	-0,103	0,157
-572,934	12,134	0,022	-0,012
-571,919	-200,000	-0,016	-0,083
-570,904	-57,202	-0,057	0,018
-569,890	192,980	-0,012	0,013
-568,875	800,000	-0,008	0,026
-567,861	-200,000	-0,004	0,074
-566,846	-92,538	0,101	-0,020
-565,831	800,000	-0,030	-0,082
-564,817	800,000	0,014	-0,035
-563,802	56,746	0,090	-0,064
-562,788	347,703	0,101	-0,146
-561,773	-200,000	0,004	-0,163
-560,758	139,962	0,082	0,079
-559,744	-200,000	-0,011	-0,090
-558,729	35,270	-0,090	-0,057
-557,715	-41,923	0,232	0,086
-556,700	92,951	0,055	-0,045
-555,685	-200,000	-0,045	-0,193
-554,671	20,779	0,066	-0,039
-553,656	44,576	0,103	0,069
-552,642	229,165	-0,102	0,122
-551,627	800,000	0,047	-0,105
-550,612	41,788	-0,085	0,056
-549,598	-200,000	0,011	-0,191
-548,583	-56,015	-0,055	-0,018
-547,569	340,994	0,081	0,115
-546,554	-67,438	-0,025	-0,007
-545,539	236,750	0,129	0,156
-544,525	-28,644	-0,222	-0,093
-543,510	51,018	0,073	-0,051
-542,496	36,012	-0,103	0,066
-541,481	81,140	-0,063	0,050
-540,466	-200,000	0,016	0,111
-539,452	-200,000	-0,035	0,116
-538,437	-135,594	0,037	0,003
-537,423	102,297	-0,024	0,020
-536,408	158,580	0,100	-0,102
-535,393	-200,000	0,000	-0,152
-534,379	154,783	-0,030	0,030
-533,364	-6,840	-0,107	-0,053
-532,350	447,369	0,082	-0,132
-531,335	-68,925	-0,064	-0,018
-530,321	172,667	0,044	0,047
-529,306	800,000	-0,020	-0,047
-528,291	-11,868	-0,169	0,081
-527,277	-200,000	-0,008	0,085
-526,262	800,000	0,042	-0,089
-525,248	12,639	-0,015	0,008
-524,233	-151,661	-0,041	0,002
-523,218	-139,600	-0,073	-0,006
-522,204	299,935	-0,072	0,096
-521,189	385,062	0,065	0,099
-520,175	-9,797	-0,085	0,041
-519,160	-40,145	-0,098	0,037
-518,145	126,711	0,057	0,052
-517,131	-200,000	0,010	-0,059
-516,116	-200,000	-0,014	-0,129
-515,102	35,942	-0,064	0,041
-514,087	135,517	0,049	0,046
-513,072	113,470	0,123	0,109
-512,058	275,277	0,008	-0,011
-511,043	-200,000	-0,001	0,011
-510,029	124,827	0,067	0,062
-509,014	140,141	0,105	0,100
-507,999	-77,683	-0,090	0,022
-506,985	87,823	-0,026	0,021
-505,970	46,099	0,050	-0,033
-504,956	-8,678	-0,116	-0,057
-503,941	254,873	-0,030	-0,038
-502,926	-141,295	-0,061	0,004
-501,912	122,161	0,083	-0,076
-500,897	-200,000	-0,045	0,158
-499,883	-200,000	0,002	-0,035
-498,868	-200,000	0,003	-0,019
-497,853	700,757	-0,035	0,066
-496,839	110,376	-0,095	0,083
-495,824	-151,355	0,042	-0,002
-494,810	-129,829	0,099	0,010
-493,795	98,352	-0,086	0,072
-492,781	70,218	-0,065	0,049
-491,766	-200,000	-0,009	-0,039
-490,751	293,113	-0,044	0,058
-489,737	-83,540	-0,061	-0,014
-488,722	-200,000	0,015	-0,072
-487,708	592,229	0,035	-0,063
-486,693	96,334	-0,105	0,087
-485,678	672,021	0,069	-0,131
-484,664	-200,000	0,058	0,202
-483,649	-24,433	-0,155	-0,067
-482,635	690,310	0,036	-0,068
-481,620	-76,199	0,070	-0,018
-480,605	746,006	0,060	0,119
-479,591	800,000	-0,034	-0,092
-478,576	49,128	0,037	0,025
-477,562	264,509	-0,037	-0,046
-476,547	800,000	-0,028	-0,075
-475,532	-62,045	-0,141	-0,043
-474,518	-200,000	-0,019	0,112
-473,503	-4,762	0,081	0,040
-472,489	0,716	0,126	-0,065
-471,474	-200,000	0,014	0,065
-470,459	51,091	-0,030	-0,021
-469,445	-200,000	0,008	0,063
-468,430	-139,462	-0,080	-0,006
-467,416	104,308	0,095	0,081
-466,401	-5,506	0,078	-0,039
-465,386	-132,839	0,072	0,007
-464,372	-181,782	-0,036	-0,000
-463,357	-200,000	-0,017	0,120
-462,343	24,558	-0,056	-0,034
-461,328	279,596	-0,112	-0,146
-460,313	228,124	0,056	-0,066
-459,299	324,652	0,018	0,025
-458,284	371,674	0,095	-0,140
-457,270	-200,000	-0,027	0,122
-456,255	0,812	0,071	0,037
-455,241	-126,738	0,093	-0,010
-454,226	152,581	-0,041	-0,041
-453,211	-102,908	-0,124	-0,021
-452,197	1,293	0,071	-0,037
-451,182	116,356	0,059	0,052
-450,168	182,516	-0,035	0,037
-449,153	250,965	0,024	-0,029
-448,138	-27,070	0,161	-0,068
-447,124	-102,963	0,065	-0,011
-446,109	-200,000	0,010	-0,152
-445,095	765,069	-0,018	0,036
-444,080	-91,794	-0,100	0,020
-443,065	16,841	-0,089	0,051
-442,051	204,425	0,030	-0,034
-441,036	-200,000	-0,010	-0,079
-440,022	-200,000	-0,050	0,164
-439,007	105,503	-0,197	0,169
-437,992	800,000	0,006	-0,013
-436,978	800,000	-0,001	-0,002
-435,963	800,000	0,038	0,099
-434,949	-32,902	0,089	0,036
-433,934	-200,000	-0,009	-0,057
-432,919	-200,000	-0,153	0,000
-431,905	289,930	-0,095	-0,125
-430,890	800,000	0,061	-0,140
-429,876	148,356	0,054	-0,053
-428,861	-48,942	0,067	-0,023
-427,846	88,155	-0,133	-0,107
-426,832	329,923	0,058	-0,082
-425,817	218,118	0,072	-0,084
-424,803	-141,090	0,095	0,007
-423,788	-200,000	-0,012	0,071
-422,773	800,000	-0,043	0,097
-421,759	-139,601	0,030	0,002
-420,744	800,000	-0,034	0,088
-419,730	101,178	0,072	-0,061
-418,715	-200,000	0,015	0,152
-417,701	472,005	-0,018	-0,030
-416,686	365,392	0,035	0,052
-415,671	-186,139	0,110	-0,001
-414,657	-71,499	0,104	-0,028
-413,642	302,869	-0,037	0,050
-412,628	-164,792	-0,065	0,002
-411,613	-23,947	0,067	0,029
-410,598	730,097	-0,046	-0,090
-409,584	-89,602	0,110	-0,023
-408,569	-65,442	0,070	0,020
-407,555	-200,000	0,002	0,008
-406,540	-200,000	0,003	-0,174
-405,525	-200,000	0,004	-0,020
-404,511	-145,412	-0,066	0,004
-403,496	-188,724	-0,068	0,001
-402,482	-200,000	-0,001	0,038
-401,467	800,000	-0,095	0,214
-400,452	262,700	-0,119	0,150
-399,438	-50,018	-0,070	-0,024
-398,423	-200,000	-0,002	0,097
-397,409	-130,366	-0,098	0,010
-396,394	800,000	0,060	0,164
-395,379	146,217	-0,027	0,026
-394,365	800,000	-0,040	0,108
-393,350	30,202	0,120	0,074
-392,336	139,595	0,063	0,061
-391,321	144,697	-0,069	0,067
-390,306	-200,000	-0,031	-0,116
-389,292	186,373	-0,023	0,025
-388,277	216,009	0,116	-0,134
-387,263	-200,000	-0,011	-0,104
-386,248	457,002	-0,043	0,069
-385,233	-110,285	-0,170	0,025
-384,219	-102,137	-0,033	0,006
-383,204	-200,000	-0,010	-0,042
-382,190	323,402	-0,056	-0,078
-381,175	-142,470	0,055	0,004
-380,160	104,169	0,067	-0,057
-379,146	313,913	0,066	0,090
-378,131	-200,000	0,002	0,089
-377,117	5,463	-0,172	-0,092
-376,102	-26,215	0,044	0,019
-375,088	-200,000	0,012	0,048
-374,073	-71,998	0,104	-0,028
-373,058	-122,836	-0,062	-0,007
-372,044	800,000	0,044	0,124
-371,029	51,432	-0,055	-0,038
-370,015	-200,000	-0,001	-0,005
-369,000	-21,664	-0,174	0,077
-367,985	78,706	0,122	-0,095
-366,971	-51,437	-0,128	-0,043
-365,956	-200,000	-0,001	0,144
-364,942	-92,335	0,126	0,025
-363,927	800,000	0,057	0,119
-362,912	53,195	0,127	0,088
-361,898	-44,754	-0,170	0,061
-360,883	87,751	-0,057	0,046
-359,869	431,884	-0,022	-0,035
-358,854	-200,000	0,030	0,125
-357,839	77,888	0,042	-0,033
-356,825	-200,000	0,005	0,102
-355,810	276,466	-0,028	0,036
-354,796	-200,000	-0,009	-0,031
-353,781	81,673	-0,060	-0,047
-352,766	-200,000	0,010	-0,116
-351,752	-115,462	-0,089	-0,012
-350,737	96,476	0,059	-0,049
-349,723	13,477	-0,060	-0,034
-348,708	800,000	0,022	0,065
-347,693	228,900	-0,060	-0,071
-346,679	463,752	0,020	0,032
-345,664	532,582	-0,048	-0,083
-344,650	-158,285	0,098	0,004
-343,635	-106,577	0,097	-0,016
-342,620	128,041	0,097	-0,090
-341,606	379,673	-0,021	0,032
-340,591	-65,214	-0,089	-0,026
-339,577	-200,000	-0,039	0,135
-338,562	-200,000	-0,032	0,122
-337,548	77,461	0,105	-0,081
-336,533	59,683	0,117	0,083
-335,518	800,000	-0,028	-0,090
-334,504	-78,813	0,064	0,016
-333,489	-41,689	-0,077	-0,028
-332,475	-200,000	-0,008	0,060
-331,460	800,000	-0,042	-0,120
-330,445	-154,187	0,075	-0,004
-329,431	37,870	-0,079	0,051
-328,416	800,000	0,057	-0,116
-327,402	583,573	0,017	-0,030
-326,387	-101,165	-0,072	-0,013
-325,372	800,000	0,056	-0,115
-324,358	-200,000	-0,000	-0,028
-323,343	632,722	0,055	0,100
-322,329	-6,301	-0,012	-0,006
-321,314	-40,770	0,171	0,064
-320,299	-164,656	0,029	-0,001
-319,285	41,170	-0,162	-0,106
-318,270	546,377	0,044	-0,077
-317,256	329,471	0,030	-0,041
-316,241	-81,282	-0,052	-0,012
-315,226	671,750	0,079	0,149
-314,212	-81,237	0,019	0,004
-313,197	-200,000	-0,002	-0,145
-312,183	183,931	-0,078	0,084
-311,168	71,720	0,079	0,059
-310,153	-28,268	-0,032	0,013
-309,139	-105,766	0,152	0,025
-308,124	-89,328	-0,122	0,026
-307,110	-200,000	0,004	-0,052
-306,095	-200,000	0,003	0,095
-305,080	-108,410	-0,043	0,007
-304,066	-200,000	0,079	0,000
-303,051	-74,763	-0,160	-0,041
-302,037	-200,000	0,037	-0,206
-301,022	-200,000	0,125	0,000
-300,008	-104,299	-0,039	-0,007
-298,993	463,477	-0,034	-0,055
-297,978	-151,458	-0,165	-0,009
-296,964	-103,393	-0,115	-0,019
-295,949	-200,000	-0,005	0,016
-294,935	-200,000	-0,021	0,100
-293,920	39,140	-0,124	0,080
-292,905	-200,000	0,022	0,125
-291,891	-70,804	0,126	-0,034
-290,876	-39,968	-0,123	-0,046
-289,862	-83,834	-0,209	0,048
-288,847	-200,000	0,030	-0,181
-287,832	-49,351	0,009	0,003
-286,818	800,000	0,035	-0,072
-285,803	-77,124	0,034	0,009
-284,789	273,016	-0,040	-0,052
-283,774	20,659	-0,117	-0,068
-282,759	-131,500	0,101	-0,009
-281,745	332,448	-0,070	-0,098
-280,730	147,151	-0,096	-0,093
-279,716	195,321	-0,048	0,052
-278,701	-13,224	-0,079	0,037
-277,686	505,767	0,050	0,083
-276,672	29,550	0,083	0,051
-275,657	-17,275	-0,079	0,036
-274,643	212,101	0,039	0,044
-273,628	-200,000	0,042	-0,139
-272,613	60,632	-0,165	-0,118
-271,599	-200,000	0,007	0,050
-270,584	-135,349	0,021	-0,002
-269,570	254,404	-0,050	0,062
-268,555	-200,000	0,030	0,156
-267,540	246,179	0,035	-0,042
-266,526	28,776	-0,035	-0,022
-265,511	-40,097	-0,069	-0,026
-264,497	13,319	0,203	0,113
-263,482	245,652	-0,049	0,060
-262,467	-200,000	0,046	-0,151
-261,453	-2,824	0,061	0,031
-260,438	71,357	-0,138	-0,103
-259,424	800,000	-0,003	0,009
-258,409	-13,764	-0,019	-0,009
-257,395	800,000	0,045	-0,116
-256,380	-200,000	0,054	0,201
-255,365	-105,429	-0,110	0,018
-254,351	59,748	-0,058	0,041
-253,336	40,829	0,057	-0,037
-252,322	-52,352	-0,046	0,015
-251,307	-38,927	0,122	-0,046
-250,292	306,607	0,075	-0,101
-249,278	459,335	0,020	-0,032
-248,263	-200,000	-0,008	0,057
-247,249	-200,000	0,029	-0,112
-246,234	225,016	0,071	0,083
-245,219	800,000	0,049	-0,134
-244,205	800,000	-0,056	0,163
-243,190	-200,000	-0,014	-0,066
-242,176	438,558	0,006	0,009
-241,161	-24,266	0,061	-0,026
-240,146	-83,637	-0,055	-0,012
-239,132	-200,000	0,014	-0,135
-238,117	403,661	0,090	-0,137
-237,103	-151,892	-0,101	0,005
-236,088	800,000	-0,016	-0,051
-235,073	56,708	-0,024	0,017
-234,059	-200,000	0,010	0,120
-233,044	760,013	-0,019	-0,037
-232,030	-200,000	-0,008	0,035
-231,015	-200,000	0,020	-0,093
-230,000	109,368	-0,047	-0,041
-228,986	205,708	0,117	0,131
-227,971	137,306	-0,108	0,102
-226,957	800,000	0,032	0,092
-225,942	70,121	0,087	0,064
-224,927	-200,000	-0,002	-0,026
-223,913	-86,235	-0,072	0,016
-222,898	-25,085	0,086	-0,037
-221,884	-200,000	-0,014	-0,051
-220,869	800,000	0,054	0,111
-219,855	-12,965	0,077	-0,036
-218,840	-64,931	0,062	0,018
-217,825	59,440	0,073	0,052
-216,811	-200,000	0,019	-0,128
-215,796	800,000	0,028	0,084
-214,782	30,480	-0,055	0,034
-213,767	-96,094	0,102	-0,019
-212,752	-200,000	-0,003	-0,049
-211,738	-89,838	0,125	0,026
-210,723	477,335	-0,047	-0,076
-209,709	-200,000	-0,001	-0,021
-208,694	800,000	-0,038	0,085
-207,679	-200,000	0,014	0,050
-206,665	800,000	0,025	0,067
-205,650	22,740	0,113	-0,067
-204,636	93,823	-0,085	-0,069
-203,621	-25,689	0,115	-0,049
-202,606	800,000	-0,025	0,059
-201,592	297,705	0,033	0,043
-200,577	-151,195	-0,140	-0,007
-199,563	-32,665	0,087	-0,035
-198,548	800,000	0,079	0,205
-197,533	1,281	-0,074	0,038
-196,519	-32,423	0,152	0,061
-195,504	161,586	0,073	-0,073
-194,490	118,830	-0,051	0,046
-193,475	-15,025	-0,104	0,048
-192,460	-115,111	-0,029	0,004
-191,446	-200,000	0,001	-0,071
-190,431	-149,417	0,137	-0,008
-189,417	-61,468	-0,041	-0,012
-188,402	-174,954	0,096	0,002
-187,387	267,444	-0,038	-0,049
-186,373	-200,000	-0,025	-0,129
-185,358	-64,153	-0,062	0,018
-184,344	-41,852	0,103	-0,038
-183,329	50,175	-0,057	-0,039
-182,315	-200,000	0,015	0,075
-181,300	800,000	-0,027	0,066
-180,285	10,868	0,078	-0,043
-179,271	-200,000	0,023	0,087
-178,256	-17,438	-0,120	0,054
-177,242	-200,000	0,021	0,191
-176,227	-34,443	0,031	-0,012
-175,212	-135,619	-0,049	0,004
-174,198	37,355	-0,125	0,080
-173,183	166,293	-0,113	-0,115
-172,169	-4,264	-0,090	-0,045
-171,154	-46,201	-0,133	-0,047
-170,139	800,000	0,042	0,098
-169,125	27,685	0,073	-0,044
-168,110	800,000	0,012	-0,037
-167,096	6,086	-0,064	0,034
-166,081	-40,438	-0,017	0,006
-165,066	-32,286	-0,092	-0,037
-164,052	-80,901	0,056	-0,013
-163,037	410,126	0,046	0,070
-162,023	-119,126	0,119	-0,015
-161,008	-200,000	0,016	-0,062
-159,993	436,455	0,068	0,106
-158,979	339,449	-0,051	0,072
-157,964	549,548	0,057	-0,099
-156,950	355,946	-0,020	-0,029
-155,935	11,476	0,095	0,052
-154,920	-200,000	-0,029	0,113
-153,906	-103,756	-0,187	0,031
-152,891	-60,059	0,058	0,018
-151,877	380,662	0,037	-0,054
-150,862	-19,644	-0,052	0,023
-149,847	90,282	0,020	-0,016
-148,833	-76,206	-0,011	0,003
-147,818	134,064	0,074	0,069
-146,804	-200,000	0,004	0,104
-145,789	-71,858	0,096	-0,025
-144,775	-200,000	0,011	-0,041
-143,760	-71,497	0,157	-0,042
-142,745	-200,000	-0,019	-0,102
-141,731	439,128	0,064	-0,100
-140,716	-19,525	0,122	0,054
-139,702	-130,346	0,153	0,015
-138,687	-200,000	0,010	0,137
-137,672	494,341	-0,115	0,190
-136,658	124,605	-0,018	0,016
-135,643	-200,000	0,007	0,047
-134,629	-200,000	-0,022	0,149
-133,614	-200,000	0,020	0,167
-132,599	43,979	-0,151	-0,099
-131,585	-200,000	0,020	0,088
-130,570	112,219	-0,106	0,092
-129,556	-200,000	0,003	-0,079
-128,541	163,377	0,019	0,020
-127,526	-47,831	-0,091	0,031
-126,512	-200,000	0,039	0,187
-125,497	126,105	0,057	0,051
-124,483	498,810	0,074	0,124
-123,468	192,604	0,052	0,056
-122,453	-200,000	0,020	-0,067
-121,439	-200,000	0,032	0,109
-120,424	-53,698	-0,089	0,029
-119,410	132,186	0,011	0,010
