DTS Sentinel unit serial number:	SN410029Multiplexer serial number:	ORYXHardware model number:	OX2-SRSoftware version number:	ORYX F/W v4,00 Oryx Data Collector v3.7.2.0data status	okinstallation	B5 Nyhavnadifferential loss correction	single-endedforward channel	channel 2reverse channel	N/Adate	2023/12/13time	06:57:13forward acquisition time	300,00reverse acquisition time	0,00gamma	499,1914k internal	0,3160k external	0,3160temperature offset calibration	1,0000default loss term (dB/km)	0,3820temperature slope calibration	1,0000multiplexer offset coefficient	1,0000multiplexer slope coefficient	1,0000fibre end	0,00T internal ref (°C)	13,74T ext. ref 1 (°C)	-2,71T ext. ref 2 (°C)	-3,03length (m)	temperature (°C)	Stokes	anti-Stokes-744,400	21,030	0,088	-0,053
-743,385	-22,372	-0,304	-0,135
-742,371	160,710	0,115	0,118
-741,356	-139,189	-0,318	0,025
-740,342	-15,009	0,132	-0,062
-739,327	-124,805	-0,333	-0,037
-738,312	-118,717	-0,043	0,006
-737,298	-147,276	-0,217	0,013
-736,283	296,985	0,112	-0,151
-735,269	-150,275	-0,333	0,019
-734,254	-79,536	-0,030	0,007
-733,239	-76,534	-0,607	-0,156
-732,225	-102,017	0,234	-0,041
-731,210	62,492	0,071	0,052
-730,196	341,264	-0,051	-0,073
-729,181	-64,913	0,165	0,049
-728,167	-119,654	-0,204	-0,026
-727,152	-200,000	-0,008	0,028
-726,137	-85,421	-0,095	0,022
-725,123	-93,502	0,033	0,007
-724,108	99,970	-0,126	-0,108
-723,094	121,165	-0,055	-0,050
-722,079	106,792	-0,139	-0,122
-721,064	-125,415	0,096	-0,011
-720,050	107,632	0,073	0,064
-719,035	80,912	-0,080	0,063
-718,021	-200,000	0,002	-0,142
-717,006	38,697	-0,076	-0,050
-715,991	43,390	-0,129	-0,087
-714,977	-200,000	-0,004	-0,035
-713,962	248,627	0,085	-0,106
-712,948	-88,051	-0,116	0,025
-711,933	-200,000	-0,004	0,036
-710,918	-22,026	0,040	0,018
-709,904	800,000	0,009	0,020
-708,889	-83,537	-0,074	-0,017
-707,875	128,038	-0,071	-0,066
-706,860	-200,000	-0,032	0,137
-705,845	-109,965	-0,045	-0,007
-704,831	-70,453	-0,072	0,020
-703,816	23,324	0,057	-0,035
-702,802	546,175	0,043	0,076
-701,787	252,804	-0,072	-0,090
-700,772	-178,456	-0,140	0,002
-699,758	630,964	-0,060	-0,113
-698,743	291,984	0,013	0,017
-697,729	-39,651	-0,079	-0,030
-696,714	-126,587	-0,076	-0,008
-695,699	35,714	0,055	0,036
-694,685	213,845	-0,043	-0,050
-693,670	-30,435	-0,073	0,030
-692,656	141,959	0,094	0,092
-691,641	150,678	-0,150	0,150
-690,627	134,914	0,018	0,017
-689,612	226,190	-0,071	0,085
-688,597	31,226	0,065	0,041
-687,583	-22,077	-0,161	-0,071
-686,568	-2,418	-0,036	-0,018
-685,554	490,451	-0,027	0,045
-684,539	50,374	0,084	-0,058
-683,524	359,852	-0,020	-0,029
-682,510	50,623	-0,078	0,054
-681,495	-200,000	-0,001	0,056
-680,481	302,757	0,037	0,050
-679,466	97,884	0,034	0,029
-678,451	800,000	0,006	0,016
-677,437	252,693	-0,108	0,135
-676,422	12,170	0,075	0,042
-675,408	43,000	-0,070	0,047
-674,393	17,544	-0,087	0,050
-673,378	65,299	-0,008	0,006
-672,364	2,422	-0,121	0,064
-671,349	486,495	-0,037	-0,062
-670,335	-200,000	-0,011	-0,038
-669,320	-49,504	0,044	0,015
-668,305	126,892	-0,051	0,047
-667,291	-125,204	-0,157	-0,017
-666,276	-145,232	-0,104	-0,007
-665,262	51,753	0,116	0,081
-664,247	255,794	-0,076	-0,095
-663,232	-200,000	0,004	0,061
-662,218	-200,000	-0,006	0,092
-661,203	22,624	0,056	-0,034
-660,189	-77,156	0,044	0,011
-659,174	-200,000	0,007	-0,039
-658,159	800,000	-0,028	-0,066
-657,145	-38,169	-0,074	-0,029
-656,130	-132,825	-0,131	-0,012
-655,116	255,469	0,030	-0,038
-654,101	292,154	-0,014	-0,019
-653,086	-200,000	-0,038	0,153
-652,072	121,978	-0,119	0,109
-651,057	127,619	-0,066	-0,062
-650,043	-46,552	0,070	0,025
-649,028	173,052	-0,053	-0,056
-648,014	-39,344	0,130	-0,050
-646,999	-200,000	-0,004	0,152
-645,984	-9,558	-0,086	0,042
-644,970	-125,963	-0,152	0,017
-643,955	107,409	-0,011	-0,009
-642,941	-160,003	-0,050	0,002
-641,926	220,120	-0,056	0,066
-640,911	800,000	0,036	0,077
-639,897	62,408	0,082	-0,060
-638,882	167,265	-0,069	0,072
-637,868	454,702	-0,052	0,086
-636,853	-200,000	0,009	0,157
-635,838	800,000	-0,052	-0,151
-634,824	-35,482	-0,092	0,037
-633,809	-200,000	-0,004	-0,030
-632,795	-3,705	0,049	-0,025
-631,780	-80,372	-0,099	-0,024
-630,765	800,000	-0,056	-0,115
-629,751	-200,000	-0,031	-0,169
-628,736	-109,454	0,027	-0,004
-627,722	230,095	-0,078	-0,093
-626,707	-68,823	-0,176	-0,049
-625,692	67,217	-0,124	-0,092
-624,678	-200,000	0,039	0,128
-623,663	-200,000	0,007	0,077
-622,649	-200,000	0,023	-0,122
-621,634	-42,588	0,074	-0,027
-620,619	800,000	-0,003	-0,006
-619,605	-42,527	0,050	-0,019
-618,590	-200,000	0,001	0,054
-617,576	800,000	-0,037	0,079
-616,561	11,154	-0,055	0,031
-615,546	-110,250	-0,170	0,026
-614,532	-89,535	-0,115	0,025
-613,517	312,251	-0,082	0,114
-612,503	111,975	-0,042	-0,037
-611,488	-142,042	0,038	-0,003
-610,474	-92,984	0,118	-0,024
-609,459	-176,915	-0,175	-0,003
-608,444	660,823	-0,063	-0,120
-607,430	158,468	0,062	-0,063
-606,415	-78,409	0,070	0,018
-605,401	-200,000	-0,010	0,086
-604,386	493,451	0,045	-0,076
-603,371	-143,221	0,049	-0,003
-602,357	-149,380	0,107	-0,006
-601,342	190,919	-0,056	-0,062
-600,328	-200,000	0,012	-0,067
-599,313	800,000	-0,002	-0,007
-598,298	83,030	-0,111	-0,089
-597,284	800,000	-0,051	0,122
-596,269	-200,000	-0,002	0,076
-595,255	800,000	0,023	-0,073
-594,240	-200,000	-0,046	0,149
-593,225	-194,166	0,141	0,001
-592,211	355,024	-0,026	0,038
-591,196	-200,000	0,006	0,029
-590,182	-4,456	-0,132	0,067
-589,167	-81,548	0,152	0,036
-588,152	148,701	-0,089	-0,088
-587,138	-165,256	0,059	-0,002
-586,123	-87,099	-0,160	0,035
-585,109	-45,141	-0,086	-0,031
-584,094	-104,550	0,069	0,012
-583,079	-149,806	-0,104	-0,006
-582,065	196,394	0,138	-0,154
-581,050	-30,530	0,108	0,045
-580,036	-72,185	0,035	0,009
-579,021	-2,972	0,041	0,021
-578,006	321,427	-0,037	-0,052
-576,992	-59,215	-0,086	-0,027
-575,977	-84,981	0,071	-0,016
-574,963	800,000	-0,072	0,164
-573,948	800,000	0,091	-0,213
-572,934	-127,435	-0,056	0,006
-571,919	71,290	-0,094	-0,071
-570,904	292,193	-0,050	-0,067
-569,890	-7,585	0,059	0,029
-568,875	-148,505	0,025	-0,001
-567,861	-123,092	0,090	0,010
-566,846	91,871	0,018	-0,015
-565,831	4,999	-0,117	0,063
-564,817	-154,870	-0,117	0,006
-563,802	-104,700	-0,044	-0,007
-562,788	-118,850	-0,091	-0,012
-561,773	470,690	0,063	-0,104
-560,758	-200,000	-0,011	0,134
-559,744	18,736	0,046	-0,027
-558,729	273,495	-0,094	0,122
-557,715	47,986	-0,173	-0,118
-556,700	-39,341	-0,150	0,057
-555,685	254,147	-0,039	0,048
-554,671	-132,624	0,004	0,000
-553,656	66,286	0,090	0,067
-552,642	444,379	0,057	0,092
-551,627	800,000	-0,036	0,088
-550,612	123,848	0,095	-0,087
-549,598	4,304	-0,069	-0,037
-548,583	800,000	0,026	-0,079
-547,569	800,000	0,021	0,046
-546,554	281,844	0,129	0,169
-545,539	66,546	0,092	-0,068
-544,525	-6,103	-0,074	-0,037
-543,510	-200,000	0,025	-0,193
-542,496	-200,000	0,007	-0,023
-541,481	800,000	0,057	-0,134
-540,466	-200,000	-0,003	0,080
-539,452	84,060	0,058	0,046
-538,437	-30,925	0,064	-0,026
-537,423	572,055	-0,048	-0,086
-536,408	349,634	0,037	0,054
-535,393	800,000	-0,034	-0,106
-534,379	-200,000	-0,024	0,155
-533,364	-200,000	-0,009	-0,059
-532,350	174,923	0,076	0,081
-531,335	-200,000	0,007	0,084
-530,321	275,594	0,013	-0,017
-529,306	18,322	-0,039	-0,023
-528,291	-200,000	0,013	-0,073
-527,277	76,334	-0,163	-0,126
-526,262	-7,882	0,070	-0,034
-525,248	-200,000	0,017	-0,142
-524,233	486,585	0,029	0,048
-523,218	-200,000	-0,009	-0,034
-522,204	-200,000	-0,017	-0,066
-521,189	62,118	0,104	-0,076
-520,175	118,046	-0,139	-0,125
-519,160	-45,759	-0,054	-0,019
-518,145	370,731	0,042	-0,063
-517,131	800,000	-0,048	-0,107
-516,116	-2,738	0,058	-0,030
-515,102	198,356	-0,077	-0,086
-514,087	9,373	-0,016	0,009
-513,072	-19,768	-0,065	0,029
-512,058	-200,000	-0,007	-0,046
-511,043	-200,000	0,008	0,055
-510,029	-140,546	0,161	0,012
-509,014	-122,133	-0,118	0,014
-507,999	76,708	0,038	-0,029
-506,985	549,439	0,035	-0,062
-505,970	230,800	0,068	-0,081
-504,956	18,218	-0,166	-0,097
-503,941	-189,301	0,098	0,001
-502,926	-200,000	0,007	0,107
-501,912	91,020	-0,050	-0,041
-500,897	-200,000	-0,006	0,034
-499,883	619,310	0,067	-0,123
-498,868	800,000	-0,094	-0,222
-497,853	519,254	-0,037	-0,064
-496,839	229,008	0,086	0,103
-495,824	-200,000	-0,021	-0,102
-494,810	189,942	0,050	-0,055
-493,795	61,727	-0,122	0,088
-492,781	-200,000	0,013	0,112
-491,766	138,437	-0,029	0,027
-490,751	423,933	0,093	-0,146
-489,737	-158,078	0,168	-0,007
-488,722	-200,000	0,012	-0,056
-487,708	-200,000	-0,028	-0,123
-486,693	800,000	0,075	-0,159
-485,678	154,566	0,105	-0,105
-484,664	-112,197	-0,034	0,005
-483,649	-200,000	-0,016	-0,145
-482,635	-200,000	-0,001	0,045
-481,620	-200,000	-0,038	0,131
-480,605	-38,976	0,138	0,053
-479,591	33,094	-0,040	0,025
-478,576	-1,717	-0,031	0,016
-477,562	-200,000	0,016	0,115
-476,547	800,000	-0,042	-0,097
-475,532	800,000	-0,097	-0,222
-474,518	-75,071	0,126	-0,033
-473,503	800,000	0,028	-0,076
-472,489	26,104	-0,059	0,036
-471,474	-31,566	0,095	-0,039
-470,459	457,506	-0,088	-0,144
-469,445	304,871	-0,044	0,059
-468,430	165,818	-0,060	-0,062
-467,416	339,822	-0,030	-0,043
-466,401	5,331	0,102	0,054
-465,386	578,893	0,054	-0,096
-464,372	313,972	-0,047	0,064
-463,357	-60,119	-0,053	-0,016
-462,343	777,448	-0,008	-0,016
-461,328	45,413	-0,041	0,027
-460,313	462,477	-0,044	0,072
-459,299	33,274	0,091	0,057
-458,284	-200,000	-0,009	0,126
-457,270	800,000	-0,026	-0,055
-456,255	-200,000	-0,010	0,215
-455,241	800,000	0,019	0,040
-454,226	450,752	-0,074	0,119
-453,211	30,002	0,073	0,045
-452,197	-200,000	-0,001	-0,108
-451,182	358,411	-0,066	-0,097
-450,168	37,573	-0,036	0,023
-449,153	-41,666	-0,082	-0,030
-448,138	255,262	-0,026	0,033
-447,124	338,634	0,027	-0,039
-446,109	-9,638	0,058	0,028
-445,095	179,696	0,057	0,060
-444,080	-200,000	0,032	0,188
-443,065	109,202	0,100	-0,087
-442,051	-29,348	-0,103	-0,043
-441,036	-79,781	-0,085	-0,021
-440,022	800,000	0,022	-0,048
-439,007	-200,000	-0,003	-0,034
-437,992	348,562	-0,036	-0,052
-436,978	-177,117	-0,059	0,001
-435,963	205,726	0,050	0,056
-434,949	45,612	0,030	-0,020
-433,934	-200,000	0,017	0,054
-432,919	414,809	-0,013	-0,020
-431,905	-200,000	0,036	-0,185
-430,890	117,660	0,039	0,035
-429,876	116,131	0,004	-0,004
-428,861	-20,906	-0,146	-0,065
-427,846	161,914	0,098	0,100
-426,832	10,312	-0,054	0,030
-425,817	-183,490	0,094	-0,001
-424,803	15,265	-0,120	-0,068
-423,788	47,020	-0,126	0,085
-422,773	-27,479	0,080	-0,034
-421,759	-73,152	0,015	0,004
-420,744	-134,781	0,046	-0,004
-419,730	-9,446	-0,077	0,037
-418,715	-85,853	-0,144	0,032
-417,701	259,399	-0,049	0,061
-416,686	-107,098	-0,077	0,012
-415,671	-47,512	-0,054	0,019
-414,657	75,714	0,137	0,105
-413,642	-153,958	0,076	0,004
-412,628	91,712	0,103	-0,084
-411,613	98,334	0,026	0,022
-410,598	337,431	-0,038	-0,054
-409,584	58,538	0,037	0,026
-408,569	-174,873	0,040	-0,001
-407,555	-76,809	0,075	0,019
-406,540	-118,847	0,181	0,023
-405,525	-200,000	-0,018	-0,149
-404,511	735,004	-0,033	-0,064
-403,496	-23,613	0,045	-0,020
-402,482	93,133	0,087	-0,071
-401,467	-11,611	0,053	-0,025
-400,452	800,000	0,052	0,153
-399,438	66,073	-0,031	0,023
-398,423	232,007	-0,052	-0,062
-397,409	-200,000	0,001	0,012
-396,394	305,643	0,101	-0,137
-395,379	34,975	-0,097	-0,062
-394,365	-200,000	0,010	-0,156
-393,350	-18,815	0,215	0,097
-392,336	-162,226	0,168	-0,006
-391,321	194,915	0,071	-0,078
-390,306	125,006	0,066	0,060
-389,292	517,982	-0,028	0,049
-388,277	-200,000	-0,009	-0,033
-387,263	-200,000	0,047	0,179
-386,248	-165,787	-0,059	0,002
-385,233	357,638	-0,064	0,093
-384,219	-200,000	-0,011	0,095
-383,204	243,400	-0,054	0,066
-382,190	-11,364	-0,016	-0,008
-381,175	87,428	0,032	-0,026
-380,160	-200,000	-0,039	0,145
-379,146	-26,399	0,118	0,050
-378,131	-200,000	0,027	0,122
-377,117	549,093	0,038	0,066
-376,102	-200,000	0,012	-0,065
-375,088	800,000	-0,020	-0,041
-374,073	84,159	-0,071	-0,056
-373,058	107,892	0,127	0,110
-372,044	90,506	0,015	0,012
-371,029	85,633	-0,024	-0,019
-370,015	499,859	0,050	0,083
-369,000	800,000	-0,031	0,092
-367,985	-8,319	0,156	-0,076
-366,971	800,000	-0,021	-0,062
-365,956	265,734	0,100	-0,126
-364,942	595,550	-0,054	0,098
-363,927	-0,237	0,101	0,052
-362,912	46,891	-0,039	-0,026
-361,898	79,517	0,100	0,078
-360,883	107,339	0,087	0,075
-359,869	-200,000	-0,005	0,026
-358,854	-165,585	-0,151	0,005
-357,839	45,851	-0,024	0,016
-356,825	-200,000	-0,020	0,158
-355,810	207,099	-0,050	-0,057
-354,796	-200,000	-0,023	0,075
-353,781	-83,858	-0,129	-0,030
-352,766	-7,538	0,166	0,081
-351,752	-33,045	0,110	0,044
-350,737	-37,333	-0,109	0,042
-349,723	-65,981	0,099	-0,028
-348,708	279,155	-0,079	0,103
-347,693	-37,899	-0,072	-0,028
-346,679	65,964	0,074	-0,055
-345,664	-200,000	0,027	-0,147
-344,650	-56,047	0,141	0,045
-343,635	421,096	0,058	0,091
-342,620	-200,000	0,005	0,075
-341,606	-200,000	0,019	0,063
-340,591	-7,748	-0,038	-0,019
-339,577	-134,622	0,050	-0,004
-338,562	88,002	-0,167	-0,134
-337,548	197,879	0,049	0,054
-336,533	-200,000	0,034	0,207
-335,518	140,817	0,051	0,049
-334,504	-200,000	0,008	0,187
-333,489	-200,000	0,022	0,085
-332,475	-200,000	-0,022	0,085
-331,460	137,347	-0,072	-0,069
-330,445	-115,604	0,128	-0,017
-329,431	-129,669	0,089	0,009
-328,416	800,000	0,016	-0,035
-327,402	-111,720	0,073	-0,011
-326,387	-134,083	-0,028	0,003
-325,372	-200,000	0,007	-0,041
-324,358	800,000	0,031	-0,097
-323,343	-200,000	0,000	0,091
-322,329	443,128	0,044	0,070
-321,314	224,907	-0,065	-0,076
-320,299	-200,000	0,014	0,167
-319,285	800,000	-0,057	0,143
-318,270	-103,839	-0,087	0,015
-317,256	113,230	-0,079	0,069
-316,241	800,000	-0,053	-0,150
-315,226	-61,772	0,072	-0,022
-314,212	333,504	-0,063	0,089
-313,197	800,000	0,026	0,082
-312,183	17,828	-0,129	0,074
-311,168	232,281	0,037	-0,044
-310,153	-200,000	-0,004	-0,016
-309,139	636,681	-0,026	-0,047
-308,124	19,646	0,077	0,045
-307,110	492,928	-0,006	-0,010
-306,095	-35,538	0,078	-0,031
-305,080	-58,458	-0,060	-0,019
-304,066	-200,000	0,125	-0,000
-303,051	-80,262	-0,085	-0,020
-302,037	185,201	-0,058	-0,063
-301,022	8,932	0,155	-0,085
-300,008	-200,000	0,032	0,109
-298,993	-200,000	-0,000	0,010
-297,978	247,644	0,024	0,029
-296,964	-165,202	-0,070	-0,002
-295,949	101,895	-0,118	-0,100
-294,935	166,421	-0,100	-0,102
-293,920	50,870	0,075	0,051
-292,905	-200,000	0,023	0,089
-291,891	-6,501	0,035	0,017
-290,876	-200,000	-0,023	0,076
-289,862	123,086	0,024	0,022
-288,847	-200,000	-0,013	0,223
-287,832	-43,681	0,016	0,006
-286,818	-200,000	0,000	0,049
-285,803	-56,453	0,049	0,016
-284,789	-5,927	-0,082	-0,040
-283,774	-46,833	0,189	-0,067
-282,759	-200,000	0,021	0,081
-281,745	110,282	0,061	-0,053
-280,730	-200,000	0,001	0,028
-279,716	23,584	0,082	0,049
-278,701	100,497	-0,123	0,104
-277,686	-27,318	0,134	0,056
-276,672	-155,803	-0,098	-0,004
-275,657	-104,676	-0,115	-0,019
-274,643	129,311	0,042	-0,039
-273,628	723,998	0,041	-0,080
-272,613	-96,851	-0,108	-0,020
-271,599	-114,603	0,156	0,021
-270,584	-31,575	0,072	-0,029
-269,570	-76,756	-0,068	0,017
-268,555	-152,858	-0,138	-0,007
-267,540	248,434	0,054	0,066
-266,526	302,054	-0,025	-0,033
-265,511	420,358	0,063	-0,097
-264,497	222,603	0,019	0,022
-263,482	-200,000	-0,006	0,053
-262,467	-86,146	-0,038	-0,008
-261,453	257,001	-0,052	0,064
-260,438	-108,000	-0,008	0,001
-259,424	-90,226	-0,033	0,007
-258,409	-11,040	-0,099	0,047
-257,395	68,868	0,086	0,064
-256,380	124,572	0,095	0,086
-255,365	800,000	0,051	-0,129
-254,351	-35,537	-0,047	-0,018
-253,336	-38,469	0,084	-0,032
-252,322	800,000	0,050	0,142
-251,307	-133,929	0,047	0,004
-250,292	22,817	0,064	-0,038
-249,278	800,000	0,015	0,044
-248,263	800,000	-0,057	0,172
-247,249	-91,197	-0,150	-0,031
-246,234	-156,472	0,072	-0,003
-245,219	-32,669	-0,093	-0,037
-244,205	272,050	0,082	-0,105
-243,190	-23,985	0,074	0,032
-242,176	-200,000	-0,002	-0,090
-241,161	268,685	0,084	0,107
-240,146	-4,405	0,022	0,011
-239,132	-200,000	-0,014	-0,071
-238,117	-200,000	0,000	-0,046
-237,103	-200,000	-0,012	-0,120
-236,088	705,134	0,065	-0,125
-235,073	-155,354	-0,050	0,002
-234,059	-73,467	-0,116	-0,030
-233,044	164,348	0,024	0,024
-232,030	201,551	-0,066	0,074
-231,015	-200,000	-0,001	-0,041
-230,000	-115,780	-0,141	0,019
-228,986	800,000	0,027	-0,067
-227,971	53,958	0,030	-0,021
-226,957	-4,410	-0,052	-0,026
-225,942	124,735	-0,169	0,153
-224,927	-200,000	-0,022	-0,088
-223,913	63,639	-0,090	0,065
-222,898	-174,952	-0,073	0,001
-221,884	280,831	0,103	-0,133
-220,869	173,600	-0,062	0,065
-219,855	56,345	0,124	0,087
-218,840	800,000	0,050	0,113
-217,825	800,000	-0,018	-0,042
-216,811	-181,300	-0,130	-0,002
-215,796	-200,000	-0,009	-0,143
-214,782	-200,000	-0,008	0,191
-213,767	-200,000	0,006	0,070
-212,752	-135,223	0,129	0,011
-211,738	-200,000	-0,003	-0,058
-210,723	-200,000	-0,017	-0,073
-209,709	240,861	0,077	-0,093
-208,694	218,013	0,060	-0,069
-207,679	-200,000	-0,003	0,080
-206,665	-200,000	0,000	-0,025
-205,650	140,471	0,041	-0,039
-204,636	43,993	0,097	-0,064
-203,621	-200,000	-0,004	-0,070
-202,606	-51,737	-0,057	-0,019
-201,592	-200,000	0,003	-0,037
-200,577	800,000	0,028	-0,060
-199,563	52,885	-0,066	0,045
-198,548	129,287	0,044	-0,041
-197,533	-23,077	0,093	0,040
-196,519	103,260	0,035	0,029
-195,504	60,063	-0,075	-0,053
-194,490	317,308	-0,063	0,086
-193,475	-26,474	0,083	0,035
-192,460	604,448	0,036	-0,066
-191,446	596,082	-0,049	0,089
-190,431	146,502	-0,028	-0,027
-189,417	11,012	-0,095	-0,052
-188,402	-200,000	0,035	-0,160
-187,387	217,685	-0,043	-0,050
-186,373	-48,836	-0,101	-0,035
-185,358	-78,674	0,079	0,019
-184,344	-30,577	-0,073	0,030
-183,329	271,473	0,010	-0,013
-182,315	12,688	0,020	0,011
-181,300	214,013	-0,040	0,046
-180,285	-62,384	-0,130	0,039
-179,271	-200,000	-0,056	0,000
-178,256	127,326	0,145	-0,133
-177,242	232,660	-0,057	0,068
-176,227	9,322	-0,002	-0,001
-175,212	-160,024	-0,058	0,002
-174,198	-107,753	-0,140	0,022
-173,183	-91,191	0,017	-0,003
-172,169	756,826	-0,055	-0,108
-171,154	-200,000	0,010	0,064
-170,139	-125,069	-0,130	0,014
-169,125	275,496	0,052	0,067
-168,110	800,000	-0,043	0,101
-167,096	800,000	-0,027	0,065
-166,081	490,959	0,047	-0,078
-165,066	-200,000	-0,049	0,159
-164,052	-200,000	-0,013	-0,046
-163,037	125,779	-0,009	0,008
-162,023	-29,173	0,147	-0,060
-161,008	325,179	-0,017	0,024
-159,993	355,604	0,064	0,091
-158,979	115,349	0,041	0,036
-157,964	-45,421	0,108	-0,038
-156,950	45,856	0,080	-0,053
-155,935	43,184	0,093	0,061
-154,920	-149,853	0,081	-0,004
-153,906	-200,000	-0,018	-0,098
-152,891	800,000	-0,009	0,023
-151,877	-200,000	-0,006	-0,063
-150,862	800,000	-0,041	0,081
-149,847	308,617	-0,040	0,054
-148,833	153,381	-0,103	-0,102
-147,818	-200,000	0,020	0,101
-146,804	420,200	-0,023	-0,036
-145,789	-16,551	0,035	0,016
-144,775	-171,543	-0,159	-0,004
-143,760	665,778	-0,115	0,214
-142,745	-143,393	0,149	-0,010
-141,731	125,116	-0,102	-0,093
-140,716	88,722	0,034	0,027
-139,702	-200,000	-0,031	0,133
-138,687	-15,702	-0,139	-0,064
-137,672	60,062	-0,129	0,091
-136,658	-50,284	-0,052	0,018
-135,643	-111,058	0,093	0,014
-134,629	10,050	0,157	-0,085
-133,614	-43,920	-0,075	0,027
-132,599	-68,948	-0,020	-0,005
-131,585	588,482	-0,058	-0,104
-130,570	-7,426	-0,046	0,022
-129,556	47,552	0,108	-0,073
-128,541	800,000	-0,036	-0,091
-127,526	-200,000	-0,009	0,034
-126,512	306,169	0,028	0,038
-125,497	129,923	0,069	0,063
-124,483	39,486	0,092	-0,059
-123,468	800,000	0,022	-0,052
-122,453	-109,889	-0,101	0,015
-121,439	-31,621	-0,056	-0,022
-120,424	-200,000	-0,003	-0,140
-119,410	-200,000	-0,011	-0,110
