DTS Sentinel unit serial number:	SN410029Multiplexer serial number:	ORYXHardware model number:	OX2-SRSoftware version number:	ORYX F/W v4,00 Oryx Data Collector v3.7.2.0data status	okinstallation	B5 Nyhavnadifferential loss correction	single-endedforward channel	channel 2reverse channel	N/Adate	2023/12/14time	12:37:13forward acquisition time	300,00reverse acquisition time	0,00gamma	499,1914k internal	0,3158k external	0,3158temperature offset calibration	1,0000default loss term (dB/km)	0,3820temperature slope calibration	1,0000multiplexer offset coefficient	1,0000multiplexer slope coefficient	1,0000fibre end	0,00T internal ref (°C)	7,89T ext. ref 1 (°C)	-7,53T ext. ref 2 (°C)	-7,57length (m)	temperature (°C)	Stokes	anti-Stokes-744,400	-106,726	0,233	-0,038
-743,385	-125,414	-0,398	-0,044
-742,371	-112,081	0,255	0,037
-741,356	-87,112	-0,368	-0,082
-740,342	-3,867	0,270	0,138
-739,327	-87,870	-0,415	-0,091
-738,312	-91,048	0,242	0,051
-737,298	-37,974	-0,447	-0,174
-736,283	-72,837	0,214	0,058
-735,269	-144,282	-0,320	-0,022
-734,254	131,409	0,125	0,118
-733,239	-52,421	-0,542	-0,184
-732,225	-154,876	0,159	-0,008
-731,210	-96,867	-0,118	0,023
-730,196	-200,000	0,006	-0,087
-729,181	202,245	-0,083	-0,094
-728,167	-200,000	0,079	0,000
-727,152	-200,000	0,016	0,082
-726,137	95,426	0,044	-0,037
-725,123	-126,598	-0,133	-0,014
-724,108	385,135	-0,073	-0,111
-723,094	-200,000	-0,022	-0,072
-722,079	-109,528	-0,034	0,005
-721,064	800,000	-0,032	0,071
-720,050	81,205	0,052	-0,041
-719,035	-164,015	-0,145	0,005
-718,021	-29,754	0,073	-0,030
-717,006	-111,107	-0,133	-0,020
-715,991	-181,184	-0,175	-0,003
-714,977	-200,000	-0,008	-0,063
-713,962	-200,000	0,056	-0,203
-712,948	89,882	-0,014	-0,011
-711,933	-200,000	-0,023	-0,155
-710,918	-71,110	0,076	-0,021
-709,904	103,609	-0,140	-0,121
-708,889	658,467	-0,039	-0,075
-707,875	-200,000	0,007	-0,126
-706,860	-132,482	-0,035	-0,003
-705,845	422,956	-0,039	-0,062
-704,831	-200,000	0,003	0,122
-703,816	-73,280	-0,100	-0,027
-702,802	-98,776	-0,151	0,028
-701,787	-37,591	0,098	-0,038
-700,772	219,298	-0,044	-0,052
-699,758	56,147	0,055	-0,039
-698,743	76,721	-0,054	0,042
-697,729	-117,086	-0,093	0,012
-696,714	-47,395	0,096	0,034
-695,699	-26,149	-0,109	-0,047
-694,685	-30,562	-0,049	0,020
-693,670	-200,000	0,020	0,128
-692,656	-200,000	0,018	-0,107
-691,641	800,000	-0,009	-0,027
-690,627	-50,552	0,055	-0,019
-689,612	60,784	0,055	0,040
-688,597	800,000	-0,043	-0,109
-687,583	174,758	-0,031	-0,033
-686,568	-200,000	-0,001	-0,013
-685,554	291,551	0,058	-0,078
-684,539	-77,982	0,094	-0,024
-683,524	64,075	-0,067	0,049
-682,510	31,219	0,085	-0,054
-681,495	227,909	-0,081	0,097
-680,481	517,684	-0,071	-0,123
-679,466	745,173	-0,077	-0,153
-678,451	100,332	0,041	0,035
-677,437	-51,969	0,043	-0,015
-676,422	-141,148	0,048	0,004
-675,408	54,258	0,059	0,042
-674,393	-200,000	-0,003	-0,087
-673,378	59,433	-0,204	-0,148
-672,364	55,442	-0,050	-0,036
-671,349	30,807	0,089	-0,056
-670,335	629,412	0,021	-0,040
-669,320	-200,000	-0,022	0,120
-668,305	800,000	-0,057	-0,136
-667,291	-132,299	-0,078	0,007
-666,276	800,000	-0,043	-0,112
-665,262	-119,358	0,038	-0,005
-664,247	28,310	0,109	-0,068
-663,232	109,083	0,064	0,056
-662,218	-200,000	0,032	0,173
-661,203	800,000	-0,035	0,091
-660,189	-57,124	0,049	0,016
-659,174	-200,000	0,015	-0,141
-658,159	-200,000	0,006	-0,173
-657,145	-57,792	-0,152	0,049
-656,130	-200,000	-0,032	-0,107
-655,116	800,000	-0,021	-0,069
-654,101	-200,000	-0,025	-0,109
-653,086	23,119	0,038	0,023
-652,072	-25,505	-0,138	-0,060
-651,057	190,244	-0,129	-0,143
-650,043	800,000	0,066	-0,139
-649,028	312,992	-0,044	-0,061
-648,014	457,279	0,040	-0,066
-646,999	641,835	-0,052	0,098
-645,984	-200,000	-0,029	-0,162
-644,970	-200,000	-0,005	-0,058
-643,955	-200,000	-0,002	0,051
-642,941	147,341	-0,049	-0,049
-641,926	-200,000	0,031	0,118
-640,911	-40,898	0,067	-0,025
-639,897	58,409	-0,039	-0,028
-638,882	144,327	-0,033	-0,033
-637,868	-110,217	-0,181	0,027
-636,853	-200,000	-0,010	-0,071
-635,838	457,839	0,060	-0,098
-634,824	137,594	-0,095	-0,091
-633,809	53,784	-0,054	-0,038
-632,795	-56,995	0,063	-0,020
-631,780	-27,366	0,128	0,054
-630,765	373,421	-0,082	-0,123
-629,751	234,573	-0,059	0,072
-628,736	-30,777	-0,067	0,028
-627,722	-75,536	0,039	0,010
-626,707	48,603	0,124	-0,085
-625,692	80,048	0,067	-0,053
-624,678	103,446	-0,024	0,021
-623,663	147,814	-0,056	-0,055
-622,649	548,134	-0,088	-0,155
-621,634	-200,000	0,006	-0,173
-620,619	-136,407	-0,028	0,002
-619,605	-109,524	-0,061	-0,009
-618,590	665,845	0,057	-0,109
-617,576	152,166	-0,122	-0,122
-616,561	656,274	-0,073	-0,138
-615,546	-111,065	-0,120	-0,018
-614,532	-15,937	-0,123	-0,057
-613,517	94,236	0,112	0,093
-612,503	273,986	-0,049	-0,064
-611,488	648,304	-0,068	0,127
-610,474	-200,000	0,018	-0,108
-609,459	800,000	-0,012	0,034
-608,444	-200,000	-0,005	0,034
-607,430	399,645	0,069	-0,106
-606,415	-166,138	0,142	-0,004
-605,401	800,000	0,027	-0,084
-604,386	-200,000	-0,005	0,091
-603,371	-111,510	0,056	0,008
-602,357	82,735	-0,053	0,042
-601,342	800,000	0,021	-0,059
-600,328	303,866	0,048	0,066
-599,313	-200,000	-0,000	0,026
-598,298	-14,891	-0,054	0,025
-597,284	-151,388	0,062	-0,003
-596,269	800,000	0,051	-0,119
-595,255	-168,169	-0,120	-0,003
-594,240	-90,525	0,076	0,016
-593,225	-200,000	0,021	0,094
-592,211	-55,106	0,114	0,037
-591,196	-104,618	0,086	0,014
-590,182	112,319	-0,169	0,150
-589,167	556,821	-0,116	0,206
-588,152	160,914	-0,065	0,067
-587,138	-21,301	0,027	-0,012
-586,123	266,129	0,046	0,059
-585,109	-1,596	-0,147	-0,076
-584,094	800,000	0,035	-0,088
-583,079	-126,900	0,136	0,014
-582,065	-114,782	-0,108	-0,015
-581,050	-81,565	0,106	0,025
-580,036	197,590	0,026	0,029
-579,021	-200,000	-0,017	0,124
-578,006	56,981	0,036	0,026
-576,992	-11,603	-0,072	-0,034
-575,977	-72,622	-0,073	-0,020
-574,963	-47,923	-0,074	0,026
-573,948	193,556	-0,016	-0,018
-572,934	-9,629	-0,021	-0,010
-571,919	-126,687	0,048	0,005
-570,904	225,448	-0,048	-0,057
-569,890	-19,232	-0,237	-0,107
-568,875	112,630	0,076	0,067
-567,861	86,495	-0,030	0,024
-566,846	-28,977	0,098	-0,041
-565,831	-147,020	-0,192	0,012
-564,817	235,819	0,094	-0,114
-563,802	800,000	-0,015	-0,043
-562,788	473,660	-0,030	-0,050
-561,773	-200,000	0,028	0,101
-560,758	195,189	-0,044	0,048
-559,744	-200,000	0,014	0,108
-558,729	-71,652	-0,170	-0,046
-557,715	-200,000	-0,030	0,109
-556,700	80,122	-0,082	-0,064
-555,685	-50,862	-0,076	0,026
-554,671	200,267	0,099	0,112
-553,656	-200,000	0,010	0,077
-552,642	800,000	0,044	-0,100
-551,627	-200,000	0,015	-0,116
-550,612	-200,000	-0,010	-0,236
-549,598	0,577	-0,180	0,094
-548,583	-27,778	0,061	-0,026
-547,569	-200,000	0,002	-0,038
-546,554	-23,557	0,093	-0,041
-545,539	-200,000	0,032	0,190
-544,525	800,000	-0,014	-0,029
-543,510	800,000	-0,065	-0,146
-542,496	157,845	-0,027	0,028
-541,481	-200,000	-0,014	-0,184
-540,466	217,303	0,070	-0,081
-539,452	-200,000	0,026	0,099
-538,437	-91,435	-0,070	-0,015
-537,423	360,944	-0,005	0,008
-536,408	677,415	-0,039	-0,075
-535,393	138,688	0,099	0,095
-534,379	-103,102	0,038	0,007
-533,364	381,237	0,070	-0,105
-532,350	260,084	0,053	0,067
-531,335	-174,767	0,172	-0,003
-530,321	800,000	0,039	-0,094
-529,306	361,544	0,043	0,063
-528,291	800,000	-0,051	0,147
-527,277	800,000	-0,067	-0,188
-526,262	800,000	-0,037	-0,110
-525,248	800,000	0,028	-0,063
-524,233	-150,628	0,165	-0,009
-523,218	244,998	-0,023	0,028
-522,204	-38,930	0,168	0,064
-521,189	-55,502	-0,128	-0,042
-520,175	-113,349	0,065	0,009
-519,160	446,560	0,099	0,159
-518,145	800,000	-0,054	0,120
-517,131	211,286	0,049	0,056
-516,116	-200,000	0,013	0,155
-515,102	264,493	0,023	0,030
-514,087	139,226	0,016	-0,015
-513,072	-98,549	-0,108	-0,020
-512,058	-200,000	-0,008	0,126
-511,043	57,850	0,078	0,056
-510,029	800,000	0,028	-0,064
-509,014	800,000	0,058	0,152
-507,999	-72,097	-0,027	0,007
-506,985	785,908	-0,046	0,093
-505,970	45,221	-0,022	-0,015
-504,956	105,071	0,037	-0,032
-503,941	-25,307	-0,150	-0,064
-502,926	515,207	0,083	0,143
-501,912	-200,000	-0,021	-0,080
-500,897	-163,105	-0,081	0,003
-499,883	800,000	0,081	-0,169
-498,868	400,243	-0,091	-0,140
-497,853	420,877	0,021	-0,033
-496,839	-81,781	-0,058	0,014
-495,824	420,939	-0,111	-0,174
-494,810	-49,410	0,074	0,026
-493,795	800,000	-0,018	0,050
-492,781	219,596	-0,038	0,044
-491,766	-200,000	-0,050	-0,184
-490,751	-200,000	-0,013	0,063
-489,737	-72,543	-0,038	0,010
-488,722	-200,000	-0,002	-0,032
-487,708	59,554	0,114	0,082
-486,693	-14,821	-0,095	0,044
-485,678	-200,000	0,015	-0,058
-484,664	-128,525	-0,107	0,011
-483,649	800,000	-0,029	-0,091
-482,635	-53,739	0,137	0,045
-481,620	-54,491	0,013	0,004
-480,605	662,118	0,076	-0,144
-479,591	19,781	0,020	0,012
-478,576	135,335	-0,049	-0,046
-477,562	800,000	0,010	0,029
-476,547	629,506	0,028	-0,052
-475,532	-52,195	0,078	-0,026
-474,518	-200,000	0,029	-0,114
-473,503	-200,000	0,015	0,073
-472,489	499,312	0,079	-0,133
-471,474	-149,817	-0,104	0,006
-470,459	-84,356	-0,135	-0,031
-469,445	-49,250	-0,112	-0,039
-468,430	-156,876	0,209	-0,009
-467,416	-34,991	0,005	-0,002
-466,401	800,000	-0,022	0,060
-465,386	-162,557	0,101	-0,004
-464,372	75,629	0,091	0,070
-463,357	295,088	-0,088	-0,117
-462,343	204,017	-0,032	0,036
-461,328	166,765	0,029	-0,030
-460,313	-200,000	-0,007	-0,066
-459,299	-68,993	0,172	0,048
-458,284	800,000	-0,095	0,204
-457,270	-200,000	0,013	-0,062
-456,255	38,014	-0,091	-0,059
-455,241	800,000	-0,016	0,041
-454,226	725,302	0,013	0,025
-453,211	558,439	0,083	-0,147
-452,197	154,746	0,155	0,156
-451,182	76,944	-0,039	0,030
-450,168	-59,836	0,103	-0,032
-449,153	200,330	-0,031	-0,035
-448,138	800,000	0,035	-0,097
-447,124	-10,293	0,084	-0,040
-446,109	208,603	0,083	0,095
-445,095	128,048	-0,041	0,038
-444,080	81,537	0,119	-0,093
-443,065	-97,403	-0,079	0,015
-442,051	668,834	0,049	0,094
-441,036	-67,180	-0,093	-0,027
-440,022	-79,409	-0,128	0,031
-439,007	-200,000	-0,016	0,099
-437,992	60,867	-0,071	-0,051
-436,978	-200,000	0,019	0,093
-435,963	-200,000	-0,002	0,167
-434,949	-6,535	-0,129	-0,064
-433,934	501,506	-0,035	-0,059
-432,919	109,569	-0,077	-0,068
-431,905	-110,024	-0,090	-0,014
-430,890	43,434	-0,076	0,050
-429,876	549,342	-0,059	0,103
-428,861	-200,000	-0,011	0,085
-427,846	262,402	0,040	0,050
-426,832	44,727	0,056	-0,037
-425,817	242,002	-0,082	0,100
-424,803	4,693	-0,143	0,076
-423,788	-98,250	-0,099	-0,018
-422,773	122,021	0,051	0,046
-421,759	-129,410	0,067	0,007
-420,744	-200,000	0,006	0,042
-419,730	167,508	-0,128	0,132
-418,715	-46,659	-0,134	0,048
-417,701	530,793	0,022	0,037
-416,686	-97,138	0,121	0,023
-415,671	-200,000	0,047	0,163
-414,657	-200,000	-0,002	0,024
-413,642	-38,740	0,078	-0,030
-412,628	119,288	-0,031	0,028
-411,613	118,675	-0,075	0,067
-410,598	116,406	-0,085	0,076
-409,584	135,222	0,041	-0,039
-408,569	168,683	0,064	0,066
-407,555	-174,810	-0,085	0,002
-406,540	515,183	-0,023	0,040
-405,525	-200,000	-0,004	0,109
-404,511	264,108	-0,046	-0,059
-403,496	-200,000	0,018	-0,076
-402,482	583,249	0,035	-0,063
-401,467	142,298	0,065	-0,063
-400,452	-200,000	0,015	-0,133
-399,438	-3,982	0,095	-0,048
-398,423	-2,690	0,102	0,052
-397,409	255,919	0,051	-0,064
-396,394	269,922	-0,045	-0,058
-395,379	800,000	-0,046	-0,124
-394,365	-48,970	0,070	0,024
-393,350	-81,717	-0,059	-0,014
-392,336	-60,378	0,050	0,015
-391,321	-160,251	-0,184	0,007
-390,306	-142,941	0,093	0,006
-389,292	269,082	-0,096	-0,122
-388,277	-200,000	0,011	0,137
-387,263	-149,150	0,096	0,005
-386,248	-141,689	-0,071	-0,005
-385,233	213,504	-0,004	-0,004
-384,219	6,439	-0,045	-0,024
-383,204	546,893	0,091	-0,159
-382,190	-47,574	-0,083	-0,029
-381,175	-70,577	-0,135	-0,037
-380,160	-59,207	0,014	0,004
-379,146	65,679	-0,075	-0,055
-378,131	69,590	0,097	0,073
-377,117	-52,398	0,092	0,031
-376,102	-200,000	-0,007	-0,075
-375,088	-78,344	0,027	0,007
-374,073	-200,000	0,001	0,016
-373,058	-200,000	-0,000	0,137
-372,044	308,499	0,109	0,149
-371,029	-152,439	0,096	0,005
-370,015	-101,384	0,189	-0,033
-369,000	800,000	-0,075	-0,212
-367,985	-105,747	-0,106	-0,017
-366,971	-200,000	0,023	-0,092
-365,956	-150,920	0,044	0,002
-364,942	210,973	0,068	0,078
-363,927	-200,000	0,026	0,135
-362,912	-19,089	-0,083	-0,037
-361,898	-77,007	0,059	-0,015
-360,883	-104,778	-0,087	0,014
-359,869	-64,575	-0,041	0,012
-358,854	170,826	0,086	0,089
-357,839	-107,010	0,025	0,004
-356,825	-4,772	-0,032	0,016
-355,810	-33,641	0,109	-0,043
-354,796	-132,449	0,117	-0,011
-353,781	-113,767	-0,111	0,016
-352,766	800,000	0,013	0,027
-351,752	250,692	0,041	0,051
-350,737	-106,528	0,169	-0,027
-349,723	-0,201	0,071	0,036
-348,708	-200,000	0,030	-0,115
-347,693	800,000	0,047	-0,147
-346,679	-23,462	-0,124	-0,054
-345,664	-105,500	-0,142	0,023
-344,650	118,130	0,116	0,104
-343,635	90,035	-0,054	0,044
-342,620	134,134	-0,155	0,146
-341,606	-200,000	-0,013	0,090
-340,591	49,524	0,080	-0,054
-339,577	331,069	-0,062	-0,087
-338,562	-200,000	-0,035	-0,118
-337,548	-127,688	0,169	-0,018
-336,533	-200,000	-0,020	-0,161
-335,518	506,808	-0,071	0,120
-334,504	-79,138	-0,113	-0,028
-333,489	-144,510	0,093	0,006
-332,475	92,769	0,097	-0,080
-331,460	496,308	0,039	-0,066
-330,445	800,000	0,025	0,055
-329,431	-200,000	-0,014	0,122
-328,416	-147,621	0,139	-0,008
-327,402	70,983	0,076	0,057
-326,387	195,165	-0,088	-0,097
-325,372	800,000	-0,050	-0,130
-324,358	118,618	-0,027	0,024
-323,343	727,980	0,075	0,145
-322,329	-43,056	-0,077	-0,028
-321,314	-200,000	0,036	0,175
-320,299	288,200	0,040	-0,052
-319,285	125,252	-0,018	0,017
-318,270	-200,000	0,019	0,161
-317,256	68,186	-0,084	0,062
-316,241	-37,077	0,067	0,026
-315,226	-200,000	-0,016	-0,110
-314,212	-200,000	-0,001	0,187
-313,197	-135,632	-0,089	-0,008
-312,183	800,000	-0,050	-0,116
-311,168	-23,599	0,137	0,060
-310,153	-113,656	0,081	-0,011
-309,139	800,000	0,041	-0,104
-308,124	-200,000	0,002	0,073
-307,110	40,104	0,177	0,115
-306,095	2,102	0,136	0,071
-305,080	-115,967	0,058	0,008
-304,066	-86,551	0,035	0,008
-303,051	-55,571	-0,138	-0,045
-302,037	-13,104	0,039	0,018
-301,022	800,000	0,018	0,048
-300,008	-96,850	0,106	0,020
-298,993	36,013	0,066	0,042
-297,978	175,262	0,034	0,036
-296,964	217,550	0,052	0,060
-295,949	-200,000	-0,019	-0,111
-294,935	-104,470	-0,119	0,020
-293,920	-91,186	-0,070	-0,014
-292,905	-34,866	0,150	0,059
-291,891	258,881	0,090	0,112
-290,876	21,892	0,130	0,077
-289,862	124,583	-0,042	0,038
-288,847	161,962	-0,090	-0,092
-287,832	-52,279	-0,192	-0,064
-286,818	-177,798	0,114	-0,002
-285,803	47,260	0,105	-0,071
-284,789	95,889	-0,097	-0,080
-283,774	-132,020	0,131	0,012
-282,759	416,570	-0,085	-0,132
-281,745	800,000	-0,056	-0,119
-280,730	123,502	-0,145	-0,131
-279,716	-200,000	-0,018	0,080
-278,701	38,672	0,104	0,067
-277,686	-173,457	-0,041	-0,001
-276,672	-114,575	-0,096	-0,013
-275,657	163,804	-0,072	-0,073
-274,643	-88,031	-0,034	0,007
-273,628	741,977	-0,038	-0,075
-272,613	18,680	0,085	-0,049
-271,599	-200,000	-0,003	0,109
-270,584	-21,792	0,029	-0,013
-269,570	47,336	-0,109	0,073
-268,555	800,000	-0,057	0,168
-267,540	344,375	-0,041	-0,058
-266,526	155,866	-0,118	-0,118
-265,511	-138,544	-0,026	0,002
-264,497	-77,285	-0,023	-0,006
-263,482	80,749	0,101	0,079
-262,467	-18,032	-0,060	-0,027
-261,453	743,157	0,036	-0,071
-260,438	266,773	-0,059	-0,075
-259,424	-20,535	0,148	0,066
-258,409	-131,901	-0,039	0,004
-257,395	-200,000	-0,011	0,130
-256,380	82,595	-0,054	0,042
-255,365	786,300	-0,019	-0,039
-254,351	-200,000	-0,024	0,094
-253,336	152,176	0,090	-0,089
-252,322	-200,000	0,010	-0,063
-251,307	-133,159	0,041	-0,004
-250,292	-165,575	0,070	0,002
-249,278	64,669	0,015	-0,011
-248,263	-66,000	0,015	-0,004
-247,249	401,074	-0,069	-0,106
-246,234	256,151	-0,042	0,053
-245,219	-93,366	0,161	0,032
-244,205	-170,283	0,008	0,000
-243,190	800,000	0,027	0,075
-242,176	800,000	-0,016	-0,032
-241,161	129,529	0,043	0,039
-240,146	800,000	0,040	0,113
-239,132	800,000	-0,054	0,116
-238,117	-200,000	-0,021	-0,207
-237,103	36,632	0,119	-0,076
-236,088	73,337	-0,050	-0,038
-235,073	800,000	-0,058	-0,168
-234,059	-136,813	-0,092	0,008
-233,044	70,081	0,144	0,107
-232,030	-98,678	0,135	-0,025
-231,015	303,288	-0,050	-0,067
-230,000	-126,082	-0,101	-0,011
-228,986	-200,000	-0,027	-0,088
-227,971	-103,618	0,115	-0,019
-226,957	800,000	-0,029	0,059
-225,942	-200,000	-0,016	0,171
-224,927	162,003	-0,059	-0,060
-223,913	-103,901	-0,124	0,021
-222,898	97,006	-0,169	0,140
-221,884	-159,761	-0,116	0,005
-220,869	75,335	0,084	0,064
-219,855	-77,662	0,091	-0,023
-218,840	54,177	-0,015	-0,010
-217,825	42,104	0,036	-0,023
-216,811	-187,427	0,044	0,000
-215,796	129,926	-0,026	0,024
-214,782	551,938	-0,080	0,140
-213,767	-59,254	0,147	-0,045
-212,752	102,286	0,019	0,016
-211,738	-140,453	-0,084	0,006
-210,723	-200,000	-0,002	0,008
-209,709	56,675	-0,026	0,018
-208,694	73,516	0,111	-0,084
-207,679	133,750	0,093	-0,087
-206,665	-200,000	0,008	0,069
-205,650	800,000	0,039	-0,089
-204,636	-200,000	0,002	-0,130
-203,621	-31,160	0,085	0,034
-202,606	-4,354	-0,124	-0,062
-201,592	800,000	-0,051	-0,102
-200,577	130,753	-0,025	-0,023
-199,563	247,472	-0,038	-0,047
-198,548	800,000	0,069	0,171
-197,533	-47,916	-0,017	0,006
-196,519	-194,825	-0,044	-0,000
-195,504	16,922	-0,028	0,016
-194,490	110,749	-0,081	0,071
-193,475	-200,000	0,010	-0,088
-192,460	192,893	-0,036	0,040
-191,446	-200,000	0,016	0,079
-190,431	203,743	0,065	0,073
-189,417	800,000	-0,059	0,163
-188,402	-200,000	0,001	-0,038
-187,387	119,035	-0,121	-0,108
-186,373	-200,000	-0,019	-0,098
-185,358	-2,898	-0,068	-0,034
-184,344	-20,762	-0,045	0,020
-183,329	-150,743	0,142	0,008
-182,315	-99,337	0,040	0,007
-181,300	800,000	0,018	0,038
-180,285	-110,660	-0,057	-0,008
-179,271	740,592	0,036	0,071
-178,256	34,888	0,056	-0,036
-177,242	800,000	0,060	0,121
-176,227	359,315	0,058	-0,084
-175,212	-200,000	-0,006	0,063
-174,198	81,900	-0,056	-0,043
-173,183	274,131	-0,033	0,042
-172,169	-200,000	0,017	0,056
-171,154	5,876	0,087	0,046
-170,139	-200,000	0,050	-0,161
-169,125	88,671	0,042	-0,033
-168,110	-200,000	-0,002	-0,056
-167,096	72,241	0,024	0,018
-166,081	-67,416	0,108	0,030
-165,066	-173,656	-0,128	-0,003
-164,052	61,173	-0,049	0,035
-163,037	374,734	0,111	0,164
-162,023	-200,000	0,030	0,137
-161,008	-78,423	0,086	0,021
-159,993	-79,595	0,149	-0,036
-158,979	-141,653	-0,095	0,007
-157,964	-45,311	-0,089	-0,032
-156,950	-101,232	-0,035	-0,006
-155,935	-200,000	-0,001	0,017
-154,920	-105,832	-0,094	0,015
-153,906	314,122	0,108	0,147
-152,891	-91,337	-0,115	0,024
-151,877	-79,832	0,052	0,013
-150,862	-105,579	0,119	0,019
-149,847	-200,000	-0,020	-0,070
-148,833	95,194	-0,043	0,036
-147,818	409,956	0,016	-0,024
-146,804	-200,000	0,021	0,075
-145,789	-123,074	0,052	0,006
-144,775	168,373	-0,109	-0,112
-143,760	-29,580	-0,031	-0,013
-142,745	24,712	-0,021	-0,012
-141,731	520,304	0,114	-0,194
-140,716	344,937	-0,002	-0,003
-139,702	182,469	-0,111	0,118
-138,687	34,129	0,098	0,061
-137,672	-21,505	-0,105	0,046
-136,658	-159,965	-0,045	-0,002
-135,643	-33,042	0,098	0,039
-134,629	-200,000	-0,005	-0,115
-133,614	-200,000	0,007	-0,073
-132,599	-159,191	-0,108	0,004
-131,585	-200,000	-0,027	0,100
-130,570	-19,426	-0,072	-0,032
-129,556	52,148	-0,060	-0,041
-128,541	-99,507	-0,016	0,003
-127,526	-13,565	-0,074	-0,034
-126,512	-146,215	0,113	0,007
-125,497	270,736	-0,044	-0,056
-124,483	-200,000	-0,005	-0,038
-123,468	-200,000	-0,002	0,070
-122,453	185,954	-0,070	-0,075
-121,439	59,712	-0,149	0,106
-120,424	-200,000	0,000	0,020
