DTS Sentinel unit serial number:	SN410029Multiplexer serial number:	ORYXHardware model number:	OX2-SRSoftware version number:	ORYX F/W v4,00 Oryx Data Collector v3.7.2.0data status	okinstallation	B5 Nyhavnadifferential loss correction	single-endedforward channel	channel 2reverse channel	N/Adate	2023/12/14time	08:07:13forward acquisition time	300,00reverse acquisition time	0,00gamma	499,1914k internal	0,3159k external	0,3159temperature offset calibration	1,0000default loss term (dB/km)	0,3820temperature slope calibration	1,0000multiplexer offset coefficient	1,0000multiplexer slope coefficient	1,0000fibre end	0,00T internal ref (°C)	7,05T ext. ref 1 (°C)	-9,21T ext. ref 2 (°C)	-9,28length (m)	temperature (°C)	Stokes	anti-Stokes-744,400	800,000	0,056	0,139
-743,385	-151,744	-0,415	-0,022
-742,371	10,152	0,269	0,150
-741,356	-64,467	-0,444	-0,132
-740,342	-200,000	-0,000	0,220
-739,327	-20,709	-0,414	-0,186
-738,312	743,520	-0,024	0,048
-737,298	-20,810	-0,413	-0,186
-736,283	-61,247	0,300	0,093
-735,269	-38,239	-0,343	-0,133
-734,254	322,582	0,105	0,148
-733,239	-9,571	-0,501	-0,245
-732,225	-81,994	0,294	0,070
-731,210	-120,643	0,063	-0,008
-730,196	-109,914	0,086	-0,013
-729,181	-200,000	0,017	-0,084
-728,167	-1,997	0,054	0,028
-727,152	-60,021	0,072	0,023
-726,137	-92,919	-0,143	-0,029
-725,123	-200,000	0,001	-0,194
-724,108	800,000	-0,032	-0,080
-723,094	340,812	-0,076	0,110
-722,079	-24,852	-0,056	0,024
-721,064	72,392	0,063	0,048
-720,050	-67,472	-0,048	0,014
-719,035	47,614	-0,094	0,064
-718,021	-199,741	-0,099	-0,000
-717,006	-122,334	-0,108	0,013
-715,991	-76,277	-0,152	-0,039
-714,977	-200,000	-0,025	-0,130
-713,962	296,651	0,048	0,065
-712,948	800,000	-0,015	-0,039
-711,933	75,905	0,033	-0,025
-710,918	-200,000	0,010	0,037
-709,904	-112,042	-0,156	-0,023
-708,889	76,530	-0,028	-0,021
-707,875	-200,000	-0,005	-0,090
-706,860	159,723	0,129	-0,132
-705,845	-74,959	0,083	0,022
-704,831	-42,698	0,035	-0,013
-703,816	60,992	-0,121	-0,088
-702,802	-200,000	0,003	-0,054
-701,787	92,587	-0,166	-0,138
-700,772	146,449	-0,106	-0,105
-699,758	334,319	0,030	-0,043
-698,743	-200,000	-0,011	-0,049
-697,729	215,137	-0,016	0,018
-696,714	800,000	-0,046	0,117
-695,699	634,799	0,012	-0,022
-694,685	-200,000	-0,012	-0,106
-693,670	-200,000	-0,004	-0,104
-692,656	-9,700	-0,102	0,050
-691,641	612,304	-0,010	0,018
-690,627	2,070	0,047	-0,025
-689,612	41,813	0,095	0,063
-688,597	-169,765	0,029	-0,001
-687,583	-30,526	-0,096	0,040
-686,568	-59,769	-0,013	-0,004
-685,554	800,000	0,016	-0,036
-684,539	129,837	0,052	0,049
-683,524	-104,528	0,138	-0,023
-682,510	-167,507	-0,053	-0,002
-681,495	249,841	-0,048	-0,061
-680,481	800,000	-0,049	-0,142
-679,466	-40,712	-0,132	0,050
-678,451	-89,278	0,086	0,018
-677,437	148,479	-0,091	0,090
-676,422	-200,000	-0,003	-0,110
-675,408	-11,383	-0,062	-0,030
-674,393	800,000	0,017	0,049
-673,378	44,914	-0,034	-0,023
-672,364	-67,680	-0,026	0,007
-671,349	800,000	0,010	-0,021
-670,335	42,102	0,020	0,013
-669,320	779,024	0,014	0,029
-668,305	800,000	-0,085	0,186
-667,291	80,363	-0,141	-0,111
-666,276	-139,602	0,049	-0,004
-665,262	800,000	0,015	-0,038
-664,247	-200,000	0,016	-0,104
-663,232	136,834	-0,046	-0,044
-662,218	212,187	0,075	0,087
-661,203	11,713	-0,038	-0,021
-660,189	-40,828	-0,111	0,042
-659,174	376,187	0,041	0,061
-658,159	168,990	-0,006	-0,006
-657,145	-200,000	-0,021	-0,078
-656,130	402,674	-0,057	-0,089
-655,116	-25,551	-0,058	-0,025
-654,101	-131,279	0,031	-0,003
-653,086	-62,111	-0,089	-0,027
-652,072	-200,000	-0,025	-0,098
-651,057	638,294	0,040	-0,074
-650,043	-86,394	-0,109	-0,024
-649,028	800,000	0,037	-0,081
-648,014	-58,441	0,089	-0,028
-646,999	161,103	-0,074	0,076
-645,984	-200,000	-0,024	0,130
-644,970	-200,000	-0,013	-0,114
-643,955	-27,219	-0,143	0,061
-642,941	326,613	-0,052	0,073
-641,926	252,277	0,039	0,048
-640,911	205,482	-0,108	-0,123
-639,897	31,326	0,102	0,064
-638,882	-129,082	-0,022	-0,002
-637,868	-200,000	-0,010	0,043
-636,853	-95,504	-0,026	0,005
-635,838	572,995	0,043	-0,076
-634,824	-200,000	0,013	0,157
-633,809	800,000	0,043	0,117
-632,795	23,925	-0,027	-0,016
-631,780	-78,237	0,042	0,011
-630,765	-18,384	0,076	0,035
-629,751	2,890	-0,109	0,058
-628,736	253,486	0,082	-0,103
-627,722	499,466	0,036	0,061
-626,707	72,296	-0,112	-0,086
-625,692	-73,210	-0,027	0,007
-624,678	800,000	-0,051	0,145
-623,663	-160,948	0,037	0,001
-622,649	260,899	0,084	-0,107
-621,634	41,669	0,044	-0,029
-620,619	555,325	-0,053	-0,095
-619,605	-200,000	0,004	0,063
-618,590	-200,000	0,003	0,085
-617,576	800,000	0,043	-0,120
-616,561	270,425	-0,079	-0,102
-615,546	190,737	-0,078	-0,086
-614,532	297,252	-0,089	-0,120
-613,517	295,899	0,029	-0,039
-612,503	-107,046	0,016	-0,003
-611,488	464,770	0,074	0,122
-610,474	-200,000	0,000	0,012
-609,459	254,744	0,055	0,069
-608,444	800,000	-0,018	-0,053
-607,430	800,000	0,016	0,035
-606,415	-200,000	-0,001	-0,041
-605,401	-118,726	0,053	-0,007
-604,386	-181,118	0,101	-0,001
-603,371	371,419	-0,065	0,096
-602,357	422,878	-0,061	0,097
-601,342	-47,650	-0,097	0,034
-600,328	513,698	-0,040	0,068
-599,313	23,109	0,104	0,063
-598,298	176,846	-0,016	-0,017
-597,284	-200,000	-0,005	-0,021
-596,269	-200,000	0,049	0,225
-595,255	-44,529	0,048	-0,017
-594,240	-200,000	0,008	0,091
-593,225	278,936	-0,025	-0,032
-592,211	-200,000	0,003	0,019
-591,196	112,517	0,063	-0,056
-590,182	-175,751	-0,167	0,003
-589,167	86,049	-0,036	0,029
-588,152	800,000	0,014	-0,045
-587,138	-200,000	0,013	0,101
-586,123	-200,000	-0,008	-0,120
-585,109	-44,674	0,063	-0,023
-584,094	387,235	0,081	0,123
-583,079	-200,000	-0,001	0,022
-582,065	-53,825	0,096	0,032
-581,050	-37,493	-0,068	-0,026
-580,036	800,000	-0,042	-0,089
-579,021	650,061	-0,056	-0,105
-578,006	-131,980	-0,134	0,013
-576,992	-200,000	0,014	0,107
-575,977	-200,000	0,002	0,140
-574,963	-200,000	-0,001	0,046
-573,948	539,297	-0,065	0,114
-572,934	107,760	0,047	0,041
-571,919	-42,336	0,055	-0,020
-570,904	317,626	-0,037	-0,052
-569,890	265,448	0,089	-0,114
-568,875	187,291	0,125	-0,136
-567,861	-200,000	0,005	0,061
-566,846	77,527	0,015	-0,012
-565,831	800,000	0,015	0,041
-564,817	408,951	-0,090	-0,140
-563,802	303,223	0,066	-0,089
-562,788	-200,000	0,001	-0,138
-561,773	-49,690	-0,042	0,014
-560,758	100,550	-0,022	0,019
-559,744	99,164	-0,078	0,066
-558,729	-84,851	0,037	-0,009
-557,715	-200,000	0,013	-0,070
-556,700	460,556	-0,074	-0,121
-555,685	251,398	0,107	-0,134
-554,671	595,751	0,035	-0,063
-553,656	800,000	-0,052	0,117
-552,642	-200,000	0,024	0,144
-551,627	-78,516	-0,020	-0,005
-550,612	-200,000	0,029	0,104
-549,598	-112,471	-0,137	0,020
-548,583	800,000	-0,021	0,045
-547,569	-200,000	0,001	0,022
-546,554	-13,435	-0,093	0,044
-545,539	366,806	-0,061	-0,090
-544,525	-17,383	0,078	0,036
-543,510	97,312	0,040	-0,034
-542,496	-200,000	-0,009	0,049
-541,481	94,126	0,140	-0,116
-540,466	50,585	-0,032	0,022
-539,452	142,762	-0,014	0,014
-538,437	800,000	0,047	-0,112
-537,423	800,000	0,023	0,072
-536,408	-200,000	-0,020	-0,142
-535,393	-200,000	-0,021	-0,085
-534,379	3,712	0,041	0,022
-533,364	800,000	0,036	-0,090
-532,350	2,740	0,022	-0,011
-531,335	800,000	0,030	0,087
-530,321	-77,425	0,048	0,012
-529,306	-123,974	-0,042	0,005
-528,291	-110,346	0,073	-0,011
-527,277	-49,012	0,070	0,024
-526,262	58,286	0,130	0,093
-525,248	580,429	0,027	0,048
-524,233	31,611	0,017	0,010
-523,218	-28,197	0,075	0,031
-522,204	446,082	-0,017	0,028
-521,189	-200,000	0,001	-0,115
-520,175	16,926	0,017	0,010
-519,160	307,886	0,053	0,072
-518,145	34,739	0,020	0,013
-517,131	-200,000	0,011	-0,058
-516,116	-66,837	-0,034	-0,010
-515,102	70,094	0,094	0,071
-514,087	800,000	-0,019	-0,042
-513,072	-132,483	-0,064	-0,006
-512,058	56,925	-0,077	-0,055
-511,043	-128,017	0,136	0,014
-510,029	-89,432	0,146	-0,031
-509,014	88,769	-0,061	0,050
-507,999	62,346	0,101	-0,073
-506,985	72,284	-0,128	0,097
-505,970	118,351	-0,073	0,066
-504,956	-112,046	0,063	-0,009
-503,941	800,000	0,017	-0,038
-502,926	-153,829	0,152	-0,007
-501,912	308,422	-0,082	0,112
-500,897	158,030	-0,140	0,141
-499,883	-200,000	0,017	-0,071
-498,868	480,452	0,051	-0,085
-497,853	180,793	0,012	-0,013
-496,839	52,646	0,026	-0,018
-495,824	0,829	0,022	-0,011
-494,810	41,635	-0,099	-0,065
-493,795	-200,000	0,011	-0,060
-492,781	-24,506	0,030	0,013
-491,766	-122,819	-0,072	-0,008
-490,751	-136,039	-0,130	0,011
-489,737	-124,121	0,077	-0,009
-488,722	-43,507	0,038	-0,014
-487,708	-35,043	0,065	0,026
-486,693	286,272	-0,054	0,071
-485,678	800,000	0,040	-0,115
-484,664	-1,028	-0,140	-0,072
-483,649	147,979	-0,057	-0,056
-482,635	-200,000	-0,009	-0,095
-481,620	187,348	-0,070	-0,076
-480,605	-200,000	0,005	0,068
-479,591	800,000	0,035	0,101
-478,576	44,117	0,143	0,095
-477,562	-107,237	-0,064	0,010
-476,547	194,194	-0,047	-0,052
-475,532	450,090	0,044	-0,072
-474,518	238,127	-0,016	-0,019
-473,503	99,108	0,099	0,083
-472,489	800,000	-0,034	0,080
-471,474	124,788	-0,081	0,074
-470,459	-155,223	-0,151	-0,007
-469,445	67,269	0,112	-0,083
-468,430	239,480	-0,071	-0,086
-467,416	-150,810	0,167	-0,009
-466,401	-144,821	-0,067	0,004
-465,386	212,456	0,146	-0,168
-464,372	568,710	-0,022	-0,039
-463,357	628,190	0,038	0,071
-462,343	391,798	0,033	-0,051
-461,328	-200,000	-0,002	0,071
-460,313	800,000	0,055	0,117
-459,299	800,000	-0,035	0,075
-458,284	-15,698	0,065	-0,030
-457,270	-173,370	-0,190	-0,004
-456,255	303,611	0,025	-0,034
-455,241	12,463	0,077	0,043
-454,226	-200,000	0,002	0,043
-453,211	526,883	-0,055	-0,094
-452,197	800,000	-0,042	0,090
-451,182	208,215	0,081	0,092
-450,168	18,423	-0,084	-0,049
-449,153	-161,913	0,072	0,003
-448,138	345,370	0,072	-0,104
-447,124	214,353	-0,008	-0,009
-446,109	92,855	-0,149	-0,122
-445,095	800,000	0,028	0,071
-444,080	106,304	0,079	0,068
-443,065	109,883	0,061	0,053
-442,051	727,606	-0,049	-0,095
-441,036	-15,432	-0,020	0,009
-440,022	-200,000	0,076	-0,264
-439,007	-200,000	-0,005	0,082
-437,992	-66,471	0,101	-0,029
-436,978	-200,000	0,014	0,085
-435,963	-124,002	0,051	0,006
-434,949	348,635	-0,086	0,124
-433,934	36,245	0,010	-0,006
-432,919	687,048	-0,073	0,139
-431,905	-200,000	0,035	0,131
-430,890	-200,000	0,019	-0,077
-429,876	-123,274	0,038	-0,004
-428,861	-121,651	0,112	0,013
-427,846	354,297	-0,060	-0,088
-426,832	-81,886	-0,082	0,019
-425,817	-200,000	-0,016	0,071
-424,803	-200,000	-0,009	0,039
-423,788	-8,571	0,091	-0,045
-422,773	468,584	-0,047	0,077
-421,759	152,975	0,074	0,073
-420,744	492,984	0,007	0,012
-419,730	-200,000	0,002	-0,061
-418,715	209,892	-0,009	0,010
-417,701	-200,000	-0,001	-0,072
-416,686	-200,000	0,009	0,095
-415,671	23,433	0,050	0,030
-414,657	272,061	0,090	0,116
-413,642	68,828	-0,072	0,054
-412,628	148,116	0,034	-0,033
-411,613	-90,991	-0,027	0,006
-410,598	129,175	-0,105	-0,097
-409,584	-100,682	0,033	-0,006
-408,569	-86,925	0,105	-0,023
-407,555	-200,000	0,004	0,101
-406,540	-115,225	-0,125	0,017
-405,525	8,339	-0,072	-0,039
-404,511	-100,373	-0,056	-0,010
-403,496	485,260	0,043	-0,072
-402,482	526,594	0,040	-0,068
-401,467	800,000	0,054	0,150
-400,452	-95,725	-0,127	0,024
-399,438	-106,378	-0,049	-0,008
-398,423	800,000	0,055	0,116
-397,409	95,340	-0,059	0,049
-396,394	-200,000	0,021	0,076
-395,379	151,724	0,123	0,122
-394,365	726,817	0,051	0,099
-393,350	800,000	0,048	0,101
-392,336	135,703	0,092	0,087
-391,321	-200,000	0,023	0,081
-390,306	-102,166	-0,122	-0,021
-389,292	95,572	0,059	-0,049
-388,277	672,210	-0,045	0,085
-387,263	800,000	0,058	0,147
-386,248	-37,460	-0,187	-0,072
-385,233	397,691	0,072	-0,110
-384,219	-200,000	0,001	-0,110
-383,204	-200,000	-0,030	-0,120
-382,190	112,085	-0,160	-0,141
-381,175	800,000	0,037	-0,102
-380,160	-150,860	-0,142	-0,008
-379,146	800,000	0,036	-0,086
-378,131	249,834	-0,069	-0,085
-377,117	543,680	-0,065	-0,113
-376,102	-10,066	-0,131	-0,063
-375,088	800,000	-0,053	-0,110
-374,073	116,138	-0,080	-0,071
-373,058	-200,000	0,017	0,074
-372,044	473,912	0,125	0,205
-371,029	-128,830	-0,203	-0,020
-370,015	-200,000	0,000	-0,068
-369,000	800,000	-0,067	-0,145
-367,985	-200,000	-0,066	-0,244
-366,971	-200,000	0,005	0,023
-365,956	-55,282	0,133	-0,043
-364,942	-152,312	-0,092	0,005
-363,927	-119,194	-0,080	0,010
-362,912	-200,000	-0,003	-0,058
-361,898	-133,683	-0,132	-0,012
-360,883	339,652	-0,023	0,033
-359,869	319,537	-0,018	-0,025
-358,854	-200,000	0,001	0,031
-357,839	778,277	0,055	-0,109
-356,825	626,057	-0,018	0,032
-355,810	800,000	-0,058	0,140
-354,796	-56,158	-0,157	-0,051
-353,781	-200,000	0,004	-0,049
-352,766	-200,000	0,005	-0,072
-351,752	-72,530	-0,063	0,017
-350,737	125,098	-0,071	0,065
-349,723	800,000	0,039	-0,092
-348,708	351,238	0,073	-0,104
-347,693	800,000	0,010	0,029
-346,679	44,295	0,102	-0,068
-345,664	303,083	-0,110	-0,148
-344,650	-200,000	0,027	0,120
-343,635	75,548	-0,021	-0,016
-342,620	352,639	0,017	0,025
-341,606	-61,054	0,095	-0,029
-340,591	-200,000	-0,088	0,000
-339,577	-13,761	-0,135	-0,063
-338,562	-200,000	0,005	0,080
-337,548	-147,918	-0,149	0,009
-336,533	196,464	-0,035	0,039
-335,518	-78,428	0,159	0,039
-334,504	2,575	0,029	0,015
-333,489	-78,486	0,133	-0,033
-332,475	207,387	0,040	-0,046
-331,460	27,962	-0,070	0,043
-330,445	338,444	-0,049	0,069
-329,431	-200,000	-0,004	0,144
-328,416	144,337	0,035	-0,034
-327,402	800,000	-0,051	-0,106
-326,387	-200,000	-0,015	0,060
-325,372	-56,162	-0,029	-0,009
-324,358	168,108	0,039	-0,040
-323,343	-200,000	0,004	-0,130
-322,329	-200,000	-0,010	0,036
-321,314	450,067	-0,019	0,030
-320,299	318,926	-0,099	0,136
-319,285	-160,305	0,107	0,004
-318,270	159,665	0,096	-0,097
-317,256	800,000	0,024	0,049
-316,241	800,000	0,046	-0,136
-315,226	-119,250	-0,239	0,030
-314,212	-16,143	-0,018	0,008
-313,197	-104,650	-0,035	0,006
-312,183	593,116	0,043	0,076
-311,168	800,000	0,022	-0,046
-310,153	-127,725	-0,125	0,013
-309,139	-200,000	-0,005	0,050
-308,124	220,542	0,057	-0,067
-307,110	-80,095	0,068	0,016
-306,095	800,000	0,065	0,155
-305,080	800,000	-0,011	-0,024
-304,066	-200,000	0,025	-0,122
-303,051	45,867	-0,057	-0,038
-302,037	141,371	0,092	0,088
-301,022	214,786	0,045	0,052
-300,008	305,735	0,077	-0,104
-298,993	275,741	-0,088	0,113
-297,978	800,000	-0,039	0,105
-296,964	227,554	0,090	0,106
-295,949	800,000	-0,010	-0,024
-294,935	-200,000	0,001	-0,036
-293,920	389,980	0,069	0,104
-292,905	-93,173	-0,115	-0,023
-291,891	-39,384	0,132	-0,050
-290,876	137,930	-0,052	0,049
-289,862	176,717	0,088	-0,092
-288,847	-200,000	0,005	0,120
-287,832	-58,733	0,072	-0,022
-286,818	62,811	0,046	0,033
-285,803	30,848	-0,092	0,057
-284,789	800,000	-0,016	0,041
-283,774	-133,145	0,037	0,003
-282,759	112,548	-0,098	0,086
-281,745	-29,813	0,039	-0,016
-280,730	214,510	-0,033	0,038
-279,716	345,757	0,068	0,098
-278,701	-184,450	0,047	-0,001
-277,686	800,000	0,013	0,030
-276,672	283,901	0,021	-0,028
-275,657	4,662	-0,059	-0,031
-274,643	-23,976	0,008	-0,004
-273,628	221,305	-0,075	0,088
-272,613	800,000	-0,005	0,011
-271,599	800,000	0,024	-0,051
-270,584	-53,195	0,053	0,018
-269,570	-54,276	0,071	0,023
-268,555	131,457	-0,093	-0,086
-267,540	-200,000	-0,019	-0,063
-266,526	800,000	0,038	-0,118
-265,511	-200,000	-0,023	0,090
-264,497	-120,682	-0,041	0,005
-263,482	290,549	0,074	0,097
-262,467	800,000	0,032	-0,079
-261,453	18,229	-0,120	-0,069
-260,438	-200,000	0,008	-0,060
-259,424	-200,000	0,027	-0,132
-258,409	-11,954	0,013	0,006
-257,395	380,209	-0,052	-0,077
-256,380	69,079	0,119	-0,089
-255,365	193,133	-0,032	0,035
-254,351	-105,131	0,057	0,009
-253,336	-88,964	0,059	0,013
-252,322	800,000	-0,031	-0,074
-251,307	-200,000	0,009	-0,091
-250,292	-135,335	0,123	-0,010
-249,278	-112,665	0,038	-0,005
-248,263	800,000	0,021	-0,050
-247,249	800,000	-0,022	0,048
-246,234	-200,000	0,001	0,081
-245,219	-45,667	0,095	-0,034
-244,205	-87,330	-0,008	-0,002
-243,190	-200,000	-0,000	0,024
-242,176	-200,000	0,013	-0,082
-241,161	113,226	-0,064	0,056
-240,146	-26,589	0,097	0,041
-239,132	-62,678	-0,093	-0,028
-238,117	-200,000	-0,006	-0,084
-237,103	89,727	0,145	-0,117
-236,088	414,598	0,035	-0,054
-235,073	-200,000	0,033	-0,106
-234,059	-22,688	0,120	-0,052
-233,044	-200,000	0,002	0,146
-232,030	25,488	0,066	-0,040
-231,015	-69,086	-0,125	0,035
-230,000	-135,491	0,058	0,005
-228,986	356,781	0,027	0,039
-227,971	463,105	0,059	0,095
-226,957	-200,000	0,007	0,047
-225,942	120,795	0,032	0,029
-224,927	-200,000	0,031	0,148
-223,913	-150,272	-0,136	0,007
-222,898	800,000	0,012	0,028
-221,884	-200,000	-0,032	-0,167
-220,869	-200,000	0,004	0,070
-219,855	87,403	-0,054	-0,043
-218,840	11,608	0,113	-0,062
-217,825	45,977	0,079	0,052
-216,811	-95,481	0,070	0,013
-215,796	-70,927	-0,124	-0,033
-214,782	-200,000	0,025	0,088
-213,767	337,423	-0,008	0,011
-212,752	-50,183	0,065	0,022
-211,738	240,147	-0,091	0,110
-210,723	-200,000	-0,028	0,119
-209,709	-200,000	-0,012	-0,064
-208,694	-147,143	-0,106	0,006
-207,679	86,905	-0,049	-0,039
-206,665	433,149	-0,062	-0,098
-205,650	80,114	0,110	0,086
-204,636	602,250	0,017	0,030
-203,621	-200,000	-0,045	0,167
-202,606	-200,000	0,006	-0,120
-201,592	-200,000	-0,051	-0,182
-200,577	98,094	0,119	0,099
-199,563	-110,713	0,103	0,015
-198,548	136,006	0,127	-0,119
-197,533	-85,861	0,048	0,011
-196,519	800,000	0,066	0,155
-195,504	-200,000	0,002	0,073
-194,490	12,304	-0,137	-0,076
-193,475	-130,151	-0,077	-0,007
-192,460	-105,040	-0,070	-0,011
-191,446	-200,000	0,002	0,073
-190,431	319,829	0,024	0,033
-189,417	369,591	0,103	-0,151
-188,402	-59,998	0,064	0,020
-187,387	26,551	-0,137	-0,082
-186,373	617,581	-0,074	-0,134
-185,358	-200,000	0,004	-0,095
-184,344	-200,000	0,010	-0,078
-183,329	96,054	0,068	-0,056
-182,315	85,856	0,077	-0,061
-181,300	354,796	-0,059	0,084
-180,285	-200,000	-0,019	0,061
-179,271	800,000	-0,052	-0,139
-178,256	-157,940	-0,087	0,004
-177,242	-200,000	0,024	-0,093
-176,227	-102,186	0,161	0,028
-175,212	2,421	-0,042	0,022
-174,198	67,918	0,060	-0,044
-173,183	-68,174	-0,099	-0,028
-172,169	89,646	-0,158	0,127
-171,154	-118,096	0,115	-0,015
-170,139	-191,277	-0,161	0,001
-169,125	-5,277	0,180	0,089
-168,110	-108,962	-0,109	0,017
-167,096	499,236	-0,055	0,092
-166,081	-200,000	-0,018	-0,086
-165,066	800,000	-0,036	-0,093
-164,052	9,118	-0,061	-0,033
-163,037	6,438	-0,124	0,066
-162,023	171,606	-0,136	0,141
-161,008	-1,506	0,071	0,036
-159,993	-200,000	-0,003	0,072
-158,979	800,000	-0,041	0,098
-157,964	-200,000	-0,001	-0,083
-156,950	635,548	-0,052	0,096
-155,935	800,000	0,010	-0,027
-154,920	-200,000	-0,005	-0,102
-153,906	-88,959	0,114	0,024
-152,891	-200,000	-0,003	-0,056
-151,877	36,399	0,027	-0,017
-150,862	-200,000	-0,000	-0,049
-149,847	-200,000	0,027	-0,110
-148,833	2,338	-0,112	-0,058
-147,818	800,000	0,034	-0,084
-146,804	117,185	0,077	0,068
-145,789	-32,002	0,088	0,035
-144,775	800,000	-0,021	-0,041
-143,760	800,000	-0,034	-0,103
-142,745	156,715	0,058	0,058
-141,731	256,718	-0,059	-0,073
-140,716	-82,749	-0,130	0,030
-139,702	-200,000	-0,005	-0,036
-138,687	-35,499	-0,048	0,019
-137,672	204,625	-0,035	-0,039
-136,658	-200,000	0,032	-0,144
-135,643	-91,083	-0,064	-0,013
-134,629	-72,859	-0,126	-0,033
-133,614	-70,809	0,104	0,028
-132,599	742,789	-0,042	0,081
-131,585	43,828	-0,055	0,036
-130,570	13,382	-0,040	-0,022
-129,556	-32,917	0,052	-0,021
-128,541	179,467	-0,031	-0,033
-127,526	-87,091	-0,118	-0,026
-126,512	-130,315	0,121	-0,012
-125,497	-200,000	-0,018	-0,081
-124,483	97,982	0,059	0,048
-123,468	800,000	0,020	-0,061
-122,453	-98,297	-0,180	-0,033
-121,439	-200,000	0,001	0,048
-120,424	20,077	-0,125	-0,073
-119,410	800,000	-0,053	-0,114
