DTS Sentinel unit serial number:	SN410029Multiplexer serial number:	ORYXHardware model number:	OX2-SRSoftware version number:	ORYX F/W v4,00 Oryx Data Collector v3.7.2.0data status	okinstallation	B5 Nyhavnadifferential loss correction	single-endedforward channel	channel 2reverse channel	N/Adate	2023/12/12time	16:12:13forward acquisition time	300,00reverse acquisition time	0,00gamma	499,1914k internal	0,3156k external	0,3156temperature offset calibration	1,0000default loss term (dB/km)	0,3820temperature slope calibration	1,0000multiplexer offset coefficient	1,0000multiplexer slope coefficient	1,0000fibre end	0,00T internal ref (°C)	15,89T ext. ref 1 (°C)	-0,64T ext. ref 2 (°C)	-0,93length (m)	temperature (°C)	Stokes	anti-Stokes-744,400	-200,000	-0,002	0,115
-743,385	-169,850	-0,147	-0,004
-742,371	800,000	-0,014	0,032
-741,356	-13,752	-0,333	0,158
-740,342	327,895	0,057	0,080
-739,327	-139,837	-0,391	0,030
-738,312	-90,148	0,130	0,028
-737,298	-192,416	-0,389	-0,003
-736,283	-200,000	0,063	-0,233
-735,269	-18,243	-0,252	-0,116
-734,254	-200,000	-0,007	-0,117
-733,239	-29,976	-0,463	-0,193
-732,225	34,216	0,095	-0,061
-731,210	-18,410	-0,072	0,033
-730,196	-47,265	0,085	0,030
-729,181	-200,000	-0,000	0,071
-728,167	-190,923	-0,098	-0,001
-727,152	-200,000	0,000	0,081
-726,137	-37,074	-0,111	-0,044
-725,123	-118,820	-0,148	0,019
-724,108	-88,570	-0,084	0,018
-723,094	-200,000	0,017	-0,208
-722,079	123,286	-0,117	0,108
-721,064	106,367	0,033	-0,029
-720,050	360,171	0,072	-0,106
-719,035	48,141	-0,160	-0,110
-718,021	-200,000	-0,037	-0,131
-717,006	-200,000	-0,058	-0,216
-715,991	800,000	-0,030	-0,071
-714,977	-200,000	0,002	-0,139
-713,962	424,360	0,073	-0,116
-712,948	-197,427	-0,102	-0,000
-711,933	305,222	-0,112	-0,154
-710,918	-89,531	-0,066	-0,014
-709,904	800,000	-0,029	0,084
-708,889	607,179	-0,008	0,015
-707,875	800,000	-0,057	-0,167
-706,860	8,669	-0,051	0,028
-705,845	-122,560	0,102	-0,012
-704,831	-200,000	0,014	-0,049
-703,816	-135,464	0,104	0,009
-702,802	-200,000	0,008	-0,075
-701,787	800,000	-0,077	-0,214
-700,772	37,116	-0,045	-0,029
-699,758	-200,000	-0,002	0,047
-698,743	209,656	0,100	0,116
-697,729	-96,091	-0,143	-0,028
-696,714	-37,659	0,038	-0,015
-695,699	-10,960	-0,058	-0,028
-694,685	72,275	-0,027	-0,021
-693,670	-0,854	0,047	-0,025
-692,656	-200,000	0,018	0,103
-691,641	-82,244	0,011	-0,003
-690,627	-91,147	0,098	-0,020
-689,612	-200,000	0,008	0,059
-688,597	-44,323	-0,163	0,060
-687,583	31,530	-0,035	-0,022
-686,568	455,127	-0,051	-0,084
-685,554	160,766	-0,093	0,096
-684,539	-37,201	-0,121	-0,048
-683,524	179,800	-0,037	-0,040
-682,510	-200,000	-0,009	-0,031
-681,495	784,895	-0,107	-0,217
-680,481	-46,423	-0,123	0,044
-679,466	-200,000	-0,004	0,030
-678,451	16,927	-0,056	0,032
-677,437	800,000	-0,049	0,107
-676,422	-72,975	-0,060	-0,016
-675,408	20,348	0,094	-0,056
-674,393	-200,000	0,026	0,107
-673,378	-87,699	-0,093	-0,021
-672,364	649,659	0,024	-0,045
-671,349	385,890	-0,138	-0,211
-670,335	-200,000	0,004	-0,118
-669,320	-58,850	0,125	-0,040
-668,305	57,460	-0,030	-0,022
-667,291	221,165	-0,077	-0,091
-666,276	-41,815	-0,159	0,060
-665,262	329,690	-0,019	-0,026
-664,247	800,000	0,020	-0,058
-663,232	-141,522	-0,075	-0,005
-662,218	499,171	0,046	-0,079
-661,203	-200,000	0,029	0,112
-660,189	5,835	-0,031	-0,017
-659,174	-181,491	-0,078	0,001
-658,159	800,000	0,085	-0,198
-657,145	61,633	-0,185	0,135
-656,130	56,900	-0,121	-0,086
-655,116	-139,039	0,112	0,009
-654,101	23,803	0,075	-0,045
-653,086	-53,442	0,033	0,011
-652,072	-97,092	-0,140	-0,027
-651,057	112,029	0,103	-0,091
-650,043	49,817	0,061	-0,042
-649,028	800,000	0,005	-0,016
-648,014	214,531	0,090	-0,105
-646,999	800,000	0,036	-0,101
-645,984	-200,000	0,005	0,027
-644,970	356,833	0,070	-0,103
-643,955	-200,000	-0,024	-0,081
-642,941	6,217	-0,139	0,076
-641,926	542,349	-0,024	-0,042
-640,911	-100,084	0,071	0,013
-639,897	305,968	0,049	0,067
-638,882	309,959	-0,043	-0,059
-637,868	343,581	-0,105	-0,152
-636,853	24,933	-0,038	-0,023
-635,838	24,428	-0,115	-0,070
-634,824	-84,862	-0,170	0,039
-633,809	-200,000	0,007	0,081
-632,795	-200,000	0,004	-0,091
-631,780	-200,000	-0,000	0,108
-630,765	347,431	0,025	-0,036
-629,751	-117,030	-0,082	-0,011
-628,736	-114,066	-0,099	0,014
-627,722	800,000	0,046	-0,126
-626,707	604,083	0,007	-0,012
-625,692	-189,347	-0,041	-0,000
-624,678	-200,000	0,051	0,227
-623,663	140,775	0,140	0,136
-622,649	48,053	-0,151	-0,103
-621,634	-36,959	-0,086	-0,034
-620,619	-112,699	0,069	0,010
-619,605	-200,000	-0,009	0,052
-618,590	126,298	0,060	-0,056
-617,576	31,938	0,101	0,064
-616,561	-200,000	-0,019	0,104
-615,546	606,511	-0,051	-0,093
-614,532	119,470	-0,065	-0,059
-613,517	-108,592	-0,143	-0,022
-612,503	-5,104	-0,153	-0,077
-611,488	800,000	0,064	-0,149
-610,474	-200,000	-0,023	0,156
-609,459	-2,590	0,051	-0,026
-608,444	-63,863	-0,170	-0,051
-607,430	536,409	0,107	-0,188
-606,415	145,857	-0,046	-0,045
-605,401	-7,954	-0,129	-0,063
-604,386	-93,435	0,042	-0,009
-603,371	-200,000	0,014	0,055
-602,357	800,000	0,010	-0,030
-601,342	114,219	-0,098	-0,088
-600,328	236,012	-0,079	-0,096
-599,313	-139,820	0,074	0,006
-598,298	-78,524	-0,088	0,022
-597,284	79,588	0,112	0,088
-596,269	10,221	0,089	-0,049
-595,255	-3,395	0,021	0,011
-594,240	143,151	-0,107	-0,105
-593,225	-106,660	-0,028	0,005
-592,211	-200,000	0,005	-0,043
-591,196	800,000	-0,021	0,049
-590,182	29,670	-0,019	-0,012
-589,167	800,000	0,045	0,101
-588,152	346,584	-0,058	0,084
-587,138	385,634	0,060	-0,091
-586,123	800,000	-0,051	-0,123
-585,109	800,000	-0,066	-0,175
-584,094	-200,000	0,031	-0,133
-583,079	67,921	0,014	-0,010
-582,065	-200,000	0,022	-0,082
-581,050	-200,000	-0,001	-0,192
-580,036	-175,008	-0,028	0,001
-579,021	-98,149	-0,066	0,012
-578,006	-122,365	-0,175	-0,021
-576,992	150,027	-0,041	0,041
-575,977	-15,478	0,136	0,063
-574,963	-200,000	-0,026	0,141
-573,948	56,586	0,171	0,122
-572,934	-30,321	0,115	0,047
-571,919	694,419	0,031	-0,060
-570,904	58,328	-0,141	-0,101
-569,890	46,448	-0,096	0,065
-568,875	-200,000	-0,028	0,107
-567,861	97,450	0,023	-0,020
-566,846	606,081	0,053	0,097
-565,831	-200,000	-0,015	0,077
-564,817	800,000	-0,028	-0,064
-563,802	-59,334	-0,043	-0,013
-562,788	-171,714	-0,189	-0,004
-561,773	800,000	-0,026	-0,079
-560,758	-34,586	0,127	-0,051
-559,744	18,560	0,027	-0,016
-558,729	-169,334	-0,016	0,000
-557,715	-200,000	-0,005	0,068
-556,700	42,512	-0,045	-0,030
-555,685	76,157	-0,107	-0,083
-554,671	800,000	0,012	0,032
-553,656	800,000	-0,064	0,193
-552,642	56,931	-0,039	0,028
-551,627	-81,919	0,134	0,032
-550,612	-124,630	-0,050	0,006
-549,598	-139,769	-0,033	0,003
-548,583	201,551	-0,125	0,142
-547,569	7,134	-0,026	0,014
-546,554	-177,877	0,087	0,001
-545,539	-134,916	0,083	-0,007
-544,525	800,000	-0,038	0,120
-543,510	-49,865	-0,068	0,023
-542,496	-68,442	-0,089	-0,025
-541,481	-139,839	-0,070	0,005
-540,466	105,515	-0,022	0,019
-539,452	35,014	0,068	0,043
-538,437	800,000	0,030	0,088
-537,423	80,420	-0,096	0,075
-536,408	138,257	-0,042	-0,041
-535,393	-35,109	-0,081	0,032
-534,379	-124,960	-0,187	-0,021
-533,364	9,995	-0,113	0,062
-532,350	603,908	0,009	0,017
-531,335	800,000	0,035	0,095
-530,321	-65,393	0,170	-0,050
-529,306	114,225	-0,053	-0,047
-528,291	-200,000	0,006	0,025
-527,277	349,629	-0,058	-0,084
-526,262	298,142	-0,076	-0,102
-525,248	-103,673	-0,148	0,025
-524,233	-200,000	0,021	0,153
-523,218	387,760	0,061	0,092
-522,204	-85,571	-0,065	-0,015
-521,189	266,304	0,028	-0,035
-520,175	-200,000	0,020	-0,091
-519,160	-200,000	-0,006	-0,054
-518,145	380,406	0,017	0,025
-517,131	800,000	0,026	-0,056
-516,116	275,623	0,027	0,035
-515,102	115,813	0,137	-0,122
-514,087	800,000	-0,048	-0,111
-513,072	-200,000	0,005	0,066
-512,058	800,000	-0,023	0,065
-511,043	5,979	-0,076	0,041
-510,029	-15,769	0,024	-0,011
-509,014	182,320	-0,108	0,117
-507,999	214,101	-0,014	0,016
-506,985	693,789	-0,044	-0,085
-505,970	383,348	0,060	0,090
-504,956	-43,661	0,106	0,039
-503,941	194,777	0,102	0,113
-502,926	800,000	-0,007	0,022
-501,912	526,234	-0,032	0,056
-500,897	58,881	-0,076	-0,054
-499,883	-45,611	-0,064	-0,023
-498,868	38,967	0,034	-0,022
-497,853	-32,907	-0,064	0,026
-496,839	37,431	-0,069	-0,045
-495,824	-64,117	0,087	0,026
-494,810	17,800	0,072	0,041
-493,795	800,000	0,048	0,099
-492,781	-48,461	0,097	0,034
-491,766	185,943	-0,118	-0,129
-490,751	-95,768	-0,154	0,030
-489,737	-200,000	-0,035	-0,135
-488,722	97,437	-0,107	-0,090
-487,708	-87,257	-0,076	-0,017
-486,693	-61,712	0,213	0,065
-485,678	-200,000	-0,042	0,158
-484,664	-58,667	-0,056	-0,017
-483,649	68,689	0,061	-0,046
-482,635	-180,877	-0,076	0,001
-481,620	-169,573	-0,053	0,001
-480,605	-200,000	0,003	-0,022
-479,591	-8,315	0,029	-0,014
-478,576	255,840	-0,053	0,067
-477,562	464,323	0,013	-0,021
-476,547	-25,392	0,080	0,034
-475,532	116,786	0,050	-0,045
-474,518	744,058	-0,020	0,039
-473,503	-200,000	0,015	0,105
-472,489	-55,169	0,035	0,011
-471,474	-200,000	-0,018	-0,066
-470,459	-200,000	-0,014	0,123
-469,445	-112,614	0,058	0,008
-468,430	180,103	-0,025	-0,026
-467,416	88,858	-0,096	0,078
-466,401	181,615	0,119	0,128
-465,386	175,419	0,054	-0,057
-464,372	-59,139	-0,044	0,014
-463,357	-200,000	0,023	-0,132
-462,343	800,000	0,025	0,060
-461,328	-94,656	-0,024	0,005
-460,313	65,375	0,077	0,056
-459,299	-200,000	-0,011	0,040
-458,284	-8,511	0,093	0,045
-457,270	-200,000	0,008	-0,045
-456,255	178,449	-0,043	0,046
-455,241	-200,000	-0,037	0,156
-454,226	800,000	0,028	0,077
-453,211	-19,598	0,139	-0,062
-452,197	478,152	-0,038	-0,063
-451,182	-56,272	0,067	0,022
-450,168	13,133	0,120	-0,068
-449,153	-2,660	-0,048	-0,024
-448,138	-200,000	0,017	-0,058
-447,124	-18,581	-0,045	-0,021
-446,109	-200,000	0,026	0,121
-445,095	-169,179	-0,028	0,001
-444,080	20,855	0,165	0,097
-443,065	337,401	0,121	0,172
-442,051	-200,000	0,006	0,029
-441,036	98,401	-0,052	0,044
-440,022	142,646	-0,071	0,068
-439,007	800,000	-0,011	-0,036
-437,992	-200,000	0,002	-0,012
-436,978	158,668	0,099	0,100
-435,963	-200,000	-0,033	-0,106
-434,949	83,359	-0,027	0,022
-433,934	-134,335	-0,169	0,015
-432,919	522,333	0,081	0,139
-431,905	-83,465	-0,028	0,006
-430,890	800,000	0,018	-0,038
-429,876	73,427	-0,109	0,083
-428,861	800,000	0,028	0,080
-427,846	-200,000	0,012	-0,180
-426,832	-200,000	-0,012	-0,052
-425,817	265,063	0,069	0,088
-424,803	-200,000	-0,048	-0,186
-423,788	-99,909	0,023	-0,004
-422,773	41,855	-0,021	0,014
-421,759	-200,000	0,013	0,081
-420,744	-33,006	0,103	0,041
-419,730	150,354	-0,038	-0,038
-418,715	103,895	-0,027	-0,023
-417,701	800,000	-0,034	-0,077
-416,686	-200,000	-0,005	0,153
-415,671	-166,432	0,115	-0,003
-414,657	-88,682	0,108	-0,023
-413,642	305,115	0,059	-0,080
-412,628	-12,163	-0,082	0,039
-411,613	334,287	-0,040	0,057
-410,598	-103,831	-0,080	-0,014
-409,584	-172,447	0,142	-0,003
-408,569	417,439	0,054	0,084
-407,555	-107,844	0,067	0,010
-406,540	800,000	0,069	0,192
-405,525	401,910	-0,067	0,103
-404,511	-67,169	-0,054	-0,015
-403,496	-200,000	-0,013	0,054
-402,482	511,549	0,066	0,112
-401,467	-200,000	-0,048	0,000
-400,452	800,000	0,028	0,062
-399,438	-69,619	0,110	0,030
-398,423	188,844	0,021	0,023
-397,409	-195,264	-0,065	0,000
-396,394	-21,345	0,076	0,033
-395,379	-200,000	-0,003	0,061
-394,365	-164,536	0,047	-0,002
-393,350	61,024	0,066	-0,048
-392,336	-175,255	-0,106	-0,002
-391,321	-59,586	0,015	0,005
-390,306	-79,078	0,076	-0,019
-389,292	166,969	-0,128	-0,132
-388,277	800,000	0,037	0,075
-387,263	-200,000	-0,016	0,077
-386,248	20,568	0,072	0,042
-385,233	-200,000	0,003	0,121
-384,219	-103,599	0,088	0,015
-383,204	-200,000	0,024	-0,119
-382,190	747,832	0,026	0,051
-381,175	-200,000	-0,001	-0,024
-380,160	800,000	-0,048	0,106
-379,146	413,608	0,098	-0,152
-378,131	-162,113	0,097	-0,003
-377,117	-20,454	-0,076	0,034
-376,102	-200,000	-0,028	-0,111
-375,088	-130,562	-0,097	-0,009
-374,073	800,000	0,004	0,011
-373,058	61,387	0,090	-0,065
-372,044	132,007	-0,032	0,030
-371,029	119,734	0,043	0,038
-370,015	-200,000	0,007	-0,053
-369,000	102,567	-0,059	0,050
-367,985	800,000	-0,032	-0,075
-366,971	-200,000	0,011	-0,114
-365,956	-200,000	-0,002	0,132
-364,942	603,749	0,043	-0,078
-363,927	-68,403	-0,040	0,011
-362,912	66,940	0,133	0,098
-361,898	800,000	0,056	-0,113
-360,883	82,665	0,023	0,018
-359,869	121,092	-0,023	0,020
-358,854	800,000	-0,045	0,101
-357,839	-50,681	0,145	-0,049
-356,825	380,608	0,081	0,121
-355,810	382,427	0,025	-0,038
-354,796	-200,000	0,011	-0,170
-353,781	800,000	-0,059	-0,179
-352,766	800,000	-0,027	-0,075
-351,752	-5,057	0,053	-0,026
-350,737	-9,015	0,126	0,061
-349,723	326,724	0,059	-0,083
-348,708	800,000	0,028	-0,072
-347,693	-200,000	-0,017	-0,061
-346,679	385,124	0,039	-0,059
-345,664	-200,000	-0,010	-0,060
-344,650	-200,000	-0,009	-0,049
-343,635	168,694	-0,085	-0,088
-342,620	-90,944	0,036	-0,007
-341,606	-119,569	0,064	-0,008
-340,591	-135,745	-0,060	0,005
-339,577	-200,000	-0,011	-0,136
-338,562	800,000	-0,040	-0,084
-337,548	-40,032	0,202	0,076
-336,533	61,702	0,168	-0,121
-335,518	24,477	-0,076	-0,046
-334,504	-54,670	-0,051	-0,017
-333,489	-53,719	0,053	0,018
-332,475	-59,645	0,048	-0,015
-331,460	-164,905	-0,101	0,003
-330,445	413,765	0,121	-0,187
-329,431	-66,566	-0,045	-0,013
-328,416	-200,000	-0,008	0,041
-327,402	-53,513	-0,136	-0,045
-326,387	245,966	-0,118	0,145
-325,372	485,552	0,054	-0,089
-324,358	291,589	0,019	-0,025
-323,343	150,243	0,007	-0,007
-322,329	-88,876	0,038	-0,008
-321,314	125,580	-0,027	-0,024
-320,299	-200,000	0,034	-0,112
-319,285	156,902	-0,076	-0,076
-318,270	-84,357	0,046	-0,010
-317,256	800,000	-0,057	0,135
-316,241	459,834	0,044	0,072
-315,226	-66,842	0,015	-0,004
-314,212	-200,000	-0,027	0,144
-313,197	800,000	0,040	0,107
-312,183	-45,901	0,056	-0,020
-311,168	594,062	0,063	-0,114
-310,153	477,395	0,033	0,054
-309,139	81,477	0,047	0,036
-308,124	-58,415	0,028	0,009
-307,110	10,033	-0,018	-0,010
-306,095	329,553	0,039	0,054
-305,080	-200,000	-0,021	0,146
-304,066	34,487	0,051	-0,032
-303,051	469,056	-0,029	0,048
-302,037	-200,000	0,011	-0,086
-301,022	-107,257	-0,263	0,042
-300,008	-97,888	0,097	0,018
-298,993	220,023	0,006	0,007
-297,978	666,752	-0,046	-0,086
-296,964	800,000	-0,092	-0,206
-295,949	-127,011	0,002	-0,000
-294,935	538,391	0,007	-0,012
-293,920	-200,000	-0,007	-0,051
-292,905	413,527	0,021	0,033
-291,891	578,828	-0,058	-0,103
-290,876	146,472	0,071	0,069
-289,862	-57,301	0,067	0,021
-288,847	-200,000	-0,002	0,062
-287,832	404,077	0,018	-0,028
-286,818	-200,000	-0,005	-0,242
-285,803	-28,308	-0,113	-0,047
-284,789	-32,708	0,145	-0,058
-283,774	-200,000	-0,006	0,045
-282,759	800,000	0,012	-0,031
-281,745	800,000	0,058	-0,135
-280,730	-128,417	-0,081	-0,008
-279,716	-67,676	0,091	0,026
-278,701	5,049	0,062	-0,033
-277,686	101,671	-0,113	0,095
-276,672	-32,577	0,142	-0,057
-275,657	-10,270	-0,023	-0,011
-274,643	303,440	-0,064	-0,086
-273,628	377,417	0,040	-0,059
-272,613	800,000	0,013	-0,041
-271,599	-55,275	0,108	0,035
-270,584	-200,000	0,006	-0,024
-269,570	-200,000	-0,013	0,105
-268,555	-80,715	-0,041	-0,010
-267,540	-200,000	0,001	-0,043
-266,526	-200,000	-0,001	0,081
-265,511	597,742	0,019	-0,034
-264,497	800,000	-0,065	0,156
-263,482	-6,041	0,077	-0,038
-262,467	-2,623	-0,041	0,021
-261,453	132,722	0,034	-0,032
-260,438	-200,000	0,027	-0,098
-259,424	-102,386	-0,047	0,008
-258,409	800,000	-0,029	0,061
-257,395	109,804	0,097	0,084
-256,380	45,433	0,039	0,026
-255,365	260,656	0,031	0,039
-254,351	-200,000	-0,026	0,087
-253,336	434,611	-0,066	-0,104
-252,322	135,917	0,036	-0,034
-251,307	800,000	0,030	0,061
-250,292	-106,968	0,146	-0,023
-249,278	10,711	-0,015	-0,008
-248,263	118,923	0,077	-0,069
-247,249	-115,726	0,080	-0,011
-246,234	266,409	-0,072	-0,092
-245,219	-150,739	-0,193	-0,010
-244,205	4,808	-0,097	0,051
-243,190	-200,000	-0,016	-0,053
-242,176	92,670	0,052	0,043
-241,161	10,706	0,085	-0,047
-240,146	-121,954	0,069	0,008
-239,132	587,910	-0,092	-0,164
-238,117	-200,000	-0,001	-0,049
-237,103	-200,000	0,047	0,159
-236,088	-200,000	0,010	-0,140
-235,073	743,715	-0,028	0,055
-234,059	-200,000	0,021	0,120
-233,044	-129,712	0,140	0,014
-232,030	-200,000	0,015	0,060
-231,015	185,937	-0,080	-0,086
-230,000	380,341	-0,026	-0,038
-228,986	800,000	-0,017	0,040
-227,971	-99,079	0,098	0,018
-226,957	800,000	-0,010	-0,021
-225,942	32,940	0,113	0,071
-224,927	-57,634	0,091	0,029
-223,913	-90,143	0,163	0,034
-222,898	108,224	-0,089	0,077
-221,884	132,739	-0,079	0,074
-220,869	-200,000	0,021	0,123
-219,855	39,601	0,093	0,060
-218,840	-59,647	-0,031	0,010
-217,825	210,864	-0,055	-0,063
-216,811	-200,000	0,014	0,070
-215,796	-200,000	-0,044	-0,157
-214,782	800,000	-0,062	-0,158
-213,767	-200,000	0,008	0,084
-212,752	100,839	0,081	0,068
-211,738	44,275	-0,055	0,036
-210,723	-200,000	0,007	0,144
-209,709	136,023	0,103	-0,097
-208,694	-200,000	-0,028	-0,117
-207,679	-108,185	0,083	-0,013
-206,665	-120,506	-0,117	0,014
-205,650	-133,976	-0,021	-0,002
-204,636	800,000	-0,028	0,073
-203,621	-200,000	0,011	-0,037
-202,606	665,884	0,024	-0,045
-201,592	42,566	0,059	-0,039
-200,577	-200,000	-0,004	-0,065
-199,563	800,000	0,022	-0,050
-198,548	442,023	-0,052	0,082
-197,533	-89,492	-0,073	-0,015
-196,519	261,634	0,030	0,037
-195,504	-66,731	-0,199	-0,057
-194,490	-58,223	0,058	-0,018
-193,475	327,975	-0,018	-0,025
-192,460	189,225	-0,135	-0,146
-191,446	103,160	0,090	-0,076
-190,431	18,625	0,046	-0,026
-189,417	115,487	-0,082	0,073
-188,402	-10,431	0,076	0,036
-187,387	-158,369	-0,097	0,004
-186,373	-107,089	-0,067	0,011
-185,358	-200,000	0,030	0,133
-184,344	-109,345	0,247	0,037
-183,329	-15,474	-0,057	0,026
-182,315	130,715	-0,094	-0,087
-181,300	120,731	-0,108	-0,097
-180,285	-200,000	0,004	-0,035
-179,271	772,649	-0,082	0,162
-178,256	-64,916	0,051	0,015
-177,242	-37,290	0,080	-0,031
-176,227	388,702	0,055	0,082
-175,212	188,216	0,005	0,005
-174,198	-200,000	-0,023	-0,154
-173,183	-200,000	-0,030	-0,118
-172,169	-175,192	0,021	-0,000
-171,154	155,219	-0,017	0,016
-170,139	-200,000	-0,012	0,196
-169,125	42,030	-0,038	-0,025
-168,110	-8,171	0,093	-0,045
-167,096	-169,267	-0,046	-0,001
-166,081	-121,775	-0,107	-0,013
-165,066	-65,899	-0,046	0,013
-164,052	676,283	-0,083	-0,155
-163,037	382,580	-0,062	0,092
-162,023	-200,000	0,038	0,187
-161,008	163,861	0,025	0,026
-159,993	-1,872	0,099	0,050
-158,979	-59,541	0,050	-0,015
-157,964	-80,640	-0,062	-0,015
-156,950	-45,574	0,040	0,014
-155,935	800,000	0,037	0,102
-154,920	161,318	0,021	0,021
-153,906	-73,624	-0,056	0,014
-152,891	-200,000	0,015	0,150
-151,877	549,205	0,019	-0,034
-150,862	-85,693	-0,113	-0,025
-149,847	-99,928	0,038	-0,007
-148,833	229,606	0,057	-0,067
-147,818	115,837	0,074	0,065
-146,804	-56,122	0,096	-0,031
-145,789	-137,722	-0,178	0,014
-144,775	269,347	0,029	0,036
-143,760	-150,190	0,101	0,006
-142,745	-191,356	-0,109	-0,001
-141,731	155,416	-0,053	-0,053
-140,716	473,497	0,057	0,093
-139,702	800,000	0,001	0,004
-138,687	-121,334	-0,148	-0,018
-137,672	800,000	0,026	-0,062
-136,658	161,102	-0,107	-0,108
-135,643	164,989	-0,062	-0,063
-134,629	415,315	-0,027	0,042
-133,614	143,343	0,069	0,066
-132,599	-200,000	0,008	-0,078
-131,585	192,421	0,065	0,070
-130,570	-200,000	-0,009	0,068
-129,556	709,496	-0,027	-0,051
-128,541	303,671	-0,091	0,122
-127,526	800,000	0,043	0,106
-126,512	120,300	-0,159	-0,142
-125,497	800,000	0,050	0,141
-124,483	-200,000	-0,024	0,081
-123,468	200,957	0,037	0,041
-122,453	209,366	0,048	0,054
-121,439	-26,181	0,019	0,008
-120,424	-200,000	-0,022	-0,116
