DTS Sentinel unit serial number:	SN410029Multiplexer serial number:	ORYXHardware model number:	OX2-SRSoftware version number:	ORYX F/W v4,00 Oryx Data Collector v3.7.2.0data status	okinstallation	B5 Nyhavnadifferential loss correction	single-endedforward channel	channel 2reverse channel	N/Adate	2023/12/12time	19:22:13forward acquisition time	300,00reverse acquisition time	0,00gamma	499,1914k internal	0,3157k external	0,3157temperature offset calibration	1,0000default loss term (dB/km)	0,3820temperature slope calibration	1,0000multiplexer offset coefficient	1,0000multiplexer slope coefficient	1,0000fibre end	0,00T internal ref (°C)	15,49T ext. ref 1 (°C)	-1,14T ext. ref 2 (°C)	-1,44length (m)	temperature (°C)	Stokes	anti-Stokes-744,400	701,642	-0,020	-0,039
-743,385	-115,558	-0,226	0,031
-742,371	-91,182	0,188	0,039
-741,356	-192,565	-0,310	-0,002
-740,342	51,800	0,132	0,092
-739,327	-131,112	-0,253	-0,025
-738,312	-98,684	0,109	0,020
-737,298	-117,399	-0,402	-0,053
-736,283	-39,638	0,116	-0,045
-735,269	-172,864	-0,347	-0,008
-734,254	72,970	-0,022	0,017
-733,239	7,228	-0,441	-0,242
-732,225	35,687	0,187	-0,121
-731,210	-57,614	-0,062	0,020
-730,196	45,271	-0,043	0,029
-729,181	263,690	0,042	0,054
-728,167	800,000	-0,059	-0,135
-727,152	110,544	0,066	-0,059
-726,137	-72,339	0,045	0,012
-725,123	-200,000	-0,017	-0,202
-724,108	255,784	-0,086	-0,109
-723,094	800,000	0,047	-0,110
-722,079	49,733	-0,038	0,026
-721,064	51,545	0,057	-0,040
-720,050	-102,717	0,065	-0,011
-719,035	-172,827	-0,081	0,002
-718,021	-200,000	0,005	0,107
-717,006	-200,000	0,006	-0,050
-715,991	-191,789	-0,112	0,001
-714,977	-176,786	0,018	-0,000
-713,962	133,984	-0,044	0,042
-712,948	177,083	0,072	-0,077
-711,933	437,230	0,071	0,115
-710,918	-65,423	-0,072	0,021
-709,904	-21,716	-0,171	0,076
-708,889	-200,000	0,017	0,061
-707,875	223,404	-0,069	0,082
-706,860	42,328	0,066	-0,044
-705,845	119,220	-0,064	-0,059
-704,831	800,000	-0,024	0,064
-703,816	578,687	0,034	-0,062
-702,802	800,000	-0,050	-0,130
-701,787	325,197	-0,132	-0,186
-700,772	77,731	0,129	-0,101
-699,758	-124,124	-0,019	-0,002
-698,743	129,915	0,038	-0,035
-697,729	269,761	0,017	-0,022
-696,714	326,822	0,073	-0,103
-695,699	187,414	0,076	-0,083
-694,685	-200,000	-0,020	0,068
-693,670	-164,039	0,006	-0,000
-692,656	799,959	0,062	0,126
-691,641	162,078	-0,052	0,054
-690,627	-200,000	0,011	0,086
-689,612	-187,905	-0,124	-0,001
-688,597	219,869	0,088	-0,104
-687,583	800,000	-0,056	-0,124
-686,568	-200,000	0,021	0,101
-685,554	-200,000	0,005	0,055
-684,539	551,062	-0,042	0,075
-683,524	-108,864	0,112	-0,017
-682,510	47,529	-0,047	-0,032
-681,495	-96,779	-0,057	-0,011
-680,481	604,837	-0,051	-0,095
-679,466	-200,000	0,007	-0,084
-678,451	-200,000	-0,016	0,099
-677,437	800,000	-0,073	-0,162
-676,422	123,197	0,057	0,053
-675,408	2,867	-0,031	-0,017
-674,393	800,000	-0,036	-0,104
-673,378	800,000	-0,090	-0,240
-672,364	800,000	-0,051	-0,119
-671,349	800,000	-0,051	-0,136
-670,335	186,666	-0,024	0,026
-669,320	-200,000	-0,019	0,068
-668,305	685,181	0,049	0,095
-667,291	-200,000	-0,003	-0,059
-666,276	-200,000	-0,003	0,026
-665,262	800,000	-0,065	-0,174
-664,247	371,428	0,030	0,044
-663,232	-109,857	-0,027	0,004
-662,218	21,157	-0,066	0,040
-661,203	85,077	-0,017	-0,013
-660,189	-200,000	-0,017	-0,066
-659,174	324,048	-0,047	-0,066
-658,159	-179,977	-0,149	-0,002
-657,145	-200,000	0,001	-0,089
-656,130	800,000	-0,039	-0,113
-655,116	-200,000	0,007	0,103
-654,101	-130,908	0,074	0,007
-653,086	584,321	-0,088	0,160
-652,072	-51,681	-0,132	-0,045
-651,057	170,299	-0,049	-0,052
-650,043	257,879	-0,036	-0,045
-649,028	2,042	-0,117	-0,062
-648,014	-54,477	0,029	-0,010
-646,999	-200,000	0,008	-0,101
-645,984	800,000	-0,056	0,144
-644,970	-28,495	-0,167	0,070
-643,955	-116,894	-0,085	-0,011
-642,941	-101,085	-0,109	0,019
-641,926	1,938	0,035	0,019
-640,911	-200,000	0,041	0,202
-639,897	-98,802	0,194	-0,036
-638,882	35,982	0,043	0,027
-637,868	-43,648	-0,079	0,029
-636,853	461,479	0,042	-0,069
-635,838	-200,000	-0,007	-0,107
-634,824	5,928	-0,155	-0,084
-633,809	297,442	0,036	-0,048
-632,795	617,739	0,033	0,061
-631,780	-93,385	-0,096	0,019
-630,765	90,830	-0,053	-0,044
-629,751	-200,000	-0,010	0,046
-628,736	-61,128	-0,104	-0,032
-627,722	-53,048	-0,042	-0,014
-626,707	800,000	0,088	-0,227
-625,692	-106,667	-0,111	-0,018
-624,678	214,315	0,067	-0,078
-623,663	4,481	0,055	0,030
-622,649	-57,063	-0,123	0,040
-621,634	-200,000	-0,014	-0,144
-620,619	70,948	0,068	-0,052
-619,605	800,000	-0,036	0,078
-618,590	-200,000	0,022	0,080
-617,576	800,000	0,002	0,006
-616,561	-76,976	-0,050	-0,013
-615,546	-200,000	0,032	0,141
-614,532	-28,399	-0,016	-0,007
-613,517	755,497	-0,010	0,019
-612,503	-92,883	-0,163	-0,033
-611,488	-200,000	-0,002	-0,021
-610,474	-23,483	-0,022	-0,010
-609,459	-68,380	0,113	0,032
-608,444	536,031	0,030	-0,052
-607,430	800,000	-0,016	0,043
-606,415	532,429	-0,051	0,089
-605,401	286,427	-0,054	0,071
-604,386	800,000	0,012	0,038
-603,371	-200,000	0,016	0,079
-602,357	562,075	-0,039	-0,069
-601,342	206,482	-0,039	-0,045
-600,328	-200,000	-0,003	0,019
-599,313	258,929	0,038	-0,048
-598,298	-200,000	0,027	-0,091
-597,284	-88,327	0,074	-0,016
-596,269	-200,000	0,018	0,134
-595,255	800,000	-0,033	-0,097
-594,240	791,054	-0,095	-0,192
-593,225	-200,000	0,041	-0,235
-592,211	-105,657	-0,159	-0,026
-591,196	-200,000	0,011	-0,072
-590,182	17,791	-0,070	-0,040
-589,167	356,805	-0,055	0,081
-588,152	734,730	0,057	-0,112
-587,138	-200,000	-0,003	-0,010
-586,123	-18,236	-0,202	-0,092
-585,109	-200,000	-0,031	-0,168
-584,094	-79,985	0,122	-0,030
-583,079	-200,000	0,006	0,148
-582,065	800,000	0,025	0,068
-581,050	-200,000	0,021	-0,080
-580,036	16,193	-0,138	-0,080
-579,021	391,584	0,026	0,040
-578,006	253,765	-0,078	-0,098
-576,992	-200,000	-0,010	-0,086
-575,977	77,420	-0,090	0,070
-574,963	800,000	-0,018	0,059
-573,948	800,000	0,039	0,080
-572,934	92,594	0,042	0,035
-571,919	-125,835	-0,120	-0,013
-570,904	183,364	-0,016	0,017
-569,890	-177,549	0,011	-0,000
-568,875	-8,880	0,055	-0,027
-567,861	-170,228	-0,014	0,000
-566,846	105,776	0,027	0,023
-565,831	-200,000	-0,002	-0,125
-564,817	-98,339	-0,114	-0,021
-563,802	-135,226	0,139	-0,012
-562,788	-200,000	-0,006	0,041
-561,773	-44,538	-0,035	0,013
-560,758	-200,000	0,003	0,078
-559,744	-98,725	-0,057	-0,011
-558,729	231,828	-0,045	-0,055
-557,715	64,127	0,050	0,037
-556,700	356,507	-0,058	-0,085
-555,685	-200,000	0,005	-0,032
-554,671	125,915	0,035	-0,032
-553,656	-200,000	-0,006	-0,079
-552,642	69,305	0,114	0,086
-551,627	109,744	-0,058	0,051
-550,612	147,371	0,134	0,132
-549,598	-68,572	-0,040	-0,011
-548,583	136,001	0,057	0,055
-547,569	-17,937	-0,077	0,035
-546,554	203,021	0,134	-0,152
-545,539	637,301	-0,022	-0,041
-544,525	240,212	0,069	-0,084
-543,510	-12,796	-0,028	0,014
-542,496	578,278	-0,034	-0,061
-541,481	-56,685	0,082	-0,026
-540,466	-130,601	-0,052	0,005
-539,452	800,000	-0,035	0,089
-538,437	30,016	-0,076	0,048
-537,423	-41,161	0,112	0,042
-536,408	425,790	-0,038	0,061
-535,393	139,396	0,054	-0,052
-534,379	-200,000	0,005	-0,103
-533,364	-200,000	0,002	-0,063
-532,350	-200,000	-0,011	-0,123
-531,335	-50,062	0,080	-0,028
-530,321	-200,000	0,029	0,102
-529,306	-200,000	-0,005	0,089
-528,291	-200,000	-0,014	-0,133
-527,277	-50,713	-0,025	-0,009
-526,262	-200,000	0,005	0,018
-525,248	57,110	-0,015	-0,010
-524,233	-51,552	-0,123	-0,042
-523,218	800,000	0,062	0,128
-522,204	269,502	-0,034	0,044
-521,189	-103,087	-0,026	0,004
-520,175	800,000	0,063	-0,164
-519,160	-5,350	-0,095	0,048
-518,145	-200,000	0,002	-0,028
-517,131	-200,000	0,004	-0,055
-516,116	727,692	-0,077	0,150
-515,102	-12,117	-0,091	0,043
-514,087	538,240	-0,045	-0,079
-513,072	433,030	-0,088	-0,140
-512,058	735,857	0,065	-0,127
-511,043	-7,886	0,092	0,045
-510,029	-200,000	0,032	0,180
-509,014	800,000	-0,015	-0,037
-507,999	402,609	0,070	-0,108
-506,985	-200,000	-0,012	-0,057
-505,970	102,080	0,034	0,029
-504,956	115,525	-0,107	-0,096
-503,941	800,000	-0,029	0,077
-502,926	-200,000	0,003	-0,022
-501,912	-134,373	-0,147	-0,013
-500,897	791,795	0,088	0,177
-499,883	98,821	0,059	-0,050
-498,868	-33,711	-0,110	-0,044
-497,853	-200,000	0,003	-0,037
-496,839	-81,500	0,052	-0,012
-495,824	273,937	-0,051	-0,066
-494,810	800,000	-0,021	0,065
-493,795	63,525	0,113	0,083
-492,781	533,390	-0,041	0,071
-491,766	184,006	0,060	-0,065
-490,751	181,618	-0,045	0,048
-489,737	210,160	0,113	-0,130
-488,722	83,489	0,051	0,041
-487,708	-185,208	0,146	0,002
-486,693	16,892	-0,035	0,020
-485,678	396,148	0,074	0,114
-484,664	-23,851	-0,155	0,068
-483,649	-200,000	-0,001	0,041
-482,635	-89,204	0,054	-0,012
-481,620	800,000	0,026	0,065
-480,605	-140,926	0,159	-0,012
-479,591	-200,000	0,027	0,119
-478,576	-22,726	0,032	-0,014
-477,562	800,000	0,036	-0,103
-476,547	-200,000	-0,025	-0,199
-475,532	-31,615	-0,019	0,008
-474,518	800,000	0,064	0,154
-473,503	-200,000	-0,010	0,107
-472,489	55,641	0,042	-0,030
-471,474	216,829	-0,043	-0,050
-470,459	-200,000	0,024	-0,114
-469,445	-200,000	0,002	0,115
-468,430	678,517	-0,045	-0,086
-467,416	45,222	-0,024	0,016
-466,401	-25,812	0,102	0,044
-465,386	-137,339	-0,041	0,003
-464,372	47,209	0,078	0,053
-463,357	-200,000	0,000	-0,024
-462,343	458,348	0,108	0,176
-461,328	-40,147	-0,041	0,016
-460,313	-200,000	-0,013	-0,067
-459,299	-88,253	0,167	0,036
-458,284	167,695	-0,059	0,061
-457,270	110,771	0,064	-0,056
-456,255	-200,000	0,007	0,033
-455,241	-40,768	0,100	0,037
-454,226	-87,847	-0,056	0,012
-453,211	-39,726	0,032	0,012
-452,197	36,583	-0,106	0,068
-451,182	-200,000	-0,000	0,050
-450,168	263,740	-0,063	-0,081
-449,153	170,550	-0,116	-0,122
-448,138	90,782	-0,110	-0,090
-447,124	85,647	-0,192	-0,154
-446,109	59,299	0,063	0,045
-445,095	6,998	-0,032	0,018
-444,080	-152,218	0,013	0,001
-443,065	622,472	-0,031	0,056
-442,051	753,987	0,016	0,032
-441,036	86,795	-0,014	-0,011
-440,022	800,000	-0,080	-0,179
-439,007	476,288	0,042	-0,070
-437,992	800,000	-0,027	0,059
-436,978	-133,572	-0,061	-0,006
-435,963	-200,000	0,027	-0,153
-434,949	800,000	-0,056	0,125
-433,934	-10,286	0,058	-0,028
-432,919	800,000	0,018	0,056
-431,905	40,095	0,029	0,019
-430,890	-162,743	0,037	0,001
-429,876	46,755	-0,057	0,039
-428,861	-200,000	0,025	0,093
-427,846	143,936	-0,044	0,043
-426,832	-114,220	0,154	0,021
-425,817	682,482	-0,013	-0,024
-424,803	633,774	-0,040	-0,073
-423,788	504,592	0,033	0,057
-422,773	243,215	0,052	0,063
-421,759	20,914	0,099	-0,058
-420,744	-139,844	-0,068	-0,005
-419,730	237,912	-0,091	0,110
-418,715	5,998	-0,158	0,085
-417,701	-200,000	0,007	-0,128
-416,686	-47,095	-0,097	0,034
-415,671	-131,386	0,157	0,015
-414,657	102,079	0,062	0,053
-413,642	736,543	0,077	0,151
-412,628	-200,000	0,013	0,041
-411,613	49,390	-0,066	0,045
-410,598	236,362	-0,053	0,064
-409,584	-34,489	0,110	0,044
-408,569	-109,165	0,147	-0,022
-407,555	-50,024	-0,020	-0,007
-406,540	-54,842	0,079	-0,026
-405,525	45,803	0,094	0,063
-404,511	84,056	-0,174	0,138
-403,496	-142,148	0,081	0,006
-402,482	800,000	-0,029	0,092
-401,467	-74,725	0,047	-0,012
-400,452	78,789	-0,060	0,046
-399,438	-115,693	0,006	-0,001
-398,423	-200,000	-0,044	-0,168
-397,409	616,222	0,031	0,057
-396,394	441,026	-0,028	0,045
-395,379	-200,000	-0,016	0,052
-394,365	-200,000	0,020	0,153
-393,350	521,988	-0,069	0,118
-392,336	-200,000	-0,026	-0,164
-391,321	11,128	-0,054	-0,030
-390,306	-200,000	0,006	-0,061
-389,292	800,000	-0,022	0,051
-388,277	-200,000	-0,006	-0,048
-387,263	391,904	0,037	-0,056
-386,248	-200,000	-0,014	-0,137
-385,233	185,031	0,088	0,095
-384,219	-87,008	0,119	-0,026
-383,204	800,000	-0,026	-0,071
-382,190	-77,830	0,059	0,015
-381,175	-200,000	-0,017	-0,213
-380,160	-200,000	-0,002	0,176
-379,146	-118,105	0,027	-0,003
-378,131	581,817	0,011	0,020
-377,117	10,045	0,068	-0,038
-376,102	-15,186	-0,110	-0,051
-375,088	-200,000	-0,026	-0,100
-374,073	-200,000	0,001	-0,004
-373,058	-83,003	0,178	0,041
-372,044	601,917	0,037	0,067
-371,029	-125,570	0,026	0,003
-370,015	-200,000	0,005	0,017
-369,000	-74,251	0,079	-0,021
-367,985	-200,000	-0,014	-0,056
-366,971	-99,846	0,045	0,008
-365,956	-74,558	-0,035	-0,009
-364,942	-200,000	-0,003	-0,064
-363,927	-74,699	-0,029	0,007
-362,912	51,436	-0,153	-0,105
-361,898	-30,349	0,037	-0,015
-360,883	-200,000	-0,001	0,069
-359,869	800,000	-0,036	-0,077
-358,854	491,236	-0,024	0,041
-357,839	-134,461	-0,085	0,007
-356,825	83,081	0,009	0,007
-355,810	34,280	0,075	-0,047
-354,796	800,000	0,033	-0,079
-353,781	-200,000	-0,054	-0,182
-352,766	-88,856	0,043	0,009
-351,752	-98,040	-0,118	0,022
-350,737	556,737	0,067	-0,118
-349,723	-65,072	-0,066	-0,019
-348,708	-33,763	-0,113	0,045
-347,693	38,293	0,027	0,017
-346,679	-200,000	0,038	-0,123
-345,664	50,012	-0,106	0,073
-344,650	136,285	-0,058	0,055
-343,635	697,779	0,020	-0,039
-342,620	100,140	-0,054	0,045
-341,606	148,651	0,066	0,065
-340,591	-200,000	0,000	-0,047
-339,577	-200,000	-0,001	-0,020
-338,562	-200,000	0,009	-0,071
-337,548	-39,511	-0,039	-0,015
-336,533	589,956	-0,038	0,068
-335,518	-200,000	-0,016	0,083
-334,504	-187,757	-0,043	-0,000
-333,489	800,000	0,032	0,087
-332,475	-87,959	-0,033	-0,007
-331,460	55,470	-0,098	-0,069
-330,445	-170,267	0,033	-0,001
-329,431	800,000	0,060	-0,146
-328,416	800,000	-0,014	-0,034
-327,402	-200,000	-0,012	0,122
-326,387	612,700	0,030	-0,055
-325,372	46,831	0,034	0,023
-324,358	32,121	0,024	-0,015
-323,343	20,302	-0,040	-0,023
-322,329	800,000	0,023	-0,056
-321,314	497,035	-0,056	0,094
-320,299	-200,000	0,002	0,141
-319,285	800,000	0,026	0,069
-318,270	-104,182	-0,039	-0,007
-317,256	800,000	0,015	-0,035
-316,241	800,000	-0,031	0,089
-315,226	-60,411	0,079	-0,024
-314,212	-200,000	0,002	0,115
-313,197	-200,000	0,011	-0,039
-312,183	800,000	-0,022	0,066
-311,168	44,525	-0,120	-0,080
-310,153	109,818	0,083	0,072
-309,139	49,688	0,051	-0,035
-308,124	-73,867	-0,076	0,020
-307,110	-99,549	0,042	0,008
-306,095	-200,000	0,016	-0,053
-305,080	800,000	0,019	-0,055
-304,066	-200,000	0,001	-0,130
-303,051	-61,415	-0,159	-0,048
-302,037	125,440	-0,113	-0,103
-301,022	-26,432	0,049	-0,021
-300,008	-200,000	0,019	-0,128
-298,993	509,463	0,125	0,211
-297,978	-200,000	-0,002	0,121
-296,964	-200,000	0,015	0,069
-295,949	800,000	-0,032	-0,079
-294,935	800,000	-0,062	-0,139
-293,920	70,127	-0,094	0,070
-292,905	-200,000	-0,033	0,114
-291,891	-200,000	-0,026	-0,113
-290,876	10,946	0,038	-0,021
-289,862	-41,180	-0,092	0,034
-288,847	-9,183	-0,073	-0,035
-287,832	32,177	0,122	0,076
-286,818	335,534	0,017	0,023
-285,803	515,484	0,060	0,102
-284,789	-200,000	0,017	0,067
-283,774	-151,987	0,098	0,005
-282,759	-200,000	-0,016	0,141
-281,745	-200,000	0,005	-0,090
-280,730	-200,000	0,004	-0,101
-279,716	-200,000	0,013	-0,053
-278,701	-82,992	-0,072	-0,017
-277,686	173,001	-0,084	0,088
-276,672	-200,000	-0,003	0,034
-275,657	-31,512	0,153	0,062
-274,643	27,286	-0,067	0,040
-273,628	-65,855	0,100	-0,029
-272,613	-78,738	-0,051	0,013
-271,599	81,337	-0,071	0,056
-270,584	-46,534	0,097	0,034
-269,570	-200,000	0,007	0,129
-268,555	800,000	0,044	0,112
-267,540	-141,336	0,138	0,010
-266,526	69,693	-0,027	-0,020
-265,511	800,000	-0,052	-0,143
-264,497	-21,254	-0,090	-0,040
-263,482	-200,000	-0,021	0,092
-262,467	-146,648	0,127	0,008
-261,453	-4,820	-0,063	0,031
-260,438	-4,962	0,051	-0,025
-259,424	7,006	-0,128	0,069
-258,409	175,884	0,122	0,128
-257,395	800,000	0,037	0,092
-256,380	183,688	0,089	-0,096
-255,365	-70,355	0,061	0,017
-254,351	-30,018	0,019	0,008
-253,336	6,308	-0,067	-0,036
-252,322	-200,000	-0,002	0,022
-251,307	158,255	0,066	-0,066
-250,292	-200,000	0,013	-0,073
-249,278	-154,758	-0,049	0,002
-248,263	-27,169	0,138	0,058
-247,249	6,759	0,024	-0,013
-246,234	-9,421	0,061	0,029
-245,219	-161,390	0,043	-0,002
-244,205	729,835	-0,035	-0,069
-243,190	31,675	0,070	0,044
-242,176	8,635	0,043	0,024
-241,161	69,222	0,005	0,004
-240,146	-173,379	0,100	0,002
-239,132	-200,000	0,014	0,081
-238,117	237,581	-0,090	-0,109
-237,103	216,177	0,047	-0,054
-236,088	739,310	-0,029	-0,056
-235,073	0,029	0,175	0,090
-234,059	-40,184	-0,106	0,040
-233,044	-95,232	-0,078	-0,015
-232,030	-200,000	0,006	-0,174
-231,015	451,468	0,086	-0,138
-230,000	-44,318	0,078	0,028
-228,986	-50,789	-0,147	-0,050
-227,971	77,431	-0,027	-0,021
-226,957	800,000	-0,086	0,213
-225,942	160,570	0,042	0,042
-224,927	14,348	0,071	-0,040
-223,913	-200,000	-0,014	0,052
-222,898	-200,000	0,019	-0,102
-221,884	-91,431	0,053	0,011
-220,869	-200,000	-0,017	0,070
-219,855	-200,000	-0,018	0,099
-218,840	-16,289	0,142	0,065
-217,825	254,740	-0,057	-0,071
-216,811	-120,288	-0,038	-0,005
-215,796	-31,743	-0,071	0,029
-214,782	-200,000	-0,000	0,053
-213,767	3,371	-0,043	-0,023
-212,752	-126,008	0,159	0,017
-211,738	63,600	0,084	-0,061
-210,723	-20,959	0,053	-0,024
-209,709	-200,000	0,012	-0,048
-208,694	800,000	0,035	-0,087
-207,679	-126,883	-0,069	-0,007
-206,665	133,496	0,034	-0,031
-205,650	-82,182	-0,041	0,010
-204,636	-200,000	0,014	0,086
-203,621	-200,000	0,019	0,125
-202,606	-73,965	0,069	-0,018
-201,592	800,000	-0,043	-0,116
-200,577	-105,522	-0,059	-0,010
-199,563	800,000	0,006	0,018
-198,548	-200,000	-0,009	0,087
-197,533	800,000	0,028	0,074
-196,519	120,879	0,099	0,089
-195,504	783,514	-0,053	-0,105
-194,490	800,000	0,035	-0,109
-193,475	476,021	-0,062	-0,101
-192,460	-68,901	-0,052	0,014
-191,446	325,827	0,012	-0,017
-190,431	504,246	0,112	0,188
-189,417	200,235	0,063	-0,070
-188,402	116,714	0,067	0,059
-187,387	-200,000	0,009	-0,095
-186,373	-200,000	0,008	-0,146
-185,358	461,750	-0,048	0,078
-184,344	-200,000	-0,014	-0,121
-183,329	-74,750	0,167	0,043
-182,315	147,099	0,082	0,080
-181,300	715,432	0,016	0,031
-180,285	607,967	0,051	-0,093
-179,271	-200,000	-0,004	-0,018
-178,256	62,443	0,076	0,055
-177,242	-5,467	0,139	-0,069
-176,227	-77,399	0,080	0,020
-175,212	-38,230	0,088	-0,033
-174,198	-200,000	-0,017	0,106
-173,183	41,553	-0,032	-0,021
-172,169	-30,481	-0,108	-0,044
-171,154	-8,806	-0,099	-0,048
-170,139	212,934	0,048	0,055
-169,125	-32,352	-0,087	-0,035
-168,110	144,370	-0,045	0,044
-167,096	-200,000	0,031	0,154
-166,081	800,000	-0,007	0,022
-165,066	590,325	-0,065	-0,115
-164,052	81,618	0,045	-0,035
-163,037	642,620	0,017	-0,032
-162,023	62,913	0,046	0,033
-161,008	800,000	-0,044	0,089
-159,993	102,342	-0,033	-0,028
-158,979	800,000	0,030	0,093
-157,964	-13,217	-0,153	-0,071
-156,950	-200,000	-0,050	0,200
-155,935	800,000	0,065	0,148
-154,920	-61,764	-0,169	-0,051
-153,906	800,000	-0,012	0,036
-152,891	15,291	0,028	0,016
-151,877	800,000	0,035	0,079
-150,862	-123,658	-0,094	0,011
-149,847	76,253	0,063	0,048
-148,833	-200,000	-0,009	-0,062
-147,818	-200,000	-0,013	0,093
-146,804	669,977	-0,020	-0,037
-145,789	6,317	-0,120	0,064
-144,775	-3,710	-0,129	0,064
-143,760	-114,992	0,044	0,006
-142,745	800,000	-0,045	-0,125
-141,731	605,790	0,047	-0,084
-140,716	-38,407	0,046	0,017
-139,702	-182,633	0,040	-0,001
-138,687	71,100	-0,108	0,080
-137,672	634,295	0,088	-0,161
-136,658	-17,986	-0,130	-0,058
-135,643	-77,939	-0,161	-0,040
-134,629	-200,000	-0,006	-0,158
-133,614	465,793	0,086	0,139
-132,599	-200,000	-0,001	0,156
-131,585	-50,505	-0,101	-0,034
-130,570	746,046	0,078	-0,151
-129,556	-134,293	-0,095	-0,008
-128,541	-84,525	-0,040	-0,009
-127,526	144,151	0,061	0,058
-126,512	-200,000	0,008	-0,066
-125,497	296,678	0,069	0,092
-124,483	204,844	0,072	-0,080
-123,468	-200,000	-0,018	0,095
-122,453	26,490	-0,143	-0,086
-121,439	-200,000	-0,046	-0,177
-120,424	769,563	0,023	0,045
-119,410	-200,000	-0,019	0,086
