DTS Sentinel unit serial number:	SN410029Multiplexer serial number:	ORYXHardware model number:	OX2-SRSoftware version number:	ORYX F/W v4,00 Oryx Data Collector v3.7.2.0data status	okinstallation	B5 Nyhavnadifferential loss correction	single-endedforward channel	channel 2reverse channel	N/Adate	2023/12/14time	01:52:13forward acquisition time	300,00reverse acquisition time	0,00gamma	499,1914k internal	0,3155k external	0,3155temperature offset calibration	1,0000default loss term (dB/km)	0,3820temperature slope calibration	1,0000multiplexer offset coefficient	1,0000multiplexer slope coefficient	1,0000fibre end	0,00T internal ref (°C)	8,67T ext. ref 1 (°C)	-7,48T ext. ref 2 (°C)	-7,51length (m)	temperature (°C)	Stokes	anti-Stokes-744,400	65,671	0,182	0,136
-743,385	-17,878	-0,456	-0,210
-742,371	-67,660	0,261	0,075
-741,356	35,475	-0,296	-0,191
-740,342	-144,313	0,229	-0,016
-739,327	-188,994	-0,389	-0,003
-738,312	-106,048	0,238	0,039
-737,298	-116,052	-0,322	-0,044
-736,283	-200,000	0,028	0,127
-735,269	-145,997	-0,331	-0,021
-734,254	33,577	0,124	0,079
-733,239	-69,171	-0,509	-0,143
-732,225	227,357	0,132	0,159
-731,210	800,000	-0,048	0,137
-730,196	800,000	-0,014	-0,032
-729,181	-126,130	-0,072	0,008
-728,167	100,116	-0,079	-0,067
-727,152	-50,299	0,051	-0,018
-726,137	800,000	-0,043	-0,121
-725,123	131,868	0,023	-0,021
-724,108	660,680	-0,064	0,121
-723,094	360,930	0,041	-0,061
-722,079	800,000	-0,050	0,157
-721,064	-82,367	-0,151	0,036
-720,050	-156,920	0,020	0,001
-719,035	-200,000	-0,001	-0,070
-718,021	371,280	-0,090	-0,135
-717,006	382,747	-0,085	-0,129
-715,991	244,028	-0,058	-0,072
-714,977	-96,161	-0,121	0,023
-713,962	-80,512	0,040	-0,010
-712,948	269,123	0,116	0,150
-711,933	52,143	0,068	0,048
-710,918	-68,470	-0,067	0,019
-709,904	667,217	-0,069	-0,132
-708,889	37,903	-0,065	-0,042
-707,875	-200,000	0,012	0,057
-706,860	16,407	-0,034	-0,020
-705,845	706,460	-0,014	-0,028
-704,831	-200,000	-0,006	0,081
-703,816	64,291	0,042	0,031
-702,802	177,579	-0,033	-0,035
-701,787	800,000	-0,005	0,015
-700,772	800,000	-0,024	-0,076
-699,758	-134,943	0,077	0,007
-698,743	165,825	0,110	0,115
-697,729	-200,000	-0,009	0,065
-696,714	515,158	0,016	0,027
-695,699	103,747	-0,075	-0,065
-694,685	72,404	-0,045	-0,035
-693,670	540,789	-0,051	0,090
-692,656	-200,000	0,006	-0,113
-691,641	-200,000	0,041	-0,135
-690,627	185,313	0,040	0,044
-689,612	800,000	-0,017	0,034
-688,597	164,187	0,038	-0,039
-687,583	-200,000	-0,165	0,000
-686,568	483,405	-0,013	-0,021
-685,554	251,318	-0,054	-0,068
-684,539	-57,875	0,065	-0,021
-683,524	-58,111	0,067	-0,021
-682,510	44,306	-0,122	0,082
-681,495	-132,941	0,063	-0,006
-680,481	155,936	-0,048	-0,048
-679,466	176,387	0,096	0,102
-678,451	109,162	-0,075	-0,066
-677,437	-49,884	0,169	0,059
-676,422	5,221	-0,056	0,030
-675,408	430,661	0,049	-0,078
-674,393	114,926	-0,055	0,050
-673,378	-24,529	-0,074	0,032
-672,364	115,365	-0,059	0,053
-671,349	54,576	-0,073	-0,052
-670,335	-85,863	-0,148	0,033
-669,320	-95,950	-0,137	0,027
-668,305	800,000	-0,039	-0,123
-667,291	452,769	-0,057	0,092
-666,276	-134,613	0,061	-0,005
-665,262	-16,971	0,060	-0,028
-664,247	0,453	-0,090	-0,047
-663,232	-131,605	-0,067	0,006
-662,218	311,377	-0,092	-0,127
-661,203	-16,128	0,046	0,021
-660,189	-200,000	0,006	-0,238
-659,174	-200,000	0,036	-0,164
-658,159	-200,000	0,004	0,045
-657,145	51,679	-0,058	-0,041
-656,130	61,540	0,134	-0,098
-655,116	179,079	0,020	-0,021
-654,101	137,967	-0,038	0,036
-653,086	156,147	-0,072	0,073
-652,072	-200,000	0,005	-0,096
-651,057	-119,190	-0,182	-0,023
-650,043	667,760	0,042	-0,081
-649,028	-141,150	-0,056	0,004
-648,014	51,062	0,145	-0,101
-646,999	-200,000	0,001	-0,013
-645,984	497,781	0,068	0,116
-644,970	-153,865	-0,102	-0,005
-643,955	-200,000	-0,025	-0,129
-642,941	244,014	-0,074	-0,092
-641,926	-44,138	-0,042	0,015
-640,911	247,105	0,076	-0,094
-639,897	16,401	-0,033	0,019
-638,882	-9,251	-0,133	-0,065
-637,868	-200,000	0,007	-0,105
-636,853	-200,000	-0,028	-0,108
-635,838	96,046	-0,042	-0,036
-634,824	-200,000	-0,018	-0,077
-633,809	-200,000	0,010	0,163
-632,795	54,583	0,107	-0,075
-631,780	14,068	-0,039	0,022
-630,765	-200,000	-0,008	0,068
-629,751	-30,476	-0,060	0,025
-628,736	800,000	-0,016	-0,036
-627,722	248,536	-0,079	0,099
-626,707	-200,000	0,004	0,016
-625,692	554,338	0,064	0,113
-624,678	-63,936	-0,076	0,023
-623,663	221,346	0,082	-0,096
-622,649	538,612	0,067	-0,118
-621,634	14,193	-0,123	-0,070
-620,619	-131,387	0,030	0,003
-619,605	280,347	-0,084	0,110
-618,590	96,428	0,058	0,048
-617,576	-200,000	-0,019	-0,110
-616,561	117,848	-0,044	-0,039
-615,546	-85,018	0,147	0,034
-614,532	-110,388	-0,078	0,012
-613,517	21,932	-0,078	-0,047
-612,503	-200,000	-0,011	-0,057
-611,488	71,935	0,100	0,076
-610,474	86,239	-0,070	0,056
-609,459	262,158	-0,021	0,027
-608,444	-102,095	-0,057	0,010
-607,430	304,604	-0,037	0,050
-606,415	42,000	-0,033	0,022
-605,401	-92,691	0,143	0,029
-604,386	-200,000	-0,020	0,077
-603,371	-200,000	0,012	-0,040
-602,357	-200,000	0,011	0,093
-601,342	-200,000	-0,002	0,031
-600,328	247,908	-0,048	0,059
-599,313	800,000	0,054	-0,143
-598,298	-28,543	-0,043	-0,018
-597,284	-200,000	0,014	0,054
-596,269	-47,415	-0,170	-0,060
-595,255	47,181	0,024	0,016
-594,240	94,432	0,120	-0,100
-593,225	419,208	-0,101	-0,159
-592,211	-57,827	0,024	0,008
-591,196	32,871	-0,022	0,014
-590,182	-98,575	0,063	0,012
-589,167	17,267	-0,208	-0,121
-588,152	800,000	-0,013	0,037
-587,138	29,391	-0,025	0,016
-586,123	-167,623	-0,018	-0,001
-585,109	-200,000	-0,002	-0,110
-584,094	-200,000	-0,004	0,026
-583,079	88,676	0,090	0,074
-582,065	-200,000	0,000	-0,122
-581,050	-85,270	0,076	0,017
-580,036	-138,512	-0,063	0,005
-579,021	193,402	-0,015	-0,017
-578,006	-172,893	0,108	0,002
-576,992	105,050	-0,100	-0,087
-575,977	-7,898	0,103	-0,051
-574,963	800,000	0,019	-0,058
-573,948	-99,099	0,072	0,013
-572,934	-200,000	-0,005	-0,118
-571,919	-155,423	0,045	0,002
-570,904	-200,000	-0,001	-0,045
-569,890	63,221	0,053	0,039
-568,875	-137,635	-0,198	0,016
-567,861	152,748	-0,018	-0,018
-566,846	-200,000	0,011	0,148
-565,831	800,000	-0,016	-0,036
-564,817	-95,614	0,138	0,027
-563,802	198,874	0,034	-0,038
-562,788	387,801	0,033	0,051
-561,773	441,781	-0,068	-0,110
-560,758	-200,000	0,020	0,151
-559,744	540,594	-0,025	-0,044
-558,729	-200,000	0,036	0,116
-557,715	800,000	-0,023	0,072
-556,700	16,851	0,075	0,043
-555,685	65,542	-0,045	-0,033
-554,671	-200,000	0,004	0,044
-553,656	-177,107	0,068	0,001
-552,642	126,865	0,057	0,053
-551,627	141,230	-0,105	-0,102
-550,612	-85,575	0,053	0,012
-549,598	800,000	-0,028	-0,082
-548,583	215,881	0,098	-0,114
-547,569	285,008	0,061	-0,080
-546,554	-74,644	0,095	0,025
-545,539	-67,125	-0,045	0,013
-544,525	75,482	-0,070	-0,054
-543,510	124,614	-0,148	-0,137
-542,496	14,286	-0,104	0,059
-541,481	-200,000	0,022	-0,134
-540,466	-200,000	-0,006	0,035
-539,452	186,302	-0,073	0,079
-538,437	598,330	-0,057	0,104
-537,423	-68,827	-0,095	-0,027
-536,408	126,620	0,042	-0,039
-535,393	-99,871	0,111	-0,020
-534,379	-76,533	-0,079	0,020
-533,364	-142,934	-0,030	-0,002
-532,350	39,051	0,093	-0,061
-531,335	-89,810	-0,056	-0,012
-530,321	233,880	-0,052	0,063
-529,306	465,448	0,031	-0,051
-528,291	-93,782	-0,139	0,028
-527,277	-200,000	0,010	-0,175
-526,262	-72,402	-0,068	-0,018
-525,248	-97,319	0,043	0,008
-524,233	16,418	0,055	-0,032
-523,218	-124,120	-0,046	0,005
-522,204	457,725	-0,073	0,119
-521,189	800,000	-0,031	-0,080
-520,175	16,271	0,143	-0,082
-519,160	-200,000	0,025	-0,113
-518,145	-29,241	-0,031	0,013
-517,131	14,982	0,086	0,049
-516,116	800,000	-0,060	0,148
-515,102	-200,000	0,009	-0,059
-514,087	158,735	-0,129	-0,131
-513,072	-200,000	-0,034	-0,112
-512,058	800,000	-0,022	-0,057
-511,043	514,103	-0,040	0,069
-510,029	800,000	0,037	0,092
-509,014	-200,000	-0,033	0,194
-507,999	416,681	-0,056	0,087
-506,985	-200,000	-0,022	0,135
-505,970	-145,792	-0,042	-0,003
-504,956	346,258	-0,038	-0,054
-503,941	-49,977	-0,054	-0,019
-502,926	47,147	0,073	-0,049
-501,912	-200,000	-0,002	-0,050
-500,897	-200,000	-0,012	0,084
-499,883	-159,787	-0,151	-0,006
-498,868	340,566	-0,104	-0,149
-497,853	-200,000	-0,025	-0,162
-496,839	57,870	-0,094	-0,067
-495,824	347,135	-0,010	0,014
-494,810	-200,000	-0,004	0,015
-493,795	-97,993	-0,138	0,026
-492,781	303,387	-0,103	0,139
-491,766	3,033	-0,064	-0,034
-490,751	-73,554	-0,152	0,040
-489,737	-200,000	-0,003	-0,086
-488,722	621,445	-0,035	0,065
-487,708	111,898	-0,026	-0,023
-486,693	-200,000	0,044	0,147
-485,678	60,943	0,069	0,050
-484,664	-85,635	-0,125	0,028
-483,649	-200,000	0,037	0,125
-482,635	246,763	0,031	0,038
-481,620	-136,467	0,142	-0,012
-480,605	-47,264	0,122	-0,043
-479,591	-40,995	-0,166	0,062
-478,576	163,772	-0,028	-0,028
-477,562	5,058	-0,015	-0,008
-476,547	-13,479	0,071	-0,034
-475,532	-82,883	0,020	-0,005
-474,518	150,567	0,020	0,020
-473,503	-98,926	0,147	0,027
-472,489	-95,792	0,169	0,033
-471,474	176,826	0,093	-0,099
-470,459	242,984	-0,049	-0,061
-469,445	-200,000	-0,011	-0,041
-468,430	-135,475	0,030	-0,003
-467,416	-200,000	0,014	0,070
-466,401	286,278	-0,043	-0,057
-465,386	41,894	-0,107	0,070
-464,372	356,657	0,062	0,091
-463,357	234,448	0,067	0,081
-462,343	-200,000	-0,033	-0,124
-461,328	-65,824	0,073	0,021
-460,313	102,326	-0,078	0,067
-459,299	119,500	0,049	-0,044
-458,284	-43,241	-0,122	0,045
-457,270	-100,654	-0,126	0,022
-456,255	-200,000	-0,006	0,028
-455,241	78,513	-0,027	-0,021
-454,226	-161,659	-0,087	0,003
-453,211	800,000	0,034	0,109
-452,197	503,314	0,048	0,082
-451,182	151,567	0,075	0,075
-450,168	172,901	0,031	-0,033
-449,153	137,139	0,060	-0,057
-448,138	-200,000	-0,033	0,122
-447,124	346,794	-0,049	0,070
-446,109	800,000	0,073	-0,187
-445,095	800,000	-0,010	-0,027
-444,080	140,976	0,032	0,031
-443,065	128,810	0,013	-0,012
-442,051	-75,012	-0,126	-0,033
-441,036	-200,000	0,013	0,061
-440,022	63,435	-0,122	-0,089
-439,007	800,000	-0,021	0,050
-437,992	170,066	-0,057	0,059
-436,978	82,035	0,120	0,095
-435,963	509,805	-0,048	-0,081
-434,949	326,764	0,043	-0,061
-433,934	176,361	0,046	-0,049
-432,919	3,399	0,095	0,051
-431,905	26,641	-0,086	-0,052
-430,890	-200,000	-0,019	-0,099
-429,876	-133,424	0,139	-0,013
-428,861	388,873	0,025	0,038
-427,846	19,132	0,056	0,033
-426,832	117,478	-0,089	-0,080
-425,817	-200,000	0,009	-0,069
-424,803	800,000	-0,023	0,056
-423,788	-200,000	0,005	0,079
-422,773	240,189	0,081	0,098
-421,759	-200,000	0,010	0,043
-420,744	-123,583	0,072	0,008
-419,730	51,810	0,066	0,046
-418,715	800,000	0,057	0,147
-417,701	-11,466	-0,118	-0,056
-416,686	-52,385	-0,078	0,026
-415,671	-200,000	0,036	0,145
-414,657	-36,380	-0,097	-0,038
-413,642	800,000	0,015	0,040
-412,628	328,821	-0,022	-0,030
-411,613	-1,526	-0,047	0,024
-410,598	-26,128	0,069	-0,029
-409,584	243,849	0,065	0,080
-408,569	800,000	0,046	-0,119
-407,555	355,137	0,079	0,114
-406,540	31,108	-0,063	0,039
-405,525	-113,539	0,067	0,009
-404,511	800,000	-0,013	0,041
-403,496	800,000	0,012	-0,032
-402,482	-166,736	0,066	-0,002
-401,467	61,390	-0,192	0,139
-400,452	-200,000	-0,013	0,176
-399,438	-35,445	0,064	0,025
-398,423	-17,230	-0,076	0,035
-397,409	33,616	-0,076	0,048
-396,394	-19,714	-0,079	-0,035
-395,379	356,483	0,047	-0,069
-394,365	59,799	0,016	-0,011
-393,350	-200,000	-0,012	-0,067
-392,336	36,188	-0,073	0,047
-391,321	18,622	-0,035	0,020
-390,306	800,000	0,038	-0,110
-389,292	-200,000	0,002	-0,026
-388,277	297,538	0,036	-0,048
-387,263	-200,000	-0,005	0,207
-386,248	-12,017	-0,117	-0,056
-385,233	800,000	0,049	-0,107
-384,219	139,798	-0,025	0,024
-383,204	-200,000	-0,019	-0,167
-382,190	87,163	-0,006	0,005
-381,175	220,808	0,112	-0,130
-380,160	39,161	0,152	0,099
-379,146	800,000	-0,041	0,110
-378,131	21,527	0,132	0,078
-377,117	-200,000	-0,022	0,148
-376,102	633,448	-0,075	-0,138
-375,088	-144,661	-0,077	0,005
-374,073	98,598	-0,142	0,119
-373,058	-3,272	0,189	0,095
-372,044	24,845	0,114	-0,068
-371,029	-200,000	0,024	0,101
-370,015	184,467	0,054	-0,058
-369,000	800,000	-0,019	0,047
-367,985	-18,992	-0,177	0,080
-366,971	-101,431	0,033	0,006
-365,956	-42,503	0,116	0,043
-364,942	-200,000	0,020	0,082
-363,927	90,541	0,109	0,089
-362,912	-200,000	0,003	0,117
-361,898	43,767	-0,100	-0,066
-360,883	-200,000	0,004	-0,024
-359,869	-61,568	-0,084	-0,025
-358,854	-179,671	0,248	0,004
-357,839	-200,000	0,003	0,155
-356,825	-144,657	0,017	-0,001
-355,810	607,706	-0,072	0,130
-354,796	680,448	-0,065	-0,123
-353,781	800,000	0,048	-0,103
-352,766	187,815	0,134	0,146
-351,752	-61,082	0,124	0,038
-350,737	583,343	0,022	0,040
-349,723	-69,578	-0,101	0,028
-348,708	227,068	0,075	0,088
-347,693	-200,000	-0,001	-0,189
-346,679	336,765	-0,005	0,007
-345,664	-200,000	0,000	0,045
-344,650	13,301	0,057	-0,032
-343,635	-19,005	0,193	0,087
-342,620	97,719	-0,097	0,081
-341,606	-15,442	0,038	-0,018
-340,591	-198,790	0,176	0,001
-339,577	-200,000	0,015	-0,181
-338,562	-200,000	0,001	0,021
-337,548	378,337	0,042	0,063
-336,533	43,433	-0,050	0,033
-335,518	-200,000	-0,002	0,111
-334,504	34,740	0,044	-0,028
-333,489	-113,124	-0,121	0,017
-332,475	202,317	-0,098	-0,109
-331,460	-200,000	0,002	-0,035
-330,445	-200,000	0,001	0,073
-329,431	365,648	0,028	-0,041
-328,416	681,174	0,049	0,093
-327,402	800,000	0,039	-0,112
-326,387	7,757	0,116	0,063
-325,372	8,897	0,051	-0,028
-324,358	161,468	-0,101	-0,103
-323,343	-36,991	0,063	-0,025
-322,329	-200,000	-0,013	-0,126
-321,314	-58,185	0,142	-0,045
-320,299	148,174	0,062	0,061
-319,285	96,132	-0,057	-0,047
-318,270	-163,633	-0,053	0,002
-317,256	324,936	0,039	-0,054
-316,241	436,625	-0,042	-0,066
-315,226	126,345	0,064	-0,059
-314,212	-165,777	0,193	-0,006
-313,197	-200,000	-0,015	0,115
-312,183	427,970	-0,028	0,045
-311,168	-14,370	-0,122	-0,057
-310,153	-53,479	0,031	-0,010
-309,139	-37,764	0,039	-0,015
-308,124	800,000	-0,031	-0,083
-307,110	48,436	-0,062	0,042
-306,095	439,801	-0,053	0,084
-305,080	-23,896	-0,087	0,038
-304,066	800,000	0,018	0,046
-303,051	-200,000	0,014	-0,090
-302,037	-51,574	-0,097	0,033
-301,022	268,895	0,078	-0,099
-300,008	-200,000	-0,001	0,051
-298,993	106,104	0,048	-0,041
-297,978	800,000	0,006	0,019
-296,964	-55,356	0,023	0,007
-295,949	-92,643	-0,084	-0,017
-294,935	278,095	-0,018	0,024
-293,920	-14,124	-0,113	-0,053
-292,905	104,282	-0,063	0,054
-291,891	-69,761	0,081	-0,022
-290,876	-0,335	0,172	-0,089
-289,862	-200,000	0,018	-0,095
-288,847	174,571	-0,102	-0,107
-287,832	800,000	-0,009	-0,024
-286,818	-200,000	0,001	0,064
-285,803	-25,000	0,101	0,043
-284,789	412,915	0,090	0,139
-283,774	-15,273	-0,016	0,008
-282,759	-63,111	-0,131	0,039
-281,745	129,886	0,164	-0,152
-280,730	550,729	-0,062	-0,109
-279,716	-65,602	-0,066	-0,019
-278,701	454,443	0,001	0,002
-277,686	199,013	0,045	-0,051
-276,672	800,000	0,026	0,064
-275,657	-200,000	0,051	-0,170
-274,643	800,000	0,014	0,032
-273,628	40,987	0,041	0,026
-272,613	800,000	-0,070	-0,169
-271,599	249,348	0,052	-0,065
-270,584	-92,605	0,097	0,020
-269,570	69,512	0,106	0,079
-268,555	-200,000	-0,002	-0,027
-267,540	75,920	-0,183	-0,140
-266,526	-200,000	-0,036	-0,124
-265,511	65,114	0,068	-0,050
-264,497	5,822	0,058	-0,031
-263,482	-200,000	-0,002	0,112
-262,467	450,820	0,019	-0,030
-261,453	-97,638	0,049	-0,009
-260,438	302,901	-0,114	0,153
-259,424	-35,069	-0,084	0,033
-258,409	-95,719	0,069	-0,013
-257,395	2,778	-0,042	0,022
-256,380	46,911	0,055	0,037
-255,365	800,000	0,007	-0,017
-254,351	-200,000	-0,008	0,038
-253,336	62,327	-0,028	0,020
-252,322	659,942	-0,071	-0,133
-251,307	-31,483	0,120	0,048
-250,292	-33,470	0,025	0,010
-249,278	800,000	0,040	0,114
-248,263	680,197	0,052	0,099
-247,249	224,505	0,063	-0,074
-246,234	369,441	-0,069	-0,101
-245,219	94,347	-0,030	0,024
-244,205	-200,000	0,000	-0,045
-243,190	498,613	-0,051	0,085
-242,176	-166,370	0,066	-0,002
-241,161	275,226	0,093	0,119
-240,146	-200,000	0,001	-0,021
-239,132	19,443	-0,056	0,032
-238,117	800,000	0,037	-0,078
-237,103	-77,102	0,118	0,030
-236,088	-57,133	-0,121	0,038
-235,073	-200,000	0,033	0,136
-234,059	-66,810	0,120	-0,034
-233,044	55,315	-0,066	0,046
-232,030	800,000	0,021	-0,056
-231,015	166,899	-0,053	-0,055
-230,000	-84,696	-0,151	0,034
-228,986	-146,264	-0,152	-0,009
-227,971	614,848	-0,047	-0,086
-226,957	800,000	-0,024	0,059
-225,942	-200,000	-0,001	0,066
-224,927	-169,067	-0,044	-0,001
-223,913	-53,182	-0,208	-0,069
-222,898	604,807	-0,034	-0,061
-221,884	-200,000	0,013	-0,094
-220,869	-116,816	0,067	0,009
-219,855	-200,000	-0,001	0,085
-218,840	243,920	-0,087	0,105
-217,825	-127,709	0,064	-0,007
-216,811	-136,816	0,039	-0,003
-215,796	176,851	0,093	0,098
-214,782	54,286	0,135	-0,093
-213,767	98,884	-0,048	-0,040
-212,752	-200,000	0,039	0,246
-211,738	54,229	-0,128	-0,089
-210,723	-75,026	0,065	0,017
-209,709	-166,955	-0,070	0,002
-208,694	-200,000	-0,011	-0,145
-207,679	-200,000	-0,004	-0,084
-206,665	-35,971	-0,021	0,008
-205,650	-85,189	0,088	-0,020
-204,636	417,498	0,051	0,078
-203,621	-41,125	-0,197	0,073
-202,606	132,994	0,058	-0,055
-201,592	-171,056	-0,116	0,003
-200,577	-44,404	-0,062	0,022
-199,563	-200,000	0,005	0,094
-198,548	19,756	0,136	-0,079
-197,533	166,939	0,085	-0,087
-196,519	48,285	0,077	0,052
-195,504	800,000	0,032	-0,078
-194,490	-200,000	0,017	-0,138
-193,475	1,298	0,028	0,015
-192,460	-200,000	-0,002	-0,109
-191,446	-103,774	0,166	0,028
-190,431	800,000	0,041	0,127
-189,417	800,000	-0,070	-0,144
-188,402	-200,000	0,002	0,011
-187,387	-200,000	-0,031	-0,179
-186,373	208,365	-0,050	-0,056
-185,358	-200,000	0,016	-0,127
-184,344	-63,080	0,122	-0,036
-183,329	800,000	0,006	-0,018
-182,315	143,287	0,049	0,047
-181,300	20,182	0,121	0,070
-180,285	-5,737	-0,088	0,043
-179,271	-200,000	0,034	0,126
-178,256	-110,987	-0,096	0,014
-177,242	-6,946	0,047	0,023
-176,227	-200,000	0,007	0,024
-175,212	-200,000	0,021	0,078
-174,198	228,425	-0,086	-0,102
-173,183	179,214	-0,037	0,039
-172,169	800,000	-0,022	0,047
-171,154	-200,000	0,005	-0,097
-170,139	362,527	0,086	0,126
-169,125	-200,000	-0,014	0,106
-168,110	26,827	0,056	0,034
-167,096	544,020	0,014	-0,024
-166,081	-200,000	-0,160	-0,001
-165,066	-92,287	-0,121	0,024
-164,052	-30,257	-0,014	0,006
-163,037	79,572	-0,078	0,061
-162,023	800,000	0,057	0,126
-161,008	800,000	0,015	-0,046
-159,993	512,362	0,047	-0,079
-158,979	-132,344	-0,080	-0,007
-157,964	88,740	-0,118	-0,095
-156,950	-84,454	0,056	-0,013
-155,935	-200,000	0,007	0,114
-154,920	-69,824	0,156	0,043
-153,906	-200,000	0,038	-0,134
-152,891	-128,939	0,151	0,015
-151,877	-200,000	-0,041	-0,132
-150,862	125,426	-0,063	0,057
-149,847	800,000	0,034	-0,083
-148,833	-190,216	-0,114	-0,001
-147,818	-101,715	0,088	0,015
-146,804	-67,322	-0,010	0,003
-145,789	-118,345	0,144	0,018
-144,775	800,000	-0,098	0,224
-143,760	-174,809	-0,069	-0,001
-142,745	-200,000	0,021	-0,117
-141,731	35,032	0,021	-0,013
-140,716	121,310	-0,034	0,031
-139,702	-99,675	0,154	-0,028
-138,687	11,957	-0,135	-0,074
-137,672	-144,778	0,060	0,004
-136,658	-200,000	-0,037	-0,142
-135,643	-200,000	-0,031	0,165
-134,629	227,028	0,073	-0,085
-133,614	-200,000	0,002	0,084
-132,599	1,786	0,026	-0,014
-131,585	800,000	-0,027	-0,071
-130,570	26,650	0,026	0,016
-129,556	55,036	0,053	-0,037
-128,541	23,234	0,095	-0,056
-127,526	32,920	-0,095	0,059
-126,512	-120,811	-0,111	0,013
-125,497	61,446	0,120	-0,086
-124,483	-137,007	0,037	0,003
-123,468	-159,185	-0,091	-0,004
-122,453	318,646	-0,059	-0,081
-121,439	800,000	0,061	-0,175
-120,424	94,235	-0,022	0,018
-119,410	-161,762	-0,073	0,003
-118,395	520,885	0,073	-0,124
