DTS Sentinel unit serial number:	SN410029Multiplexer serial number:	ORYXHardware model number:	OX2-SRSoftware version number:	ORYX F/W v4,00 Oryx Data Collector v3.7.2.0data status	okinstallation	B5 Nyhavnadifferential loss correction	single-endedforward channel	channel 2reverse channel	N/Adate	2023/12/13time	01:57:13forward acquisition time	300,00reverse acquisition time	0,00gamma	499,1914k internal	0,3159k external	0,3159temperature offset calibration	1,0000default loss term (dB/km)	0,3820temperature slope calibration	1,0000multiplexer offset coefficient	1,0000multiplexer slope coefficient	1,0000fibre end	0,00T internal ref (°C)	14,06T ext. ref 1 (°C)	-2,42T ext. ref 2 (°C)	-2,71length (m)	temperature (°C)	Stokes	anti-Stokes-744,400	-66,256	0,254	0,074
-743,385	-102,261	-0,345	-0,060
-742,371	800,000	0,045	-0,105
-741,356	-112,231	-0,177	-0,026
-740,342	236,342	0,046	0,056
-739,327	-105,622	-0,339	-0,056
-738,312	623,150	0,074	0,138
-737,298	-111,092	-0,436	0,065
-736,283	-42,721	0,166	-0,062
-735,269	-76,860	-0,239	0,061
-734,254	-143,826	0,121	0,008
-733,239	-82,366	-0,463	-0,110
-732,225	-143,960	0,156	0,011
-731,210	-200,000	-0,014	-0,089
-730,196	800,000	-0,023	-0,065
-729,181	262,431	-0,027	0,035
-728,167	36,509	0,022	0,014
-727,152	697,080	0,007	-0,014
-726,137	-200,000	-0,025	-0,097
-725,123	17,377	-0,100	0,058
-724,108	514,178	-0,066	-0,114
-723,094	25,449	-0,114	-0,070
-722,079	800,000	-0,017	-0,048
-721,064	361,661	0,011	-0,016
-720,050	800,000	-0,064	-0,145
-719,035	-63,265	-0,086	-0,026
-718,021	-3,902	-0,117	-0,059
-717,006	-36,533	-0,178	-0,070
-715,991	-200,000	0,001	0,047
-714,977	-79,763	0,117	-0,029
-713,962	-200,000	-0,003	0,084
-712,948	-200,000	0,000	-0,040
-711,933	800,000	0,053	0,124
-710,918	-7,631	-0,089	0,044
-709,904	-48,353	-0,026	0,009
-708,889	-58,872	-0,047	0,015
-707,875	131,098	0,075	0,071
-706,860	-85,778	0,030	0,007
-705,845	463,442	0,061	0,100
-704,831	109,232	0,084	0,074
-703,816	-139,809	0,108	0,008
-702,802	-49,300	-0,180	0,063
-701,787	35,866	-0,013	0,009
-700,772	171,327	-0,062	0,065
-699,758	800,000	-0,032	-0,091
-698,743	-36,966	0,130	0,051
-697,729	-200,000	0,009	0,030
-696,714	800,000	-0,033	0,072
-695,699	-174,627	-0,047	0,001
-694,685	800,000	-0,034	-0,090
-693,670	-72,639	-0,093	0,025
-692,656	-200,000	-0,002	-0,096
-691,641	-23,355	0,050	0,022
-690,627	681,629	-0,043	-0,083
-689,612	-132,617	-0,183	0,017
-688,597	-3,184	-0,114	0,058
-687,583	-36,625	0,111	0,044
-686,568	-90,422	-0,163	-0,034
-685,554	151,656	-0,108	-0,109
-684,539	800,000	0,061	0,140
-683,524	-90,276	-0,069	-0,015
-682,510	25,889	-0,120	0,073
-681,495	800,000	-0,032	0,099
-680,481	49,061	-0,064	0,044
-679,466	-98,824	-0,037	-0,007
-678,451	800,000	-0,021	0,058
-677,437	-200,000	-0,014	-0,044
-676,422	-130,776	-0,022	-0,002
-675,408	438,759	-0,031	0,051
-674,393	800,000	0,018	-0,051
-673,378	-12,836	0,094	0,045
-672,364	-96,292	-0,069	0,013
-671,349	-22,399	-0,118	0,052
-670,335	252,596	0,079	-0,100
-669,320	65,906	0,159	0,118
-668,305	114,625	-0,042	0,038
-667,291	63,627	-0,014	-0,010
-666,276	-59,383	0,126	-0,040
-665,262	34,187	-0,115	-0,074
-664,247	111,501	-0,135	-0,119
-663,232	-68,160	-0,035	-0,010
-662,218	800,000	-0,006	-0,017
-661,203	173,324	-0,031	-0,033
-660,189	-200,000	-0,002	0,056
-659,174	-76,254	-0,163	0,042
-658,159	-56,428	-0,051	0,016
-657,145	-147,403	-0,173	-0,011
-656,130	-200,000	-0,033	-0,150
-655,116	-60,689	0,128	0,040
-654,101	94,094	-0,102	-0,085
-653,086	-200,000	0,004	-0,054
-652,072	800,000	0,018	0,049
-651,057	800,000	0,033	-0,080
-650,043	9,253	-0,085	-0,047
-649,028	-200,000	0,003	-0,040
-648,014	89,309	-0,097	-0,080
-646,999	-142,507	0,049	0,003
-645,984	39,952	-0,065	-0,043
-644,970	239,959	0,025	-0,030
-643,955	-60,042	-0,052	-0,016
-642,941	800,000	-0,092	-0,277
-641,926	-79,242	0,047	0,012
-640,911	-57,636	0,139	-0,044
-639,897	-69,241	-0,071	-0,020
-638,882	-130,793	0,090	0,009
-637,868	304,784	-0,070	0,095
-636,853	-200,000	0,015	-0,167
-635,838	131,282	-0,069	-0,065
-634,824	-200,000	0,002	0,009
-633,809	800,000	0,025	0,055
-632,795	800,000	-0,010	0,028
-631,780	-200,000	-0,033	0,142
-630,765	-18,703	-0,039	-0,018
-629,751	150,417	-0,058	0,058
-628,736	100,224	0,051	0,043
-627,722	-43,671	-0,124	-0,046
-626,707	-101,009	-0,129	-0,023
-625,692	-48,228	0,167	-0,059
-624,678	-200,000	-0,008	0,116
-623,663	141,566	-0,083	0,081
-622,649	-200,000	0,003	-0,040
-621,634	101,218	-0,112	-0,096
-620,619	800,000	-0,044	-0,130
-619,605	-200,000	-0,008	-0,107
-618,590	-200,000	0,016	0,058
-617,576	-200,000	0,003	0,134
-616,561	800,000	-0,072	0,147
-615,546	-72,043	-0,133	-0,036
-614,532	-5,806	-0,085	-0,042
-613,517	800,000	-0,048	-0,111
-612,503	800,000	0,019	-0,061
-611,488	-196,765	0,120	-0,001
-610,474	-125,023	0,112	0,013
-609,459	-107,149	-0,167	0,027
-608,444	800,000	0,021	-0,059
-607,430	379,949	0,047	-0,072
-606,415	-155,708	0,133	0,006
-605,401	469,129	0,041	0,067
-604,386	287,370	0,091	0,121
-603,371	761,317	0,025	-0,051
-602,357	800,000	-0,017	-0,052
-601,342	-88,284	0,042	0,009
-600,328	800,000	-0,090	-0,236
-599,313	-73,002	0,063	0,017
-598,298	-200,000	-0,010	-0,060
-597,284	-81,313	0,103	0,025
-596,269	11,138	0,091	0,051
-595,255	-200,000	-0,001	-0,023
-594,240	-74,391	-0,151	0,040
-593,225	9,488	0,054	-0,030
-592,211	-61,242	-0,119	0,036
-591,196	158,345	-0,033	0,034
-590,182	128,327	0,039	0,036
-589,167	679,114	0,054	0,104
-588,152	-200,000	-0,006	-0,019
-587,138	177,566	-0,055	-0,059
-586,123	-200,000	0,010	-0,080
-585,109	-200,000	-0,072	-0,000
-584,094	800,000	-0,017	-0,036
-583,079	57,924	0,033	-0,023
-582,065	54,895	-0,049	-0,035
-581,050	75,379	-0,077	0,059
-580,036	-110,562	-0,158	0,024
-579,021	749,689	-0,054	-0,107
-578,006	-29,126	-0,025	-0,011
-576,992	-200,000	0,000	-0,005
-575,977	275,947	0,124	0,162
-574,963	134,825	0,109	0,104
-573,948	-92,217	-0,121	-0,025
-572,934	-200,000	0,026	0,171
-571,919	87,714	-0,056	-0,045
-570,904	34,350	-0,122	-0,078
-569,890	147,413	-0,098	-0,097
-568,875	-200,000	0,027	-0,140
-567,861	792,573	0,031	-0,063
-566,846	-200,000	0,040	0,134
-565,831	-118,370	-0,166	-0,021
-564,817	291,949	-0,035	0,046
-563,802	-82,175	0,104	0,025
-562,788	-126,482	0,102	0,011
-561,773	-67,504	-0,046	-0,013
-560,758	-2,767	-0,104	0,053
-559,744	-200,000	0,003	0,114
-558,729	49,988	-0,084	-0,058
-557,715	-56,318	-0,058	-0,019
-556,700	-70,290	0,076	0,021
-555,685	561,536	-0,031	-0,054
-554,671	-97,480	-0,029	-0,005
-553,656	-200,000	0,001	0,119
-552,642	1,988	-0,024	-0,013
-551,627	-200,000	-0,010	-0,035
-550,612	207,371	-0,062	-0,071
-549,598	366,560	-0,053	-0,078
-548,583	47,031	0,062	0,042
-547,569	-6,293	-0,070	-0,035
-546,554	14,866	0,005	-0,003
-545,539	-200,000	0,004	0,073
-544,525	388,195	0,055	-0,084
-543,510	800,000	-0,023	0,057
-542,496	-125,882	-0,078	-0,008
-541,481	-200,000	-0,009	0,080
-540,466	-200,000	0,030	0,109
-539,452	-146,913	-0,047	0,003
-538,437	800,000	0,030	0,094
-537,423	387,431	-0,051	-0,078
-536,408	683,275	-0,017	0,032
-535,393	-84,103	0,152	0,035
-534,379	23,355	-0,021	0,013
-533,364	-104,697	-0,101	-0,017
-532,350	258,225	0,065	0,082
-531,335	-118,372	0,041	0,005
-530,321	-96,765	0,066	0,013
-529,306	800,000	-0,020	0,053
-528,291	110,158	-0,085	-0,074
-527,277	32,586	0,089	-0,056
-526,262	800,000	0,028	-0,078
-525,248	303,801	0,052	0,071
-524,233	49,663	-0,027	0,018
-523,218	-10,269	0,059	0,028
-522,204	-44,660	0,084	-0,031
-521,189	-200,000	0,014	0,066
-520,175	800,000	0,058	-0,150
-519,160	-200,000	-0,005	0,027
-518,145	99,329	-0,121	-0,102
-517,131	-200,000	-0,031	0,200
-516,116	-38,022	-0,046	-0,018
-515,102	48,013	-0,042	0,029
-514,087	63,119	-0,060	-0,044
-513,072	-105,405	0,129	0,021
-512,058	25,639	0,022	-0,014
-511,043	-66,390	0,066	-0,019
-510,029	-108,302	0,041	-0,006
-509,014	15,050	0,005	-0,003
-507,999	-200,000	0,010	0,056
-506,985	-33,068	-0,065	-0,026
-505,970	-200,000	-0,037	-0,144
-504,956	28,933	-0,093	-0,057
-503,941	-200,000	-0,035	-0,155
-502,926	-81,180	0,087	0,021
-501,912	79,814	0,086	0,067
-500,897	142,011	-0,023	0,023
-499,883	685,587	0,012	-0,023
-498,868	147,704	-0,128	0,126
-497,853	49,592	0,038	0,026
-496,839	-35,479	0,121	-0,048
-495,824	-200,000	0,018	-0,123
-494,810	29,600	-0,031	-0,019
-493,795	390,998	0,048	0,073
-492,781	-58,076	0,072	-0,023
-491,766	47,161	0,150	0,102
-490,751	-56,380	-0,089	0,029
-489,737	-50,261	0,197	-0,068
-488,722	530,148	0,072	0,124
-487,708	48,049	0,062	0,042
-486,693	-200,000	-0,004	0,152
-485,678	-200,000	-0,006	0,130
-484,664	-200,000	0,024	0,139
-483,649	8,589	-0,042	-0,023
-482,635	-57,180	-0,090	-0,029
-481,620	-134,525	0,144	-0,013
-480,605	800,000	0,025	0,060
-479,591	-200,000	0,014	-0,125
-478,576	-81,156	-0,090	-0,022
-477,562	-134,343	-0,072	-0,006
-476,547	800,000	-0,038	0,080
-475,532	-200,000	-0,015	0,087
-474,518	-200,000	-0,001	0,095
-473,503	-20,034	0,021	-0,009
-472,489	-136,167	0,076	-0,006
-471,474	-60,072	-0,114	0,035
-470,459	-136,640	-0,095	-0,008
-469,445	-200,000	-0,014	0,079
-468,430	-191,199	0,102	0,001
-467,416	22,209	0,067	-0,040
-466,401	-78,100	0,123	0,031
-465,386	62,154	-0,120	-0,087
-464,372	620,211	-0,037	-0,068
-463,357	181,117	-0,088	-0,094
-462,343	-54,200	0,134	0,044
-461,328	-56,966	-0,037	0,012
-460,313	3,935	-0,079	-0,042
-459,299	620,403	0,089	0,164
-458,284	515,190	0,042	0,072
-457,270	699,971	0,020	-0,039
-456,255	-200,000	-0,005	-0,177
-455,241	800,000	0,049	-0,136
-454,226	345,413	0,074	0,107
-453,211	-116,575	0,085	-0,011
-452,197	50,397	0,166	-0,114
-451,182	22,929	0,091	-0,054
-450,168	-200,000	0,026	0,100
-449,153	-200,000	-0,002	0,221
-448,138	-72,778	-0,028	0,007
-447,124	-60,750	0,090	0,028
-446,109	-61,607	-0,087	-0,026
-445,095	246,391	-0,025	0,031
-444,080	548,784	0,010	0,017
-443,065	-99,115	-0,118	0,021
-442,051	-200,000	0,004	-0,047
-441,036	621,789	0,014	0,026
-440,022	-15,706	-0,080	-0,037
-439,007	308,759	0,040	0,055
-437,992	-92,584	0,095	0,019
-436,978	117,843	0,010	-0,009
-435,963	800,000	-0,082	-0,207
-434,949	-137,712	0,109	-0,009
-433,934	74,045	-0,025	-0,019
-432,919	-200,000	0,012	-0,085
-431,905	753,056	0,016	0,032
-430,890	-11,049	-0,015	-0,007
-429,876	404,224	0,016	0,024
-428,861	-200,000	0,012	0,046
-427,846	77,299	0,083	0,064
-426,832	-100,200	-0,098	-0,018
-425,817	-165,688	0,014	0,000
-424,803	800,000	0,060	-0,153
-423,788	110,948	0,073	0,064
-422,773	270,221	-0,066	-0,084
-421,759	-88,576	0,068	0,015
-420,744	677,924	-0,055	-0,105
-419,730	84,339	-0,186	-0,148
-418,715	-79,975	-0,105	0,025
-417,701	-32,590	-0,080	-0,032
-416,686	-200,000	-0,007	-0,043
-415,671	30,111	0,090	0,056
-414,657	-200,000	-0,013	0,063
-413,642	800,000	0,031	0,086
-412,628	642,893	-0,028	0,052
-411,613	-200,000	-0,005	-0,024
-410,598	-99,457	0,076	-0,014
-409,584	46,897	0,034	-0,023
-408,569	-121,855	-0,069	0,008
-407,555	-38,891	-0,113	0,043
-406,540	-102,942	0,096	-0,016
-405,525	-200,000	-0,005	-0,126
-404,511	800,000	0,060	-0,165
-403,496	-104,120	-0,168	0,028
-402,482	141,900	0,135	0,130
-401,467	163,273	0,061	-0,062
-400,452	800,000	0,009	0,027
-399,438	-200,000	0,019	0,079
-398,423	274,600	-0,082	-0,106
-397,409	-163,174	-0,110	0,004
-396,394	800,000	-0,032	0,073
-395,379	-17,307	-0,071	0,032
-394,365	-200,000	-0,015	-0,137
-393,350	-61,895	0,083	0,025
-392,336	-52,665	0,184	0,061
-391,321	-200,000	-0,014	-0,121
-390,306	39,494	-0,042	-0,027
-389,292	-79,790	-0,116	0,028
-388,277	492,744	-0,006	-0,010
-387,263	16,233	0,185	-0,106
-386,248	-85,619	-0,143	0,032
-385,233	-200,000	-0,020	0,076
-384,219	-200,000	-0,003	0,038
-383,204	-94,178	-0,117	0,023
-382,190	297,500	0,076	-0,102
-381,175	393,748	-0,019	-0,028
-380,160	-123,327	0,178	0,020
-379,146	-44,883	-0,094	0,034
-378,131	206,167	-0,038	-0,043
-377,117	341,484	0,061	0,087
-376,102	-200,000	-0,009	-0,057
-375,088	-63,890	-0,061	-0,018
-374,073	-142,188	0,138	0,010
-373,058	51,382	0,049	-0,033
-372,044	-200,000	-0,044	0,156
-371,029	800,000	-0,040	0,089
-370,015	43,603	-0,108	0,072
-369,000	-200,000	0,011	0,039
-367,985	-129,819	-0,168	-0,017
-366,971	662,505	0,042	-0,079
-365,956	511,567	-0,053	-0,091
-364,942	-3,638	0,127	-0,064
-363,927	-12,399	0,102	-0,048
-362,912	170,229	0,026	0,027
-361,898	-200,000	-0,004	-0,056
-360,883	105,745	-0,055	-0,048
-359,869	800,000	-0,023	-0,056
-358,854	180,456	0,016	-0,017
-357,839	667,607	0,011	0,021
-356,825	94,382	0,057	-0,047
-355,810	356,629	0,072	0,104
-354,796	-77,701	0,056	0,014
-353,781	800,000	-0,032	-0,088
-352,766	-91,245	-0,103	-0,021
-351,752	-200,000	-0,016	0,061
-350,737	-150,817	0,165	0,009
-349,723	140,490	0,051	0,049
-348,708	-83,294	-0,032	-0,007
-347,693	800,000	-0,049	0,134
-346,679	331,532	-0,116	-0,163
-345,664	800,000	-0,051	-0,127
-344,650	442,580	-0,038	-0,060
-343,635	-1,096	0,015	0,008
-342,620	-115,024	-0,075	-0,010
-341,606	-200,000	0,003	0,153
-340,591	431,554	-0,058	0,091
-339,577	-200,000	0,003	0,111
-338,562	134,401	0,090	-0,084
-337,548	425,516	0,020	0,032
-336,533	-186,565	-0,044	-0,000
-335,518	-13,544	-0,046	0,021
-334,504	526,398	-0,037	0,063
-333,489	-93,737	0,063	-0,013
-332,475	800,000	0,034	-0,086
-331,460	-51,757	-0,247	-0,083
-330,445	473,972	-0,028	0,046
-329,431	-62,189	0,023	-0,007
-328,416	-200,000	0,017	0,150
-327,402	215,278	0,034	-0,039
-326,387	-57,624	-0,112	-0,035
-325,372	145,365	0,036	0,035
-324,358	23,765	-0,141	-0,084
-323,343	169,750	0,105	-0,109
-322,329	800,000	0,048	0,141
-321,314	134,908	-0,116	0,109
-320,299	800,000	0,066	0,201
-319,285	-200,000	0,005	0,067
-318,270	150,450	0,037	-0,036
-317,256	-24,882	-0,122	-0,052
-316,241	-78,138	0,121	0,030
-315,226	-200,000	-0,020	-0,089
-314,212	-200,000	0,003	0,111
-313,197	-200,000	-0,012	0,100
-312,183	800,000	0,024	-0,059
-311,168	-110,299	0,034	-0,005
-310,153	800,000	-0,043	-0,109
-309,139	-158,977	0,113	-0,005
-308,124	-172,423	-0,015	-0,000
-307,110	-200,000	0,003	-0,072
-306,095	-140,566	0,178	0,013
-305,080	785,373	-0,033	0,065
-304,066	-200,000	0,007	-0,052
-303,051	-30,548	-0,032	0,013
-302,037	-31,466	0,109	-0,044
-301,022	662,312	0,023	0,044
-300,008	54,812	0,172	-0,120
-298,993	-95,249	0,226	-0,044
-297,978	442,928	-0,040	0,064
-296,964	-89,378	-0,132	0,028
-295,949	-200,000	0,006	0,085
-294,935	800,000	0,028	0,059
-293,920	-48,385	0,083	-0,029
-292,905	-118,666	0,114	0,014
-291,891	461,786	0,069	0,112
-290,876	163,067	-0,050	0,051
-289,862	-144,557	-0,139	0,009
-288,847	1,797	-0,078	0,040
-287,832	135,259	-0,018	0,017
-286,818	79,588	0,062	0,048
-285,803	-106,896	0,058	0,009
-284,789	148,948	0,045	0,044
-283,774	-200,000	0,026	0,107
-282,759	-200,000	-0,029	-0,124
-281,745	650,311	0,053	-0,099
-280,730	217,583	-0,053	-0,062
-279,716	800,000	-0,037	0,090
-278,701	173,326	0,096	0,100
-277,686	753,609	-0,054	0,105
-276,672	755,088	0,070	0,138
-275,657	800,000	-0,042	0,133
-274,643	355,073	-0,018	0,026
-273,628	-200,000	-0,041	-0,136
-272,613	-200,000	0,010	-0,060
-271,599	-200,000	-0,005	-0,052
-270,584	-55,492	0,026	0,009
-269,570	-28,078	0,093	-0,039
-268,555	-58,631	-0,088	0,028
-267,540	-41,204	-0,047	-0,018
-266,526	28,933	-0,058	0,035
-265,511	-139,352	0,042	-0,003
-264,497	-200,000	0,001	0,118
-263,482	-44,579	0,131	0,047
-262,467	266,668	-0,058	-0,073
-261,453	-200,000	-0,002	0,139
-260,438	52,182	-0,118	-0,081
-259,424	-200,000	-0,001	0,191
-258,409	-200,000	0,011	0,056
-257,395	-108,402	0,046	0,007
-256,380	800,000	0,057	0,149
-255,365	182,596	0,134	0,143
-254,351	-200,000	0,003	0,139
-253,336	-200,000	0,001	-0,021
-252,322	-58,649	0,072	-0,022
-251,307	-200,000	0,000	-0,018
-250,292	-200,000	0,032	-0,140
-249,278	-200,000	0,000	-0,004
-248,263	38,280	-0,032	0,021
-247,249	-26,558	-0,060	0,025
-246,234	-99,791	0,023	0,004
-245,219	334,676	-0,065	0,091
-244,205	800,000	0,029	-0,073
-243,190	-200,000	-0,032	-0,126
-242,176	-200,000	-0,009	0,110
-241,161	-55,143	0,058	0,019
-240,146	667,785	0,045	0,084
-239,132	-200,000	0,012	0,042
-238,117	800,000	0,039	-0,113
-237,103	600,333	-0,076	-0,136
-236,088	-46,732	0,145	0,051
-235,073	-200,000	-0,014	0,113
-234,059	-200,000	0,030	0,123
-233,044	-200,000	0,004	0,034
-232,030	-48,954	0,093	0,032
-231,015	287,392	0,079	-0,103
-230,000	104,001	0,048	0,041
-228,986	800,000	-0,017	0,050
-227,971	-39,232	-0,134	0,051
-226,957	256,401	-0,014	0,017
-225,942	-200,000	-0,004	0,025
-224,927	233,814	0,115	0,137
-223,913	131,942	-0,047	-0,043
-222,898	75,320	0,127	-0,097
-221,884	33,158	-0,026	0,016
-220,869	246,859	0,094	-0,115
-219,855	-200,000	-0,016	0,053
-218,840	-194,832	-0,022	-0,000
-217,825	-200,000	-0,004	0,021
-216,811	-126,075	-0,084	-0,009
-215,796	-200,000	0,003	0,062
-214,782	26,250	0,136	0,082
-213,767	133,125	0,027	0,025
-212,752	-200,000	-0,014	-0,051
-211,738	-200,000	0,030	0,165
-210,723	-200,000	-0,006	0,099
-209,709	-200,000	-0,005	0,139
-208,694	-3,153	-0,073	0,036
-207,679	800,000	-0,050	0,101
-206,665	222,055	-0,055	-0,064
-205,650	216,161	0,019	-0,022
-204,636	351,793	0,032	0,046
-203,621	-89,018	-0,065	-0,014
-202,606	2,286	0,061	0,032
-201,592	800,000	-0,025	-0,060
-200,577	-55,579	-0,022	-0,007
-199,563	-76,187	-0,058	0,015
-198,548	354,831	-0,064	-0,092
-197,533	52,575	-0,011	0,007
-196,519	-200,000	0,018	-0,138
-195,504	-200,000	-0,035	-0,114
-194,490	20,567	-0,066	-0,038
-193,475	-200,000	-0,048	-0,170
-192,460	268,396	-0,110	-0,139
-191,446	325,779	-0,017	-0,023
-190,431	5,744	0,104	-0,055
-189,417	160,129	0,024	0,024
-188,402	-200,000	-0,015	-0,062
-187,387	574,563	-0,117	-0,206
-186,373	-200,000	0,005	-0,066
-185,358	-200,000	0,013	-0,123
-184,344	800,000	-0,011	-0,028
-183,329	-84,322	-0,038	0,009
-182,315	-200,000	0,030	0,177
-181,300	225,008	-0,076	-0,089
-180,285	199,513	-0,058	-0,064
-179,271	303,062	0,014	-0,018
-178,256	-200,000	-0,008	-0,052
-177,242	-38,311	0,067	0,026
-176,227	-3,823	-0,152	0,076
-175,212	340,789	0,062	-0,087
-174,198	47,522	0,050	-0,033
-173,183	-113,268	-0,069	-0,010
-172,169	274,383	-0,027	-0,035
-171,154	-152,901	-0,075	0,004
-170,139	-92,531	-0,065	0,013
-169,125	8,426	-0,064	0,035
-168,110	111,638	-0,014	0,012
-167,096	23,301	0,108	-0,064
-166,081	419,126	0,065	-0,101
-165,066	417,106	-0,067	-0,104
-164,052	122,350	-0,127	-0,115
-163,037	-200,000	0,032	-0,119
-162,023	642,677	0,030	0,054
-161,008	26,760	0,095	-0,057
-159,993	-88,122	0,139	0,030
-158,979	-14,738	0,177	-0,082
-157,964	-200,000	0,003	-0,150
-156,950	-200,000	0,005	-0,022
-155,935	-39,730	-0,117	-0,044
-154,920	201,283	-0,043	0,048
-153,906	590,692	0,027	-0,048
-152,891	-200,000	-0,004	0,108
-151,877	-51,831	-0,133	-0,044
-150,862	44,714	0,048	0,032
-149,847	579,748	-0,014	0,025
-148,833	363,637	0,028	-0,040
-147,818	800,000	0,028	0,071
-146,804	-200,000	-0,018	0,082
-145,789	-200,000	-0,021	-0,091
-144,775	-147,234	-0,102	-0,006
-143,760	-200,000	0,016	-0,134
-142,745	800,000	0,049	0,131
-141,731	144,881	0,088	0,085
-140,716	313,033	-0,037	-0,050
-139,702	-200,000	0,022	0,212
-138,687	43,236	0,042	0,028
-137,672	62,345	0,075	0,054
-136,658	-200,000	0,034	-0,122
-135,643	299,522	-0,099	-0,132
-134,629	403,687	-0,030	-0,045
-133,614	84,035	0,064	-0,050
-132,599	-143,651	-0,252	0,017
-131,585	-11,915	0,191	0,090
-130,570	4,888	-0,047	-0,025
-129,556	-200,000	0,015	-0,049
-128,541	286,084	-0,087	-0,113
-127,526	-98,476	0,050	0,009
-126,512	134,738	0,058	0,055
-125,497	-84,472	0,045	0,010
-124,483	111,388	0,074	0,065
-123,468	-145,702	-0,092	0,006
-122,453	-92,199	-0,094	0,019
-121,439	800,000	0,044	-0,095
-120,424	800,000	-0,007	-0,021
-119,410	95,719	0,075	-0,061
