DTS Sentinel unit serial number:	SN410029Multiplexer serial number:	ORYXHardware model number:	OX2-SRSoftware version number:	ORYX F/W v4,00 Oryx Data Collector v3.7.2.0data status	okinstallation	B5 Nyhavnadifferential loss correction	single-endedforward channel	channel 2reverse channel	N/Adate	2023/12/14time	16:02:13forward acquisition time	300,00reverse acquisition time	0,00gamma	499,1914k internal	0,3157k external	0,3157temperature offset calibration	1,0000default loss term (dB/km)	0,3820temperature slope calibration	1,0000multiplexer offset coefficient	1,0000multiplexer slope coefficient	1,0000fibre end	0,00T internal ref (°C)	7,90T ext. ref 1 (°C)	-7,83T ext. ref 2 (°C)	-7,88length (m)	temperature (°C)	Stokes	anti-Stokes-744,400	75,109	0,027	-0,021
-743,385	-44,289	-0,312	-0,115
-742,371	-51,394	0,269	0,092
-741,356	-117,922	-0,367	-0,048
-740,342	212,991	0,047	-0,055
-739,327	-95,211	-0,496	-0,098
-738,312	207,446	0,089	0,102
-737,298	-110,425	-0,390	-0,059
-736,283	-57,249	0,203	0,065
-735,269	-24,999	-0,416	-0,181
-734,254	281,745	0,063	0,083
-733,239	-87,508	-0,660	-0,146
-732,225	-63,552	0,257	0,077
-731,210	-88,383	0,094	0,020
-730,196	379,707	-0,152	-0,230
-729,181	-200,000	-0,005	-0,030
-728,167	505,786	0,065	-0,112
-727,152	296,847	-0,049	0,067
-726,137	22,778	-0,056	-0,034
-725,123	3,764	-0,141	0,076
-724,108	800,000	-0,045	-0,135
-723,094	-8,936	-0,150	0,074
-722,079	442,212	-0,045	-0,073
-721,064	-29,891	-0,068	-0,029
-720,050	228,310	0,006	-0,007
-719,035	-181,502	-0,111	-0,002
-718,021	-65,517	-0,076	-0,022
-717,006	-97,508	-0,092	0,017
-715,991	222,085	-0,059	0,070
-714,977	-200,000	-0,061	0,000
-713,962	296,737	0,046	-0,062
-712,948	-105,927	0,061	0,010
-711,933	213,363	0,062	0,072
-710,918	-56,025	-0,192	-0,063
-709,904	-76,240	-0,058	0,015
-708,889	84,076	0,032	-0,026
-707,875	350,928	-0,046	0,068
-706,860	48,028	0,125	-0,086
-705,845	800,000	0,051	-0,120
-704,831	73,087	0,055	0,043
-703,816	-200,000	-0,011	0,071
-702,802	89,515	0,027	-0,022
-701,787	-200,000	0,004	-0,048
-700,772	435,255	-0,031	-0,050
-699,758	-200,000	-0,033	0,136
-698,743	75,780	0,052	0,041
-697,729	-168,228	-0,036	0,001
-696,714	800,000	0,062	-0,160
-695,699	220,883	-0,101	-0,119
-694,685	800,000	0,052	-0,106
-693,670	-46,550	-0,098	-0,035
-692,656	-200,000	-0,013	-0,069
-691,641	-92,717	-0,142	-0,029
-690,627	-54,180	0,069	-0,023
-689,612	241,160	-0,048	-0,059
-688,597	308,773	-0,045	-0,062
-687,583	800,000	-0,053	-0,151
-686,568	-86,307	-0,079	-0,018
-685,554	349,730	-0,101	0,147
-684,539	124,258	0,050	-0,046
-683,524	44,605	0,124	0,084
-682,510	800,000	0,056	0,148
-681,495	86,952	-0,128	-0,104
-680,481	91,739	0,036	-0,030
-679,466	-9,734	-0,069	-0,034
-678,451	-200,000	0,024	-0,120
-677,437	246,545	0,036	0,045
-676,422	-134,062	0,084	0,008
-675,408	-61,275	-0,089	-0,028
-674,393	-30,380	-0,077	-0,032
-673,378	126,943	-0,136	-0,126
-672,364	-61,097	-0,165	-0,051
-671,349	-20,836	0,135	0,061
-670,335	-200,000	0,037	-0,172
-669,320	36,036	0,063	0,040
-668,305	-105,903	-0,117	0,019
-667,291	-200,000	0,014	0,104
-666,276	-20,162	-0,087	0,039
-665,262	178,005	-0,110	0,118
-664,247	272,991	0,079	-0,102
-663,232	-200,000	-0,031	-0,138
-662,218	5,335	0,094	-0,051
-661,203	800,000	-0,056	-0,124
-660,189	-200,000	-0,051	0,000
-659,174	312,679	-0,040	-0,056
-658,159	-153,947	-0,045	0,002
-657,145	-200,000	-0,041	-0,158
-656,130	-200,000	-0,002	-0,177
-655,116	55,184	0,057	0,040
-654,101	165,171	-0,058	0,060
-653,086	-25,909	0,036	-0,015
-652,072	-200,000	-0,029	0,128
-651,057	-70,925	-0,228	-0,063
-650,043	-200,000	-0,008	-0,033
-649,028	-92,760	0,115	-0,024
-648,014	291,607	0,052	-0,069
-646,999	282,727	-0,047	0,062
-645,984	67,887	-0,036	0,027
-644,970	374,779	0,021	-0,032
-643,955	143,925	-0,007	0,007
-642,941	-1,443	-0,052	-0,027
-641,926	66,259	0,063	-0,047
-640,911	-121,430	0,023	0,003
-639,897	-200,000	0,005	-0,073
-638,882	-90,805	-0,037	-0,008
-637,868	800,000	0,017	0,050
-636,853	-116,771	-0,109	-0,015
-635,838	-93,118	-0,046	-0,009
-634,824	-200,000	-0,017	-0,057
-633,809	286,066	-0,032	-0,043
-632,795	-91,749	-0,089	-0,018
-631,780	187,254	-0,028	-0,030
-630,765	-103,054	-0,012	-0,002
-629,751	800,000	-0,017	-0,052
-628,736	-200,000	0,042	-0,144
-627,722	186,027	0,080	-0,087
-626,707	120,440	-0,103	0,094
-625,692	-200,000	0,031	-0,114
-624,678	-130,446	0,021	0,002
-623,663	-85,006	0,024	-0,005
-622,649	-126,346	-0,073	0,008
-621,634	-200,000	-0,005	-0,035
-620,619	300,156	-0,017	0,024
-619,605	-200,000	0,012	-0,107
-618,590	-46,378	0,087	-0,031
-617,576	217,342	0,116	0,136
-616,561	-200,000	-0,008	-0,034
-615,546	-34,903	0,014	-0,006
-614,532	800,000	0,041	-0,084
-613,517	-112,557	-0,129	-0,019
-612,503	-200,000	0,004	0,130
-611,488	19,465	0,045	0,027
-610,474	203,783	0,074	0,084
-609,459	586,567	0,036	-0,064
-608,444	342,435	-0,058	-0,084
-607,430	-140,083	0,097	0,007
-606,415	303,365	-0,024	-0,033
-605,401	289,557	0,006	0,008
-604,386	800,000	-0,020	0,063
-603,371	-132,531	-0,112	0,010
-602,357	336,864	0,052	-0,074
-601,342	277,700	-0,122	-0,159
-600,328	348,003	0,065	-0,094
-599,313	-157,051	0,016	-0,001
-598,298	-124,204	-0,178	-0,020
-597,284	154,524	0,120	-0,121
-596,269	-99,085	0,051	0,009
-595,255	-75,477	0,089	0,023
-594,240	-200,000	-0,034	-0,141
-593,225	-200,000	0,027	-0,099
-592,211	-83,380	0,108	0,025
-591,196	-125,447	0,135	-0,015
-590,182	62,238	0,063	0,046
-589,167	216,161	0,072	0,084
-588,152	658,876	0,084	-0,158
-587,138	-35,748	0,065	0,026
-586,123	16,349	-0,067	-0,038
-585,109	11,314	0,102	0,057
-584,094	-200,000	0,000	0,017
-583,079	-200,000	0,017	0,093
-582,065	1,032	0,032	0,017
-581,050	800,000	-0,022	0,069
-580,036	-33,829	-0,102	-0,041
-579,021	-169,784	-0,052	0,001
-578,006	-55,561	-0,138	-0,045
-576,992	192,735	-0,013	-0,014
-575,977	-104,706	0,057	-0,010
-574,963	800,000	0,018	-0,044
-573,948	-200,000	0,005	0,082
-572,934	94,944	-0,030	0,025
-571,919	125,691	0,020	0,019
-570,904	-93,858	-0,115	0,023
-569,890	800,000	-0,019	-0,055
-568,875	-76,937	0,032	-0,008
-567,861	-200,000	-0,017	0,093
-566,846	-157,284	0,026	0,001
-565,831	748,499	0,036	0,071
-564,817	-126,836	0,056	-0,006
-563,802	54,629	-0,028	-0,020
-562,788	800,000	0,060	-0,166
-561,773	52,810	0,053	0,037
-560,758	800,000	-0,015	0,037
-559,744	-4,276	0,133	0,067
-558,729	225,600	-0,039	0,046
-557,715	59,381	0,097	0,070
-556,700	238,456	0,016	-0,019
-555,685	800,000	-0,025	-0,055
-554,671	181,757	-0,072	0,078
-553,656	47,365	0,117	0,080
-552,642	37,755	0,050	0,032
-551,627	269,041	-0,053	0,069
-550,612	47,246	-0,047	0,032
-549,598	-12,246	0,049	0,023
-548,583	800,000	0,018	0,046
-547,569	-200,000	0,008	-0,049
-546,554	9,177	0,084	-0,046
-545,539	-200,000	-0,018	-0,060
-544,525	-134,129	0,066	0,006
-543,510	34,882	-0,147	0,094
-542,496	-200,000	0,014	0,056
-541,481	31,857	0,030	-0,019
-540,466	293,996	-0,046	-0,062
-539,452	-200,000	0,027	0,119
-538,437	-31,928	-0,054	-0,022
-537,423	-200,000	0,021	0,102
-536,408	-13,529	-0,066	0,031
-535,393	-200,000	-0,039	-0,127
-534,379	279,234	-0,077	-0,101
-533,364	-100,721	-0,063	-0,011
-532,350	299,396	0,034	-0,046
-531,335	800,000	-0,059	0,122
-530,321	-121,601	-0,045	-0,005
-529,306	-76,616	-0,072	-0,018
-528,291	-67,548	-0,085	0,024
-527,277	14,542	-0,033	-0,019
-526,262	-200,000	-0,002	-0,122
-525,248	800,000	0,076	0,171
-524,233	-200,000	0,012	0,082
-523,218	169,329	0,075	0,078
-522,204	-200,000	-0,009	-0,037
-521,189	-200,000	-0,016	0,071
-520,175	21,636	0,010	-0,006
-519,160	344,709	0,090	0,130
-518,145	46,603	-0,027	0,018
-517,131	-200,000	-0,003	-0,304
-516,116	372,344	-0,023	-0,034
-515,102	-106,071	-0,041	0,007
-514,087	-200,000	-0,032	-0,133
-513,072	38,938	0,004	-0,002
-512,058	101,845	-0,024	0,020
-511,043	87,893	0,061	0,049
-510,029	-200,000	-0,020	-0,079
-509,014	-24,969	0,031	-0,013
-507,999	-200,000	-0,014	0,080
-506,985	800,000	-0,057	0,118
-505,970	518,308	-0,044	-0,075
-504,956	193,443	-0,060	0,067
-503,941	-200,000	0,017	-0,066
-502,926	-200,000	0,013	-0,099
-501,912	201,115	0,076	0,085
-500,897	-200,000	-0,014	0,079
-499,883	71,904	-0,061	-0,046
-498,868	-93,193	-0,103	-0,021
-497,853	-49,897	0,021	0,007
-496,839	-29,249	0,039	0,016
-495,824	166,308	-0,026	-0,027
-494,810	-125,369	0,094	-0,010
-493,795	800,000	-0,061	0,128
-492,781	1,324	0,045	0,023
-491,766	93,065	-0,099	-0,082
-490,751	-200,000	0,042	-0,164
-489,737	408,435	-0,046	0,071
-488,722	-48,476	0,056	-0,019
-487,708	644,210	-0,042	0,078
-486,693	-200,000	0,043	0,153
-485,678	559,352	0,021	0,037
-484,664	-15,050	-0,105	-0,049
-483,649	-200,000	0,053	-0,218
-482,635	-144,469	-0,090	0,006
-481,620	-108,160	-0,115	0,018
-480,605	-92,895	0,172	-0,035
-479,591	-52,739	-0,048	0,016
-478,576	115,756	-0,064	0,057
-477,562	156,646	0,055	0,056
-476,547	390,012	0,074	-0,113
-475,532	-195,966	-0,012	0,000
-474,518	18,592	0,118	0,069
-473,503	-200,000	-0,010	-0,059
-472,489	608,834	0,041	0,075
-471,474	180,020	-0,099	0,106
-470,459	800,000	0,006	0,018
-469,445	72,236	0,011	0,008
-468,430	-125,815	0,075	-0,008
-467,416	800,000	-0,029	-0,065
-466,401	258,166	-0,065	0,082
-465,386	-81,750	0,049	-0,012
-464,372	-158,267	-0,105	-0,004
-463,357	-119,582	0,026	-0,003
-462,343	185,460	-0,128	0,138
-461,328	-200,000	-0,018	0,060
-460,313	-110,230	-0,179	0,027
-459,299	543,671	0,041	0,072
-458,284	-200,000	-0,001	0,026
-457,270	-116,348	0,072	0,010
-456,255	512,107	-0,042	-0,071
-455,241	-71,619	-0,092	0,025
-454,226	201,231	-0,071	-0,079
-453,211	-112,161	-0,105	0,015
-452,197	77,979	0,015	0,012
-451,182	742,990	-0,029	-0,057
-450,168	425,411	-0,057	0,090
-449,153	-200,000	-0,025	-0,095
-448,138	-99,502	-0,072	0,013
-447,124	-35,531	-0,078	-0,031
-446,109	205,150	0,060	0,068
-445,095	222,730	0,045	0,053
-444,080	800,000	0,038	0,081
-443,065	-200,000	-0,015	0,069
-442,051	78,773	-0,051	0,039
-441,036	72,276	-0,056	0,043
-440,022	-200,000	-0,001	0,080
-439,007	-200,000	0,015	-0,075
-437,992	-200,000	0,030	-0,163
-436,978	-200,000	0,011	0,076
-435,963	-200,000	-0,011	-0,040
-434,949	-96,424	-0,103	-0,020
-433,934	345,101	0,106	-0,152
-432,919	-64,802	-0,052	-0,015
-431,905	-70,835	-0,091	-0,025
-430,890	548,958	0,069	0,121
-429,876	673,176	0,016	0,031
-428,861	700,113	-0,045	-0,087
-427,846	310,385	-0,051	0,069
-426,832	741,392	-0,064	-0,127
-425,817	176,531	-0,100	-0,106
-424,803	-134,809	0,029	0,003
-423,788	325,533	0,067	0,094
-422,773	-7,054	-0,057	0,028
-421,759	4,197	-0,055	-0,029
-420,744	-123,588	-0,005	-0,001
-419,730	-200,000	-0,026	-0,090
-418,715	-99,655	-0,131	-0,024
-417,701	156,726	0,057	-0,057
-416,686	217,897	-0,129	0,150
-415,671	9,135	0,116	0,064
-414,657	143,488	-0,019	0,019
-413,642	323,165	-0,043	-0,059
-412,628	-200,000	0,020	0,081
-411,613	-200,000	-0,024	-0,172
-410,598	245,342	-0,049	-0,060
-409,584	144,159	0,086	-0,083
-408,569	-200,000	0,007	0,078
-407,555	531,088	0,114	0,197
-406,540	-200,000	0,008	0,110
-405,525	-153,041	-0,134	0,007
-404,511	-56,939	0,065	0,021
-403,496	-125,391	-0,173	0,019
-402,482	274,867	0,036	0,046
-401,467	223,632	0,101	0,119
-400,452	-59,631	0,109	0,034
-399,438	120,465	-0,052	0,047
-398,423	-86,853	0,089	-0,020
-397,409	-108,423	-0,117	0,018
-396,394	-200,000	0,019	0,081
-395,379	800,000	0,029	-0,060
-394,365	800,000	0,036	0,098
-393,350	800,000	-0,061	0,133
-392,336	800,000	-0,049	-0,116
-391,321	415,445	-0,070	-0,109
-390,306	148,532	-0,009	-0,009
-389,292	189,086	-0,078	-0,085
-388,277	-189,310	-0,045	-0,000
-387,263	-200,000	-0,038	-0,159
-386,248	-127,576	0,048	0,005
-385,233	-27,949	-0,050	0,021
-384,219	-13,078	0,076	0,036
-383,204	800,000	0,050	-0,137
-382,190	-24,190	-0,049	-0,021
-381,175	-140,102	-0,094	-0,007
-380,160	-200,000	0,002	-0,067
-379,146	-83,872	0,111	0,025
-378,131	-17,657	-0,138	-0,063
-377,117	158,995	-0,065	0,066
-376,102	148,949	-0,009	-0,009
-375,088	-84,495	0,010	0,002
-374,073	-200,000	-0,017	0,062
-373,058	87,078	0,112	0,090
-372,044	-27,409	0,083	0,035
-371,029	-68,649	0,069	-0,019
-370,015	107,057	-0,104	0,089
-369,000	78,207	0,063	-0,049
-367,985	168,646	0,081	0,084
-366,971	-200,000	-0,001	0,072
-365,956	-177,773	0,281	0,005
-364,942	-200,000	-0,028	0,090
-363,927	424,780	0,022	0,035
-362,912	-200,000	0,014	-0,063
-361,898	-55,818	-0,071	0,023
-360,883	-113,659	0,056	0,008
-359,869	-95,110	0,093	0,018
-358,854	34,725	-0,066	-0,042
-357,839	-200,000	0,018	0,087
-356,825	-200,000	-0,002	0,038
-355,810	-99,769	0,073	0,013
-354,796	192,728	0,016	-0,017
-353,781	-7,276	-0,050	0,024
-352,766	-200,000	0,032	-0,136
-351,752	571,092	0,080	0,142
-350,737	-200,000	0,007	0,075
-349,723	-105,003	0,172	0,028
-348,708	800,000	-0,046	-0,121
-347,693	-111,692	-0,047	-0,007
-346,679	27,419	-0,064	-0,039
-345,664	-163,872	0,112	0,004
-344,650	-61,523	0,170	0,052
-343,635	-28,368	-0,030	-0,012
-342,620	-200,000	0,001	-0,083
-341,606	405,798	-0,124	0,190
-340,591	34,931	0,044	-0,028
-339,577	-55,149	-0,063	0,020
-338,562	800,000	0,010	-0,023
-337,548	562,552	-0,060	-0,106
-336,533	599,586	-0,009	0,016
-335,518	388,848	0,041	0,062
-334,504	-105,026	0,091	0,015
-333,489	-102,500	0,052	0,009
-332,475	349,594	0,074	-0,106
-331,460	-7,348	-0,042	-0,021
-330,445	491,517	-0,021	0,035
-329,431	144,529	-0,048	-0,046
-328,416	800,000	-0,009	-0,022
-327,402	-200,000	0,005	-0,172
-326,387	-97,842	0,031	-0,006
-325,372	24,064	-0,041	-0,024
-324,358	-159,982	-0,047	-0,002
-323,343	184,491	0,084	0,091
-322,329	52,069	0,085	0,058
-321,314	-72,219	0,179	0,048
-320,299	-121,603	-0,146	0,017
-319,285	-79,478	-0,027	0,007
-318,270	-200,000	-0,031	-0,128
-317,256	-200,000	0,010	-0,058
-316,241	148,814	0,060	-0,059
-315,226	256,687	0,060	0,075
-314,212	-200,000	-0,030	-0,096
-313,197	3,406	0,124	0,065
-312,183	-149,888	-0,180	-0,010
-311,168	534,593	0,085	-0,146
-310,153	13,503	-0,173	0,097
-309,139	36,061	0,093	-0,059
-308,124	-61,051	0,071	0,022
-307,110	89,395	0,055	-0,045
-306,095	-16,588	0,053	0,024
-305,080	-118,014	-0,083	0,011
-304,066	26,734	0,006	-0,004
-303,051	24,798	-0,074	0,044
-302,037	113,494	-0,111	-0,098
-301,022	13,330	-0,046	-0,026
-300,008	207,439	0,059	0,067
-298,993	121,315	0,099	0,090
-297,978	-35,433	0,071	-0,028
-296,964	404,182	0,051	-0,079
-295,949	800,000	0,051	-0,115
-294,935	-200,000	0,001	0,062
-293,920	-23,362	0,102	-0,044
-292,905	299,251	0,034	-0,046
-291,891	-200,000	-0,033	0,135
-290,876	-110,089	-0,030	-0,004
-289,862	26,960	-0,040	0,024
-288,847	-72,911	0,090	0,024
-287,832	-78,203	-0,163	-0,040
-286,818	-200,000	-0,031	-0,112
-285,803	800,000	0,006	-0,013
-284,789	800,000	0,017	0,041
-283,774	-200,000	0,009	0,078
-282,759	-137,293	-0,022	0,002
-281,745	-156,037	-0,132	0,006
-280,730	22,856	-0,096	-0,057
-279,716	-200,000	-0,005	-0,088
-278,701	-200,000	-0,007	-0,031
-277,686	-191,874	0,075	-0,001
-276,672	-200,000	0,000	0,054
-275,657	-89,253	-0,156	0,033
-274,643	-110,277	0,024	0,004
-273,628	-44,620	-0,036	-0,013
-272,613	240,102	-0,044	0,054
-271,599	-200,000	0,033	0,180
-270,584	411,732	0,027	0,041
-269,570	99,581	0,060	0,050
-268,555	143,921	-0,042	0,040
-267,540	63,109	0,105	0,076
-266,526	-75,216	0,011	-0,003
-265,511	114,600	0,156	0,137
-264,497	86,389	0,077	-0,061
-263,482	-136,747	0,061	0,005
-262,467	800,000	-0,018	-0,047
-261,453	431,255	-0,035	-0,055
-260,438	191,797	0,067	-0,074
-259,424	95,309	-0,072	-0,060
-258,409	-19,956	0,089	-0,040
-257,395	800,000	0,097	-0,213
-256,380	580,461	0,043	0,076
-255,365	-200,000	-0,020	0,101
-254,351	-33,475	0,089	0,036
-253,336	90,690	0,109	-0,088
-252,322	-118,160	-0,064	-0,008
-251,307	110,562	0,041	-0,036
-250,292	-17,605	-0,081	0,037
-249,278	800,000	-0,013	0,028
-248,263	373,290	-0,069	0,101
-247,249	800,000	-0,015	0,041
-246,234	-160,716	-0,073	0,003
-245,219	292,313	0,023	-0,031
-244,205	-200,000	0,026	-0,222
-243,190	-63,161	0,133	-0,039
-242,176	-35,437	0,040	0,016
-241,161	-200,000	0,040	-0,150
-240,146	800,000	-0,035	-0,107
-239,132	-200,000	-0,003	0,127
-238,117	-140,989	0,058	0,004
-237,103	-200,000	-0,027	-0,164
-236,088	153,900	0,047	0,046
-235,073	164,092	0,045	0,046
-234,059	12,543	-0,041	-0,023
-233,044	-49,124	0,029	0,010
-232,030	123,129	-0,031	-0,028
-231,015	-200,000	-0,047	0,172
-230,000	-112,160	-0,027	-0,004
-228,986	-36,658	0,120	-0,047
-227,971	169,243	0,061	0,063
-226,957	-140,640	0,213	0,016
-225,942	-200,000	0,016	-0,078
-224,927	145,016	0,026	0,026
-223,913	176,012	0,105	-0,110
-222,898	193,980	0,082	0,090
-221,884	26,855	0,064	0,039
-220,869	-200,000	-0,017	-0,109
-219,855	113,583	0,045	-0,039
-218,840	-200,000	-0,014	0,059
-217,825	-50,088	-0,051	0,017
-216,811	-161,403	-0,156	-0,006
-215,796	71,427	-0,078	-0,059
-214,782	-38,390	-0,167	-0,063
-213,767	-13,729	0,090	-0,042
-212,752	205,919	0,027	0,030
-211,738	108,485	0,025	0,021
-210,723	90,905	0,102	0,083
-209,709	0,296	0,039	0,020
-208,694	392,490	0,021	0,032
-207,679	713,324	-0,056	-0,107
-206,665	-78,120	-0,099	0,024
-205,650	-200,000	-0,014	0,062
-204,636	289,856	-0,039	-0,051
-203,621	-200,000	-0,006	0,072
-202,606	755,661	-0,047	-0,093
-201,592	-98,126	-0,109	0,020
-200,577	50,984	-0,038	0,026
-199,563	-200,000	0,035	-0,180
-198,548	-26,319	-0,157	0,066
-197,533	-169,273	0,151	-0,004
-196,519	88,688	0,066	-0,053
-195,504	-126,794	-0,163	0,017
-194,490	-200,000	-0,017	0,073
-193,475	177,503	-0,077	-0,081
-192,460	800,000	0,026	-0,082
-191,446	-200,000	0,001	0,021
-190,431	-200,000	-0,022	-0,105
-189,417	5,928	0,041	-0,022
-188,402	-106,950	-0,034	0,005
-187,387	-168,923	-0,182	0,005
-186,373	-200,000	0,012	0,154
-185,358	800,000	0,031	-0,094
-184,344	-139,430	0,091	0,007
-183,329	-189,610	-0,060	-0,000
-182,315	424,765	0,099	-0,154
-181,300	380,654	0,046	-0,069
-180,285	204,075	-0,117	0,131
-179,271	-41,737	-0,068	-0,025
-178,256	482,999	-0,014	-0,022
-177,242	-200,000	0,031	0,126
-176,227	800,000	-0,045	0,133
-175,212	-200,000	0,017	0,182
-174,198	-71,539	-0,133	0,036
-173,183	363,421	-0,032	-0,047
-172,169	209,575	0,048	-0,054
-171,154	130,512	0,021	0,019
-170,139	283,936	-0,087	0,113
-169,125	800,000	-0,089	0,191
-168,110	-162,429	-0,062	0,002
-167,096	-200,000	-0,013	0,060
-166,081	800,000	0,041	-0,099
-165,066	-98,819	-0,151	-0,027
-164,052	800,000	0,037	-0,078
-163,037	-200,000	0,023	0,080
-162,023	-134,785	0,118	0,010
-161,008	654,335	-0,034	0,064
-159,993	-200,000	-0,031	0,116
-158,979	-158,841	-0,063	0,003
-157,964	114,125	0,063	-0,055
-156,950	209,486	-0,053	-0,060
-155,935	-200,000	0,029	-0,134
-154,920	-100,498	0,089	0,016
-153,906	-45,390	0,183	0,065
-152,891	800,000	-0,029	0,064
-151,877	5,482	-0,121	-0,064
-150,862	-200,000	0,001	-0,018
-149,847	800,000	0,020	0,041
-148,833	237,930	0,049	0,058
-147,818	-68,196	0,051	0,014
-146,804	-200,000	0,002	-0,092
-145,789	247,713	-0,089	-0,108
-144,775	-200,000	0,010	-0,079
-143,760	317,166	-0,051	0,070
-142,745	800,000	-0,028	0,079
-141,731	234,752	-0,028	-0,034
-140,716	280,222	-0,073	0,094
-139,702	130,076	0,079	0,073
-138,687	-200,000	0,010	0,054
-137,672	404,878	-0,018	0,028
-136,658	-84,295	-0,190	0,043
-135,643	217,187	-0,018	0,021
-134,629	59,345	0,127	-0,090
-133,614	-200,000	-0,004	-0,124
-132,599	655,045	-0,037	0,069
-131,585	103,386	-0,037	-0,031
-130,570	-200,000	-0,015	-0,088
-129,556	63,752	-0,160	-0,115
-128,541	-17,421	-0,142	-0,064
-127,526	-44,011	-0,042	-0,015
-126,512	-83,403	-0,240	-0,055
-125,497	48,956	0,211	0,143
-124,483	70,075	-0,044	-0,032
-123,468	-26,630	0,145	-0,061
-122,453	-150,518	-0,101	0,005
-121,439	52,047	0,132	-0,090
-120,424	-91,959	0,119	0,024
-119,410	-200,000	0,004	0,021
