DTS Sentinel unit serial number:	SN410029Multiplexer serial number:	ORYXHardware model number:	OX2-SRSoftware version number:	ORYX F/W v4,00 Oryx Data Collector v3.7.2.0data status	okinstallation	B5 Nyhavnadifferential loss correction	single-endedforward channel	channel 2reverse channel	N/Adate	2023/12/13time	02:37:13forward acquisition time	300,00reverse acquisition time	0,00gamma	499,1914k internal	0,3160k external	0,3160temperature offset calibration	1,0000default loss term (dB/km)	0,3820temperature slope calibration	1,0000multiplexer offset coefficient	1,0000multiplexer slope coefficient	1,0000fibre end	0,00T internal ref (°C)	14,00T ext. ref 1 (°C)	-2,46T ext. ref 2 (°C)	-2,78length (m)	temperature (°C)	Stokes	anti-Stokes-744,400	-149,696	0,017	-0,001
-743,385	-39,255	-0,283	0,109
-742,371	-75,914	0,117	-0,030
-741,356	-176,661	-0,149	-0,003
-740,342	-51,798	0,132	0,045
-739,327	-24,547	-0,217	0,095
-738,312	-146,196	0,075	-0,005
-737,298	-158,924	-0,327	0,013
-736,283	763,194	0,065	0,131
-735,269	46,918	-0,209	-0,143
-734,254	88,178	0,080	0,065
-733,239	94,871	-0,373	-0,313
-732,225	-8,520	0,190	0,094
-731,210	800,000	-0,068	0,190
-730,196	54,189	-0,099	0,070
-729,181	-200,000	-0,040	0,157
-728,167	280,753	-0,021	-0,027
-727,152	275,937	-0,066	0,087
-726,137	800,000	-0,049	0,143
-725,123	-85,805	0,050	-0,011
-724,108	-200,000	0,000	0,002
-723,094	-19,616	-0,084	-0,038
-722,079	-135,868	-0,162	-0,014
-721,064	195,957	0,076	-0,085
-720,050	-64,273	-0,076	0,023
-719,035	-200,000	-0,007	-0,074
-718,021	-48,807	-0,058	-0,020
-717,006	36,562	-0,143	0,092
-715,991	-200,000	0,005	-0,137
-714,977	202,309	-0,007	-0,008
-713,962	-20,865	-0,151	0,068
-712,948	-63,128	0,025	-0,007
-711,933	-160,969	-0,046	-0,002
-710,918	-113,779	0,184	-0,026
-709,904	800,000	-0,036	-0,077
-708,889	580,852	0,011	-0,019
-707,875	54,270	0,115	-0,081
-706,860	25,322	-0,190	-0,116
-705,845	-50,266	0,066	0,023
-704,831	86,202	0,126	0,102
-703,816	-200,000	0,003	-0,082
-702,802	-185,639	0,065	-0,001
-701,787	-200,000	-0,010	-0,046
-700,772	-200,000	-0,004	0,024
-699,758	-189,513	-0,146	-0,001
-698,743	-36,638	-0,117	0,046
-697,729	-200,000	0,005	-0,120
-696,714	800,000	-0,038	-0,092
-695,699	-200,000	-0,003	-0,126
-694,685	128,279	-0,125	-0,117
-693,670	-22,755	0,129	-0,057
-692,656	-200,000	0,019	0,112
-691,641	-200,000	0,027	-0,103
-690,627	-104,598	-0,129	0,022
-689,612	439,478	0,032	0,051
-688,597	35,362	-0,049	-0,032
-687,583	800,000	-0,038	0,123
-686,568	45,635	0,084	0,057
-685,554	200,781	0,047	-0,054
-684,539	540,938	-0,066	-0,116
-683,524	50,374	-0,112	-0,078
-682,510	800,000	-0,018	0,047
-681,495	-44,014	-0,127	-0,047
-680,481	800,000	-0,046	-0,116
-679,466	95,740	-0,151	-0,126
-678,451	331,783	-0,043	-0,062
-677,437	91,139	0,081	0,067
-676,422	-200,000	0,019	-0,062
-675,408	250,626	-0,056	-0,070
-674,393	800,000	-0,024	-0,074
-673,378	-67,535	-0,091	0,026
-672,364	76,427	-0,061	-0,047
-671,349	-111,035	-0,050	-0,007
-670,335	-35,329	0,049	0,019
-669,320	594,123	0,069	0,126
-668,305	-59,252	-0,044	0,014
-667,291	-76,420	0,113	0,029
-666,276	-200,000	0,001	-0,105
-665,262	385,283	0,074	-0,113
-664,247	30,086	0,061	-0,038
-663,232	213,114	-0,013	0,016
-662,218	-108,984	-0,133	-0,021
-661,203	554,775	-0,072	-0,129
-660,189	800,000	-0,045	0,115
-659,174	-200,000	-0,001	0,081
-658,159	-17,193	-0,117	-0,054
-657,145	76,949	-0,058	-0,045
-656,130	-87,304	0,069	0,015
-655,116	800,000	-0,039	0,093
-654,101	-200,000	-0,027	0,170
-653,086	-200,000	-0,004	-0,017
-652,072	-148,487	-0,107	0,006
-651,057	-45,662	-0,085	0,031
-650,043	-200,000	0,001	-0,116
-649,028	-90,641	0,060	0,013
-648,014	-83,886	0,059	0,014
-646,999	-200,000	0,015	-0,065
-645,984	595,370	-0,038	0,069
-644,970	-200,000	0,029	0,097
-643,955	-200,000	-0,023	-0,153
-642,941	682,499	-0,042	-0,081
-641,926	-200,000	0,014	0,099
-640,911	-92,710	0,010	0,002
-639,897	779,649	0,049	0,099
-638,882	800,000	0,021	-0,064
-637,868	9,918	-0,097	0,054
-636,853	369,567	-0,075	-0,111
-635,838	12,766	0,051	-0,029
-634,824	694,846	0,028	-0,055
-633,809	-100,008	0,048	-0,009
-632,795	-200,000	-0,013	0,051
-631,780	222,742	-0,011	0,013
-630,765	-200,000	0,043	-0,169
-629,751	586,977	-0,099	-0,179
-628,736	414,046	-0,117	-0,183
-627,722	369,923	-0,081	-0,121
-626,707	-131,520	0,137	0,013
-625,692	135,446	0,131	0,125
-624,678	-200,000	0,016	0,084
-623,663	-11,239	0,058	0,028
-622,649	800,000	-0,006	0,018
-621,634	57,393	-0,050	-0,036
-620,619	-152,401	0,058	0,003
-619,605	596,124	-0,029	0,053
-618,590	-200,000	-0,005	0,067
-617,576	74,205	-0,105	0,080
-616,561	-117,801	-0,075	-0,010
-615,546	240,837	0,020	0,024
-614,532	-200,000	0,019	-0,100
-613,517	-120,962	-0,083	0,010
-612,503	93,290	-0,031	-0,025
-611,488	-200,000	0,012	-0,110
-610,474	93,516	-0,045	-0,037
-609,459	-200,000	0,016	0,175
-608,444	-9,447	-0,134	-0,065
-607,430	206,077	0,083	-0,095
-606,415	193,477	-0,071	-0,079
-605,401	-123,308	-0,057	0,007
-604,386	-200,000	0,015	0,063
-603,371	800,000	0,035	-0,101
-602,357	138,386	0,058	0,055
-601,342	-81,734	-0,040	-0,009
-600,328	-64,948	-0,128	0,038
-599,313	-10,277	-0,027	0,013
-598,298	-200,000	0,023	0,090
-597,284	800,000	0,009	0,021
-596,269	-93,862	0,019	0,004
-595,255	675,247	-0,033	0,063
-594,240	199,240	-0,057	0,064
-593,225	160,172	0,037	0,038
-592,211	-64,808	-0,143	-0,042
-591,196	1,080	0,011	-0,006
-590,182	-200,000	0,019	0,062
-589,167	263,895	0,060	0,077
-588,152	357,089	-0,042	-0,062
-587,138	219,794	0,049	0,057
-586,123	800,000	-0,079	-0,175
-585,109	187,355	-0,075	-0,081
-584,094	-200,000	-0,035	-0,177
-583,079	89,301	-0,038	-0,031
-582,065	-200,000	-0,005	0,139
-581,050	303,888	-0,067	0,092
-580,036	78,345	0,109	-0,085
-579,021	49,273	-0,095	-0,066
-578,006	291,787	0,026	-0,035
-576,992	11,016	0,146	-0,082
-575,977	-200,000	0,005	0,053
-574,963	-176,972	0,093	-0,002
-573,948	248,322	0,060	0,075
-572,934	-22,191	-0,093	0,041
-571,919	474,406	0,055	0,092
-570,904	414,230	-0,045	-0,070
-569,890	41,541	-0,034	-0,022
-568,875	-14,324	0,071	0,033
-567,861	-200,000	0,002	-0,039
-566,846	800,000	-0,008	0,018
-565,831	-129,341	-0,005	-0,000
-564,817	-102,956	0,149	-0,026
-563,802	470,791	-0,034	-0,055
-562,788	325,841	-0,067	-0,094
-561,773	90,786	-0,057	-0,046
-560,758	775,391	-0,043	-0,085
-559,744	278,071	0,004	-0,006
-558,729	-12,768	-0,060	0,028
-557,715	36,548	0,063	-0,040
-556,700	117,733	-0,022	-0,020
-555,685	538,671	-0,063	0,110
-554,671	-200,000	-0,005	0,155
-553,656	121,068	0,044	0,040
-552,642	127,563	0,063	-0,059
-551,627	-200,000	-0,005	-0,069
-550,612	-200,000	-0,029	-0,105
-549,598	-200,000	-0,072	-0,000
-548,583	-200,000	-0,004	0,118
-547,569	170,477	0,054	-0,057
-546,554	111,262	-0,041	0,036
-545,539	-105,491	-0,044	-0,007
-544,525	-98,013	0,139	-0,026
-543,510	-14,324	-0,099	-0,046
-542,496	-160,508	-0,027	-0,001
-541,481	-0,375	-0,081	-0,042
-540,466	357,705	-0,101	0,148
-539,452	55,818	-0,089	0,063
-538,437	737,846	0,041	0,080
-537,423	173,679	0,035	-0,037
-536,408	-87,168	-0,150	-0,033
-535,393	800,000	0,038	-0,123
-534,379	-200,000	-0,016	-0,065
-533,364	-200,000	0,010	0,040
-532,350	-200,000	0,019	0,182
-531,335	800,000	-0,034	-0,105
-530,321	50,650	0,051	0,035
-529,306	303,677	0,068	-0,092
-528,291	682,894	-0,023	-0,044
-527,277	-54,402	-0,047	0,016
-526,262	97,211	-0,101	-0,085
-525,248	146,719	0,098	-0,096
-524,233	-123,990	0,091	-0,010
-523,218	79,421	-0,062	0,048
-522,204	231,962	-0,087	-0,104
-521,189	-55,890	0,037	-0,012
-520,175	488,870	-0,033	-0,055
-519,160	69,727	0,092	0,069
-518,145	800,000	-0,041	-0,101
-517,131	-200,000	0,014	0,123
-516,116	-200,000	0,004	0,056
-515,102	-139,766	0,121	0,009
-514,087	800,000	-0,021	-0,056
-513,072	-200,000	-0,040	-0,149
-512,058	-200,000	0,004	-0,145
-511,043	-200,000	-0,015	-0,112
-510,029	72,936	0,077	-0,059
-509,014	800,000	0,011	-0,027
-507,999	-3,591	-0,037	0,019
-506,985	92,806	0,085	-0,070
-505,970	414,886	0,011	-0,017
-504,956	-28,456	-0,162	-0,068
-503,941	-200,000	-0,002	0,006
-502,926	-125,310	0,183	-0,020
-501,912	-200,000	0,014	0,089
-500,897	-100,510	-0,025	0,005
-499,883	18,182	0,160	0,093
-498,868	800,000	-0,017	0,045
-497,853	607,659	-0,037	-0,067
-496,839	-133,788	-0,023	0,002
-495,824	-2,014	0,093	0,047
-494,810	-124,643	-0,066	0,007
-493,795	11,988	-0,148	-0,083
-492,781	800,000	0,075	-0,153
-491,766	386,072	-0,006	0,008
-490,751	-200,000	-0,008	0,172
-489,737	-63,508	-0,061	0,018
-488,722	800,000	0,029	0,083
-487,708	139,400	0,018	0,017
-486,693	13,909	-0,070	0,040
-485,678	-200,000	-0,011	-0,097
-484,664	-200,000	0,017	-0,086
-483,649	195,481	0,014	0,016
-482,635	-86,096	-0,150	-0,033
-481,620	-200,000	0,027	-0,135
-480,605	-45,719	-0,058	-0,021
-479,591	800,000	0,035	0,104
-478,576	-148,740	0,027	0,002
-477,562	800,000	-0,023	-0,066
-476,547	-72,466	0,057	0,015
-475,532	-71,137	-0,009	-0,002
-474,518	-119,980	0,182	0,023
-473,503	-92,227	0,059	0,012
-472,489	312,638	0,088	0,121
-471,474	340,590	-0,063	-0,090
-470,459	91,193	-0,028	0,023
-469,445	-200,000	0,022	0,127
-468,430	-200,000	-0,005	-0,130
-467,416	800,000	0,018	0,048
-466,401	-200,000	-0,001	-0,113
-465,386	20,821	-0,124	0,073
-464,372	-54,683	-0,132	0,043
-463,357	-134,089	0,088	-0,008
-462,343	220,289	0,060	-0,070
-461,328	150,801	0,091	-0,091
-460,313	85,777	-0,027	0,022
-459,299	144,713	0,107	0,104
-458,284	136,411	0,080	0,076
-457,270	366,514	-0,062	0,092
-456,255	800,000	0,011	-0,023
-455,241	-200,000	0,012	0,045
-454,226	-200,000	-0,020	-0,086
-453,211	90,392	0,138	-0,113
-452,197	-68,775	0,129	-0,036
-451,182	800,000	0,031	0,086
-450,168	-56,390	0,069	-0,022
-449,153	283,789	-0,050	-0,066
-448,138	-6,358	-0,122	0,061
-447,124	-200,000	-0,002	0,058
-446,109	-120,641	0,096	-0,012
-445,095	-26,743	-0,052	0,022
-444,080	800,000	-0,031	-0,095
-443,065	-31,194	-0,027	0,011
-442,051	106,212	-0,091	-0,078
-441,036	800,000	-0,049	-0,116
-440,022	-200,000	-0,005	-0,022
-439,007	148,536	0,057	0,056
-437,992	279,387	-0,031	0,040
-436,978	54,787	0,031	0,021
-435,963	-39,777	0,080	0,030
-434,949	-96,366	-0,030	-0,006
-433,934	197,276	-0,134	-0,149
-432,919	-93,827	-0,150	-0,030
-431,905	387,386	-0,029	-0,044
-430,890	-164,646	0,169	0,005
-429,876	536,739	0,059	0,103
-428,861	367,283	-0,043	0,063
-427,846	552,158	0,043	0,076
-426,832	-200,000	0,011	0,137
-425,817	9,573	0,063	-0,035
-424,803	116,478	-0,051	0,045
-423,788	800,000	0,029	-0,075
-422,773	-200,000	-0,016	0,125
-421,759	-66,205	-0,036	0,010
-420,744	-200,000	0,070	0,000
-419,730	49,352	-0,105	-0,071
-418,715	-200,000	-0,003	-0,119
-417,701	46,323	-0,061	-0,041
-416,686	-31,951	-0,114	0,046
-415,671	202,892	0,025	-0,028
-414,657	-105,104	0,125	0,021
-413,642	229,409	0,041	0,049
-412,628	-121,361	-0,096	-0,011
-411,613	425,270	-0,074	0,117
-410,598	-200,000	-0,006	-0,047
-409,584	91,588	-0,019	0,015
-408,569	178,826	0,073	0,078
-407,555	441,557	0,038	-0,060
-406,540	-65,449	0,097	0,028
-405,525	587,390	-0,056	0,100
-404,511	-48,472	-0,202	-0,070
-403,496	800,000	-0,069	-0,174
-402,482	-112,765	-0,119	0,017
-401,467	58,572	0,093	0,066
-400,452	-129,229	0,075	0,008
-399,438	576,070	-0,038	0,068
-398,423	-11,315	0,084	0,040
-397,409	-200,000	-0,008	-0,103
-396,394	118,402	-0,051	-0,046
-395,379	800,000	0,077	0,161
-394,365	800,000	-0,024	0,071
-393,350	-200,000	0,005	0,108
-392,336	693,427	0,036	0,069
-391,321	-69,654	0,087	0,024
-390,306	38,265	-0,075	-0,049
-389,292	-95,706	-0,074	0,014
-388,277	800,000	0,038	0,104
-387,263	141,448	-0,074	0,072
-386,248	519,463	-0,071	0,121
-385,233	-74,758	0,125	0,032
-384,219	232,908	-0,035	0,042
-383,204	-164,533	0,113	0,004
-382,190	-18,026	-0,161	-0,073
-381,175	444,505	-0,022	0,035
-380,160	134,936	0,084	-0,079
-379,146	59,652	-0,020	0,014
-378,131	-34,808	-0,056	0,022
-377,117	100,721	-0,007	-0,006
-376,102	-19,006	-0,147	-0,066
-375,088	-200,000	-0,012	-0,100
-374,073	-5,068	0,113	0,056
-373,058	-200,000	0,007	0,078
-372,044	55,447	-0,020	0,014
-371,029	800,000	-0,025	0,062
-370,015	800,000	0,035	0,102
-369,000	-39,514	0,114	-0,043
-367,985	800,000	-0,054	-0,128
-366,971	-107,348	0,120	0,019
-365,956	800,000	0,077	-0,201
-364,942	-110,392	0,011	0,002
-363,927	197,325	-0,072	0,080
-362,912	205,875	-0,016	-0,018
-361,898	505,041	-0,055	0,093
-360,883	54,975	-0,128	-0,089
-359,869	-200,000	-0,002	0,068
-358,854	800,000	-0,061	-0,152
-357,839	-47,529	-0,030	0,011
-356,825	-200,000	0,009	0,093
-355,810	481,466	0,051	0,084
-354,796	-200,000	-0,004	0,078
-353,781	-152,926	-0,091	-0,005
-352,766	-200,000	-0,008	-0,090
-351,752	93,319	0,085	0,070
-350,737	-200,000	0,014	0,058
-349,723	-200,000	0,012	-0,087
-348,708	-200,000	0,010	0,099
-347,693	800,000	0,028	0,079
-346,679	23,907	0,172	-0,103
-345,664	150,997	-0,055	-0,054
-344,650	110,436	-0,008	0,007
-343,635	-23,950	0,096	0,042
-342,620	19,391	0,018	-0,010
-341,606	800,000	-0,043	0,121
-340,591	164,646	0,053	0,054
-339,577	-55,952	0,066	0,021
-338,562	-200,000	-0,008	-0,030
-337,548	800,000	-0,015	-0,033
-336,533	543,734	-0,095	0,165
-335,518	800,000	-0,070	0,176
-334,504	1,881	0,082	-0,043
-333,489	77,831	0,033	-0,025
-332,475	304,883	0,068	-0,091
-331,460	800,000	-0,055	-0,114
-330,445	-200,000	-0,010	-0,068
-329,431	-133,879	0,065	-0,006
-328,416	800,000	0,026	-0,069
-327,402	-96,378	0,112	-0,021
-326,387	-27,041	-0,100	-0,042
-325,372	40,206	-0,129	0,084
-324,358	497,118	0,042	0,071
-323,343	-85,373	-0,008	-0,002
-322,329	134,446	0,125	0,118
-321,314	267,319	-0,013	0,017
-320,299	-108,731	0,041	0,006
-319,285	223,185	0,015	0,017
-318,270	-18,184	-0,009	-0,004
-317,256	61,795	0,097	0,070
-316,241	-200,000	-0,016	-0,072
-315,226	-174,550	0,072	-0,001
-314,212	-200,000	0,053	0,175
-313,197	554,414	0,012	0,022
-312,183	800,000	0,020	-0,061
-311,168	-200,000	-0,032	-0,140
-310,153	800,000	0,013	0,034
-309,139	-200,000	0,003	-0,081
-308,124	-200,000	-0,011	0,084
-307,110	214,466	0,088	-0,101
-306,095	-67,909	-0,128	0,036
-305,080	310,120	0,023	0,032
-304,066	-129,055	-0,042	0,004
-303,051	51,353	-0,046	-0,032
-302,037	-95,359	0,120	0,023
-301,022	-200,000	-0,006	0,100
-300,008	40,304	0,136	0,089
-298,993	168,664	0,081	0,083
-297,978	577,578	0,097	0,172
-296,964	363,963	-0,058	-0,085
-295,949	170,577	-0,073	-0,075
-294,935	-121,983	-0,045	0,005
-293,920	800,000	-0,021	-0,061
-292,905	800,000	0,024	0,062
-291,891	-149,993	0,077	0,004
-290,876	-200,000	0,039	0,124
-289,862	74,991	-0,043	0,033
-288,847	-111,958	-0,014	-0,002
-287,832	-200,000	0,004	0,147
-286,818	-200,000	0,001	-0,006
-285,803	-200,000	-0,009	0,041
-284,789	137,914	0,108	0,103
-283,774	-72,804	-0,010	0,003
-282,759	242,228	0,019	-0,023
-281,745	-50,743	-0,047	-0,016
-280,730	534,294	-0,033	-0,057
-279,716	800,000	-0,025	0,071
-278,701	48,771	0,075	0,050
-277,686	-174,104	-0,064	-0,001
-276,672	125,512	-0,063	0,057
-275,657	219,329	-0,014	0,016
-274,643	288,060	-0,084	0,111
-273,628	163,802	0,080	-0,081
-272,613	-29,975	0,040	0,016
-271,599	507,374	0,049	0,082
-270,584	74,245	-0,128	0,097
-269,570	800,000	-0,030	0,079
-268,555	-68,046	-0,164	0,046
-267,540	199,729	-0,030	-0,033
-266,526	800,000	0,035	-0,086
-265,511	-25,427	-0,134	0,057
-264,497	-200,000	0,018	0,072
-263,482	-77,862	0,071	0,018
-262,467	-133,281	0,081	-0,007
-261,453	-104,929	-0,135	-0,022
-260,438	561,741	-0,035	-0,061
-259,424	7,940	-0,086	-0,047
-258,409	143,477	0,066	-0,064
-257,395	-180,402	-0,153	0,002
-256,380	166,046	0,056	-0,057
-255,365	-200,000	0,017	0,058
-254,351	107,903	-0,152	-0,131
-253,336	-200,000	-0,004	0,022
-252,322	17,569	0,087	-0,050
-251,307	800,000	0,057	0,130
-250,292	800,000	0,051	-0,115
-249,278	800,000	0,043	0,132
-248,263	14,616	0,030	0,017
-247,249	-47,100	0,034	0,012
-246,234	25,332	0,035	0,021
-245,219	90,797	0,104	0,085
-244,205	58,847	-0,059	0,042
-243,190	-79,720	0,214	0,052
-242,176	-103,899	0,088	-0,015
-241,161	155,252	-0,101	0,101
-240,146	-164,024	-0,110	-0,004
-239,132	109,024	-0,128	0,111
-238,117	68,237	-0,059	-0,044
-237,103	297,982	-0,118	-0,157
-236,088	-200,000	-0,012	-0,139
-235,073	-200,000	-0,014	0,109
-234,059	800,000	0,069	0,156
-233,044	-78,257	0,094	-0,023
-232,030	33,797	-0,040	-0,025
-231,015	-124,746	-0,009	0,001
-230,000	209,344	-0,162	-0,184
-228,986	-3,168	0,125	-0,063
-227,971	-200,000	0,001	0,095
-226,957	-108,918	0,070	-0,011
-225,942	-32,196	0,049	0,020
-224,927	-200,000	-0,005	0,060
-223,913	-200,000	0,027	-0,102
-222,898	-200,000	-0,004	-0,118
-221,884	60,336	0,060	0,043
-220,869	-200,000	0,001	0,004
-219,855	800,000	-0,085	-0,193
-218,840	12,980	0,100	0,056
-217,825	261,709	0,068	0,085
-216,811	-124,410	0,069	0,008
-215,796	17,778	-0,035	-0,020
-214,782	800,000	-0,034	0,107
-213,767	800,000	0,056	0,134
-212,752	-30,975	-0,110	0,045
-211,738	-32,668	0,106	0,042
-210,723	381,167	-0,052	-0,078
-209,709	-200,000	-0,010	-0,068
-208,694	0,668	-0,195	-0,100
-207,679	-200,000	-0,001	-0,143
-206,665	9,973	0,092	-0,050
-205,650	330,475	0,011	0,015
-204,636	427,883	-0,076	0,119
-203,621	-200,000	0,046	-0,168
-202,606	-27,846	-0,147	-0,061
-201,592	162,057	-0,119	0,120
-200,577	-200,000	0,021	-0,129
-199,563	800,000	0,014	-0,036
-198,548	-75,244	0,094	-0,024
-197,533	98,588	0,030	-0,025
-196,519	-108,833	-0,008	0,001
-195,504	-200,000	0,012	0,119
-194,490	205,806	-0,035	0,040
-193,475	800,000	0,042	-0,116
-192,460	-54,296	0,103	0,033
-191,446	-79,998	0,079	0,019
-190,431	-200,000	0,011	0,174
-189,417	-97,614	0,040	-0,008
-188,402	-200,000	-0,001	-0,071
-187,387	-168,088	-0,061	-0,002
-186,373	-59,376	-0,154	-0,048
-185,358	423,812	0,044	-0,069
-184,344	154,204	-0,052	0,051
-183,329	25,993	-0,048	0,029
-182,315	0,627	0,052	0,027
-181,300	-138,454	0,115	0,009
-180,285	-36,364	-0,060	0,023
-179,271	-56,679	-0,056	0,018
-178,256	-200,000	0,022	-0,125
-177,242	607,453	0,040	-0,073
-176,227	-200,000	-0,001	-0,081
-175,212	23,551	0,158	0,094
-174,198	-200,000	0,005	0,090
-173,183	149,819	0,093	-0,091
-172,169	-151,979	-0,039	0,002
-171,154	-82,135	-0,075	-0,018
-170,139	-107,188	-0,030	0,005
-169,125	800,000	-0,011	-0,027
-168,110	-81,570	0,056	-0,013
-167,096	-89,596	0,116	-0,024
-166,081	-108,548	-0,014	-0,002
-165,066	-200,000	-0,008	-0,118
-164,052	285,214	-0,044	-0,057
-163,037	342,387	0,064	-0,091
-162,023	-60,660	-0,076	-0,023
-161,008	-200,000	-0,013	-0,106
-159,993	-48,451	-0,043	0,015
-158,979	-34,658	-0,085	0,033
-157,964	-97,816	0,211	0,039
-156,950	-37,792	-0,043	-0,016
-155,935	800,000	0,072	0,148
-154,920	-80,133	0,104	-0,025
-153,906	800,000	0,008	-0,026
-152,891	-48,279	-0,095	-0,033
-151,877	-22,962	0,092	-0,040
-150,862	-200,000	0,006	-0,080
-149,847	106,787	-0,033	0,028
-148,833	800,000	-0,024	-0,059
-147,818	-14,688	-0,076	-0,035
-146,804	-92,087	0,204	-0,041
-145,789	-200,000	0,010	-0,036
-144,775	-95,224	-0,090	-0,017
-143,760	-62,580	-0,076	0,023
-142,745	-172,687	-0,047	0,001
-141,731	-27,799	-0,102	-0,042
-140,716	38,757	0,084	-0,054
-139,702	800,000	0,073	0,167
-138,687	137,424	0,008	-0,008
-137,672	800,000	-0,016	0,036
-136,658	164,991	-0,075	-0,076
-135,643	92,774	0,049	-0,040
-134,629	299,762	0,080	-0,106
-133,614	607,795	0,010	-0,019
-132,599	16,478	0,150	-0,085
-131,585	-77,614	0,069	0,017
-130,570	-200,000	-0,020	0,092
-129,556	-2,063	0,092	-0,046
-128,541	75,166	-0,090	0,068
-127,526	800,000	0,041	0,110
-126,512	-200,000	-0,026	-0,194
-125,497	800,000	-0,065	-0,130
-124,483	-200,000	0,026	-0,128
-123,468	-61,841	-0,086	-0,026
-122,453	-200,000	0,008	0,087
-121,439	-200,000	0,022	-0,091
-120,424	-200,000	0,031	0,113
-119,410	-23,656	0,066	0,028
