DTS Sentinel unit serial number:	SN410029Multiplexer serial number:	ORYXHardware model number:	OX2-SRSoftware version number:	ORYX F/W v4,00 Oryx Data Collector v3.7.2.0data status	okinstallation	B5 Nyhavnadifferential loss correction	single-endedforward channel	channel 2reverse channel	N/Adate	2023/12/14time	00:42:13forward acquisition time	300,00reverse acquisition time	0,00gamma	499,1914k internal	0,3155k external	0,3155temperature offset calibration	1,0000default loss term (dB/km)	0,3820temperature slope calibration	1,0000multiplexer offset coefficient	1,0000multiplexer slope coefficient	1,0000fibre end	0,00T internal ref (°C)	8,67T ext. ref 1 (°C)	-7,23T ext. ref 2 (°C)	-7,25length (m)	temperature (°C)	Stokes	anti-Stokes-744,400	-14,345	0,136	0,064
-743,385	-94,556	-0,339	-0,067
-742,371	-6,868	0,201	0,101
-741,356	-163,693	-0,456	0,016
-740,342	199,200	0,152	0,172
-739,327	-86,852	-0,393	-0,088
-738,312	-36,000	0,214	0,085
-737,298	-93,229	-0,370	-0,075
-736,283	43,004	0,213	0,143
-735,269	-102,584	-0,424	0,074
-734,254	171,337	0,186	0,197
-733,239	51,834	-0,486	-0,340
-732,225	77,964	0,164	0,129
-731,210	39,908	-0,045	0,030
-730,196	205,793	-0,088	-0,101
-729,181	-91,885	-0,069	0,014
-728,167	800,000	-0,037	-0,083
-727,152	-47,414	-0,110	-0,039
-726,137	-166,068	-0,242	-0,007
-725,123	233,453	-0,074	-0,090
-724,108	-200,000	0,035	-0,134
-723,094	63,720	0,008	-0,006
-722,079	-200,000	-0,010	-0,065
-721,064	20,698	0,061	0,037
-720,050	-98,204	0,112	-0,021
-719,035	274,939	-0,085	0,111
-718,021	-200,000	-0,016	0,060
-717,006	-200,000	-0,001	-0,009
-715,991	771,955	-0,052	-0,105
-714,977	262,266	-0,147	0,189
-713,962	38,857	-0,027	-0,018
-712,948	-9,594	-0,052	0,026
-711,933	135,708	-0,067	-0,065
-710,918	-127,782	0,115	-0,012
-709,904	727,264	-0,031	-0,061
-708,889	32,130	0,035	-0,022
-707,875	800,000	-0,072	-0,152
-706,860	442,266	0,106	-0,171
-705,845	-99,298	0,084	0,015
-704,831	71,107	0,066	-0,050
-703,816	-44,421	-0,067	0,025
-702,802	238,065	-0,097	-0,119
-701,787	-200,000	-0,007	-0,134
-700,772	-58,519	-0,058	0,019
-699,758	-37,363	-0,059	0,023
-698,743	461,774	0,064	0,105
-697,729	-200,000	-0,016	0,137
-696,714	760,999	0,071	0,142
-695,699	25,710	0,060	0,037
-694,685	-97,848	-0,208	0,039
-693,670	698,359	0,033	0,065
-692,656	-200,000	-0,131	-0,000
-691,641	-200,000	0,046	0,000
-690,627	-200,000	0,044	0,212
-689,612	794,958	-0,029	-0,059
-688,597	24,556	0,041	0,025
-687,583	-200,000	-0,020	0,114
-686,568	571,564	-0,075	-0,136
-685,554	800,000	-0,036	-0,083
-684,539	-137,321	0,045	-0,004
-683,524	54,945	0,113	-0,080
-682,510	-120,874	0,115	0,014
-681,495	-98,697	-0,050	-0,009
-680,481	-25,031	0,100	-0,043
-679,466	1,265	-0,147	-0,078
-678,451	-50,208	-0,108	0,037
-677,437	97,947	0,025	0,021
-676,422	-200,000	0,004	-0,062
-675,408	-92,683	-0,031	-0,006
-674,393	-173,120	0,176	-0,004
-673,378	8,684	-0,146	-0,081
-672,364	233,187	-0,142	-0,172
-671,349	-22,300	0,036	0,016
-670,335	-200,000	0,002	0,007
-669,320	-124,485	-0,190	0,022
-668,305	-24,962	0,135	-0,059
-667,291	43,713	0,029	-0,020
-666,276	44,342	0,044	0,030
-665,262	-118,634	0,115	0,015
-664,247	-39,452	-0,178	-0,068
-663,232	92,950	0,109	-0,091
-662,218	-85,789	-0,116	-0,026
-661,203	-200,000	-0,029	-0,095
-660,189	-129,404	-0,096	0,010
-659,174	-28,334	0,040	0,017
-658,159	-200,000	-0,029	-0,134
-657,145	160,642	-0,043	-0,044
-656,130	-128,143	-0,130	-0,014
-655,116	-75,666	0,069	0,018
-654,101	800,000	0,035	0,110
-653,086	161,928	-0,059	-0,061
-652,072	-200,000	0,016	0,153
-651,057	26,476	-0,087	-0,053
-650,043	453,918	-0,037	-0,060
-649,028	-200,000	0,011	0,059
-648,014	48,205	0,037	0,025
-646,999	78,443	0,060	0,047
-645,984	-68,092	0,129	0,037
-644,970	2,550	0,068	-0,036
-643,955	304,785	-0,036	-0,049
-642,941	-200,000	0,009	-0,057
-641,926	240,082	-0,073	-0,090
-640,911	800,000	-0,028	-0,078
-639,897	12,979	-0,045	0,026
-638,882	160,827	-0,116	0,119
-637,868	-149,217	0,081	-0,005
-636,853	-67,144	-0,001	-0,000
-635,838	702,634	0,067	-0,131
-634,824	800,000	-0,101	-0,257
-633,809	-139,797	0,121	0,009
-632,795	-4,026	0,118	-0,060
-631,780	699,974	-0,010	-0,020
-630,765	615,695	0,012	-0,023
-629,751	231,330	-0,027	0,033
-628,736	155,308	-0,176	-0,178
-627,722	-17,488	-0,062	-0,029
-626,707	-140,541	-0,095	-0,007
-625,692	445,957	-0,026	-0,042
-624,678	20,264	-0,089	-0,053
-623,663	102,688	-0,046	0,040
-622,649	166,433	0,088	-0,091
-621,634	-200,000	0,044	-0,145
-620,619	-200,000	0,007	-0,239
-619,605	-38,614	0,030	-0,012
-618,590	194,857	-0,023	0,025
-617,576	-200,000	0,005	0,100
-616,561	-200,000	-0,044	-0,190
-615,546	-200,000	-0,011	0,040
-614,532	-64,021	0,139	-0,041
-613,517	135,841	-0,094	-0,090
-612,503	-200,000	-0,012	-0,105
-611,488	-200,000	-0,020	0,079
-610,474	-200,000	-0,026	0,144
-609,459	204,865	-0,055	-0,062
-608,444	800,000	-0,021	0,050
-607,430	760,166	0,027	-0,055
-606,415	149,107	0,088	-0,087
-605,401	-84,622	-0,032	0,007
-604,386	-100,052	0,090	-0,016
-603,371	457,737	-0,081	0,133
-602,357	40,844	0,184	-0,121
-601,342	-128,793	-0,055	-0,006
-600,328	800,000	-0,014	-0,031
-599,313	136,894	0,079	-0,076
-598,298	44,895	0,040	-0,027
-597,284	-200,000	-0,004	0,034
-596,269	800,000	0,055	-0,117
-595,255	800,000	0,078	0,174
-594,240	-200,000	0,000	-0,074
-593,225	230,239	-0,051	-0,061
-592,211	-200,000	-0,011	0,053
-591,196	-72,015	0,064	-0,017
-590,182	-61,595	-0,031	-0,009
-589,167	52,342	0,033	-0,023
-588,152	230,210	0,058	0,070
-587,138	32,884	0,047	0,030
-586,123	800,000	0,016	-0,038
-585,109	-200,000	0,000	0,073
-584,094	-200,000	-0,028	-0,160
-583,079	290,781	0,064	-0,085
-582,065	119,442	0,063	0,057
-581,050	330,426	0,026	-0,037
-580,036	484,030	-0,078	-0,131
-579,021	-200,000	-0,009	-0,135
-578,006	484,910	-0,072	-0,121
-576,992	-200,000	-0,003	0,069
-575,977	-200,000	-0,012	-0,097
-574,963	800,000	0,046	-0,097
-573,948	-70,822	0,062	0,017
-572,934	-62,075	-0,116	-0,035
-571,919	-200,000	-0,030	0,120
-570,904	-200,000	0,043	-0,199
-569,890	-200,000	0,017	-0,059
-568,875	78,424	0,053	0,041
-567,861	-46,229	0,067	0,024
-566,846	224,892	0,062	0,074
-565,831	-52,197	0,169	0,057
-564,817	800,000	-0,014	-0,030
-563,802	-200,000	0,002	0,062
-562,788	800,000	-0,009	-0,027
-561,773	54,077	0,140	-0,098
-560,758	-200,000	-0,011	0,141
-559,744	-200,000	0,004	-0,076
-558,729	281,387	0,090	-0,119
-557,715	4,664	-0,049	-0,026
-556,700	-200,000	-0,002	-0,051
-555,685	83,786	0,110	0,088
-554,671	40,545	0,036	-0,024
-553,656	800,000	-0,029	-0,059
-552,642	583,286	-0,103	0,185
-551,627	800,000	0,049	0,119
-550,612	-125,402	0,153	-0,017
-549,598	-133,169	-0,071	-0,006
-548,583	-200,000	-0,017	-0,080
-547,569	-200,000	-0,009	0,063
-546,554	465,277	0,009	-0,015
-545,539	63,299	0,038	0,028
-544,525	498,289	-0,030	0,050
-543,510	163,085	-0,069	-0,071
-542,496	-151,368	-0,137	0,007
-541,481	-66,654	-0,026	0,007
-540,466	-200,000	-0,010	-0,085
-539,452	233,694	-0,094	0,113
-538,437	43,917	0,026	-0,018
-537,423	-161,012	-0,092	0,003
-536,408	58,045	0,067	-0,048
-535,393	-39,333	-0,020	0,007
-534,379	-171,485	-0,069	-0,002
-533,364	-200,000	-0,009	-0,031
-532,350	28,985	0,109	0,067
-531,335	-42,332	0,064	0,024
-530,321	800,000	-0,008	-0,024
-529,306	-200,000	-0,008	0,071
-528,291	800,000	0,050	-0,110
-527,277	800,000	0,008	0,023
-526,262	79,552	-0,113	-0,088
-525,248	-200,000	-0,010	0,044
-524,233	800,000	0,039	-0,110
-523,218	62,679	-0,032	-0,024
-522,204	82,472	0,078	0,062
-521,189	-53,401	-0,067	-0,022
-520,175	-200,000	0,012	-0,093
-519,160	86,827	0,148	0,120
-518,145	141,845	0,041	0,039
-517,131	34,954	0,110	0,070
-516,116	19,950	0,031	0,018
-515,102	-74,218	0,102	-0,027
-514,087	259,255	-0,059	-0,075
-513,072	35,166	-0,046	-0,029
-512,058	46,601	0,135	0,092
-511,043	800,000	-0,012	0,036
-510,029	800,000	-0,028	-0,073
-509,014	-118,097	-0,111	0,014
-507,999	-200,000	-0,015	-0,193
-506,985	-200,000	-0,018	-0,079
-505,970	62,022	0,114	-0,083
-504,956	135,550	-0,058	-0,055
-503,941	219,749	-0,044	-0,052
-502,926	-200,000	0,009	-0,030
-501,912	-47,637	-0,038	-0,013
-500,897	158,969	0,090	-0,091
-499,883	30,836	-0,089	-0,055
-498,868	-200,000	0,055	-0,202
-497,853	-133,126	-0,045	0,004
-496,839	333,054	-0,072	0,102
-495,824	-99,565	0,040	0,007
-494,810	410,906	0,075	0,117
-493,795	-175,871	-0,103	-0,002
-492,781	234,994	-0,022	0,026
-491,766	-48,621	-0,045	0,016
-490,751	-92,396	-0,038	0,008
-489,737	-11,625	-0,005	0,002
-488,722	-200,000	0,002	-0,049
-487,708	576,543	-0,047	0,084
-486,693	38,067	-0,090	-0,059
-485,678	276,817	0,029	0,038
-484,664	-79,456	-0,085	-0,021
-483,649	800,000	0,007	-0,022
-482,635	436,511	-0,050	-0,080
-481,620	-200,000	0,015	0,157
-480,605	566,198	-0,047	0,084
-479,591	398,131	-0,125	0,192
-478,576	187,897	-0,038	0,041
-477,562	61,214	0,046	0,033
-476,547	45,133	-0,281	-0,189
-475,532	364,576	-0,089	-0,132
-474,518	-66,923	0,113	-0,032
-473,503	14,478	0,079	0,045
-472,489	490,197	-0,022	-0,037
-471,474	186,046	0,109	-0,119
-470,459	800,000	-0,039	0,099
-469,445	208,378	0,033	-0,038
-468,430	-200,000	0,014	-0,068
-467,416	-70,562	-0,104	0,029
-466,401	-100,111	0,059	-0,011
-465,386	-200,000	0,015	0,056
-464,372	16,353	-0,035	-0,020
-463,357	-28,340	-0,126	-0,053
-462,343	335,747	-0,052	-0,073
-461,328	361,150	-0,062	-0,091
-460,313	67,640	0,050	-0,037
-459,299	-200,000	-0,033	0,150
-458,284	-200,000	-0,014	0,135
-457,270	-84,673	0,068	0,016
-456,255	800,000	-0,029	0,087
-455,241	-200,000	-0,004	-0,049
-454,226	-144,217	-0,034	-0,002
-453,211	-200,000	-0,010	-0,072
-452,197	487,384	-0,091	0,152
-451,182	146,827	0,071	0,070
-450,168	-104,461	-0,095	0,016
-449,153	-200,000	0,011	0,094
-448,138	288,002	-0,051	0,067
-447,124	24,822	-0,100	-0,060
-446,109	149,041	0,050	0,049
-445,095	297,450	0,116	0,156
-444,080	-73,347	-0,115	0,030
-443,065	-78,938	-0,084	-0,021
-442,051	800,000	0,010	-0,020
-441,036	-118,166	0,038	0,005
-440,022	-116,750	0,114	0,015
-439,007	-200,000	-0,026	0,095
-437,992	193,372	0,037	0,041
-436,978	-200,000	0,019	0,081
-435,963	42,206	-0,099	-0,066
-434,949	89,816	-0,184	-0,150
-433,934	-123,967	-0,127	-0,014
-432,919	-89,840	-0,020	-0,004
-431,905	-18,953	-0,201	0,091
-430,890	-200,000	0,009	-0,103
-429,876	-141,845	0,051	0,004
-428,861	-200,000	0,008	0,192
-427,846	165,058	0,143	-0,147
-426,832	-190,160	-0,122	0,001
-425,817	800,000	-0,037	-0,091
-424,803	-119,717	0,144	0,018
-423,788	397,812	0,020	-0,030
-422,773	-9,637	0,119	0,058
-421,759	800,000	0,028	0,081
-420,744	-21,106	0,110	-0,049
-419,730	669,782	0,044	-0,084
-418,715	-58,002	-0,034	0,011
-417,701	-44,785	-0,038	-0,014
-416,686	800,000	0,022	0,064
-415,671	42,159	0,078	-0,052
-414,657	800,000	-0,042	0,134
-413,642	800,000	-0,023	-0,048
-412,628	-31,678	0,125	-0,051
-411,613	-67,723	-0,119	-0,034
-410,598	62,867	0,047	0,034
-409,584	-101,935	-0,215	0,037
-408,569	-139,281	0,011	-0,001
-407,555	-200,000	0,004	0,148
-406,540	-7,518	0,219	0,107
-405,525	-200,000	-0,036	-0,143
-404,511	-10,650	-0,107	-0,052
-403,496	-76,404	0,035	0,009
-402,482	103,942	0,008	0,007
-401,467	800,000	0,031	0,075
-400,452	-200,000	0,000	-0,072
-399,438	-200,000	-0,009	-0,059
-398,423	-200,000	0,003	0,036
-397,409	-200,000	0,009	0,074
-396,394	-200,000	0,013	-0,093
-395,379	-117,415	-0,114	-0,015
-394,365	-93,238	-0,026	0,005
-393,350	-200,000	-0,021	0,088
-392,336	-200,000	-0,004	0,144
-391,321	-200,000	0,000	-0,182
-390,306	186,283	0,059	-0,064
-389,292	800,000	-0,042	-0,124
-388,277	-156,437	-0,012	-0,001
-387,263	800,000	0,081	0,188
-386,248	59,651	0,117	-0,084
-385,233	-63,753	0,109	-0,032
-384,219	-200,000	-0,047	-0,188
-383,204	-200,000	-0,011	0,126
-382,190	70,794	0,130	0,098
-381,175	-200,000	-0,039	-0,137
-380,160	226,583	-0,065	-0,077
-379,146	-132,089	0,162	0,015
-378,131	-141,410	-0,012	-0,001
-377,117	-200,000	0,019	-0,061
-376,102	26,295	0,051	0,031
-375,088	-19,446	-0,163	-0,073
-374,073	800,000	0,022	0,044
-373,058	-124,113	0,143	0,016
-372,044	-123,721	-0,074	0,008
-371,029	144,170	-0,045	-0,043
-370,015	-200,000	-0,008	0,042
-369,000	-94,045	-0,109	0,022
-367,985	-16,563	-0,008	0,004
-366,971	800,000	0,021	0,056
-365,956	-45,813	-0,069	-0,025
-364,942	-200,000	-0,020	0,155
-363,927	113,402	0,160	0,141
-362,912	-200,000	0,030	-0,111
-361,898	-200,000	-0,011	-0,137
-360,883	107,344	0,115	-0,099
-359,869	-53,081	0,024	-0,008
-358,854	-200,000	0,100	0,000
-357,839	-167,747	-0,123	-0,003
-356,825	800,000	0,063	0,150
-355,810	-200,000	-0,013	0,151
-354,796	253,737	-0,090	-0,112
-353,781	-33,637	-0,142	0,057
-352,766	96,129	0,085	-0,070
-351,752	-7,002	-0,102	-0,050
-350,737	-200,000	0,026	0,118
-349,723	-200,000	0,000	0,091
-348,708	300,425	0,043	-0,058
-347,693	74,444	-0,070	-0,054
-346,679	-200,000	-0,005	-0,101
-345,664	133,261	0,057	-0,053
-344,650	-104,666	0,082	0,014
-343,635	-164,764	0,112	-0,004
-342,620	-85,141	0,068	0,015
-341,606	800,000	0,038	0,114
-340,591	-200,000	-0,014	0,257
-339,577	800,000	0,066	0,144
-338,562	77,857	0,058	-0,045
-337,548	38,677	-0,073	-0,047
-336,533	800,000	-0,044	0,094
-335,518	244,169	-0,089	-0,109
-334,504	698,260	0,043	0,083
-333,489	-200,000	-0,015	0,096
-332,475	36,508	0,117	-0,075
-331,460	800,000	-0,089	-0,220
-330,445	317,080	-0,033	-0,045
-329,431	490,874	0,081	0,135
-328,416	235,738	-0,166	0,199
-327,402	800,000	-0,060	0,175
-326,387	800,000	0,038	0,119
-325,372	1,111	0,136	0,071
-324,358	-200,000	0,000	-0,106
-323,343	-32,501	-0,079	0,032
-322,329	-37,830	0,103	0,040
-321,314	-62,091	0,060	-0,018
-320,299	-200,000	0,019	0,111
-319,285	89,378	-0,055	0,045
-318,270	-47,228	-0,121	0,042
-317,256	-29,847	-0,088	-0,036
-316,241	-200,000	0,007	-0,115
-315,226	17,126	-0,068	0,039
-314,212	164,167	-0,038	0,039
-313,197	-200,000	-0,004	0,075
-312,183	346,289	-0,073	0,105
-311,168	-200,000	0,003	-0,136
-310,153	302,094	-0,092	-0,124
-309,139	-200,000	-0,028	0,106
-308,124	-200,000	0,005	0,179
-307,110	-200,000	0,047	0,196
-306,095	29,120	0,046	0,029
-305,080	256,488	0,082	-0,103
-304,066	-49,503	0,085	-0,029
-303,051	-200,000	-0,059	0,000
-302,037	180,016	0,042	0,045
-301,022	240,274	-0,014	0,017
-300,008	-25,821	0,071	0,030
-298,993	260,174	-0,076	0,096
-297,978	800,000	-0,042	0,121
-296,964	-200,000	-0,003	-0,078
-295,949	-68,858	-0,121	0,034
-294,935	-19,438	-0,048	0,022
-293,920	800,000	0,021	-0,062
-292,905	-174,624	0,060	-0,001
-291,891	-200,000	-0,012	-0,054
-290,876	800,000	-0,059	0,120
-289,862	9,209	0,148	0,081
-288,847	126,988	0,033	-0,031
-287,832	-200,000	-0,023	-0,080
-286,818	-119,232	0,040	-0,005
-285,803	-34,973	-0,022	-0,009
-284,789	71,146	-0,073	0,055
-283,774	217,305	-0,054	0,062
-282,759	800,000	0,038	0,096
-281,745	-49,908	-0,119	-0,041
-280,730	-200,000	0,010	-0,103
-279,716	-47,863	0,045	0,016
-278,701	-147,192	0,080	-0,005
-277,686	-200,000	-0,007	0,075
-276,672	-200,000	-0,011	-0,043
-275,657	125,129	0,022	0,020
-274,643	800,000	0,031	0,077
-273,628	296,794	-0,040	-0,054
-272,613	-200,000	-0,002	0,042
-271,599	19,772	-0,067	0,039
-270,584	-1,359	0,056	-0,029
-269,570	-200,000	0,004	0,046
-268,555	-56,837	-0,060	-0,019
-267,540	564,124	-0,089	-0,157
-266,526	-200,000	0,010	-0,074
-265,511	800,000	-0,016	0,046
-264,497	-200,000	0,131	-0,000
-263,482	-110,806	0,082	-0,012
-262,467	259,728	-0,075	0,094
-261,453	599,498	-0,031	0,056
-260,438	-92,496	0,028	0,006
-259,424	800,000	0,026	-0,076
-258,409	-200,000	0,001	0,046
-257,395	800,000	0,055	0,120
-256,380	800,000	-0,023	-0,069
-255,365	-34,687	0,030	0,012
-254,351	92,878	-0,073	0,059
-253,336	-148,487	-0,148	0,009
-252,322	-23,952	0,127	-0,055
-251,307	800,000	0,040	0,099
-250,292	84,990	0,031	-0,024
-249,278	-200,000	-0,026	0,182
-248,263	800,000	0,069	0,140
-247,249	-200,000	0,008	0,150
-246,234	794,995	0,036	-0,071
-245,219	591,340	-0,034	-0,061
-244,205	-200,000	0,003	-0,123
-243,190	-128,068	0,052	0,005
-242,176	-1,492	0,063	-0,032
-241,161	-200,000	-0,008	0,082
-240,146	-76,978	-0,198	-0,050
-239,132	324,885	0,093	0,129
-238,117	-200,000	-0,012	-0,051
-237,103	699,943	-0,051	-0,097
-236,088	-200,000	-0,025	0,089
-235,073	-184,561	0,216	-0,002
-234,059	-200,000	0,023	-0,126
-233,044	120,091	0,117	0,105
-232,030	131,664	-0,132	0,123
-231,015	-200,000	0,004	0,020
-230,000	3,599	0,067	-0,035
-228,986	-51,463	-0,064	-0,021
-227,971	33,858	0,100	-0,063
-226,957	-200,000	-0,057	0,190
-225,942	-200,000	0,011	-0,090
-224,927	-128,810	-0,035	-0,004
-223,913	53,940	-0,101	-0,070
-222,898	223,569	0,022	0,026
-221,884	-37,501	-0,079	0,030
-220,869	-200,000	0,041	0,169
-219,855	-83,539	0,089	0,020
-218,840	-113,373	-0,110	-0,015
-217,825	208,693	-0,068	-0,077
-216,811	323,005	0,064	-0,089
-215,796	800,000	0,046	-0,103
-214,782	800,000	0,014	0,036
-213,767	-200,000	-0,003	0,014
-212,752	35,241	0,022	0,014
-211,738	-37,480	-0,035	0,013
-210,723	-200,000	0,003	-0,058
-209,709	-24,371	0,013	-0,006
-208,694	-200,000	0,016	-0,073
-207,679	-200,000	0,038	-0,184
-206,665	-200,000	0,014	-0,100
-205,650	131,507	0,086	0,080
-204,636	-200,000	0,023	0,094
-203,621	800,000	0,072	0,175
-202,606	77,009	0,084	-0,065
-201,592	-200,000	-0,003	-0,097
-200,577	-87,881	-0,068	0,015
-199,563	151,123	-0,032	0,032
-198,548	-200,000	0,000	0,047
-197,533	195,898	0,114	-0,126
-196,519	-72,367	-0,061	0,016
-195,504	-131,958	-0,130	0,012
-194,490	543,763	-0,021	-0,037
-193,475	800,000	0,013	0,039
-192,460	800,000	0,021	-0,061
-191,446	26,264	-0,059	-0,035
-190,431	-106,886	0,099	-0,016
-189,417	-200,000	0,024	0,114
-188,402	-200,000	-0,013	-0,053
-187,387	-112,101	-0,038	-0,006
-186,373	-183,381	-0,098	0,001
-185,358	-36,846	-0,114	0,044
-184,344	331,982	0,049	0,068
-183,329	139,370	0,168	-0,159
-182,315	-200,000	0,015	-0,060
-181,300	-4,604	-0,142	-0,070
-180,285	52,573	0,135	-0,093
-179,271	-131,704	-0,149	0,014
-178,256	62,633	0,104	-0,075
-177,242	483,467	0,038	0,062
-176,227	-80,591	-0,057	-0,014
-175,212	82,905	-0,045	0,035
-174,198	264,844	-0,043	-0,054
-173,183	-74,614	0,043	0,011
-172,169	29,852	-0,058	0,035
-171,154	457,701	0,045	-0,073
-170,139	-200,000	-0,028	0,094
-169,125	-200,000	0,026	0,113
-168,110	90,305	0,105	0,085
-167,096	800,000	-0,079	0,199
-166,081	347,327	-0,083	0,118
-165,066	800,000	0,022	-0,068
-164,052	-200,000	0,006	0,023
-163,037	-122,391	0,100	-0,012
-162,023	-200,000	-0,031	0,112
-161,008	-200,000	0,045	0,173
-159,993	-97,095	-0,086	0,016
-158,979	38,852	-0,102	-0,066
-157,964	753,247	-0,036	-0,070
-156,950	-144,549	-0,082	0,005
-155,935	60,294	0,065	0,046
-154,920	-200,000	0,003	0,024
-153,906	-79,744	0,170	-0,041
-152,891	-38,064	-0,128	-0,049
-151,877	28,411	-0,086	-0,052
-150,862	37,161	0,088	-0,056
-149,847	-54,382	-0,114	-0,037
-148,833	-200,000	-0,006	-0,119
-147,818	-135,108	0,069	-0,006
-146,804	-200,000	-0,031	0,100
-145,789	433,939	0,033	0,053
-144,775	82,340	-0,027	-0,021
-143,760	800,000	-0,028	-0,087
-142,745	-200,000	-0,037	-0,150
-141,731	122,821	0,052	0,047
-140,716	-81,085	0,116	0,027
-139,702	800,000	0,031	0,068
-138,687	122,331	0,065	0,059
-137,672	-92,177	0,015	-0,003
-136,658	-200,000	-0,008	-0,117
-135,643	190,475	-0,140	-0,152
-134,629	800,000	-0,019	0,051
-133,614	-200,000	-0,007	0,194
-132,599	-102,117	0,014	0,002
-131,585	683,533	0,031	0,058
-130,570	800,000	0,010	0,032
-129,556	800,000	0,044	0,130
-128,541	-41,791	-0,062	0,023
-127,526	800,000	-0,038	0,080
-126,512	288,527	0,114	-0,149
-125,497	56,843	0,087	-0,061
-124,483	-190,242	0,086	-0,001
-123,468	92,194	-0,063	0,051
-122,453	-47,835	-0,092	-0,032
-121,439	31,619	0,042	-0,026
-120,424	-6,153	-0,031	-0,015
-119,410	146,729	-0,079	-0,076
