DTS Sentinel unit serial number:	SN410029Multiplexer serial number:	ORYXHardware model number:	OX2-SRSoftware version number:	ORYX F/W v4,00 Oryx Data Collector v3.7.2.0data status	okinstallation	B5 Nyhavnadifferential loss correction	single-endedforward channel	channel 2reverse channel	N/Adate	2023/12/11time	21:32:13forward acquisition time	300,00reverse acquisition time	0,00gamma	499,1914k internal	0,3157k external	0,3157temperature offset calibration	1,0000default loss term (dB/km)	0,3820temperature slope calibration	1,0000multiplexer offset coefficient	1,0000multiplexer slope coefficient	1,0000fibre end	0,00T internal ref (°C)	16,25T ext. ref 1 (°C)	0,17T ext. ref 2 (°C)	-0,06length (m)	temperature (°C)	Stokes	anti-Stokes-744,400	-200,000	-0,010	0,091
-743,385	-116,413	-0,203	-0,027
-742,371	366,797	-0,010	0,015
-741,356	-108,193	-0,247	-0,039
-740,342	-200,000	0,013	0,196
-739,327	-165,387	-0,379	0,012
-738,312	52,470	0,107	0,075
-737,298	-104,793	-0,225	0,038
-736,283	-58,940	0,143	0,045
-735,269	-149,080	-0,207	-0,012
-734,254	800,000	0,017	-0,046
-733,239	-8,839	-0,424	-0,209
-732,225	-23,285	0,223	-0,098
-731,210	11,259	-0,110	-0,062
-730,196	6,109	0,030	-0,017
-729,181	231,762	-0,046	-0,056
-728,167	170,162	-0,042	0,044
-727,152	223,416	0,051	0,060
-726,137	-132,286	-0,184	-0,017
-725,123	-2,758	-0,076	0,039
-724,108	-200,000	0,008	-0,142
-723,094	-200,000	0,006	-0,086
-722,079	74,215	0,014	0,011
-721,064	-200,000	-0,002	0,042
-720,050	283,964	0,016	0,021
-719,035	18,406	-0,092	0,054
-718,021	312,749	-0,043	-0,060
-717,006	95,236	-0,103	0,086
-715,991	282,738	-0,034	-0,045
-714,977	123,990	-0,106	-0,098
-713,962	800,000	-0,040	0,120
-712,948	200,786	-0,030	0,034
-711,933	61,443	0,059	-0,043
-710,918	448,646	-0,037	-0,060
-709,904	158,696	-0,121	-0,124
-708,889	222,827	-0,048	-0,058
-707,875	-151,368	-0,105	0,006
-706,860	15,006	0,055	-0,031
-705,845	800,000	-0,018	0,052
-704,831	301,729	0,063	0,086
-703,816	-117,502	0,137	0,018
-702,802	-57,778	-0,098	-0,031
-701,787	800,000	0,015	0,044
-700,772	-15,337	-0,036	0,017
-699,758	-38,105	-0,059	0,023
-698,743	-93,173	-0,062	0,013
-697,729	-200,000	0,003	0,134
-696,714	800,000	-0,054	0,127
-695,699	26,952	0,065	-0,040
-694,685	-200,000	0,007	-0,078
-693,670	514,238	-0,030	0,052
-692,656	-50,347	-0,087	0,030
-691,641	43,724	-0,057	0,038
-690,627	-134,873	0,081	0,007
-689,612	-200,000	0,005	0,154
-688,597	2,410	0,064	0,034
-687,583	60,709	0,045	0,033
-686,568	-37,649	-0,128	-0,050
-685,554	-200,000	-0,005	0,020
-684,539	-10,390	-0,139	0,068
-683,524	61,714	0,045	-0,033
-682,510	-200,000	-0,001	-0,064
-681,495	-151,642	0,003	0,000
-680,481	272,795	-0,074	-0,096
-679,466	35,660	-0,122	-0,079
-678,451	-9,216	0,114	-0,056
-677,437	478,686	0,052	0,087
-676,422	-86,618	-0,118	0,026
-675,408	644,651	0,014	-0,027
-674,393	-200,000	0,006	-0,029
-673,378	-19,983	0,013	-0,006
-672,364	-200,000	-0,001	-0,071
-671,349	143,553	-0,068	-0,066
-670,335	-58,302	-0,091	0,029
-669,320	-200,000	-0,010	0,133
-668,305	271,018	-0,074	0,096
-667,291	-70,490	-0,059	0,016
-666,276	-200,000	0,002	0,091
-665,262	-66,658	-0,092	0,027
-664,247	55,430	-0,121	0,086
-663,232	-200,000	0,014	-0,049
-662,218	800,000	-0,008	0,017
-661,203	800,000	0,051	0,117
-660,189	-200,000	-0,017	-0,104
-659,174	26,783	-0,065	-0,040
-658,159	-200,000	-0,005	-0,088
-657,145	-195,219	0,069	0,000
-656,130	-200,000	-0,021	-0,081
-655,116	231,261	-0,004	-0,005
-654,101	53,804	-0,080	-0,056
-653,086	103,664	-0,043	-0,037
-652,072	-18,791	-0,032	0,014
-651,057	-200,000	-0,001	0,055
-650,043	-200,000	0,007	-0,091
-649,028	-200,000	-0,011	0,053
-648,014	-7,632	0,119	-0,059
-646,999	800,000	0,046	-0,099
-645,984	-76,553	-0,082	0,021
-644,970	-151,789	-0,125	0,007
-643,955	-200,000	-0,016	-0,135
-642,941	176,680	0,031	-0,033
-641,926	-200,000	0,016	0,094
-640,911	252,273	0,101	-0,126
-639,897	157,857	0,055	0,056
-638,882	-200,000	0,012	-0,080
-637,868	68,193	-0,079	0,059
-636,853	800,000	0,042	-0,105
-635,838	126,042	-0,097	-0,090
-634,824	188,585	-0,074	0,081
-633,809	-200,000	0,019	0,085
-632,795	83,853	-0,083	-0,066
-631,780	-200,000	0,016	0,057
-630,765	-37,417	-0,144	-0,056
-629,751	564,107	-0,015	-0,026
-628,736	-44,996	-0,061	0,022
-627,722	-101,210	0,020	-0,004
-626,707	-200,000	-0,023	0,147
-625,692	765,581	-0,030	-0,060
-624,678	-200,000	-0,002	-0,068
-623,663	-200,000	0,002	0,099
-622,649	-200,000	0,014	-0,108
-621,634	31,467	-0,074	-0,046
-620,619	-200,000	-0,002	0,104
-619,605	800,000	-0,046	0,113
-618,590	701,132	-0,040	-0,077
-617,576	300,704	0,041	0,056
-616,561	800,000	0,015	0,032
-615,546	-27,189	-0,065	-0,028
-614,532	394,049	0,088	-0,136
-613,517	-200,000	0,003	-0,091
-612,503	-200,000	0,013	-0,125
-611,488	800,000	0,019	0,055
-610,474	-200,000	-0,011	0,056
-609,459	800,000	-0,012	0,037
-608,444	-65,735	0,045	-0,013
-607,430	-200,000	-0,008	0,137
-606,415	21,753	0,052	0,031
-605,401	-200,000	-0,002	0,038
-604,386	-130,608	0,092	0,009
-603,371	-134,073	-0,081	-0,007
-602,357	185,999	0,062	0,067
-601,342	-121,979	0,090	-0,011
-600,328	583,473	-0,072	-0,131
-599,313	88,373	0,079	-0,065
-598,298	581,239	0,007	-0,012
-597,284	90,996	0,098	0,081
-596,269	98,939	-0,087	0,074
-595,255	800,000	0,061	0,152
-594,240	-90,830	-0,064	0,013
-593,225	322,226	-0,096	0,135
-592,211	-110,626	-0,176	0,026
-591,196	171,297	-0,069	0,073
-590,182	307,568	-0,050	0,068
-589,167	-71,746	-0,085	0,023
-588,152	-200,000	-0,014	0,087
-587,138	-63,211	0,068	-0,020
-586,123	800,000	0,024	-0,069
-585,109	-200,000	0,021	-0,092
-584,094	-200,000	0,081	0,000
-583,079	14,526	0,163	-0,093
-582,065	800,000	-0,018	0,050
-581,050	171,772	-0,018	0,019
-580,036	-121,210	0,053	-0,006
-579,021	-200,000	-0,006	-0,086
-578,006	363,641	0,009	0,014
-576,992	800,000	-0,056	-0,135
-575,977	-200,000	-0,023	-0,188
-574,963	-33,951	0,093	-0,037
-573,948	135,671	-0,105	-0,100
-572,934	30,976	0,078	-0,049
-571,919	-85,791	0,064	-0,014
-570,904	800,000	0,045	-0,132
-569,890	800,000	0,046	0,124
-568,875	-166,758	0,076	-0,002
-567,861	-200,000	0,001	0,070
-566,846	-158,802	0,068	-0,003
-565,831	-200,000	-0,003	-0,052
-564,817	800,000	0,056	0,119
-563,802	572,216	-0,012	0,021
-562,788	433,529	-0,090	-0,144
-561,773	4,338	0,108	-0,058
-560,758	369,567	-0,056	0,084
-559,744	-128,454	0,051	0,005
-558,729	-2,559	-0,158	0,081
-557,715	239,928	-0,068	-0,084
-556,700	-83,732	-0,068	-0,016
-555,685	800,000	0,025	-0,060
-554,671	-41,230	0,071	0,027
-553,656	-43,579	-0,103	0,038
-552,642	-41,560	-0,037	0,014
-551,627	-100,958	0,057	0,010
-550,612	800,000	-0,011	0,026
-549,598	-200,000	-0,025	-0,140
-548,583	800,000	-0,076	-0,174
-547,569	622,877	-0,016	0,029
-546,554	-200,000	0,016	0,068
-545,539	-200,000	-0,037	0,141
-544,525	800,000	-0,023	-0,066
-543,510	7,630	-0,168	-0,092
-542,496	607,972	0,036	0,066
-541,481	410,763	0,074	0,115
-540,466	24,594	0,063	-0,038
-539,452	-200,000	-0,021	-0,084
-538,437	111,669	-0,114	0,101
-537,423	-200,000	0,000	0,170
-536,408	44,096	0,038	-0,025
-535,393	-200,000	-0,005	-0,020
-534,379	678,635	0,064	-0,123
-533,364	-200,000	-0,042	-0,161
-532,350	-200,000	-0,013	-0,043
-531,335	-200,000	-0,016	-0,060
-530,321	140,658	-0,072	-0,070
-529,306	722,269	0,005	-0,011
-528,291	-35,406	0,054	-0,021
-527,277	-200,000	-0,022	-0,072
-526,262	167,163	0,042	-0,043
-525,248	-138,518	0,074	-0,006
-524,233	-200,000	0,038	-0,124
-523,218	125,261	0,041	0,038
-522,204	65,032	-0,182	-0,134
-521,189	-200,000	0,017	0,056
-520,175	-200,000	-0,025	-0,136
-519,160	-75,512	0,006	0,002
-518,145	-118,735	0,041	-0,005
-517,131	180,628	0,033	-0,035
-516,116	-75,738	0,104	-0,027
-515,102	-200,000	-0,037	0,133
-514,087	59,139	-0,113	-0,081
-513,072	-94,569	-0,151	0,030
-512,058	-200,000	-0,001	-0,033
-511,043	-156,253	0,102	0,005
-510,029	-200,000	-0,001	0,151
-509,014	-200,000	-0,001	-0,029
-507,999	247,363	-0,065	-0,080
-506,985	800,000	0,021	0,047
-505,970	-200,000	0,007	0,067
-504,956	673,454	0,044	0,084
-503,941	1,130	-0,053	-0,028
-502,926	282,419	0,042	-0,055
-501,912	-200,000	0,021	0,078
-500,897	171,370	-0,073	-0,077
-499,883	69,719	0,079	-0,060
-498,868	-200,000	0,007	-0,109
-497,853	142,899	-0,123	-0,120
-496,839	432,378	0,046	-0,073
-495,824	71,057	0,083	-0,063
-494,810	-73,992	-0,025	-0,007
-493,795	-56,932	0,020	-0,006
-492,781	677,677	0,048	-0,092
-491,766	800,000	-0,027	0,065
-490,751	800,000	0,020	-0,051
-489,737	-200,000	-0,001	-0,116
-488,722	572,432	0,029	-0,053
-487,708	155,360	-0,036	0,036
-486,693	-91,220	-0,023	-0,005
-485,678	-200,000	-0,026	0,150
-484,664	-200,000	0,023	-0,110
-483,649	199,254	-0,104	-0,116
-482,635	233,436	0,018	0,022
-481,620	493,474	0,041	0,069
-480,605	-200,000	0,002	-0,012
-479,591	-83,030	-0,134	-0,031
-478,576	139,004	0,101	-0,096
-477,562	318,667	-0,082	-0,114
-476,547	504,472	-0,050	0,085
-475,532	36,266	-0,069	-0,044
-474,518	-179,911	0,109	0,002
-473,503	288,471	-0,057	-0,076
-472,489	-200,000	0,031	0,215
-471,474	0,234	0,088	-0,046
-470,459	74,467	-0,091	-0,070
-469,445	800,000	-0,017	0,052
-468,430	121,825	-0,086	-0,078
-467,416	-36,972	0,097	0,038
-466,401	300,506	-0,023	-0,031
-465,386	40,644	0,069	0,045
-464,372	100,228	0,030	-0,025
-463,357	90,782	0,040	0,033
-462,343	800,000	-0,016	-0,038
-461,328	-200,000	0,004	-0,110
-460,313	-14,696	-0,062	-0,029
-459,299	-200,000	0,002	0,085
-458,284	674,373	0,018	-0,034
-457,270	-28,740	0,111	-0,046
-456,255	4,972	-0,155	0,083
-455,241	100,879	-0,094	-0,080
-454,226	285,055	-0,096	-0,126
-453,211	800,000	0,031	0,079
-452,197	204,362	-0,075	-0,085
-451,182	-59,665	-0,104	0,032
-450,168	86,338	-0,070	-0,056
-449,153	-24,371	0,022	0,010
-448,138	-11,827	-0,087	-0,042
-447,124	400,459	0,090	-0,137
-446,109	133,768	-0,086	0,081
-445,095	16,880	0,121	-0,069
-444,080	126,156	-0,172	0,159
-443,065	202,320	0,051	0,057
-442,051	8,682	0,023	-0,013
-441,036	120,691	0,067	0,061
-440,022	-32,575	0,070	-0,028
-439,007	172,047	0,112	-0,117
-437,992	800,000	-0,060	0,173
-436,978	582,134	-0,006	-0,011
-435,963	-200,000	0,005	0,111
-434,949	-200,000	0,008	-0,097
-433,934	-200,000	0,004	0,090
-432,919	-200,000	-0,002	-0,057
-431,905	-200,000	-0,015	-0,126
-430,890	338,805	0,029	0,042
-429,876	128,259	-0,093	0,087
-428,861	-38,715	-0,108	-0,041
-427,846	16,138	-0,125	-0,072
-426,832	163,653	0,064	-0,065
-425,817	521,590	0,069	-0,118
-424,803	147,416	-0,059	0,058
-423,788	-134,441	0,163	-0,014
-422,773	800,000	0,012	-0,037
-421,759	8,550	0,128	-0,070
-420,744	304,924	-0,061	0,083
-419,730	129,874	0,042	0,039
-418,715	10,440	-0,156	0,086
-417,701	-200,000	-0,013	-0,053
-416,686	85,332	0,028	-0,023
-415,671	-79,295	-0,103	-0,025
-414,657	230,774	-0,048	0,058
-413,642	-200,000	-0,016	0,064
-412,628	-200,000	-0,018	-0,063
-411,613	-147,444	0,092	-0,006
-410,598	440,220	-0,050	-0,080
-409,584	298,890	-0,042	-0,057
-408,569	-102,653	0,028	-0,005
-407,555	-84,687	0,059	-0,013
-406,540	-200,000	0,012	0,129
-405,525	174,325	-0,042	-0,044
-404,511	168,253	-0,031	-0,032
-403,496	-107,493	-0,123	0,019
-402,482	-133,820	0,139	-0,012
-401,467	-200,000	0,004	0,061
-400,452	-200,000	0,005	0,095
-399,438	800,000	-0,027	0,083
-398,423	728,205	-0,019	-0,038
-397,409	-148,964	0,064	0,004
-396,394	369,670	-0,040	0,059
-395,379	-122,832	-0,117	0,014
-394,365	-111,530	0,103	0,015
-393,350	800,000	0,024	0,056
-392,336	-200,000	0,002	0,079
-391,321	-200,000	0,021	0,122
-390,306	177,333	0,018	-0,019
-389,292	-122,898	-0,094	0,011
-388,277	328,090	0,045	0,063
-387,263	-200,000	0,004	-0,071
-386,248	800,000	0,049	-0,125
-385,233	-33,352	0,047	-0,019
-384,219	-59,594	0,075	0,023
-383,204	-200,000	0,001	0,085
-382,190	-200,000	0,035	-0,183
-381,175	-75,532	0,103	0,027
-380,160	800,000	0,057	0,162
-379,146	-15,305	0,067	0,031
-378,131	800,000	-0,042	0,088
-377,117	101,220	-0,064	-0,054
-376,102	552,924	-0,091	0,159
-375,088	-73,321	-0,141	-0,037
-374,073	48,387	-0,053	0,036
-373,058	95,976	0,110	0,091
-372,044	-78,729	-0,064	-0,016
-371,029	-200,000	0,003	-0,027
-370,015	232,855	0,113	-0,135
-369,000	61,006	0,114	-0,082
-367,985	-200,000	-0,001	0,021
-366,971	32,435	0,074	-0,047
-365,956	390,538	0,014	0,021
-364,942	104,708	0,083	0,071
-363,927	800,000	-0,014	0,033
-362,912	-200,000	-0,005	-0,018
-361,898	-183,436	-0,080	0,001
-360,883	452,977	0,017	-0,028
-359,869	-31,649	-0,095	0,038
-358,854	-200,000	0,033	0,204
-357,839	800,000	0,042	-0,113
-356,825	-200,000	-0,022	-0,117
-355,810	800,000	0,031	-0,094
-354,796	-91,018	-0,146	-0,030
-353,781	-20,488	-0,063	0,028
-352,766	76,346	0,091	0,070
-351,752	800,000	-0,035	-0,096
-350,737	800,000	-0,035	0,083
-349,723	-92,963	0,063	-0,013
-348,708	49,411	0,078	0,053
-347,693	-74,178	-0,043	0,011
-346,679	348,388	-0,076	-0,109
-345,664	-200,000	0,017	-0,057
-344,650	800,000	0,055	0,110
-343,635	-200,000	0,006	0,108
-342,620	-91,345	-0,059	-0,012
-341,606	-200,000	-0,003	-0,033
-340,591	-200,000	-0,003	0,035
-339,577	-200,000	0,016	-0,056
-338,562	-200,000	-0,014	-0,188
-337,548	611,336	-0,104	0,189
-336,533	-200,000	0,008	-0,040
-335,518	-72,571	0,072	-0,019
-334,504	-200,000	-0,025	0,082
-333,489	-6,524	0,018	0,009
-332,475	-26,391	0,083	-0,035
-331,460	284,284	-0,029	0,037
-330,445	-200,000	0,016	0,107
-329,431	476,005	-0,029	-0,047
-328,416	-200,000	-0,019	0,129
-327,402	-2,869	-0,102	0,052
-326,387	-185,899	0,118	0,001
-325,372	-94,362	-0,127	0,025
-324,358	800,000	-0,050	-0,121
-323,343	278,010	0,061	-0,079
-322,329	234,635	0,009	-0,011
-321,314	230,597	0,081	0,097
-320,299	462,675	0,116	0,189
-319,285	9,901	-0,039	0,021
-318,270	252,285	-0,086	0,107
-317,256	-200,000	-0,003	0,075
-316,241	-32,954	0,095	0,038
-315,226	-125,593	0,066	0,007
-314,212	470,000	-0,042	0,069
-313,197	246,124	0,087	0,107
-312,183	800,000	-0,025	0,068
-311,168	-97,311	-0,065	0,012
-310,153	-1,240	-0,087	-0,044
-309,139	236,335	0,024	-0,028
-308,124	-200,000	-0,022	-0,127
-307,110	-52,973	-0,059	-0,020
-306,095	-200,000	-0,029	0,097
-305,080	-19,938	-0,132	-0,059
-304,066	-6,468	0,057	0,028
-303,051	800,000	-0,102	-0,297
-302,037	-64,990	0,069	0,020
-301,022	-1,103	0,119	-0,061
-300,008	243,756	-0,031	-0,038
-298,993	-200,000	0,011	0,114
-297,978	76,824	0,070	0,054
-296,964	105,127	-0,035	0,030
-295,949	800,000	-0,036	-0,078
-294,935	-200,000	-0,017	-0,067
-293,920	61,164	0,074	0,053
-292,905	-72,264	0,044	0,012
-291,891	-200,000	-0,028	0,149
-290,876	-200,000	0,007	0,067
-289,862	-151,230	0,062	0,003
-288,847	-52,718	-0,095	-0,031
-287,832	800,000	-0,031	0,071
-286,818	343,421	-0,087	0,124
-285,803	-155,148	-0,006	-0,000
-284,789	-13,621	0,145	-0,068
-283,774	-14,391	0,017	0,008
-282,759	-5,003	0,092	-0,046
-281,745	-84,115	0,056	-0,013
-280,730	89,642	-0,033	-0,027
-279,716	-29,514	0,076	0,031
-278,701	800,000	0,035	0,106
-277,686	800,000	0,007	-0,021
-276,672	-200,000	-0,000	0,114
-275,657	23,237	0,054	0,032
-274,643	-124,672	-0,118	0,013
-273,628	-200,000	-0,014	-0,047
-272,613	-200,000	0,014	-0,091
-271,599	-123,889	0,109	-0,012
-270,584	-200,000	-0,033	0,169
-269,570	-200,000	0,032	0,129
-268,555	800,000	0,034	-0,090
-267,540	-200,000	0,018	0,177
-266,526	594,725	-0,044	0,079
-265,511	88,519	0,097	-0,078
-264,497	118,421	-0,144	0,128
-263,482	166,614	0,071	-0,072
-262,467	231,592	-0,068	0,081
-261,453	-45,576	-0,035	-0,013
-260,438	571,623	0,013	-0,023
-259,424	-45,494	0,024	-0,009
-258,409	-185,788	-0,091	-0,001
-257,395	23,446	-0,078	0,046
-256,380	74,035	0,105	0,080
-255,365	-132,679	0,081	-0,007
-254,351	203,711	-0,020	0,023
-253,336	-200,000	-0,012	0,103
-252,322	-65,192	0,069	0,020
-251,307	75,489	-0,130	0,099
-250,292	-137,670	0,056	-0,005
-249,278	-164,084	0,068	-0,002
-248,263	-200,000	0,034	0,117
-247,249	-109,385	0,023	-0,004
-246,234	800,000	0,019	-0,060
-245,219	-200,000	-0,020	-0,115
-244,205	176,750	-0,032	0,034
-243,190	800,000	0,015	-0,036
-242,176	-200,000	0,004	0,021
-241,161	-200,000	-0,016	0,063
-240,146	-200,000	0,013	0,117
-239,132	-117,883	-0,120	0,015
-238,117	175,392	0,018	-0,019
-237,103	-200,000	0,003	0,057
-236,088	-27,087	0,062	0,026
-235,073	-0,109	0,058	0,030
-234,059	54,113	0,070	0,049
-233,044	-94,055	0,093	0,018
-232,030	394,805	-0,030	0,045
-231,015	-200,000	0,000	-0,109
-230,000	-200,000	-0,011	0,101
-228,986	241,304	0,021	-0,026
-227,971	132,919	0,058	-0,054
-226,957	78,112	-0,070	-0,054
-225,942	-108,988	-0,017	-0,003
-224,927	800,000	-0,064	0,132
-223,913	396,975	0,073	0,111
-222,898	800,000	0,030	-0,062
-221,884	-93,877	0,109	0,021
-220,869	-80,996	-0,117	0,028
-219,855	489,343	-0,072	0,119
-218,840	-56,115	0,034	0,011
-217,825	800,000	-0,054	0,143
-216,811	162,228	-0,012	-0,012
-215,796	-98,258	-0,063	0,012
-214,782	-95,562	0,111	0,021
-213,767	-37,067	0,128	-0,049
-212,752	-200,000	0,011	-0,072
-211,738	39,834	0,122	0,079
-210,723	486,876	-0,019	-0,031
-209,709	-200,000	-0,049	-0,214
-208,694	171,884	-0,158	-0,164
-207,679	-7,809	-0,033	-0,016
-206,665	57,153	0,044	0,031
-205,650	-189,108	0,028	0,000
-204,636	103,687	0,181	0,154
-203,621	262,957	0,032	-0,041
-202,606	-200,000	-0,001	-0,087
-201,592	-200,000	-0,026	-0,110
-200,577	-29,612	-0,136	0,056
-199,563	-99,155	0,123	-0,022
-198,548	113,755	0,043	-0,037
-197,533	-73,595	-0,106	-0,028
-196,519	-59,369	0,103	-0,032
-195,504	-56,533	0,102	0,033
-194,490	81,792	0,068	-0,053
-193,475	93,220	-0,092	-0,075
-192,460	-65,843	0,074	0,021
-191,446	-72,399	0,200	0,053
-190,431	800,000	-0,017	-0,041
-189,417	-14,175	-0,049	0,023
-188,402	228,314	-0,101	0,119
-187,387	-200,000	0,007	-0,096
-186,373	-50,633	0,021	-0,007
-185,358	-4,510	-0,085	0,042
-184,344	-200,000	0,004	0,035
-183,329	-104,256	0,181	0,030
-182,315	-200,000	-0,014	-0,133
-181,300	13,098	0,052	0,029
-180,285	58,184	-0,018	-0,013
-179,271	219,854	0,026	0,031
-178,256	-200,000	0,020	-0,069
-177,242	30,743	0,107	-0,066
-176,227	-134,485	0,086	0,007
-175,212	141,208	-0,115	-0,110
-174,198	89,652	-0,155	0,125
-173,183	4,060	-0,048	0,025
-172,169	-200,000	-0,009	-0,035
-171,154	109,078	-0,066	0,057
-170,139	-40,853	0,099	0,037
-169,125	350,152	-0,100	0,143
-168,110	-200,000	-0,006	0,026
-167,096	-200,000	0,034	-0,128
-166,081	297,897	0,014	-0,018
-165,066	-45,567	-0,078	0,028
-164,052	-200,000	-0,028	-0,102
-163,037	-100,126	-0,019	0,003
-162,023	-200,000	0,009	0,164
-161,008	124,774	0,109	-0,099
-159,993	-119,147	-0,040	-0,005
-158,979	-127,198	-0,066	-0,007
-157,964	-200,000	0,006	-0,093
-156,950	221,133	0,050	-0,058
-155,935	-9,086	0,039	0,019
-154,920	634,187	0,033	-0,061
-153,906	279,305	0,022	0,029
-152,891	122,356	-0,052	0,047
-151,877	-200,000	0,014	-0,088
-150,862	-200,000	-0,011	-0,044
-149,847	-28,416	-0,093	-0,039
-148,833	73,631	0,062	0,047
-147,818	210,552	-0,065	0,074
-146,804	-91,334	-0,074	0,015
-145,789	-51,729	0,144	-0,048
-144,775	-8,917	0,077	0,037
-143,760	71,464	-0,039	-0,029
-142,745	-200,000	-0,008	0,153
-141,731	130,714	-0,036	-0,034
-140,716	483,893	0,038	-0,062
-139,702	19,897	0,119	-0,069
-138,687	-200,000	0,007	0,066
-137,672	7,248	-0,033	-0,018
-136,658	197,804	-0,131	-0,144
-135,643	-53,707	0,065	0,021
-134,629	-200,000	0,010	0,112
-133,614	516,932	0,093	0,156
-132,599	800,000	-0,021	-0,067
-131,585	-112,272	-0,045	-0,006
-130,570	49,409	-0,170	-0,115
-129,556	-200,000	-0,026	-0,142
-128,541	-27,622	-0,124	0,052
-127,526	785,576	-0,031	-0,061
-126,512	197,490	-0,029	0,032
-125,497	800,000	0,048	0,112
-124,483	22,908	0,058	0,034
-123,468	283,798	0,026	-0,033
-122,453	800,000	0,041	0,086
-121,439	-122,711	0,063	0,007
-120,424	-134,955	-0,168	-0,014
-119,410	-97,865	-0,119	-0,022
