DTS Sentinel unit serial number:	SN410029Multiplexer serial number:	ORYXHardware model number:	OX2-SRSoftware version number:	ORYX F/W v4,00 Oryx Data Collector v3.7.2.0data status	okinstallation	B5 Nyhavnadifferential loss correction	single-endedforward channel	channel 2reverse channel	N/Adate	2023/12/11time	22:47:13forward acquisition time	300,00reverse acquisition time	0,00gamma	499,1914k internal	0,3155k external	0,3155temperature offset calibration	1,0000default loss term (dB/km)	0,3820temperature slope calibration	1,0000multiplexer offset coefficient	1,0000multiplexer slope coefficient	1,0000fibre end	0,00T internal ref (°C)	16,31T ext. ref 1 (°C)	0,03T ext. ref 2 (°C)	-0,21length (m)	temperature (°C)	Stokes	anti-Stokes-744,400	-65,697	0,160	0,047
-743,385	-58,544	-0,418	0,133
-742,371	-200,000	-0,008	0,042
-741,356	-99,616	-0,356	0,065
-740,342	259,858	0,116	0,148
-739,327	-200,000	-0,427	-0,001
-738,312	377,389	0,055	-0,083
-737,298	-100,613	-0,317	0,057
-736,283	-47,836	0,145	-0,051
-735,269	-43,910	-0,181	0,067
-734,254	132,704	0,127	-0,121
-733,239	16,861	-0,366	-0,213
-732,225	-38,359	0,196	-0,076
-731,210	-88,047	-0,035	0,008
-730,196	540,529	-0,064	-0,113
-729,181	467,768	0,023	-0,038
-728,167	-103,469	-0,111	0,019
-727,152	-81,027	-0,157	-0,038
-726,137	7,850	-0,068	-0,037
-725,123	-175,487	-0,213	-0,004
-724,108	-200,000	0,015	-0,084
-723,094	-38,522	-0,175	-0,068
-722,079	103,199	-0,049	0,042
-721,064	-81,432	-0,054	-0,013
-720,050	188,907	-0,028	0,031
-719,035	141,357	-0,055	-0,054
-718,021	193,677	-0,078	-0,087
-717,006	-149,925	-0,123	-0,007
-715,991	-31,651	-0,171	-0,070
-714,977	170,069	0,027	-0,028
-713,962	-43,515	0,104	0,038
-712,948	-120,374	-0,228	0,028
-711,933	84,125	-0,083	0,067
-710,918	9,589	-0,116	-0,064
-709,904	353,303	-0,081	-0,119
-708,889	309,896	0,037	0,051
-707,875	-128,486	-0,071	0,007
-706,860	-135,338	-0,050	0,004
-705,845	-200,000	-0,004	-0,015
-704,831	-114,589	0,099	0,014
-703,816	800,000	0,049	0,149
-702,802	-34,571	-0,126	0,051
-701,787	124,369	-0,065	0,061
-700,772	53,042	-0,091	-0,064
-699,758	-200,000	-0,004	-0,072
-698,743	21,743	0,100	0,060
-697,729	-147,588	-0,146	-0,009
-696,714	-200,000	0,004	-0,028
-695,699	-136,512	0,099	-0,008
-694,685	142,583	-0,042	-0,041
-693,670	323,408	-0,067	-0,094
-692,656	-93,747	0,156	0,031
-691,641	800,000	-0,047	-0,127
-690,627	-200,000	0,075	0,000
-689,612	49,173	-0,092	0,063
-688,597	-200,000	-0,039	-0,248
-687,583	-104,158	-0,130	-0,022
-686,568	-200,000	0,020	-0,084
-685,554	-96,309	-0,152	0,029
-684,539	800,000	0,025	0,077
-683,524	241,961	-0,082	-0,101
-682,510	76,147	-0,088	0,069
-681,495	-200,000	-0,005	0,068
-680,481	-87,349	0,067	-0,015
-679,466	-65,385	-0,102	-0,030
-678,451	800,000	0,006	-0,014
-677,437	-200,000	-0,009	-0,136
-676,422	652,491	-0,037	0,071
-675,408	-73,845	-0,086	-0,023
-674,393	574,788	-0,074	-0,134
-673,378	187,006	0,065	0,071
-672,364	45,216	-0,059	-0,040
-671,349	-200,000	-0,007	0,043
-670,335	3,542	0,189	0,101
-669,320	-2,914	0,019	0,010
-668,305	800,000	0,033	-0,078
-667,291	166,173	0,065	-0,067
-666,276	-12,001	-0,059	-0,028
-665,262	-200,000	0,005	-0,140
-664,247	-75,939	-0,028	-0,007
-663,232	-200,000	-0,015	-0,139
-662,218	-162,931	0,070	-0,002
-661,203	41,401	0,099	0,066
-660,189	-200,000	-0,007	0,041
-659,174	800,000	-0,031	0,094
-658,159	-122,480	-0,007	-0,001
-657,145	800,000	-0,024	-0,069
-656,130	330,823	-0,056	0,079
-655,116	210,339	0,084	0,097
-654,101	15,588	0,078	0,045
-653,086	562,487	-0,075	0,134
-652,072	534,455	-0,086	-0,150
-651,057	604,837	-0,073	-0,135
-650,043	-9,522	-0,150	-0,073
-649,028	800,000	-0,066	0,143
-648,014	-200,000	-0,013	0,128
-646,999	43,659	0,011	-0,007
-645,984	800,000	-0,031	0,089
-644,970	-89,594	-0,107	-0,023
-643,955	240,040	-0,058	-0,071
-642,941	-15,750	-0,068	0,032
-641,926	314,826	-0,064	0,089
-640,911	-200,000	0,014	-0,091
-639,897	-200,000	0,006	-0,053
-638,882	-138,156	0,096	0,008
-637,868	219,533	0,067	-0,079
-636,853	-46,888	-0,110	0,039
-635,838	-200,000	-0,008	-0,087
-634,824	204,920	0,017	-0,020
-633,809	85,116	-0,065	-0,052
-632,795	70,878	0,051	0,038
-631,780	800,000	0,049	0,116
-630,765	-167,561	-0,157	0,004
-629,751	452,076	-0,078	-0,127
-628,736	-20,469	0,118	0,053
-627,722	-200,000	-0,044	0,200
-626,707	88,656	0,119	0,097
-625,692	393,863	-0,025	-0,038
-624,678	-137,795	-0,063	-0,005
-623,663	800,000	0,035	-0,103
-622,649	-44,785	-0,053	-0,019
-621,634	357,535	-0,008	-0,011
-620,619	92,068	-0,065	0,054
-619,605	800,000	-0,032	0,067
-618,590	-200,000	0,000	-0,079
-617,576	800,000	-0,029	0,066
-616,561	57,760	-0,069	0,049
-615,546	206,604	-0,083	0,095
-614,532	-53,541	-0,077	-0,026
-613,517	-10,605	0,057	-0,028
-612,503	277,634	0,096	0,125
-611,488	558,958	0,036	-0,064
-610,474	-200,000	0,017	0,099
-609,459	800,000	-0,035	-0,097
-608,444	-141,390	-0,083	-0,006
-607,430	497,767	-0,017	0,028
-606,415	31,972	0,051	-0,032
-605,401	279,755	-0,005	0,007
-604,386	800,000	0,060	-0,159
-603,371	800,000	-0,038	0,089
-602,357	-200,000	-0,018	-0,150
-601,342	198,605	0,122	-0,137
-600,328	-200,000	-0,006	0,076
-599,313	-200,000	-0,026	-0,124
-598,298	-200,000	0,024	-0,109
-597,284	-6,435	-0,043	0,021
-596,269	39,693	-0,066	-0,043
-595,255	-113,635	-0,073	0,010
-594,240	44,587	0,087	-0,059
-593,225	112,474	-0,112	-0,099
-592,211	-53,593	-0,113	-0,038
-591,196	-36,082	0,100	0,040
-590,182	661,717	-0,050	0,094
-589,167	3,203	0,047	0,025
-588,152	-80,729	0,101	-0,024
-587,138	120,326	-0,080	-0,073
-586,123	142,116	-0,070	0,068
-585,109	52,972	0,055	0,039
-584,094	-94,671	0,016	0,003
-583,079	-66,020	0,071	0,021
-582,065	800,000	0,044	0,139
-581,050	800,000	-0,039	0,117
-580,036	-92,089	-0,051	-0,010
-579,021	-126,811	0,145	-0,016
-578,006	800,000	-0,035	0,093
-576,992	-81,083	0,111	0,027
-575,977	545,369	0,064	-0,112
-574,963	800,000	-0,040	0,106
-573,948	-22,807	-0,071	-0,031
-572,934	-200,000	0,026	-0,155
-571,919	-200,000	-0,043	-0,219
-570,904	800,000	0,044	0,111
-569,890	159,234	-0,067	-0,068
-568,875	160,798	0,056	-0,058
-567,861	-93,210	0,185	-0,037
-566,846	-58,414	0,007	0,002
-565,831	-200,000	-0,021	-0,084
-564,817	717,770	0,061	-0,119
-563,802	-200,000	-0,002	-0,046
-562,788	-114,199	0,036	0,005
-561,773	-12,608	-0,097	0,046
-560,758	463,898	0,037	0,061
-559,744	113,100	-0,107	0,095
-558,729	139,963	-0,069	0,066
-557,715	-108,562	-0,110	-0,017
-556,700	46,099	-0,097	-0,066
-555,685	-200,000	0,009	-0,108
-554,671	425,845	0,090	0,142
-553,656	800,000	0,061	0,138
-552,642	-200,000	0,008	0,089
-551,627	-117,279	-0,105	-0,014
-550,612	549,320	-0,047	0,082
-549,598	-144,981	0,147	-0,010
-548,583	-112,015	0,063	-0,009
-547,569	-200,000	0,012	0,116
-546,554	-99,661	0,036	0,007
-545,539	110,116	0,075	-0,066
-544,525	27,910	-0,145	-0,089
-543,510	-200,000	-0,007	-0,027
-542,496	-200,000	-0,011	-0,082
-541,481	107,844	-0,067	-0,059
-540,466	27,466	0,066	-0,040
-539,452	800,000	-0,055	0,139
-538,437	800,000	-0,018	-0,048
-537,423	-200,000	-0,029	-0,133
-536,408	-37,283	-0,006	0,003
-535,393	266,685	-0,039	-0,050
-534,379	-200,000	0,016	0,077
-533,364	342,313	-0,024	0,034
-532,350	800,000	0,028	-0,066
-531,335	-126,371	0,118	0,013
-530,321	-200,000	-0,007	0,043
-529,306	800,000	0,050	0,142
-528,291	-200,000	-0,003	-0,089
-527,277	697,311	0,082	-0,159
-526,262	-200,000	-0,006	-0,032
-525,248	800,000	-0,022	-0,047
-524,233	426,775	-0,009	-0,014
-523,218	337,048	-0,036	0,052
-522,204	800,000	-0,058	0,139
-521,189	310,357	0,040	0,054
-520,175	-200,000	0,010	-0,074
-519,160	-128,237	0,018	0,002
-518,145	88,549	0,030	-0,024
-517,131	-107,576	0,118	0,019
-516,116	361,420	-0,011	0,016
-515,102	222,739	0,085	-0,100
-514,087	83,487	0,077	-0,061
-513,072	100,099	-0,102	-0,087
-512,058	-200,000	-0,019	-0,099
-511,043	-200,000	-0,017	-0,093
-510,029	177,671	-0,031	0,034
-509,014	-200,000	0,009	0,111
-507,999	608,876	-0,067	0,122
-506,985	135,278	-0,034	0,032
-505,970	586,033	-0,022	0,040
-504,956	-11,546	-0,071	0,034
-503,941	270,932	0,056	-0,072
-502,926	84,866	-0,038	0,030
-501,912	415,341	0,031	0,049
-500,897	-200,000	-0,008	-0,050
-499,883	184,699	0,061	-0,066
-498,868	7,039	0,075	-0,041
-497,853	800,000	-0,006	-0,016
-496,839	-144,555	0,215	-0,014
-495,824	195,143	-0,069	0,077
-494,810	182,523	0,041	0,044
-493,795	-100,031	0,176	0,032
-492,781	-200,000	-0,033	0,116
-491,766	770,681	-0,040	-0,079
-490,751	90,523	-0,039	-0,032
-489,737	-175,226	0,048	-0,001
-488,722	-33,478	0,098	-0,040
-487,708	800,000	-0,022	0,059
-486,693	-140,483	-0,164	0,012
-485,678	82,432	0,013	0,010
-484,664	-4,744	-0,043	-0,022
-483,649	230,760	0,034	-0,041
-482,635	189,226	-0,048	0,053
-481,620	-145,410	0,174	0,011
-480,605	104,705	0,024	0,021
-479,591	800,000	0,042	-0,119
-478,576	-200,000	-0,006	0,052
-477,562	219,058	-0,045	-0,053
-476,547	-87,951	-0,062	0,014
-475,532	37,209	-0,108	-0,070
-474,518	-144,995	0,085	-0,006
-473,503	217,231	0,160	0,186
-472,489	-200,000	-0,015	0,089
-471,474	468,008	-0,054	0,088
-470,459	-200,000	-0,000	-0,108
-469,445	800,000	-0,039	-0,102
-468,430	-200,000	-0,011	-0,124
-467,416	17,279	-0,054	-0,031
-466,401	-142,962	0,010	0,001
-465,386	-200,000	-0,017	0,201
-464,372	7,325	0,028	0,015
-463,357	-200,000	-0,038	-0,144
-462,343	455,609	0,004	-0,006
-461,328	212,009	-0,094	-0,108
-460,313	215,251	0,058	-0,067
-459,299	-200,000	0,026	0,149
-458,284	129,241	0,055	-0,051
-457,270	-200,000	-0,014	0,085
-456,255	479,951	-0,052	-0,086
-455,241	39,094	-0,157	-0,102
-454,226	-156,513	-0,088	-0,004
-453,211	-133,737	-0,120	-0,011
-452,197	-103,149	0,106	0,018
-451,182	178,318	0,068	-0,073
-450,168	-72,486	-0,088	0,023
-449,153	12,417	0,063	-0,035
-448,138	-15,183	-0,044	-0,020
-447,124	80,218	-0,035	0,028
-446,109	220,778	0,062	-0,073
-445,095	800,000	-0,036	0,082
-444,080	319,309	-0,012	0,017
-443,065	-84,112	0,045	-0,010
-442,051	-200,000	-0,007	0,145
-441,036	-200,000	-0,000	-0,016
-440,022	437,013	-0,025	-0,040
-439,007	99,733	-0,009	-0,008
-437,992	-200,000	0,000	0,071
-436,978	-56,053	-0,096	0,031
-435,963	-200,000	-0,006	0,037
-434,949	-60,541	-0,033	0,010
-433,934	652,204	0,063	-0,119
-432,919	463,281	-0,061	-0,100
-431,905	-173,695	0,154	-0,003
-430,890	-200,000	0,016	0,090
-429,876	453,300	-0,081	0,132
-428,861	-120,366	0,032	-0,004
-427,846	-119,683	-0,092	-0,011
-426,832	-144,167	-0,036	-0,002
-425,817	14,305	-0,048	-0,027
-424,803	303,469	-0,029	-0,039
-423,788	-200,000	-0,006	0,118
-422,773	489,974	0,041	0,069
-421,759	107,667	0,099	0,086
-420,744	-200,000	-0,021	-0,075
-419,730	53,099	-0,030	0,021
-418,715	-81,976	-0,033	0,008
-417,701	18,975	0,153	0,089
-416,686	-129,152	-0,113	0,011
-415,671	627,957	0,058	0,108
-414,657	211,268	0,020	-0,023
-413,642	-92,322	0,051	-0,010
-412,628	64,400	0,068	-0,050
-411,613	-200,000	0,008	-0,095
-410,598	67,721	0,076	-0,056
-409,584	-200,000	-0,000	0,112
-408,569	437,997	-0,036	0,057
-407,555	70,059	0,102	-0,077
-406,540	60,718	-0,098	0,071
-405,525	92,500	-0,043	0,035
-404,511	140,191	-0,089	-0,085
-403,496	-31,639	-0,131	-0,053
-402,482	62,558	-0,073	0,053
-401,467	-200,000	-0,023	0,142
-400,452	64,902	0,095	0,070
-399,438	-151,526	-0,148	0,008
-398,423	85,976	0,093	-0,074
-397,409	26,557	-0,075	-0,046
-396,394	-136,477	0,122	0,010
-395,379	-200,000	-0,009	0,068
-394,365	128,871	0,046	-0,043
-393,350	8,346	0,124	0,068
-392,336	416,498	0,053	0,083
-391,321	-65,045	0,086	-0,025
-390,306	119,831	0,009	0,008
-389,292	131,407	0,041	-0,038
-388,277	394,751	-0,034	-0,052
-387,263	0,753	0,078	-0,041
-386,248	-111,137	0,108	0,016
-385,233	650,480	-0,024	0,045
-384,219	-193,795	0,030	-0,000
-383,204	-200,000	0,001	-0,057
-382,190	261,171	-0,050	-0,063
-381,175	800,000	-0,051	-0,112
-380,160	-45,763	-0,019	0,007
-379,146	-200,000	-0,000	0,076
-378,131	685,476	-0,022	0,041
-377,117	-160,025	-0,170	-0,007
-376,102	-120,695	-0,060	-0,007
-375,088	800,000	0,015	-0,035
-374,073	-85,657	-0,094	-0,021
-373,058	-89,501	0,113	0,024
-372,044	-200,000	-0,018	-0,167
-371,029	-121,101	0,227	0,027
-370,015	-13,683	0,072	-0,034
-369,000	-200,000	-0,002	0,097
-367,985	-200,000	0,018	-0,058
-366,971	541,850	-0,030	-0,052
-365,956	800,000	0,050	0,109
-364,942	-200,000	-0,007	0,026
-363,927	198,500	-0,026	-0,029
-362,912	-200,000	-0,006	0,083
-361,898	665,814	0,025	0,048
-360,883	-200,000	0,001	-0,159
-359,869	115,826	0,049	-0,044
-358,854	116,226	-0,052	0,046
-357,839	800,000	0,035	0,109
-356,825	-115,632	0,108	0,015
-355,810	-200,000	0,038	0,148
-354,796	354,649	-0,031	-0,045
-353,781	-200,000	-0,013	-0,051
-352,766	58,933	0,054	-0,039
-351,752	-200,000	0,011	0,085
-350,737	-19,012	0,061	0,027
-349,723	800,000	-0,032	-0,100
-348,708	-200,000	-0,005	-0,082
-347,693	-169,680	-0,161	0,004
-346,679	800,000	-0,035	0,087
-345,664	110,772	-0,082	0,072
-344,650	-58,939	0,172	0,054
-343,635	-200,000	0,002	0,031
-342,620	-47,543	0,148	-0,052
-341,606	748,319	-0,018	0,036
-340,591	-25,162	-0,131	-0,056
-339,577	-200,000	-0,051	-0,178
-338,562	-200,000	0,006	-0,125
-337,548	375,011	-0,055	0,082
-336,533	800,000	-0,021	0,044
-335,518	498,747	0,042	0,071
-334,504	-200,000	-0,003	0,011
-333,489	76,195	0,092	-0,071
-332,475	800,000	0,052	-0,145
-331,460	57,753	-0,091	0,064
-330,445	173,545	-0,041	-0,043
-329,431	98,217	-0,047	0,039
-328,416	800,000	0,013	0,034
-327,402	76,110	-0,041	-0,032
-326,387	-200,000	0,008	0,071
-325,372	800,000	-0,043	-0,114
-324,358	-200,000	-0,022	-0,167
-323,343	120,601	0,066	0,059
-322,329	-89,811	0,010	-0,002
-321,314	130,704	-0,068	0,063
-320,299	42,140	0,088	-0,058
-319,285	-200,000	0,005	0,138
-318,270	230,760	0,091	-0,108
-317,256	-17,482	-0,148	-0,067
-316,241	5,912	0,037	0,020
-315,226	-200,000	-0,006	0,049
-314,212	150,049	0,066	0,065
-313,197	392,402	0,064	0,097
-312,183	99,183	-0,072	0,060
-311,168	-200,000	-0,010	-0,144
-310,153	-102,307	-0,129	-0,022
-309,139	53,463	-0,020	-0,014
-308,124	-200,000	-0,002	-0,064
-307,110	-196,771	0,077	0,000
-306,095	87,960	-0,102	0,082
-305,080	-200,000	0,001	0,042
-304,066	-200,000	0,021	-0,078
-303,051	-46,066	-0,137	0,049
-302,037	-40,092	-0,103	0,039
-301,022	367,456	0,043	-0,063
-300,008	-24,986	0,051	-0,022
-298,993	-128,041	-0,112	0,011
-297,978	286,742	-0,013	0,017
-296,964	-200,000	-0,008	-0,106
-295,949	-115,069	0,136	0,019
-294,935	60,378	-0,045	0,032
-293,920	-137,410	0,079	-0,006
-292,905	176,418	0,096	0,101
-291,891	-200,000	-0,022	0,120
-290,876	-154,309	0,071	0,003
-289,862	162,593	-0,052	0,052
-288,847	800,000	-0,052	-0,144
-287,832	-200,000	-0,014	0,056
-286,818	-200,000	-0,021	0,094
-285,803	-16,240	0,176	0,081
-284,789	103,096	-0,074	0,063
-283,774	-54,024	-0,059	-0,019
-282,759	289,363	-0,066	-0,087
-281,745	441,180	0,028	-0,044
-280,730	800,000	-0,023	-0,066
-279,716	41,890	-0,128	-0,084
-278,701	68,027	0,123	0,091
-277,686	-92,905	-0,037	0,007
-276,672	-42,227	-0,119	-0,044
-275,657	-125,002	0,038	-0,004
-274,643	800,000	-0,091	-0,192
-273,628	800,000	0,048	-0,151
-272,613	-200,000	0,023	-0,128
-271,599	-200,000	0,010	-0,091
-270,584	-71,725	0,094	0,025
-269,570	66,342	-0,075	0,055
-268,555	-55,994	0,085	-0,027
-267,540	583,092	-0,099	0,176
-266,526	9,979	0,064	-0,035
-265,511	-78,102	0,126	0,031
-264,497	-200,000	0,001	0,016
-263,482	273,899	-0,043	0,055
-262,467	-122,453	-0,070	0,008
-261,453	139,169	-0,068	-0,065
-260,438	800,000	-0,046	0,104
-259,424	-200,000	-0,018	0,062
-258,409	358,210	0,044	-0,064
-257,395	584,723	0,047	-0,083
-256,380	-153,525	0,026	-0,001
-255,365	-200,000	-0,006	0,069
-254,351	-68,554	0,235	0,066
-253,336	24,751	-0,168	0,101
-252,322	-66,845	-0,159	-0,045
-251,307	-168,090	0,013	-0,000
-250,292	800,000	-0,060	-0,125
-249,278	-200,000	0,002	0,114
-248,263	30,413	0,069	0,043
-247,249	149,914	-0,086	0,085
-246,234	176,790	0,023	-0,025
-245,219	-200,000	0,181	0,000
-244,205	-142,982	-0,055	0,004
-243,190	131,230	0,041	-0,038
-242,176	-162,912	0,134	-0,005
-241,161	-200,000	-0,006	0,091
-240,146	520,995	-0,017	0,029
-239,132	-99,379	-0,037	0,007
-238,117	-200,000	-0,001	-0,125
-237,103	-200,000	-0,027	-0,090
-236,088	-37,837	0,094	-0,036
-235,073	-200,000	0,018	0,070
-234,059	-200,000	-0,006	-0,033
-233,044	-66,895	-0,096	-0,027
-232,030	-200,000	0,003	0,020
-231,015	338,830	-0,042	-0,060
-230,000	75,958	-0,160	-0,123
-228,986	29,867	-0,037	-0,023
-227,971	202,737	-0,046	0,051
-226,957	800,000	0,016	0,038
-225,942	348,074	0,056	0,080
-224,927	-200,000	-0,003	-0,096
-223,913	450,901	0,042	-0,068
-222,898	155,884	-0,101	-0,101
-221,884	800,000	0,021	-0,062
-220,869	800,000	0,029	0,085
-219,855	-200,000	0,020	0,131
-218,840	591,385	0,050	-0,090
-217,825	-5,851	-0,098	-0,048
-216,811	-200,000	-0,019	-0,170
-215,796	724,947	-0,029	-0,055
-214,782	800,000	-0,030	0,097
-213,767	91,485	0,109	0,088
-212,752	-93,712	0,087	0,017
-211,738	-61,509	0,177	0,053
-210,723	-200,000	-0,009	0,120
-209,709	206,608	-0,068	0,077
-208,694	-200,000	0,009	-0,062
-207,679	58,337	-0,027	-0,019
-206,665	195,366	0,115	0,127
-205,650	800,000	-0,042	0,110
-204,636	800,000	0,011	0,032
-203,621	412,087	0,054	0,083
-202,606	59,238	-0,064	0,045
-201,592	189,616	-0,048	0,052
-200,577	-200,000	-0,016	-0,106
-199,563	-79,745	-0,038	-0,009
-198,548	249,643	0,024	-0,029
-197,533	800,000	0,049	0,118
-196,519	194,225	0,050	0,055
-195,504	-200,000	-0,006	0,124
-194,490	-83,865	-0,166	0,038
-193,475	275,583	-0,066	-0,084
-192,460	-200,000	0,002	0,015
-191,446	-69,685	0,105	-0,029
-190,431	-35,941	0,125	0,049
-189,417	-200,000	-0,037	0,131
-188,402	-78,058	-0,113	0,028
-187,387	800,000	-0,015	0,036
-186,373	-200,000	0,005	-0,150
-185,358	40,164	0,096	-0,062
-184,344	800,000	-0,041	0,118
-183,329	800,000	0,029	-0,086
-182,315	-150,355	0,129	-0,007
-181,300	-128,997	0,144	0,014
-180,285	666,959	-0,041	-0,077
-179,271	64,062	-0,086	-0,062
-178,256	-115,788	0,120	0,016
-177,242	-200,000	-0,002	0,072
-176,227	177,084	-0,121	0,127
-175,212	171,681	-0,028	-0,029
-174,198	800,000	0,018	-0,054
-173,183	-19,077	0,010	-0,004
-172,169	57,972	-0,058	0,041
-171,154	800,000	-0,031	0,087
-170,139	-200,000	-0,000	0,034
-169,125	257,112	0,017	-0,021
-168,110	180,266	-0,110	-0,116
-167,096	261,990	0,091	-0,114
-166,081	-6,251	-0,060	-0,029
-165,066	800,000	0,036	-0,083
-164,052	800,000	0,041	-0,131
-163,037	-122,486	-0,038	-0,004
-162,023	9,295	0,059	-0,032
-161,008	-73,204	0,173	-0,045
-159,993	86,346	-0,013	0,010
-158,979	256,743	0,070	0,087
-157,964	-58,002	-0,079	-0,025
-156,950	260,045	0,033	0,041
-155,935	143,330	0,069	0,066
-154,920	-57,362	-0,049	0,015
-153,906	800,000	0,028	-0,057
-152,891	218,006	0,026	0,030
-151,877	610,104	-0,049	0,089
-150,862	-80,547	0,092	0,022
-149,847	-200,000	-0,037	0,144
-148,833	-112,873	-0,101	-0,014
-147,818	-122,269	-0,028	-0,003
-146,804	-78,031	0,161	-0,040
-145,789	168,757	-0,032	0,033
-144,775	-136,325	-0,106	-0,009
-143,760	-172,091	0,046	0,001
-142,745	-200,000	0,011	0,045
-141,731	-200,000	-0,008	0,112
-140,716	161,749	-0,020	-0,020
-139,702	4,208	0,111	0,058
-138,687	-89,303	0,124	0,026
-137,672	800,000	-0,045	-0,099
-136,658	-82,935	-0,164	0,038
-135,643	116,185	0,046	0,041
-134,629	28,280	-0,039	0,023
-133,614	-200,000	0,038	0,140
-132,599	-53,588	0,140	-0,046
-131,585	29,406	0,064	0,039
-130,570	254,985	0,021	0,026
-129,556	609,065	0,029	-0,053
-128,541	192,651	-0,090	-0,097
-127,526	-115,846	-0,111	-0,015
-126,512	451,097	0,083	0,133
-125,497	-200,000	0,002	0,023
-124,483	23,116	-0,178	0,105
-123,468	-12,594	0,067	0,031
-122,453	0,782	-0,092	0,047
-121,439	357,117	-0,027	0,039
-120,424	800,000	-0,028	0,065
