DTS Sentinel unit serial number:	SN410029Multiplexer serial number:	ORYXHardware model number:	OX2-SRSoftware version number:	ORYX F/W v4,00 Oryx Data Collector v3.7.2.0data status	okinstallation	B5 Nyhavnadifferential loss correction	single-endedforward channel	channel 2reverse channel	N/Adate	2023/12/12time	22:22:13forward acquisition time	300,00reverse acquisition time	0,00gamma	499,1914k internal	0,3158k external	0,3158temperature offset calibration	1,0000default loss term (dB/km)	0,3820temperature slope calibration	1,0000multiplexer offset coefficient	1,0000multiplexer slope coefficient	1,0000fibre end	0,00T internal ref (°C)	14,68T ext. ref 1 (°C)	-1,90T ext. ref 2 (°C)	-2,20length (m)	temperature (°C)	Stokes	anti-Stokes-744,400	-0,660	0,068	-0,035
-743,385	-47,878	-0,281	0,100
-742,371	-200,000	0,052	0,237
-741,356	-171,886	-0,290	-0,007
-740,342	-181,334	0,187	0,003
-739,327	-135,181	-0,293	0,026
-738,312	57,839	0,169	0,122
-737,298	-65,879	-0,181	-0,053
-736,283	-5,153	-0,058	0,030
-735,269	-106,940	-0,197	0,032
-734,254	-200,000	0,011	0,054
-733,239	-42,230	-0,395	-0,148
-732,225	77,876	0,184	0,144
-731,210	129,026	-0,113	0,106
-730,196	335,262	0,015	-0,021
-729,181	800,000	-0,013	0,028
-728,167	8,443	-0,089	0,049
-727,152	-200,000	0,000	0,041
-726,137	-107,898	-0,177	0,028
-725,123	-132,426	-0,174	-0,016
-724,108	102,243	-0,012	-0,011
-723,094	7,748	-0,086	-0,047
-722,079	488,220	-0,151	-0,255
-721,064	-71,306	-0,139	0,038
-720,050	576,601	-0,095	0,172
-719,035	-92,407	-0,036	0,007
-718,021	57,584	-0,033	0,024
-717,006	-32,302	0,033	0,014
-715,991	257,767	-0,055	-0,070
-714,977	-40,077	-0,074	-0,028
-713,962	107,909	0,055	-0,049
-712,948	800,000	0,013	0,027
-711,933	-184,893	0,090	0,001
-710,918	28,780	-0,043	-0,026
-709,904	800,000	0,016	0,050
-708,889	-200,000	0,037	-0,139
-707,875	314,389	-0,132	0,183
-706,860	-200,000	0,018	0,134
-705,845	139,184	0,110	0,107
-704,831	532,262	0,056	0,098
-703,816	-116,802	-0,107	-0,014
-702,802	-150,719	-0,123	0,007
-701,787	301,408	0,084	0,114
-700,772	105,721	-0,107	-0,093
-699,758	-200,000	0,006	-0,059
-698,743	309,891	-0,033	-0,046
-697,729	192,358	-0,041	-0,045
-696,714	198,022	0,174	0,196
-695,699	-81,059	-0,049	-0,012
-694,685	-181,055	-0,114	-0,002
-693,670	526,459	0,015	0,026
-692,656	-132,418	0,008	-0,001
-691,641	333,303	-0,026	0,038
-690,627	64,083	0,042	-0,031
-689,612	800,000	0,023	0,059
-688,597	-92,277	0,020	0,004
-687,583	-200,000	-0,019	-0,072
-686,568	-200,000	-0,039	-0,151
-685,554	800,000	-0,012	-0,031
-684,539	750,345	0,045	-0,090
-683,524	-56,718	-0,033	0,011
-682,510	-120,591	-0,092	0,011
-681,495	-169,323	-0,112	-0,003
-680,481	185,819	-0,103	-0,113
-679,466	57,733	0,025	0,018
-678,451	-200,000	-0,039	-0,133
-677,437	590,290	0,043	-0,079
-676,422	-200,000	0,003	0,028
-675,408	204,620	-0,050	0,058
-674,393	64,057	-0,045	0,033
-673,378	-132,959	-0,051	0,005
-672,364	472,063	-0,020	0,032
-671,349	195,343	0,033	-0,037
-670,335	800,000	-0,036	-0,113
-669,320	39,192	-0,081	0,053
-668,305	11,941	0,126	0,071
-667,291	800,000	0,046	-0,119
-666,276	367,865	0,057	-0,085
-665,262	294,559	-0,110	-0,149
-664,247	800,000	-0,057	-0,130
-663,232	-7,873	-0,152	0,075
-662,218	105,453	0,074	-0,064
-661,203	-200,000	-0,023	-0,103
-660,189	58,968	-0,089	0,064
-659,174	-200,000	-0,025	-0,138
-658,159	59,781	0,059	0,043
-657,145	716,219	0,041	-0,080
-656,130	-200,000	0,008	0,044
-655,116	-82,079	0,077	0,018
-654,101	800,000	-0,028	-0,066
-653,086	-21,162	0,049	0,022
-652,072	-59,922	-0,229	0,072
-651,057	573,503	0,039	-0,071
-650,043	-129,869	-0,111	-0,011
-649,028	-78,005	0,081	-0,020
-648,014	-70,331	0,065	0,018
-646,999	225,619	-0,015	0,018
-645,984	-200,000	0,001	0,021
-644,970	-200,000	-0,001	-0,039
-643,955	-45,794	-0,170	-0,061
-642,941	21,065	-0,025	0,015
-641,926	-200,000	-0,019	-0,102
-640,911	-67,948	-0,154	-0,044
-639,897	-38,709	0,163	0,063
-638,882	-30,017	0,069	0,029
-637,868	-46,511	-0,067	-0,024
-636,853	516,274	-0,087	0,149
-635,838	-200,000	0,024	-0,110
-634,824	-101,456	-0,072	0,013
-633,809	-200,000	-0,001	-0,149
-632,795	146,498	-0,062	-0,061
-631,780	-18,419	0,080	-0,037
-630,765	-99,893	0,032	-0,006
-629,751	-46,496	-0,056	-0,020
-628,736	-85,244	0,046	0,011
-627,722	-171,813	0,077	0,002
-626,707	-200,000	0,013	-0,072
-625,692	-200,000	-0,001	0,190
-624,678	800,000	0,017	0,037
-623,663	306,043	-0,077	-0,105
-622,649	17,766	-0,128	-0,075
-621,634	-81,078	-0,101	-0,024
-620,619	-162,235	-0,038	-0,001
-619,605	800,000	-0,082	-0,170
-618,590	-126,905	0,048	-0,005
-617,576	495,699	-0,081	0,137
-616,561	-200,000	0,002	0,126
-615,546	800,000	-0,069	-0,150
-614,532	115,460	-0,071	0,063
-613,517	-94,874	-0,105	0,021
-612,503	-53,562	-0,097	-0,032
-611,488	-130,458	0,166	0,016
-610,474	-29,872	-0,074	-0,031
-609,459	564,290	-0,054	-0,097
-608,444	-48,008	-0,077	-0,027
-607,430	92,856	-0,061	-0,051
-606,415	800,000	-0,060	-0,184
-605,401	-162,149	0,062	0,002
-604,386	686,827	0,018	-0,035
-603,371	30,877	-0,113	0,071
-602,357	-52,255	0,031	0,010
-601,342	243,933	-0,032	-0,040
-600,328	-200,000	-0,023	-0,098
-599,313	407,961	-0,039	-0,061
-598,298	-200,000	0,014	-0,065
-597,284	-188,856	0,135	0,001
-596,269	-200,000	0,006	-0,163
-595,255	1,160	0,074	-0,039
-594,240	-95,627	-0,050	0,010
-593,225	-200,000	-0,002	-0,071
-592,211	-4,129	-0,097	0,049
-591,196	362,011	0,051	-0,075
-590,182	-163,330	0,061	-0,002
-589,167	64,695	-0,121	0,090
-588,152	13,088	0,102	-0,058
-587,138	-35,566	-0,046	0,018
-586,123	496,646	0,046	-0,078
-585,109	800,000	0,042	-0,119
-584,094	38,969	0,005	0,003
-583,079	800,000	0,026	0,059
-582,065	-200,000	-0,008	-0,029
-581,050	-67,954	0,088	0,025
-580,036	438,430	-0,034	0,055
-579,021	-89,000	-0,070	-0,015
-578,006	-200,000	-0,015	-0,093
-576,992	-200,000	-0,007	-0,140
-575,977	-200,000	0,029	0,101
-574,963	-200,000	-0,004	0,191
-573,948	-167,623	0,013	-0,000
-572,934	-119,006	-0,040	0,005
-571,919	-98,931	-0,084	-0,016
-570,904	-200,000	-0,004	0,062
-569,890	-200,000	-0,008	0,056
-568,875	266,885	0,131	-0,168
-567,861	-200,000	0,011	0,062
-566,846	2,469	-0,134	-0,071
-565,831	-200,000	0,018	-0,149
-564,817	75,890	-0,085	-0,066
-563,802	-200,000	-0,007	0,064
-562,788	-51,528	-0,059	-0,020
-561,773	-200,000	0,002	-0,098
-560,758	81,565	-0,100	0,079
-559,744	-200,000	-0,014	0,073
-558,729	258,763	-0,067	0,084
-557,715	13,964	-0,122	0,069
-556,700	205,667	-0,033	0,038
-555,685	-200,000	-0,036	-0,146
-554,671	-36,240	0,135	-0,053
-553,656	800,000	-0,022	-0,059
-552,642	3,175	-0,022	0,012
-551,627	-40,701	0,075	-0,028
-550,612	695,552	-0,058	-0,112
-549,598	-200,000	-0,029	0,115
-548,583	-15,008	-0,044	-0,020
-547,569	717,057	-0,027	0,053
-546,554	-200,000	0,007	-0,132
-545,539	44,887	0,127	-0,085
-544,525	130,783	0,090	0,084
-543,510	68,385	0,060	-0,045
-542,496	-200,000	0,021	-0,098
-541,481	-200,000	-0,025	0,092
-540,466	-7,315	-0,056	0,028
-539,452	682,817	0,043	-0,082
-538,437	104,841	0,068	-0,058
-537,423	-136,779	-0,080	0,007
-536,408	-98,642	0,096	0,018
-535,393	-200,000	0,011	0,071
-534,379	46,171	-0,043	0,029
-533,364	511,640	0,017	-0,028
-532,350	180,536	0,131	0,141
-531,335	800,000	-0,029	-0,070
-530,321	522,958	0,021	-0,037
-529,306	221,870	-0,063	-0,075
-528,291	-200,000	0,010	0,073
-527,277	92,664	-0,073	-0,060
-526,262	132,813	0,075	0,071
-525,248	-200,000	0,007	-0,047
-524,233	5,698	-0,036	0,019
-523,218	-200,000	-0,022	-0,139
-522,204	-200,000	0,015	0,062
-521,189	699,110	-0,041	0,079
-520,175	-58,642	-0,036	0,011
-519,160	-36,186	-0,104	0,041
-518,145	65,565	-0,081	0,060
-517,131	285,901	0,049	0,065
-516,116	-65,048	0,114	-0,033
-515,102	-51,134	-0,026	-0,009
-514,087	800,000	0,020	-0,047
-513,072	-200,000	0,029	-0,096
-512,058	-136,905	0,062	-0,005
-511,043	800,000	0,075	-0,197
-510,029	800,000	-0,037	-0,089
-509,014	123,421	-0,076	-0,069
-507,999	-79,140	0,114	0,028
-506,985	159,813	0,029	0,030
-505,970	49,876	-0,099	-0,068
-504,956	296,040	-0,062	0,084
-503,941	115,677	-0,097	0,087
-502,926	-36,176	0,027	-0,011
-501,912	-200,000	-0,001	0,185
-500,897	800,000	-0,032	0,071
-499,883	-126,405	0,073	0,008
-498,868	-138,290	0,096	0,008
-497,853	-55,015	-0,099	-0,032
-496,839	38,816	0,097	0,063
-495,824	308,996	0,101	0,139
-494,810	-70,790	0,076	-0,021
-493,795	-200,000	0,006	0,106
-492,781	247,251	-0,045	0,055
-491,766	800,000	0,008	-0,018
-490,751	46,136	-0,079	-0,053
-489,737	-43,333	0,029	-0,011
-488,722	-200,000	-0,030	-0,128
-487,708	-25,224	0,138	0,059
-486,693	800,000	0,024	0,050
-485,678	-37,222	-0,056	-0,022
-484,664	157,227	-0,034	-0,034
-483,649	-200,000	0,065	-0,000
-482,635	84,422	-0,054	0,043
-481,620	-106,059	-0,033	-0,005
-480,605	-200,000	-0,007	0,048
-479,591	-200,000	0,007	0,130
-478,576	170,391	-0,122	-0,128
-477,562	519,158	0,052	-0,089
-476,547	-200,000	0,007	0,107
-475,532	-34,963	0,076	-0,030
-474,518	113,598	-0,050	0,044
-473,503	169,676	-0,089	0,093
-472,489	44,555	0,105	0,070
-471,474	-200,000	0,014	-0,052
-470,459	-200,000	-0,012	-0,077
-469,445	422,267	-0,030	0,047
-468,430	800,000	0,045	-0,106
-467,416	-54,693	0,136	0,045
-466,401	-200,000	-0,009	0,066
-465,386	-11,183	0,108	0,052
-464,372	-105,276	-0,150	0,025
-463,357	125,786	-0,011	0,010
-462,343	800,000	0,033	0,105
-461,328	2,720	0,097	0,051
-460,313	-71,028	0,051	-0,014
-459,299	107,801	-0,134	0,116
-458,284	185,140	-0,030	-0,033
-457,270	54,956	0,021	0,015
-456,255	-42,189	-0,009	-0,003
-455,241	-200,000	0,004	0,035
-454,226	10,006	0,055	-0,031
-453,211	-200,000	-0,007	0,119
-452,197	-129,858	0,108	-0,011
-451,182	100,852	0,068	-0,058
-450,168	-200,000	-0,008	0,034
-449,153	-200,000	-0,000	-0,017
-448,138	425,979	-0,038	-0,060
-447,124	354,868	-0,095	-0,138
-446,109	-145,933	-0,076	-0,005
-445,095	572,941	0,046	0,083
-444,080	-200,000	0,030	0,121
-443,065	-76,899	0,052	0,013
-442,051	800,000	-0,044	-0,096
-441,036	-200,000	-0,065	0,270
-440,022	-200,000	-0,011	0,097
-439,007	42,372	-0,138	-0,091
-437,992	540,551	0,038	-0,067
-436,978	326,376	0,064	-0,090
-435,963	-200,000	-0,003	-0,044
-434,949	-56,272	-0,130	-0,042
-433,934	-200,000	0,007	0,033
-432,919	326,805	-0,043	-0,061
-431,905	97,316	0,063	-0,053
-430,890	491,853	0,048	0,080
-429,876	-200,000	-0,002	-0,029
-428,861	800,000	-0,056	0,134
-427,846	668,977	-0,022	-0,042
-426,832	207,239	0,029	-0,033
-425,817	800,000	-0,045	0,112
-424,803	-145,236	-0,127	-0,008
-423,788	-29,869	0,107	-0,044
-422,773	3,781	-0,167	0,089
-421,759	83,871	0,058	0,046
-420,744	-200,000	0,017	0,150
-419,730	-51,377	-0,036	0,012
-418,715	-75,074	0,125	0,032
-417,701	-200,000	-0,005	0,044
-416,686	-200,000	-0,008	0,094
-415,671	800,000	0,042	0,108
-414,657	181,138	0,059	0,064
-413,642	-29,557	-0,067	-0,028
-412,628	800,000	0,033	-0,069
-411,613	800,000	-0,021	-0,053
-410,598	307,527	0,149	0,203
-409,584	427,204	0,076	0,119
-408,569	800,000	0,037	-0,099
-407,555	-150,951	-0,035	-0,002
-406,540	26,693	0,081	-0,049
-405,525	614,326	-0,073	0,133
-404,511	-154,459	0,102	-0,005
-403,496	-46,260	0,061	0,022
-402,482	695,096	0,049	0,093
-401,467	34,097	-0,034	0,022
-400,452	-11,284	0,098	0,047
-399,438	-200,000	-0,020	-0,110
-398,423	800,000	-0,045	-0,111
-397,409	-110,498	0,063	0,009
-396,394	217,492	-0,047	-0,055
-395,379	175,397	0,049	0,051
-394,365	83,879	-0,014	0,011
-393,350	-98,342	0,127	-0,023
-392,336	79,711	-0,063	-0,049
-391,321	741,913	-0,024	0,047
-390,306	-200,000	0,008	-0,031
-389,292	-200,000	0,026	-0,108
-388,277	466,984	0,026	0,043
-387,263	-200,000	-0,019	0,072
-386,248	-200,000	0,011	0,043
-385,233	78,620	0,087	-0,068
-384,219	663,717	-0,063	-0,119
-383,204	121,374	0,060	0,054
-382,190	-150,312	-0,008	-0,000
-381,175	-96,144	0,030	0,006
-380,160	-59,727	0,141	0,044
-379,146	-200,000	0,032	0,128
-378,131	625,457	0,100	0,184
-377,117	511,841	-0,089	0,150
-376,102	35,130	-0,063	-0,040
-375,088	310,550	-0,035	-0,048
-374,073	638,897	-0,138	0,256
-373,058	-200,000	-0,013	0,133
-372,044	800,000	0,020	0,058
-371,029	-200,000	-0,054	0,225
-370,015	272,675	-0,035	0,045
-369,000	-27,232	-0,111	0,047
-367,985	-12,863	-0,113	0,053
-366,971	39,186	0,061	-0,040
-365,956	800,000	0,022	-0,053
-364,942	-200,000	0,009	0,039
-363,927	421,633	-0,053	0,083
-362,912	-177,869	-0,047	0,001
-361,898	-135,868	0,029	0,002
-360,883	800,000	-0,061	0,172
-359,869	800,000	0,022	0,068
-358,854	800,000	-0,012	-0,038
-357,839	2,214	0,032	0,017
-356,825	-200,000	0,010	0,059
-355,810	-200,000	0,008	-0,132
-354,796	-200,000	-0,021	-0,185
-353,781	383,329	-0,023	0,035
-352,766	68,567	-0,091	-0,067
-351,752	231,110	0,003	0,004
-350,737	800,000	-0,027	0,084
-349,723	132,142	-0,065	0,061
-348,708	399,945	-0,014	-0,022
-347,693	800,000	0,029	-0,078
-346,679	800,000	-0,058	-0,143
-345,664	-143,050	0,125	-0,009
-344,650	-133,304	-0,047	0,004
-343,635	-200,000	0,033	-0,117
-342,620	-101,506	0,105	-0,018
-341,606	-115,438	0,009	0,001
-340,591	184,869	0,050	-0,054
-339,577	190,195	-0,079	-0,086
-338,562	-96,766	0,168	0,032
-337,548	-29,299	0,035	-0,015
-336,533	31,141	0,095	-0,059
-335,518	800,000	-0,049	0,118
-334,504	-200,000	0,004	-0,029
-333,489	208,431	0,093	-0,106
-332,475	790,065	0,092	-0,184
-331,460	800,000	0,027	0,084
-330,445	-200,000	0,000	0,040
-329,431	220,015	0,019	-0,022
-328,416	-106,401	0,204	-0,033
-327,402	-200,000	-0,030	0,104
-326,387	800,000	-0,022	-0,046
-325,372	-40,847	-0,072	-0,027
-324,358	-69,073	0,082	-0,023
-323,343	-200,000	-0,003	0,055
-322,329	237,720	0,072	0,087
-321,314	-200,000	0,002	-0,009
-320,299	-179,786	-0,124	-0,002
-319,285	129,976	0,034	-0,032
-318,270	-200,000	-0,031	-0,255
-317,256	800,000	-0,053	-0,135
-316,241	123,311	-0,057	0,051
-315,226	-85,756	0,137	-0,031
-314,212	-200,000	0,003	0,127
-313,197	72,891	0,015	0,011
-312,183	-28,386	0,091	0,038
-311,168	-14,809	0,058	0,027
-310,153	120,358	0,055	-0,050
-309,139	22,407	0,093	0,055
-308,124	-178,857	-0,131	-0,002
-307,110	-142,000	0,184	-0,013
-306,095	91,229	0,057	-0,046
-305,080	78,342	-0,084	0,065
-304,066	-200,000	0,020	-0,113
-303,051	719,984	0,011	-0,021
-302,037	1,834	-0,061	0,032
-301,022	-200,000	0,000	-0,080
-300,008	-174,219	0,076	-0,002
-298,993	-200,000	-0,001	-0,030
-297,978	94,594	-0,013	-0,011
-296,964	18,875	-0,135	0,078
-295,949	800,000	-0,051	-0,140
-294,935	-191,398	0,079	-0,001
-293,920	-63,495	-0,120	0,036
-292,905	59,141	0,057	0,041
-291,891	800,000	0,018	-0,051
-290,876	11,785	0,104	-0,058
-289,862	800,000	-0,043	-0,115
-288,847	800,000	-0,044	-0,126
-287,832	-66,766	0,028	0,008
-286,818	-200,000	-0,004	-0,049
-285,803	41,923	0,165	0,108
-284,789	277,217	-0,066	0,085
-283,774	154,423	0,062	-0,062
-282,759	0,941	-0,092	-0,047
-281,745	-53,758	0,052	-0,017
-280,730	34,340	0,086	0,054
-279,716	800,000	-0,008	0,021
-278,701	662,575	0,032	-0,061
-277,686	304,721	0,034	0,045
-276,672	800,000	0,025	0,078
-275,657	-170,418	0,033	-0,001
-274,643	662,211	-0,061	-0,114
-273,628	477,409	-0,032	-0,053
-272,613	54,265	0,062	-0,043
-271,599	103,279	-0,065	-0,055
-270,584	800,000	0,020	-0,045
-269,570	74,489	0,055	-0,041
-268,555	-200,000	-0,009	-0,053
-267,540	-200,000	0,023	-0,188
-266,526	187,785	-0,076	-0,082
-265,511	585,116	0,027	-0,048
-264,497	-200,000	0,011	-0,094
-263,482	-157,890	-0,158	-0,007
-262,467	-200,000	0,004	0,066
-261,453	39,972	-0,030	0,020
-260,438	208,807	0,019	0,022
-259,424	-200,000	0,002	0,051
-258,409	-36,457	-0,094	-0,036
-257,395	-172,891	0,042	0,001
-256,380	-65,646	0,030	-0,009
-255,365	-104,615	-0,073	-0,012
-254,351	135,216	-0,093	0,087
-253,336	480,317	-0,020	-0,032
-252,322	233,428	0,090	0,107
-251,307	-89,506	0,057	-0,012
-250,292	800,000	0,035	-0,090
-249,278	556,904	0,030	0,053
-248,263	-200,000	0,017	0,111
-247,249	329,675	0,052	0,072
-246,234	800,000	-0,056	-0,121
-245,219	-200,000	0,011	-0,061
-244,205	-33,044	-0,248	-0,099
-243,190	236,922	0,052	0,062
-242,176	335,450	0,032	-0,044
-241,161	-104,271	0,043	-0,007
-240,146	-200,000	-0,003	0,147
-239,132	393,661	-0,039	0,060
-238,117	-122,554	-0,135	-0,016
-237,103	800,000	0,038	-0,100
-236,088	234,430	0,108	-0,129
-235,073	282,483	0,061	0,080
-234,059	95,718	0,077	-0,063
-233,044	299,035	-0,037	0,049
-232,030	800,000	-0,023	-0,053
-231,015	-82,871	-0,101	0,023
-230,000	20,489	0,043	-0,025
-228,986	-59,708	0,058	0,018
-227,971	-144,894	-0,086	0,006
-226,957	81,891	-0,056	0,044
-225,942	482,964	0,047	0,077
-224,927	-200,000	0,008	-0,059
-223,913	-200,000	0,008	-0,045
-222,898	-14,445	-0,125	0,058
-221,884	177,770	-0,036	-0,038
-220,869	0,488	0,098	0,051
-219,855	-106,507	0,077	-0,012
-218,840	-0,377	-0,084	-0,043
-217,825	-150,481	0,103	0,006
-216,811	10,115	0,165	0,090
-215,796	-30,208	-0,191	-0,078
-214,782	129,705	0,081	0,074
-213,767	-136,200	0,072	-0,006
-212,752	-200,000	0,009	0,136
-211,738	-200,000	-0,023	0,074
-210,723	-85,510	-0,158	0,035
-209,709	-11,368	-0,075	-0,035
-208,694	69,527	-0,081	0,060
-207,679	293,661	0,026	-0,035
-206,665	38,947	0,073	-0,047
-205,650	11,944	0,059	0,032
-204,636	800,000	-0,046	0,119
-203,621	469,011	0,048	0,078
-202,606	238,032	-0,105	0,126
-201,592	-40,089	-0,045	-0,017
-200,577	43,108	-0,120	0,079
-199,563	-200,000	0,001	0,021
-198,548	345,855	0,035	0,049
-197,533	516,921	0,011	-0,018
-196,519	800,000	-0,025	0,072
-195,504	3,613	-0,080	0,042
-194,490	800,000	-0,066	-0,135
-193,475	-200,000	-0,034	-0,137
-192,460	378,907	0,031	-0,046
-191,446	71,764	0,060	-0,045
-190,431	317,102	0,058	0,080
-189,417	-95,910	-0,100	0,019
-188,402	-200,000	0,010	-0,045
-187,387	-174,165	-0,020	0,000
-186,373	93,985	-0,086	-0,071
-185,358	4,537	0,107	-0,056
-184,344	-150,973	0,098	-0,005
-183,329	289,640	0,033	0,044
-182,315	-49,998	0,151	0,051
-181,300	-8,269	-0,042	-0,020
-180,285	146,689	-0,063	0,061
-179,271	-200,000	0,021	0,067
-178,256	62,572	0,135	0,097
-177,242	-67,178	0,162	-0,046
-176,227	148,252	-0,020	-0,019
-175,212	-189,342	0,102	0,001
-174,198	-200,000	-0,005	0,034
-173,183	-158,341	-0,194	0,008
-172,169	44,064	0,082	0,054
-171,154	531,566	0,084	-0,143
-170,139	-200,000	-0,005	-0,084
-169,125	153,500	-0,055	0,054
-168,110	504,243	0,095	0,159
-167,096	-200,000	-0,006	-0,037
-166,081	168,646	-0,066	-0,068
-165,066	-12,753	-0,087	-0,041
-164,052	-93,634	0,119	0,023
-163,037	-149,556	-0,115	0,006
-162,023	153,487	0,112	0,111
-161,008	40,369	0,047	0,031
-159,993	750,213	0,034	-0,066
-158,979	670,769	-0,051	-0,095
-157,964	106,923	-0,047	-0,040
-156,950	214,574	-0,172	0,197
-155,935	-200,000	0,004	0,038
-154,920	-139,928	-0,085	-0,006
-153,906	-39,148	-0,017	-0,006
-152,891	800,000	0,055	-0,119
-151,877	380,580	0,024	0,035
-150,862	-200,000	0,029	-0,093
-149,847	191,315	0,062	-0,067
-148,833	-50,080	0,150	-0,051
-147,818	61,183	0,085	-0,061
-146,804	-200,000	-0,008	-0,026
-145,789	98,427	0,078	-0,065
-144,775	7,824	-0,099	0,053
-143,760	525,833	-0,035	0,060
-142,745	153,145	0,096	-0,094
-141,731	-200,000	-0,008	0,062
-140,716	-93,047	0,035	0,007
-139,702	178,195	0,136	-0,143
-138,687	-200,000	-0,008	-0,072
-137,672	337,199	-0,068	0,095
-136,658	572,727	-0,022	0,039
-135,643	-200,000	0,001	-0,003
-134,629	-200,000	0,023	0,104
-133,614	179,460	0,033	-0,035
-132,599	48,826	0,094	0,063
-131,585	-61,283	0,035	0,011
-130,570	-169,663	-0,039	-0,001
-129,556	800,000	-0,032	-0,070
-128,541	-22,946	-0,137	-0,059
-127,526	-42,949	0,096	0,035
-126,512	249,077	0,018	-0,022
-125,497	800,000	0,060	0,147
-124,483	-68,684	0,060	0,017
-123,468	67,552	-0,075	-0,055
-122,453	70,549	0,044	-0,033
-121,439	-48,865	-0,060	-0,021
-120,424	-200,000	-0,018	-0,069
-119,410	615,754	-0,012	-0,022
