DTS Sentinel unit serial number:	SN410029Multiplexer serial number:	ORYXHardware model number:	OX2-SRSoftware version number:	ORYX F/W v4,00 Oryx Data Collector v3.7.2.0data status	okinstallation	B5 Nyhavnadifferential loss correction	single-endedforward channel	channel 2reverse channel	N/Adate	2023/12/12time	05:07:13forward acquisition time	300,00reverse acquisition time	0,00gamma	499,1914k internal	0,3157k external	0,3157temperature offset calibration	1,0000default loss term (dB/km)	0,3820temperature slope calibration	1,0000multiplexer offset coefficient	1,0000multiplexer slope coefficient	1,0000fibre end	0,00T internal ref (°C)	15,40T ext. ref 1 (°C)	-1,00T ext. ref 2 (°C)	-1,29length (m)	temperature (°C)	Stokes	anti-Stokes-744,400	-11,301	0,137	0,066
-743,385	-96,027	-0,151	-0,029
-742,371	62,625	0,117	0,086
-741,356	-108,823	-0,163	0,025
-740,342	-59,982	0,136	0,043
-739,327	-130,910	-0,333	-0,032
-738,312	-200,000	0,003	0,040
-737,298	-200,000	-0,253	-0,000
-736,283	300,979	0,030	0,041
-735,269	-48,136	-0,213	0,075
-734,254	31,024	0,102	0,064
-733,239	-22,415	-0,452	-0,201
-732,225	-108,793	0,280	-0,044
-731,210	800,000	-0,038	0,079
-730,196	-200,000	-0,020	-0,104
-729,181	-200,000	0,007	-0,053
-728,167	-82,400	0,039	-0,009
-727,152	-1,023	0,091	-0,047
-726,137	-200,000	-0,030	-0,139
-725,123	74,889	0,053	0,041
-724,108	-200,000	-0,001	-0,085
-723,094	-200,000	-0,016	-0,053
-722,079	-131,400	-0,104	0,010
-721,064	-146,572	0,068	0,004
-720,050	-143,125	-0,076	0,005
-719,035	-41,967	-0,059	0,022
-718,021	107,164	-0,061	-0,053
-717,006	278,133	-0,037	-0,049
-715,991	-136,146	-0,129	-0,011
-714,977	-200,000	-0,016	-0,147
-713,962	-200,000	-0,005	-0,098
-712,948	4,969	-0,083	0,045
-711,933	800,000	-0,020	0,054
-710,918	800,000	0,030	0,069
-709,904	57,319	-0,034	0,025
-708,889	-200,000	0,024	-0,113
-707,875	315,714	-0,084	-0,117
-706,860	-118,600	0,089	-0,011
-705,845	800,000	-0,019	-0,058
-704,831	697,327	-0,023	0,045
-703,816	115,659	-0,070	0,063
-702,802	-10,767	-0,099	-0,048
-701,787	-200,000	-0,023	-0,088
-700,772	-200,000	0,102	0,000
-699,758	-68,692	0,071	0,020
-698,743	800,000	0,043	0,101
-697,729	-108,981	-0,121	-0,019
-696,714	800,000	0,052	-0,115
-695,699	132,330	0,089	-0,085
-694,685	-41,735	0,036	0,014
-693,670	-136,091	-0,132	0,011
-692,656	-11,243	-0,029	0,014
-691,641	-200,000	-0,011	-0,057
-690,627	-117,263	0,139	0,018
-689,612	-126,373	-0,113	0,012
-688,597	-200,000	-0,002	-0,041
-687,583	-99,775	-0,019	-0,004
-686,568	-34,764	0,037	0,015
-685,554	665,186	-0,056	-0,108
-684,539	349,099	-0,143	-0,209
-683,524	94,833	-0,049	0,041
-682,510	414,945	-0,032	0,051
-681,495	-112,617	-0,145	0,021
-680,481	-80,484	-0,090	0,022
-679,466	301,542	0,023	-0,032
-678,451	-144,925	0,065	0,004
-677,437	-9,192	-0,093	-0,046
-676,422	502,102	0,036	-0,061
-675,408	-75,838	-0,056	0,014
-674,393	-5,110	0,093	0,047
-673,378	-79,598	-0,047	-0,012
-672,364	800,000	-0,049	-0,146
-671,349	131,953	-0,096	-0,090
-670,335	-200,000	-0,034	0,138
-669,320	-5,180	0,098	0,049
-668,305	166,507	-0,119	0,124
-667,291	83,066	0,097	-0,078
-666,276	-200,000	0,028	-0,116
-665,262	226,888	-0,078	-0,093
-664,247	-79,429	-0,066	0,016
-663,232	-200,000	-0,008	-0,054
-662,218	-46,740	0,135	0,048
-661,203	67,811	-0,091	0,068
-660,189	271,045	-0,047	0,061
-659,174	309,716	0,058	-0,081
-658,159	542,604	0,045	-0,080
-657,145	-200,000	-0,002	-0,195
-656,130	-171,451	0,174	0,004
-655,116	-142,801	-0,075	-0,005
-654,101	317,437	0,106	0,148
-653,086	-135,350	-0,025	0,002
-652,072	-141,276	0,036	-0,003
-651,057	-8,228	-0,217	0,107
-650,043	-200,000	0,023	-0,099
-649,028	-200,000	0,004	-0,022
-648,014	-12,221	0,055	0,026
-646,999	561,273	0,034	0,061
-645,984	9,113	-0,086	0,048
-644,970	-107,482	-0,073	0,012
-643,955	-200,000	-0,017	-0,149
-642,941	391,835	-0,035	-0,054
-641,926	88,308	-0,031	0,026
-640,911	-10,779	0,148	-0,072
-639,897	-89,946	0,038	0,008
-638,882	-5,980	-0,150	0,075
-637,868	713,402	-0,067	-0,132
-636,853	9,548	-0,136	-0,076
-635,838	173,081	0,073	0,077
-634,824	757,076	-0,068	-0,136
-633,809	-109,305	0,006	-0,001
-632,795	60,390	0,082	0,060
-631,780	-200,000	0,008	0,080
-630,765	-200,000	-0,011	-0,098
-629,751	-123,288	-0,127	0,015
-628,736	-200,000	-0,009	-0,087
-627,722	800,000	0,031	0,083
-626,707	-200,000	-0,024	0,134
-625,692	639,080	-0,085	-0,159
-624,678	65,473	0,075	-0,056
-623,663	-200,000	-0,003	-0,079
-622,649	224,890	0,039	-0,046
-621,634	240,699	-0,069	0,085
-620,619	176,813	0,080	-0,085
-619,605	-167,233	-0,010	0,000
-618,590	56,005	0,084	0,060
-617,576	-92,933	0,079	0,016
-616,561	31,554	-0,043	-0,027
-615,546	-136,904	0,079	-0,007
-614,532	157,194	-0,014	-0,014
-613,517	-200,000	0,019	-0,074
-612,503	-59,890	0,048	0,015
-611,488	800,000	0,007	-0,019
-610,474	-200,000	-0,013	0,112
-609,459	800,000	-0,055	0,131
-608,444	1,348	0,037	-0,019
-607,430	-14,145	-0,098	0,046
-606,415	-42,813	-0,071	0,026
-605,401	48,622	-0,084	0,058
-604,386	422,663	0,106	-0,167
-603,371	-200,000	0,033	-0,141
-602,357	-200,000	-0,014	-0,099
-601,342	600,590	-0,044	-0,080
-600,328	-200,000	-0,013	0,056
-599,313	62,078	-0,166	-0,121
-598,298	-23,487	0,114	-0,050
-597,284	113,338	0,045	0,040
-596,269	-6,516	0,038	-0,019
-595,255	131,312	-0,070	0,066
-594,240	21,391	-0,153	-0,091
-593,225	204,883	0,063	-0,072
-592,211	800,000	-0,012	0,035
-591,196	22,891	0,127	-0,076
-590,182	-43,354	-0,058	0,021
-589,167	219,785	0,053	-0,063
-588,152	397,916	-0,027	0,041
-587,138	-200,000	-0,010	-0,133
-586,123	-200,000	0,002	-0,231
-585,109	-200,000	-0,003	-0,038
-584,094	-200,000	0,021	-0,077
-583,079	-200,000	-0,010	-0,064
-582,065	800,000	-0,035	0,105
-581,050	800,000	0,050	0,147
-580,036	-48,511	-0,016	0,006
-579,021	35,558	0,059	-0,038
-578,006	136,072	-0,058	-0,055
-576,992	108,622	-0,088	-0,077
-575,977	-200,000	0,026	0,090
-574,963	-200,000	-0,005	0,025
-573,948	130,912	-0,101	0,095
-572,934	-86,724	0,109	-0,024
-571,919	-22,913	-0,051	-0,022
-570,904	368,025	-0,038	-0,057
-569,890	-200,000	-0,011	-0,130
-568,875	406,654	-0,011	0,017
-567,861	438,415	-0,094	-0,151
-566,846	50,005	0,116	0,080
-565,831	800,000	0,032	0,083
-564,817	223,850	0,027	0,032
-563,802	406,877	-0,076	-0,118
-562,788	379,157	-0,082	-0,123
-561,773	-200,000	0,004	0,028
-560,758	29,650	0,050	0,031
-559,744	-200,000	-0,010	-0,051
-558,729	800,000	-0,034	0,107
-557,715	475,817	-0,035	0,058
-556,700	-143,729	0,083	-0,006
-555,685	-200,000	0,008	0,031
-554,671	-200,000	0,028	-0,149
-553,656	-75,588	0,033	-0,009
-552,642	414,304	0,010	-0,015
-551,627	39,118	-0,038	0,025
-550,612	-200,000	0,015	0,059
-549,598	58,691	-0,096	-0,069
-548,583	-200,000	0,022	0,074
-547,569	120,024	0,083	-0,076
-546,554	214,710	0,079	-0,092
-545,539	161,961	-0,105	-0,107
-544,525	-38,505	0,101	0,039
-543,510	800,000	0,016	-0,047
-542,496	-130,855	-0,049	0,005
-541,481	800,000	-0,018	0,056
-540,466	-200,000	-0,010	0,040
-539,452	-58,533	0,106	0,034
-538,437	-200,000	-0,006	-0,034
-537,423	251,604	0,055	0,069
-536,408	527,280	-0,061	0,105
-535,393	800,000	0,026	-0,056
-534,379	-58,473	0,013	-0,004
-533,364	506,085	0,043	0,073
-532,350	38,273	0,080	0,052
-531,335	800,000	0,042	0,114
-530,321	-134,140	0,029	0,003
-529,306	516,971	-0,033	-0,056
-528,291	800,000	0,006	0,013
-527,277	800,000	-0,027	-0,087
-526,262	-170,469	-0,089	0,002
-525,248	-200,000	0,004	0,046
-524,233	-200,000	0,029	-0,096
-523,218	800,000	-0,037	-0,114
-522,204	-200,000	0,026	0,108
-521,189	182,239	-0,005	-0,006
-520,175	287,851	0,031	-0,042
-519,160	800,000	-0,038	-0,117
-518,145	-114,278	0,052	-0,007
-517,131	14,620	0,145	0,082
-516,116	116,121	-0,064	0,057
-515,102	268,195	0,068	-0,088
-514,087	327,996	-0,033	0,047
-513,072	314,821	-0,118	-0,163
-512,058	29,233	-0,032	0,020
-511,043	299,556	-0,023	-0,030
-510,029	579,954	0,029	0,053
-509,014	497,915	0,027	-0,046
-507,999	-96,098	-0,021	0,004
-506,985	117,506	-0,061	-0,055
-505,970	406,678	-0,058	-0,089
-504,956	14,015	-0,082	0,047
-503,941	86,392	-0,188	0,151
-502,926	-111,763	0,029	-0,004
-501,912	-12,672	-0,036	0,017
-500,897	-59,935	0,085	0,026
-499,883	-112,266	-0,090	-0,013
-498,868	800,000	-0,012	0,029
-497,853	-200,000	-0,029	-0,097
-496,839	557,179	0,076	0,134
-495,824	-200,000	-0,011	-0,103
-494,810	-200,000	-0,008	0,060
-493,795	-159,684	-0,100	0,004
-492,781	19,104	-0,077	-0,045
-491,766	-93,577	0,051	0,010
-490,751	392,975	-0,091	-0,139
-489,737	251,728	0,047	-0,059
-488,722	49,209	-0,068	-0,046
-487,708	196,263	-0,010	0,011
-486,693	115,602	0,017	0,015
-485,678	139,709	-0,070	0,068
-484,664	800,000	-0,092	-0,228
-483,649	-99,335	0,031	0,006
-482,635	800,000	0,065	0,133
-481,620	-200,000	0,010	0,088
-480,605	181,507	0,020	-0,021
-479,591	-200,000	-0,001	0,013
-478,576	-200,000	0,010	0,071
-477,562	800,000	-0,034	-0,081
-476,547	-83,620	-0,139	0,032
-475,532	-31,021	0,027	0,011
-474,518	-200,000	0,016	0,117
-473,503	-101,360	0,163	-0,029
-472,489	-140,445	0,150	0,011
-471,474	800,000	-0,018	-0,042
-470,459	-129,177	-0,071	-0,007
-469,445	388,552	0,067	-0,102
-468,430	-200,000	-0,010	-0,041
-467,416	122,671	-0,118	-0,108
-466,401	-200,000	0,005	-0,190
-465,386	800,000	-0,041	0,100
-464,372	-186,887	-0,133	0,001
-463,357	187,904	-0,014	-0,016
-462,343	-200,000	0,026	0,109
-461,328	709,284	0,048	0,093
-460,313	-19,034	0,089	-0,040
-459,299	-200,000	-0,011	-0,101
-458,284	-200,000	0,005	0,024
-457,270	-8,878	0,044	0,021
-456,255	757,247	-0,036	0,070
-455,241	-90,600	-0,086	-0,018
-454,226	-200,000	0,005	0,032
-453,211	117,533	0,009	-0,008
-452,197	-47,891	0,127	0,045
-451,182	-200,000	-0,019	0,068
-450,168	-48,649	0,058	-0,020
-449,153	10,578	-0,059	0,033
-448,138	-200,000	-0,023	0,120
-447,124	800,000	-0,026	-0,068
-446,109	800,000	0,071	-0,225
-445,095	-146,591	0,134	0,008
-444,080	-179,042	-0,021	0,000
-443,065	9,891	-0,107	0,059
-442,051	26,452	-0,101	-0,061
-441,036	-25,225	-0,119	0,051
-440,022	-131,425	-0,058	-0,005
-439,007	223,968	0,111	0,131
-437,992	615,942	-0,031	0,057
-436,978	37,381	0,092	-0,059
-435,963	542,602	0,082	0,143
-434,949	-131,220	0,094	-0,009
-433,934	-51,515	0,017	0,006
-432,919	-80,193	0,100	0,024
-431,905	-200,000	-0,001	0,070
-430,890	-34,732	-0,033	0,013
-429,876	100,690	0,055	-0,047
-428,861	581,304	-0,030	0,053
-427,846	-200,000	-0,016	0,156
-426,832	88,097	0,038	-0,030
-425,817	-28,926	-0,046	0,019
-424,803	800,000	-0,026	0,075
-423,788	-200,000	-0,016	-0,096
-422,773	-85,318	-0,021	0,005
-421,759	800,000	0,066	0,142
-420,744	-200,000	0,007	-0,046
-419,730	-18,497	-0,109	-0,049
-418,715	-19,144	-0,024	0,011
-417,701	-58,006	-0,052	0,016
-416,686	27,690	0,139	0,085
-415,671	438,790	-0,064	-0,101
-414,657	-115,009	-0,029	-0,004
-413,642	800,000	-0,045	-0,107
-412,628	-112,796	0,080	-0,011
-411,613	-130,085	0,034	-0,003
-410,598	-94,675	-0,024	0,005
-409,584	148,639	0,097	-0,096
-408,569	800,000	0,027	-0,063
-407,555	312,003	-0,034	0,047
-406,540	-86,956	0,103	0,023
-405,525	33,747	0,064	-0,040
-404,511	423,059	-0,087	-0,137
-403,496	-200,000	0,006	0,028
-402,482	-62,789	-0,153	0,046
-401,467	-200,000	0,016	0,117
-400,452	63,606	0,116	0,085
-399,438	89,668	0,104	-0,084
-398,423	156,830	-0,039	-0,039
-397,409	800,000	-0,023	-0,053
-396,394	800,000	0,033	-0,096
-395,379	67,093	-0,077	0,057
-394,365	71,536	-0,080	-0,060
-393,350	156,951	0,088	0,088
-392,336	84,154	0,041	-0,032
-391,321	-43,630	-0,085	0,031
-390,306	-14,907	0,021	0,010
-389,292	-200,000	-0,020	-0,068
-388,277	319,793	-0,017	-0,023
-387,263	-200,000	-0,030	0,111
-386,248	-74,388	0,178	0,046
-385,233	-75,300	-0,034	-0,009
-384,219	705,283	0,059	0,115
-383,204	463,730	-0,065	-0,105
-382,190	-106,638	-0,138	0,022
-381,175	-170,004	-0,065	0,002
-380,160	800,000	-0,027	0,086
-379,146	-173,729	0,132	-0,003
-378,131	800,000	0,039	0,088
-377,117	-200,000	-0,019	0,102
-376,102	64,064	0,098	-0,072
-375,088	-200,000	0,025	-0,181
-374,073	150,336	-0,058	-0,057
-373,058	427,795	0,050	0,079
-372,044	8,213	0,074	-0,041
-371,029	668,112	-0,053	0,099
-370,015	21,411	-0,048	0,028
-369,000	-200,000	-0,013	0,067
-367,985	-200,000	0,015	-0,191
-366,971	-144,195	0,099	0,007
-365,956	43,442	0,066	0,044
-364,942	-200,000	-0,005	-0,021
-363,927	-29,932	0,107	0,044
-362,912	304,660	0,023	-0,031
-361,898	-97,465	-0,151	-0,028
-360,883	-200,000	-0,009	0,083
-359,869	-108,554	0,074	-0,011
-358,854	-161,701	0,057	0,002
-357,839	-113,892	0,107	-0,015
-356,825	800,000	-0,051	-0,124
-355,810	499,652	0,034	-0,057
-354,796	72,884	-0,034	-0,026
-353,781	-62,670	-0,060	0,018
-352,766	800,000	-0,021	-0,062
-351,752	-66,078	0,160	0,046
-350,737	-200,000	0,025	0,134
-349,723	-19,787	0,141	0,063
-348,708	-200,000	0,018	-0,141
-347,693	800,000	-0,011	-0,022
-346,679	-200,000	0,002	0,125
-345,664	376,982	-0,107	-0,160
-344,650	-138,164	0,064	0,005
-343,635	-17,954	-0,119	-0,054
-342,620	103,910	0,174	0,148
-341,606	800,000	-0,007	-0,021
-340,591	0,159	0,083	-0,043
-339,577	800,000	-0,086	0,188
-338,562	-42,883	0,078	0,029
-337,548	800,000	0,041	0,083
-336,533	-47,356	0,053	-0,019
-335,518	-200,000	-0,009	0,212
-334,504	46,461	0,061	0,041
-333,489	800,000	-0,025	-0,073
-332,475	165,487	0,053	0,054
-331,460	800,000	-0,014	0,041
-330,445	-113,476	-0,109	-0,015
-329,431	-2,657	0,084	0,043
-328,416	-129,780	0,046	0,005
-327,402	800,000	0,052	0,133
-326,387	-200,000	-0,027	0,162
-325,372	-200,000	0,008	-0,173
-324,358	269,248	0,011	-0,014
-323,343	64,393	-0,139	0,101
-322,329	12,512	-0,082	0,046
-321,314	423,372	-0,073	0,114
-320,299	617,156	0,024	-0,043
-319,285	800,000	0,036	0,074
-318,270	800,000	-0,053	-0,157
-317,256	229,533	0,094	-0,112
-316,241	-70,312	-0,133	0,036
-315,226	131,236	0,067	0,062
-314,212	-200,000	0,006	0,045
-313,197	387,021	0,047	-0,070
-312,183	-200,000	-0,032	-0,182
-311,168	-200,000	0,023	-0,101
-310,153	208,551	-0,104	0,118
-309,139	-200,000	0,002	0,073
-308,124	-53,104	0,044	0,014
-307,110	144,666	-0,072	0,070
-306,095	363,629	0,066	-0,096
-305,080	-130,394	0,080	-0,008
-304,066	18,912	-0,066	0,038
-303,051	99,481	-0,084	0,070
-302,037	646,573	0,018	0,033
-301,022	-138,848	-0,119	-0,009
-300,008	-41,125	0,106	-0,039
-298,993	18,376	0,060	0,034
-297,978	-37,817	0,083	-0,032
-296,964	-200,000	0,009	-0,037
-295,949	552,977	-0,070	0,123
-294,935	-200,000	0,003	-0,093
-293,920	-76,725	0,098	-0,025
-292,905	-20,174	0,049	-0,022
-291,891	32,842	-0,020	0,012
-290,876	-200,000	-0,016	0,074
-289,862	-200,000	0,008	-0,045
-288,847	-118,434	-0,091	-0,011
-287,832	-200,000	0,001	-0,013
-286,818	-200,000	-0,011	-0,036
-285,803	169,077	-0,053	-0,055
-284,789	-164,519	-0,102	-0,003
-283,774	754,776	0,081	0,159
-282,759	-36,254	-0,103	-0,040
-281,745	-143,542	0,088	0,006
-280,730	279,306	-0,044	-0,057
-279,716	-23,768	0,028	-0,012
-278,701	91,084	0,110	-0,089
-277,686	185,742	0,053	-0,057
-276,672	800,000	0,033	-0,077
-275,657	204,599	-0,050	0,056
-274,643	-56,775	-0,126	-0,040
-273,628	75,053	0,057	-0,043
-272,613	-106,451	0,077	0,012
-271,599	800,000	0,038	0,107
-270,584	77,920	0,040	0,031
-269,570	18,013	-0,083	0,048
-268,555	2,510	0,080	0,042
-267,540	508,502	-0,042	-0,071
-266,526	39,292	-0,060	-0,039
-265,511	242,337	-0,055	0,067
-264,497	-200,000	0,097	0,000
-263,482	-34,968	-0,105	-0,041
-262,467	-200,000	0,004	-0,060
-261,453	189,639	-0,058	0,063
-260,438	461,042	0,061	0,099
-259,424	350,831	0,034	0,049
-258,409	64,989	-0,109	-0,080
-257,395	62,908	-0,083	0,060
-256,380	-78,050	0,054	0,013
-255,365	292,299	-0,032	-0,043
-254,351	562,208	-0,068	0,120
-253,336	711,638	-0,042	0,081
-252,322	124,802	-0,058	0,053
-251,307	298,897	-0,037	0,049
-250,292	-52,831	0,037	0,012
-249,278	-25,839	0,033	0,014
-248,263	-78,112	-0,072	0,018
-247,249	-107,532	0,155	-0,024
-246,234	-61,384	-0,088	0,027
-245,219	-83,111	-0,012	-0,003
-244,205	800,000	-0,073	-0,211
-243,190	8,507	0,119	0,065
-242,176	-200,000	0,002	-0,047
-241,161	34,132	-0,070	-0,044
-240,146	-200,000	0,001	0,066
-239,132	-200,000	0,004	0,057
-238,117	-200,000	-0,017	-0,123
-237,103	17,732	0,095	0,054
-236,088	-200,000	0,014	0,065
-235,073	38,228	0,081	0,052
-234,059	-200,000	0,024	0,131
-233,044	-89,191	0,095	0,020
-232,030	-52,257	-0,076	0,025
-231,015	-80,853	-0,098	-0,023
-230,000	153,077	0,063	-0,063
-228,986	522,374	-0,052	-0,088
-227,971	332,467	-0,035	0,049
-226,957	32,125	0,190	-0,118
-225,942	-200,000	0,000	-0,105
-224,927	800,000	0,035	-0,086
-223,913	382,114	-0,091	-0,135
-222,898	45,840	-0,065	-0,043
-221,884	95,816	-0,018	0,015
-220,869	-42,827	0,109	0,040
-219,855	-200,000	0,023	-0,133
-218,840	-3,202	-0,070	0,035
-217,825	-200,000	0,015	0,065
-216,811	-200,000	0,006	0,040
-215,796	-200,000	0,019	-0,081
-214,782	378,702	-0,063	-0,093
-213,767	800,000	-0,026	-0,053
-212,752	-85,144	0,095	0,021
-211,738	182,217	0,015	0,016
-210,723	302,077	0,045	0,060
-209,709	-200,000	-0,001	0,042
-208,694	192,932	-0,179	0,195
-207,679	-32,456	-0,097	0,039
-206,665	87,275	0,088	0,070
-205,650	-138,422	0,111	-0,009
-204,636	-84,201	-0,071	-0,016
-203,621	39,809	0,063	0,041
-202,606	-200,000	-0,005	-0,099
-201,592	800,000	-0,044	-0,123
-200,577	-31,151	-0,065	-0,026
-199,563	737,761	-0,028	-0,054
-198,548	610,962	0,089	0,162
-197,533	-200,000	0,007	0,186
-196,519	392,692	0,045	0,067
-195,504	258,268	0,081	-0,101
-194,490	172,210	0,038	-0,039
-193,475	-200,000	0,003	0,034
-192,460	161,663	0,056	-0,056
-191,446	454,729	0,070	0,112
-190,431	170,082	-0,040	0,042
-189,417	-200,000	-0,019	0,137
-188,402	-200,000	-0,017	-0,060
-187,387	216,941	-0,045	-0,051
-186,373	241,899	-0,043	-0,052
-185,358	-7,793	0,022	-0,011
-184,344	-200,000	-0,038	0,179
-183,329	-81,473	0,103	-0,024
-182,315	-200,000	-0,006	-0,026
-181,300	-200,000	-0,007	0,043
-180,285	-200,000	-0,078	0,000
-179,271	-133,057	0,155	-0,014
-178,256	-200,000	-0,016	0,104
-177,242	531,838	-0,023	-0,040
-176,227	264,088	0,119	0,149
-175,212	-200,000	-0,011	0,073
-174,198	800,000	-0,046	-0,105
-173,183	403,956	-0,060	-0,092
-172,169	-6,436	0,063	0,031
-171,154	800,000	-0,004	0,010
-170,139	172,272	0,068	0,071
-169,125	116,981	0,100	0,089
-168,110	800,000	-0,029	0,084
-167,096	800,000	0,040	0,091
-166,081	17,486	-0,019	0,011
-165,066	-42,777	-0,144	-0,053
-164,052	800,000	0,051	-0,105
-163,037	622,238	-0,036	0,065
-162,023	-200,000	-0,014	-0,081
-161,008	271,447	0,051	-0,065
-159,993	43,343	-0,032	-0,021
-158,979	-95,236	-0,112	0,022
-157,964	800,000	-0,034	0,083
-156,950	164,110	-0,117	0,119
-155,935	207,370	-0,044	-0,049
-154,920	-83,698	0,061	0,014
-153,906	109,626	-0,088	0,076
-152,891	639,679	0,009	0,017
-151,877	-200,000	0,009	0,097
-150,862	88,414	-0,113	-0,091
-149,847	437,438	0,024	-0,038
-148,833	21,994	0,021	0,012
-147,818	-123,331	-0,031	-0,004
-146,804	221,624	0,030	-0,035
-145,789	530,946	-0,036	0,061
-144,775	-83,750	0,141	0,032
-143,760	173,332	-0,033	-0,034
-142,745	-120,927	-0,051	-0,006
-141,731	17,202	-0,140	0,080
-140,716	188,515	-0,071	0,076
-139,702	776,816	-0,030	0,059
-138,687	290,232	0,050	0,066
-137,672	-89,569	0,013	-0,003
-136,658	-155,615	-0,039	0,002
-135,643	363,691	-0,059	-0,086
-134,629	345,827	-0,083	0,117
-133,614	-200,000	0,020	0,065
-132,599	-200,000	-0,001	-0,119
-131,585	-200,000	-0,001	0,034
-130,570	259,042	-0,084	0,105
-129,556	-144,238	0,026	-0,002
-128,541	221,965	-0,042	-0,049
-127,526	310,966	-0,046	0,062
-126,512	38,281	0,043	0,027
-125,497	77,102	-0,046	0,035
-124,483	-143,501	0,090	-0,006
-123,468	800,000	0,060	-0,174
-122,453	31,480	-0,055	0,034
-121,439	275,317	-0,077	0,099
-120,424	-41,140	0,071	-0,026
-119,410	154,369	-0,103	-0,102
