DTS Sentinel unit serial number:	SN410029Multiplexer serial number:	ORYXHardware model number:	OX2-SRSoftware version number:	ORYX F/W v4,00 Oryx Data Collector v3.7.2.0data status	okinstallation	B5 Nyhavnadifferential loss correction	single-endedforward channel	channel 2reverse channel	N/Adate	2023/12/12time	15:42:13forward acquisition time	300,00reverse acquisition time	0,00gamma	499,1914k internal	0,3157k external	0,3157temperature offset calibration	1,0000default loss term (dB/km)	0,3820temperature slope calibration	1,0000multiplexer offset coefficient	1,0000multiplexer slope coefficient	1,0000fibre end	0,00T internal ref (°C)	15,93T ext. ref 1 (°C)	-0,48T ext. ref 2 (°C)	-0,75length (m)	temperature (°C)	Stokes	anti-Stokes-744,400	98,045	0,099	-0,084
-743,385	-80,418	-0,288	-0,070
-742,371	168,454	0,024	-0,025
-741,356	-44,097	-0,243	0,089
-740,342	-200,000	-0,018	0,102
-739,327	-91,555	-0,388	0,081
-738,312	-124,571	0,082	-0,009
-737,298	51,336	-0,207	-0,145
-736,283	425,031	0,031	-0,049
-735,269	-187,812	-0,272	0,003
-734,254	-159,487	0,158	-0,006
-733,239	-25,492	-0,333	-0,144
-732,225	-168,795	0,210	0,006
-731,210	-88,502	-0,122	0,027
-730,196	-200,000	0,036	0,135
-729,181	-144,957	-0,105	-0,007
-728,167	471,194	-0,060	0,100
-727,152	-175,279	0,122	-0,002
-726,137	110,146	-0,085	0,075
-725,123	35,046	-0,067	-0,043
-724,108	-19,227	-0,141	-0,064
-723,094	-26,339	-0,029	-0,013
-722,079	165,316	-0,102	-0,106
-721,064	-200,000	0,030	-0,099
-720,050	-200,000	-0,026	0,094
-719,035	-73,214	0,153	-0,041
-718,021	-51,177	0,030	-0,010
-717,006	-137,323	-0,040	-0,003
-715,991	130,377	-0,103	-0,097
-714,977	-200,000	0,005	0,061
-713,962	553,757	0,073	0,129
-712,948	800,000	0,018	-0,040
-711,933	216,907	-0,022	0,026
-710,918	28,516	-0,057	-0,035
-709,904	395,716	0,020	0,030
-708,889	32,358	-0,025	-0,016
-707,875	-200,000	-0,042	-0,222
-706,860	-200,000	-0,008	-0,067
-705,845	-200,000	0,042	-0,147
-704,831	149,896	0,119	-0,118
-703,816	-159,204	0,066	0,003
-702,802	96,542	-0,062	0,053
-701,787	800,000	-0,108	-0,275
-700,772	-200,000	-0,005	-0,064
-699,758	-173,242	0,079	-0,002
-698,743	37,138	0,035	0,023
-697,729	800,000	-0,055	-0,116
-696,714	-6,684	-0,035	0,018
-695,699	-200,000	0,003	0,017
-694,685	-143,330	0,055	-0,004
-693,670	731,237	-0,063	-0,124
-692,656	-66,127	0,091	-0,026
-691,641	248,288	-0,070	0,087
-690,627	-200,000	0,013	-0,083
-689,612	-120,496	-0,122	-0,015
-688,597	84,867	0,061	-0,049
-687,583	-38,317	-0,090	0,035
-686,568	682,710	-0,037	-0,072
-685,554	-200,000	0,007	-0,125
-684,539	400,012	0,022	0,034
-683,524	800,000	-0,015	0,044
-682,510	-1,566	0,044	0,023
-681,495	-200,000	-0,003	-0,087
-680,481	-44,094	-0,048	-0,018
-679,466	-200,000	0,013	0,046
-678,451	308,710	-0,010	-0,014
-677,437	800,000	-0,018	0,047
-676,422	297,909	0,037	0,050
-675,408	61,604	-0,037	-0,027
-674,393	64,428	-0,032	0,024
-673,378	-29,795	-0,046	0,019
-672,364	194,686	-0,045	-0,050
-671,349	-115,636	-0,033	-0,005
-670,335	-77,994	-0,135	0,034
-669,320	635,569	0,045	-0,085
-668,305	-200,000	-0,011	0,083
-667,291	-17,886	-0,065	-0,030
-666,276	-200,000	0,020	-0,145
-665,262	-200,000	-0,020	-0,077
-664,247	-24,072	-0,137	-0,060
-663,232	-16,877	0,107	-0,050
-662,218	5,561	-0,020	0,011
-661,203	800,000	-0,035	-0,092
-660,189	-200,000	0,024	0,199
-659,174	192,684	-0,109	0,121
-658,159	168,436	-0,137	-0,143
-657,145	-145,811	-0,164	-0,011
-656,130	-96,570	0,116	0,022
-655,116	127,716	0,060	-0,056
-654,101	371,598	0,082	0,122
-653,086	800,000	-0,018	-0,056
-652,072	24,323	0,033	-0,020
-651,057	-106,314	-0,082	0,013
-650,043	76,161	-0,086	0,067
-649,028	84,029	0,024	0,020
-648,014	-200,000	-0,041	-0,244
-646,999	-182,197	0,096	0,001
-645,984	-22,589	0,029	0,013
-644,970	-200,000	0,012	-0,075
-643,955	-200,000	0,017	-0,194
-642,941	800,000	-0,022	0,052
-641,926	-200,000	0,013	0,091
-640,911	-200,000	0,001	0,095
-639,897	-200,000	-0,011	0,040
-638,882	-200,000	0,007	0,113
-637,868	251,708	0,026	0,033
-636,853	-164,790	-0,200	0,006
-635,838	59,843	0,072	-0,052
-634,824	-164,467	0,069	0,002
-633,809	479,995	-0,051	0,085
-632,795	168,398	0,092	0,097
-631,780	-93,002	0,136	-0,028
-630,765	119,637	-0,111	0,101
-629,751	-109,516	-0,112	0,017
-628,736	-200,000	0,017	-0,084
-627,722	22,542	-0,086	-0,052
-626,707	-200,000	0,006	-0,042
-625,692	-200,000	0,046	0,237
-624,678	-200,000	0,017	0,093
-623,663	-62,816	-0,163	0,049
-622,649	-86,695	0,037	-0,008
-621,634	-14,785	0,051	0,024
-620,619	-200,000	-0,017	-0,134
-619,605	-200,000	-0,059	0,199
-618,590	439,812	-0,114	0,184
-617,576	-154,747	0,060	0,003
-616,561	560,803	-0,050	0,090
-615,546	10,491	-0,094	-0,052
-614,532	-23,643	0,128	-0,056
-613,517	-95,219	-0,073	0,014
-612,503	800,000	-0,025	-0,061
-611,488	-200,000	0,028	0,119
-610,474	800,000	-0,013	-0,034
-609,459	-103,639	0,064	0,011
-608,444	-200,000	0,010	-0,151
-607,430	527,243	-0,090	-0,156
-606,415	38,723	-0,083	-0,054
-605,401	-129,891	0,102	0,010
-604,386	359,329	0,044	-0,064
-603,371	-200,000	-0,024	0,140
-602,357	257,064	-0,025	0,031
-601,342	212,302	0,113	-0,131
-600,328	209,100	-0,144	-0,165
-599,313	89,588	0,057	0,046
-598,298	-186,280	-0,105	-0,001
-597,284	39,817	0,072	-0,048
-596,269	-128,782	-0,068	-0,007
-595,255	800,000	-0,014	0,041
-594,240	-200,000	-0,015	-0,082
-593,225	800,000	-0,023	-0,072
-592,211	535,453	-0,040	-0,070
-591,196	-47,995	-0,090	0,032
-590,182	143,138	-0,036	-0,035
-589,167	-33,680	0,071	0,029
-588,152	-200,000	-0,008	-0,077
-587,138	-200,000	-0,056	-0,221
-586,123	800,000	0,028	0,064
-585,109	-1,205	-0,032	0,016
-584,094	626,514	-0,009	0,017
-583,079	592,676	-0,017	-0,030
-582,065	-135,884	0,134	0,011
-581,050	181,890	-0,013	0,014
-580,036	-200,000	-0,028	0,180
-579,021	282,988	-0,013	-0,018
-578,006	-120,247	0,052	0,006
-576,992	270,081	-0,030	-0,039
-575,977	96,179	0,023	-0,019
-574,963	144,333	0,059	0,058
-573,948	-85,590	-0,129	0,029
-572,934	169,423	-0,077	-0,081
-571,919	646,884	0,039	0,072
-570,904	562,182	-0,042	-0,075
-569,890	-200,000	-0,003	0,016
-568,875	226,482	0,043	0,051
-567,861	800,000	-0,027	0,062
-566,846	-200,000	-0,011	-0,086
-565,831	-87,515	0,101	-0,022
-564,817	-200,000	-0,019	-0,065
-563,802	-200,000	0,003	-0,103
-562,788	-46,806	-0,056	-0,020
-561,773	431,878	0,051	0,082
-560,758	800,000	0,034	0,084
-559,744	153,986	0,050	-0,050
-558,729	-200,000	-0,067	-0,000
-557,715	153,184	0,053	-0,053
-556,700	-127,723	-0,135	-0,014
-555,685	-200,000	-0,005	0,018
-554,671	392,047	-0,094	-0,144
-553,656	800,000	0,066	0,172
-552,642	-100,520	0,032	0,006
-551,627	52,050	0,052	0,036
-550,612	-56,226	-0,031	-0,010
-549,598	-200,000	0,036	-0,224
-548,583	-200,000	-0,023	-0,082
-547,569	289,237	0,053	0,071
-546,554	-200,000	0,014	0,131
-545,539	119,838	-0,049	0,045
-544,525	-200,000	0,020	0,067
-543,510	552,544	-0,087	-0,154
-542,496	-122,106	-0,009	-0,001
-541,481	-52,595	0,139	-0,047
-540,466	-17,462	-0,098	-0,045
-539,452	-200,000	0,034	0,167
-538,437	-115,026	-0,034	-0,005
-537,423	86,846	0,095	-0,076
-536,408	-200,000	0,027	0,112
-535,393	-47,019	0,061	-0,022
-534,379	-30,030	0,077	-0,032
-533,364	800,000	-0,064	-0,186
-532,350	800,000	-0,037	-0,116
-531,335	-43,231	0,065	0,024
-530,321	-200,000	-0,013	0,122
-529,306	800,000	-0,040	0,117
-528,291	256,966	-0,070	-0,088
-527,277	-200,000	0,000	0,010
-526,262	-0,422	-0,087	0,045
-525,248	310,493	-0,031	-0,042
-524,233	-70,207	-0,010	-0,003
-523,218	-121,180	-0,071	0,009
-522,204	41,099	0,092	0,061
-521,189	-101,686	-0,033	-0,006
-520,175	-55,251	-0,083	-0,027
-519,160	-54,879	-0,013	-0,004
-518,145	110,156	0,048	0,042
-517,131	-200,000	0,004	-0,080
-516,116	18,849	0,045	-0,026
-515,102	82,157	0,005	0,004
-514,087	-200,000	0,010	0,054
-513,072	800,000	0,040	0,103
-512,058	168,029	-0,049	-0,051
-511,043	-111,427	0,158	-0,023
-510,029	800,000	0,027	0,059
-509,014	4,723	0,101	-0,054
-507,999	-63,328	-0,068	-0,020
-506,985	-200,000	0,021	0,148
-505,970	38,349	-0,160	-0,104
-504,956	-200,000	-0,020	-0,148
-503,941	263,088	-0,039	-0,049
-502,926	622,521	0,037	-0,068
-501,912	-200,000	-0,016	-0,066
-500,897	187,445	0,079	0,087
-499,883	-107,275	-0,084	-0,013
-498,868	5,538	-0,101	-0,054
-497,853	62,520	0,102	-0,074
-496,839	800,000	0,003	-0,008
-495,824	-128,617	0,144	-0,015
-494,810	17,865	-0,072	-0,042
-493,795	800,000	0,040	0,118
-492,781	26,773	-0,044	0,027
-491,766	217,362	0,114	0,133
-490,751	800,000	-0,064	0,187
-489,737	-200,000	-0,002	0,034
-488,722	316,037	0,055	-0,077
-487,708	-33,839	-0,038	0,015
-486,693	30,225	-0,059	0,037
-485,678	45,028	0,095	-0,064
-484,664	800,000	-0,018	0,053
-483,649	533,474	0,054	0,094
-482,635	-46,773	0,117	-0,041
-481,620	-19,615	0,070	-0,031
-480,605	-200,000	-0,011	0,119
-479,591	105,173	0,098	0,084
-478,576	506,930	0,019	-0,032
-477,562	171,840	-0,076	-0,079
-476,547	-200,000	-0,008	-0,036
-475,532	-47,598	0,106	-0,037
-474,518	-200,000	-0,025	0,161
-473,503	-55,592	0,002	0,001
-472,489	702,621	0,027	0,051
-471,474	-2,272	0,121	0,062
-470,459	254,842	-0,039	-0,049
-469,445	102,225	0,052	0,045
-468,430	217,797	-0,083	-0,097
-467,416	9,944	-0,060	-0,033
-466,401	211,476	-0,100	-0,115
-465,386	-124,886	0,124	0,014
-464,372	193,099	-0,017	0,019
-463,357	-143,190	0,016	-0,001
-462,343	109,417	-0,135	0,118
-461,328	-116,333	0,055	-0,007
-460,313	-200,000	-0,028	-0,127
-459,299	249,731	0,040	0,049
-458,284	-83,275	0,072	0,017
-457,270	-81,657	0,113	0,027
-456,255	-129,631	-0,113	-0,011
-455,241	183,007	-0,012	0,013
-454,226	-200,000	0,019	-0,092
-453,211	-192,736	-0,123	-0,001
-452,197	-31,266	0,038	-0,016
-451,182	-11,421	0,099	0,047
-450,168	45,357	0,045	0,030
-449,153	-200,000	0,009	-0,100
-448,138	-81,155	0,070	0,017
-447,124	-200,000	-0,002	-0,014
-446,109	-200,000	0,016	-0,161
-445,095	800,000	0,049	0,108
-444,080	800,000	-0,071	0,158
-443,065	161,683	0,047	0,048
-442,051	215,568	0,072	0,084
-441,036	-200,000	0,016	0,119
-440,022	204,647	0,013	0,015
-439,007	-11,824	0,057	0,027
-437,992	-12,440	0,134	0,064
-436,978	-76,550	0,149	0,038
-435,963	-120,327	-0,051	-0,006
-434,949	42,331	0,091	0,060
-433,934	800,000	-0,027	-0,062
-432,919	-200,000	-0,005	-0,027
-431,905	18,138	0,077	-0,044
-430,890	-200,000	-0,019	0,116
-429,876	55,946	0,068	0,048
-428,861	800,000	0,016	-0,047
-427,846	800,000	-0,063	0,132
-426,832	409,384	-0,070	0,109
-425,817	-36,842	0,085	-0,033
-424,803	113,193	0,129	0,114
-423,788	360,990	0,035	0,051
-422,773	800,000	0,022	-0,057
-421,759	-200,000	0,014	0,102
-420,744	800,000	-0,018	0,043
-419,730	-200,000	-0,028	-0,098
-418,715	0,788	0,149	-0,077
-417,701	800,000	0,078	-0,178
-416,686	176,623	-0,034	-0,036
-415,671	-116,533	0,055	-0,007
-414,657	800,000	0,014	-0,041
-413,642	-200,000	0,045	0,164
-412,628	339,384	-0,076	0,108
-411,613	319,914	0,033	0,045
-410,598	-66,488	-0,109	0,031
-409,584	-200,000	0,042	0,168
-408,569	800,000	0,043	0,116
-407,555	455,967	-0,020	0,033
-406,540	-148,627	-0,058	0,003
-405,525	-90,695	0,089	-0,019
-404,511	135,854	0,042	-0,039
-403,496	465,015	0,026	0,042
-402,482	-94,908	-0,049	-0,010
-401,467	33,984	0,040	0,025
-400,452	255,378	0,065	0,081
-399,438	177,533	0,027	0,028
-398,423	52,590	0,009	0,007
-397,409	432,189	-0,075	-0,119
-396,394	800,000	-0,047	-0,132
-395,379	-136,794	0,085	-0,007
-394,365	-200,000	-0,025	0,082
-393,350	800,000	0,049	-0,126
-392,336	26,443	-0,025	-0,015
-391,321	-38,550	0,041	-0,016
-390,306	-200,000	0,023	-0,111
-389,292	2,220	-0,107	-0,056
-388,277	-63,517	0,055	0,016
-387,263	0,379	0,047	-0,024
-386,248	-200,000	-0,028	0,127
-385,233	-71,780	-0,132	-0,036
-384,219	243,932	0,034	0,042
-383,204	13,390	-0,022	0,013
-382,190	-200,000	0,011	0,136
-381,175	-52,700	0,056	-0,019
-380,160	-90,406	0,088	0,018
-379,146	147,687	-0,029	0,028
-378,131	-16,536	0,047	0,022
-377,117	-200,000	-0,013	0,071
-376,102	-130,090	-0,153	-0,015
-375,088	-14,389	-0,079	0,037
-374,073	725,496	0,014	0,028
-373,058	800,000	0,038	0,104
-372,044	55,803	-0,062	-0,044
-371,029	-67,558	-0,064	-0,018
-370,015	-200,000	-0,001	0,085
-369,000	-200,000	-0,012	-0,049
-367,985	25,649	-0,123	-0,074
-366,971	-200,000	-0,019	-0,141
-365,956	-200,000	-0,031	0,111
-364,942	-97,178	-0,100	0,019
-363,927	-200,000	0,003	0,131
-362,912	280,970	0,031	0,040
-361,898	-196,351	-0,188	-0,001
-360,883	-109,030	-0,159	0,024
-359,869	161,379	0,045	-0,046
-358,854	68,409	0,124	-0,092
-357,839	277,174	0,030	0,039
-356,825	764,803	0,074	-0,146
-355,810	605,409	0,003	-0,005
-354,796	-104,552	-0,112	-0,019
-353,781	-200,000	-0,029	-0,102
-352,766	-200,000	-0,006	-0,048
-351,752	-200,000	0,008	-0,030
-350,737	64,321	0,113	-0,083
-349,723	299,715	-0,033	-0,044
-348,708	800,000	-0,073	-0,161
-347,693	800,000	0,099	-0,218
-346,679	800,000	-0,075	-0,222
-345,664	-163,376	-0,088	0,003
-344,650	800,000	-0,016	0,034
-343,635	538,747	0,050	-0,087
-342,620	-200,000	0,018	0,065
-341,606	-135,963	0,087	0,007
-340,591	732,234	0,039	0,076
-339,577	589,237	-0,040	0,072
-338,562	-200,000	-0,004	-0,017
-337,548	-200,000	-0,010	-0,061
-336,533	319,926	0,011	-0,015
-335,518	800,000	-0,028	-0,059
-334,504	-142,576	-0,080	-0,006
-333,489	98,156	-0,037	0,031
-332,475	-200,000	0,005	0,025
-331,460	800,000	-0,045	-0,129
-330,445	19,557	-0,066	-0,038
-329,431	0,787	0,141	0,073
-328,416	-6,609	0,034	-0,017
-327,402	219,106	-0,085	-0,099
-326,387	800,000	0,010	0,022
-325,372	372,620	0,062	-0,091
-324,358	-13,603	0,036	0,017
-323,343	-22,341	-0,045	-0,020
-322,329	-200,000	0,011	0,044
-321,314	800,000	-0,056	0,134
-320,299	-147,767	0,116	-0,007
-319,285	-74,311	-0,085	-0,022
-318,270	0,889	0,119	0,062
-317,256	-23,385	-0,060	0,026
-316,241	47,626	-0,136	0,092
-315,226	-100,505	0,103	0,018
-314,212	2,174	0,022	-0,012
-313,197	311,552	-0,051	-0,069
-312,183	210,948	0,019	-0,022
-311,168	-161,864	-0,088	-0,003
-310,153	383,322	0,028	0,041
-309,139	-97,690	0,084	0,016
-308,124	190,899	-0,061	-0,067
-307,110	-113,964	0,075	0,010
-306,095	-200,000	-0,006	-0,055
-305,080	-200,000	0,038	-0,168
-304,066	-80,434	-0,049	-0,012
-303,051	-64,868	-0,056	-0,016
-302,037	-72,940	-0,081	0,021
-301,022	-200,000	0,004	-0,059
-300,008	-142,811	0,202	-0,014
-298,993	-166,385	-0,122	0,004
-297,978	707,883	0,038	0,073
-296,964	-200,000	0,031	0,159
-295,949	-14,560	-0,027	-0,013
-294,935	-40,500	-0,244	-0,091
-293,920	652,346	0,022	0,042
-292,905	-3,345	0,178	0,090
-291,891	282,701	0,027	0,035
-290,876	-33,029	-0,116	0,047
-289,862	295,079	0,046	0,061
-288,847	36,553	-0,060	-0,038
-287,832	-78,931	0,122	-0,030
-286,818	16,677	-0,132	-0,076
-285,803	164,697	0,029	0,029
-284,789	-200,000	-0,006	0,047
-283,774	265,857	0,075	-0,095
-282,759	301,822	-0,070	-0,094
-281,745	-200,000	-0,015	-0,141
-280,730	158,168	-0,036	-0,036
-279,716	800,000	0,034	-0,083
-278,701	-200,000	-0,005	-0,094
-277,686	-184,529	0,084	0,001
-276,672	311,508	0,047	0,064
-275,657	800,000	0,013	0,027
-274,643	-74,346	0,127	-0,033
-273,628	572,498	-0,071	-0,126
-272,613	-1,627	-0,109	-0,055
-271,599	-200,000	0,032	0,115
-270,584	-200,000	0,029	0,124
-269,570	25,753	0,022	-0,014
-268,555	-10,427	-0,036	0,017
-267,540	91,682	-0,108	0,088
-266,526	-135,616	-0,140	0,012
-265,511	344,553	-0,053	0,075
-264,497	108,833	0,042	-0,037
-263,482	561,294	-0,018	0,032
-262,467	144,444	0,049	-0,047
-261,453	-200,000	-0,012	-0,045
-260,438	-200,000	0,003	-0,037
-259,424	-101,205	-0,139	0,024
-258,409	-163,758	0,105	-0,003
-257,395	800,000	0,030	-0,070
-256,380	800,000	0,006	-0,012
-255,365	123,428	0,133	0,120
-254,351	34,416	-0,093	0,058
-253,336	-60,409	0,069	0,021
-252,322	-200,000	0,002	-0,077
-251,307	59,133	-0,045	-0,032
-250,292	144,531	0,049	-0,047
-249,278	-200,000	-0,024	0,146
-248,263	91,221	0,148	0,120
-247,249	499,788	0,089	-0,150
-246,234	156,831	0,031	-0,031
-245,219	800,000	-0,052	-0,145
-244,205	-14,061	-0,016	0,008
-243,190	-200,000	0,040	0,139
-242,176	-184,280	-0,108	0,001
-241,161	31,277	-0,025	-0,016
-240,146	800,000	-0,041	0,115
-239,132	-200,000	0,006	0,181
-238,117	-95,145	-0,018	0,004
-237,103	-77,467	-0,080	-0,020
-236,088	-27,931	0,176	0,073
-235,073	-167,263	0,151	-0,004
-234,059	-79,206	0,126	0,031
-233,044	-77,024	-0,070	-0,017
-232,030	85,899	0,059	-0,047
-231,015	359,563	0,042	-0,060
-230,000	495,756	0,023	-0,038
-228,986	-64,128	-0,071	0,021
-227,971	538,577	-0,011	0,020
-226,957	-200,000	0,025	-0,088
-225,942	358,299	-0,022	0,032
-224,927	-108,411	0,095	0,015
-223,913	-18,516	0,045	-0,020
-222,898	40,323	-0,058	-0,037
-221,884	-200,000	-0,016	-0,093
-220,869	800,000	-0,031	0,065
-219,855	3,866	-0,110	0,058
-218,840	-44,017	-0,043	-0,015
-217,825	-168,827	-0,088	0,002
-216,811	361,853	-0,119	-0,172
-215,796	108,295	-0,085	-0,073
-214,782	-200,000	0,005	-0,051
-213,767	-145,597	0,057	-0,004
-212,752	674,781	-0,068	0,128
-211,738	-140,464	0,110	0,008
-210,723	-200,000	-0,002	-0,012
-209,709	222,726	-0,076	-0,089
-208,694	-200,000	0,025	-0,080
-207,679	538,492	-0,024	0,042
-206,665	800,000	0,034	0,108
-205,650	-200,000	-0,029	0,132
-204,636	-62,218	-0,009	-0,003
-203,621	253,977	-0,026	0,033
-202,606	800,000	-0,020	-0,049
-201,592	-200,000	-0,034	-0,148
-200,577	-200,000	0,001	-0,039
-199,563	-200,000	-0,006	-0,157
-198,548	55,717	-0,003	-0,002
-197,533	-200,000	-0,019	0,133
-196,519	190,996	-0,069	-0,075
-195,504	-200,000	0,014	-0,153
-194,490	17,119	-0,059	-0,034
-193,475	-164,520	0,052	-0,002
-192,460	800,000	-0,032	-0,069
-191,446	800,000	-0,035	0,094
-190,431	21,368	0,097	0,057
-189,417	186,987	-0,095	-0,102
-188,402	-200,000	-0,030	0,116
-187,387	214,011	0,073	0,084
-186,373	-77,917	0,116	-0,029
-185,358	-94,601	0,128	-0,025
-184,344	587,148	-0,032	0,057
-183,329	94,866	0,088	0,072
-182,315	800,000	-0,041	0,086
-181,300	-200,000	0,018	-0,063
-180,285	-24,802	-0,139	-0,060
-179,271	-149,831	0,059	0,003
-178,256	-25,231	-0,122	0,052
-177,242	800,000	-0,026	-0,069
-176,227	-44,785	0,089	0,032
-175,212	-23,688	0,056	0,024
-174,198	-63,519	-0,079	0,023
-173,183	740,886	0,059	-0,115
-172,169	-200,000	-0,019	0,075
-171,154	176,640	0,070	-0,073
-170,139	-135,783	0,040	0,003
-169,125	800,000	0,025	0,064
-168,110	-74,719	-0,113	0,029
-167,096	-74,907	0,025	0,006
-166,081	-38,725	0,057	-0,021
-165,066	83,317	-0,113	0,089
-164,052	-154,022	-0,144	-0,007
-163,037	-129,742	-0,079	-0,008
-162,023	-39,348	0,099	0,037
-161,008	273,360	-0,024	0,031
-159,993	800,000	-0,022	0,052
-158,979	-139,269	0,040	-0,003
-157,964	-200,000	0,007	0,098
-156,950	-45,243	-0,035	0,012
-155,935	-98,698	-0,201	-0,037
-154,920	-141,783	0,062	0,004
-153,906	534,953	0,036	0,061
-152,891	-134,907	-0,075	-0,006
-151,877	-200,000	0,004	-0,063
-150,862	-42,642	-0,094	0,034
-149,847	103,900	0,108	0,091
-148,833	82,805	0,069	-0,054
-147,818	-90,289	0,114	0,024
-146,804	-17,844	0,087	-0,039
-145,789	-105,177	-0,061	-0,010
-144,775	-79,616	-0,087	0,021
-143,760	-200,000	-0,000	-0,194
-142,745	5,761	0,066	0,035
-141,731	793,789	0,009	-0,017
-140,716	-200,000	0,031	0,102
-139,702	321,842	0,043	0,059
-138,687	800,000	0,035	-0,109
-137,672	447,152	-0,006	0,009
-136,658	79,657	-0,127	-0,098
-135,643	-112,177	0,044	0,006
-134,629	-75,664	0,044	-0,011
-133,614	-200,000	0,008	0,045
-132,599	-134,057	0,086	0,008
-131,585	82,180	0,077	-0,060
-130,570	188,058	-0,096	0,104
-129,556	-87,322	-0,115	-0,025
-128,541	800,000	0,029	-0,078
-127,526	107,918	-0,041	0,035
-126,512	97,283	0,077	0,063
-125,497	538,697	0,092	0,158
-124,483	-200,000	0,011	-0,063
-123,468	465,312	0,027	0,044
-122,453	-200,000	-0,011	-0,062
-121,439	-200,000	-0,003	-0,025
-120,424	139,758	0,095	-0,090
