DTS Sentinel unit serial number:	SN410029Multiplexer serial number:	ORYXHardware model number:	OX2-SRSoftware version number:	ORYX F/W v4,00 Oryx Data Collector v3.7.2.0data status	okinstallation	B5 Nyhavnadifferential loss correction	single-endedforward channel	channel 2reverse channel	N/Adate	2023/12/11time	16:17:13forward acquisition time	300,00reverse acquisition time	0,00gamma	499,1914k internal	0,3166k external	0,3166temperature offset calibration	1,0000default loss term (dB/km)	0,3820temperature slope calibration	1,0000multiplexer offset coefficient	1,0000multiplexer slope coefficient	1,0000fibre end	0,00T internal ref (°C)	13,89T ext. ref 1 (°C)	-1,02T ext. ref 2 (°C)	-1,08length (m)	temperature (°C)	Stokes	anti-Stokes-744,400	-155,403	0,128	-0,006
-743,385	-139,157	-0,318	0,025
-742,371	-180,943	0,086	0,001
-741,356	-96,328	-0,340	-0,066
-740,342	-91,036	-0,022	-0,005
-739,327	-120,848	-0,292	0,036
-738,312	31,904	0,170	0,108
-737,298	-26,836	-0,276	-0,118
-736,283	19,021	0,040	0,024
-735,269	-100,051	-0,241	0,044
-734,254	154,964	0,106	0,107
-733,239	-66,957	-0,632	-0,182
-732,225	-170,554	0,175	-0,004
-731,210	-7,599	-0,080	0,040
-730,196	-200,000	-0,054	0,183
-729,181	48,356	0,093	-0,064
-728,167	-200,000	0,010	-0,078
-727,152	327,551	-0,059	-0,084
-726,137	-200,000	-0,018	-0,065
-725,123	230,195	-0,053	0,064
-724,108	-124,640	-0,047	-0,005
-723,094	149,969	-0,185	-0,185
-722,079	58,460	-0,065	-0,047
-721,064	-200,000	-0,023	-0,092
-720,050	-200,000	0,016	-0,095
-719,035	-181,187	0,156	0,002
-718,021	507,064	0,039	-0,067
-717,006	-40,148	-0,053	0,020
-715,991	-32,973	-0,185	-0,075
-714,977	800,000	-0,029	-0,071
-713,962	-200,000	0,020	-0,111
-712,948	-65,073	0,139	0,041
-711,933	-120,541	-0,119	0,015
-710,918	138,195	-0,064	0,062
-709,904	-76,672	-0,109	0,028
-708,889	-64,392	-0,087	-0,026
-707,875	-200,000	-0,014	-0,054
-706,860	459,656	0,026	-0,042
-705,845	499,544	0,036	-0,061
-704,831	572,475	-0,045	0,080
-703,816	-171,558	-0,084	0,002
-702,802	800,000	0,023	-0,060
-701,787	-200,000	-0,004	-0,152
-700,772	-160,696	0,115	0,004
-699,758	-107,976	-0,173	-0,027
-698,743	186,690	0,074	-0,081
-697,729	-24,200	-0,122	0,053
-696,714	497,264	-0,018	0,031
-695,699	-70,814	0,110	0,030
-694,685	0,096	0,084	0,044
-693,670	180,143	-0,060	-0,064
-692,656	-115,430	0,077	0,011
-691,641	-119,591	-0,037	0,005
-690,627	-52,236	0,061	-0,021
-689,612	136,080	-0,055	0,053
-688,597	-200,000	-0,006	0,077
-687,583	-200,000	-0,002	-0,011
-686,568	-110,239	0,117	0,018
-685,554	136,765	-0,076	-0,073
-684,539	86,563	0,060	0,048
-683,524	-200,000	0,015	-0,171
-682,510	239,226	0,057	0,069
-681,495	800,000	-0,037	-0,082
-680,481	231,976	-0,072	0,086
-679,466	-77,591	-0,173	-0,044
-678,451	137,253	-0,077	-0,074
-677,437	-200,000	-0,025	-0,099
-676,422	-96,468	0,100	-0,019
-675,408	81,291	0,050	0,040
-674,393	-17,560	-0,155	-0,071
-673,378	-200,000	0,000	-0,069
-672,364	56,443	-0,156	-0,111
-671,349	365,216	-0,063	-0,094
-670,335	-200,000	-0,007	0,123
-669,320	-200,000	0,009	0,049
-668,305	222,566	-0,135	0,160
-667,291	31,422	-0,055	-0,034
-666,276	-81,448	0,080	0,019
-665,262	-11,604	-0,123	-0,059
-664,247	-200,000	-0,005	-0,065
-663,232	-200,000	0,004	-0,073
-662,218	800,000	-0,080	0,175
-661,203	118,886	-0,030	0,027
-660,189	-83,906	0,060	0,014
-659,174	359,869	-0,096	-0,142
-658,159	23,392	-0,138	-0,083
-657,145	-200,000	0,013	-0,220
-656,130	277,508	-0,077	0,100
-655,116	310,957	-0,056	-0,077
-654,101	-145,820	0,058	0,004
-653,086	773,906	0,060	-0,120
-652,072	55,170	-0,072	-0,051
-651,057	-131,763	0,134	0,013
-650,043	-122,658	-0,086	0,010
-649,028	800,000	0,010	-0,026
-648,014	455,371	0,030	-0,050
-646,999	-200,000	0,004	-0,081
-645,984	-117,999	0,124	-0,016
-644,970	-200,000	-0,018	0,124
-643,955	-101,840	-0,102	-0,018
-642,941	608,859	0,030	0,055
-641,926	-200,000	-0,010	-0,120
-640,911	239,788	0,107	-0,131
-639,897	449,849	-0,019	-0,031
-638,882	-200,000	0,007	-0,080
-637,868	310,294	-0,083	-0,113
-636,853	-200,000	-0,002	-0,127
-635,838	14,451	-0,131	-0,075
-634,824	-170,326	0,062	0,002
-633,809	-124,509	-0,126	0,014
-632,795	-200,000	-0,004	0,136
-631,780	-84,162	-0,159	0,037
-630,765	-200,000	-0,027	-0,122
-629,751	-75,056	0,093	-0,024
-628,736	-200,000	0,014	-0,116
-627,722	666,346	-0,025	-0,047
-626,707	800,000	-0,037	0,075
-625,692	389,442	0,050	0,076
-624,678	310,793	0,047	-0,065
-623,663	-200,000	0,028	-0,128
-622,649	560,576	0,003	-0,004
-621,634	356,526	-0,058	-0,084
-620,619	800,000	0,010	0,031
-619,605	800,000	-0,021	-0,048
-618,590	298,153	-0,042	0,057
-617,576	155,011	0,087	-0,088
-616,561	441,270	-0,008	-0,012
-615,546	11,907	-0,077	0,043
-614,532	136,630	0,046	-0,044
-613,517	-200,000	-0,041	0,144
-612,503	-143,311	0,113	0,008
-611,488	-24,626	0,096	0,042
-610,474	240,591	-0,033	0,041
-609,459	-92,224	-0,059	-0,012
-608,444	800,000	-0,078	-0,247
-607,430	-47,994	-0,085	-0,030
-606,415	255,504	0,062	0,078
-605,401	227,285	0,143	0,170
-604,386	-200,000	0,008	0,140
-603,371	800,000	0,059	0,159
-602,357	-200,000	-0,008	0,085
-601,342	167,063	-0,122	-0,127
-600,328	157,425	-0,116	-0,118
-599,313	237,706	0,034	-0,042
-598,298	110,170	-0,031	0,027
-597,284	-200,000	0,001	0,048
-596,269	-44,313	-0,022	-0,008
-595,255	-200,000	-0,004	0,132
-594,240	-100,850	0,138	0,025
-593,225	374,500	0,070	-0,105
-592,211	-200,000	0,030	-0,129
-591,196	216,476	0,025	-0,030
-590,182	800,000	-0,027	0,060
-589,167	-200,000	-0,017	-0,077
-588,152	-200,000	-0,040	0,190
-587,138	-126,179	-0,038	0,004
-586,123	120,576	-0,090	-0,081
-585,109	-200,000	-0,007	0,101
-584,094	25,054	0,023	-0,014
-583,079	-158,635	0,045	-0,002
-582,065	-200,000	0,021	0,197
-581,050	-104,492	0,110	-0,018
-580,036	-200,000	0,014	-0,059
-579,021	203,632	-0,115	-0,130
-578,006	-52,530	-0,148	0,050
-576,992	-20,877	0,109	0,049
-575,977	154,063	-0,074	-0,074
-574,963	-84,325	0,117	0,027
-573,948	72,006	-0,132	0,100
-572,934	-103,966	-0,215	0,036
-571,919	-12,359	-0,041	0,020
-570,904	-151,281	-0,059	-0,003
-569,890	-200,000	-0,004	-0,024
-568,875	275,123	-0,016	0,021
-567,861	800,000	0,034	0,087
-566,846	-178,371	0,061	-0,001
-565,831	370,601	-0,053	0,079
-564,817	-132,344	-0,045	-0,004
-563,802	3,797	-0,040	0,021
-562,788	-10,509	-0,127	-0,061
-561,773	-200,000	0,003	-0,042
-560,758	-137,826	0,047	-0,004
-559,744	-200,000	-0,004	0,090
-558,729	66,239	0,134	0,099
-557,715	28,981	0,142	-0,088
-556,700	800,000	0,058	-0,117
-555,685	29,025	0,108	-0,067
-554,671	388,152	-0,073	0,111
-553,656	-200,000	0,002	-0,026
-552,642	-107,798	0,155	-0,024
-551,627	-164,582	0,061	-0,002
-550,612	67,840	-0,079	-0,059
-549,598	-113,900	-0,148	-0,021
-548,583	228,675	-0,033	-0,039
-547,569	-200,000	0,003	-0,094
-546,554	-148,657	-0,084	-0,005
-545,539	-117,674	-0,056	0,007
-544,525	-129,023	0,127	0,013
-543,510	-200,000	-0,016	-0,116
-542,496	-33,519	-0,204	-0,082
-541,481	-11,115	-0,112	-0,054
-540,466	90,681	0,097	0,080
-539,452	-43,116	-0,031	0,012
-538,437	800,000	0,056	0,141
-537,423	404,447	0,063	0,097
-536,408	-18,190	0,025	-0,011
-535,393	-200,000	0,002	-0,050
-534,379	-200,000	-0,032	-0,196
-533,364	-200,000	-0,029	-0,132
-532,350	198,237	-0,042	-0,047
-531,335	200,098	0,084	0,094
-530,321	-200,000	-0,001	-0,156
-529,306	73,187	0,075	-0,057
-528,291	-200,000	0,007	-0,150
-527,277	-200,000	-0,027	-0,198
-526,262	-200,000	-0,012	-0,044
-525,248	-200,000	-0,010	-0,072
-524,233	-200,000	0,006	-0,069
-523,218	367,707	-0,054	0,080
-522,204	105,730	-0,051	0,044
-521,189	136,720	-0,050	0,048
-520,175	-200,000	-0,023	-0,077
-519,160	61,312	-0,127	-0,092
-518,145	460,163	0,075	0,122
-517,131	-200,000	-0,024	0,098
-516,116	98,306	-0,112	-0,094
-515,102	-17,920	0,008	-0,004
-514,087	800,000	0,020	-0,051
-513,072	-156,291	-0,028	-0,001
-512,058	24,081	-0,114	-0,068
-511,043	-200,000	0,000	0,030
-510,029	56,798	-0,046	-0,033
-509,014	12,335	-0,079	0,044
-507,999	-200,000	0,002	-0,015
-506,985	17,813	-0,097	0,056
-505,970	149,558	-0,034	-0,033
-504,956	-200,000	-0,022	-0,074
-503,941	227,711	0,045	0,053
-502,926	-39,765	0,147	0,056
-501,912	-200,000	-0,002	0,095
-500,897	64,211	0,058	-0,043
-499,883	-68,405	0,105	-0,029
-498,868	15,484	-0,113	-0,064
-497,853	1,978	0,063	-0,033
-496,839	-200,000	0,001	-0,175
-495,824	57,687	-0,034	0,024
-494,810	-200,000	0,019	0,096
-493,795	800,000	0,030	-0,072
-492,781	-80,099	-0,121	-0,029
-491,766	-35,470	-0,062	0,024
-490,751	245,854	0,006	-0,008
-489,737	6,107	0,098	-0,053
-488,722	-149,695	-0,093	0,005
-487,708	-54,683	-0,090	0,029
-486,693	-145,215	0,019	0,001
-485,678	-25,910	-0,142	-0,061
-484,664	-88,878	0,089	-0,019
-483,649	-200,000	0,024	0,167
-482,635	715,107	0,054	-0,105
-481,620	-200,000	0,010	-0,089
-480,605	-108,789	0,091	-0,014
-479,591	66,378	0,138	0,102
-478,576	-147,863	0,182	0,011
-477,562	-77,731	-0,088	0,022
-476,547	-139,471	-0,127	-0,010
-475,532	-103,844	0,198	-0,033
-474,518	-32,165	0,084	0,034
-473,503	513,741	0,014	-0,024
-472,489	800,000	0,069	0,142
-471,474	-200,000	-0,005	0,103
-470,459	800,000	-0,048	-0,131
-469,445	-200,000	-0,022	-0,119
-468,430	-200,000	0,008	0,077
-467,416	-200,000	0,000	0,082
-466,401	332,885	-0,039	-0,055
-465,386	241,033	-0,088	0,108
-464,372	-200,000	0,000	-0,130
-463,357	-200,000	0,013	-0,150
-462,343	22,679	0,072	-0,043
-461,328	103,133	-0,062	-0,053
-460,313	-75,369	0,068	-0,018
-459,299	-200,000	-0,013	0,073
-458,284	-13,439	-0,033	0,016
-457,270	-200,000	0,025	0,111
-456,255	800,000	0,049	-0,128
-455,241	27,215	-0,082	-0,050
-454,226	279,284	0,068	0,088
-453,211	542,475	0,040	0,070
-452,197	-73,277	-0,123	0,032
-451,182	70,538	0,125	0,094
-450,168	87,276	0,130	0,104
-449,153	800,000	-0,008	0,026
-448,138	256,714	0,050	-0,062
-447,124	284,342	0,024	0,032
-446,109	-193,127	-0,112	0,001
-445,095	-106,239	0,075	-0,012
-444,080	-72,232	0,078	0,021
-443,065	-133,098	-0,057	0,005
-442,051	410,643	-0,015	-0,023
-441,036	125,818	0,048	0,044
-440,022	-2,806	0,117	-0,059
-439,007	18,627	-0,154	0,089
-437,992	-50,192	0,130	-0,045
-436,978	-94,973	-0,112	0,022
-435,963	-43,782	-0,080	-0,029
-434,949	172,812	0,052	0,055
-433,934	49,709	-0,041	-0,028
-432,919	-155,667	0,159	0,007
-431,905	-60,558	-0,095	0,029
-430,890	79,178	0,033	-0,026
-429,876	27,685	0,109	0,066
-428,861	-3,623	0,125	0,063
-427,846	542,350	0,091	0,158
-426,832	-200,000	-0,044	-0,163
-425,817	800,000	-0,029	0,082
-424,803	-200,000	-0,015	0,054
-423,788	46,205	0,076	-0,051
-422,773	92,613	-0,055	0,045
-421,759	800,000	0,039	0,089
-420,744	248,209	-0,054	-0,067
-419,730	551,191	-0,055	0,096
-418,715	-200,000	-0,016	0,120
-417,701	134,496	0,048	-0,046
-416,686	768,247	-0,051	-0,101
-415,671	-161,879	-0,028	0,001
-414,657	800,000	-0,031	-0,092
-413,642	-200,000	-0,006	-0,028
-412,628	800,000	-0,107	-0,225
-411,613	192,965	0,078	-0,086
-410,598	129,810	0,070	0,065
-409,584	-200,000	0,003	0,074
-408,569	-200,000	0,006	0,047
-407,555	800,000	-0,026	0,074
-406,540	-161,538	-0,031	-0,001
-405,525	-81,549	0,037	0,009
-404,511	299,020	-0,044	-0,059
-403,496	-131,554	0,168	0,016
-402,482	-6,809	-0,026	0,013
-401,467	85,117	-0,051	0,040
-400,452	800,000	0,065	0,151
-399,438	171,643	0,021	0,021
-398,423	144,109	0,100	-0,097
-397,409	-59,514	-0,044	0,014
-396,394	-200,000	-0,012	-0,108
-395,379	256,514	0,056	-0,070
-394,365	-84,072	0,149	0,034
-393,350	52,495	0,087	0,060
-392,336	800,000	-0,008	-0,023
-391,321	83,343	0,095	-0,075
-390,306	-200,000	-0,023	-0,082
-389,292	-200,000	-0,033	-0,112
-388,277	-109,068	0,063	-0,010
-387,263	-39,214	0,070	0,027
-386,248	338,518	0,043	-0,061
-385,233	771,490	0,098	0,195
-384,219	722,691	-0,044	0,086
-383,204	800,000	-0,062	-0,156
-382,190	-98,814	-0,114	-0,021
-381,175	-25,766	-0,032	0,014
-380,160	-90,257	0,126	-0,026
-379,146	800,000	0,015	-0,044
-378,131	81,641	-0,163	0,128
-377,117	673,543	-0,046	0,086
-376,102	403,350	-0,026	0,040
-375,088	-34,074	-0,057	-0,023
-374,073	-197,107	-0,087	0,000
-373,058	800,000	0,048	0,152
-372,044	-90,368	-0,119	0,025
-371,029	-77,418	0,166	-0,041
-370,015	-26,205	0,048	-0,020
-369,000	-93,913	-0,140	-0,028
-367,985	99,703	0,024	-0,020
-366,971	280,079	-0,052	-0,067
-365,956	56,001	0,127	0,089
-364,942	-31,751	0,052	0,021
-363,927	306,625	0,007	0,010
-362,912	-200,000	-0,012	-0,119
-361,898	-71,428	-0,080	-0,022
-360,883	800,000	0,049	-0,150
-359,869	-13,302	0,095	0,044
-358,854	-137,711	-0,195	0,016
-357,839	78,908	0,125	-0,097
-356,825	-124,092	0,059	-0,007
-355,810	-61,142	0,025	-0,008
-354,796	229,545	0,012	-0,015
-353,781	48,766	-0,035	0,024
-352,766	-56,457	0,044	-0,014
-351,752	-200,000	-0,013	-0,066
-350,737	-120,385	-0,079	-0,010
-349,723	19,815	0,146	0,085
-348,708	800,000	-0,044	0,118
-347,693	94,228	0,021	-0,017
-346,679	8,840	0,042	0,023
-345,664	800,000	0,093	-0,188
-344,650	-3,836	-0,084	-0,042
-343,635	124,599	0,089	0,081
-342,620	-187,484	-0,109	0,001
-341,606	287,256	-0,103	0,135
-340,591	-85,603	-0,099	-0,022
-339,577	-200,000	-0,009	-0,173
-338,562	800,000	0,008	0,020
-337,548	-109,572	0,084	-0,013
-336,533	220,124	0,066	0,076
-335,518	-34,499	0,073	0,029
-334,504	-200,000	0,014	0,095
-333,489	203,987	0,108	0,121
-332,475	800,000	-0,030	0,091
-331,460	422,302	-0,042	-0,066
-330,445	-200,000	-0,056	-0,213
-329,431	-119,101	0,073	0,009
-328,416	161,783	0,095	0,096
-327,402	97,227	0,038	0,031
-326,387	-200,000	-0,009	0,183
-325,372	-200,000	0,000	0,015
-324,358	-156,647	-0,129	-0,006
-323,343	799,689	0,040	0,081
-322,329	26,773	-0,036	0,022
-321,314	-114,465	0,072	-0,010
-320,299	-200,000	-0,013	0,108
-319,285	-0,827	0,060	-0,031
-318,270	-120,198	-0,065	-0,008
-317,256	-154,230	0,026	-0,001
-316,241	386,467	0,032	-0,048
-315,226	56,669	-0,036	0,025
-314,212	308,020	0,034	-0,046
-313,197	-200,000	-0,001	-0,015
-312,183	800,000	0,026	-0,058
-311,168	103,337	-0,076	-0,064
-310,153	492,818	0,066	-0,109
-309,139	800,000	-0,054	-0,115
-308,124	-92,247	-0,030	0,006
-307,110	-50,656	-0,053	0,018
-306,095	800,000	-0,031	0,076
-305,080	375,866	0,067	0,099
-304,066	800,000	-0,048	-0,143
-303,051	-90,744	-0,080	0,016
-302,037	-200,000	0,003	-0,037
-301,022	-72,187	0,068	-0,018
-300,008	-200,000	0,008	-0,133
-298,993	252,920	-0,074	0,091
-297,978	176,660	-0,041	0,044
-296,964	-42,687	0,041	-0,015
-295,949	-40,871	0,161	0,060
-294,935	-200,000	-0,012	-0,190
-293,920	5,897	-0,153	-0,082
-292,905	800,000	-0,044	0,090
-291,891	25,892	0,193	0,116
-290,876	-52,495	0,142	0,047
-289,862	-200,000	0,002	-0,064
-288,847	465,701	0,034	-0,056
-287,832	156,952	-0,165	0,165
-286,818	-25,156	-0,052	0,022
-285,803	224,644	0,093	-0,109
-284,789	278,158	0,054	0,070
-283,774	-200,000	0,002	0,074
-282,759	-200,000	-0,002	0,018
-281,745	-200,000	0,030	-0,138
-280,730	-135,984	-0,127	-0,011
-279,716	271,482	-0,076	-0,097
-278,701	800,000	0,012	0,035
-277,686	479,855	-0,035	-0,057
-276,672	195,930	-0,073	0,080
-275,657	800,000	0,039	-0,078
-274,643	-61,896	-0,063	0,019
-273,628	199,384	-0,066	0,073
-272,613	-34,757	-0,075	0,029
-271,599	213,692	-0,055	0,063
-270,584	372,323	0,087	0,128
-269,570	-110,651	0,087	0,013
-268,555	-40,042	0,009	-0,003
-267,540	429,686	0,058	-0,091
-266,526	-200,000	0,036	-0,122
-265,511	56,995	-0,100	0,070
-264,497	-110,589	-0,026	-0,004
-263,482	521,283	0,044	-0,075
-262,467	800,000	-0,030	-0,060
-261,453	-127,626	0,027	0,003
-260,438	-129,765	0,022	-0,002
-259,424	-2,543	0,025	0,013
-258,409	800,000	0,043	-0,137
-257,395	148,889	-0,055	-0,054
-256,380	-200,000	-0,003	0,031
-255,365	800,000	0,016	0,050
-254,351	-200,000	0,009	0,075
-253,336	-200,000	-0,009	0,098
-252,322	5,120	0,061	0,032
-251,307	-145,568	-0,074	0,005
-250,292	800,000	0,020	0,055
-249,278	-142,435	0,064	-0,004
-248,263	258,114	0,065	0,081
-247,249	-79,724	-0,036	-0,009
-246,234	31,356	0,025	0,015
-245,219	189,621	-0,042	-0,045
-244,205	-200,000	0,031	0,219
-243,190	-152,095	-0,077	0,004
-242,176	216,080	0,126	0,144
-241,161	800,000	0,019	0,054
-240,146	-64,467	-0,072	-0,021
-239,132	-187,620	-0,099	-0,001
-238,117	-200,000	0,001	-0,058
-237,103	-200,000	-0,014	0,147
-236,088	-200,000	0,004	-0,106
-235,073	800,000	-0,022	-0,069
-234,059	-86,657	-0,047	0,010
-233,044	-200,000	0,023	0,107
-232,030	800,000	-0,050	-0,129
-231,015	251,665	-0,047	-0,058
-230,000	-152,375	-0,247	0,013
-228,986	51,112	0,090	0,062
-227,971	-200,000	0,016	-0,095
-226,957	459,744	0,050	0,080
-225,942	-200,000	-0,008	-0,066
-224,927	-200,000	-0,014	-0,068
-223,913	-200,000	0,015	0,050
-222,898	-127,845	0,038	0,004
-221,884	8,942	0,069	-0,038
-220,869	257,119	-0,037	-0,046
-219,855	-133,189	0,045	-0,004
-218,840	-200,000	0,015	0,056
-217,825	-200,000	0,009	0,088
-216,811	119,276	-0,082	-0,073
-215,796	45,328	-0,071	-0,047
-214,782	800,000	0,048	0,137
-213,767	800,000	0,013	-0,028
-212,752	342,781	-0,069	0,098
-211,738	21,151	-0,131	-0,076
-210,723	107,578	0,081	0,070
-209,709	194,834	-0,075	-0,082
-208,694	-200,000	0,007	-0,110
-207,679	800,000	-0,042	-0,092
-206,665	800,000	0,027	-0,081
-205,650	800,000	0,004	-0,010
-204,636	54,698	0,065	0,045
-203,621	77,311	-0,080	0,061
-202,606	31,060	-0,073	-0,045
-201,592	352,996	0,062	-0,089
-200,577	539,532	0,011	-0,019
-199,563	393,604	0,141	0,212
-198,548	241,884	0,065	0,078
-197,533	-100,329	-0,045	0,008
-196,519	-136,729	0,143	-0,012
-195,504	800,000	-0,043	0,119
-194,490	-178,429	-0,036	0,001
-193,475	-200,000	0,023	-0,076
-192,460	331,733	-0,070	-0,097
-191,446	-50,372	0,086	0,029
-190,431	651,265	0,020	0,037
-189,417	156,771	-0,077	0,077
-188,402	-200,000	0,013	0,062
-187,387	736,133	0,088	-0,171
-186,373	369,960	-0,140	0,205
-185,358	-200,000	0,003	0,048
-184,344	-125,101	0,126	0,014
-183,329	514,868	0,019	0,032
-182,315	800,000	0,020	0,056
-181,300	-200,000	0,014	0,264
-180,285	-38,978	-0,074	-0,028
-179,271	800,000	0,020	0,047
-178,256	53,854	-0,116	0,080
-177,242	495,203	-0,044	-0,073
-176,227	800,000	0,019	-0,054
-175,212	39,008	0,084	0,054
-174,198	-200,000	0,009	0,050
-173,183	-117,313	-0,107	-0,014
-172,169	100,980	0,158	-0,132
-171,154	-200,000	-0,007	0,128
-170,139	-100,495	0,050	-0,009
-169,125	-16,503	0,045	0,020
-168,110	298,116	-0,082	0,108
-167,096	44,720	-0,102	-0,067
-166,081	195,954	0,114	0,124
-165,066	-200,000	0,010	-0,094
-164,052	800,000	-0,031	-0,096
-163,037	800,000	-0,007	0,019
-162,023	204,823	0,116	0,129
-161,008	-99,577	-0,045	0,008
-159,993	64,586	0,061	0,044
-158,979	800,000	-0,070	0,183
-157,964	-194,654	-0,167	-0,001
-156,950	-100,947	0,040	0,007
-155,935	-32,432	-0,116	-0,046
-154,920	800,000	-0,058	0,153
-153,906	345,909	-0,040	-0,057
-152,891	115,862	0,080	-0,070
-151,877	-200,000	-0,029	0,096
-150,862	349,476	-0,041	-0,059
-149,847	-200,000	-0,016	-0,072
-148,833	3,390	0,051	0,027
-147,818	-126,678	0,035	-0,004
-146,804	260,352	0,069	0,086
-145,789	-146,945	-0,108	-0,007
-144,775	326,064	-0,061	-0,084
-143,760	457,559	0,033	0,054
-142,745	673,298	0,021	0,039
-141,731	800,000	-0,006	0,020
-140,716	-38,586	0,051	-0,019
-139,702	-40,590	-0,160	-0,059
-138,687	111,368	-0,036	0,031
-137,672	172,053	-0,032	0,033
-136,658	166,216	0,064	-0,065
-135,643	800,000	0,055	-0,129
-134,629	765,414	0,050	-0,098
-133,614	32,489	0,011	0,007
-132,599	-38,489	0,140	0,053
-131,585	-136,906	-0,071	0,006
-130,570	272,491	0,046	0,058
-129,556	-200,000	0,014	0,094
-128,541	-106,318	-0,110	0,017
-127,526	785,179	0,030	0,059
-126,512	-200,000	-0,004	-0,021
-125,497	150,053	0,037	0,036
-124,483	-200,000	-0,029	0,162
-123,468	434,690	-0,040	0,063
-122,453	-103,872	0,074	-0,012
-121,439	334,671	0,039	0,054
-120,424	-200,000	0,013	-0,128
