DTS Sentinel unit serial number:	SN410029Multiplexer serial number:	ORYXHardware model number:	OX2-SRSoftware version number:	ORYX F/W v4,00 Oryx Data Collector v3.7.2.0data status	okinstallation	B5 Nyhavnadifferential loss correction	single-endedforward channel	channel 2reverse channel	N/Adate	2023/12/12time	19:47:13forward acquisition time	300,00reverse acquisition time	0,00gamma	499,1914k internal	0,3157k external	0,3157temperature offset calibration	1,0000default loss term (dB/km)	0,3820temperature slope calibration	1,0000multiplexer offset coefficient	1,0000multiplexer slope coefficient	1,0000fibre end	0,00T internal ref (°C)	15,43T ext. ref 1 (°C)	-1,24T ext. ref 2 (°C)	-1,55length (m)	temperature (°C)	Stokes	anti-Stokes-744,400	21,742	0,210	0,126
-743,385	-150,716	-0,275	-0,015
-742,371	62,996	0,098	0,072
-741,356	-72,222	-0,362	0,098
-740,342	-25,846	0,252	-0,109
-739,327	77,263	-0,132	-0,103
-738,312	-129,280	-0,068	0,007
-737,298	-105,912	-0,331	0,054
-736,283	155,026	0,094	-0,095
-735,269	-110,857	-0,277	-0,042
-734,254	-200,000	0,031	0,113
-733,239	-3,587	-0,572	-0,292
-732,225	-80,498	0,186	0,045
-731,210	7,838	-0,040	-0,022
-730,196	40,877	-0,039	-0,026
-729,181	-50,972	-0,012	-0,004
-728,167	-59,344	-0,147	-0,046
-727,152	-200,000	-0,003	0,056
-726,137	-200,000	-0,006	-0,022
-725,123	-200,000	-0,002	-0,105
-724,108	165,250	-0,054	-0,057
-723,094	-200,000	-0,035	-0,211
-722,079	-67,815	-0,085	0,024
-721,064	516,417	-0,046	-0,080
-720,050	-72,592	0,124	-0,034
-719,035	-72,464	-0,036	-0,010
-718,021	-200,000	0,017	-0,112
-717,006	194,515	-0,043	0,048
-715,991	-17,763	0,097	-0,045
-714,977	123,476	-0,037	-0,034
-713,962	-200,000	-0,032	-0,139
-712,948	87,009	-0,037	0,030
-711,933	169,524	-0,070	0,074
-710,918	-200,000	0,015	-0,122
-709,904	-157,187	-0,125	-0,005
-708,889	142,065	0,072	-0,070
-707,875	-23,031	-0,050	-0,022
-706,860	800,000	0,033	-0,093
-705,845	-61,235	-0,131	0,040
-704,831	-18,728	-0,109	0,050
-703,816	-200,000	0,010	-0,133
-702,802	-35,476	-0,159	-0,063
-701,787	-200,000	0,011	-0,150
-700,772	-40,272	-0,083	-0,032
-699,758	342,068	-0,016	0,023
-698,743	-200,000	0,024	0,118
-697,729	218,678	-0,054	-0,064
-696,714	96,188	0,093	-0,078
-695,699	603,059	-0,044	0,080
-694,685	704,615	-0,029	-0,057
-693,670	-53,568	0,061	-0,020
-692,656	129,012	0,101	0,095
-691,641	800,000	0,019	-0,052
-690,627	-200,000	0,004	0,072
-689,612	-93,636	-0,034	-0,007
-688,597	-200,000	-0,011	0,088
-687,583	588,556	-0,087	-0,158
-686,568	-73,473	0,079	-0,021
-685,554	-90,844	-0,129	0,027
-684,539	-200,000	-0,034	0,112
-683,524	107,644	-0,054	0,048
-682,510	38,027	-0,068	-0,045
-681,495	-54,044	-0,088	-0,029
-680,481	299,477	-0,091	-0,124
-679,466	-50,332	0,068	-0,023
-678,451	-200,000	-0,015	-0,067
-677,437	-84,486	-0,032	0,007
-676,422	48,046	-0,073	0,050
-675,408	800,000	0,012	0,029
-674,393	81,026	-0,041	-0,033
-673,378	639,507	-0,068	-0,129
-672,364	-88,165	0,114	0,025
-671,349	436,472	0,074	-0,119
-670,335	-148,737	-0,109	-0,006
-669,320	-74,356	-0,094	0,025
-668,305	233,026	0,110	0,133
-667,291	-158,793	-0,198	-0,008
-666,276	-200,000	-0,023	-0,079
-665,262	-200,000	-0,004	-0,065
-664,247	75,598	-0,136	-0,105
-663,232	326,954	0,134	-0,189
-662,218	800,000	0,024	0,074
-661,203	-107,948	0,111	0,018
-660,189	71,645	0,083	-0,063
-659,174	734,775	-0,018	-0,035
-658,159	-200,000	0,017	-0,069
-657,145	469,569	0,040	-0,067
-656,130	365,504	0,066	0,098
-655,116	-0,440	0,056	0,029
-654,101	-200,000	0,003	-0,052
-653,086	-67,639	-0,168	0,048
-652,072	178,028	-0,062	0,067
-651,057	40,593	-0,055	0,036
-650,043	344,017	-0,046	0,066
-649,028	-107,406	-0,062	0,010
-648,014	-200,000	0,009	-0,039
-646,999	-2,737	-0,067	-0,034
-645,984	-200,000	0,005	-0,108
-644,970	117,416	-0,092	-0,083
-643,955	-162,454	-0,110	-0,004
-642,941	-82,737	-0,067	-0,016
-641,926	-39,427	0,069	0,026
-640,911	228,916	0,061	-0,074
-639,897	298,687	-0,041	0,056
-638,882	-144,234	-0,072	-0,005
-637,868	-121,543	-0,187	-0,022
-636,853	-200,000	0,018	-0,130
-635,838	-200,000	-0,001	-0,057
-634,824	153,077	0,033	-0,033
-633,809	261,997	-0,053	0,068
-632,795	-200,000	0,014	-0,154
-631,780	-200,000	-0,009	0,159
-630,765	-45,602	-0,111	-0,040
-629,751	-60,122	-0,066	0,020
-628,736	12,269	0,094	-0,053
-627,722	-7,629	-0,041	0,020
-626,707	231,670	0,063	-0,076
-625,692	-77,808	-0,084	0,021
-624,678	709,050	0,058	0,114
-623,663	517,075	-0,029	-0,049
-622,649	180,181	-0,023	0,025
-621,634	800,000	0,026	0,073
-620,619	800,000	-0,044	-0,091
-619,605	800,000	-0,058	-0,171
-618,590	143,815	0,146	0,143
-617,576	-186,743	-0,057	-0,001
-616,561	22,900	0,079	0,048
-615,546	716,751	0,032	-0,062
-614,532	-42,381	-0,081	0,030
-613,517	-55,382	0,045	0,015
-612,503	-200,000	0,005	-0,019
-611,488	-191,864	0,057	0,000
-610,474	-91,916	0,206	-0,043
-609,459	-200,000	0,004	-0,147
-608,444	58,110	-0,077	0,055
-607,430	-200,000	0,004	0,189
-606,415	406,946	0,018	0,027
-605,401	-200,000	-0,009	0,056
-604,386	-200,000	-0,014	-0,087
-603,371	800,000	-0,013	0,039
-602,357	172,318	-0,014	0,015
-601,342	800,000	-0,023	-0,063
-600,328	-150,712	-0,169	-0,009
-599,313	29,184	0,070	0,044
-598,298	800,000	-0,015	0,041
-597,284	-200,000	0,009	-0,091
-596,269	-200,000	0,032	0,181
-595,255	-160,028	0,046	0,002
-594,240	800,000	-0,028	-0,058
-593,225	333,963	0,045	-0,064
-592,211	-134,459	-0,095	0,008
-591,196	490,291	0,031	-0,053
-590,182	459,628	0,022	0,036
-589,167	-200,000	0,011	-0,043
-588,152	614,392	0,040	0,073
-587,138	0,131	0,116	0,060
-586,123	63,275	-0,153	-0,112
-585,109	54,972	-0,087	-0,062
-584,094	-200,000	-0,015	0,077
-583,079	328,854	-0,026	0,036
-582,065	-97,964	0,063	0,012
-581,050	40,941	-0,066	-0,043
-580,036	-101,144	0,154	-0,027
-579,021	680,937	-0,046	-0,089
-578,006	198,263	-0,050	-0,056
-576,992	-78,761	0,166	0,041
-575,977	-156,703	-0,090	0,004
-574,963	152,833	0,060	0,060
-573,948	-200,000	-0,003	-0,101
-572,934	11,281	0,117	-0,065
-571,919	-23,714	-0,103	0,045
-570,904	20,097	0,046	0,027
-569,890	106,790	-0,047	0,041
-568,875	96,156	-0,055	0,046
-567,861	392,494	0,070	0,107
-566,846	-200,000	-0,007	-0,048
-565,831	147,935	-0,059	0,058
-564,817	533,999	-0,065	0,113
-563,802	611,043	-0,031	-0,057
-562,788	183,623	-0,021	0,023
-561,773	-200,000	0,001	0,033
-560,758	95,375	-0,077	0,065
-559,744	800,000	0,031	-0,084
-558,729	-167,788	-0,005	-0,000
-557,715	-200,000	0,033	-0,126
-556,700	-5,655	0,129	-0,064
-555,685	359,509	0,035	0,051
-554,671	-200,000	0,007	0,068
-553,656	-105,076	-0,051	0,008
-552,642	-200,000	-0,013	0,169
-551,627	683,056	0,042	0,081
-550,612	724,176	-0,030	-0,059
-549,598	-200,000	-0,021	-0,114
-548,583	-200,000	0,008	-0,169
-547,569	800,000	0,010	0,029
-546,554	-200,000	0,003	0,023
-545,539	168,337	0,050	0,052
-544,525	-98,326	-0,045	0,008
-543,510	-200,000	0,001	-0,076
-542,496	-200,000	-0,003	0,019
-541,481	41,190	-0,026	0,017
-540,466	201,624	0,023	0,026
-539,452	-200,000	-0,027	0,157
-538,437	484,216	0,028	0,046
-537,423	-57,423	-0,177	0,057
-536,408	-200,000	0,008	0,051
-535,393	800,000	-0,065	-0,139
-534,379	-200,000	-0,033	-0,148
-533,364	-59,565	-0,154	-0,048
-532,350	68,819	-0,018	-0,013
-531,335	-49,228	-0,081	-0,028
-530,321	403,045	-0,064	-0,099
-529,306	95,195	0,052	0,043
-528,291	65,146	-0,066	-0,049
-527,277	-34,049	-0,062	0,025
-526,262	-200,000	-0,008	0,047
-525,248	-75,872	-0,108	0,028
-524,233	-60,591	-0,024	0,007
-523,218	217,573	-0,077	0,090
-522,204	67,971	-0,073	-0,055
-521,189	-200,000	-0,023	-0,156
-520,175	-151,929	-0,110	-0,006
-519,160	507,993	-0,033	-0,056
-518,145	-200,000	0,002	-0,035
-517,131	-63,986	0,015	0,005
-516,116	-144,260	0,058	-0,004
-515,102	89,085	0,105	-0,085
-514,087	-200,000	0,204	-0,000
-513,072	409,511	0,105	-0,163
-512,058	-31,796	-0,076	0,031
-511,043	17,864	-0,104	-0,060
-510,029	22,379	0,167	0,099
-509,014	800,000	0,078	0,159
-507,999	800,000	-0,027	0,076
-506,985	-86,860	-0,177	-0,039
-505,970	800,000	-0,043	-0,096
-504,956	-200,000	0,031	-0,120
-503,941	322,904	-0,061	-0,084
-502,926	-200,000	-0,005	0,176
-501,912	800,000	-0,023	-0,054
-500,897	800,000	0,010	-0,032
-499,883	-95,933	0,034	0,007
-498,868	800,000	-0,035	-0,074
-497,853	35,634	-0,064	-0,041
-496,839	-200,000	0,014	0,071
-495,824	-62,513	0,208	0,063
-494,810	123,384	-0,022	0,021
-493,795	-200,000	0,022	0,109
-492,781	-100,025	-0,028	0,005
-491,766	-1,942	-0,043	-0,022
-490,751	253,249	0,082	0,102
-489,737	630,707	0,069	-0,129
-488,722	794,864	0,053	0,106
-487,708	-200,000	0,002	0,060
-486,693	415,260	-0,058	-0,090
-485,678	-200,000	-0,035	-0,149
-484,664	-34,712	0,051	-0,020
-483,649	-39,577	-0,076	-0,029
-482,635	800,000	0,040	-0,117
-481,620	-30,103	0,081	-0,033
-480,605	274,476	0,069	-0,090
-479,591	61,937	0,066	-0,048
-478,576	25,969	0,060	-0,036
-477,562	109,188	-0,100	-0,087
-476,547	-51,658	-0,055	-0,019
-475,532	800,000	-0,039	-0,103
-474,518	-117,637	0,023	0,003
-473,503	10,291	0,091	0,051
-472,489	-34,464	0,025	0,010
-471,474	800,000	-0,065	0,165
-470,459	55,461	-0,056	-0,039
-469,445	800,000	-0,104	-0,258
-468,430	33,713	0,055	-0,035
-467,416	-140,146	0,123	-0,009
-466,401	425,593	0,072	0,114
-465,386	153,557	0,074	-0,074
-464,372	-200,000	0,006	-0,146
-463,357	-45,151	-0,203	0,073
-462,343	495,897	0,064	-0,107
-461,328	734,065	0,024	0,047
-460,313	800,000	-0,041	-0,111
-459,299	-100,075	0,076	-0,014
-458,284	523,644	0,065	-0,112
-457,270	-5,452	-0,171	-0,085
-456,255	93,974	0,136	-0,112
-455,241	800,000	-0,014	-0,031
-454,226	-200,000	-0,003	-0,144
-453,211	-200,000	-0,028	-0,106
-452,197	-129,014	0,037	0,004
-451,182	-7,166	0,069	0,034
-450,168	245,277	-0,045	-0,056
-449,153	-75,186	0,029	0,007
-448,138	-200,000	0,014	-0,065
-447,124	729,635	-0,013	0,025
-446,109	463,580	0,021	0,034
-445,095	39,380	0,036	0,023
-444,080	58,193	-0,145	0,104
-443,065	433,660	-0,041	-0,065
-442,051	250,534	0,056	-0,070
-441,036	790,751	-0,021	-0,043
-440,022	9,257	-0,048	0,026
-439,007	-17,667	-0,123	-0,056
-437,992	157,603	0,123	0,124
-436,978	-200,000	0,014	-0,053
-435,963	-200,000	0,023	0,166
-434,949	-66,553	-0,130	0,037
-433,934	321,443	0,094	-0,131
-432,919	-200,000	-0,003	0,022
-431,905	-200,000	0,011	0,085
-430,890	153,550	0,058	0,058
-429,876	184,121	-0,087	-0,094
-428,861	359,604	-0,017	0,024
-427,846	-93,815	-0,084	0,017
-426,832	147,405	-0,024	-0,023
-425,817	-164,877	-0,169	0,005
-424,803	5,175	-0,046	0,025
-423,788	56,051	0,098	0,069
-422,773	290,340	0,025	-0,033
-421,759	-171,936	0,048	0,001
-420,744	800,000	0,067	-0,189
-419,730	800,000	-0,033	-0,072
-418,715	-49,728	0,107	0,037
-417,701	58,837	-0,119	-0,085
-416,686	161,339	-0,001	0,001
-415,671	-25,593	0,076	0,033
-414,657	-64,367	0,115	-0,034
-413,642	-137,399	-0,063	0,005
-412,628	293,358	0,063	-0,084
-411,613	55,341	-0,103	0,072
-410,598	-181,610	0,058	-0,001
-409,584	36,885	-0,023	0,015
-408,569	21,220	0,098	0,058
-407,555	-200,000	0,032	0,132
-406,540	-40,398	0,060	0,023
-405,525	-61,844	0,116	0,035
-404,511	-18,302	-0,103	0,046
-403,496	-47,979	0,043	-0,015
-402,482	53,281	-0,018	0,013
-401,467	5,760	-0,020	-0,011
-400,452	65,926	0,071	0,052
-399,438	499,919	-0,053	0,090
-398,423	800,000	0,009	0,020
-397,409	-200,000	-0,011	-0,075
-396,394	-22,364	-0,038	-0,017
-395,379	117,613	0,030	-0,027
-394,365	21,814	-0,048	-0,028
-393,350	800,000	0,081	0,171
-392,336	-200,000	-0,034	-0,185
-391,321	-200,000	-0,005	0,019
-390,306	-14,873	0,069	0,032
-389,292	716,686	0,019	-0,037
-388,277	288,859	-0,048	-0,064
-387,263	79,376	0,073	-0,057
-386,248	47,831	0,064	-0,043
-385,233	20,483	-0,075	-0,044
-384,219	-56,606	-0,026	-0,008
-383,204	-152,804	-0,079	0,004
-382,190	597,229	0,080	0,145
-381,175	-200,000	0,027	0,110
-380,160	-200,000	0,010	-0,076
-379,146	-200,000	0,007	0,083
-378,131	86,334	0,085	0,068
-377,117	-200,000	0,037	0,144
-376,102	55,219	0,016	0,011
-375,088	-200,000	-0,002	-0,165
-374,073	800,000	-0,014	0,035
-373,058	800,000	0,007	-0,022
-372,044	-98,839	0,079	0,015
-371,029	-67,541	0,094	-0,027
-370,015	-150,131	-0,106	0,006
-369,000	-102,177	-0,062	-0,011
-367,985	-200,000	-0,015	0,085
-366,971	-88,136	0,090	0,019
-365,956	-28,476	-0,160	0,067
-364,942	-90,160	0,109	-0,023
-363,927	-200,000	-0,023	0,139
-362,912	583,961	0,009	-0,016
-361,898	-200,000	-0,010	0,068
-360,883	-200,000	0,004	-0,085
-359,869	-29,320	0,090	-0,037
-358,854	-154,018	0,111	-0,005
-357,839	800,000	0,015	-0,034
-356,825	-101,465	0,020	-0,004
-355,810	186,127	-0,039	0,042
-354,796	-200,000	0,003	0,146
-353,781	-200,000	0,015	-0,060
-352,766	-43,386	-0,061	0,022
-351,752	-79,578	0,104	-0,025
-350,737	469,159	0,005	-0,008
-349,723	-158,186	-0,092	-0,004
-348,708	718,242	-0,036	-0,069
-347,693	-102,458	-0,028	-0,005
-346,679	-36,033	-0,081	0,031
-345,664	-200,000	0,020	-0,089
-344,650	-200,000	0,003	0,030
-343,635	-49,596	-0,023	0,008
-342,620	43,108	0,139	-0,092
-341,606	237,756	-0,004	-0,004
-340,591	-200,000	0,003	-0,084
-339,577	-200,000	-0,029	0,109
-338,562	-115,776	-0,089	-0,012
-337,548	83,623	0,066	0,052
-336,533	-117,774	-0,024	0,003
-335,518	127,693	0,099	-0,091
-334,504	-148,511	-0,134	0,008
-333,489	-200,000	-0,030	-0,097
-332,475	-21,246	-0,122	-0,054
-331,460	-200,000	0,010	-0,037
-330,445	800,000	-0,040	0,120
-329,431	-27,657	-0,058	-0,024
-328,416	110,532	0,107	0,094
-327,402	500,160	-0,063	0,105
-326,387	594,052	-0,024	0,042
-325,372	125,860	-0,035	0,032
-324,358	12,510	-0,122	-0,068
-323,343	138,324	-0,063	-0,060
-322,329	-200,000	-0,000	0,030
-321,314	-200,000	0,008	0,049
-320,299	616,394	0,066	-0,121
-319,285	-97,359	-0,111	0,021
-318,270	-57,311	-0,046	0,015
-317,256	161,655	-0,111	0,113
-316,241	97,678	0,099	-0,082
-315,226	-200,000	0,006	0,039
-314,212	17,820	0,118	0,068
-313,197	-200,000	-0,027	0,089
-312,183	-200,000	0,011	0,133
-311,168	564,076	-0,101	0,179
-310,153	-137,524	-0,140	-0,011
-309,139	338,644	-0,089	-0,125
-308,124	-21,822	0,155	-0,068
-307,110	-109,797	-0,053	0,008
-306,095	800,000	0,065	0,138
-305,080	300,785	0,022	0,029
-304,066	336,071	-0,033	0,047
-303,051	258,628	-0,104	0,130
-302,037	88,431	-0,028	-0,023
-301,022	150,121	-0,048	-0,047
-300,008	41,107	-0,052	0,034
-298,993	-200,000	0,004	0,043
-297,978	800,000	-0,009	0,028
-296,964	377,152	-0,011	0,016
-295,949	-200,000	0,022	-0,098
-294,935	18,773	-0,089	-0,052
-293,920	9,616	0,021	-0,011
-292,905	-200,000	0,019	0,122
-291,891	-200,000	0,006	0,071
-290,876	223,284	-0,015	-0,018
-289,862	-7,622	-0,078	-0,038
-288,847	-140,812	-0,017	0,001
-287,832	-200,000	0,004	0,198
-286,818	73,486	-0,060	-0,046
-285,803	-176,479	-0,102	0,002
-284,789	-200,000	0,010	-0,061
-283,774	-200,000	0,006	0,067
-282,759	800,000	-0,009	0,020
-281,745	-200,000	-0,004	0,036
-280,730	-200,000	-0,010	0,105
-279,716	-71,900	0,194	-0,052
-278,701	-200,000	0,034	0,110
-277,686	17,924	0,053	-0,031
-276,672	-200,000	0,007	0,159
-275,657	-200,000	-0,001	0,016
-274,643	-29,132	0,085	0,035
-273,628	-172,481	0,090	-0,002
-272,613	-72,402	0,060	0,016
-271,599	181,880	0,125	0,134
-270,584	206,407	0,076	0,085
-269,570	-200,000	-0,009	-0,041
-268,555	-166,585	-0,054	0,002
-267,540	407,704	0,087	-0,134
-266,526	180,757	0,087	-0,093
-265,511	-160,705	-0,051	-0,002
-264,497	-200,000	0,027	0,105
-263,482	-200,000	0,001	0,016
-262,467	118,781	-0,046	0,041
-261,453	26,337	-0,018	0,011
-260,438	320,191	0,073	0,101
-259,424	-141,346	-0,042	0,003
-258,409	88,038	0,145	-0,116
-257,395	43,545	-0,030	-0,020
-256,380	-168,412	0,118	0,003
-255,365	-200,000	0,043	0,200
-254,351	76,045	-0,118	-0,090
-253,336	800,000	0,011	-0,029
-252,322	266,938	-0,039	-0,050
-251,307	-98,858	-0,113	0,021
-250,292	-83,500	0,040	-0,009
-249,278	-200,000	-0,021	0,158
-248,263	21,500	0,170	0,100
-247,249	-166,593	0,074	0,002
-246,234	-63,891	-0,067	-0,020
-245,219	348,900	-0,068	-0,097
-244,205	-200,000	0,015	-0,103
-243,190	-123,039	0,114	-0,013
-242,176	468,640	-0,071	-0,115
-241,161	99,387	0,107	-0,089
-240,146	-200,000	-0,026	0,091
-239,132	79,561	-0,127	-0,099
-238,117	191,146	-0,084	0,091
-237,103	-200,000	0,019	-0,130
-236,088	800,000	0,035	-0,081
-235,073	-200,000	-0,015	-0,048
-234,059	48,599	-0,089	-0,061
-233,044	31,319	0,035	0,022
-232,030	-200,000	-0,027	-0,142
-231,015	-200,000	-0,013	-0,078
-230,000	-136,752	0,078	-0,006
-228,986	-61,972	-0,058	-0,017
-227,971	800,000	0,060	-0,141
-226,957	800,000	0,050	-0,118
-225,942	-200,000	0,019	0,188
-224,927	250,965	0,072	0,089
-223,913	6,796	0,048	-0,026
-222,898	137,967	0,034	-0,032
-221,884	-146,874	0,075	-0,005
-220,869	-110,535	0,150	0,022
-219,855	800,000	-0,024	-0,053
-218,840	-112,255	0,077	-0,011
-217,825	800,000	0,056	0,120
-216,811	-13,103	-0,111	0,052
-215,796	-200,000	0,005	0,022
-214,782	800,000	-0,025	0,064
-213,767	-135,585	0,058	-0,005
-212,752	-128,156	0,147	-0,015
-211,738	74,414	0,029	0,022
-210,723	-200,000	-0,025	0,118
-209,709	-92,132	-0,027	0,005
-208,694	-36,117	-0,064	0,025
-207,679	648,008	-0,068	0,125
-206,665	-19,737	0,103	0,046
-205,650	-200,000	0,027	-0,111
-204,636	52,007	0,087	0,059
-203,621	188,387	0,008	-0,008
-202,606	-33,246	-0,098	-0,039
-201,592	-200,000	0,030	-0,125
-200,577	800,000	0,032	-0,075
-199,563	-129,833	0,071	0,007
-198,548	427,132	-0,048	0,075
-197,533	-72,700	0,155	0,041
-196,519	-200,000	-0,005	0,073
-195,504	-200,000	0,012	0,145
-194,490	37,435	0,023	0,015
-193,475	800,000	0,035	-0,073
-192,460	112,248	-0,019	0,017
-191,446	-46,844	-0,028	0,010
-190,431	800,000	0,032	-0,078
-189,417	-200,000	-0,003	0,113
-188,402	133,086	-0,030	0,028
-187,387	-68,707	-0,021	-0,006
-186,373	228,098	0,035	0,041
-185,358	-200,000	-0,011	0,068
-184,344	-200,000	0,011	0,134
-183,329	-143,356	0,196	-0,013
-182,315	-200,000	-0,048	0,195
-181,300	-200,000	-0,023	0,131
-180,285	147,187	0,103	-0,100
-179,271	-200,000	-0,009	-0,176
-178,256	284,728	-0,068	0,089
-177,242	-200,000	-0,056	0,180
-176,227	97,109	0,164	0,136
-175,212	-51,667	-0,129	0,043
-174,198	274,260	-0,076	-0,097
-173,183	-200,000	-0,010	-0,038
-172,169	543,833	-0,062	-0,107
-171,154	800,000	-0,051	-0,118
-170,139	-200,000	-0,001	0,065
-169,125	96,708	0,057	-0,047
-168,110	800,000	0,032	0,100
-167,096	-200,000	-0,011	-0,055
-166,081	-200,000	-0,004	0,038
-165,066	-54,422	-0,023	0,008
-164,052	-23,734	-0,112	0,048
-163,037	34,682	0,136	0,086
-162,023	50,923	-0,030	-0,021
-161,008	-200,000	-0,013	-0,051
-159,993	28,825	-0,055	-0,034
-158,979	-156,993	0,106	0,005
-157,964	-200,000	-0,018	-0,082
-156,950	170,841	-0,087	0,090
-155,935	-200,000	0,012	-0,065
-154,920	15,505	0,072	-0,041
-153,906	342,051	-0,065	0,091
-152,891	-97,730	-0,065	-0,012
-151,877	309,213	0,070	-0,094
-150,862	108,650	-0,127	-0,109
-149,847	-200,000	-0,001	-0,021
-148,833	800,000	-0,021	-0,055
-147,818	93,493	0,021	-0,017
-146,804	17,972	-0,036	-0,021
-145,789	405,806	-0,044	-0,068
-144,775	-200,000	-0,020	-0,175
-143,760	343,431	-0,067	0,095
-142,745	77,776	-0,077	-0,059
-141,731	-98,259	0,064	0,012
-140,716	7,723	-0,017	0,009
-139,702	-32,482	0,077	-0,031
-138,687	74,429	-0,100	-0,076
-137,672	485,298	-0,037	0,061
-136,658	-44,759	-0,070	0,025
-135,643	-200,000	0,009	-0,181
-134,629	337,829	0,076	0,107
-133,614	659,497	-0,050	-0,094
-132,599	-200,000	-0,032	-0,120
-131,585	-87,660	0,176	0,038
-130,570	-200,000	0,051	-0,181
-129,556	-200,000	0,021	-0,096
-128,541	22,316	-0,050	-0,029
-127,526	770,145	-0,010	-0,019
-126,512	-200,000	-0,020	-0,083
-125,497	171,546	0,085	0,088
-124,483	-19,880	0,121	-0,053
-123,468	319,016	-0,132	-0,181
-122,453	-200,000	-0,023	-0,105
-121,439	-200,000	-0,013	-0,138
-120,424	214,451	0,055	-0,063
