DTS Sentinel unit serial number:	SN410029Multiplexer serial number:	ORYXHardware model number:	OX2-SRSoftware version number:	ORYX F/W v4,00 Oryx Data Collector v3.7.2.0data status	okinstallation	B5 Nyhavnadifferential loss correction	single-endedforward channel	channel 2reverse channel	N/Adate	2023/12/12time	15:12:13forward acquisition time	300,00reverse acquisition time	0,00gamma	499,1914k internal	0,3157k external	0,3157temperature offset calibration	1,0000default loss term (dB/km)	0,3820temperature slope calibration	1,0000multiplexer offset coefficient	1,0000multiplexer slope coefficient	1,0000fibre end	0,00T internal ref (°C)	15,93T ext. ref 1 (°C)	-0,41T ext. ref 2 (°C)	-0,67length (m)	temperature (°C)	Stokes	anti-Stokes-744,400	58,149	0,037	-0,027
-743,385	-13,071	-0,244	-0,116
-742,371	-122,076	0,086	-0,010
-741,356	-106,234	-0,204	-0,033
-740,342	57,036	0,080	0,057
-739,327	7,606	-0,195	0,107
-738,312	-14,883	0,142	-0,067
-737,298	-5,454	-0,200	0,101
-736,283	800,000	0,058	0,138
-735,269	-86,585	-0,344	0,077
-734,254	330,905	0,027	0,038
-733,239	24,797	-0,312	-0,190
-732,225	-123,757	0,294	0,034
-731,210	762,232	0,039	0,079
-730,196	-78,995	0,049	-0,012
-729,181	-97,562	0,074	-0,014
-728,167	-127,890	-0,067	-0,007
-727,152	-168,630	0,066	-0,002
-726,137	414,278	-0,038	-0,060
-725,123	-200,000	0,012	-0,146
-724,108	23,292	0,035	-0,021
-723,094	-27,395	-0,096	-0,041
-722,079	44,944	-0,071	-0,048
-721,064	-200,000	-0,005	-0,037
-720,050	-120,068	-0,044	0,005
-719,035	310,415	-0,092	-0,127
-718,021	206,350	0,096	-0,111
-717,006	190,401	-0,052	0,058
-715,991	157,492	-0,114	-0,116
-714,977	99,088	0,101	-0,086
-713,962	-200,000	-0,002	0,099
-712,948	-98,306	-0,088	0,016
-711,933	-76,865	0,053	0,014
-710,918	-48,809	-0,036	-0,013
-709,904	-20,426	-0,169	-0,076
-708,889	47,886	-0,095	0,065
-707,875	-99,798	-0,184	-0,034
-706,860	-200,000	0,001	0,076
-705,845	800,000	-0,008	0,019
-704,831	-89,949	-0,079	0,017
-703,816	-54,703	0,060	0,020
-702,802	-39,855	0,160	0,061
-701,787	-126,572	0,021	-0,002
-700,772	800,000	-0,055	-0,119
-699,758	800,000	0,044	-0,124
-698,743	-58,617	0,081	0,026
-697,729	149,149	-0,091	0,090
-696,714	-200,000	-0,039	0,191
-695,699	800,000	0,013	-0,031
-694,685	390,041	0,070	-0,106
-693,670	-102,821	-0,062	-0,011
-692,656	544,878	0,007	0,013
-691,641	317,110	0,093	0,129
-690,627	644,402	-0,034	0,065
-689,612	-142,463	0,150	-0,011
-688,597	69,784	0,155	0,117
-687,583	-64,528	-0,201	-0,060
-686,568	426,915	-0,106	-0,168
-685,554	-200,000	0,005	-0,052
-684,539	617,216	0,020	0,036
-683,524	-200,000	0,007	0,098
-682,510	-43,280	-0,071	0,026
-681,495	721,553	-0,061	0,119
-680,481	-200,000	0,012	-0,145
-679,466	-92,059	-0,152	0,031
-678,451	-200,000	-0,015	-0,061
-677,437	-200,000	-0,001	-0,127
-676,422	203,823	-0,044	0,050
-675,408	783,165	0,086	-0,175
-674,393	800,000	-0,035	-0,105
-673,378	545,050	0,115	-0,202
-672,364	117,100	-0,202	-0,183
-671,349	-117,819	-0,053	-0,007
-670,335	-44,517	-0,121	-0,044
-669,320	340,666	0,017	-0,024
-668,305	-200,000	0,015	0,048
-667,291	-200,000	0,001	-0,140
-666,276	696,982	0,053	-0,102
-665,262	-200,000	0,004	-0,149
-664,247	-200,000	-0,004	-0,087
-663,232	24,834	-0,127	0,077
-662,218	-61,741	0,144	0,044
-661,203	-200,000	-0,000	-0,038
-660,189	205,335	0,117	-0,134
-659,174	-28,947	-0,121	-0,051
-658,159	137,655	-0,052	0,050
-657,145	-135,189	0,025	0,002
-656,130	36,290	-0,032	0,021
-655,116	-200,000	-0,002	0,033
-654,101	-69,252	0,030	0,008
-653,086	-129,981	-0,156	0,015
-652,072	60,836	0,094	-0,069
-651,057	800,000	-0,022	-0,055
-650,043	-200,000	0,025	-0,103
-649,028	88,142	0,047	-0,039
-648,014	800,000	0,077	-0,157
-646,999	-142,725	-0,132	0,009
-645,984	-200,000	-0,007	-0,080
-644,970	60,643	-0,103	-0,075
-643,955	142,557	-0,041	0,040
-642,941	114,772	-0,096	0,086
-641,926	-117,420	-0,065	-0,009
-640,911	-200,000	0,012	-0,080
-639,897	-65,248	-0,034	0,010
-638,882	311,790	-0,062	-0,086
-637,868	278,345	0,042	-0,054
-636,853	-56,183	0,157	-0,051
-635,838	48,958	-0,180	-0,124
-634,824	45,484	-0,070	0,047
-633,809	800,000	-0,011	0,024
-632,795	-200,000	-0,014	-0,148
-631,780	-200,000	0,012	-0,066
-630,765	-53,695	0,116	-0,039
-629,751	295,099	-0,045	0,061
-628,736	148,422	0,078	0,077
-627,722	-153,135	0,195	0,010
-626,707	-87,002	-0,050	0,011
-625,692	112,267	0,073	-0,065
-624,678	800,000	-0,009	-0,023
-623,663	3,234	0,058	-0,031
-622,649	174,799	-0,068	-0,072
-621,634	-179,704	-0,064	0,001
-620,619	800,000	-0,030	-0,086
-619,605	103,029	0,089	-0,077
-618,590	149,417	0,052	0,052
-617,576	55,505	0,070	0,049
-616,561	213,165	0,015	-0,017
-615,546	241,946	0,077	-0,095
-614,532	-27,361	-0,107	-0,046
-613,517	-60,102	0,096	-0,030
-612,503	-76,551	-0,098	-0,025
-611,488	-200,000	0,005	-0,027
-610,474	-200,000	0,039	-0,134
-609,459	66,458	-0,025	0,018
-608,444	-200,000	-0,001	0,053
-607,430	-200,000	0,040	-0,178
-606,415	19,650	-0,084	0,050
-605,401	112,091	0,056	-0,050
-604,386	225,230	0,118	-0,141
-603,371	543,036	-0,054	0,094
-602,357	644,667	-0,013	-0,024
-601,342	-68,107	0,081	0,023
-600,328	32,481	-0,039	0,025
-599,313	-174,409	-0,090	0,002
-598,298	-200,000	-0,015	-0,056
-597,284	800,000	0,038	-0,078
-596,269	345,779	-0,035	0,051
-595,255	-35,587	-0,023	0,009
-594,240	-191,209	0,166	0,001
-593,225	800,000	-0,028	0,058
-592,211	800,000	0,024	-0,058
-591,196	70,328	0,093	0,070
-590,182	-34,364	-0,061	0,024
-589,167	-2,683	0,187	0,095
-588,152	84,543	-0,058	-0,047
-587,138	-21,580	-0,080	-0,036
-586,123	800,000	0,010	0,028
-585,109	4,905	-0,093	-0,050
-584,094	530,608	0,054	-0,094
-583,079	112,035	-0,061	0,054
-582,065	-53,509	0,099	-0,033
-581,050	-38,766	-0,037	0,014
-580,036	359,014	-0,024	-0,035
-579,021	396,477	-0,022	-0,033
-578,006	-99,851	-0,171	-0,031
-576,992	667,450	-0,051	0,098
-575,977	72,403	0,117	0,089
-574,963	800,000	0,033	0,069
-573,948	-200,000	0,008	-0,055
-572,934	-200,000	-0,029	0,111
-571,919	800,000	0,028	-0,072
-570,904	-200,000	0,004	-0,027
-569,890	209,938	-0,023	0,027
-568,875	131,412	0,138	0,130
-567,861	-200,000	0,016	0,203
-566,846	559,660	-0,043	-0,076
-565,831	40,709	-0,025	0,016
-564,817	-200,000	-0,029	0,100
-563,802	48,205	0,090	-0,061
-562,788	-196,602	-0,109	-0,001
-561,773	-43,609	0,055	0,020
-560,758	-200,000	-0,005	-0,072
-559,744	800,000	0,018	0,042
-558,729	800,000	-0,015	0,046
-557,715	187,257	-0,076	-0,083
-556,700	38,633	-0,056	-0,037
-555,685	149,380	-0,110	-0,109
-554,671	-63,627	0,052	-0,016
-553,656	800,000	0,029	0,072
-552,642	-124,942	-0,087	0,010
-551,627	280,705	0,063	-0,083
-550,612	196,254	0,030	-0,033
-549,598	4,495	-0,086	-0,046
-548,583	-74,359	-0,067	0,018
-547,569	89,126	0,033	0,027
-546,554	44,186	0,030	0,020
-545,539	438,071	-0,102	-0,164
-544,525	-41,270	0,074	-0,028
-543,510	800,000	-0,050	0,114
-542,496	367,934	-0,032	-0,047
-541,481	368,821	0,026	-0,039
-540,466	121,641	-0,069	0,063
-539,452	-74,275	0,101	-0,027
-538,437	-200,000	0,002	0,117
-537,423	-200,000	0,010	0,110
-536,408	238,980	-0,051	0,062
-535,393	800,000	0,066	0,191
-534,379	-35,275	0,075	0,030
-533,364	800,000	-0,031	0,087
-532,350	-115,973	-0,059	-0,008
-531,335	214,667	0,040	0,046
-530,321	103,962	-0,043	0,037
-529,306	800,000	-0,026	0,081
-528,291	120,996	0,025	-0,023
-527,277	-52,923	-0,110	-0,037
-526,262	800,000	0,031	0,065
-525,248	308,966	0,092	0,126
-524,233	-200,000	0,001	-0,045
-523,218	223,197	-0,063	0,074
-522,204	261,967	-0,019	0,024
-521,189	744,424	0,052	-0,103
-520,175	800,000	-0,083	-0,190
-519,160	-76,264	0,112	-0,029
-518,145	226,916	-0,004	0,005
-517,131	41,776	0,070	0,046
-516,116	-113,795	-0,078	0,011
-515,102	800,000	0,052	0,117
-514,087	-39,620	-0,123	0,047
-513,072	-200,000	-0,004	0,066
-512,058	800,000	-0,064	0,181
-511,043	-200,000	0,006	0,031
-510,029	-21,959	0,135	0,060
-509,014	-127,292	0,110	-0,012
-507,999	-200,000	0,002	-0,098
-506,985	-200,000	-0,024	0,142
-505,970	-28,253	-0,063	-0,026
-504,956	800,000	0,015	-0,037
-503,941	98,410	-0,078	0,065
-502,926	-94,794	-0,057	0,011
-501,912	-51,671	0,172	-0,058
-500,897	750,021	0,045	-0,090
-499,883	800,000	-0,016	-0,051
-498,868	257,091	-0,079	-0,100
-497,853	-200,000	-0,018	0,102
-496,839	76,584	0,102	0,079
-495,824	-10,138	0,225	0,109
-494,810	-200,000	0,014	0,093
-493,795	395,814	0,048	0,074
-492,781	-200,000	-0,014	0,046
-491,766	-200,000	0,010	-0,113
-490,751	-200,000	0,001	0,060
-489,737	112,999	0,037	-0,032
-488,722	-66,007	0,004	-0,001
-487,708	800,000	-0,015	0,042
-486,693	10,889	0,108	-0,060
-485,678	25,278	-0,119	0,072
-484,664	-117,286	-0,057	-0,008
-483,649	336,049	-0,085	-0,121
-482,635	-200,000	-0,005	-0,101
-481,620	-42,655	0,172	0,063
-480,605	393,119	0,026	0,040
-479,591	58,985	0,104	0,075
-478,576	108,021	-0,021	0,018
-477,562	-141,711	-0,243	-0,018
-476,547	-200,000	0,002	-0,025
-475,532	-200,000	0,010	0,050
-474,518	78,856	-0,092	0,072
-473,503	-154,037	0,102	0,005
-472,489	800,000	-0,044	0,135
-471,474	521,884	-0,054	0,092
-470,459	-162,702	-0,093	0,003
-469,445	-200,000	0,008	-0,029
-468,430	800,000	-0,049	-0,122
-467,416	-81,759	0,017	0,004
-466,401	-142,151	-0,060	-0,004
-465,386	312,458	-0,065	-0,090
-464,372	-200,000	-0,006	0,197
-463,357	-1,929	-0,021	-0,011
-462,343	-48,128	-0,064	-0,022
-461,328	237,560	0,091	0,111
-460,313	366,517	-0,012	-0,018
-459,299	800,000	0,010	-0,030
-458,284	564,848	0,006	-0,011
-457,270	2,434	-0,075	-0,039
-456,255	-35,088	-0,089	-0,035
-455,241	295,218	0,064	-0,086
-454,226	234,320	-0,041	-0,050
-453,211	800,000	-0,006	0,016
-452,197	16,883	0,109	-0,062
-451,182	-50,206	-0,056	-0,019
-450,168	542,595	0,037	0,065
-449,153	-75,740	-0,138	0,036
-448,138	-112,808	0,065	-0,009
-447,124	-200,000	-0,020	0,079
-446,109	37,161	-0,033	-0,022
-445,095	110,444	0,075	-0,066
-444,080	-200,000	0,011	0,109
-443,065	-80,097	0,043	0,010
-442,051	225,061	-0,051	-0,060
-441,036	-12,067	-0,094	0,045
-440,022	-0,785	-0,039	0,020
-439,007	-58,325	0,101	-0,032
-437,992	-8,839	0,027	-0,013
-436,978	-92,711	0,131	-0,027
-435,963	800,000	0,039	-0,103
-434,949	622,572	0,045	-0,083
-433,934	590,480	0,029	0,052
-432,919	157,647	-0,100	0,101
-431,905	-108,721	0,046	0,007
-430,890	-107,365	0,005	-0,001
-429,876	800,000	0,055	0,151
-428,861	-7,556	0,093	0,046
-427,846	310,977	-0,097	-0,133
-426,832	-121,569	-0,062	0,007
-425,817	30,005	0,038	0,023
-424,803	-114,795	0,056	-0,008
-423,788	-44,037	0,085	-0,031
-422,773	800,000	-0,028	0,065
-421,759	800,000	0,020	0,056
-420,744	-42,472	-0,190	0,070
-419,730	-48,190	0,120	-0,042
-418,715	-72,278	-0,024	-0,006
-417,701	623,169	-0,030	0,055
-416,686	-92,380	0,123	-0,025
-415,671	-200,000	0,014	0,095
-414,657	-200,000	-0,004	-0,129
-413,642	-200,000	0,010	0,051
-412,628	-95,352	-0,066	-0,013
-411,613	-77,101	-0,058	0,015
-410,598	-146,770	0,059	-0,004
-409,584	5,864	0,050	0,027
-408,569	-163,734	0,096	-0,003
-407,555	18,546	0,138	-0,080
-406,540	-200,000	0,013	0,103
-405,525	-96,677	-0,132	0,025
-404,511	123,598	0,068	-0,062
-403,496	153,313	-0,077	-0,077
-402,482	93,880	-0,030	0,025
-401,467	800,000	0,063	0,142
-400,452	-21,115	0,122	0,054
-399,438	-32,528	-0,045	0,018
-398,423	60,532	-0,070	-0,050
-397,409	-200,000	0,014	0,142
-396,394	142,725	-0,034	-0,033
-395,379	-200,000	-0,009	-0,128
-394,365	369,260	-0,026	0,038
-393,350	800,000	0,071	-0,212
-392,336	629,746	0,085	0,157
-391,321	-23,185	-0,125	-0,055
-390,306	800,000	-0,041	-0,108
-389,292	800,000	0,026	-0,063
-388,277	800,000	0,028	-0,079
-387,263	-37,124	0,160	0,062
-386,248	-50,827	0,042	0,014
-385,233	-200,000	0,047	0,171
-384,219	358,355	0,026	-0,038
-383,204	-157,844	-0,211	-0,009
-382,190	-200,000	0,000	-0,149
-381,175	-200,000	0,007	0,040
-380,160	800,000	0,042	0,112
-379,146	3,795	0,071	-0,037
-378,131	-55,541	-0,066	0,021
-377,117	217,395	-0,058	-0,068
-376,102	-200,000	-0,016	-0,097
-375,088	800,000	-0,020	0,060
-374,073	254,477	0,030	0,037
-373,058	203,542	0,029	-0,032
-372,044	-69,632	0,020	0,005
-371,029	700,899	0,042	-0,081
-370,015	-200,000	0,010	-0,067
-369,000	-200,000	-0,009	0,066
-367,985	-39,412	0,038	-0,014
-366,971	-41,879	-0,027	0,010
-365,956	25,933	0,063	-0,038
-364,942	-200,000	0,007	-0,098
-363,927	-200,000	-0,015	0,064
-362,912	800,000	0,056	-0,126
-361,898	228,354	-0,039	-0,047
-360,883	230,815	-0,039	-0,046
-359,869	107,802	0,102	0,088
-358,854	87,832	-0,067	-0,054
-357,839	274,837	-0,048	-0,061
-356,825	181,217	0,043	-0,046
-355,810	-0,583	0,015	-0,008
-354,796	144,105	-0,031	0,030
-353,781	492,745	0,043	0,072
-352,766	32,013	-0,014	-0,008
-351,752	-200,000	0,004	0,122
-350,737	-200,000	0,011	-0,044
-349,723	-53,047	0,109	0,036
-348,708	-138,286	-0,051	0,004
-347,693	89,892	-0,110	-0,089
-346,679	-200,000	0,019	-0,062
-345,664	292,530	0,037	-0,049
-344,650	-7,847	-0,180	-0,088
-343,635	494,688	0,035	0,058
-342,620	800,000	-0,040	0,114
-341,606	-200,000	-0,004	-0,030
-340,591	58,938	-0,070	0,050
-339,577	165,411	-0,043	-0,044
-338,562	-200,000	-0,027	-0,160
-337,548	535,122	0,006	0,011
-336,533	800,000	-0,028	0,063
-335,518	79,290	-0,121	0,094
-334,504	40,260	-0,067	-0,044
-333,489	1,304	0,076	-0,039
-332,475	-200,000	0,025	-0,124
-331,460	223,269	-0,086	-0,100
-330,445	125,433	0,047	0,043
-329,431	800,000	-0,046	-0,115
-328,416	-100,522	0,095	-0,017
-327,402	-200,000	0,023	0,081
-326,387	800,000	0,026	-0,054
-325,372	-200,000	0,007	-0,046
-324,358	27,442	-0,138	-0,084
-323,343	-200,000	-0,009	-0,066
-322,329	-16,151	-0,147	0,068
-321,314	167,685	0,030	-0,031
-320,299	243,041	0,172	0,210
-319,285	800,000	-0,044	0,137
-318,270	-200,000	-0,010	0,058
-317,256	-200,000	-0,005	-0,118
-316,241	388,295	-0,023	-0,035
-315,226	-39,943	0,028	0,011
-314,212	-200,000	-0,006	0,029
-313,197	-82,735	0,094	0,022
-312,183	125,675	-0,018	0,016
-311,168	481,869	-0,067	-0,110
-310,153	-76,338	0,046	-0,012
-309,139	-200,000	0,007	0,097
-308,124	-200,000	0,026	0,094
-307,110	-183,256	0,103	-0,001
-306,095	192,990	0,084	0,092
-305,080	202,386	-0,027	-0,031
-304,066	161,354	0,101	-0,103
-303,051	-157,579	0,132	0,006
-302,037	365,444	-0,132	-0,194
-301,022	-200,000	0,028	0,157
-300,008	293,766	-0,028	0,037
-298,993	-76,963	-0,021	-0,005
-297,978	196,845	-0,054	0,060
-296,964	-107,211	-0,020	-0,003
-295,949	800,000	-0,010	0,025
-294,935	515,940	0,009	-0,015
-293,920	75,807	-0,106	0,081
-292,905	-200,000	0,003	0,058
-291,891	388,645	-0,016	-0,024
-290,876	-169,439	-0,067	0,002
-289,862	284,114	-0,072	0,094
-288,847	-200,000	-0,009	0,201
-287,832	-200,000	0,026	-0,091
-286,818	729,971	0,025	-0,049
-285,803	-200,000	0,034	0,129
-284,789	77,479	0,024	-0,018
-283,774	110,075	0,059	0,052
-282,759	381,523	-0,054	0,081
-281,745	-190,038	-0,161	-0,001
-280,730	-121,722	-0,048	0,006
-279,716	800,000	0,023	-0,060
-278,701	800,000	0,077	-0,159
-277,686	168,079	0,042	0,043
-276,672	800,000	-0,025	0,076
-275,657	177,189	-0,047	0,050
-274,643	25,864	0,044	-0,026
-273,628	800,000	-0,018	0,042
-272,613	-89,020	0,066	0,014
-271,599	104,902	-0,114	-0,097
-270,584	62,992	-0,039	0,028
-269,570	-29,640	0,080	0,033
-268,555	800,000	0,041	-0,096
-267,540	800,000	-0,012	0,028
-266,526	800,000	0,020	-0,054
-265,511	137,226	0,034	0,032
-264,497	-200,000	0,008	-0,056
-263,482	190,152	0,072	-0,078
-262,467	800,000	0,002	-0,006
-261,453	800,000	-0,054	0,120
-260,438	249,334	-0,073	-0,090
-259,424	172,759	-0,044	-0,046
-258,409	275,451	-0,060	-0,077
-257,395	79,486	0,112	0,087
-256,380	90,796	-0,078	-0,063
-255,365	-26,114	0,046	-0,019
-254,351	-200,000	0,021	0,078
-253,336	195,564	-0,052	0,057
-252,322	-131,481	-0,084	0,008
-251,307	189,099	0,164	-0,178
-250,292	-114,694	0,113	-0,016
-249,278	31,633	-0,080	-0,050
-248,263	292,822	0,047	0,062
-247,249	18,462	0,078	-0,045
-246,234	529,963	-0,022	0,038
-245,219	262,774	0,072	-0,091
-244,205	-119,694	-0,056	0,007
-243,190	-96,951	0,086	0,016
-242,176	-200,000	0,034	-0,137
-241,161	-200,000	-0,012	0,045
-240,146	800,000	0,032	0,068
-239,132	208,100	-0,068	0,077
-238,117	-120,837	-0,127	-0,015
-237,103	72,676	0,049	-0,037
-236,088	421,324	-0,040	-0,062
-235,073	-65,086	0,199	-0,058
-234,059	552,731	0,017	-0,029
-233,044	-200,000	-0,000	0,003
-232,030	-62,889	0,078	-0,023
-231,015	-144,592	-0,119	0,008
-230,000	800,000	-0,053	-0,111
-228,986	-164,676	-0,013	-0,000
-227,971	-69,388	0,174	0,048
-226,957	-64,136	0,163	0,048
-225,942	-52,366	-0,028	0,009
-224,927	-6,697	-0,079	0,039
-223,913	800,000	-0,019	-0,052
-222,898	-200,000	0,007	-0,037
-221,884	-200,000	-0,002	-0,132
-220,869	-90,134	-0,110	-0,023
-219,855	800,000	0,045	0,100
-218,840	65,903	-0,061	0,044
-217,825	-200,000	0,007	0,168
-216,811	-200,000	-0,011	0,059
-215,796	14,411	-0,059	-0,033
-214,782	405,850	0,053	-0,080
-213,767	800,000	0,051	0,132
-212,752	-77,538	0,109	0,027
-211,738	346,402	-0,030	-0,043
-210,723	73,837	-0,040	-0,030
-209,709	800,000	0,013	0,032
-208,694	-66,550	0,043	0,012
-207,679	-83,325	0,016	0,004
-206,665	-187,283	0,105	0,001
-205,650	-200,000	-0,007	0,111
-204,636	-200,000	-0,003	0,049
-203,621	31,485	-0,065	-0,040
-202,606	800,000	-0,080	0,166
-201,592	-117,154	-0,101	-0,013
-200,577	-200,000	-0,053	0,000
-199,563	-124,442	-0,080	0,009
-198,548	270,550	0,127	-0,162
-197,533	-200,000	0,014	-0,057
-196,519	800,000	-0,008	-0,023
-195,504	-11,726	-0,029	0,014
-194,490	-181,596	-0,148	-0,002
-193,475	-200,000	0,009	-0,090
-192,460	209,755	-0,084	0,096
-191,446	-200,000	0,026	-0,092
-190,431	-71,032	0,141	0,038
-189,417	341,841	-0,027	-0,038
-188,402	14,066	0,059	0,033
-187,387	330,205	-0,066	0,091
-186,373	-200,000	-0,007	-0,089
-185,358	-159,278	0,096	0,004
-184,344	731,115	-0,019	0,036
-183,329	-47,303	-0,108	-0,038
-182,315	-35,621	0,140	-0,055
-181,300	-130,661	-0,180	0,017
-180,285	-161,291	-0,148	0,005
-179,271	-88,642	0,086	-0,018
-178,256	614,944	-0,058	-0,104
-177,242	392,054	-0,041	0,062
-176,227	42,522	0,084	-0,055
-175,212	-109,167	-0,072	0,011
-174,198	109,643	-0,102	-0,088
-173,183	-42,771	0,073	-0,027
-172,169	-33,879	-0,100	0,039
-171,154	116,526	0,036	-0,032
-170,139	223,808	0,056	-0,066
-169,125	-200,000	-0,002	0,070
-168,110	-200,000	-0,033	0,123
-167,096	-86,815	-0,059	0,013
-166,081	698,680	0,072	0,138
-165,066	800,000	0,013	-0,038
-164,052	-200,000	-0,004	0,064
-163,037	-72,463	0,026	-0,007
-162,023	-99,597	0,055	0,010
-161,008	-200,000	-0,016	0,152
-159,993	-98,087	0,014	-0,003
-158,979	130,167	-0,138	-0,128
-157,964	-65,247	0,074	-0,021
-156,950	-46,524	-0,034	-0,012
-155,935	-200,000	0,016	-0,089
-154,920	223,295	-0,041	-0,047
-153,906	-200,000	0,004	0,087
-152,891	355,502	0,108	0,156
-151,877	-114,208	-0,124	-0,017
-150,862	-200,000	-0,123	0,000
-149,847	-200,000	-0,014	-0,090
-148,833	-200,000	0,028	-0,172
-147,818	-123,332	0,116	-0,013
-146,804	-95,144	-0,062	-0,012
-145,789	296,417	0,063	0,084
-144,775	25,596	0,066	0,040
-143,760	411,828	-0,066	0,101
-142,745	281,771	-0,008	-0,010
-141,731	800,000	-0,027	0,057
-140,716	183,076	-0,016	-0,017
-139,702	-178,188	-0,083	-0,001
-138,687	800,000	0,020	-0,060
-137,672	157,293	0,049	-0,049
-136,658	-131,724	-0,155	-0,014
-135,643	155,695	-0,080	-0,079
-134,629	-200,000	-0,002	-0,071
-133,614	-137,604	0,183	-0,015
-132,599	-200,000	0,037	0,153
-131,585	-200,000	-0,003	0,044
-130,570	-200,000	0,017	-0,069
-129,556	800,000	0,021	0,044
-128,541	-15,542	0,112	-0,051
-127,526	149,158	0,078	-0,076
-126,512	800,000	0,022	-0,044
-125,497	-200,000	0,000	0,132
-124,483	-200,000	0,000	0,026
-123,468	100,711	0,071	-0,059
-122,453	-38,582	-0,106	-0,040
-121,439	298,675	-0,038	0,050
-120,424	563,762	0,034	-0,059
-119,410	-125,098	0,140	-0,015
