DTS Sentinel unit serial number:	SN410029Multiplexer serial number:	ORYXHardware model number:	OX2-SRSoftware version number:	ORYX F/W v4,00 Oryx Data Collector v3.7.2.0data status	okinstallation	B5 Nyhavnadifferential loss correction	single-endedforward channel	channel 2reverse channel	N/Adate	2023/12/12time	05:12:13forward acquisition time	300,00reverse acquisition time	0,00gamma	499,1914k internal	0,3157k external	0,3157temperature offset calibration	1,0000default loss term (dB/km)	0,3820temperature slope calibration	1,0000multiplexer offset coefficient	1,0000multiplexer slope coefficient	1,0000fibre end	0,00T internal ref (°C)	15,40T ext. ref 1 (°C)	-1,00T ext. ref 2 (°C)	-1,28length (m)	temperature (°C)	Stokes	anti-Stokes-744,400	25,466	0,083	-0,051
-743,385	-53,446	-0,183	-0,062
-742,371	113,115	0,072	0,065
-741,356	-20,983	-0,291	0,131
-740,342	306,545	-0,109	-0,150
-739,327	-169,007	-0,323	-0,009
-738,312	-47,112	0,085	0,030
-737,298	-52,017	-0,339	-0,115
-736,283	694,923	-0,027	0,053
-735,269	-79,733	-0,200	0,049
-734,254	-200,000	-0,005	0,074
-733,239	-15,021	-0,523	-0,246
-732,225	25,319	0,196	-0,120
-731,210	-11,879	-0,079	0,038
-730,196	18,817	-0,022	-0,013
-729,181	-27,791	0,035	0,015
-728,167	-61,421	-0,075	-0,023
-727,152	-200,000	-0,000	-0,243
-726,137	11,035	-0,113	-0,063
-725,123	-3,096	-0,057	0,029
-724,108	-39,328	0,141	-0,054
-723,094	-200,000	0,022	-0,114
-722,079	407,363	-0,089	-0,139
-721,064	-200,000	0,004	0,073
-720,050	-67,065	-0,099	0,029
-719,035	-57,601	-0,096	-0,031
-718,021	525,734	0,042	0,074
-717,006	349,873	-0,086	0,125
-715,991	-200,000	-0,010	-0,058
-714,977	-200,000	0,019	0,098
-713,962	574,379	-0,037	0,066
-712,948	124,588	0,048	0,044
-711,933	52,284	-0,131	-0,092
-710,918	800,000	-0,032	0,083
-709,904	386,976	-0,039	-0,060
-708,889	372,112	0,039	-0,059
-707,875	-115,552	-0,085	-0,012
-706,860	-52,462	0,151	0,051
-705,845	-71,271	0,155	-0,043
-704,831	221,744	0,074	0,087
-703,816	-200,000	-0,017	0,067
-702,802	125,384	-0,072	0,067
-701,787	-88,069	-0,058	-0,013
-700,772	-200,000	0,005	0,060
-699,758	-72,756	0,036	-0,010
-698,743	-154,139	0,108	-0,005
-697,729	-50,587	-0,075	-0,026
-696,714	-200,000	0,001	0,050
-695,699	800,000	-0,041	0,086
-694,685	-200,000	-0,008	-0,035
-693,670	-88,637	-0,081	-0,018
-692,656	-200,000	-0,001	-0,054
-691,641	468,295	0,025	0,041
-690,627	266,521	-0,023	0,030
-689,612	573,877	-0,056	0,101
-688,597	28,164	0,125	-0,077
-687,583	-95,727	-0,136	-0,027
-686,568	385,116	-0,054	0,083
-685,554	136,862	0,049	-0,047
-684,539	-200,000	0,004	0,033
-683,524	16,192	0,004	-0,002
-682,510	-200,000	-0,015	-0,080
-681,495	211,720	-0,064	0,075
-680,481	415,056	0,027	0,042
-679,466	234,969	-0,093	-0,114
-678,451	-200,000	0,017	-0,103
-677,437	109,738	-0,054	0,048
-676,422	576,464	0,040	0,073
-675,408	-200,000	-0,002	0,015
-674,393	8,198	-0,096	0,053
-673,378	-41,869	-0,296	-0,111
-672,364	-200,000	0,013	-0,056
-671,349	-200,000	0,002	-0,136
-670,335	588,319	-0,034	-0,062
-669,320	-159,166	0,075	0,003
-668,305	-73,038	-0,070	0,019
-667,291	64,634	0,053	0,039
-666,276	-200,000	0,018	-0,078
-665,262	-200,000	-0,036	-0,224
-664,247	-200,000	-0,002	-0,106
-663,232	-102,851	0,112	-0,019
-662,218	-152,740	0,103	-0,005
-661,203	-124,285	-0,104	-0,012
-660,189	467,656	-0,092	0,153
-659,174	-181,596	0,013	-0,000
-658,159	-35,862	-0,090	-0,036
-657,145	83,073	-0,059	-0,047
-656,130	300,923	0,071	-0,096
-655,116	34,138	0,135	0,086
-654,101	-200,000	-0,021	-0,123
-653,086	-200,000	0,018	0,125
-652,072	140,413	-0,046	-0,045
-651,057	-88,144	-0,050	0,011
-650,043	175,554	-0,073	0,078
-649,028	800,000	-0,052	-0,107
-648,014	-159,279	-0,047	-0,002
-646,999	137,732	-0,065	0,062
-645,984	-200,000	-0,003	-0,046
-644,970	800,000	0,029	-0,063
-643,955	-200,000	-0,004	-0,014
-642,941	800,000	-0,032	-0,078
-641,926	-200,000	0,016	-0,139
-640,911	800,000	-0,047	-0,126
-639,897	-81,851	0,084	0,020
-638,882	-137,724	-0,032	0,003
-637,868	-200,000	0,022	-0,081
-636,853	418,784	-0,085	-0,134
-635,838	-200,000	0,022	-0,141
-634,824	358,279	0,081	-0,120
-633,809	-124,266	-0,190	0,022
-632,795	-121,933	0,065	0,008
-631,780	800,000	-0,014	0,040
-630,765	247,318	-0,044	0,055
-629,751	193,408	-0,124	-0,138
-628,736	-127,823	-0,085	0,009
-627,722	-200,000	0,013	0,069
-626,707	-200,000	0,016	-0,083
-625,692	235,385	-0,060	-0,073
-624,678	7,590	-0,003	0,002
-623,663	-97,453	0,017	-0,003
-622,649	-87,813	0,060	0,013
-621,634	234,350	0,024	-0,029
-620,619	-200,000	-0,012	0,051
-619,605	-200,000	0,026	0,115
-618,590	-200,000	0,001	0,008
-617,576	-169,941	0,035	0,001
-616,561	268,531	0,044	0,057
-615,546	339,894	0,094	0,135
-614,532	44,959	-0,178	-0,120
-613,517	-80,954	0,042	0,010
-612,503	-126,594	0,055	0,006
-611,488	-200,000	0,004	-0,081
-610,474	-41,336	-0,047	-0,018
-609,459	153,288	0,086	0,087
-608,444	671,317	-0,071	-0,136
-607,430	-0,070	0,131	-0,068
-606,415	800,000	-0,039	-0,097
-605,401	-200,000	0,040	0,150
-604,386	-98,215	-0,123	0,023
-603,371	35,615	0,056	-0,036
-602,357	-200,000	-0,024	0,132
-601,342	-24,745	-0,023	-0,010
-600,328	340,297	-0,057	-0,082
-599,313	4,323	-0,117	-0,063
-598,298	47,198	-0,065	-0,044
-597,284	85,093	0,030	-0,024
-596,269	-97,467	0,083	0,016
-595,255	800,000	-0,040	-0,091
-594,240	-97,544	-0,050	-0,009
-593,225	455,127	0,017	-0,028
-592,211	-200,000	0,013	-0,106
-591,196	702,260	0,056	-0,109
-590,182	-25,692	0,130	-0,056
-589,167	6,315	-0,080	-0,044
-588,152	-200,000	-0,008	-0,080
-587,138	246,886	0,063	-0,078
-586,123	800,000	-0,020	-0,054
-585,109	32,870	0,094	0,060
-584,094	263,778	-0,056	-0,072
-583,079	-200,000	-0,006	-0,116
-582,065	800,000	0,036	0,077
-581,050	269,908	0,026	0,034
-580,036	-58,962	-0,117	0,037
-579,021	800,000	0,044	-0,100
-578,006	7,788	-0,041	-0,022
-576,992	-56,325	-0,058	0,019
-575,977	-200,000	-0,012	-0,114
-574,963	-200,000	0,004	0,075
-573,948	-36,230	-0,110	0,043
-572,934	-200,000	-0,000	0,072
-571,919	-200,000	-0,022	-0,109
-570,904	67,547	-0,145	-0,108
-569,890	422,413	0,035	0,055
-568,875	800,000	-0,042	0,129
-567,861	149,895	-0,109	0,109
-566,846	122,421	-0,127	0,116
-565,831	-1,611	-0,082	0,042
-564,817	101,993	-0,080	0,068
-563,802	-129,523	-0,105	-0,011
-562,788	800,000	0,040	-0,086
-561,773	-55,392	-0,042	0,014
-560,758	530,728	-0,011	-0,019
-559,744	460,505	0,070	0,114
-558,729	-28,505	-0,042	-0,018
-557,715	-200,000	0,006	0,073
-556,700	800,000	0,078	-0,162
-555,685	-65,892	-0,091	0,026
-554,671	800,000	-0,022	0,069
-553,656	500,005	0,084	0,141
-552,642	-84,458	-0,019	-0,004
-551,627	-146,670	-0,027	-0,002
-550,612	-63,086	0,092	-0,028
-549,598	800,000	-0,070	-0,163
-548,583	-200,000	0,003	-0,035
-547,569	7,182	0,129	-0,070
-546,554	192,209	-0,045	0,050
-545,539	-128,117	0,107	0,011
-544,525	-77,509	0,193	0,049
-543,510	-53,158	0,096	-0,032
-542,496	-145,474	-0,126	-0,008
-541,481	-200,000	0,001	-0,088
-540,466	-200,000	-0,008	-0,086
-539,452	-55,045	0,150	0,049
-538,437	-200,000	-0,002	-0,146
-537,423	-63,634	0,161	-0,048
-536,408	-200,000	-0,025	0,100
-535,393	-99,813	-0,026	0,005
-534,379	-200,000	-0,036	-0,178
-533,364	199,020	-0,043	-0,049
-532,350	315,551	0,054	0,075
-531,335	-200,000	-0,001	0,025
-530,321	800,000	0,027	0,081
-529,306	-117,162	-0,059	0,008
-528,291	52,841	-0,080	0,056
-527,277	-200,000	0,010	0,082
-526,262	-112,993	0,108	-0,015
-525,248	-120,143	-0,092	0,011
-524,233	3,777	-0,139	0,074
-523,218	-200,000	0,017	0,091
-522,204	30,782	0,065	0,040
-521,189	-124,299	-0,062	0,007
-520,175	-200,000	-0,009	0,040
-519,160	800,000	-0,015	-0,047
-518,145	-200,000	-0,006	0,094
-517,131	-200,000	0,016	0,084
-516,116	-106,968	-0,036	0,006
-515,102	-49,988	-0,094	-0,032
-514,087	261,266	-0,070	-0,089
-513,072	53,861	-0,105	-0,074
-512,058	-47,593	0,096	0,034
-511,043	-5,597	-0,102	0,051
-510,029	800,000	-0,028	0,061
-509,014	-200,000	-0,008	0,078
-507,999	800,000	0,045	0,113
-506,985	-133,212	0,092	-0,008
-505,970	-200,000	0,001	0,117
-504,956	751,264	-0,036	0,072
-503,941	-56,534	0,079	0,025
-502,926	800,000	0,041	0,099
-501,912	101,256	0,026	-0,022
-500,897	9,679	-0,188	0,104
-499,883	-80,240	-0,005	-0,001
-498,868	800,000	-0,059	-0,157
-497,853	-102,926	-0,054	-0,009
-496,839	-147,002	-0,041	0,003
-495,824	-200,000	-0,001	0,069
-494,810	800,000	-0,020	0,059
-493,795	104,071	0,065	-0,055
-492,781	-200,000	-0,005	-0,029
-491,766	800,000	-0,074	0,198
-490,751	-183,447	-0,129	-0,002
-489,737	528,396	0,017	0,029
-488,722	91,879	0,128	0,105
-487,708	149,229	-0,073	-0,073
-486,693	-200,000	0,014	-0,091
-485,678	266,740	0,044	0,056
-484,664	514,900	0,026	-0,045
-483,649	-200,000	0,002	-0,139
-482,635	551,616	0,010	0,017
-481,620	-80,829	-0,098	0,023
-480,605	-200,000	0,028	0,114
-479,591	800,000	0,053	0,118
-478,576	-51,914	0,086	-0,029
-477,562	-200,000	0,006	0,196
-476,547	8,067	-0,144	-0,079
-475,532	47,314	0,046	-0,031
-474,518	-10,821	0,116	-0,056
-473,503	160,024	0,069	-0,070
-472,489	-200,000	0,004	0,017
-471,474	-13,425	0,087	-0,041
-470,459	-65,582	-0,026	-0,008
-469,445	31,299	0,028	0,018
-468,430	57,533	-0,068	-0,049
-467,416	800,000	0,017	0,048
-466,401	-97,077	0,037	0,007
-465,386	120,458	0,047	-0,042
-464,372	800,000	0,055	-0,135
-463,357	-200,000	-0,020	-0,127
-462,343	-200,000	-0,002	0,036
-461,328	-200,000	0,012	0,056
-460,313	369,704	0,015	-0,023
-459,299	-49,676	0,078	0,027
-458,284	-52,182	0,047	-0,016
-457,270	66,243	-0,085	0,063
-456,255	124,629	0,028	-0,026
-455,241	-142,709	0,079	0,006
-454,226	-47,575	-0,088	0,031
-453,211	-200,000	-0,026	0,136
-452,197	405,684	0,060	0,093
-451,182	-200,000	-0,011	0,053
-450,168	-75,151	0,092	-0,024
-449,153	-74,931	-0,088	-0,023
-448,138	-117,980	-0,124	0,016
-447,124	345,313	-0,014	-0,020
-446,109	-4,481	0,063	0,032
-445,095	-200,000	0,019	0,071
-444,080	-65,544	0,046	-0,013
-443,065	367,923	-0,040	-0,059
-442,051	-46,575	-0,113	-0,040
-441,036	193,750	-0,112	-0,124
-440,022	800,000	-0,044	0,107
-439,007	-200,000	0,001	0,059
-437,992	-97,393	0,042	-0,008
-436,978	800,000	0,073	0,185
-435,963	-108,913	-0,016	0,002
-434,949	106,683	0,044	0,038
-433,934	-200,000	0,018	-0,064
-432,919	-200,000	-0,015	0,072
-431,905	800,000	0,020	-0,041
-430,890	-31,058	-0,057	0,023
-429,876	800,000	0,025	0,055
-428,861	-200,000	0,012	0,092
-427,846	625,333	0,058	0,107
-426,832	-126,314	-0,046	-0,005
-425,817	800,000	0,057	-0,127
-424,803	92,640	0,063	-0,052
-423,788	-49,667	0,131	0,045
-422,773	90,718	-0,055	0,045
-421,759	-119,587	0,049	-0,006
-420,744	796,259	-0,019	-0,039
-419,730	-200,000	0,025	-0,091
-418,715	800,000	0,025	0,062
-417,701	299,620	-0,057	0,076
-416,686	-69,935	0,057	0,016
-415,671	800,000	-0,024	0,064
-414,657	-91,789	0,150	-0,031
-413,642	-200,000	0,008	-0,084
-412,628	379,268	-0,081	-0,120
-411,613	-38,038	0,103	-0,040
-410,598	-101,176	0,050	0,009
-409,584	451,725	-0,052	-0,083
-408,569	800,000	-0,004	-0,012
-407,555	-56,393	0,058	0,018
-406,540	-49,370	-0,121	0,042
-405,525	-132,200	0,013	0,001
-404,511	800,000	-0,074	-0,157
-403,496	571,046	-0,064	-0,113
-402,482	-11,463	0,040	-0,019
-401,467	491,263	-0,028	0,046
-400,452	-200,000	-0,014	0,149
-399,438	-200,000	-0,009	0,046
-398,423	800,000	-0,049	-0,108
-397,409	200,245	0,058	-0,064
-396,394	-200,000	-0,005	-0,063
-395,379	-200,000	0,045	-0,202
-394,365	210,598	-0,086	0,098
-393,350	-48,787	-0,047	0,016
-392,336	-101,887	0,025	-0,004
-391,321	79,231	0,131	0,102
-390,306	-200,000	0,005	-0,055
-389,292	245,643	-0,053	-0,065
-388,277	-200,000	-0,016	-0,077
-387,263	-26,096	0,063	0,027
-386,248	365,628	0,048	0,071
-385,233	800,000	0,039	0,113
-384,219	40,304	0,052	-0,034
-383,204	800,000	0,023	-0,052
-382,190	13,137	-0,077	-0,043
-381,175	800,000	-0,082	-0,178
-380,160	-200,000	0,072	0,247
-379,146	-80,622	0,235	0,057
-378,131	623,566	0,050	-0,092
-377,117	-44,287	0,135	-0,049
-376,102	-200,000	-0,020	-0,073
-375,088	-200,000	-0,039	0,143
-374,073	-50,417	-0,092	0,031
-373,058	-83,211	0,048	-0,011
-372,044	-67,796	-0,114	-0,032
-371,029	13,908	0,075	-0,042
-370,015	800,000	-0,019	-0,059
-369,000	-144,076	-0,211	0,014
-367,985	191,435	-0,035	-0,039
-366,971	-40,528	0,111	-0,042
-365,956	-122,411	0,087	0,010
-364,942	-170,585	0,172	0,004
-363,927	282,998	-0,041	0,053
-362,912	-200,000	-0,002	0,052
-361,898	32,447	-0,130	0,081
-360,883	800,000	-0,035	0,106
-359,869	800,000	0,035	-0,100
-358,854	262,542	0,057	0,073
-357,839	800,000	-0,008	-0,024
-356,825	-200,000	0,007	0,081
-355,810	138,815	-0,066	-0,063
-354,796	118,606	-0,065	-0,058
-353,781	99,735	0,078	-0,066
-352,766	800,000	0,034	0,097
-351,752	800,000	0,041	-0,095
-350,737	127,411	0,103	0,095
-349,723	-120,395	-0,099	-0,012
-348,708	-200,000	0,006	-0,032
-347,693	143,734	-0,073	-0,071
-346,679	319,625	0,047	-0,065
-345,664	330,284	-0,072	-0,101
-344,650	-200,000	-0,020	0,086
-343,635	-19,635	0,128	0,057
-342,620	-27,593	0,085	0,036
-341,606	-200,000	-0,008	0,157
-340,591	-105,253	-0,104	0,017
-339,577	371,898	0,023	0,033
-338,562	-69,162	0,060	-0,017
-337,548	-200,000	-0,002	-0,013
-336,533	-200,000	-0,005	0,043
-335,518	-200,000	-0,000	0,039
-334,504	-83,186	0,187	-0,043
-333,489	-2,132	0,069	-0,035
-332,475	800,000	0,036	0,101
-331,460	800,000	0,011	-0,024
-330,445	-174,198	0,111	0,002
-329,431	32,440	0,091	0,057
-328,416	-100,743	-0,112	0,020
-327,402	244,386	0,064	0,078
-326,387	488,429	-0,039	0,065
-325,372	115,625	-0,127	0,113
-324,358	-200,000	-0,012	-0,153
-323,343	-200,000	0,011	0,055
-322,329	-152,672	0,112	-0,006
-321,314	-200,000	0,103	0,000
-320,299	-200,000	-0,005	0,147
-319,285	172,278	-0,038	0,040
-318,270	-3,674	-0,040	-0,020
-317,256	-86,447	0,009	-0,002
-316,241	800,000	0,042	-0,101
-315,226	-200,000	-0,006	-0,066
-314,212	-34,712	0,152	0,060
-313,197	386,489	0,074	0,111
-312,183	35,007	0,074	-0,047
-311,168	49,640	0,084	-0,057
-310,153	264,272	0,058	0,073
-309,139	-167,242	0,038	0,001
-308,124	-150,956	-0,028	-0,001
-307,110	-53,278	0,037	0,012
-306,095	104,866	0,050	0,043
-305,080	32,401	0,146	0,091
-304,066	800,000	0,045	-0,140
-303,051	376,922	-0,021	-0,031
-302,037	288,159	0,021	-0,028
-301,022	-200,000	-0,039	-0,157
-300,008	800,000	0,055	0,127
-298,993	800,000	-0,041	0,091
-297,978	-142,042	-0,095	-0,007
-296,964	-33,574	-0,098	0,039
-295,949	-49,026	-0,084	0,029
-294,935	-200,000	-0,034	0,148
-293,920	800,000	-0,026	-0,071
-292,905	522,360	0,041	0,070
-291,891	-89,907	0,046	0,010
-290,876	-19,062	0,204	0,092
-289,862	78,537	-0,062	-0,048
-288,847	-200,000	-0,031	-0,130
-287,832	408,562	0,038	-0,058
-286,818	-200,000	-0,039	-0,131
-285,803	211,314	0,060	0,068
-284,789	12,516	0,048	0,027
-283,774	50,541	-0,119	-0,082
-282,759	463,897	-0,071	-0,115
-281,745	-200,000	0,046	-0,162
-280,730	9,836	-0,070	0,038
-279,716	-67,870	0,054	0,015
-278,701	488,922	-0,109	-0,181
-277,686	-200,000	0,007	0,084
-276,672	-93,920	-0,140	0,028
-275,657	99,740	-0,060	0,050
-274,643	-35,319	0,053	-0,021
-273,628	-71,052	-0,092	0,025
-272,613	54,354	-0,069	-0,048
-271,599	7,161	-0,040	0,022
-270,584	-47,034	0,113	-0,040
-269,570	-11,531	-0,214	0,101
-268,555	-200,000	0,020	0,073
-267,540	-16,276	0,042	-0,019
-266,526	367,915	-0,086	-0,126
-265,511	-26,315	0,133	0,056
-264,497	-200,000	-0,012	-0,089
-263,482	-200,000	-0,003	0,043
-262,467	250,763	0,074	-0,091
-261,453	-200,000	-0,052	0,171
-260,438	800,000	0,031	0,080
-259,424	-2,794	-0,009	-0,005
-258,409	800,000	-0,068	0,146
-257,395	760,529	0,064	0,126
-256,380	68,394	0,048	0,036
-255,365	800,000	0,019	-0,050
-254,351	262,741	-0,006	-0,007
-253,336	-200,000	0,027	0,127
-252,322	-21,188	-0,087	0,038
-251,307	-82,016	-0,036	-0,009
-250,292	609,174	-0,061	0,110
-249,278	-127,873	0,057	-0,006
-248,263	-137,687	-0,147	-0,012
-247,249	800,000	-0,029	0,068
-246,234	355,540	-0,082	-0,118
-245,219	800,000	-0,038	0,090
-244,205	-84,181	-0,121	-0,028
-243,190	28,627	-0,086	0,052
-242,176	-64,264	0,084	0,025
-241,161	496,192	-0,065	-0,109
-240,146	87,481	0,011	-0,009
-239,132	-200,000	-0,019	-0,176
-238,117	245,533	-0,067	0,082
-237,103	-20,715	-0,116	0,051
-236,088	121,622	-0,071	0,064
-235,073	50,889	0,049	-0,034
-234,059	-135,420	0,071	0,006
-233,044	-64,992	0,126	-0,036
-232,030	-200,000	-0,017	0,082
-231,015	-110,427	-0,174	-0,026
-230,000	-102,704	0,051	-0,009
-228,986	-104,630	-0,123	-0,020
-227,971	106,681	0,038	-0,033
-226,957	146,757	0,054	0,052
-225,942	-102,527	0,062	-0,011
-224,927	-138,013	0,063	0,005
-223,913	-52,902	-0,058	-0,019
-222,898	91,970	-0,043	-0,035
-221,884	165,431	0,062	0,063
-220,869	-122,287	0,090	0,011
-219,855	800,000	0,042	0,113
-218,840	-85,647	0,124	-0,028
-217,825	-53,218	0,146	-0,048
-216,811	-69,450	0,161	0,044
-215,796	243,398	-0,045	-0,055
-214,782	-69,132	0,036	0,010
-213,767	-102,874	0,101	0,017
-212,752	-27,492	0,056	0,024
-211,738	-78,241	-0,053	-0,013
-210,723	61,926	0,057	-0,041
-209,709	-11,559	-0,084	-0,040
-208,694	81,516	-0,070	-0,055
-207,679	36,912	-0,115	-0,073
-206,665	-56,710	0,009	-0,003
-205,650	-74,455	-0,021	-0,005
-204,636	-147,532	0,049	0,003
-203,621	-200,000	0,033	0,106
-202,606	321,839	0,073	-0,101
-201,592	-5,752	-0,097	-0,048
-200,577	729,833	-0,041	-0,080
-199,563	-99,697	0,018	0,003
-198,548	539,026	0,055	0,095
-197,533	-34,187	0,140	-0,055
-196,519	-46,381	-0,103	0,036
-195,504	660,189	-0,033	-0,061
-194,490	800,000	0,030	-0,062
-193,475	204,668	-0,029	0,033
-192,460	800,000	-0,028	0,072
-191,446	-77,373	0,109	0,027
-190,431	-200,000	0,005	0,136
-189,417	800,000	-0,032	0,074
-188,402	647,561	0,082	-0,152
-187,387	-200,000	0,012	-0,098
-186,373	-200,000	0,005	-0,025
-185,358	-200,000	-0,026	-0,134
-184,344	-200,000	-0,024	-0,079
-183,329	278,846	0,103	0,133
-182,315	632,315	-0,020	-0,036
-181,300	91,188	-0,014	0,012
-180,285	764,791	-0,041	-0,081
-179,271	800,000	0,023	-0,063
-178,256	327,138	-0,118	0,163
-177,242	-42,404	-0,133	0,049
-176,227	-200,000	0,014	0,174
-175,212	-90,523	-0,141	-0,029
-174,198	-166,060	-0,134	0,004
-173,183	-109,837	0,047	-0,007
-172,169	152,067	-0,096	-0,095
-171,154	109,322	0,085	-0,073
-170,139	-23,344	-0,060	-0,026
-169,125	131,262	0,072	0,067
-168,110	-125,161	-0,093	-0,010
-167,096	199,163	0,062	-0,069
-166,081	-152,041	0,122	0,006
-165,066	704,728	-0,046	-0,088
-164,052	-83,043	-0,062	-0,014
-163,037	-53,273	0,131	0,043
-162,023	-200,000	-0,040	0,147
-161,008	-7,331	0,125	-0,061
-159,993	-85,492	-0,070	0,016
-158,979	5,288	-0,080	-0,042
-157,964	-200,000	-0,012	0,073
-156,950	63,368	0,081	-0,059
-155,935	70,104	0,070	0,052
-154,920	-200,000	0,002	-0,025
-153,906	165,063	-0,027	0,027
-152,891	-45,101	-0,038	0,013
-151,877	-111,581	-0,049	0,007
-150,862	800,000	-0,039	-0,090
-149,847	178,059	-0,031	-0,033
-148,833	774,922	-0,050	-0,098
-147,818	-13,570	0,054	-0,025
-146,804	81,222	0,113	0,088
-145,789	40,829	0,021	-0,013
-144,775	-154,300	0,160	-0,008
-143,760	-200,000	-0,012	0,067
-142,745	393,408	-0,043	-0,065
-141,731	4,564	-0,136	0,072
-140,716	-200,000	0,005	0,167
-139,702	-81,294	0,133	-0,031
-138,687	-200,000	0,019	0,071
-137,672	59,644	0,030	0,021
-136,658	-200,000	0,005	-0,033
-135,643	-113,769	0,176	-0,024
-134,629	-200,000	-0,035	0,160
-133,614	234,125	-0,011	-0,013
-132,599	-200,000	-0,026	0,090
-131,585	112,511	-0,055	-0,048
-130,570	392,672	0,057	-0,086
-129,556	205,555	-0,061	-0,068
-128,541	468,617	-0,012	-0,020
-127,526	-93,198	0,024	0,005
-126,512	-200,000	0,032	-0,166
-125,497	-200,000	-0,017	-0,080
-124,483	231,198	0,062	0,073
-123,468	800,000	-0,010	0,026
-122,453	-98,958	0,082	-0,015
-121,439	-200,000	-0,013	-0,079
-120,424	-186,057	0,107	0,001
