DTS Sentinel unit serial number:	SN410029Multiplexer serial number:	ORYXHardware model number:	OX2-SRSoftware version number:	ORYX F/W v4,00 Oryx Data Collector v3.7.2.0data status	okinstallation	B5 Nyhavnadifferential loss correction	single-endedforward channel	channel 2reverse channel	N/Adate	2023/12/14time	04:22:13forward acquisition time	300,00reverse acquisition time	0,00gamma	499,1914k internal	0,3156k external	0,3156temperature offset calibration	1,0000default loss term (dB/km)	0,3820temperature slope calibration	1,0000multiplexer offset coefficient	1,0000multiplexer slope coefficient	1,0000fibre end	0,00T internal ref (°C)	7,90T ext. ref 1 (°C)	-8,56T ext. ref 2 (°C)	-8,64length (m)	temperature (°C)	Stokes	anti-Stokes-744,400	367,806	0,052	0,077
-743,385	-141,194	-0,351	-0,026
-742,371	6,392	0,159	0,087
-741,356	-62,386	-0,264	-0,080
-740,342	203,479	0,103	0,117
-739,327	-114,479	-0,389	-0,055
-738,312	232,671	-0,046	0,056
-737,298	-56,600	-0,382	-0,124
-736,283	-35,866	0,211	-0,084
-735,269	-110,145	-0,365	-0,056
-734,254	7,034	0,217	0,119
-733,239	-42,870	-0,548	-0,204
-732,225	77,480	0,131	0,103
-731,210	32,554	-0,139	0,089
-730,196	465,649	0,009	-0,016
-729,181	163,438	-0,021	0,022
-728,167	214,899	-0,098	-0,115
-727,152	-40,529	-0,091	-0,035
-726,137	800,000	-0,031	-0,086
-725,123	341,322	-0,075	-0,109
-724,108	38,249	-0,151	-0,099
-723,094	166,714	-0,059	-0,061
-722,079	-200,000	-0,161	-0,001
-721,064	-69,155	0,130	-0,037
-720,050	235,304	-0,030	0,036
-719,035	593,590	0,037	0,067
-718,021	3,534	0,066	0,035
-717,006	35,778	-0,141	-0,091
-715,991	-200,000	0,016	-0,062
-714,977	800,000	-0,053	-0,133
-713,962	-104,500	0,104	-0,018
-712,948	-200,000	-0,005	0,099
-711,933	97,012	0,117	0,099
-710,918	-97,105	-0,061	0,012
-709,904	270,353	-0,034	-0,044
-708,889	-200,000	-0,024	-0,165
-707,875	-200,000	0,003	-0,011
-706,860	121,465	-0,045	-0,041
-705,845	800,000	-0,041	-0,090
-704,831	266,107	-0,061	0,078
-703,816	-200,000	0,011	0,073
-702,802	-200,000	0,000	0,020
-701,787	219,752	0,086	-0,102
-700,772	-29,577	-0,147	0,061
-699,758	733,437	-0,051	-0,101
-698,743	-114,775	0,121	0,017
-697,729	53,504	0,038	-0,027
-696,714	43,959	0,054	0,037
-695,699	311,644	-0,087	-0,120
-694,685	-128,853	-0,039	0,004
-693,670	-165,481	0,174	-0,005
-692,656	12,584	-0,143	0,081
-691,641	-113,104	0,114	-0,016
-690,627	292,835	0,129	0,173
-689,612	166,718	-0,029	0,030
-688,597	64,056	-0,004	0,003
-687,583	612,748	-0,077	-0,143
-686,568	-119,316	0,003	0,000
-685,554	72,116	-0,084	-0,064
-684,539	-113,278	0,148	-0,021
-683,524	103,356	0,099	-0,086
-682,510	-97,592	0,018	-0,003
-681,495	50,335	-0,077	-0,054
-680,481	203,981	-0,147	-0,168
-679,466	-200,000	0,011	0,069
-678,451	-200,000	0,019	0,131
-677,437	-200,000	-0,032	0,166
-676,422	800,000	0,045	-0,106
-675,408	294,080	0,076	0,103
-674,393	-133,600	0,093	0,008
-673,378	-126,987	0,084	-0,009
-672,364	122,942	-0,059	-0,054
-671,349	-109,153	-0,151	0,023
-670,335	741,460	0,063	-0,125
-669,320	-20,963	0,107	-0,048
-668,305	-8,770	0,085	-0,042
-667,291	-200,000	-0,006	-0,083
-666,276	-200,000	0,005	-0,161
-665,262	746,618	-0,038	-0,075
-664,247	-200,000	0,011	0,060
-663,232	127,023	0,064	-0,060
-662,218	7,382	-0,107	-0,059
-661,203	-200,000	0,002	0,119
-660,189	-122,178	-0,050	-0,006
-659,174	-33,476	-0,131	0,053
-658,159	-22,728	-0,093	0,041
-657,145	-200,000	0,002	-0,007
-656,130	-200,000	-0,006	-0,039
-655,116	-46,045	0,116	-0,042
-654,101	92,588	0,059	0,049
-653,086	-200,000	0,009	-0,062
-652,072	-155,019	0,137	0,007
-651,057	800,000	-0,065	-0,134
-650,043	-94,695	-0,179	0,035
-649,028	-200,000	0,001	-0,015
-648,014	-159,060	-0,039	-0,002
-646,999	-138,542	-0,163	0,013
-645,984	266,408	-0,042	-0,054
-644,970	204,089	0,010	-0,011
-643,955	-186,739	-0,116	-0,001
-642,941	-32,521	-0,080	0,033
-641,926	-200,000	0,005	-0,125
-640,911	18,525	0,077	-0,045
-639,897	-200,000	0,007	0,072
-638,882	-200,000	0,018	-0,096
-637,868	81,035	-0,082	0,065
-636,853	225,904	-0,083	-0,099
-635,838	314,638	-0,036	-0,050
-634,824	304,110	-0,031	-0,042
-633,809	800,000	-0,053	-0,142
-632,795	-67,015	0,026	0,008
-631,780	-200,000	-0,019	-0,101
-630,765	21,165	-0,086	-0,051
-629,751	-15,690	-0,045	-0,021
-628,736	109,453	-0,041	0,036
-627,722	-200,000	-0,012	0,046
-626,707	-200,000	0,026	0,090
-625,692	210,603	-0,104	-0,120
-624,678	-200,000	-0,022	0,106
-623,663	-163,330	-0,067	0,002
-622,649	-200,000	-0,026	-0,142
-621,634	800,000	-0,057	-0,137
-620,619	151,299	0,012	-0,012
-619,605	-109,736	-0,154	0,023
-618,590	482,171	0,060	0,101
-617,576	-200,000	0,024	0,087
-616,561	800,000	-0,054	-0,131
-615,546	-40,382	0,033	-0,013
-614,532	95,511	-0,111	-0,093
-613,517	-200,000	-0,039	-0,144
-612,503	-51,744	0,064	0,022
-611,488	319,956	0,019	-0,026
-610,474	-37,524	0,063	0,024
-609,459	15,975	-0,063	0,037
-608,444	82,482	-0,072	-0,057
-607,430	800,000	-0,023	-0,063
-606,415	-200,000	0,036	-0,128
-605,401	54,076	0,127	-0,089
-604,386	800,000	0,038	0,093
-603,371	290,375	-0,036	0,049
-602,357	226,945	-0,013	-0,016
-601,342	-200,000	-0,034	-0,160
-600,328	-155,404	0,064	-0,003
-599,313	60,543	0,014	-0,010
-598,298	-92,590	0,061	-0,012
-597,284	9,593	0,128	-0,071
-596,269	166,055	-0,064	0,066
-595,255	17,493	-0,107	0,062
-594,240	730,426	-0,049	0,096
-593,225	800,000	0,043	-0,116
-592,211	800,000	0,030	-0,088
-591,196	800,000	-0,008	0,026
-590,182	336,207	0,051	-0,073
-589,167	362,988	0,051	-0,075
-588,152	-120,183	-0,124	-0,015
-587,138	319,468	0,128	0,178
-586,123	62,167	-0,034	0,025
-585,109	549,920	0,071	0,125
-584,094	-74,553	-0,048	0,013
-583,079	219,020	0,085	0,099
-582,065	-200,000	0,012	-0,067
-581,050	678,486	-0,032	0,062
-580,036	172,981	-0,032	0,034
-579,021	397,044	-0,074	0,114
-578,006	-39,706	-0,056	-0,021
-576,992	134,901	0,128	0,122
-575,977	139,630	-0,034	0,033
-574,963	-131,118	-0,037	-0,004
-573,948	3,320	-0,145	0,077
-572,934	64,286	-0,010	0,007
-571,919	-91,515	0,161	-0,033
-570,904	-176,884	-0,130	-0,002
-569,890	199,009	0,073	-0,082
-568,875	430,903	-0,062	0,098
-567,861	-73,219	0,033	0,009
-566,846	800,000	-0,059	0,144
-565,831	68,806	0,084	-0,063
-564,817	-159,083	-0,148	-0,006
-563,802	176,999	0,076	-0,081
-562,788	-85,459	0,151	-0,034
-561,773	52,615	-0,045	0,032
-560,758	645,570	0,041	0,077
-559,744	800,000	-0,081	0,196
-558,729	-200,000	-0,003	0,044
-557,715	327,902	-0,113	-0,159
-556,700	7,503	-0,130	-0,071
-555,685	-200,000	-0,008	0,075
-554,671	-200,000	0,005	0,084
-553,656	-200,000	0,017	0,120
-552,642	165,955	0,019	-0,020
-551,627	-57,176	-0,022	-0,007
-550,612	-108,254	-0,060	0,009
-549,598	361,082	-0,046	-0,068
-548,583	642,262	0,018	-0,033
-547,569	4,734	0,129	0,069
-546,554	-12,374	-0,046	-0,022
-545,539	255,120	0,018	-0,023
-544,525	140,258	0,149	0,144
-543,510	-200,000	-0,023	0,092
-542,496	241,485	0,038	-0,047
-541,481	-120,812	0,068	-0,008
-540,466	-88,647	0,032	-0,007
-539,452	-44,845	0,040	0,014
-538,437	-28,407	-0,055	-0,023
-537,423	-3,812	-0,045	0,023
-536,408	342,775	-0,070	0,100
-535,393	343,461	-0,021	-0,030
-534,379	28,806	0,062	0,038
-533,364	800,000	-0,011	-0,033
-532,350	463,257	0,008	0,014
-531,335	-45,656	-0,033	0,012
-530,321	293,347	-0,079	-0,106
-529,306	800,000	0,043	-0,104
-528,291	-75,460	-0,098	0,025
-527,277	800,000	-0,037	0,103
-526,262	33,407	-0,010	0,006
-525,248	-191,709	0,156	0,001
-524,233	61,879	0,113	0,083
-523,218	-36,227	0,072	-0,028
-522,204	-200,000	0,012	-0,098
-521,189	78,238	-0,070	-0,055
-520,175	-200,000	-0,032	0,116
-519,160	-200,000	-0,049	-0,161
-518,145	11,526	0,054	-0,030
-517,131	269,300	0,103	-0,133
-516,116	358,835	0,099	0,145
-515,102	104,370	-0,098	-0,085
-514,087	800,000	-0,020	-0,043
-513,072	-200,000	-0,049	0,166
-512,058	-200,000	-0,026	-0,098
-511,043	800,000	0,023	0,068
-510,029	64,603	0,058	0,042
-509,014	-39,881	0,035	0,013
-507,999	91,252	0,055	-0,045
-506,985	-184,544	-0,067	0,001
-505,970	-200,000	-0,005	0,019
-504,956	-200,000	-0,003	-0,084
-503,941	561,474	0,038	0,067
-502,926	220,457	-0,082	0,096
-501,912	35,372	0,082	0,053
-500,897	92,844	0,036	0,029
-499,883	-126,671	-0,070	0,007
-498,868	-39,924	-0,059	-0,022
-497,853	79,768	0,068	-0,053
-496,839	355,650	0,078	-0,114
-495,824	-138,183	0,086	-0,007
-494,810	224,764	-0,094	0,111
-493,795	-25,846	0,092	-0,039
-492,781	-134,333	-0,041	0,004
-491,766	-166,601	0,135	0,004
-490,751	617,469	-0,076	-0,139
-489,737	113,598	0,074	-0,066
-488,722	-200,000	0,023	0,121
-487,708	-135,389	0,067	0,006
-486,693	800,000	-0,030	-0,077
-485,678	800,000	-0,015	-0,037
-484,664	351,479	0,076	-0,110
-483,649	-83,533	-0,069	-0,016
-482,635	-25,438	0,096	0,041
-481,620	186,022	-0,012	0,013
-480,605	-114,862	0,056	-0,008
-479,591	560,200	0,020	0,036
-478,576	-0,695	0,077	0,040
-477,562	37,266	-0,088	0,057
-476,547	-78,200	-0,064	0,016
-475,532	218,557	-0,002	-0,002
-474,518	800,000	-0,034	0,073
-473,503	219,645	0,067	0,078
-472,489	227,399	-0,066	0,079
-471,474	-200,000	0,006	-0,105
-470,459	241,682	0,062	-0,076
-469,445	118,169	-0,079	-0,071
-468,430	-164,982	-0,082	0,003
-467,416	-25,206	0,226	-0,097
-466,401	-42,728	-0,074	-0,027
-465,386	7,240	-0,012	-0,007
-464,372	-200,000	0,012	0,042
-463,357	274,315	0,077	-0,099
-462,343	-111,799	-0,025	0,004
-461,328	800,000	-0,016	-0,047
-460,313	-198,765	-0,050	-0,000
-459,299	-200,000	0,008	-0,030
-458,284	-200,000	0,014	-0,062
-457,270	449,704	-0,014	0,023
-456,255	-200,000	0,010	-0,048
-455,241	7,735	-0,022	-0,012
-454,226	-15,448	-0,094	-0,044
-453,211	379,127	-0,027	0,041
-452,197	-54,088	0,124	-0,041
-451,182	-39,140	0,055	0,021
-450,168	203,345	-0,032	0,036
-449,153	-90,185	0,058	-0,012
-448,138	800,000	-0,024	-0,061
-447,124	106,906	-0,139	-0,120
-446,109	800,000	0,031	0,080
-445,095	800,000	-0,046	0,102
-444,080	-106,762	0,098	-0,016
-443,065	-200,000	-0,036	-0,249
-442,051	800,000	0,074	0,150
-441,036	-143,124	0,114	0,008
-440,022	82,901	-0,064	-0,050
-439,007	415,204	0,026	-0,041
-437,992	-112,097	0,025	0,004
-436,978	-200,000	-0,027	-0,106
-435,963	641,271	0,037	0,069
-434,949	-200,000	-0,009	-0,105
-433,934	-130,258	-0,172	0,017
-432,919	168,497	0,083	0,086
-431,905	-200,000	-0,004	-0,160
-430,890	800,000	0,018	0,044
-429,876	-71,144	-0,097	0,026
-428,861	-200,000	0,002	0,039
-427,846	800,000	0,009	-0,019
-426,832	362,150	-0,035	0,051
-425,817	228,285	-0,058	-0,069
-424,803	26,274	-0,062	0,037
-423,788	-50,630	0,149	0,051
-422,773	-200,000	0,034	0,143
-421,759	473,395	-0,033	0,054
-420,744	-75,687	0,039	0,010
-419,730	-132,746	-0,213	-0,020
-418,715	170,314	0,044	-0,046
-417,701	-32,405	-0,114	-0,046
-416,686	-171,054	0,066	-0,002
-415,671	475,491	0,061	0,101
-414,657	561,632	-0,041	-0,073
-413,642	534,774	0,054	0,094
-412,628	181,183	0,033	0,036
-411,613	-200,000	0,014	0,151
-410,598	-200,000	-0,016	0,148
-409,584	800,000	0,063	0,195
-408,569	-200,000	0,028	-0,148
-407,555	800,000	-0,010	0,027
-406,540	19,700	-0,032	-0,019
-405,525	-10,150	0,095	-0,046
-404,511	-200,000	0,008	-0,046
-403,496	315,332	0,035	0,048
-402,482	-14,465	-0,057	0,027
-401,467	213,416	0,091	0,104
-400,452	-200,000	-0,026	0,093
-399,438	191,510	0,017	-0,018
-398,423	224,809	-0,087	-0,103
-397,409	800,000	-0,046	-0,107
-396,394	211,316	-0,124	-0,142
-395,379	786,941	0,020	-0,041
-394,365	113,843	0,078	0,069
-393,350	14,024	0,132	-0,074
-392,336	-146,167	-0,144	-0,009
-391,321	53,981	0,097	0,067
-390,306	-154,610	-0,122	-0,006
-389,292	-200,000	-0,013	0,074
-388,277	193,042	-0,026	0,029
-387,263	-1,742	0,061	-0,031
-386,248	414,332	-0,042	0,066
-385,233	-200,000	0,010	0,076
-384,219	-45,208	-0,008	-0,003
-383,204	516,424	0,013	0,022
-382,190	800,000	0,026	-0,070
-381,175	128,404	-0,126	0,117
-380,160	-30,689	-0,088	-0,036
-379,146	-193,220	0,194	0,001
-378,131	-54,874	-0,047	-0,015
-377,117	-6,407	-0,041	-0,020
-376,102	260,305	0,099	0,124
-375,088	255,788	-0,052	-0,065
-374,073	800,000	0,046	-0,146
-373,058	253,621	0,030	0,038
-372,044	98,202	-0,067	0,056
-371,029	-82,670	-0,100	0,023
-370,015	-200,000	0,014	0,097
-369,000	20,143	-0,255	-0,149
-367,985	18,604	-0,054	-0,031
-366,971	470,792	0,056	-0,092
-365,956	800,000	-0,049	0,100
-364,942	-43,837	0,125	-0,045
-363,927	800,000	-0,018	-0,044
-362,912	-71,279	-0,096	-0,026
-361,898	-200,000	0,017	0,070
-360,883	71,720	-0,087	0,065
-359,869	-106,226	0,047	-0,008
-358,854	-200,000	-0,000	-0,087
-357,839	-200,000	0,010	0,060
-356,825	-104,445	0,063	-0,010
-355,810	-200,000	-0,013	0,042
-354,796	-200,000	0,004	0,133
-353,781	33,643	-0,068	-0,043
-352,766	-183,226	0,080	0,001
-351,752	-200,000	0,005	-0,172
-350,737	94,942	-0,063	0,052
-349,723	47,917	0,044	-0,030
-348,708	292,220	-0,026	0,034
-347,693	-200,000	0,006	-0,093
-346,679	-79,190	0,057	-0,014
-345,664	-200,000	0,018	0,081
-344,650	-21,245	-0,169	-0,075
-343,635	167,104	0,027	0,028
-342,620	67,676	0,090	0,067
-341,606	686,744	0,094	0,180
-340,591	17,625	0,142	0,082
-339,577	121,815	-0,109	-0,099
-338,562	79,289	-0,113	-0,088
-337,548	-200,000	0,010	0,091
-336,533	164,283	0,065	0,067
-335,518	-200,000	-0,022	0,111
-334,504	34,246	-0,049	-0,031
-333,489	186,731	-0,018	-0,020
-332,475	-200,000	-0,025	-0,103
-331,460	453,585	-0,034	-0,055
-330,445	92,140	-0,038	0,031
-329,431	-54,460	0,054	0,018
-328,416	-162,303	0,217	0,008
-327,402	800,000	-0,032	-0,075
-326,387	-117,646	0,021	0,003
-325,372	59,662	0,020	-0,014
-324,358	1,990	-0,045	-0,024
-323,343	-200,000	-0,001	0,139
-322,329	652,209	0,022	0,042
-321,314	120,032	0,081	0,073
-320,299	-31,942	0,080	0,033
-319,285	-200,000	-0,009	-0,078
-318,270	16,808	0,097	-0,055
-317,256	-200,000	0,020	-0,236
-316,241	23,495	0,079	-0,047
-315,226	-200,000	-0,032	0,130
-314,212	-180,888	0,137	0,002
-313,197	-144,703	-0,068	0,004
-312,183	377,379	0,097	0,144
-311,168	-19,389	0,099	-0,044
-310,153	505,103	-0,069	-0,116
-309,139	-200,000	0,027	-0,143
-308,124	562,776	0,046	-0,081
-307,110	800,000	0,053	-0,141
-306,095	800,000	0,053	0,115
-305,080	250,904	0,087	-0,107
-304,066	-98,145	-0,100	-0,019
-303,051	-97,727	-0,108	0,020
-302,037	682,641	-0,017	0,033
-301,022	-200,000	0,031	0,130
-300,008	-12,109	0,094	0,045
-298,993	-181,077	0,113	-0,002
-297,978	241,254	-0,157	0,190
-296,964	-200,000	0,005	-0,059
-295,949	800,000	-0,044	0,122
-294,935	800,000	-0,040	0,085
-293,920	37,010	-0,021	-0,014
-292,905	-164,086	0,132	0,004
-291,891	-43,136	-0,177	0,064
-290,876	-147,765	-0,043	-0,003
-289,862	-24,515	-0,075	-0,032
-288,847	-200,000	-0,002	-0,039
-287,832	-155,847	0,046	0,002
-286,818	-200,000	0,018	-0,123
-285,803	-200,000	0,010	0,041
-284,789	-51,682	0,092	-0,031
-283,774	165,460	-0,124	-0,128
-282,759	607,335	-0,072	-0,131
-281,745	800,000	0,043	-0,090
-280,730	-126,723	-0,158	-0,017
-279,716	282,187	0,048	-0,062
-278,701	-200,000	0,003	0,068
-277,686	16,729	0,102	0,059
-276,672	-103,558	0,108	-0,018
-275,657	-154,136	0,105	-0,005
-274,643	25,124	0,117	-0,070
-273,628	-131,729	-0,129	-0,012
-272,613	1,661	-0,089	-0,046
-271,599	-200,000	0,028	-0,149
-270,584	-200,000	-0,015	0,055
-269,570	14,902	0,057	-0,032
-268,555	-93,553	-0,065	-0,013
-267,540	402,213	-0,056	-0,085
-266,526	205,328	0,037	-0,042
-265,511	-200,000	0,007	-0,086
-264,497	8,640	-0,068	0,037
-263,482	162,566	0,049	0,049
-262,467	800,000	0,044	0,109
-261,453	395,110	-0,092	0,139
-260,438	151,235	0,112	0,111
-259,424	-51,447	-0,077	-0,026
-258,409	-200,000	0,022	-0,130
-257,395	349,739	0,060	0,087
-256,380	-92,887	-0,133	-0,027
-255,365	800,000	-0,042	0,088
-254,351	-200,000	-0,006	0,031
-253,336	800,000	-0,024	-0,075
-252,322	-60,375	0,028	0,009
-251,307	-136,775	0,101	-0,008
-250,292	-200,000	0,017	0,205
-249,278	401,530	-0,072	-0,109
-248,263	164,690	0,045	0,046
-247,249	340,115	0,113	-0,159
-246,234	-81,746	0,035	-0,008
-245,219	-10,451	0,066	0,032
-244,205	237,246	-0,073	-0,088
-243,190	-6,004	0,034	0,017
-242,176	-17,744	-0,074	0,034
-241,161	782,015	-0,033	0,065
-240,146	-200,000	-0,014	-0,057
-239,132	-100,762	0,058	0,010
-238,117	-8,394	0,061	-0,030
-237,103	18,009	0,051	-0,029
-236,088	-94,068	0,058	-0,011
-235,073	302,861	-0,091	0,122
-234,059	226,014	0,066	0,077
-233,044	10,869	0,194	0,107
-232,030	-200,000	0,041	0,136
-231,015	89,371	0,071	-0,057
-230,000	-200,000	0,015	0,068
-228,986	-28,788	-0,057	-0,024
-227,971	-200,000	0,011	0,100
-226,957	-96,290	0,095	0,018
-225,942	-200,000	0,010	0,135
-224,927	11,571	0,104	0,057
-223,913	-84,371	-0,103	-0,023
-222,898	-30,801	0,033	-0,013
-221,884	-200,000	-0,002	0,052
-220,869	2,098	-0,086	0,045
-219,855	4,966	0,072	0,038
-218,840	-200,000	0,010	0,061
-217,825	329,883	0,053	-0,073
-216,811	17,447	-0,102	-0,058
-215,796	-200,000	-0,028	-0,190
-214,782	-200,000	0,007	0,040
-213,767	393,730	-0,048	0,072
-212,752	-103,157	0,137	0,023
-211,738	63,737	-0,072	0,053
-210,723	-160,433	0,068	-0,003
-209,709	460,905	-0,097	0,157
-208,694	-200,000	-0,011	0,130
-207,679	-87,470	0,013	0,003
-206,665	-80,330	0,198	0,047
-205,650	300,221	-0,067	0,089
-204,636	244,053	0,053	-0,065
-203,621	331,865	-0,083	0,116
-202,606	-150,588	0,067	-0,004
-201,592	188,980	-0,064	-0,069
-200,577	-200,000	0,034	-0,140
-199,563	-179,668	0,076	-0,001
-198,548	-62,283	0,159	0,047
-197,533	-200,000	-0,008	0,077
-196,519	-116,227	-0,238	0,031
-195,504	-200,000	0,001	0,086
-194,490	305,499	-0,060	-0,081
-193,475	317,939	-0,086	-0,118
-192,460	-200,000	-0,043	-0,154
-191,446	800,000	-0,039	0,107
-190,431	-200,000	0,006	0,050
-189,417	800,000	0,021	0,063
-188,402	-126,288	-0,049	-0,005
-187,387	562,082	0,057	-0,100
-186,373	103,065	-0,014	0,012
-185,358	800,000	0,054	-0,144
-184,344	-200,000	0,021	0,094
-183,329	613,496	0,032	0,058
-182,315	-89,971	-0,056	-0,012
-181,300	432,069	0,036	-0,056
-180,285	-69,373	-0,172	-0,047
-179,271	232,945	0,039	-0,047
-178,256	251,208	-0,037	-0,046
-177,242	22,036	0,049	-0,029
-176,227	92,602	0,007	0,006
-175,212	23,896	0,089	0,053
-174,198	-200,000	0,038	0,171
-173,183	18,853	-0,046	-0,026
-172,169	800,000	0,049	-0,105
-171,154	0,332	-0,097	-0,050
-170,139	-65,795	0,061	-0,017
-169,125	-200,000	-0,001	0,102
-168,110	-200,000	0,020	0,104
-167,096	5,321	0,061	0,032
-166,081	-107,073	-0,076	0,012
-165,066	-33,813	-0,127	-0,050
-164,052	10,853	-0,109	-0,060
-163,037	-5,204	0,071	0,035
-162,023	-105,007	-0,046	0,007
-161,008	-132,711	0,065	-0,006
-159,993	-200,000	0,002	-0,076
-158,979	-200,000	0,002	-0,105
-157,964	515,932	-0,067	-0,113
-156,950	407,691	0,050	0,077
-155,935	460,374	0,036	0,058
-154,920	5,491	-0,084	0,045
-153,906	-164,463	-0,080	-0,003
-152,891	102,261	0,095	-0,080
-151,877	-23,369	0,136	0,058
-150,862	-171,949	-0,208	0,005
-149,847	-33,199	-0,027	-0,011
-148,833	3,364	-0,070	-0,036
-147,818	-136,885	-0,077	0,006
-146,804	800,000	0,041	0,101
-145,789	529,603	0,118	0,202
-144,775	-43,961	-0,042	-0,015
-143,760	-200,000	0,001	-0,038
-142,745	-200,000	0,002	-0,046
-141,731	-194,263	-0,042	0,000
-140,716	-137,907	0,132	-0,010
-139,702	-140,289	0,135	-0,010
-138,687	226,090	-0,059	0,069
-137,672	-107,861	-0,069	0,011
-136,658	277,890	0,036	-0,047
-135,643	38,599	0,053	-0,034
-134,629	-8,438	0,097	-0,047
-133,614	-200,000	0,021	-0,097
-132,599	307,422	0,122	0,164
-131,585	51,701	0,042	0,028
-130,570	-123,161	-0,074	0,008
-129,556	286,574	-0,054	0,070
-128,541	139,828	0,076	0,073
-127,526	-63,373	0,060	0,018
-126,512	488,464	-0,006	0,009
-125,497	187,349	-0,008	-0,009
-124,483	-200,000	0,027	0,157
-123,468	54,142	0,033	-0,023
-122,453	5,858	0,117	-0,062
-121,439	15,868	0,142	0,080
-120,424	-59,738	-0,051	0,016
-119,410	-200,000	0,000	-0,006
-118,395	303,369	-0,064	0,085
