DTS Sentinel unit serial number:	SN410029Multiplexer serial number:	ORYXHardware model number:	OX2-SRSoftware version number:	ORYX F/W v4,00 Oryx Data Collector v3.7.2.0data status	okinstallation	B5 Nyhavnadifferential loss correction	single-endedforward channel	channel 2reverse channel	N/Adate	2023/12/13time	11:17:14forward acquisition time	300,00reverse acquisition time	0,00gamma	499,1914k internal	0,3161k external	0,3161temperature offset calibration	1,0000default loss term (dB/km)	0,3820temperature slope calibration	1,0000multiplexer offset coefficient	1,0000multiplexer slope coefficient	1,0000fibre end	0,00T internal ref (°C)	13,75T ext. ref 1 (°C)	-2,35T ext. ref 2 (°C)	-2,64length (m)	temperature (°C)	Stokes	anti-Stokes-744,400	-120,235	-0,039	-0,005
-743,385	-33,052	-0,337	0,137
-742,371	257,365	0,113	0,143
-741,356	-161,703	-0,216	0,008
-740,342	321,735	0,039	0,055
-739,327	80,167	-0,267	-0,211
-738,312	341,784	0,127	-0,183
-737,298	-183,315	-0,353	-0,004
-736,283	188,440	0,066	-0,072
-735,269	-95,723	-0,342	0,067
-734,254	178,146	0,160	0,173
-733,239	45,744	-0,463	-0,315
-732,225	106,998	0,242	0,212
-731,210	-200,000	0,024	0,118
-730,196	497,373	-0,019	0,032
-729,181	101,153	-0,107	0,091
-728,167	343,539	0,032	0,046
-727,152	-24,753	-0,123	-0,054
-726,137	-200,000	0,021	0,115
-725,123	145,199	0,040	0,039
-724,108	-29,089	-0,148	-0,062
-723,094	-200,000	-0,007	-0,107
-722,079	-200,000	-0,016	-0,123
-721,064	-200,000	-0,020	0,154
-720,050	60,226	0,096	-0,069
-719,035	721,504	-0,038	0,075
-718,021	-178,442	-0,062	0,001
-717,006	-200,000	-0,012	0,060
-715,991	-111,675	-0,093	-0,014
-714,977	-200,000	0,009	-0,091
-713,962	-200,000	0,024	0,107
-712,948	-200,000	-0,015	0,062
-711,933	-200,000	0,044	-0,148
-710,918	-165,056	-0,179	-0,006
-709,904	-97,620	-0,120	0,023
-708,889	-113,630	0,072	-0,010
-707,875	-10,618	0,113	-0,055
-706,860	-56,393	-0,112	0,036
-705,845	259,621	0,064	0,081
-704,831	-63,718	0,032	0,010
-703,816	800,000	0,042	-0,108
-702,802	-92,818	-0,139	-0,028
-701,787	-158,759	-0,114	-0,005
-700,772	-53,613	-0,086	0,029
-699,758	-200,000	0,005	0,032
-698,743	225,130	0,071	-0,085
-697,729	-22,604	0,035	0,015
-696,714	-200,000	0,005	0,055
-695,699	-200,000	-0,020	-0,107
-694,685	-28,539	0,048	-0,020
-693,670	-200,000	-0,011	-0,116
-692,656	800,000	-0,058	-0,140
-691,641	25,216	-0,096	0,058
-690,627	17,172	0,061	-0,035
-689,612	422,272	-0,070	0,111
-688,597	800,000	0,044	0,093
-687,583	-200,000	-0,005	0,123
-686,568	149,312	0,051	-0,051
-685,554	-200,000	-0,001	-0,056
-684,539	-69,720	0,059	0,017
-683,524	-79,346	-0,078	-0,019
-682,510	800,000	0,046	0,125
-681,495	735,938	-0,055	0,108
-680,481	70,803	0,005	-0,003
-679,466	-99,979	-0,020	-0,004
-678,451	35,173	0,135	-0,087
-677,437	351,205	-0,052	-0,076
-676,422	338,796	0,038	0,054
-675,408	-200,000	-0,019	0,074
-674,393	-69,675	-0,192	-0,053
-673,378	-200,000	0,041	-0,142
-672,364	70,502	-0,062	-0,047
-671,349	-200,000	-0,008	-0,043
-670,335	161,602	-0,043	-0,044
-669,320	-200,000	-0,024	0,162
-668,305	-200,000	-0,001	0,071
-667,291	-200,000	-0,026	0,116
-666,276	-55,556	-0,105	-0,034
-665,262	233,281	-0,099	-0,120
-664,247	216,409	-0,077	-0,090
-663,232	-81,386	0,158	-0,038
-662,218	800,000	0,042	-0,111
-661,203	-5,730	0,035	0,018
-660,189	-48,855	-0,070	-0,024
-659,174	366,903	-0,118	-0,175
-658,159	148,539	0,046	0,046
-657,145	215,457	-0,034	-0,040
-656,130	347,092	0,057	0,083
-655,116	-22,032	-0,086	0,038
-654,101	231,858	0,032	-0,039
-653,086	-2,913	-0,055	0,028
-652,072	4,092	-0,057	-0,031
-651,057	-29,239	-0,030	0,013
-650,043	59,146	-0,091	-0,065
-649,028	-82,033	-0,071	-0,017
-648,014	11,104	0,122	0,068
-646,999	800,000	-0,029	0,072
-645,984	-0,983	-0,145	0,075
-644,970	-200,000	-0,039	-0,160
-643,955	-200,000	0,001	-0,059
-642,941	800,000	-0,049	0,127
-641,926	350,085	-0,055	0,080
-640,911	800,000	0,038	0,099
-639,897	-124,281	0,042	-0,005
-638,882	-168,783	-0,134	0,004
-637,868	-31,382	-0,062	0,025
-636,853	-9,861	0,028	0,014
-635,838	24,592	-0,131	-0,079
-634,824	25,901	0,051	0,031
-633,809	328,281	-0,041	0,059
-632,795	-89,186	-0,151	0,032
-631,780	-124,930	0,100	0,011
-630,765	77,957	-0,070	0,054
-629,751	-58,318	-0,156	-0,049
-628,736	-60,889	0,113	-0,035
-627,722	-38,071	-0,058	-0,022
-626,707	-119,865	-0,046	-0,006
-625,692	-33,820	-0,071	-0,029
-624,678	-168,169	0,099	0,003
-623,663	727,493	-0,030	-0,058
-622,649	438,990	0,055	0,089
-621,634	-44,199	-0,170	-0,062
-620,619	495,780	-0,072	-0,121
-619,605	-200,000	0,013	-0,088
-618,590	-93,064	0,118	-0,024
-617,576	-200,000	-0,002	0,017
-616,561	-200,000	-0,010	0,045
-615,546	788,684	-0,037	-0,074
-614,532	-200,000	0,018	-0,068
-613,517	-149,694	-0,065	-0,004
-612,503	800,000	-0,016	-0,036
-611,488	800,000	0,034	0,078
-610,474	-76,582	-0,133	-0,034
-609,459	800,000	-0,014	0,034
-608,444	-113,830	-0,082	0,012
-607,430	159,725	-0,104	-0,106
-606,415	-17,059	-0,067	0,031
-605,401	215,797	-0,092	0,107
-604,386	79,713	0,058	-0,046
-603,371	41,933	-0,046	-0,031
-602,357	251,704	0,060	-0,075
-601,342	-200,000	0,008	0,082
-600,328	800,000	-0,029	-0,063
-599,313	22,703	0,185	-0,111
-598,298	569,493	0,040	-0,071
-597,284	-200,000	0,007	0,044
-596,269	-159,451	-0,080	0,003
-595,255	-5,298	0,093	0,047
-594,240	-200,000	-0,009	0,072
-593,225	751,416	-0,021	0,041
-592,211	169,678	0,076	-0,080
-591,196	800,000	-0,067	0,168
-590,182	-114,791	-0,133	0,018
-589,167	613,351	-0,060	0,111
-588,152	143,693	-0,033	-0,032
-587,138	138,311	-0,088	0,084
-586,123	50,374	0,074	-0,051
-585,109	239,859	-0,088	0,108
-584,094	-67,784	-0,125	-0,036
-583,079	281,241	0,072	-0,094
-582,065	72,808	0,025	-0,019
-581,050	800,000	-0,039	-0,082
-580,036	-200,000	0,011	-0,059
-579,021	800,000	-0,059	-0,143
-578,006	800,000	0,037	-0,081
-576,992	-200,000	-0,043	-0,161
-575,977	85,062	-0,025	-0,020
-574,963	-167,234	0,064	-0,002
-573,948	271,211	-0,014	-0,019
-572,934	-200,000	0,004	-0,049
-571,919	222,468	-0,107	-0,126
-570,904	-9,225	0,119	-0,058
-569,890	78,446	-0,063	-0,049
-568,875	34,232	-0,115	0,073
-567,861	14,483	0,052	-0,030
-566,846	282,383	0,083	0,109
-565,831	303,159	-0,039	-0,054
-564,817	-200,000	-0,052	0,200
-563,802	-200,000	-0,004	-0,041
-562,788	273,827	0,069	0,090
-561,773	-21,926	0,133	0,059
-560,758	78,317	0,022	0,017
-559,744	-200,000	0,007	-0,024
-558,729	102,778	0,110	0,094
-557,715	391,005	-0,090	-0,136
-556,700	352,254	0,036	-0,053
-555,685	-67,688	-0,126	-0,036
-554,671	-74,063	0,069	-0,018
-553,656	77,735	-0,075	-0,058
-552,642	289,715	-0,018	-0,025
-551,627	105,615	-0,136	0,118
-550,612	-10,141	-0,048	-0,023
-549,598	-9,193	0,051	-0,025
-548,583	800,000	0,037	-0,087
-547,569	800,000	0,020	0,063
-546,554	85,375	-0,027	0,022
-545,539	-200,000	0,007	0,026
-544,525	-200,000	0,002	-0,118
-543,510	800,000	-0,058	-0,139
-542,496	-200,000	-0,037	0,153
-541,481	430,147	-0,074	-0,118
-540,466	800,000	0,033	0,076
-539,452	-51,314	-0,048	0,016
-538,437	167,190	0,039	-0,041
-537,423	-143,964	-0,058	-0,004
-536,408	-200,000	0,002	-0,026
-535,393	70,142	0,024	-0,018
-534,379	-200,000	-0,014	-0,055
-533,364	156,691	-0,008	-0,008
-532,350	-74,643	-0,093	-0,024
-531,335	-200,000	0,004	-0,020
-530,321	35,814	0,049	-0,032
-529,306	-200,000	-0,029	-0,221
-528,291	-200,000	-0,028	-0,144
-527,277	800,000	0,016	0,046
-526,262	-45,864	-0,075	-0,027
-525,248	241,986	-0,056	0,068
-524,233	46,802	0,023	-0,015
-523,218	800,000	0,051	0,105
-522,204	-104,232	-0,100	0,017
-521,189	-92,443	0,136	0,028
-520,175	374,007	-0,024	-0,036
-519,160	-8,802	-0,039	0,019
-518,145	-117,168	-0,125	-0,016
-517,131	730,105	0,021	0,042
-516,116	800,000	0,036	-0,078
-515,102	-14,397	-0,100	-0,047
-514,087	194,703	-0,069	0,076
-513,072	46,553	0,041	-0,028
-512,058	-105,226	0,149	-0,025
-511,043	800,000	0,062	-0,156
-510,029	15,623	0,134	-0,077
-509,014	800,000	-0,013	-0,028
-507,999	176,251	-0,043	-0,046
-506,985	152,025	-0,063	-0,062
-505,970	-72,513	-0,216	-0,058
-504,956	125,463	0,069	-0,064
-503,941	-133,478	-0,084	0,008
-502,926	-200,000	0,013	0,161
-501,912	51,532	-0,076	0,052
-500,897	-200,000	-0,007	0,096
-499,883	-200,000	0,024	0,103
-498,868	89,350	0,043	-0,035
-497,853	800,000	-0,008	-0,019
-496,839	-92,173	0,139	-0,028
-495,824	800,000	-0,013	0,031
-494,810	-200,000	-0,005	-0,029
-493,795	114,474	-0,011	-0,010
-492,781	4,846	0,051	-0,027
-491,766	68,301	-0,037	-0,028
-490,751	184,016	-0,018	-0,020
-489,737	-200,000	0,009	-0,041
-488,722	-42,535	0,059	0,022
-487,708	118,357	0,064	0,057
-486,693	800,000	0,010	-0,023
-485,678	-200,000	0,017	-0,106
-484,664	-14,495	-0,139	-0,065
-483,649	424,083	-0,081	-0,127
-482,635	45,456	-0,042	0,028
-481,620	-200,000	0,002	0,077
-480,605	-200,000	0,027	0,088
-479,591	10,029	-0,076	-0,042
-478,576	800,000	0,011	0,030
-477,562	-156,471	0,138	-0,006
-476,547	800,000	-0,053	0,137
-475,532	276,012	-0,096	0,124
-474,518	660,542	0,021	0,039
-473,503	13,893	-0,070	-0,039
-472,489	-200,000	-0,053	-0,186
-471,474	107,342	-0,086	-0,074
-470,459	-200,000	-0,008	-0,041
-469,445	-200,000	-0,019	-0,184
-468,430	-97,327	0,105	0,020
-467,416	138,519	0,038	0,037
-466,401	-86,141	0,123	0,027
-465,386	765,902	0,059	0,117
-464,372	244,696	-0,043	-0,053
-463,357	-27,970	-0,064	-0,027
-462,343	800,000	-0,022	-0,070
-461,328	-33,686	-0,154	-0,061
-460,313	188,669	0,035	0,038
-459,299	174,206	0,076	0,080
-458,284	81,230	-0,055	-0,043
-457,270	-114,117	0,033	-0,005
-456,255	800,000	-0,068	-0,144
-455,241	390,966	0,110	-0,166
-454,226	-46,864	0,092	-0,033
-453,211	800,000	-0,008	-0,019
-452,197	144,022	-0,039	0,038
-451,182	248,180	0,099	0,123
-450,168	272,310	-0,011	-0,014
-449,153	183,120	0,072	0,077
-448,138	-138,199	0,075	-0,006
-447,124	22,730	-0,198	-0,118
-446,109	341,340	-0,009	0,013
-445,095	-200,000	0,012	0,063
-444,080	15,193	0,069	0,039
-443,065	137,866	0,045	-0,043
-442,051	-0,748	-0,114	-0,059
-441,036	-200,000	-0,014	-0,108
-440,022	-140,283	-0,048	0,004
-439,007	-132,292	-0,151	0,014
-437,992	36,785	-0,080	-0,052
-436,978	-66,572	0,073	0,021
-435,963	219,246	-0,031	0,036
-434,949	285,724	0,026	0,035
-433,934	27,571	-0,111	-0,068
-432,919	31,749	-0,073	-0,045
-431,905	-200,000	0,023	0,082
-430,890	-200,000	-0,014	0,049
-429,876	-132,685	-0,149	-0,014
-428,861	-200,000	-0,012	-0,145
-427,846	-200,000	0,030	0,114
-426,832	439,451	0,028	-0,044
-425,817	784,511	-0,058	-0,115
-424,803	-109,290	0,120	-0,018
-423,788	241,665	0,126	0,153
-422,773	86,808	0,118	0,094
-421,759	568,621	-0,028	0,049
-420,744	88,475	-0,064	0,052
-419,730	97,450	0,051	-0,042
-418,715	-200,000	0,009	0,064
-417,701	-200,000	0,014	0,057
-416,686	-102,153	0,128	-0,022
-415,671	141,645	0,032	-0,031
-414,657	143,602	0,025	-0,024
-413,642	-21,617	-0,060	-0,026
-412,628	-103,819	0,162	0,027
-411,613	800,000	0,009	-0,025
-410,598	341,154	-0,023	0,033
-409,584	800,000	0,038	0,086
-408,569	-23,796	0,113	0,049
-407,555	-5,485	-0,052	0,026
-406,540	-200,000	-0,024	0,163
-405,525	70,767	0,116	0,088
-404,511	52,931	-0,108	-0,075
-403,496	395,274	-0,025	0,038
-402,482	-40,151	0,128	0,048
-401,467	800,000	-0,029	0,085
-400,452	-200,000	0,032	0,143
-399,438	-114,437	-0,074	-0,010
-398,423	669,088	0,045	0,086
-397,409	-190,146	-0,090	0,001
-396,394	-200,000	0,003	-0,057
-395,379	-71,421	-0,031	-0,008
-394,365	-63,768	0,095	-0,028
-393,350	-115,822	0,110	0,015
-392,336	-56,312	-0,042	-0,014
-391,321	368,137	0,087	-0,128
-390,306	142,881	-0,101	-0,098
-389,292	-200,000	-0,003	-0,181
-388,277	233,388	-0,054	0,064
-387,263	-109,184	0,160	0,024
-386,248	-40,762	0,037	-0,014
-385,233	800,000	0,025	0,067
-384,219	391,226	0,077	0,117
-383,204	800,000	-0,017	0,050
-382,190	163,413	-0,075	-0,077
-381,175	-200,000	0,025	0,083
-380,160	-140,156	0,112	-0,008
-379,146	-200,000	0,015	0,073
-378,131	25,358	0,069	0,042
-377,117	-60,985	0,082	-0,025
-376,102	430,199	-0,058	-0,091
-375,088	-20,640	0,118	-0,052
-374,073	70,830	-0,062	0,047
-373,058	800,000	-0,006	0,015
-372,044	-200,000	-0,012	0,094
-371,029	-34,418	0,026	0,010
-370,015	-200,000	-0,007	0,054
-369,000	107,269	0,082	0,071
-367,985	-200,000	-0,004	-0,025
-366,971	17,396	-0,069	0,039
-365,956	-153,053	0,103	-0,005
-364,942	45,637	0,053	-0,035
-363,927	800,000	0,032	-0,090
-362,912	-79,512	-0,088	-0,021
-361,898	-200,000	0,007	0,064
-360,883	124,271	-0,088	-0,080
-359,869	-200,000	0,011	-0,138
-358,854	-200,000	0,012	-0,102
-357,839	-40,345	0,070	0,026
-356,825	-200,000	-0,011	0,055
-355,810	68,099	0,090	-0,067
-354,796	-54,501	-0,173	0,056
-353,781	-82,201	0,070	-0,016
-352,766	-200,000	-0,017	0,085
-351,752	427,965	0,059	-0,092
-350,737	273,210	0,062	0,080
-349,723	800,000	-0,026	0,083
-348,708	-65,555	0,095	0,027
-347,693	800,000	-0,046	0,113
-346,679	26,485	-0,058	-0,035
-345,664	800,000	0,054	0,121
-344,650	114,762	0,045	0,040
-343,635	78,411	-0,027	-0,021
-342,620	-175,091	-0,074	0,001
-341,606	800,000	-0,046	-0,139
-340,591	435,274	0,032	-0,051
-339,577	265,853	-0,094	-0,119
-338,562	60,136	0,036	0,026
-337,548	-200,000	0,016	0,064
-336,533	-200,000	0,023	0,109
-335,518	193,566	-0,080	0,088
-334,504	-154,724	0,108	-0,005
-333,489	-200,000	-0,018	0,135
-332,475	88,567	-0,056	-0,045
-331,460	-1,371	-0,071	0,036
-330,445	-115,513	0,215	0,029
-329,431	-160,210	-0,048	-0,002
-328,416	-200,000	0,023	-0,123
-327,402	213,628	0,096	0,110
-326,387	800,000	-0,062	0,129
-325,372	2,149	-0,085	-0,044
-324,358	800,000	-0,018	-0,040
-323,343	32,946	-0,030	-0,019
-322,329	55,249	0,062	0,044
-321,314	-200,000	0,013	0,079
-320,299	800,000	0,028	-0,071
-319,285	223,764	-0,062	-0,073
-318,270	506,183	0,012	0,021
-317,256	-200,000	0,024	-0,112
-316,241	113,110	-0,105	0,092
-315,226	407,690	0,110	0,169
-314,212	-200,000	0,003	0,172
-313,197	138,056	0,098	0,093
-312,183	130,056	-0,066	0,061
-311,168	196,770	0,064	0,071
-310,153	-200,000	0,007	-0,076
-309,139	-200,000	0,024	0,085
-308,124	286,846	0,034	0,045
-307,110	-104,519	0,031	0,005
-306,095	91,849	-0,061	0,050
-305,080	-200,000	0,015	-0,058
-304,066	47,184	0,081	-0,055
-303,051	-91,224	-0,096	0,020
-302,037	-36,208	-0,110	-0,043
-301,022	6,137	0,155	-0,083
-300,008	-153,692	0,087	-0,004
-298,993	644,022	0,040	0,074
-297,978	-148,269	0,109	-0,006
-296,964	800,000	0,059	-0,123
-295,949	-200,000	-0,002	0,069
-294,935	34,921	-0,081	-0,051
-293,920	5,601	0,111	0,059
-292,905	-61,412	0,068	-0,020
-291,891	548,485	0,077	0,134
-290,876	-200,000	0,001	0,035
-289,862	87,459	0,050	0,040
-288,847	-148,267	-0,140	-0,008
-287,832	800,000	-0,059	0,148
-286,818	-200,000	-0,008	-0,030
-285,803	-200,000	0,030	0,100
-284,789	-47,007	0,086	-0,030
-283,774	75,346	0,005	0,004
-282,759	-200,000	-0,014	0,129
-281,745	-31,089	-0,129	-0,052
-280,730	800,000	0,009	0,029
-279,716	-20,590	0,099	0,044
-278,701	800,000	0,021	0,052
-277,686	476,267	0,038	0,062
-276,672	800,000	0,036	0,096
-275,657	-200,000	-0,014	0,093
-274,643	532,079	0,052	-0,090
-273,628	439,973	0,107	-0,169
-272,613	167,196	-0,177	-0,182
-271,599	-126,018	0,076	-0,008
-270,584	17,449	0,086	0,049
-269,570	57,154	0,092	0,065
-268,555	-200,000	0,005	0,048
-267,540	16,954	-0,056	-0,032
-266,526	-30,465	-0,112	0,046
-265,511	354,616	-0,053	0,076
-264,497	-88,317	0,211	-0,045
-263,482	-138,300	0,008	0,001
-262,467	263,188	-0,063	-0,080
-261,453	800,000	-0,011	0,033
-260,438	545,913	-0,032	-0,056
-259,424	-132,924	-0,109	-0,010
-258,409	-200,000	0,005	-0,094
-257,395	-3,687	0,085	-0,042
-256,380	545,053	0,062	0,108
-255,365	-200,000	-0,009	0,035
-254,351	-200,000	-0,004	-0,027
-253,336	688,819	0,026	0,048
-252,322	63,759	-0,018	-0,013
-251,307	-51,948	-0,099	0,033
-250,292	-200,000	0,014	0,090
-249,278	-200,000	-0,013	0,147
-248,263	-106,316	-0,044	0,007
-247,249	-200,000	0,020	-0,074
-246,234	-200,000	0,021	-0,124
-245,219	-132,340	-0,162	0,015
-244,205	50,990	0,046	-0,032
-243,190	-33,311	0,049	0,019
-242,176	-49,253	-0,043	-0,015
-241,161	-200,000	0,012	0,112
-240,146	-113,927	0,087	-0,012
-239,132	-80,969	-0,023	-0,006
-238,117	35,574	-0,076	0,048
-237,103	800,000	-0,029	-0,083
-236,088	99,666	-0,142	-0,119
-235,073	280,970	-0,131	0,170
-234,059	800,000	-0,034	0,100
-233,044	192,338	0,072	-0,078
-232,030	800,000	0,048	0,143
-231,015	-96,540	-0,182	-0,034
-230,000	800,000	-0,040	-0,103
-228,986	23,156	0,050	-0,030
-227,971	-47,465	-0,113	0,039
-226,957	-200,000	-0,020	0,077
-225,942	-95,310	0,154	0,030
-224,927	-76,228	0,082	0,021
-223,913	126,591	0,040	-0,037
-222,898	800,000	-0,049	-0,107
-221,884	-21,688	-0,039	0,017
-220,869	123,327	0,071	-0,064
-219,855	114,833	-0,020	-0,017
-218,840	286,119	-0,023	-0,029
-217,825	-52,892	0,090	0,030
-216,811	109,615	0,042	0,036
-215,796	-200,000	-0,031	0,117
-214,782	561,411	-0,046	0,081
-213,767	-0,846	0,034	-0,018
-212,752	-51,590	0,062	0,021
-211,738	-82,912	0,050	0,012
-210,723	800,000	0,029	0,062
-209,709	776,653	-0,009	0,017
-208,694	409,543	-0,076	-0,117
-207,679	-200,000	-0,001	-0,047
-206,665	-100,536	0,050	0,009
-205,650	-40,813	0,149	-0,055
-204,636	118,846	0,134	-0,119
-203,621	-119,572	0,110	0,014
-202,606	174,249	-0,119	-0,124
-201,592	800,000	0,024	-0,058
-200,577	800,000	-0,043	0,089
-199,563	316,848	0,022	-0,031
-198,548	21,963	0,120	0,071
-197,533	-200,000	-0,013	0,117
-196,519	800,000	0,018	0,044
-195,504	800,000	-0,033	0,099
-194,490	52,097	0,030	-0,020
-193,475	92,802	-0,058	0,047
-192,460	-23,489	0,020	0,008
-191,446	-56,425	0,118	-0,037
-190,431	800,000	0,074	-0,168
-189,417	225,236	0,032	0,037
-188,402	114,372	-0,151	-0,133
-187,387	-200,000	0,045	-0,238
-186,373	60,476	-0,021	0,015
-185,358	602,907	0,052	0,094
-184,344	115,250	-0,062	-0,055
-183,329	459,544	-0,036	-0,058
-182,315	-200,000	-0,001	0,040
-181,300	-200,000	0,010	-0,105
-180,285	-56,005	0,066	0,021
-179,271	201,645	-0,064	-0,071
-178,256	-136,880	0,097	0,008
-177,242	-91,457	0,164	0,033
-176,227	800,000	0,019	0,040
-175,212	274,079	0,049	-0,063
-174,198	594,846	-0,030	-0,054
-173,183	-128,206	-0,160	0,016
-172,169	-158,618	-0,086	-0,004
-171,154	800,000	-0,039	-0,082
-170,139	800,000	-0,027	0,066
-169,125	-153,413	-0,116	0,006
-168,110	-49,196	0,042	0,014
-167,096	-156,095	-0,090	-0,004
-166,081	-22,851	0,178	0,077
-165,066	-84,558	-0,140	-0,032
-164,052	800,000	0,042	-0,098
-163,037	-96,022	0,072	-0,014
-162,023	-51,196	0,112	0,038
-161,008	-200,000	-0,013	0,081
-159,993	408,975	-0,070	0,107
-158,979	-65,002	0,107	0,031
-157,964	800,000	-0,094	-0,234
-156,950	88,740	0,120	-0,096
-155,935	-200,000	0,022	0,095
-154,920	800,000	0,034	0,104
-153,906	-108,078	0,155	0,024
-152,891	-200,000	0,003	0,030
-151,877	-200,000	0,011	-0,099
-150,862	-111,750	-0,089	0,013
-149,847	800,000	-0,027	0,077
-148,833	800,000	-0,041	-0,122
-147,818	-121,063	-0,037	0,004
-146,804	-26,654	-0,058	0,024
-145,789	248,342	0,058	0,071
-144,775	26,614	0,094	-0,056
-143,760	800,000	-0,015	-0,033
-142,745	327,041	-0,032	0,045
-141,731	357,163	0,018	-0,026
-140,716	5,158	0,022	0,012
-139,702	358,145	-0,028	0,041
-138,687	649,550	-0,071	-0,132
-137,672	145,836	-0,056	-0,054
-136,658	635,029	-0,050	0,092
-135,643	800,000	0,019	0,053
-134,629	-134,055	0,153	-0,013
-133,614	-200,000	0,020	0,109
-132,599	135,947	0,078	0,073
-131,585	24,654	0,037	-0,022
-130,570	-84,980	-0,046	0,010
-129,556	191,696	-0,067	0,073
-128,541	-200,000	0,012	-0,067
-127,526	330,260	-0,017	-0,023
-126,512	-82,454	0,062	-0,014
-125,497	-13,204	-0,108	0,050
-124,483	-6,951	0,049	-0,024
-123,468	105,234	0,092	-0,078
-122,453	112,238	0,017	0,015
-121,439	297,660	0,020	0,026
-120,424	618,776	0,104	-0,189
-119,410	800,000	-0,025	0,056
