DTS Sentinel unit serial number:	SN410029Multiplexer serial number:	ORYXHardware model number:	OX2-SRSoftware version number:	ORYX F/W v4,00 Oryx Data Collector v3.7.2.0data status	okinstallation	B5 Nyhavnadifferential loss correction	single-endedforward channel	channel 2reverse channel	N/Adate	2023/12/13time	18:32:13forward acquisition time	300,00reverse acquisition time	0,00gamma	499,1914k internal	0,3160k external	0,3160temperature offset calibration	1,0000default loss term (dB/km)	0,3820temperature slope calibration	1,0000multiplexer offset coefficient	1,0000multiplexer slope coefficient	1,0000fibre end	0,00T internal ref (°C)	12,66T ext. ref 1 (°C)	-4,54T ext. ref 2 (°C)	-4,60length (m)	temperature (°C)	Stokes	anti-Stokes-744,400	800,000	0,075	0,158
-743,385	-162,822	-0,322	-0,011
-742,371	-55,348	0,201	0,066
-741,356	-36,632	-0,242	0,095
-740,342	271,777	0,058	0,076
-739,327	-187,251	-0,401	-0,004
-738,312	-24,758	0,077	0,034
-737,298	-5,657	-0,239	-0,120
-736,283	20,149	0,102	-0,061
-735,269	-92,533	-0,208	-0,043
-734,254	98,205	0,164	0,139
-733,239	-104,443	-0,391	-0,066
-732,225	-132,063	0,314	0,030
-731,210	-45,218	0,066	0,024
-730,196	-16,249	-0,044	0,021
-729,181	53,040	-0,073	-0,051
-728,167	-200,000	-0,011	-0,128
-727,152	370,713	-0,095	-0,142
-726,137	51,919	0,044	-0,030
-725,123	-35,490	-0,069	0,028
-724,108	-26,238	-0,143	-0,061
-723,094	-172,434	-0,150	0,003
-722,079	-128,625	0,037	0,004
-721,064	-200,000	-0,016	0,069
-720,050	-200,000	-0,005	-0,026
-719,035	119,021	-0,115	-0,105
-718,021	142,982	-0,134	-0,131
-717,006	436,140	-0,028	-0,045
-715,991	186,020	-0,070	-0,077
-714,977	390,472	0,082	-0,125
-713,962	249,436	-0,054	-0,067
-712,948	-136,076	-0,138	-0,012
-711,933	-99,554	-0,183	0,034
-710,918	800,000	-0,061	-0,158
-709,904	800,000	0,048	-0,118
-708,889	-50,016	-0,040	0,014
-707,875	691,495	-0,047	-0,091
-706,860	90,806	0,041	-0,034
-705,845	800,000	-0,063	-0,150
-704,831	314,036	0,026	0,036
-703,816	-32,916	0,056	0,023
-702,802	-16,007	0,120	0,056
-701,787	-70,276	-0,053	0,015
-700,772	-84,958	-0,142	0,032
-699,758	-68,139	-0,059	-0,017
-698,743	-104,765	0,156	0,026
-697,729	107,866	0,147	0,129
-696,714	-119,852	-0,017	-0,002
-695,699	-200,000	0,018	0,146
-694,685	-101,324	-0,193	-0,034
-693,670	-200,000	0,001	-0,006
-692,656	88,793	-0,019	-0,016
-691,641	-36,621	-0,106	0,042
-690,627	-171,736	0,086	0,002
-689,612	-115,327	-0,192	0,026
-688,597	-11,741	-0,073	0,035
-687,583	392,947	-0,069	-0,106
-686,568	-200,000	0,011	-0,054
-685,554	800,000	0,041	-0,084
-684,539	351,216	-0,036	0,053
-683,524	-200,000	0,003	-0,102
-682,510	635,745	-0,073	0,136
-681,495	-200,000	-0,232	-0,000
-680,481	-170,245	0,043	-0,001
-679,466	-171,258	-0,148	-0,004
-678,451	232,960	-0,038	0,046
-677,437	61,797	0,139	0,102
-676,422	-200,000	0,016	-0,104
-675,408	-88,330	-0,075	-0,016
-674,393	167,058	0,056	-0,058
-673,378	-200,000	-0,020	0,155
-672,364	-200,000	-0,010	0,108
-671,349	-108,081	0,074	0,012
-670,335	438,085	0,028	0,046
-669,320	-200,000	-0,007	-0,043
-668,305	-200,000	-0,002	0,028
-667,291	15,468	0,092	0,053
-666,276	526,983	-0,077	0,134
-665,262	-27,559	0,026	0,011
-664,247	-200,000	-0,045	-0,162
-663,232	472,930	0,056	-0,094
-662,218	-52,812	0,180	0,061
-661,203	800,000	-0,020	-0,053
-660,189	800,000	0,019	0,042
-659,174	499,912	0,018	0,031
-658,159	-62,047	-0,186	0,057
-657,145	409,184	0,026	0,040
-656,130	128,609	-0,016	0,015
-655,116	-108,672	0,078	0,012
-654,101	-39,428	0,064	-0,024
-653,086	-187,949	0,057	0,001
-652,072	-200,000	0,005	0,091
-651,057	800,000	-0,071	-0,173
-650,043	-119,902	-0,102	0,013
-649,028	200,414	-0,083	0,094
-648,014	219,574	0,048	0,056
-646,999	-200,000	-0,016	0,061
-645,984	20,807	0,059	0,035
-644,970	120,094	-0,078	-0,071
-643,955	800,000	-0,041	-0,119
-642,941	-200,000	0,018	-0,137
-641,926	800,000	-0,051	-0,117
-640,911	-172,040	-0,117	-0,003
-639,897	-200,000	-0,014	0,060
-638,882	22,301	0,182	-0,109
-637,868	324,453	-0,098	-0,137
-636,853	800,000	-0,015	0,048
-635,838	-16,673	-0,058	-0,027
-634,824	123,600	-0,126	0,116
-633,809	370,846	0,016	-0,024
-632,795	46,612	-0,114	0,078
-631,780	-99,066	0,164	-0,030
-630,765	-200,000	-0,002	-0,057
-629,751	800,000	0,027	-0,080
-628,736	-200,000	-0,018	-0,169
-627,722	-200,000	-0,062	-0,280
-626,707	-2,038	0,072	-0,037
-625,692	800,000	-0,022	0,048
-624,678	-200,000	-0,018	-0,066
-623,663	106,485	0,071	-0,061
-622,649	14,111	0,068	-0,039
-621,634	-200,000	0,011	-0,080
-620,619	220,969	-0,026	-0,031
-619,605	800,000	0,015	-0,042
-618,590	41,332	0,028	0,018
-617,576	69,966	0,041	0,031
-616,561	47,239	0,078	-0,053
-615,546	-88,932	-0,063	0,013
-614,532	271,161	0,081	-0,104
-613,517	392,815	-0,047	0,071
-612,503	170,312	0,078	-0,082
-611,488	-11,114	0,100	0,048
-610,474	125,272	0,083	-0,077
-609,459	-200,000	0,014	-0,072
-608,444	-55,718	0,041	0,013
-607,430	-200,000	0,017	-0,061
-606,415	210,028	-0,033	0,039
-605,401	611,120	0,048	0,089
-604,386	28,225	0,025	-0,016
-603,371	-39,434	-0,081	0,031
-602,357	-25,217	0,040	-0,017
-601,342	800,000	0,068	0,150
-600,328	-90,633	0,040	0,008
-599,313	-102,890	-0,062	-0,011
-598,298	-200,000	-0,105	0,000
-597,284	-20,263	0,092	0,041
-596,269	82,440	-0,021	0,017
-595,255	-32,575	-0,079	-0,032
-594,240	254,452	0,010	-0,013
-593,225	351,411	-0,033	-0,048
-592,211	185,349	0,059	0,065
-591,196	-200,000	0,024	0,151
-590,182	133,979	-0,028	0,026
-589,167	-200,000	0,233	-0,000
-588,152	347,264	-0,033	-0,048
-587,138	97,444	0,071	-0,060
-586,123	124,941	0,040	-0,037
-585,109	-200,000	0,002	0,067
-584,094	540,174	0,038	-0,067
-583,079	-200,000	0,053	0,233
-582,065	-200,000	0,000	0,003
-581,050	-200,000	-0,021	0,073
-580,036	-33,748	0,044	-0,018
-579,021	-200,000	0,007	-0,045
-578,006	800,000	-0,036	-0,081
-576,992	325,968	-0,055	-0,078
-575,977	-200,000	0,013	-0,058
-574,963	-200,000	-0,004	0,156
-573,948	-16,109	-0,091	-0,042
-572,934	-119,092	-0,081	-0,010
-571,919	-40,791	-0,091	-0,034
-570,904	246,770	-0,016	0,020
-569,890	800,000	0,016	-0,042
-568,875	-30,278	-0,048	-0,020
-567,861	800,000	-0,042	-0,131
-566,846	169,900	0,053	0,056
-565,831	15,869	-0,114	0,065
-564,817	-73,006	-0,079	0,021
-563,802	800,000	-0,010	0,024
-562,788	799,464	0,029	0,059
-561,773	792,126	0,053	0,108
-560,758	-200,000	-0,006	0,042
-559,744	152,668	0,073	-0,073
-558,729	-35,972	-0,047	0,018
-557,715	-200,000	0,031	-0,150
-556,700	-200,000	0,011	-0,056
-555,685	364,768	0,076	-0,112
-554,671	63,820	0,058	0,043
-553,656	800,000	0,020	0,063
-552,642	-95,268	-0,073	-0,014
-551,627	-130,452	-0,039	-0,004
-550,612	613,811	0,059	-0,109
-549,598	-200,000	-0,002	0,043
-548,583	-83,190	-0,049	-0,011
-547,569	800,000	-0,010	-0,027
-546,554	-13,031	0,183	0,086
-545,539	-200,000	-0,016	-0,056
-544,525	-173,390	0,086	-0,002
-543,510	42,030	-0,051	0,034
-542,496	-200,000	0,016	0,122
-541,481	95,048	-0,056	-0,046
-540,466	77,567	0,036	0,028
-539,452	94,887	-0,021	0,018
-538,437	39,972	0,069	0,045
-537,423	-149,264	0,069	0,004
-536,408	800,000	-0,028	-0,068
-535,393	800,000	-0,026	-0,070
-534,379	101,127	0,025	-0,021
-533,364	-80,461	-0,164	-0,040
-532,350	-18,772	0,081	-0,037
-531,335	149,767	-0,048	0,048
-530,321	500,496	0,080	-0,135
-529,306	96,952	-0,079	-0,067
-528,291	-200,000	0,011	0,066
-527,277	-200,000	0,010	-0,115
-526,262	-149,576	-0,103	-0,006
-525,248	537,876	0,034	-0,060
-524,233	-36,934	-0,048	0,019
-523,218	-162,821	-0,090	-0,003
-522,204	-200,000	0,015	0,057
-521,189	54,302	0,039	0,027
-520,175	147,722	-0,073	-0,072
-519,160	-200,000	0,008	-0,089
-518,145	-116,822	0,145	-0,019
-517,131	-81,597	-0,166	0,040
-516,116	-200,000	0,020	-0,141
-515,102	208,040	-0,094	-0,108
-514,087	-15,132	0,065	-0,030
-513,072	231,890	-0,062	-0,075
-512,058	378,693	-0,028	0,041
-511,043	-106,896	0,046	0,007
-510,029	-200,000	0,008	-0,121
-509,014	-200,000	-0,030	-0,151
-507,999	-200,000	-0,040	-0,157
-506,985	-51,175	-0,126	0,043
-505,970	-200,000	-0,002	-0,141
-504,956	800,000	0,052	-0,110
-503,941	-200,000	-0,002	0,113
-502,926	260,244	-0,058	0,073
-501,912	-200,000	-0,022	0,077
-500,897	-200,000	0,022	0,104
-499,883	800,000	-0,045	-0,142
-498,868	18,028	-0,113	-0,066
-497,853	800,000	0,035	-0,088
-496,839	800,000	0,034	0,068
-495,824	-74,428	0,078	0,020
-494,810	-48,006	0,052	-0,018
-493,795	-200,000	-0,065	0,300
-492,781	13,144	0,092	-0,052
-491,766	500,702	-0,015	0,025
-490,751	136,484	-0,005	0,004
-489,737	-101,420	0,049	-0,009
-488,722	-200,000	-0,014	0,078
-487,708	151,061	0,087	0,087
-486,693	800,000	0,045	0,094
-485,678	0,630	-0,103	0,054
-484,664	-101,878	-0,086	-0,015
-483,649	192,363	-0,081	-0,090
-482,635	-84,466	0,056	-0,013
-481,620	553,676	0,040	-0,071
-480,605	-146,150	0,089	-0,006
-479,591	130,253	0,114	0,107
-478,576	161,296	-0,026	0,027
-477,562	-164,714	-0,128	-0,004
-476,547	-75,421	-0,078	-0,020
-475,532	800,000	0,050	-0,104
-474,518	-151,476	0,030	0,002
-473,503	83,473	-0,038	-0,030
-472,489	96,571	0,089	0,075
-471,474	-185,531	0,082	-0,001
-470,459	-34,432	-0,032	0,013
-469,445	337,118	-0,016	-0,023
-468,430	105,438	0,059	-0,051
-467,416	-1,493	0,075	0,038
-466,401	68,627	-0,113	-0,085
-465,386	800,000	-0,046	0,111
-464,372	205,881	0,068	0,077
-463,357	-199,245	-0,063	-0,000
-462,343	55,762	-0,047	0,033
-461,328	540,687	0,033	-0,057
-460,313	385,514	0,087	0,130
-459,299	800,000	-0,024	-0,075
-458,284	800,000	-0,031	-0,064
-457,270	-8,686	0,173	-0,084
-456,255	231,991	-0,103	-0,123
-455,241	-200,000	0,004	-0,124
-454,226	-200,000	0,007	-0,096
-453,211	-200,000	0,016	0,066
-452,197	114,884	0,066	-0,058
-451,182	-200,000	-0,000	0,056
-450,168	47,423	0,112	0,076
-449,153	527,310	-0,060	-0,104
-448,138	277,827	0,042	0,055
-447,124	-109,764	-0,061	-0,009
-446,109	253,499	-0,050	0,062
-445,095	-0,472	-0,050	0,026
-444,080	156,582	-0,068	0,069
-443,065	-20,020	0,028	0,012
-442,051	208,078	-0,045	0,051
-441,036	130,285	0,181	-0,168
-440,022	-137,168	0,061	-0,005
-439,007	400,365	-0,080	-0,122
-437,992	-80,385	0,106	-0,026
-436,978	-18,081	0,043	0,020
-435,963	181,206	0,089	0,095
-434,949	-48,928	-0,178	0,062
-433,934	62,187	-0,062	-0,045
-432,919	-42,206	-0,141	0,052
-431,905	284,401	0,056	-0,073
-430,890	-18,321	-0,139	0,063
-429,876	800,000	0,059	0,130
-428,861	-54,159	-0,207	0,068
-427,846	-200,000	0,014	-0,075
-426,832	119,253	-0,039	-0,035
-425,817	26,207	-0,072	-0,044
-424,803	-200,000	-0,002	0,080
-423,788	463,598	0,023	-0,037
-422,773	145,647	-0,089	-0,086
-421,759	324,357	0,053	-0,074
-420,744	-86,274	-0,128	0,028
-419,730	-200,000	0,027	-0,108
-418,715	231,056	0,054	-0,065
-417,701	-81,780	0,201	-0,048
-416,686	-60,842	0,055	0,017
-415,671	800,000	0,015	-0,035
-414,657	7,155	-0,091	0,049
-413,642	-20,363	0,094	-0,042
-412,628	409,438	0,043	-0,067
-411,613	98,565	-0,095	-0,080
-410,598	-200,000	-0,022	-0,077
-409,584	-200,000	0,008	0,099
-408,569	154,622	-0,046	-0,046
-407,555	-118,243	0,051	-0,006
-406,540	-53,740	0,054	-0,018
-405,525	363,103	-0,042	-0,062
-404,511	800,000	0,019	-0,054
-403,496	-123,261	0,095	0,011
-402,482	-180,993	-0,044	0,001
-401,467	-113,246	-0,043	-0,006
-400,452	-200,000	-0,007	-0,060
-399,438	-94,780	-0,022	0,004
-398,423	125,975	0,086	-0,079
-397,409	226,688	0,092	0,109
-396,394	484,276	-0,014	0,024
-395,379	-34,801	-0,173	0,068
-394,365	-51,284	0,081	-0,027
-393,350	800,000	0,030	0,073
-392,336	-126,852	-0,147	0,016
-391,321	-108,676	0,061	0,009
-390,306	-93,192	0,038	0,008
-389,292	261,062	-0,088	-0,110
-388,277	-101,081	0,045	0,008
-387,263	800,000	-0,019	0,049
-386,248	800,000	0,036	0,095
-385,233	263,027	0,111	0,140
-384,219	385,019	-0,077	0,116
-383,204	47,205	-0,113	0,076
-382,190	-180,410	-0,031	-0,000
-381,175	413,370	-0,096	-0,148
-380,160	83,362	0,031	-0,025
-379,146	149,015	-0,049	-0,048
-378,131	-144,967	0,091	0,006
-377,117	-13,194	-0,006	-0,003
-376,102	-5,507	-0,160	-0,079
-375,088	270,842	0,060	-0,076
-374,073	-200,000	-0,039	-0,169
-373,058	89,515	-0,043	0,034
-372,044	314,132	0,063	-0,087
-371,029	-66,747	0,018	0,005
-370,015	-29,477	-0,023	-0,010
-369,000	97,825	0,154	0,129
-367,985	-200,000	-0,007	-0,060
-366,971	658,111	-0,012	0,023
-365,956	334,785	-0,050	0,070
-364,942	213,927	-0,012	0,014
-363,927	-162,882	0,040	0,001
-362,912	168,517	0,016	-0,016
-361,898	-97,886	-0,121	0,023
-360,883	-30,681	-0,013	0,005
-359,869	-200,000	0,026	-0,135
-358,854	-200,000	0,010	0,077
-357,839	383,517	0,098	0,147
-356,825	130,146	0,071	0,066
-355,810	752,680	-0,039	0,077
-354,796	-200,000	0,014	-0,096
-353,781	-200,000	0,004	-0,041
-352,766	-69,117	0,112	0,031
-351,752	-136,454	-0,069	0,006
-350,737	-200,000	0,002	0,012
-349,723	-105,337	0,144	0,024
-348,708	800,000	-0,015	0,042
-347,693	100,153	-0,129	-0,109
-346,679	-157,151	0,072	0,003
-345,664	-75,270	-0,125	-0,032
-344,650	75,440	-0,114	0,087
-343,635	31,491	0,007	0,004
-342,620	-161,667	0,080	0,003
-341,606	43,669	0,118	0,078
-340,591	-56,611	0,140	0,045
-339,577	67,247	-0,031	0,023
-338,562	87,358	-0,082	0,066
-337,548	800,000	-0,029	-0,066
-336,533	-114,991	0,126	0,017
-335,518	800,000	0,073	0,202
-334,504	800,000	0,031	-0,090
-333,489	609,264	-0,030	0,055
-332,475	-24,233	-0,029	-0,013
-331,460	6,925	-0,079	0,042
-330,445	-80,248	0,100	-0,024
-329,431	-200,000	0,016	0,119
-328,416	-200,000	0,011	-0,043
-327,402	-132,345	-0,086	-0,008
-326,387	-71,360	0,042	0,011
-325,372	712,598	0,020	0,039
-324,358	-200,000	-0,006	-0,062
-323,343	125,129	0,091	0,083
-322,329	800,000	0,062	-0,151
-321,314	281,752	0,108	-0,141
-320,299	800,000	-0,010	0,021
-319,285	-200,000	0,017	0,145
-318,270	-200,000	-0,013	0,070
-317,256	98,117	0,038	-0,032
-316,241	96,247	-0,159	-0,132
-315,226	-200,000	-0,025	0,113
-314,212	32,887	-0,076	-0,047
-313,197	16,261	-0,075	0,043
-312,183	137,184	0,058	-0,055
-311,168	250,868	-0,065	-0,080
-310,153	476,420	0,107	-0,177
-309,139	-200,000	-0,002	0,115
-308,124	371,539	-0,042	0,062
-307,110	800,000	0,053	-0,111
-306,095	800,000	0,049	0,149
-305,080	800,000	-0,021	-0,051
-304,066	42,520	-0,093	0,061
-303,051	-87,082	-0,083	-0,018
-302,037	107,949	-0,072	0,063
-301,022	-150,089	-0,055	-0,003
-300,008	338,986	-0,016	0,023
-298,993	-200,000	-0,008	0,057
-297,978	-200,000	-0,012	0,000
-296,964	187,353	0,002	-0,002
-295,949	-200,000	0,000	0,058
-294,935	395,718	-0,064	-0,096
-293,920	-200,000	-0,015	0,109
-292,905	-88,337	-0,068	-0,014
-291,891	126,664	0,058	0,053
-290,876	800,000	0,039	0,098
-289,862	800,000	-0,013	-0,039
-288,847	-166,582	-0,168	0,005
-287,832	-123,462	0,011	0,001
-286,818	-38,596	0,044	0,017
-285,803	800,000	-0,042	0,094
-284,789	-47,398	0,125	-0,044
-283,774	639,156	0,033	-0,061
-282,759	122,848	0,020	-0,018
-281,745	800,000	-0,013	-0,035
-280,730	-1,049	-0,060	0,031
-279,716	277,643	-0,142	0,183
-278,701	554,162	-0,029	-0,050
-277,686	-65,573	0,063	-0,018
-276,672	-200,000	0,013	0,147
-275,657	260,109	0,117	0,147
-274,643	-200,000	0,003	-0,027
-273,628	-109,955	-0,107	-0,016
-272,613	-200,000	0,010	-0,204
-271,599	-155,905	0,047	0,002
-270,584	-44,102	0,050	0,018
-269,570	-18,689	0,037	0,017
-268,555	-7,404	-0,099	-0,048
-267,540	608,831	0,039	0,071
-266,526	84,220	-0,086	0,068
-265,511	426,571	0,059	-0,092
-264,497	66,460	0,048	-0,035
-263,482	329,950	-0,066	-0,092
-262,467	800,000	0,012	0,027
-261,453	-200,000	0,012	0,246
-260,438	720,554	0,021	0,041
-259,424	-40,435	-0,144	-0,054
-258,409	-167,599	0,104	-0,003
-257,395	-58,724	0,085	-0,027
-256,380	78,172	0,128	0,099
-255,365	106,737	0,109	-0,094
-254,351	800,000	-0,028	0,084
-253,336	-166,460	-0,044	-0,001
-252,322	-200,000	-0,098	-0,000
-251,307	800,000	0,073	-0,156
-250,292	468,161	-0,068	0,111
-249,278	18,280	0,037	0,021
-248,263	-200,000	-0,008	-0,064
-247,249	69,368	-0,023	-0,017
-246,234	-200,000	-0,002	0,047
-245,219	-116,936	0,057	0,007
-244,205	-135,284	0,138	0,012
-243,190	-200,000	0,010	0,064
-242,176	-27,136	0,183	0,077
-241,161	-21,443	-0,020	0,009
-240,146	218,053	-0,077	-0,089
-239,132	-12,825	-0,087	-0,041
-238,117	-75,201	-0,026	0,007
-237,103	545,450	0,037	0,065
-236,088	-147,519	0,138	0,008
-235,073	-200,000	0,001	0,088
-234,059	4,232	0,166	0,088
-233,044	-35,898	-0,135	0,053
-232,030	-200,000	0,015	-0,058
-231,015	-200,000	-0,023	-0,163
-230,000	-200,000	0,034	-0,144
-228,986	217,131	-0,029	0,034
-227,971	298,901	0,029	0,038
-226,957	447,283	0,027	-0,043
-225,942	-143,494	-0,129	0,009
-224,927	800,000	0,032	0,093
-223,913	41,801	0,024	0,015
-222,898	-73,781	-0,075	0,020
-221,884	-63,240	0,019	-0,006
-220,869	441,861	-0,016	0,026
-219,855	-200,000	-0,013	0,048
-218,840	2,249	0,186	0,097
-217,825	355,329	-0,098	-0,141
-216,811	-7,975	-0,012	0,006
-215,796	800,000	-0,032	-0,101
-214,782	583,257	0,040	-0,071
-213,767	432,222	0,058	0,090
-212,752	-11,917	-0,034	0,016
-211,738	-200,000	0,020	0,138
-210,723	287,963	-0,100	0,130
-209,709	635,635	0,046	0,085
-208,694	-34,667	-0,085	0,033
-207,679	44,344	0,123	-0,081
-206,665	800,000	-0,083	-0,169
-205,650	800,000	0,028	-0,061
-204,636	800,000	0,041	-0,113
-203,621	-200,000	-0,023	-0,086
-202,606	-60,633	-0,061	0,018
-201,592	28,021	0,025	0,015
-200,577	171,411	0,062	0,064
-199,563	800,000	0,003	0,008
-198,548	188,039	0,167	0,180
-197,533	53,896	0,080	0,055
-196,519	-72,717	0,036	-0,010
-195,504	-90,159	-0,028	0,006
-194,490	200,590	-0,079	0,088
-193,475	182,654	-0,037	0,040
-192,460	-200,000	-0,082	0,297
-191,446	50,498	0,082	0,056
-190,431	507,034	-0,071	0,120
-189,417	800,000	0,061	0,185
-188,402	-200,000	-0,000	-0,009
-187,387	-70,933	-0,190	0,051
-186,373	-30,588	0,087	0,035
-185,358	441,122	0,042	-0,067
-184,344	240,419	0,083	0,101
-183,329	-23,072	-0,063	0,027
-182,315	-160,853	0,079	-0,003
-181,300	-200,000	0,005	0,023
-180,285	-18,474	-0,048	-0,021
-179,271	-100,267	-0,113	0,020
-178,256	800,000	0,031	0,089
-177,242	-200,000	-0,013	-0,148
-176,227	320,758	-0,037	0,051
-175,212	800,000	0,065	0,158
-174,198	-132,858	0,016	-0,001
-173,183	-200,000	0,019	-0,083
-172,169	-73,532	-0,175	-0,046
-171,154	14,819	0,029	-0,017
-170,139	-110,387	-0,045	-0,007
-169,125	-200,000	-0,041	0,144
-168,110	104,305	-0,050	0,043
-167,096	-77,576	0,081	-0,020
-166,081	-200,000	0,019	0,091
-165,066	-119,916	0,129	0,016
-164,052	9,788	-0,113	0,062
-163,037	156,164	-0,084	0,084
-162,023	-200,000	-0,014	0,168
-161,008	-18,793	0,052	0,023
-159,993	11,625	0,059	0,032
-158,979	199,993	-0,126	-0,139
-157,964	-200,000	-0,035	-0,213
-156,950	98,374	-0,198	-0,164
-155,935	-200,000	0,031	-0,102
-154,920	431,021	0,038	0,060
-153,906	-200,000	0,015	0,065
-152,891	-200,000	0,014	0,045
-151,877	-126,608	-0,003	-0,000
-150,862	800,000	0,040	-0,093
-149,847	96,195	0,050	-0,041
-148,833	-200,000	-0,007	0,033
-147,818	-84,301	0,071	0,016
-146,804	-146,107	0,114	-0,007
-145,789	-200,000	-0,013	0,100
-144,775	290,787	-0,018	0,024
-143,760	291,250	-0,022	0,029
-142,745	-117,163	-0,102	0,013
-141,731	83,711	0,067	0,052
-140,716	126,752	0,043	0,039
-139,702	800,000	-0,041	0,105
-138,687	-200,000	0,010	0,052
-137,672	743,533	0,023	-0,045
-136,658	-46,199	-0,104	-0,037
-135,643	-81,876	0,133	0,031
-134,629	-8,882	-0,072	-0,034
-133,614	21,864	0,048	-0,028
-132,599	800,000	-0,046	0,109
-131,585	-103,908	0,159	-0,026
-130,570	-200,000	0,021	0,177
-129,556	800,000	0,025	0,051
-128,541	707,535	0,025	0,048
-127,526	-200,000	-0,037	0,144
-126,512	75,888	-0,042	0,032
-125,497	377,089	0,034	0,050
-124,483	-200,000	0,038	0,177
-123,468	-200,000	0,018	0,153
-122,453	-1,650	0,077	0,039
-121,439	231,746	0,026	-0,031
-120,424	291,973	-0,031	0,041
-119,410	194,080	0,063	0,069
-118,395	277,603	0,101	0,130
