DTS Sentinel unit serial number:	SN410029Multiplexer serial number:	ORYXHardware model number:	OX2-SRSoftware version number:	ORYX F/W v4,00 Oryx Data Collector v3.7.2.0data status	okinstallation	B5 Nyhavnadifferential loss correction	single-endedforward channel	channel 2reverse channel	N/Adate	2023/12/14time	00:27:13forward acquisition time	300,00reverse acquisition time	0,00gamma	499,1914k internal	0,3155k external	0,3155temperature offset calibration	1,0000default loss term (dB/km)	0,3820temperature slope calibration	1,0000multiplexer offset coefficient	1,0000multiplexer slope coefficient	1,0000fibre end	0,00T internal ref (°C)	8,67T ext. ref 1 (°C)	-7,36T ext. ref 2 (°C)	-7,42length (m)	temperature (°C)	Stokes	anti-Stokes-744,400	145,325	0,161	0,160
-743,385	-35,606	-0,343	-0,137
-742,371	800,000	0,060	0,138
-741,356	-89,928	-0,240	0,051
-740,342	106,055	0,220	0,192
-739,327	-129,522	-0,540	-0,054
-738,312	207,051	0,116	0,133
-737,298	-138,334	-0,332	-0,027
-736,283	-58,998	0,259	0,082
-735,269	-200,000	-0,264	-0,001
-734,254	173,305	0,086	0,092
-733,239	20,421	-0,557	-0,331
-732,225	-43,098	0,258	0,096
-731,210	-39,312	0,004	0,002
-730,196	-200,000	0,047	-0,168
-729,181	-200,000	-0,003	-0,133
-728,167	-72,133	-0,162	-0,044
-727,152	-200,000	-0,015	-0,056
-726,137	-139,869	-0,041	0,003
-725,123	-119,437	-0,049	0,006
-724,108	-200,000	-0,008	-0,144
-723,094	406,926	-0,077	-0,121
-722,079	-200,000	-0,012	-0,042
-721,064	414,585	0,063	-0,100
-720,050	572,060	0,049	-0,088
-719,035	2,509	0,090	0,048
-718,021	-21,559	-0,061	-0,027
-717,006	-74,253	-0,163	-0,043
-715,991	5,967	-0,106	0,058
-714,977	800,000	-0,028	-0,078
-713,962	-67,662	-0,075	-0,022
-712,948	476,543	0,034	0,057
-711,933	800,000	-0,032	-0,091
-710,918	304,405	0,071	0,097
-709,904	99,118	-0,065	-0,055
-708,889	-40,956	-0,197	-0,075
-707,875	-200,000	-0,031	-0,123
-706,860	-19,910	0,031	-0,014
-705,845	18,600	-0,162	-0,095
-704,831	560,982	-0,028	-0,050
-703,816	16,304	0,067	0,039
-702,802	-59,041	-0,078	0,025
-701,787	-200,000	-0,009	-0,078
-700,772	-146,527	-0,055	-0,003
-699,758	-36,579	0,086	0,034
-698,743	-200,000	0,013	-0,048
-697,729	-68,304	0,053	0,015
-696,714	163,440	0,055	0,057
-695,699	391,252	-0,023	0,036
-694,685	-94,936	-0,068	0,013
-693,670	-200,000	0,009	-0,110
-692,656	43,675	-0,070	0,047
-691,641	60,211	0,102	-0,074
-690,627	437,115	0,057	-0,092
-689,612	89,277	-0,095	-0,078
-688,597	800,000	0,011	0,029
-687,583	569,088	-0,051	-0,091
-686,568	396,745	0,076	-0,117
-685,554	-59,704	-0,059	-0,019
-684,539	-101,875	0,191	-0,034
-683,524	268,628	-0,036	-0,047
-682,510	51,245	0,060	0,042
-681,495	800,000	-0,027	-0,074
-680,481	-200,000	0,124	0,000
-679,466	-200,000	0,007	0,103
-678,451	516,531	-0,066	-0,113
-677,437	348,965	-0,070	-0,102
-676,422	800,000	0,083	0,176
-675,408	-200,000	0,011	0,042
-674,393	412,856	-0,046	-0,072
-673,378	99,211	-0,119	-0,101
-672,364	-200,000	-0,002	-0,162
-671,349	-200,000	0,003	0,020
-670,335	196,853	-0,057	-0,064
-669,320	-74,112	0,049	-0,013
-668,305	-200,000	0,002	-0,036
-667,291	-200,000	-0,001	0,106
-666,276	0,348	-0,065	-0,034
-665,262	-24,697	0,031	-0,014
-664,247	504,807	-0,052	0,088
-663,232	800,000	0,044	0,098
-662,218	-200,000	-0,007	0,047
-661,203	-81,901	0,059	-0,014
-660,189	800,000	0,009	0,026
-659,174	253,950	0,055	-0,069
-658,159	-119,635	0,027	-0,003
-657,145	143,747	-0,114	-0,112
-656,130	-129,636	0,232	0,023
-655,116	115,702	-0,045	-0,040
-654,101	738,778	-0,074	0,146
-653,086	-200,000	0,002	0,036
-652,072	500,112	0,041	-0,069
-651,057	-200,000	0,009	0,044
-650,043	-160,030	-0,153	0,006
-649,028	-102,577	-0,130	-0,023
-648,014	141,415	0,075	0,073
-646,999	-200,000	-0,017	0,059
-645,984	-162,403	0,052	-0,002
-644,970	-168,041	-0,207	-0,006
-643,955	206,299	0,085	-0,097
-642,941	-17,627	0,031	-0,014
-641,926	-44,096	0,125	-0,046
-640,911	-194,577	0,076	-0,000
-639,897	138,822	-0,104	-0,100
-638,882	-75,549	-0,058	-0,015
-637,868	-156,221	-0,080	0,004
-636,853	220,996	-0,093	-0,110
-635,838	7,148	-0,047	-0,026
-634,824	-58,856	-0,114	-0,036
-633,809	-200,000	-0,016	-0,055
-632,795	337,089	0,027	0,039
-631,780	-81,772	0,043	0,010
-630,765	-125,707	0,100	-0,011
-629,751	-57,643	-0,041	0,013
-628,736	108,112	-0,042	-0,037
-627,722	-200,000	0,008	-0,059
-626,707	70,606	-0,049	-0,037
-625,692	67,329	0,119	-0,089
-624,678	-200,000	-0,020	0,075
-623,663	800,000	-0,007	-0,021
-622,649	294,415	0,050	0,067
-621,634	135,470	-0,080	-0,076
-620,619	429,864	0,051	-0,081
-619,605	-200,000	0,035	0,157
-618,590	800,000	0,055	-0,118
-617,576	-200,000	0,000	-0,053
-616,561	73,055	0,040	0,031
-615,546	137,393	-0,079	-0,076
-614,532	53,680	-0,046	0,032
-613,517	-172,287	0,067	-0,002
-612,503	-200,000	-0,005	-0,219
-611,488	-20,421	0,161	0,073
-610,474	410,647	0,074	-0,115
-609,459	163,892	-0,041	0,042
-608,444	651,342	-0,033	-0,062
-607,430	370,636	0,018	0,027
-606,415	800,000	-0,033	-0,086
-605,401	-200,000	0,015	-0,062
-604,386	-200,000	0,054	0,195
-603,371	165,358	0,076	0,079
-602,357	-49,321	-0,009	0,003
-601,342	-19,639	0,048	-0,022
-600,328	800,000	-0,032	-0,065
-599,313	-200,000	-0,014	-0,056
-598,298	515,232	0,076	0,130
-597,284	58,808	0,068	0,049
-596,269	-154,323	-0,015	-0,001
-595,255	657,044	0,029	0,055
-594,240	-200,000	-0,012	0,056
-593,225	408,133	-0,008	-0,013
-592,211	155,656	-0,044	0,045
-591,196	-200,000	-0,022	0,167
-590,182	201,323	0,042	-0,047
-589,167	-47,283	-0,040	0,014
-588,152	800,000	0,061	0,183
-587,138	120,378	0,086	0,078
-586,123	800,000	-0,029	-0,089
-585,109	800,000	-0,004	-0,011
-584,094	72,765	-0,091	0,070
-583,079	20,755	0,133	0,079
-582,065	-200,000	0,022	0,081
-581,050	-139,165	0,040	-0,003
-580,036	754,166	-0,075	-0,149
-579,021	-126,776	-0,029	-0,003
-578,006	39,856	-0,048	-0,032
-576,992	-200,000	0,006	0,045
-575,977	-200,000	-0,005	-0,037
-574,963	130,893	0,042	0,040
-573,948	60,296	-0,021	0,015
-572,934	425,265	-0,094	0,148
-571,919	3,151	0,078	0,042
-570,904	-179,330	-0,074	0,001
-569,890	-200,000	0,025	0,114
-568,875	-73,143	0,067	-0,018
-567,861	74,051	0,107	-0,082
-566,846	-112,668	0,109	0,016
-565,831	-6,850	-0,008	-0,004
-564,817	-24,149	-0,207	-0,090
-563,802	-200,000	0,016	0,059
-562,788	33,034	-0,069	0,044
-561,773	645,603	0,032	-0,060
-560,758	800,000	-0,070	0,169
-559,744	202,563	-0,113	0,128
-558,729	-103,791	0,083	-0,014
-557,715	-200,000	0,025	-0,203
-556,700	-200,000	-0,001	-0,010
-555,685	489,796	0,066	-0,110
-554,671	800,000	0,029	0,072
-553,656	-177,030	0,066	-0,001
-552,642	-152,529	-0,099	-0,005
-551,627	-122,154	0,067	0,008
-550,612	231,572	0,086	-0,103
-549,598	-90,044	0,056	-0,012
-548,583	-113,414	-0,183	-0,026
-547,569	800,000	0,007	0,021
-546,554	238,444	0,082	0,100
-545,539	44,519	0,081	0,054
-544,525	-200,000	-0,033	0,178
-543,510	-200,000	0,101	0,000
-542,496	-85,877	-0,025	0,006
-541,481	42,786	-0,121	-0,081
-540,466	-111,972	-0,165	0,024
-539,452	168,684	-0,067	0,070
-538,437	695,331	0,030	0,058
-537,423	800,000	-0,026	0,056
-536,408	-200,000	0,014	-0,064
-535,393	800,000	-0,021	-0,058
-534,379	-165,280	-0,170	0,005
-533,364	-135,057	-0,027	-0,002
-532,350	-200,000	0,024	0,131
-531,335	326,504	0,058	0,082
-530,321	-200,000	0,006	-0,050
-529,306	522,825	-0,093	0,161
-528,291	-170,715	-0,053	-0,001
-527,277	44,063	0,074	0,050
-526,262	-41,290	-0,065	0,024
-525,248	519,214	-0,019	0,032
-524,233	-200,000	-0,010	-0,082
-523,218	-200,000	-0,025	-0,111
-522,204	71,754	0,049	-0,037
-521,189	36,400	0,060	0,039
-520,175	-155,174	-0,129	-0,006
-519,160	50,032	-0,131	0,091
-518,145	425,787	0,094	-0,149
-517,131	-132,741	-0,071	0,007
-516,116	4,052	-0,053	0,028
-515,102	-200,000	0,001	-0,058
-514,087	-49,209	-0,050	0,017
-513,072	-49,587	-0,094	0,033
-512,058	-138,628	-0,101	0,008
-511,043	49,296	0,047	0,033
-510,029	-200,000	0,024	-0,188
-509,014	-107,773	0,105	-0,017
-507,999	-128,175	-0,066	0,007
-506,985	291,618	-0,091	-0,121
-505,970	800,000	0,059	-0,176
-504,956	123,938	-0,090	-0,083
-503,941	190,184	0,047	0,051
-502,926	800,000	0,055	0,173
-501,912	158,152	0,088	0,090
-500,897	-200,000	-0,018	-0,075
-499,883	-136,630	-0,135	0,011
-498,868	-1,716	-0,035	-0,018
-497,853	63,334	0,129	-0,095
-496,839	165,620	0,068	0,070
-495,824	168,023	0,071	0,074
-494,810	89,597	-0,044	0,036
-493,795	78,886	-0,017	-0,013
-492,781	-26,091	-0,050	-0,022
-491,766	-49,662	-0,107	-0,037
-490,751	100,305	-0,087	0,074
-489,737	94,314	0,136	-0,113
-488,722	561,239	0,059	0,104
-487,708	-91,605	0,055	-0,011
-486,693	146,332	0,020	-0,020
-485,678	-126,535	0,041	-0,004
-484,664	800,000	-0,050	0,158
-483,649	800,000	-0,022	-0,069
-482,635	800,000	-0,035	-0,103
-481,620	368,740	0,088	-0,130
-480,605	176,230	0,048	0,051
-479,591	-200,000	0,011	0,040
-478,576	28,843	0,023	-0,014
-477,562	-200,000	0,031	-0,109
-476,547	24,996	-0,134	0,081
-475,532	76,304	0,033	0,026
-474,518	-200,000	-0,022	-0,073
-473,503	37,647	-0,068	0,044
-472,489	-110,390	-0,111	-0,017
-471,474	-57,946	-0,163	-0,052
-470,459	-200,000	0,001	-0,010
-469,445	-122,607	-0,117	0,014
-468,430	800,000	0,072	-0,146
-467,416	800,000	-0,033	0,071
-466,401	800,000	-0,042	0,094
-465,386	-200,000	0,009	0,062
-464,372	106,731	0,012	-0,010
-463,357	209,616	0,056	-0,064
-462,343	-100,499	0,077	-0,014
-461,328	-200,000	0,003	-0,055
-460,313	166,094	0,071	-0,074
-459,299	65,287	-0,032	-0,023
-458,284	-200,000	0,013	-0,089
-457,270	-82,463	-0,097	0,023
-456,255	11,541	0,056	0,031
-455,241	-200,000	0,016	0,066
-454,226	428,283	-0,008	0,012
-453,211	-200,000	0,001	-0,029
-452,197	-6,109	0,143	-0,071
-451,182	800,000	-0,052	0,122
-450,168	-112,314	-0,098	0,014
-449,153	103,301	-0,022	0,019
-448,138	800,000	-0,010	-0,030
-447,124	185,787	0,029	-0,032
-446,109	450,673	-0,049	-0,079
-445,095	145,190	0,024	0,024
-444,080	82,013	0,033	0,026
-443,065	-200,000	0,015	-0,059
-442,051	43,492	-0,157	-0,105
-441,036	212,196	0,033	-0,038
-440,022	232,392	-0,038	-0,046
-439,007	130,670	0,033	-0,031
-437,992	-29,196	-0,104	-0,043
-436,978	491,233	-0,025	-0,041
-435,963	3,628	0,107	0,056
-434,949	-176,388	-0,069	0,001
-433,934	42,959	0,033	0,022
-432,919	-141,844	-0,061	0,004
-431,905	-200,000	0,000	-0,043
-430,890	-88,988	0,048	-0,010
-429,876	138,682	0,111	-0,106
-428,861	-116,829	-0,141	-0,019
-427,846	203,496	-0,060	-0,067
-426,832	-200,000	0,016	0,075
-425,817	-133,543	0,120	0,011
-424,803	-200,000	0,015	-0,061
-423,788	-82,846	-0,055	0,013
-422,773	-37,149	0,114	-0,044
-421,759	247,706	0,048	-0,059
-420,744	-92,165	-0,066	0,013
-419,730	36,858	-0,091	-0,058
-418,715	-87,447	-0,046	-0,010
-417,701	-200,000	0,050	0,180
-416,686	-69,451	-0,137	0,038
-415,671	141,763	0,080	0,078
-414,657	-200,000	0,040	0,142
-413,642	-200,000	0,144	-0,000
-412,628	606,995	0,045	-0,083
-411,613	245,348	-0,086	-0,106
-410,598	321,167	-0,044	-0,061
-409,584	-200,000	0,009	0,056
-408,569	-6,315	0,151	0,075
-407,555	-45,647	0,064	0,023
-406,540	-63,861	0,085	0,025
-405,525	-200,000	-0,001	0,059
-404,511	7,041	0,070	-0,038
-403,496	-80,522	0,057	0,014
-402,482	-200,000	0,019	0,116
-401,467	-116,950	0,109	-0,014
-400,452	-13,173	0,117	0,055
-399,438	43,557	0,072	-0,048
-398,423	643,035	-0,042	0,078
-397,409	-33,495	-0,051	-0,020
-396,394	-84,504	0,070	-0,016
-395,379	-200,000	-0,006	-0,023
-394,365	255,838	-0,059	0,073
-393,350	-200,000	-0,009	0,116
-392,336	-200,000	0,025	0,113
-391,321	-78,236	-0,082	-0,020
-390,306	-200,000	0,006	-0,095
-389,292	443,827	0,057	0,091
-388,277	228,541	-0,045	0,054
-387,263	759,328	0,029	-0,057
-386,248	-138,136	0,188	0,015
-385,233	540,642	-0,089	0,155
-384,219	-200,000	0,011	-0,041
-383,204	133,789	-0,042	0,039
-382,190	-139,115	-0,148	-0,011
-381,175	192,055	0,055	0,061
-380,160	15,607	0,013	-0,007
-379,146	-200,000	-0,009	0,124
-378,131	6,567	-0,024	-0,013
-377,117	132,453	0,024	-0,022
-376,102	-10,422	-0,047	0,023
-375,088	169,642	-0,061	-0,063
-374,073	800,000	-0,025	-0,062
-373,058	800,000	0,026	0,080
-372,044	-104,761	-0,122	0,020
-371,029	-111,557	-0,072	0,011
-370,015	621,531	0,070	0,129
-369,000	10,453	0,061	-0,034
-367,985	-200,000	0,003	-0,083
-366,971	-164,860	0,169	-0,005
-365,956	284,138	-0,069	0,090
-364,942	154,257	0,095	0,095
-363,927	-132,399	0,183	0,017
-362,912	-109,635	0,123	-0,019
-361,898	230,184	0,033	0,039
-360,883	-200,000	0,004	0,045
-359,869	1,578	0,068	-0,036
-358,854	-200,000	-0,011	0,100
-357,839	-121,687	0,177	-0,021
-356,825	85,560	-0,087	-0,070
-355,810	-200,000	0,010	-0,059
-354,796	107,539	0,055	-0,047
-353,781	800,000	-0,095	0,258
-352,766	-153,882	0,033	-0,002
-351,752	-200,000	-0,024	-0,092
-350,737	-99,983	0,117	-0,021
-349,723	72,898	0,080	0,060
-348,708	-200,000	-0,020	0,076
-347,693	411,969	-0,097	0,149
-346,679	12,379	-0,039	-0,022
-345,664	-139,378	-0,205	0,016
-344,650	9,766	0,033	0,018
-343,635	-200,000	0,005	0,091
-342,620	-43,217	0,074	0,027
-341,606	-88,049	-0,023	0,005
-340,591	800,000	-0,042	-0,121
-339,577	368,363	-0,009	-0,013
-338,562	800,000	-0,026	-0,062
-337,548	-63,047	-0,075	-0,022
-336,533	-175,442	0,195	0,004
-335,518	-200,000	0,017	0,099
-334,504	800,000	0,015	-0,039
-333,489	-200,000	0,010	-0,105
-332,475	-31,116	0,072	0,029
-331,460	-52,651	-0,125	-0,041
-330,445	-63,908	0,071	-0,021
-329,431	800,000	-0,036	0,090
-328,416	601,609	0,080	0,144
-327,402	-182,817	0,049	0,001
-326,387	138,776	-0,135	0,129
-325,372	-200,000	0,017	0,081
-324,358	-91,424	-0,040	-0,008
-323,343	30,659	0,069	0,043
-322,329	37,439	0,136	-0,088
-321,314	-200,000	-0,004	0,051
-320,299	30,778	-0,088	0,055
-319,285	800,000	0,014	-0,028
-318,270	28,547	-0,135	-0,083
-317,256	-200,000	-0,002	0,045
-316,241	800,000	0,060	-0,182
-315,226	-141,325	0,080	0,006
-314,212	-200,000	-0,015	0,064
-313,197	-146,098	-0,072	0,005
-312,183	-21,681	0,037	0,016
-311,168	110,958	-0,105	-0,092
-310,153	-200,000	0,007	0,096
-309,139	61,588	0,060	-0,043
-308,124	-121,207	0,184	-0,022
-307,110	-162,793	-0,072	-0,003
-306,095	-200,000	0,012	0,104
-305,080	74,010	0,090	-0,068
-304,066	800,000	0,002	0,006
-303,051	120,045	0,030	-0,027
-302,037	-200,000	-0,007	-0,079
-301,022	-95,938	0,116	0,022
-300,008	-200,000	0,008	0,051
-298,993	148,498	-0,076	0,075
-297,978	800,000	0,039	-0,096
-296,964	-66,105	-0,110	0,032
-295,949	-200,000	-0,054	-0,194
-294,935	-71,079	-0,147	-0,040
-293,920	-97,612	0,058	-0,011
-292,905	320,164	-0,033	-0,046
-291,891	336,355	-0,026	-0,036
-290,876	800,000	0,030	0,073
-289,862	340,687	-0,050	-0,071
-288,847	-200,000	0,018	-0,058
-287,832	-46,082	-0,078	-0,028
-286,818	56,572	-0,118	-0,083
-285,803	-200,000	-0,023	0,125
-284,789	-123,456	0,085	-0,010
-283,774	507,200	0,050	0,085
-282,759	488,538	-0,035	-0,058
-281,745	577,906	0,016	-0,028
-280,730	800,000	0,020	-0,056
-279,716	105,361	0,039	0,034
-278,701	29,021	0,054	-0,033
-277,686	-44,974	0,095	0,034
-276,672	-200,000	0,006	-0,104
-275,657	324,070	-0,062	0,086
-274,643	278,636	-0,056	0,072
-273,628	-26,973	-0,047	0,020
-272,613	-200,000	-0,023	-0,168
-271,599	-200,000	0,007	-0,106
-270,584	800,000	-0,018	0,052
-269,570	254,711	-0,129	0,160
-268,555	273,720	-0,056	0,072
-267,540	307,090	-0,070	-0,095
-266,526	-200,000	-0,009	-0,042
-265,511	-200,000	0,001	0,099
-264,497	-11,237	0,043	0,020
-263,482	-200,000	-0,014	0,089
-262,467	33,464	0,016	0,010
-261,453	-93,301	-0,145	0,029
-260,438	104,360	0,070	-0,060
-259,424	-200,000	0,020	0,107
-258,409	218,331	-0,019	0,022
-257,395	-200,000	0,013	-0,108
-256,380	-200,000	-0,016	-0,128
-255,365	-73,992	0,112	-0,029
-254,351	262,885	-0,049	-0,061
-253,336	800,000	0,052	-0,105
-252,322	-200,000	-0,003	-0,149
-251,307	45,242	-0,107	-0,071
-250,292	-94,271	-0,056	-0,011
-249,278	-200,000	-0,052	0,167
-248,263	66,952	-0,027	0,020
-247,249	207,173	-0,053	-0,059
-246,234	-58,294	-0,050	-0,016
-245,219	462,446	0,044	0,071
-244,205	800,000	-0,006	-0,018
-243,190	-96,408	-0,132	-0,025
-242,176	-200,000	0,015	-0,135
-241,161	307,239	0,031	-0,042
-240,146	-25,896	0,083	0,035
-239,132	89,222	-0,100	-0,081
-238,117	122,423	0,028	-0,025
-237,103	227,077	-0,083	0,098
-236,088	-200,000	0,008	0,107
-235,073	-200,000	0,030	0,196
-234,059	-42,086	0,149	0,055
-233,044	486,936	0,062	-0,103
-232,030	130,839	0,079	-0,074
-231,015	158,033	0,080	-0,080
-230,000	-118,147	0,062	0,008
-228,986	800,000	0,008	-0,020
-227,971	800,000	0,042	0,098
-226,957	467,953	0,050	0,081
-225,942	11,694	0,015	-0,009
-224,927	-43,446	-0,054	0,019
-223,913	-62,740	0,058	-0,017
-222,898	113,866	-0,109	-0,096
-221,884	-71,794	0,044	-0,012
-220,869	-41,761	0,143	-0,053
-219,855	74,912	-0,020	-0,015
-218,840	800,000	0,050	-0,109
-217,825	-127,284	-0,007	-0,001
-216,811	-109,668	0,063	0,010
-215,796	-107,592	-0,171	-0,027
-214,782	122,253	0,081	-0,073
-213,767	-200,000	0,016	0,062
-212,752	37,996	-0,054	0,035
-211,738	-41,893	0,076	0,028
-210,723	111,042	0,072	-0,063
-209,709	-200,000	0,015	0,056
-208,694	-119,319	-0,016	-0,002
-207,679	-200,000	0,070	0,000
-206,665	-200,000	-0,011	-0,117
-205,650	800,000	0,027	0,073
-204,636	694,823	-0,044	0,084
-203,621	800,000	-0,012	-0,037
-202,606	108,650	-0,037	-0,032
-201,592	800,000	-0,034	-0,083
-200,577	800,000	-0,035	0,110
-199,563	-200,000	0,020	-0,064
-198,548	355,023	0,058	0,083
-197,533	24,354	0,085	-0,051
-196,519	40,706	-0,140	0,091
-195,504	-29,267	-0,075	0,031
-194,490	-200,000	0,013	-0,104
-193,475	83,058	0,063	-0,050
-192,460	547,672	0,042	0,073
-191,446	191,474	0,056	-0,061
-190,431	-200,000	0,009	0,125
-189,417	499,678	-0,016	-0,026
-188,402	800,000	-0,014	-0,041
-187,387	94,313	0,050	-0,041
-186,373	408,847	-0,082	-0,126
-185,358	389,965	-0,058	-0,087
-184,344	-200,000	-0,006	-0,123
-183,329	-200,000	0,062	-0,000
-182,315	324,617	-0,028	0,038
-181,300	800,000	-0,009	-0,025
-180,285	128,788	0,134	-0,123
-179,271	-200,000	-0,002	0,040
-178,256	89,409	-0,163	-0,131
-177,242	456,103	0,022	-0,036
-176,227	296,681	-0,061	0,081
-175,212	52,509	-0,082	-0,057
-174,198	598,908	0,032	-0,058
-173,183	9,879	-0,131	-0,071
-172,169	800,000	-0,014	-0,044
-171,154	290,929	-0,039	0,052
-170,139	184,476	0,013	-0,014
-169,125	-200,000	-0,019	0,102
-168,110	4,621	-0,097	0,051
-167,096	-200,000	0,003	0,073
-166,081	800,000	-0,058	0,156
-165,066	348,074	0,006	0,009
-164,052	-122,740	-0,020	0,002
-163,037	-10,882	0,059	0,028
-162,023	-200,000	0,012	0,041
-161,008	106,458	-0,118	0,101
-159,993	11,180	0,075	0,041
-158,979	447,382	-0,010	-0,016
-157,964	62,130	-0,087	-0,062
-156,950	-137,019	0,077	-0,006
-155,935	-104,442	-0,039	0,006
-154,920	-136,825	0,127	-0,010
-153,906	-82,646	0,054	-0,013
-152,891	800,000	0,012	-0,025
-151,877	800,000	-0,024	-0,062
-150,862	578,813	-0,106	-0,187
-149,847	-200,000	-0,016	0,146
-148,833	478,071	0,018	-0,030
-147,818	-113,707	0,152	-0,021
-146,804	1,832	-0,053	0,027
-145,789	138,200	-0,078	0,074
-144,775	210,159	0,098	-0,111
-143,760	5,055	-0,135	-0,071
-142,745	185,710	0,056	-0,060
-141,731	172,757	0,018	-0,019
-140,716	-200,000	0,089	0,000
-139,702	-63,421	-0,064	0,019
-138,687	-200,000	-0,001	-0,082
-137,672	-137,521	-0,210	0,017
-136,658	-13,239	-0,056	0,026
-135,643	225,190	0,029	0,033
-134,629	-132,393	-0,113	0,010
-133,614	-111,688	0,087	-0,013
-132,599	195,659	-0,053	0,059
-131,585	-200,000	-0,002	0,008
-130,570	-200,000	-0,045	-0,202
-129,556	41,370	-0,118	-0,077
-128,541	54,830	-0,081	0,056
-127,526	137,568	-0,106	-0,100
-126,512	-200,000	0,034	-0,120
-125,497	194,034	0,080	0,087
-124,483	560,209	-0,054	0,095
-123,468	800,000	0,068	-0,214
-122,453	-113,978	0,065	-0,009
-121,439	380,350	-0,076	-0,113
-120,424	73,987	0,096	0,073
