DTS Sentinel unit serial number:	SN410029Multiplexer serial number:	ORYXHardware model number:	OX2-SRSoftware version number:	ORYX F/W v4,00 Oryx Data Collector v3.7.2.0data status	okinstallation	B5 Nyhavnadifferential loss correction	single-endedforward channel	channel 2reverse channel	N/Adate	2023/12/12time	04:27:13forward acquisition time	300,00reverse acquisition time	0,00gamma	499,1914k internal	0,3157k external	0,3157temperature offset calibration	1,0000default loss term (dB/km)	0,3820temperature slope calibration	1,0000multiplexer offset coefficient	1,0000multiplexer slope coefficient	1,0000fibre end	0,00T internal ref (°C)	15,50T ext. ref 1 (°C)	-0,92T ext. ref 2 (°C)	-1,24length (m)	temperature (°C)	Stokes	anti-Stokes-744,400	268,826	0,038	0,049
-743,385	-107,281	-0,321	-0,051
-742,371	614,369	0,060	0,111
-741,356	73,116	-0,285	0,219
-740,342	596,572	0,027	0,050
-739,327	32,435	-0,177	-0,112
-738,312	174,801	0,156	-0,167
-737,298	-64,921	-0,245	-0,073
-736,283	34,585	-0,084	-0,054
-735,269	-117,065	-0,324	0,043
-734,254	103,221	0,111	-0,096
-733,239	-20,238	-0,498	-0,225
-732,225	698,076	0,040	0,078
-731,210	800,000	0,045	0,109
-730,196	800,000	-0,039	0,110
-729,181	800,000	-0,030	-0,063
-728,167	-200,000	0,004	-0,023
-727,152	151,057	-0,053	0,053
-726,137	136,654	-0,057	-0,055
-725,123	-75,035	-0,112	-0,029
-724,108	523,739	0,036	0,062
-723,094	800,000	-0,072	-0,158
-722,079	800,000	0,061	-0,148
-721,064	-200,000	0,000	0,031
-720,050	800,000	0,020	0,050
-719,035	381,319	0,030	0,046
-718,021	-200,000	-0,003	-0,077
-717,006	-19,274	-0,104	-0,047
-715,991	431,390	-0,061	-0,098
-714,977	254,091	0,046	-0,058
-713,962	-200,000	-0,026	-0,158
-712,948	-200,000	-0,001	0,024
-711,933	202,983	-0,088	-0,100
-710,918	132,862	-0,015	-0,015
-709,904	-20,550	0,187	-0,084
-708,889	800,000	0,027	-0,065
-707,875	-76,425	-0,156	-0,040
-706,860	47,582	0,068	0,047
-705,845	-200,000	0,002	-0,133
-704,831	-72,674	-0,084	-0,023
-703,816	42,396	-0,097	0,065
-702,802	-200,000	-0,011	-0,048
-701,787	42,851	-0,176	-0,118
-700,772	-97,691	-0,089	0,017
-699,758	-3,155	0,137	0,070
-698,743	278,571	-0,048	0,063
-697,729	800,000	0,050	0,109
-696,714	321,197	0,099	0,138
-695,699	-200,000	0,025	0,100
-694,685	-64,393	-0,105	-0,031
-693,670	541,438	0,050	-0,088
-692,656	49,674	-0,040	-0,028
-691,641	800,000	0,023	0,069
-690,627	-200,000	0,010	-0,048
-689,612	800,000	0,051	0,147
-688,597	661,097	0,021	-0,041
-687,583	-39,849	-0,200	-0,076
-686,568	485,902	0,075	-0,127
-685,554	-26,831	-0,074	0,031
-684,539	114,101	-0,080	-0,072
-683,524	-146,926	0,048	0,003
-682,510	-63,862	0,049	0,015
-681,495	532,618	-0,050	0,087
-680,481	-145,865	-0,088	0,006
-679,466	-200,000	0,007	-0,077
-678,451	800,000	-0,010	-0,028
-677,437	-200,000	-0,013	0,048
-676,422	215,576	-0,009	-0,010
-675,408	800,000	-0,068	-0,160
-674,393	11,365	-0,073	0,041
-673,378	338,246	-0,049	-0,071
-672,364	285,030	0,071	-0,095
-671,349	-200,000	0,000	-0,017
-670,335	-91,535	-0,126	-0,026
-669,320	147,406	0,075	-0,074
-668,305	217,958	0,134	-0,157
-667,291	-200,000	-0,005	-0,153
-666,276	140,533	-0,047	0,045
-665,262	3,650	-0,063	-0,034
-664,247	-200,000	0,025	-0,120
-663,232	800,000	-0,024	0,050
-662,218	800,000	-0,013	-0,033
-661,203	-200,000	0,035	-0,143
-660,189	-200,000	-0,011	-0,110
-659,174	-113,820	0,120	0,017
-658,159	169,872	-0,081	-0,086
-657,145	85,176	0,058	-0,047
-656,130	-200,000	0,014	0,060
-655,116	-200,000	-0,007	0,095
-654,101	-13,514	0,164	0,078
-653,086	109,760	-0,021	0,019
-652,072	-91,117	-0,112	0,023
-651,057	-28,946	-0,050	-0,021
-650,043	-200,000	0,034	-0,129
-649,028	662,521	-0,067	-0,127
-648,014	-41,248	0,129	0,049
-646,999	66,489	-0,103	0,077
-645,984	464,361	-0,021	0,035
-644,970	-192,122	-0,100	-0,001
-643,955	-80,325	0,015	-0,004
-642,941	-200,000	0,012	-0,039
-641,926	800,000	-0,015	0,042
-640,911	322,210	-0,044	-0,062
-639,897	157,481	-0,025	-0,025
-638,882	422,139	0,044	0,070
-637,868	800,000	-0,043	0,094
-636,853	272,156	-0,044	-0,057
-635,838	800,000	0,014	-0,040
-634,824	287,853	0,044	0,058
-633,809	2,969	0,128	0,068
-632,795	284,935	0,045	0,060
-631,780	471,188	-0,032	0,052
-630,765	344,471	-0,146	0,211
-629,751	-97,369	-0,172	0,033
-628,736	-200,000	-0,012	0,058
-627,722	-32,390	0,070	0,029
-626,707	-163,636	-0,125	-0,004
-625,692	260,962	0,027	-0,035
-624,678	146,723	0,143	0,141
-623,663	244,437	-0,090	-0,112
-622,649	-162,553	-0,099	0,004
-621,634	73,841	-0,059	0,045
-620,619	-200,000	0,007	-0,153
-619,605	337,066	-0,074	0,105
-618,590	-200,000	0,000	-0,064
-617,576	-200,000	-0,003	-0,052
-616,561	-200,000	0,022	-0,174
-615,546	327,346	-0,054	-0,077
-614,532	13,022	-0,045	0,025
-613,517	-200,000	-0,029	-0,117
-612,503	389,997	-0,018	-0,028
-611,488	800,000	-0,043	0,103
-610,474	-9,436	0,096	0,047
-609,459	-200,000	-0,024	0,139
-608,444	-141,489	-0,109	0,008
-607,430	92,702	0,061	-0,050
-606,415	-19,719	0,151	-0,068
-605,401	-29,915	0,120	0,050
-604,386	-31,081	-0,045	0,019
-603,371	-62,381	-0,076	0,023
-602,357	-126,757	0,152	-0,016
-601,342	-200,000	0,015	-0,127
-600,328	-137,980	-0,046	0,004
-599,313	800,000	-0,006	-0,019
-598,298	-76,584	-0,039	-0,010
-597,284	-200,000	-0,005	-0,038
-596,269	9,880	0,055	-0,030
-595,255	-94,771	0,021	-0,004
-594,240	455,353	-0,041	-0,068
-593,225	259,537	0,057	-0,072
-592,211	-2,964	-0,086	-0,044
-591,196	-48,657	-0,103	-0,036
-590,182	800,000	-0,031	0,067
-589,167	34,260	0,017	0,011
-588,152	288,293	0,059	-0,079
-587,138	96,189	-0,108	0,091
-586,123	179,614	-0,135	-0,145
-585,109	800,000	-0,068	-0,146
-584,094	154,586	-0,060	-0,060
-583,079	11,741	-0,037	0,021
-582,065	3,819	0,045	-0,024
-581,050	40,201	0,075	-0,049
-580,036	-200,000	-0,027	0,112
-579,021	553,933	0,039	-0,069
-578,006	-134,039	-0,137	0,012
-576,992	-200,000	-0,005	-0,076
-575,977	800,000	0,072	0,158
-574,963	-1,568	0,118	0,061
-573,948	13,673	-0,017	0,010
-572,934	800,000	0,047	0,099
-571,919	146,654	0,058	0,057
-570,904	25,659	-0,103	-0,063
-569,890	-200,000	-0,005	0,090
-568,875	-200,000	0,014	0,066
-567,861	-15,290	-0,063	-0,029
-566,846	800,000	0,050	-0,113
-565,831	-113,048	-0,036	0,005
-564,817	233,337	-0,029	0,035
-563,802	30,437	0,093	0,058
-562,788	-4,788	0,087	0,044
-561,773	800,000	0,039	-0,097
-560,758	-200,000	-0,004	0,058
-559,744	-200,000	-0,003	-0,131
-558,729	139,236	-0,063	0,061
-557,715	-200,000	-0,004	-0,049
-556,700	-73,705	-0,073	-0,019
-555,685	-5,440	0,056	-0,028
-554,671	24,425	-0,124	-0,075
-553,656	-200,000	0,017	0,086
-552,642	61,673	-0,010	0,007
-551,627	-174,358	-0,127	-0,003
-550,612	-200,000	-0,010	-0,105
-549,598	-39,230	0,101	0,039
-548,583	-200,000	0,025	0,127
-547,569	72,190	-0,061	0,047
-546,554	-200,000	0,007	-0,139
-545,539	-188,833	0,158	0,001
-544,525	800,000	-0,013	-0,033
-543,510	-200,000	-0,005	0,080
-542,496	82,772	-0,058	-0,046
-541,481	800,000	0,049	-0,131
-540,466	-9,043	-0,177	-0,086
-539,452	279,348	-0,081	-0,106
-538,437	-200,000	-0,001	-0,072
-537,423	289,860	-0,045	0,060
-536,408	-97,327	0,062	0,012
-535,393	285,839	-0,069	-0,092
-534,379	-82,607	0,128	0,030
-533,364	171,372	0,050	-0,053
-532,350	452,849	-0,080	-0,130
-531,335	153,822	0,054	-0,054
-530,321	800,000	-0,034	0,091
-529,306	-99,680	-0,006	-0,001
-528,291	-90,018	-0,071	-0,015
-527,277	271,899	-0,055	-0,071
-526,262	59,316	-0,005	-0,003
-525,248	146,019	-0,090	0,088
-524,233	171,256	-0,037	-0,039
-523,218	-55,580	0,050	-0,016
-522,204	-130,049	-0,098	-0,010
-521,189	-6,558	-0,028	0,014
-520,175	-200,000	-0,009	-0,032
-519,160	-200,000	0,086	0,000
-518,145	800,000	-0,042	0,091
-517,131	416,198	0,022	-0,035
-516,116	146,373	0,033	-0,033
-515,102	191,106	0,072	-0,079
-514,087	-80,220	-0,147	0,036
-513,072	46,574	-0,080	0,054
-512,058	-68,831	0,129	-0,036
-511,043	489,291	-0,075	0,126
-510,029	115,377	0,055	0,049
-509,014	-200,000	0,015	0,073
-507,999	800,000	0,034	0,082
-506,985	-176,029	-0,192	0,004
-505,970	-141,895	0,087	-0,006
-504,956	26,810	-0,177	-0,108
-503,941	-200,000	0,010	-0,102
-502,926	-46,399	-0,023	0,008
-501,912	382,291	0,067	-0,100
-500,897	800,000	-0,039	0,080
-499,883	444,697	-0,019	-0,031
-498,868	607,886	0,011	0,021
-497,853	670,648	-0,050	-0,094
-496,839	800,000	0,016	-0,038
-495,824	-98,676	0,113	0,021
-494,810	-200,000	0,009	-0,074
-493,795	-174,906	-0,152	0,003
-492,781	-200,000	-0,014	-0,080
-491,766	52,589	0,068	0,047
-490,751	72,949	0,081	0,062
-489,737	-145,148	-0,041	-0,003
-488,722	76,387	-0,054	0,042
-487,708	503,630	0,048	0,081
-486,693	-99,685	0,064	0,012
-485,678	106,675	0,071	0,061
-484,664	287,020	-0,097	0,129
-483,649	205,635	-0,056	0,064
-482,635	88,088	0,061	-0,050
-481,620	-200,000	-0,006	0,085
-480,605	122,323	0,113	0,103
-479,591	259,563	-0,091	0,115
-478,576	172,838	0,026	-0,027
-477,562	171,223	-0,122	-0,127
-476,547	21,993	-0,064	-0,038
-475,532	82,160	-0,028	-0,022
-474,518	-84,651	-0,060	-0,014
-473,503	30,969	0,150	-0,094
-472,489	-58,162	-0,061	0,019
-471,474	-59,806	0,032	0,010
-470,459	-59,282	0,013	-0,004
-469,445	170,282	0,102	-0,106
-468,430	419,086	0,057	-0,089
-467,416	800,000	0,023	0,056
-466,401	-111,683	0,124	0,018
-465,386	-128,855	-0,043	0,004
-464,372	-7,582	-0,070	0,035
-463,357	-200,000	0,004	-0,021
-462,343	-200,000	0,001	-0,042
-461,328	-155,018	-0,034	-0,002
-460,313	277,922	-0,037	-0,048
-459,299	-200,000	-0,010	0,172
-458,284	175,202	0,073	0,077
-457,270	800,000	0,008	-0,017
-456,255	394,501	-0,097	-0,147
-455,241	-6,699	-0,090	0,045
-454,226	54,605	0,144	-0,101
-453,211	800,000	-0,051	0,133
-452,197	-200,000	-0,002	0,193
-451,182	-200,000	-0,006	-0,024
-450,168	9,197	0,013	0,007
-449,153	800,000	0,009	0,025
-448,138	-122,726	0,047	-0,005
-447,124	-200,000	-0,007	-0,092
-446,109	-200,000	0,016	0,125
-445,095	-127,968	-0,059	-0,006
-444,080	-200,000	0,021	0,170
-443,065	13,820	-0,098	0,055
-442,051	99,972	0,044	0,038
-441,036	292,848	-0,090	0,120
-440,022	250,291	0,049	-0,061
-439,007	-199,604	-0,068	0,000
-437,992	668,673	-0,055	0,104
-436,978	-87,780	0,151	0,033
-435,963	-200,000	-0,023	-0,088
-434,949	132,727	-0,057	0,054
-433,934	792,046	0,023	-0,046
-432,919	-72,902	-0,189	0,050
-431,905	473,961	0,043	-0,070
-430,890	800,000	0,035	0,092
-429,876	-146,728	0,136	-0,008
-428,861	161,929	-0,051	-0,052
-427,846	-200,000	-0,008	-0,031
-426,832	-37,566	0,072	-0,028
-425,817	800,000	0,017	0,049
-424,803	442,845	-0,056	0,089
-423,788	-200,000	-0,003	-0,051
-422,773	110,264	0,072	0,063
-421,759	-200,000	-0,006	0,230
-420,744	-21,737	0,068	-0,030
-419,730	5,631	0,097	-0,052
-418,715	88,927	0,088	-0,071
-417,701	31,604	0,024	0,015
-416,686	59,744	-0,066	-0,047
-415,671	156,808	0,089	-0,090
-414,657	-200,000	0,002	-0,016
-413,642	-200,000	-0,003	0,039
-412,628	800,000	-0,047	-0,119
-411,613	34,890	-0,039	-0,025
-410,598	97,399	0,094	-0,078
-409,584	221,550	0,057	0,067
-408,569	353,582	-0,070	0,101
-407,555	95,961	0,160	0,133
-406,540	-45,135	0,137	0,049
-405,525	800,000	-0,015	-0,039
-404,511	351,358	-0,010	-0,015
-403,496	800,000	-0,016	0,049
-402,482	800,000	0,048	-0,123
-401,467	-123,876	-0,045	-0,005
-400,452	49,506	0,044	0,030
-399,438	-84,006	0,120	-0,028
-398,423	-63,568	0,049	-0,015
-397,409	-162,863	0,136	0,005
-396,394	800,000	0,061	0,155
-395,379	-200,000	0,001	0,098
-394,365	800,000	0,043	0,114
-393,350	47,060	-0,074	0,050
-392,336	90,602	0,029	-0,024
-391,321	451,510	0,087	0,141
-390,306	-200,000	-0,039	-0,134
-389,292	800,000	-0,008	-0,018
-388,277	-200,000	-0,002	0,041
-387,263	-200,000	-0,007	0,039
-386,248	-200,000	0,015	-0,090
-385,233	46,084	-0,049	0,033
-384,219	343,478	-0,033	0,047
-383,204	60,126	-0,065	0,047
-382,190	152,126	0,030	0,030
-381,175	66,030	-0,050	-0,037
-380,160	-200,000	0,000	-0,014
-379,146	800,000	-0,030	0,064
-378,131	-106,508	-0,150	0,024
-377,117	98,066	0,093	0,077
-376,102	-40,720	-0,102	0,038
-375,088	680,437	-0,055	-0,105
-374,073	12,559	-0,166	-0,093
-373,058	105,031	-0,041	-0,035
-372,044	-125,178	0,146	0,016
-371,029	101,309	0,061	0,052
-370,015	-200,000	-0,014	0,068
-369,000	-200,000	0,002	0,037
-367,985	258,125	0,016	-0,020
-366,971	-200,000	0,017	-0,124
-365,956	-140,103	0,152	0,011
-364,942	-119,527	-0,071	0,009
-363,927	-200,000	0,033	0,129
-362,912	-50,735	-0,079	-0,027
-361,898	-200,000	-0,012	-0,094
-360,883	-179,605	-0,159	0,002
-359,869	-57,620	-0,020	-0,006
-358,854	-200,000	-0,008	-0,031
-357,839	-63,960	0,024	0,007
-356,825	-22,492	-0,029	-0,013
-355,810	-49,966	0,041	0,014
-354,796	-200,000	0,016	-0,158
-353,781	306,353	-0,060	-0,081
-352,766	68,851	0,032	-0,024
-351,752	-38,514	0,103	-0,039
-350,737	60,469	-0,098	0,070
-349,723	-113,188	0,038	0,005
-348,708	-200,000	-0,026	0,182
-347,693	35,551	-0,147	0,093
-346,679	-116,964	0,087	-0,011
-345,664	-200,000	-0,004	-0,022
-344,650	358,692	0,106	-0,154
-343,635	-47,196	0,239	0,084
-342,620	-13,814	-0,138	0,065
-341,606	-200,000	0,016	0,105
-340,591	99,864	0,042	-0,035
-339,577	54,389	-0,034	-0,024
-338,562	59,076	-0,041	0,029
-337,548	256,131	0,032	0,040
-336,533	800,000	0,011	0,028
-335,518	159,741	0,065	0,066
-334,504	264,480	0,061	-0,077
-333,489	-112,769	-0,087	-0,012
-332,475	-200,000	0,009	-0,028
-331,460	355,544	0,041	-0,060
-330,445	-200,000	-0,002	-0,059
-329,431	800,000	0,013	-0,028
-328,416	-200,000	0,011	0,097
-327,402	-140,349	-0,115	0,009
-326,387	-71,303	-0,084	-0,023
-325,372	122,411	0,067	-0,061
-324,358	62,059	-0,063	-0,046
-323,343	218,687	0,049	-0,057
-322,329	-87,379	-0,120	-0,026
-321,314	290,086	-0,019	0,025
-320,299	-101,888	0,055	0,010
-319,285	-200,000	0,003	0,015
-318,270	12,387	0,028	0,016
-317,256	46,805	0,097	-0,065
-316,241	800,000	0,024	-0,074
-315,226	-52,150	-0,034	0,011
-314,212	-33,798	-0,039	-0,015
-313,197	-105,809	0,127	-0,021
-312,183	-114,871	0,106	-0,015
-311,168	800,000	-0,064	-0,164
-310,153	-137,150	0,109	-0,009
-309,139	273,755	0,094	0,120
-308,124	-195,619	0,162	0,001
-307,110	50,968	0,080	0,055
-306,095	-200,000	-0,006	0,064
-305,080	-119,999	-0,111	-0,014
-304,066	-61,869	0,074	0,022
-303,051	-141,060	-0,112	-0,008
-302,037	800,000	0,090	-0,182
-301,022	-181,777	-0,082	0,001
-300,008	262,899	-0,048	-0,061
-298,993	-159,373	-0,075	-0,003
-297,978	34,714	0,097	0,061
-296,964	-88,841	0,088	0,019
-295,949	800,000	-0,085	-0,237
-294,935	373,130	0,050	0,073
-293,920	-86,546	0,036	0,008
-292,905	362,074	-0,047	0,069
-291,891	-37,828	0,043	0,017
-290,876	-200,000	0,033	0,233
-289,862	-110,439	0,120	0,018
-288,847	-5,552	-0,093	0,046
-287,832	226,576	-0,041	-0,049
-286,818	-145,932	0,087	-0,005
-285,803	-200,000	-0,003	0,075
-284,789	65,712	0,116	0,085
-283,774	800,000	-0,026	0,070
-282,759	-54,686	-0,096	0,031
-281,745	321,992	-0,160	-0,221
-280,730	800,000	-0,031	0,074
-279,716	-200,000	-0,002	0,101
-278,701	800,000	-0,045	-0,109
-277,686	-33,389	0,177	0,070
-276,672	-38,438	-0,123	0,047
-275,657	800,000	-0,040	-0,126
-274,643	-200,000	-0,008	-0,045
-273,628	-101,256	-0,107	-0,019
-272,613	44,535	-0,077	-0,051
-271,599	-200,000	0,004	-0,076
-270,584	-200,000	0,011	-0,060
-269,570	81,236	-0,063	0,049
-268,555	69,827	0,055	0,041
-267,540	-200,000	-0,010	-0,086
-266,526	-3,738	0,106	-0,053
-265,511	-200,000	-0,021	0,086
-264,497	167,809	0,143	0,147
-263,482	120,864	-0,076	0,069
-262,467	131,908	-0,047	-0,044
-261,453	800,000	0,040	-0,087
-260,438	278,247	0,112	-0,145
-259,424	552,884	0,053	-0,093
-258,409	470,355	-0,068	-0,111
-257,395	-11,761	-0,017	-0,008
-256,380	-26,191	0,130	0,055
-255,365	-146,764	0,068	0,004
-254,351	-200,000	-0,006	-0,020
-253,336	-200,000	0,020	0,098
-252,322	-103,301	0,033	0,006
-251,307	209,083	-0,033	-0,037
-250,292	-116,437	0,150	0,020
-249,278	112,160	0,073	0,064
-248,263	68,140	0,026	-0,020
-247,249	800,000	0,062	0,128
-246,234	-132,823	-0,141	-0,013
-245,219	-200,000	-0,009	-0,117
-244,205	332,496	-0,065	0,092
-243,190	-5,499	0,083	0,041
-242,176	218,994	0,170	0,197
-241,161	218,334	-0,087	0,100
-240,146	171,727	0,057	0,060
-239,132	-200,000	0,015	-0,109
-238,117	165,208	-0,155	-0,159
-237,103	-39,439	0,091	-0,034
-236,088	1,656	0,120	0,062
-235,073	-82,205	0,078	0,018
-234,059	107,387	-0,071	-0,061
-233,044	393,200	-0,029	-0,044
-232,030	-143,400	-0,053	0,004
-231,015	46,927	-0,079	-0,053
-230,000	-33,610	-0,112	-0,044
-228,986	-200,000	0,009	0,085
-227,971	-24,947	0,112	-0,048
-226,957	-132,884	0,048	-0,004
-225,942	219,744	0,103	-0,119
-224,927	333,443	0,040	0,056
-223,913	36,158	-0,084	-0,053
-222,898	204,227	-0,014	-0,016
-221,884	800,000	-0,069	0,162
-220,869	-61,238	0,134	0,041
-219,855	-200,000	-0,023	0,111
-218,840	35,222	0,070	0,044
-217,825	-22,143	-0,063	0,028
-216,811	-200,000	-0,009	0,114
-215,796	800,000	-0,003	-0,009
-214,782	317,699	-0,079	-0,108
-213,767	72,514	0,084	-0,064
-212,752	86,673	0,102	0,082
-211,738	39,072	0,036	0,023
-210,723	55,211	-0,124	-0,086
-209,709	269,101	-0,071	0,090
-208,694	800,000	-0,020	-0,049
-207,679	800,000	-0,029	-0,063
-206,665	107,194	-0,017	0,015
-205,650	153,249	-0,048	-0,048
-204,636	489,771	-0,032	0,053
-203,621	-200,000	0,039	-0,145
-202,606	-159,180	-0,150	-0,006
-201,592	800,000	0,055	-0,141
-200,577	-200,000	-0,032	-0,174
-199,563	-200,000	0,008	0,046
-198,548	692,764	0,074	0,141
-197,533	-200,000	-0,009	-0,113
-196,519	800,000	-0,011	0,035
-195,504	-83,878	0,093	-0,021
-194,490	-113,838	-0,060	0,008
-193,475	343,279	-0,038	-0,054
-192,460	-139,018	0,062	-0,005
-191,446	140,798	0,018	-0,017
-190,431	-200,000	0,003	-0,055
-189,417	216,526	-0,042	0,048
-188,402	241,775	0,066	-0,080
-187,387	188,357	-0,019	-0,020
-186,373	124,214	-0,051	0,046
-185,358	-146,210	-0,114	-0,007
-184,344	-95,067	0,067	0,013
-183,329	-115,301	0,076	0,010
-182,315	303,689	-0,048	-0,064
-181,300	286,356	0,076	0,099
-180,285	-200,000	-0,005	-0,087
-179,271	-116,845	0,034	-0,005
-178,256	435,725	-0,096	-0,151
-177,242	50,302	0,139	-0,095
-176,227	259,780	0,119	0,148
-175,212	800,000	-0,037	-0,093
-174,198	-121,717	-0,051	-0,006
-173,183	-104,238	0,074	0,012
-172,169	60,300	0,087	-0,062
-171,154	-200,000	-0,016	-0,273
-170,139	800,000	-0,072	0,197
-169,125	-66,211	0,140	-0,040
-168,110	800,000	0,027	0,084
-167,096	3,513	-0,040	-0,021
-166,081	-200,000	-0,008	-0,070
-165,066	-55,916	0,057	0,018
-164,052	-33,409	-0,101	-0,040
-163,037	-200,000	-0,043	0,147
-162,023	-200,000	0,047	0,162
-161,008	302,128	0,022	-0,030
-159,993	-41,539	-0,081	0,030
-158,979	1,993	-0,069	0,036
-157,964	-200,000	-0,011	0,083
-156,950	164,692	-0,061	-0,062
-155,935	-84,055	-0,038	0,009
-154,920	-92,415	0,089	0,018
-153,906	287,947	-0,052	-0,068
-152,891	380,500	-0,082	0,122
-151,877	800,000	-0,026	-0,055
-150,862	60,435	0,096	-0,069
-149,847	-200,000	-0,025	-0,119
-148,833	800,000	0,056	-0,153
-147,818	439,957	0,035	-0,056
-146,804	-54,483	0,122	-0,040
-145,789	332,586	-0,052	0,073
-144,775	-200,000	0,013	0,130
-143,760	91,522	-0,041	-0,033
-142,745	800,000	0,018	0,048
-141,731	63,745	-0,045	0,032
-140,716	-200,000	-0,013	-0,073
-139,702	-17,594	0,074	0,033
-138,687	427,903	-0,024	-0,038
-137,672	241,234	-0,031	-0,037
-136,658	548,308	0,042	-0,072
-135,643	84,477	-0,022	0,017
-134,629	191,364	-0,041	0,045
-133,614	96,902	0,089	-0,074
-132,599	-90,272	-0,046	-0,010
-131,585	800,000	-0,057	-0,122
-130,570	299,007	0,041	0,054
-129,556	6,855	-0,122	-0,065
-128,541	-67,594	0,044	-0,012
-127,526	196,909	-0,075	0,082
-126,512	23,781	-0,067	0,040
-125,497	800,000	-0,030	0,072
-124,483	175,075	-0,074	-0,078
-123,468	-66,740	-0,080	0,023
-122,453	394,763	0,048	-0,072
-121,439	83,249	-0,092	0,072
-120,424	19,084	0,066	-0,038
-119,410	471,526	0,078	0,126
