DTS Sentinel unit serial number:	SN410029Multiplexer serial number:	ORYXHardware model number:	OX2-SRSoftware version number:	ORYX F/W v4,00 Oryx Data Collector v3.7.2.0data status	okinstallation	B5 Nyhavnadifferential loss correction	single-endedforward channel	channel 2reverse channel	N/Adate	2023/12/12time	08:07:13forward acquisition time	300,00reverse acquisition time	0,00gamma	499,1914k internal	0,3158k external	0,3158temperature offset calibration	1,0000default loss term (dB/km)	0,3820temperature slope calibration	1,0000multiplexer offset coefficient	1,0000multiplexer slope coefficient	1,0000fibre end	0,00T internal ref (°C)	15,12T ext. ref 1 (°C)	-1,25T ext. ref 2 (°C)	-1,52length (m)	temperature (°C)	Stokes	anti-Stokes-744,400	-200,000	-0,006	-0,031
-743,385	-132,851	-0,294	-0,027
-742,371	54,370	0,107	-0,076
-741,356	-146,925	-0,196	-0,012
-740,342	-200,000	0,056	-0,000
-739,327	-68,133	-0,360	-0,103
-738,312	-120,079	0,149	0,019
-737,298	-31,735	-0,269	-0,111
-736,283	-200,000	0,001	0,005
-735,269	-125,603	-0,216	0,024
-734,254	433,192	0,052	-0,083
-733,239	-75,757	-0,510	-0,132
-732,225	-176,997	0,160	-0,003
-731,210	69,125	0,037	0,028
-730,196	800,000	-0,010	-0,032
-729,181	109,491	0,078	-0,069
-728,167	-12,293	-0,050	0,024
-727,152	-200,000	-0,014	-0,071
-726,137	800,000	0,033	0,094
-725,123	-87,869	-0,031	-0,007
-724,108	-200,000	-0,020	-0,187
-723,094	322,754	-0,088	-0,123
-722,079	109,544	-0,103	-0,091
-721,064	-200,000	0,025	-0,123
-720,050	-67,298	0,071	0,020
-719,035	-200,000	-0,028	-0,156
-718,021	-200,000	-0,006	-0,054
-717,006	494,160	-0,069	-0,117
-715,991	42,205	-0,091	-0,061
-714,977	189,268	-0,052	0,057
-713,962	258,607	-0,059	-0,075
-712,948	-20,667	0,212	-0,096
-711,933	-110,590	-0,064	-0,010
-710,918	800,000	0,023	0,066
-709,904	-112,125	-0,072	-0,011
-708,889	800,000	0,096	-0,220
-707,875	-125,872	-0,161	0,018
-706,860	800,000	-0,053	0,151
-705,845	-200,000	-0,080	0,000
-704,831	87,260	-0,069	0,056
-703,816	-118,287	0,189	0,024
-702,802	422,330	-0,067	-0,106
-701,787	516,501	-0,047	0,081
-700,772	-77,316	-0,119	-0,030
-699,758	740,304	0,056	-0,111
-698,743	-147,685	0,084	-0,005
-697,729	454,999	0,034	-0,056
-696,714	340,134	-0,090	0,129
-695,699	-42,941	-0,055	-0,020
-694,685	-5,994	-0,087	-0,043
-693,670	-136,240	0,084	-0,007
-692,656	274,619	-0,036	0,047
-691,641	-86,109	0,164	0,037
-690,627	278,949	-0,131	0,173
-689,612	-114,356	0,070	-0,010
-688,597	-19,084	0,064	-0,029
-687,583	-200,000	0,013	-0,125
-686,568	-162,744	-0,082	0,003
-685,554	-3,825	0,038	0,019
-684,539	205,024	-0,032	0,037
-683,524	41,626	-0,063	0,042
-682,510	-49,050	-0,137	-0,048
-681,495	273,440	-0,060	-0,078
-680,481	-3,921	-0,103	0,052
-679,466	-200,000	0,009	-0,060
-678,451	371,263	-0,034	-0,052
-677,437	314,456	0,088	-0,123
-676,422	800,000	-0,070	-0,203
-675,408	-200,000	0,005	0,056
-674,393	-77,118	-0,065	-0,016
-673,378	83,237	-0,072	-0,058
-672,364	-200,000	-0,016	-0,192
-671,349	800,000	-0,027	0,080
-670,335	222,471	0,157	0,186
-669,320	800,000	0,035	0,071
-668,305	360,004	0,047	0,069
-667,291	222,686	-0,037	-0,043
-666,276	800,000	-0,091	-0,186
-665,262	77,328	0,048	0,038
-664,247	800,000	-0,008	-0,024
-663,232	110,310	-0,036	-0,032
-662,218	-24,732	0,106	-0,046
-661,203	800,000	-0,059	0,179
-660,189	52,333	0,198	0,138
-659,174	-6,003	-0,045	0,023
-658,159	273,042	-0,045	-0,059
-657,145	94,575	-0,117	-0,098
-656,130	174,286	0,079	0,083
-655,116	325,773	0,064	0,090
-654,101	240,719	-0,048	0,059
-653,086	35,093	-0,215	-0,138
-652,072	-200,000	-0,023	-0,226
-651,057	414,824	-0,091	-0,142
-650,043	261,727	0,036	-0,045
-649,028	-200,000	-0,032	-0,196
-648,014	684,452	0,092	0,177
-646,999	52,913	-0,074	-0,052
-645,984	709,890	0,034	0,067
-644,970	-200,000	-0,016	0,064
-643,955	83,383	-0,149	-0,119
-642,941	16,501	0,158	-0,091
-641,926	-157,967	-0,135	-0,006
-640,911	800,000	-0,009	-0,027
-639,897	-200,000	-0,009	0,088
-638,882	-200,000	0,007	-0,134
-637,868	-200,000	-0,047	-0,000
-636,853	-132,929	-0,066	0,006
-635,838	-200,000	0,049	-0,160
-634,824	668,511	-0,032	0,061
-633,809	-200,000	0,002	0,062
-632,795	-200,000	0,004	0,027
-631,780	-66,219	-0,036	0,010
-630,765	136,384	0,122	0,117
-629,751	454,725	0,031	0,051
-628,736	140,061	-0,081	-0,079
-627,722	-184,632	0,216	-0,002
-626,707	-11,463	-0,049	-0,024
-625,692	-36,892	-0,135	0,053
-624,678	-91,669	0,043	-0,009
-623,663	224,723	0,130	-0,155
-622,649	-15,537	-0,128	0,060
-621,634	7,241	-0,117	-0,064
-620,619	116,489	-0,069	-0,062
-619,605	396,090	0,044	-0,068
-618,590	292,654	0,061	0,082
-617,576	-200,000	0,001	-0,011
-616,561	-165,360	0,033	-0,001
-615,546	800,000	-0,027	0,076
-614,532	-170,246	-0,080	-0,002
-613,517	-200,000	-0,005	-0,020
-612,503	-37,239	0,085	-0,033
-611,488	-90,409	-0,066	0,014
-610,474	131,913	0,042	0,040
-609,459	41,611	0,005	0,003
-608,444	-138,779	-0,109	-0,009
-607,430	204,188	-0,112	-0,128
-606,415	-0,292	-0,059	0,031
-605,401	244,924	0,100	0,124
-604,386	-77,762	0,030	0,007
-603,371	-200,000	0,033	0,180
-602,357	-75,686	-0,078	-0,020
-601,342	23,781	-0,151	-0,091
-600,328	-5,249	-0,089	0,045
-599,313	-36,876	-0,052	0,020
-598,298	80,731	0,114	0,090
-597,284	385,480	0,011	0,017
-596,269	-104,946	-0,104	0,017
-595,255	74,218	0,054	-0,041
-594,240	491,897	0,032	-0,055
-593,225	-36,951	-0,108	-0,042
-592,211	327,086	0,015	-0,021
-591,196	800,000	-0,022	-0,061
-590,182	-46,415	-0,151	0,054
-589,167	-200,000	-0,003	0,149
-588,152	800,000	0,022	-0,062
-587,138	290,531	0,020	-0,026
-586,123	139,614	0,069	-0,067
-585,109	-87,969	-0,096	-0,021
-584,094	652,527	0,040	-0,076
-583,079	-200,000	0,012	-0,039
-582,065	123,197	0,114	0,105
-581,050	-95,591	-0,098	0,019
-580,036	113,484	0,153	0,136
-579,021	-85,325	0,046	0,010
-578,006	-68,830	-0,088	-0,025
-576,992	164,179	0,072	0,074
-575,977	-200,000	0,020	-0,093
-574,963	7,800	0,071	0,039
-573,948	-200,000	0,000	-0,061
-572,934	18,742	0,035	0,020
-571,919	131,301	-0,108	-0,102
-570,904	46,031	-0,113	-0,077
-569,890	-192,776	0,087	0,001
-568,875	-200,000	-0,011	0,052
-567,861	178,953	0,092	0,099
-566,846	-200,000	-0,013	-0,087
-565,831	-133,122	-0,026	0,002
-564,817	-121,226	0,085	-0,010
-563,802	388,858	0,010	0,016
-562,788	8,843	-0,115	-0,063
-561,773	-200,000	0,000	-0,071
-560,758	178,330	-0,038	-0,040
-559,744	195,462	-0,072	0,080
-558,729	800,000	0,023	0,062
-557,715	113,208	0,023	0,020
-556,700	-41,644	0,055	-0,021
-555,685	-200,000	0,019	-0,092
-554,671	-200,000	-0,001	-0,086
-553,656	249,885	0,027	0,033
-552,642	295,465	0,042	0,057
-551,627	102,460	-0,037	-0,031
-550,612	800,000	0,026	-0,063
-549,598	800,000	-0,024	-0,059
-548,583	93,169	-0,051	0,042
-547,569	800,000	-0,044	-0,134
-546,554	390,890	-0,030	-0,045
-545,539	-200,000	-0,014	0,147
-544,525	-200,000	-0,009	0,069
-543,510	140,977	0,026	0,026
-542,496	-200,000	-0,043	-0,182
-541,481	-84,570	0,056	-0,013
-540,466	366,286	-0,043	-0,063
-539,452	-31,353	-0,025	0,010
-538,437	-180,738	-0,082	-0,001
-537,423	280,443	-0,059	0,078
-536,408	-21,405	-0,052	0,023
-535,393	-52,413	-0,089	-0,030
-534,379	512,055	0,034	-0,058
-533,364	-99,687	0,127	-0,023
-532,350	-86,663	0,112	-0,025
-531,335	231,707	0,027	0,032
-530,321	639,858	-0,075	-0,140
-529,306	290,671	0,027	-0,035
-528,291	110,796	0,065	-0,057
-527,277	-61,062	-0,049	-0,015
-526,262	800,000	-0,015	-0,034
-525,248	-171,836	0,172	0,004
-524,233	800,000	-0,016	-0,051
-523,218	14,113	0,025	-0,014
-522,204	6,527	0,100	-0,054
-521,189	104,836	-0,125	-0,108
-520,175	11,419	-0,032	-0,018
-519,160	358,669	-0,071	-0,104
-518,145	665,094	0,048	0,090
-517,131	-68,956	0,097	0,027
-516,116	797,488	0,008	-0,016
-515,102	252,010	0,052	0,064
-514,087	13,520	0,103	0,058
-513,072	-153,666	0,107	0,005
-512,058	800,000	-0,026	-0,079
-511,043	314,817	0,111	-0,153
-510,029	30,675	-0,040	-0,025
-509,014	337,530	0,052	0,074
-507,999	43,975	-0,083	-0,055
-506,985	183,643	-0,082	0,088
-505,970	121,517	-0,142	-0,129
-504,956	800,000	0,052	-0,153
-503,941	641,737	0,037	-0,069
-502,926	120,014	-0,078	0,070
-501,912	223,539	0,075	0,089
-500,897	448,530	-0,056	0,091
-499,883	284,466	0,081	0,107
-498,868	-23,189	-0,046	0,020
-497,853	353,375	-0,086	-0,125
-496,839	-200,000	-0,011	-0,087
-495,824	197,483	0,090	0,101
-494,810	-20,375	0,159	0,071
-493,795	-129,906	0,080	0,008
-492,781	-59,946	-0,139	0,043
-491,766	-12,338	0,042	0,020
-490,751	557,468	-0,037	-0,065
-489,737	-200,000	-0,023	0,129
-488,722	-200,000	-0,022	0,180
-487,708	-77,852	-0,114	-0,029
-486,693	-200,000	-0,026	0,092
-485,678	-138,963	-0,147	0,011
-484,664	-200,000	0,006	-0,094
-483,649	-126,093	0,043	0,005
-482,635	10,787	0,095	-0,053
-481,620	800,000	0,033	0,085
-480,605	800,000	0,046	0,104
-479,591	85,625	-0,074	0,059
-478,576	2,921	-0,084	0,044
-477,562	258,385	-0,039	0,049
-476,547	-200,000	-0,015	0,103
-475,532	209,354	-0,034	0,039
-474,518	800,000	-0,040	0,084
-473,503	-200,000	-0,007	0,095
-472,489	-200,000	0,018	-0,064
-471,474	167,305	0,087	0,091
-470,459	-28,341	-0,171	-0,072
-469,445	18,866	-0,032	-0,018
-468,430	594,676	0,061	-0,111
-467,416	-13,871	0,070	0,033
-466,401	460,974	-0,060	0,099
-465,386	-3,706	0,041	0,021
-464,372	-200,000	0,011	-0,163
-463,357	-200,000	-0,016	0,061
-462,343	90,296	-0,042	-0,034
-461,328	-200,000	-0,008	-0,051
-460,313	507,426	0,044	0,075
-459,299	-41,622	0,070	-0,026
-458,284	-200,000	-0,002	0,178
-457,270	462,019	-0,035	0,057
-456,255	800,000	0,049	0,103
-455,241	-65,770	-0,099	0,029
-454,226	-92,241	-0,057	-0,012
-453,211	94,400	0,120	0,100
-452,197	398,052	-0,024	0,036
-451,182	-200,000	0,006	0,043
-450,168	22,909	0,085	-0,050
-449,153	98,991	-0,019	0,016
-448,138	-200,000	-0,121	-0,000
-447,124	-5,554	0,030	-0,015
-446,109	-200,000	-0,001	-0,105
-445,095	23,679	0,026	0,016
-444,080	164,457	-0,042	-0,043
-443,065	306,097	-0,043	0,059
-442,051	-114,931	0,018	-0,002
-441,036	-39,007	-0,160	-0,061
-440,022	-134,848	0,083	-0,007
-439,007	233,255	0,043	-0,051
-437,992	800,000	0,052	0,124
-436,978	423,368	0,095	0,149
-435,963	-29,468	-0,051	0,021
-434,949	112,430	-0,008	-0,007
-433,934	101,786	0,081	-0,069
-432,919	260,680	-0,024	-0,031
-431,905	78,788	-0,127	0,099
-430,890	-13,057	-0,069	0,032
-429,876	-28,151	-0,060	-0,025
-428,861	191,172	0,058	-0,063
-427,846	800,000	-0,019	0,055
-426,832	800,000	0,038	-0,118
-425,817	450,688	0,034	-0,056
-424,803	-126,570	0,031	-0,003
-423,788	474,836	0,025	0,041
-422,773	-57,237	0,162	0,052
-421,759	363,307	0,057	0,084
-420,744	33,953	0,023	0,014
-419,730	-54,442	-0,141	0,046
-418,715	99,019	-0,095	-0,079
-417,701	797,953	-0,017	0,034
-416,686	-116,659	-0,062	-0,008
-415,671	632,253	0,056	-0,103
-414,657	-98,103	-0,050	-0,009
-413,642	-65,182	0,020	-0,006
-412,628	-36,608	0,154	0,060
-411,613	800,000	-0,065	-0,139
-410,598	-147,432	-0,137	-0,008
-409,584	799,717	0,034	-0,069
-408,569	-200,000	-0,007	-0,037
-407,555	96,676	-0,066	-0,055
-406,540	-200,000	-0,002	-0,048
-405,525	38,023	0,076	-0,049
-404,511	-200,000	0,005	-0,193
-403,496	800,000	-0,015	-0,047
-402,482	71,298	-0,036	0,027
-401,467	-65,261	-0,032	0,009
-400,452	800,000	-0,021	0,053
-399,438	-56,057	0,160	-0,052
-398,423	-200,000	0,001	0,044
-397,409	-25,632	-0,063	0,027
-396,394	-95,690	-0,091	-0,018
-395,379	-139,658	-0,109	0,008
-394,365	86,701	0,075	-0,060
-393,350	-126,275	-0,099	-0,011
-392,336	-105,791	0,127	0,021
-391,321	241,153	0,021	-0,026
-390,306	-81,844	-0,214	-0,051
-389,292	203,371	-0,028	0,031
-388,277	96,078	-0,043	-0,036
-387,263	800,000	0,032	-0,077
-386,248	-111,356	-0,106	-0,016
-385,233	157,747	-0,042	-0,042
-384,219	-165,404	0,100	0,003
-383,204	399,327	-0,063	-0,096
-382,190	-200,000	0,043	-0,240
-381,175	800,000	-0,036	0,073
-380,160	51,816	-0,096	-0,066
-379,146	-200,000	0,004	-0,045
-378,131	800,000	0,039	0,083
-377,117	239,054	0,040	-0,049
-376,102	800,000	-0,037	-0,093
-375,088	-33,103	0,167	-0,067
-374,073	-200,000	-0,001	0,021
-373,058	335,409	-0,021	0,030
-372,044	-200,000	0,020	0,094
-371,029	-200,000	-0,021	0,100
-370,015	279,772	-0,110	0,143
-369,000	115,362	-0,022	-0,020
-367,985	137,135	0,026	-0,025
-366,971	334,442	-0,021	-0,030
-365,956	-41,686	0,148	0,055
-364,942	-168,519	0,096	0,003
-363,927	-54,437	0,126	0,041
-362,912	-52,076	-0,144	0,048
-361,898	331,021	0,032	-0,045
-360,883	-200,000	0,013	-0,153
-359,869	70,180	0,100	-0,075
-358,854	217,851	-0,023	0,027
-357,839	26,112	0,082	-0,050
-356,825	-200,000	0,006	-0,078
-355,810	152,029	-0,023	0,022
-354,796	-129,179	-0,019	-0,002
-353,781	-96,898	-0,138	0,026
-352,766	188,838	-0,073	0,079
-351,752	531,552	-0,057	0,098
-350,737	800,000	0,015	0,038
-349,723	38,823	0,124	0,080
-348,708	-200,000	-0,004	0,016
-347,693	89,044	-0,080	0,064
-346,679	-115,727	-0,098	0,013
-345,664	-29,080	-0,033	0,014
-344,650	79,086	0,161	0,125
-343,635	3,929	0,067	-0,036
-342,620	-115,034	0,125	0,017
-341,606	-178,166	-0,084	0,001
-340,591	318,683	-0,050	0,069
-339,577	-39,664	0,060	-0,023
-338,562	66,297	-0,023	0,017
-337,548	118,045	0,106	0,095
-336,533	-200,000	0,000	0,091
-335,518	800,000	0,044	0,122
-334,504	618,289	-0,035	0,063
-333,489	-147,253	-0,030	-0,002
-332,475	-32,948	-0,187	0,075
-331,460	98,637	-0,060	-0,050
-330,445	-94,385	0,162	-0,032
-329,431	-200,000	-0,001	0,013
-328,416	-200,000	0,032	0,132
-327,402	584,917	-0,023	0,041
-326,387	-200,000	-0,036	-0,163
-325,372	9,397	-0,081	0,044
-324,358	442,193	0,067	-0,107
-323,343	-25,163	0,071	0,030
-322,329	-60,660	-0,108	0,033
-321,314	512,655	0,051	0,087
-320,299	53,034	0,110	0,076
-319,285	196,427	-0,059	-0,066
-318,270	-19,893	-0,054	-0,024
-317,256	-4,729	-0,033	0,017
-316,241	75,517	0,131	0,100
-315,226	-112,986	0,183	0,026
-314,212	-79,417	0,086	0,021
-313,197	800,000	0,053	0,129
-312,183	-125,533	0,093	-0,010
-311,168	-200,000	-0,010	-0,068
-310,153	218,333	0,058	0,067
-309,139	3,730	0,096	-0,051
-308,124	531,149	0,017	-0,030
-307,110	570,156	0,021	0,037
-306,095	503,928	-0,005	-0,008
-305,080	712,004	-0,059	0,114
-304,066	114,190	-0,079	-0,069
-303,051	191,935	0,040	0,044
-302,037	-40,560	0,088	-0,033
-301,022	161,005	0,049	-0,049
-300,008	-98,015	-0,131	-0,024
-298,993	-81,730	-0,128	-0,030
-297,978	-200,000	-0,006	0,041
-296,964	147,022	0,095	-0,093
-295,949	-200,000	0,020	0,078
-294,935	798,897	-0,034	-0,068
-293,920	-200,000	0,013	-0,087
-292,905	800,000	0,022	0,066
-291,891	-130,039	0,162	-0,016
-290,876	800,000	-0,006	0,015
-289,862	-25,540	0,062	0,027
-288,847	800,000	-0,041	-0,104
-287,832	-200,000	-0,004	-0,153
-286,818	56,918	-0,011	0,007
-285,803	-200,000	-0,007	-0,124
-284,789	89,410	0,146	0,118
-283,774	800,000	0,021	-0,065
-282,759	-200,000	-0,027	0,102
-281,745	59,988	-0,069	0,050
-280,730	800,000	-0,064	-0,178
-279,716	-6,790	0,073	0,036
-278,701	66,399	-0,024	0,018
-277,686	800,000	0,051	0,140
-276,672	430,326	0,024	-0,037
-275,657	70,661	0,109	-0,082
-274,643	-200,000	-0,009	-0,142
-273,628	-0,294	0,040	-0,020
-272,613	33,897	-0,055	-0,035
-271,599	250,713	0,016	-0,020
-270,584	-24,174	0,081	-0,035
-269,570	-5,646	-0,004	0,002
-268,555	-29,640	-0,040	0,017
-267,540	-72,730	-0,051	0,014
-266,526	-139,169	-0,067	0,005
-265,511	-200,000	-0,000	0,129
-264,497	-15,538	0,095	0,044
-263,482	-122,618	-0,031	-0,004
-262,467	-67,771	0,102	-0,029
-261,453	182,078	-0,072	0,076
-260,438	-200,000	0,035	-0,115
-259,424	-200,000	-0,019	-0,153
-258,409	16,481	0,148	-0,085
-257,395	800,000	0,012	0,035
-256,380	-26,792	-0,037	-0,015
-255,365	331,918	0,104	0,146
-254,351	800,000	0,055	0,130
-253,336	-200,000	0,022	-0,150
-252,322	428,713	0,048	-0,076
-251,307	55,572	0,049	-0,034
-250,292	355,793	0,066	0,095
-249,278	44,368	0,126	0,083
-248,263	56,366	0,034	-0,024
-247,249	180,092	-0,078	-0,082
-246,234	-170,651	-0,044	0,001
-245,219	-23,078	0,031	-0,013
-244,205	-0,745	0,030	-0,015
-243,190	-163,244	-0,177	-0,006
-242,176	-124,405	0,150	-0,017
-241,161	-64,239	-0,089	0,026
-240,146	-200,000	0,001	0,047
-239,132	29,094	0,063	0,038
-238,117	-9,688	0,054	0,026
-237,103	-200,000	-0,025	-0,113
-236,088	96,336	-0,066	-0,055
-235,073	800,000	0,057	-0,152
-234,059	-31,779	0,170	0,069
-233,044	377,884	-0,069	0,103
-232,030	-85,824	0,067	-0,015
-231,015	800,000	0,024	-0,071
-230,000	-69,612	-0,075	-0,021
-228,986	-29,824	-0,136	0,056
-227,971	19,788	0,045	0,026
-226,957	8,823	0,146	0,079
-225,942	-103,811	0,157	0,026
-224,927	-200,000	0,005	0,076
-223,913	389,848	-0,066	-0,100
-222,898	95,306	-0,027	0,022
-221,884	12,434	0,012	-0,006
-220,869	83,081	0,038	0,030
-219,855	386,450	-0,019	-0,029
-218,840	451,892	-0,065	0,104
-217,825	-2,160	-0,091	0,046
-216,811	-58,744	-0,065	-0,020
-215,796	-28,546	-0,031	-0,013
-214,782	-48,154	0,066	0,023
-213,767	98,976	0,146	0,122
-212,752	361,767	0,075	0,109
-211,738	800,000	-0,059	0,119
-210,723	-17,059	-0,168	0,076
-209,709	-14,885	-0,053	-0,024
-208,694	-200,000	0,029	0,099
-207,679	260,426	0,021	-0,026
-206,665	800,000	-0,035	0,093
-205,650	30,958	-0,098	0,060
-204,636	-200,000	-0,025	0,084
-203,621	265,321	0,071	0,089
-202,606	-200,000	-0,013	0,054
-201,592	300,604	-0,086	-0,114
-200,577	-141,108	-0,044	-0,003
-199,563	-173,833	0,135	-0,003
-198,548	-200,000	-0,000	0,033
-197,533	89,204	-0,128	0,103
-196,519	-89,477	-0,040	-0,008
-195,504	349,596	-0,055	0,079
-194,490	-200,000	0,003	0,032
-193,475	22,340	-0,115	-0,068
-192,460	164,206	0,075	0,076
-191,446	209,900	-0,031	0,035
-190,431	-125,614	0,119	0,013
-189,417	756,346	0,087	0,171
-188,402	95,243	-0,038	0,031
-187,387	-26,554	-0,008	-0,003
-186,373	210,335	-0,023	-0,026
-185,358	-200,000	0,022	0,215
-184,344	-129,888	0,117	-0,011
-183,329	-148,949	0,024	0,001
-182,315	-34,063	-0,100	-0,040
-181,300	279,822	-0,029	0,038
-180,285	343,879	0,138	-0,196
-179,271	-130,308	-0,188	-0,018
-178,256	-200,000	0,017	-0,088
-177,242	-38,194	-0,013	-0,005
-176,227	559,556	0,066	-0,116
-175,212	137,106	0,091	-0,086
-174,198	-5,511	0,043	-0,021
-173,183	-200,000	-0,015	-0,059
-172,169	800,000	-0,003	0,007
-171,154	332,855	-0,116	-0,162
-170,139	-200,000	0,014	-0,054
-169,125	424,522	-0,019	-0,029
-168,110	72,318	0,073	-0,055
-167,096	-166,511	-0,048	-0,001
-166,081	-51,118	-0,075	-0,025
-165,066	547,767	-0,039	-0,068
-164,052	-131,461	-0,118	-0,011
-163,037	76,152	-0,007	0,006
-162,023	218,313	-0,054	0,062
-161,008	-200,000	0,033	0,123
-159,993	-39,786	-0,104	0,039
-158,979	10,283	-0,047	-0,025
-157,964	-200,000	-0,010	0,060
-156,950	713,879	-0,085	-0,164
-155,935	258,652	-0,014	-0,018
-154,920	-200,000	0,012	-0,080
-153,906	-200,000	0,036	-0,117
-152,891	800,000	0,028	-0,070
-151,877	30,771	0,061	-0,038
-150,862	-200,000	0,020	-0,084
-149,847	248,394	-0,078	-0,095
-148,833	-113,001	0,166	-0,023
-147,818	201,574	-0,072	0,080
-146,804	180,127	-0,087	0,092
-145,789	-121,348	0,156	0,018
-144,775	-102,851	-0,059	-0,010
-143,760	42,322	-0,093	-0,060
-142,745	-115,239	0,160	0,022
-141,731	13,218	0,074	0,041
-140,716	-200,000	-0,017	0,146
-139,702	65,860	0,055	0,040
-138,687	48,371	-0,076	0,051
-137,672	174,893	-0,036	0,037
-136,658	38,273	-0,078	0,050
-135,643	-141,917	0,054	0,004
-134,629	-1,334	-0,141	0,071
-133,614	-51,845	-0,028	0,009
-132,599	394,878	0,017	-0,025
-131,585	-200,000	0,031	0,173
-130,570	173,685	-0,076	0,079
-129,556	-99,700	-0,245	-0,044
-128,541	-55,681	0,055	0,018
-127,526	316,664	0,107	0,146
-126,512	-53,095	0,120	0,040
-125,497	800,000	-0,033	-0,091
-124,483	-30,103	0,029	-0,012
-123,468	77,414	0,026	0,020
-122,453	490,045	-0,087	0,144
-121,439	-4,050	-0,147	-0,073
-120,424	-200,000	-0,023	-0,110
-119,410	126,386	0,034	-0,031
-118,395	273,970	0,099	0,126
