DTS Sentinel unit serial number:	SN410029Multiplexer serial number:	ORYXHardware model number:	OX2-SRSoftware version number:	ORYX F/W v4,00 Oryx Data Collector v3.7.2.0data status	okinstallation	B5 Nyhavnadifferential loss correction	single-endedforward channel	channel 2reverse channel	N/Adate	2023/12/12time	09:07:13forward acquisition time	300,00reverse acquisition time	0,00gamma	499,1914k internal	0,3158k external	0,3158temperature offset calibration	1,0000default loss term (dB/km)	0,3820temperature slope calibration	1,0000multiplexer offset coefficient	1,0000multiplexer slope coefficient	1,0000fibre end	0,00T internal ref (°C)	15,04T ext. ref 1 (°C)	-1,31T ext. ref 2 (°C)	-1,59length (m)	temperature (°C)	Stokes	anti-Stokes-744,400	-119,147	0,046	0,006
-743,385	-129,604	-0,327	-0,033
-742,371	-54,911	0,168	0,056
-741,356	-109,159	-0,273	0,042
-740,342	-117,220	0,148	-0,020
-739,327	3,157	-0,175	-0,094
-738,312	98,175	0,024	-0,021
-737,298	-195,724	-0,325	-0,002
-736,283	800,000	0,032	0,073
-735,269	-135,033	-0,323	0,028
-734,254	-35,031	0,177	0,071
-733,239	-28,562	-0,491	-0,208
-732,225	-148,106	0,221	-0,013
-731,210	-200,000	-0,035	0,184
-730,196	-93,837	-0,039	-0,008
-729,181	-28,393	0,051	-0,022
-728,167	135,078	-0,049	-0,047
-727,152	157,546	-0,067	0,069
-726,137	84,979	-0,055	-0,044
-725,123	35,426	0,004	0,003
-724,108	549,985	0,035	-0,063
-723,094	337,766	-0,093	-0,134
-722,079	71,374	-0,156	-0,119
-721,064	-111,512	-0,080	0,012
-720,050	-200,000	-0,003	-0,035
-719,035	-200,000	-0,015	-0,146
-718,021	-200,000	0,006	-0,162
-717,006	-77,338	-0,263	-0,067
-715,991	800,000	-0,041	-0,088
-714,977	28,071	-0,082	0,051
-713,962	394,937	-0,053	-0,082
-712,948	-151,512	-0,073	0,004
-711,933	578,191	-0,081	0,146
-710,918	411,358	-0,031	0,049
-709,904	-137,303	-0,118	-0,010
-708,889	-102,374	-0,066	-0,012
-707,875	109,422	-0,064	0,056
-706,860	100,491	-0,086	0,074
-705,845	508,159	0,057	-0,097
-704,831	-200,000	0,022	0,073
-703,816	516,227	0,018	0,031
-702,802	-200,000	0,028	-0,102
-701,787	335,841	-0,004	0,006
-700,772	115,810	-0,090	-0,081
-699,758	-200,000	0,007	0,143
-698,743	800,000	-0,021	0,051
-697,729	33,998	0,124	-0,079
-696,714	22,223	-0,081	-0,049
-695,699	696,608	-0,046	0,089
-694,685	-200,000	-0,000	0,055
-693,670	800,000	-0,058	0,186
-692,656	9,099	-0,011	0,006
-691,641	375,752	0,078	0,117
-690,627	46,661	-0,060	-0,041
-689,612	800,000	0,036	-0,080
-688,597	528,967	-0,057	-0,100
-687,583	800,000	0,029	-0,081
-686,568	-79,376	-0,150	-0,037
-685,554	273,507	-0,030	0,039
-684,539	42,241	0,059	-0,039
-683,524	116,420	0,073	0,066
-682,510	175,849	-0,108	-0,115
-681,495	-200,000	0,090	0,000
-680,481	-79,350	-0,218	0,054
-679,466	-154,806	-0,183	0,009
-678,451	-200,000	0,021	-0,124
-677,437	-200,000	-0,005	0,031
-676,422	-144,048	-0,115	-0,008
-675,408	193,870	0,032	-0,035
-674,393	-66,662	-0,081	0,023
-673,378	-58,209	-0,128	-0,041
-672,364	-200,000	0,020	-0,088
-671,349	800,000	0,021	-0,054
-670,335	116,880	-0,096	-0,087
-669,320	352,991	0,078	0,114
-668,305	-31,334	-0,027	-0,011
-667,291	-0,305	0,079	-0,041
-666,276	-200,000	-0,029	-0,096
-665,262	-200,000	0,016	-0,067
-664,247	800,000	-0,028	-0,075
-663,232	649,845	0,048	0,090
-662,218	-105,207	0,050	0,008
-661,203	-200,000	0,005	-0,086
-660,189	618,697	-0,068	-0,127
-659,174	-200,000	0,003	-0,057
-658,159	-81,522	-0,207	-0,050
-657,145	800,000	-0,046	-0,141
-656,130	-49,256	-0,171	-0,060
-655,116	-49,293	-0,064	0,022
-654,101	-50,989	0,214	0,073
-653,086	800,000	-0,004	-0,008
-652,072	-200,000	0,004	-0,067
-651,057	-57,419	-0,151	0,049
-650,043	-4,614	-0,175	-0,089
-649,028	-26,881	-0,017	-0,007
-648,014	-111,572	0,025	0,004
-646,999	-14,824	-0,127	0,060
-645,984	379,386	-0,021	-0,032
-644,970	800,000	0,016	-0,047
-643,955	442,802	-0,028	0,046
-642,941	-200,000	-0,006	0,036
-641,926	-200,000	0,021	0,085
-640,911	-82,334	-0,081	0,019
-639,897	115,743	0,083	0,074
-638,882	168,016	0,022	0,023
-637,868	-25,580	0,056	0,024
-636,853	-57,125	-0,046	0,015
-635,838	13,680	-0,025	-0,014
-634,824	31,000	-0,078	0,049
-633,809	800,000	0,009	-0,020
-632,795	75,788	-0,103	-0,080
-631,780	87,272	-0,108	0,088
-630,765	245,103	-0,022	0,028
-629,751	-70,448	-0,033	-0,009
-628,736	800,000	-0,002	0,004
-627,722	328,769	0,092	-0,131
-626,707	150,601	0,101	-0,101
-625,692	-103,407	-0,059	-0,010
-624,678	310,168	0,042	0,058
-623,663	-31,830	-0,157	0,064
-622,649	152,700	-0,093	-0,093
-621,634	-200,000	-0,011	0,088
-620,619	-37,266	-0,051	-0,020
-619,605	285,162	-0,040	-0,053
-618,590	67,635	0,039	-0,029
-617,576	119,717	0,107	0,097
-616,561	-183,155	-0,079	0,001
-615,546	213,579	0,022	0,026
-614,532	99,607	-0,108	0,092
-613,517	480,762	0,032	-0,054
-612,503	73,930	0,029	0,022
-611,488	600,329	0,032	0,058
-610,474	57,792	0,039	0,028
-609,459	792,492	-0,018	0,036
-608,444	676,498	0,041	0,079
-607,430	18,857	-0,017	-0,010
-606,415	523,203	-0,020	0,034
-605,401	-200,000	0,004	0,034
-604,386	-80,208	-0,079	0,019
-603,371	-14,050	-0,145	0,068
-602,357	124,973	0,082	0,076
-601,342	49,219	-0,093	-0,064
-600,328	-67,662	-0,037	0,011
-599,313	-80,123	-0,045	-0,011
-598,298	800,000	0,044	-0,107
-597,284	214,808	-0,054	-0,063
-596,269	800,000	0,037	-0,113
-595,255	131,581	0,089	0,084
-594,240	0,421	0,088	0,046
-593,225	-124,888	-0,217	-0,024
-592,211	254,938	-0,015	-0,019
-591,196	800,000	-0,057	-0,152
-590,182	45,221	-0,181	-0,122
-589,167	88,558	-0,038	0,031
-588,152	-200,000	0,017	-0,132
-587,138	800,000	0,037	0,103
-586,123	257,348	-0,070	-0,088
-585,109	241,469	-0,082	0,100
-584,094	243,236	0,077	-0,094
-583,079	-109,957	0,094	0,014
-582,065	-57,504	0,044	-0,014
-581,050	210,724	0,055	0,064
-580,036	-42,157	-0,017	0,006
-579,021	-134,759	-0,094	0,008
-578,006	-200,000	0,019	-0,132
-576,992	800,000	0,026	-0,071
-575,977	-200,000	-0,013	-0,116
-574,963	445,137	0,032	0,052
-573,948	-27,785	-0,092	-0,039
-572,934	-200,000	0,002	-0,010
-571,919	-200,000	-0,005	0,083
-570,904	-12,664	-0,119	-0,057
-569,890	-200,000	-0,015	0,135
-568,875	157,278	0,024	0,024
-567,861	3,819	-0,043	0,023
-566,846	-182,248	0,093	-0,001
-565,831	91,280	-0,002	0,002
-564,817	-200,000	-0,004	0,021
-563,802	800,000	-0,014	-0,038
-562,788	-186,792	-0,168	-0,002
-561,773	-40,662	0,117	-0,044
-560,758	135,046	-0,051	-0,049
-559,744	5,059	-0,040	-0,021
-558,729	-197,688	0,038	-0,000
-557,715	-46,560	0,077	0,028
-556,700	687,265	-0,010	0,020
-555,685	800,000	0,020	-0,049
-554,671	218,074	-0,083	0,098
-553,656	-91,236	-0,083	-0,017
-552,642	16,178	0,088	-0,050
-551,627	67,715	-0,051	-0,038
-550,612	-93,331	-0,051	0,010
-549,598	800,000	-0,061	-0,127
-548,583	-200,000	0,033	-0,127
-547,569	132,274	0,082	-0,077
-546,554	442,299	-0,101	-0,162
-545,539	-24,470	0,048	0,021
-544,525	521,525	-0,047	-0,081
-543,510	59,990	0,120	-0,087
-542,496	-8,033	-0,097	-0,047
-541,481	310,747	0,037	-0,051
-540,466	800,000	-0,021	-0,044
-539,452	-18,840	-0,041	0,019
-538,437	765,140	0,013	-0,026
-537,423	-19,188	0,015	0,007
-536,408	800,000	0,036	-0,076
-535,393	-200,000	-0,012	-0,073
-534,379	49,071	0,112	0,077
-533,364	-137,073	0,162	0,013
-532,350	-74,104	-0,080	0,021
-531,335	-71,170	-0,055	-0,015
-530,321	-8,190	0,140	-0,069
-529,306	24,652	-0,044	-0,027
-528,291	800,000	-0,009	0,029
-527,277	20,756	-0,084	0,049
-526,262	263,184	0,088	0,112
-525,248	-29,139	-0,037	-0,016
-524,233	-200,000	0,003	-0,029
-523,218	463,952	-0,074	0,122
-522,204	-180,109	-0,226	-0,003
-521,189	141,143	-0,045	0,044
-520,175	800,000	0,023	-0,062
-519,160	31,663	0,033	0,021
-518,145	338,188	0,035	-0,050
-517,131	-200,000	-0,008	-0,070
-516,116	800,000	0,046	0,104
-515,102	-108,248	0,020	0,003
-514,087	51,804	-0,028	0,019
-513,072	16,265	-0,047	-0,027
-512,058	110,518	-0,052	0,046
-511,043	-200,000	-0,011	0,043
-510,029	83,285	0,027	-0,021
-509,014	-168,014	0,076	-0,002
-507,999	403,150	-0,017	0,027
-506,985	47,282	-0,027	-0,018
-505,970	-75,998	0,116	0,030
-504,956	471,590	0,096	0,159
-503,941	-95,369	-0,036	0,007
-502,926	-41,728	0,147	0,055
-501,912	800,000	0,031	0,067
-500,897	-78,908	0,068	0,017
-499,883	-200,000	-0,016	-0,105
-498,868	195,472	-0,069	-0,076
-497,853	148,331	0,063	0,062
-496,839	-117,934	0,098	-0,013
-495,824	-57,278	0,092	0,029
-494,810	-200,000	-0,012	0,046
-493,795	-119,570	-0,059	-0,007
-492,781	-200,000	-0,034	0,112
-491,766	-52,940	0,153	0,051
-490,751	90,103	0,117	0,095
-489,737	374,090	-0,053	-0,079
-488,722	-200,000	0,005	0,045
-487,708	676,461	0,014	0,027
-486,693	-1,752	-0,069	0,035
-485,678	157,998	-0,018	-0,018
-484,664	-131,562	-0,026	0,003
-483,649	-124,555	-0,058	-0,007
-482,635	123,440	0,103	-0,095
-481,620	-75,624	-0,112	-0,029
-480,605	-117,274	-0,112	0,015
-479,591	48,800	-0,033	-0,023
-478,576	23,187	-0,112	-0,067
-477,562	-148,601	0,141	0,008
-476,547	-94,680	-0,153	-0,030
-475,532	471,708	0,063	-0,104
-474,518	-200,000	0,011	-0,056
-473,503	800,000	0,056	0,170
-472,489	-200,000	-0,001	0,035
-471,474	-200,000	-0,007	0,063
-470,459	-34,827	-0,159	0,063
-469,445	89,910	0,140	0,114
-468,430	-200,000	-0,027	0,111
-467,416	-200,000	-0,005	-0,049
-466,401	-69,091	0,151	-0,042
-465,386	-72,617	0,079	0,021
-464,372	-17,909	-0,150	-0,068
-463,357	-8,256	-0,121	0,059
-462,343	-8,269	-0,046	-0,023
-461,328	-75,125	-0,020	-0,005
-460,313	-111,684	0,070	-0,010
-459,299	23,327	0,129	-0,077
-458,284	-73,692	-0,026	0,007
-457,270	-170,197	0,126	-0,003
-456,255	-9,834	-0,083	0,040
-455,241	-200,000	0,035	0,162
-454,226	-200,000	0,021	-0,184
-453,211	-171,393	0,034	0,001
-452,197	338,049	0,011	0,015
-451,182	-200,000	0,001	0,034
-450,168	-200,000	-0,000	0,085
-449,153	800,000	0,008	-0,022
-448,138	-200,000	0,013	-0,164
-447,124	-40,013	-0,164	-0,062
-446,109	598,239	0,040	-0,073
-445,095	119,819	-0,052	-0,047
-444,080	68,444	-0,034	-0,025
-443,065	800,000	0,051	0,107
-442,051	362,957	-0,054	-0,079
-441,036	674,395	-0,046	-0,087
-440,022	-200,000	0,017	0,086
-439,007	-200,000	0,006	0,079
-437,992	-176,856	0,100	-0,002
-436,978	800,000	0,050	-0,160
-435,963	-200,000	0,002	-0,032
-434,949	68,354	0,064	0,048
-433,934	-127,652	0,026	-0,003
-432,919	-158,981	-0,134	0,005
-431,905	800,000	-0,042	-0,115
-430,890	348,022	-0,058	0,083
-429,876	800,000	0,096	0,237
-428,861	800,000	0,010	-0,020
-427,846	14,962	-0,205	0,117
-426,832	796,133	0,017	0,035
-425,817	-35,609	-0,082	-0,032
-424,803	-200,000	0,002	-0,076
-423,788	-140,773	0,069	0,005
-422,773	26,598	0,104	-0,063
-421,759	800,000	-0,026	0,079
-420,744	277,817	0,035	0,046
-419,730	16,949	-0,108	-0,062
-418,715	-125,176	-0,034	-0,004
-417,701	-81,011	0,179	-0,043
-416,686	-200,000	0,017	0,082
-415,671	800,000	-0,024	-0,060
-414,657	-200,000	0,003	0,023
-413,642	758,318	0,029	-0,058
-412,628	12,716	0,095	0,053
-411,613	800,000	-0,033	0,069
-410,598	-79,559	0,049	-0,012
-409,584	16,718	0,050	0,029
-408,569	88,230	-0,028	0,023
-407,555	-200,000	-0,016	-0,099
-406,540	-102,447	-0,113	-0,019
-405,525	418,209	-0,068	0,107
-404,511	-12,089	0,084	-0,040
-403,496	-159,971	0,120	0,005
-402,482	95,854	0,015	0,013
-401,467	80,455	0,113	0,088
-400,452	-200,000	0,012	0,192
-399,438	-200,000	-0,021	0,070
-398,423	94,432	-0,060	0,049
-397,409	-200,000	-0,031	0,156
-396,394	-100,034	0,066	0,012
-395,379	-180,333	-0,053	0,001
-394,365	253,017	0,079	0,098
-393,350	-108,819	-0,101	0,016
-392,336	84,640	-0,052	0,041
-391,321	-72,250	-0,092	0,025
-390,306	159,331	0,044	0,045
-389,292	101,991	-0,052	0,044
-388,277	15,447	-0,084	0,048
-387,263	708,195	-0,017	-0,033
-386,248	38,388	0,135	-0,087
-385,233	800,000	0,023	-0,051
-384,219	233,390	0,038	0,045
-383,204	-200,000	0,013	0,073
-382,190	146,925	-0,069	0,067
-381,175	206,458	0,040	-0,046
-380,160	-87,844	0,037	-0,008
-379,146	800,000	0,045	0,099
-378,131	98,356	-0,039	0,033
-377,117	-17,510	-0,063	0,029
-376,102	800,000	0,073	-0,156
-375,088	-200,000	0,019	0,063
-374,073	-34,153	0,062	0,025
-373,058	138,867	0,021	0,020
-372,044	-56,765	-0,028	-0,009
-371,029	178,839	-0,077	-0,082
-370,015	-200,000	-0,006	0,030
-369,000	436,747	-0,063	0,100
-367,985	800,000	0,037	-0,113
-366,971	-200,000	0,008	0,073
-365,956	-200,000	-0,033	-0,171
-364,942	229,788	0,019	0,023
-363,927	155,191	-0,081	0,081
-362,912	-200,000	0,010	0,128
-361,898	800,000	-0,082	-0,229
-360,883	262,396	-0,017	0,022
-359,869	256,456	0,051	-0,063
-358,854	66,332	0,144	-0,106
-357,839	531,509	0,084	0,145
-356,825	800,000	-0,039	0,089
-355,810	-200,000	0,006	0,067
-354,796	-200,000	0,006	-0,086
-353,781	146,617	0,049	-0,048
-352,766	62,234	0,060	0,044
-351,752	134,702	0,094	0,089
-350,737	-3,376	0,149	0,075
-349,723	58,907	0,059	-0,042
-348,708	800,000	-0,021	0,066
-347,693	-101,084	-0,127	-0,022
-346,679	-200,000	0,020	0,065
-345,664	4,905	-0,145	-0,077
-344,650	522,730	0,011	-0,018
-343,635	-37,774	0,042	-0,016
-342,620	147,064	0,029	-0,028
-341,606	-200,000	0,034	0,114
-340,591	800,000	0,022	-0,065
-339,577	-200,000	0,025	-0,147
-338,562	-55,381	0,012	0,004
-337,548	151,258	-0,055	0,055
-336,533	734,938	-0,012	-0,023
-335,518	-87,599	-0,189	-0,041
-334,504	-200,000	0,033	-0,183
-333,489	800,000	0,026	0,072
-332,475	-200,000	-0,013	-0,068
-331,460	-200,000	0,010	0,078
-330,445	-67,119	-0,041	-0,012
-329,431	-200,000	0,028	-0,097
-328,416	-9,981	0,143	-0,069
-327,402	-200,000	-0,012	0,098
-326,387	-200,000	-0,015	0,166
-325,372	-200,000	-0,050	-0,203
-324,358	-11,080	0,054	0,026
-323,343	40,369	0,080	0,052
-322,329	710,848	0,036	0,069
-321,314	-3,954	-0,063	0,031
-320,299	-200,000	0,003	0,076
-319,285	-116,182	0,095	-0,013
-318,270	-89,985	-0,107	0,022
-317,256	800,000	-0,084	-0,186
-316,241	-200,000	0,020	-0,090
-315,226	-68,778	0,146	-0,041
-314,212	-20,525	0,064	0,028
-313,197	-125,586	-0,013	-0,001
-312,183	-135,013	0,090	-0,008
-311,168	-200,000	-0,025	-0,129
-310,153	-200,000	0,019	-0,199
-309,139	-13,896	-0,067	-0,031
-308,124	-67,453	-0,012	0,003
-307,110	94,699	0,156	0,129
-306,095	62,758	0,026	-0,019
-305,080	54,678	-0,123	0,086
-304,066	-79,837	-0,099	-0,024
-303,051	-147,861	0,104	0,006
-302,037	-200,000	-0,033	-0,119
-301,022	800,000	-0,020	-0,062
-300,008	-75,741	0,047	0,012
-298,993	800,000	-0,017	0,047
-297,978	-92,991	0,171	0,034
-296,964	84,559	0,058	0,046
-295,949	-200,000	-0,007	0,096
-294,935	-109,330	-0,171	-0,026
-293,920	-200,000	0,016	0,071
-292,905	721,211	0,009	0,018
-291,891	363,371	0,053	0,078
-290,876	800,000	-0,053	0,117
-289,862	-200,000	-0,001	0,146
-288,847	1,824	-0,023	-0,012
-287,832	-200,000	-0,000	-0,023
-286,818	800,000	0,034	-0,071
-285,803	-200,000	0,013	-0,043
-284,789	-41,713	0,038	0,014
-283,774	199,646	0,084	0,093
-282,759	105,616	0,028	0,024
-281,745	800,000	-0,036	0,102
-280,730	800,000	-0,040	0,117
-279,716	312,994	0,065	-0,089
-278,701	-200,000	0,059	0,000
-277,686	800,000	0,031	-0,075
-276,672	800,000	-0,022	-0,055
-275,657	-0,618	0,034	0,017
-274,643	-130,890	-0,126	0,012
-273,628	-163,049	0,051	0,002
-272,613	303,113	-0,033	-0,044
-271,599	138,811	0,081	0,077
-270,584	180,818	0,024	-0,025
-269,570	-200,000	-0,025	-0,121
-268,555	-3,133	0,152	0,076
-267,540	-92,988	0,074	0,015
-266,526	-200,000	-0,039	-0,148
-265,511	-200,000	0,007	-0,035
-264,497	289,103	0,057	0,075
-263,482	-200,000	0,034	-0,137
-262,467	188,995	-0,020	0,022
-261,453	576,828	-0,064	-0,114
-260,438	108,676	-0,060	0,052
-259,424	120,443	-0,058	-0,052
-258,409	490,221	-0,049	-0,081
-257,395	-200,000	-0,013	0,126
-256,380	708,104	-0,037	-0,071
-255,365	800,000	0,015	0,039
-254,351	800,000	0,013	0,037
-253,336	36,068	-0,059	0,038
-252,322	-200,000	0,003	-0,053
-251,307	-200,000	0,010	-0,080
-250,292	-200,000	-0,023	-0,130
-249,278	101,610	0,103	-0,087
-248,263	188,871	0,084	-0,091
-247,249	575,971	-0,045	-0,080
-246,234	-43,442	0,232	-0,084
-245,219	-69,894	-0,159	0,043
-244,205	-106,697	-0,079	-0,013
-243,190	-200,000	0,014	0,059
-242,176	-75,522	0,065	-0,016
-241,161	406,511	-0,030	0,046
-240,146	-200,000	-0,033	0,132
-239,132	561,786	0,072	-0,127
-238,117	-153,314	0,101	-0,005
-237,103	-200,000	0,002	0,084
-236,088	137,095	-0,138	-0,130
-235,073	598,500	0,024	-0,043
-234,059	800,000	0,050	0,130
-233,044	89,842	0,023	0,019
-232,030	800,000	-0,009	-0,025
-231,015	761,421	-0,039	-0,077
-230,000	-65,492	-0,086	0,025
-228,986	-107,581	-0,137	0,021
-227,971	51,256	0,091	-0,062
-226,957	-200,000	-0,028	0,128
-225,942	264,838	0,036	-0,045
-224,927	-200,000	0,023	0,121
-223,913	-83,225	-0,124	0,029
-222,898	674,534	0,051	0,096
-221,884	800,000	0,025	0,069
-220,869	-41,999	0,090	0,033
-219,855	800,000	-0,025	0,077
-218,840	114,794	0,042	0,037
-217,825	-200,000	-0,024	0,234
-216,811	-49,443	0,097	-0,033
-215,796	-172,375	-0,098	0,002
-214,782	-43,173	0,130	-0,047
-213,767	-112,079	0,091	-0,013
-212,752	-80,882	0,169	0,040
-211,738	228,726	-0,036	-0,042
-210,723	512,064	0,064	-0,108
-209,709	210,961	-0,045	0,051
-208,694	188,240	0,071	-0,077
-207,679	198,462	-0,071	-0,079
-206,665	183,297	-0,020	0,021
-205,650	-41,122	-0,072	0,027
-204,636	-40,202	0,111	0,041
-203,621	800,000	0,017	0,052
-202,606	-200,000	0,040	-0,155
-201,592	-200,000	-0,024	-0,149
-200,577	57,944	-0,151	-0,107
-199,563	322,659	0,054	0,075
-198,548	-200,000	-0,012	-0,148
-197,533	108,283	0,074	0,063
-196,519	69,183	-0,062	0,046
-195,504	-200,000	-0,013	-0,065
-194,490	97,281	0,021	-0,018
-193,475	-200,000	-0,020	-0,073
-192,460	-200,000	-0,021	0,070
-191,446	-52,374	0,108	-0,036
-190,431	37,813	-0,082	0,052
-189,417	281,031	0,076	0,099
-188,402	82,301	-0,046	0,036
-187,387	-109,099	-0,099	-0,015
-186,373	-121,923	-0,087	0,010
-185,358	800,000	-0,021	0,047
-184,344	-200,000	0,123	0,000
-183,329	186,121	0,038	0,041
-182,315	522,271	-0,035	-0,059
-181,300	-200,000	0,015	-0,104
-180,285	187,183	-0,158	-0,170
-179,271	-42,634	-0,121	-0,044
-178,256	-143,827	-0,080	-0,005
-177,242	477,291	0,044	0,071
-176,227	-200,000	-0,010	0,139
-175,212	-104,130	-0,039	-0,006
-174,198	110,077	-0,126	0,109
-173,183	-200,000	-0,002	-0,153
-172,169	355,447	0,067	0,096
-171,154	-200,000	-0,029	-0,185
-170,139	630,523	-0,026	-0,048
-169,125	-75,426	-0,074	0,019
-168,110	800,000	0,031	0,098
-167,096	232,250	0,090	0,106
-166,081	-200,000	-0,023	-0,160
-165,066	800,000	0,038	-0,098
-164,052	-200,000	-0,010	0,067
-163,037	800,000	-0,026	-0,056
-162,023	800,000	-0,036	0,111
-161,008	-11,587	0,127	-0,060
-159,993	418,354	0,051	0,079
-158,979	91,561	-0,042	-0,034
-157,964	800,000	0,033	-0,097
-156,950	18,059	0,034	0,020
-155,935	132,678	0,060	0,055
-154,920	83,851	0,130	0,102
-153,906	-61,309	-0,153	-0,046
-152,891	-200,000	-0,020	-0,076
-151,877	22,959	-0,066	0,039
-150,862	-115,047	-0,133	0,018
-149,847	-83,707	-0,135	-0,031
-148,833	-200,000	0,038	0,127
-147,818	155,345	0,117	0,117
-146,804	519,748	0,095	0,161
-145,789	352,859	0,064	-0,092
-144,775	-200,000	-0,002	-0,087
-143,760	-200,000	-0,031	-0,143
-142,745	351,106	-0,078	-0,112
-141,731	161,086	-0,034	0,035
-140,716	-200,000	0,021	-0,070
-139,702	204,455	-0,060	0,067
-138,687	-200,000	0,027	0,192
-137,672	-186,637	-0,111	0,001
-136,658	800,000	0,016	-0,050
-135,643	38,170	-0,059	0,037
-134,629	385,366	-0,129	-0,192
-133,614	166,223	-0,028	0,028
-132,599	-44,565	0,054	0,019
-131,585	-69,110	-0,022	0,006
-130,570	-200,000	-0,000	-0,037
-129,556	-200,000	0,024	-0,107
-128,541	-34,852	0,086	-0,034
-127,526	25,209	0,019	-0,011
-126,512	-200,000	0,004	-0,020
-125,497	-200,000	-0,020	-0,086
-124,483	-86,678	0,054	0,012
-123,468	61,382	-0,057	-0,041
-122,453	800,000	-0,044	0,127
-121,439	10,082	-0,121	-0,066
-120,424	-99,036	0,068	-0,012
-119,410	6,450	-0,085	0,045
