DTS Sentinel unit serial number:	SN410029Multiplexer serial number:	ORYXHardware model number:	OX2-SRSoftware version number:	ORYX F/W v4,00 Oryx Data Collector v3.7.2.0data status	okinstallation	B5 Nyhavnadifferential loss correction	single-endedforward channel	channel 2reverse channel	N/Adate	2023/12/14time	04:02:13forward acquisition time	300,00reverse acquisition time	0,00gamma	499,1914k internal	0,3156k external	0,3156temperature offset calibration	1,0000default loss term (dB/km)	0,3820temperature slope calibration	1,0000multiplexer offset coefficient	1,0000multiplexer slope coefficient	1,0000fibre end	0,00T internal ref (°C)	8,01T ext. ref 1 (°C)	-8,44T ext. ref 2 (°C)	-8,52length (m)	temperature (°C)	Stokes	anti-Stokes-744,400	739,353	0,060	0,119
-743,385	-149,802	-0,469	-0,027
-742,371	-85,722	0,161	0,037
-741,356	-146,735	-0,391	0,025
-740,342	131,414	0,123	0,116
-739,327	-156,885	-0,341	-0,015
-738,312	170,753	0,135	0,143
-737,298	-92,347	-0,437	-0,090
-736,283	313,083	0,141	0,196
-735,269	-123,113	-0,402	0,047
-734,254	98,837	0,144	0,122
-733,239	-46,521	-0,502	-0,180
-732,225	-21,344	0,221	0,099
-731,210	-200,000	0,002	-0,095
-730,196	420,201	0,052	0,083
-729,181	800,000	0,034	0,079
-728,167	401,386	-0,013	0,020
-727,152	85,856	0,085	-0,069
-726,137	158,695	-0,015	0,015
-725,123	121,083	-0,049	0,045
-724,108	99,065	0,044	0,038
-723,094	-90,425	-0,095	-0,020
-722,079	1,441	-0,022	0,012
-721,064	221,947	-0,051	-0,061
-720,050	-80,697	-0,064	0,015
-719,035	800,000	-0,038	-0,101
-718,021	-63,408	0,045	-0,014
-717,006	-200,000	-0,021	-0,111
-715,991	-70,917	-0,053	0,014
-714,977	-200,000	-0,016	-0,106
-713,962	-200,000	0,034	0,232
-712,948	500,835	0,054	0,092
-711,933	-200,000	-0,005	0,035
-710,918	-64,612	-0,089	0,026
-709,904	-100,831	0,115	0,021
-708,889	-200,000	0,011	-0,098
-707,875	800,000	-0,046	-0,148
-706,860	-139,839	0,029	0,002
-705,845	-113,366	-0,055	0,008
-704,831	-105,741	-0,151	0,025
-703,816	230,004	0,089	-0,107
-702,802	-200,000	0,019	0,087
-701,787	32,027	-0,025	-0,016
-700,772	-200,000	0,005	-0,019
-699,758	363,120	-0,021	0,031
-698,743	434,394	0,046	0,075
-697,729	800,000	0,021	0,047
-696,714	-16,724	-0,116	0,054
-695,699	86,657	-0,078	-0,063
-694,685	-200,000	-0,025	-0,122
-693,670	800,000	-0,018	-0,047
-692,656	-54,197	-0,116	-0,039
-691,641	800,000	-0,021	-0,066
-690,627	-200,000	0,071	0,266
-689,612	-200,000	0,012	-0,108
-688,597	323,344	0,023	-0,033
-687,583	-56,444	-0,040	-0,013
-686,568	462,520	0,041	-0,068
-685,554	800,000	-0,030	-0,091
-684,539	87,371	0,092	0,075
-683,524	13,181	-0,086	0,049
-682,510	-76,525	-0,184	-0,047
-681,495	800,000	0,010	0,027
-680,481	-200,000	-0,017	-0,125
-679,466	800,000	-0,028	0,084
-678,451	103,589	0,085	-0,074
-677,437	355,311	0,040	0,059
-676,422	115,762	-0,084	0,076
-675,408	-200,000	0,037	0,143
-674,393	87,941	0,078	-0,063
-673,378	800,000	0,024	-0,066
-672,364	444,708	0,048	-0,077
-671,349	155,437	0,066	0,067
-670,335	-137,930	-0,085	-0,007
-669,320	800,000	-0,033	-0,102
-668,305	250,701	0,097	-0,121
-667,291	463,719	0,029	-0,048
-666,276	-129,164	-0,104	-0,011
-665,262	-200,000	0,006	-0,057
-664,247	-140,147	-0,050	-0,004
-663,232	-200,000	-0,035	0,137
-662,218	-150,958	0,063	0,003
-661,203	-106,681	-0,178	0,029
-660,189	-5,632	0,061	-0,031
-659,174	-200,000	0,010	0,165
-658,159	55,825	0,068	-0,048
-657,145	72,125	-0,017	-0,013
-656,130	-23,059	-0,087	0,038
-655,116	-87,663	0,099	-0,022
-654,101	-200,000	-0,003	0,119
-653,086	-200,000	-0,003	0,069
-652,072	-91,354	-0,086	0,018
-651,057	-67,147	0,034	0,010
-650,043	-137,665	-0,142	-0,012
-649,028	82,530	-0,046	0,037
-648,014	221,916	0,036	0,042
-646,999	-102,394	0,091	0,016
-645,984	800,000	-0,054	0,137
-644,970	262,913	-0,040	0,051
-643,955	215,074	0,046	0,054
-642,941	-200,000	-0,006	0,035
-641,926	109,167	-0,074	-0,065
-640,911	-200,000	-0,017	-0,071
-639,897	734,906	0,045	0,089
-638,882	-0,719	-0,084	-0,044
-637,868	229,438	-0,064	-0,077
-636,853	-200,000	-0,025	-0,113
-635,838	-89,152	0,062	-0,013
-634,824	149,430	-0,048	-0,047
-633,809	151,867	0,082	0,082
-632,795	-200,000	0,003	0,135
-631,780	-136,218	0,063	0,005
-630,765	-13,907	-0,113	-0,054
-629,751	364,474	-0,029	-0,044
-628,736	-102,942	0,044	-0,008
-627,722	-73,732	-0,029	-0,008
-626,707	549,182	0,006	-0,010
-625,692	-200,000	-0,036	0,196
-624,678	-200,000	0,007	-0,066
-623,663	161,033	0,037	-0,038
-622,649	85,628	0,054	0,044
-621,634	55,270	0,116	0,082
-620,619	-200,000	-0,014	0,054
-619,605	71,401	0,078	0,059
-618,590	-13,456	-0,151	0,072
-617,576	-200,000	-0,048	0,240
-616,561	-130,648	0,049	0,005
-615,546	-200,000	0,001	0,038
-614,532	691,681	-0,038	-0,073
-613,517	38,433	-0,209	-0,137
-612,503	54,961	0,084	-0,059
-611,488	71,310	0,033	0,025
-610,474	800,000	0,057	-0,118
-609,459	282,421	0,026	-0,035
-608,444	-23,557	-0,173	0,076
-607,430	-12,209	-0,071	0,034
-606,415	114,906	-0,047	-0,042
-605,401	-200,000	0,020	0,071
-604,386	296,860	-0,061	0,082
-603,371	55,593	-0,037	-0,026
-602,357	43,556	-0,021	0,014
-601,342	358,637	0,044	-0,065
-600,328	113,274	-0,132	-0,118
-599,313	-120,762	0,037	-0,004
-598,298	216,086	0,043	0,051
-597,284	-200,000	0,006	0,041
-596,269	-200,000	-0,007	-0,049
-595,255	-131,684	-0,038	0,004
-594,240	-29,777	0,054	-0,022
-593,225	494,359	0,037	-0,062
-592,211	-200,000	0,023	-0,137
-591,196	-200,000	0,012	0,102
-590,182	51,313	0,084	0,059
-589,167	130,925	0,085	0,080
-588,152	47,014	0,118	0,081
-587,138	-200,000	0,017	0,106
-586,123	-112,319	-0,061	0,009
-585,109	-52,983	-0,092	0,031
-584,094	-73,337	-0,116	-0,031
-583,079	-33,631	0,031	0,012
-582,065	-50,394	0,065	0,022
-581,050	-166,929	-0,112	0,003
-580,036	-7,824	-0,020	0,010
-579,021	42,130	0,033	-0,022
-578,006	207,482	-0,091	-0,104
-576,992	-13,691	0,081	-0,038
-575,977	452,221	-0,047	0,076
-574,963	-18,961	-0,025	0,012
-573,948	644,672	0,071	-0,134
-572,934	-200,000	-0,045	0,149
-571,919	89,103	0,009	0,008
-570,904	87,675	-0,064	-0,052
-569,890	128,203	0,021	0,019
-568,875	-200,000	-0,051	0,207
-567,861	34,238	0,107	-0,068
-566,846	800,000	0,019	-0,042
-565,831	98,871	0,043	0,037
-564,817	-52,462	-0,021	0,007
-563,802	800,000	0,034	-0,076
-562,788	-173,532	-0,078	0,002
-561,773	-108,647	0,047	0,007
-560,758	383,520	0,015	-0,023
-559,744	-200,000	0,012	0,056
-558,729	791,767	-0,027	0,055
-557,715	-51,524	-0,144	-0,049
-556,700	-200,000	-0,006	-0,149
-555,685	-200,000	-0,024	-0,132
-554,671	-67,622	0,059	0,017
-553,656	-6,670	0,059	0,029
-552,642	-153,686	-0,003	-0,000
-551,627	133,800	0,061	-0,058
-550,612	5,846	-0,108	-0,058
-549,598	-200,000	0,002	0,038
-548,583	438,327	-0,029	0,047
-547,569	-139,197	-0,129	0,010
-546,554	-84,555	0,060	-0,014
-545,539	120,328	0,051	0,046
-544,525	122,001	-0,074	0,068
-543,510	-128,274	-0,061	0,006
-542,496	800,000	0,061	0,135
-541,481	-200,000	-0,046	0,188
-540,466	39,476	0,060	0,039
-539,452	-1,176	0,089	-0,046
-538,437	42,346	0,099	0,066
-537,423	792,074	0,037	-0,076
-536,408	-99,068	-0,155	-0,029
-535,393	250,506	0,134	0,167
-534,379	-66,720	-0,111	0,032
-533,364	-200,000	0,017	-0,106
-532,350	-17,563	0,092	-0,042
-531,335	45,261	0,066	0,044
-530,321	11,001	0,030	-0,017
-529,306	-146,058	-0,068	-0,004
-528,291	-116,529	-0,033	-0,004
-527,277	-16,392	-0,097	-0,045
-526,262	-153,742	-0,123	-0,006
-525,248	100,966	-0,054	-0,046
-524,233	-78,658	-0,097	-0,024
-523,218	-50,574	-0,044	-0,015
-522,204	-41,097	-0,198	-0,074
-521,189	5,207	0,061	0,033
-520,175	-200,000	0,030	-0,098
-519,160	615,645	-0,072	-0,133
-518,145	130,838	0,115	-0,108
-517,131	163,585	-0,086	0,088
-516,116	-8,541	0,119	-0,058
-515,102	800,000	-0,027	-0,060
-514,087	-66,923	-0,091	0,026
-513,072	200,260	-0,060	0,068
-512,058	378,048	-0,034	0,051
-511,043	412,877	-0,022	0,034
-510,029	-128,353	0,092	0,009
-509,014	68,426	0,057	0,043
-507,999	800,000	0,003	0,009
-506,985	111,865	-0,055	0,048
-505,970	-89,886	-0,105	0,022
-504,956	-67,267	0,089	0,026
-503,941	-200,000	-0,006	0,064
-502,926	87,932	0,151	0,123
-501,912	171,580	0,159	0,166
-500,897	-200,000	0,007	-0,074
-499,883	-138,570	-0,072	-0,006
-498,868	-200,000	0,034	0,121
-497,853	-56,020	0,132	0,043
-496,839	-94,407	-0,079	-0,016
-495,824	649,511	-0,016	-0,030
-494,810	-41,597	0,035	-0,013
-493,795	-127,078	-0,023	0,002
-492,781	-101,170	-0,071	-0,013
-491,766	800,000	-0,033	-0,087
-490,751	-61,148	-0,154	-0,047
-489,737	5,229	0,083	-0,045
-488,722	-122,019	-0,108	-0,013
-487,708	-200,000	0,000	0,182
-486,693	800,000	0,012	0,031
-485,678	-200,000	0,015	0,074
-484,664	-200,000	-0,001	0,050
-483,649	6,800	-0,088	0,048
-482,635	248,744	-0,027	-0,034
-481,620	151,742	0,063	0,062
-480,605	-200,000	-0,024	-0,103
-479,591	-200,000	0,037	-0,183
-478,576	800,000	0,019	-0,043
-477,562	297,801	-0,109	-0,146
-476,547	-28,372	-0,064	-0,027
-475,532	-31,994	0,071	0,029
-474,518	800,000	0,052	0,124
-473,503	367,319	-0,028	0,041
-472,489	-200,000	0,020	-0,067
-471,474	-200,000	-0,017	0,066
-470,459	800,000	0,044	-0,097
-469,445	433,676	-0,039	-0,062
-468,430	-200,000	-0,024	-0,102
-467,416	3,518	0,141	0,075
-466,401	-200,000	0,010	0,241
-465,386	98,442	0,046	0,039
-464,372	-200,000	0,026	-0,203
-463,357	175,788	0,017	0,018
-462,343	-54,154	-0,064	-0,021
-461,328	-38,784	-0,079	0,030
-460,313	189,251	0,015	0,016
-459,299	-104,274	0,082	-0,014
-458,284	-200,000	0,028	0,143
-457,270	-200,000	0,024	-0,079
-456,255	-68,879	0,164	-0,046
-455,241	230,384	0,050	0,060
-454,226	-43,050	0,077	-0,028
-453,211	46,561	0,034	0,023
-452,197	-200,000	0,003	0,034
-451,182	130,599	0,037	0,035
-450,168	-17,173	0,056	0,026
-449,153	-200,000	-0,014	-0,060
-448,138	517,895	-0,056	-0,096
-447,124	800,000	0,056	-0,129
-446,109	800,000	-0,021	0,063
-445,095	36,172	-0,105	-0,067
-444,080	-14,456	0,044	-0,020
-443,065	800,000	-0,058	-0,129
-442,051	-200,000	-0,014	-0,108
-441,036	-56,651	0,043	-0,014
-440,022	64,617	-0,080	0,059
-439,007	-91,073	0,153	0,032
-437,992	-160,665	0,073	-0,003
-436,978	-200,000	0,021	-0,106
-435,963	-200,000	0,001	-0,023
-434,949	-200,000	-0,020	0,161
-433,934	253,485	-0,093	-0,117
-432,919	-200,000	0,002	0,068
-431,905	800,000	-0,030	0,071
-430,890	38,079	-0,091	-0,059
-429,876	-25,229	0,052	-0,023
-428,861	455,969	0,067	0,109
-427,846	800,000	0,056	0,152
-426,832	-200,000	-0,025	-0,130
-425,817	323,171	-0,066	0,091
-424,803	202,419	-0,034	-0,038
-423,788	42,178	0,055	0,037
-422,773	517,370	0,037	0,064
-421,759	-200,000	-0,012	-0,140
-420,744	-29,793	-0,050	0,021
-419,730	138,320	0,010	0,009
-418,715	-70,389	-0,038	-0,010
-417,701	85,476	0,011	0,009
-416,686	800,000	-0,038	0,100
-415,671	-134,145	0,142	0,013
-414,657	-200,000	-0,040	0,167
-413,642	8,993	0,087	0,048
-412,628	325,164	-0,088	-0,123
-411,613	-147,164	-0,076	-0,005
-410,598	800,000	-0,039	-0,091
-409,584	133,595	0,046	0,044
-408,569	-12,343	0,042	-0,020
-407,555	175,621	-0,059	0,063
-406,540	800,000	0,062	0,147
-405,525	688,577	-0,019	-0,036
-404,511	800,000	0,010	-0,024
-403,496	-122,818	-0,043	0,005
-402,482	-13,665	0,086	0,040
-401,467	61,042	0,057	0,041
-400,452	423,528	-0,006	-0,010
-399,438	50,619	0,045	-0,031
-398,423	67,225	0,074	-0,055
-397,409	82,188	-0,073	-0,057
-396,394	152,095	-0,072	-0,072
-395,379	-151,232	0,100	-0,005
-394,365	-129,296	-0,014	-0,001
-393,350	23,728	0,113	0,067
-392,336	-200,000	-0,016	0,055
-391,321	-5,946	-0,114	0,056
-390,306	-200,000	-0,004	-0,070
-389,292	-82,278	-0,073	-0,017
-388,277	96,249	0,118	0,098
-387,263	800,000	0,025	-0,057
-386,248	-100,308	-0,032	0,006
-385,233	-200,000	0,011	0,157
-384,219	-41,718	-0,109	0,041
-383,204	-200,000	0,009	0,063
-382,190	-123,713	-0,195	0,022
-381,175	-200,000	0,017	-0,104
-380,160	108,475	0,073	-0,064
-379,146	285,505	0,015	-0,019
-378,131	682,885	0,034	0,064
-377,117	628,397	0,043	-0,079
-376,102	395,577	-0,062	-0,095
-375,088	-60,134	0,070	-0,021
-374,073	-200,000	0,001	0,071
-373,058	109,760	0,084	-0,074
-372,044	800,000	-0,023	-0,066
-371,029	197,133	-0,064	-0,072
-370,015	-200,000	0,000	0,025
-369,000	-92,450	0,106	-0,022
-367,985	800,000	-0,008	0,021
-366,971	409,296	-0,030	-0,047
-365,956	124,861	0,025	0,023
-364,942	-148,587	0,137	-0,008
-363,927	295,866	-0,042	0,056
-362,912	-200,000	-0,000	-0,089
-361,898	-185,117	-0,170	-0,002
-360,883	98,305	0,024	0,020
-359,869	-67,229	-0,118	0,033
-358,854	-76,320	0,032	0,008
-357,839	-200,000	0,013	0,046
-356,825	-43,849	0,052	-0,019
-355,810	-200,000	0,011	-0,039
-354,796	-200,000	-0,004	-0,052
-353,781	-200,000	0,009	-0,174
-352,766	732,989	-0,070	0,137
-351,752	-152,155	0,037	0,002
-350,737	800,000	0,045	-0,107
-349,723	-22,845	-0,100	-0,043
-348,708	800,000	0,042	0,098
-347,693	775,659	-0,033	-0,065
-346,679	373,697	0,030	0,044
-345,664	-200,000	0,002	-0,091
-344,650	60,081	0,049	-0,035
-343,635	1,653	-0,021	0,011
-342,620	421,744	-0,021	-0,033
-341,606	-200,000	0,005	0,135
-340,591	-65,978	-0,169	-0,049
-339,577	-39,115	0,211	-0,080
-338,562	800,000	-0,069	-0,147
-337,548	7,786	-0,031	-0,017
-336,533	-200,000	0,026	0,143
-335,518	17,208	0,108	0,062
-334,504	-143,797	0,063	0,004
-333,489	-97,507	-0,092	0,017
-332,475	650,150	-0,065	-0,121
-331,460	-200,000	-0,040	-0,128
-330,445	15,450	-0,050	-0,028
-329,431	14,304	-0,052	-0,029
-328,416	-200,000	-0,018	-0,062
-327,402	82,741	-0,152	0,120
-326,387	132,214	-0,033	0,031
-325,372	-130,122	-0,036	0,004
-324,358	-143,284	-0,067	-0,005
-323,343	800,000	-0,047	-0,140
-322,329	-124,509	0,071	-0,008
-321,314	-8,873	0,034	0,017
-320,299	-200,000	-0,020	-0,076
-319,285	-200,000	0,010	0,098
-318,270	739,145	-0,029	0,056
-317,256	776,149	-0,026	-0,052
-316,241	-18,311	0,030	-0,013
-315,226	64,509	-0,093	0,068
-314,212	-79,009	0,131	0,032
-313,197	800,000	-0,025	0,055
-312,183	142,292	0,039	-0,037
-311,168	-18,877	0,037	-0,017
-310,153	-43,438	-0,061	-0,022
-309,139	-15,204	0,044	-0,020
-308,124	-5,424	0,063	-0,031
-307,110	-162,698	-0,067	0,002
-306,095	285,093	0,073	0,095
-305,080	-200,000	0,007	0,051
-304,066	322,550	-0,012	0,016
-303,051	2,954	-0,080	-0,042
-302,037	-11,118	-0,104	0,049
-301,022	-51,640	0,035	0,012
-300,008	-89,116	-0,025	0,005
-298,993	-200,000	0,010	0,125
-297,978	-200,000	0,026	0,117
-296,964	-200,000	-0,032	-0,136
-295,949	-114,335	-0,089	0,012
-294,935	-106,851	0,091	0,014
-293,920	-200,000	0,013	0,068
-292,905	42,664	0,055	-0,036
-291,891	800,000	-0,049	0,108
-290,876	124,707	0,076	-0,069
-289,862	92,712	-0,078	0,064
-288,847	94,493	0,072	-0,059
-287,832	90,116	0,024	-0,019
-286,818	800,000	-0,036	0,074
-285,803	-78,937	-0,060	-0,015
-284,789	-67,985	-0,085	0,024
-283,774	236,790	0,053	-0,063
-282,759	-200,000	0,002	-0,039
-281,745	800,000	-0,038	-0,092
-280,730	80,560	-0,020	-0,015
-279,716	800,000	0,034	0,101
-278,701	800,000	0,079	0,187
-277,686	-47,050	0,042	-0,015
-276,672	-5,115	0,062	0,031
-275,657	-200,000	0,007	0,086
-274,643	106,686	-0,017	0,015
-273,628	426,593	0,093	-0,145
-272,613	101,101	-0,043	0,036
-271,599	563,030	0,085	0,149
-270,584	-37,056	-0,049	-0,019
-269,570	-87,290	-0,109	0,024
-268,555	800,000	-0,055	-0,112
-267,540	272,699	0,069	-0,088
-266,526	-200,000	0,011	-0,045
-265,511	303,707	-0,084	0,112
-264,497	-57,422	0,127	0,040
-263,482	253,806	0,081	0,100
-262,467	-200,000	0,025	-0,091
-261,453	800,000	0,070	-0,161
-260,438	132,858	-0,037	0,034
-259,424	48,103	0,070	0,047
-258,409	-157,619	0,055	0,002
-257,395	308,891	0,033	-0,044
-256,380	800,000	-0,055	0,157
-255,365	800,000	0,027	0,068
-254,351	390,270	-0,026	0,039
-253,336	1,182	-0,159	-0,083
-252,322	-200,000	0,044	-0,149
-251,307	794,895	0,035	-0,070
-250,292	-200,000	-0,001	0,058
-249,278	30,502	0,100	0,062
-248,263	720,494	0,054	0,105
-247,249	-102,244	0,134	-0,023
-246,234	376,743	-0,082	-0,121
-245,219	-87,573	0,096	0,021
-244,205	457,035	-0,041	-0,066
-243,190	259,151	-0,061	-0,076
-242,176	-46,497	0,091	0,032
-241,161	-188,165	0,014	0,000
-240,146	-200,000	-0,007	-0,205
-239,132	-141,305	0,147	-0,011
-238,117	4,870	-0,099	0,053
-237,103	-107,869	0,114	0,018
-236,088	24,938	-0,067	0,040
-235,073	76,312	-0,071	0,054
-234,059	-200,000	0,007	0,141
-233,044	321,839	-0,051	-0,071
-232,030	-86,723	0,037	0,008
-231,015	-81,976	-0,009	0,002
-230,000	246,161	0,170	-0,208
-228,986	23,024	-0,072	-0,042
-227,971	36,578	0,088	0,056
-226,957	71,557	-0,061	0,046
-225,942	800,000	-0,030	0,073
-224,927	-1,883	-0,036	0,018
-223,913	-200,000	0,059	-0,209
-222,898	246,428	-0,054	-0,066
-221,884	-200,000	-0,014	-0,050
-220,869	364,909	0,082	-0,119
-219,855	-67,106	0,059	-0,017
-218,840	-200,000	0,001	0,042
-217,825	7,628	-0,105	0,057
-216,811	-200,000	-0,007	0,151
-215,796	-200,000	-0,019	0,070
-214,782	-33,222	-0,100	0,040
-213,767	390,486	0,112	-0,169
-212,752	9,853	0,063	0,034
-211,738	136,401	0,033	0,031
-210,723	336,199	0,053	0,074
-209,709	800,000	0,031	-0,087
-208,694	-94,184	-0,119	0,023
-207,679	84,048	-0,051	-0,040
-206,665	-200,000	0,001	0,179
-205,650	136,865	0,132	0,124
-204,636	577,508	-0,009	-0,016
-203,621	-27,570	0,061	0,025
-202,606	800,000	0,039	-0,098
-201,592	17,663	0,073	-0,042
-200,577	-45,263	-0,196	0,070
-199,563	-48,459	0,111	-0,038
-198,548	-200,000	0,030	0,121
-197,533	156,789	0,113	-0,112
-196,519	-200,000	0,021	0,096
-195,504	279,958	-0,034	0,044
-194,490	-163,876	-0,108	0,004
-193,475	-200,000	-0,008	-0,081
-192,460	392,887	0,035	0,053
-191,446	-200,000	0,014	0,046
-190,431	800,000	-0,013	0,034
-189,417	28,511	0,025	0,015
-188,402	-23,365	0,005	0,002
-187,387	-200,000	0,001	-0,068
-186,373	-80,625	-0,181	0,043
-185,358	-200,000	0,000	-0,007
-184,344	179,780	0,057	-0,060
-183,329	361,797	0,064	0,092
-182,315	25,273	0,140	0,084
-181,300	110,061	-0,015	-0,013
-180,285	297,314	-0,075	-0,100
-179,271	585,829	-0,030	-0,054
-178,256	-200,000	0,001	0,132
-177,242	-92,683	-0,014	0,003
-176,227	252,903	-0,047	-0,058
-175,212	800,000	0,059	-0,138
-174,198	60,498	-0,020	0,014
-173,183	800,000	-0,047	-0,137
-172,169	-155,275	-0,093	-0,004
-171,154	146,936	0,025	-0,024
-170,139	449,475	-0,045	-0,072
-169,125	-151,855	0,122	0,006
-168,110	800,000	-0,012	-0,029
-167,096	61,276	-0,080	-0,057
-166,081	195,899	0,131	-0,144
-165,066	-1,632	0,022	-0,011
-164,052	-101,732	0,071	0,012
-163,037	-25,631	-0,050	-0,021
-162,023	-200,000	0,024	0,104
-161,008	-115,724	-0,074	0,010
-159,993	374,777	0,034	0,050
-158,979	-200,000	0,014	-0,208
-157,964	800,000	-0,052	-0,121
-156,950	-139,095	0,126	-0,010
-155,935	320,079	0,057	-0,078
-154,920	-200,000	0,020	-0,068
-153,906	-173,343	-0,132	0,003
-152,891	-58,094	-0,159	-0,050
-151,877	57,993	-0,031	-0,022
-150,862	295,088	0,086	-0,114
-149,847	-200,000	-0,048	0,159
-148,833	-200,000	0,007	-0,085
-147,818	-76,781	0,073	-0,018
-146,804	-123,907	0,049	0,005
-145,789	222,321	-0,044	0,051
-144,775	-67,174	0,031	-0,009
-143,760	116,170	0,036	0,032
-142,745	474,033	0,014	0,023
-141,731	-14,990	0,077	0,035
-140,716	-23,452	-0,041	-0,018
-139,702	-200,000	-0,003	-0,036
-138,687	-200,000	0,021	0,070
-137,672	-200,000	-0,024	0,166
-136,658	-74,719	0,148	-0,038
-135,643	-62,925	0,171	-0,051
-134,629	-42,564	0,049	-0,018
-133,614	480,737	0,044	0,073
-132,599	800,000	-0,064	0,153
-131,585	-138,587	0,109	-0,009
-130,570	-200,000	-0,003	0,011
-129,556	800,000	0,018	0,039
-128,541	-200,000	0,004	-0,037
-127,526	2,092	0,060	-0,031
-126,512	-36,845	0,095	0,036
-125,497	-153,184	0,113	-0,006
-124,483	201,115	0,014	0,016
-123,468	-200,000	-0,001	0,033
-122,453	-87,029	-0,102	0,022
-121,439	30,910	-0,091	-0,056
-120,424	800,000	0,028	-0,085
-119,410	-200,000	-0,009	0,117
-118,395	144,750	-0,104	0,100
