DTS Sentinel unit serial number:	SN410029Multiplexer serial number:	ORYXHardware model number:	OX2-SRSoftware version number:	ORYX F/W v4,00 Oryx Data Collector v3.7.2.0data status	okinstallation	B5 Nyhavnadifferential loss correction	single-endedforward channel	channel 2reverse channel	N/Adate	2023/12/12time	09:57:13forward acquisition time	300,00reverse acquisition time	0,00gamma	499,1914k internal	0,3158k external	0,3158temperature offset calibration	1,0000default loss term (dB/km)	0,3820temperature slope calibration	1,0000multiplexer offset coefficient	1,0000multiplexer slope coefficient	1,0000fibre end	0,00T internal ref (°C)	15,00T ext. ref 1 (°C)	-1,31T ext. ref 2 (°C)	-1,62length (m)	temperature (°C)	Stokes	anti-Stokes-744,400	17,582	0,036	-0,021
-743,385	-79,079	-0,354	0,088
-742,371	-142,872	0,058	0,004
-741,356	-66,565	-0,280	0,081
-740,342	-114,759	0,164	0,023
-739,327	-34,938	-0,299	-0,120
-738,312	-21,783	-0,135	-0,060
-737,298	-171,590	-0,205	0,005
-736,283	-75,506	0,116	0,030
-735,269	-92,050	-0,283	0,059
-734,254	111,230	0,052	-0,046
-733,239	-60,971	-0,412	-0,127
-732,225	48,475	0,071	0,049
-731,210	2,052	0,113	0,060
-730,196	-200,000	0,025	-0,098
-729,181	82,938	-0,123	-0,099
-728,167	800,000	-0,035	0,101
-727,152	-133,670	-0,161	0,015
-726,137	800,000	0,039	-0,081
-725,123	800,000	0,017	0,052
-724,108	77,846	-0,082	0,064
-723,094	-200,000	-0,006	-0,121
-722,079	255,016	-0,105	-0,132
-721,064	237,417	-0,111	-0,136
-720,050	-135,538	-0,113	-0,010
-719,035	-200,000	-0,013	-0,100
-718,021	592,655	-0,043	-0,079
-717,006	676,370	-0,045	-0,086
-715,991	82,395	-0,078	-0,063
-714,977	64,459	-0,091	0,067
-713,962	-200,000	-0,001	0,105
-712,948	-200,000	-0,019	-0,073
-711,933	191,074	-0,046	0,051
-710,918	-200,000	0,030	0,101
-709,904	632,009	-0,109	-0,203
-708,889	-8,630	0,156	-0,077
-707,875	-66,619	-0,194	0,056
-706,860	-118,258	-0,061	-0,008
-705,845	800,000	0,031	0,093
-704,831	-109,726	-0,047	0,007
-703,816	148,128	0,087	-0,086
-702,802	-165,954	-0,184	-0,006
-701,787	240,071	-0,080	-0,098
-700,772	115,568	-0,066	-0,059
-699,758	-200,000	-0,006	-0,179
-698,743	389,663	0,006	-0,009
-697,729	44,903	0,135	-0,091
-696,714	800,000	-0,045	-0,142
-695,699	-55,603	-0,029	-0,010
-694,685	-23,535	-0,079	0,035
-693,670	97,363	-0,090	-0,076
-692,656	20,715	0,173	0,103
-691,641	800,000	0,029	0,068
-690,627	70,894	-0,028	-0,021
-689,612	-9,617	-0,062	-0,030
-688,597	-161,155	0,062	-0,002
-687,583	75,079	0,071	0,055
-686,568	20,496	-0,061	-0,036
-685,554	-161,496	0,071	-0,003
-684,539	-118,479	-0,063	0,008
-683,524	98,159	0,060	0,051
-682,510	-200,000	-0,023	0,075
-681,495	-95,031	-0,128	-0,025
-680,481	-15,172	-0,097	-0,045
-679,466	-67,962	-0,117	-0,033
-678,451	-165,679	-0,140	0,004
-677,437	234,175	-0,047	-0,057
-676,422	-77,940	-0,135	0,034
-675,408	109,966	0,148	0,131
-674,393	800,000	0,015	0,046
-673,378	121,543	-0,084	-0,077
-672,364	-73,740	-0,181	0,048
-671,349	800,000	-0,034	-0,098
-670,335	-57,204	-0,037	-0,012
-669,320	148,179	0,038	0,038
-668,305	367,933	-0,018	0,026
-667,291	-91,005	-0,126	0,026
-666,276	364,537	0,090	-0,134
-665,262	220,986	-0,123	-0,145
-664,247	99,810	-0,102	-0,087
-663,232	-200,000	-0,041	-0,139
-662,218	74,566	0,011	-0,008
-661,203	800,000	0,031	0,066
-660,189	402,746	0,044	-0,069
-659,174	-93,877	0,066	0,013
-658,159	-200,000	-0,004	0,072
-657,145	-18,784	-0,279	-0,127
-656,130	800,000	0,031	0,074
-655,116	-179,761	-0,023	-0,000
-654,101	-43,022	0,078	0,029
-653,086	-200,000	-0,004	-0,030
-652,072	800,000	-0,056	-0,144
-651,057	30,647	-0,090	-0,056
-650,043	407,338	-0,004	-0,006
-649,028	-116,321	-0,034	-0,005
-648,014	800,000	0,026	-0,078
-646,999	786,554	0,039	0,080
-645,984	-138,037	-0,067	-0,005
-644,970	800,000	-0,010	-0,027
-643,955	-200,000	0,005	-0,065
-642,941	43,728	-0,047	-0,032
-641,926	800,000	0,060	-0,132
-640,911	65,288	0,089	0,066
-639,897	145,505	-0,085	0,084
-638,882	-200,000	0,001	0,155
-637,868	-75,781	-0,161	0,042
-636,853	-21,893	-0,096	0,043
-635,838	-200,000	-0,001	-0,143
-634,824	38,797	-0,140	0,091
-633,809	34,449	0,126	-0,081
-632,795	611,045	0,091	0,168
-631,780	297,602	-0,016	0,021
-630,765	-96,340	-0,148	-0,028
-629,751	11,301	-0,072	-0,040
-628,736	-91,324	-0,109	0,023
-627,722	128,453	-0,044	-0,041
-626,707	307,109	0,039	0,054
-625,692	310,291	0,063	0,087
-624,678	187,923	0,077	0,084
-623,663	-32,634	0,054	-0,022
-622,649	42,702	-0,180	-0,120
-621,634	-200,000	-0,006	0,053
-620,619	-200,000	0,008	-0,035
-619,605	-200,000	0,010	-0,048
-618,590	34,157	0,027	0,017
-617,576	-152,319	0,088	0,005
-616,561	-200,000	-0,008	0,203
-615,546	93,677	-0,067	-0,055
-614,532	-200,000	-0,096	0,000
-613,517	538,316	0,035	-0,061
-612,503	-200,000	-0,016	0,093
-611,488	-46,571	0,086	0,031
-610,474	800,000	-0,016	0,044
-609,459	241,347	-0,057	-0,070
-608,444	-200,000	-0,003	-0,064
-607,430	445,102	-0,086	-0,139
-606,415	-200,000	-0,002	0,021
-605,401	439,247	-0,104	0,167
-604,386	-120,793	0,024	0,003
-603,371	-200,000	0,047	0,155
-602,357	496,433	-0,014	0,024
-601,342	-78,673	-0,250	0,062
-600,328	-3,270	0,061	-0,031
-599,313	-39,215	-0,066	0,025
-598,298	88,462	-0,101	0,082
-597,284	367,198	0,054	-0,080
-596,269	800,000	0,020	0,060
-595,255	-200,000	-0,029	0,122
-594,240	800,000	0,014	-0,039
-593,225	32,850	-0,087	0,055
-592,211	-200,000	0,024	0,084
-591,196	800,000	-0,020	0,060
-590,182	36,106	0,135	-0,087
-589,167	59,870	-0,034	-0,025
-588,152	-200,000	0,052	-0,195
-587,138	199,098	-0,080	-0,090
-586,123	-200,000	0,012	-0,109
-585,109	-193,763	-0,137	-0,001
-584,094	166,086	-0,065	0,068
-583,079	-139,225	0,136	-0,011
-582,065	461,798	0,023	0,037
-581,050	6,444	-0,124	0,067
-580,036	800,000	0,067	0,139
-579,021	-7,870	-0,090	0,045
-578,006	394,853	0,144	-0,220
-576,992	326,608	0,080	-0,112
-575,977	534,931	-0,035	-0,060
-574,963	157,295	0,075	-0,076
-573,948	257,822	0,056	0,071
-572,934	370,320	0,053	0,078
-571,919	800,000	-0,075	-0,200
-570,904	20,335	-0,146	-0,086
-569,890	-200,000	-0,033	0,137
-568,875	-68,049	0,066	-0,019
-567,861	-138,082	0,111	0,009
-566,846	14,386	0,071	-0,040
-565,831	134,469	-0,063	-0,060
-564,817	116,033	-0,043	-0,039
-563,802	-200,000	0,024	-0,130
-562,788	705,387	-0,009	0,017
-561,773	-200,000	-0,011	-0,037
-560,758	-94,711	0,128	-0,025
-559,744	-39,178	0,133	0,051
-558,729	222,061	0,077	-0,091
-557,715	-126,359	-0,077	0,008
-556,700	51,610	-0,079	-0,055
-555,685	800,000	0,023	-0,058
-554,671	-143,393	-0,034	-0,002
-553,656	31,546	-0,079	0,050
-552,642	-200,000	0,022	0,102
-551,627	-183,786	0,122	0,001
-550,612	42,477	0,141	-0,093
-549,598	-200,000	-0,043	-0,268
-548,583	84,607	-0,045	0,036
-547,569	369,663	-0,062	-0,092
-546,554	347,068	0,081	-0,117
-545,539	330,813	0,044	-0,062
-544,525	-168,996	-0,067	-0,002
-543,510	-117,451	0,067	0,009
-542,496	-200,000	-0,025	0,132
-541,481	-200,000	0,013	-0,056
-540,466	156,511	0,035	0,035
-539,452	-90,521	-0,052	-0,011
-538,437	-200,000	-0,034	0,114
-537,423	25,757	-0,074	0,045
-536,408	30,536	0,067	0,042
-535,393	800,000	-0,014	0,039
-534,379	-200,000	-0,022	-0,123
-533,364	-200,000	-0,030	-0,099
-532,350	685,815	0,015	0,029
-531,335	-200,000	0,023	0,084
-530,321	244,041	-0,068	0,084
-529,306	229,959	0,078	0,093
-528,291	-113,363	0,094	0,013
-527,277	184,890	-0,044	0,048
-526,262	-200,000	0,002	-0,035
-525,248	89,387	0,057	-0,046
-524,233	-76,992	0,120	-0,030
-523,218	800,000	-0,014	-0,040
-522,204	85,581	-0,147	-0,118
-521,189	-67,611	-0,087	-0,025
-520,175	241,505	-0,054	-0,066
-519,160	-200,000	0,000	-0,118
-518,145	-18,003	-0,097	-0,044
-517,131	754,371	0,043	0,085
-516,116	-141,014	0,261	0,019
-515,102	490,826	0,007	0,012
-514,087	189,489	0,064	-0,071
-513,072	10,946	-0,093	0,052
-512,058	85,618	0,059	-0,047
-511,043	7,620	0,099	-0,054
-510,029	233,929	-0,032	0,038
-509,014	52,063	-0,054	-0,038
-507,999	202,742	-0,062	-0,070
-506,985	70,925	-0,153	-0,115
-505,970	189,812	-0,084	-0,092
-504,956	800,000	-0,048	-0,136
-503,941	-200,000	-0,007	0,094
-502,926	381,636	0,065	0,097
-501,912	53,298	-0,086	0,060
-500,897	146,823	0,193	0,189
-499,883	74,239	-0,046	-0,035
-498,868	-200,000	0,008	-0,033
-497,853	99,176	-0,044	-0,037
-496,839	800,000	-0,045	-0,146
-495,824	-200,000	-0,015	0,060
-494,810	68,764	0,124	0,093
-493,795	-55,753	0,084	0,027
-492,781	243,953	-0,055	-0,068
-491,766	63,536	0,044	0,032
-490,751	9,918	-0,038	-0,021
-489,737	-200,000	0,021	-0,087
-488,722	42,661	0,085	-0,056
-487,708	145,208	0,079	0,077
-486,693	-74,037	-0,079	0,021
-485,678	-95,287	0,161	-0,031
-484,664	81,514	-0,048	-0,038
-483,649	85,298	0,017	-0,014
-482,635	668,693	-0,022	-0,042
-481,620	420,412	0,052	0,081
-480,605	800,000	0,049	0,116
-479,591	25,324	0,086	0,052
-478,576	109,688	-0,055	0,048
-477,562	800,000	0,027	-0,061
-476,547	19,331	-0,098	0,057
-475,532	-200,000	0,010	-0,088
-474,518	94,971	0,035	0,029
-473,503	74,914	-0,053	0,041
-472,489	-114,747	0,044	0,006
-471,474	-200,000	0,031	-0,147
-470,459	64,071	0,036	-0,026
-469,445	246,273	0,050	0,061
-468,430	170,363	0,055	-0,058
-467,416	177,113	-0,061	-0,065
-466,401	152,109	0,064	0,064
-465,386	800,000	0,010	-0,032
-464,372	112,393	0,025	-0,022
-463,357	800,000	0,033	0,103
-462,343	-94,717	0,091	0,018
-461,328	-200,000	-0,015	-0,065
-460,313	141,170	-0,020	-0,019
-459,299	-164,406	0,041	0,001
-458,284	49,140	0,057	0,039
-457,270	267,388	0,034	0,043
-456,255	-200,000	-0,007	-0,155
-455,241	625,341	0,038	0,071
-454,226	32,618	0,088	-0,055
-453,211	-200,000	0,009	0,053
-452,197	-9,744	0,125	-0,060
-451,182	800,000	-0,044	0,124
-450,168	62,343	0,112	0,081
-449,153	81,511	-0,130	-0,102
-448,138	-200,000	0,015	-0,080
-447,124	-114,266	0,042	-0,006
-446,109	4,264	0,128	0,068
-445,095	-200,000	0,017	0,096
-444,080	-74,380	0,084	0,022
-443,065	178,190	0,021	0,022
-442,051	800,000	0,021	-0,056
-441,036	-105,576	0,105	-0,017
-440,022	-30,199	-0,103	0,043
-439,007	107,317	0,075	-0,065
-437,992	-120,258	0,075	-0,009
-436,978	-109,279	-0,092	-0,014
-435,963	19,421	0,046	0,027
-434,949	-89,089	-0,142	-0,030
-433,934	311,047	0,031	-0,043
-432,919	-150,675	-0,114	-0,006
-431,905	259,221	-0,038	0,047
-430,890	-107,714	-0,094	0,015
-429,876	-200,000	0,025	0,087
-428,861	275,092	-0,048	0,062
-427,846	-200,000	-0,021	-0,155
-426,832	-192,860	-0,040	0,000
-425,817	-18,837	-0,060	0,027
-424,803	37,541	0,152	-0,098
-423,788	-200,000	0,000	0,044
-422,773	516,191	-0,052	0,089
-421,759	800,000	0,017	0,039
-420,744	-25,383	-0,162	-0,069
-419,730	-200,000	-0,039	-0,140
-418,715	350,260	-0,080	-0,116
-417,701	-200,000	0,011	0,057
-416,686	528,572	-0,053	0,092
-415,671	-127,234	0,191	0,020
-414,657	800,000	0,062	0,129
-413,642	97,028	0,008	0,006
-412,628	72,803	-0,091	-0,069
-411,613	-172,323	-0,208	0,005
-410,598	9,378	0,089	0,049
-409,584	-200,000	0,004	0,072
-408,569	375,794	0,058	0,087
-407,555	382,591	0,059	-0,089
-406,540	150,341	0,015	0,015
-405,525	-15,607	0,113	-0,052
-404,511	318,622	-0,053	0,073
-403,496	-200,000	-0,006	-0,111
-402,482	-101,908	0,146	-0,025
-401,467	-200,000	-0,020	0,069
-400,452	11,211	0,018	0,010
-399,438	60,760	0,115	0,083
-398,423	362,301	-0,035	0,051
-397,409	-200,000	0,010	0,102
-396,394	800,000	-0,022	-0,056
-395,379	-200,000	-0,016	-0,063
-394,365	800,000	0,068	0,188
-393,350	318,983	-0,069	0,096
-392,336	-16,497	0,042	-0,019
-391,321	-200,000	0,021	-0,197
-390,306	-16,643	-0,071	0,032
-389,292	15,596	-0,032	-0,018
-388,277	-28,948	0,100	-0,041
-387,263	-200,000	-0,033	0,138
-386,248	800,000	0,013	0,035
-385,233	-200,000	0,019	0,085
-384,219	-35,574	0,060	-0,024
-383,204	-59,592	-0,153	-0,048
-382,190	120,327	0,029	-0,026
-381,175	-200,000	0,005	0,024
-380,160	167,327	-0,106	-0,110
-379,146	800,000	-0,034	-0,079
-378,131	128,395	0,054	-0,050
-377,117	-64,890	-0,042	-0,012
-376,102	-200,000	0,010	-0,083
-375,088	-118,238	-0,079	0,010
-374,073	800,000	0,031	0,094
-373,058	-129,448	0,224	0,022
-372,044	800,000	0,028	-0,065
-371,029	144,018	-0,008	-0,008
-370,015	-200,000	-0,043	0,170
-369,000	187,623	0,053	0,058
-367,985	800,000	-0,017	-0,040
-366,971	-20,740	0,056	-0,025
-365,956	396,855	0,081	0,123
-364,942	-21,838	0,125	0,055
-363,927	-89,555	0,098	-0,021
-362,912	-124,797	-0,156	0,017
-361,898	482,921	-0,038	-0,063
-360,883	-24,042	-0,108	0,047
-359,869	800,000	0,026	0,070
-358,854	-200,000	0,001	0,131
-357,839	221,943	0,087	0,102
-356,825	291,772	0,118	0,157
-355,810	-200,000	0,002	0,058
-354,796	9,662	0,099	-0,054
-353,781	800,000	-0,045	-0,144
-352,766	227,654	0,083	-0,098
-351,752	-102,025	0,035	-0,006
-350,737	319,808	0,040	-0,056
-349,723	-56,928	0,097	0,031
-348,708	-107,832	0,036	0,006
-347,693	-200,000	0,029	0,201
-346,679	85,915	-0,089	-0,071
-345,664	108,979	-0,023	0,020
-344,650	106,209	0,080	0,069
-343,635	131,715	-0,107	0,100
-342,620	-114,756	-0,069	0,009
-341,606	200,995	-0,113	0,126
-340,591	-55,677	-0,077	-0,025
-339,577	-200,000	0,005	0,041
-338,562	800,000	-0,062	-0,175
-337,548	800,000	0,080	-0,163
-336,533	35,369	-0,122	0,077
-335,518	147,008	0,094	0,092
-334,504	38,069	-0,061	-0,040
-333,489	-130,148	-0,089	0,009
-332,475	105,525	0,014	-0,012
-331,460	227,031	0,080	-0,094
-330,445	214,270	-0,011	-0,012
-329,431	800,000	-0,055	0,124
-328,416	41,007	-0,179	0,117
-327,402	800,000	0,032	-0,090
-326,387	-200,000	-0,039	-0,150
-325,372	461,236	-0,048	-0,077
-324,358	-53,204	-0,086	-0,029
-323,343	-7,200	-0,099	0,049
-322,329	120,410	-0,039	-0,036
-321,314	-2,814	0,102	0,051
-320,299	80,837	0,027	-0,021
-319,285	302,256	0,122	0,165
-318,270	42,255	-0,025	-0,017
-317,256	-200,000	-0,023	-0,083
-316,241	88,036	-0,059	-0,047
-315,226	248,749	-0,057	0,071
-314,212	245,502	0,051	0,062
-313,197	90,447	0,062	-0,050
-312,183	788,348	0,010	0,020
-311,168	-46,508	-0,115	-0,041
-310,153	185,874	-0,052	-0,056
-309,139	263,996	-0,073	0,092
-308,124	60,693	0,050	0,036
-307,110	779,964	0,058	-0,115
-306,095	22,189	0,106	0,062
-305,080	-60,717	-0,055	0,017
-304,066	-200,000	-0,027	-0,107
-303,051	-94,469	-0,055	-0,011
-302,037	-200,000	-0,042	-0,141
-301,022	-115,988	0,117	0,016
-300,008	-142,356	0,101	0,007
-298,993	91,497	0,044	0,036
-297,978	448,874	-0,022	0,036
-296,964	-78,059	-0,071	-0,018
-295,949	40,402	-0,063	-0,041
-294,935	-107,072	-0,073	0,012
-293,920	-200,000	-0,022	-0,111
-292,905	725,548	0,061	0,118
-291,891	800,000	0,004	0,010
-290,876	512,492	0,044	-0,074
-289,862	287,696	-0,072	-0,095
-288,847	12,558	0,050	-0,028
-287,832	-13,692	-0,031	-0,015
-286,818	-200,000	0,047	0,000
-285,803	-154,706	0,097	-0,005
-284,789	108,384	-0,059	-0,051
-283,774	-200,000	0,006	-0,041
-282,759	209,407	0,038	-0,043
-281,745	30,318	0,036	0,022
-280,730	41,802	-0,116	-0,076
-279,716	-97,587	-0,083	0,015
-278,701	-200,000	0,019	0,070
-277,686	-166,154	0,066	-0,002
-276,672	-109,714	-0,031	-0,005
-275,657	-200,000	-0,004	-0,028
-274,643	800,000	0,014	0,033
-273,628	-200,000	-0,046	-0,155
-272,613	82,441	-0,111	-0,087
-271,599	382,300	-0,099	0,147
-270,584	800,000	-0,007	-0,016
-269,570	-200,000	0,045	0,159
-268,555	255,481	-0,114	0,142
-267,540	-62,265	0,026	0,008
-266,526	175,948	-0,071	-0,074
-265,511	-15,356	-0,189	0,087
-264,497	-23,527	0,106	0,046
-263,482	58,396	0,128	-0,090
-262,467	494,266	0,018	-0,030
-261,453	127,115	-0,059	0,054
-260,438	-200,000	0,033	-0,191
-259,424	734,530	-0,034	-0,066
-258,409	-200,000	0,010	0,064
-257,395	-75,597	0,077	-0,020
-256,380	365,059	-0,075	0,109
-255,365	47,678	-0,109	-0,074
-254,351	153,840	-0,032	-0,032
-253,336	-115,864	0,022	-0,003
-252,322	-200,000	-0,026	-0,120
-251,307	-94,060	0,038	0,007
-250,292	-200,000	0,028	0,124
-249,278	41,565	0,046	-0,030
-248,263	-114,895	0,043	0,006
-247,249	69,821	-0,068	0,050
-246,234	196,048	0,128	-0,141
-245,219	-200,000	-0,012	0,047
-244,205	-200,000	0,003	-0,024
-243,190	-69,674	-0,057	-0,016
-242,176	-39,214	0,073	-0,027
-241,161	-37,934	-0,130	0,050
-240,146	-84,401	0,052	0,012
-239,132	5,254	0,090	0,048
-238,117	-200,000	-0,004	-0,032
-237,103	-200,000	-0,010	0,054
-236,088	800,000	0,036	-0,114
-235,073	-44,852	-0,061	0,022
-234,059	-108,088	0,073	0,011
-233,044	800,000	-0,048	0,152
-232,030	-9,790	-0,054	-0,026
-231,015	123,466	0,052	-0,047
-230,000	-200,000	0,003	0,052
-228,986	455,636	-0,017	-0,027
-227,971	800,000	0,018	0,055
-226,957	556,645	0,022	0,038
-225,942	-200,000	0,026	0,103
-224,927	75,119	-0,053	-0,041
-223,913	800,000	0,055	-0,114
-222,898	313,923	0,057	-0,077
-221,884	155,285	-0,048	-0,048
-220,869	160,876	0,093	0,094
-219,855	184,815	0,146	0,156
-218,840	116,221	-0,168	0,148
-217,825	-200,000	0,005	-0,077
-216,811	-200,000	-0,024	0,078
-215,796	-70,352	-0,012	-0,003
-214,782	724,935	-0,053	0,102
-213,767	110,936	0,067	0,059
-212,752	120,916	0,020	0,018
-211,738	-200,000	0,004	0,075
-210,723	20,860	0,027	0,016
-209,709	-200,000	-0,009	-0,079
-208,694	68,868	-0,038	0,028
-207,679	240,402	-0,010	0,012
-206,665	-159,216	-0,108	0,004
-205,650	111,925	0,062	-0,054
-204,636	-61,727	0,215	0,065
-203,621	422,420	-0,044	-0,068
-202,606	-200,000	0,027	-0,117
-201,592	-200,000	-0,007	-0,122
-200,577	30,061	-0,109	0,067
-199,563	18,078	-0,057	0,033
-198,548	-200,000	0,001	0,024
-197,533	135,277	-0,077	0,072
-196,519	5,403	0,074	0,039
-195,504	301,088	-0,013	-0,018
-194,490	-200,000	-0,017	-0,122
-193,475	-43,516	-0,045	-0,016
-192,460	-103,712	-0,056	-0,009
-191,446	-200,000	-0,018	0,127
-190,431	669,277	-0,051	0,095
-189,417	582,012	0,091	-0,161
-188,402	-200,000	-0,018	0,066
-187,387	-196,999	0,056	0,000
-186,373	332,904	-0,009	0,013
-185,358	-200,000	-0,006	-0,067
-184,344	261,677	-0,030	0,038
-183,329	-1,761	-0,042	0,021
-182,315	-127,060	0,011	0,001
-181,300	-200,000	-0,034	-0,123
-180,285	800,000	0,014	-0,033
-179,271	-41,882	-0,098	-0,036
-178,256	-7,928	0,024	-0,012
-177,242	-200,000	-0,009	0,060
-176,227	47,070	0,052	0,035
-175,212	-31,816	-0,025	0,010
-174,198	-106,661	0,138	-0,022
-173,183	800,000	0,032	-0,077
-172,169	346,452	0,042	-0,060
-171,154	-121,687	-0,152	0,018
-170,139	-142,888	-0,031	0,002
-169,125	-159,134	0,042	-0,002
-168,110	-200,000	0,005	-0,131
-167,096	175,663	0,039	-0,041
-166,081	-200,000	0,004	0,164
-165,066	149,237	-0,098	0,095
-164,052	-10,387	-0,070	-0,033
-163,037	179,850	0,127	0,135
-162,023	41,809	0,059	0,038
-161,008	800,000	-0,034	0,073
-159,993	-200,000	-0,053	-0,192
-158,979	-135,676	0,096	-0,008
-157,964	70,508	0,049	0,036
-156,950	-15,040	-0,053	-0,025
-155,935	-67,425	-0,047	-0,013
-154,920	706,215	-0,052	0,099
-153,906	-23,341	0,094	-0,041
-152,891	280,924	-0,028	0,036
-151,877	789,703	-0,053	0,105
-150,862	-119,228	-0,052	0,007
-149,847	-109,460	-0,056	0,008
-148,833	-66,436	0,077	-0,022
-147,818	76,037	-0,043	0,032
-146,804	73,741	-0,102	-0,077
-145,789	-122,712	0,057	-0,007
-144,775	-200,000	-0,012	-0,062
-143,760	800,000	-0,033	-0,102
-142,745	-200,000	-0,029	-0,145
-141,731	247,622	0,092	-0,112
-140,716	113,356	0,034	0,030
-139,702	-200,000	-0,013	0,126
-138,687	-200,000	-0,004	-0,025
-137,672	-142,864	-0,026	-0,002
-136,658	-60,111	-0,086	-0,026
-135,643	-200,000	0,003	-0,040
-134,629	-200,000	-0,000	-0,046
-133,614	800,000	0,053	-0,141
-132,599	-38,896	0,083	-0,031
-131,585	-200,000	0,017	0,117
-130,570	-145,202	-0,119	-0,008
-129,556	43,158	-0,044	-0,029
-128,541	-200,000	0,016	0,072
-127,526	-74,817	0,039	0,010
-126,512	-14,503	0,080	0,037
-125,497	284,736	0,056	0,073
-124,483	35,627	0,049	-0,031
-123,468	800,000	-0,036	0,075
-122,453	-23,316	-0,010	0,004
-121,439	-200,000	0,005	-0,027
-120,424	-200,000	0,004	-0,067
-119,410	-200,000	0,025	0,148
-118,395	77,740	-0,066	-0,051
