DTS Sentinel unit serial number:	SN410029Multiplexer serial number:	ORYXHardware model number:	OX2-SRSoftware version number:	ORYX F/W v4,00 Oryx Data Collector v3.7.2.0data status	okinstallation	B5 Nyhavnadifferential loss correction	single-endedforward channel	channel 2reverse channel	N/Adate	2023/12/12time	14:07:13forward acquisition time	300,00reverse acquisition time	0,00gamma	499,1914k internal	0,3157k external	0,3157temperature offset calibration	1,0000default loss term (dB/km)	0,3820temperature slope calibration	1,0000multiplexer offset coefficient	1,0000multiplexer slope coefficient	1,0000fibre end	0,00T internal ref (°C)	15,79T ext. ref 1 (°C)	-0,27T ext. ref 2 (°C)	-0,51length (m)	temperature (°C)	Stokes	anti-Stokes-744,400	-200,000	-0,020	-0,090
-743,385	71,451	-0,164	0,125
-742,371	-76,935	0,123	-0,032
-741,356	51,472	-0,140	0,098
-740,342	340,501	0,050	0,073
-739,327	-179,065	-0,223	-0,004
-738,312	-46,260	0,059	0,021
-737,298	-87,175	-0,195	-0,043
-736,283	-27,133	0,054	0,023
-735,269	-87,366	-0,272	-0,060
-734,254	-13,786	-0,051	-0,024
-733,239	-97,464	-0,340	-0,065
-732,225	-118,440	0,102	0,013
-731,210	-200,000	-0,003	0,128
-730,196	-200,000	0,001	-0,093
-729,181	-159,138	-0,054	-0,002
-728,167	218,790	0,068	-0,081
-727,152	-200,000	0,010	0,109
-726,137	52,670	0,070	-0,049
-725,123	191,298	-0,061	-0,068
-724,108	-20,954	-0,021	-0,009
-723,094	-79,087	-0,160	-0,040
-722,079	154,080	0,056	-0,056
-721,064	-200,000	0,031	-0,113
-720,050	-159,148	-0,020	-0,001
-719,035	294,002	-0,083	0,112
-718,021	46,447	0,100	0,068
-717,006	-34,807	-0,176	-0,070
-715,991	25,352	-0,086	0,053
-714,977	143,385	0,011	0,011
-713,962	-200,000	-0,012	0,045
-712,948	493,879	0,042	0,072
-711,933	-200,000	-0,016	-0,104
-710,918	92,940	0,033	-0,027
-709,904	93,338	0,054	-0,045
-708,889	795,537	-0,046	-0,094
-707,875	-49,384	-0,034	-0,012
-706,860	16,114	0,026	0,015
-705,845	-200,000	-0,001	0,189
-704,831	760,343	0,066	0,132
-703,816	452,523	-0,118	0,193
-702,802	-28,940	-0,080	-0,034
-701,787	159,278	-0,096	-0,098
-700,772	-140,701	-0,037	0,003
-699,758	429,679	0,023	0,037
-698,743	64,240	0,172	0,127
-697,729	505,302	0,061	0,104
-696,714	-109,759	0,107	0,016
-695,699	800,000	-0,041	-0,090
-694,685	141,000	-0,083	-0,080
-693,670	241,777	0,042	0,052
-692,656	161,137	0,052	0,053
-691,641	264,133	0,071	0,091
-690,627	-87,202	-0,058	-0,013
-689,612	242,340	-0,026	0,033
-688,597	800,000	-0,106	-0,255
-687,583	-161,826	0,040	-0,001
-686,568	-144,048	0,031	0,002
-685,554	-200,000	-0,000	0,146
-684,539	-200,000	0,001	0,034
-683,524	110,473	-0,074	0,065
-682,510	150,602	0,076	0,076
-681,495	-13,529	-0,162	0,077
-680,481	503,102	-0,111	0,189
-679,466	800,000	0,043	0,121
-678,451	-161,623	0,101	0,004
-677,437	-200,000	-0,001	-0,031
-676,422	800,000	0,017	-0,043
-675,408	-66,560	0,106	0,031
-674,393	800,000	-0,020	-0,051
-673,378	89,948	0,071	0,059
-672,364	-29,137	0,108	-0,045
-671,349	275,369	0,026	-0,034
-670,335	-200,000	-0,002	0,138
-669,320	-51,600	-0,121	0,041
-668,305	-40,689	0,113	-0,043
-667,291	800,000	-0,024	-0,051
-666,276	-47,120	-0,129	-0,046
-665,262	-47,629	-0,059	-0,021
-664,247	81,310	0,077	0,061
-663,232	341,815	-0,034	0,049
-662,218	-121,732	0,083	-0,010
-661,203	624,565	-0,034	-0,064
-660,189	-200,000	-0,008	0,136
-659,174	-128,314	-0,181	0,019
-658,159	61,120	0,076	0,055
-657,145	26,381	-0,026	0,016
-656,130	-200,000	-0,001	0,021
-655,116	21,822	0,052	0,031
-654,101	800,000	-0,033	0,068
-653,086	-154,333	0,070	0,003
-652,072	-200,000	0,017	-0,071
-651,057	-40,934	-0,078	-0,030
-650,043	-200,000	-0,013	-0,106
-649,028	138,857	0,007	0,006
-648,014	-11,154	0,060	0,029
-646,999	-97,277	0,070	0,013
-645,984	-200,000	0,031	0,114
-644,970	-65,217	-0,071	-0,021
-643,955	800,000	-0,004	-0,010
-642,941	-92,021	-0,110	0,023
-641,926	-75,769	-0,083	0,021
-640,911	-200,000	-0,012	0,162
-639,897	-200,000	-0,030	0,108
-638,882	121,897	-0,125	-0,115
-637,868	536,276	-0,019	-0,033
-636,853	800,000	-0,061	-0,169
-635,838	561,251	-0,063	-0,112
-634,824	-200,000	-0,015	-0,092
-633,809	-200,000	-0,007	-0,039
-632,795	800,000	-0,033	-0,072
-631,780	157,217	-0,028	0,028
-630,765	-200,000	0,000	0,050
-629,751	-200,000	0,020	-0,082
-628,736	-200,000	0,019	-0,126
-627,722	22,975	-0,133	-0,080
-626,707	-84,895	-0,165	0,038
-625,692	29,821	-0,074	0,046
-624,678	-200,000	-0,010	-0,032
-623,663	-200,000	-0,003	0,075
-622,649	-126,587	-0,066	0,007
-621,634	666,160	-0,085	-0,161
-620,619	113,238	-0,011	-0,010
-619,605	-152,050	-0,129	0,007
-618,590	-200,000	0,025	0,137
-617,576	-200,000	-0,026	-0,139
-616,561	37,405	0,064	0,041
-615,546	-200,000	0,002	0,079
-614,532	-200,000	-0,015	-0,216
-613,517	800,000	0,026	-0,069
-612,503	21,921	-0,070	0,042
-611,488	-55,851	0,068	0,022
-610,474	-73,394	-0,106	-0,028
-609,459	55,222	-0,042	-0,029
-608,444	800,000	-0,045	-0,102
-607,430	-200,000	-0,010	0,083
-606,415	800,000	0,041	-0,119
-605,401	387,200	0,098	-0,150
-604,386	800,000	0,024	-0,073
-603,371	-74,235	0,132	0,035
-602,357	226,063	0,098	0,117
-601,342	-112,593	-0,152	-0,022
-600,328	800,000	0,047	-0,135
-599,313	302,747	0,018	-0,024
-598,298	-176,537	-0,085	0,002
-597,284	-139,690	0,115	0,009
-596,269	-156,767	-0,130	-0,006
-595,255	-74,180	0,096	-0,025
-594,240	-200,000	0,003	-0,073
-593,225	800,000	-0,031	0,080
-592,211	-49,638	0,055	-0,019
-591,196	-200,000	0,011	0,142
-590,182	-144,687	0,080	-0,005
-589,167	148,596	-0,049	-0,049
-588,152	83,153	0,079	0,063
-587,138	-24,188	0,039	0,017
-586,123	160,184	-0,062	0,064
-585,109	-57,435	-0,060	0,019
-584,094	2,318	0,042	-0,022
-583,079	-78,215	0,178	-0,045
-582,065	-58,894	0,090	-0,028
-581,050	-200,000	0,001	0,011
-580,036	-0,734	-0,075	-0,039
-579,021	-107,486	0,060	-0,010
-578,006	-200,000	-0,013	-0,078
-576,992	-150,559	0,031	0,002
-575,977	-200,000	-0,013	-0,115
-574,963	-100,011	-0,101	0,018
-573,948	285,757	0,051	0,067
-572,934	-42,244	-0,106	-0,039
-571,919	-200,000	-0,014	-0,053
-570,904	-200,000	0,008	-0,153
-569,890	-93,385	0,149	-0,030
-568,875	-83,831	0,079	-0,018
-567,861	-5,565	-0,135	0,067
-566,846	-9,904	0,022	-0,011
-565,831	-200,000	-0,019	-0,076
-564,817	586,422	0,053	0,096
-563,802	-99,057	-0,108	0,020
-562,788	-200,000	-0,008	-0,060
-561,773	-200,000	-0,030	0,117
-560,758	800,000	0,019	-0,044
-559,744	-27,844	0,138	-0,058
-558,729	-200,000	0,021	0,072
-557,715	-155,676	-0,116	-0,005
-556,700	-50,187	-0,089	0,031
-555,685	166,814	-0,091	0,094
-554,671	-84,312	0,107	0,025
-553,656	158,589	0,088	-0,089
-552,642	-200,000	0,012	0,072
-551,627	668,735	-0,030	-0,057
-550,612	-120,018	-0,220	-0,027
-549,598	800,000	-0,029	-0,061
-548,583	4,623	-0,076	-0,041
-547,569	800,000	0,032	0,069
-546,554	101,957	-0,076	0,065
-545,539	-142,497	-0,082	-0,006
-544,525	-200,000	0,005	-0,027
-543,510	-32,376	-0,077	0,031
-542,496	129,392	-0,078	-0,073
-541,481	400,695	-0,097	-0,149
-540,466	-200,000	0,010	-0,075
-539,452	-67,320	0,060	-0,017
-538,437	-48,705	-0,088	-0,031
-537,423	-56,625	0,093	-0,030
-536,408	-1,123	0,025	-0,013
-535,393	-200,000	-0,000	-0,183
-534,379	451,937	0,085	-0,137
-533,364	-200,000	0,018	0,064
-532,350	-200,000	-0,028	0,134
-531,335	48,675	0,026	-0,018
-530,321	-87,207	0,087	-0,019
-529,306	177,957	-0,032	-0,034
-528,291	-200,000	0,011	-0,210
-527,277	-71,732	0,060	-0,016
-526,262	800,000	0,033	-0,077
-525,248	800,000	-0,009	0,029
-524,233	227,759	0,002	-0,003
-523,218	-200,000	0,005	-0,024
-522,204	800,000	0,037	-0,087
-521,189	-104,570	-0,108	-0,018
-520,175	596,185	-0,060	0,109
-519,160	95,930	0,064	-0,054
-518,145	58,069	0,065	-0,047
-517,131	396,142	0,032	0,049
-516,116	-200,000	-0,030	-0,104
-515,102	-52,111	-0,028	-0,009
-514,087	800,000	0,052	-0,157
-513,072	108,149	0,097	-0,084
-512,058	660,011	-0,024	-0,046
-511,043	800,000	0,044	0,103
-510,029	-200,000	0,004	0,173
-509,014	47,989	-0,085	0,058
-507,999	-113,454	-0,020	0,003
-506,985	800,000	-0,011	0,024
-505,970	-17,668	0,058	0,027
-504,956	800,000	-0,054	-0,122
-503,941	80,878	0,034	-0,027
-502,926	-52,642	-0,073	-0,025
-501,912	85,830	0,082	0,066
-500,897	220,747	0,017	0,020
-499,883	-152,411	0,038	-0,002
-498,868	51,647	-0,081	0,056
-497,853	-200,000	0,005	0,040
-496,839	47,072	-0,085	0,058
-495,824	217,178	-0,069	0,081
-494,810	-200,000	0,023	0,151
-493,795	49,553	0,072	-0,049
-492,781	-200,000	0,007	0,024
-491,766	90,208	-0,028	-0,023
-490,751	-200,000	0,013	-0,085
-489,737	-104,161	-0,082	-0,014
-488,722	102,869	0,041	-0,035
-487,708	90,398	0,081	0,066
-486,693	-200,000	-0,009	0,101
-485,678	331,777	0,067	-0,095
-484,664	-122,437	-0,051	-0,006
-483,649	68,728	-0,055	-0,041
-482,635	263,167	-0,030	-0,038
-481,620	581,740	-0,049	0,087
-480,605	800,000	-0,049	0,142
-479,591	800,000	0,024	-0,062
-478,576	-200,000	0,000	0,072
-477,562	-200,000	-0,003	0,070
-476,547	62,592	-0,013	0,009
-475,532	-152,840	0,081	-0,004
-474,518	367,424	0,084	0,123
-473,503	800,000	0,042	0,108
-472,489	-44,321	0,070	0,025
-471,474	-56,281	-0,047	0,015
-470,459	8,805	-0,046	0,025
-469,445	800,000	-0,070	-0,149
-468,430	388,592	0,047	0,071
-467,416	-200,000	-0,004	0,102
-466,401	472,289	0,082	0,135
-465,386	-99,220	-0,107	0,020
-464,372	800,000	0,044	0,139
-463,357	-200,000	0,030	0,273
-462,343	246,975	-0,060	0,074
-461,328	-200,000	-0,002	-0,012
-460,313	74,941	-0,020	0,015
-459,299	286,419	0,098	-0,130
-458,284	800,000	-0,002	-0,005
-457,270	800,000	0,110	0,230
-456,255	-174,209	-0,096	-0,002
-455,241	800,000	-0,045	0,109
-454,226	51,793	0,113	0,078
-453,211	210,264	0,094	0,108
-452,197	163,259	-0,005	0,005
-451,182	-13,085	0,089	-0,042
-450,168	219,483	0,054	0,063
-449,153	90,353	-0,080	-0,065
-448,138	85,001	-0,118	-0,095
-447,124	-85,492	-0,014	0,003
-446,109	-33,467	0,135	0,054
-445,095	34,809	0,122	-0,078
-444,080	519,192	0,054	0,092
-443,065	-200,000	-0,017	0,151
-442,051	177,136	0,042	-0,044
-441,036	800,000	-0,009	-0,021
-440,022	-200,000	-0,024	-0,082
-439,007	190,930	-0,124	0,136
-437,992	800,000	-0,026	-0,078
-436,978	-70,273	0,058	-0,016
-435,963	533,126	0,029	0,051
-434,949	800,000	-0,032	-0,070
-433,934	337,616	0,078	-0,111
-432,919	800,000	-0,006	0,016
-431,905	1,743	0,063	0,033
-430,890	800,000	0,072	0,155
-429,876	63,887	0,037	0,027
-428,861	228,724	0,027	-0,032
-427,846	800,000	0,032	-0,085
-426,832	-68,188	-0,082	0,023
-425,817	800,000	-0,027	0,079
-424,803	-114,627	-0,058	0,008
-423,788	62,842	0,062	0,045
-422,773	-26,457	0,039	0,017
-421,759	800,000	-0,031	-0,066
-420,744	70,971	-0,057	-0,043
-419,730	376,100	-0,085	-0,127
-418,715	-131,666	0,034	0,003
-417,701	-146,786	-0,142	0,009
-416,686	490,594	-0,043	-0,072
-415,671	800,000	-0,026	-0,054
-414,657	800,000	0,034	0,076
-413,642	445,810	0,034	-0,054
-412,628	30,233	-0,063	0,039
-411,613	-159,966	-0,106	-0,004
-410,598	314,095	-0,077	-0,106
-409,584	319,564	-0,032	-0,045
-408,569	-48,354	0,082	-0,029
-407,555	800,000	0,045	0,112
-406,540	-65,304	-0,033	-0,010
-405,525	36,200	-0,010	-0,006
-404,511	-200,000	-0,025	-0,101
-403,496	800,000	-0,012	0,028
-402,482	321,400	0,027	-0,037
-401,467	127,487	0,034	-0,032
-400,452	-200,000	-0,009	0,041
-399,438	-200,000	0,020	0,104
-398,423	46,212	-0,193	-0,130
-397,409	129,598	0,045	0,042
-396,394	-16,710	0,094	-0,043
-395,379	-200,000	0,002	-0,067
-394,365	-26,592	-0,103	0,043
-393,350	800,000	-0,081	0,257
-392,336	-200,000	-0,021	0,115
-391,321	-200,000	0,001	0,011
-390,306	-134,290	-0,076	0,007
-389,292	63,000	-0,104	-0,076
-388,277	271,313	0,067	0,086
-387,263	-97,238	0,060	-0,011
-386,248	99,390	0,085	0,071
-385,233	800,000	-0,024	0,060
-384,219	-84,578	0,032	0,007
-383,204	-124,195	-0,097	0,011
-382,190	800,000	0,057	-0,120
-381,175	-88,162	0,173	0,037
-380,160	-200,000	0,005	-0,022
-379,146	269,842	-0,045	-0,057
-378,131	-22,022	-0,125	0,055
-377,117	-200,000	-0,001	0,067
-376,102	-200,000	0,046	-0,255
-375,088	5,981	-0,110	-0,059
-374,073	-64,193	0,044	0,013
-373,058	-200,000	-0,029	-0,099
-372,044	-99,941	0,036	0,007
-371,029	-8,892	0,076	0,037
-370,015	17,735	-0,131	-0,076
-369,000	-200,000	-0,024	-0,111
-367,985	-200,000	0,000	-0,188
-366,971	-200,000	0,009	-0,128
-365,956	388,123	0,046	-0,069
-364,942	-200,000	-0,004	0,076
-363,927	-200,000	0,011	0,145
-362,912	506,437	0,030	-0,051
-361,898	-23,783	-0,167	-0,072
-360,883	-116,981	-0,130	0,017
-359,869	800,000	-0,037	-0,114
-358,854	324,035	0,011	0,015
-357,839	-95,083	0,170	0,033
-356,825	800,000	0,017	0,048
-355,810	206,881	-0,058	-0,066
-354,796	-200,000	-0,003	-0,027
-353,781	-140,115	-0,012	-0,001
-352,766	800,000	0,046	-0,116
-351,752	-200,000	0,006	0,182
-350,737	443,883	0,061	0,097
-349,723	399,882	-0,050	0,076
-348,708	45,325	0,073	0,049
-347,693	199,034	0,073	-0,081
-346,679	114,793	-0,030	-0,027
-345,664	-32,634	-0,135	0,054
-344,650	356,952	-0,033	0,047
-343,635	547,434	0,052	0,091
-342,620	11,791	0,071	0,039
-341,606	149,974	0,079	0,078
-340,591	406,322	-0,042	0,064
-339,577	-200,000	-0,038	-0,138
-338,562	800,000	0,024	-0,053
-337,548	276,953	-0,047	-0,060
-336,533	-200,000	-0,017	-0,059
-335,518	135,123	0,078	0,074
-334,504	245,262	0,077	0,095
-333,489	-40,014	-0,156	-0,059
-332,475	72,587	-0,042	-0,032
-331,460	87,669	-0,025	-0,020
-330,445	-200,000	0,029	-0,109
-329,431	89,844	0,077	-0,062
-328,416	231,514	0,024	-0,028
-327,402	-77,094	-0,056	0,014
-326,387	465,269	0,030	-0,048
-325,372	194,186	0,064	-0,070
-324,358	70,194	0,052	-0,039
-323,343	-51,417	-0,070	-0,024
-322,329	-200,000	-0,007	0,140
-321,314	-200,000	-0,016	0,141
-320,299	800,000	-0,028	0,082
-319,285	-200,000	-0,001	0,102
-318,270	-200,000	-0,011	0,036
-317,256	-200,000	0,018	-0,106
-316,241	-119,653	-0,117	-0,015
-315,226	-113,473	0,123	0,017
-314,212	-91,337	0,108	0,022
-313,197	-155,072	-0,045	-0,002
-312,183	390,846	0,073	-0,110
-311,168	800,000	-0,032	0,067
-310,153	-200,000	0,034	-0,137
-309,139	24,767	0,007	0,004
-308,124	126,512	-0,058	0,053
-307,110	-6,743	0,058	0,029
-306,095	-200,000	-0,034	0,136
-305,080	22,181	-0,088	-0,052
-304,066	144,647	0,025	0,024
-303,051	-47,325	0,040	0,014
-302,037	-12,931	0,087	0,041
-301,022	-60,959	-0,053	-0,016
-300,008	-112,808	0,052	0,007
-298,993	39,505	-0,041	0,026
-297,978	-35,045	-0,106	-0,042
-296,964	535,495	-0,038	-0,066
-295,949	-200,000	-0,015	0,063
-294,935	-46,104	-0,173	-0,062
-293,920	800,000	0,041	0,096
-292,905	42,773	0,038	-0,025
-291,891	-58,005	0,087	-0,027
-290,876	80,881	-0,107	0,084
-289,862	-40,091	-0,021	0,008
-288,847	-200,000	0,031	-0,109
-287,832	-23,293	-0,178	0,077
-286,818	-6,763	0,067	0,033
-285,803	-200,000	0,015	0,069
-284,789	-49,738	0,065	0,022
-283,774	-41,658	0,122	0,045
-282,759	15,876	0,068	0,038
-281,745	-200,000	0,020	-0,074
-280,730	231,340	-0,008	-0,009
-279,716	8,481	0,069	0,038
-278,701	-21,164	-0,027	0,012
-277,686	-130,650	0,100	-0,010
-276,672	800,000	0,012	0,036
-275,657	-200,000	-0,059	-0,203
-274,643	141,250	-0,032	-0,030
-273,628	439,309	-0,052	-0,083
-272,613	-81,747	-0,120	-0,028
-271,599	3,102	0,090	0,047
-270,584	461,643	0,023	0,038
-269,570	-200,000	0,004	0,037
-268,555	294,522	-0,068	0,090
-267,540	-200,000	-0,008	-0,091
-266,526	490,689	0,026	-0,042
-265,511	-124,932	-0,095	0,010
-264,497	-200,000	0,010	-0,154
-263,482	800,000	0,036	-0,072
-262,467	800,000	-0,024	-0,051
-261,453	-3,701	0,068	0,034
-260,438	-200,000	0,016	0,098
-259,424	263,125	0,067	0,085
-258,409	800,000	0,039	0,097
-257,395	-131,998	0,075	0,007
-256,380	317,679	0,122	0,168
-255,365	-20,038	-0,148	0,066
-254,351	515,298	-0,029	0,050
-253,336	-200,000	0,010	-0,082
-252,322	-7,634	0,034	-0,017
-251,307	-200,000	-0,009	0,110
-250,292	376,835	0,033	-0,049
-249,278	463,515	-0,066	-0,108
-248,263	800,000	0,049	0,118
-247,249	768,827	0,082	0,162
-246,234	-47,139	-0,110	-0,039
-245,219	-49,874	-0,134	-0,046
-244,205	677,421	0,055	-0,104
-243,190	-200,000	0,017	0,073
-242,176	712,703	-0,081	-0,156
-241,161	-32,812	0,103	0,041
-240,146	-2,541	0,047	-0,024
-239,132	274,490	0,019	-0,025
-238,117	-17,790	-0,123	0,055
-237,103	85,399	0,097	0,077
-236,088	800,000	-0,022	-0,050
-235,073	-136,456	0,093	0,008
-234,059	144,405	0,022	0,021
-233,044	800,000	-0,005	0,014
-232,030	101,723	-0,076	0,064
-231,015	155,088	0,023	0,023
-230,000	782,640	0,097	-0,193
-228,986	56,201	-0,048	0,034
-227,971	-200,000	0,049	0,180
-226,957	307,934	-0,034	0,045
-225,942	800,000	-0,013	0,042
-224,927	-200,000	0,005	-0,075
-223,913	193,167	0,048	-0,053
-222,898	307,213	0,024	-0,032
-221,884	251,929	-0,069	0,085
-220,869	-200,000	0,000	0,074
-219,855	-52,220	-0,051	0,017
-218,840	11,861	0,148	-0,082
-217,825	-200,000	-0,020	0,068
-216,811	-200,000	-0,032	-0,201
-215,796	800,000	-0,030	-0,064
-214,782	-200,000	-0,031	-0,129
-213,767	-24,364	0,027	-0,012
-212,752	-200,000	0,029	0,101
-211,738	418,286	-0,023	0,036
-210,723	-200,000	0,004	0,077
-209,709	800,000	-0,075	-0,163
-208,694	-1,079	0,044	0,022
-207,679	800,000	0,048	0,103
-206,665	33,285	-0,075	-0,047
-205,650	259,006	0,033	-0,042
-204,636	-200,000	0,006	-0,044
-203,621	739,283	0,023	0,046
-202,606	-200,000	0,005	-0,065
-201,592	492,643	-0,040	0,067
-200,577	90,084	-0,069	0,056
-199,563	320,840	0,094	-0,130
-198,548	-200,000	-0,001	0,005
-197,533	3,163	-0,069	0,036
-196,519	84,865	-0,059	0,046
-195,504	383,120	-0,046	0,069
-194,490	-75,605	0,164	-0,042
-193,475	-10,722	-0,044	0,021
-192,460	-200,000	0,005	0,087
-191,446	-1,888	0,089	0,045
-190,431	-55,918	-0,062	0,020
-189,417	-200,000	0,001	0,079
-188,402	800,000	0,051	0,113
-187,387	11,541	0,081	0,045
-186,373	36,203	-0,061	-0,039
-185,358	800,000	0,065	0,171
-184,344	-56,491	0,073	0,023
-183,329	226,529	0,076	0,089
-182,315	800,000	-0,065	0,148
-181,300	-116,570	0,143	-0,019
-180,285	567,782	0,028	-0,049
-179,271	345,074	0,095	-0,135
-178,256	13,406	-0,069	-0,038
-177,242	16,635	0,095	-0,054
-176,227	6,734	-0,101	0,054
-175,212	36,593	0,028	0,018
-174,198	-82,806	-0,054	-0,012
-173,183	19,497	0,064	-0,037
-172,169	617,505	-0,020	-0,037
-171,154	257,034	-0,085	0,105
-170,139	-96,973	0,124	0,023
-169,125	-196,172	0,149	0,001
-168,110	-112,870	0,106	-0,015
-167,096	-200,000	-0,016	-0,058
-166,081	574,466	0,021	0,037
-165,066	396,960	-0,010	0,015
-164,052	-41,226	0,064	-0,024
-163,037	-156,534	0,053	0,002
-162,023	-200,000	0,015	-0,048
-161,008	446,457	0,041	-0,065
-159,993	80,176	-0,057	0,045
-158,979	-200,000	-0,017	0,078
-157,964	-85,001	-0,066	-0,015
-156,950	-200,000	0,006	0,036
-155,935	-0,551	0,144	-0,074
-154,920	-68,525	-0,095	-0,026
-153,906	355,858	0,026	-0,037
-152,891	-145,947	0,083	-0,005
-151,877	-96,620	-0,026	-0,005
-150,862	-16,291	0,070	0,032
-149,847	632,441	-0,097	0,178
-148,833	239,322	0,023	-0,028
-147,818	86,844	0,073	0,058
-146,804	-9,933	0,008	0,004
-145,789	800,000	0,043	0,087
-144,775	70,423	-0,069	0,052
-143,760	39,235	0,077	-0,050
-142,745	800,000	0,060	-0,130
-141,731	-200,000	0,019	-0,061
-140,716	134,970	0,042	0,039
-139,702	-200,000	0,057	0,206
-138,687	97,462	-0,079	0,065
-137,672	379,577	0,049	-0,072
-136,658	-200,000	-0,018	0,066
-135,643	-99,927	-0,112	-0,020
-134,629	800,000	0,006	0,015
-133,614	-54,363	0,088	0,028
-132,599	308,309	-0,049	-0,066
-131,585	12,394	-0,030	0,017
-130,570	-17,100	-0,104	-0,047
-129,556	-200,000	0,013	-0,220
-128,541	504,667	-0,076	-0,126
-127,526	-89,425	0,138	-0,029
-126,512	-200,000	-0,004	0,036
-125,497	23,287	0,042	-0,025
-124,483	304,034	0,091	0,121
-123,468	-70,127	-0,118	0,032
-122,453	-14,159	0,032	0,015
-121,439	-61,267	0,118	-0,036
-120,424	-59,031	-0,033	-0,010
-119,410	517,384	0,090	-0,152
-118,395	800,000	-0,050	0,146
