DTS Sentinel unit serial number:	SN410029Multiplexer serial number:	ORYXHardware model number:	OX2-SRSoftware version number:	ORYX F/W v4,00 Oryx Data Collector v3.7.2.0data status	okinstallation	B5 Nyhavnadifferential loss correction	single-endedforward channel	channel 2reverse channel	N/Adate	2023/12/13time	03:12:13forward acquisition time	300,00reverse acquisition time	0,00gamma	499,1914k internal	0,3160k external	0,3160temperature offset calibration	1,0000default loss term (dB/km)	0,3820temperature slope calibration	1,0000multiplexer offset coefficient	1,0000multiplexer slope coefficient	1,0000fibre end	0,00T internal ref (°C)	13,97T ext. ref 1 (°C)	-2,48T ext. ref 2 (°C)	-2,77length (m)	temperature (°C)	Stokes	anti-Stokes-744,400	800,000	-0,022	-0,073
-743,385	-174,734	-0,421	-0,009
-742,371	-89,285	0,342	0,074
-741,356	-199,006	-0,346	-0,001
-740,342	40,448	0,157	0,104
-739,327	-77,434	-0,207	-0,053
-738,312	36,049	0,130	-0,084
-737,298	-124,559	-0,380	0,043
-736,283	-46,860	0,138	0,049
-735,269	-88,712	-0,362	0,079
-734,254	-58,915	0,123	0,039
-733,239	-18,513	-0,519	-0,237
-732,225	-161,978	0,112	-0,004
-731,210	-171,768	0,039	-0,001
-730,196	588,375	0,007	0,013
-729,181	26,175	0,043	0,026
-728,167	-148,631	0,075	-0,004
-727,152	-175,840	-0,054	0,001
-726,137	800,000	0,031	-0,069
-725,123	-15,388	-0,070	-0,033
-724,108	800,000	0,036	-0,111
-723,094	52,797	-0,234	-0,164
-722,079	-200,000	-0,007	-0,048
-721,064	-77,830	-0,108	-0,027
-720,050	-46,335	-0,054	-0,019
-719,035	-69,554	-0,111	-0,031
-718,021	252,677	0,032	0,041
-717,006	-160,187	-0,203	0,008
-715,991	800,000	0,031	-0,084
-714,977	231,651	-0,088	-0,107
-713,962	60,846	0,028	0,020
-712,948	-200,000	-0,026	-0,112
-711,933	-30,683	-0,117	0,049
-710,918	284,476	-0,094	0,124
-709,904	800,000	0,003	-0,008
-708,889	19,197	-0,100	-0,059
-707,875	-61,146	-0,034	-0,010
-706,860	-122,996	0,060	-0,007
-705,845	-200,000	0,011	-0,056
-704,831	-200,000	-0,036	0,203
-703,816	800,000	0,040	-0,112
-702,802	-200,000	-0,009	-0,172
-701,787	304,178	0,093	-0,127
-700,772	102,487	-0,022	0,019
-699,758	-189,540	0,027	0,000
-698,743	-200,000	-0,029	0,109
-697,729	358,979	0,088	0,130
-696,714	-32,889	0,039	-0,016
-695,699	-200,000	0,007	-0,030
-694,685	-200,000	-0,144	-0,000
-693,670	286,514	0,054	0,071
-692,656	-73,561	-0,126	0,034
-691,641	-200,000	0,011	0,043
-690,627	-200,000	0,034	0,111
-689,612	105,637	-0,146	0,127
-688,597	-23,495	0,067	0,030
-687,583	-200,000	0,018	-0,135
-686,568	16,244	0,081	-0,047
-685,554	9,659	-0,107	-0,059
-684,539	-200,000	0,019	0,091
-683,524	-31,827	-0,057	-0,023
-682,510	-48,531	-0,056	0,020
-681,495	0,607	-0,037	0,019
-680,481	-51,882	0,109	0,037
-679,466	-200,000	-0,008	-0,033
-678,451	199,702	-0,065	0,073
-677,437	-200,000	0,032	0,133
-676,422	-200,000	-0,016	0,062
-675,408	534,371	0,069	-0,120
-674,393	-38,185	-0,032	-0,013
-673,378	137,026	-0,077	0,074
-672,364	220,290	-0,061	-0,072
-671,349	91,437	-0,029	-0,024
-670,335	146,661	0,020	-0,019
-669,320	800,000	0,020	-0,042
-668,305	-125,533	0,078	0,009
-667,291	-162,651	-0,009	-0,000
-666,276	-124,298	0,082	0,009
-665,262	276,528	-0,028	0,036
-664,247	-200,000	0,013	-0,105
-663,232	-45,244	0,025	0,009
-662,218	-200,000	0,121	0,000
-661,203	-69,614	0,062	0,017
-660,189	800,000	0,014	0,032
-659,174	-96,108	-0,187	-0,036
-658,159	-31,613	-0,055	-0,022
-657,145	-51,166	-0,040	-0,014
-656,130	73,410	0,030	-0,023
-655,116	-32,024	0,020	-0,008
-654,101	492,341	-0,036	0,060
-653,086	35,466	-0,052	-0,034
-652,072	800,000	-0,061	0,141
-651,057	426,545	0,014	0,022
-650,043	-200,000	0,008	0,103
-649,028	12,037	-0,100	-0,056
-648,014	-200,000	-0,008	0,045
-646,999	-200,000	-0,020	0,106
-645,984	303,872	0,035	-0,048
-644,970	-200,000	-0,004	0,084
-643,955	-200,000	0,009	-0,087
-642,941	-200,000	-0,009	-0,034
-641,926	-200,000	-0,002	-0,009
-640,911	105,547	0,121	0,105
-639,897	11,840	-0,057	-0,032
-638,882	-119,620	-0,176	0,022
-637,868	800,000	-0,041	0,085
-636,853	-200,000	-0,028	-0,110
-635,838	-126,836	0,025	-0,003
-634,824	-93,319	-0,018	0,004
-633,809	-4,096	-0,127	-0,064
-632,795	-19,727	0,198	0,090
-631,780	800,000	-0,021	0,052
-630,765	23,568	-0,064	0,039
-629,751	-82,650	0,090	-0,021
-628,736	-200,000	-0,014	-0,133
-627,722	-200,000	-0,005	-0,067
-626,707	-200,000	-0,006	-0,068
-625,692	800,000	0,052	-0,150
-624,678	-22,037	0,068	-0,030
-623,663	157,742	-0,080	0,081
-622,649	800,000	-0,097	-0,256
-621,634	-200,000	-0,023	-0,117
-620,619	315,826	-0,044	0,062
-619,605	25,782	0,150	0,091
-618,590	142,060	0,071	0,069
-617,576	3,496	-0,051	0,027
-616,561	208,311	-0,065	0,075
-615,546	-132,234	0,094	0,009
-614,532	800,000	-0,035	-0,106
-613,517	-200,000	0,023	-0,105
-612,503	-200,000	-0,033	-0,109
-611,488	21,157	-0,023	-0,014
-610,474	-200,000	0,019	0,115
-609,459	84,013	-0,044	-0,035
-608,444	-200,000	0,023	-0,105
-607,430	187,295	-0,110	-0,120
-606,415	-151,094	0,008	-0,000
-605,401	17,335	0,053	0,031
-604,386	-200,000	0,002	-0,040
-603,371	-200,000	0,000	-0,028
-602,357	-113,813	0,048	-0,007
-601,342	-200,000	-0,005	0,026
-600,328	-59,050	-0,140	-0,044
-599,313	-91,705	0,126	0,026
-598,298	600,297	0,042	-0,078
-597,284	-20,739	-0,134	0,060
-596,269	57,369	0,105	-0,075
-595,255	800,000	-0,017	-0,055
-594,240	-6,908	0,025	0,012
-593,225	254,708	-0,031	-0,039
-592,211	-121,440	-0,086	0,010
-591,196	517,124	0,057	-0,097
-590,182	460,417	0,075	-0,122
-589,167	-129,660	0,133	-0,013
-588,152	800,000	-0,045	-0,092
-587,138	-90,761	0,146	-0,031
-586,123	131,669	0,035	0,033
-585,109	-124,396	-0,047	-0,005
-584,094	-0,161	-0,093	0,048
-583,079	-129,660	0,122	-0,012
-582,065	-55,243	0,054	-0,018
-581,050	800,000	0,073	0,236
-580,036	-128,608	0,134	0,014
-579,021	272,640	-0,071	-0,092
-578,006	-129,210	-0,126	-0,013
-576,992	800,000	0,036	-0,111
-575,977	-53,863	0,040	0,013
-574,963	283,190	-0,017	0,023
-573,948	-97,534	-0,118	0,022
-572,934	397,596	-0,043	-0,065
-571,919	-86,936	-0,186	-0,041
-570,904	-200,000	0,020	0,097
-569,890	-94,066	-0,052	-0,010
-568,875	57,783	-0,186	-0,133
-567,861	16,684	-0,028	-0,016
-566,846	120,733	0,072	0,065
-565,831	-67,855	-0,170	0,048
-564,817	103,687	-0,093	-0,080
-563,802	-200,000	-0,019	-0,067
-562,788	17,858	0,063	-0,036
-561,773	-125,020	0,088	0,010
-560,758	-43,573	0,096	0,035
-559,744	-27,078	-0,129	-0,055
-558,729	4,169	-0,040	0,021
-557,715	258,816	0,086	0,108
-556,700	44,730	-0,034	-0,023
-555,685	-145,881	-0,035	-0,002
-554,671	243,051	0,053	-0,065
-553,656	-200,000	-0,019	-0,066
-552,642	-200,000	-0,039	-0,167
-551,627	800,000	0,027	-0,065
-550,612	800,000	0,049	-0,102
-549,598	-34,057	-0,062	-0,025
-548,583	-200,000	-0,006	-0,082
-547,569	96,540	0,120	-0,100
-546,554	-34,931	-0,093	-0,037
-545,539	-200,000	-0,025	0,148
-544,525	229,312	-0,059	-0,070
-543,510	-113,850	-0,141	-0,020
-542,496	-189,551	-0,058	-0,000
-541,481	32,704	-0,186	-0,117
-540,466	-53,715	0,046	0,015
-539,452	-45,703	-0,078	0,028
-538,437	309,948	0,047	-0,064
-537,423	-94,729	-0,055	-0,011
-536,408	-200,000	-0,010	-0,106
-535,393	-61,069	-0,099	-0,030
-534,379	-158,183	-0,101	-0,004
-533,364	-98,681	-0,093	-0,017
-532,350	161,806	0,090	0,092
-531,335	68,138	0,106	0,079
-530,321	53,457	0,106	0,074
-529,306	800,000	-0,034	0,092
-528,291	-169,704	0,111	0,003
-527,277	623,137	-0,033	-0,062
-526,262	800,000	-0,022	-0,072
-525,248	-110,281	0,121	0,018
-524,233	-200,000	0,012	-0,040
-523,218	-200,000	0,007	0,130
-522,204	6,558	-0,066	0,036
-521,189	-200,000	-0,027	-0,136
-520,175	-200,000	0,015	0,052
-519,160	-1,087	0,059	0,030
-518,145	-200,000	0,003	-0,032
-517,131	-45,285	0,029	0,011
-516,116	800,000	-0,089	0,207
-515,102	71,306	0,107	0,081
-514,087	-25,123	-0,162	-0,070
-513,072	-44,959	0,016	-0,006
-512,058	-140,984	0,024	-0,002
-511,043	800,000	0,049	-0,115
-510,029	234,285	0,114	-0,137
-509,014	800,000	-0,036	0,113
-507,999	-200,000	0,016	0,058
-506,985	307,366	-0,051	-0,070
-505,970	0,708	-0,072	0,038
-504,956	800,000	-0,023	0,072
-503,941	146,464	-0,061	0,059
-502,926	-200,000	0,012	0,145
-501,912	178,497	0,137	0,146
-500,897	-78,082	0,059	-0,015
-499,883	800,000	-0,040	-0,111
-498,868	-200,000	-0,042	-0,144
-497,853	87,768	-0,106	-0,086
-496,839	359,469	-0,009	-0,013
-495,824	-87,255	-0,071	-0,016
-494,810	-200,000	0,006	-0,042
-493,795	-89,002	-0,078	0,017
-492,781	-127,432	-0,057	-0,006
-491,766	800,000	-0,008	-0,019
-490,751	800,000	-0,017	-0,048
-489,737	107,904	-0,116	-0,101
-488,722	-200,000	-0,013	-0,090
-487,708	133,237	0,138	0,131
-486,693	-200,000	-0,031	0,132
-485,678	24,616	-0,127	0,076
-484,664	-48,326	0,198	-0,069
-483,649	112,370	-0,047	0,042
-482,635	-80,574	0,141	0,034
-481,620	-200,000	-0,009	0,067
-480,605	-200,000	0,011	0,102
-479,591	-200,000	-0,012	0,068
-478,576	130,007	-0,104	-0,097
-477,562	56,870	-0,046	-0,033
-476,547	8,837	0,099	0,054
-475,532	-200,000	-0,008	0,080
-474,518	-200,000	-0,023	0,152
-473,503	-200,000	-0,013	0,082
-472,489	-200,000	0,010	0,088
-471,474	-200,000	-0,003	0,023
-470,459	800,000	-0,040	0,086
-469,445	-127,572	0,090	0,009
-468,430	743,457	-0,049	0,097
-467,416	63,211	0,023	-0,017
-466,401	191,450	0,055	0,060
-465,386	445,392	0,016	-0,026
-464,372	800,000	0,080	0,183
-463,357	14,461	-0,046	0,026
-462,343	-59,193	0,173	-0,054
-461,328	-8,802	-0,125	-0,061
-460,313	-200,000	0,002	0,101
-459,299	282,537	-0,038	0,050
-458,284	490,950	0,023	-0,038
-457,270	-200,000	0,026	0,087
-456,255	435,641	-0,065	0,104
-455,241	111,470	-0,012	0,011
-454,226	308,135	-0,068	-0,093
-453,211	-108,587	0,138	0,021
-452,197	-24,731	0,163	0,070
-451,182	101,547	0,075	0,064
-450,168	133,970	0,041	-0,038
-449,153	215,136	0,039	-0,045
-448,138	572,750	-0,092	-0,165
-447,124	56,823	0,030	0,021
-446,109	342,405	0,040	0,058
-445,095	-88,241	0,151	0,033
-444,080	800,000	-0,058	0,145
-443,065	800,000	-0,026	0,075
-442,051	-130,819	0,090	0,009
-441,036	438,513	0,090	-0,143
-440,022	-77,166	-0,053	0,013
-439,007	-58,110	-0,096	0,030
-437,992	800,000	-0,034	-0,101
-436,978	15,454	0,176	0,100
-435,963	154,511	-0,038	0,038
-434,949	-2,925	-0,156	-0,079
-433,934	57,369	-0,021	0,015
-432,919	225,501	0,037	-0,044
-431,905	-176,589	-0,030	0,001
-430,890	555,641	0,017	-0,030
-429,876	-200,000	-0,022	0,112
-428,861	749,539	0,030	0,060
-427,846	378,299	0,059	-0,088
-426,832	-43,910	0,087	-0,032
-425,817	-141,103	-0,022	0,002
-424,803	-200,000	0,002	-0,082
-423,788	-52,759	0,102	-0,034
-422,773	311,329	0,040	-0,054
-421,759	-200,000	-0,003	-0,020
-420,744	-192,332	-0,090	0,001
-419,730	-88,546	-0,149	-0,032
-418,715	-200,000	0,026	-0,112
-417,701	-200,000	0,017	0,098
-416,686	-200,000	0,010	-0,034
-415,671	-55,634	0,062	0,020
-414,657	25,546	0,095	0,057
-413,642	-85,496	-0,080	0,018
-412,628	264,141	0,064	-0,082
-411,613	44,152	-0,177	0,118
-410,598	-200,000	-0,027	0,134
-409,584	175,684	0,093	0,098
-408,569	-200,000	-0,007	-0,027
-407,555	-173,473	-0,071	0,002
-406,540	98,699	-0,084	0,071
-405,525	-14,782	0,091	0,042
-404,511	20,231	-0,153	0,090
-403,496	800,000	0,046	0,125
-402,482	-200,000	-0,001	0,100
-401,467	-111,023	-0,123	-0,018
-400,452	-170,841	0,118	0,003
-399,438	-96,023	0,162	0,031
-398,423	355,523	-0,053	0,076
-397,409	-51,497	0,134	-0,045
-396,394	-92,213	-0,135	-0,027
-395,379	46,995	-0,144	-0,097
-394,365	-64,444	-0,076	-0,022
-393,350	800,000	-0,023	0,071
-392,336	-140,453	-0,109	0,008
-391,321	663,671	0,040	0,075
-390,306	0,812	-0,079	-0,041
-389,292	228,324	0,049	-0,059
-388,277	-200,000	0,003	-0,014
-387,263	64,345	0,066	0,048
-386,248	53,850	0,066	0,046
-385,233	-22,690	-0,102	0,045
-384,219	-200,000	-0,018	0,092
-383,204	-200,000	-0,010	-0,048
-382,190	-200,000	-0,022	0,122
-381,175	-106,222	0,054	0,009
-380,160	-82,521	0,107	0,025
-379,146	-200,000	-0,005	0,082
-378,131	179,519	-0,089	0,095
-377,117	-7,270	0,110	-0,054
-376,102	-200,000	-0,036	-0,160
-375,088	-89,481	-0,060	-0,013
-374,073	-200,000	-0,047	0,181
-373,058	34,704	0,078	0,049
-372,044	-53,756	-0,103	-0,034
-371,029	-74,752	-0,062	-0,016
-370,015	85,524	0,124	-0,099
-369,000	-148,872	0,075	-0,004
-367,985	-3,518	-0,057	-0,028
-366,971	800,000	0,047	-0,122
-365,956	197,459	0,031	0,035
-364,942	25,198	0,064	-0,039
-363,927	-18,064	0,109	-0,049
-362,912	258,678	-0,018	0,023
-361,898	-41,032	-0,025	-0,009
-360,883	-101,219	-0,063	0,011
-359,869	77,635	-0,086	-0,066
-358,854	-72,455	0,103	0,027
-357,839	-200,000	0,002	0,116
-356,825	800,000	-0,025	-0,074
-355,810	26,853	-0,050	0,030
-354,796	253,651	0,053	-0,066
-353,781	-41,361	-0,208	-0,077
-352,766	547,120	0,011	0,020
-351,752	177,931	0,020	0,021
-350,737	800,000	-0,029	0,065
-349,723	-200,000	-0,019	-0,108
-348,708	-200,000	-0,025	0,172
-347,693	-148,271	0,058	0,003
-346,679	784,002	0,007	-0,014
-345,664	-45,730	-0,125	-0,045
-344,650	800,000	0,034	0,071
-343,635	-78,138	0,084	0,021
-342,620	3,185	0,068	-0,036
-341,606	434,615	-0,096	0,152
-340,591	800,000	-0,028	0,086
-339,577	-37,274	-0,150	-0,058
-338,562	-79,419	0,080	-0,019
-337,548	10,223	-0,038	-0,021
-336,533	-15,075	-0,034	-0,016
-335,518	93,687	0,051	0,042
-334,504	112,058	0,012	-0,011
-333,489	-27,986	0,040	0,017
-332,475	792,625	-0,079	-0,157
-331,460	369,082	-0,017	0,025
-330,445	5,420	0,035	-0,019
-329,431	689,902	-0,028	-0,053
-328,416	-88,706	0,051	0,011
-327,402	521,689	0,012	-0,021
-326,387	800,000	0,045	-0,125
-325,372	765,201	-0,032	-0,063
-324,358	-118,388	-0,043	0,005
-323,343	-56,019	0,125	-0,040
-322,329	-200,000	-0,003	0,091
-321,314	-93,537	0,105	-0,021
-320,299	67,874	0,177	0,131
-319,285	33,139	0,108	0,068
-318,270	-200,000	0,031	-0,147
-317,256	-200,000	0,028	-0,134
-316,241	-136,877	-0,058	-0,005
-315,226	-100,500	0,107	-0,019
-314,212	-102,553	0,077	0,013
-313,197	-71,029	-0,037	0,010
-312,183	769,874	0,073	-0,146
-311,168	800,000	-0,065	-0,133
-310,153	753,226	-0,036	-0,070
-309,139	105,349	-0,070	0,060
-308,124	800,000	0,028	0,073
-307,110	-200,000	0,016	-0,056
-306,095	-200,000	0,001	0,121
-305,080	-200,000	0,004	-0,044
-304,066	-200,000	0,027	-0,105
-303,051	464,362	-0,034	0,055
-302,037	-200,000	-0,007	-0,053
-301,022	110,826	0,082	0,071
-300,008	800,000	-0,017	-0,055
-298,993	31,927	0,106	0,066
-297,978	618,524	0,052	0,094
-296,964	80,798	0,114	-0,089
-295,949	-34,839	0,059	0,023
-294,935	172,773	-0,052	-0,055
-293,920	800,000	-0,048	0,139
-292,905	800,000	-0,014	0,045
-291,891	-59,841	0,077	0,024
-290,876	-200,000	-0,024	0,098
-289,862	-200,000	0,007	-0,163
-288,847	212,749	0,052	-0,059
-287,832	-28,052	-0,146	-0,061
-286,818	-79,218	0,162	0,039
-285,803	432,831	0,053	0,083
-284,789	423,418	0,055	0,085
-283,774	-83,788	0,130	-0,030
-282,759	-200,000	-0,022	-0,092
-281,745	-46,716	-0,025	0,009
-280,730	-200,000	-0,043	-0,143
-279,716	-10,186	0,037	0,018
-278,701	-200,000	0,002	0,060
-277,686	172,830	-0,030	0,032
-276,672	-200,000	-0,033	0,137
-275,657	340,267	-0,056	-0,080
-274,643	-200,000	0,029	0,177
-273,628	-200,000	-0,007	-0,135
-272,613	78,398	-0,063	0,049
-271,599	446,079	0,003	0,006
-270,584	-200,000	-0,042	0,148
-269,570	118,694	-0,049	0,044
-268,555	-36,092	-0,034	-0,013
-267,540	-200,000	0,002	-0,124
-266,526	-16,516	0,100	0,046
-265,511	532,065	-0,034	-0,059
-264,497	-151,086	0,235	-0,013
-263,482	1,558	0,048	-0,025
-262,467	800,000	-0,013	-0,040
-261,453	46,897	-0,127	0,085
-260,438	-18,494	-0,112	-0,050
-259,424	183,938	-0,035	-0,037
-258,409	800,000	-0,059	-0,119
-257,395	239,175	0,015	-0,018
-256,380	-72,459	-0,042	0,011
-255,365	308,135	0,068	-0,092
-254,351	-200,000	-0,002	-0,038
-253,336	-172,738	-0,040	0,001
-252,322	116,845	-0,029	-0,025
-251,307	-200,000	-0,018	-0,070
-250,292	-200,000	0,039	0,146
-249,278	185,588	-0,036	0,039
-248,263	153,731	0,120	0,119
-247,249	-180,858	-0,160	0,002
-246,234	800,000	0,009	0,022
-245,219	-37,352	0,124	0,048
-244,205	47,025	0,078	0,052
-243,190	198,282	0,021	-0,023
-242,176	-200,000	0,005	-0,059
-241,161	-200,000	-0,019	0,084
-240,146	-33,828	0,074	-0,029
-239,132	800,000	-0,024	-0,053
-238,117	107,488	0,063	0,054
-237,103	593,553	-0,059	-0,106
-236,088	187,464	0,057	-0,062
-235,073	-200,000	-0,007	0,040
-234,059	200,801	0,054	0,060
-233,044	114,659	-0,018	0,016
-232,030	-199,994	-0,076	-0,000
-231,015	796,737	-0,016	-0,032
-230,000	-37,997	0,088	-0,034
-228,986	29,344	-0,150	-0,092
-227,971	374,074	0,023	-0,034
-226,957	-200,000	0,039	0,216
-225,942	800,000	-0,040	0,103
-224,927	107,598	0,093	0,080
-223,913	265,587	0,104	-0,131
-222,898	-200,000	-0,000	-0,067
-221,884	800,000	-0,027	0,056
-220,869	-200,000	0,029	-0,097
-219,855	760,391	-0,039	0,076
-218,840	-165,597	-0,085	0,003
-217,825	273,405	-0,024	-0,030
-216,811	800,000	0,033	0,067
-215,796	-200,000	0,026	-0,104
-214,782	55,825	-0,137	-0,095
-213,767	98,300	0,138	0,114
-212,752	-43,701	-0,131	0,047
-211,738	402,927	0,034	0,051
-210,723	-200,000	-0,049	0,245
-209,709	800,000	0,078	0,200
-208,694	-200,000	0,027	0,089
-207,679	-22,455	-0,138	-0,060
-206,665	-100,077	-0,118	-0,021
-205,650	-133,908	0,036	0,003
-204,636	148,100	-0,033	-0,032
-203,621	-200,000	0,018	-0,096
-202,606	158,406	-0,131	0,131
-201,592	-200,000	-0,013	-0,143
-200,577	-200,000	-0,015	-0,099
-199,563	-200,000	-0,000	-0,014
-198,548	-38,224	0,220	0,084
-197,533	52,428	-0,058	0,040
-196,519	-135,440	0,071	0,006
-195,504	-200,000	-0,017	-0,090
-194,490	635,727	-0,031	0,058
-193,475	-200,000	0,002	-0,100
-192,460	68,834	0,111	0,082
-191,446	66,884	-0,133	0,098
-190,431	353,761	0,081	-0,116
-189,417	-200,000	0,008	0,046
-188,402	-119,434	0,045	0,006
-187,387	532,393	0,055	-0,095
-186,373	-148,574	0,043	0,002
-185,358	7,801	-0,086	-0,046
-184,344	-112,905	0,120	-0,017
-183,329	800,000	0,035	-0,105
-182,315	-38,097	0,087	-0,033
-181,300	-35,481	-0,043	0,017
-180,285	-200,000	-0,017	-0,105
-179,271	39,920	-0,081	-0,052
-178,256	173,011	-0,035	-0,037
-177,242	-69,588	0,074	0,020
-176,227	-166,324	0,036	-0,001
-175,212	-200,000	-0,003	0,050
-174,198	800,000	-0,045	-0,094
-173,183	-200,000	0,031	0,111
-172,169	-200,000	0,006	-0,080
-171,154	-200,000	-0,010	0,067
-170,139	-200,000	0,003	-0,021
-169,125	178,699	-0,079	0,083
-168,110	95,183	0,051	-0,041
-167,096	-200,000	0,001	-0,112
-166,081	800,000	0,032	-0,075
-165,066	100,800	-0,087	-0,073
-164,052	440,979	-0,063	-0,100
-163,037	-200,000	0,001	-0,041
-162,023	-144,931	-0,037	-0,002
-161,008	-31,821	-0,130	0,052
-159,993	-186,081	0,156	-0,002
-158,979	316,357	0,030	0,041
-157,964	-157,308	-0,065	-0,003
-156,950	-200,000	0,004	0,118
-155,935	-200,000	-0,017	0,073
-154,920	-200,000	0,008	0,039
-153,906	-200,000	0,049	0,171
-152,891	-200,000	0,016	0,081
-151,877	800,000	-0,045	0,110
-150,862	-200,000	-0,018	-0,059
-149,847	59,732	-0,008	-0,006
-148,833	-59,135	-0,057	-0,017
-147,818	139,695	0,073	0,070
-146,804	92,948	-0,122	0,099
-145,789	379,912	0,010	0,015
-144,775	-200,000	-0,003	-0,141
-143,760	800,000	0,028	-0,072
-142,745	-200,000	-0,026	0,089
-141,731	-25,132	-0,029	-0,013
-140,716	3,053	0,157	-0,082
-139,702	-140,745	0,041	-0,003
-138,687	800,000	-0,018	-0,040
-137,672	11,058	0,168	-0,092
-136,658	270,723	-0,007	-0,009
-135,643	115,262	0,055	-0,049
-134,629	83,344	0,046	0,036
-133,614	800,000	-0,034	-0,086
-132,599	800,000	0,068	0,181
-131,585	102,211	-0,070	-0,059
-130,570	-200,000	0,003	0,041
-129,556	-200,000	-0,006	-0,176
-128,541	351,300	-0,007	-0,010
-127,526	13,774	-0,063	-0,035
-126,512	335,386	0,034	0,047
-125,497	37,348	-0,051	-0,032
-124,483	187,645	-0,023	-0,025
-123,468	800,000	-0,028	0,059
-122,453	-200,000	-0,024	0,129
-121,439	-130,692	-0,127	-0,012
-120,424	-21,598	-0,008	0,003
