DTS Sentinel unit serial number:	SN410029Multiplexer serial number:	ORYXHardware model number:	OX2-SRSoftware version number:	ORYX F/W v4,00 Oryx Data Collector v3.7.2.0data status	okinstallation	B5 Nyhavnadifferential loss correction	single-endedforward channel	channel 2reverse channel	N/Adate	2023/12/14time	11:57:14forward acquisition time	300,00reverse acquisition time	0,00gamma	499,1914k internal	0,3159k external	0,3159temperature offset calibration	1,0000default loss term (dB/km)	0,3820temperature slope calibration	1,0000multiplexer offset coefficient	1,0000multiplexer slope coefficient	1,0000fibre end	0,00T internal ref (°C)	7,61T ext. ref 1 (°C)	-7,89T ext. ref 2 (°C)	-7,94length (m)	temperature (°C)	Stokes	anti-Stokes-744,400	0,136	0,219	0,115
-743,385	0,316	-0,500	-0,262
-742,371	-25,232	0,117	0,051
-741,356	-90,906	-0,278	-0,058
-740,342	-21,239	0,341	0,153
-739,327	-131,762	-0,554	-0,053
-738,312	361,826	0,133	0,198
-737,298	-17,724	-0,323	-0,149
-736,283	-154,606	0,209	0,010
-735,269	-81,954	-0,427	-0,102
-734,254	-74,939	0,171	-0,045
-733,239	-15,771	-0,643	-0,301
-732,225	61,031	0,297	0,217
-731,210	79,487	-0,057	0,045
-730,196	-18,529	0,092	-0,042
-729,181	199,095	-0,026	0,029
-728,167	-200,000	-0,019	0,072
-727,152	-200,000	0,009	-0,090
-726,137	-41,408	-0,045	0,017
-725,123	263,364	-0,109	0,139
-724,108	800,000	0,020	0,055
-723,094	7,162	-0,049	-0,027
-722,079	125,356	-0,101	-0,094
-721,064	29,313	0,054	0,034
-720,050	-18,844	-0,160	-0,073
-719,035	79,780	-0,085	-0,067
-718,021	-200,000	0,020	-0,121
-717,006	-66,507	-0,153	-0,045
-715,991	-200,000	0,025	-0,084
-714,977	-200,000	-0,032	-0,125
-713,962	666,129	-0,070	-0,134
-712,948	-200,000	-0,019	-0,093
-711,933	219,538	0,083	0,099
-710,918	18,481	-0,104	0,061
-709,904	800,000	-0,066	-0,164
-708,889	-57,875	-0,169	0,054
-707,875	800,000	-0,030	0,069
-706,860	-200,000	-0,016	-0,164
-705,845	159,684	-0,044	0,045
-704,831	-46,543	0,051	0,018
-703,816	-113,650	-0,096	-0,014
-702,802	-6,711	-0,040	-0,020
-701,787	-43,646	-0,050	-0,018
-700,772	-200,000	-0,012	-0,084
-699,758	43,243	0,108	-0,073
-698,743	-200,000	-0,008	0,029
-697,729	-200,000	-0,010	0,037
-696,714	154,016	0,067	-0,068
-695,699	39,468	-0,064	-0,042
-694,685	-200,000	-0,005	0,089
-693,670	46,920	0,044	0,030
-692,656	-104,163	0,027	-0,005
-691,641	4,524	-0,031	0,017
-690,627	-101,249	-0,170	0,030
-689,612	-52,614	-0,036	-0,012
-688,597	-133,273	0,112	0,010
-687,583	-83,682	-0,065	0,015
-686,568	800,000	-0,044	-0,102
-685,554	800,000	0,065	-0,133
-684,539	684,363	0,062	0,119
-683,524	332,140	-0,013	-0,019
-682,510	-200,000	-0,026	0,180
-681,495	-108,130	-0,052	0,008
-680,481	800,000	-0,018	-0,039
-679,466	290,451	-0,091	-0,122
-678,451	-23,699	-0,114	-0,050
-677,437	-120,809	0,056	-0,007
-676,422	-87,626	-0,038	-0,008
-675,408	219,198	0,069	-0,081
-674,393	-34,949	-0,053	-0,021
-673,378	-200,000	0,037	-0,180
-672,364	-200,000	-0,008	0,115
-671,349	-200,000	0,012	-0,078
-670,335	324,306	-0,058	0,081
-669,320	-189,297	0,048	-0,000
-668,305	800,000	-0,020	0,064
-667,291	306,516	0,079	-0,109
-666,276	-33,185	0,021	0,009
-665,262	-169,539	-0,102	-0,003
-664,247	-6,639	-0,153	0,076
-663,232	-54,078	-0,002	0,001
-662,218	-200,000	-0,019	0,152
-661,203	154,198	0,095	-0,096
-660,189	-111,297	-0,148	0,022
-659,174	-200,000	0,008	0,093
-658,159	-158,651	0,144	-0,006
-657,145	-50,193	-0,164	0,057
-656,130	131,792	-0,077	0,073
-655,116	139,861	0,112	0,108
-654,101	31,173	0,087	0,054
-653,086	-200,000	0,016	0,078
-652,072	-14,844	0,046	0,022
-651,057	87,313	0,020	0,016
-650,043	4,266	-0,070	-0,038
-649,028	545,739	-0,013	0,023
-648,014	581,735	0,029	0,053
-646,999	485,462	0,046	-0,077
-645,984	-56,420	-0,109	-0,035
-644,970	-76,471	0,026	0,007
-643,955	800,000	0,044	0,097
-642,941	-0,169	-0,114	0,059
-641,926	110,742	-0,017	0,015
-640,911	167,877	0,077	0,081
-639,897	800,000	0,047	0,103
-638,882	-200,000	-0,010	0,116
-637,868	-101,123	-0,117	-0,021
-636,853	290,437	0,054	-0,072
-635,838	-143,998	-0,169	-0,011
-634,824	-21,016	0,052	-0,023
-633,809	174,123	-0,091	-0,097
-632,795	800,000	0,003	-0,010
-631,780	-200,000	-0,023	0,085
-630,765	-185,274	0,052	0,001
-629,751	-200,000	-0,004	-0,070
-628,736	12,261	-0,110	0,062
-627,722	800,000	-0,049	0,134
-626,707	-200,000	0,025	0,130
-625,692	299,313	0,050	0,067
-624,678	800,000	-0,040	-0,129
-623,663	270,721	-0,036	0,046
-622,649	296,033	0,026	0,036
-621,634	800,000	-0,052	-0,168
-620,619	-100,156	-0,112	-0,020
-619,605	625,993	0,068	-0,126
-618,590	129,241	-0,079	-0,074
-617,576	-92,924	-0,113	-0,023
-616,561	-131,268	-0,131	-0,013
-615,546	240,781	-0,028	-0,034
-614,532	-128,526	0,046	-0,005
-613,517	-200,000	0,033	-0,168
-612,503	392,795	-0,030	-0,046
-611,488	800,000	-0,049	0,104
-610,474	-30,275	-0,224	0,093
-609,459	4,829	-0,103	-0,055
-608,444	662,267	0,066	-0,126
-607,430	-200,000	-0,023	-0,085
-606,415	-200,000	0,032	-0,121
-605,401	-128,894	0,138	-0,014
-604,386	-49,269	0,167	0,058
-603,371	800,000	-0,013	-0,035
-602,357	-200,000	0,005	-0,120
-601,342	167,353	-0,061	-0,064
-600,328	-200,000	-0,048	-0,158
-599,313	-50,441	-0,116	0,040
-598,298	-152,652	0,197	-0,010
-597,284	311,169	-0,054	-0,075
-596,269	-200,000	-0,010	-0,061
-595,255	49,294	-0,064	0,044
-594,240	-112,115	-0,134	-0,020
-593,225	77,844	0,026	0,020
-592,211	-91,864	-0,045	-0,009
-591,196	800,000	0,032	-0,070
-590,182	-32,447	0,106	-0,043
-589,167	-106,152	-0,107	0,017
-588,152	-84,701	0,041	-0,009
-587,138	109,305	0,030	-0,026
-586,123	493,250	-0,055	-0,093
-585,109	209,773	0,126	-0,145
-584,094	-58,563	-0,167	0,053
-583,079	18,501	-0,048	0,028
-582,065	-163,699	0,121	-0,004
-581,050	46,827	0,148	-0,100
-580,036	-68,956	0,054	-0,015
-579,021	800,000	0,081	-0,165
-578,006	186,623	-0,093	-0,101
-576,992	452,329	-0,023	0,038
-575,977	-131,280	0,124	-0,012
-574,963	-39,020	0,106	-0,041
-573,948	207,265	0,019	0,022
-572,934	-200,000	-0,036	0,142
-571,919	-69,039	-0,151	-0,042
-570,904	-100,140	-0,040	0,007
-569,890	-200,000	0,000	0,005
-568,875	256,364	0,067	-0,084
-567,861	403,320	-0,068	-0,105
-566,846	248,200	0,044	-0,055
-565,831	238,640	-0,033	0,040
-564,817	76,600	-0,110	0,085
-563,802	227,379	-0,002	0,003
-562,788	800,000	0,067	-0,142
-561,773	800,000	0,022	-0,057
-560,758	-48,005	-0,159	0,056
-559,744	-67,410	-0,056	0,016
-558,729	-120,929	-0,027	0,003
-557,715	800,000	-0,032	0,069
-556,700	-200,000	0,019	0,097
-555,685	800,000	-0,034	-0,070
-554,671	38,953	-0,076	-0,050
-553,656	-200,000	0,005	0,151
-552,642	-200,000	0,007	0,088
-551,627	125,903	-0,041	0,038
-550,612	-173,968	0,106	0,002
-549,598	25,022	-0,071	0,043
-548,583	-52,405	-0,075	-0,025
-547,569	110,047	0,020	-0,017
-546,554	-68,047	0,072	0,020
-545,539	219,877	0,030	0,035
-544,525	-200,000	-0,005	0,154
-543,510	397,848	0,014	-0,022
-542,496	43,462	0,081	-0,054
-541,481	583,549	-0,028	-0,051
-540,466	-200,000	-0,035	-0,123
-539,452	-55,786	-0,138	-0,045
-538,437	800,000	0,028	0,071
-537,423	-200,000	0,019	0,143
-536,408	-200,000	0,036	0,137
-535,393	80,065	0,065	-0,051
-534,379	-106,965	-0,041	0,007
-533,364	800,000	0,008	0,025
-532,350	800,000	-0,055	0,150
-531,335	-4,437	0,037	0,019
-530,321	-97,172	0,069	-0,013
-529,306	-40,012	-0,112	-0,043
-528,291	118,294	-0,103	-0,093
-527,277	299,837	-0,042	-0,057
-526,262	293,190	-0,011	-0,015
-525,248	70,127	-0,039	-0,029
-524,233	77,091	0,080	-0,062
-523,218	800,000	0,059	0,138
-522,204	-3,272	-0,114	0,058
-521,189	800,000	0,052	0,116
-520,175	226,047	-0,082	-0,097
-519,160	201,891	-0,108	-0,122
-518,145	800,000	-0,034	0,078
-517,131	-74,325	0,144	-0,038
-516,116	136,845	-0,046	-0,043
-515,102	-200,000	0,016	-0,073
-514,087	306,180	0,135	-0,184
-513,072	84,658	0,072	-0,057
-512,058	156,322	-0,048	-0,049
-511,043	-95,459	0,153	-0,030
-510,029	-200,000	-0,022	0,101
-509,014	-77,158	-0,056	0,014
-507,999	767,671	-0,019	-0,038
-506,985	-50,026	-0,103	0,035
-505,970	800,000	-0,091	-0,193
-504,956	187,962	-0,030	-0,033
-503,941	18,672	0,108	-0,063
-502,926	-14,375	-0,013	0,006
-501,912	-178,966	0,070	-0,001
-500,897	104,186	0,056	0,048
-499,883	-80,477	0,122	0,030
-498,868	-147,249	-0,191	0,012
-497,853	-200,000	-0,014	-0,068
-496,839	-200,000	0,010	-0,038
-495,824	-71,854	0,038	-0,010
-494,810	70,070	0,060	0,045
-493,795	-105,922	-0,038	0,006
-492,781	223,826	-0,051	-0,060
-491,766	-200,000	0,015	-0,081
-490,751	142,979	-0,091	0,089
-489,737	26,854	-0,123	0,075
-488,722	-57,811	-0,026	-0,008
-487,708	223,940	0,068	0,081
-486,693	-200,000	0,022	0,106
-485,678	-109,868	-0,108	-0,016
-484,664	275,308	0,054	0,070
-483,649	800,000	0,031	-0,063
-482,635	-122,673	-0,065	0,008
-481,620	15,722	-0,065	0,037
-480,605	421,992	-0,061	0,096
-479,591	131,717	0,072	-0,068
-478,576	79,317	-0,061	-0,048
-477,562	800,000	0,050	-0,113
-476,547	800,000	-0,012	-0,029
-475,532	283,552	-0,043	0,056
-474,518	-60,303	0,068	-0,021
-473,503	-66,675	0,125	0,036
-472,489	508,128	0,074	-0,126
-471,474	72,510	-0,047	-0,036
-470,459	-200,000	0,001	-0,055
-469,445	-75,626	0,004	-0,001
-468,430	667,431	0,012	-0,022
-467,416	-63,273	0,109	-0,033
-466,401	525,497	-0,061	0,105
-465,386	-200,000	-0,049	0,174
-464,372	-200,000	-0,001	0,100
-463,357	-27,743	0,078	-0,033
-462,343	-200,000	0,011	-0,145
-461,328	36,661	0,034	0,022
-460,313	158,384	-0,075	0,076
-459,299	800,000	-0,027	0,069
-458,284	538,747	0,116	0,202
-457,270	86,447	-0,064	0,051
-456,255	-188,170	0,087	0,001
-455,241	-200,000	-0,007	0,130
-454,226	296,648	-0,040	0,054
-453,211	256,582	-0,034	-0,042
-452,197	-72,319	0,031	-0,008
-451,182	-1,023	-0,065	0,033
-450,168	-28,618	0,057	0,024
-449,153	-40,916	-0,064	-0,024
-448,138	160,559	-0,085	-0,087
-447,124	-200,000	0,032	-0,116
-446,109	-200,000	-0,016	-0,085
-445,095	64,044	0,107	-0,078
-444,080	687,540	0,025	0,047
-443,065	130,338	0,086	0,080
-442,051	7,165	-0,097	-0,053
-441,036	134,837	-0,054	-0,051
-440,022	-11,764	-0,072	-0,034
-439,007	-200,000	-0,035	-0,173
-437,992	167,892	0,150	0,156
-436,978	285,956	0,093	0,122
-435,963	-46,173	-0,043	0,015
-434,949	-38,228	-0,092	-0,035
-433,934	-200,000	0,004	-0,102
-432,919	-88,876	-0,103	-0,022
-431,905	-200,000	0,000	-0,049
-430,890	-200,000	0,022	0,101
-429,876	-38,573	-0,067	-0,025
-428,861	-56,551	-0,082	0,026
-427,846	88,738	0,028	0,023
-426,832	-57,222	-0,024	0,008
-425,817	507,139	-0,041	-0,070
-424,803	800,000	0,096	-0,196
-423,788	-91,433	-0,088	-0,018
-422,773	-101,645	-0,102	0,018
-421,759	800,000	-0,024	-0,068
-420,744	114,458	0,019	-0,017
-419,730	105,185	-0,078	0,067
-418,715	-200,000	0,018	-0,176
-417,701	800,000	0,017	-0,049
-416,686	800,000	0,017	0,041
-415,671	-166,471	-0,006	-0,000
-414,657	110,623	0,030	0,026
-413,642	-200,000	-0,015	-0,126
-412,628	-147,837	0,140	0,008
-411,613	331,427	-0,075	-0,106
-410,598	221,109	0,096	-0,112
-409,584	18,995	0,123	0,071
-408,569	800,000	0,047	0,123
-407,555	-52,282	0,103	-0,035
-406,540	168,252	-0,053	0,055
-405,525	46,088	0,099	0,066
-404,511	800,000	0,069	-0,143
-403,496	-23,988	0,046	0,020
-402,482	77,335	0,062	-0,048
-401,467	289,852	0,065	0,086
-400,452	-200,000	0,004	0,021
-399,438	168,413	-0,060	0,062
-398,423	-131,062	-0,039	-0,004
-397,409	-200,000	0,013	-0,059
-396,394	-25,850	0,052	0,022
-395,379	800,000	-0,020	-0,049
-394,365	-72,724	0,039	0,010
-393,350	-120,805	0,051	-0,006
-392,336	438,473	-0,040	-0,063
-391,321	244,435	-0,055	0,068
-390,306	50,587	0,011	0,007
-389,292	62,102	0,082	-0,059
-388,277	82,799	-0,048	0,038
-387,263	-200,000	-0,003	0,138
-386,248	-76,408	-0,070	0,018
-385,233	565,715	-0,020	0,036
-384,219	212,092	-0,087	-0,100
-383,204	-26,084	-0,166	0,071
-382,190	-47,051	-0,139	-0,049
-381,175	290,741	0,085	0,113
-380,160	-154,140	0,015	0,001
-379,146	207,035	-0,082	0,093
-378,131	20,958	0,163	-0,096
-377,117	-200,000	-0,006	0,035
-376,102	800,000	0,020	0,050
-375,088	120,016	-0,057	0,052
-374,073	-166,445	-0,190	-0,006
-373,058	-200,000	-0,002	0,031
-372,044	-5,675	0,037	-0,018
-371,029	-200,000	-0,012	-0,041
-370,015	-200,000	0,004	0,059
-369,000	308,000	0,095	0,129
-367,985	111,749	-0,041	0,036
-366,971	-0,030	-0,117	-0,060
-365,956	135,750	0,024	-0,023
-364,942	-200,000	0,000	0,013
-363,927	-200,000	-0,009	0,062
-362,912	-6,742	-0,038	-0,019
-361,898	-200,000	-0,007	0,071
-360,883	75,342	-0,009	-0,007
-359,869	-96,550	-0,143	0,027
-358,854	-200,000	0,006	-0,046
-357,839	164,398	0,112	0,115
-356,825	-3,950	0,162	0,081
-355,810	137,322	-0,043	-0,041
-354,796	-53,314	-0,157	-0,052
-353,781	800,000	0,036	0,097
-352,766	-15,083	0,045	-0,021
-351,752	-2,022	0,063	0,032
-350,737	-21,625	-0,071	-0,031
-349,723	128,744	-0,084	0,078
-348,708	800,000	0,046	-0,095
-347,693	272,401	0,119	0,153
-346,679	-200,000	-0,012	-0,204
-345,664	-142,287	-0,128	0,009
-344,650	-200,000	0,007	-0,072
-343,635	800,000	-0,035	-0,088
-342,620	45,388	0,117	0,078
-341,606	290,956	0,015	-0,019
-340,591	-7,127	0,049	-0,024
-339,577	-54,752	-0,059	-0,019
-338,562	800,000	0,046	0,102
-337,548	-86,723	0,042	0,009
-336,533	218,911	-0,066	-0,077
-335,518	-102,507	-0,038	-0,007
-334,504	7,560	0,039	0,021
-333,489	-200,000	-0,007	0,148
-332,475	112,689	0,023	0,020
-331,460	-16,599	0,050	-0,023
-330,445	-200,000	-0,006	0,021
-329,431	-41,629	0,094	-0,035
-328,416	-61,627	-0,040	-0,012
-327,402	18,585	-0,062	0,036
-326,387	-200,000	0,017	-0,064
-325,372	800,000	-0,031	0,065
-324,358	-163,698	-0,219	-0,007
-323,343	627,240	0,035	-0,065
-322,329	-200,000	-0,017	-0,173
-321,314	94,477	0,086	-0,070
-320,299	-65,328	-0,099	0,029
-319,285	24,358	-0,026	0,015
-318,270	12,031	-0,102	0,057
-317,256	-31,869	0,102	0,041
-316,241	-35,778	0,067	-0,026
-315,226	-200,000	0,016	-0,193
-314,212	596,833	-0,057	0,103
-313,197	382,889	-0,005	0,008
-312,183	-126,866	-0,088	-0,009
-311,168	-85,144	0,092	0,021
-310,153	-200,000	-0,014	-0,090
-309,139	13,597	-0,058	0,033
-308,124	108,536	0,141	0,122
-307,110	-200,000	0,009	0,088
-306,095	-118,078	0,171	0,022
-305,080	-200,000	-0,047	0,205
-304,066	99,186	-0,113	-0,095
-303,051	6,108	0,106	-0,057
-302,037	-119,695	-0,067	0,008
-301,022	207,586	0,058	-0,066
-300,008	-2,033	0,085	0,043
-298,993	800,000	-0,043	0,100
-297,978	-174,744	0,034	0,001
-296,964	74,163	-0,067	-0,051
-295,949	38,332	-0,083	-0,054
-294,935	-200,000	-0,012	0,042
-293,920	106,297	-0,055	-0,047
-292,905	-200,000	0,015	0,089
-291,891	-200,000	0,021	0,071
-290,876	800,000	-0,092	0,202
-289,862	-200,000	0,005	0,028
-288,847	-200,000	0,012	-0,213
-287,832	-88,855	-0,068	-0,014
-286,818	-200,000	0,026	0,125
-285,803	-200,000	0,025	0,198
-284,789	417,349	-0,034	-0,053
-283,774	800,000	-0,023	-0,067
-282,759	-87,945	-0,147	0,032
-281,745	-200,000	-0,009	-0,077
-280,730	-200,000	-0,008	-0,082
-279,716	-200,000	-0,025	0,088
-278,701	-138,404	0,183	-0,014
-277,686	-156,060	0,187	-0,008
-276,672	-200,000	-0,002	0,057
-275,657	98,479	0,024	-0,020
-274,643	-200,000	-0,001	0,039
-273,628	507,464	-0,038	-0,064
-272,613	333,422	-0,068	-0,095
-271,599	-200,000	0,030	0,199
-270,584	-200,000	-0,029	0,122
-269,570	-102,203	0,084	-0,015
-268,555	281,992	0,063	0,082
-267,540	-78,791	-0,209	0,051
-266,526	800,000	-0,040	-0,107
-265,511	296,138	-0,035	-0,047
-264,497	742,597	0,113	0,220
-263,482	-110,635	0,086	0,013
-262,467	412,852	0,027	-0,042
-261,453	83,346	0,074	-0,059
-260,438	147,728	-0,140	-0,137
-259,424	800,000	-0,057	-0,117
-258,409	-200,000	0,040	-0,178
-257,395	-200,000	0,003	-0,037
-256,380	273,622	0,032	-0,041
-255,365	-200,000	-0,017	-0,076
-254,351	526,438	0,025	0,043
-253,336	-200,000	-0,002	-0,060
-252,322	14,826	0,070	-0,040
-251,307	-86,144	0,172	-0,038
-250,292	120,894	0,028	-0,025
-249,278	241,238	0,013	0,016
-248,263	129,573	0,064	0,059
-247,249	-20,592	0,112	0,049
-246,234	-130,805	-0,014	-0,001
-245,219	37,900	0,120	-0,077
-244,205	-26,017	0,141	-0,060
-243,190	800,000	0,017	-0,038
-242,176	800,000	-0,060	0,181
-241,161	658,814	-0,058	0,109
-240,146	69,856	0,067	-0,050
-239,132	170,633	0,146	-0,151
-238,117	-67,457	-0,005	-0,001
-237,103	693,263	0,031	0,059
-236,088	-42,749	0,051	-0,019
-235,073	-108,829	0,087	-0,013
-234,059	-200,000	-0,022	0,099
-233,044	-54,750	0,175	0,057
-232,030	-200,000	0,027	-0,170
-231,015	-200,000	-0,004	-0,022
-230,000	-200,000	-0,019	-0,147
-228,986	73,488	0,076	0,058
-227,971	499,773	0,049	-0,082
-226,957	-200,000	-0,002	0,050
-225,942	-200,000	0,014	0,099
-224,927	-200,000	0,000	-0,001
-223,913	194,399	0,090	-0,098
-222,898	-200,000	-0,024	-0,101
-221,884	-33,758	-0,052	-0,021
-220,869	-200,000	-0,021	0,076
-219,855	-200,000	-0,003	0,125
-218,840	14,268	0,050	-0,028
-217,825	129,241	0,032	-0,029
-216,811	46,156	0,022	0,015
-215,796	-29,109	0,103	0,042
-214,782	-72,904	-0,044	0,012
-213,767	203,164	-0,050	0,055
-212,752	11,596	0,071	0,039
-211,738	703,726	0,049	0,094
-210,723	10,762	0,057	0,032
-209,709	-134,059	-0,055	0,005
-208,694	-148,628	0,141	0,008
-207,679	67,289	-0,013	0,010
-206,665	-200,000	-0,004	-0,052
-205,650	-75,575	-0,029	-0,007
-204,636	-2,211	-0,030	0,015
-203,621	397,846	0,076	0,115
-202,606	-200,000	0,001	0,053
-201,592	251,871	-0,043	0,054
-200,577	-154,649	0,068	-0,003
-199,563	-30,149	0,018	0,008
-198,548	-59,897	-0,015	0,005
-197,533	-54,079	0,027	-0,009
-196,519	-64,692	0,028	0,008
-195,504	800,000	-0,027	-0,085
-194,490	-200,000	-0,003	-0,074
-193,475	91,716	-0,110	0,089
-192,460	-86,266	0,086	-0,019
-191,446	65,095	0,114	0,083
-190,431	26,557	0,041	0,025
-189,417	-72,700	0,083	0,022
-188,402	-9,460	0,025	0,012
-187,387	-138,766	-0,041	0,003
-186,373	-10,978	-0,129	-0,061
-185,358	-200,000	0,011	-0,044
-184,344	-200,000	0,003	0,064
-183,329	-200,000	0,015	0,146
-182,315	112,792	0,085	0,074
-181,300	355,400	-0,054	-0,077
-180,285	-58,313	-0,118	-0,037
-179,271	-34,496	-0,022	-0,009
-178,256	5,585	-0,090	0,048
-177,242	-117,931	0,088	0,011
-176,227	172,934	-0,039	0,041
-175,212	-200,000	0,001	0,016
-174,198	166,751	0,075	0,077
-173,183	44,255	0,068	0,045
-172,169	-82,943	0,053	0,012
-171,154	-200,000	-0,002	-0,011
-170,139	-28,339	-0,073	-0,030
-169,125	148,464	0,057	0,056
-168,110	-60,006	0,122	0,037
-167,096	89,188	0,021	-0,017
-166,081	104,657	-0,047	0,040
-165,066	-200,000	-0,006	-0,180
-164,052	-200,000	-0,002	-0,024
-163,037	9,670	-0,104	0,057
-162,023	-115,159	0,124	0,017
-161,008	117,555	0,089	0,079
-159,993	-164,334	-0,048	0,002
-158,979	800,000	-0,020	0,060
-157,964	-32,896	-0,074	-0,030
-156,950	231,514	0,085	0,100
-155,935	-200,000	-0,006	0,051
-154,920	-120,712	-0,166	0,020
-153,906	-200,000	-0,047	0,159
-152,891	-116,655	-0,079	-0,010
-151,877	800,000	-0,029	0,067
-150,862	-146,623	-0,069	-0,004
-149,847	800,000	-0,051	-0,120
-148,833	-118,691	0,009	0,001
-147,818	39,483	0,116	0,075
-146,804	-200,000	0,019	0,128
-145,789	-58,630	0,095	0,030
-144,775	-51,339	0,112	-0,037
-143,760	285,483	-0,095	-0,124
-142,745	800,000	-0,029	0,058
-141,731	-22,217	0,106	-0,046
-140,716	-46,793	-0,130	0,046
-139,702	-5,738	0,029	-0,014
-138,687	-47,644	-0,115	-0,040
-137,672	-0,977	-0,032	-0,016
-136,658	539,553	-0,061	-0,105
-135,643	-24,344	0,080	0,034
-134,629	170,457	-0,069	0,071
-133,614	-200,000	-0,002	0,123
-132,599	768,506	-0,052	0,102
-131,585	800,000	-0,049	0,146
-130,570	-134,212	-0,017	0,001
-129,556	200,688	-0,045	-0,050
-128,541	-81,943	0,143	-0,033
-127,526	67,612	-0,032	0,023
-126,512	-200,000	-0,001	0,022
-125,497	-91,290	0,038	0,008
-124,483	-200,000	-0,054	0,275
-123,468	138,713	0,024	-0,023
-122,453	34,125	-0,020	0,013
-121,439	-185,772	0,095	0,001
-120,424	489,750	-0,026	-0,043
-119,410	150,466	0,076	0,074
