DTS Sentinel unit serial number:	SN410029Multiplexer serial number:	ORYXHardware model number:	OX2-SRSoftware version number:	ORYX F/W v4,00 Oryx Data Collector v3.7.2.0data status	okinstallation	B5 Nyhavnadifferential loss correction	single-endedforward channel	channel 2reverse channel	N/Adate	2023/12/12time	02:47:13forward acquisition time	300,00reverse acquisition time	0,00gamma	499,1914k internal	0,3156k external	0,3156temperature offset calibration	1,0000default loss term (dB/km)	0,3820temperature slope calibration	1,0000multiplexer offset coefficient	1,0000multiplexer slope coefficient	1,0000fibre end	0,00T internal ref (°C)	15,75T ext. ref 1 (°C)	-0,64T ext. ref 2 (°C)	-0,93length (m)	temperature (°C)	Stokes	anti-Stokes-744,400	-137,269	0,213	-0,018
-743,385	-104,501	-0,235	0,040
-742,371	800,000	0,068	0,182
-741,356	-97,862	-0,219	0,041
-740,342	-200,000	-0,051	0,178
-739,327	-126,418	-0,313	-0,034
-738,312	-200,000	-0,010	-0,074
-737,298	-88,249	-0,268	0,059
-736,283	-51,323	0,188	0,065
-735,269	-58,207	-0,377	0,120
-734,254	-22,776	-0,096	-0,043
-733,239	-99,711	-0,424	-0,078
-732,225	289,401	0,138	0,185
-731,210	454,557	0,049	-0,081
-730,196	24,964	-0,094	-0,057
-729,181	-104,877	0,014	-0,002
-728,167	-168,161	0,099	0,003
-727,152	238,511	-0,070	-0,086
-726,137	342,042	-0,066	-0,095
-725,123	37,313	-0,059	0,039
-724,108	10,530	-0,212	0,119
-723,094	166,518	-0,110	-0,115
-722,079	-188,467	-0,027	-0,000
-721,064	87,591	-0,090	-0,073
-720,050	-74,077	-0,073	0,019
-719,035	220,332	-0,072	-0,085
-718,021	-59,298	-0,217	-0,068
-717,006	151,673	-0,055	0,055
-715,991	-9,887	-0,111	-0,054
-714,977	-102,438	-0,126	-0,022
-713,962	-156,624	-0,027	-0,001
-712,948	-36,060	-0,086	0,034
-711,933	239,767	0,067	0,083
-710,918	-121,953	-0,095	0,011
-709,904	245,851	-0,136	-0,170
-708,889	-200,000	0,012	-0,085
-707,875	8,415	-0,020	0,011
-706,860	-174,418	-0,125	-0,003
-705,845	-123,049	0,173	-0,020
-704,831	55,169	0,065	-0,047
-703,816	-200,000	-0,015	0,178
-702,802	-200,000	-0,019	0,116
-701,787	-43,293	0,198	0,073
-700,772	90,416	-0,125	-0,103
-699,758	-200,000	0,015	-0,141
-698,743	800,000	-0,096	0,205
-697,729	800,000	-0,013	0,028
-696,714	9,096	0,082	0,045
-695,699	65,928	0,027	-0,020
-694,685	24,909	-0,075	-0,046
-693,670	-56,280	-0,094	0,030
-692,656	-200,000	0,004	-0,097
-691,641	-52,896	0,095	0,032
-690,627	732,132	0,003	-0,006
-689,612	-70,871	-0,035	0,010
-688,597	800,000	0,063	-0,142
-687,583	102,156	-0,099	-0,085
-686,568	-68,584	-0,002	-0,001
-685,554	279,251	-0,053	-0,070
-684,539	150,351	0,093	-0,093
-683,524	-200,000	-0,015	0,098
-682,510	-153,185	-0,062	-0,003
-681,495	116,413	0,075	-0,068
-680,481	71,572	0,026	-0,020
-679,466	-200,000	-0,006	-0,113
-678,451	-61,074	-0,132	-0,041
-677,437	-17,875	-0,063	-0,029
-676,422	30,947	-0,075	0,047
-675,408	-17,440	0,189	-0,087
-674,393	-200,000	-0,038	-0,232
-673,378	317,114	0,032	-0,045
-672,364	-0,304	-0,016	-0,008
-671,349	-200,000	-0,021	0,135
-670,335	800,000	0,013	0,040
-669,320	17,027	0,056	0,032
-668,305	226,005	-0,054	-0,065
-667,291	-200,000	0,001	0,081
-666,276	-106,138	0,096	-0,016
-665,262	-78,729	-0,158	-0,039
-664,247	256,948	0,099	-0,125
-663,232	665,734	0,037	0,071
-662,218	146,339	0,116	0,114
-661,203	-90,035	0,075	-0,016
-660,189	11,725	-0,131	0,074
-659,174	-200,000	-0,014	-0,123
-658,159	116,281	-0,101	-0,091
-657,145	-200,000	0,038	-0,205
-656,130	579,344	-0,034	-0,061
-655,116	153,997	0,038	0,039
-654,101	-200,000	-0,018	-0,086
-653,086	-200,000	0,003	0,083
-652,072	-81,687	-0,107	0,026
-651,057	-200,000	-0,017	-0,091
-650,043	-78,671	-0,112	-0,028
-649,028	165,273	0,073	-0,076
-648,014	-53,009	0,091	-0,030
-646,999	800,000	0,082	-0,174
-645,984	-74,962	-0,060	-0,016
-644,970	-200,000	0,005	-0,076
-643,955	-94,653	-0,111	-0,022
-642,941	-139,411	-0,080	0,006
-641,926	800,000	-0,019	0,050
-640,911	571,158	-0,022	-0,039
-639,897	-17,852	0,058	-0,027
-638,882	-200,000	-0,015	0,167
-637,868	-200,000	-0,007	0,065
-636,853	-36,472	-0,178	0,070
-635,838	228,145	-0,032	-0,039
-634,824	800,000	0,010	-0,027
-633,809	-133,292	0,057	0,005
-632,795	266,288	-0,064	0,082
-631,780	-200,000	0,045	0,198
-630,765	61,661	-0,077	-0,056
-629,751	-72,756	-0,126	-0,034
-628,736	800,000	-0,064	-0,153
-627,722	258,748	0,069	-0,087
-626,707	-112,439	0,053	-0,008
-625,692	422,578	-0,028	0,044
-624,678	-200,000	-0,021	0,108
-623,663	106,036	-0,062	0,053
-622,649	-200,000	0,016	-0,055
-621,634	800,000	-0,021	0,047
-620,619	176,828	-0,066	-0,070
-619,605	16,598	-0,026	-0,015
-618,590	-200,000	-0,021	-0,073
-617,576	85,763	0,073	-0,059
-616,561	-200,000	-0,022	0,118
-615,546	-128,894	-0,050	0,005
-614,532	8,465	-0,168	-0,093
-613,517	-82,327	-0,042	0,010
-612,503	-200,000	0,008	0,165
-611,488	34,317	0,038	-0,025
-610,474	182,639	0,056	-0,061
-609,459	607,458	-0,031	0,057
-608,444	79,339	-0,053	0,041
-607,430	-20,489	-0,057	-0,026
-606,415	800,000	0,057	-0,116
-605,401	218,248	-0,021	-0,025
-604,386	-27,078	-0,044	0,019
-603,371	-200,000	-0,013	-0,120
-602,357	-48,672	-0,139	0,049
-601,342	800,000	0,045	0,133
-600,328	-14,173	0,085	-0,040
-599,313	268,146	-0,032	-0,041
-598,298	-200,000	0,008	0,063
-597,284	-126,206	-0,095	-0,010
-596,269	236,099	-0,106	0,129
-595,255	-200,000	0,010	-0,036
-594,240	507,294	-0,021	0,036
-593,225	70,874	0,044	-0,033
-592,211	-149,329	-0,113	-0,007
-591,196	-200,000	0,001	-0,122
-590,182	800,000	0,042	0,108
-589,167	146,880	0,050	0,049
-588,152	-137,834	0,090	0,007
-587,138	800,000	-0,051	0,146
-586,123	800,000	0,051	-0,119
-585,109	121,922	-0,068	-0,062
-584,094	449,031	-0,031	-0,051
-583,079	83,805	-0,076	-0,061
-582,065	800,000	0,080	0,176
-581,050	-200,000	-0,004	0,067
-580,036	672,248	-0,083	-0,158
-579,021	-200,000	0,000	-0,136
-578,006	-98,935	-0,051	-0,009
-576,992	-46,062	0,048	-0,017
-575,977	-76,298	-0,203	-0,052
-574,963	-200,000	-0,001	-0,034
-573,948	-47,381	-0,051	0,018
-572,934	212,081	0,079	0,091
-571,919	75,409	0,056	-0,043
-570,904	-97,266	-0,066	0,013
-569,890	-8,724	-0,035	0,017
-568,875	8,199	-0,028	0,015
-567,861	-11,691	0,050	0,024
-566,846	31,282	-0,089	0,056
-565,831	612,537	0,060	-0,111
-564,817	-172,716	0,091	0,002
-563,802	-200,000	-0,048	-0,166
-562,788	-200,000	0,013	-0,139
-561,773	-137,177	0,111	-0,009
-560,758	-100,735	-0,078	0,014
-559,744	323,949	0,061	0,085
-558,729	758,557	-0,035	-0,071
-557,715	-200,000	-0,012	0,073
-556,700	-200,000	-0,003	-0,147
-555,685	344,597	0,058	0,084
-554,671	-200,000	0,016	0,054
-553,656	-71,269	-0,065	-0,018
-552,642	249,265	0,034	0,042
-551,627	800,000	-0,021	0,067
-550,612	-11,484	0,027	0,013
-549,598	-200,000	0,002	-0,105
-548,583	-200,000	-0,017	0,088
-547,569	162,157	0,067	-0,069
-546,554	-200,000	-0,023	-0,149
-545,539	800,000	-0,044	0,094
-544,525	-175,455	0,033	0,001
-543,510	-39,726	0,023	-0,009
-542,496	69,072	-0,120	-0,090
-541,481	800,000	0,027	0,064
-540,466	-149,915	0,092	0,005
-539,452	159,399	-0,037	0,038
-538,437	282,131	0,028	-0,036
-537,423	-200,000	-0,001	0,072
-536,408	-200,000	-0,042	-0,168
-535,393	68,266	0,043	-0,032
-534,379	-102,830	0,133	-0,023
-533,364	260,189	-0,035	0,044
-532,350	-176,974	-0,096	-0,002
-531,335	20,741	0,111	-0,066
-530,321	187,504	0,017	-0,019
-529,306	49,163	-0,138	-0,095
-528,291	81,104	-0,142	-0,112
-527,277	163,788	0,030	-0,031
-526,262	88,039	0,070	0,057
-525,248	-200,000	-0,005	-0,102
-524,233	-94,950	-0,042	0,008
-523,218	-8,904	0,101	0,049
-522,204	109,651	-0,035	-0,030
-521,189	800,000	0,041	-0,089
-520,175	423,781	-0,023	-0,036
-519,160	221,360	0,036	-0,042
-518,145	-200,000	-0,005	-0,070
-517,131	-22,463	-0,029	0,013
-516,116	-118,358	-0,107	-0,014
-515,102	-159,301	0,066	0,003
-514,087	-155,173	0,090	0,004
-513,072	-200,000	-0,019	-0,147
-512,058	-200,000	-0,009	-0,050
-511,043	-89,329	0,100	-0,021
-510,029	254,440	0,043	0,053
-509,014	-200,000	0,014	-0,059
-507,999	642,632	0,067	0,125
-506,985	-35,477	-0,041	-0,016
-505,970	-97,045	0,114	-0,022
-504,956	-200,000	0,007	0,033
-503,941	-200,000	0,029	-0,097
-502,926	281,350	0,036	-0,048
-501,912	208,232	0,028	-0,032
-500,897	800,000	0,013	-0,029
-499,883	-40,868	-0,063	-0,024
-498,868	50,843	-0,134	-0,092
-497,853	800,000	-0,011	0,026
-496,839	332,524	-0,021	-0,030
-495,824	13,844	-0,067	0,038
-494,810	429,711	-0,022	-0,035
-493,795	-51,453	-0,098	0,033
-492,781	259,636	0,060	-0,076
-491,766	-106,414	-0,097	0,016
-490,751	246,470	0,039	-0,049
-489,737	-108,184	-0,054	0,008
-488,722	-7,244	-0,086	0,043
-487,708	-200,000	-0,002	0,087
-486,693	-147,017	-0,059	0,004
-485,678	-0,317	0,046	0,024
-484,664	-120,807	-0,139	0,017
-483,649	-200,000	0,008	-0,075
-482,635	78,733	0,034	0,026
-481,620	-56,959	0,174	-0,056
-480,605	220,766	-0,062	-0,073
-479,591	53,783	0,106	-0,074
-478,576	-78,877	0,024	-0,006
-477,562	283,044	0,013	0,017
-476,547	161,817	-0,104	-0,106
-475,532	-25,668	0,099	-0,042
-474,518	-200,000	0,004	-0,013
-473,503	800,000	-0,070	0,173
-472,489	594,265	0,016	0,030
-471,474	99,397	0,115	0,097
-470,459	-200,000	-0,043	-0,180
-469,445	-117,921	-0,052	-0,007
-468,430	-63,164	0,100	0,030
-467,416	164,230	0,137	-0,141
-466,401	800,000	-0,017	0,045
-465,386	205,138	0,074	-0,084
-464,372	-149,033	-0,072	-0,004
-463,357	204,964	-0,066	-0,074
-462,343	568,997	-0,060	-0,107
-461,328	-200,000	-0,021	-0,083
-460,313	-200,000	-0,003	-0,027
-459,299	800,000	0,018	0,043
-458,284	182,258	-0,030	-0,032
-457,270	-200,000	0,071	0,000
-456,255	103,716	0,014	-0,012
-455,241	-38,522	0,101	-0,039
-454,226	381,365	-0,019	-0,029
-453,211	-200,000	0,001	-0,012
-452,197	45,889	-0,097	-0,065
-451,182	141,451	0,052	0,050
-450,168	-200,000	0,012	-0,075
-449,153	800,000	-0,027	-0,066
-448,138	-54,591	0,027	-0,009
-447,124	-169,348	0,156	0,004
-446,109	-200,000	-0,015	-0,051
-445,095	127,265	0,081	-0,075
-444,080	800,000	0,031	-0,081
-443,065	10,621	0,041	-0,022
-442,051	27,357	-0,058	-0,036
-441,036	-142,026	0,091	-0,006
-440,022	-200,000	0,029	-0,122
-439,007	800,000	0,014	-0,034
-437,992	457,283	-0,050	0,081
-436,978	-200,000	0,049	-0,162
-435,963	3,483	-0,052	-0,027
-434,949	-76,152	0,039	-0,010
-433,934	-26,924	-0,130	0,055
-432,919	-13,334	0,047	0,022
-431,905	-13,206	0,036	-0,017
-430,890	700,874	-0,052	0,101
-429,876	134,156	0,038	-0,036
-428,861	-200,000	-0,031	0,147
-427,846	452,544	0,041	0,067
-426,832	95,184	-0,030	0,025
-425,817	82,801	0,073	-0,058
-424,803	-78,950	0,097	0,024
-423,788	800,000	-0,023	-0,065
-422,773	-200,000	-0,018	0,077
-421,759	-128,302	-0,050	0,005
-420,744	-99,847	-0,059	0,011
-419,730	800,000	-0,014	0,033
-418,715	-133,014	-0,067	0,006
-417,701	-200,000	0,012	-0,248
-416,686	-121,330	0,058	-0,007
-415,671	-200,000	-0,020	0,070
-414,657	24,365	0,097	0,058
-413,642	-53,097	-0,098	0,033
-412,628	-200,000	-0,005	-0,071
-411,613	161,441	-0,062	-0,063
-410,598	142,845	0,062	-0,060
-409,584	-126,976	-0,045	0,005
-408,569	800,000	0,021	0,047
-407,555	48,569	0,062	0,042
-406,540	-200,000	0,027	0,127
-405,525	-61,212	-0,021	-0,006
-404,511	-200,000	0,014	0,047
-403,496	97,087	-0,068	0,056
-402,482	44,943	0,099	0,066
-401,467	369,758	0,032	-0,047
-400,452	-200,000	-0,027	-0,088
-399,438	-59,360	0,104	0,032
-398,423	-200,000	-0,019	-0,098
-397,409	29,253	0,074	0,046
-396,394	800,000	-0,034	-0,097
-395,379	228,145	0,048	-0,057
-394,365	-58,854	0,041	0,013
-393,350	237,371	-0,051	0,061
-392,336	187,124	0,064	-0,069
-391,321	47,685	0,069	-0,047
-390,306	-148,189	-0,172	-0,010
-389,292	-172,836	-0,045	-0,001
-388,277	343,801	-0,015	-0,021
-387,263	538,851	0,061	0,105
-386,248	72,662	0,043	0,033
-385,233	-104,662	-0,164	0,027
-384,219	800,000	-0,028	0,069
-383,204	99,833	-0,076	0,064
-382,190	-67,601	0,074	0,021
-381,175	-9,288	0,106	-0,052
-380,160	-36,921	0,070	-0,027
-379,146	-200,000	0,028	0,121
-378,131	-200,000	-0,002	-0,031
-377,117	-200,000	-0,001	-0,040
-376,102	800,000	-0,112	-0,241
-375,088	-158,252	0,102	-0,004
-374,073	800,000	0,036	-0,087
-373,058	76,921	0,142	-0,110
-372,044	-8,395	0,143	-0,070
-371,029	-200,000	0,014	0,062
-370,015	281,460	-0,037	0,049
-369,000	47,262	0,064	-0,044
-367,985	-126,128	-0,067	0,007
-366,971	-200,000	-0,003	0,024
-365,956	-200,000	0,019	0,133
-364,942	-200,000	-0,037	0,140
-363,927	67,188	-0,055	0,040
-362,912	800,000	-0,038	0,089
-361,898	46,238	-0,050	0,034
-360,883	-16,705	-0,111	0,051
-359,869	-200,000	0,028	0,112
-358,854	-13,408	0,025	0,012
-357,839	27,178	0,083	0,050
-356,825	-100,351	0,035	0,006
-355,810	-200,000	0,018	0,071
-354,796	-200,000	-0,019	0,078
-353,781	148,682	-0,071	-0,069
-352,766	-200,000	-0,017	-0,073
-351,752	-200,000	0,003	0,040
-350,737	-102,605	0,211	-0,036
-349,723	-73,998	-0,045	-0,012
-348,708	142,606	0,018	0,018
-347,693	-200,000	-0,016	0,052
-346,679	-61,167	-0,074	-0,022
-345,664	37,191	-0,105	-0,067
-344,650	-134,532	0,067	-0,006
-343,635	-175,569	0,168	-0,003
-342,620	800,000	0,034	0,077
-341,606	-119,002	-0,059	0,007
-340,591	800,000	0,046	0,099
-339,577	-200,000	0,012	-0,101
-338,562	-200,000	0,002	0,047
-337,548	547,016	0,006	0,010
-336,533	106,533	0,074	0,064
-335,518	-156,824	0,128	0,006
-334,504	800,000	0,042	0,122
-333,489	315,969	-0,020	0,028
-332,475	-112,726	-0,239	-0,034
-331,460	-182,059	0,057	-0,001
-330,445	-200,000	-0,045	-0,210
-329,431	-146,075	0,120	-0,008
-328,416	99,822	0,123	-0,104
-327,402	-128,991	-0,111	0,011
-326,387	-98,137	0,147	0,027
-325,372	-90,986	0,107	0,022
-324,358	800,000	-0,020	0,045
-323,343	800,000	0,059	-0,160
-322,329	-200,000	-0,031	-0,121
-321,314	-97,869	0,029	-0,005
-320,299	-200,000	0,060	0,000
-319,285	59,065	0,058	-0,041
-318,270	135,905	0,051	0,048
-317,256	-200,000	0,014	0,057
-316,241	-156,046	-0,100	0,005
-315,226	29,991	0,072	0,045
-314,212	-48,437	0,023	-0,008
-313,197	800,000	-0,044	0,097
-312,183	195,202	-0,022	0,024
-311,168	136,108	0,086	-0,081
-310,153	-90,869	0,032	-0,007
-309,139	47,692	-0,088	-0,059
-308,124	-70,911	0,045	-0,012
-307,110	-200,000	-0,035	0,134
-306,095	790,878	-0,010	0,020
-305,080	800,000	0,016	0,045
-304,066	-12,827	-0,127	-0,060
-303,051	-162,239	-0,204	0,007
-302,037	-59,271	-0,134	0,041
-301,022	-110,327	0,026	-0,004
-300,008	213,244	0,100	-0,115
-298,993	-200,000	-0,017	0,213
-297,978	614,962	0,064	0,116
-296,964	-105,432	-0,070	-0,011
-295,949	12,100	0,057	-0,031
-294,935	-200,000	0,004	0,082
-293,920	-200,000	-0,009	0,087
-292,905	800,000	-0,034	0,094
-291,891	-200,000	-0,012	0,121
-290,876	490,620	0,083	0,138
-289,862	-200,000	0,009	0,086
-288,847	-200,000	0,028	-0,177
-287,832	482,180	-0,092	-0,152
-286,818	-133,587	0,151	0,013
-285,803	-200,000	0,001	-0,013
-284,789	-31,925	0,092	-0,037
-283,774	-62,515	-0,050	-0,015
-282,759	-200,000	0,006	0,085
-281,745	800,000	0,093	0,204
-280,730	-200,000	-0,031	0,210
-279,716	36,310	0,016	0,010
-278,701	800,000	0,012	0,026
-277,686	-200,000	-0,017	0,068
-276,672	-200,000	0,017	0,120
-275,657	-6,529	-0,134	0,066
-274,643	-158,435	-0,102	-0,004
-273,628	-200,000	-0,020	0,071
-272,613	-55,358	-0,016	-0,005
-271,599	-135,227	0,175	0,015
-270,584	-200,000	0,025	0,110
-269,570	-200,000	-0,014	0,070
-268,555	-65,710	-0,030	-0,009
-267,540	-163,252	-0,082	0,003
-266,526	527,069	-0,044	-0,076
-265,511	-36,692	-0,032	-0,013
-264,497	-98,285	-0,039	0,007
-263,482	-200,000	-0,009	0,056
-262,467	800,000	-0,034	0,091
-261,453	-200,000	-0,013	0,137
-260,438	-200,000	-0,027	-0,088
-259,424	-200,000	-0,001	-0,049
-258,409	528,531	-0,071	-0,121
-257,395	800,000	0,112	0,240
-256,380	339,832	0,062	0,088
-255,365	800,000	0,045	0,098
-254,351	-200,000	0,007	-0,034
-253,336	530,208	-0,009	0,016
-252,322	415,618	-0,097	-0,149
-251,307	589,956	0,039	-0,070
-250,292	-200,000	0,019	-0,133
-249,278	-200,000	0,004	-0,016
-248,263	196,421	0,090	0,099
-247,249	61,783	0,076	0,055
-246,234	-43,137	0,040	-0,015
-245,219	-200,000	0,028	-0,113
-244,205	-200,000	-0,001	0,052
-243,190	-97,724	0,061	0,011
-242,176	-200,000	0,005	-0,062
-241,161	613,015	0,034	0,062
-240,146	198,653	0,151	0,167
-239,132	-200,000	0,018	-0,214
-238,117	359,479	-0,055	-0,080
-237,103	243,795	-0,032	0,039
-236,088	-60,095	-0,119	0,037
-235,073	800,000	0,070	0,153
-234,059	800,000	0,039	0,114
-233,044	94,227	-0,108	0,089
-232,030	624,902	-0,046	-0,085
-231,015	738,009	0,003	-0,005
-230,000	800,000	-0,022	-0,065
-228,986	6,585	0,063	-0,034
-227,971	-200,000	0,000	0,003
-226,957	15,302	0,071	0,040
-225,942	-200,000	0,042	-0,164
-224,927	10,704	-0,059	-0,032
-223,913	-156,861	0,054	0,002
-222,898	-200,000	-0,008	-0,133
-221,884	-89,956	-0,048	-0,010
-220,869	-200,000	-0,001	0,051
-219,855	-44,970	-0,049	-0,017
-218,840	-200,000	0,016	0,101
-217,825	166,870	0,019	-0,020
-216,811	63,719	0,034	-0,024
-215,796	800,000	-0,024	-0,058
-214,782	432,910	0,025	0,039
-213,767	82,500	-0,045	0,035
-212,752	432,294	0,088	0,139
-211,738	-61,361	0,117	-0,035
-210,723	800,000	-0,035	0,076
-209,709	84,968	-0,061	0,048
-208,694	263,523	0,108	-0,136
-207,679	-200,000	0,019	0,119
-206,665	800,000	0,053	-0,130
-205,650	-19,506	0,139	0,062
-204,636	800,000	0,075	0,183
-203,621	-116,852	-0,141	-0,018
-202,606	-111,268	-0,143	0,021
-201,592	144,034	0,037	0,035
-200,577	133,409	-0,049	-0,046
-199,563	57,464	-0,093	-0,066
-198,548	-200,000	0,001	0,035
-197,533	-200,000	-0,013	0,075
-196,519	-71,281	-0,150	0,040
-195,504	276,666	-0,035	0,045
-194,490	450,249	-0,031	-0,050
-193,475	-70,422	-0,055	0,015
-192,460	800,000	0,033	-0,087
-191,446	-200,000	-0,009	0,071
-190,431	202,576	0,039	0,044
-189,417	-200,000	0,006	0,068
-188,402	-82,261	-0,011	0,003
-187,387	6,043	-0,097	0,052
-186,373	-200,000	-0,011	-0,072
-185,358	106,423	0,008	-0,007
-184,344	-163,398	0,070	0,002
-183,329	301,580	-0,047	0,062
-182,315	10,032	0,028	-0,015
-181,300	218,310	0,118	0,136
-180,285	165,760	0,018	-0,018
-179,271	-20,913	-0,113	-0,050
-178,256	161,941	0,058	0,059
-177,242	254,446	-0,065	-0,080
-176,227	-200,000	-0,006	0,111
-175,212	776,814	-0,045	0,088
-174,198	-200,000	-0,023	0,170
-173,183	-200,000	0,005	0,043
-172,169	248,820	-0,062	-0,076
-171,154	800,000	-0,059	0,118
-170,139	180,624	0,069	0,073
-169,125	39,884	0,070	-0,045
-168,110	340,495	0,030	0,042
-167,096	264,455	-0,016	-0,020
-166,081	-94,467	-0,105	-0,020
-165,066	800,000	0,072	-0,150
-164,052	0,566	-0,028	0,015
-163,037	-119,504	-0,137	-0,017
-162,023	-200,000	-0,020	-0,108
-161,008	-200,000	-0,001	0,026
-159,993	-119,616	0,166	0,020
-158,979	-105,200	-0,239	-0,039
-157,964	624,806	0,068	-0,123
-156,950	-13,837	-0,074	0,034
-155,935	128,644	0,118	0,109
-154,920	-200,000	0,004	0,053
-153,906	800,000	0,038	0,088
-152,891	-3,604	-0,140	-0,070
-151,877	800,000	-0,011	-0,035
-150,862	287,200	-0,047	-0,062
-149,847	-139,845	-0,075	-0,006
-148,833	800,000	-0,026	-0,056
-147,818	21,772	0,052	-0,031
-146,804	183,267	0,093	-0,099
-145,789	465,308	-0,037	-0,060
-144,775	800,000	0,018	0,044
-143,760	218,321	-0,129	-0,149
-142,745	-28,247	-0,134	-0,056
-141,731	800,000	-0,036	-0,080
-140,716	-140,645	-0,109	-0,008
-139,702	-200,000	0,020	0,083
-138,687	-46,962	-0,072	0,025
-137,672	800,000	-0,033	0,101
-136,658	770,696	0,014	0,027
-135,643	-36,016	0,045	-0,018
-134,629	46,428	-0,134	0,089
-133,614	-200,000	-0,005	0,087
-132,599	695,671	0,035	0,067
-131,585	-200,000	0,033	0,120
-130,570	143,893	-0,035	-0,033
-129,556	-200,000	-0,001	0,053
-128,541	64,314	-0,088	-0,064
-127,526	152,088	-0,094	-0,093
-126,512	261,739	0,075	0,093
-125,497	295,013	-0,104	0,138
-124,483	427,749	0,069	0,108
-123,468	-167,168	0,076	-0,002
-122,453	48,948	-0,115	-0,077
-121,439	383,406	-0,020	0,030
-120,424	42,529	-0,093	0,061
