DTS Sentinel unit serial number:	SN410029Multiplexer serial number:	ORYXHardware model number:	OX2-SRSoftware version number:	ORYX F/W v4,00 Oryx Data Collector v3.7.2.0data status	okinstallation	B5 Nyhavnadifferential loss correction	single-endedforward channel	channel 2reverse channel	N/Adate	2023/12/13time	12:42:13forward acquisition time	300,00reverse acquisition time	0,00gamma	499,1914k internal	0,3161k external	0,3161temperature offset calibration	1,0000default loss term (dB/km)	0,3820temperature slope calibration	1,0000multiplexer offset coefficient	1,0000multiplexer slope coefficient	1,0000fibre end	0,00T internal ref (°C)	14,21T ext. ref 1 (°C)	-1,59T ext. ref 2 (°C)	-1,87length (m)	temperature (°C)	Stokes	anti-Stokes-744,400	343,686	0,114	0,166
-743,385	-174,136	-0,270	0,006
-742,371	145,557	0,036	-0,036
-741,356	-107,614	-0,238	0,038
-740,342	380,997	0,082	0,125
-739,327	-140,135	-0,245	0,019
-738,312	-24,409	0,096	-0,042
-737,298	-86,840	-0,251	0,056
-736,283	-116,295	0,192	-0,026
-735,269	-135,863	-0,340	0,029
-734,254	800,000	0,040	0,097
-733,239	-5,804	-0,467	-0,235
-732,225	-28,332	0,139	0,059
-731,210	-200,000	0,003	-0,022
-730,196	146,574	-0,077	0,076
-729,181	368,291	-0,053	-0,079
-728,167	43,596	0,076	0,051
-727,152	103,451	0,073	0,063
-726,137	800,000	-0,043	-0,104
-725,123	52,388	-0,090	-0,063
-724,108	520,283	0,022	-0,039
-723,094	59,698	-0,097	-0,071
-722,079	-200,000	-0,020	-0,071
-721,064	510,173	-0,043	-0,074
-720,050	-25,137	-0,112	-0,048
-719,035	118,858	0,028	-0,025
-718,021	-70,047	-0,096	-0,027
-717,006	-46,059	-0,072	-0,026
-715,991	160,765	-0,054	-0,055
-714,977	800,000	0,020	-0,047
-713,962	230,579	-0,045	-0,054
-712,948	758,958	-0,025	-0,050
-711,933	9,908	0,054	0,030
-710,918	800,000	0,029	0,075
-709,904	-26,637	0,043	0,018
-708,889	604,443	0,041	-0,075
-707,875	114,528	-0,033	0,029
-706,860	-200,000	-0,012	-0,060
-705,845	-200,000	0,012	-0,051
-704,831	786,275	-0,056	0,113
-703,816	-11,435	-0,031	0,015
-702,802	-200,000	-0,012	-0,181
-701,787	19,009	0,036	0,021
-700,772	-61,977	-0,120	0,037
-699,758	107,380	-0,014	-0,012
-698,743	23,725	0,114	0,069
-697,729	-200,000	-0,010	-0,083
-696,714	88,497	-0,066	0,054
-695,699	-200,000	0,001	0,020
-694,685	272,986	-0,069	0,090
-693,670	-0,356	0,161	-0,084
-692,656	568,513	0,043	-0,078
-691,641	61,396	-0,113	0,082
-690,627	99,445	0,059	-0,050
-689,612	-54,977	-0,124	0,041
-688,597	-82,537	-0,094	-0,022
-687,583	213,558	-0,056	-0,065
-686,568	30,753	-0,169	-0,106
-685,554	89,534	0,022	0,018
-684,539	317,725	0,032	-0,045
-683,524	-144,518	-0,098	-0,007
-682,510	302,380	0,084	0,115
-681,495	512,290	0,044	-0,075
-680,481	237,995	0,035	-0,042
-679,466	92,294	-0,034	0,028
-678,451	-85,738	0,076	-0,017
-677,437	-200,000	-0,004	0,042
-676,422	1,858	-0,081	0,043
-675,408	-200,000	-0,016	-0,111
-674,393	-200,000	0,004	-0,066
-673,378	239,957	0,025	0,031
-672,364	-200,000	0,005	0,023
-671,349	-140,208	0,057	-0,004
-670,335	61,656	0,102	0,074
-669,320	800,000	0,018	-0,052
-668,305	83,242	-0,057	-0,046
-667,291	-200,000	-0,030	-0,150
-666,276	-200,000	0,023	-0,098
-665,262	34,990	-0,022	-0,014
-664,247	112,850	-0,114	-0,102
-663,232	-27,430	-0,035	0,015
-662,218	-147,876	0,060	-0,004
-661,203	800,000	-0,026	-0,065
-660,189	800,000	0,031	0,100
-659,174	-200,000	-0,030	-0,120
-658,159	340,482	-0,035	0,050
-657,145	37,015	-0,100	-0,065
-656,130	-200,000	-0,007	0,032
-655,116	229,529	-0,062	0,074
-654,101	142,200	0,104	0,101
-653,086	320,496	-0,045	-0,063
-652,072	92,872	-0,094	-0,078
-651,057	379,192	0,030	-0,046
-650,043	-200,000	-0,029	0,127
-649,028	250,552	0,093	0,117
-648,014	-172,104	0,053	-0,001
-646,999	-66,619	-0,038	0,011
-645,984	-200,000	-0,001	-0,097
-644,970	69,561	0,020	-0,015
-643,955	554,602	0,055	-0,098
-642,941	111,899	-0,042	0,037
-641,926	98,599	-0,073	0,061
-640,911	800,000	0,019	0,061
-639,897	202,017	0,095	0,108
-638,882	800,000	0,078	0,206
-637,868	-200,000	0,008	-0,041
-636,853	800,000	-0,014	-0,040
-635,838	-200,000	0,001	-0,034
-634,824	800,000	-0,030	-0,071
-633,809	675,074	-0,059	-0,112
-632,795	745,344	-0,038	-0,075
-631,780	542,956	-0,016	-0,028
-630,765	-200,000	-0,026	-0,173
-629,751	-149,190	-0,104	-0,006
-628,736	42,266	-0,086	0,057
-627,722	-200,000	0,012	0,119
-626,707	-200,000	-0,001	-0,009
-625,692	39,507	0,033	-0,022
-624,678	800,000	-0,015	0,034
-623,663	33,214	-0,010	-0,006
-622,649	800,000	-0,014	-0,032
-621,634	-28,538	0,105	-0,044
-620,619	167,583	-0,051	-0,053
-619,605	-13,346	0,088	-0,042
-618,590	-48,834	-0,040	0,014
-617,576	-35,778	0,180	-0,071
-616,561	-1,615	-0,157	-0,081
-615,546	-125,494	-0,094	-0,010
-614,532	-100,847	-0,120	-0,021
-613,517	-43,239	0,102	-0,038
-612,503	-200,000	0,005	0,121
-611,488	-92,103	0,063	0,013
-610,474	-125,812	-0,031	0,003
-609,459	800,000	0,024	-0,068
-608,444	128,613	0,050	0,047
-607,430	-36,428	-0,122	0,048
-606,415	-200,000	0,019	0,111
-605,401	-57,473	0,088	0,028
-604,386	164,376	0,070	-0,072
-603,371	311,299	-0,075	-0,104
-602,357	-37,186	0,073	0,028
-601,342	-75,033	-0,137	0,036
-600,328	800,000	0,034	-0,077
-599,313	800,000	-0,024	-0,053
-598,298	-200,000	0,002	0,047
-597,284	480,216	0,032	0,053
-596,269	57,150	0,091	0,065
-595,255	707,353	0,033	0,065
-594,240	-200,000	0,010	-0,156
-593,225	-200,000	0,028	-0,116
-592,211	10,241	-0,104	-0,058
-591,196	-141,020	-0,074	-0,005
-590,182	71,588	-0,049	-0,037
-589,167	-200,000	-0,013	-0,117
-588,152	25,475	-0,104	0,063
-587,138	119,846	-0,099	0,090
-586,123	-200,000	0,004	0,097
-585,109	-117,553	-0,097	0,013
-584,094	759,592	-0,014	-0,028
-583,079	800,000	-0,021	-0,060
-582,065	-23,919	-0,114	0,050
-581,050	800,000	0,019	0,052
-580,036	-43,253	-0,052	-0,019
-579,021	-200,000	0,006	-0,038
-578,006	-200,000	0,005	0,019
-576,992	-200,000	0,013	-0,043
-575,977	-200,000	0,023	0,096
-574,963	26,391	-0,039	-0,024
-573,948	-67,269	0,113	0,032
-572,934	201,287	-0,049	0,055
-571,919	-200,000	0,001	0,193
-570,904	-200,000	0,004	-0,035
-569,890	-114,270	-0,167	0,023
-568,875	182,692	0,094	0,102
-567,861	-113,910	0,036	0,005
-566,846	104,988	0,023	0,020
-565,831	-200,000	0,013	-0,051
-564,817	-40,275	-0,014	-0,005
-563,802	502,421	-0,052	-0,089
-562,788	-200,000	0,008	-0,113
-561,773	-66,730	0,036	0,010
-560,758	-200,000	-0,012	0,129
-559,744	-48,127	0,166	0,058
-558,729	-200,000	-0,021	0,169
-557,715	84,244	-0,082	0,065
-556,700	284,226	-0,023	0,031
-555,685	-58,537	0,086	-0,027
-554,671	-64,128	-0,049	0,015
-553,656	-200,000	0,010	0,201
-552,642	380,088	0,053	-0,079
-551,627	268,991	0,020	0,026
-550,612	637,941	-0,110	0,206
-549,598	6,326	-0,042	0,023
-548,583	513,325	-0,039	0,067
-547,569	-200,000	0,021	-0,074
-546,554	7,397	0,066	0,036
-545,539	-200,000	-0,007	-0,026
-544,525	-200,000	0,042	0,176
-543,510	-200,000	-0,001	0,064
-542,496	-25,868	0,088	0,038
-541,481	-10,677	-0,092	-0,044
-540,466	191,474	-0,086	-0,095
-539,452	800,000	0,047	0,122
-538,437	-50,909	-0,026	-0,009
-537,423	139,275	0,096	-0,093
-536,408	250,425	-0,080	0,100
-535,393	-94,458	0,083	0,016
-534,379	-117,448	-0,085	-0,011
-533,364	176,091	-0,051	-0,054
-532,350	180,301	0,092	0,099
-531,335	-146,357	0,076	0,005
-530,321	800,000	-0,042	0,108
-529,306	640,239	-0,082	-0,153
-528,291	67,717	-0,028	-0,021
-527,277	34,990	-0,125	-0,080
-526,262	-72,207	-0,125	-0,034
-525,248	800,000	0,024	-0,052
-524,233	28,243	0,058	-0,036
-523,218	90,086	0,050	-0,041
-522,204	343,270	-0,031	-0,044
-521,189	-58,435	0,145	-0,046
-520,175	-63,879	-0,112	0,033
-519,160	86,688	-0,046	0,037
-518,145	-200,000	-0,001	0,046
-517,131	-122,878	0,067	-0,008
-516,116	337,889	0,055	-0,079
-515,102	376,875	-0,067	-0,101
-514,087	-11,417	-0,054	-0,026
-513,072	16,370	0,120	-0,069
-512,058	800,000	-0,021	-0,063
-511,043	-6,397	0,089	0,044
-510,029	-97,439	0,100	0,019
-509,014	220,156	0,017	0,020
-507,999	-200,000	-0,011	-0,049
-506,985	29,553	0,053	-0,033
-505,970	-79,355	-0,061	-0,015
-504,956	800,000	-0,028	-0,060
-503,941	800,000	0,065	-0,143
-502,926	43,139	-0,042	-0,028
-501,912	446,461	0,086	-0,138
-500,897	15,290	-0,039	-0,022
-499,883	58,504	-0,011	-0,008
-498,868	795,134	0,038	-0,077
-497,853	800,000	0,050	-0,151
-496,839	800,000	-0,040	-0,117
-495,824	72,661	0,076	0,058
-494,810	89,142	0,105	0,085
-493,795	-44,816	-0,055	0,020
-492,781	140,402	0,065	-0,063
-491,766	135,141	0,029	0,027
-490,751	-200,000	0,003	-0,054
-489,737	-200,000	-0,018	0,107
-488,722	64,679	0,022	0,016
-487,708	39,688	0,143	0,093
-486,693	-200,000	-0,001	0,117
-485,678	-27,154	-0,033	-0,014
-484,664	800,000	0,010	0,023
-483,649	-200,000	-0,019	-0,179
-482,635	23,128	-0,160	-0,096
-481,620	556,904	0,032	-0,056
-480,605	-200,000	-0,036	0,153
-479,591	-200,000	0,034	0,137
-478,576	-200,000	-0,021	0,104
-477,562	79,218	-0,043	-0,033
-476,547	-200,000	0,017	-0,057
-475,532	599,331	0,031	0,057
-474,518	470,720	-0,039	-0,064
-473,503	-76,095	-0,149	-0,038
-472,489	87,735	-0,049	-0,040
-471,474	241,496	-0,033	-0,041
-470,459	346,629	0,110	-0,158
-469,445	800,000	0,019	0,039
-468,430	-57,379	0,044	0,014
-467,416	-200,000	0,042	-0,182
-466,401	319,436	0,053	-0,074
-465,386	-162,625	0,162	0,006
-464,372	35,269	-0,052	0,033
-463,357	554,274	0,042	-0,074
-462,343	-200,000	-0,020	-0,153
-461,328	-200,000	-0,008	-0,101
-460,313	800,000	0,017	-0,056
-459,299	-72,763	0,076	-0,020
-458,284	-52,071	-0,093	-0,031
-457,270	31,255	0,098	0,061
-456,255	329,318	0,011	0,016
-455,241	132,668	0,093	-0,088
-454,226	800,000	0,028	-0,074
-453,211	-200,000	0,029	-0,150
-452,197	-200,000	0,012	0,097
-451,182	-200,000	0,004	0,048
-450,168	-200,000	0,003	0,118
-449,153	137,894	0,040	0,038
-448,138	132,387	0,043	-0,040
-447,124	-165,768	-0,054	-0,002
-446,109	-135,798	0,102	-0,009
-445,095	29,046	-0,085	0,052
-444,080	135,246	0,119	0,113
-443,065	2,924	0,093	-0,049
-442,051	31,872	-0,155	0,097
-441,036	2,242	0,117	-0,061
-440,022	-200,000	-0,012	-0,050
-439,007	390,166	-0,045	-0,068
-437,992	1,868	0,101	-0,053
-436,978	-200,000	-0,033	0,118
-435,963	366,783	-0,077	0,114
-434,949	-63,070	-0,151	-0,045
-433,934	-200,000	-0,004	-0,018
-432,919	-41,223	0,133	0,050
-431,905	800,000	-0,024	0,071
-430,890	-200,000	0,012	0,049
-429,876	800,000	0,038	0,096
-428,861	145,675	0,010	-0,009
-427,846	-200,000	-0,008	-0,053
-426,832	-72,996	-0,109	0,029
-425,817	800,000	0,022	0,066
-424,803	101,630	-0,073	-0,062
-423,788	-9,915	0,071	-0,034
-422,773	-3,391	-0,138	0,070
-421,759	79,337	-0,055	-0,043
-420,744	-66,981	-0,115	-0,033
-419,730	319,063	-0,075	-0,103
-418,715	-41,161	0,102	-0,038
-417,701	145,644	0,072	0,071
-416,686	-122,612	0,062	-0,007
-415,671	48,731	0,015	-0,010
-414,657	-190,140	0,239	-0,002
-413,642	800,000	-0,005	0,013
-412,628	78,233	-0,038	-0,029
-411,613	800,000	0,053	0,123
-410,598	18,199	0,074	-0,043
-409,584	-200,000	-0,047	-0,240
-408,569	344,601	0,048	-0,069
-407,555	138,026	0,031	-0,029
-406,540	799,588	-0,033	-0,066
-405,525	798,104	-0,020	0,040
-404,511	-200,000	0,019	0,113
-403,496	-24,750	0,073	0,031
-402,482	-200,000	0,003	0,055
-401,467	-13,825	0,028	0,013
-400,452	-51,357	0,026	0,009
-399,438	507,755	-0,047	0,080
-398,423	-65,888	0,073	-0,021
-397,409	241,309	0,043	0,052
-396,394	-113,992	0,083	-0,012
-395,379	104,651	0,050	-0,043
-394,365	-200,000	-0,017	0,103
-393,350	143,704	-0,144	-0,139
-392,336	439,018	-0,088	0,140
-391,321	565,884	0,048	-0,086
-390,306	28,546	0,034	0,021
-389,292	-153,766	-0,071	0,003
-388,277	-42,753	0,075	0,028
-387,263	16,410	-0,070	0,040
-386,248	-200,000	0,003	-0,015
-385,233	35,762	-0,129	0,082
-384,219	325,578	0,006	0,008
-383,204	642,866	0,027	-0,051
-382,190	-123,692	0,097	0,011
-381,175	2,750	-0,094	-0,050
-380,160	106,439	0,144	-0,124
-379,146	-74,168	0,030	-0,008
-378,131	150,643	-0,015	0,015
-377,117	-112,261	-0,021	-0,003
-376,102	-88,561	-0,025	0,005
-375,088	-74,098	-0,149	0,039
-374,073	35,048	0,117	-0,074
-373,058	800,000	0,030	-0,083
-372,044	559,348	0,018	-0,032
-371,029	367,463	0,051	0,074
-370,015	-72,844	0,018	0,005
-369,000	64,842	-0,046	-0,034
-367,985	360,111	0,040	-0,058
-366,971	393,000	-0,041	-0,062
-365,956	307,512	-0,038	-0,052
-364,942	800,000	0,027	0,067
-363,927	104,994	0,022	0,019
-362,912	-72,554	0,055	0,015
-361,898	-102,799	-0,185	0,032
-360,883	259,025	0,096	-0,120
-359,869	9,382	-0,140	-0,076
-358,854	-101,418	0,065	0,011
-357,839	497,512	-0,011	0,019
-356,825	63,353	0,064	-0,046
-355,810	293,666	-0,023	0,031
-354,796	196,235	-0,008	0,008
-353,781	188,499	-0,138	0,150
-352,766	-200,000	0,007	0,073
-351,752	38,033	0,111	0,071
-350,737	-200,000	0,037	0,161
-349,723	504,301	0,042	0,070
-348,708	314,760	0,063	0,087
-347,693	800,000	-0,046	-0,113
-346,679	-200,000	-0,010	-0,150
-345,664	112,470	-0,078	0,069
-344,650	537,893	0,040	-0,070
-343,635	422,426	-0,069	0,108
-342,620	183,375	-0,015	-0,016
-341,606	504,891	0,061	0,102
-340,591	188,739	-0,088	-0,095
-339,577	143,097	-0,028	-0,027
-338,562	-200,000	0,000	0,107
-337,548	-126,933	0,093	0,010
-336,533	176,616	0,075	0,079
-335,518	-200,000	0,004	-0,065
-334,504	-200,000	-0,010	0,098
-333,489	-200,000	-0,027	-0,111
-332,475	-98,290	-0,061	0,011
-331,460	-200,000	0,015	0,069
-330,445	-54,316	-0,073	0,024
-329,431	190,394	0,139	0,152
-328,416	-74,123	0,043	0,011
-327,402	534,933	-0,020	0,034
-326,387	-191,575	-0,043	-0,000
-325,372	-200,000	0,011	0,095
-324,358	-51,031	-0,073	-0,025
-323,343	561,477	-0,033	0,058
-322,329	-200,000	0,006	-0,047
-321,314	-200,000	-0,016	-0,113
-320,299	-102,305	0,047	0,008
-319,285	309,981	0,019	0,026
-318,270	10,877	-0,120	0,066
-317,256	328,566	-0,042	0,058
-316,241	-200,000	0,008	0,098
-315,226	45,560	0,032	-0,022
-314,212	800,000	0,074	0,180
-313,197	-94,752	-0,056	-0,011
-312,183	-200,000	0,004	-0,088
-311,168	-177,424	-0,072	0,001
-310,153	432,511	0,031	-0,048
-309,139	-176,037	-0,123	-0,002
-308,124	-172,291	0,147	-0,003
-307,110	800,000	0,074	0,188
-306,095	473,717	-0,016	-0,027
-305,080	289,783	-0,025	-0,033
-304,066	89,054	-0,042	0,034
-303,051	303,063	-0,008	0,010
-302,037	78,453	-0,047	-0,036
-301,022	4,053	0,068	-0,036
-300,008	-200,000	-0,023	0,125
-298,993	311,473	-0,045	0,062
-297,978	52,377	-0,168	-0,116
-296,964	-96,084	-0,084	-0,016
-295,949	-200,000	0,028	-0,095
-294,935	127,307	-0,090	-0,083
-293,920	-200,000	-0,015	-0,050
-292,905	-31,652	0,095	0,038
-291,891	-200,000	0,021	0,130
-290,876	-200,000	0,022	0,164
-289,862	-200,000	-0,009	0,137
-288,847	-63,529	0,132	0,039
-287,832	800,000	-0,045	-0,116
-286,818	-200,000	0,003	-0,067
-285,803	-53,573	0,055	-0,018
-284,789	43,003	-0,030	-0,020
-283,774	-200,000	-0,021	0,097
-282,759	1,069	0,059	0,030
-281,745	336,174	-0,063	-0,089
-280,730	160,125	-0,063	0,064
-279,716	758,782	0,014	0,027
-278,701	-85,688	-0,022	0,005
-277,686	800,000	0,068	0,153
-276,672	31,885	0,046	0,028
-275,657	32,085	0,097	-0,060
-274,643	-102,540	0,066	-0,011
-273,628	433,361	-0,041	0,065
-272,613	-125,303	-0,048	-0,005
-271,599	-200,000	0,015	0,073
-270,584	16,228	-0,147	-0,084
-269,570	208,892	-0,045	0,051
-268,555	41,162	-0,061	0,040
-267,540	800,000	0,050	0,104
-266,526	214,853	-0,105	-0,120
-265,511	168,079	-0,038	0,039
-264,497	-133,514	0,102	0,009
-263,482	247,519	-0,038	-0,046
-262,467	-200,000	0,014	0,126
-261,453	395,530	0,031	-0,046
-260,438	-200,000	-0,064	-0,217
-259,424	374,080	-0,053	-0,078
-258,409	92,016	-0,091	-0,074
-257,395	-7,728	-0,061	0,030
-256,380	-200,000	0,008	0,026
-255,365	800,000	-0,025	0,059
-254,351	105,789	-0,012	0,010
-253,336	-124,140	-0,152	-0,017
-252,322	-124,382	-0,084	0,009
-251,307	124,757	0,049	-0,045
-250,292	1,758	-0,062	0,032
-249,278	7,152	0,038	0,020
-248,263	-54,365	0,031	0,010
-247,249	-200,000	-0,006	-0,103
-246,234	204,818	-0,186	-0,209
-245,219	-200,000	0,006	-0,091
-244,205	187,322	-0,068	0,073
-243,190	-200,000	-0,024	-0,103
-242,176	-200,000	0,049	0,169
-241,161	-52,314	0,113	0,037
-240,146	-23,677	-0,045	0,019
-239,132	-69,355	-0,112	-0,031
-238,117	101,673	0,062	-0,052
-237,103	800,000	-0,030	-0,081
-236,088	-200,000	-0,022	-0,082
-235,073	171,743	0,045	-0,046
-234,059	-200,000	-0,034	0,164
-233,044	-200,000	0,001	0,012
-232,030	-175,454	-0,071	0,001
-231,015	634,249	-0,112	-0,206
-230,000	191,905	0,040	0,043
-228,986	-156,989	0,070	0,003
-227,971	800,000	0,051	0,133
-226,957	-200,000	0,005	0,073
-225,942	-200,000	-0,013	0,055
-224,927	37,043	0,074	0,047
-223,913	701,575	-0,031	-0,060
-222,898	41,119	0,018	-0,012
-221,884	800,000	0,037	0,118
-220,869	800,000	0,022	-0,045
-219,855	100,444	0,044	0,037
-218,840	11,718	0,119	-0,066
-217,825	-36,470	0,004	-0,001
-216,811	578,022	-0,066	0,118
-215,796	34,632	-0,016	0,010
-214,782	-105,698	-0,055	0,009
-213,767	800,000	0,035	-0,074
-212,752	410,520	0,061	0,094
-211,738	247,839	0,081	-0,099
-210,723	-98,553	0,071	-0,013
-209,709	-200,000	0,017	-0,144
-208,694	667,266	-0,069	-0,129
-207,679	43,959	-0,009	-0,006
-206,665	282,296	0,036	0,046
-205,650	501,131	-0,032	0,054
-204,636	415,555	0,055	0,085
-203,621	154,713	-0,063	-0,062
-202,606	166,367	0,142	-0,146
-201,592	-200,000	-0,010	-0,231
-200,577	57,834	0,090	0,063
-199,563	-50,400	0,099	0,034
-198,548	29,804	-0,076	0,047
-197,533	-91,906	0,063	0,013
-196,519	409,653	-0,065	0,100
-195,504	52,366	-0,049	-0,034
-194,490	800,000	-0,018	-0,048
-193,475	800,000	0,034	-0,070
-192,460	-200,000	0,030	0,115
-191,446	-200,000	0,018	0,068
-190,431	90,835	-0,052	0,042
-189,417	-200,000	0,011	0,077
-188,402	426,732	0,049	0,077
-187,387	601,118	-0,034	-0,061
-186,373	-200,000	0,008	0,074
-185,358	-81,732	0,097	-0,023
-184,344	-101,250	0,115	0,020
-183,329	-103,542	-0,082	0,014
-182,315	373,178	-0,037	-0,054
-181,300	67,427	-0,043	0,032
-180,285	-28,994	0,097	-0,040
-179,271	-200,000	-0,017	-0,095
-178,256	127,959	-0,032	0,029
-177,242	368,996	-0,015	0,023
-176,227	3,724	0,050	0,026
-175,212	516,686	0,049	-0,083
-174,198	-111,187	-0,030	0,004
-173,183	445,669	0,031	0,049
-172,169	70,437	-0,054	-0,040
-171,154	371,198	0,047	0,069
-170,139	-152,236	0,055	0,003
-169,125	800,000	0,030	0,074
-168,110	149,548	0,020	-0,019
-167,096	27,409	-0,104	0,063
-166,081	141,458	-0,037	-0,036
-165,066	-106,096	-0,065	0,010
-164,052	-200,000	-0,024	-0,091
-163,037	-20,494	0,099	0,043
-162,023	800,000	0,013	-0,039
-161,008	-79,177	0,079	-0,019
-159,993	-200,000	-0,014	-0,053
-158,979	-55,074	0,011	-0,004
-157,964	-200,000	-0,018	-0,074
-156,950	69,783	-0,098	-0,072
-155,935	-200,000	-0,012	0,043
-154,920	-200,000	-0,017	-0,091
-153,906	-105,205	-0,059	-0,010
-152,891	188,731	-0,043	0,046
-151,877	-200,000	0,005	-0,103
-150,862	255,626	-0,061	0,075
-149,847	800,000	0,047	-0,108
-148,833	800,000	-0,026	0,055
-147,818	800,000	0,043	0,111
-146,804	-200,000	0,002	0,068
-145,789	-173,821	0,071	-0,001
-144,775	-200,000	0,005	0,047
-143,760	-200,000	0,008	-0,027
-142,745	800,000	-0,003	0,009
-141,731	62,229	0,057	-0,041
-140,716	-7,569	-0,036	0,017
-139,702	-200,000	-0,013	0,153
-138,687	51,247	-0,126	0,086
-137,672	-121,610	0,032	-0,004
-136,658	-174,012	0,040	0,001
-135,643	-200,000	0,002	-0,038
-134,629	800,000	0,054	-0,131
-133,614	375,146	0,054	0,079
-132,599	2,204	0,045	-0,023
-131,585	-200,000	-0,012	0,063
-130,570	227,141	-0,016	-0,019
-129,556	-119,035	-0,159	-0,020
-128,541	-51,791	0,052	0,017
-127,526	77,251	-0,062	-0,047
-126,512	-200,000	0,021	-0,083
-125,497	203,696	0,045	0,051
-124,483	-200,000	0,024	0,101
-123,468	-61,662	-0,043	-0,013
-122,453	157,293	-0,062	0,062
-121,439	-185,329	0,088	-0,001
-120,424	152,348	-0,016	0,016
-119,410	-200,000	-0,006	0,027
-118,395	381,738	0,062	0,092
