DTS Sentinel unit serial number:	SN410029Multiplexer serial number:	ORYXHardware model number:	OX2-SRSoftware version number:	ORYX F/W v4,00 Oryx Data Collector v3.7.2.0data status	okinstallation	B5 Nyhavnadifferential loss correction	single-endedforward channel	channel 2reverse channel	N/Adate	2023/12/14time	15:27:13forward acquisition time	300,00reverse acquisition time	0,00gamma	499,1914k internal	0,3157k external	0,3157temperature offset calibration	1,0000default loss term (dB/km)	0,3820temperature slope calibration	1,0000multiplexer offset coefficient	1,0000multiplexer slope coefficient	1,0000fibre end	0,00T internal ref (°C)	7,89T ext. ref 1 (°C)	-8,27T ext. ref 2 (°C)	-8,30length (m)	temperature (°C)	Stokes	anti-Stokes-744,400	-200,000	-0,023	0,126
-743,385	-64,642	-0,372	-0,111
-742,371	158,006	0,176	0,180
-741,356	-134,082	-0,397	-0,036
-740,342	102,687	0,173	0,149
-739,327	75,148	-0,256	-0,199
-738,312	45,692	0,120	0,082
-737,298	-43,896	-0,377	-0,139
-736,283	-116,615	0,178	-0,024
-735,269	-32,786	-0,407	-0,166
-734,254	90,032	0,235	0,193
-733,239	-65,329	-0,633	-0,186
-732,225	126,273	0,205	0,191
-731,210	-200,000	0,037	0,128
-730,196	-51,095	0,091	-0,031
-729,181	-25,226	-0,060	-0,026
-728,167	-22,829	-0,089	0,039
-727,152	-22,553	-0,028	-0,013
-726,137	57,885	-0,086	-0,062
-725,123	224,029	0,110	0,131
-724,108	-106,670	-0,098	-0,016
-723,094	-177,688	-0,100	0,002
-722,079	-185,725	-0,137	-0,001
-721,064	-200,000	0,021	0,132
-720,050	-200,000	-0,010	-0,122
-719,035	-200,000	0,014	-0,101
-718,021	-79,143	-0,104	0,026
-717,006	104,440	-0,138	0,120
-715,991	-200,000	-0,010	-0,096
-714,977	-37,188	0,012	0,005
-713,962	800,000	0,029	0,082
-712,948	-200,000	-0,012	0,151
-711,933	84,131	0,012	0,010
-710,918	623,305	-0,063	-0,118
-709,904	-121,409	0,029	0,003
-708,889	713,423	-0,063	-0,123
-707,875	-200,000	-0,016	-0,064
-706,860	-200,000	0,040	0,204
-705,845	800,000	-0,017	-0,040
-704,831	-133,164	0,117	-0,011
-703,816	800,000	-0,046	-0,100
-702,802	-200,000	0,007	0,031
-701,787	-81,830	-0,072	-0,017
-700,772	-168,014	0,049	-0,001
-699,758	-137,057	0,045	-0,004
-698,743	94,908	-0,095	0,080
-697,729	-67,467	-0,098	-0,028
-696,714	-48,734	0,033	-0,011
-695,699	469,930	0,072	-0,120
-694,685	246,937	0,054	0,068
-693,670	-200,000	0,014	-0,051
-692,656	-80,312	0,108	0,026
-691,641	-200,000	-0,016	-0,115
-690,627	690,481	0,008	0,016
-689,612	-200,000	0,012	-0,105
-688,597	-200,000	0,055	-0,237
-687,583	-200,000	0,015	-0,109
-686,568	800,000	0,095	-0,224
-685,554	-200,000	-0,024	-0,109
-684,539	800,000	-0,031	0,077
-683,524	9,898	0,063	-0,035
-682,510	-65,091	-0,036	0,011
-681,495	272,623	0,060	-0,078
-680,481	-127,348	-0,056	-0,006
-679,466	-200,000	-0,002	-0,143
-678,451	112,765	0,063	-0,056
-677,437	-0,169	-0,100	-0,052
-676,422	-76,089	0,125	0,032
-675,408	173,318	0,016	-0,016
-674,393	247,154	0,019	-0,024
-673,378	800,000	0,028	-0,059
-672,364	3,096	-0,225	-0,120
-671,349	787,589	-0,070	-0,142
-670,335	-200,000	0,051	-0,186
-669,320	-200,000	-0,008	-0,081
-668,305	800,000	0,043	-0,097
-667,291	-96,715	-0,117	-0,022
-666,276	-200,000	0,004	-0,043
-665,262	-24,575	-0,168	-0,073
-664,247	140,729	0,046	0,044
-663,232	-200,000	0,017	0,078
-662,218	-200,000	-0,010	-0,122
-661,203	-92,727	0,014	-0,003
-660,189	-183,331	0,059	-0,001
-659,174	53,177	-0,080	0,056
-658,159	611,945	-0,021	0,038
-657,145	-136,841	-0,184	-0,015
-656,130	-200,000	0,024	0,141
-655,116	310,216	0,056	0,077
-654,101	-44,812	-0,101	0,037
-653,086	-200,000	0,008	-0,106
-652,072	800,000	0,039	0,108
-651,057	228,768	-0,044	-0,053
-650,043	-108,120	-0,172	-0,027
-649,028	102,095	-0,038	-0,032
-648,014	-200,000	-0,005	0,027
-646,999	68,174	0,090	0,067
-645,984	800,000	-0,031	-0,077
-644,970	5,229	0,082	0,045
-643,955	518,682	-0,063	0,110
-642,941	-152,498	-0,043	-0,002
-641,926	-66,507	0,079	0,023
-640,911	-21,669	-0,100	0,044
-639,897	72,852	-0,046	-0,035
-638,882	-200,000	-0,000	-0,132
-637,868	-64,562	-0,057	0,017
-636,853	800,000	-0,019	0,053
-635,838	-84,122	-0,088	0,020
-634,824	-69,101	0,095	0,027
-633,809	-53,193	-0,072	0,024
-632,795	-200,000	0,050	0,180
-631,780	315,780	-0,034	0,048
-630,765	-119,535	0,087	0,011
-629,751	-200,000	-0,016	-0,058
-628,736	800,000	-0,045	0,109
-627,722	61,589	0,055	0,040
-626,707	-200,000	0,016	0,056
-625,692	-200,000	-0,013	0,084
-624,678	800,000	-0,070	0,157
-623,663	-200,000	0,047	0,203
-622,649	-200,000	0,014	0,060
-621,634	89,042	-0,088	-0,072
-620,619	-34,366	0,099	-0,039
-619,605	-200,000	0,048	0,192
-618,590	-157,977	-0,169	-0,007
-617,576	-87,441	0,043	0,010
-616,561	800,000	0,030	-0,063
-615,546	800,000	0,063	0,142
-614,532	112,348	-0,072	-0,063
-613,517	-200,000	-0,006	-0,027
-612,503	-200,000	-0,027	0,106
-611,488	525,786	0,115	0,199
-610,474	-171,160	-0,034	-0,001
-609,459	348,628	0,063	0,092
-608,444	133,409	0,076	-0,072
-607,430	84,982	-0,057	-0,046
-606,415	73,622	-0,189	-0,145
-605,401	46,933	0,024	0,016
-604,386	647,097	-0,072	0,135
-603,371	-25,635	0,064	0,028
-602,357	151,402	0,019	-0,019
-601,342	-200,000	-0,006	-0,036
-600,328	38,244	-0,049	-0,032
-599,313	-62,778	0,033	0,010
-598,298	-104,370	0,038	-0,006
-597,284	462,136	-0,031	-0,051
-596,269	453,141	-0,053	-0,087
-595,255	-81,699	0,099	0,024
-594,240	119,266	-0,161	-0,146
-593,225	31,352	-0,053	-0,033
-592,211	246,330	0,125	-0,155
-591,196	156,502	-0,050	-0,050
-590,182	-23,276	-0,110	0,048
-589,167	-110,960	0,122	0,018
-588,152	800,000	0,035	0,104
-587,138	154,293	-0,119	0,119
-586,123	204,610	-0,075	-0,085
-585,109	-200,000	0,018	-0,088
-584,094	-158,554	0,080	-0,003
-583,079	-200,000	0,024	0,109
-582,065	-78,562	0,093	-0,023
-581,050	32,272	-0,042	-0,026
-580,036	-89,938	0,039	0,008
-579,021	-62,574	-0,086	0,026
-578,006	-200,000	0,027	-0,165
-576,992	-25,445	-0,080	0,034
-575,977	800,000	-0,023	-0,047
-574,963	-200,000	-0,003	0,013
-573,948	396,353	0,114	0,175
-572,934	800,000	-0,032	0,104
-571,919	-200,000	-0,015	0,095
-570,904	20,396	-0,163	-0,096
-569,890	-200,000	-0,001	0,089
-568,875	800,000	-0,022	-0,068
-567,861	49,379	0,043	-0,030
-566,846	800,000	-0,028	0,068
-565,831	-200,000	-0,033	0,255
-564,817	-128,056	-0,144	-0,015
-563,802	86,157	0,114	-0,092
-562,788	-160,689	0,115	-0,004
-561,773	-128,295	0,081	-0,008
-560,758	-56,628	-0,136	-0,044
-559,744	-200,000	-0,004	-0,061
-558,729	124,193	0,051	-0,047
-557,715	-43,545	-0,099	-0,036
-556,700	-200,000	0,018	0,126
-555,685	21,661	-0,079	-0,047
-554,671	-83,956	-0,143	-0,033
-553,656	-133,433	0,085	-0,008
-552,642	384,410	-0,100	0,151
-551,627	54,147	-0,084	0,059
-550,612	-200,000	0,008	-0,097
-549,598	574,472	-0,045	0,082
-548,583	180,129	-0,029	0,032
-547,569	-200,000	-0,013	0,095
-546,554	131,207	-0,101	0,095
-545,539	74,914	0,061	-0,047
-544,525	150,337	0,132	-0,131
-543,510	-200,000	0,021	-0,074
-542,496	-200,000	0,017	-0,068
-541,481	800,000	-0,058	0,133
-540,466	-200,000	-0,012	-0,040
-539,452	202,163	0,042	-0,048
-538,437	-59,558	0,035	-0,011
-537,423	-71,163	-0,164	-0,045
-536,408	278,379	0,074	0,096
-535,393	800,000	-0,012	0,028
-534,379	-85,771	-0,076	-0,017
-533,364	-25,803	0,071	0,030
-532,350	-200,000	-0,015	-0,089
-531,335	197,720	-0,094	0,105
-530,321	268,055	0,080	0,103
-529,306	33,938	-0,089	-0,057
-528,291	-28,133	-0,054	0,023
-527,277	-82,183	-0,073	-0,017
-526,262	800,000	0,014	-0,038
-525,248	800,000	-0,019	-0,045
-524,233	-119,097	-0,044	0,006
-523,218	-200,000	0,029	0,103
-522,204	89,380	0,047	0,038
-521,189	-200,000	-0,026	0,216
-520,175	-200,000	0,002	0,015
-519,160	-22,760	0,102	-0,045
-518,145	141,495	0,015	-0,014
-517,131	26,842	0,060	0,037
-516,116	-84,558	-0,123	0,028
-515,102	142,560	-0,018	0,018
-514,087	-200,000	-0,049	-0,274
-513,072	800,000	0,035	-0,091
-512,058	-86,169	-0,052	-0,012
-511,043	-200,000	0,022	-0,160
-510,029	-200,000	0,014	-0,162
-509,014	-138,050	-0,072	0,006
-507,999	-200,000	0,027	0,169
-506,985	-40,640	-0,146	0,055
-505,970	800,000	-0,069	-0,144
-504,956	-95,973	-0,103	0,020
-503,941	800,000	-0,078	0,206
-502,926	-54,002	0,118	0,039
-501,912	228,418	-0,046	0,055
-500,897	742,252	-0,020	0,040
-499,883	-170,323	0,039	0,001
-498,868	12,295	-0,088	-0,050
-497,853	-200,000	-0,002	-0,119
-496,839	313,252	0,029	-0,040
-495,824	753,513	0,053	-0,106
-494,810	8,962	0,126	0,069
-493,795	-200,000	-0,019	0,118
-492,781	-200,000	-0,019	-0,088
-491,766	435,562	0,066	-0,105
-490,751	28,738	0,109	-0,067
-489,737	136,934	-0,033	-0,032
-488,722	-200,000	-0,009	-0,034
-487,708	-109,377	0,151	0,023
-486,693	-124,368	-0,058	0,007
-485,678	466,866	0,034	-0,055
-484,664	-200,000	0,004	-0,161
-483,649	332,276	-0,067	-0,094
-482,635	89,778	-0,090	0,073
-481,620	-200,000	-0,021	0,081
-480,605	-200,000	-0,016	0,127
-479,591	-200,000	0,015	0,211
-478,576	-7,223	0,122	-0,060
-477,562	-200,000	0,000	-0,087
-476,547	81,011	-0,056	-0,044
-475,532	403,594	-0,018	-0,028
-474,518	-200,000	0,010	-0,058
-473,503	800,000	-0,036	-0,076
-472,489	-34,445	0,130	0,052
-471,474	214,586	-0,067	-0,078
-470,459	-58,208	-0,083	-0,026
-469,445	753,529	-0,028	-0,056
-468,430	258,515	0,040	0,050
-467,416	-121,097	0,109	-0,013
-466,401	800,000	-0,068	0,192
-465,386	-35,381	0,061	-0,024
-464,372	-67,368	-0,091	-0,026
-463,357	-200,000	0,028	-0,137
-462,343	217,227	-0,045	-0,052
-461,328	800,000	-0,045	-0,123
-460,313	-200,000	0,020	0,071
-459,299	-60,850	-0,111	0,034
-458,284	147,587	0,137	0,135
-457,270	142,416	0,110	0,106
-456,255	54,094	-0,036	-0,025
-455,241	401,676	-0,032	-0,050
-454,226	-43,838	-0,100	-0,036
-453,211	-200,000	0,023	-0,112
-452,197	-200,000	-0,009	0,186
-451,182	69,632	-0,041	-0,031
-450,168	-9,712	-0,019	0,009
-449,153	-23,186	-0,018	0,008
-448,138	800,000	-0,036	-0,096
-447,124	-200,000	-0,041	-0,136
-446,109	-48,277	-0,079	0,028
-445,095	18,838	0,103	0,060
-444,080	302,907	0,051	0,069
-443,065	7,774	0,140	0,076
-442,051	800,000	-0,033	-0,073
-441,036	290,750	0,051	0,067
-440,022	-112,215	-0,214	-0,031
-439,007	-36,176	0,122	-0,048
-437,992	-200,000	0,034	0,123
-436,978	-200,000	0,026	0,097
-435,963	-133,260	-0,136	0,012
-434,949	-200,000	-0,039	0,140
-433,934	-1,107	-0,082	0,042
-432,919	-200,000	0,006	-0,039
-431,905	-159,502	-0,135	-0,005
-430,890	-119,630	-0,098	0,012
-429,876	-137,287	0,097	-0,008
-428,861	22,876	0,151	-0,090
-427,846	-45,938	0,069	0,025
-426,832	-27,015	-0,099	0,042
-425,817	56,127	0,100	-0,070
-424,803	19,509	0,036	-0,021
-423,788	148,403	0,017	0,016
-422,773	-200,000	0,016	0,051
-421,759	6,543	0,021	-0,011
-420,744	235,364	0,088	0,106
-419,730	-3,722	-0,045	0,023
-418,715	-133,097	-0,076	0,007
-417,701	-200,000	-0,043	-0,200
-416,686	800,000	-0,018	-0,050
-415,671	77,099	-0,096	0,074
-414,657	-200,000	-0,010	-0,033
-413,642	-85,452	0,077	-0,017
-412,628	780,883	0,060	0,120
-411,613	145,853	0,079	-0,077
-410,598	34,846	0,058	-0,037
-409,584	800,000	0,034	0,077
-408,569	800,000	-0,056	0,122
-407,555	16,831	-0,089	0,051
-406,540	-128,964	0,091	0,009
-405,525	148,637	-0,084	-0,083
-404,511	7,826	-0,133	0,072
-403,496	-45,759	-0,131	0,047
-402,482	2,906	0,092	-0,048
-401,467	800,000	0,017	-0,042
-400,452	320,800	0,090	-0,124
-399,438	-200,000	-0,001	-0,037
-398,423	448,163	-0,045	-0,073
-397,409	-200,000	0,006	-0,042
-396,394	-198,876	0,089	0,000
-395,379	800,000	0,028	0,073
-394,365	-200,000	-0,019	-0,117
-393,350	-9,516	-0,085	-0,041
-392,336	800,000	0,035	0,113
-391,321	800,000	-0,037	-0,080
-390,306	-189,114	0,015	0,000
-389,292	36,537	-0,048	-0,031
-388,277	533,079	0,025	-0,043
-387,263	614,456	0,015	0,027
-386,248	-174,507	0,075	0,002
-385,233	-200,000	0,004	-0,110
-384,219	-200,000	-0,000	-0,131
-383,204	15,077	0,101	0,058
-382,190	-200,000	0,003	-0,035
-381,175	208,288	-0,065	0,074
-380,160	-200,000	-0,027	-0,125
-379,146	-156,044	-0,090	-0,004
-378,131	-120,121	0,210	-0,026
-377,117	538,920	0,023	-0,040
-376,102	166,044	-0,023	0,023
-375,088	64,901	0,160	0,117
-374,073	-200,000	-0,025	0,114
-373,058	-70,611	0,049	-0,013
-372,044	184,725	0,136	0,147
-371,029	220,476	-0,043	0,051
-370,015	269,582	-0,071	-0,091
-369,000	-35,343	-0,028	0,011
-367,985	28,487	-0,190	0,117
-366,971	100,923	0,034	0,029
-365,956	-183,796	0,029	0,000
-364,942	800,000	0,016	0,046
-363,927	-152,823	0,054	0,003
-362,912	679,806	-0,022	-0,043
-361,898	246,220	-0,029	-0,036
-360,883	166,321	-0,102	-0,105
-359,869	-200,000	0,036	-0,165
-358,854	-200,000	-0,004	0,163
-357,839	-4,839	0,084	-0,042
-356,825	-45,833	0,077	0,027
-355,810	-200,000	-0,044	-0,169
-354,796	-109,341	-0,099	-0,015
-353,781	79,234	-0,061	-0,047
-352,766	53,514	-0,047	-0,032
-351,752	-98,340	0,118	0,022
-350,737	-76,889	0,101	0,026
-349,723	-21,491	0,140	0,062
-348,708	-200,000	0,013	-0,069
-347,693	-18,179	-0,159	-0,072
-346,679	41,641	0,180	-0,118
-345,664	800,000	-0,095	-0,213
-344,650	-93,134	0,224	0,045
-343,635	-66,473	0,138	0,039
-342,620	179,331	0,065	0,070
-341,606	19,244	-0,051	0,029
-340,591	92,490	-0,047	0,038
-339,577	793,809	-0,072	-0,145
-338,562	-200,000	0,008	-0,079
-337,548	-158,575	0,010	-0,000
-336,533	36,880	-0,086	0,055
-335,518	800,000	-0,078	0,213
-334,504	-53,967	-0,206	0,068
-333,489	-200,000	-0,002	0,074
-332,475	800,000	0,032	-0,090
-331,460	-200,000	-0,038	-0,126
-330,445	-139,239	-0,076	0,006
-329,431	89,148	0,079	0,064
-328,416	-200,000	-0,014	0,130
-327,402	-45,537	0,114	0,041
-326,387	-16,369	0,029	0,013
-325,372	800,000	-0,036	0,086
-324,358	61,347	-0,053	0,038
-323,343	800,000	0,024	0,059
-322,329	278,667	-0,048	-0,063
-321,314	-200,000	0,014	0,070
-320,299	6,949	0,102	0,055
-319,285	364,957	-0,172	0,252
-318,270	-8,948	0,085	0,041
-317,256	-12,658	0,053	-0,025
-316,241	800,000	0,059	-0,139
-315,226	-95,932	0,160	-0,031
-314,212	-39,563	0,049	0,018
-313,197	-200,000	-0,030	-0,106
-312,183	-129,690	-0,097	0,010
-311,168	318,778	0,071	-0,098
-310,153	513,428	-0,087	-0,148
-309,139	95,891	-0,107	0,089
-308,124	215,430	0,075	-0,086
-307,110	124,807	0,056	-0,051
-306,095	-200,000	0,015	0,104
-305,080	-97,398	-0,073	0,014
-304,066	79,571	-0,037	-0,028
-303,051	-42,733	-0,046	-0,017
-302,037	800,000	0,013	-0,037
-301,022	-73,748	0,179	-0,047
-300,008	397,530	0,080	0,122
-298,993	-150,197	0,054	-0,003
-297,978	-105,435	-0,188	-0,031
-296,964	298,306	0,060	0,079
-295,949	369,185	0,022	-0,033
-294,935	264,624	-0,094	-0,119
-293,920	800,000	0,016	0,049
-292,905	800,000	0,055	0,114
-291,891	800,000	0,026	-0,062
-290,876	-200,000	-0,002	0,066
-289,862	-200,000	-0,011	0,082
-288,847	-200,000	0,003	0,031
-287,832	-4,598	0,116	0,058
-286,818	295,197	-0,075	-0,099
-285,803	-200,000	0,013	0,079
-284,789	-116,276	0,030	0,004
-283,774	-200,000	-0,037	-0,186
-282,759	800,000	0,052	-0,160
-281,745	70,040	-0,057	-0,043
-280,730	-97,678	-0,165	-0,031
-279,716	691,945	-0,020	-0,039
-278,701	-35,854	-0,028	0,011
-277,686	800,000	-0,038	-0,110
-276,672	539,658	0,057	-0,099
-275,657	214,551	-0,063	-0,072
-274,643	800,000	-0,073	-0,189
-273,628	800,000	0,053	-0,124
-272,613	-34,858	-0,131	-0,052
-271,599	152,000	0,046	-0,046
-270,584	-116,207	-0,046	0,006
-269,570	45,716	0,229	0,153
-268,555	-17,113	0,127	0,058
-267,540	30,687	-0,038	0,024
-266,526	175,555	0,106	-0,111
-265,511	61,026	0,084	-0,060
-264,497	-200,000	-0,025	0,154
-263,482	-159,908	-0,095	0,004
-262,467	-200,000	0,043	0,186
-261,453	-87,170	0,061	-0,013
-260,438	-200,000	0,006	-0,085
-259,424	224,235	0,030	-0,035
-258,409	800,000	-0,071	-0,170
-257,395	170,576	0,200	-0,207
-256,380	-200,000	-0,002	0,023
-255,365	-200,000	0,010	0,096
-254,351	-62,307	0,108	0,032
-253,336	109,623	-0,012	-0,010
-252,322	-59,167	0,048	0,015
-251,307	-200,000	0,010	-0,053
-250,292	-200,000	0,000	-0,112
-249,278	-102,795	0,067	0,011
-248,263	800,000	0,028	0,068
-247,249	-105,039	-0,074	0,012
-246,234	-200,000	-0,044	0,156
-245,219	201,844	0,020	-0,023
-244,205	-40,388	-0,069	0,026
-243,190	60,340	0,060	-0,043
-242,176	800,000	-0,030	-0,069
-241,161	-200,000	-0,028	0,143
-240,146	625,938	-0,020	-0,037
-239,132	-200,000	-0,012	-0,128
-238,117	-75,377	0,094	-0,024
-237,103	-200,000	0,017	-0,102
-236,088	16,742	0,108	-0,061
-235,073	-103,466	0,124	0,021
-234,059	85,000	-0,026	0,021
-233,044	234,016	0,077	-0,091
-232,030	283,076	0,062	0,081
-231,015	-80,628	-0,072	0,017
-230,000	637,249	-0,047	-0,087
-228,986	85,440	0,101	0,080
-227,971	137,354	0,078	0,073
-226,957	800,000	0,090	0,185
-225,942	-200,000	-0,008	0,066
-224,927	-82,007	0,017	-0,004
-223,913	106,276	0,019	0,017
-222,898	778,324	0,070	-0,139
-221,884	800,000	-0,027	0,064
-220,869	800,000	-0,027	-0,056
-219,855	-200,000	-0,023	0,162
-218,840	-200,000	-0,039	0,199
-217,825	-200,000	-0,034	0,290
-216,811	-200,000	0,053	-0,188
-215,796	-200,000	-0,003	-0,035
-214,782	141,373	0,056	0,053
-213,767	72,374	0,108	0,082
-212,752	800,000	-0,025	0,059
-211,738	-85,993	0,044	-0,010
-210,723	81,295	-0,062	-0,048
-209,709	-200,000	0,020	-0,081
-208,694	580,994	0,039	0,069
-207,679	65,611	0,097	-0,071
-206,665	105,589	0,059	-0,050
-205,650	800,000	0,015	0,033
-204,636	-200,000	-0,021	-0,133
-203,621	-18,989	0,081	-0,036
-202,606	800,000	-0,019	-0,044
-201,592	79,782	-0,045	-0,035
-200,577	-66,313	0,037	-0,010
-199,563	182,953	0,026	0,028
-198,548	800,000	0,079	0,179
-197,533	-62,482	0,094	0,028
-196,519	405,480	-0,031	-0,047
-195,504	139,541	-0,134	-0,127
-194,490	84,679	-0,064	-0,051
-193,475	134,653	0,004	-0,004
-192,460	-157,290	-0,029	-0,001
-191,446	-88,166	-0,078	-0,017
-190,431	800,000	0,026	0,064
-189,417	312,856	0,026	-0,036
-188,402	38,000	-0,090	-0,058
-187,387	-77,312	-0,100	-0,025
-186,373	690,388	0,013	-0,024
-185,358	-200,000	0,007	0,051
-184,344	402,014	0,068	0,103
-183,329	459,095	0,100	-0,161
-182,315	163,190	-0,111	0,113
-181,300	-200,000	-0,024	0,080
-180,285	-84,200	0,076	-0,017
-179,271	-200,000	0,024	-0,087
-178,256	-200,000	0,010	-0,033
-177,242	-100,673	-0,079	0,014
-176,227	82,356	0,034	0,027
-175,212	-200,000	-0,000	0,007
-174,198	-200,000	-0,005	0,037
-173,183	-54,801	-0,117	-0,038
-172,169	3,760	-0,115	-0,060
-171,154	-200,000	0,009	0,116
-170,139	152,400	0,055	0,054
-169,125	557,256	0,020	-0,034
-168,110	183,599	0,104	-0,111
-167,096	-62,030	-0,150	-0,045
-166,081	207,876	-0,033	-0,037
-165,066	-200,000	0,031	-0,110
-164,052	-0,062	-0,044	0,022
-163,037	-200,000	-0,001	0,013
-162,023	-95,005	-0,097	-0,019
-161,008	-200,000	0,024	0,078
-159,993	-143,235	0,207	-0,014
-158,979	-104,393	-0,151	-0,025
-157,964	117,065	0,090	-0,079
-156,950	-200,000	0,005	-0,030
-155,935	-200,000	0,007	-0,165
-154,920	-200,000	-0,005	0,074
-153,906	800,000	-0,043	0,110
-152,891	-9,762	-0,090	-0,043
-151,877	-19,773	-0,011	-0,005
-150,862	-200,000	-0,017	0,069
-149,847	-200,000	0,001	-0,104
-148,833	-79,216	-0,121	-0,029
-147,818	90,627	0,056	-0,046
-146,804	110,552	0,008	0,007
-145,789	99,944	-0,099	0,083
-144,775	-200,000	0,003	-0,144
-143,760	96,956	-0,074	0,061
-142,745	-200,000	0,002	-0,016
-141,731	-200,000	-0,019	-0,063
-140,716	213,250	0,060	0,068
-139,702	244,534	0,090	0,109
-138,687	-200,000	-0,013	-0,117
-137,672	142,695	-0,072	-0,069
-136,658	448,886	-0,039	-0,062
-135,643	-10,925	0,055	-0,026
-134,629	-52,668	-0,141	0,047
-133,614	-200,000	-0,025	0,116
-132,599	85,583	0,082	-0,065
-131,585	120,037	-0,035	-0,031
-130,570	-200,000	0,003	-0,152
-129,556	45,270	0,110	0,073
-128,541	131,264	-0,043	0,040
-127,526	-6,287	0,141	0,069
-126,512	26,558	-0,069	0,041
-125,497	-61,466	0,121	-0,036
-124,483	246,016	-0,021	-0,026
-123,468	-200,000	-0,007	0,130
-122,453	-71,327	-0,059	0,016
-121,439	-136,378	-0,028	0,002
-120,424	34,293	-0,052	-0,033
