DTS Sentinel unit serial number:	SN410029Multiplexer serial number:	ORYXHardware model number:	OX2-SRSoftware version number:	ORYX F/W v4,00 Oryx Data Collector v3.7.2.0data status	okinstallation	B5 Nyhavnadifferential loss correction	single-endedforward channel	channel 2reverse channel	N/Adate	2023/12/11time	15:07:13forward acquisition time	300,00reverse acquisition time	0,00gamma	499,1914k internal	0,3166k external	0,3166temperature offset calibration	1,0000default loss term (dB/km)	0,3820temperature slope calibration	1,0000multiplexer offset coefficient	1,0000multiplexer slope coefficient	1,0000fibre end	0,00T internal ref (°C)	13,11T ext. ref 1 (°C)	-1,96T ext. ref 2 (°C)	-1,95length (m)	temperature (°C)	Stokes	anti-Stokes-744,400	266,465	0,070	0,090
-743,385	-34,806	-0,399	-0,159
-742,371	-25,063	0,098	0,042
-741,356	-131,038	-0,291	0,028
-740,342	-91,907	0,147	-0,030
-739,327	-131,535	-0,328	0,031
-738,312	800,000	0,028	0,088
-737,298	-94,996	-0,389	-0,077
-736,283	116,307	0,164	-0,147
-735,269	10,249	-0,136	-0,076
-734,254	157,293	0,041	0,041
-733,239	-64,314	-0,513	-0,153
-732,225	-108,962	0,172	-0,027
-731,210	146,446	0,048	0,047
-730,196	-200,000	-0,007	0,104
-729,181	238,711	-0,036	-0,044
-728,167	247,199	0,067	-0,083
-727,152	-200,000	-0,005	-0,055
-726,137	-130,412	-0,077	0,008
-725,123	108,097	0,090	0,079
-724,108	800,000	-0,063	-0,133
-723,094	471,269	-0,043	-0,072
-722,079	-107,568	-0,175	-0,028
-721,064	338,022	0,051	-0,073
-720,050	800,000	0,021	0,045
-719,035	-150,231	-0,048	0,003
-718,021	8,146	-0,043	0,024
-717,006	12,416	-0,093	-0,053
-715,991	-121,529	-0,185	-0,022
-714,977	85,898	-0,145	-0,117
-713,962	-200,000	0,000	-0,001
-712,948	122,445	-0,020	0,019
-711,933	-67,393	0,072	-0,021
-710,918	800,000	-0,027	-0,055
-709,904	-200,000	-0,029	-0,187
-708,889	83,500	-0,076	-0,061
-707,875	-156,525	-0,108	-0,005
-706,860	692,131	0,036	0,069
-705,845	380,344	0,076	-0,115
-704,831	458,166	0,088	-0,144
-703,816	16,745	0,060	0,035
-702,802	800,000	-0,038	-0,082
-701,787	364,500	-0,094	-0,139
-700,772	-200,000	-0,009	-0,046
-699,758	-82,151	-0,136	0,032
-698,743	-16,412	0,087	0,040
-697,729	733,583	-0,051	-0,101
-696,714	-200,000	0,000	0,007
-695,699	800,000	0,024	0,069
-694,685	-200,000	-0,095	-0,000
-693,670	99,001	-0,094	-0,079
-692,656	782,726	0,022	0,044
-691,641	142,579	0,027	-0,026
-690,627	-200,000	-0,008	0,125
-689,612	-200,000	-0,011	0,061
-688,597	-131,975	-0,129	0,012
-687,583	800,000	-0,019	-0,058
-686,568	-59,833	0,065	-0,020
-685,554	106,840	-0,146	-0,127
-684,539	306,275	0,015	-0,021
-683,524	-200,000	-0,002	-0,038
-682,510	221,275	0,069	0,081
-681,495	-28,965	-0,106	-0,044
-680,481	800,000	-0,051	-0,116
-679,466	-89,733	-0,020	0,004
-678,451	58,489	-0,184	-0,132
-677,437	-162,856	0,105	-0,004
-676,422	-18,130	0,127	0,058
-675,408	219,645	-0,063	-0,075
-674,393	-200,000	0,005	0,102
-673,378	-111,335	-0,142	-0,021
-672,364	-92,133	-0,183	0,038
-671,349	-122,931	0,119	-0,014
-670,335	36,674	0,060	0,039
-669,320	-200,000	0,034	0,149
-668,305	34,238	0,116	-0,074
-667,291	-200,000	-0,018	0,105
-666,276	-87,070	-0,026	-0,006
-665,262	-179,506	-0,049	-0,001
-664,247	-101,631	-0,093	-0,016
-663,232	800,000	0,032	-0,087
-662,218	-27,378	-0,109	-0,046
-661,203	-78,664	-0,115	-0,029
-660,189	115,641	0,014	0,013
-659,174	-80,557	-0,035	0,009
-658,159	-200,000	-0,045	-0,171
-657,145	-133,349	-0,087	-0,008
-656,130	25,984	0,089	-0,054
-655,116	127,310	-0,040	0,037
-654,101	422,216	-0,014	0,023
-653,086	-110,133	0,115	-0,017
-652,072	321,931	0,069	0,097
-651,057	800,000	-0,014	-0,041
-650,043	85,607	0,109	-0,087
-649,028	800,000	-0,018	-0,045
-648,014	524,359	0,026	0,046
-646,999	-1,115	0,019	0,010
-645,984	209,995	-0,110	0,126
-644,970	-7,664	-0,029	-0,014
-643,955	161,805	-0,060	0,061
-642,941	800,000	0,040	-0,102
-641,926	-43,266	-0,158	-0,058
-640,911	79,848	-0,031	-0,024
-639,897	550,484	0,053	0,094
-638,882	-200,000	-0,021	-0,181
-637,868	-101,396	0,027	-0,005
-636,853	10,832	-0,038	-0,021
-635,838	-200,000	-0,005	-0,105
-634,824	-87,071	0,029	-0,006
-633,809	800,000	-0,012	-0,028
-632,795	800,000	0,017	-0,046
-631,780	-8,588	0,046	-0,022
-630,765	-200,000	0,009	0,051
-629,751	138,403	-0,059	0,057
-628,736	-200,000	0,001	-0,075
-627,722	280,868	-0,036	-0,047
-626,707	-200,000	0,012	-0,121
-625,692	-21,683	-0,063	-0,028
-624,678	203,913	0,021	0,023
-623,663	-200,000	-0,009	-0,035
-622,649	800,000	-0,054	-0,172
-621,634	209,536	0,020	0,023
-620,619	-200,000	-0,009	-0,194
-619,605	70,130	0,082	-0,062
-618,590	179,726	0,060	0,065
-617,576	-86,448	-0,074	0,017
-616,561	-200,000	0,001	-0,016
-615,546	-200,000	-0,022	-0,189
-614,532	-3,702	-0,124	0,063
-613,517	304,381	0,019	0,026
-612,503	-113,467	-0,144	0,020
-611,488	525,221	0,021	-0,036
-610,474	430,487	-0,051	-0,081
-609,459	-200,000	-0,015	-0,172
-608,444	-90,807	0,032	0,007
-607,430	154,800	-0,048	0,048
-606,415	-141,356	0,121	-0,009
-605,401	-52,824	-0,160	0,053
-604,386	298,139	-0,050	0,067
-603,371	58,331	0,092	0,066
-602,357	304,970	-0,053	-0,072
-601,342	-124,866	0,018	0,002
-600,328	-200,000	-0,000	0,079
-599,313	184,580	-0,089	-0,096
-598,298	65,482	-0,010	-0,007
-597,284	-43,614	0,024	0,009
-596,269	-200,000	-0,019	-0,063
-595,255	-200,000	-0,004	-0,130
-594,240	-200,000	-0,040	-0,132
-593,225	-200,000	0,002	-0,189
-592,211	-200,000	0,030	-0,128
-591,196	-200,000	0,003	-0,101
-590,182	-49,890	-0,173	0,060
-589,167	138,619	-0,020	-0,019
-588,152	-123,943	0,141	-0,016
-587,138	184,487	0,114	-0,123
-586,123	800,000	-0,018	-0,056
-585,109	89,123	0,029	0,023
-584,094	-52,361	-0,018	-0,006
-583,079	-4,014	-0,106	-0,054
-582,065	-200,000	-0,009	-0,035
-581,050	-69,583	-0,068	0,019
-580,036	485,876	-0,048	0,080
-579,021	47,962	-0,078	0,053
-578,006	-87,318	-0,112	-0,025
-576,992	220,904	-0,035	-0,041
-575,977	-77,868	-0,094	0,024
-574,963	253,585	0,027	-0,034
-573,948	-200,000	-0,014	0,086
-572,934	-134,783	-0,148	0,013
-571,919	168,078	-0,051	0,053
-570,904	-200,000	0,034	-0,123
-569,890	-37,987	-0,153	-0,059
-568,875	-42,150	0,130	-0,048
-567,861	522,923	0,045	-0,078
-566,846	-41,460	0,043	0,016
-565,831	447,980	0,103	0,167
-564,817	-200,000	-0,006	0,034
-563,802	-200,000	0,027	0,151
-562,788	-200,000	-0,017	-0,093
-561,773	-200,000	0,009	-0,171
-560,758	800,000	0,082	-0,185
-559,744	212,592	-0,099	0,114
-558,729	-108,957	0,111	0,017
-557,715	320,292	-0,105	-0,146
-556,700	-27,367	-0,068	0,029
-555,685	-200,000	0,011	-0,060
-554,671	175,131	0,071	-0,075
-553,656	800,000	0,028	0,067
-552,642	-156,316	0,127	0,006
-551,627	282,945	-0,054	0,071
-550,612	325,345	-0,065	-0,091
-549,598	146,056	-0,093	-0,091
-548,583	67,905	0,052	0,039
-547,569	0,526	-0,033	0,017
-546,554	150,411	-0,118	-0,117
-545,539	-200,000	0,001	0,099
-544,525	-145,290	0,065	-0,004
-543,510	60,426	-0,052	0,038
-542,496	-200,000	-0,027	0,107
-541,481	-84,004	-0,106	0,024
-540,466	-99,185	-0,057	0,010
-539,452	429,598	-0,024	0,039
-538,437	-22,707	0,082	-0,036
-537,423	-200,000	-0,004	0,100
-536,408	-132,360	-0,013	0,001
-535,393	227,486	-0,024	-0,028
-534,379	10,705	-0,111	-0,062
-533,364	217,960	0,078	0,091
-532,350	331,054	0,086	0,121
-531,335	-33,264	-0,129	0,052
-530,321	267,468	-0,024	0,031
-529,306	-127,085	-0,111	0,012
-528,291	34,435	0,156	-0,099
-527,277	-200,000	-0,000	0,058
-526,262	47,068	-0,076	0,051
-525,248	-22,034	-0,063	-0,028
-524,233	296,440	0,064	0,086
-523,218	84,978	0,037	0,029
-522,204	35,828	-0,119	0,076
-521,189	116,339	-0,080	-0,071
-520,175	-200,000	-0,013	-0,071
-519,160	61,217	0,021	0,015
-518,145	-200,000	0,046	-0,156
-517,131	459,907	0,009	-0,014
-516,116	179,415	0,012	-0,013
-515,102	-200,000	-0,011	0,110
-514,087	-67,917	0,085	0,024
-513,072	-93,332	-0,204	-0,041
-512,058	-166,569	0,156	-0,005
-511,043	7,931	0,036	-0,020
-510,029	11,982	-0,089	-0,050
-509,014	-200,000	-0,021	-0,174
-507,999	-200,000	-0,006	0,078
-506,985	523,068	-0,062	0,106
-505,970	-200,000	0,008	0,154
-504,956	-200,000	0,029	-0,099
-503,941	-0,915	0,075	0,038
-502,926	-14,916	-0,112	-0,052
-501,912	492,875	0,069	0,116
-500,897	-22,902	0,079	0,035
-499,883	-200,000	-0,017	-0,142
-498,868	-80,322	-0,126	-0,030
-497,853	-200,000	0,027	-0,106
-496,839	-200,000	-0,018	-0,118
-495,824	215,806	0,090	0,105
-494,810	-200,000	0,006	0,108
-493,795	386,594	-0,029	0,044
-492,781	56,628	-0,067	0,048
-491,766	-178,396	0,163	0,003
-490,751	800,000	-0,020	0,045
-489,737	-200,000	-0,013	-0,096
-488,722	173,368	0,101	-0,107
-487,708	-198,056	0,233	0,001
-486,693	320,029	0,036	-0,050
-485,678	-40,539	-0,136	0,051
-484,664	-145,057	-0,106	0,007
-483,649	-200,000	-0,011	-0,080
-482,635	-32,453	0,138	0,056
-481,620	214,499	-0,018	0,021
-480,605	-91,945	0,036	0,007
-479,591	-200,000	-0,007	0,026
-478,576	800,000	-0,035	0,074
-477,562	-200,000	0,010	-0,087
-476,547	88,643	-0,050	0,040
-475,532	-133,693	-0,168	0,015
-474,518	377,294	0,127	-0,189
-473,503	-200,000	0,018	-0,069
-472,489	34,081	-0,008	0,005
-471,474	72,808	0,062	-0,047
-470,459	-57,221	0,109	0,035
-469,445	-57,450	-0,049	-0,015
-468,430	100,965	0,018	0,015
-467,416	-200,000	-0,032	0,109
-466,401	39,644	0,129	0,084
-465,386	-200,000	-0,008	-0,045
-464,372	-12,190	-0,143	-0,068
-463,357	-200,000	-0,024	-0,102
-462,343	363,480	0,033	-0,048
-461,328	757,225	-0,034	0,067
-460,313	157,856	0,164	0,165
-459,299	-83,870	0,094	-0,022
-458,284	110,422	-0,101	-0,089
-457,270	-124,240	0,062	0,007
-456,255	-200,000	-0,004	0,022
-455,241	-200,000	-0,021	-0,086
-454,226	-200,000	-0,008	0,114
-453,211	-200,000	0,019	0,069
-452,197	800,000	-0,028	0,073
-451,182	800,000	0,016	0,048
-450,168	107,476	-0,047	0,041
-449,153	-124,672	-0,132	-0,015
-448,138	800,000	-0,014	0,034
-447,124	300,753	-0,010	-0,014
-446,109	-15,409	-0,088	0,041
-445,095	243,743	0,061	0,074
-444,080	111,700	-0,074	0,065
-443,065	-200,000	-0,007	0,156
-442,051	-72,656	-0,058	-0,015
-441,036	18,527	-0,095	0,055
-440,022	-108,167	-0,107	-0,017
-439,007	800,000	-0,020	0,047
-437,992	-200,000	-0,017	0,127
-436,978	-78,558	0,126	-0,031
-435,963	800,000	0,034	0,097
-434,949	342,910	-0,025	0,036
-433,934	74,041	0,100	0,076
-432,919	72,867	-0,184	-0,139
-431,905	9,965	-0,072	0,040
-430,890	-200,000	0,012	-0,159
-429,876	-104,801	0,077	-0,013
-428,861	-200,000	-0,053	0,250
-427,846	-200,000	-0,022	0,111
-426,832	800,000	0,019	-0,054
-425,817	-18,389	-0,059	-0,027
-424,803	-200,000	-0,028	0,132
-423,788	-200,000	-0,003	0,126
-422,773	-200,000	-0,009	0,086
-421,759	-18,729	-0,040	-0,018
-420,744	449,103	0,019	-0,031
-419,730	-61,382	-0,068	0,021
-418,715	-36,606	-0,049	-0,019
-417,701	110,267	0,048	-0,042
-416,686	105,039	-0,048	-0,041
-415,671	-200,000	-0,012	0,041
-414,657	800,000	-0,022	0,057
-413,642	26,338	-0,018	0,011
-412,628	-1,896	0,021	-0,011
-411,613	36,938	-0,077	0,049
-410,598	659,166	-0,101	0,189
-409,584	187,014	0,086	-0,093
-408,569	-170,241	-0,030	0,001
-407,555	-69,943	0,110	-0,030
-406,540	-24,887	-0,098	-0,042
-405,525	-200,000	0,002	-0,014
-404,511	-200,000	0,012	-0,117
-403,496	83,654	-0,104	0,082
-402,482	-47,725	0,123	-0,043
-401,467	25,695	0,038	0,023
-400,452	-81,147	0,062	-0,015
-399,438	-14,793	0,057	0,027
-398,423	-59,033	-0,168	-0,052
-397,409	4,479	-0,040	-0,021
-396,394	-200,000	0,024	-0,105
-395,379	-200,000	-0,003	-0,076
-394,365	-128,430	0,097	0,010
-393,350	75,992	0,060	0,046
-392,336	-200,000	0,023	-0,109
-391,321	-200,000	0,039	-0,182
-390,306	327,609	0,038	0,053
-389,292	569,150	-0,086	-0,152
-388,277	234,858	-0,052	-0,062
-387,263	-200,000	0,003	-0,067
-386,248	472,466	0,054	-0,089
-385,233	-69,750	0,064	0,018
-384,219	554,646	0,054	-0,094
-383,204	10,020	-0,062	-0,034
-382,190	219,768	-0,005	-0,006
-381,175	-34,787	0,083	-0,033
-380,160	133,999	-0,052	0,049
-379,146	112,262	-0,097	-0,085
-378,131	-61,154	-0,042	0,013
-377,117	-200,000	-0,004	-0,089
-376,102	197,554	-0,046	-0,052
-375,088	-69,776	0,118	-0,033
-374,073	800,000	0,043	-0,100
-373,058	-200,000	0,012	0,052
-372,044	-63,896	-0,167	-0,049
-371,029	-200,000	-0,001	0,086
-370,015	-200,000	0,009	0,105
-369,000	-55,013	0,071	0,023
-367,985	800,000	-0,045	0,111
-366,971	308,421	0,077	-0,104
-365,956	206,615	0,053	0,059
-364,942	131,296	0,018	0,017
-363,927	-200,000	0,008	-0,188
-362,912	12,745	0,036	-0,020
-361,898	-19,663	0,086	-0,038
-360,883	800,000	-0,051	-0,125
-359,869	-131,666	0,153	-0,014
-358,854	-200,000	-0,025	-0,082
-357,839	-120,795	-0,078	-0,009
-356,825	-57,009	0,145	0,046
-355,810	-54,353	0,099	-0,032
-354,796	800,000	-0,037	-0,078
-353,781	-137,486	-0,052	0,004
-352,766	677,260	0,041	0,078
-351,752	108,068	0,074	-0,064
-350,737	140,008	0,034	-0,033
-349,723	138,253	-0,033	-0,032
-348,708	-155,025	-0,104	0,005
-347,693	328,591	-0,087	-0,121
-346,679	513,608	-0,005	0,009
-345,664	287,878	-0,030	0,039
-344,650	800,000	-0,036	-0,094
-343,635	-185,043	0,195	0,002
-342,620	-165,484	-0,052	0,002
-341,606	-150,017	0,088	0,005
-340,591	317,373	-0,114	0,157
-339,577	-200,000	0,008	0,119
-338,562	103,662	-0,116	0,099
-337,548	51,599	-0,101	0,070
-336,533	-49,494	0,073	0,025
-335,518	34,988	0,050	0,032
-334,504	800,000	0,056	-0,132
-333,489	209,834	-0,136	0,154
-332,475	91,921	0,084	-0,069
-331,460	-200,000	-0,028	0,106
-330,445	-200,000	-0,019	-0,082
-329,431	-200,000	0,020	0,103
-328,416	30,808	0,018	0,011
-327,402	-200,000	-0,014	0,157
-326,387	800,000	0,069	0,187
-325,372	-200,000	0,009	0,074
-324,358	-200,000	0,009	-0,057
-323,343	-34,909	-0,070	-0,027
-322,329	28,417	0,182	0,111
-321,314	292,767	-0,074	0,098
-320,299	331,750	0,026	0,037
-319,285	-200,000	0,000	-0,012
-318,270	-200,000	0,002	-0,095
-317,256	-200,000	-0,003	-0,013
-316,241	-1,373	0,080	-0,041
-315,226	800,000	0,036	0,102
-314,212	-200,000	0,022	0,119
-313,197	123,962	0,061	0,055
-312,183	-84,660	0,104	0,023
-311,168	-151,240	-0,079	0,004
-310,153	80,527	-0,132	-0,103
-309,139	800,000	0,053	-0,147
-308,124	215,863	0,073	-0,083
-307,110	800,000	0,072	0,155
-306,095	-200,000	0,002	-0,049
-305,080	-200,000	-0,004	0,077
-304,066	800,000	-0,022	-0,047
-303,051	379,072	-0,032	-0,048
-302,037	-200,000	0,004	-0,167
-301,022	-89,183	-0,023	0,005
-300,008	-200,000	0,012	0,132
-298,993	76,618	0,050	-0,039
-297,978	61,326	-0,045	0,032
-296,964	156,305	0,027	0,026
-295,949	-200,000	-0,014	-0,071
-294,935	-200,000	-0,043	-0,150
-293,920	-200,000	-0,021	0,073
-292,905	226,499	-0,039	0,045
-291,891	-35,518	0,116	0,045
-290,876	-135,583	-0,117	0,010
-289,862	-83,445	0,054	0,012
-288,847	23,643	-0,062	0,037
-287,832	800,000	0,049	-0,124
-286,818	-200,000	0,009	0,129
-285,803	-155,564	0,149	-0,007
-284,789	-45,045	0,137	0,049
-283,774	357,241	0,020	0,029
-282,759	800,000	-0,040	0,096
-281,745	8,437	0,120	0,065
-280,730	4,142	0,101	-0,053
-279,716	-115,391	0,066	0,009
-278,701	41,637	-0,031	0,020
-277,686	-200,000	0,015	0,048
-276,672	-142,726	0,123	-0,009
-275,657	49,265	0,012	-0,008
-274,643	-200,000	-0,017	-0,118
-273,628	250,137	0,060	-0,073
-272,613	-151,613	0,043	0,002
-271,599	-103,120	-0,041	-0,007
-270,584	-200,000	0,010	0,041
-269,570	331,066	0,121	0,168
-268,555	800,000	-0,028	0,065
-267,540	267,255	-0,099	-0,125
-266,526	512,420	-0,035	-0,059
-265,511	56,301	0,066	0,046
-264,497	-160,202	0,138	0,005
-263,482	463,400	-0,011	-0,018
-262,467	257,464	-0,043	0,053
-261,453	248,987	0,019	-0,023
-260,438	-200,000	-0,043	0,147
-259,424	406,400	0,047	-0,071
-258,409	23,302	-0,154	-0,091
-257,395	-42,965	0,033	-0,012
-256,380	-105,411	0,104	0,017
-255,365	-69,556	0,068	-0,019
-254,351	-200,000	0,011	-0,155
-253,336	-57,702	-0,031	-0,010
-252,322	273,833	0,069	0,088
-251,307	177,900	-0,045	0,048
-250,292	-200,000	0,010	0,041
-249,278	769,183	-0,010	0,020
-248,263	-200,000	0,007	-0,106
-247,249	-200,000	-0,001	-0,021
-246,234	9,506	0,134	-0,073
-245,219	800,000	0,009	-0,022
-244,205	225,975	-0,028	-0,033
-243,190	-72,533	0,060	-0,016
-242,176	-77,254	0,043	-0,011
-241,161	131,826	0,072	-0,067
-240,146	-24,630	-0,211	0,090
-239,132	-200,000	-0,004	-0,063
-238,117	-200,000	0,013	-0,106
-237,103	-200,000	-0,000	-0,062
-236,088	-4,490	0,114	-0,057
-235,073	-200,000	-0,025	0,094
-234,059	165,250	-0,116	0,118
-233,044	274,989	0,057	0,073
-232,030	-46,750	-0,048	-0,017
-231,015	800,000	0,046	-0,122
-230,000	393,292	-0,044	0,067
-228,986	-112,417	0,033	-0,005
-227,971	14,750	0,075	0,042
-226,957	-26,824	0,112	0,047
-225,942	-118,958	-0,074	-0,009
-224,927	363,448	0,021	0,031
-223,913	-200,000	-0,009	0,073
-222,898	78,884	-0,093	0,072
-221,884	159,849	0,061	0,061
-220,869	453,190	-0,061	-0,098
-219,855	800,000	0,037	-0,102
-218,840	-61,289	0,033	0,010
-217,825	-34,561	0,064	0,025
-216,811	-200,000	0,032	-0,190
-215,796	800,000	0,032	-0,068
-214,782	62,072	-0,070	-0,050
-213,767	246,234	0,038	0,046
-212,752	569,239	0,073	0,128
-211,738	-200,000	0,000	-0,021
-210,723	72,520	-0,054	0,040
-209,709	-200,000	-0,019	0,082
-208,694	80,089	0,097	0,075
-207,679	-143,778	-0,150	-0,010
-206,665	19,794	0,056	0,032
-205,650	800,000	-0,019	0,047
-204,636	157,567	0,058	0,058
-203,621	800,000	0,037	0,094
-202,606	63,109	-0,025	0,018
-201,592	68,198	0,059	-0,043
-200,577	255,071	-0,007	0,009
-199,563	800,000	0,032	-0,102
-198,548	-26,688	0,060	-0,025
-197,533	-200,000	-0,031	0,169
-196,519	800,000	0,021	0,064
-195,504	90,145	-0,053	-0,042
-194,490	201,664	-0,087	-0,097
-193,475	18,425	0,043	0,025
-192,460	168,942	0,090	0,092
-191,446	737,871	-0,051	0,099
-190,431	-200,000	0,011	0,123
-189,417	-109,476	0,037	-0,006
-188,402	309,612	-0,056	-0,076
-187,387	216,051	-0,018	-0,020
-186,373	-200,000	0,015	0,103
-185,358	155,596	0,020	-0,020
-184,344	85,125	0,026	-0,020
-183,329	800,000	0,074	0,191
-182,315	800,000	0,016	0,045
-181,300	-200,000	-0,032	-0,117
-180,285	459,610	-0,055	-0,088
-179,271	-200,000	-0,038	-0,137
-178,256	495,325	0,046	0,076
-177,242	88,465	0,104	0,083
-176,227	-200,000	-0,060	0,229
-175,212	-200,000	0,001	0,032
-174,198	166,550	-0,060	0,061
-173,183	-149,580	0,116	-0,006
-172,169	-149,699	0,074	0,004
-171,154	-166,677	-0,041	-0,001
-170,139	-200,000	0,029	0,112
-169,125	163,024	0,025	0,025
-168,110	-123,410	0,060	-0,007
-167,096	800,000	-0,036	-0,078
-166,081	120,900	-0,087	0,077
-165,066	-200,000	-0,006	0,117
-164,052	530,700	-0,022	0,038
-163,037	-64,575	0,093	-0,027
-162,023	-142,775	0,136	0,009
-161,008	162,453	0,054	0,055
-159,993	580,612	0,086	-0,152
-158,979	198,441	-0,101	-0,111
-157,964	-186,600	-0,055	-0,001
-156,950	800,000	0,007	0,018
-155,935	-200,000	-0,013	0,107
-154,920	147,892	-0,146	0,142
-153,906	175,856	-0,030	0,031
-152,891	800,000	0,046	0,142
-151,877	800,000	-0,033	-0,084
-150,862	-200,000	0,014	0,051
-149,847	43,942	-0,138	0,091
-148,833	133,805	0,092	0,086
-147,818	351,685	-0,050	0,071
-146,804	-17,194	-0,137	0,062
-145,789	800,000	0,029	0,088
-144,775	800,000	-0,078	0,182
-143,760	63,135	0,098	0,071
-142,745	800,000	-0,045	0,119
-141,731	800,000	0,053	0,138
-140,716	-200,000	0,044	0,187
-139,702	-107,592	-0,120	-0,019
-138,687	-140,585	-0,065	0,005
-137,672	800,000	-0,024	-0,068
-136,658	372,884	0,083	-0,122
-135,643	507,214	-0,095	-0,159
-134,629	800,000	0,009	0,029
-133,614	376,757	0,088	0,129
-132,599	-114,650	0,028	0,004
-131,585	-174,047	-0,142	-0,003
-130,570	21,755	0,117	0,068
-129,556	46,449	-0,163	0,108
-128,541	-49,043	0,054	-0,018
-127,526	-200,000	0,002	-0,071
-126,512	1,449	0,042	-0,022
-125,497	800,000	-0,063	0,132
-124,483	-59,256	-0,086	0,026
-123,468	136,429	0,016	0,015
-122,453	800,000	-0,050	0,129
-121,439	-134,058	0,051	-0,004
-120,424	-65,667	-0,164	-0,047
