DTS Sentinel unit serial number:	SN410029Multiplexer serial number:	ORYXHardware model number:	OX2-SRSoftware version number:	ORYX F/W v4,00 Oryx Data Collector v3.7.2.0data status	okinstallation	B5 Nyhavnadifferential loss correction	single-endedforward channel	channel 2reverse channel	N/Adate	2023/12/12time	07:57:13forward acquisition time	300,00reverse acquisition time	0,00gamma	499,1914k internal	0,3158k external	0,3158temperature offset calibration	1,0000default loss term (dB/km)	0,3820temperature slope calibration	1,0000multiplexer offset coefficient	1,0000multiplexer slope coefficient	1,0000fibre end	0,00T internal ref (°C)	15,12T ext. ref 1 (°C)	-1,17T ext. ref 2 (°C)	-1,49length (m)	temperature (°C)	Stokes	anti-Stokes-744,400	-129,859	0,199	0,020
-743,385	-137,170	-0,301	0,025
-742,371	-200,000	0,001	0,049
-741,356	-161,324	-0,389	-0,015
-740,342	-4,077	0,146	0,074
-739,327	-128,088	-0,347	-0,036
-738,312	490,741	0,087	0,147
-737,298	-4,943	-0,284	0,144
-736,283	238,214	0,064	-0,078
-735,269	-107,072	-0,384	0,062
-734,254	800,000	0,078	0,217
-733,239	-166,997	-0,508	0,015
-732,225	-200,000	0,166	-0,000
-731,210	294,733	0,014	0,019
-730,196	-92,886	-0,048	0,010
-729,181	-200,000	-0,039	0,161
-728,167	-200,000	-0,005	-0,060
-727,152	-200,000	-0,007	0,045
-726,137	769,108	-0,047	-0,094
-725,123	337,911	-0,042	0,060
-724,108	314,973	-0,110	-0,153
-723,094	800,000	0,016	-0,049
-722,079	-200,000	-0,031	-0,167
-721,064	-200,000	0,000	-0,016
-720,050	12,103	-0,111	-0,062
-719,035	-132,836	-0,050	-0,005
-718,021	600,341	-0,058	0,107
-717,006	800,000	0,039	0,096
-715,991	359,986	0,037	-0,054
-714,977	290,478	-0,066	0,089
-713,962	-113,970	-0,046	-0,006
-712,948	-115,006	-0,154	0,021
-711,933	156,119	0,013	-0,013
-710,918	-43,954	0,150	0,055
-709,904	-92,808	-0,078	0,016
-708,889	-88,338	-0,142	-0,031
-707,875	36,027	-0,141	-0,091
-706,860	87,408	-0,086	0,070
-705,845	36,482	0,049	-0,032
-704,831	428,097	0,036	-0,057
-703,816	-158,794	-0,116	0,005
-702,802	-200,000	-0,018	0,068
-701,787	-200,000	0,015	-0,087
-700,772	-86,250	-0,026	-0,006
-699,758	405,561	-0,038	-0,059
-698,743	235,720	-0,036	0,044
-697,729	513,265	0,015	0,025
-696,714	800,000	-0,051	0,125
-695,699	195,488	0,142	0,159
-694,685	148,081	-0,094	-0,093
-693,670	-24,212	-0,026	-0,012
-692,656	-119,362	-0,069	-0,009
-691,641	195,477	0,078	-0,087
-690,627	-6,191	0,038	-0,019
-689,612	207,982	-0,063	-0,073
-688,597	-56,296	-0,084	-0,027
-687,583	6,678	0,132	-0,072
-686,568	217,218	-0,139	-0,163
-685,554	800,000	0,034	-0,105
-684,539	290,761	0,025	0,034
-683,524	166,292	0,054	0,056
-682,510	66,401	-0,156	0,116
-681,495	198,271	-0,096	-0,108
-680,481	-200,000	-0,037	-0,151
-679,466	-200,000	-0,027	-0,208
-678,451	-200,000	0,006	0,087
-677,437	-200,000	0,029	0,171
-676,422	-64,438	0,056	-0,017
-675,408	207,482	-0,060	0,069
-674,393	-200,000	0,011	0,051
-673,378	-200,000	0,014	-0,115
-672,364	-200,000	0,020	-0,120
-671,349	393,980	-0,012	0,018
-670,335	412,952	0,038	0,060
-669,320	158,831	-0,013	-0,013
-668,305	-2,101	-0,072	0,037
-667,291	-200,000	-0,039	-0,221
-666,276	-200,000	0,017	0,120
-665,262	-56,165	-0,139	0,045
-664,247	680,634	0,030	-0,058
-663,232	-200,000	0,010	-0,151
-662,218	42,166	0,101	-0,068
-661,203	57,835	-0,052	-0,037
-660,189	65,358	0,093	-0,069
-659,174	-88,479	-0,220	-0,048
-658,159	-200,000	-0,013	-0,221
-657,145	264,172	-0,048	-0,061
-656,130	-200,000	-0,019	0,117
-655,116	-200,000	-0,001	0,037
-654,101	-34,626	0,056	-0,023
-653,086	241,418	-0,043	0,053
-652,072	242,383	0,078	-0,095
-651,057	144,939	-0,071	-0,070
-650,043	-200,000	0,010	-0,088
-649,028	308,537	-0,094	0,130
-648,014	-141,979	-0,055	0,004
-646,999	174,935	-0,028	-0,030
-645,984	-129,408	-0,086	0,009
-644,970	171,635	0,085	-0,090
-643,955	-56,727	-0,182	-0,059
-642,941	437,617	0,052	-0,084
-641,926	-85,606	0,145	0,033
-640,911	593,517	-0,023	0,041
-639,897	-63,947	0,124	0,037
-638,882	-200,000	0,010	-0,095
-637,868	800,000	0,061	0,131
-636,853	0,760	-0,084	-0,044
-635,838	347,802	0,052	0,075
-634,824	-200,000	-0,009	-0,169
-633,809	372,858	0,069	-0,103
-632,795	271,237	0,062	0,080
-631,780	-200,000	0,021	-0,074
-630,765	799,984	0,011	0,022
-629,751	95,773	-0,058	0,049
-628,736	-162,087	-0,080	-0,003
-627,722	-6,311	0,074	0,037
-626,707	-200,000	0,013	-0,052
-625,692	800,000	0,069	0,151
-624,678	147,589	0,060	-0,059
-623,663	13,313	0,088	-0,050
-622,649	110,789	-0,032	0,028
-621,634	-141,776	-0,108	-0,008
-620,619	34,722	0,053	0,034
-619,605	597,259	-0,059	-0,107
-618,590	72,141	0,076	-0,058
-617,576	-44,776	-0,038	0,014
-616,561	-41,052	0,090	0,034
-615,546	-200,000	-0,065	0,000
-614,532	-200,000	0,016	0,058
-613,517	800,000	-0,062	-0,133
-612,503	-49,470	0,017	0,006
-611,488	-87,513	-0,093	0,020
-610,474	-75,169	-0,040	-0,010
-609,459	11,770	-0,084	0,047
-608,444	-200,000	-0,022	-0,137
-607,430	-200,000	0,006	-0,048
-606,415	342,410	-0,065	-0,094
-605,401	-172,597	-0,101	-0,002
-604,386	660,531	0,015	0,029
-603,371	279,866	0,060	0,078
-602,357	-132,738	-0,099	0,009
-601,342	-200,000	0,010	-0,041
-600,328	-200,000	-0,003	-0,055
-599,313	-200,000	0,025	-0,087
-598,298	-101,558	-0,087	-0,015
-597,284	-15,568	0,153	0,071
-596,269	-72,828	-0,060	0,016
-595,255	661,828	0,053	0,100
-594,240	118,193	0,111	-0,100
-593,225	-41,484	-0,138	-0,052
-592,211	800,000	0,028	0,061
-591,196	800,000	-0,040	0,089
-590,182	243,703	-0,032	-0,039
-589,167	40,477	0,083	0,055
-588,152	89,340	-0,079	0,064
-587,138	365,212	0,050	-0,074
-586,123	800,000	-0,070	-0,168
-585,109	-128,888	-0,052	0,005
-584,094	353,163	-0,008	0,011
-583,079	119,926	0,044	-0,040
-582,065	-125,448	-0,104	0,011
-581,050	-200,000	-0,016	0,053
-580,036	-200,000	-0,007	-0,037
-579,021	-101,636	-0,062	0,011
-578,006	211,045	-0,038	0,044
-576,992	-63,727	-0,050	0,015
-575,977	800,000	-0,036	-0,092
-574,963	-200,000	0,007	0,028
-573,948	-200,000	0,006	0,052
-572,934	-164,698	-0,153	0,005
-571,919	453,776	0,032	0,052
-570,904	96,955	-0,113	-0,095
-569,890	-130,351	-0,178	-0,017
-568,875	-200,000	0,012	0,062
-567,861	508,766	-0,039	0,066
-566,846	173,363	0,117	0,124
-565,831	-200,000	0,016	0,119
-564,817	-72,013	-0,081	-0,022
-563,802	-41,441	-0,076	0,028
-562,788	-17,599	0,025	-0,012
-561,773	562,108	0,070	-0,124
-560,758	-99,694	0,043	0,008
-559,744	-30,755	0,061	-0,025
-558,729	64,014	-0,126	0,093
-557,715	-200,000	-0,017	0,163
-556,700	82,415	-0,070	0,055
-555,685	43,520	0,103	-0,069
-554,671	323,659	0,082	0,115
-553,656	440,392	0,057	0,091
-552,642	413,791	0,006	0,009
-551,627	31,164	-0,101	0,063
-550,612	6,685	-0,061	-0,033
-549,598	206,291	0,135	-0,154
-548,583	800,000	-0,020	-0,064
-547,569	-88,290	-0,072	0,016
-546,554	800,000	-0,022	-0,070
-545,539	13,459	0,104	0,059
-544,525	-156,305	-0,081	0,004
-543,510	-1,982	-0,045	-0,023
-542,496	800,000	0,043	0,102
-541,481	-20,233	-0,018	0,008
-540,466	437,331	-0,023	-0,037
-539,452	33,060	0,065	0,041
-538,437	-200,000	0,006	0,099
-537,423	314,548	-0,057	0,078
-536,408	196,320	0,087	-0,097
-535,393	-200,000	0,000	-0,031
-534,379	120,680	0,053	-0,048
-533,364	-50,508	-0,103	0,035
-532,350	-34,415	0,076	0,030
-531,335	800,000	-0,022	0,048
-530,321	-81,575	0,012	-0,003
-529,306	-200,000	0,007	-0,062
-528,291	245,106	0,026	0,032
-527,277	563,934	-0,069	-0,122
-526,262	456,516	0,038	0,062
-525,248	26,835	-0,034	-0,021
-524,233	198,904	0,062	0,070
-523,218	42,701	0,111	0,074
-522,204	800,000	0,035	0,091
-521,189	-97,298	-0,085	-0,016
-520,175	41,555	0,106	-0,070
-519,160	266,579	-0,081	-0,103
-518,145	-120,902	0,087	-0,011
-517,131	-11,703	0,099	-0,047
-516,116	-92,062	-0,075	0,015
-515,102	221,367	-0,052	0,061
-514,087	800,000	-0,064	0,181
-513,072	-200,000	-0,046	0,151
-512,058	-137,887	-0,116	0,009
-511,043	-54,107	0,155	0,051
-510,029	-200,000	0,009	-0,099
-509,014	800,000	-0,064	0,131
-507,999	-95,169	0,045	0,009
-506,985	800,000	-0,012	-0,037
-505,970	-169,906	0,155	0,004
-504,956	800,000	0,019	-0,047
-503,941	28,151	0,022	-0,013
-502,926	-200,000	-0,003	0,033
-501,912	312,494	-0,057	0,079
-500,897	800,000	0,029	0,085
-499,883	48,358	-0,060	0,041
-498,868	175,089	-0,044	0,047
-497,853	-45,692	-0,033	-0,012
-496,839	-200,000	0,031	0,106
-495,824	312,525	0,028	0,038
-494,810	138,520	0,098	0,094
-493,795	489,100	-0,024	-0,040
-492,781	-127,856	-0,121	-0,013
-491,766	800,000	-0,025	-0,079
-490,751	-149,837	-0,163	-0,009
-489,737	800,000	0,039	0,099
-488,722	-6,521	0,078	0,039
-487,708	-200,000	0,002	0,016
-486,693	46,476	-0,031	-0,021
-485,678	8,424	0,104	-0,057
-484,664	-193,616	-0,039	0,000
-483,649	-8,938	0,097	0,047
-482,635	-200,000	0,004	-0,039
-481,620	616,416	0,030	-0,055
-480,605	96,370	0,068	0,056
-479,591	547,779	0,026	0,046
-478,576	-132,659	-0,121	-0,011
-477,562	-200,000	0,003	-0,098
-476,547	554,842	0,036	0,064
-475,532	-200,000	0,005	-0,061
-474,518	-195,299	0,139	-0,001
-473,503	277,585	-0,038	0,049
-472,489	-12,631	0,098	-0,047
-471,474	249,063	0,018	-0,022
-470,459	-164,530	-0,059	-0,002
-469,445	-193,756	0,032	0,000
-468,430	371,722	-0,039	-0,058
-467,416	-127,678	0,110	-0,011
-466,401	131,022	0,072	0,068
-465,386	-97,631	-0,044	-0,008
-464,372	-48,884	0,037	-0,013
-463,357	-200,000	0,007	-0,044
-462,343	-200,000	-0,016	-0,087
-461,328	-35,105	-0,155	-0,061
-460,313	-11,776	0,138	0,066
-459,299	40,236	0,158	-0,103
-458,284	-200,000	0,031	0,112
-457,270	80,018	-0,136	0,107
-456,255	-200,000	0,015	0,150
-455,241	540,363	0,017	-0,029
-454,226	51,579	-0,089	0,062
-453,211	30,521	0,196	0,122
-452,197	-200,000	0,008	0,063
-451,182	528,568	0,050	0,086
-450,168	800,000	0,074	-0,151
-449,153	800,000	-0,017	-0,051
-448,138	200,634	-0,075	-0,084
-447,124	335,771	-0,090	-0,128
-446,109	-200,000	-0,002	0,009
-445,095	-65,534	0,072	0,021
-444,080	-60,121	-0,060	-0,019
-443,065	166,714	-0,048	-0,049
-442,051	-25,135	0,036	0,016
-441,036	-89,716	-0,134	-0,028
-440,022	128,035	0,106	-0,099
-439,007	-200,000	-0,009	-0,083
-437,992	-31,048	-0,131	-0,054
-436,978	48,762	0,025	0,017
-435,963	-166,882	-0,124	-0,004
-434,949	-83,979	0,053	0,012
-433,934	201,691	0,076	-0,085
-432,919	-83,077	0,091	0,021
-431,905	597,044	-0,046	-0,084
-430,890	404,697	0,035	0,054
-429,876	-72,527	0,052	0,014
-428,861	106,512	-0,152	0,131
-427,846	190,156	-0,086	0,094
-426,832	800,000	-0,055	-0,141
-425,817	-200,000	0,022	-0,109
-424,803	800,000	0,050	0,123
-423,788	154,392	-0,041	0,041
-422,773	-200,000	-0,014	0,103
-421,759	89,122	0,152	0,123
-420,744	29,679	-0,070	-0,043
-419,730	306,607	0,098	-0,133
-418,715	-200,000	-0,003	0,022
-417,701	-200,000	-0,006	0,173
-416,686	408,401	0,055	0,085
-415,671	192,071	-0,028	0,031
-414,657	489,897	-0,084	0,141
-413,642	85,814	0,050	-0,040
-412,628	-48,985	-0,107	0,037
-411,613	-15,762	0,061	-0,028
-410,598	-99,455	0,029	0,005
-409,584	496,053	-0,040	0,068
-408,569	181,057	0,108	-0,115
-407,555	-144,308	-0,106	-0,007
-406,540	800,000	-0,023	0,049
-405,525	-70,566	-0,098	0,027
-404,511	258,935	0,043	-0,054
-403,496	800,000	-0,070	-0,175
-402,482	258,411	-0,095	-0,120
-401,467	800,000	0,036	-0,091
-400,452	-200,000	0,031	0,136
-399,438	47,720	-0,065	-0,044
-398,423	727,902	0,056	-0,109
-397,409	333,476	0,060	0,084
-396,394	315,603	0,042	0,057
-395,379	800,000	-0,065	-0,165
-394,365	-61,617	0,028	-0,008
-393,350	-200,000	0,042	0,235
-392,336	-200,000	-0,001	0,055
-391,321	-71,029	0,072	0,020
-390,306	-157,116	0,102	-0,004
-389,292	426,098	0,073	-0,114
-388,277	171,003	-0,030	-0,032
-387,263	-150,223	0,026	0,001
-386,248	-153,508	0,104	0,005
-385,233	-69,391	0,108	-0,030
-384,219	-67,301	-0,049	0,014
-383,204	800,000	0,007	0,018
-382,190	-200,000	0,029	-0,110
-381,175	544,984	0,052	-0,091
-380,160	800,000	0,023	-0,049
-379,146	333,728	-0,055	-0,078
-378,131	800,000	-0,081	-0,167
-377,117	420,909	-0,067	-0,104
-376,102	-200,000	0,003	-0,075
-375,088	457,503	-0,068	-0,110
-374,073	478,720	-0,074	-0,122
-373,058	33,659	0,075	-0,047
-372,044	-129,209	0,056	-0,006
-371,029	-200,000	0,002	-0,034
-370,015	-200,000	0,008	-0,103
-369,000	18,587	-0,021	-0,012
-367,985	800,000	-0,031	-0,071
-366,971	-108,692	0,060	0,009
-365,956	-175,961	-0,047	-0,001
-364,942	-200,000	-0,009	0,133
-363,927	-129,919	-0,095	-0,009
-362,912	63,743	-0,096	-0,070
-361,898	-200,000	-0,014	-0,106
-360,883	-80,977	-0,085	0,020
-359,869	102,165	-0,057	-0,049
-358,854	800,000	-0,051	-0,139
-357,839	-200,000	0,015	0,207
-356,825	89,981	-0,058	0,047
-355,810	125,758	-0,041	0,037
-354,796	-200,000	-0,003	-0,069
-353,781	-200,000	0,033	-0,168
-352,766	-200,000	0,032	-0,167
-351,752	-200,000	0,051	-0,189
-350,737	-163,069	0,040	-0,001
-349,723	-200,000	-0,002	0,016
-348,708	128,908	-0,034	-0,032
-347,693	245,140	0,063	-0,076
-346,679	-5,064	-0,121	0,060
-345,664	-200,000	-0,005	0,155
-344,650	33,331	-0,114	0,072
-343,635	-200,000	-0,002	0,013
-342,620	-102,945	0,209	-0,036
-341,606	49,031	0,012	-0,008
-340,591	-49,520	-0,171	0,059
-339,577	35,072	-0,038	0,024
-338,562	800,000	0,018	-0,039
-337,548	-14,265	0,013	0,006
-336,533	698,559	-0,052	0,100
-335,518	-200,000	0,013	-0,095
-334,504	-87,849	-0,012	0,003
-333,489	-100,672	-0,049	-0,009
-332,475	77,068	-0,083	-0,064
-331,460	-200,000	0,013	-0,069
-330,445	-200,000	0,011	-0,165
-329,431	38,160	0,072	0,046
-328,416	301,686	0,045	-0,060
-327,402	44,163	-0,050	-0,033
-326,387	79,242	-0,059	0,046
-325,372	-58,272	0,017	0,005
-324,358	420,815	-0,025	-0,040
-323,343	154,473	-0,056	-0,056
-322,329	-69,476	0,032	0,009
-321,314	-104,956	0,071	0,012
-320,299	-108,867	-0,130	0,020
-319,285	129,362	0,040	0,037
-318,270	114,018	0,094	-0,083
-317,256	-169,316	0,045	0,001
-316,241	-128,228	-0,124	0,013
-315,226	-187,289	0,020	0,000
-314,212	-200,000	-0,004	0,048
-313,197	800,000	0,038	0,111
-312,183	188,610	0,010	-0,011
-311,168	339,110	-0,089	-0,126
-310,153	-8,109	-0,108	-0,052
-309,139	160,507	0,029	-0,029
-308,124	195,147	0,056	-0,062
-307,110	-36,978	-0,010	-0,004
-306,095	-69,721	0,071	0,020
-305,080	-96,841	-0,146	-0,027
-304,066	-22,741	0,079	0,034
-303,051	119,721	0,054	-0,048
-302,037	129,647	-0,030	-0,028
-301,022	75,908	-0,092	-0,070
-300,008	74,975	0,171	0,130
-298,993	-200,000	0,003	0,023
-297,978	-200,000	0,000	0,065
-296,964	-200,000	0,018	-0,074
-295,949	553,785	-0,027	-0,048
-294,935	-103,083	0,077	0,013
-293,920	7,139	-0,106	0,057
-292,905	719,723	-0,093	0,179
-291,891	438,169	0,004	0,006
-290,876	-200,000	-0,007	-0,035
-289,862	-123,907	-0,135	0,015
-288,847	-200,000	-0,016	0,076
-287,832	56,012	0,081	-0,057
-286,818	534,616	-0,044	-0,077
-285,803	800,000	-0,051	-0,112
-284,789	771,455	-0,015	0,029
-283,774	9,016	0,082	0,045
-282,759	800,000	0,022	-0,053
-281,745	263,521	0,046	-0,058
-280,730	-105,300	-0,102	-0,017
-279,716	800,000	0,050	0,108
-278,701	-74,744	-0,042	-0,011
-277,686	800,000	-0,026	0,079
-276,672	208,598	0,038	-0,043
-275,657	331,858	-0,089	0,125
-274,643	-163,972	-0,179	0,006
-273,628	-200,000	0,002	-0,054
-272,613	-134,261	-0,181	-0,016
-271,599	404,809	0,016	0,024
-270,584	262,235	0,103	0,130
-269,570	-42,279	0,097	0,036
-268,555	-200,000	-0,049	0,167
-267,540	-200,000	0,020	0,133
-266,526	800,000	-0,052	0,143
-265,511	400,638	0,028	-0,043
-264,497	16,789	-0,079	-0,045
-263,482	13,635	0,028	-0,015
-262,467	-200,000	0,013	0,067
-261,453	383,152	0,023	0,035
-260,438	17,650	0,062	0,036
-259,424	-200,000	0,011	-0,083
-258,409	-110,127	0,027	0,004
-257,395	-200,000	-0,019	0,068
-256,380	288,766	-0,029	-0,038
-255,365	-200,000	0,044	-0,164
-254,351	800,000	-0,030	0,066
-253,336	-200,000	-0,027	0,091
-252,322	-200,000	-0,002	-0,104
-251,307	-113,325	-0,176	-0,025
-250,292	-78,027	0,085	0,021
-249,278	365,874	0,044	-0,064
-248,263	247,040	0,057	0,070
-247,249	390,281	0,037	0,055
-246,234	-200,000	-0,012	0,054
-245,219	-200,000	0,003	-0,069
-244,205	32,393	0,041	-0,026
-243,190	3,090	0,027	-0,014
-242,176	445,143	0,078	0,125
-241,161	336,660	-0,106	0,150
-240,146	60,742	-0,013	0,010
-239,132	-17,963	-0,106	0,048
-238,117	-18,330	0,073	0,033
-237,103	-140,215	-0,016	0,001
-236,088	800,000	0,024	-0,054
-235,073	113,674	-0,057	0,050
-234,059	-200,000	-0,009	-0,041
-233,044	800,000	0,059	0,157
-232,030	-200,000	0,007	-0,074
-231,015	-95,523	-0,090	-0,017
-230,000	800,000	0,024	-0,068
-228,986	-99,568	0,089	-0,016
-227,971	11,952	0,117	-0,065
-226,957	599,130	0,058	0,104
-225,942	-200,000	0,028	0,096
-224,927	-77,660	0,074	0,018
-223,913	800,000	0,027	-0,068
-222,898	-200,000	0,022	0,071
-221,884	-32,593	-0,048	0,019
-220,869	-2,471	-0,055	-0,028
-219,855	-75,157	0,043	-0,011
-218,840	323,528	-0,048	-0,066
-217,825	-200,000	0,045	0,206
-216,811	-106,370	-0,039	0,006
-215,796	47,550	0,107	-0,072
-214,782	-200,000	-0,002	-0,026
-213,767	-200,000	-0,054	0,181
-212,752	-148,374	0,087	-0,005
-211,738	-47,848	0,107	-0,037
-210,723	-200,000	-0,012	-0,079
-209,709	740,043	-0,041	-0,080
-208,694	-123,212	-0,034	0,004
-207,679	131,038	0,043	0,040
-206,665	-81,435	0,086	0,020
-205,650	216,607	0,062	0,071
-204,636	83,495	0,147	0,116
-203,621	181,473	0,092	0,098
-202,606	-47,368	-0,044	0,015
-201,592	-6,126	0,160	-0,079
-200,577	-5,853	-0,083	0,041
-199,563	800,000	-0,011	-0,025
-198,548	27,285	-0,046	0,028
-197,533	-200,000	0,001	-0,042
-196,519	-76,935	0,112	0,028
-195,504	800,000	0,048	0,114
-194,490	-200,000	-0,018	-0,081
-193,475	46,469	-0,128	-0,085
-192,460	-68,153	0,134	0,037
-191,446	-200,000	0,005	0,056
-190,431	-200,000	0,008	0,134
-189,417	27,507	0,136	0,082
-188,402	-19,059	0,044	-0,020
-187,387	-104,862	-0,171	0,028
-186,373	-175,968	-0,074	-0,001
-185,358	-200,000	0,039	0,137
-184,344	-127,982	0,122	0,012
-183,329	149,181	0,093	0,091
-182,315	56,443	0,048	-0,034
-181,300	-200,000	0,006	-0,108
-180,285	800,000	-0,015	0,032
-179,271	-39,102	-0,085	-0,032
-178,256	-40,774	0,055	-0,020
-177,242	417,069	-0,081	0,126
-176,227	35,173	0,124	0,078
-175,212	32,763	-0,094	-0,059
-174,198	800,000	0,038	0,095
-173,183	107,172	0,074	-0,063
-172,169	-200,000	0,013	0,057
-171,154	212,752	-0,106	-0,121
-170,139	-200,000	0,023	0,082
-169,125	800,000	-0,031	-0,075
-168,110	-200,000	0,025	0,127
-167,096	800,000	-0,043	-0,105
-166,081	-200,000	-0,025	-0,123
-165,066	303,346	-0,077	-0,102
-164,052	800,000	-0,034	-0,079
-163,037	800,000	0,024	-0,068
-162,023	-104,776	0,154	-0,025
-161,008	357,630	0,063	0,090
-159,993	376,737	0,098	-0,145
-158,979	463,140	0,061	-0,099
-157,964	-98,971	-0,051	-0,009
-156,950	522,746	-0,133	-0,225
-155,935	64,897	0,026	-0,019
-154,920	461,976	-0,050	0,081
-153,906	-180,962	0,113	-0,002
-152,891	484,184	-0,047	-0,077
-151,877	-200,000	0,005	-0,092
-150,862	-200,000	0,015	-0,228
-149,847	-200,000	-0,026	-0,187
-148,833	-65,575	0,163	-0,047
-147,818	326,246	0,085	0,117
-146,804	160,142	-0,039	0,039
-145,789	-111,612	0,049	0,007
-144,775	67,454	-0,083	-0,061
-143,760	165,033	0,049	-0,050
-142,745	-50,788	-0,182	-0,061
-141,731	-153,345	0,073	0,004
-140,716	-33,120	0,062	-0,025
-139,702	-200,000	0,034	-0,130
-138,687	-59,734	-0,161	0,049
-137,672	800,000	-0,032	-0,071
-136,658	-102,331	-0,120	-0,021
-135,643	-69,249	-0,077	-0,021
-134,629	608,333	0,077	0,139
-133,614	-91,521	0,174	0,035
-132,599	310,236	-0,023	-0,032
-131,585	10,818	-0,047	-0,026
-130,570	800,000	-0,024	-0,055
-129,556	-99,278	-0,030	-0,005
-128,541	336,154	0,063	-0,088
-127,526	-64,602	0,151	-0,044
-126,512	55,635	-0,035	-0,024
-125,497	-147,481	0,024	0,001
-124,483	-200,000	0,025	0,169
-123,468	-200,000	0,017	-0,067
-122,453	107,222	-0,069	0,059
-121,439	-73,279	-0,025	0,007
-120,424	-78,148	-0,048	0,012
-119,410	223,300	0,074	0,085
