DTS Sentinel unit serial number:	SN410029Multiplexer serial number:	ORYXHardware model number:	OX2-SRSoftware version number:	ORYX F/W v4,00 Oryx Data Collector v3.7.2.0data status	okinstallation	B5 Nyhavnadifferential loss correction	single-endedforward channel	channel 2reverse channel	N/Adate	2023/12/13time	08:27:13forward acquisition time	300,00reverse acquisition time	0,00gamma	499,1914k internal	0,3160k external	0,3160temperature offset calibration	1,0000default loss term (dB/km)	0,3820temperature slope calibration	1,0000multiplexer offset coefficient	1,0000multiplexer slope coefficient	1,0000fibre end	0,00T internal ref (°C)	13,63T ext. ref 1 (°C)	-2,75T ext. ref 2 (°C)	-3,03length (m)	temperature (°C)	Stokes	anti-Stokes-744,400	-41,183	0,102	-0,039
-743,385	-99,010	-0,178	-0,033
-742,371	184,646	0,055	0,060
-741,356	-109,881	-0,252	0,038
-740,342	-60,115	0,095	0,030
-739,327	-111,880	-0,376	0,055
-738,312	408,956	0,066	-0,103
-737,298	-10,603	-0,222	-0,108
-736,283	-82,197	0,035	0,008
-735,269	-19,789	-0,394	0,179
-734,254	-177,403	0,222	0,004
-733,239	-32,181	-0,601	-0,246
-732,225	183,261	0,118	0,129
-731,210	-200,000	0,007	0,115
-730,196	-133,267	0,061	0,006
-729,181	367,086	-0,033	0,049
-728,167	800,000	0,005	0,016
-727,152	324,455	0,006	0,008
-726,137	-28,437	-0,088	0,037
-725,123	-87,182	0,068	-0,015
-724,108	-18,242	-0,074	-0,034
-723,094	256,129	-0,098	0,124
-722,079	-29,193	-0,177	-0,074
-721,064	439,218	0,047	0,077
-720,050	311,515	-0,036	0,049
-719,035	499,339	-0,113	0,192
-718,021	800,000	0,035	-0,090
-717,006	-200,000	-0,006	-0,051
-715,991	82,066	-0,121	-0,096
-714,977	-9,882	0,067	-0,033
-713,962	771,938	0,027	-0,054
-712,948	48,614	0,154	-0,106
-711,933	800,000	-0,031	-0,098
-710,918	128,800	-0,074	-0,070
-709,904	-139,938	-0,044	0,003
-708,889	-185,378	-0,106	-0,001
-707,875	217,315	-0,069	-0,081
-706,860	-28,395	-0,084	0,036
-705,845	-200,000	-0,002	0,023
-704,831	-200,000	0,024	0,082
-703,816	-3,161	0,077	0,039
-702,802	61,153	-0,081	0,059
-701,787	9,608	-0,056	-0,031
-700,772	12,113	-0,053	0,030
-699,758	322,087	-0,069	-0,096
-698,743	368,066	0,111	0,165
-697,729	-44,867	0,152	0,056
-696,714	15,152	-0,018	-0,010
-695,699	-200,000	-0,017	-0,058
-694,685	135,104	-0,128	-0,123
-693,670	-34,099	-0,054	-0,022
-692,656	421,450	-0,011	-0,017
-691,641	-36,924	0,084	-0,033
-690,627	470,618	0,010	0,017
-689,612	-200,000	-0,008	0,126
-688,597	-200,000	-0,005	-0,056
-687,583	-91,934	-0,089	-0,018
-686,568	-200,000	-0,007	0,048
-685,554	800,000	0,013	0,030
-684,539	38,625	0,041	0,027
-683,524	188,768	-0,073	0,080
-682,510	-85,556	0,104	-0,024
-681,495	734,595	-0,051	-0,100
-680,481	38,465	0,036	-0,024
-679,466	617,115	-0,093	-0,173
-678,451	-200,000	0,003	0,025
-677,437	800,000	-0,024	-0,076
-676,422	-200,000	-0,025	0,087
-675,408	800,000	0,022	0,071
-674,393	-10,571	-0,069	-0,033
-673,378	597,288	-0,034	-0,062
-672,364	-157,967	0,076	-0,003
-671,349	-200,000	-0,026	-0,085
-670,335	-114,069	0,104	-0,015
-669,320	-200,000	-0,006	0,046
-668,305	-200,000	-0,005	0,076
-667,291	314,674	-0,057	0,079
-666,276	-193,175	-0,191	0,001
-665,262	255,696	0,055	0,069
-664,247	-35,329	-0,146	0,058
-663,232	-45,233	0,075	-0,027
-662,218	800,000	0,029	0,072
-661,203	-91,412	0,090	0,019
-660,189	-200,000	-0,032	0,132
-659,174	289,088	-0,088	-0,117
-658,159	-200,000	0,027	-0,131
-657,145	35,732	-0,103	-0,066
-656,130	-76,274	-0,108	-0,028
-655,116	129,300	-0,022	-0,020
-654,101	-30,789	0,019	-0,008
-653,086	93,843	-0,139	-0,116
-652,072	-116,735	-0,139	0,018
-651,057	263,801	0,052	-0,067
-650,043	800,000	-0,017	-0,046
-649,028	-116,960	-0,199	-0,026
-648,014	209,919	0,020	0,023
-646,999	-11,747	-0,017	0,008
-645,984	330,533	-0,033	0,047
-644,970	178,614	-0,034	0,037
-643,955	89,098	-0,058	-0,047
-642,941	-19,593	0,024	-0,011
-641,926	78,059	-0,099	-0,077
-640,911	-200,000	0,018	0,075
-639,897	-40,906	0,119	0,045
-638,882	-116,353	0,144	-0,019
-637,868	-200,000	0,015	0,049
-636,853	-28,358	-0,145	-0,061
-635,838	800,000	-0,018	-0,046
-634,824	-65,056	0,060	0,018
-633,809	-200,000	0,039	0,153
-632,795	17,559	-0,067	0,039
-631,780	59,910	0,037	-0,027
-630,765	120,225	-0,026	0,024
-629,751	-200,000	0,008	-0,074
-628,736	666,251	0,013	0,024
-627,722	-125,855	0,104	-0,011
-626,707	-75,269	-0,114	0,030
-625,692	-6,281	-0,070	-0,035
-624,678	55,634	0,055	0,039
-623,663	125,018	0,080	-0,074
-622,649	-107,078	-0,226	0,036
-621,634	250,213	0,091	-0,114
-620,619	553,738	-0,048	-0,085
-619,605	183,038	-0,019	0,021
-618,590	92,853	0,082	-0,068
-617,576	-117,662	0,040	0,005
-616,561	800,000	0,064	0,140
-615,546	-87,088	-0,155	0,034
-614,532	151,414	-0,131	-0,131
-613,517	230,294	-0,059	0,070
-612,503	-51,768	0,105	-0,036
-611,488	-200,000	-0,023	0,088
-610,474	800,000	-0,019	0,048
-609,459	-183,819	-0,061	-0,001
-608,444	-99,833	-0,081	-0,015
-607,430	-79,655	-0,039	-0,009
-606,415	-76,398	-0,108	0,028
-605,401	-17,262	-0,093	0,043
-604,386	446,392	0,018	-0,029
-603,371	183,568	0,020	0,021
-602,357	395,697	-0,045	-0,068
-601,342	-200,000	-0,007	0,046
-600,328	-200,000	0,010	-0,050
-599,313	75,850	-0,042	0,032
-598,298	29,905	0,086	0,054
-597,284	102,907	-0,041	-0,035
-596,269	245,061	-0,066	-0,081
-595,255	-26,920	-0,057	0,024
-594,240	743,443	-0,046	0,090
-593,225	-103,053	-0,137	0,024
-592,211	-200,000	0,004	-0,022
-591,196	-200,000	0,016	-0,100
-590,182	124,800	0,070	-0,065
-589,167	-183,168	0,162	-0,002
-588,152	158,638	0,120	0,122
-587,138	-127,913	-0,180	0,019
-586,123	800,000	0,013	0,036
-585,109	244,573	0,118	-0,146
-584,094	29,318	0,047	0,029
-583,079	-142,814	0,041	-0,003
-582,065	800,000	-0,035	0,072
-581,050	800,000	0,030	0,068
-580,036	-200,000	-0,009	0,096
-579,021	49,415	0,094	0,065
-578,006	172,561	0,039	0,041
-576,992	-200,000	0,023	0,132
-575,977	-200,000	-0,002	-0,064
-574,963	109,177	-0,057	0,050
-573,948	-200,000	-0,008	-0,032
-572,934	560,326	0,008	-0,014
-571,919	-200,000	0,023	-0,112
-570,904	81,872	-0,034	-0,027
-569,890	109,378	-0,104	-0,091
-568,875	123,313	0,029	0,027
-567,861	800,000	0,013	-0,039
-566,846	-62,952	0,067	0,020
-565,831	95,765	0,048	0,040
-564,817	-50,441	-0,112	-0,038
-563,802	-200,000	0,002	-0,095
-562,788	-200,000	-0,010	-0,123
-561,773	-156,652	0,105	0,005
-560,758	106,408	0,023	0,020
-559,744	228,142	0,067	0,080
-558,729	-200,000	-0,003	0,020
-557,715	69,047	-0,121	-0,091
-556,700	-52,628	0,086	0,029
-555,685	800,000	-0,074	-0,162
-554,671	102,514	-0,092	-0,079
-553,656	-51,333	-0,106	0,036
-552,642	800,000	0,031	0,093
-551,627	800,000	-0,035	0,078
-550,612	203,205	0,054	-0,061
-549,598	-200,000	-0,006	-0,134
-548,583	67,831	0,055	-0,041
-547,569	-152,439	0,039	-0,002
-546,554	419,260	0,062	-0,098
-545,539	-200,000	-0,011	0,053
-544,525	772,593	-0,024	0,048
-543,510	-83,465	-0,097	-0,023
-542,496	800,000	0,004	-0,011
-541,481	-57,228	-0,054	-0,017
-540,466	-19,009	0,078	0,035
-539,452	86,937	0,074	-0,060
-538,437	99,897	-0,167	0,141
-537,423	-23,192	-0,095	-0,042
-536,408	213,500	0,059	0,068
-535,393	-200,000	-0,021	-0,149
-534,379	-38,390	0,068	-0,026
-533,364	-83,793	0,043	0,010
-532,350	372,238	0,016	-0,024
-531,335	470,135	0,069	0,113
-530,321	-130,870	0,067	-0,006
-529,306	267,165	-0,041	-0,053
-528,291	-125,858	0,018	0,002
-527,277	800,000	-0,019	0,043
-526,262	800,000	-0,017	-0,040
-525,248	-34,049	-0,014	0,006
-524,233	203,552	0,037	0,042
-523,218	-90,530	-0,151	0,032
-522,204	-132,052	-0,152	-0,014
-521,189	-200,000	0,002	-0,059
-520,175	176,674	-0,025	-0,027
-519,160	-44,036	0,156	-0,057
-518,145	138,204	-0,047	0,045
-517,131	800,000	-0,047	-0,098
-516,116	-200,000	-0,025	0,092
-515,102	703,738	-0,037	-0,072
-514,087	800,000	0,034	0,092
-513,072	800,000	-0,038	-0,112
-512,058	-200,000	-0,034	0,000
-511,043	-82,618	0,099	0,023
-510,029	-200,000	0,039	0,128
-509,014	360,577	0,072	0,105
-507,999	69,676	0,043	-0,032
-506,985	800,000	0,017	0,055
-505,970	-64,634	-0,081	-0,024
-504,956	347,295	0,042	-0,061
-503,941	13,169	-0,050	0,028
-502,926	130,195	0,034	0,032
-501,912	-19,135	0,219	0,099
-500,897	311,788	0,023	-0,032
-499,883	800,000	0,018	-0,047
-498,868	-200,000	0,001	-0,028
-497,853	31,458	-0,050	0,031
-496,839	31,909	-0,104	-0,065
-495,824	-107,614	0,055	-0,009
-494,810	-19,619	0,086	-0,039
-493,795	-82,420	0,069	0,016
-492,781	800,000	-0,043	-0,099
-491,766	-136,558	0,030	0,002
-490,751	-200,000	-0,012	0,074
-489,737	733,487	0,021	-0,042
-488,722	-129,850	-0,069	-0,007
-487,708	-200,000	0,001	0,129
-486,693	800,000	0,040	0,090
-485,678	-19,382	-0,021	-0,010
-484,664	-200,000	0,016	-0,116
-483,649	-77,335	-0,072	0,018
-482,635	62,012	0,066	-0,048
-481,620	263,778	-0,038	-0,048
-480,605	800,000	0,030	-0,091
-479,591	176,462	0,059	-0,063
-478,576	-200,000	-0,006	-0,065
-477,562	275,020	0,101	-0,130
-476,547	-200,000	-0,023	-0,094
-475,532	208,352	-0,083	0,095
-474,518	-18,699	0,084	0,038
-473,503	280,594	0,050	-0,066
-472,489	182,423	0,053	0,057
-471,474	30,689	0,068	-0,043
-470,459	-200,000	-0,004	-0,069
-469,445	-200,000	0,037	-0,174
-468,430	-80,479	-0,121	0,029
-467,416	137,905	0,065	-0,062
-466,401	211,274	0,056	0,065
-465,386	28,350	-0,040	0,025
-464,372	18,618	0,133	0,077
-463,357	-74,113	-0,052	0,014
-462,343	800,000	-0,045	-0,103
-461,328	800,000	0,032	-0,091
-460,313	-200,000	-0,014	0,086
-459,299	-200,000	0,005	-0,032
-458,284	-50,380	-0,035	-0,012
-457,270	-200,000	-0,015	0,095
-456,255	-114,589	0,238	-0,033
-455,241	-82,177	-0,091	0,022
-454,226	-54,437	-0,062	0,020
-453,211	800,000	0,043	0,136
-452,197	-43,047	0,070	0,026
-451,182	-17,437	0,140	-0,064
-450,168	-151,002	0,083	0,004
-449,153	53,447	-0,110	0,077
-448,138	-55,606	-0,037	-0,012
-447,124	24,071	0,118	0,071
-446,109	-200,000	-0,005	0,077
-445,095	376,812	0,063	0,094
-444,080	498,286	0,086	0,145
-443,065	440,694	-0,064	-0,101
-442,051	-200,000	-0,005	0,105
-441,036	31,140	0,052	-0,032
-440,022	-78,417	-0,051	0,013
-439,007	286,977	-0,055	0,072
-437,992	251,454	0,109	0,136
-436,978	770,240	-0,010	-0,019
-435,963	-200,000	-0,042	-0,199
-434,949	272,578	0,038	0,049
-433,934	-200,000	0,008	-0,094
-432,919	800,000	-0,041	-0,094
-431,905	319,139	0,011	-0,015
-430,890	-200,000	0,002	0,061
-429,876	176,578	-0,010	0,010
-428,861	41,917	0,102	-0,067
-427,846	-104,165	-0,052	0,009
-426,832	-200,000	0,027	-0,123
-425,817	467,857	0,086	-0,141
-424,803	227,568	0,057	0,068
-423,788	-69,666	0,062	-0,017
-422,773	438,670	-0,065	0,104
-421,759	-134,142	0,064	0,006
-420,744	-143,072	0,058	0,004
-419,730	-56,282	-0,104	-0,033
-418,715	800,000	-0,049	-0,126
-417,701	679,822	-0,046	0,088
-416,686	-82,103	-0,085	-0,020
-415,671	-30,751	0,100	-0,041
-414,657	70,801	-0,079	0,060
-413,642	197,062	-0,025	-0,028
-412,628	-72,277	-0,008	0,002
-411,613	10,701	-0,039	0,022
-410,598	-200,000	-0,007	-0,108
-409,584	143,769	-0,081	0,078
-408,569	800,000	0,023	-0,067
-407,555	-26,099	0,083	0,035
-406,540	800,000	0,078	0,219
-405,525	-55,124	-0,037	-0,012
-404,511	-200,000	-0,007	-0,096
-403,496	-200,000	-0,019	-0,120
-402,482	779,839	-0,039	-0,078
-401,467	-115,102	0,042	-0,006
-400,452	-78,021	-0,090	-0,022
-399,438	10,251	-0,159	-0,088
-398,423	-200,000	-0,011	-0,134
-397,409	-41,745	-0,020	-0,007
-396,394	-38,190	-0,074	0,028
-395,379	-159,787	0,067	0,003
-394,365	13,582	0,134	-0,075
-393,350	3,004	0,019	-0,010
-392,336	-122,376	0,043	0,005
-391,321	-200,000	0,036	0,167
-390,306	-22,023	0,049	-0,022
-389,292	-76,755	-0,111	0,028
-388,277	476,598	0,052	0,085
-387,263	-200,000	0,031	-0,155
-386,248	186,429	-0,039	0,042
-385,233	-200,000	0,022	-0,107
-384,219	-120,669	-0,100	-0,012
-383,204	15,557	-0,043	-0,024
-382,190	-6,958	-0,104	0,051
-381,175	-131,700	0,154	0,015
-380,160	-200,000	-0,007	0,084
-379,146	-40,700	0,166	0,062
-378,131	-200,000	0,027	-0,159
-377,117	-200,000	0,016	-0,051
-376,102	119,149	-0,038	-0,034
-375,088	440,795	0,007	0,011
-374,073	-200,000	0,006	-0,070
-373,058	800,000	0,039	-0,100
-372,044	-200,000	0,001	-0,065
-371,029	181,090	0,015	-0,016
-370,015	292,997	-0,029	0,038
-369,000	18,608	-0,140	0,081
-367,985	155,974	0,029	0,029
-366,971	-200,000	-0,021	-0,134
-365,956	156,031	0,074	-0,074
-364,942	153,500	0,113	0,112
-363,927	-87,389	-0,082	-0,018
-362,912	-113,227	0,080	0,011
-361,898	-135,637	0,091	-0,008
-360,883	-200,000	-0,011	0,120
-359,869	7,530	0,066	0,036
-358,854	138,784	-0,041	-0,039
-357,839	418,193	-0,049	-0,076
-356,825	-17,978	0,147	-0,066
-355,810	-26,321	-0,064	-0,027
-354,796	-82,904	-0,149	0,035
-353,781	120,433	0,028	-0,025
-352,766	-47,251	0,032	0,011
-351,752	-11,736	0,083	-0,039
-350,737	34,368	-0,201	0,127
-349,723	72,415	0,046	-0,035
-348,708	122,805	0,046	-0,042
-347,693	270,528	0,019	-0,024
-346,679	66,593	-0,054	-0,039
-345,664	800,000	-0,044	0,098
-344,650	20,849	-0,075	-0,044
-343,635	-46,094	0,072	-0,025
-342,620	-120,476	0,110	0,013
-341,606	-81,955	0,048	-0,011
-340,591	419,304	0,052	0,081
-339,577	27,765	-0,058	-0,035
-338,562	-99,981	0,012	0,002
-337,548	800,000	0,030	-0,086
-336,533	-200,000	-0,004	0,035
-335,518	69,159	0,029	0,021
-334,504	-109,191	0,155	0,024
-333,489	453,694	0,038	0,061
-332,475	-200,000	-0,055	-0,182
-331,460	-43,978	-0,099	-0,036
-330,445	2,044	-0,133	0,070
-329,431	746,437	0,035	0,068
-328,416	-160,916	0,140	-0,005
-327,402	-200,000	0,012	0,044
-326,387	171,991	-0,037	-0,038
-325,372	-28,671	0,056	-0,023
-324,358	-200,000	0,005	-0,192
-323,343	-200,000	0,006	-0,067
-322,329	-200,000	0,004	0,157
-321,314	-200,000	0,007	-0,043
-320,299	394,027	0,066	0,100
-319,285	800,000	-0,034	0,089
-318,270	-200,000	-0,012	-0,097
-317,256	480,412	-0,073	-0,120
-316,241	800,000	0,044	0,126
-315,226	-81,123	0,071	-0,017
-314,212	800,000	-0,058	0,128
-313,197	427,136	0,037	0,057
-312,183	136,318	0,011	0,010
-311,168	336,982	-0,054	-0,077
-310,153	188,341	0,117	-0,127
-309,139	145,855	-0,108	-0,105
-308,124	800,000	-0,061	0,130
-307,110	644,871	-0,046	-0,085
-306,095	-200,000	-0,005	-0,032
-305,080	-26,549	0,085	-0,036
-304,066	800,000	0,021	-0,053
-303,051	69,388	0,047	0,035
-302,037	800,000	0,048	-0,100
-301,022	1,050	-0,103	0,054
-300,008	-200,000	0,017	0,063
-298,993	464,090	0,044	-0,072
-297,978	-93,281	-0,150	-0,030
-296,964	185,717	0,068	0,073
-295,949	800,000	-0,019	0,052
-294,935	-130,358	0,081	0,008
-293,920	800,000	-0,033	-0,085
-292,905	-200,000	0,036	0,136
-291,891	-132,158	0,098	0,009
-290,876	136,443	0,082	-0,077
-289,862	282,186	-0,088	0,115
-288,847	14,142	-0,091	0,051
-287,832	-200,000	-0,003	0,014
-286,818	1,785	-0,055	-0,029
-285,803	470,911	-0,043	0,070
-284,789	-30,233	0,129	0,053
-283,774	159,157	-0,070	-0,071
-282,759	-200,000	0,011	-0,089
-281,745	-200,000	-0,002	0,028
-280,730	800,000	-0,022	0,058
-279,716	733,542	0,066	-0,128
-278,701	-76,382	0,007	-0,002
-277,686	-116,760	0,107	-0,014
-276,672	-146,881	0,028	-0,002
-275,657	-34,853	0,037	0,015
-274,643	-200,000	-0,006	-0,049
-273,628	207,979	-0,052	0,059
-272,613	618,205	-0,049	-0,089
-271,599	215,322	0,069	-0,080
-270,584	-107,829	0,031	-0,005
-269,570	-200,000	0,001	-0,106
-268,555	-166,226	-0,165	-0,005
-267,540	-186,688	0,092	0,001
-266,526	-200,000	-0,018	0,102
-265,511	174,914	-0,021	-0,022
-264,497	-200,000	0,030	0,253
-263,482	800,000	-0,028	0,071
-262,467	-13,226	0,124	-0,058
-261,453	-117,451	-0,126	0,016
-260,438	-200,000	-0,009	-0,070
-259,424	179,780	0,053	-0,056
-258,409	396,283	0,023	0,035
-257,395	-138,479	-0,026	-0,002
-256,380	114,572	0,146	0,129
-255,365	-136,729	-0,095	0,008
-254,351	492,261	0,008	-0,014
-253,336	121,994	-0,080	0,072
-252,322	29,641	-0,059	-0,036
-251,307	800,000	0,035	0,077
-250,292	-63,913	-0,073	-0,021
-249,278	68,159	-0,114	-0,084
-248,263	100,162	0,115	0,096
-247,249	-81,821	-0,033	-0,008
-246,234	120,713	-0,026	0,023
-245,219	-170,049	0,097	-0,002
-244,205	364,848	-0,046	-0,067
-243,190	-125,281	0,015	-0,002
-242,176	-7,653	0,020	-0,010
-241,161	800,000	-0,023	0,068
-240,146	-200,000	0,013	0,138
-239,132	-200,000	-0,012	0,142
-238,117	-200,000	0,041	-0,211
-237,103	226,126	-0,069	-0,081
-236,088	-200,000	0,020	-0,066
-235,073	46,867	-0,129	-0,086
-234,059	294,322	0,054	-0,071
-233,044	-116,673	0,056	-0,007
-232,030	-200,000	0,010	-0,085
-231,015	-200,000	0,029	-0,095
-230,000	-162,530	-0,126	-0,004
-228,986	-200,000	-0,003	-0,038
-227,971	800,000	-0,036	-0,081
-226,957	14,908	0,079	0,045
-225,942	-15,267	0,023	-0,011
-224,927	-128,003	-0,098	-0,010
-223,913	-200,000	0,011	0,056
-222,898	-200,000	-0,022	-0,112
-221,884	-200,000	0,020	-0,097
-220,869	277,477	0,078	0,100
-219,855	-200,000	-0,065	0,208
-218,840	-200,000	0,022	0,127
-217,825	-200,000	0,019	0,106
-216,811	-77,754	-0,054	-0,013
-215,796	44,374	-0,078	0,052
-214,782	800,000	-0,021	0,058
-213,767	-200,000	-0,006	-0,153
-212,752	-200,000	0,005	0,054
-211,738	-200,000	-0,027	0,097
-210,723	800,000	0,008	0,024
-209,709	54,828	-0,089	-0,062
-208,694	-40,339	0,061	-0,023
-207,679	466,033	0,049	0,079
-206,665	-200,000	-0,007	0,051
-205,650	-200,000	-0,000	0,065
-204,636	-200,000	0,006	0,129
-203,621	298,603	-0,066	0,088
-202,606	-143,244	0,047	0,003
-201,592	-25,628	0,013	-0,006
-200,577	-200,000	-0,011	0,035
-199,563	10,616	-0,019	-0,011
-198,548	-28,314	0,140	-0,058
-197,533	-136,886	-0,159	0,013
-196,519	-200,000	0,026	0,101
-195,504	-200,000	-0,022	0,182
-194,490	43,869	-0,076	-0,050
-193,475	512,419	-0,046	0,077
-192,460	-200,000	-0,015	0,068
-191,446	78,403	0,031	-0,024
-190,431	-200,000	-0,031	0,110
-189,417	-1,192	0,122	0,062
-188,402	800,000	-0,058	-0,157
-187,387	129,146	0,088	-0,081
-186,373	-200,000	0,001	-0,032
-185,358	300,428	-0,058	-0,078
-184,344	800,000	0,042	-0,125
-183,329	800,000	-0,041	0,105
-182,315	-19,374	0,076	0,034
-181,300	-33,321	0,119	0,047
-180,285	800,000	0,042	-0,134
-179,271	83,630	-0,042	0,033
-178,256	322,650	-0,019	0,026
-177,242	-200,000	0,003	0,031
-176,227	609,446	0,060	0,109
-175,212	-127,344	-0,112	0,012
-174,198	-200,000	-0,029	0,117
-173,183	65,466	-0,119	-0,087
-172,169	314,567	-0,047	-0,064
-171,154	800,000	-0,053	-0,121
-170,139	-52,581	0,031	-0,010
-169,125	269,760	-0,077	0,098
-168,110	-200,000	-0,046	0,180
-167,096	-145,101	-0,106	0,007
-166,081	143,943	0,084	0,081
-165,066	78,649	-0,109	-0,084
-164,052	574,985	-0,044	0,078
-163,037	65,824	0,085	-0,062
-162,023	-200,000	-0,041	0,177
-161,008	-98,505	0,087	0,016
-159,993	-200,000	-0,046	0,184
-158,979	84,449	-0,118	-0,093
-157,964	-145,552	-0,008	-0,000
-156,950	151,186	0,082	-0,080
-155,935	475,964	-0,080	0,130
-154,920	-200,000	-0,030	0,140
-153,906	301,457	0,078	-0,104
-152,891	209,461	-0,035	0,039
-151,877	-200,000	-0,005	0,163
-150,862	81,226	0,132	-0,103
-149,847	227,287	0,109	0,128
-148,833	-3,977	0,073	0,036
-147,818	-37,697	0,062	0,024
-146,804	-200,000	0,005	0,131
-145,789	175,655	-0,087	0,091
-144,775	115,649	-0,008	-0,007
-143,760	13,179	-0,081	-0,045
-142,745	756,463	-0,032	-0,062
-141,731	-71,300	0,147	0,039
-140,716	-57,620	-0,059	-0,019
-139,702	698,500	-0,021	0,041
-138,687	-200,000	0,003	0,033
-137,672	-200,000	0,015	0,062
-136,658	-4,757	-0,144	-0,071
-135,643	-158,655	0,041	-0,002
-134,629	-2,551	0,094	0,047
-133,614	800,000	0,061	-0,152
-132,599	-200,000	-0,008	0,075
-131,585	-173,837	0,034	-0,001
-130,570	-39,469	-0,050	0,019
-129,556	-73,082	-0,112	0,029
-128,541	-26,068	-0,089	-0,037
-127,526	-200,000	-0,008	0,109
-126,512	-38,130	-0,150	0,057
-125,497	-200,000	0,005	0,081
-124,483	-170,709	-0,084	-0,002
-123,468	-139,846	0,073	-0,005
-122,453	-200,000	0,008	-0,126
-121,439	800,000	0,039	-0,079
-120,424	-158,441	-0,117	0,005
