DTS Sentinel unit serial number:	SN410029Multiplexer serial number:	ORYXHardware model number:	OX2-SRSoftware version number:	ORYX F/W v4,00 Oryx Data Collector v3.7.2.0data status	okinstallation	B5 Nyhavnadifferential loss correction	single-endedforward channel	channel 2reverse channel	N/Adate	2023/12/14time	19:42:13forward acquisition time	300,00reverse acquisition time	0,00gamma	499,1914k internal	0,3157k external	0,3157temperature offset calibration	1,0000default loss term (dB/km)	0,3820temperature slope calibration	1,0000multiplexer offset coefficient	1,0000multiplexer slope coefficient	1,0000fibre end	0,00T internal ref (°C)	9,06T ext. ref 1 (°C)	-5,70T ext. ref 2 (°C)	-5,77length (m)	temperature (°C)	Stokes	anti-Stokes-744,400	-176,711	0,122	0,002
-743,385	-193,477	-0,399	0,002
-742,371	115,538	0,184	0,166
-741,356	-39,402	-0,405	-0,156
-740,342	20,545	0,035	-0,021
-739,327	-59,132	-0,391	-0,124
-738,312	350,068	0,087	0,127
-737,298	-20,137	-0,338	-0,153
-736,283	83,521	0,093	0,075
-735,269	-93,641	-0,410	-0,083
-734,254	29,817	0,143	0,090
-733,239	35,235	-0,476	-0,307
-732,225	-45,037	0,273	0,100
-731,210	90,657	-0,093	0,077
-730,196	183,867	-0,059	0,064
-729,181	-77,220	-0,050	-0,013
-728,167	-200,000	0,033	0,109
-727,152	800,000	-0,014	0,034
-726,137	-200,000	-0,009	-0,116
-725,123	-103,296	-0,072	0,012
-724,108	25,890	-0,131	-0,080
-723,094	-17,367	-0,030	0,014
-722,079	230,729	-0,024	0,029
-721,064	-200,000	0,010	-0,056
-720,050	794,795	-0,069	0,142
-719,035	-107,292	-0,150	-0,024
-718,021	-11,906	-0,115	-0,055
-717,006	196,799	-0,151	-0,170
-715,991	648,139	-0,027	0,051
-714,977	-36,655	0,045	-0,018
-713,962	-78,494	-0,045	-0,011
-712,948	-200,000	0,017	0,091
-711,933	-19,694	0,055	-0,025
-710,918	-52,202	-0,084	0,028
-709,904	307,498	-0,104	-0,143
-708,889	465,148	0,035	0,058
-707,875	-51,905	-0,126	-0,043
-706,860	45,770	-0,103	-0,070
-705,845	-140,068	0,106	0,008
-704,831	8,885	-0,071	0,039
-703,816	205,131	-0,081	0,093
-702,802	325,140	-0,043	-0,061
-701,787	-119,150	-0,077	-0,010
-700,772	-200,000	-0,013	-0,066
-699,758	298,808	-0,050	-0,068
-698,743	166,812	-0,108	-0,113
-697,729	-200,000	0,025	0,096
-696,714	-150,220	0,198	0,011
-695,699	-200,000	0,025	0,122
-694,685	-200,000	0,007	-0,061
-693,670	-200,000	-0,022	-0,097
-692,656	545,053	0,052	-0,093
-691,641	177,019	0,089	-0,095
-690,627	-58,114	-0,044	-0,014
-689,612	28,665	0,019	-0,012
-688,597	365,265	-0,067	-0,100
-687,583	767,263	-0,067	0,135
-686,568	-40,434	-0,132	-0,050
-685,554	403,408	0,111	-0,173
-684,539	-79,032	-0,163	0,040
-683,524	-67,213	0,123	0,036
-682,510	12,856	-0,093	-0,053
-681,495	434,735	-0,079	-0,127
-680,481	105,879	0,104	-0,091
-679,466	553,955	0,027	-0,049
-678,451	28,652	-0,093	-0,058
-677,437	-147,913	-0,006	-0,000
-676,422	-191,424	0,102	0,001
-675,408	-35,743	-0,079	-0,031
-674,393	13,911	-0,127	-0,073
-673,378	513,677	-0,060	-0,104
-672,364	658,257	0,022	0,041
-671,349	-200,000	0,035	-0,142
-670,335	35,482	0,150	-0,097
-669,320	82,733	0,076	-0,061
-668,305	-73,236	0,133	0,036
-667,291	-200,000	-0,032	0,152
-666,276	-83,172	-0,116	-0,027
-665,262	800,000	-0,032	-0,097
-664,247	281,285	0,115	-0,152
-663,232	-32,007	-0,028	0,011
-662,218	549,991	0,057	-0,101
-661,203	116,221	-0,054	-0,049
-660,189	478,344	0,090	0,151
-659,174	-200,000	-0,029	-0,116
-658,159	133,437	-0,096	-0,091
-657,145	-119,037	-0,091	0,012
-656,130	800,000	0,042	0,119
-655,116	-1,061	0,056	0,029
-654,101	-200,000	-0,000	0,130
-653,086	-200,000	-0,013	0,068
-652,072	-200,000	-0,003	0,106
-651,057	223,923	-0,076	-0,091
-650,043	-200,000	-0,003	-0,055
-649,028	-56,102	-0,155	-0,050
-648,014	5,609	0,167	-0,090
-646,999	4,308	0,084	-0,045
-645,984	1,009	-0,077	0,040
-644,970	-200,000	-0,021	-0,095
-643,955	230,765	0,067	0,081
-642,941	-200,000	0,009	-0,049
-641,926	70,501	-0,088	-0,067
-640,911	-67,549	-0,155	0,044
-639,897	-39,273	0,128	0,049
-638,882	151,570	-0,077	0,077
-637,868	285,122	-0,068	-0,090
-636,853	-171,084	-0,088	0,002
-635,838	149,457	-0,086	-0,085
-634,824	-112,985	-0,078	0,011
-633,809	-47,971	-0,113	-0,040
-632,795	-200,000	-0,003	0,064
-631,780	181,497	-0,069	-0,075
-630,765	-168,687	-0,115	-0,003
-629,751	-62,277	-0,102	0,031
-628,736	-200,000	-0,025	-0,175
-627,722	-139,932	0,157	0,012
-626,707	45,132	-0,092	0,062
-625,692	800,000	-0,022	0,059
-624,678	-101,284	0,118	0,021
-623,663	-5,559	-0,070	-0,035
-622,649	40,460	0,017	0,012
-621,634	220,011	-0,150	-0,176
-620,619	237,223	-0,037	-0,045
-619,605	100,367	0,061	-0,052
-618,590	-118,824	0,105	-0,013
-617,576	800,000	-0,019	0,054
-616,561	-75,219	-0,121	-0,031
-615,546	-200,000	-0,002	-0,164
-614,532	-35,239	-0,023	0,009
-613,517	-107,951	-0,104	-0,016
-612,503	-200,000	-0,008	-0,047
-611,488	-200,000	-0,012	0,064
-610,474	800,000	0,018	0,049
-609,459	294,252	-0,040	0,054
-608,444	707,230	-0,023	0,044
-607,430	110,714	-0,063	0,055
-606,415	83,341	0,073	-0,059
-605,401	-10,338	0,059	-0,029
-604,386	800,000	0,035	0,074
-603,371	-38,167	-0,004	0,002
-602,357	-200,000	0,019	-0,090
-601,342	212,465	-0,066	-0,076
-600,328	-178,208	-0,078	-0,001
-599,313	349,594	-0,055	-0,080
-598,298	800,000	0,049	0,114
-597,284	-157,374	0,060	-0,003
-596,269	-117,192	0,108	0,014
-595,255	80,528	-0,055	-0,043
-594,240	204,885	0,048	-0,055
-593,225	188,204	-0,148	-0,162
-592,211	46,443	-0,039	-0,027
-591,196	751,630	0,031	0,061
-590,182	108,728	0,101	0,088
-589,167	137,764	0,055	0,053
-588,152	145,660	-0,062	-0,061
-587,138	-200,000	-0,024	-0,122
-586,123	-200,000	-0,016	0,160
-585,109	372,577	0,077	-0,115
-584,094	19,973	0,096	-0,057
-583,079	75,114	0,149	0,115
-582,065	249,118	-0,068	0,085
-581,050	-36,775	0,045	0,018
-580,036	212,712	-0,030	-0,035
-579,021	116,942	-0,025	-0,022
-578,006	-200,000	0,045	-0,159
-576,992	71,416	-0,046	-0,035
-575,977	-47,484	0,108	-0,038
-574,963	-82,887	0,105	-0,025
-573,948	159,662	0,025	0,026
-572,934	272,870	-0,037	0,049
-571,919	159,474	-0,145	-0,148
-570,904	800,000	-0,044	-0,105
-569,890	51,509	-0,071	-0,050
-568,875	7,195	0,064	-0,035
-567,861	-200,000	-0,015	-0,070
-566,846	216,709	-0,034	-0,039
-565,831	13,163	0,069	-0,039
-564,817	500,054	-0,022	-0,037
-563,802	46,098	0,092	-0,062
-562,788	47,014	0,041	-0,028
-561,773	-19,631	-0,118	0,053
-560,758	386,487	0,036	-0,054
-559,744	-200,000	-0,005	-0,037
-558,729	-200,000	-0,003	0,032
-557,715	-154,165	-0,142	-0,007
-556,700	254,959	0,041	0,051
-555,685	37,992	-0,120	0,078
-554,671	-49,511	0,049	0,017
-553,656	-200,000	-0,005	0,097
-552,642	-140,368	0,112	0,008
-551,627	-200,000	-0,000	0,038
-550,612	11,013	-0,054	-0,030
-549,598	30,612	-0,126	-0,079
-548,583	-99,208	0,085	0,016
-547,569	218,781	0,100	-0,117
-546,554	800,000	0,027	0,063
-545,539	55,326	0,125	0,088
-544,525	-200,000	-0,006	-0,028
-543,510	-89,546	0,064	-0,014
-542,496	257,927	-0,062	-0,078
-541,481	-106,776	0,031	-0,005
-540,466	-62,339	0,039	0,012
-539,452	65,627	-0,098	0,072
-538,437	322,005	-0,055	0,077
-537,423	17,127	0,115	0,066
-536,408	78,426	0,053	0,041
-535,393	-200,000	0,030	-0,150
-534,379	-200,000	0,010	0,103
-533,364	-5,300	0,018	-0,009
-532,350	-71,651	0,066	-0,018
-531,335	-200,000	0,007	0,046
-530,321	-103,686	0,052	-0,009
-529,306	88,782	0,008	-0,006
-528,291	9,185	-0,138	-0,076
-527,277	-200,000	-0,008	-0,136
-526,262	-200,000	-0,019	-0,144
-525,248	-173,707	0,072	-0,002
-524,233	40,917	-0,111	-0,073
-523,218	279,606	0,069	0,090
-522,204	-115,460	0,063	0,009
-521,189	26,927	-0,085	-0,052
-520,175	800,000	-0,040	-0,127
-519,160	-55,997	-0,122	-0,040
-518,145	-167,976	0,182	-0,005
-517,131	800,000	0,035	0,074
-516,116	-44,720	0,009	0,003
-515,102	-200,000	0,003	0,031
-514,087	-200,000	-0,029	-0,146
-513,072	800,000	-0,044	-0,135
-512,058	-200,000	-0,005	-0,034
-511,043	-200,000	-0,025	0,154
-510,029	-200,000	0,006	0,067
-509,014	-78,394	0,030	0,008
-507,999	191,610	-0,038	-0,042
-506,985	49,702	-0,006	-0,004
-505,970	623,966	0,080	0,149
-504,956	-200,000	0,007	-0,080
-503,941	800,000	-0,053	0,122
-502,926	-12,930	-0,023	0,011
-501,912	476,850	-0,096	0,159
-500,897	-200,000	0,032	0,135
-499,883	105,413	-0,164	-0,142
-498,868	-200,000	0,017	0,059
-497,853	384,314	-0,082	-0,125
-496,839	-60,530	-0,086	-0,026
-495,824	-200,000	0,026	0,151
-494,810	-48,839	-0,118	-0,041
-493,795	110,245	-0,033	0,029
-492,781	198,892	-0,084	0,094
-491,766	781,695	-0,040	-0,079
-490,751	-200,000	0,016	0,073
-489,737	-180,606	0,119	-0,002
-488,722	-200,000	0,037	0,121
-487,708	-117,163	0,097	0,013
-486,693	-200,000	-0,022	0,140
-485,678	-77,485	0,085	0,021
-484,664	-53,725	0,102	-0,034
-483,649	-200,000	-0,017	-0,082
-482,635	-5,138	-0,078	0,039
-481,620	-200,000	0,003	0,117
-480,605	64,972	-0,080	0,059
-479,591	800,000	0,023	-0,062
-478,576	590,649	-0,035	-0,064
-477,562	800,000	-0,015	-0,045
-476,547	322,176	0,151	-0,210
-475,532	-100,788	-0,045	0,008
-474,518	-73,419	-0,058	-0,015
-473,503	-200,000	0,000	0,017
-472,489	800,000	-0,015	0,047
-471,474	324,731	0,016	-0,022
-470,459	-200,000	0,030	-0,109
-469,445	407,813	0,060	0,092
-468,430	231,260	0,026	-0,032
-467,416	89,359	0,029	0,024
-466,401	-200,000	-0,001	0,057
-465,386	-200,000	0,014	0,091
-464,372	82,697	0,088	0,070
-463,357	-73,245	0,044	0,012
-462,343	210,741	0,067	-0,077
-461,328	39,811	-0,029	-0,019
-460,313	800,000	0,021	0,062
-459,299	252,152	-0,024	0,030
-458,284	293,133	-0,035	-0,047
-457,270	800,000	-0,011	0,024
-456,255	59,633	0,060	0,043
-455,241	563,077	0,104	-0,184
-454,226	4,008	-0,110	-0,058
-453,211	592,927	0,028	0,051
-452,197	-58,471	-0,078	0,025
-451,182	335,856	-0,075	0,106
-450,168	-107,860	0,116	0,018
-449,153	-167,153	0,179	-0,005
-448,138	141,440	0,103	-0,099
-447,124	-200,000	0,012	0,058
-446,109	179,489	-0,041	-0,044
-445,095	21,322	0,095	-0,056
-444,080	-200,000	-0,037	0,151
-443,065	129,872	0,074	0,069
-442,051	446,002	0,037	-0,060
-441,036	519,185	0,046	0,079
-440,022	-200,000	0,009	-0,135
-439,007	169,690	-0,136	-0,141
-437,992	800,000	0,029	0,072
-436,978	384,872	-0,006	0,010
-435,963	256,192	0,052	-0,065
-434,949	-2,516	-0,121	-0,061
-433,934	-200,000	-0,016	-0,162
-432,919	-200,000	0,020	-0,173
-431,905	-98,139	-0,045	0,008
-430,890	-115,145	0,101	-0,014
-429,876	286,359	0,125	0,165
-428,861	31,992	-0,112	-0,070
-427,846	-11,209	0,049	-0,023
-426,832	133,518	-0,139	0,131
-425,817	-127,773	-0,081	-0,008
-424,803	-174,285	0,010	0,000
-423,788	800,000	-0,027	0,074
-422,773	368,730	0,044	0,065
-421,759	13,346	-0,081	0,046
-420,744	-68,309	-0,080	0,023
-419,730	-106,041	0,134	0,022
-418,715	-58,687	-0,145	0,045
-417,701	-200,000	0,008	-0,087
-416,686	-43,865	-0,067	0,024
-415,671	72,364	0,119	0,090
-414,657	175,623	-0,060	0,064
-413,642	-1,042	0,133	0,068
-412,628	-116,390	0,055	-0,007
-411,613	-45,007	0,078	-0,028
-410,598	800,000	0,010	0,032
-409,584	-200,000	0,007	0,065
-408,569	800,000	-0,046	-0,093
-407,555	-5,312	-0,044	0,022
-406,540	175,774	-0,021	0,022
-405,525	659,570	-0,044	-0,082
-404,511	-200,000	0,027	-0,100
-403,496	202,137	0,071	-0,079
-402,482	521,699	-0,014	-0,024
-401,467	299,111	-0,114	0,153
-400,452	800,000	0,082	0,179
-399,438	-35,587	-0,041	-0,016
-398,423	90,517	0,086	0,070
-397,409	106,338	-0,136	0,118
-396,394	-133,875	-0,014	0,001
-395,379	59,346	-0,081	0,058
-394,365	360,157	0,032	0,047
-393,350	-200,000	-0,009	0,056
-392,336	743,446	-0,059	-0,116
-391,321	100,830	0,047	0,040
-390,306	20,646	-0,121	0,071
-389,292	242,497	0,063	0,077
-388,277	-64,365	0,125	-0,037
-387,263	-200,000	0,008	0,120
-386,248	172,622	0,063	-0,066
-385,233	-200,000	0,014	0,081
-384,219	-27,247	-0,054	-0,023
-383,204	800,000	-0,024	0,061
-382,190	118,382	0,087	-0,078
-381,175	-200,000	-0,026	0,101
-380,160	800,000	0,006	-0,019
-379,146	518,515	0,019	0,032
-378,131	-200,000	0,001	-0,064
-377,117	-100,940	-0,128	0,023
-376,102	-2,574	0,064	0,033
-375,088	-7,479	-0,071	-0,035
-374,073	-200,000	0,002	0,078
-373,058	62,239	-0,069	-0,050
-372,044	-150,050	0,120	0,007
-371,029	218,619	0,051	0,059
-370,015	-54,490	0,157	0,051
-369,000	-200,000	-0,007	0,047
-367,985	18,883	-0,038	-0,022
-366,971	176,728	-0,021	-0,022
-365,956	50,676	0,086	-0,059
-364,942	382,807	0,010	0,015
-363,927	237,795	0,039	0,048
-362,912	-200,000	-0,015	-0,088
-361,898	-200,000	-0,017	0,064
-360,883	658,388	-0,060	0,113
-359,869	-79,995	0,150	-0,036
-358,854	-29,437	0,042	-0,018
-357,839	-48,290	0,044	-0,015
-356,825	426,784	0,082	0,128
-355,810	409,898	0,009	0,014
-354,796	-200,000	-0,004	-0,020
-353,781	-200,000	-0,017	-0,081
-352,766	800,000	-0,060	-0,153
-351,752	383,334	0,022	0,033
-350,737	-21,649	-0,110	0,049
-349,723	-95,232	-0,114	-0,022
-348,708	1,383	0,055	0,029
-347,693	-59,297	0,144	-0,045
-346,679	-200,000	0,005	0,031
-345,664	66,196	0,075	0,055
-344,650	-93,279	0,162	-0,032
-343,635	-200,000	-0,032	-0,124
-342,620	179,910	0,053	-0,057
-341,606	-42,170	-0,122	0,045
-340,591	716,492	-0,032	0,062
-339,577	-51,991	-0,062	0,021
-338,562	-58,611	-0,061	-0,019
-337,548	-200,000	0,032	-0,158
-336,533	749,847	0,043	0,085
-335,518	-3,368	0,120	-0,060
-334,504	800,000	0,027	0,085
-333,489	-200,000	-0,005	0,111
-332,475	46,978	0,033	-0,022
-331,460	-72,157	0,114	-0,031
-330,445	-33,676	0,046	-0,018
-329,431	126,865	0,096	0,088
-328,416	100,767	0,039	0,033
-327,402	12,549	-0,064	-0,036
-326,387	-60,555	-0,036	0,011
-325,372	81,256	-0,115	-0,090
-324,358	-200,000	-0,037	-0,153
-323,343	237,773	-0,073	0,088
-322,329	-23,994	0,041	0,018
-321,314	-75,997	0,190	-0,048
-320,299	110,686	-0,047	-0,041
-319,285	-152,517	-0,079	-0,004
-318,270	-200,000	0,018	-0,067
-317,256	569,717	0,039	-0,068
-316,241	156,678	-0,005	-0,005
-315,226	700,382	0,045	0,086
-314,212	-200,000	0,037	0,164
-313,197	122,002	-0,057	0,052
-312,183	797,022	0,042	-0,084
-311,168	-200,000	0,024	-0,086
-310,153	79,461	-0,092	0,071
-309,139	-108,549	0,016	-0,002
-308,124	-87,478	0,060	0,013
-307,110	327,185	0,069	0,096
-306,095	29,575	-0,052	0,032
-305,080	-200,000	0,019	0,115
-304,066	166,575	-0,068	-0,070
-303,051	330,227	-0,073	-0,102
-302,037	-158,808	0,016	-0,001
-301,022	-77,612	0,015	-0,004
-300,008	-33,549	0,078	0,031
-298,993	-27,862	-0,124	0,052
-297,978	800,000	0,005	-0,010
-296,964	800,000	-0,030	-0,061
-295,949	13,974	-0,084	-0,047
-294,935	454,107	-0,062	0,100
-293,920	241,835	-0,032	0,039
-292,905	67,304	0,036	0,027
-291,891	500,303	-0,050	0,083
-290,876	-26,560	-0,064	0,027
-289,862	-200,000	0,006	-0,115
-288,847	295,106	-0,077	-0,102
-287,832	-104,744	-0,133	0,022
-286,818	-200,000	0,010	0,233
-285,803	128,639	0,075	0,069
-284,789	-200,000	0,030	-0,108
-283,774	-142,646	0,019	-0,001
-282,759	29,732	0,075	-0,046
-281,745	468,291	-0,121	-0,198
-280,730	-200,000	-0,006	0,040
-279,716	183,436	-0,084	0,090
-278,701	-200,000	0,012	0,050
-277,686	-133,281	0,092	-0,008
-276,672	736,903	0,048	-0,093
-275,657	398,066	-0,054	0,081
-274,643	-3,099	-0,043	0,022
-273,628	-200,000	-0,003	0,016
-272,613	115,082	-0,118	0,104
-271,599	379,279	-0,061	0,091
-270,584	-200,000	-0,008	0,152
-269,570	800,000	0,025	0,050
-268,555	378,566	0,063	0,093
-267,540	-6,568	0,042	-0,021
-266,526	391,326	-0,088	0,133
-265,511	800,000	-0,037	-0,102
-264,497	8,841	-0,026	-0,014
-263,482	-74,617	-0,049	-0,013
-262,467	-2,731	0,153	0,077
-261,453	800,000	-0,054	-0,146
-260,438	-40,846	-0,148	0,055
-259,424	-65,108	-0,097	0,028
-258,409	-56,322	-0,082	0,026
-257,395	519,231	0,019	-0,033
-256,380	-57,783	0,059	0,018
-255,365	-200,000	-0,008	-0,088
-254,351	-17,554	-0,099	0,045
-253,336	-64,822	0,042	0,012
-252,322	41,011	-0,090	0,059
-251,307	-12,317	-0,033	-0,016
-250,292	-53,572	0,108	0,036
-249,278	-200,000	0,026	-0,153
-248,263	-26,593	0,099	-0,042
-247,249	5,432	-0,117	0,062
-246,234	-150,542	-0,085	0,005
-245,219	800,000	0,043	0,090
-244,205	149,322	-0,068	-0,067
-243,190	800,000	0,040	-0,119
-242,176	56,605	0,065	-0,046
-241,161	800,000	0,032	0,068
-240,146	-200,000	0,029	0,154
-239,132	-66,566	-0,060	-0,017
-238,117	-114,726	0,060	0,008
-237,103	800,000	-0,027	-0,064
-236,088	-90,298	-0,110	-0,023
-235,073	45,862	0,019	-0,013
-234,059	-147,297	0,052	-0,003
-233,044	-98,786	0,012	0,002
-232,030	-146,087	-0,128	-0,008
-231,015	-92,457	-0,092	0,019
-230,000	-56,209	0,083	0,026
-228,986	36,531	-0,042	-0,026
-227,971	434,339	-0,056	0,088
-226,957	1,383	0,091	-0,047
-225,942	-139,608	-0,032	0,002
-224,927	-200,000	-0,001	0,024
-223,913	114,951	-0,053	0,047
-222,898	51,752	-0,072	-0,049
-221,884	795,108	-0,018	0,036
-220,869	3,448	0,060	0,032
-219,855	800,000	0,032	0,077
-218,840	451,729	0,038	-0,060
-217,825	551,139	0,073	-0,128
-216,811	-118,047	-0,133	-0,017
-215,796	800,000	0,033	-0,072
-214,782	49,891	0,023	0,016
-213,767	-200,000	-0,001	0,037
-212,752	492,956	-0,006	-0,010
-211,738	162,173	0,072	0,073
-210,723	21,315	0,110	-0,064
-209,709	800,000	0,037	-0,087
-208,694	-34,765	-0,023	0,009
-207,679	208,142	-0,024	-0,027
-206,665	-134,529	0,082	-0,007
-205,650	90,790	0,144	0,116
-204,636	-200,000	-0,010	0,082
-203,621	146,729	0,094	0,091
-202,606	105,258	0,048	0,041
-201,592	80,464	-0,048	0,038
-200,577	-200,000	0,033	-0,138
-199,563	634,046	0,029	-0,053
-198,548	-108,804	0,202	0,031
-197,533	-131,276	0,048	-0,005
-196,519	12,048	0,129	0,072
-195,504	74,357	-0,096	-0,073
-194,490	-200,000	0,001	0,010
-193,475	37,684	-0,111	0,071
-192,460	-200,000	-0,017	-0,071
-191,446	62,844	-0,027	0,019
-190,431	185,568	0,085	0,092
-189,417	800,000	0,019	0,050
-188,402	-200,000	0,015	-0,068
-187,387	800,000	0,009	-0,019
-186,373	-41,071	0,045	0,017
-185,358	-92,755	0,076	-0,015
-184,344	-71,354	0,061	-0,016
-183,329	110,825	-0,079	0,068
-182,315	-200,000	-0,014	-0,077
-181,300	702,103	0,046	-0,088
-180,285	-97,757	0,011	0,002
-179,271	197,290	0,038	-0,042
-178,256	-144,633	0,099	0,006
-177,242	-9,509	0,085	0,041
-176,227	-58,751	-0,070	-0,022
-175,212	698,968	-0,028	-0,054
-174,198	-61,160	0,098	-0,030
-173,183	-152,263	-0,104	-0,005
-172,169	-110,473	-0,077	-0,011
-171,154	1,502	-0,125	0,065
-170,139	-84,118	0,062	0,014
-169,125	-26,090	0,089	0,038
-168,110	-43,897	0,047	0,017
-167,096	-44,297	0,006	0,002
-166,081	123,224	0,045	0,041
-165,066	-122,669	-0,097	0,011
-164,052	800,000	-0,049	-0,141
-163,037	620,379	-0,028	-0,051
-162,023	-52,278	0,071	0,024
-161,008	124,435	-0,023	0,021
-159,993	64,251	0,079	0,057
-158,979	8,783	-0,111	0,060
-157,964	800,000	-0,028	-0,063
-156,950	-61,465	-0,038	0,012
-155,935	-119,393	0,080	0,010
-154,920	231,163	-0,075	-0,088
-153,906	-200,000	-0,017	-0,088
-152,891	-200,000	-0,005	-0,052
-151,877	800,000	-0,051	-0,147
-150,862	91,250	0,099	0,080
-149,847	460,208	-0,049	0,078
-148,833	-31,921	0,168	0,067
-147,818	261,104	0,028	-0,035
-146,804	-200,000	-0,005	-0,055
-145,789	-200,000	0,006	0,074
-144,775	-200,000	0,003	0,041
-143,760	-149,207	-0,067	-0,004
-142,745	-118,574	-0,139	-0,018
-141,731	-200,000	0,022	-0,073
-140,716	-200,000	0,010	0,036
-139,702	800,000	0,086	0,173
-138,687	-168,159	0,091	-0,002
-137,672	-60,739	-0,112	0,034
-136,658	800,000	-0,008	-0,022
-135,643	-141,793	-0,100	-0,007
-134,629	14,214	-0,126	-0,071
-133,614	-27,147	0,042	-0,018
-132,599	-35,401	-0,111	-0,043
-131,585	-200,000	-0,007	0,046
-130,570	800,000	-0,061	-0,126
-129,556	-2,383	-0,040	-0,020
-128,541	-200,000	0,020	-0,180
-127,526	-200,000	-0,030	-0,180
-126,512	800,000	0,076	-0,196
-125,497	-147,404	-0,057	0,003
-124,483	41,498	0,019	-0,012
-123,468	800,000	0,032	0,076
-122,453	385,089	-0,094	-0,140
-121,439	-200,000	-0,004	0,039
-120,424	-200,000	0,001	-0,170
-119,410	-24,846	0,062	0,026
-118,395	711,084	0,064	0,122
