DTS Sentinel unit serial number:	SN410029Multiplexer serial number:	ORYXHardware model number:	OX2-SRSoftware version number:	ORYX F/W v4,00 Oryx Data Collector v3.7.2.0data status	okinstallation	B5 Nyhavnadifferential loss correction	single-endedforward channel	channel 2reverse channel	N/Adate	2023/12/14time	06:37:13forward acquisition time	300,00reverse acquisition time	0,00gamma	499,1914k internal	0,3158k external	0,3158temperature offset calibration	1,0000default loss term (dB/km)	0,3820temperature slope calibration	1,0000multiplexer offset coefficient	1,0000multiplexer slope coefficient	1,0000fibre end	0,00T internal ref (°C)	7,42T ext. ref 1 (°C)	-9,09T ext. ref 2 (°C)	-9,16length (m)	temperature (°C)	Stokes	anti-Stokes-744,400	95,982	0,103	0,087
-743,385	4,853	-0,369	-0,199
-742,371	-6,347	0,180	0,090
-741,356	-161,209	-0,303	-0,011
-740,342	800,000	0,065	0,141
-739,327	-156,305	-0,296	-0,013
-738,312	-64,630	0,121	0,036
-737,298	-20,631	-0,387	-0,174
-736,283	53,166	0,266	0,187
-735,269	-137,389	-0,348	-0,029
-734,254	-25,549	0,269	0,117
-733,239	-28,289	-0,604	-0,256
-732,225	-12,357	0,238	0,114
-731,210	-43,602	0,125	0,046
-730,196	40,070	-0,046	-0,030
-729,181	49,055	0,041	-0,028
-728,167	-116,701	-0,120	-0,016
-727,152	-81,608	-0,168	0,040
-726,137	229,415	-0,052	-0,063
-725,123	800,000	-0,027	-0,069
-724,108	122,877	-0,139	-0,128
-723,094	173,516	-0,090	-0,096
-722,079	-147,165	-0,207	-0,013
-721,064	-100,919	-0,053	-0,010
-720,050	108,156	-0,097	0,086
-719,035	87,821	-0,060	0,049
-718,021	-75,262	-0,179	-0,047
-717,006	800,000	0,047	0,099
-715,991	-148,942	-0,181	-0,011
-714,977	-200,000	0,024	-0,256
-713,962	-74,834	-0,093	-0,024
-712,948	36,002	-0,008	0,005
-711,933	-38,860	0,016	0,006
-710,918	327,982	0,043	-0,062
-709,904	-200,000	-0,012	-0,044
-708,889	75,799	-0,100	-0,078
-707,875	-22,943	-0,077	-0,034
-706,860	-24,023	-0,041	0,018
-705,845	-200,000	-0,021	-0,082
-704,831	104,703	0,157	0,136
-703,816	-200,000	-0,010	0,099
-702,802	-200,000	0,006	-0,032
-701,787	-200,000	-0,017	-0,105
-700,772	326,677	-0,050	-0,071
-699,758	-32,704	0,034	0,014
-698,743	-20,379	0,087	0,039
-697,729	-141,876	0,059	-0,004
-696,714	579,502	-0,043	0,078
-695,699	800,000	-0,039	-0,123
-694,685	142,565	0,044	-0,043
-693,670	-89,729	-0,231	0,049
-692,656	164,626	-0,062	-0,065
-691,641	-55,051	0,033	-0,011
-690,627	800,000	-0,037	0,112
-689,612	-200,000	0,020	0,079
-688,597	121,118	-0,040	0,036
-687,583	7,367	-0,116	-0,064
-686,568	-53,411	0,024	-0,008
-685,554	138,765	-0,055	0,053
-684,539	-11,408	0,154	-0,074
-683,524	-200,000	0,006	-0,025
-682,510	-200,000	0,038	-0,125
-681,495	61,481	-0,068	-0,049
-680,481	-142,383	-0,097	0,007
-679,466	-73,916	-0,020	0,005
-678,451	-16,543	-0,128	-0,059
-677,437	238,756	-0,057	-0,070
-676,422	252,832	0,045	0,056
-675,408	-200,000	0,007	0,277
-674,393	-51,936	-0,071	0,024
-673,378	48,080	-0,088	-0,060
-672,364	78,055	-0,164	-0,128
-671,349	5,110	-0,152	-0,082
-670,335	-45,904	0,018	-0,007
-669,320	-28,044	0,079	0,034
-668,305	245,788	0,030	0,037
-667,291	800,000	-0,011	-0,033
-666,276	22,250	-0,150	-0,090
-665,262	-200,000	0,000	-0,077
-664,247	-174,993	0,115	0,002
-663,232	-125,168	-0,139	-0,015
-662,218	138,522	0,081	0,078
-661,203	800,000	-0,047	-0,132
-660,189	-97,152	0,188	-0,036
-659,174	461,296	-0,046	-0,076
-658,159	-124,803	-0,064	0,007
-657,145	-200,000	0,009	-0,077
-656,130	160,273	-0,018	0,018
-655,116	113,368	0,018	-0,016
-654,101	-52,625	0,084	-0,028
-653,086	344,363	-0,048	0,070
-652,072	-114,082	-0,126	-0,018
-651,057	17,134	0,091	0,053
-650,043	499,072	-0,083	-0,140
-649,028	-166,447	0,028	-0,001
-648,014	207,852	0,062	0,071
-646,999	-102,352	-0,073	0,013
-645,984	19,637	0,166	-0,098
-644,970	-200,000	-0,024	-0,154
-643,955	-31,853	-0,095	-0,039
-642,941	-104,717	-0,178	-0,030
-641,926	-200,000	-0,033	0,109
-640,911	-200,000	0,007	-0,134
-639,897	-200,000	-0,024	0,082
-638,882	400,219	-0,113	0,174
-637,868	-123,963	0,140	-0,016
-636,853	288,946	-0,040	-0,053
-635,838	131,773	-0,074	-0,070
-634,824	793,993	-0,062	-0,126
-633,809	212,614	0,011	-0,013
-632,795	800,000	0,023	0,059
-631,780	78,205	0,028	0,022
-630,765	-200,000	0,017	-0,176
-629,751	-195,981	0,034	-0,000
-628,736	-80,319	0,068	0,017
-627,722	-33,808	-0,012	0,005
-626,707	-200,000	0,016	0,095
-625,692	477,685	0,054	0,090
-624,678	-4,944	-0,133	-0,067
-623,663	417,778	0,024	-0,037
-622,649	145,585	-0,049	-0,048
-621,634	609,330	0,035	-0,064
-620,619	-200,000	0,004	-0,027
-619,605	-135,266	0,075	-0,007
-618,590	433,360	0,010	0,016
-617,576	184,518	-0,062	-0,067
-616,561	800,000	0,039	-0,112
-615,546	33,842	-0,107	-0,068
-614,532	13,694	0,108	0,061
-613,517	-18,638	-0,089	0,041
-612,503	-200,000	-0,003	0,029
-611,488	723,160	0,080	0,156
-610,474	-11,402	0,049	0,023
-609,459	800,000	-0,065	-0,141
-608,444	490,970	0,078	-0,131
-607,430	662,000	-0,033	-0,063
-606,415	-200,000	0,006	-0,091
-605,401	800,000	0,009	-0,021
-604,386	369,032	-0,019	-0,028
-603,371	800,000	0,011	0,032
-602,357	-189,082	-0,029	0,000
-601,342	-200,000	-0,016	0,169
-600,328	228,249	-0,009	0,011
-599,313	-142,734	-0,120	0,008
-598,298	101,295	0,071	0,061
-597,284	255,653	0,076	-0,096
-596,269	20,487	0,140	0,083
-595,255	-59,289	-0,117	0,037
-594,240	-28,769	-0,077	0,032
-593,225	258,157	-0,016	-0,021
-592,211	129,498	-0,061	0,057
-591,196	-144,409	-0,131	0,009
-590,182	800,000	0,007	-0,017
-589,167	-79,382	0,083	0,020
-588,152	171,817	-0,107	0,113
-587,138	669,221	0,054	0,104
-586,123	-23,346	0,044	-0,019
-585,109	620,664	0,049	-0,091
-584,094	800,000	-0,027	-0,085
-583,079	-101,125	-0,054	0,010
-582,065	800,000	-0,025	-0,061
-581,050	-133,478	0,055	-0,005
-580,036	-1,976	0,084	-0,043
-579,021	268,283	-0,040	-0,052
-578,006	800,000	0,009	-0,019
-576,992	243,493	-0,035	-0,043
-575,977	-200,000	-0,004	-0,055
-574,963	-200,000	0,032	-0,163
-573,948	643,582	0,068	-0,127
-572,934	20,593	0,044	-0,026
-571,919	-164,091	0,103	-0,003
-570,904	-182,939	-0,265	0,003
-569,890	389,367	0,094	-0,143
-568,875	800,000	0,031	0,076
-567,861	186,213	0,052	0,057
-566,846	-200,000	-0,010	0,046
-565,831	-95,893	-0,173	0,033
-564,817	-64,700	-0,105	-0,031
-563,802	-149,336	-0,117	0,007
-562,788	222,389	0,010	-0,012
-561,773	-180,716	-0,061	0,001
-560,758	-200,000	-0,010	0,137
-559,744	-200,000	-0,003	0,136
-558,729	-71,610	0,005	-0,001
-557,715	100,635	0,030	-0,025
-556,700	329,283	0,044	0,062
-555,685	260,031	0,078	-0,099
-554,671	-200,000	0,006	0,020
-553,656	44,501	0,139	0,093
-552,642	-29,771	0,064	0,026
-551,627	204,183	-0,052	0,059
-550,612	570,307	-0,060	0,106
-549,598	800,000	0,009	-0,025
-548,583	67,739	-0,005	-0,003
-547,569	-200,000	0,017	0,088
-546,554	11,362	0,075	-0,042
-545,539	800,000	0,059	-0,121
-544,525	-200,000	0,016	0,108
-543,510	-169,355	-0,155	-0,004
-542,496	800,000	0,072	-0,196
-541,481	-54,803	-0,031	0,010
-540,466	-91,104	0,124	-0,026
-539,452	212,823	0,028	-0,032
-538,437	-200,000	0,015	-0,083
-537,423	-200,000	0,025	-0,102
-536,408	-0,559	-0,089	0,046
-535,393	29,893	0,022	-0,014
-534,379	-103,931	-0,025	0,004
-533,364	57,423	0,052	-0,037
-532,350	175,751	0,071	0,076
-531,335	800,000	-0,006	-0,020
-530,321	141,511	0,121	0,117
-529,306	319,685	0,095	0,132
-528,291	501,667	0,050	-0,086
-527,277	101,733	0,059	-0,050
-526,262	-200,000	-0,013	-0,164
-525,248	-200,000	-0,011	0,201
-524,233	445,416	-0,117	0,188
-523,218	380,446	0,031	-0,047
-522,204	259,790	0,027	-0,035
-521,189	388,580	-0,083	-0,125
-520,175	800,000	0,030	0,065
-519,160	251,778	-0,041	-0,051
-518,145	591,871	0,083	0,150
-517,131	-200,000	-0,008	-0,050
-516,116	237,542	0,056	0,068
-515,102	126,697	-0,084	0,078
-514,087	-131,300	-0,047	0,004
-513,072	784,299	-0,039	-0,079
-512,058	685,209	0,030	0,057
-511,043	-200,000	0,016	-0,119
-510,029	-200,000	0,006	0,049
-509,014	800,000	-0,035	0,084
-507,999	-63,924	0,106	0,031
-506,985	-141,971	-0,139	0,010
-505,970	-117,955	-0,042	-0,005
-504,956	800,000	0,012	-0,026
-503,941	273,708	0,057	0,073
-502,926	64,244	0,078	-0,058
-501,912	-29,154	-0,031	0,013
-500,897	-87,459	-0,044	-0,010
-499,883	800,000	0,024	-0,069
-498,868	5,236	-0,073	0,039
-497,853	-200,000	-0,016	-0,071
-496,839	-97,181	-0,056	0,011
-495,824	-67,674	0,127	0,036
-494,810	-68,316	0,026	0,007
-493,795	737,962	-0,017	-0,033
-492,781	147,405	-0,006	0,006
-491,766	800,000	0,036	0,080
-490,751	389,280	-0,041	-0,062
-489,737	-200,000	-0,002	-0,049
-488,722	38,830	0,123	0,080
-487,708	37,660	0,026	-0,017
-486,693	-200,000	0,008	0,163
-485,678	-73,098	-0,026	-0,007
-484,664	800,000	-0,024	-0,076
-483,649	800,000	-0,041	-0,118
-482,635	210,453	-0,069	0,079
-481,620	800,000	-0,034	-0,098
-480,605	200,440	-0,046	0,051
-479,591	533,143	-0,027	0,047
-478,576	90,915	-0,157	-0,128
-477,562	-85,201	-0,063	0,014
-476,547	-190,109	0,086	0,001
-475,532	-130,320	0,172	-0,017
-474,518	-183,762	0,087	-0,001
-473,503	-71,721	-0,063	0,017
-472,489	-200,000	0,042	0,200
-471,474	-200,000	-0,166	0,000
-470,459	800,000	0,055	-0,114
-469,445	-39,753	-0,173	0,066
-468,430	-140,985	-0,134	-0,010
-467,416	-126,598	0,159	-0,017
-466,401	-200,000	-0,015	-0,134
-465,386	-200,000	-0,008	-0,155
-464,372	800,000	0,058	0,159
-463,357	64,030	-0,062	0,045
-462,343	-200,000	-0,004	0,120
-461,328	800,000	0,021	0,058
-460,313	-61,453	0,092	-0,028
-459,299	-200,000	0,020	0,147
-458,284	320,827	0,120	0,167
-457,270	-200,000	0,009	0,198
-456,255	-200,000	0,017	-0,080
-455,241	-46,396	-0,057	0,020
-454,226	-87,015	-0,065	0,014
-453,211	-89,069	0,090	0,019
-452,197	22,964	0,116	0,069
-451,182	-41,764	0,087	0,032
-450,168	599,756	0,052	0,094
-449,153	12,465	-0,029	-0,016
-448,138	-200,000	0,011	-0,041
-447,124	465,363	-0,045	-0,074
-446,109	-200,000	-0,014	-0,120
-445,095	-8,445	-0,037	-0,018
-444,080	149,726	0,055	-0,054
-443,065	-2,070	0,050	-0,026
-442,051	65,642	-0,043	0,031
-441,036	200,924	0,067	-0,075
-440,022	-157,098	-0,068	0,003
-439,007	-200,000	-0,009	0,035
-437,992	-145,758	0,066	0,004
-436,978	-164,441	0,031	0,001
-435,963	115,677	0,013	-0,012
-434,949	-200,000	-0,019	0,134
-433,934	-200,000	0,022	-0,113
-432,919	270,184	-0,079	-0,101
-431,905	-200,000	-0,016	0,107
-430,890	-57,191	0,070	0,022
-429,876	-132,095	-0,090	-0,008
-428,861	69,435	0,101	0,076
-427,846	-200,000	-0,001	0,081
-426,832	800,000	-0,035	0,080
-425,817	-200,000	-0,023	-0,101
-424,803	147,794	0,169	0,166
-423,788	-200,000	-0,023	-0,129
-422,773	226,951	0,033	-0,039
-421,759	-44,352	0,124	0,045
-420,744	-68,441	-0,100	-0,028
-419,730	-200,000	-0,002	0,044
-418,715	335,225	-0,069	-0,097
-417,701	-200,000	-0,003	-0,116
-416,686	-200,000	0,009	-0,092
-415,671	-200,000	-0,016	0,052
-414,657	-51,278	-0,087	0,029
-413,642	280,188	-0,041	-0,053
-412,628	-85,165	0,187	0,042
-411,613	-200,000	-0,004	-0,236
-410,598	-200,000	-0,028	-0,173
-409,584	-200,000	0,005	0,036
-408,569	-104,709	0,074	0,012
-407,555	110,459	-0,022	0,019
-406,540	440,948	0,023	0,037
-405,525	-200,000	0,039	-0,145
-404,511	800,000	-0,026	-0,073
-403,496	7,038	-0,043	-0,023
-402,482	-76,872	0,018	-0,005
-401,467	66,404	0,047	0,035
-400,452	96,548	0,055	0,046
-399,438	132,575	-0,094	-0,088
-398,423	-200,000	0,023	0,113
-397,409	-48,581	-0,126	0,044
-396,394	160,666	0,053	-0,054
-395,379	-17,831	-0,104	0,047
-394,365	800,000	0,028	0,074
-393,350	800,000	0,014	0,038
-392,336	-52,777	-0,045	0,015
-391,321	-29,927	0,028	0,011
-390,306	-200,000	-0,015	-0,108
-389,292	800,000	-0,039	-0,094
-388,277	-104,891	-0,182	-0,030
-387,263	-88,608	0,056	-0,012
-386,248	-38,583	0,112	0,043
-385,233	10,723	0,016	0,009
-384,219	-86,018	-0,119	-0,027
-383,204	-200,000	-0,006	-0,056
-382,190	27,488	-0,081	0,049
-381,175	-200,000	-0,007	0,045
-380,160	584,125	0,030	-0,054
-379,146	268,806	-0,037	0,047
-378,131	800,000	0,033	-0,094
-377,117	-200,000	0,000	0,080
-376,102	800,000	0,035	-0,074
-375,088	780,597	-0,033	-0,066
-374,073	-200,000	0,020	0,074
-373,058	42,095	-0,064	0,042
-372,044	-46,901	0,070	0,025
-371,029	203,048	-0,113	0,127
-370,015	-200,000	0,015	-0,080
-369,000	800,000	-0,059	-0,180
-367,985	303,696	-0,062	-0,083
-366,971	-175,023	0,037	-0,001
-365,956	259,748	0,089	-0,112
-364,942	-200,000	0,012	0,059
-363,927	-200,000	-0,018	0,092
-362,912	393,979	0,053	-0,080
-361,898	-200,000	0,003	-0,055
-360,883	432,452	0,024	-0,038
-359,869	800,000	0,058	-0,153
-358,854	-47,440	-0,100	0,035
-357,839	21,161	0,052	0,031
-356,825	-88,880	-0,037	-0,008
-355,810	-178,977	0,038	-0,001
-354,796	-200,000	-0,021	0,084
-353,781	-162,000	0,085	0,003
-352,766	-113,814	-0,110	-0,015
-351,752	584,201	-0,032	0,057
-350,737	25,718	0,148	0,089
-349,723	-96,202	-0,119	-0,023
-348,708	-110,681	-0,147	-0,022
-347,693	-200,000	-0,034	-0,141
-346,679	800,000	-0,060	-0,190
-345,664	-200,000	-0,010	-0,209
-344,650	800,000	-0,023	0,058
-343,635	-18,019	0,024	0,011
-342,620	-87,913	0,091	0,020
-341,606	-200,000	0,007	-0,121
-340,591	132,313	0,011	0,010
-339,577	240,116	0,062	0,075
-338,562	106,621	-0,062	-0,053
-337,548	129,339	0,033	0,030
-336,533	-200,000	0,003	-0,029
-335,518	-118,379	-0,076	0,010
-334,504	-200,000	0,009	-0,053
-333,489	800,000	0,078	-0,163
-332,475	-25,903	0,068	0,029
-331,460	397,810	-0,064	0,097
-330,445	-79,561	-0,066	0,016
-329,431	-200,000	-0,011	0,036
-328,416	800,000	-0,062	-0,184
-327,402	800,000	0,025	0,069
-326,387	-131,801	0,061	0,006
-325,372	-200,000	-0,006	0,048
-324,358	-48,301	-0,145	-0,050
-323,343	-200,000	0,016	-0,139
-322,329	-200,000	0,014	0,073
-321,314	-92,033	-0,049	0,010
-320,299	-45,740	0,216	0,077
-319,285	-35,053	0,021	0,008
-318,270	58,519	0,072	-0,051
-317,256	18,529	0,055	0,032
-316,241	-107,424	-0,026	0,004
-315,226	-70,655	-0,178	-0,048
-314,212	-110,012	0,026	0,004
-313,197	-154,562	0,085	-0,004
-312,183	63,152	-0,040	-0,029
-311,168	168,135	-0,087	0,089
-310,153	-9,545	0,074	0,036
-309,139	28,266	-0,166	-0,101
-308,124	-70,035	0,056	-0,015
-307,110	800,000	-0,034	0,075
-306,095	800,000	0,039	-0,087
-305,080	-112,808	-0,085	0,012
-304,066	-200,000	0,009	0,095
-303,051	-200,000	0,000	0,091
-302,037	-200,000	0,014	0,063
-301,022	-200,000	0,002	-0,081
-300,008	-200,000	-0,012	0,158
-298,993	-200,000	0,003	0,065
-297,978	-96,713	-0,091	-0,017
-296,964	800,000	0,089	0,193
-295,949	800,000	-0,038	-0,108
-294,935	800,000	0,042	-0,089
-293,920	102,250	0,078	0,066
-292,905	-88,272	-0,030	-0,006
-291,891	800,000	-0,056	0,141
-290,876	-113,626	-0,060	0,008
-289,862	75,354	0,056	0,043
-288,847	-200,000	0,006	0,142
-287,832	696,951	0,055	-0,104
-286,818	800,000	-0,050	-0,124
-285,803	-200,000	0,012	-0,110
-284,789	-22,382	0,056	0,025
-283,774	-86,674	0,167	0,037
-282,759	516,776	-0,060	-0,102
-281,745	-200,000	-0,000	-0,017
-280,730	257,515	0,014	-0,017
-279,716	-99,236	-0,145	-0,026
-278,701	-200,000	0,013	-0,074
-277,686	516,371	-0,076	0,129
-276,672	-200,000	-0,052	0,187
-275,657	-74,093	0,152	-0,040
-274,643	-46,983	-0,096	-0,034
-273,628	497,971	-0,079	-0,132
-272,613	-114,480	0,062	-0,008
-271,599	13,350	0,081	0,045
-270,584	-44,483	-0,099	-0,036
-269,570	-111,476	-0,031	0,005
-268,555	498,924	0,091	0,152
-267,540	-200,000	-0,020	-0,089
-266,526	202,595	0,078	0,087
-265,511	182,021	0,092	-0,098
-264,497	328,703	-0,038	0,053
-263,482	-200,000	0,024	0,095
-262,467	-200,000	0,004	0,131
-261,453	800,000	0,016	0,050
-260,438	-200,000	-0,022	-0,077
-259,424	126,287	0,146	0,134
-258,409	-55,591	0,111	-0,036
-257,395	-47,886	-0,081	0,028
-256,380	110,336	0,080	0,070
-255,365	188,869	-0,116	0,126
-254,351	-45,699	0,020	0,007
-253,336	-113,165	-0,083	-0,012
-252,322	-200,000	-0,010	0,032
-251,307	-154,721	-0,082	-0,004
-250,292	-49,274	-0,039	0,013
-249,278	-10,574	0,146	0,070
-248,263	-95,646	0,138	-0,027
-247,249	-27,639	0,084	0,035
-246,234	-133,957	-0,122	-0,011
-245,219	5,898	-0,039	-0,021
-244,205	800,000	0,036	-0,076
-243,190	-81,855	0,028	-0,007
-242,176	22,023	0,107	0,063
-241,161	800,000	-0,045	0,095
-240,146	211,246	0,050	-0,058
-239,132	389,545	-0,021	0,031
-238,117	-200,000	0,026	-0,122
-237,103	-200,000	-0,005	-0,093
-236,088	133,641	0,104	-0,097
-235,073	-200,000	-0,004	0,057
-234,059	426,215	0,024	-0,038
-233,044	186,306	0,028	0,030
-232,030	500,716	-0,032	-0,053
-231,015	-200,000	0,014	0,057
-230,000	-65,873	-0,099	0,028
-228,986	48,288	0,041	-0,028
-227,971	234,097	0,028	0,034
-226,957	800,000	-0,016	0,036
-225,942	-200,000	-0,020	0,143
-224,927	800,000	-0,004	0,009
-223,913	-200,000	0,013	-0,060
-222,898	-79,797	-0,100	-0,024
-221,884	-200,000	-0,010	-0,070
-220,869	-200,000	0,021	0,070
-219,855	-146,579	-0,193	-0,012
-218,840	800,000	0,017	0,035
-217,825	151,229	0,033	-0,033
-216,811	800,000	-0,038	0,085
-215,796	-200,000	0,003	-0,061
-214,782	713,258	0,035	0,067
-213,767	29,732	-0,092	-0,056
-212,752	535,670	-0,052	0,090
-211,738	741,814	0,023	-0,045
-210,723	-57,095	-0,051	0,016
-209,709	601,195	-0,006	-0,011
-208,694	800,000	0,020	0,051
-207,679	120,861	-0,103	0,093
-206,665	-200,000	0,024	0,102
-205,650	503,661	0,039	-0,065
-204,636	230,907	0,042	-0,049
-203,621	-35,587	-0,079	0,031
-202,606	-200,000	-0,021	-0,108
-201,592	-200,000	-0,028	-0,124
-200,577	2,042	-0,076	0,040
-199,563	-200,000	0,014	0,168
-198,548	-200,000	0,003	0,041
-197,533	20,574	0,178	0,104
-196,519	-200,000	-0,031	0,176
-195,504	-5,414	-0,053	-0,026
-194,490	455,742	-0,060	0,096
-193,475	-151,362	-0,126	-0,007
-192,460	-200,000	-0,005	0,059
-191,446	318,940	0,054	0,074
-190,431	-43,624	0,162	-0,058
-189,417	800,000	-0,034	-0,108
-188,402	-32,477	0,078	0,031
-187,387	127,459	-0,123	0,113
-186,373	-68,671	0,128	0,036
-185,358	95,572	0,005	0,004
-184,344	185,269	0,102	-0,109
-183,329	48,870	-0,064	-0,043
-182,315	403,210	0,017	0,027
-181,300	-200,000	-0,001	0,040
-180,285	73,190	-0,050	-0,038
-179,271	288,091	-0,054	0,071
-178,256	192,159	0,055	-0,059
-177,242	800,000	-0,022	0,048
-176,227	169,365	0,114	-0,117
-175,212	-200,000	-0,027	-0,089
-174,198	-200,000	0,002	0,100
-173,183	394,967	0,028	-0,042
-172,169	166,734	-0,077	-0,078
-171,154	108,351	0,089	-0,076
-170,139	32,611	-0,068	-0,042
-169,125	121,746	0,037	0,033
-168,110	-200,000	0,029	0,096
-167,096	-60,119	0,006	0,002
-166,081	335,031	0,043	0,061
-165,066	800,000	-0,014	0,041
-164,052	-200,000	-0,012	-0,042
-163,037	-98,889	-0,092	0,017
-162,023	229,022	0,046	-0,054
-161,008	370,178	0,092	-0,135
-159,993	800,000	0,035	0,077
-158,979	174,474	-0,045	0,047
-157,964	-104,354	0,092	0,015
-156,950	219,144	-0,016	-0,019
-155,935	-200,000	0,021	0,098
-154,920	-40,721	-0,097	-0,036
-153,906	-74,879	-0,115	-0,029
-152,891	-200,000	0,005	-0,037
-151,877	156,583	0,035	0,035
-150,862	-200,000	-0,030	-0,135
-149,847	-41,080	-0,129	0,048
-148,833	800,000	-0,015	-0,046
-147,818	-200,000	-0,019	0,140
-146,804	-52,062	0,128	-0,043
-145,789	127,015	-0,045	0,041
-144,775	-200,000	-0,003	-0,100
-143,760	-200,000	0,001	-0,043
-142,745	187,769	0,034	-0,036
-141,731	101,331	-0,050	0,042
-140,716	644,116	-0,021	-0,039
-139,702	237,946	0,075	0,090
-138,687	502,957	-0,059	0,098
-137,672	-83,834	-0,115	-0,026
-136,658	282,886	0,081	0,105
-135,643	709,598	-0,076	-0,146
-134,629	-68,734	0,083	0,023
-133,614	654,544	0,014	-0,026
-132,599	800,000	0,071	0,200
-131,585	-121,856	0,113	0,013
-130,570	-96,654	-0,032	0,006
-129,556	53,241	-0,064	-0,044
-128,541	104,334	-0,072	-0,061
-127,526	136,342	0,105	0,099
-126,512	271,334	0,080	0,102
-125,497	-117,138	0,101	-0,013
-124,483	9,716	-0,102	0,056
-123,468	750,941	0,065	0,127
-122,453	374,550	-0,013	0,019
-121,439	-200,000	0,018	-0,125
-120,424	-111,152	-0,142	-0,021
