DTS Sentinel unit serial number:	SN410029Multiplexer serial number:	ORYXHardware model number:	OX2-SRSoftware version number:	ORYX F/W v4,00 Oryx Data Collector v3.7.2.0data status	okinstallation	B5 Nyhavnadifferential loss correction	single-endedforward channel	channel 2reverse channel	N/Adate	2023/12/12time	08:37:13forward acquisition time	300,00reverse acquisition time	0,00gamma	499,1914k internal	0,3158k external	0,3158temperature offset calibration	1,0000default loss term (dB/km)	0,3820temperature slope calibration	1,0000multiplexer offset coefficient	1,0000multiplexer slope coefficient	1,0000fibre end	0,00T internal ref (°C)	15,06T ext. ref 1 (°C)	-1,27T ext. ref 2 (°C)	-1,57length (m)	temperature (°C)	Stokes	anti-Stokes-744,400	-136,641	0,110	-0,009
-743,385	-99,295	-0,267	-0,049
-742,371	800,000	0,060	0,147
-741,356	-87,022	-0,329	0,073
-740,342	139,102	0,143	0,139
-739,327	-106,608	-0,137	-0,022
-738,312	-50,875	0,039	0,013
-737,298	-89,516	-0,266	-0,057
-736,283	8,843	-0,034	0,019
-735,269	-98,485	-0,252	-0,047
-734,254	51,106	0,059	-0,041
-733,239	-42,028	-0,584	-0,219
-732,225	-4,786	0,060	-0,031
-731,210	147,323	0,053	-0,053
-730,196	62,458	0,069	-0,051
-729,181	-200,000	0,016	0,164
-728,167	108,566	0,071	0,062
-727,152	-200,000	0,018	-0,102
-726,137	47,831	-0,003	-0,002
-725,123	-68,383	-0,129	-0,037
-724,108	-37,745	-0,154	-0,060
-723,094	-90,359	-0,098	0,021
-722,079	42,536	-0,142	-0,095
-721,064	-123,484	0,154	0,018
-720,050	-24,669	-0,046	-0,020
-719,035	-200,000	-0,006	0,028
-718,021	57,188	-0,089	-0,064
-717,006	-180,246	0,040	-0,001
-715,991	-78,758	-0,092	0,023
-714,977	228,644	-0,051	-0,061
-713,962	-82,388	0,126	0,030
-712,948	196,720	0,070	0,079
-711,933	-51,634	-0,088	-0,030
-710,918	765,340	-0,010	0,019
-709,904	133,726	-0,108	-0,103
-708,889	-129,258	-0,108	-0,011
-707,875	800,000	-0,032	-0,095
-706,860	-200,000	0,010	-0,190
-705,845	572,981	0,109	-0,196
-704,831	-42,842	0,054	0,020
-703,816	119,165	-0,096	0,088
-702,802	69,940	0,134	-0,102
-701,787	-21,787	-0,055	-0,024
-700,772	433,867	0,020	0,032
-699,758	274,588	-0,071	-0,093
-698,743	-200,000	-0,004	0,016
-697,729	309,879	-0,055	0,075
-696,714	-200,000	0,000	0,122
-695,699	-99,515	-0,026	-0,005
-694,685	-200,000	0,000	-0,085
-693,670	8,566	-0,104	-0,057
-692,656	-200,000	0,021	-0,124
-691,641	350,474	-0,096	0,140
-690,627	345,608	-0,058	-0,084
-689,612	-12,116	-0,071	-0,034
-688,597	266,166	-0,119	0,154
-687,583	157,318	-0,029	-0,030
-686,568	131,534	0,088	0,083
-685,554	100,332	0,093	0,079
-684,539	426,132	0,065	-0,103
-683,524	-66,526	-0,048	-0,014
-682,510	-200,000	-0,004	-0,065
-681,495	-184,796	-0,136	-0,002
-680,481	571,588	0,047	0,084
-679,466	427,185	-0,105	-0,167
-678,451	253,527	-0,053	-0,067
-677,437	-200,000	-0,002	0,025
-676,422	800,000	-0,016	-0,035
-675,408	52,739	-0,074	0,052
-674,393	337,002	-0,074	-0,107
-673,378	14,577	-0,042	0,024
-672,364	537,351	-0,035	0,061
-671,349	461,454	-0,077	-0,126
-670,335	-200,000	-0,008	-0,070
-669,320	-90,511	-0,113	-0,024
-668,305	1,594	0,093	0,049
-667,291	-22,391	-0,072	-0,032
-666,276	217,930	0,058	-0,068
-665,262	58,178	-0,046	-0,033
-664,247	-200,000	0,025	-0,150
-663,232	-139,628	-0,195	-0,015
-662,218	-10,653	0,037	0,018
-661,203	207,423	0,104	0,119
-660,189	-44,662	-0,128	0,047
-659,174	89,593	-0,051	-0,042
-658,159	95,188	-0,084	0,070
-657,145	-200,000	-0,001	-0,112
-656,130	-51,538	-0,062	0,021
-655,116	-74,665	0,101	-0,027
-654,101	-35,079	-0,034	-0,014
-653,086	-200,000	0,004	0,067
-652,072	264,035	0,010	-0,012
-651,057	770,645	-0,089	-0,178
-650,043	376,041	-0,082	-0,123
-649,028	-200,000	0,012	-0,090
-648,014	162,347	-0,063	-0,065
-646,999	-200,000	-0,004	0,070
-645,984	126,794	0,058	0,054
-644,970	-200,000	-0,029	0,112
-643,955	7,162	0,017	0,009
-642,941	800,000	0,025	-0,057
-641,926	51,114	-0,067	-0,046
-640,911	800,000	-0,040	0,091
-639,897	-1,857	-0,085	-0,044
-638,882	800,000	-0,028	0,069
-637,868	298,969	0,064	0,087
-636,853	800,000	-0,088	-0,237
-635,838	-114,271	0,060	-0,008
-634,824	-176,716	-0,038	-0,001
-633,809	800,000	0,117	0,246
-632,795	-154,391	-0,023	-0,001
-631,780	-27,043	0,162	0,069
-630,765	-30,612	-0,139	0,058
-629,751	800,000	0,021	0,061
-628,736	800,000	0,024	-0,052
-627,722	-200,000	0,012	-0,063
-626,707	-200,000	-0,003	-0,081
-625,692	669,673	0,036	-0,069
-624,678	-165,157	0,127	0,004
-623,663	-58,238	0,064	0,020
-622,649	-200,000	0,011	-0,290
-621,634	-200,000	-0,001	-0,121
-620,619	93,594	-0,092	-0,077
-619,605	243,674	-0,075	0,093
-618,590	-200,000	-0,013	0,100
-617,576	287,020	0,015	0,020
-616,561	167,719	-0,037	-0,039
-615,546	-200,000	-0,023	0,147
-614,532	-177,938	-0,067	0,001
-613,517	-200,000	-0,006	-0,030
-612,503	323,654	0,017	0,024
-611,488	-111,566	-0,043	0,006
-610,474	-200,000	-0,004	0,123
-609,459	110,798	0,062	0,055
-608,444	-200,000	-0,015	-0,078
-607,430	53,784	0,092	-0,064
-606,415	180,606	0,031	0,033
-605,401	-49,430	-0,069	0,024
-604,386	65,977	0,085	-0,063
-603,371	179,787	0,053	0,057
-602,357	540,333	-0,089	0,155
-601,342	-28,788	0,050	-0,021
-600,328	449,601	0,075	-0,122
-599,313	-200,000	0,018	-0,078
-598,298	-114,997	-0,072	0,010
-597,284	-200,000	-0,002	-0,010
-596,269	243,482	0,081	-0,100
-595,255	800,000	-0,034	0,094
-594,240	-200,000	-0,003	0,020
-593,225	306,503	-0,024	0,033
-592,211	-200,000	-0,015	0,134
-591,196	-169,188	0,140	0,004
-590,182	-200,000	-0,017	0,148
-589,167	2,983	-0,069	0,036
-588,152	-200,000	-0,034	0,131
-587,138	52,044	0,080	-0,056
-586,123	800,000	-0,038	-0,094
-585,109	-200,000	0,019	0,081
-584,094	-200,000	0,016	0,078
-583,079	-79,896	-0,040	-0,010
-582,065	88,756	0,025	-0,020
-581,050	-174,814	-0,050	0,001
-580,036	800,000	0,038	0,086
-579,021	85,681	-0,153	-0,123
-578,006	800,000	0,017	-0,048
-576,992	800,000	-0,034	-0,083
-575,977	-123,847	-0,052	-0,006
-574,963	302,024	0,016	0,022
-573,948	-200,000	-0,011	-0,058
-572,934	-89,341	0,127	-0,027
-571,919	0,612	-0,082	-0,043
-570,904	800,000	-0,101	-0,210
-569,890	-200,000	-0,004	-0,072
-568,875	477,710	0,041	0,069
-567,861	-94,798	-0,056	-0,011
-566,846	708,362	-0,039	0,075
-565,831	-62,154	0,127	-0,038
-564,817	-132,060	0,038	0,004
-563,802	206,314	-0,057	0,066
-562,788	163,232	0,099	-0,102
-561,773	800,000	-0,097	0,209
-560,758	-200,000	-0,044	0,168
-559,744	800,000	-0,027	0,056
-558,729	-200,000	-0,006	0,061
-557,715	7,583	-0,119	-0,065
-556,700	-74,073	-0,130	0,034
-555,685	800,000	-0,044	0,111
-554,671	70,629	0,070	0,053
-553,656	-122,375	0,036	0,004
-552,642	-200,000	-0,031	-0,122
-551,627	44,123	0,072	0,048
-550,612	-200,000	-0,015	0,190
-549,598	-200,000	-0,015	0,076
-548,583	-194,986	0,012	0,000
-547,569	246,714	-0,031	-0,038
-546,554	-200,000	0,013	0,180
-545,539	800,000	0,079	-0,223
-544,525	596,722	-0,002	-0,003
-543,510	-200,000	-0,017	-0,123
-542,496	-200,000	-0,019	-0,207
-541,481	-98,853	0,047	-0,009
-540,466	-200,000	0,011	0,087
-539,452	304,533	-0,020	0,027
-538,437	-5,736	0,084	-0,042
-537,423	8,402	-0,049	-0,027
-536,408	109,647	-0,047	0,041
-535,393	180,316	0,055	-0,059
-534,379	-200,000	0,007	0,129
-533,364	-59,541	0,177	-0,055
-532,350	395,068	0,065	-0,099
-531,335	-31,491	-0,114	0,046
-530,321	608,975	0,033	-0,060
-529,306	-200,000	0,016	0,069
-528,291	-200,000	0,018	-0,082
-527,277	5,461	-0,055	-0,029
-526,262	70,562	0,094	0,071
-525,248	-200,000	-0,006	-0,028
-524,233	-79,220	0,121	-0,030
-523,218	-124,500	-0,007	0,001
-522,204	-200,000	0,003	0,055
-521,189	104,562	0,067	-0,057
-520,175	2,150	-0,036	-0,019
-519,160	-107,695	-0,095	0,015
-518,145	259,155	0,057	0,073
-517,131	29,201	0,033	0,020
-516,116	25,540	-0,061	0,037
-515,102	-51,424	-0,088	0,030
-514,087	21,998	0,074	-0,044
-513,072	580,860	0,028	-0,050
-512,058	233,455	0,047	0,057
-511,043	800,000	0,009	-0,024
-510,029	-200,000	0,011	0,093
-509,014	-200,000	-0,049	0,000
-507,999	-19,986	-0,033	-0,015
-506,985	4,967	0,121	-0,065
-505,970	19,441	-0,156	-0,091
-504,956	-200,000	0,006	0,033
-503,941	14,738	-0,088	0,050
-502,926	148,705	-0,016	0,016
-501,912	-200,000	0,007	0,105
-500,897	478,362	-0,079	-0,131
-499,883	4,799	-0,098	-0,052
-498,868	-63,640	-0,090	-0,027
-497,853	-200,000	0,006	-0,037
-496,839	-30,369	0,034	-0,014
-495,824	31,989	0,068	-0,042
-494,810	800,000	0,082	0,205
-493,795	-38,017	0,091	0,035
-492,781	800,000	-0,007	-0,017
-491,766	-123,711	0,134	0,015
-490,751	-200,000	0,008	-0,116
-489,737	-200,000	0,001	0,139
-488,722	-200,000	-0,007	-0,027
-487,708	-200,000	-0,020	-0,078
-486,693	-200,000	0,003	0,021
-485,678	800,000	-0,018	-0,038
-484,664	82,700	-0,122	0,096
-483,649	35,523	-0,043	-0,028
-482,635	123,605	0,018	0,016
-481,620	161,088	0,079	0,081
-480,605	-200,000	0,026	-0,091
-479,591	-71,859	0,043	0,011
-478,576	-30,186	0,094	-0,039
-477,562	-159,571	-0,036	0,001
-476,547	-92,775	-0,080	-0,016
-475,532	800,000	0,014	0,045
-474,518	434,052	0,053	0,085
-473,503	-200,000	-0,009	0,047
-472,489	-191,625	-0,055	0,000
-471,474	800,000	-0,021	-0,060
-470,459	207,793	-0,115	-0,131
-469,445	-200,000	-0,006	-0,139
-468,430	-119,326	0,084	0,011
-467,416	172,427	-0,091	0,096
-466,401	212,355	0,019	0,022
-465,386	17,906	-0,161	-0,093
-464,372	800,000	-0,028	0,059
-463,357	44,131	-0,090	-0,060
-462,343	448,921	0,087	-0,140
-461,328	-12,516	-0,142	0,068
-460,313	-69,023	0,112	0,031
-459,299	-41,069	0,104	0,039
-458,284	-107,622	0,073	-0,011
-457,270	800,000	0,017	-0,050
-456,255	800,000	-0,026	0,052
-455,241	-200,000	-0,001	0,068
-454,226	-200,000	0,008	0,087
-453,211	-200,000	0,020	-0,073
-452,197	-168,147	0,196	-0,005
-451,182	800,000	0,026	0,054
-450,168	121,619	-0,082	-0,074
-449,153	115,533	0,087	-0,077
-448,138	59,242	0,018	0,013
-447,124	-18,147	0,055	0,025
-446,109	-200,000	0,029	-0,199
-445,095	32,113	0,024	0,015
-444,080	62,288	-0,050	-0,036
-443,065	125,002	-0,013	-0,012
-442,051	70,425	-0,095	-0,072
-441,036	98,002	0,091	-0,076
-440,022	89,274	0,064	-0,052
-439,007	223,582	0,054	-0,064
-437,992	-73,461	0,131	-0,034
-436,978	-93,813	0,134	-0,027
-435,963	800,000	0,052	0,118
-434,949	5,058	-0,062	-0,033
-433,934	66,598	-0,047	-0,035
-432,919	-171,818	-0,063	-0,001
-431,905	34,390	0,065	0,041
-430,890	-200,000	-0,006	0,046
-429,876	-200,000	-0,000	0,060
-428,861	271,242	-0,070	0,090
-427,846	800,000	-0,038	0,092
-426,832	-48,369	-0,103	0,036
-425,817	43,753	-0,087	0,058
-424,803	-200,000	-0,019	-0,131
-423,788	-25,378	0,121	-0,052
-422,773	-33,358	-0,039	-0,016
-421,759	-200,000	0,018	0,178
-420,744	800,000	0,026	0,063
-419,730	246,553	0,040	-0,049
-418,715	-34,719	-0,157	-0,062
-417,701	-49,544	0,081	-0,028
-416,686	-200,000	0,028	-0,090
-415,671	-57,087	0,093	-0,030
-414,657	19,855	-0,024	-0,014
-413,642	800,000	0,044	0,109
-412,628	75,369	0,028	0,021
-411,613	399,456	-0,049	0,075
-410,598	-73,765	0,119	-0,031
-409,584	176,879	0,004	0,004
-408,569	800,000	0,037	0,113
-407,555	-163,453	-0,046	-0,002
-406,540	-90,759	0,020	0,004
-405,525	-16,371	-0,131	-0,060
-404,511	-200,000	0,014	-0,191
-403,496	-96,769	-0,106	0,020
-402,482	490,106	-0,016	0,026
-401,467	-42,176	0,038	0,014
-400,452	189,652	0,055	-0,061
-399,438	800,000	0,014	0,030
-398,423	372,141	-0,068	-0,100
-397,409	15,790	-0,032	0,018
-396,394	31,797	-0,122	0,076
-395,379	-57,910	0,185	0,058
-394,365	-200,000	0,021	0,120
-393,350	111,448	-0,035	0,031
-392,336	800,000	-0,063	0,137
-391,321	-134,580	0,199	-0,017
-390,306	39,235	-0,129	0,084
-389,292	800,000	0,041	-0,095
-388,277	-125,738	-0,054	0,006
-387,263	147,682	0,072	-0,071
-386,248	800,000	0,039	-0,115
-385,233	-71,629	-0,094	0,025
-384,219	-200,000	-0,053	0,183
-383,204	321,628	0,087	0,120
-382,190	105,832	-0,100	0,086
-381,175	-200,000	0,023	-0,091
-380,160	-86,197	0,152	-0,034
-379,146	190,523	0,094	-0,103
-378,131	6,182	-0,053	-0,028
-377,117	-13,233	-0,053	0,025
-376,102	-27,994	-0,075	0,031
-375,088	-200,000	-0,011	-0,087
-374,073	-187,061	-0,040	-0,000
-373,058	-200,000	-0,033	-0,163
-372,044	-200,000	0,020	0,106
-371,029	101,891	-0,064	0,054
-370,015	-110,737	0,205	0,030
-369,000	175,714	-0,075	-0,079
-367,985	800,000	-0,020	0,047
-366,971	86,263	0,080	0,064
-365,956	-89,251	0,014	-0,003
-364,942	119,407	-0,041	0,036
-363,927	-160,166	-0,188	0,007
-362,912	1,759	0,041	0,021
-361,898	-161,967	-0,139	0,005
-360,883	-10,485	-0,085	0,041
-359,869	-200,000	0,000	-0,013
-358,854	-174,373	-0,092	-0,002
-357,839	-2,136	-0,127	-0,065
-356,825	-200,000	0,012	0,071
-355,810	-187,137	-0,007	0,000
-354,796	459,040	-0,050	0,081
-353,781	-72,186	-0,128	-0,034
-352,766	66,131	-0,098	-0,072
-351,752	-43,251	0,040	-0,015
-350,737	305,767	-0,040	0,054
-349,723	345,050	0,045	0,065
-348,708	-200,000	0,025	-0,135
-347,693	-200,000	-0,002	-0,026
-346,679	-46,573	-0,066	-0,023
-345,664	-200,000	-0,026	-0,146
-344,650	-200,000	-0,011	-0,105
-343,635	-200,000	0,037	0,184
-342,620	-95,856	0,177	0,034
-341,606	62,435	0,042	0,030
-340,591	-200,000	0,020	0,099
-339,577	-200,000	0,016	-0,052
-338,562	175,659	-0,194	-0,204
-337,548	-98,480	0,130	-0,024
-336,533	-200,000	0,022	0,109
-335,518	171,482	0,082	-0,086
-334,504	-4,484	0,086	0,043
-333,489	7,092	-0,131	0,071
-332,475	6,930	0,139	-0,075
-331,460	-153,120	0,006	-0,000
-330,445	-62,420	0,101	0,030
-329,431	178,896	0,026	0,028
-328,416	-113,579	0,104	-0,015
-327,402	159,300	0,079	0,080
-326,387	-200,000	-0,007	0,091
-325,372	-89,432	-0,103	-0,022
-324,358	16,527	0,067	-0,038
-323,343	374,684	-0,018	-0,026
-322,329	800,000	0,053	0,115
-321,314	362,260	0,068	0,099
-320,299	-200,000	-0,003	-0,041
-319,285	-132,278	-0,116	0,011
-318,270	800,000	-0,027	-0,084
-317,256	-96,563	-0,090	0,017
-316,241	-35,622	0,081	0,032
-315,226	144,123	0,042	-0,041
-314,212	382,269	0,037	0,055
-313,197	-200,000	-0,006	0,061
-312,183	-89,184	-0,019	-0,004
-311,168	800,000	-0,039	0,081
-310,153	-160,372	-0,058	0,002
-309,139	-200,000	-0,035	-0,155
-308,124	-43,701	0,061	-0,022
-307,110	-18,247	0,128	-0,058
-306,095	278,964	-0,041	-0,053
-305,080	-200,000	-0,014	0,067
-304,066	800,000	0,061	0,125
-303,051	-25,216	0,088	-0,038
-302,037	-200,000	-0,005	-0,120
-301,022	248,952	0,063	-0,077
-300,008	223,008	0,134	0,156
-298,993	354,508	-0,101	0,146
-297,978	208,737	-0,029	-0,033
-296,964	63,375	0,028	-0,020
-295,949	-13,063	-0,099	0,046
-294,935	-121,435	0,026	0,003
-293,920	-200,000	-0,010	0,122
-292,905	160,287	0,092	-0,093
-291,891	-200,000	0,027	0,144
-290,876	-200,000	0,007	-0,026
-289,862	-85,546	-0,041	0,009
-288,847	-61,197	0,035	0,011
-287,832	-63,680	0,099	-0,029
-286,818	180,188	0,112	-0,119
-285,803	435,015	-0,025	-0,039
-284,789	-200,000	-0,010	-0,055
-283,774	-75,353	-0,146	0,037
-282,759	11,543	-0,039	0,022
-281,745	590,103	-0,066	-0,119
-280,730	-79,733	-0,187	0,045
-279,716	-200,000	0,008	0,079
-278,701	800,000	0,030	-0,088
-277,686	194,588	0,029	-0,032
-276,672	-200,000	0,013	0,166
-275,657	-200,000	0,005	-0,069
-274,643	-83,536	0,056	-0,013
-273,628	94,974	-0,059	-0,049
-272,613	-200,000	0,027	-0,096
-271,599	57,397	0,122	-0,086
-270,584	800,000	0,077	-0,156
-269,570	-51,373	0,024	0,008
-268,555	-200,000	0,008	0,081
-267,540	166,410	0,040	-0,041
-266,526	-181,704	0,164	-0,002
-265,511	-110,755	-0,056	-0,008
-264,497	-164,725	0,119	0,004
-263,482	-200,000	0,003	0,103
-262,467	328,745	-0,056	-0,079
-261,453	-103,102	0,158	-0,027
-260,438	-143,884	-0,147	-0,010
-259,424	-200,000	-0,023	-0,143
-258,409	-22,916	-0,141	-0,061
-257,395	4,605	0,067	0,035
-256,380	115,770	0,077	0,068
-255,365	442,576	0,033	0,052
-254,351	767,549	-0,056	0,111
-253,336	91,844	-0,017	0,014
-252,322	496,321	0,022	-0,036
-251,307	35,324	-0,085	-0,054
-250,292	175,371	0,053	0,056
-249,278	45,360	0,121	-0,081
-248,263	81,581	-0,026	0,020
-247,249	75,730	-0,055	0,042
-246,234	-200,000	0,023	-0,196
-245,219	404,050	-0,049	-0,074
-244,205	-200,000	0,042	0,144
-243,190	-200,000	0,003	0,037
-242,176	236,849	0,066	0,079
-241,161	-200,000	-0,014	0,070
-240,146	800,000	-0,003	-0,009
-239,132	-18,839	-0,117	-0,053
-238,117	69,677	-0,067	-0,050
-237,103	-59,960	-0,111	-0,034
-236,088	36,435	-0,103	-0,065
-235,073	800,000	0,004	0,010
-234,059	57,721	0,096	0,068
-233,044	-70,555	0,030	0,008
-232,030	311,459	-0,055	0,074
-231,015	134,912	-0,081	-0,076
-230,000	-93,574	0,066	-0,013
-228,986	157,211	-0,028	-0,028
-227,971	-14,727	0,149	-0,069
-226,957	-39,393	-0,022	-0,008
-225,942	-101,384	-0,083	-0,015
-224,927	800,000	0,006	-0,016
-223,913	660,708	-0,074	-0,138
-222,898	-79,141	0,093	-0,023
-221,884	130,840	0,069	-0,064
-220,869	-131,464	-0,093	-0,009
-219,855	375,227	-0,038	0,056
-218,840	-139,995	-0,122	0,009
-217,825	-200,000	0,006	0,023
-216,811	-36,743	-0,099	0,038
-215,796	-12,804	-0,085	-0,040
-214,782	-94,689	-0,145	-0,028
-213,767	66,125	0,094	-0,069
-212,752	800,000	0,021	-0,058
-211,738	-117,368	0,030	-0,004
-210,723	-200,000	0,015	0,137
-209,709	-200,000	-0,010	-0,216
-208,694	18,309	0,071	-0,041
-207,679	36,866	0,118	0,075
-206,665	-200,000	0,031	0,103
-205,650	239,727	0,061	0,074
-204,636	-76,906	0,040	0,010
-203,621	-17,922	-0,065	-0,029
-202,606	-200,000	0,004	0,127
-201,592	212,700	0,025	0,028
-200,577	-13,186	-0,128	0,060
-199,563	-196,974	0,133	-0,001
-198,548	-121,282	0,091	0,011
-197,533	285,421	0,060	-0,078
-196,519	166,499	0,127	-0,130
-195,504	24,671	-0,028	-0,017
-194,490	-200,000	-0,005	-0,137
-193,475	31,307	-0,067	0,042
-192,460	-133,150	-0,122	0,011
-191,446	800,000	-0,020	-0,059
-190,431	-45,170	0,016	-0,006
-189,417	107,268	-0,067	-0,057
-188,402	-102,987	0,070	-0,012
-187,387	800,000	-0,038	-0,116
-186,373	-64,144	0,023	0,007
-185,358	736,546	0,055	0,107
-184,344	-200,000	-0,004	0,014
-183,329	273,386	0,074	-0,095
-182,315	-142,323	0,052	0,004
-181,300	-66,528	-0,123	-0,035
-180,285	87,797	0,044	0,035
-179,271	-6,236	-0,176	-0,086
-178,256	800,000	0,057	0,151
-177,242	130,830	0,090	0,083
-176,227	800,000	-0,030	-0,062
-175,212	-56,675	-0,091	0,029
-174,198	-200,000	-0,016	0,161
-173,183	-106,833	-0,217	0,034
-172,169	587,714	-0,045	0,081
-171,154	63,311	-0,080	-0,058
-170,139	-113,418	0,110	-0,015
-169,125	-200,000	0,010	0,041
-168,110	800,000	-0,039	0,107
-167,096	-200,000	0,003	-0,133
-166,081	332,003	-0,036	-0,050
-165,066	-128,972	-0,081	-0,008
-164,052	145,635	-0,060	0,058
-163,037	-200,000	0,002	0,123
-162,023	-84,164	-0,155	0,035
-161,008	264,866	0,017	-0,021
-159,993	-72,349	-0,060	0,016
-158,979	-54,065	0,073	0,024
-157,964	-200,000	-0,002	0,068
-156,950	-200,000	-0,009	0,034
-155,935	542,591	-0,059	-0,101
-154,920	-200,000	0,011	-0,136
-153,906	20,364	0,107	0,062
-152,891	-95,320	0,022	-0,004
-151,877	429,745	-0,084	0,132
-150,862	126,852	-0,034	0,031
-149,847	-197,605	0,111	-0,000
-148,833	215,612	0,079	0,090
-147,818	-200,000	-0,027	0,147
-146,804	-107,760	0,110	-0,017
-145,789	584,036	-0,064	0,114
-144,775	363,990	0,062	0,089
-143,760	800,000	0,027	-0,076
-142,745	-142,987	-0,084	-0,006
-141,731	-40,421	0,080	-0,030
-140,716	-6,527	0,037	0,018
-139,702	109,760	0,124	-0,107
-138,687	800,000	-0,041	0,093
-137,672	-200,000	-0,011	0,082
-136,658	-130,399	0,041	-0,004
-135,643	171,925	-0,061	0,064
-134,629	224,616	0,061	-0,071
-133,614	20,712	0,061	-0,036
-132,599	563,899	0,022	-0,039
-131,585	-147,421	-0,084	-0,005
-130,570	351,507	-0,078	0,112
-129,556	-92,551	0,082	0,016
-128,541	-200,000	-0,011	-0,054
-127,526	19,836	0,109	0,063
-126,512	800,000	-0,037	0,104
-125,497	365,516	0,053	0,077
-124,483	800,000	-0,017	-0,045
-123,468	-91,467	0,129	-0,026
-122,453	263,179	-0,061	-0,076
-121,439	54,013	-0,054	-0,038
-120,424	104,941	-0,041	-0,035
-119,410	784,448	0,045	0,089
