DTS Sentinel unit serial number:	SN410029Multiplexer serial number:	ORYXHardware model number:	OX2-SRSoftware version number:	ORYX F/W v4,00 Oryx Data Collector v3.7.2.0data status	okinstallation	B5 Nyhavnadifferential loss correction	single-endedforward channel	channel 2reverse channel	N/Adate	2023/12/12time	08:47:13forward acquisition time	300,00reverse acquisition time	0,00gamma	499,1914k internal	0,3158k external	0,3158temperature offset calibration	1,0000default loss term (dB/km)	0,3820temperature slope calibration	1,0000multiplexer offset coefficient	1,0000multiplexer slope coefficient	1,0000fibre end	0,00T internal ref (°C)	15,06T ext. ref 1 (°C)	-1,33T ext. ref 2 (°C)	-1,61length (m)	temperature (°C)	Stokes	anti-Stokes-744,400	-185,210	0,138	0,002
-743,385	-104,521	-0,210	0,035
-742,371	-38,743	0,059	-0,023
-741,356	-112,187	-0,233	0,034
-740,342	6,597	0,165	-0,090
-739,327	-92,838	-0,386	-0,079
-738,312	149,711	0,101	0,101
-737,298	-115,965	-0,350	0,048
-736,283	396,461	0,052	-0,080
-735,269	-34,621	-0,229	-0,092
-734,254	-74,329	-0,014	0,004
-733,239	42,139	-0,437	-0,292
-732,225	-17,892	0,130	0,060
-731,210	-200,000	0,012	0,070
-730,196	-200,000	-0,001	-0,103
-729,181	-127,127	0,121	-0,013
-728,167	-200,000	-0,053	-0,193
-727,152	800,000	0,024	-0,068
-726,137	-90,311	0,043	-0,009
-725,123	-75,844	0,059	0,015
-724,108	-155,218	-0,025	-0,001
-723,094	800,000	-0,044	-0,118
-722,079	-192,261	-0,092	-0,001
-721,064	-41,847	0,074	0,028
-720,050	90,257	-0,058	0,048
-719,035	800,000	0,023	0,051
-718,021	-104,008	-0,116	-0,020
-717,006	41,168	0,002	0,001
-715,991	-145,988	-0,082	-0,005
-714,977	262,195	0,061	-0,079
-713,962	771,184	-0,028	-0,057
-712,948	188,917	-0,100	0,110
-711,933	-88,351	-0,044	0,010
-710,918	-93,618	-0,120	-0,024
-709,904	-150,910	-0,108	-0,006
-708,889	-120,472	-0,157	-0,019
-707,875	800,000	-0,020	-0,054
-706,860	111,186	0,077	-0,069
-705,845	305,161	-0,048	-0,066
-704,831	-200,000	-0,000	0,028
-703,816	539,377	0,034	-0,059
-702,802	-149,657	-0,040	0,002
-701,787	800,000	-0,074	-0,183
-700,772	162,244	-0,090	-0,093
-699,758	-163,776	-0,017	0,001
-698,743	-154,048	0,161	0,008
-697,729	26,643	0,131	0,081
-696,714	92,699	-0,081	-0,067
-695,699	400,935	-0,060	-0,093
-694,685	122,385	-0,125	-0,115
-693,670	-200,000	0,000	-0,047
-692,656	-30,112	-0,050	0,021
-691,641	-200,000	-0,017	-0,065
-690,627	416,970	0,027	-0,043
-689,612	-200,000	-0,004	-0,020
-688,597	112,661	-0,055	0,049
-687,583	61,305	0,048	0,035
-686,568	800,000	0,072	-0,222
-685,554	-109,600	0,116	-0,018
-684,539	800,000	0,010	0,032
-683,524	775,801	-0,040	0,081
-682,510	-200,000	0,050	-0,208
-681,495	800,000	0,008	-0,023
-680,481	181,011	0,058	-0,063
-679,466	39,840	-0,129	0,085
-678,451	583,932	0,027	-0,049
-677,437	800,000	0,035	-0,105
-676,422	129,244	0,059	0,055
-675,408	19,283	-0,095	-0,056
-674,393	280,930	0,055	-0,072
-673,378	5,921	0,034	0,018
-672,364	-88,363	-0,152	0,033
-671,349	20,756	0,071	-0,042
-670,335	-200,000	0,004	0,071
-669,320	-16,406	-0,129	-0,060
-668,305	800,000	0,028	-0,071
-667,291	151,042	-0,121	-0,121
-666,276	-71,339	0,015	0,004
-665,262	19,599	-0,034	-0,020
-664,247	-200,000	0,027	-0,105
-663,232	70,571	0,011	0,008
-662,218	237,447	0,078	0,095
-661,203	94,831	0,038	0,032
-660,189	219,458	0,050	-0,059
-659,174	-109,668	-0,096	-0,015
-658,159	-2,317	-0,063	-0,032
-657,145	-134,511	0,085	-0,008
-656,130	-200,000	-0,012	0,142
-655,116	-93,840	-0,039	0,008
-654,101	88,852	0,123	0,101
-653,086	-200,000	-0,004	-0,079
-652,072	55,750	0,026	-0,018
-651,057	-200,000	-0,011	-0,211
-650,043	800,000	0,024	0,064
-649,028	-146,062	0,099	-0,006
-648,014	133,043	-0,090	-0,086
-646,999	-200,000	0,017	0,141
-645,984	-91,241	-0,123	0,026
-644,970	-107,140	0,190	-0,030
-643,955	-125,219	0,152	0,017
-642,941	-91,290	-0,095	0,020
-641,926	5,240	-0,065	0,035
-640,911	-125,226	-0,117	-0,013
-639,897	394,776	-0,092	0,142
-638,882	-5,581	-0,067	-0,034
-637,868	800,000	-0,038	-0,093
-636,853	-139,632	-0,183	-0,014
-635,838	46,788	-0,106	-0,072
-634,824	-155,973	-0,057	0,003
-633,809	149,035	0,054	0,054
-632,795	-200,000	-0,003	0,094
-631,780	-95,904	-0,057	-0,011
-630,765	-200,000	-0,010	-0,050
-629,751	800,000	0,025	0,065
-628,736	49,052	-0,145	0,100
-627,722	-174,214	0,157	0,003
-626,707	800,000	0,082	0,198
-625,692	-132,482	-0,015	0,001
-624,678	-200,000	-0,025	-0,124
-623,663	800,000	-0,037	-0,106
-622,649	800,000	0,013	-0,032
-621,634	766,121	-0,015	0,031
-620,619	-62,989	-0,139	-0,042
-619,605	78,426	-0,004	-0,003
-618,590	-108,364	0,116	-0,018
-617,576	-200,000	-0,004	0,206
-616,561	-182,682	-0,131	-0,002
-615,546	-200,000	-0,017	-0,092
-614,532	-28,139	-0,107	0,045
-613,517	22,938	-0,074	-0,044
-612,503	473,040	0,046	-0,077
-611,488	-43,414	0,106	0,039
-610,474	-55,829	0,104	-0,034
-609,459	128,657	0,035	-0,032
-608,444	800,000	0,072	0,173
-607,430	-200,000	0,013	-0,051
-606,415	76,031	0,066	0,052
-605,401	800,000	0,030	-0,065
-604,386	763,622	-0,068	-0,137
-603,371	-155,318	0,038	0,002
-602,357	590,388	-0,025	-0,045
-601,342	-200,000	-0,010	-0,199
-600,328	80,782	-0,164	-0,129
-599,313	-200,000	0,015	0,064
-598,298	118,919	-0,024	0,022
-597,284	800,000	0,019	-0,049
-596,269	-200,000	-0,009	-0,205
-595,255	-200,000	-0,023	0,132
-594,240	-200,000	0,007	0,040
-593,225	-161,393	-0,045	0,002
-592,211	263,736	-0,061	-0,077
-591,196	-114,240	-0,046	-0,006
-590,182	150,490	0,024	-0,024
-589,167	800,000	-0,040	0,084
-588,152	-104,751	0,066	-0,011
-587,138	681,478	0,029	0,055
-586,123	2,371	0,077	0,041
-585,109	-50,516	-0,110	-0,038
-584,094	649,708	0,010	0,019
-583,079	176,644	-0,044	-0,047
-582,065	68,936	-0,062	0,046
-581,050	-106,020	0,035	-0,006
-580,036	-200,000	-0,000	-0,018
-579,021	-106,859	0,041	0,007
-578,006	-33,042	-0,065	-0,026
-576,992	-79,350	0,063	0,015
-575,977	75,924	0,036	0,028
-574,963	-58,602	0,065	-0,020
-573,948	126,657	-0,047	-0,044
-572,934	524,398	0,029	0,051
-571,919	-200,000	0,002	-0,089
-570,904	-58,497	-0,113	0,036
-569,890	-90,911	-0,062	-0,013
-568,875	800,000	-0,050	0,109
-567,861	105,538	-0,073	0,063
-566,846	-200,000	0,011	-0,046
-565,831	112,529	-0,051	0,045
-564,817	6,039	0,076	-0,041
-563,802	-14,387	-0,053	0,025
-562,788	244,688	0,102	-0,125
-561,773	110,984	-0,048	-0,042
-560,758	800,000	0,041	0,100
-559,744	316,932	-0,123	0,171
-558,729	315,616	0,021	0,029
-557,715	-200,000	0,011	-0,070
-556,700	-35,411	0,064	0,025
-555,685	117,221	-0,143	0,129
-554,671	800,000	-0,033	-0,073
-553,656	-200,000	-0,000	0,040
-552,642	-30,089	0,069	0,028
-551,627	-200,000	0,014	0,235
-550,612	-124,990	-0,059	-0,007
-549,598	-200,000	0,005	-0,036
-548,583	-200,000	-0,023	-0,189
-547,569	-30,103	0,010	0,004
-546,554	50,373	0,088	-0,060
-545,539	-91,348	0,109	-0,023
-544,525	233,614	-0,092	-0,111
-543,510	-133,312	-0,048	-0,004
-542,496	-200,000	0,039	-0,198
-541,481	800,000	0,031	-0,097
-540,466	-200,000	0,010	0,061
-539,452	-200,000	-0,015	0,164
-538,437	334,264	0,039	-0,055
-537,423	-85,384	0,087	-0,020
-536,408	172,001	-0,081	-0,086
-535,393	13,707	0,096	-0,055
-534,379	-16,613	0,131	0,060
-533,364	-200,000	-0,003	0,169
-532,350	800,000	0,012	0,027
-531,335	-44,580	0,071	-0,026
-530,321	28,604	0,085	-0,053
-529,306	173,553	0,062	-0,066
-528,291	303,280	0,053	0,072
-527,277	800,000	0,043	-0,100
-526,262	-126,694	-0,175	-0,019
-525,248	91,280	-0,074	-0,061
-524,233	-11,461	-0,031	-0,015
-523,218	-200,000	0,015	-0,067
-522,204	255,820	0,035	-0,043
-521,189	-200,000	-0,001	0,132
-520,175	31,717	-0,038	-0,024
-519,160	800,000	0,033	-0,086
-518,145	-126,782	0,056	0,006
-517,131	-68,696	-0,069	-0,019
-516,116	-84,402	0,082	0,019
-515,102	-200,000	0,005	0,080
-514,087	800,000	0,016	-0,040
-513,072	-200,000	0,006	-0,036
-512,058	17,990	0,037	-0,021
-511,043	800,000	0,018	-0,042
-510,029	-200,000	-0,011	0,070
-509,014	800,000	0,021	0,064
-507,999	-33,789	-0,062	0,025
-506,985	8,123	-0,175	0,095
-505,970	-200,000	-0,010	-0,094
-504,956	18,334	-0,042	0,025
-503,941	-17,099	0,077	0,036
-502,926	-57,674	-0,082	-0,026
-501,912	589,545	-0,026	0,046
-500,897	33,430	-0,018	-0,012
-499,883	86,286	0,072	0,058
-498,868	55,307	-0,026	-0,018
-497,853	800,000	0,036	0,083
-496,839	-79,662	0,026	-0,006
-495,824	-64,383	-0,049	0,015
-494,810	800,000	0,013	0,038
-493,795	800,000	-0,061	0,163
-492,781	293,459	-0,071	0,094
-491,766	-86,990	-0,130	-0,029
-490,751	800,000	-0,025	0,074
-489,737	800,000	0,088	-0,211
-488,722	296,199	-0,030	0,040
-487,708	800,000	0,034	0,071
-486,693	-200,000	-0,003	0,067
-485,678	112,211	0,080	-0,070
-484,664	800,000	0,028	0,069
-483,649	-5,162	-0,079	0,040
-482,635	-121,872	0,120	-0,014
-481,620	687,800	-0,037	0,070
-480,605	53,970	-0,083	0,058
-479,591	-21,334	0,081	-0,036
-478,576	-43,805	-0,107	0,039
-477,562	-96,389	-0,048	0,009
-476,547	624,388	0,040	0,075
-475,532	-200,000	0,003	-0,042
-474,518	171,540	0,049	-0,052
-473,503	-200,000	0,007	0,063
-472,489	-85,183	0,065	0,015
-471,474	71,040	0,014	0,010
-470,459	-26,386	-0,090	0,038
-469,445	26,024	-0,067	-0,041
-468,430	145,255	0,081	0,079
-467,416	158,087	-0,048	-0,048
-466,401	-139,867	0,027	0,002
-465,386	2,823	0,019	-0,010
-464,372	-200,000	-0,037	-0,138
-463,357	56,252	-0,081	-0,058
-462,343	-200,000	-0,002	-0,078
-461,328	800,000	-0,013	-0,038
-460,313	-17,667	0,030	-0,014
-459,299	-94,050	0,072	0,014
-458,284	800,000	-0,034	0,089
-457,270	125,811	0,041	-0,038
-456,255	800,000	0,013	-0,032
-455,241	691,861	-0,023	0,044
-454,226	78,061	0,106	-0,083
-453,211	-16,959	0,103	0,047
-452,197	-200,000	0,011	-0,081
-451,182	-99,078	0,045	-0,008
-450,168	-200,000	-0,016	0,160
-449,153	475,670	0,029	0,049
-448,138	94,784	-0,091	0,075
-447,124	-13,174	-0,060	0,028
-446,109	-200,000	0,030	-0,150
-445,095	-55,169	0,089	-0,029
-444,080	-200,000	0,005	0,103
-443,065	-200,000	-0,040	0,143
-442,051	124,336	-0,088	-0,081
-441,036	-68,489	-0,064	0,018
-440,022	-200,000	-0,013	-0,101
-439,007	-120,276	-0,150	-0,018
-437,992	-200,000	-0,001	-0,065
-436,978	30,412	0,111	-0,069
-435,963	-200,000	-0,009	0,080
-434,949	154,374	-0,052	-0,052
-433,934	519,745	0,032	0,056
-432,919	782,151	-0,024	-0,048
-431,905	61,783	-0,171	-0,124
-430,890	-175,068	0,198	0,004
-429,876	136,171	0,012	0,011
-428,861	480,912	0,057	-0,095
-427,846	-200,000	-0,013	-0,088
-426,832	182,217	-0,117	-0,125
-425,817	50,010	-0,100	-0,069
-424,803	49,277	0,121	-0,083
-423,788	-200,000	-0,014	-0,222
-422,773	-117,314	-0,101	-0,013
-421,759	-200,000	0,010	0,039
-420,744	-130,777	0,056	-0,005
-419,730	800,000	0,034	-0,092
-418,715	-200,000	-0,002	0,045
-417,701	554,097	0,008	-0,014
-416,686	357,132	0,061	0,089
-415,671	-200,000	0,014	0,074
-414,657	-61,383	-0,051	-0,016
-413,642	156,842	0,026	0,026
-412,628	-200,000	-0,000	-0,032
-411,613	520,464	-0,013	0,022
-410,598	116,940	-0,064	0,057
-409,584	191,343	0,070	0,076
-408,569	701,177	-0,051	0,098
-407,555	489,474	0,037	-0,062
-406,540	46,185	-0,099	-0,067
-405,525	-135,579	-0,162	0,014
-404,511	279,665	-0,064	-0,083
-403,496	290,453	0,060	-0,080
-402,482	39,934	-0,036	0,024
-401,467	800,000	0,054	0,151
-400,452	-200,000	-0,043	0,142
-399,438	800,000	0,050	0,104
-398,423	800,000	0,045	0,110
-397,409	635,753	0,018	0,033
-396,394	-200,000	-0,012	0,101
-395,379	116,287	0,055	-0,049
-394,365	-57,544	0,056	0,018
-393,350	800,000	-0,014	0,044
-392,336	178,113	0,170	-0,181
-391,321	-3,445	-0,077	-0,039
-390,306	-42,125	-0,145	0,054
-389,292	800,000	-0,041	0,111
-388,277	109,025	-0,029	0,025
-387,263	800,000	0,053	0,114
-386,248	-47,912	0,127	0,044
-385,233	-47,819	0,112	-0,039
-384,219	208,159	0,019	0,021
-383,204	-129,054	-0,072	0,007
-382,190	66,836	0,038	-0,028
-381,175	-61,632	0,058	0,018
-380,160	317,032	-0,079	-0,108
-379,146	-25,937	0,093	0,040
-378,131	486,597	0,043	0,071
-377,117	669,910	-0,033	0,062
-376,102	-34,496	0,045	-0,018
-375,088	268,386	-0,115	-0,147
-374,073	43,233	-0,145	0,096
-373,058	800,000	-0,048	-0,149
-372,044	800,000	-0,018	0,044
-371,029	-90,707	-0,056	-0,012
-370,015	380,764	0,111	0,166
-369,000	191,050	-0,119	0,130
-367,985	-125,043	0,124	-0,014
-366,971	128,068	0,026	-0,024
-365,956	800,000	-0,018	-0,041
-364,942	-138,046	-0,029	0,002
-363,927	-5,044	0,154	0,077
-362,912	87,307	0,086	0,069
-361,898	-36,558	-0,021	0,008
-360,883	-200,000	-0,006	-0,056
-359,869	-200,000	-0,037	0,120
-358,854	334,792	0,075	-0,106
-357,839	314,143	0,066	-0,091
-356,825	256,097	0,128	0,159
-355,810	-149,760	-0,067	-0,004
-354,796	211,572	0,016	-0,018
-353,781	-46,303	-0,119	0,042
-352,766	73,836	0,172	-0,131
-351,752	-8,721	-0,107	-0,052
-350,737	-54,161	0,142	0,047
-349,723	800,000	0,046	-0,112
-348,708	118,449	-0,039	-0,035
-347,693	214,081	-0,041	-0,047
-346,679	-85,548	-0,146	-0,033
-345,664	-200,000	-0,047	-0,162
-344,650	-121,507	-0,070	-0,008
-343,635	-200,000	-0,008	0,091
-342,620	800,000	-0,005	0,011
-341,606	113,094	0,096	-0,085
-340,591	199,433	0,031	-0,035
-339,577	63,068	-0,174	-0,127
-338,562	285,337	-0,058	0,076
-337,548	232,474	-0,040	0,047
-336,533	527,470	0,006	-0,010
-335,518	-48,322	0,055	-0,019
-334,504	239,903	0,052	-0,063
-333,489	-200,000	-0,001	0,011
-332,475	-28,647	-0,044	-0,018
-331,460	534,524	0,048	-0,082
-330,445	-65,415	0,110	0,032
-329,431	487,981	-0,023	0,039
-328,416	-200,000	0,012	0,043
-327,402	-71,316	-0,026	-0,007
-326,387	458,355	0,050	0,081
-325,372	-40,297	-0,162	-0,061
-324,358	-9,736	0,044	-0,021
-323,343	-38,186	0,100	0,038
-322,329	280,928	0,035	-0,045
-321,314	-200,000	0,030	0,102
-320,299	-200,000	-0,007	-0,093
-319,285	452,142	-0,040	-0,065
-318,270	-200,000	0,005	-0,037
-317,256	124,601	-0,077	0,070
-316,241	3,950	0,068	0,036
-315,226	-92,667	0,141	0,028
-314,212	-200,000	0,001	-0,050
-313,197	188,128	0,048	0,052
-312,183	-200,000	0,041	0,132
-311,168	-200,000	-0,008	0,108
-310,153	110,001	0,035	-0,030
-309,139	800,000	0,028	-0,080
-308,124	-63,399	-0,090	0,027
-307,110	-200,000	0,035	0,149
-306,095	93,629	0,080	0,065
-305,080	4,319	-0,091	0,048
-304,066	-135,458	0,031	-0,003
-303,051	800,000	-0,028	-0,086
-302,037	309,797	0,032	0,044
-301,022	800,000	0,049	0,151
-300,008	80,425	0,041	0,032
-298,993	186,566	-0,126	0,136
-297,978	-200,000	0,016	-0,119
-296,964	720,383	0,033	-0,063
-295,949	59,292	0,063	-0,045
-294,935	358,547	-0,025	0,036
-293,920	97,407	0,021	0,017
-292,905	183,438	-0,110	0,118
-291,891	800,000	-0,064	0,139
-290,876	105,679	-0,099	-0,085
-289,862	-200,000	-0,014	-0,131
-288,847	-200,000	-0,043	-0,138
-287,832	-0,779	-0,072	-0,037
-286,818	51,580	0,035	0,024
-285,803	54,190	0,090	-0,063
-284,789	5,159	0,132	-0,070
-283,774	280,573	0,098	0,128
-282,759	136,320	0,069	0,065
-281,745	437,800	-0,074	0,117
-280,730	66,056	-0,066	0,049
-279,716	800,000	0,076	-0,204
-278,701	-52,784	0,039	-0,013
-277,686	83,008	0,067	0,053
-276,672	-111,043	0,187	0,027
-275,657	408,077	-0,055	-0,085
-274,643	800,000	0,023	-0,050
-273,628	-55,688	-0,015	0,005
-272,613	-200,000	-0,004	-0,073
-271,599	33,150	-0,137	-0,086
-270,584	31,971	0,234	0,146
-269,570	533,707	0,046	0,079
-268,555	129,003	0,088	0,081
-267,540	-22,186	-0,014	-0,006
-266,526	269,510	-0,039	0,049
-265,511	-143,119	-0,098	0,007
-264,497	-28,721	0,088	0,036
-263,482	800,000	0,077	0,158
-262,467	800,000	-0,009	0,028
-261,453	121,558	-0,045	0,041
-260,438	-95,564	-0,117	0,022
-259,424	-31,026	-0,056	0,023
-258,409	-48,128	-0,114	-0,039
-257,395	716,705	0,061	0,117
-256,380	-200,000	-0,006	0,084
-255,365	-2,318	-0,109	-0,055
-254,351	263,152	0,062	-0,078
-253,336	-200,000	-0,001	-0,023
-252,322	618,827	-0,077	-0,141
-251,307	220,640	0,032	0,037
-250,292	-200,000	0,004	0,068
-249,278	-200,000	-0,008	-0,047
-248,263	-125,493	0,110	-0,012
-247,249	132,286	-0,125	0,117
-246,234	-58,023	-0,070	-0,022
-245,219	16,613	0,059	-0,034
-244,205	-60,927	0,086	0,026
-243,190	-156,220	-0,102	0,005
-242,176	21,089	0,073	-0,043
-241,161	13,250	0,083	0,046
-240,146	-200,000	0,019	-0,130
-239,132	20,855	0,054	-0,031
-238,117	214,937	-0,082	-0,094
-237,103	-200,000	-0,029	-0,122
-236,088	-120,092	0,129	-0,016
-235,073	800,000	-0,037	-0,087
-234,059	697,921	0,068	0,130
-233,044	-30,492	0,124	0,050
-232,030	45,251	-0,043	0,029
-231,015	800,000	0,003	-0,010
-230,000	156,628	-0,059	-0,059
-228,986	-141,323	-0,076	0,006
-227,971	-19,685	0,060	-0,027
-226,957	-200,000	-0,010	0,072
-225,942	68,427	-0,031	-0,023
-224,927	258,888	0,077	-0,097
-223,913	-200,000	0,018	-0,059
-222,898	-177,442	0,055	-0,001
-221,884	503,514	-0,087	0,145
-220,869	385,099	-0,022	0,033
-219,855	86,826	0,078	-0,062
-218,840	108,596	-0,156	-0,134
-217,825	-200,000	0,010	0,085
-216,811	249,591	0,070	-0,086
-215,796	89,079	0,079	0,063
-214,782	-19,780	0,136	-0,061
-213,767	-200,000	-0,017	0,176
-212,752	191,692	0,134	0,146
-211,738	800,000	0,030	0,083
-210,723	735,513	-0,033	0,064
-209,709	-200,000	0,005	-0,027
-208,694	-200,000	0,031	-0,137
-207,679	8,600	-0,114	-0,062
-206,665	-156,287	0,035	0,002
-205,650	103,591	0,039	-0,033
-204,636	-84,541	0,161	-0,036
-203,621	-49,484	-0,109	-0,037
-202,606	56,101	-0,014	-0,010
-201,592	331,567	0,049	0,068
-200,577	-140,038	-0,034	-0,003
-199,563	-200,000	0,012	0,045
-198,548	394,532	-0,066	0,099
-197,533	-23,746	-0,042	0,018
-196,519	-82,299	0,026	-0,006
-195,504	797,691	-0,016	-0,032
-194,490	756,978	0,036	-0,071
-193,475	-200,000	-0,004	-0,187
-192,460	72,400	0,085	-0,064
-191,446	-133,280	0,040	0,004
-190,431	-150,403	0,180	0,010
-189,417	-84,417	0,081	-0,018
-188,402	10,236	-0,132	-0,072
-187,387	-200,000	0,002	-0,009
-186,373	184,728	-0,129	-0,138
-185,358	148,796	-0,018	0,017
-184,344	179,871	-0,061	0,065
-183,329	577,150	0,049	0,087
-182,315	-200,000	-0,008	0,099
-181,300	17,481	-0,112	-0,064
-180,285	800,000	0,068	-0,197
-179,271	-48,335	-0,034	0,012
-178,256	-132,809	0,130	0,012
-177,242	-97,314	0,125	0,023
-176,227	229,593	-0,057	0,067
-175,212	800,000	-0,042	-0,113
-174,198	800,000	0,015	-0,045
-173,183	-61,075	0,053	0,016
-172,169	800,000	0,040	-0,097
-171,154	-155,455	-0,124	-0,006
-170,139	-40,571	0,090	0,033
-169,125	595,573	-0,025	0,045
-168,110	-200,000	-0,019	0,080
-167,096	-200,000	-0,023	-0,076
-166,081	-37,853	0,173	-0,066
-165,066	-9,710	-0,072	0,034
-164,052	-62,965	-0,081	-0,024
-163,037	424,764	-0,062	-0,096
-162,023	-191,526	-0,019	0,000
-161,008	76,230	0,050	0,038
-159,993	273,733	-0,043	-0,055
-158,979	-103,919	-0,092	-0,015
-157,964	-122,454	0,024	0,003
-156,950	-190,143	-0,116	0,001
-155,935	166,551	-0,068	0,069
-154,920	-55,765	-0,047	0,015
-153,906	-2,780	0,075	0,038
-152,891	-141,038	-0,041	0,003
-151,877	-200,000	0,006	-0,040
-150,862	-200,000	-0,015	-0,091
-149,847	-200,000	-0,002	0,021
-148,833	8,075	-0,093	-0,050
-147,818	384,322	0,035	-0,052
-146,804	98,326	0,169	-0,140
-145,789	37,099	-0,124	0,079
-144,775	185,576	0,048	0,052
-143,760	-72,205	0,163	0,043
-142,745	-29,093	0,104	-0,043
-141,731	356,342	0,041	-0,059
-140,716	288,692	0,041	-0,054
-139,702	800,000	0,054	0,136
-138,687	137,149	-0,104	0,098
-137,672	592,452	0,038	0,068
-136,658	81,243	-0,067	0,052
-135,643	2,813	-0,089	-0,046
-134,629	800,000	0,018	-0,038
-133,614	21,135	-0,007	0,004
-132,599	-200,000	0,008	0,101
-131,585	104,143	0,188	0,159
-130,570	243,163	0,024	-0,029
-129,556	-96,919	-0,064	0,012
-128,541	85,118	-0,113	-0,089
-127,526	-95,054	0,040	0,008
-126,512	800,000	0,017	0,047
-125,497	132,467	-0,031	-0,029
-124,483	76,899	0,135	0,103
-123,468	-200,000	-0,001	0,038
-122,453	-45,294	-0,032	0,011
-121,439	-60,569	0,061	-0,018
-120,424	-200,000	-0,002	-0,074
-119,410	11,532	0,075	0,041
-118,395	227,295	-0,043	0,050
