DTS Sentinel unit serial number:	SN410029Multiplexer serial number:	ORYXHardware model number:	OX2-SRSoftware version number:	ORYX F/W v4,00 Oryx Data Collector v3.7.2.0data status	okinstallation	B5 Nyhavnadifferential loss correction	single-endedforward channel	channel 2reverse channel	N/Adate	2023/12/12time	23:47:13forward acquisition time	300,00reverse acquisition time	0,00gamma	499,1914k internal	0,3158k external	0,3158temperature offset calibration	1,0000default loss term (dB/km)	0,3820temperature slope calibration	1,0000multiplexer offset coefficient	1,0000multiplexer slope coefficient	1,0000fibre end	0,00T internal ref (°C)	14,38T ext. ref 1 (°C)	-2,15T ext. ref 2 (°C)	-2,46length (m)	temperature (°C)	Stokes	anti-Stokes-744,400	93,428	0,103	-0,086
-743,385	12,610	-0,157	-0,089
-742,371	800,000	0,036	0,099
-741,356	24,314	-0,188	0,114
-740,342	26,741	0,110	0,068
-739,327	-106,209	-0,404	0,066
-738,312	-168,875	0,185	-0,005
-737,298	-175,073	-0,286	0,006
-736,283	-76,505	0,064	0,017
-735,269	-88,288	-0,190	0,041
-734,254	161,968	0,099	0,103
-733,239	-91,720	-0,534	-0,111
-732,225	-91,166	0,190	0,040
-731,210	59,703	-0,027	-0,019
-730,196	800,000	0,033	0,106
-729,181	-172,970	-0,194	-0,004
-728,167	-2,786	0,080	0,041
-727,152	165,021	0,100	0,104
-726,137	-33,136	-0,060	-0,025
-725,123	13,109	-0,076	-0,043
-724,108	800,000	-0,044	-0,099
-723,094	42,321	0,082	-0,055
-722,079	-44,999	-0,088	-0,032
-721,064	42,405	-0,141	-0,094
-720,050	173,631	0,053	0,057
-719,035	336,298	0,037	-0,053
-718,021	183,704	-0,046	0,050
-717,006	-57,208	-0,183	0,059
-715,991	76,596	-0,144	-0,112
-714,977	525,464	0,024	0,041
-713,962	275,839	-0,077	-0,101
-712,948	800,000	-0,009	-0,027
-711,933	99,051	-0,033	0,028
-710,918	391,716	-0,113	-0,173
-709,904	-200,000	-0,018	-0,116
-708,889	-69,410	-0,178	-0,050
-707,875	-163,638	-0,128	0,004
-706,860	-111,083	-0,059	-0,009
-705,845	800,000	-0,032	-0,076
-704,831	-200,000	-0,014	0,160
-703,816	239,807	0,053	0,065
-702,802	800,000	-0,036	-0,088
-701,787	269,278	0,102	-0,133
-700,772	32,957	-0,144	-0,091
-699,758	-200,000	-0,019	-0,066
-698,743	18,700	-0,156	0,092
-697,729	233,218	-0,029	0,035
-696,714	184,347	0,062	0,067
-695,699	378,433	-0,147	-0,222
-694,685	358,890	-0,089	-0,131
-693,670	250,201	-0,053	0,066
-692,656	-200,000	-0,010	0,102
-691,641	2,057	0,033	-0,018
-690,627	216,125	-0,033	-0,039
-689,612	800,000	-0,025	-0,057
-688,597	800,000	0,091	-0,219
-687,583	-200,000	-0,005	0,053
-686,568	-137,673	-0,127	0,010
-685,554	217,631	0,120	-0,142
-684,539	-94,750	-0,047	0,009
-683,524	-140,297	-0,062	0,005
-682,510	-200,000	-0,007	-0,040
-681,495	178,706	-0,026	0,028
-680,481	-80,594	-0,138	-0,034
-679,466	227,789	0,091	-0,109
-678,451	-85,855	-0,085	-0,019
-677,437	186,319	-0,031	0,034
-676,422	-0,490	0,053	-0,027
-675,408	35,387	0,079	-0,051
-674,393	-200,000	-0,039	0,171
-673,378	157,806	-0,065	-0,066
-672,364	800,000	0,034	-0,097
-671,349	298,934	-0,045	-0,061
-670,335	127,476	-0,008	0,007
-669,320	524,760	-0,074	-0,129
-668,305	800,000	0,036	-0,105
-667,291	-57,003	-0,093	0,030
-666,276	800,000	-0,034	-0,070
-665,262	-200,000	-0,002	-0,008
-664,247	290,254	-0,069	-0,092
-663,232	-200,000	-0,011	0,087
-662,218	800,000	-0,033	-0,070
-661,203	-125,316	-0,129	0,014
-660,189	82,802	0,071	0,056
-659,174	48,776	-0,140	0,096
-658,159	16,719	-0,075	0,043
-657,145	-52,836	-0,087	-0,029
-656,130	-99,838	0,021	-0,004
-655,116	-200,000	-0,001	-0,055
-654,101	567,304	0,019	0,033
-653,086	65,495	-0,035	-0,026
-652,072	-140,962	-0,096	0,007
-651,057	395,418	-0,040	-0,061
-650,043	135,543	-0,071	-0,068
-649,028	117,659	0,063	-0,057
-648,014	800,000	-0,048	0,122
-646,999	383,901	0,042	-0,064
-645,984	223,174	0,079	-0,094
-644,970	673,692	-0,047	-0,089
-643,955	800,000	0,038	-0,115
-642,941	579,576	0,015	-0,027
-641,926	-200,000	0,008	-0,028
-640,911	153,506	0,027	-0,028
-639,897	-200,000	0,001	-0,036
-638,882	203,793	-0,029	0,032
-637,868	-200,000	-0,033	0,168
-636,853	225,104	-0,074	-0,088
-635,838	-93,581	0,055	-0,011
-634,824	287,514	-0,032	0,043
-633,809	361,724	0,044	0,065
-632,795	-116,432	0,075	-0,010
-631,780	-200,000	-0,016	0,053
-630,765	-44,018	0,042	0,015
-629,751	28,283	-0,057	0,035
-628,736	-87,812	0,031	-0,007
-627,722	-67,216	-0,119	0,034
-626,707	-137,916	0,082	-0,007
-625,692	-200,000	-0,014	0,173
-624,678	-68,520	0,015	0,004
-623,663	-153,896	0,070	0,003
-622,649	151,105	-0,132	0,132
-621,634	-200,000	-0,009	-0,037
-620,619	110,200	-0,104	-0,091
-619,605	433,226	0,064	0,102
-618,590	-65,383	-0,042	-0,012
-617,576	339,262	0,025	0,036
-616,561	-50,978	0,037	0,013
-615,546	-200,000	0,037	-0,214
-614,532	-137,895	-0,157	-0,013
-613,517	-200,000	-0,004	0,037
-612,503	587,275	-0,023	0,041
-611,488	-39,438	-0,174	0,066
-610,474	-109,345	-0,105	-0,016
-609,459	-102,679	0,050	0,009
-608,444	-156,779	-0,108	0,005
-607,430	557,702	-0,049	-0,087
-606,415	349,661	-0,070	-0,102
-605,401	-137,223	0,007	0,001
-604,386	93,066	-0,058	-0,048
-603,371	277,793	0,056	-0,074
-602,357	-200,000	-0,005	0,083
-601,342	-90,013	-0,121	0,026
-600,328	-200,000	-0,008	0,063
-599,313	-85,719	-0,173	-0,039
-598,298	-82,107	-0,086	-0,020
-597,284	-27,900	0,098	0,041
-596,269	8,226	0,095	0,052
-595,255	-200,000	0,007	0,051
-594,240	360,638	0,063	-0,093
-593,225	54,149	-0,088	-0,062
-592,211	800,000	-0,062	-0,168
-591,196	-99,801	0,062	0,011
-590,182	85,214	-0,088	-0,071
-589,167	479,336	0,074	0,123
-588,152	-200,000	-0,032	-0,142
-587,138	-200,000	-0,025	0,108
-586,123	-16,742	-0,117	0,054
-585,109	259,270	-0,071	-0,090
-584,094	-200,000	-0,004	-0,111
-583,079	-48,790	0,180	0,063
-582,065	-200,000	0,021	0,093
-581,050	-158,315	0,162	-0,007
-580,036	194,130	-0,025	0,027
-579,021	800,000	-0,052	-0,160
-578,006	-118,519	-0,088	0,011
-576,992	253,495	0,069	-0,087
-575,977	3,874	-0,050	0,027
-574,963	800,000	0,022	-0,055
-573,948	800,000	-0,004	0,010
-572,934	-200,000	-0,015	0,050
-571,919	170,216	-0,101	-0,106
-570,904	276,213	-0,048	-0,063
-569,890	-78,256	0,081	0,020
-568,875	-178,114	0,026	0,000
-567,861	662,552	0,075	0,143
-566,846	-49,117	0,070	-0,024
-565,831	-38,274	-0,075	-0,029
-564,817	-11,100	-0,105	-0,051
-563,802	45,373	-0,151	-0,102
-562,788	48,015	0,083	0,057
-561,773	101,714	0,124	0,106
-560,758	-91,467	0,143	0,030
-559,744	62,396	0,063	-0,046
-558,729	17,663	0,038	0,022
-557,715	-200,000	0,035	-0,119
-556,700	-200,000	-0,006	-0,050
-555,685	800,000	0,046	-0,098
-554,671	-200,000	0,018	-0,067
-553,656	149,108	-0,120	0,119
-552,642	41,300	0,054	-0,036
-551,627	-77,126	-0,142	-0,036
-550,612	800,000	0,030	-0,067
-549,598	-200,000	0,005	-0,060
-548,583	800,000	-0,048	-0,117
-547,569	-42,036	0,062	-0,023
-546,554	-200,000	0,002	0,043
-545,539	800,000	0,044	-0,115
-544,525	263,363	0,021	-0,027
-543,510	-200,000	-0,041	0,193
-542,496	-56,747	-0,092	-0,029
-541,481	-200,000	-0,013	0,052
-540,466	800,000	0,031	-0,068
-539,452	577,183	0,046	-0,082
-538,437	-63,228	0,094	0,028
-537,423	-35,368	0,050	-0,020
-536,408	-200,000	0,039	0,128
-535,393	-70,117	-0,092	-0,025
-534,379	408,340	-0,029	0,044
-533,364	351,217	-0,072	0,104
-532,350	195,181	0,084	-0,093
-531,335	800,000	-0,031	0,073
-530,321	797,779	-0,036	0,072
-529,306	800,000	0,058	-0,168
-528,291	-187,134	-0,044	-0,000
-527,277	463,735	-0,051	-0,084
-526,262	45,088	0,107	0,072
-525,248	23,654	-0,090	0,054
-524,233	-13,835	0,026	0,012
-523,218	-28,681	0,085	-0,036
-522,204	479,481	0,022	-0,037
-521,189	-200,000	0,005	-0,064
-520,175	-200,000	0,003	-0,070
-519,160	353,670	0,084	-0,122
-518,145	-66,211	-0,057	0,016
-517,131	-35,659	0,103	-0,040
-516,116	-69,106	0,083	-0,023
-515,102	215,615	-0,109	-0,126
-514,087	71,154	-0,054	0,041
-513,072	52,719	0,101	0,070
-512,058	800,000	-0,030	-0,080
-511,043	-86,619	-0,102	0,023
-510,029	800,000	0,056	0,134
-509,014	32,799	-0,043	0,027
-507,999	248,945	0,040	0,050
-506,985	800,000	0,038	-0,097
-505,970	789,251	0,053	-0,108
-504,956	-200,000	-0,010	-0,160
-503,941	-82,312	0,044	0,010
-502,926	665,454	0,070	0,133
-501,912	-200,000	-0,001	0,130
-500,897	-129,284	0,073	0,007
-499,883	-200,000	-0,005	-0,153
-498,868	627,487	-0,083	-0,153
-497,853	-142,375	-0,177	0,013
-496,839	-200,000	-0,018	-0,077
-495,824	-200,000	0,011	0,149
-494,810	-200,000	0,005	0,104
-493,795	66,373	-0,081	0,060
-492,781	242,457	0,024	0,030
-491,766	392,056	0,079	-0,120
-490,751	104,651	-0,066	-0,057
-489,737	800,000	-0,002	0,007
-488,722	216,047	0,082	0,095
-487,708	-141,517	0,117	-0,009
-486,693	155,202	0,148	0,149
-485,678	-200,000	-0,029	0,155
-484,664	651,240	0,011	0,021
-483,649	-53,404	0,076	-0,025
-482,635	-200,000	-0,031	0,168
-481,620	800,000	0,017	0,037
-480,605	590,474	0,087	0,156
-479,591	283,733	-0,062	-0,081
-478,576	20,707	0,068	0,040
-477,562	20,080	-0,121	-0,071
-476,547	439,469	-0,062	-0,099
-475,532	-200,000	0,020	-0,074
-474,518	-9,912	-0,105	0,051
-473,503	-200,000	0,014	0,193
-472,489	-112,917	0,124	-0,018
-471,474	800,000	-0,035	-0,090
-470,459	529,233	-0,001	0,002
-469,445	-200,000	0,003	-0,142
-468,430	800,000	0,062	-0,170
-467,416	-42,815	-0,011	0,004
-466,401	366,910	0,075	0,110
-465,386	800,000	0,055	0,148
-464,372	-24,399	-0,126	0,055
-463,357	-200,000	-0,007	-0,038
-462,343	800,000	-0,029	-0,089
-461,328	200,652	0,062	0,069
-460,313	94,615	0,070	0,058
-459,299	47,635	0,131	0,089
-458,284	41,262	0,071	-0,047
-457,270	-106,157	-0,134	-0,022
-456,255	430,481	-0,029	-0,046
-455,241	35,347	-0,123	0,078
-454,226	82,353	-0,053	-0,042
-453,211	70,420	-0,127	-0,096
-452,197	-69,504	0,110	0,031
-451,182	-45,734	0,020	-0,007
-450,168	-200,000	0,029	0,143
-449,153	800,000	0,027	-0,061
-448,138	590,554	0,034	0,062
-447,124	44,810	-0,086	0,057
-446,109	-40,812	0,025	-0,009
-445,095	800,000	-0,025	0,064
-444,080	-23,247	0,075	-0,033
-443,065	208,795	0,066	0,076
-442,051	-200,000	-0,043	-0,140
-441,036	202,223	0,021	-0,023
-440,022	142,377	0,021	-0,021
-439,007	40,398	0,078	-0,051
-437,992	-89,861	-0,078	-0,016
-436,978	800,000	0,012	-0,031
-435,963	127,669	0,085	0,079
-434,949	-4,789	-0,125	0,063
-433,934	-56,921	-0,057	0,018
-432,919	-200,000	0,033	0,143
-431,905	27,592	0,058	-0,036
-430,890	167,661	0,062	-0,065
-429,876	-120,983	0,150	0,018
-428,861	-68,607	-0,108	0,030
-427,846	-200,000	0,003	0,046
-426,832	0,227	-0,052	0,027
-425,817	-200,000	0,015	0,053
-424,803	144,836	0,054	-0,053
-423,788	-200,000	0,030	-0,145
-422,773	40,737	0,095	-0,062
-421,759	405,075	0,015	-0,023
-420,744	1,297	-0,097	-0,050
-419,730	6,726	0,116	0,063
-418,715	521,381	-0,028	-0,048
-417,701	-200,000	-0,027	-0,162
-416,686	-10,938	0,113	-0,054
-415,671	157,125	0,052	0,052
-414,657	-200,000	0,010	0,114
-413,642	370,584	0,093	0,137
-412,628	-200,000	-0,026	0,100
-411,613	398,072	-0,143	0,218
-410,598	-200,000	-0,001	-0,111
-409,584	-115,116	0,077	-0,011
-408,569	192,838	0,077	-0,085
-407,555	-200,000	0,019	0,095
-406,540	-97,262	-0,050	0,009
-405,525	77,156	-0,040	-0,031
-404,511	-200,000	0,024	-0,142
-403,496	73,474	-0,036	-0,027
-402,482	-200,000	-0,006	0,071
-401,467	101,869	-0,095	-0,081
-400,452	159,301	0,138	0,140
-399,438	271,891	-0,059	-0,076
-398,423	345,168	-0,122	-0,174
-397,409	800,000	0,050	-0,105
-396,394	146,479	-0,118	-0,115
-395,379	-83,872	-0,083	-0,019
-394,365	-32,897	0,039	-0,016
-393,350	243,200	0,041	0,050
-392,336	-200,000	0,002	0,016
-391,321	39,146	0,114	0,074
-390,306	-13,950	0,078	-0,036
-389,292	129,495	0,085	0,079
-388,277	120,576	-0,058	-0,052
-387,263	-70,727	-0,091	-0,025
-386,248	59,962	0,100	0,071
-385,233	-200,000	0,001	0,087
-384,219	-14,426	-0,189	-0,088
-383,204	136,877	0,029	0,028
-382,190	57,728	-0,068	-0,048
-381,175	-130,843	-0,103	0,010
-380,160	800,000	-0,023	0,067
-379,146	-169,640	-0,053	-0,001
-378,131	757,541	0,001	-0,003
-377,117	69,830	-0,065	-0,049
-376,102	-200,000	-0,009	-0,113
-375,088	-97,989	0,163	0,030
-374,073	219,770	-0,037	0,043
-373,058	-32,249	-0,106	0,043
-372,044	-138,759	0,304	-0,024
-371,029	-120,383	-0,171	0,021
-370,015	35,509	-0,052	-0,033
-369,000	374,244	-0,081	-0,120
-367,985	800,000	-0,046	-0,105
-366,971	-200,000	0,013	-0,091
-365,956	39,537	0,028	-0,018
-364,942	647,562	-0,025	0,047
-363,927	-200,000	0,030	0,180
-362,912	800,000	0,025	0,056
-361,898	-48,671	-0,109	-0,038
-360,883	265,831	-0,078	-0,099
-359,869	62,146	0,073	-0,053
-358,854	-155,725	0,162	0,007
-357,839	405,014	0,047	0,071
-356,825	-107,513	-0,106	0,017
-355,810	-200,000	-0,009	-0,148
-354,796	257,495	-0,082	0,102
-353,781	551,653	0,027	-0,047
-352,766	-28,604	-0,141	0,059
-351,752	253,975	-0,058	-0,072
-350,737	800,000	-0,051	0,106
-349,723	-200,000	0,013	0,116
-348,708	800,000	-0,009	-0,027
-347,693	283,217	-0,037	-0,048
-346,679	490,030	0,025	-0,041
-345,664	-109,484	0,161	-0,024
-344,650	-99,734	-0,132	-0,024
-343,635	800,000	0,015	-0,042
-342,620	-162,842	0,061	-0,002
-341,606	-56,694	0,077	-0,025
-340,591	553,620	0,042	0,074
-339,577	173,439	0,088	-0,092
-338,562	376,165	0,043	-0,064
-337,548	525,871	-0,034	0,058
-336,533	457,338	0,067	-0,108
-335,518	230,142	0,068	0,080
-334,504	800,000	0,032	0,067
-333,489	387,612	-0,051	0,077
-332,475	352,055	0,094	0,136
-331,460	-200,000	0,017	0,071
-330,445	-200,000	-0,009	-0,118
-329,431	800,000	-0,017	0,049
-328,416	100,342	0,097	0,082
-327,402	-200,000	-0,011	0,268
-326,387	463,335	0,041	-0,066
-325,372	-200,000	0,009	0,119
-324,358	14,778	-0,104	0,059
-323,343	-90,695	-0,111	-0,023
-322,329	23,951	0,087	0,052
-321,314	-155,679	0,095	0,004
-320,299	177,325	-0,033	-0,035
-319,285	58,894	-0,029	-0,021
-318,270	800,000	-0,062	0,167
-317,256	-200,000	0,003	0,058
-316,241	130,357	-0,055	0,052
-315,226	-156,952	-0,069	0,003
-314,212	167,551	0,050	0,052
-313,197	190,949	-0,060	-0,066
-312,183	-200,000	-0,010	-0,085
-311,168	-200,000	-0,002	-0,076
-310,153	-146,920	-0,126	-0,008
-309,139	25,573	-0,066	-0,040
-308,124	85,856	0,050	0,040
-307,110	800,000	-0,020	-0,057
-306,095	-200,000	0,021	0,076
-305,080	800,000	0,061	0,132
-304,066	744,305	-0,011	-0,022
-303,051	-200,000	-0,009	-0,047
-302,037	529,069	-0,036	-0,062
-301,022	-200,000	0,006	0,021
-300,008	-200,000	-0,007	0,108
-298,993	169,529	-0,103	0,107
-297,978	-200,000	0,017	0,066
-296,964	348,872	0,012	0,018
-295,949	-200,000	-0,023	-0,113
-294,935	243,316	0,022	-0,027
-293,920	500,715	-0,058	-0,097
-292,905	-53,711	0,016	0,005
-291,891	-77,740	-0,060	0,015
-290,876	39,237	-0,103	-0,067
-289,862	-171,086	-0,083	-0,002
-288,847	-67,588	-0,096	0,027
-287,832	-200,000	0,019	-0,133
-286,818	-200,000	-0,027	0,097
-285,803	366,853	0,025	0,037
-284,789	800,000	-0,004	-0,012
-283,774	-22,259	0,121	-0,053
-282,759	285,915	-0,054	0,070
-281,745	81,314	0,116	-0,091
-280,730	800,000	-0,063	-0,171
-279,716	-65,747	0,103	-0,030
-278,701	-116,592	0,092	0,012
-277,686	615,219	-0,015	-0,027
-276,672	-56,505	0,093	0,030
-275,657	205,174	-0,025	-0,029
-274,643	71,585	0,143	-0,108
-273,628	800,000	0,023	0,056
-272,613	347,312	0,062	-0,089
-271,599	800,000	0,026	-0,062
-270,584	-21,988	0,075	0,033
-269,570	771,231	0,049	0,097
-268,555	25,294	-0,087	-0,052
-267,540	-200,000	0,011	0,062
-266,526	132,213	-0,100	-0,094
-265,511	800,000	-0,016	-0,047
-264,497	-131,261	0,155	0,015
-263,482	36,536	0,040	0,026
-262,467	-55,403	0,068	-0,022
-261,453	-103,977	0,124	0,021
-260,438	-120,324	0,089	0,011
-259,424	-200,000	0,013	-0,231
-258,409	-99,243	0,018	-0,003
-257,395	633,432	-0,008	-0,016
-256,380	-200,000	0,026	0,146
-255,365	800,000	0,005	0,014
-254,351	-78,996	-0,027	-0,007
-253,336	-37,837	0,073	-0,028
-252,322	109,390	-0,067	-0,058
-251,307	-200,000	0,002	-0,073
-250,292	11,608	0,041	0,022
-249,278	-123,441	0,094	0,011
-248,263	800,000	-0,026	-0,079
-247,249	-200,000	0,012	-0,053
-246,234	-200,000	-0,010	0,038
-245,219	800,000	-0,020	-0,050
-244,205	-138,247	-0,151	0,012
-243,190	-1,807	0,045	0,023
-242,176	800,000	-0,002	0,006
-241,161	800,000	0,036	0,100
-240,146	-200,000	-0,018	0,145
-239,132	-200,000	-0,012	-0,041
-238,117	558,409	-0,070	-0,123
-237,103	-104,885	-0,041	-0,007
-236,088	-89,614	0,036	0,008
-235,073	-200,000	-0,001	-0,053
-234,059	48,367	0,250	-0,169
-233,044	800,000	0,029	0,080
-232,030	65,826	-0,074	0,054
-231,015	800,000	0,014	0,031
-230,000	-200,000	0,006	-0,102
-228,986	356,640	0,045	-0,065
-227,971	800,000	-0,026	0,064
-226,957	-82,070	0,033	0,008
-225,942	800,000	-0,024	0,064
-224,927	601,255	-0,058	0,104
-223,913	-200,000	-0,005	0,060
-222,898	364,375	0,063	-0,092
-221,884	-32,979	-0,041	-0,016
-220,869	228,226	-0,087	0,102
-219,855	295,151	0,064	0,085
-218,840	-55,106	0,097	0,031
-217,825	294,269	-0,121	0,160
-216,811	25,067	-0,098	0,058
-215,796	-78,185	0,091	-0,022
-214,782	462,037	0,044	0,071
-213,767	-59,367	-0,047	-0,014
-212,752	396,960	-0,028	0,042
-211,738	-138,408	0,047	-0,004
-210,723	-175,578	0,110	0,002
-209,709	-65,124	-0,009	-0,003
-208,694	-200,000	-0,005	-0,071
-207,679	193,462	-0,066	0,072
-206,665	800,000	0,018	0,049
-205,650	94,095	0,071	-0,059
-204,636	219,508	0,044	-0,051
-203,621	-200,000	0,000	0,080
-202,606	-200,000	-0,004	0,072
-201,592	-20,754	-0,094	-0,041
-200,577	118,197	0,050	-0,045
-199,563	-200,000	0,022	0,087
-198,548	-200,000	0,004	-0,040
-197,533	-200,000	-0,019	0,133
-196,519	326,883	-0,068	0,094
-195,504	-200,000	0,002	-0,048
-194,490	800,000	-0,050	-0,105
-193,475	800,000	0,042	-0,091
-192,460	-103,908	0,061	-0,010
-191,446	-142,641	-0,073	-0,005
-190,431	555,289	-0,038	0,066
-189,417	25,647	0,031	0,019
-188,402	800,000	-0,038	0,113
-187,387	-60,803	-0,078	-0,024
-186,373	-4,935	-0,076	-0,038
-185,358	617,509	-0,067	-0,122
-184,344	-200,000	-0,003	-0,017
-183,329	316,501	0,048	0,065
-182,315	-200,000	0,025	0,119
-181,300	-61,710	-0,159	-0,048
-180,285	-200,000	-0,043	-0,182
-179,271	-200,000	0,004	0,088
-178,256	150,404	-0,035	0,034
-177,242	227,826	-0,032	0,037
-176,227	-200,000	0,039	0,181
-175,212	-200,000	-0,008	-0,092
-174,198	419,478	-0,038	-0,059
-173,183	413,716	-0,077	-0,118
-172,169	431,408	-0,052	0,082
-171,154	-170,182	0,074	0,002
-170,139	204,297	0,076	0,085
-169,125	64,798	-0,042	-0,031
-168,110	125,045	0,085	-0,078
-167,096	160,161	0,075	-0,076
-166,081	-69,344	-0,055	-0,015
-165,066	65,608	-0,078	0,057
-164,052	-96,042	-0,036	0,007
-163,037	56,152	0,013	0,009
-162,023	42,270	0,129	0,084
-161,008	101,027	-0,116	0,098
-159,993	-178,965	-0,010	0,000
-158,979	-200,000	-0,009	0,083
-157,964	535,191	-0,033	0,056
-156,950	-200,000	0,002	-0,088
-155,935	444,543	-0,030	0,047
-154,920	44,784	0,065	0,043
-153,906	680,788	0,049	0,093
-152,891	-85,352	-0,166	-0,037
-151,877	-25,374	-0,149	-0,063
-150,862	800,000	0,021	0,053
-149,847	800,000	0,029	-0,067
-148,833	86,914	0,062	-0,049
-147,818	-200,000	-0,023	0,126
-146,804	138,374	0,061	0,058
-145,789	-113,732	0,061	-0,008
-144,775	-7,761	-0,133	-0,065
-143,760	753,575	-0,025	-0,049
-142,745	-200,000	-0,030	-0,104
-141,731	117,359	-0,070	-0,062
-140,716	800,000	-0,028	0,074
-139,702	109,293	0,047	0,040
-138,687	131,859	0,041	-0,038
-137,672	-200,000	0,002	-0,021
-136,658	-93,690	0,050	-0,010
-135,643	87,452	-0,083	-0,066
-134,629	147,243	-0,042	0,040
-133,614	800,000	-0,028	0,075
-132,599	-200,000	0,004	-0,040
-131,585	800,000	-0,021	-0,053
-130,570	800,000	0,024	-0,059
-129,556	-200,000	-0,001	0,038
-128,541	475,502	-0,073	0,119
-127,526	30,638	-0,049	0,030
-126,512	-152,859	0,138	-0,007
-125,497	-12,065	-0,050	0,023
-124,483	-200,000	0,041	0,136
-123,468	800,000	0,043	-0,116
-122,453	800,000	0,026	-0,058
-121,439	11,670	0,024	0,013
-120,424	800,000	0,025	-0,051
-119,410	69,500	0,124	0,092
