DTS Sentinel unit serial number:	SN410029Multiplexer serial number:	ORYXHardware model number:	OX2-SRSoftware version number:	ORYX F/W v4,00 Oryx Data Collector v3.7.2.0data status	okinstallation	B5 Nyhavnadifferential loss correction	single-endedforward channel	channel 2reverse channel	N/Adate	2023/12/11time	21:37:13forward acquisition time	300,00reverse acquisition time	0,00gamma	499,1914k internal	0,3156k external	0,3156temperature offset calibration	1,0000default loss term (dB/km)	0,3820temperature slope calibration	1,0000multiplexer offset coefficient	1,0000multiplexer slope coefficient	1,0000fibre end	0,00T internal ref (°C)	16,25T ext. ref 1 (°C)	0,19T ext. ref 2 (°C)	-0,05length (m)	temperature (°C)	Stokes	anti-Stokes-744,400	-71,048	0,130	-0,036
-743,385	-83,798	-0,222	0,052
-742,371	-200,000	0,003	-0,070
-741,356	-105,210	-0,293	-0,049
-740,342	193,259	0,093	0,103
-739,327	52,641	-0,255	0,179
-738,312	-105,082	0,215	0,036
-737,298	-62,633	-0,310	-0,094
-736,283	-45,320	0,082	0,030
-735,269	-18,626	-0,218	0,100
-734,254	-200,000	-0,015	-0,050
-733,239	-62,890	-0,404	-0,122
-732,225	185,874	0,176	0,193
-731,210	590,564	0,087	0,160
-730,196	20,458	-0,065	0,039
-729,181	152,486	0,044	-0,044
-728,167	156,330	-0,126	-0,128
-727,152	-200,000	0,000	0,161
-726,137	-27,164	-0,132	-0,056
-725,123	721,001	-0,090	-0,178
-724,108	-64,870	-0,246	-0,073
-723,094	240,433	-0,069	-0,085
-722,079	58,769	0,078	0,056
-721,064	137,250	0,112	0,108
-720,050	-166,559	-0,087	-0,003
-719,035	22,297	-0,034	0,020
-718,021	-100,782	0,166	0,030
-717,006	266,171	-0,030	-0,038
-715,991	800,000	0,021	-0,058
-714,977	800,000	-0,027	-0,063
-713,962	-88,224	0,052	-0,011
-712,948	800,000	0,036	-0,090
-711,933	209,043	-0,085	-0,098
-710,918	-200,000	-0,009	-0,084
-709,904	-200,000	0,012	-0,099
-708,889	-60,299	-0,095	0,030
-707,875	249,311	-0,082	-0,102
-706,860	-92,147	0,106	0,022
-705,845	702,266	0,012	0,024
-704,831	733,879	-0,036	0,072
-703,816	-200,000	0,010	0,107
-702,802	116,949	0,024	-0,021
-701,787	416,042	0,060	0,095
-700,772	-200,000	-0,032	-0,136
-699,758	-105,895	0,014	0,002
-698,743	46,946	0,053	-0,036
-697,729	25,545	0,018	-0,011
-696,714	357,759	0,066	-0,098
-695,699	-117,380	-0,089	-0,012
-694,685	-200,000	0,054	-0,196
-693,670	57,307	-0,038	-0,027
-692,656	164,771	-0,079	-0,083
-691,641	-93,584	-0,158	0,032
-690,627	800,000	-0,072	0,200
-689,612	-116,166	0,070	0,009
-688,597	-23,635	-0,099	-0,044
-687,583	-104,114	-0,074	-0,013
-686,568	-42,239	0,018	-0,007
-685,554	800,000	-0,013	-0,035
-684,539	-200,000	0,035	0,125
-683,524	-8,455	0,145	0,071
-682,510	-106,005	-0,047	-0,008
-681,495	-58,348	-0,103	-0,033
-680,481	-200,000	0,003	0,009
-679,466	116,506	0,100	-0,090
-678,451	-149,325	-0,098	-0,006
-677,437	-200,000	0,009	0,080
-676,422	42,702	-0,095	0,064
-675,408	103,863	0,040	0,034
-674,393	-27,939	0,013	-0,006
-673,378	249,217	-0,088	-0,110
-672,364	99,074	-0,083	0,071
-671,349	-200,000	0,036	-0,216
-670,335	-200,000	-0,009	-0,129
-669,320	-200,000	0,013	-0,078
-668,305	-90,996	-0,132	-0,028
-667,291	728,334	0,072	-0,142
-666,276	-75,603	-0,093	0,024
-665,262	-152,101	-0,148	0,008
-664,247	-1,872	0,029	0,015
-663,232	464,237	0,033	0,054
-662,218	800,000	-0,032	-0,084
-661,203	-200,000	-0,032	-0,117
-660,189	521,829	0,024	-0,042
-659,174	-200,000	0,010	-0,081
-658,159	-2,681	0,101	-0,052
-657,145	365,301	-0,062	-0,093
-656,130	-200,000	0,015	-0,073
-655,116	305,416	0,042	0,058
-654,101	-200,000	0,067	0,000
-653,086	800,000	0,036	-0,081
-652,072	233,909	-0,018	0,022
-651,057	800,000	-0,014	0,029
-650,043	800,000	0,060	-0,131
-649,028	-8,279	-0,126	-0,062
-648,014	-200,000	-0,019	-0,068
-646,999	-43,593	0,056	0,020
-645,984	114,146	-0,017	-0,015
-644,970	187,270	0,048	-0,053
-643,955	59,884	-0,035	-0,026
-642,941	-200,000	0,012	-0,190
-641,926	295,939	0,028	-0,038
-640,911	800,000	0,034	0,089
-639,897	-26,077	0,178	0,077
-638,882	-19,600	-0,134	-0,061
-637,868	-170,013	-0,074	-0,002
-636,853	118,571	-0,052	-0,047
-635,838	519,731	0,023	0,040
-634,824	800,000	-0,017	-0,052
-633,809	-62,899	0,163	-0,049
-632,795	25,717	0,087	-0,053
-631,780	333,231	0,013	0,019
-630,765	180,349	-0,045	-0,049
-629,751	-25,008	-0,165	-0,071
-628,736	684,351	-0,038	-0,073
-627,722	-200,000	-0,008	-0,117
-626,707	-200,000	0,005	-0,102
-625,692	359,354	0,085	0,126
-624,678	-200,000	0,009	0,032
-623,663	62,418	-0,087	-0,064
-622,649	107,741	-0,072	-0,063
-621,634	60,486	-0,048	-0,035
-620,619	-141,839	0,045	-0,003
-619,605	138,430	-0,029	-0,028
-618,590	125,741	-0,011	0,010
-617,576	-4,097	0,083	-0,042
-616,561	242,277	0,077	-0,095
-615,546	130,072	0,018	-0,017
-614,532	-200,000	0,027	-0,112
-613,517	-200,000	0,032	-0,108
-612,503	800,000	0,011	-0,034
-611,488	79,467	0,098	0,077
-610,474	-187,838	-0,091	0,001
-609,459	-200,000	-0,003	0,033
-608,444	-98,787	0,103	-0,019
-607,430	55,828	-0,091	-0,065
-606,415	-200,000	-0,011	-0,057
-605,401	-41,991	-0,061	0,023
-604,386	2,203	0,103	-0,055
-603,371	683,862	0,036	-0,068
-602,357	-200,000	-0,016	-0,053
-601,342	-121,639	-0,134	-0,016
-600,328	425,290	0,046	-0,073
-599,313	109,987	-0,063	-0,055
-598,298	169,645	-0,103	0,108
-597,284	343,372	-0,023	0,034
-596,269	-1,034	0,123	0,063
-595,255	800,000	0,008	0,016
-594,240	1,657	-0,093	0,049
-593,225	187,655	-0,035	0,038
-592,211	564,077	-0,066	-0,118
-591,196	-200,000	-0,006	0,090
-590,182	-200,000	-0,014	0,114
-589,167	-31,318	0,126	0,052
-588,152	33,049	-0,120	-0,076
-587,138	324,574	-0,107	-0,150
-586,123	125,627	-0,053	0,049
-585,109	-80,456	-0,174	-0,042
-584,094	-26,139	-0,026	-0,011
-583,079	237,871	0,035	0,043
-582,065	-200,000	0,033	-0,112
-581,050	800,000	0,018	-0,047
-580,036	32,225	-0,082	0,052
-579,021	708,929	-0,041	-0,080
-578,006	-200,000	-0,010	-0,037
-576,992	-200,000	-0,002	-0,014
-575,977	-22,419	-0,070	-0,031
-574,963	-64,121	0,101	0,030
-573,948	43,402	-0,044	0,029
-572,934	30,041	-0,061	-0,038
-571,919	-200,000	-0,001	-0,005
-570,904	37,212	-0,108	-0,070
-569,890	146,371	0,052	-0,051
-568,875	53,797	0,094	-0,066
-567,861	138,562	0,056	-0,054
-566,846	283,905	-0,036	0,048
-565,831	-31,342	0,169	-0,069
-564,817	800,000	-0,053	-0,147
-563,802	-200,000	-0,007	-0,045
-562,788	-87,611	-0,080	-0,018
-561,773	291,702	-0,021	0,028
-560,758	-139,247	0,126	0,010
-559,744	256,417	-0,007	-0,009
-558,729	130,750	0,038	0,035
-557,715	-158,574	-0,208	0,009
-556,700	66,153	-0,111	-0,082
-555,685	-134,886	-0,068	0,006
-554,671	800,000	-0,009	0,025
-553,656	201,949	-0,031	-0,036
-552,642	61,563	0,031	-0,022
-551,627	-30,945	0,137	-0,056
-550,612	800,000	-0,035	-0,085
-549,598	800,000	-0,009	0,019
-548,583	-47,058	-0,062	0,022
-547,569	-200,000	-0,004	0,072
-546,554	-40,016	0,108	0,041
-545,539	-53,023	0,047	0,016
-544,525	-200,000	-0,023	-0,102
-543,510	-118,569	-0,053	0,007
-542,496	800,000	0,024	0,053
-541,481	253,991	-0,027	0,033
-540,466	4,611	-0,109	-0,058
-539,452	-36,658	-0,018	0,007
-538,437	-76,858	0,153	-0,039
-537,423	300,582	-0,025	0,033
-536,408	243,824	-0,077	0,095
-535,393	140,483	-0,016	-0,016
-534,379	578,002	0,039	0,070
-533,364	349,570	0,045	0,066
-532,350	-18,899	-0,072	0,033
-531,335	-108,901	0,104	-0,016
-530,321	-200,000	0,008	0,105
-529,306	-11,327	-0,109	0,052
-528,291	-200,000	0,013	-0,096
-527,277	-200,000	-0,005	0,048
-526,262	-186,412	0,131	0,001
-525,248	-200,000	0,008	0,191
-524,233	600,467	0,045	-0,082
-523,218	-87,809	-0,126	0,028
-522,204	170,090	-0,085	-0,089
-521,189	99,387	-0,149	-0,126
-520,175	18,568	-0,046	0,027
-519,160	-25,998	0,079	-0,034
-518,145	-200,000	0,004	0,048
-517,131	63,532	0,047	-0,034
-516,116	800,000	0,002	-0,005
-515,102	413,015	0,042	0,066
-514,087	-200,000	-0,012	0,096
-513,072	165,053	-0,054	0,056
-512,058	-200,000	-0,006	0,050
-511,043	-200,000	0,031	0,105
-510,029	75,675	0,100	-0,077
-509,014	272,256	0,096	0,124
-507,999	-99,642	0,077	0,014
-506,985	170,421	-0,030	-0,031
-505,970	800,000	-0,061	-0,161
-504,956	351,548	-0,034	-0,050
-503,941	800,000	-0,052	0,107
-502,926	-74,680	0,092	-0,024
-501,912	-200,000	0,003	0,153
-500,897	138,778	-0,044	0,043
-499,883	243,416	0,071	-0,087
-498,868	-200,000	0,008	-0,102
-497,853	266,319	-0,042	-0,053
-496,839	-41,672	0,085	-0,032
-495,824	-200,000	0,000	0,069
-494,810	275,265	0,062	0,080
-493,795	-25,648	0,088	-0,038
-492,781	-104,169	-0,048	-0,008
-491,766	-200,000	-0,022	-0,083
-490,751	119,539	-0,094	-0,085
-489,737	800,000	0,029	0,088
-488,722	-88,265	-0,074	0,016
-487,708	76,346	0,046	0,036
-486,693	37,971	0,035	0,023
-485,678	119,250	-0,023	-0,021
-484,664	-133,182	-0,103	0,009
-483,649	800,000	-0,029	-0,083
-482,635	-161,753	-0,079	0,003
-481,620	-200,000	0,008	0,098
-480,605	-56,128	0,075	-0,024
-479,591	210,644	-0,052	-0,059
-478,576	800,000	-0,027	-0,058
-477,562	461,644	-0,144	-0,236
-476,547	-49,767	0,039	0,014
-475,532	8,708	-0,127	-0,070
-474,518	-57,907	0,176	0,056
-473,503	-200,000	-0,011	0,104
-472,489	-200,000	0,005	-0,035
-471,474	-31,504	-0,152	0,062
-470,459	411,002	-0,086	-0,133
-469,445	274,846	-0,091	-0,118
-468,430	69,448	0,084	-0,063
-467,416	800,000	-0,056	0,119
-466,401	-151,749	0,066	-0,003
-465,386	-124,068	0,025	-0,003
-464,372	172,690	-0,052	0,054
-463,357	-80,069	-0,088	0,021
-462,343	-76,754	-0,076	0,019
-461,328	-200,000	0,016	0,090
-460,313	328,792	-0,030	-0,042
-459,299	-76,746	0,024	0,006
-458,284	800,000	0,039	0,095
-457,270	-115,174	-0,103	-0,014
-456,255	800,000	-0,049	-0,114
-455,241	-200,000	-0,006	0,025
-454,226	-200,000	-0,016	-0,093
-453,211	800,000	-0,034	-0,087
-452,197	-200,000	-0,009	-0,175
-451,182	644,275	0,028	0,053
-450,168	-6,003	0,142	0,070
-449,153	800,000	-0,047	-0,114
-448,138	-200,000	-0,009	-0,050
-447,124	-200,000	0,009	0,080
-446,109	133,020	0,013	0,012
-445,095	-200,000	-0,002	0,030
-444,080	800,000	-0,009	0,025
-443,065	205,856	0,011	-0,013
-442,051	800,000	0,052	-0,107
-441,036	-1,468	-0,185	-0,095
-440,022	-27,518	-0,075	-0,032
-439,007	-95,497	0,127	-0,025
-437,992	-26,508	0,131	0,056
-436,978	800,000	-0,017	-0,050
-435,963	765,945	-0,017	0,035
-434,949	220,418	0,022	-0,026
-433,934	116,977	-0,071	-0,064
-432,919	72,449	-0,078	-0,059
-431,905	8,393	-0,098	-0,054
-430,890	38,518	0,090	-0,058
-429,876	-40,356	0,016	0,006
-428,861	800,000	0,030	-0,071
-427,846	-200,000	0,014	0,076
-426,832	257,969	0,033	0,041
-425,817	-200,000	0,020	-0,111
-424,803	-200,000	-0,045	-0,149
-423,788	381,477	0,054	0,081
-422,773	-60,051	0,126	-0,039
-421,759	800,000	0,032	-0,070
-420,744	1,659	-0,112	0,059
-419,730	-25,917	0,073	0,031
-418,715	-72,929	0,074	0,020
-417,701	-200,000	0,008	0,054
-416,686	-200,000	0,013	0,049
-415,671	800,000	0,020	0,048
-414,657	545,951	0,039	0,068
-413,642	297,945	-0,101	0,136
-412,628	-200,000	-0,017	0,059
-411,613	11,126	0,023	0,013
-410,598	-200,000	-0,013	-0,081
-409,584	-141,608	-0,122	0,009
-408,569	-10,117	0,138	0,067
-407,555	419,857	-0,019	0,030
-406,540	39,926	0,080	-0,052
-405,525	-130,288	0,039	0,004
-404,511	22,067	-0,057	0,034
-403,496	800,000	0,051	-0,124
-402,482	-7,734	-0,003	0,001
-401,467	72,146	-0,080	0,060
-400,452	-200,000	-0,002	0,147
-399,438	190,949	-0,056	0,061
-398,423	273,416	0,043	0,055
-397,409	-200,000	-0,003	-0,076
-396,394	-143,109	-0,107	-0,007
-395,379	-14,974	0,101	0,047
-394,365	-165,825	0,171	-0,005
-393,350	-200,000	-0,002	-0,019
-392,336	42,532	-0,052	0,034
-391,321	800,000	0,016	-0,038
-390,306	177,322	-0,043	-0,046
-389,292	-174,232	-0,057	0,001
-388,277	240,699	-0,103	-0,125
-387,263	-116,391	0,081	0,011
-386,248	-200,000	0,012	0,101
-385,233	300,211	0,065	-0,088
-384,219	327,674	-0,044	0,061
-383,204	-50,840	-0,088	-0,030
-382,190	33,375	0,077	0,049
-381,175	49,964	0,049	0,034
-380,160	-59,605	0,111	-0,034
-379,146	-82,799	0,093	-0,022
-378,131	-200,000	0,007	0,029
-377,117	-200,000	0,005	-0,077
-376,102	-131,213	-0,129	-0,012
-375,088	-44,654	-0,011	0,004
-374,073	800,000	-0,028	0,061
-373,058	41,760	0,105	0,069
-372,044	-200,000	0,003	0,168
-371,029	15,817	-0,108	0,061
-370,015	-82,832	-0,105	-0,024
-369,000	-200,000	-0,032	-0,106
-367,985	336,806	0,072	0,102
-366,971	-200,000	-0,017	0,106
-365,956	42,850	0,120	-0,079
-364,942	-83,188	0,015	-0,003
-363,927	-200,000	-0,001	-0,092
-362,912	-54,704	-0,082	-0,027
-361,898	800,000	0,018	-0,052
-360,883	21,716	-0,088	-0,052
-359,869	-200,000	0,006	-0,029
-358,854	44,596	-0,058	0,039
-357,839	194,322	0,058	-0,064
-356,825	-200,000	0,004	0,133
-355,810	597,631	0,073	0,132
-354,796	128,455	-0,116	-0,107
-353,781	-200,000	-0,006	-0,087
-352,766	800,000	-0,024	0,051
-351,752	101,929	0,013	-0,011
-350,737	440,982	0,082	0,130
-349,723	800,000	0,028	0,089
-348,708	340,346	0,049	0,070
-347,693	118,911	-0,151	-0,135
-346,679	800,000	-0,021	0,043
-345,664	-200,000	0,126	0,000
-344,650	-200,000	-0,005	0,078
-343,635	6,723	0,044	-0,024
-342,620	800,000	0,019	0,041
-341,606	1,636	0,085	0,044
-340,591	800,000	-0,035	0,083
-339,577	-29,547	-0,110	0,046
-338,562	-47,893	-0,054	-0,019
-337,548	-200,000	0,042	0,156
-336,533	118,324	0,084	0,075
-335,518	-151,059	0,041	-0,002
-334,504	105,279	-0,068	-0,058
-333,489	-29,878	0,127	0,052
-332,475	-42,528	-0,173	0,064
-331,460	-17,213	-0,157	-0,071
-330,445	800,000	-0,019	-0,042
-329,431	349,797	0,046	0,066
-328,416	-200,000	0,001	0,034
-327,402	-58,179	0,089	0,028
-326,387	-6,200	-0,075	0,037
-325,372	-73,845	-0,109	0,028
-324,358	800,000	0,042	0,104
-323,343	800,000	-0,044	0,109
-322,329	91,553	0,131	0,107
-321,314	768,430	-0,023	0,045
-320,299	-170,074	0,025	0,001
-319,285	-72,747	-0,043	0,011
-318,270	-200,000	-0,003	0,069
-317,256	253,593	-0,052	0,065
-316,241	-49,777	0,141	-0,048
-315,226	69,426	-0,056	0,042
-314,212	300,286	0,020	-0,027
-313,197	192,713	0,041	-0,045
-312,183	-62,494	-0,036	-0,011
-311,168	-92,701	-0,060	0,012
-310,153	436,998	-0,005	0,008
-309,139	800,000	0,059	-0,171
-308,124	-200,000	-0,058	0,227
-307,110	94,703	0,142	-0,117
-306,095	-200,000	0,008	0,098
-305,080	151,471	-0,063	0,062
-304,066	-34,421	-0,141	0,056
-303,051	49,339	0,045	-0,030
-302,037	-200,000	0,018	-0,076
-301,022	192,199	0,063	-0,069
-300,008	9,649	0,080	-0,044
-298,993	287,623	-0,055	0,072
-297,978	37,974	0,085	0,055
-296,964	47,097	0,046	-0,031
-295,949	800,000	-0,050	-0,141
-294,935	81,111	-0,020	0,015
-293,920	60,433	0,077	-0,055
-292,905	800,000	0,039	0,100
-291,891	120,790	0,060	0,054
-290,876	204,323	-0,062	0,070
-289,862	26,436	-0,073	-0,044
-288,847	0,210	0,069	-0,036
-287,832	-200,000	0,016	-0,183
-286,818	-200,000	-0,012	-0,135
-285,803	-200,000	-0,004	0,084
-284,789	150,020	0,033	0,032
-283,774	656,695	-0,040	0,075
-282,759	141,086	0,133	0,127
-281,745	405,096	-0,088	0,134
-280,730	-134,112	0,112	-0,010
-279,716	551,080	0,013	0,023
-278,701	-14,038	-0,048	-0,022
-277,686	134,882	0,102	0,096
-276,672	-200,000	-0,003	0,012
-275,657	-200,000	-0,031	0,104
-274,643	-200,000	0,021	-0,166
-273,628	-120,411	-0,048	0,006
-272,613	423,285	0,020	0,031
-271,599	148,544	-0,010	-0,010
-270,584	26,305	0,188	0,114
-269,570	-175,908	0,075	-0,001
-268,555	-200,000	-0,035	0,139
-267,540	283,121	0,035	0,046
-266,526	-200,000	-0,016	-0,050
-265,511	164,935	0,085	0,087
-264,497	-200,000	-0,022	0,085
-263,482	-189,997	0,093	0,001
-262,467	226,553	0,093	0,109
-261,453	179,913	0,030	-0,032
-260,438	-91,226	0,186	0,038
-259,424	273,089	-0,063	0,081
-258,409	-200,000	0,005	0,062
-257,395	-200,000	-0,017	0,085
-256,380	237,982	0,147	0,177
-255,365	800,000	0,034	0,086
-254,351	-200,000	-0,022	0,077
-253,336	11,161	0,018	-0,010
-252,322	-126,428	-0,075	-0,008
-251,307	800,000	-0,039	-0,082
-250,292	227,740	0,056	0,066
-249,278	103,342	0,066	0,056
-248,263	385,855	0,105	0,157
-247,249	285,970	-0,074	0,097
-246,234	167,100	0,043	-0,044
-245,219	-200,000	0,017	-0,129
-244,205	-200,000	-0,011	-0,112
-243,190	-115,156	0,052	-0,007
-242,176	15,927	-0,097	-0,055
-241,161	112,672	0,126	0,110
-240,146	134,863	-0,142	-0,134
-239,132	12,088	0,088	-0,049
-238,117	-200,000	0,006	-0,029
-237,103	-200,000	-0,044	-0,146
-236,088	19,612	-0,093	-0,054
-235,073	15,052	0,107	-0,060
-234,059	-200,000	-0,021	0,163
-233,044	309,585	0,082	0,111
-232,030	-200,000	0,015	-0,077
-231,015	-39,060	-0,126	-0,048
-230,000	-200,000	-0,021	-0,207
-228,986	-200,000	0,001	0,052
-227,971	448,341	0,056	-0,089
-226,957	800,000	0,012	0,027
-225,942	347,519	0,051	0,072
-224,927	236,680	0,051	-0,061
-223,913	-3,372	-0,125	-0,063
-222,898	-200,000	-0,004	-0,079
-221,884	11,929	-0,082	-0,045
-220,869	372,039	0,088	-0,130
-219,855	39,778	-0,055	0,035
-218,840	-58,432	0,060	-0,019
-217,825	212,020	0,085	-0,097
-216,811	-200,000	0,020	0,088
-215,796	-200,000	-0,001	0,029
-214,782	800,000	-0,077	-0,174
-213,767	46,017	0,099	-0,066
-212,752	-23,368	0,059	0,026
-211,738	800,000	0,015	-0,036
-210,723	-116,308	-0,047	0,006
-209,709	-140,150	0,041	0,003
-208,694	154,405	0,078	-0,078
-207,679	-200,000	-0,014	-0,062
-206,665	209,769	-0,024	-0,027
-205,650	-200,000	-0,001	0,019
-204,636	0,213	-0,054	0,028
-203,621	-200,000	0,006	0,066
-202,606	800,000	0,053	0,115
-201,592	36,069	-0,114	0,072
-200,577	453,433	-0,024	-0,038
-199,563	-97,507	-0,034	0,006
-198,548	-17,434	0,090	0,041
-197,533	126,654	0,095	0,087
-196,519	-33,663	-0,069	0,027
-195,504	-93,508	0,105	-0,021
-194,490	509,094	-0,039	0,065
-193,475	494,303	0,045	0,076
-192,460	-89,077	0,070	-0,015
-191,446	46,493	-0,033	-0,022
-190,431	800,000	0,026	0,058
-189,417	-200,000	-0,012	-0,068
-188,402	72,745	-0,059	0,044
-187,387	206,210	0,021	0,023
-186,373	-200,000	-0,009	-0,122
-185,358	-200,000	-0,041	0,153
-184,344	95,661	-0,084	-0,069
-183,329	76,965	-0,071	0,055
-182,315	-200,000	-0,006	0,063
-181,300	-200,000	-0,007	0,075
-180,285	-8,702	-0,048	0,023
-179,271	-200,000	-0,010	-0,034
-178,256	761,186	0,040	0,080
-177,242	-200,000	-0,032	-0,169
-176,227	181,119	0,106	-0,113
-175,212	-116,946	0,085	-0,011
-174,198	-34,906	0,067	0,026
-173,183	206,815	-0,030	-0,034
-172,169	-52,837	-0,131	0,043
-171,154	-145,857	-0,032	0,002
-170,139	61,001	0,047	0,034
-169,125	-200,000	0,015	0,167
-168,110	32,192	0,038	-0,023
-167,096	691,294	-0,039	0,075
-166,081	800,000	0,014	0,038
-165,066	-124,278	0,177	0,020
-164,052	-120,546	-0,106	0,013
-163,037	-87,781	-0,085	0,018
-162,023	-148,226	-0,074	-0,004
-161,008	-182,512	-0,146	0,002
-159,993	400,211	0,055	-0,083
-158,979	51,676	-0,074	-0,051
-157,964	-200,000	-0,053	-0,177
-156,950	176,832	-0,057	-0,060
-155,935	-200,000	0,012	0,039
-154,920	298,159	0,056	0,075
-153,906	405,893	0,066	0,100
-152,891	-200,000	0,018	0,091
-151,877	-61,727	-0,095	-0,029
-150,862	-200,000	-0,014	-0,065
-149,847	450,540	-0,067	0,107
-148,833	-16,905	-0,070	-0,032
-147,818	-16,784	0,144	0,066
-146,804	51,291	0,115	0,079
-145,789	65,712	-0,100	0,073
-144,775	800,000	-0,053	0,119
-143,760	-200,000	0,027	-0,125
-142,745	-200,000	-0,026	-0,139
-141,731	-143,522	-0,018	-0,001
-140,716	-200,000	-0,026	0,105
-139,702	116,399	0,110	-0,098
-138,687	4,131	-0,046	-0,024
-137,672	800,000	0,023	-0,068
-136,658	26,903	0,027	-0,016
-135,643	734,631	-0,030	-0,058
-134,629	-200,000	0,003	-0,095
-133,614	42,981	0,098	-0,064
-132,599	800,000	0,021	-0,055
-131,585	85,921	-0,094	-0,075
-130,570	169,532	-0,022	0,023
-129,556	-137,948	-0,062	-0,005
-128,541	-165,517	-0,111	-0,003
-127,526	385,697	-0,005	0,008
-126,512	-200,000	0,011	0,106
-125,497	-200,000	0,040	0,149
-124,483	-174,537	-0,051	0,001
-123,468	231,690	-0,065	0,077
-122,453	56,437	-0,067	0,047
-121,439	-144,284	-0,077	-0,005
-120,424	-54,212	-0,051	-0,017
-119,410	800,000	0,067	0,153
