DTS Sentinel unit serial number:	SN410029Multiplexer serial number:	ORYXHardware model number:	OX2-SRSoftware version number:	ORYX F/W v4,00 Oryx Data Collector v3.7.2.0data status	okinstallation	B5 Nyhavnadifferential loss correction	single-endedforward channel	channel 2reverse channel	N/Adate	2023/12/14time	17:27:13forward acquisition time	300,00reverse acquisition time	0,00gamma	499,1914k internal	0,3157k external	0,3157temperature offset calibration	1,0000default loss term (dB/km)	0,3820temperature slope calibration	1,0000multiplexer offset coefficient	1,0000multiplexer slope coefficient	1,0000fibre end	0,00T internal ref (°C)	8,23T ext. ref 1 (°C)	-7,20T ext. ref 2 (°C)	-7,26length (m)	temperature (°C)	Stokes	anti-Stokes-744,400	-44,809	0,291	0,107
-743,385	-120,414	-0,334	0,041
-742,371	774,165	0,087	0,175
-741,356	-145,334	-0,278	0,018
-740,342	28,223	0,237	0,147
-739,327	123,723	-0,250	-0,232
-738,312	44,310	0,100	-0,068
-737,298	-43,302	-0,459	-0,170
-736,283	261,985	0,083	0,106
-735,269	-127,290	-0,366	-0,039
-734,254	-58,678	0,263	0,084
-733,239	-58,185	-0,554	-0,177
-732,225	109,260	0,213	0,188
-731,210	-200,000	-0,032	-0,191
-730,196	479,339	0,053	-0,088
-729,181	487,626	-0,020	-0,034
-728,167	84,137	-0,077	0,062
-727,152	-200,000	0,025	0,156
-726,137	70,275	-0,113	-0,086
-725,123	800,000	-0,036	-0,076
-724,108	-78,253	-0,183	-0,046
-723,094	-200,000	-0,007	-0,117
-722,079	-200,000	-0,001	-0,004
-721,064	323,283	0,075	0,105
-720,050	-200,000	0,003	-0,039
-719,035	-145,337	-0,096	-0,006
-718,021	-200,000	-0,014	-0,092
-717,006	-141,421	-0,070	-0,005
-715,991	93,437	-0,040	0,033
-714,977	-200,000	-0,010	0,038
-713,962	-200,000	-0,013	-0,161
-712,948	300,590	-0,085	-0,115
-711,933	679,382	-0,030	-0,057
-710,918	262,772	0,022	-0,028
-709,904	34,641	-0,137	-0,088
-708,889	-49,555	-0,187	-0,065
-707,875	-200,000	-0,040	-0,201
-706,860	-25,675	0,156	0,067
-705,845	-52,083	0,069	-0,023
-704,831	-200,000	-0,006	0,176
-703,816	129,244	-0,141	-0,133
-702,802	-79,263	-0,077	-0,019
-701,787	-200,000	-0,027	-0,093
-700,772	-200,000	0,042	-0,300
-699,758	147,506	-0,068	0,067
-698,743	-200,000	-0,018	0,150
-697,729	370,620	0,063	0,094
-696,714	100,782	0,113	0,097
-695,699	44,171	0,148	0,100
-694,685	235,432	-0,059	0,071
-693,670	-200,000	0,007	-0,030
-692,656	297,972	0,019	0,026
-691,641	31,534	0,026	-0,017
-690,627	-8,692	0,024	-0,012
-689,612	191,576	0,074	-0,083
-688,597	800,000	-0,022	0,055
-687,583	-200,000	-0,010	-0,035
-686,568	-200,000	0,005	-0,024
-685,554	-122,343	-0,116	0,014
-684,539	-200,000	-0,011	0,109
-683,524	100,504	0,094	-0,080
-682,510	512,819	0,012	-0,020
-681,495	0,203	-0,101	-0,053
-680,481	63,462	0,092	0,068
-679,466	-49,261	-0,133	0,046
-678,451	477,175	0,030	0,050
-677,437	438,558	0,084	0,135
-676,422	-4,912	-0,248	0,125
-675,408	264,791	0,138	0,178
-674,393	-122,372	-0,090	0,011
-673,378	-200,000	0,017	-0,074
-672,364	800,000	0,020	0,047
-671,349	119,485	-0,037	0,034
-670,335	-200,000	-0,015	0,055
-669,320	707,431	0,028	0,055
-668,305	800,000	0,041	-0,126
-667,291	-93,589	-0,057	-0,011
-666,276	391,834	-0,050	-0,077
-665,262	72,212	-0,031	-0,024
-664,247	-124,736	-0,223	-0,025
-663,232	800,000	0,036	0,074
-662,218	-21,096	0,089	-0,040
-661,203	-200,000	0,010	-0,094
-660,189	113,544	0,099	-0,088
-659,174	284,289	-0,034	-0,046
-658,159	-112,482	-0,103	0,015
-657,145	-15,741	-0,090	0,042
-656,130	-32,756	-0,107	-0,044
-655,116	128,855	0,057	0,053
-654,101	-29,023	0,099	0,041
-653,086	-123,047	-0,068	-0,008
-652,072	-200,000	-0,015	0,048
-651,057	800,000	-0,024	-0,072
-650,043	170,710	0,039	-0,041
-649,028	-200,000	0,022	-0,093
-648,014	48,677	0,043	0,029
-646,999	-57,776	-0,126	-0,040
-645,984	26,644	-0,078	0,048
-644,970	140,796	0,060	0,058
-643,955	-109,643	0,082	0,013
-642,941	76,140	-0,111	-0,086
-641,926	2,071	0,042	0,022
-640,911	180,077	-0,059	-0,064
-639,897	-109,404	-0,065	-0,010
-638,882	-66,356	-0,143	-0,042
-637,868	-200,000	0,016	0,053
-636,853	-200,000	0,004	0,035
-635,838	-200,000	-0,034	-0,169
-634,824	800,000	-0,047	-0,147
-633,809	155,767	0,056	-0,057
-632,795	-120,800	-0,104	0,013
-631,780	-184,864	-0,104	-0,001
-630,765	800,000	0,031	0,071
-629,751	-138,107	-0,073	0,006
-628,736	344,053	-0,040	-0,058
-627,722	164,421	0,017	0,017
-626,707	29,628	-0,129	-0,081
-625,692	-94,749	0,065	-0,013
-624,678	208,328	-0,070	0,081
-623,663	-173,689	-0,151	0,003
-622,649	408,620	0,050	0,078
-621,634	-186,974	-0,175	-0,002
-620,619	215,472	-0,171	-0,199
-619,605	-139,459	0,169	0,013
-618,590	6,587	-0,105	0,057
-617,576	-200,000	0,045	0,152
-616,561	-200,000	-0,022	-0,098
-615,546	-40,276	-0,096	-0,036
-614,532	323,085	-0,083	-0,116
-613,517	12,608	0,085	-0,048
-612,503	47,363	0,055	-0,037
-611,488	-36,111	-0,088	0,035
-610,474	-200,000	-0,010	0,214
-609,459	152,392	0,025	0,025
-608,444	-86,537	-0,040	0,009
-607,430	-14,029	-0,093	0,044
-606,415	-42,994	-0,051	-0,019
-605,401	33,688	0,170	-0,108
-604,386	800,000	0,048	0,101
-603,371	86,772	0,029	-0,023
-602,357	-200,000	-0,007	0,079
-601,342	-200,000	0,022	0,086
-600,328	-200,000	0,004	-0,032
-599,313	369,978	0,013	-0,020
-598,298	-89,887	-0,019	-0,004
-597,284	-200,000	-0,019	0,066
-596,269	17,230	-0,086	-0,050
-595,255	391,821	0,024	-0,037
-594,240	168,208	-0,031	-0,033
-593,225	-146,094	-0,097	0,006
-592,211	-200,000	0,009	-0,065
-591,196	-200,000	0,022	0,112
-590,182	213,190	0,069	-0,080
-589,167	116,800	-0,045	0,040
-588,152	655,610	0,038	0,072
-587,138	-200,000	0,003	0,013
-586,123	46,209	-0,068	-0,046
-585,109	-200,000	0,008	0,078
-584,094	410,999	-0,024	0,038
-583,079	683,142	-0,055	0,106
-582,065	274,173	0,049	0,064
-581,050	-200,000	0,013	-0,072
-580,036	504,002	-0,069	-0,118
-579,021	-10,568	0,063	-0,031
-578,006	-42,622	-0,055	-0,020
-576,992	195,875	0,054	0,061
-575,977	482,888	-0,069	0,116
-574,963	379,909	0,091	0,137
-573,948	800,000	-0,058	0,160
-572,934	-135,930	0,090	0,008
-571,919	-200,000	-0,020	-0,168
-570,904	332,156	-0,085	-0,120
-569,890	129,542	-0,030	0,028
-568,875	411,715	-0,067	0,104
-567,861	43,649	0,256	0,171
-566,846	-15,609	0,140	0,065
-565,831	15,689	0,020	-0,011
-564,817	-200,000	0,023	-0,152
-563,802	800,000	-0,008	-0,016
-562,788	85,121	-0,143	0,115
-561,773	800,000	0,025	0,071
-560,758	-200,000	0,009	0,105
-559,744	-200,000	0,008	0,090
-558,729	790,427	-0,059	0,119
-557,715	517,093	-0,016	0,028
-556,700	800,000	-0,023	-0,062
-555,685	-81,238	0,025	0,006
-554,671	800,000	0,043	-0,089
-553,656	-138,781	0,023	0,002
-552,642	800,000	0,005	0,014
-551,627	-177,566	0,047	0,001
-550,612	-200,000	0,019	0,094
-549,598	231,837	-0,029	-0,035
-548,583	800,000	0,034	-0,098
-547,569	507,404	-0,073	0,125
-546,554	-200,000	-0,004	0,121
-545,539	-149,329	0,087	-0,005
-544,525	-19,623	-0,050	-0,023
-543,510	800,000	0,062	-0,134
-542,496	460,150	-0,073	0,119
-541,481	290,132	-0,057	-0,075
-540,466	-200,000	0,024	-0,105
-539,452	-77,493	0,067	0,017
-538,437	415,705	0,054	0,084
-537,423	136,313	0,028	0,027
-536,408	-200,000	-0,005	0,053
-535,393	-200,000	-0,008	-0,079
-534,379	51,716	-0,037	-0,026
-533,364	-62,890	-0,007	0,002
-532,350	-37,478	0,052	-0,020
-531,335	124,083	0,087	0,080
-530,321	203,894	-0,061	-0,069
-529,306	-200,000	0,019	-0,073
-528,291	-174,980	-0,022	-0,000
-527,277	-200,000	-0,009	0,076
-526,262	800,000	0,029	0,068
-525,248	131,549	-0,045	0,042
-524,233	13,795	0,043	0,025
-523,218	800,000	-0,024	-0,060
-522,204	-66,455	0,050	-0,014
-521,189	800,000	-0,027	-0,073
-520,175	-200,000	-0,019	0,095
-519,160	-200,000	0,021	-0,214
-518,145	517,512	0,040	0,069
-517,131	-111,303	0,141	-0,021
-516,116	545,840	0,046	0,081
-515,102	-23,650	0,044	0,019
-514,087	-89,269	-0,133	-0,028
-513,072	93,650	-0,064	-0,053
-512,058	348,254	-0,018	0,026
-511,043	33,784	-0,042	0,026
-510,029	-117,857	0,022	-0,003
-509,014	96,098	-0,050	0,041
-507,999	395,843	-0,046	-0,070
-506,985	-17,009	0,087	0,040
-505,970	115,409	-0,134	-0,119
-504,956	222,554	0,071	-0,083
-503,941	78,037	0,052	0,041
-502,926	-200,000	0,005	-0,064
-501,912	27,416	0,077	0,047
-500,897	122,322	0,039	-0,035
-499,883	-123,170	-0,083	-0,010
-498,868	312,605	-0,021	0,029
-497,853	459,522	0,081	-0,132
-496,839	122,725	0,018	0,016
-495,824	-200,000	0,014	-0,087
-494,810	-18,947	0,149	-0,067
-493,795	-200,000	0,012	0,164
-492,781	-22,416	-0,084	0,037
-491,766	108,358	0,042	0,036
-490,751	45,771	-0,073	0,049
-489,737	800,000	-0,061	0,178
-488,722	-200,000	0,001	0,060
-487,708	-6,691	0,095	0,047
-486,693	71,655	0,091	0,069
-485,678	-136,430	-0,192	0,016
-484,664	-200,000	-0,012	0,093
-483,649	-200,000	-0,010	0,186
-482,635	133,772	0,046	-0,043
-481,620	800,000	0,036	0,083
-480,605	441,279	0,072	-0,115
-479,591	11,588	-0,041	0,023
-478,576	735,016	0,020	0,039
-477,562	-200,000	-0,044	-0,159
-476,547	-50,711	0,094	-0,032
-475,532	800,000	-0,072	-0,180
-474,518	-127,100	0,030	-0,003
-473,503	-101,730	0,037	-0,006
-472,489	35,316	0,127	-0,081
-471,474	-200,000	0,012	-0,113
-470,459	-33,461	-0,019	-0,008
-469,445	-89,079	-0,063	-0,013
-468,430	-200,000	-0,002	0,153
-467,416	-200,000	0,024	0,094
-466,401	-161,371	0,013	0,000
-465,386	800,000	0,009	0,022
-464,372	-200,000	-0,007	0,139
-463,357	-200,000	0,020	-0,108
-462,343	174,091	-0,073	-0,077
-461,328	197,987	-0,040	-0,045
-460,313	-106,722	0,142	0,023
-459,299	-93,822	0,169	0,034
-458,284	680,590	0,070	0,133
-457,270	53,626	-0,162	-0,113
-456,255	-200,000	-0,036	-0,148
-455,241	-180,079	-0,136	0,002
-454,226	32,782	0,050	-0,031
-453,211	282,595	0,011	-0,015
-452,197	768,439	-0,056	0,112
-451,182	101,414	0,042	0,036
-450,168	-32,078	0,043	0,017
-449,153	-200,000	0,004	0,095
-448,138	-200,000	0,061	0,200
-447,124	-190,082	-0,054	-0,000
-446,109	-200,000	-0,015	-0,190
-445,095	69,161	-0,034	0,025
-444,080	-200,000	0,029	-0,103
-443,065	537,160	-0,018	-0,031
-442,051	-193,398	-0,025	-0,000
-441,036	-160,632	0,042	-0,002
-440,022	800,000	-0,031	0,064
-439,007	-200,000	0,004	0,110
-437,992	-51,532	0,085	-0,029
-436,978	800,000	0,045	-0,105
-435,963	-85,509	0,016	-0,004
-434,949	-145,154	-0,174	0,011
-433,934	55,486	-0,092	-0,065
-432,919	196,449	-0,057	-0,063
-431,905	-200,000	0,025	-0,149
-430,890	-47,833	0,114	0,040
-429,876	-200,000	0,011	0,120
-428,861	-200,000	-0,003	0,035
-427,846	-200,000	0,006	-0,024
-426,832	-92,881	0,094	-0,019
-425,817	800,000	0,023	-0,069
-424,803	-16,078	0,036	-0,016
-423,788	58,491	0,097	0,069
-422,773	303,667	0,068	0,092
-421,759	76,012	0,087	0,067
-420,744	-200,000	0,015	-0,143
-419,730	-69,795	-0,080	0,022
-418,715	-156,065	0,029	0,001
-417,701	800,000	-0,004	-0,011
-416,686	369,438	0,011	0,016
-415,671	-200,000	0,011	-0,138
-414,657	506,793	-0,042	-0,071
-413,642	-26,889	0,020	0,008
-412,628	-200,000	-0,004	-0,059
-411,613	-43,507	-0,167	-0,061
-410,598	347,703	-0,028	0,040
-409,584	-200,000	0,018	0,163
-408,569	1,711	-0,018	0,009
-407,555	-48,807	0,066	-0,023
-406,540	274,009	0,109	-0,141
-405,525	26,805	-0,037	0,023
-404,511	38,940	-0,035	0,023
-403,496	-6,108	0,017	0,009
-402,482	-25,150	-0,069	-0,030
-401,467	0,637	0,047	0,025
-400,452	800,000	0,049	0,127
-399,438	-47,123	-0,045	0,016
-398,423	294,512	0,041	-0,055
-397,409	-96,897	0,075	0,014
-396,394	68,196	-0,050	0,037
-395,379	265,902	0,061	0,077
-394,365	-137,647	0,076	0,006
-393,350	0,664	-0,082	0,043
-392,336	273,227	-0,143	-0,184
-391,321	-16,164	-0,156	0,072
-390,306	-28,626	0,069	-0,029
-389,292	227,531	-0,051	0,061
-388,277	-57,992	0,078	-0,025
-387,263	-122,474	0,194	0,023
-386,248	-29,292	0,058	0,024
-385,233	800,000	-0,028	-0,071
-384,219	-11,591	-0,076	0,036
-383,204	-200,000	-0,104	0,000
-382,190	136,481	-0,080	0,076
-381,175	-200,000	0,001	0,115
-380,160	233,482	-0,019	-0,022
-379,146	-200,000	0,000	0,165
-378,131	-200,000	0,023	0,102
-377,117	-200,000	-0,002	0,146
-376,102	235,126	-0,037	-0,045
-375,088	133,515	0,087	-0,082
-374,073	152,109	0,007	-0,007
-373,058	-200,000	0,006	-0,102
-372,044	-141,533	0,093	0,007
-371,029	362,765	-0,059	-0,086
-370,015	3,236	0,084	0,044
-369,000	-32,496	0,108	-0,044
-367,985	-200,000	-0,006	-0,074
-366,971	191,210	0,065	-0,071
-365,956	761,165	-0,055	0,109
-364,942	-116,726	-0,109	0,014
-363,927	530,937	0,074	0,128
-362,912	133,784	-0,197	0,185
-361,898	800,000	-0,065	-0,133
-360,883	-92,485	-0,078	-0,016
-359,869	-104,203	-0,103	0,017
-358,854	-65,379	0,091	-0,026
-357,839	-46,181	0,059	-0,021
-356,825	800,000	-0,063	-0,130
-355,810	-200,000	-0,005	-0,057
-354,796	-43,289	-0,142	-0,052
-353,781	62,474	-0,086	-0,062
-352,766	800,000	0,084	-0,232
-351,752	52,836	-0,050	-0,034
-350,737	-105,765	0,095	-0,015
-349,723	302,380	0,037	-0,050
-348,708	34,999	0,131	0,083
-347,693	352,751	-0,065	-0,093
-346,679	517,432	-0,050	-0,085
-345,664	166,439	-0,081	-0,083
-344,650	13,955	0,055	-0,031
-343,635	800,000	-0,058	0,152
-342,620	800,000	-0,027	-0,068
-341,606	-200,000	0,001	-0,040
-340,591	-102,112	-0,086	0,015
-339,577	-200,000	0,034	-0,144
-338,562	461,848	-0,061	-0,099
-337,548	276,611	-0,027	-0,035
-336,533	-200,000	-0,020	0,154
-335,518	800,000	0,046	-0,102
-334,504	412,168	-0,063	0,098
-333,489	800,000	0,013	0,039
-332,475	-200,000	0,000	0,035
-331,460	83,414	-0,090	0,071
-330,445	-44,454	0,091	-0,033
-329,431	145,489	-0,112	0,109
-328,416	-69,297	0,109	0,030
-327,402	-119,673	-0,070	-0,009
-326,387	-104,621	0,165	0,027
-325,372	124,401	-0,139	-0,127
-324,358	71,606	0,060	0,045
-323,343	-200,000	-0,005	-0,113
-322,329	-200,000	0,029	0,174
-321,314	-200,000	-0,006	0,102
-320,299	-200,000	-0,010	0,037
-319,285	140,081	-0,069	0,066
-318,270	212,827	-0,023	0,026
-317,256	419,930	-0,051	-0,080
-316,241	491,934	0,015	-0,025
-315,226	-187,162	0,067	0,001
-314,212	91,700	-0,047	0,039
-313,197	-200,000	-0,025	0,083
-312,183	37,373	-0,024	-0,015
-311,168	265,460	0,077	-0,098
-310,153	-102,142	-0,108	-0,019
-309,139	800,000	0,017	-0,036
-308,124	-200,000	0,013	0,089
-307,110	26,855	0,057	0,035
-306,095	-200,000	-0,008	0,132
-305,080	-25,195	0,051	-0,022
-304,066	-75,743	-0,020	0,005
-303,051	479,595	0,064	-0,106
-302,037	-200,000	-0,019	-0,151
-301,022	80,097	0,038	-0,029
-300,008	2,807	-0,024	0,012
-298,993	108,457	0,041	0,036
-297,978	136,363	0,064	0,060
-296,964	-82,853	0,016	0,004
-295,949	-200,000	-0,009	-0,124
-294,935	218,222	0,109	-0,127
-293,920	-54,758	0,162	0,053
-292,905	-109,989	0,195	-0,029
-291,891	65,611	-0,024	0,017
-290,876	-81,767	0,078	0,018
-289,862	520,866	-0,059	-0,100
-288,847	-68,045	0,129	-0,036
-287,832	-84,715	-0,081	-0,018
-286,818	-200,000	0,010	0,040
-285,803	-64,916	0,085	0,025
-284,789	-51,749	0,058	0,020
-283,774	-144,262	-0,037	0,002
-282,759	800,000	-0,015	0,040
-281,745	-200,000	0,012	-0,041
-280,730	-200,000	0,030	-0,150
-279,716	-200,000	-0,005	0,104
-278,701	8,434	-0,116	0,063
-277,686	-200,000	0,020	0,117
-276,672	-57,641	-0,117	-0,037
-275,657	800,000	-0,011	-0,027
-274,643	253,471	-0,051	-0,063
-273,628	800,000	-0,045	-0,096
-272,613	-200,000	0,087	0,000
-271,599	-37,551	0,120	0,046
-270,584	800,000	0,017	0,053
-269,570	-166,056	0,023	0,001
-268,555	-70,535	0,083	-0,022
-267,540	391,159	0,074	0,111
-266,526	800,000	0,021	0,066
-265,511	265,421	0,039	0,049
-264,497	-143,712	0,051	-0,003
-263,482	424,669	0,035	-0,054
-262,467	-140,173	0,055	-0,004
-261,453	800,000	0,079	-0,185
-260,438	36,535	-0,122	-0,078
-259,424	465,378	-0,025	-0,041
-258,409	-39,628	-0,041	0,015
-257,395	-200,000	0,025	-0,131
-256,380	18,069	0,016	0,009
-255,365	14,811	0,143	0,081
-254,351	-200,000	0,004	0,034
-253,336	-155,193	-0,090	0,004
-252,322	800,000	0,041	-0,104
-251,307	-200,000	-0,008	0,052
-250,292	93,500	0,022	0,018
-249,278	800,000	-0,020	-0,043
-248,263	-23,605	0,139	0,060
-247,249	-200,000	-0,019	0,062
-246,234	-44,586	0,019	0,007
-245,219	-82,491	-0,079	-0,018
-244,205	14,915	0,051	0,029
-243,190	-5,966	0,072	0,036
-242,176	800,000	-0,064	0,151
-241,161	61,391	-0,105	-0,076
-240,146	61,309	0,056	0,040
-239,132	-123,683	-0,148	-0,017
-238,117	-200,000	-0,018	0,091
-237,103	195,529	0,061	0,067
-236,088	-59,213	0,027	-0,008
-235,073	-200,000	-0,003	0,144
-234,059	-44,547	-0,120	-0,043
-233,044	-52,601	0,022	0,007
-232,030	-200,000	0,000	-0,017
-231,015	800,000	-0,060	0,123
-230,000	130,272	-0,012	-0,012
-228,986	131,493	-0,118	0,109
-227,971	272,379	0,043	0,055
-226,957	-28,566	-0,030	-0,012
-225,942	173,245	0,064	-0,067
-224,927	208,063	0,044	-0,050
-223,913	800,000	0,038	0,119
-222,898	-200,000	0,012	0,059
-221,884	-24,066	-0,119	-0,051
-220,869	517,734	-0,047	-0,080
-219,855	574,218	0,040	-0,071
-218,840	110,394	0,056	0,048
-217,825	-200,000	-0,021	0,135
-216,811	188,284	0,046	-0,050
-215,796	93,507	-0,113	0,093
-214,782	-200,000	-0,006	-0,105
-213,767	-106,568	0,156	-0,025
-212,752	130,636	0,066	0,061
-211,738	800,000	-0,056	-0,142
-210,723	800,000	0,077	-0,160
-209,709	62,855	-0,086	-0,062
-208,694	406,486	-0,077	-0,118
-207,679	-71,330	-0,039	-0,011
-206,665	800,000	-0,008	-0,021
-205,650	-114,018	0,110	-0,015
-204,636	-69,995	0,065	-0,018
-203,621	35,539	-0,051	0,032
-202,606	-200,000	0,030	0,155
-201,592	110,290	-0,062	-0,054
-200,577	142,490	-0,027	-0,025
-199,563	123,165	-0,071	0,064
-198,548	-175,930	0,152	-0,003
-197,533	-200,000	0,032	0,104
-196,519	-100,275	0,112	-0,020
-195,504	-200,000	0,005	-0,033
-194,490	-18,124	-0,081	0,037
-193,475	-74,147	0,065	-0,017
-192,460	-166,907	0,042	-0,001
-191,446	-200,000	0,007	-0,116
-190,431	800,000	-0,075	-0,216
-189,417	-35,739	-0,050	0,019
-188,402	314,452	-0,017	-0,023
-187,387	16,166	-0,056	-0,032
-186,373	-88,256	-0,074	0,016
-185,358	800,000	-0,081	0,182
-184,344	-90,098	-0,045	0,009
-183,329	76,943	-0,060	-0,046
-182,315	-82,325	0,074	0,017
-181,300	-32,471	-0,123	-0,049
-180,285	451,498	0,020	-0,031
-179,271	-200,000	-0,017	-0,060
-178,256	-178,817	-0,118	0,002
-177,242	-200,000	0,152	-0,000
-176,227	-200,000	-0,007	0,080
-175,212	95,013	-0,035	0,029
-174,198	27,411	-0,102	0,061
-173,183	-178,579	0,020	0,000
-172,169	-200,000	0,026	-0,110
-171,154	-200,000	-0,011	-0,052
-170,139	-20,844	0,050	-0,022
-169,125	142,965	-0,068	-0,065
-168,110	-200,000	-0,026	0,092
-167,096	-159,396	0,049	0,002
-166,081	3,794	-0,150	-0,079
-165,066	-200,000	0,032	-0,112
-164,052	-55,238	0,089	0,029
-163,037	59,308	0,156	0,110
-162,023	34,945	0,126	0,080
-161,008	-200,000	0,021	0,105
-159,993	72,370	-0,050	0,037
-158,979	-110,686	0,097	-0,014
-157,964	271,627	-0,053	-0,068
-156,950	-200,000	-0,002	-0,086
-155,935	-200,000	0,009	0,078
-154,920	48,905	0,058	-0,039
-153,906	364,331	-0,075	-0,109
-152,891	468,452	0,061	-0,099
-151,877	111,547	-0,055	-0,048
-150,862	14,019	-0,057	-0,032
-149,847	-5,863	-0,118	-0,058
-148,833	-200,000	0,005	-0,102
-147,818	-90,422	0,098	0,020
-146,804	373,431	0,055	0,080
-145,789	-49,678	0,066	-0,023
-144,775	344,158	-0,021	-0,029
-143,760	-38,918	0,062	-0,023
-142,745	-67,747	-0,104	0,029
-141,731	-20,803	-0,028	0,012
-140,716	-67,300	-0,082	0,023
-139,702	564,935	-0,073	0,127
-138,687	53,023	-0,043	0,030
-137,672	128,576	0,021	-0,019
-136,658	-151,035	-0,121	-0,006
-135,643	208,066	-0,081	-0,091
-134,629	651,280	-0,040	0,075
-133,614	-49,400	-0,106	0,036
-132,599	-6,969	-0,114	0,055
-131,585	800,000	-0,010	-0,030
-130,570	-200,000	0,019	-0,182
-129,556	-193,799	-0,029	0,000
-128,541	-200,000	-0,032	-0,165
-127,526	530,803	-0,093	0,160
-126,512	-143,495	-0,139	0,009
-125,497	160,964	0,050	0,050
-124,483	81,127	0,083	0,065
-123,468	319,144	-0,055	0,075
-122,453	800,000	-0,030	-0,061
-121,439	-24,935	-0,020	0,009
-120,424	477,316	-0,045	0,073
-119,410	-200,000	0,004	-0,145
