DTS Sentinel unit serial number:	SN410029Multiplexer serial number:	ORYXHardware model number:	OX2-SRSoftware version number:	ORYX F/W v4,00 Oryx Data Collector v3.7.2.0data status	okinstallation	B5 Nyhavnadifferential loss correction	single-endedforward channel	channel 2reverse channel	N/Adate	2023/12/12time	02:42:13forward acquisition time	300,00reverse acquisition time	0,00gamma	499,1914k internal	0,3156k external	0,3156temperature offset calibration	1,0000default loss term (dB/km)	0,3820temperature slope calibration	1,0000multiplexer offset coefficient	1,0000multiplexer slope coefficient	1,0000fibre end	0,00T internal ref (°C)	15,75T ext. ref 1 (°C)	-0,61T ext. ref 2 (°C)	-0,88length (m)	temperature (°C)	Stokes	anti-Stokes-744,400	384,466	0,061	-0,093
-743,385	-74,529	-0,260	-0,069
-742,371	800,000	0,079	0,177
-741,356	-49,164	-0,332	-0,117
-740,342	-144,959	0,010	-0,001
-739,327	-173,979	-0,322	-0,007
-738,312	32,133	0,034	-0,022
-737,298	-121,094	-0,233	0,028
-736,283	10,698	0,108	-0,061
-735,269	-112,238	-0,257	0,038
-734,254	675,917	0,002	-0,003
-733,239	-45,614	-0,532	-0,193
-732,225	0,940	0,090	-0,048
-731,210	66,216	-0,116	0,087
-730,196	800,000	0,025	-0,054
-729,181	-36,492	-0,057	-0,022
-728,167	-200,000	-0,001	0,066
-727,152	800,000	-0,053	-0,135
-726,137	-75,039	-0,057	0,015
-725,123	-120,737	-0,161	-0,020
-724,108	800,000	-0,040	-0,097
-723,094	517,836	-0,088	-0,152
-722,079	28,378	-0,085	-0,053
-721,064	31,436	-0,067	-0,042
-720,050	-200,000	0,016	-0,114
-719,035	263,226	0,097	-0,125
-718,021	-200,000	0,005	-0,046
-717,006	-200,000	-0,020	-0,203
-715,991	50,516	-0,068	-0,047
-714,977	15,821	-0,113	-0,065
-713,962	800,000	0,011	-0,029
-712,948	32,556	-0,083	0,053
-711,933	-200,000	-0,025	0,187
-710,918	-200,000	0,003	0,020
-709,904	-200,000	-0,017	-0,169
-708,889	610,266	0,033	0,061
-707,875	-200,000	-0,006	-0,152
-706,860	122,586	0,011	-0,010
-705,845	63,581	-0,114	0,084
-704,831	-200,000	-0,011	0,091
-703,816	31,605	-0,014	0,009
-702,802	800,000	0,032	-0,077
-701,787	-200,000	0,015	0,111
-700,772	800,000	0,028	0,090
-699,758	800,000	-0,027	-0,071
-698,743	800,000	-0,025	0,067
-697,729	-38,168	0,015	0,006
-696,714	-195,468	-0,065	-0,000
-695,699	445,662	-0,020	-0,032
-694,685	28,951	-0,109	-0,068
-693,670	-89,196	0,078	0,017
-692,656	-200,000	-0,010	0,086
-691,641	154,304	0,078	-0,079
-690,627	-200,000	-0,002	0,042
-689,612	144,922	0,085	0,084
-688,597	153,082	-0,080	-0,081
-687,583	36,774	-0,179	-0,116
-686,568	-169,466	-0,128	-0,003
-685,554	263,153	0,106	-0,136
-684,539	441,277	0,012	0,020
-683,524	800,000	0,034	0,086
-682,510	-73,838	0,099	0,026
-681,495	83,846	-0,121	0,097
-680,481	-200,000	-0,026	0,172
-679,466	800,000	-0,019	-0,051
-678,451	170,538	-0,015	-0,016
-677,437	110,827	-0,074	0,066
-676,422	140,504	0,021	0,021
-675,408	243,587	0,101	0,124
-674,393	-136,570	0,089	-0,007
-673,378	-48,386	-0,064	0,023
-672,364	-72,090	0,105	0,029
-671,349	107,888	0,101	-0,089
-670,335	800,000	0,052	0,139
-669,320	3,261	-0,023	0,012
-668,305	-200,000	0,015	-0,101
-667,291	-50,302	0,029	-0,010
-666,276	-96,806	-0,058	-0,011
-665,262	-200,000	-0,012	-0,056
-664,247	-200,000	0,010	-0,039
-663,232	-200,000	0,001	-0,084
-662,218	61,938	0,070	0,051
-661,203	549,976	-0,048	-0,086
-660,189	266,067	0,059	0,076
-659,174	-71,920	-0,047	-0,013
-658,159	-151,677	-0,083	-0,004
-657,145	800,000	-0,015	0,033
-656,130	-24,727	-0,026	0,011
-655,116	-200,000	-0,034	-0,131
-654,101	-200,000	-0,033	0,137
-653,086	-84,596	0,110	0,025
-652,072	-30,548	0,056	-0,023
-651,057	16,919	-0,170	0,098
-650,043	800,000	-0,037	-0,103
-649,028	800,000	0,049	0,112
-648,014	-200,000	-0,006	0,039
-646,999	-22,519	0,046	-0,021
-645,984	-200,000	-0,003	0,073
-644,970	362,885	0,033	0,049
-643,955	800,000	-0,079	-0,178
-642,941	-6,759	-0,139	-0,069
-641,926	165,377	0,068	-0,071
-640,911	-200,000	0,009	0,052
-639,897	42,587	0,033	-0,022
-638,882	86,651	0,017	0,014
-637,868	503,059	0,039	-0,067
-636,853	-68,241	-0,041	-0,012
-635,838	-91,130	-0,079	0,017
-634,824	-29,529	-0,101	-0,042
-633,809	119,738	-0,025	-0,022
-632,795	-200,000	-0,001	0,117
-631,780	32,868	-0,078	-0,050
-630,765	-1,173	-0,056	0,029
-629,751	-200,000	0,016	-0,103
-628,736	6,757	-0,099	0,054
-627,722	166,035	-0,070	0,073
-626,707	174,928	0,126	0,134
-625,692	800,000	0,014	-0,037
-624,678	111,636	-0,051	-0,045
-623,663	21,300	0,091	0,054
-622,649	69,369	-0,030	0,023
-621,634	331,954	-0,036	-0,052
-620,619	-43,266	-0,061	0,022
-619,605	222,122	0,040	-0,047
-618,590	-53,775	-0,093	0,031
-617,576	155,124	0,067	0,068
-616,561	222,698	0,061	-0,072
-615,546	-200,000	0,017	-0,197
-614,532	-200,000	-0,033	-0,245
-613,517	-56,986	-0,151	-0,049
-612,503	-68,253	-0,060	0,017
-611,488	-165,458	0,020	0,001
-610,474	-139,866	0,106	0,008
-609,459	140,596	-0,083	-0,080
-608,444	-200,000	-0,011	0,105
-607,430	84,225	-0,131	0,105
-606,415	-88,601	-0,044	0,010
-605,401	-50,579	-0,119	-0,041
-604,386	800,000	-0,034	-0,077
-603,371	-200,000	0,004	0,169
-602,357	-76,326	0,151	-0,039
-601,342	299,931	0,062	-0,083
-600,328	-137,650	-0,074	-0,006
-599,313	143,808	-0,167	0,163
-598,298	101,686	-0,064	-0,055
-597,284	-103,598	0,116	0,020
-596,269	-200,000	0,002	0,066
-595,255	-6,394	0,160	0,080
-594,240	800,000	0,012	0,036
-593,225	800,000	-0,045	0,112
-592,211	125,321	-0,039	-0,036
-591,196	-43,078	0,082	-0,030
-590,182	-59,714	0,118	0,037
-589,167	-93,408	0,054	-0,011
-588,152	135,573	0,140	-0,134
-587,138	800,000	-0,067	-0,177
-586,123	800,000	0,039	-0,116
-585,109	-110,522	-0,142	-0,021
-584,094	115,116	0,033	-0,029
-583,079	156,223	0,043	-0,044
-582,065	-200,000	-0,011	0,130
-581,050	-200,000	-0,048	0,209
-580,036	-200,000	-0,004	0,095
-579,021	69,659	0,125	-0,095
-578,006	-64,542	-0,137	0,041
-576,992	-17,906	0,107	-0,049
-575,977	-7,858	-0,099	-0,049
-574,963	800,000	-0,034	-0,098
-573,948	-57,204	-0,119	0,038
-572,934	-69,703	-0,107	0,030
-571,919	4,088	-0,044	0,024
-570,904	800,000	0,037	-0,102
-569,890	577,647	-0,008	0,014
-568,875	21,500	-0,153	0,091
-567,861	-130,575	0,187	-0,018
-566,846	-95,118	0,029	-0,006
-565,831	342,454	0,024	-0,035
-564,817	-96,545	0,128	0,024
-563,802	-200,000	-0,009	-0,040
-562,788	217,643	0,095	-0,112
-561,773	-59,168	-0,059	-0,018
-560,758	800,000	-0,053	0,122
-559,744	214,871	0,106	-0,123
-558,729	126,172	0,047	-0,044
-557,715	493,217	-0,033	-0,055
-556,700	-114,305	-0,171	-0,024
-555,685	193,221	-0,027	-0,030
-554,671	-142,213	0,071	-0,005
-553,656	-200,000	0,003	-0,112
-552,642	-200,000	0,004	-0,057
-551,627	133,239	0,099	0,094
-550,612	324,094	0,022	0,031
-549,598	-89,990	-0,063	0,013
-548,583	766,699	-0,053	-0,105
-547,569	58,180	-0,120	0,086
-546,554	463,166	-0,048	0,079
-545,539	118,049	0,075	0,068
-544,525	-200,000	-0,021	-0,130
-543,510	800,000	-0,061	-0,162
-542,496	90,181	-0,057	-0,047
-541,481	-135,999	-0,129	-0,011
-540,466	61,141	0,050	-0,036
-539,452	800,000	0,051	0,103
-538,437	800,000	0,077	0,163
-537,423	800,000	0,054	-0,140
-536,408	19,966	-0,081	0,048
-535,393	491,043	-0,056	-0,093
-534,379	378,384	0,043	-0,064
-533,364	-200,000	-0,008	0,128
-532,350	-114,694	0,214	-0,030
-531,335	-200,000	-0,004	0,079
-530,321	-200,000	0,006	0,054
-529,306	-200,000	0,005	0,031
-528,291	-142,550	-0,072	-0,005
-527,277	545,151	-0,048	-0,083
-526,262	154,117	0,021	-0,021
-525,248	800,000	0,021	-0,060
-524,233	276,547	0,053	0,070
-523,218	-55,623	0,141	0,046
-522,204	-200,000	-0,002	0,008
-521,189	-188,933	-0,038	0,000
-520,175	-128,476	-0,074	0,008
-519,160	2,210	-0,077	0,040
-518,145	-200,000	0,003	0,014
-517,131	489,644	-0,033	-0,055
-516,116	-120,122	-0,020	0,002
-515,102	-116,789	0,147	0,019
-514,087	-111,817	0,047	0,007
-513,072	197,889	-0,040	0,045
-512,058	15,951	-0,051	-0,029
-511,043	800,000	-0,031	0,078
-510,029	-26,586	0,077	-0,033
-509,014	-58,006	-0,031	0,010
-507,999	-108,357	0,155	0,024
-506,985	-40,093	-0,082	-0,031
-505,970	50,705	0,082	0,056
-504,956	-57,764	0,084	0,027
-503,941	800,000	0,032	0,084
-502,926	5,344	0,061	0,033
-501,912	-200,000	0,001	0,031
-500,897	81,552	0,036	0,028
-499,883	-99,182	-0,057	0,010
-498,868	800,000	-0,043	-0,136
-497,853	26,427	-0,109	-0,067
-496,839	800,000	0,032	-0,088
-495,824	-118,454	0,068	-0,009
-494,810	-166,812	-0,037	0,001
-493,795	-200,000	-0,034	0,208
-492,781	-200,000	-0,003	-0,098
-491,766	59,334	-0,074	0,053
-490,751	149,822	0,094	-0,094
-489,737	-65,487	0,085	-0,025
-488,722	53,021	0,063	0,044
-487,708	72,300	0,038	0,029
-486,693	-200,000	0,007	0,134
-485,678	-92,155	0,100	0,021
-484,664	51,098	-0,083	-0,057
-483,649	-183,366	0,115	-0,001
-482,635	-142,533	0,102	-0,007
-481,620	61,281	0,130	0,094
-480,605	-200,000	0,033	0,116
-479,591	-115,791	0,081	0,011
-478,576	115,170	-0,054	0,048
-477,562	71,267	-0,078	-0,059
-476,547	25,010	-0,007	0,004
-475,532	800,000	-0,040	-0,108
-474,518	357,394	0,061	0,089
-473,503	468,371	-0,043	-0,071
-472,489	800,000	-0,039	-0,097
-471,474	800,000	0,018	-0,046
-470,459	-32,416	0,033	-0,013
-469,445	-200,000	-0,035	-0,205
-468,430	-119,918	-0,120	-0,015
-467,416	-200,000	0,010	-0,036
-466,401	800,000	-0,005	0,014
-465,386	626,215	0,065	0,119
-464,372	-19,086	-0,115	0,052
-463,357	363,861	-0,097	-0,143
-462,343	-200,000	-0,003	-0,096
-461,328	-11,243	-0,095	-0,046
-460,313	-73,024	-0,068	0,018
-459,299	-80,614	-0,087	-0,021
-458,284	529,194	0,057	0,098
-457,270	190,955	-0,055	0,060
-456,255	-200,000	-0,010	-0,151
-455,241	139,687	-0,096	-0,092
-454,226	47,479	0,071	-0,048
-453,211	266,060	-0,057	-0,073
-452,197	-116,366	-0,084	0,011
-451,182	800,000	0,025	0,062
-450,168	3,797	-0,110	0,059
-449,153	800,000	0,036	0,081
-448,138	-103,026	-0,033	0,006
-447,124	-60,079	0,063	-0,019
-446,109	-44,149	0,074	-0,027
-445,095	-18,138	-0,037	0,017
-444,080	76,156	0,100	0,077
-443,065	277,757	-0,007	0,009
-442,051	800,000	-0,062	0,132
-441,036	155,040	-0,076	0,077
-440,022	-200,000	-0,012	-0,083
-439,007	-11,431	-0,029	0,014
-437,992	-105,853	-0,010	-0,002
-436,978	702,509	0,073	0,141
-435,963	-200,000	0,019	0,201
-434,949	416,864	-0,114	0,178
-433,934	68,874	0,060	-0,045
-432,919	205,299	-0,065	-0,074
-431,905	-200,000	-0,011	0,038
-430,890	15,205	-0,123	0,070
-429,876	-200,000	0,015	-0,106
-428,861	134,976	0,149	0,141
-427,846	131,176	-0,064	-0,060
-426,832	-4,195	-0,079	0,040
-425,817	3,011	0,107	-0,056
-424,803	-144,377	-0,026	-0,002
-423,788	-80,305	-0,078	-0,019
-422,773	-200,000	0,023	-0,111
-421,759	-116,692	-0,076	0,010
-420,744	-200,000	0,011	0,055
-419,730	99,225	0,039	0,033
-418,715	645,861	0,013	-0,024
-417,701	-172,632	-0,068	0,002
-416,686	-200,000	-0,008	-0,057
-415,671	480,460	0,042	0,070
-414,657	-200,000	-0,017	-0,110
-413,642	-33,489	-0,084	-0,033
-412,628	358,118	0,038	-0,056
-411,613	-200,000	-0,006	-0,083
-410,598	-176,629	-0,165	0,003
-409,584	-53,107	0,055	-0,018
-408,569	-2,156	-0,035	0,018
-407,555	30,664	0,112	0,070
-406,540	800,000	-0,040	0,115
-405,525	-147,912	-0,177	0,011
-404,511	683,124	0,025	-0,048
-403,496	258,858	-0,018	-0,023
-402,482	272,154	0,073	0,093
-401,467	-49,626	-0,143	-0,049
-400,452	-130,402	0,132	-0,013
-399,438	800,000	-0,031	0,076
-398,423	12,516	0,050	-0,028
-397,409	-200,000	0,014	-0,079
-396,394	-135,307	-0,074	-0,006
-395,379	-176,298	-0,081	-0,002
-394,365	-200,000	0,030	0,099
-393,350	-57,802	0,076	0,024
-392,336	140,862	-0,028	0,027
-391,321	617,162	-0,042	0,077
-390,306	-48,113	-0,040	-0,014
-389,292	227,491	0,030	-0,035
-388,277	-68,705	0,148	-0,041
-387,263	150,563	0,097	0,095
-386,248	89,653	-0,127	0,103
-385,233	566,744	0,048	0,084
-384,219	-200,000	-0,006	0,168
-383,204	-171,289	0,063	0,002
-382,190	800,000	-0,047	-0,100
-381,175	-200,000	-0,010	-0,062
-380,160	800,000	0,015	0,034
-379,146	-110,409	0,142	-0,021
-378,131	800,000	0,013	0,030
-377,117	-64,241	-0,084	-0,025
-376,102	192,222	-0,021	0,023
-375,088	-31,183	-0,030	-0,012
-374,073	-55,432	-0,036	-0,012
-373,058	-200,000	0,028	0,121
-372,044	369,136	-0,043	-0,064
-371,029	259,089	0,053	0,067
-370,015	-166,831	0,144	-0,004
-369,000	-192,011	-0,159	0,001
-367,985	-12,038	-0,117	-0,055
-366,971	-4,640	-0,131	0,066
-365,956	-33,327	-0,129	0,052
-364,942	-52,380	0,188	0,063
-363,927	-80,023	-0,017	-0,004
-362,912	-33,605	0,124	0,050
-361,898	800,000	0,040	-0,119
-360,883	-200,000	0,006	0,124
-359,869	-88,231	-0,105	-0,023
-358,854	295,904	0,022	-0,030
-357,839	-31,342	0,073	-0,030
-356,825	25,765	0,043	-0,026
-355,810	14,497	0,111	0,063
-354,796	-161,653	-0,136	-0,005
-353,781	95,178	-0,050	-0,041
-352,766	57,589	0,042	0,029
-351,752	-164,124	0,068	0,002
-350,737	-80,137	-0,038	0,009
-349,723	211,146	-0,024	0,028
-348,708	98,172	-0,138	-0,115
-347,693	-26,574	0,088	-0,037
-346,679	107,217	-0,125	-0,108
-345,664	800,000	-0,006	0,013
-344,650	-200,000	0,001	0,093
-343,635	96,460	0,132	0,109
-342,620	-78,904	0,011	0,003
-341,606	-200,000	-0,027	0,131
-340,591	-62,221	-0,074	-0,022
-339,577	763,672	0,105	-0,208
-338,562	-200,000	-0,015	-0,096
-337,548	301,212	0,043	0,058
-336,533	-11,256	0,060	0,029
-335,518	-58,205	0,026	-0,008
-334,504	-9,885	0,130	-0,063
-333,489	82,703	0,070	0,055
-332,475	-176,913	-0,060	0,001
-331,460	-200,000	-0,074	-0,000
-330,445	800,000	-0,021	-0,055
-329,431	800,000	-0,019	0,053
-328,416	286,960	0,042	0,055
-327,402	146,080	0,077	0,075
-326,387	183,220	0,063	0,068
-325,372	32,643	-0,091	-0,057
-324,358	-150,983	0,016	-0,001
-323,343	155,364	0,042	-0,042
-322,329	424,933	0,026	0,041
-321,314	539,433	-0,006	-0,010
-320,299	-45,779	-0,028	-0,010
-319,285	-51,904	0,101	-0,034
-318,270	-36,611	-0,113	-0,044
-317,256	-200,000	0,006	-0,053
-316,241	800,000	0,023	0,055
-315,226	-62,597	0,049	0,015
-314,212	172,892	0,113	0,118
-313,197	800,000	0,015	0,044
-312,183	800,000	0,059	-0,186
-311,168	-200,000	-0,052	-0,178
-310,153	-200,000	-0,008	-0,063
-309,139	132,891	0,062	-0,058
-308,124	-200,000	-0,017	-0,058
-307,110	-200,000	0,002	-0,071
-306,095	-200,000	-0,005	0,093
-305,080	-200,000	0,022	0,124
-304,066	681,746	0,030	-0,057
-303,051	-67,197	-0,123	-0,035
-302,037	-200,000	0,013	-0,127
-301,022	133,864	-0,010	0,010
-300,008	-10,507	0,018	-0,009
-298,993	-200,000	0,012	-0,061
-297,978	211,692	-0,038	0,043
-296,964	6,797	-0,143	0,077
-295,949	115,040	-0,108	-0,095
-294,935	10,796	0,020	0,011
-293,920	-107,369	0,079	0,012
-292,905	429,613	0,017	0,026
-291,891	-37,763	-0,086	0,033
-290,876	-200,000	0,002	-0,009
-289,862	156,414	-0,116	-0,116
-288,847	181,572	-0,039	-0,042
-287,832	800,000	-0,043	-0,102
-286,818	26,454	0,027	-0,016
-285,803	-200,000	-0,006	0,059
-284,789	800,000	-0,031	-0,078
-283,774	800,000	-0,043	-0,125
-282,759	454,210	0,069	0,111
-281,745	-116,994	-0,187	0,024
-280,730	-40,578	-0,068	-0,026
-279,716	-200,000	0,016	-0,056
-278,701	800,000	-0,032	-0,079
-277,686	139,488	0,089	0,085
-276,672	-26,689	0,010	0,004
-275,657	19,568	-0,089	0,052
-274,643	-86,020	0,061	-0,014
-273,628	-200,000	0,014	-0,137
-272,613	273,130	-0,010	-0,013
-271,599	-200,000	0,010	0,058
-270,584	800,000	-0,045	0,125
-269,570	800,000	0,034	-0,108
-268,555	51,323	-0,106	-0,073
-267,540	596,510	0,075	-0,135
-266,526	800,000	-0,032	-0,092
-265,511	73,129	-0,105	-0,080
-264,497	-45,373	0,104	-0,037
-263,482	109,151	0,043	0,037
-262,467	-66,626	0,104	-0,030
-261,453	-200,000	0,021	-0,193
-260,438	-200,000	0,000	0,031
-259,424	31,115	-0,004	0,002
-258,409	18,793	-0,082	0,048
-257,395	679,841	-0,065	0,123
-256,380	-177,463	-0,151	-0,003
-255,365	800,000	0,034	0,075
-254,351	-162,855	0,168	0,006
-253,336	-200,000	-0,044	-0,193
-252,322	-90,416	-0,096	0,020
-251,307	87,563	-0,073	-0,058
-250,292	-186,200	-0,065	-0,001
-249,278	800,000	0,034	0,087
-248,263	-15,660	0,042	0,020
-247,249	800,000	-0,029	-0,066
-246,234	84,444	-0,064	0,051
-245,219	-166,040	0,161	0,005
-244,205	-28,735	0,030	-0,013
-243,190	-62,372	-0,018	0,005
-242,176	-200,000	-0,038	0,173
-241,161	251,532	-0,118	0,145
-240,146	-126,886	-0,094	-0,010
-239,132	12,579	-0,025	-0,014
-238,117	800,000	0,053	-0,109
-237,103	87,633	0,050	0,040
-236,088	-0,596	0,094	-0,048
-235,073	212,259	0,122	0,139
-234,059	800,000	0,059	0,146
-233,044	-200,000	-0,016	0,111
-232,030	-200,000	-0,016	-0,130
-231,015	800,000	-0,037	-0,103
-230,000	196,032	-0,062	-0,069
-228,986	434,670	0,003	-0,005
-227,971	800,000	0,031	0,093
-226,957	800,000	-0,057	0,115
-225,942	-200,000	0,048	0,180
-224,927	-148,913	-0,025	0,001
-223,913	39,023	0,082	-0,053
-222,898	777,794	-0,048	0,096
-221,884	25,672	0,051	0,030
-220,869	113,074	0,038	-0,033
-219,855	-130,207	-0,072	0,007
-218,840	334,297	0,013	0,019
-217,825	-21,026	0,111	0,049
-216,811	-200,000	0,000	0,080
-215,796	-200,000	0,021	-0,091
-214,782	-200,000	-0,009	-0,047
-213,767	-200,000	0,009	0,033
-212,752	144,273	0,129	0,124
-211,738	-200,000	0,023	-0,125
-210,723	63,389	0,056	0,040
-209,709	-200,000	-0,024	-0,095
-208,694	-200,000	-0,014	-0,061
-207,679	-200,000	-0,002	-0,059
-206,665	190,202	-0,059	0,064
-205,650	-146,862	0,051	-0,003
-204,636	-72,261	0,093	0,025
-203,621	540,949	0,040	0,068
-202,606	-200,000	-0,037	-0,145
-201,592	-27,021	-0,191	-0,080
-200,577	-165,022	0,113	-0,004
-199,563	-200,000	-0,018	0,072
-198,548	39,808	-0,029	-0,019
-197,533	86,604	0,062	0,049
-196,519	10,338	0,027	0,015
-195,504	226,964	0,086	-0,101
-194,490	-10,387	-0,058	-0,028
-193,475	213,520	0,044	-0,050
-192,460	-82,902	-0,039	-0,009
-191,446	-70,425	-0,126	0,034
-190,431	33,962	0,179	0,113
-189,417	407,947	-0,061	-0,094
-188,402	398,243	0,063	-0,096
-187,387	56,635	-0,019	-0,013
-186,373	800,000	-0,028	-0,077
-185,358	-200,000	-0,019	0,107
-184,344	-65,272	0,269	-0,078
-183,329	252,084	0,040	-0,050
-182,315	-200,000	0,012	0,120
-181,300	-113,212	0,130	0,018
-180,285	304,674	0,138	-0,185
-179,271	170,062	0,029	-0,030
-178,256	-0,292	0,067	0,034
-177,242	-200,000	0,015	0,128
-176,227	800,000	0,001	-0,003
-175,212	-200,000	0,003	0,073
-174,198	212,486	0,075	0,086
-173,183	-200,000	0,000	-0,019
-172,169	-25,262	-0,036	-0,015
-171,154	546,517	0,011	-0,019
-170,139	-200,000	0,037	-0,000
-169,125	28,561	-0,091	0,056
-168,110	-200,000	0,021	0,125
-167,096	-200,000	0,001	0,008
-166,081	-91,470	-0,149	-0,030
-165,066	-62,532	-0,066	0,020
-164,052	48,369	-0,029	-0,020
-163,037	264,532	0,130	0,163
-162,023	-91,524	0,128	-0,026
-161,008	238,977	0,048	-0,057
-159,993	800,000	0,045	0,119
-158,979	15,898	-0,052	-0,030
-157,964	-200,000	-0,017	0,136
-156,950	-22,291	-0,066	0,029
-155,935	-102,367	0,107	-0,018
-154,920	800,000	0,022	0,049
-153,906	-110,949	0,060	-0,009
-152,891	140,766	0,044	-0,042
-151,877	81,303	0,047	0,036
-150,862	0,772	-0,128	0,066
-149,847	-186,981	-0,123	0,001
-148,833	275,784	-0,024	-0,030
-147,818	192,162	-0,077	0,084
-146,804	-200,000	0,019	0,077
-145,789	-200,000	0,027	0,157
-144,775	25,735	-0,126	-0,076
-143,760	-31,935	-0,182	-0,073
-142,745	800,000	0,020	-0,056
-141,731	-82,395	0,125	0,029
-140,716	422,332	0,007	0,010
-139,702	-27,267	0,074	-0,031
-138,687	-200,000	0,004	0,123
-137,672	-37,478	-0,144	-0,055
-136,658	-120,786	0,111	-0,013
-135,643	354,314	-0,087	-0,125
-134,629	561,587	-0,058	-0,102
-133,614	-84,370	-0,094	0,021
-132,599	-45,907	-0,094	0,033
-131,585	-75,966	0,103	0,026
-130,570	-122,323	-0,162	0,019
-129,556	-200,000	-0,021	-0,139
-128,541	532,576	-0,055	-0,093
-127,526	-76,071	-0,074	-0,019
-126,512	-104,320	0,135	0,022
-125,497	-139,891	-0,127	-0,010
-124,483	800,000	-0,053	0,131
-123,468	103,142	0,124	-0,104
-122,453	8,615	-0,096	-0,052
-121,439	-41,008	0,070	-0,026
-120,424	94,213	0,085	0,069
-119,410	-200,000	-0,006	-0,077
