DTS Sentinel unit serial number:	SN410029Multiplexer serial number:	ORYXHardware model number:	OX2-SRSoftware version number:	ORYX F/W v4,00 Oryx Data Collector v3.7.2.0data status	okinstallation	B5 Nyhavnadifferential loss correction	single-endedforward channel	channel 2reverse channel	N/Adate	2023/12/11time	21:02:13forward acquisition time	300,00reverse acquisition time	0,00gamma	499,1914k internal	0,3157k external	0,3157temperature offset calibration	1,0000default loss term (dB/km)	0,3820temperature slope calibration	1,0000multiplexer offset coefficient	1,0000multiplexer slope coefficient	1,0000fibre end	0,00T internal ref (°C)	16,13T ext. ref 1 (°C)	0,23T ext. ref 2 (°C)	-0,02length (m)	temperature (°C)	Stokes	anti-Stokes-744,400	-76,499	0,184	0,047
-743,385	-142,954	-0,290	-0,020
-742,371	-102,184	0,209	0,037
-741,356	-84,868	-0,263	0,060
-740,342	-17,672	0,163	-0,075
-739,327	-32,929	-0,400	0,163
-738,312	-129,035	-0,016	-0,002
-737,298	41,561	-0,246	0,164
-736,283	-200,000	-0,007	0,066
-735,269	-43,867	-0,109	0,040
-734,254	268,577	-0,035	-0,046
-733,239	-35,861	-0,422	-0,168
-732,225	-3,458	0,183	0,094
-731,210	-200,000	-0,006	0,059
-730,196	736,361	-0,009	0,018
-729,181	11,218	-0,079	0,044
-728,167	-200,000	-0,012	0,165
-727,152	-70,897	-0,129	0,036
-726,137	800,000	-0,036	-0,101
-725,123	-5,023	-0,121	-0,061
-724,108	-144,636	-0,060	0,004
-723,094	24,117	-0,085	-0,052
-722,079	-79,180	-0,117	-0,029
-721,064	317,943	0,013	0,018
-720,050	-200,000	-0,026	0,089
-719,035	800,000	-0,030	-0,089
-718,021	-200,000	0,009	-0,032
-717,006	167,696	-0,075	-0,079
-715,991	-79,670	-0,130	-0,032
-714,977	-56,293	-0,053	-0,017
-713,962	-200,000	-0,020	-0,161
-712,948	361,853	-0,058	-0,087
-711,933	-200,000	0,017	-0,134
-710,918	147,253	0,023	0,022
-709,904	409,436	0,033	-0,051
-708,889	29,919	-0,096	-0,060
-707,875	526,669	-0,070	-0,122
-706,860	-200,000	0,023	-0,091
-705,845	800,000	0,057	0,125
-704,831	-90,631	-0,144	0,030
-703,816	-200,000	-0,015	-0,086
-702,802	293,149	-0,077	-0,104
-701,787	303,607	-0,020	-0,028
-700,772	-200,000	0,010	-0,057
-699,758	11,147	-0,093	-0,052
-698,743	-200,000	0,003	-0,030
-697,729	-108,021	-0,040	0,006
-696,714	431,746	0,023	-0,037
-695,699	800,000	-0,010	-0,030
-694,685	-22,324	-0,158	-0,070
-693,670	-1,872	-0,043	-0,022
-692,656	81,702	0,031	-0,025
-691,641	-85,441	-0,009	-0,002
-690,627	800,000	-0,014	0,040
-689,612	-200,000	-0,014	0,141
-688,597	76,562	0,036	-0,028
-687,583	-150,263	-0,046	-0,003
-686,568	-200,000	-0,002	0,064
-685,554	-200,000	0,020	0,073
-684,539	800,000	0,023	0,072
-683,524	116,024	0,074	0,067
-682,510	17,907	-0,077	0,045
-681,495	-71,322	0,110	-0,030
-680,481	-117,698	-0,079	0,010
-679,466	800,000	-0,023	-0,056
-678,451	-200,000	-0,021	0,099
-677,437	59,861	0,051	0,037
-676,422	800,000	0,037	0,078
-675,408	17,964	-0,156	0,091
-674,393	3,459	-0,107	-0,057
-673,378	800,000	-0,038	0,104
-672,364	40,855	0,099	-0,066
-671,349	-73,807	-0,077	0,020
-670,335	105,025	0,050	-0,044
-669,320	800,000	0,012	-0,030
-668,305	-9,961	0,238	0,116
-667,291	529,113	0,036	-0,063
-666,276	800,000	-0,084	-0,190
-665,262	-157,044	-0,022	-0,001
-664,247	-109,712	0,055	-0,008
-663,232	68,855	0,140	-0,106
-662,218	380,029	0,070	0,105
-661,203	-200,000	-0,002	0,062
-660,189	82,253	0,050	0,040
-659,174	-200,000	0,004	0,119
-658,159	199,461	0,082	-0,093
-657,145	800,000	0,012	-0,029
-656,130	-63,124	0,040	0,012
-655,116	-122,975	0,061	-0,007
-654,101	589,628	0,039	-0,071
-653,086	800,000	-0,105	-0,262
-652,072	696,076	-0,017	-0,032
-651,057	-134,836	-0,141	-0,012
-650,043	109,511	0,087	-0,077
-649,028	560,195	-0,022	-0,039
-648,014	-83,575	-0,119	-0,028
-646,999	49,653	-0,062	0,043
-645,984	-174,318	-0,067	-0,001
-644,970	-88,873	0,102	0,022
-643,955	-52,474	0,048	-0,016
-642,941	74,763	-0,051	-0,040
-641,926	301,530	-0,051	-0,070
-640,911	800,000	-0,018	0,049
-639,897	83,182	-0,024	0,019
-638,882	368,172	0,057	0,084
-637,868	478,855	-0,018	0,030
-636,853	11,471	-0,112	-0,063
-635,838	233,198	-0,080	-0,097
-634,824	-48,157	-0,089	-0,032
-633,809	219,365	-0,081	-0,095
-632,795	-200,000	-0,001	0,014
-631,780	188,253	-0,076	-0,084
-630,765	577,461	0,058	-0,105
-629,751	-171,116	-0,159	-0,004
-628,736	-200,000	0,002	-0,086
-627,722	-162,896	0,074	-0,003
-626,707	146,873	0,103	0,102
-625,692	7,980	0,116	0,064
-624,678	250,666	0,029	0,036
-623,663	-97,676	0,148	-0,028
-622,649	800,000	-0,029	-0,062
-621,634	-200,000	-0,015	-0,110
-620,619	657,861	-0,062	-0,118
-619,605	-200,000	0,046	0,154
-618,590	61,066	-0,114	-0,083
-617,576	-200,000	-0,004	-0,069
-616,561	467,161	0,055	-0,091
-615,546	158,040	-0,154	-0,157
-614,532	156,159	-0,075	-0,076
-613,517	327,772	0,063	-0,089
-612,503	-200,000	-0,020	-0,075
-611,488	65,249	0,122	0,091
-610,474	800,000	0,020	0,043
-609,459	267,422	-0,004	0,005
-608,444	-86,881	0,061	0,014
-607,430	692,152	-0,049	0,095
-606,415	-155,122	0,153	0,007
-605,401	-141,638	-0,055	0,004
-604,386	800,000	-0,039	0,095
-603,371	653,089	0,064	-0,121
-602,357	111,782	0,054	-0,047
-601,342	-131,229	-0,061	0,006
-600,328	800,000	-0,025	0,058
-599,313	-200,000	0,015	-0,055
-598,298	800,000	-0,047	-0,102
-597,284	-200,000	-0,001	-0,125
-596,269	93,841	0,106	-0,088
-595,255	-17,126	-0,073	-0,034
-594,240	-200,000	-0,009	-0,073
-593,225	27,263	0,036	-0,022
-592,211	-84,459	-0,128	0,029
-591,196	-12,562	-0,059	-0,028
-590,182	-200,000	-0,019	-0,080
-589,167	-200,000	-0,028	0,106
-588,152	800,000	-0,037	-0,102
-587,138	-17,483	-0,182	-0,084
-586,123	-98,268	0,087	-0,016
-585,109	-200,000	0,012	-0,098
-584,094	283,573	-0,028	0,037
-583,079	-39,534	0,091	0,035
-582,065	115,608	0,122	0,110
-581,050	-72,784	0,125	-0,033
-580,036	-37,182	0,054	-0,021
-579,021	-105,143	0,031	-0,005
-578,006	-5,054	-0,059	-0,030
-576,992	225,770	-0,059	-0,070
-575,977	-146,031	-0,054	0,003
-574,963	-162,573	0,098	0,003
-573,948	34,032	-0,041	0,026
-572,934	76,437	-0,046	-0,036
-571,919	214,176	0,024	-0,027
-570,904	322,638	0,035	-0,049
-569,890	9,107	-0,153	-0,084
-568,875	-55,538	0,138	0,045
-567,861	230,989	0,027	-0,033
-566,846	282,852	-0,101	0,134
-565,831	-79,072	-0,099	-0,024
-564,817	800,000	-0,020	-0,059
-563,802	263,901	-0,074	-0,095
-562,788	-200,000	0,016	0,075
-561,773	222,807	0,016	0,018
-560,758	-200,000	-0,003	0,092
-559,744	-200,000	0,008	0,039
-558,729	22,736	0,059	0,035
-557,715	9,840	-0,107	0,059
-556,700	-200,000	-0,146	0,000
-555,685	665,581	0,033	-0,063
-554,671	492,312	0,048	-0,080
-553,656	800,000	0,039	0,116
-552,642	-200,000	0,009	0,066
-551,627	-164,249	0,020	0,001
-550,612	-133,750	-0,080	-0,007
-549,598	-141,377	-0,053	-0,004
-548,583	-200,000	0,010	0,038
-547,569	-200,000	-0,012	0,075
-546,554	441,641	0,055	0,088
-545,539	35,047	0,091	0,058
-544,525	28,777	-0,047	-0,029
-543,510	-109,058	0,050	-0,008
-542,496	-200,000	0,019	-0,112
-541,481	-154,266	-0,205	-0,010
-540,466	57,394	0,035	-0,025
-539,452	-167,162	-0,082	-0,002
-538,437	116,745	0,088	0,079
-537,423	800,000	-0,049	0,112
-536,408	239,854	-0,111	0,135
-535,393	-127,967	0,070	-0,007
-534,379	65,576	-0,087	-0,065
-533,364	-137,536	-0,097	0,008
-532,350	800,000	-0,025	0,057
-531,335	-103,471	0,054	-0,009
-530,321	-200,000	0,021	0,082
-529,306	-82,463	0,125	0,029
-528,291	-200,000	0,014	0,082
-527,277	605,090	-0,037	-0,068
-526,262	284,913	-0,110	-0,145
-525,248	-200,000	0,026	0,113
-524,233	41,210	0,077	-0,051
-523,218	655,629	-0,037	0,070
-522,204	800,000	-0,050	0,109
-521,189	-200,000	-0,012	-0,140
-520,175	347,882	-0,086	-0,124
-519,160	76,472	0,108	-0,084
-518,145	275,823	0,090	-0,117
-517,131	-71,629	-0,043	-0,012
-516,116	94,316	-0,049	0,041
-515,102	-92,233	0,143	-0,029
-514,087	65,513	-0,030	-0,022
-513,072	-39,123	-0,031	0,012
-512,058	42,237	0,046	-0,031
-511,043	113,007	-0,011	0,010
-510,029	679,858	0,093	0,177
-509,014	800,000	0,104	0,225
-507,999	234,218	-0,043	-0,052
-506,985	313,093	-0,102	-0,141
-505,970	283,286	-0,088	-0,116
-504,956	800,000	-0,051	-0,118
-503,941	800,000	0,023	-0,047
-502,926	-173,608	-0,086	0,002
-501,912	-200,000	0,015	-0,081
-500,897	-200,000	-0,001	-0,060
-499,883	-58,384	-0,009	-0,003
-498,868	-200,000	0,022	0,104
-497,853	-200,000	-0,015	0,049
-496,839	140,091	-0,113	0,109
-495,824	-200,000	0,009	0,035
-494,810	-83,172	0,100	0,023
-493,795	-133,576	-0,012	0,001
-492,781	162,722	0,042	-0,044
-491,766	800,000	0,039	-0,096
-490,751	800,000	-0,042	0,098
-489,737	31,189	0,122	-0,077
-488,722	16,375	0,025	-0,014
-487,708	-102,380	0,031	-0,005
-486,693	-200,000	-0,005	-0,089
-485,678	247,303	0,025	0,031
-484,664	800,000	-0,018	-0,050
-483,649	800,000	-0,089	-0,201
-482,635	-62,892	0,119	-0,036
-481,620	-140,349	0,052	0,004
-480,605	-200,000	0,019	-0,079
-479,591	-51,094	0,107	-0,036
-478,576	-143,738	0,082	-0,006
-477,562	-52,024	-0,069	0,023
-476,547	82,128	-0,187	-0,148
-475,532	800,000	0,059	-0,154
-474,518	-33,756	0,114	-0,046
-473,503	800,000	-0,025	-0,053
-472,489	324,527	0,062	-0,087
-471,474	800,000	0,034	-0,102
-470,459	200,074	0,029	-0,033
-469,445	139,867	-0,097	-0,094
-468,430	-58,008	-0,120	0,038
-467,416	68,814	-0,062	0,046
-466,401	193,976	0,052	-0,057
-465,386	70,966	0,038	0,029
-464,372	229,702	0,024	-0,029
-463,357	306,768	0,013	-0,018
-462,343	42,032	-0,155	-0,102
-461,328	-142,095	0,103	-0,007
-460,313	800,000	-0,011	0,032
-459,299	-200,000	0,025	0,217
-458,284	483,182	0,034	0,057
-457,270	-200,000	-0,019	0,062
-456,255	-8,064	-0,101	0,049
-455,241	25,388	0,127	0,077
-454,226	800,000	0,070	-0,184
-453,211	-200,000	-0,007	0,034
-452,197	-153,655	0,094	-0,005
-451,182	-157,471	-0,100	-0,004
-450,168	28,871	0,016	0,010
-449,153	-124,043	-0,074	-0,008
-448,138	-200,000	0,009	-0,052
-447,124	45,375	-0,082	0,055
-446,109	-200,000	0,003	0,058
-445,095	-167,167	0,137	-0,004
-444,080	768,074	-0,075	-0,150
-443,065	505,032	0,036	0,060
-442,051	38,895	-0,125	0,081
-441,036	64,613	0,128	0,094
-440,022	-69,874	0,033	-0,009
-439,007	292,118	-0,042	0,056
-437,992	-200,000	0,009	-0,073
-436,978	-62,226	-0,107	-0,032
-435,963	-200,000	-0,016	0,076
-434,949	-59,052	-0,096	0,030
-433,934	88,795	-0,034	-0,027
-432,919	800,000	-0,033	-0,084
-431,905	184,978	0,063	0,069
-430,890	67,388	0,135	-0,100
-429,876	-200,000	0,005	0,152
-428,861	-52,764	0,033	0,011
-427,846	-6,939	-0,040	-0,020
-426,832	-114,795	0,048	-0,007
-425,817	522,060	-0,030	-0,051
-424,803	131,985	0,045	0,042
-423,788	800,000	-0,027	-0,064
-422,773	-82,598	0,181	-0,042
-421,759	-78,280	0,056	0,014
-420,744	800,000	-0,059	0,152
-419,730	-42,137	-0,230	-0,085
-418,715	-182,954	0,061	0,001
-417,701	-21,179	0,039	-0,017
-416,686	-45,512	-0,067	0,024
-415,671	709,549	0,085	-0,164
-414,657	90,777	-0,018	-0,014
-413,642	-200,000	0,004	0,083
-412,628	-15,661	-0,082	0,038
-411,613	292,712	-0,041	-0,054
-410,598	-200,000	0,019	0,106
-409,584	800,000	-0,023	-0,051
-408,569	-200,000	-0,007	0,076
-407,555	79,622	-0,038	-0,030
-406,540	111,053	-0,036	0,031
-405,525	-101,391	0,134	0,024
-404,511	-68,506	0,090	0,025
-403,496	-142,145	-0,156	0,011
-402,482	56,101	0,106	-0,075
-401,467	800,000	-0,047	-0,136
-400,452	800,000	0,007	-0,016
-399,438	218,373	0,029	0,034
-398,423	800,000	-0,072	0,171
-397,409	499,435	-0,031	-0,052
-396,394	147,658	0,005	-0,005
-395,379	-66,480	0,054	0,016
-394,365	654,239	0,076	0,143
-393,350	-64,016	0,033	-0,010
-392,336	106,358	0,077	0,067
-391,321	-68,540	0,013	0,004
-390,306	-57,927	0,062	-0,020
-389,292	5,932	0,135	-0,072
-388,277	-44,339	-0,137	0,049
-387,263	-89,879	-0,103	0,022
-386,248	800,000	0,034	-0,082
-385,233	-63,801	-0,050	0,015
-384,219	-82,965	-0,045	0,010
-383,204	-200,000	0,002	-0,014
-382,190	800,000	0,023	-0,070
-381,175	67,641	-0,035	0,026
-380,160	-200,000	0,014	0,106
-379,146	47,290	0,113	0,076
-378,131	200,051	-0,040	-0,045
-377,117	-39,892	-0,169	0,064
-376,102	-0,177	0,054	0,028
-375,088	-1,069	0,101	-0,052
-374,073	-78,485	0,157	0,039
-373,058	331,249	0,038	0,053
-372,044	174,411	0,065	0,068
-371,029	-130,896	-0,098	0,009
-370,015	-120,358	-0,051	0,006
-369,000	-185,704	-0,091	-0,001
-367,985	761,995	-0,035	0,070
-366,971	-71,042	-0,077	0,021
-365,956	-38,203	0,123	0,047
-364,942	-47,108	0,019	-0,007
-363,927	800,000	0,040	0,085
-362,912	800,000	0,032	0,071
-361,898	800,000	0,014	-0,041
-360,883	-144,997	-0,177	-0,012
-359,869	124,547	0,039	0,035
-358,854	-200,000	0,006	-0,037
-357,839	-200,000	0,017	-0,086
-356,825	800,000	0,025	0,079
-355,810	-172,934	0,132	-0,003
-354,796	800,000	0,005	0,015
-353,781	346,471	-0,063	-0,091
-352,766	-200,000	-0,012	-0,185
-351,752	176,606	0,072	-0,076
-350,737	800,000	0,094	0,190
-349,723	-105,980	0,102	0,016
-348,708	42,923	0,115	0,076
-347,693	-130,622	-0,215	0,021
-346,679	800,000	0,048	-0,110
-345,664	113,693	0,029	-0,026
-344,650	44,997	-0,153	-0,102
-343,635	-138,123	0,183	-0,015
-342,620	-200,000	-0,018	-0,084
-341,606	3,052	0,069	-0,036
-340,591	60,951	-0,029	0,021
-339,577	476,842	0,066	-0,108
-338,562	800,000	0,039	0,093
-337,548	-69,932	0,044	-0,012
-336,533	800,000	-0,029	0,075
-335,518	-200,000	0,007	0,112
-334,504	258,238	-0,004	0,005
-333,489	206,552	-0,093	0,106
-332,475	-199,683	0,120	-0,000
-331,460	122,795	-0,032	-0,029
-330,445	-14,450	-0,059	-0,028
-329,431	-27,004	0,076	-0,032
-328,416	-121,499	-0,033	-0,004
-327,402	-200,000	0,005	0,029
-326,387	348,321	-0,115	0,165
-325,372	358,755	0,044	-0,064
-324,358	159,965	-0,082	-0,083
-323,343	127,862	0,131	-0,121
-322,329	-154,967	0,099	-0,005
-321,314	112,976	0,069	0,061
-320,299	-157,536	0,018	-0,001
-319,285	561,194	-0,057	-0,100
-318,270	-8,410	0,049	0,024
-317,256	-169,353	-0,119	-0,003
-316,241	-26,566	0,034	0,014
-315,226	-200,000	0,003	0,049
-314,212	372,423	-0,049	0,073
-313,197	-127,925	-0,037	0,004
-312,183	764,706	-0,048	0,095
-311,168	76,846	-0,080	0,061
-310,153	800,000	-0,020	-0,044
-309,139	28,750	-0,024	0,015
-308,124	-200,000	0,022	0,186
-307,110	800,000	-0,042	0,099
-306,095	-200,000	0,021	0,068
-305,080	210,107	0,085	0,097
-304,066	-200,000	0,001	-0,027
-303,051	97,672	-0,099	-0,082
-302,037	-67,073	0,023	0,007
-301,022	240,768	0,014	0,018
-300,008	326,994	0,149	0,208
-298,993	207,136	-0,079	0,089
-297,978	800,000	0,086	0,222
-296,964	53,793	-0,088	-0,061
-295,949	159,745	0,067	0,068
-294,935	31,856	-0,064	-0,040
-293,920	800,000	0,013	-0,039
-292,905	800,000	0,083	0,195
-291,891	49,577	-0,074	0,050
-290,876	72,506	0,086	-0,065
-289,862	333,750	-0,041	-0,058
-288,847	44,403	-0,081	-0,054
-287,832	112,728	0,107	-0,094
-286,818	-84,732	-0,196	-0,044
-285,803	153,119	0,088	0,087
-284,789	-80,577	0,085	0,020
-283,774	-200,000	-0,005	-0,043
-282,759	11,371	0,036	0,020
-281,745	-200,000	0,008	-0,043
-280,730	-182,978	-0,145	-0,002
-279,716	183,371	-0,065	0,070
-278,701	184,243	0,129	-0,139
-277,686	-19,570	0,055	0,025
-276,672	800,000	-0,017	-0,044
-275,657	117,523	-0,060	-0,054
-274,643	773,933	-0,037	0,073
-273,628	237,898	0,046	-0,056
-272,613	-200,000	0,001	0,030
-271,599	-200,000	0,006	0,059
-270,584	116,962	-0,034	-0,031
-269,570	-135,782	0,075	-0,006
-268,555	306,812	-0,027	0,037
-267,540	-200,000	0,001	0,052
-266,526	-200,000	0,016	-0,060
-265,511	-200,000	-0,004	-0,063
-264,497	729,071	-0,049	-0,096
-263,482	-200,000	-0,016	0,054
-262,467	194,979	-0,054	0,059
-261,453	279,103	0,114	0,147
-260,438	542,774	-0,017	0,030
-259,424	-200,000	0,013	-0,088
-258,409	-116,558	0,111	-0,015
-257,395	-115,458	-0,163	-0,022
-256,380	-200,000	-0,011	0,051
-255,365	-156,478	0,112	0,005
-254,351	-200,000	-0,000	-0,043
-253,336	54,055	-0,073	0,051
-252,322	107,127	-0,046	-0,040
-251,307	-47,396	0,117	0,041
-250,292	-25,608	-0,069	-0,029
-249,278	-88,174	0,102	-0,022
-248,263	-200,000	-0,017	0,104
-247,249	800,000	-0,003	0,008
-246,234	46,222	0,047	-0,031
-245,219	-200,000	-0,007	-0,121
-244,205	136,838	-0,008	-0,008
-243,190	800,000	-0,042	0,128
-242,176	2,351	0,070	-0,037
-241,161	800,000	0,026	-0,078
-240,146	-30,495	-0,070	0,029
-239,132	18,819	0,027	0,015
-238,117	-98,889	0,004	-0,001
-237,103	-200,000	-0,006	0,057
-236,088	-200,000	0,027	0,101
-235,073	800,000	-0,012	-0,029
-234,059	-11,232	0,060	-0,028
-233,044	-77,367	0,070	0,017
-232,030	-135,989	-0,098	-0,008
-231,015	16,537	0,022	-0,012
-230,000	410,992	-0,035	0,053
-228,986	688,461	0,016	-0,030
-227,971	800,000	0,043	0,118
-226,957	-31,338	0,067	-0,027
-225,942	-200,000	0,013	0,087
-224,927	218,368	-0,081	-0,094
-223,913	800,000	-0,018	0,058
-222,898	-68,388	0,155	0,043
-221,884	-127,067	-0,034	-0,004
-220,869	-132,985	-0,157	0,014
-219,855	-200,000	-0,009	-0,055
-218,840	800,000	0,056	0,117
-217,825	3,330	-0,108	-0,056
-216,811	800,000	0,054	-0,110
-215,796	250,500	-0,111	-0,136
-214,782	-40,657	0,098	0,037
-213,767	-200,000	0,003	0,013
-212,752	-84,396	-0,024	-0,006
-211,738	-114,167	0,044	-0,006
-210,723	123,399	0,089	-0,081
-209,709	206,099	-0,066	0,075
-208,694	33,857	0,040	0,025
-207,679	-119,165	0,148	0,018
-206,665	-200,000	-0,024	0,079
-205,650	-60,144	0,123	0,038
-204,636	-200,000	-0,023	0,086
-203,621	-56,870	-0,030	-0,009
-202,606	800,000	0,052	0,108
-201,592	-6,088	-0,165	-0,081
-200,577	-200,000	0,014	0,046
-199,563	-20,627	0,037	0,017
-198,548	-58,734	0,121	0,037
-197,533	280,609	0,071	-0,092
-196,519	-31,929	0,065	-0,026
-195,504	73,027	0,099	-0,075
-194,490	-49,488	-0,099	-0,034
-193,475	46,117	0,043	0,029
-192,460	-142,874	-0,036	0,002
-191,446	220,152	0,076	-0,089
-190,431	-51,012	0,043	0,015
-189,417	-60,271	-0,055	0,017
-188,402	-127,081	-0,082	0,009
-187,387	-155,898	-0,079	0,004
-186,373	-180,441	-0,118	0,002
-185,358	731,980	0,080	0,156
-184,344	-200,000	0,012	0,071
-183,329	-200,000	-0,063	0,000
-182,315	39,377	0,100	-0,065
-181,300	-200,000	-0,003	-0,073
-180,285	-41,101	-0,062	0,023
-179,271	-200,000	0,038	-0,148
-178,256	-200,000	-0,024	-0,135
-177,242	-59,541	0,109	0,033
-176,227	118,763	0,097	0,086
-175,212	38,208	-0,084	0,054
-174,198	206,622	-0,062	0,070
-173,183	-200,000	-0,005	-0,097
-172,169	-47,386	-0,166	0,058
-171,154	-200,000	0,027	0,086
-170,139	-21,919	0,057	-0,025
-169,125	-102,754	-0,140	0,024
-168,110	-200,000	-0,001	0,017
-167,096	4,205	-0,059	-0,031
-166,081	341,717	-0,060	0,084
-165,066	800,000	0,012	-0,024
-164,052	-126,007	0,055	-0,006
-163,037	97,315	-0,040	-0,033
-162,023	800,000	-0,017	-0,045
-161,008	112,341	0,133	0,116
-159,993	-200,000	-0,003	0,026
-158,979	-55,331	-0,184	-0,059
-157,964	-105,559	0,206	-0,033
-156,950	-200,000	-0,001	0,112
-155,935	800,000	-0,033	0,071
-154,920	306,717	-0,074	0,100
-153,906	-88,076	-0,096	0,021
-152,891	-200,000	-0,010	0,087
-151,877	-28,283	-0,122	-0,051
-150,862	-200,000	0,003	-0,035
-149,847	302,580	-0,048	0,064
-148,833	-200,000	-0,024	0,104
-147,818	31,869	-0,064	0,040
-146,804	-24,724	-0,129	0,055
-145,789	-26,901	-0,105	-0,044
-144,775	472,991	0,034	-0,055
-143,760	-5,477	-0,082	-0,040
-142,745	282,506	-0,061	-0,079
-141,731	-99,448	-0,158	-0,028
-140,716	-12,663	0,092	0,043
-139,702	-200,000	0,055	0,191
-138,687	800,000	-0,058	0,131
-137,672	-86,002	-0,027	0,006
-136,658	-200,000	0,017	0,059
-135,643	-200,000	-0,006	-0,044
-134,629	296,362	-0,040	-0,053
-133,614	-117,716	0,083	0,011
-132,599	-200,000	0,043	0,160
-131,585	-39,302	0,057	-0,022
-130,570	-200,000	-0,011	0,210
-129,556	800,000	-0,055	0,121
-128,541	458,331	-0,010	0,017
-127,526	768,522	-0,032	0,062
-126,512	108,278	0,063	-0,054
-125,497	19,395	0,016	0,009
-124,483	800,000	0,021	0,042
-123,468	-200,000	-0,019	0,097
-122,453	-200,000	-0,002	-0,015
-121,439	186,321	-0,010	-0,011
-120,424	10,890	-0,066	-0,036
-119,410	-116,465	0,028	0,004
