DTS Sentinel unit serial number:	SN410029Multiplexer serial number:	ORYXHardware model number:	OX2-SRSoftware version number:	ORYX F/W v4,00 Oryx Data Collector v3.7.2.0data status	okinstallation	B5 Nyhavnadifferential loss correction	single-endedforward channel	channel 2reverse channel	N/Adate	2023/12/13time	03:27:13forward acquisition time	300,00reverse acquisition time	0,00gamma	499,1914k internal	0,3160k external	0,3160temperature offset calibration	1,0000default loss term (dB/km)	0,3820temperature slope calibration	1,0000multiplexer offset coefficient	1,0000multiplexer slope coefficient	1,0000fibre end	0,00T internal ref (°C)	13,95T ext. ref 1 (°C)	-2,45T ext. ref 2 (°C)	-2,77length (m)	temperature (°C)	Stokes	anti-Stokes-744,400	338,573	-0,038	0,055
-743,385	-162,587	-0,349	0,012
-742,371	-59,762	0,142	0,045
-741,356	-133,424	-0,267	0,024
-740,342	0,780	0,053	0,028
-739,327	-139,786	-0,236	0,018
-738,312	-36,724	0,099	-0,039
-737,298	-115,536	-0,424	-0,058
-736,283	-119,984	0,227	0,028
-735,269	-95,697	-0,319	0,062
-734,254	35,997	0,185	0,120
-733,239	-112,553	-0,491	-0,071
-732,225	-167,216	0,232	0,007
-731,210	-98,817	-0,073	0,014
-730,196	-200,000	-0,026	0,103
-729,181	-47,046	0,034	0,012
-728,167	390,369	-0,123	-0,189
-727,152	800,000	0,032	-0,067
-726,137	153,821	0,051	0,051
-725,123	-200,000	-0,021	-0,088
-724,108	172,950	0,072	-0,077
-723,094	430,253	-0,055	-0,088
-722,079	-200,000	-0,023	-0,124
-721,064	210,263	0,032	-0,037
-720,050	-114,258	-0,081	-0,011
-719,035	13,753	0,090	-0,052
-718,021	-180,901	0,012	0,000
-717,006	172,149	-0,100	-0,106
-715,991	800,000	-0,041	-0,128
-714,977	370,791	0,021	-0,032
-713,962	800,000	-0,039	-0,117
-712,948	-56,532	-0,151	-0,049
-711,933	-200,000	-0,006	-0,075
-710,918	95,391	-0,050	-0,042
-709,904	197,157	-0,059	-0,067
-708,889	-200,000	-0,005	-0,160
-707,875	180,505	-0,092	-0,100
-706,860	-131,540	0,082	-0,008
-705,845	-73,565	0,095	-0,025
-704,831	-200,000	0,003	-0,053
-703,816	133,371	0,039	0,037
-702,802	210,553	-0,047	0,054
-701,787	-131,536	-0,038	0,004
-700,772	711,366	0,035	-0,068
-699,758	-200,000	0,007	-0,037
-698,743	-37,809	0,065	0,025
-697,729	-200,000	-0,004	0,039
-696,714	8,126	-0,030	0,017
-695,699	155,889	-0,155	0,157
-694,685	217,618	0,056	-0,065
-693,670	187,697	-0,068	-0,075
-692,656	194,965	0,100	-0,112
-691,641	328,161	0,034	-0,048
-690,627	-200,000	0,029	0,097
-689,612	-152,018	0,029	-0,002
-688,597	108,384	-0,032	-0,029
-687,583	-86,386	-0,031	-0,007
-686,568	-200,000	0,003	-0,015
-685,554	199,873	0,065	-0,074
-684,539	201,967	0,047	0,053
-683,524	371,790	-0,027	0,040
-682,510	800,000	-0,052	0,160
-681,495	-66,680	-0,076	-0,022
-680,481	336,246	-0,070	-0,100
-679,466	112,135	-0,095	-0,085
-678,451	23,512	-0,084	-0,051
-677,437	-200,000	0,003	0,078
-676,422	94,362	0,072	-0,060
-675,408	800,000	0,050	-0,128
-674,393	-200,000	-0,012	-0,063
-673,378	800,000	-0,031	0,074
-672,364	195,390	0,076	-0,085
-671,349	357,405	0,072	-0,107
-670,335	800,000	0,036	0,082
-669,320	9,745	0,116	0,064
-668,305	-200,000	0,009	0,062
-667,291	-200,000	0,016	-0,111
-666,276	280,739	0,012	0,016
-665,262	-6,948	-0,112	0,055
-664,247	535,117	-0,080	-0,140
-663,232	-37,897	-0,029	0,011
-662,218	147,489	0,096	0,095
-661,203	-200,000	0,010	0,064
-660,189	-86,135	-0,115	0,026
-659,174	-200,000	-0,006	0,023
-658,159	-135,312	-0,107	-0,009
-657,145	800,000	-0,056	-0,134
-656,130	-200,000	-0,006	-0,104
-655,116	-7,848	-0,038	-0,019
-654,101	199,975	-0,076	-0,085
-653,086	-128,254	0,159	-0,016
-652,072	455,949	-0,042	-0,069
-651,057	96,073	0,071	0,059
-650,043	473,633	0,056	0,093
-649,028	-78,296	-0,093	-0,023
-648,014	-200,000	0,021	-0,112
-646,999	-69,652	-0,041	0,011
-645,984	395,728	-0,080	0,123
-644,970	-35,406	0,041	0,016
-643,955	-200,000	-0,016	-0,055
-642,941	580,762	0,037	-0,067
-641,926	-32,653	-0,053	-0,022
-640,911	134,119	-0,046	-0,043
-639,897	416,362	0,057	-0,089
-638,882	119,185	-0,047	0,043
-637,868	62,640	-0,074	-0,054
-636,853	-141,262	-0,023	0,002
-635,838	800,000	-0,041	-0,101
-634,824	-171,687	0,065	-0,002
-633,809	-148,094	0,018	0,001
-632,795	226,375	-0,033	0,039
-631,780	180,383	0,026	-0,028
-630,765	113,747	-0,034	-0,031
-629,751	-200,000	0,003	0,023
-628,736	309,665	0,063	-0,086
-627,722	-200,000	-0,008	-0,090
-626,707	-84,042	0,025	-0,006
-625,692	39,888	-0,115	-0,075
-624,678	77,053	0,048	-0,037
-623,663	2,849	-0,051	-0,027
-622,649	299,108	0,068	-0,092
-621,634	-55,445	-0,134	0,044
-620,619	-200,000	0,027	-0,122
-619,605	-200,000	0,001	0,080
-618,590	-94,453	0,160	0,032
-617,576	118,685	-0,078	0,070
-616,561	-126,215	-0,026	0,003
-615,546	800,000	-0,069	-0,156
-614,532	-23,919	0,085	-0,037
-613,517	-200,000	0,007	-0,031
-612,503	-63,644	-0,031	-0,009
-611,488	-55,333	-0,040	-0,013
-610,474	605,273	-0,050	0,092
-609,459	149,680	0,072	-0,071
-608,444	800,000	-0,049	-0,116
-607,430	183,418	-0,097	-0,106
-606,415	-30,791	0,164	0,068
-605,401	42,740	0,118	-0,079
-604,386	-200,000	-0,010	0,048
-603,371	346,340	0,049	-0,070
-602,357	441,061	-0,049	-0,078
-601,342	-127,502	-0,216	0,023
-600,328	-200,000	-0,013	-0,255
-599,313	444,538	-0,076	-0,122
-598,298	-200,000	-0,001	0,044
-597,284	-200,000	0,044	-0,185
-596,269	466,441	0,039	0,064
-595,255	-200,000	0,005	0,022
-594,240	109,083	-0,098	-0,086
-593,225	56,493	-0,168	-0,119
-592,211	-58,981	0,008	-0,002
-591,196	-200,000	0,009	-0,043
-590,182	734,317	-0,046	-0,090
-589,167	409,884	-0,026	0,040
-588,152	-160,803	-0,062	0,002
-587,138	-200,000	0,005	-0,034
-586,123	11,998	-0,079	-0,044
-585,109	800,000	0,042	-0,122
-584,094	-200,000	0,010	0,053
-583,079	-200,000	-0,004	0,162
-582,065	-23,471	-0,106	0,047
-581,050	-41,641	0,210	-0,078
-580,036	500,494	0,030	-0,050
-579,021	-200,000	-0,006	-0,082
-578,006	510,224	-0,070	-0,119
-576,992	81,229	0,036	0,029
-575,977	-200,000	0,005	0,150
-574,963	284,138	0,064	-0,084
-573,948	-91,092	0,090	-0,019
-572,934	97,743	-0,042	0,035
-571,919	29,319	-0,132	-0,082
-570,904	800,000	-0,068	-0,139
-569,890	800,000	-0,054	-0,110
-568,875	50,317	0,080	0,055
-567,861	-200,000	-0,012	-0,086
-566,846	9,635	-0,145	0,080
-565,831	-28,016	-0,060	0,025
-564,817	-57,237	-0,070	0,022
-563,802	396,004	0,009	-0,014
-562,788	800,000	0,022	-0,059
-561,773	-64,615	0,079	0,023
-560,758	3,059	-0,058	-0,031
-559,744	-200,000	-0,001	0,039
-558,729	-200,000	-0,003	-0,026
-557,715	-200,000	-0,009	0,083
-556,700	336,072	0,052	-0,074
-555,685	-9,124	-0,042	0,020
-554,671	-169,051	0,089	-0,002
-553,656	-200,000	0,020	-0,114
-552,642	-9,171	-0,072	-0,035
-551,627	132,943	0,055	0,052
-550,612	800,000	-0,019	0,050
-549,598	800,000	-0,045	0,093
-548,583	69,052	-0,085	-0,064
-547,569	800,000	-0,041	-0,086
-546,554	71,351	0,050	0,038
-545,539	118,427	-0,056	-0,050
-544,525	123,621	-0,025	0,023
-543,510	-200,000	0,015	-0,144
-542,496	800,000	0,037	-0,076
-541,481	256,885	0,027	0,034
-540,466	-200,000	0,003	-0,014
-539,452	800,000	-0,037	-0,076
-538,437	472,102	0,090	0,149
-537,423	142,483	0,068	0,066
-536,408	-63,848	-0,049	0,014
-535,393	-200,000	0,000	0,018
-534,379	4,011	-0,099	-0,053
-533,364	-69,821	0,113	-0,031
-532,350	561,833	-0,036	-0,064
-531,335	106,714	-0,081	0,071
-530,321	0,820	-0,053	-0,027
-529,306	262,904	-0,107	0,136
-528,291	-36,464	-0,182	0,071
-527,277	84,456	-0,090	-0,072
-526,262	-200,000	-0,011	0,126
-525,248	-200,000	0,019	-0,066
-524,233	-53,354	-0,069	0,023
-523,218	3,269	0,109	0,058
-522,204	-68,286	-0,185	0,052
-521,189	735,626	0,057	-0,111
-520,175	83,020	0,110	0,087
-519,160	87,805	0,120	-0,097
-518,145	16,844	0,052	0,030
-517,131	-200,000	-0,043	0,165
-516,116	-78,947	0,098	-0,024
-515,102	478,592	-0,015	-0,025
-514,087	60,638	-0,058	0,042
-513,072	-200,000	0,002	-0,017
-512,058	158,129	0,024	-0,024
-511,043	83,004	0,054	0,043
-510,029	4,462	0,127	-0,068
-509,014	369,069	0,147	0,218
-507,999	-200,000	0,024	-0,122
-506,985	423,395	0,030	0,047
-505,970	392,200	0,009	0,014
-504,956	-200,000	0,002	-0,028
-503,941	19,511	0,075	-0,044
-502,926	-149,841	-0,088	0,005
-501,912	-200,000	-0,028	0,141
-500,897	-200,000	-0,005	0,030
-499,883	-87,386	-0,049	-0,011
-498,868	-200,000	0,002	0,025
-497,853	-14,076	0,084	-0,040
-496,839	223,160	0,120	0,142
-495,824	-4,873	0,220	0,110
-494,810	-58,375	0,038	0,012
-493,795	138,893	-0,103	-0,099
-492,781	800,000	0,033	-0,082
-491,766	-102,449	-0,023	-0,004
-490,751	-37,781	0,045	-0,017
-489,737	84,438	0,082	0,065
-488,722	800,000	0,094	-0,228
-487,708	-200,000	-0,008	-0,084
-486,693	-181,050	0,048	-0,001
-485,678	-200,000	0,029	-0,127
-484,664	800,000	-0,025	0,059
-483,649	-9,437	-0,021	-0,010
-482,635	-149,843	-0,112	-0,006
-481,620	-200,000	0,004	-0,029
-480,605	-104,130	-0,042	-0,007
-479,591	604,005	-0,015	0,028
-478,576	-55,342	0,073	-0,024
-477,562	394,119	-0,076	0,115
-476,547	-178,477	-0,116	0,002
-475,532	-83,895	0,173	-0,040
-474,518	283,882	0,059	0,078
-473,503	662,029	0,034	0,064
-472,489	-200,000	-0,023	0,076
-471,474	-116,192	-0,111	-0,015
-470,459	800,000	-0,042	-0,121
-469,445	161,742	-0,005	0,006
-468,430	131,498	0,025	0,023
-467,416	143,940	-0,015	0,015
-466,401	209,356	0,084	0,096
-465,386	480,696	0,028	0,046
-464,372	697,406	-0,020	0,039
-463,357	-161,863	0,048	0,002
-462,343	800,000	0,048	-0,135
-461,328	310,220	0,048	0,066
-460,313	800,000	0,035	-0,073
-459,299	195,434	0,051	0,056
-458,284	203,943	0,031	-0,035
-457,270	-141,424	0,143	0,010
-456,255	344,496	-0,126	-0,181
-455,241	716,819	-0,096	-0,186
-454,226	-200,000	0,012	-0,166
-453,211	-90,174	-0,075	0,016
-452,197	638,194	0,017	-0,031
-451,182	-200,000	-0,008	0,029
-450,168	-110,230	0,064	0,010
-449,153	687,625	-0,026	0,049
-448,138	107,497	0,050	0,044
-447,124	-47,544	0,060	-0,021
-446,109	-19,400	0,078	-0,035
-445,095	167,721	-0,086	0,090
-444,080	800,000	-0,033	0,089
-443,065	-200,000	0,004	0,035
-442,051	-127,132	0,027	-0,003
-441,036	-98,855	-0,140	-0,026
-440,022	517,824	-0,090	0,154
-439,007	800,000	0,028	-0,083
-437,992	201,938	-0,067	0,075
-436,978	-63,188	0,112	-0,033
-435,963	701,904	-0,024	-0,047
-434,949	32,849	0,122	0,077
-433,934	321,538	-0,090	-0,124
-432,919	596,689	-0,081	0,147
-431,905	541,288	0,073	-0,127
-430,890	-200,000	-0,007	-0,051
-429,876	800,000	0,025	0,061
-428,861	50,837	0,137	0,094
-427,846	175,116	0,057	-0,061
-426,832	678,424	-0,046	-0,087
-425,817	-31,305	-0,111	0,045
-424,803	292,693	0,034	-0,045
-423,788	27,752	-0,018	-0,011
-422,773	800,000	-0,032	0,079
-421,759	-52,826	0,082	0,027
-420,744	471,577	-0,061	0,100
-419,730	-200,000	-0,004	0,073
-418,715	-41,073	-0,099	-0,037
-417,701	218,315	-0,031	-0,036
-416,686	24,233	-0,110	0,066
-415,671	-200,000	0,030	0,322
-414,657	66,293	0,106	0,079
-413,642	-93,316	-0,112	0,022
-412,628	175,336	0,066	-0,070
-411,613	177,814	-0,071	0,076
-410,598	-200,000	-0,007	0,049
-409,584	-48,606	0,108	0,038
-408,569	206,239	-0,038	-0,043
-407,555	-200,000	-0,004	0,017
-406,540	-200,000	-0,018	0,076
-405,525	-31,227	-0,187	0,076
-404,511	800,000	0,042	-0,112
-403,496	55,585	0,026	0,018
-402,482	800,000	0,035	-0,076
-401,467	436,633	-0,055	0,087
-400,452	-200,000	0,004	0,102
-399,438	-76,196	0,064	0,016
-398,423	-25,512	-0,042	-0,018
-397,409	-66,509	0,079	0,023
-396,394	-47,771	0,080	0,028
-395,379	800,000	0,067	0,145
-394,365	-116,516	0,073	0,010
-393,350	-82,167	-0,008	-0,002
-392,336	-46,150	0,107	-0,038
-391,321	-200,000	0,002	0,018
-390,306	-90,396	0,048	-0,010
-389,292	-91,881	0,173	-0,035
-388,277	766,877	-0,050	0,100
-387,263	-19,449	-0,054	-0,024
-386,248	-109,880	0,052	-0,008
-385,233	135,537	-0,067	-0,063
-384,219	-200,000	0,003	-0,183
-383,204	-200,000	-0,010	-0,203
-382,190	800,000	-0,022	-0,066
-381,175	83,521	0,090	-0,072
-380,160	-30,806	0,060	0,025
-379,146	-200,000	-0,026	0,086
-378,131	67,012	0,151	-0,112
-377,117	-181,414	-0,212	-0,003
-376,102	-200,000	-0,004	0,054
-375,088	232,147	0,031	-0,037
-374,073	-200,000	0,020	0,086
-373,058	678,974	0,016	0,031
-372,044	-200,000	0,027	0,121
-371,029	800,000	-0,015	-0,032
-370,015	800,000	0,066	0,152
-369,000	-200,000	0,013	-0,109
-367,985	-96,380	-0,098	0,019
-366,971	800,000	0,027	-0,056
-365,956	800,000	0,027	0,070
-364,942	800,000	-0,046	0,146
-363,927	800,000	0,062	0,135
-362,912	-200,000	-0,014	0,055
-361,898	-200,000	-0,001	0,063
-360,883	18,191	-0,065	-0,038
-359,869	-19,693	-0,055	-0,025
-358,854	-101,419	0,140	-0,025
-357,839	-200,000	-0,003	-0,013
-356,825	-200,000	0,013	0,140
-355,810	-16,702	0,036	-0,016
-354,796	800,000	-0,015	0,047
-353,781	-65,404	-0,113	-0,033
-352,766	147,737	-0,037	0,036
-351,752	464,429	0,028	0,045
-350,737	-200,000	0,004	-0,042
-349,723	-53,801	0,127	-0,042
-348,708	-200,000	-0,006	0,058
-347,693	108,492	-0,056	0,049
-346,679	-25,945	-0,056	0,024
-345,664	86,027	-0,017	-0,014
-344,650	74,292	-0,041	-0,032
-343,635	-14,221	0,068	0,032
-342,620	-2,994	0,061	0,031
-341,606	-17,489	0,225	0,102
-340,591	-87,269	-0,183	0,040
-339,577	-17,585	-0,103	0,047
-338,562	-200,000	0,011	-0,083
-337,548	800,000	-0,036	0,076
-336,533	-200,000	-0,004	-0,025
-335,518	-15,633	0,086	-0,039
-334,504	800,000	-0,062	0,145
-333,489	329,860	0,061	0,085
-332,475	-200,000	0,004	-0,173
-331,460	-200,000	0,011	-0,087
-330,445	186,459	0,127	-0,137
-329,431	-200,000	-0,017	-0,107
-328,416	800,000	0,040	0,086
-327,402	434,104	-0,030	-0,047
-326,387	800,000	-0,042	0,095
-325,372	-72,884	0,101	-0,027
-324,358	-200,000	0,006	-0,133
-323,343	-96,824	-0,072	-0,014
-322,329	183,705	0,070	0,076
-321,314	-129,162	0,105	0,010
-320,299	139,329	0,060	0,057
-319,285	45,036	-0,137	0,091
-318,270	-200,000	0,005	0,044
-317,256	-15,505	0,048	0,022
-316,241	-200,000	-0,026	0,083
-315,226	104,586	-0,071	0,060
-314,212	86,407	0,110	-0,087
-313,197	-76,839	0,033	-0,008
-312,183	95,866	0,088	0,073
-311,168	107,430	-0,026	0,022
-310,153	-42,946	-0,063	-0,023
-309,139	52,285	-0,028	0,019
-308,124	-200,000	0,002	0,048
-307,110	87,817	0,102	-0,082
-306,095	-200,000	0,019	-0,069
-305,080	-177,160	-0,049	-0,001
-304,066	-49,494	0,095	0,033
-303,051	-93,577	-0,026	-0,005
-302,037	-131,343	0,102	-0,010
-301,022	-11,497	0,125	0,059
-300,008	-200,000	-0,008	0,124
-298,993	-200,000	-0,018	0,098
-297,978	43,502	0,093	0,062
-296,964	29,431	0,090	0,055
-295,949	-161,283	0,027	-0,001
-294,935	252,677	0,039	0,048
-293,920	-121,309	0,126	0,015
-292,905	575,716	0,065	0,116
-291,891	23,904	0,097	-0,057
-290,876	-200,000	-0,002	0,015
-289,862	-100,568	0,021	0,004
-288,847	748,667	-0,035	-0,069
-287,832	41,445	0,107	-0,070
-286,818	-8,527	-0,045	0,022
-285,803	124,436	-0,090	0,082
-284,789	468,980	-0,031	-0,050
-283,774	72,939	0,032	-0,024
-282,759	-160,837	-0,052	-0,002
-281,745	-200,000	0,022	-0,089
-280,730	-29,987	-0,139	0,057
-279,716	-60,002	-0,054	-0,016
-278,701	-200,000	0,006	0,107
-277,686	-58,800	0,073	0,023
-276,672	322,396	0,064	0,088
-275,657	800,000	-0,010	0,031
-274,643	-47,622	0,100	0,035
-273,628	-200,000	0,011	0,182
-272,613	204,213	-0,033	-0,037
-271,599	-11,967	0,070	0,033
-270,584	643,549	0,062	0,116
-269,570	13,397	0,085	0,047
-268,555	90,039	-0,026	-0,021
-267,540	-6,451	-0,163	-0,080
-266,526	649,729	-0,080	-0,148
-265,511	187,958	0,076	0,083
-264,497	-115,014	-0,082	-0,011
-263,482	-49,384	0,137	0,047
-262,467	800,000	0,071	0,200
-261,453	-200,000	0,023	0,103
-260,438	-108,099	0,065	-0,010
-259,424	-200,000	-0,031	-0,101
-258,409	-23,847	-0,123	-0,053
-257,395	-116,299	0,116	0,015
-256,380	100,288	-0,099	0,083
-255,365	14,471	-0,066	0,037
-254,351	388,645	0,081	0,121
-253,336	-200,000	0,023	-0,105
-252,322	-38,215	-0,126	-0,048
-251,307	-200,000	0,014	-0,095
-250,292	180,109	0,058	0,062
-249,278	-34,131	0,058	0,023
-248,263	739,858	0,067	0,130
-247,249	800,000	0,023	0,051
-246,234	-200,000	0,018	-0,141
-245,219	-200,000	0,017	-0,071
-244,205	-11,797	-0,117	-0,055
-243,190	800,000	-0,028	0,078
-242,176	729,446	-0,026	0,051
-241,161	251,018	-0,023	0,028
-240,146	-200,000	0,009	0,045
-239,132	-63,971	-0,243	0,071
-238,117	56,066	-0,033	0,023
-237,103	-200,000	0,018	-0,101
-236,088	442,670	0,077	-0,122
-235,073	-200,000	-0,002	-0,040
-234,059	190,155	-0,086	0,093
-233,044	51,903	-0,081	0,056
-232,030	-64,047	0,036	-0,010
-231,015	-79,992	-0,029	0,007
-230,000	12,642	-0,110	0,061
-228,986	800,000	-0,056	-0,154
-227,971	800,000	-0,029	0,075
-226,957	47,354	0,109	0,073
-225,942	-108,090	0,138	0,021
-224,927	65,718	-0,087	0,064
-223,913	-11,277	-0,138	0,065
-222,898	-200,000	0,010	0,075
-221,884	800,000	0,028	-0,074
-220,869	165,962	0,022	0,023
-219,855	-58,099	0,070	0,022
-218,840	448,668	0,055	0,087
-217,825	526,581	-0,044	-0,075
-216,811	-113,350	-0,054	0,008
-215,796	39,700	-0,091	-0,059
-214,782	611,238	0,031	-0,056
-213,767	52,431	0,099	-0,068
-212,752	-171,311	-0,147	-0,003
-211,738	-44,614	0,034	-0,012
-210,723	-200,000	-0,015	-0,080
-209,709	164,103	-0,076	-0,077
-208,694	267,931	-0,065	-0,082
-207,679	73,642	0,066	0,050
-206,665	2,821	-0,110	-0,057
-205,650	-80,197	-0,109	-0,026
-204,636	94,823	-0,075	0,061
-203,621	-169,121	0,099	0,003
-202,606	-200,000	-0,179	-0,001
-201,592	212,130	0,090	-0,102
-200,577	-67,274	-0,041	0,012
-199,563	-97,250	-0,115	-0,021
-198,548	-200,000	0,000	0,223
-197,533	283,292	-0,092	0,119
-196,519	-103,688	-0,077	0,013
-195,504	-168,508	0,020	0,001
-194,490	13,504	-0,067	0,038
-193,475	-200,000	0,034	-0,169
-192,460	-200,000	0,004	-0,028
-191,446	-200,000	0,018	-0,133
-190,431	-200,000	0,019	-0,069
-189,417	18,888	0,025	0,014
-188,402	200,531	-0,023	0,026
-187,387	-176,903	-0,055	-0,001
-186,373	-200,000	-0,003	-0,065
-185,358	-154,923	-0,120	0,006
-184,344	-58,742	0,118	-0,037
-183,329	800,000	0,042	-0,103
-182,315	-200,000	0,011	0,065
-181,300	-43,528	0,083	0,030
-180,285	-64,707	-0,194	-0,056
-179,271	321,604	-0,052	-0,072
-178,256	-174,546	0,023	-0,000
-177,242	-6,364	0,107	0,052
-176,227	-200,000	-0,007	0,056
-175,212	-86,144	0,208	-0,046
-174,198	-200,000	0,028	-0,153
-173,183	-171,941	-0,080	0,002
-172,169	-200,000	0,011	0,099
-171,154	535,563	-0,010	-0,017
-170,139	-200,000	0,035	0,121
-169,125	-52,953	-0,067	-0,022
-168,110	-200,000	-0,008	0,110
-167,096	15,375	0,027	-0,015
-166,081	800,000	0,006	0,019
-165,066	-200,000	0,010	-0,076
-164,052	-113,620	-0,047	0,007
-163,037	-68,668	-0,036	0,010
-162,023	428,474	0,053	-0,082
-161,008	-81,799	0,133	0,031
-159,993	569,807	-0,050	-0,089
-158,979	3,916	0,035	-0,018
-157,964	213,282	-0,038	-0,044
-156,950	-200,000	0,001	-0,013
-155,935	516,258	-0,056	-0,094
-154,920	112,803	-0,093	0,081
-153,906	-200,000	0,013	-0,045
-152,891	-200,000	-0,040	0,165
-151,877	800,000	-0,028	-0,087
-150,862	-80,737	0,026	-0,006
-149,847	-200,000	0,058	-0,214
-148,833	67,856	-0,044	0,032
-147,818	-200,000	0,026	-0,118
-146,804	-193,671	0,091	-0,001
-145,789	142,663	-0,158	0,151
-144,775	-58,301	0,088	0,027
-143,760	800,000	-0,061	-0,131
-142,745	800,000	-0,032	-0,071
-141,731	800,000	-0,046	0,123
-140,716	72,549	-0,113	0,084
-139,702	52,791	0,147	-0,101
-138,687	800,000	0,023	0,060
-137,672	800,000	0,085	0,243
-136,658	120,831	0,033	-0,029
-135,643	-150,883	-0,093	-0,005
-134,629	800,000	0,042	0,126
-133,614	-200,000	-0,000	-0,075
-132,599	-200,000	-0,011	0,070
-131,585	16,789	0,104	0,059
-130,570	-131,109	-0,154	0,015
-129,556	-200,000	-0,011	-0,104
-128,541	165,296	-0,107	0,109
-127,526	-200,000	0,025	-0,172
-126,512	-53,032	-0,134	0,044
-125,497	-145,192	0,126	0,008
-124,483	261,206	0,028	-0,035
-123,468	-133,096	0,056	0,005
-122,453	800,000	-0,030	0,066
-121,439	70,659	-0,163	0,121
-120,424	-121,000	0,089	-0,011
-119,410	-29,219	-0,084	-0,035
