DTS Sentinel unit serial number:	SN410029Multiplexer serial number:	ORYXHardware model number:	OX2-SRSoftware version number:	ORYX F/W v4,00 Oryx Data Collector v3.7.2.0data status	okinstallation	B5 Nyhavnadifferential loss correction	single-endedforward channel	channel 2reverse channel	N/Adate	2023/12/13time	21:52:13forward acquisition time	300,00reverse acquisition time	0,00gamma	499,1914k internal	0,3155k external	0,3155temperature offset calibration	1,0000default loss term (dB/km)	0,3820temperature slope calibration	1,0000multiplexer offset coefficient	1,0000multiplexer slope coefficient	1,0000fibre end	0,00T internal ref (°C)	9,73T ext. ref 1 (°C)	-7,02T ext. ref 2 (°C)	-7,07length (m)	temperature (°C)	Stokes	anti-Stokes-744,400	12,642	0,190	0,108
-743,385	-78,852	-0,345	-0,086
-742,371	-78,403	0,141	0,035
-741,356	-133,462	-0,335	0,031
-740,342	-120,717	0,263	-0,032
-739,327	-94,289	-0,393	-0,079
-738,312	-52,287	-0,046	-0,016
-737,298	-157,423	-0,454	0,020
-736,283	-3,418	0,082	0,042
-735,269	22,477	-0,281	-0,169
-734,254	56,271	0,084	-0,060
-733,239	-80,217	-0,518	-0,127
-732,225	-99,554	0,151	-0,028
-731,210	-200,000	-0,019	-0,084
-730,196	800,000	-0,018	-0,053
-729,181	90,195	-0,100	0,082
-728,167	-200,000	0,033	-0,162
-727,152	-47,844	-0,134	-0,048
-726,137	-85,579	-0,094	-0,021
-725,123	-153,679	-0,114	-0,006
-724,108	652,949	-0,055	-0,105
-723,094	-121,208	0,132	0,016
-722,079	-144,492	-0,131	-0,009
-721,064	800,000	-0,031	-0,098
-720,050	370,272	-0,038	-0,056
-719,035	800,000	-0,013	0,028
-718,021	-200,000	0,023	-0,080
-717,006	119,273	-0,027	-0,025
-715,991	-45,375	-0,056	-0,020
-714,977	800,000	-0,088	-0,260
-713,962	174,743	-0,094	-0,100
-712,948	-200,000	-0,018	-0,123
-711,933	800,000	-0,060	-0,133
-710,918	434,007	0,058	-0,093
-709,904	164,064	-0,069	-0,072
-708,889	-1,183	-0,045	-0,023
-707,875	416,884	-0,127	-0,200
-706,860	-150,055	0,071	0,004
-705,845	-102,588	-0,122	0,021
-704,831	800,000	0,012	0,036
-703,816	-31,624	-0,085	-0,035
-702,802	-99,667	-0,046	0,008
-701,787	-200,000	0,023	-0,131
-700,772	469,624	-0,095	-0,157
-699,758	-200,000	-0,006	0,028
-698,743	-200,000	0,028	0,136
-697,729	693,448	0,065	0,127
-696,714	45,798	0,055	0,037
-695,699	55,414	-0,127	0,090
-694,685	-23,854	-0,217	-0,095
-693,670	-200,000	0,002	-0,105
-692,656	12,779	-0,048	0,027
-691,641	-86,808	0,038	-0,009
-690,627	-62,024	0,067	0,020
-689,612	11,338	-0,081	-0,046
-688,597	-117,022	0,053	0,007
-687,583	36,981	-0,159	-0,103
-686,568	-38,015	0,036	0,014
-685,554	-200,000	0,017	0,058
-684,539	800,000	-0,053	0,114
-683,524	-80,714	-0,052	0,013
-682,510	800,000	-0,077	0,177
-681,495	125,140	-0,078	0,072
-680,481	116,512	-0,157	-0,142
-679,466	-105,021	-0,044	0,007
-678,451	800,000	-0,043	-0,107
-677,437	-22,958	0,121	-0,053
-676,422	800,000	-0,056	0,128
-675,408	-69,839	0,035	-0,010
-674,393	-144,011	0,056	0,004
-673,378	358,682	-0,053	-0,078
-672,364	142,203	-0,046	-0,045
-671,349	-95,030	-0,067	0,013
-670,335	-200,000	0,006	-0,031
-669,320	263,969	0,085	0,109
-668,305	-200,000	-0,024	0,110
-667,291	24,022	-0,061	0,037
-666,276	54,840	0,034	0,024
-665,262	-104,472	0,098	-0,017
-664,247	-178,968	-0,058	-0,001
-663,232	663,627	0,096	-0,183
-662,218	-72,848	0,095	-0,025
-661,203	-200,000	-0,003	0,118
-660,189	34,397	-0,132	-0,084
-659,174	-200,000	-0,005	0,051
-658,159	69,199	-0,186	-0,140
-657,145	-200,000	-0,002	0,069
-656,130	524,632	0,051	0,089
-655,116	-200,000	-0,007	0,025
-654,101	-63,832	0,156	0,047
-653,086	800,000	-0,030	-0,084
-652,072	-176,383	0,045	-0,001
-651,057	34,199	-0,044	-0,028
-650,043	-44,267	-0,028	0,010
-649,028	-200,000	-0,003	-0,049
-648,014	-200,000	0,025	0,219
-646,999	93,390	0,114	0,095
-645,984	129,779	-0,039	0,036
-644,970	-200,000	0,001	-0,073
-643,955	126,411	-0,129	-0,120
-642,941	-137,812	-0,103	-0,008
-641,926	239,755	-0,043	-0,053
-640,911	-70,614	0,111	-0,031
-639,897	-200,000	-0,002	0,018
-638,882	-95,849	0,105	0,020
-637,868	19,980	0,085	0,050
-636,853	-42,694	-0,097	0,036
-635,838	237,023	-0,095	-0,116
-634,824	-200,000	-0,002	-0,075
-633,809	800,000	-0,038	-0,082
-632,795	566,534	-0,024	-0,042
-631,780	-76,446	-0,065	0,017
-630,765	800,000	0,029	-0,074
-629,751	173,544	-0,058	0,061
-628,736	800,000	0,017	0,038
-627,722	-200,000	-0,023	-0,140
-626,707	-200,000	0,018	-0,075
-625,692	-78,575	0,125	0,031
-624,678	0,479	-0,142	0,074
-623,663	14,886	0,116	-0,066
-622,649	-65,523	0,119	-0,035
-621,634	-77,292	-0,096	0,024
-620,619	-49,306	0,039	0,014
-619,605	-200,000	0,004	0,035
-618,590	-87,465	0,067	-0,015
-617,576	30,454	-0,077	0,048
-616,561	174,865	0,100	0,107
-615,546	-49,035	-0,083	0,029
-614,532	291,296	-0,065	-0,087
-613,517	-200,000	0,003	-0,019
-612,503	800,000	-0,086	-0,192
-611,488	589,993	-0,046	0,083
-610,474	97,316	-0,034	-0,028
-609,459	12,314	-0,055	-0,031
-608,444	-130,069	0,057	0,006
-607,430	-64,175	-0,043	-0,013
-606,415	-80,571	0,152	0,037
-605,401	-36,768	0,141	-0,055
-604,386	800,000	-0,012	-0,030
-603,371	-200,000	-0,004	0,072
-602,357	70,344	0,040	-0,030
-601,342	-143,251	-0,115	-0,008
-600,328	-200,000	-0,015	0,066
-599,313	-127,274	-0,070	0,007
-598,298	-132,506	-0,164	0,015
-597,284	-200,000	0,002	-0,099
-596,269	-93,030	0,066	-0,013
-595,255	800,000	-0,017	0,036
-594,240	-181,616	0,049	-0,001
-593,225	-200,000	-0,011	-0,089
-592,211	-200,000	0,025	-0,100
-591,196	586,645	-0,040	-0,073
-590,182	-122,753	-0,066	-0,008
-589,167	402,485	0,053	0,081
-588,152	-47,553	0,156	0,055
-587,138	800,000	-0,012	0,029
-586,123	-200,000	-0,009	-0,049
-585,109	800,000	-0,052	-0,111
-584,094	607,536	-0,039	0,071
-583,079	361,019	-0,073	-0,107
-582,065	-200,000	0,049	0,172
-581,050	-137,042	0,040	0,003
-580,036	-200,000	0,011	0,039
-579,021	21,317	0,098	-0,058
-578,006	-109,400	-0,060	0,009
-576,992	-76,251	-0,009	-0,002
-575,977	258,478	0,040	-0,051
-574,963	-200,000	0,028	-0,099
-573,948	-200,000	0,015	0,147
-572,934	-112,200	-0,161	0,023
-571,919	293,878	0,052	-0,070
-570,904	232,283	0,113	0,136
-569,890	131,184	-0,139	-0,131
-568,875	-6,697	0,141	-0,070
-567,861	-106,949	-0,119	-0,019
-566,846	-5,717	0,035	0,017
-565,831	-34,279	-0,115	-0,046
-564,817	-105,929	0,175	-0,029
-563,802	23,633	-0,033	0,020
-562,788	-200,000	-0,013	0,179
-561,773	-120,091	-0,096	0,012
-560,758	-114,155	-0,158	-0,022
-559,744	380,170	-0,029	0,044
-558,729	-200,000	-0,022	0,159
-557,715	654,090	0,032	0,060
-556,700	-200,000	0,009	-0,110
-555,685	-29,392	-0,053	0,022
-554,671	20,578	0,190	0,113
-553,656	-6,731	0,106	-0,053
-552,642	-200,000	0,002	0,029
-551,627	-39,123	-0,143	0,055
-550,612	23,042	-0,051	-0,031
-549,598	213,008	-0,042	0,048
-548,583	-200,000	-0,017	-0,089
-547,569	800,000	-0,022	0,066
-546,554	-200,000	-0,002	-0,040
-545,539	800,000	0,052	0,134
-544,525	-101,116	0,076	-0,013
-543,510	-112,243	0,028	0,004
-542,496	5,429	-0,137	0,074
-541,481	775,580	0,025	0,050
-540,466	-144,319	-0,085	-0,006
-539,452	181,227	0,088	0,095
-538,437	-66,276	-0,120	-0,035
-537,423	-141,981	0,172	0,012
-536,408	110,397	0,069	-0,060
-535,393	-167,794	-0,106	0,003
-534,379	203,067	0,122	0,138
-533,364	80,098	-0,119	-0,094
-532,350	80,782	0,028	0,022
-531,335	800,000	-0,018	0,045
-530,321	283,573	0,083	0,110
-529,306	313,461	-0,032	0,045
-528,291	469,715	-0,022	-0,036
-527,277	-200,000	0,004	0,147
-526,262	316,252	-0,089	-0,123
-525,248	-70,826	0,057	-0,016
-524,233	-200,000	0,013	0,112
-523,218	49,588	0,104	0,072
-522,204	-92,210	-0,078	-0,016
-521,189	147,588	-0,110	-0,109
-520,175	-50,710	-0,052	0,018
-519,160	-200,000	0,022	-0,089
-518,145	-140,026	0,074	0,006
-517,131	-169,617	-0,080	-0,002
-516,116	800,000	0,043	-0,127
-515,102	800,000	-0,027	0,062
-514,087	249,860	0,038	0,047
-513,072	580,162	-0,081	-0,147
-512,058	320,769	0,028	-0,038
-511,043	800,000	0,035	-0,078
-510,029	-15,486	-0,006	0,003
-509,014	211,407	-0,078	-0,090
-507,999	-56,015	0,055	-0,018
-506,985	800,000	-0,058	-0,182
-505,970	800,000	0,005	0,012
-504,956	-59,831	-0,087	0,027
-503,941	-5,914	-0,078	-0,039
-502,926	-35,595	0,094	-0,037
-501,912	-200,000	0,033	0,134
-500,897	800,000	0,035	-0,104
-499,883	-100,050	-0,030	0,005
-498,868	800,000	-0,016	-0,040
-497,853	-99,637	-0,034	-0,006
-496,839	109,646	0,096	0,084
-495,824	800,000	-0,030	0,066
-494,810	-49,065	-0,028	-0,010
-493,795	355,765	0,096	-0,141
-492,781	-200,000	0,002	-0,031
-491,766	573,204	-0,071	-0,127
-490,751	403,173	-0,062	0,096
-489,737	41,283	0,093	0,061
-488,722	254,328	0,044	-0,055
-487,708	-19,393	0,101	-0,046
-486,693	298,068	0,033	0,044
-485,678	-200,000	-0,023	0,101
-484,664	-200,000	-0,004	-0,029
-483,649	800,000	-0,011	0,031
-482,635	87,006	0,027	-0,022
-481,620	-108,274	0,074	-0,012
-480,605	-160,321	-0,052	0,002
-479,591	-200,000	0,017	-0,055
-478,576	588,351	-0,021	-0,038
-477,562	125,252	-0,055	-0,050
-476,547	800,000	0,040	-0,108
-475,532	-119,924	0,036	-0,005
-474,518	800,000	0,028	0,074
-473,503	523,926	0,024	-0,041
-472,489	198,811	-0,070	0,078
-471,474	279,120	0,056	0,073
-470,459	189,746	0,025	-0,027
-469,445	81,513	-0,053	0,042
-468,430	374,778	0,044	0,066
-467,416	-200,000	0,030	0,141
-466,401	-58,241	0,087	0,028
-465,386	-200,000	-0,026	0,086
-464,372	164,748	-0,102	0,106
-463,357	-200,000	0,000	-0,098
-462,343	-88,253	0,081	-0,018
-461,328	-163,782	-0,012	-0,000
-460,313	-55,966	-0,076	-0,025
-459,299	197,583	0,065	0,073
-458,284	-23,427	0,090	-0,039
-457,270	-110,162	-0,048	0,007
-456,255	-200,000	-0,029	-0,134
-455,241	-200,000	-0,033	0,165
-454,226	196,513	0,118	-0,131
-453,211	11,775	0,019	-0,010
-452,197	800,000	-0,067	0,216
-451,182	284,869	0,094	0,123
-450,168	119,308	-0,110	-0,099
-449,153	-86,244	0,052	-0,012
-448,138	-58,270	-0,092	-0,029
-447,124	-77,896	-0,104	-0,026
-446,109	-47,793	0,090	-0,032
-445,095	800,000	0,056	0,119
-444,080	300,994	-0,043	-0,058
-443,065	-41,554	-0,057	-0,021
-442,051	800,000	0,023	0,067
-441,036	-200,000	-0,005	-0,017
-440,022	-90,346	-0,187	0,039
-439,007	91,447	0,049	-0,040
-437,992	-200,000	0,020	0,113
-436,978	-34,731	-0,135	0,054
-435,963	-200,000	0,008	-0,057
-434,949	-41,799	-0,100	0,037
-433,934	-200,000	0,002	-0,086
-432,919	284,816	0,080	-0,105
-431,905	-200,000	0,005	0,082
-430,890	-200,000	-0,016	0,060
-429,876	-200,000	-0,020	0,104
-428,861	49,832	0,114	0,078
-427,846	-200,000	0,005	-0,070
-426,832	-117,529	0,077	-0,010
-425,817	15,079	-0,143	-0,081
-424,803	800,000	0,033	0,079
-423,788	800,000	-0,033	0,104
-422,773	-73,513	0,168	0,044
-421,759	800,000	0,046	0,145
-420,744	-102,898	0,028	0,005
-419,730	48,834	-0,020	-0,014
-418,715	-82,401	0,051	-0,012
-417,701	137,736	0,035	0,033
-416,686	-200,000	0,015	-0,053
-415,671	-83,513	0,142	-0,033
-414,657	-41,362	-0,081	-0,030
-413,642	227,340	0,083	-0,098
-412,628	-159,881	-0,139	0,005
-411,613	744,426	0,047	-0,093
-410,598	-35,250	0,083	0,033
-409,584	48,081	-0,049	-0,033
-408,569	800,000	0,021	0,047
-407,555	23,774	0,115	0,069
-406,540	-138,550	-0,062	0,005
-405,525	260,370	-0,098	-0,123
-404,511	-200,000	-0,013	-0,045
-403,496	209,108	-0,073	-0,083
-402,482	459,560	-0,071	-0,116
-401,467	98,355	0,071	-0,060
-400,452	-17,779	0,102	0,046
-399,438	800,000	-0,069	0,154
-398,423	267,639	-0,034	-0,043
-397,409	95,816	-0,048	0,040
-396,394	-200,000	-0,019	-0,115
-395,379	26,395	0,113	0,069
-394,365	-44,081	0,032	0,011
-393,350	800,000	-0,026	-0,064
-392,336	35,368	0,076	-0,049
-391,321	800,000	0,018	-0,056
-390,306	309,962	0,075	-0,102
-389,292	-200,000	0,019	0,075
-388,277	307,763	0,035	-0,048
-387,263	258,902	-0,020	-0,025
-386,248	-200,000	-0,026	0,098
-385,233	-200,000	0,004	-0,101
-384,219	-50,479	0,066	-0,023
-383,204	527,769	-0,024	0,041
-382,190	59,949	-0,106	-0,076
-381,175	-3,456	0,023	0,012
-380,160	-186,968	0,047	0,000
-379,146	241,336	-0,027	0,033
-378,131	800,000	-0,069	0,155
-377,117	-140,964	0,088	0,006
-376,102	-200,000	-0,010	-0,178
-375,088	396,303	-0,059	-0,090
-374,073	-60,560	-0,089	-0,027
-373,058	657,998	0,059	-0,111
-372,044	-76,745	0,053	-0,013
-371,029	-200,000	0,010	-0,160
-370,015	61,935	-0,048	0,035
-369,000	-200,000	-0,002	-0,026
-367,985	-48,359	-0,124	0,043
-366,971	-200,000	-0,005	0,063
-365,956	-200,000	0,005	0,037
-364,942	-200,000	0,025	0,263
-363,927	742,351	-0,040	-0,079
-362,912	-43,795	0,019	0,007
-361,898	92,063	-0,061	-0,050
-360,883	126,024	-0,052	0,048
-359,869	-40,612	-0,129	-0,048
-358,854	-7,098	0,057	0,028
-357,839	-43,638	0,123	0,045
-356,825	-144,906	0,065	0,004
-355,810	58,313	-0,044	0,031
-354,796	-14,655	-0,067	-0,031
-353,781	-133,969	-0,032	-0,003
-352,766	-200,000	-0,007	-0,042
-351,752	-61,629	0,033	0,010
-350,737	-74,241	0,204	-0,053
-349,723	-86,156	-0,065	0,014
-348,708	800,000	-0,053	-0,127
-347,693	69,185	0,058	0,043
-346,679	176,104	-0,016	0,016
-345,664	191,099	-0,081	0,088
-344,650	-52,194	-0,054	0,018
-343,635	-27,675	0,031	0,013
-342,620	800,000	-0,047	-0,118
-341,606	667,860	0,053	0,100
-340,591	-159,810	0,126	0,005
-339,577	-200,000	0,026	-0,177
-338,562	297,902	-0,045	0,060
-337,548	26,162	-0,041	0,025
-336,533	-22,695	-0,039	0,017
-335,518	272,228	-0,080	0,102
-334,504	-200,000	0,009	-0,050
-333,489	800,000	0,008	0,017
-332,475	-75,904	-0,217	-0,055
-331,460	627,163	-0,096	-0,178
-330,445	4,697	0,150	-0,080
-329,431	800,000	0,039	-0,081
-328,416	-200,000	-0,026	0,100
-327,402	555,410	-0,031	0,055
-326,387	-200,000	-0,031	-0,225
-325,372	-200,000	-0,015	-0,191
-324,358	29,047	-0,094	-0,058
-323,343	176,977	0,053	0,056
-322,329	-114,525	-0,069	0,009
-321,314	800,000	0,054	0,151
-320,299	-200,000	0,002	-0,072
-319,285	-10,514	0,048	0,023
-318,270	50,765	-0,083	0,057
-317,256	311,898	0,086	0,117
-316,241	-200,000	0,009	0,086
-315,226	-200,000	0,023	0,144
-314,212	-1,493	0,184	-0,094
-313,197	378,944	-0,088	0,131
-312,183	-146,000	-0,133	0,008
-311,168	-23,795	-0,105	0,045
-310,153	8,047	0,018	0,010
-309,139	-200,000	-0,018	0,065
-308,124	800,000	0,017	0,050
-307,110	34,293	-0,033	0,021
-306,095	94,823	0,156	0,128
-305,080	126,894	0,063	-0,058
-304,066	-109,487	-0,185	-0,028
-303,051	800,000	0,024	-0,059
-302,037	-136,236	-0,207	-0,017
-301,022	242,620	0,058	0,071
-300,008	78,447	-0,027	-0,021
-298,993	-124,800	0,182	0,020
-297,978	481,990	-0,050	0,083
-296,964	800,000	-0,022	0,052
-295,949	40,737	-0,131	-0,086
-294,935	-200,000	0,025	0,096
-293,920	68,995	0,115	-0,086
-292,905	313,690	0,021	-0,029
-291,891	327,069	0,040	0,056
-290,876	286,846	0,082	0,108
-289,862	220,466	-0,054	-0,063
-288,847	-200,000	-0,021	-0,077
-287,832	-152,501	-0,153	-0,008
-286,818	244,911	-0,093	0,114
-285,803	-104,707	0,104	0,017
-284,789	41,355	-0,113	0,074
-283,774	557,722	-0,072	0,126
-282,759	177,745	-0,065	0,069
-281,745	-200,000	-0,003	0,109
-280,730	800,000	-0,021	-0,047
-279,716	-158,497	0,074	-0,003
-278,701	-18,511	0,160	0,072
-277,686	-200,000	-0,010	0,055
-276,672	800,000	0,027	0,083
-275,657	213,138	-0,015	0,017
-274,643	-76,323	-0,127	-0,032
-273,628	408,206	-0,083	0,128
-272,613	-200,000	-0,004	0,048
-271,599	350,513	-0,019	0,027
-270,584	-200,000	0,011	-0,037
-269,570	-200,000	-0,027	-0,093
-268,555	6,413	-0,062	-0,033
-267,540	521,243	-0,031	-0,053
-266,526	-200,000	-0,024	-0,159
-265,511	326,326	0,039	-0,055
-264,497	800,000	0,028	0,062
-263,482	-16,189	0,241	0,110
-262,467	282,950	0,029	-0,037
-261,453	136,036	0,094	0,089
-260,438	8,872	0,075	-0,041
-259,424	709,099	0,030	-0,058
-258,409	188,138	0,080	0,087
-257,395	-200,000	0,017	0,062
-256,380	75,505	0,075	-0,057
-255,365	296,143	-0,090	-0,119
-254,351	75,438	-0,122	0,093
-253,336	-66,642	-0,082	-0,023
-252,322	-134,897	0,027	-0,002
-251,307	55,183	-0,033	-0,023
-250,292	800,000	-0,019	-0,044
-249,278	19,574	-0,067	0,039
-248,263	-58,883	0,063	-0,020
-247,249	-14,276	0,108	0,050
-246,234	-168,381	-0,108	0,003
-245,219	-200,000	0,004	-0,067
-244,205	744,712	-0,010	0,020
-243,190	800,000	-0,037	0,088
-242,176	570,940	0,072	0,126
-241,161	-161,651	0,076	0,003
-240,146	95,419	-0,073	-0,060
-239,132	-200,000	0,025	-0,100
-238,117	-82,779	0,094	-0,022
-237,103	-52,392	0,115	-0,038
-236,088	-154,093	-0,119	0,006
-235,073	-112,989	0,175	0,025
-234,059	317,503	0,040	-0,055
-233,044	-200,000	0,002	-0,022
-232,030	-12,607	-0,078	0,037
-231,015	-1,491	0,047	-0,024
-230,000	86,294	0,064	0,051
-228,986	17,929	-0,093	0,054
-227,971	613,078	-0,066	-0,120
-226,957	81,570	-0,066	0,051
-225,942	-140,225	0,104	-0,008
-224,927	-139,062	-0,086	0,007
-223,913	-200,000	0,006	-0,046
-222,898	-1,573	0,008	-0,004
-221,884	265,887	0,020	0,025
-220,869	43,321	0,148	0,098
-219,855	-166,768	-0,106	-0,003
-218,840	-200,000	0,000	0,019
-217,825	-200,000	0,010	-0,101
-216,811	117,599	-0,007	0,006
-215,796	88,211	-0,124	-0,099
-214,782	-62,447	-0,082	0,025
-213,767	358,808	0,049	-0,071
-212,752	748,784	0,040	-0,078
-211,738	800,000	0,068	0,164
-210,723	-69,106	-0,076	0,021
-209,709	127,803	-0,077	-0,071
-208,694	800,000	-0,043	-0,110
-207,679	-91,345	-0,076	-0,016
-206,665	-200,000	-0,011	-0,050
-205,650	93,356	0,027	0,022
-204,636	-64,927	0,122	0,035
-203,621	-21,555	-0,023	-0,010
-202,606	-81,352	-0,067	0,016
-201,592	800,000	0,053	0,106
-200,577	304,314	-0,061	-0,082
-199,563	-200,000	0,035	-0,151
-198,548	-200,000	-0,000	-0,029
-197,533	64,467	0,089	0,065
-196,519	-200,000	0,009	-0,101
-195,504	-131,637	0,101	-0,009
-194,490	142,409	-0,096	-0,092
-193,475	-200,000	-0,013	-0,166
-192,460	-200,000	-0,014	0,126
-191,446	306,077	0,042	-0,057
-190,431	800,000	0,080	0,237
-189,417	650,518	0,046	-0,085
-188,402	565,512	-0,014	-0,024
-187,387	745,358	-0,047	-0,092
-186,373	-183,314	0,108	-0,001
-185,358	800,000	0,040	-0,095
-184,344	129,544	0,117	0,108
-183,329	-200,000	-0,002	0,050
-182,315	349,008	0,084	0,120
-181,300	-59,629	-0,064	-0,020
-180,285	121,114	-0,046	0,041
-179,271	-97,404	-0,090	-0,017
-178,256	-60,993	-0,100	0,030
-177,242	185,323	0,050	0,054
-176,227	-149,292	-0,089	0,005
-175,212	281,758	0,039	0,051
-174,198	1,097	0,067	0,035
-173,183	800,000	-0,025	-0,058
-172,169	-171,625	0,113	-0,003
-171,154	-200,000	0,023	-0,195
-170,139	547,551	0,091	0,158
-169,125	366,468	0,044	-0,064
-168,110	117,992	-0,042	0,037
-167,096	-86,610	-0,043	0,010
-166,081	391,782	-0,029	-0,043
-165,066	-123,264	0,022	-0,002
-164,052	479,412	-0,050	0,082
-163,037	-49,984	0,029	0,010
-162,023	800,000	0,005	-0,013
-161,008	108,599	-0,041	-0,035
-159,993	-168,391	0,106	0,003
-158,979	-136,833	-0,036	0,003
-157,964	-160,729	0,080	0,003
-156,950	-200,000	0,056	-0,234
-155,935	228,605	0,073	-0,086
-154,920	800,000	0,058	0,180
-153,906	200,825	0,036	0,040
-152,891	-40,870	-0,019	-0,007
-151,877	-200,000	0,011	-0,107
-150,862	-141,950	0,046	0,003
-149,847	234,818	-0,041	0,048
-148,833	234,361	-0,048	-0,057
-147,818	-130,544	0,103	0,010
-146,804	800,000	0,038	0,100
-145,789	83,989	-0,016	-0,012
-144,775	-200,000	-0,009	0,139
-143,760	-200,000	0,008	-0,226
-142,745	-131,648	0,014	-0,001
-141,731	19,385	-0,045	-0,026
-140,716	-122,474	0,150	-0,017
-139,702	-22,030	0,149	0,065
-138,687	394,908	0,071	-0,108
-137,672	-26,468	0,089	0,037
-136,658	697,928	-0,057	0,108
-135,643	90,372	-0,015	0,012
-134,629	-97,008	0,045	0,008
-133,614	-200,000	0,003	-0,131
-132,599	31,506	-0,110	-0,068
-131,585	160,721	-0,077	-0,077
-130,570	-200,000	0,000	-0,099
-129,556	-90,325	-0,112	-0,023
-128,541	12,439	0,057	-0,032
-127,526	749,100	0,012	-0,024
-126,512	10,304	-0,017	-0,009
-125,497	-200,000	0,000	0,083
-124,483	585,147	-0,067	0,119
-123,468	-200,000	-0,026	-0,146
-122,453	-29,929	-0,044	0,018
-121,439	-200,000	-0,007	0,060
-120,424	15,387	-0,033	-0,019
