DTS Sentinel unit serial number:	SN410029Multiplexer serial number:	ORYXHardware model number:	OX2-SRSoftware version number:	ORYX F/W v4,00 Oryx Data Collector v3.7.2.0data status	okinstallation	B5 Nyhavnadifferential loss correction	single-endedforward channel	channel 2reverse channel	N/Adate	2023/12/12time	04:57:13forward acquisition time	300,00reverse acquisition time	0,00gamma	499,1914k internal	0,3157k external	0,3157temperature offset calibration	1,0000default loss term (dB/km)	0,3820temperature slope calibration	1,0000multiplexer offset coefficient	1,0000multiplexer slope coefficient	1,0000fibre end	0,00T internal ref (°C)	15,42T ext. ref 1 (°C)	-0,99T ext. ref 2 (°C)	-1,27length (m)	temperature (°C)	Stokes	anti-Stokes-744,400	3,040	-0,051	0,027
-743,385	-61,185	-0,239	0,074
-742,371	800,000	0,036	0,090
-741,356	-116,710	-0,320	0,043
-740,342	800,000	0,050	0,116
-739,327	133,103	-0,178	-0,170
-738,312	53,797	-0,038	0,027
-737,298	-94,275	-0,334	-0,067
-736,283	82,797	0,079	0,063
-735,269	-155,565	-0,383	0,018
-734,254	-200,000	-0,012	-0,048
-733,239	-5,722	-0,534	-0,269
-732,225	30,598	0,208	0,131
-731,210	-99,285	0,137	0,025
-730,196	-19,740	0,060	0,027
-729,181	-200,000	0,011	-0,170
-728,167	5,806	0,055	-0,030
-727,152	-200,000	0,007	0,046
-726,137	-166,573	-0,187	0,006
-725,123	201,022	0,099	-0,112
-724,108	301,150	-0,087	-0,118
-723,094	-200,000	-0,057	-0,239
-722,079	800,000	-0,061	-0,167
-721,064	158,395	0,020	-0,020
-720,050	-105,706	-0,030	0,005
-719,035	222,202	-0,108	-0,129
-718,021	-13,905	-0,162	-0,077
-717,006	-1,759	-0,025	-0,013
-715,991	51,668	-0,122	-0,085
-714,977	-200,000	0,008	-0,042
-713,962	800,000	-0,009	0,022
-712,948	14,538	0,079	-0,045
-711,933	-71,196	-0,038	0,010
-710,918	87,323	-0,016	0,013
-709,904	800,000	-0,025	0,068
-708,889	800,000	-0,031	-0,079
-707,875	800,000	0,028	0,064
-706,860	-44,051	-0,054	0,020
-705,845	214,916	-0,025	0,029
-704,831	234,697	0,048	-0,058
-703,816	-102,417	-0,150	-0,026
-702,802	-200,000	0,017	0,081
-701,787	-200,000	-0,025	-0,192
-700,772	-200,000	-0,007	-0,056
-699,758	71,586	0,055	0,042
-698,743	-126,123	-0,020	0,002
-697,729	-28,360	0,096	-0,041
-696,714	248,234	-0,074	0,092
-695,699	-25,714	0,156	-0,067
-694,685	-182,186	-0,134	-0,002
-693,670	432,771	-0,033	-0,053
-692,656	58,590	-0,083	0,060
-691,641	-75,708	0,098	-0,025
-690,627	251,057	0,059	0,074
-689,612	800,000	-0,045	-0,097
-688,597	69,858	-0,133	0,101
-687,583	471,125	0,023	-0,039
-686,568	466,225	0,023	-0,038
-685,554	800,000	-0,048	-0,110
-684,539	-200,000	-0,017	0,091
-683,524	456,722	0,066	0,109
-682,510	670,486	-0,070	0,134
-681,495	800,000	-0,021	-0,068
-680,481	506,994	-0,045	-0,078
-679,466	28,681	0,037	0,023
-678,451	2,704	-0,113	0,060
-677,437	-39,933	-0,071	0,027
-676,422	-200,000	-0,028	-0,137
-675,408	127,641	-0,087	0,081
-674,393	-200,000	-0,008	-0,044
-673,378	-200,000	0,003	0,026
-672,364	18,483	-0,043	-0,025
-671,349	15,024	-0,058	0,033
-670,335	686,597	-0,066	-0,126
-669,320	-115,100	-0,135	0,019
-668,305	800,000	-0,061	0,144
-667,291	237,173	0,045	0,055
-666,276	-69,514	-0,059	0,016
-665,262	414,538	-0,055	0,087
-664,247	37,869	0,064	0,042
-663,232	206,918	-0,088	0,100
-662,218	0,418	-0,162	0,085
-661,203	-146,916	0,099	0,006
-660,189	-200,000	0,018	-0,063
-659,174	-31,888	-0,160	-0,066
-658,159	-119,846	0,073	0,009
-657,145	82,571	-0,077	-0,061
-656,130	139,317	0,019	-0,018
-655,116	182,625	0,100	-0,108
-654,101	58,520	-0,135	-0,098
-653,086	7,295	-0,091	0,050
-652,072	-79,112	0,089	-0,022
-651,057	17,714	-0,037	0,021
-650,043	43,889	0,063	-0,043
-649,028	16,729	-0,116	0,067
-648,014	326,858	0,134	-0,189
-646,999	-200,000	0,002	-0,095
-645,984	-200,000	0,026	0,150
-644,970	142,392	-0,086	-0,084
-643,955	506,343	-0,033	-0,056
-642,941	-49,862	-0,044	0,015
-641,926	82,061	0,134	0,106
-640,911	50,815	0,060	0,042
-639,897	-24,880	0,064	-0,028
-638,882	-33,208	0,049	-0,020
-637,868	-200,000	-0,009	0,038
-636,853	91,892	-0,049	-0,041
-635,838	-200,000	0,016	0,062
-634,824	800,000	-0,022	-0,049
-633,809	-168,528	0,069	-0,002
-632,795	-110,543	0,016	0,002
-631,780	800,000	-0,042	0,114
-630,765	235,896	-0,056	0,068
-629,751	83,679	0,079	-0,063
-628,736	-158,552	0,135	-0,006
-627,722	-115,044	-0,196	0,027
-626,707	-27,528	0,138	0,059
-625,692	800,000	-0,054	-0,122
-624,678	-93,517	0,080	-0,016
-623,663	112,785	-0,042	-0,037
-622,649	-185,109	0,126	-0,001
-621,634	800,000	-0,041	-0,101
-620,619	-2,728	-0,053	0,027
-619,605	561,412	0,048	0,086
-618,590	265,178	-0,062	0,080
-617,576	581,881	0,045	0,081
-616,561	247,409	-0,027	-0,034
-615,546	-127,956	-0,071	0,007
-614,532	800,000	0,009	-0,024
-613,517	144,920	-0,087	-0,086
-612,503	24,543	-0,038	-0,023
-611,488	-200,000	0,001	0,070
-610,474	-10,575	-0,112	-0,054
-609,459	-106,907	0,121	0,019
-608,444	-200,000	0,010	-0,102
-607,430	-135,201	-0,068	0,006
-606,415	-100,298	-0,037	-0,007
-605,401	-93,668	0,042	0,008
-604,386	231,867	-0,080	0,096
-603,371	184,298	0,059	0,064
-602,357	800,000	-0,008	0,024
-601,342	-154,204	0,021	-0,001
-600,328	-200,000	-0,026	-0,122
-599,313	47,239	-0,038	0,026
-598,298	16,341	0,135	0,078
-597,284	756,138	-0,061	0,122
-596,269	115,154	0,071	0,063
-595,255	797,087	0,058	0,119
-594,240	43,160	0,058	-0,039
-593,225	202,415	-0,074	0,084
-592,211	-188,538	-0,121	0,001
-591,196	800,000	0,041	-0,108
-590,182	-113,634	0,022	0,003
-589,167	-200,000	0,036	0,127
-588,152	465,292	0,052	-0,085
-587,138	-194,779	0,032	-0,000
-586,123	114,164	-0,031	-0,028
-585,109	800,000	-0,011	0,029
-584,094	154,311	-0,025	0,025
-583,079	-170,500	-0,076	-0,002
-582,065	133,175	0,030	-0,028
-581,050	-186,659	0,071	-0,001
-580,036	-113,490	-0,101	-0,014
-579,021	-45,995	0,040	-0,014
-578,006	-133,733	-0,113	-0,010
-576,992	36,065	-0,102	-0,066
-575,977	-80,586	0,158	-0,038
-574,963	7,019	0,072	0,039
-573,948	149,739	-0,024	-0,023
-572,934	-7,102	0,047	-0,024
-571,919	-200,000	0,006	-0,036
-570,904	147,940	0,109	-0,108
-569,890	382,358	-0,062	0,093
-568,875	334,438	0,054	0,076
-567,861	-120,707	0,057	-0,007
-566,846	-120,439	0,026	0,003
-565,831	75,810	-0,081	0,063
-564,817	-169,820	-0,078	-0,002
-563,802	439,464	0,069	-0,110
-562,788	-73,903	0,023	0,006
-561,773	-200,000	-0,008	0,052
-560,758	-16,602	0,095	0,044
-559,744	-66,760	0,063	0,018
-558,729	14,158	-0,051	-0,029
-557,715	-200,000	-0,011	-0,224
-556,700	-200,000	-0,020	-0,115
-555,685	-59,983	-0,109	-0,034
-554,671	-200,000	-0,003	0,050
-553,656	800,000	-0,004	0,009
-552,642	800,000	0,054	0,128
-551,627	59,237	0,060	0,043
-550,612	-200,000	-0,036	0,124
-549,598	-200,000	-0,022	-0,077
-548,583	213,573	-0,092	-0,107
-547,569	800,000	0,022	-0,063
-546,554	-200,000	-0,004	-0,058
-545,539	43,135	0,108	0,072
-544,525	-200,000	-0,005	0,088
-543,510	-89,223	-0,077	0,017
-542,496	314,469	-0,059	-0,081
-541,481	-200,000	-0,033	-0,177
-540,466	739,506	-0,011	0,022
-539,452	440,387	-0,007	-0,010
-538,437	303,932	0,071	0,096
-537,423	800,000	-0,048	-0,128
-536,408	-28,863	-0,094	0,039
-535,393	138,548	-0,067	-0,064
-534,379	-200,000	0,000	-0,207
-533,364	437,459	-0,097	-0,155
-532,350	21,270	-0,045	-0,027
-531,335	-13,629	-0,022	-0,010
-530,321	-43,649	-0,051	0,019
-529,306	245,294	-0,092	0,113
-528,291	98,705	-0,033	0,027
-527,277	-200,000	0,010	-0,148
-526,262	126,341	0,130	-0,120
-525,248	-200,000	-0,032	-0,111
-524,233	576,197	-0,081	0,146
-523,218	660,045	-0,037	0,069
-522,204	-200,000	0,007	0,086
-521,189	-166,388	-0,029	0,001
-520,175	-66,204	0,146	0,042
-519,160	745,408	-0,018	-0,036
-518,145	203,117	-0,066	0,074
-517,131	-88,849	0,021	-0,005
-516,116	89,230	-0,058	0,047
-515,102	211,843	0,108	0,125
-514,087	102,311	-0,050	-0,043
-513,072	-200,000	-0,037	-0,175
-512,058	800,000	0,010	-0,031
-511,043	688,438	0,032	-0,062
-510,029	431,371	-0,096	0,152
-509,014	800,000	-0,065	0,207
-507,999	-126,051	-0,059	0,006
-506,985	-200,000	0,012	-0,087
-505,970	-31,756	-0,088	-0,036
-504,956	107,602	-0,053	-0,046
-503,941	668,024	0,057	-0,109
-502,926	-74,301	0,117	0,031
-501,912	800,000	-0,046	0,102
-500,897	800,000	-0,029	-0,066
-499,883	-11,563	-0,057	0,027
-498,868	-95,647	-0,011	-0,002
-497,853	-82,610	-0,086	0,020
-496,839	531,968	-0,054	0,093
-495,824	-8,848	0,052	0,025
-494,810	-154,060	0,089	0,004
-493,795	52,928	-0,100	0,070
-492,781	-55,187	0,080	-0,026
-491,766	602,817	-0,045	0,081
-490,751	-200,000	0,004	0,188
-489,737	-2,086	-0,139	-0,071
-488,722	37,471	0,083	0,054
-487,708	-119,274	-0,039	0,005
-486,693	-104,835	0,157	-0,026
-485,678	-200,000	-0,003	0,020
-484,664	485,183	-0,030	-0,050
-483,649	291,905	0,091	-0,121
-482,635	97,657	-0,055	0,046
-481,620	204,882	-0,072	0,082
-480,605	-45,055	-0,151	-0,054
-479,591	-200,000	-0,006	0,059
-478,576	465,552	0,048	-0,079
-477,562	-200,000	-0,004	-0,027
-476,547	-200,000	-0,002	-0,106
-475,532	-20,443	-0,086	-0,038
-474,518	-200,000	-0,001	0,032
-473,503	445,480	0,048	-0,078
-472,489	-110,063	0,067	-0,010
-471,474	-25,553	0,075	0,032
-470,459	35,365	-0,099	0,063
-469,445	800,000	-0,020	-0,053
-468,430	-200,000	0,032	0,127
-467,416	-200,000	-0,031	-0,121
-466,401	-122,943	0,041	-0,005
-465,386	254,439	0,041	-0,051
-464,372	-15,966	0,064	0,030
-463,357	-123,432	-0,077	0,009
-462,343	587,451	-0,050	-0,091
-461,328	-200,000	0,017	0,067
-460,313	29,700	0,052	-0,032
-459,299	800,000	0,040	-0,091
-458,284	250,360	-0,033	-0,041
-457,270	-22,761	0,078	-0,034
-456,255	-200,000	-0,017	-0,071
-455,241	204,223	0,089	-0,101
-454,226	-170,112	-0,043	-0,001
-453,211	-200,000	-0,027	0,143
-452,197	-200,000	0,000	-0,114
-451,182	530,710	-0,029	0,050
-450,168	-2,528	0,124	0,063
-449,153	40,162	-0,093	-0,061
-448,138	-144,264	0,116	-0,008
-447,124	535,265	0,055	-0,096
-446,109	584,764	-0,068	0,121
-445,095	97,848	0,107	0,090
-444,080	800,000	-0,036	-0,101
-443,065	-200,000	0,023	0,163
-442,051	-59,610	0,040	-0,013
-441,036	-13,298	-0,090	0,042
-440,022	571,563	0,021	0,038
-439,007	-200,000	0,017	-0,074
-437,992	225,244	0,019	0,023
-436,978	66,729	0,058	0,043
-435,963	148,386	0,066	0,065
-434,949	126,480	0,019	-0,018
-433,934	36,841	0,119	0,077
-432,919	-59,327	-0,052	0,016
-431,905	51,617	0,037	0,026
-430,890	-93,955	-0,084	-0,017
-429,876	610,505	-0,036	0,067
-428,861	-140,050	0,113	0,009
-427,846	72,964	-0,054	0,041
-426,832	83,443	-0,041	-0,032
-425,817	5,052	-0,104	-0,056
-424,803	800,000	-0,041	-0,089
-423,788	268,893	-0,036	-0,047
-422,773	-75,882	0,109	-0,028
-421,759	-200,000	0,001	0,005
-420,744	788,953	0,078	-0,157
-419,730	-15,488	0,036	0,017
-418,715	9,340	-0,118	-0,065
-417,701	54,455	0,021	0,015
-416,686	-200,000	0,024	-0,078
-415,671	514,820	-0,024	0,041
-414,657	6,532	0,066	-0,035
-413,642	-200,000	-0,002	0,148
-412,628	0,334	-0,102	0,053
-411,613	-157,887	-0,041	-0,002
-410,598	-200,000	-0,012	-0,168
-409,584	332,304	0,041	0,057
-408,569	-200,000	0,005	0,071
-407,555	-1,935	0,109	0,056
-406,540	98,192	-0,085	0,072
-405,525	358,224	-0,077	0,112
-404,511	800,000	0,021	0,063
-403,496	56,538	-0,070	0,049
-402,482	-97,609	0,164	0,031
-401,467	590,854	0,043	-0,077
-400,452	-110,105	-0,129	0,019
-399,438	-200,000	-0,002	0,066
-398,423	-200,000	-0,006	-0,032
-397,409	800,000	-0,004	0,012
-396,394	-200,000	-0,011	-0,038
-395,379	-200,000	0,005	-0,033
-394,365	-200,000	-0,013	0,090
-393,350	-68,363	0,090	-0,025
-392,336	-50,776	0,039	0,013
-391,321	-72,049	0,045	0,012
-390,306	-153,856	-0,266	0,013
-389,292	-200,000	-0,020	0,068
-388,277	350,700	0,060	-0,087
-387,263	800,000	0,015	-0,038
-386,248	-200,000	-0,002	-0,062
-385,233	-200,000	-0,001	-0,010
-384,219	-124,354	-0,115	-0,013
-383,204	497,991	0,050	0,085
-382,190	160,213	0,031	-0,032
-381,175	86,526	0,046	0,037
-380,160	-68,720	0,125	-0,035
-379,146	613,030	-0,027	-0,050
-378,131	-200,000	-0,020	-0,097
-377,117	140,622	0,130	0,125
-376,102	9,010	-0,095	0,052
-375,088	490,730	-0,071	-0,118
-374,073	355,541	-0,030	-0,043
-373,058	221,501	-0,054	0,064
-372,044	220,628	0,056	0,065
-371,029	13,441	-0,056	-0,032
-370,015	800,000	-0,026	0,052
-369,000	-90,024	0,082	0,017
-367,985	-9,679	0,027	0,013
-366,971	-200,000	0,015	0,083
-365,956	-200,000	0,011	-0,132
-364,942	-115,876	0,117	0,016
-363,927	800,000	0,016	0,039
-362,912	-137,522	0,066	-0,005
-361,898	661,772	0,038	-0,072
-360,883	-21,382	0,071	0,031
-359,869	-9,509	-0,079	0,038
-358,854	-200,000	0,007	0,119
-357,839	181,062	0,016	0,017
-356,825	-200,000	-0,015	0,094
-355,810	-200,000	-0,005	-0,022
-354,796	-56,431	-0,021	0,007
-353,781	-150,188	-0,095	-0,005
-352,766	680,797	-0,053	0,101
-351,752	-140,228	0,214	-0,016
-350,737	-130,660	0,151	0,015
-349,723	-200,000	-0,036	-0,132
-348,708	800,000	0,024	-0,062
-347,693	-200,000	0,002	-0,081
-346,679	193,657	-0,047	0,052
-345,664	-86,006	-0,063	-0,014
-344,650	-101,530	0,070	-0,012
-343,635	57,698	0,102	-0,073
-342,620	484,414	-0,046	0,076
-341,606	20,055	-0,088	0,051
-340,591	135,517	-0,019	0,018
-339,577	-53,692	-0,044	0,014
-338,562	286,131	0,026	-0,034
-337,548	-12,695	0,061	-0,029
-336,533	269,910	-0,048	0,061
-335,518	29,395	0,066	-0,041
-334,504	-60,685	-0,036	0,011
-333,489	-200,000	0,031	0,192
-332,475	-59,512	-0,048	0,015
-331,460	92,753	-0,039	0,032
-330,445	450,172	-0,042	0,067
-329,431	115,249	0,095	0,084
-328,416	-200,000	-0,000	-0,005
-327,402	70,823	-0,053	-0,040
-326,387	472,884	0,075	-0,123
-325,372	445,548	-0,097	-0,155
-324,358	-200,000	0,003	-0,021
-323,343	-200,000	0,014	-0,049
-322,329	-200,000	0,027	-0,187
-321,314	-78,623	0,048	0,012
-320,299	800,000	0,044	-0,100
-319,285	29,276	-0,080	0,049
-318,270	-200,000	-0,019	0,080
-317,256	-200,000	0,006	0,098
-316,241	-51,504	0,154	-0,052
-315,226	247,400	0,010	0,013
-314,212	-118,876	-0,057	-0,007
-313,197	800,000	0,008	0,016
-312,183	11,387	0,081	-0,045
-311,168	-200,000	0,018	-0,162
-310,153	-200,000	-0,041	-0,167
-309,139	-200,000	0,010	-0,079
-308,124	-23,569	0,087	-0,038
-307,110	112,850	-0,076	-0,067
-306,095	800,000	-0,038	0,100
-305,080	258,094	0,134	0,167
-304,066	63,837	0,044	-0,032
-303,051	800,000	-0,039	0,122
-302,037	800,000	-0,010	-0,025
-301,022	-200,000	-0,019	-0,116
-300,008	-200,000	0,015	0,068
-298,993	-11,412	0,134	0,064
-297,978	511,323	-0,071	0,120
-296,964	-163,133	0,026	0,001
-295,949	-200,000	-0,003	-0,091
-294,935	179,300	-0,098	0,104
-293,920	-200,000	0,019	0,106
-292,905	-81,075	-0,018	0,004
-291,891	-200,000	-0,010	0,039
-290,876	4,338	0,067	0,035
-289,862	-173,663	-0,189	-0,004
-288,847	-144,350	-0,056	-0,004
-287,832	-200,000	0,004	-0,123
-286,818	84,536	0,018	-0,014
-285,803	-31,631	-0,118	-0,048
-284,789	193,155	0,096	0,106
-283,774	51,655	-0,068	0,047
-282,759	14,751	0,113	-0,064
-281,745	-132,290	-0,065	0,006
-280,730	800,000	-0,038	0,087
-279,716	-118,092	0,080	-0,010
-278,701	-48,579	-0,021	0,007
-277,686	-200,000	0,023	0,133
-276,672	349,558	-0,050	-0,071
-275,657	229,764	-0,090	0,106
-274,643	26,199	-0,031	-0,019
-273,628	497,948	0,019	-0,033
-272,613	-200,000	0,001	0,060
-271,599	26,021	0,069	0,042
-270,584	430,182	0,027	0,043
-269,570	-59,635	-0,149	0,046
-268,555	652,091	0,034	0,064
-267,540	-5,899	0,064	0,032
-266,526	-46,861	0,028	-0,010
-265,511	119,704	-0,081	-0,073
-264,497	-105,581	-0,028	0,005
-263,482	800,000	0,071	0,177
-262,467	498,021	-0,038	0,063
-261,453	-200,000	0,012	0,152
-260,438	-200,000	0,004	-0,084
-259,424	58,582	-0,064	-0,045
-258,409	-177,746	0,030	-0,001
-257,395	295,056	-0,097	0,129
-256,380	400,826	0,034	0,051
-255,365	-200,000	0,003	-0,117
-254,351	-200,000	-0,000	-0,107
-253,336	-200,000	0,005	0,100
-252,322	51,436	0,015	-0,010
-251,307	240,470	-0,054	0,065
-250,292	267,801	-0,032	0,040
-249,278	124,271	0,036	-0,033
-248,263	90,359	0,085	-0,068
-247,249	557,101	-0,038	0,066
-246,234	-136,345	0,015	0,001
-245,219	800,000	-0,013	-0,029
-244,205	-200,000	0,003	-0,028
-243,190	19,957	0,069	0,040
-242,176	11,586	-0,076	-0,042
-241,161	-14,537	0,145	0,067
-240,146	182,519	-0,145	0,155
-239,132	-93,487	0,062	0,012
-238,117	800,000	0,055	-0,120
-237,103	-119,267	-0,088	-0,011
-236,088	800,000	0,039	-0,080
-235,073	-85,544	0,062	-0,014
-234,059	800,000	0,011	0,032
-233,044	68,680	-0,075	-0,056
-232,030	-153,706	0,081	-0,004
-231,015	-200,000	0,006	-0,122
-230,000	407,292	0,026	0,039
-228,986	9,013	-0,023	0,012
-227,971	-200,000	0,029	-0,179
-226,957	-63,246	-0,187	0,055
-225,942	-200,000	0,004	0,049
-224,927	800,000	-0,049	0,111
-223,913	-40,847	-0,034	-0,013
-222,898	646,921	0,047	-0,088
-221,884	201,773	-0,072	-0,081
-220,869	-200,000	0,004	0,127
-219,855	72,567	0,125	0,094
-218,840	-50,248	0,065	-0,022
-217,825	-174,364	-0,012	0,000
-216,811	-54,444	0,071	0,023
-215,796	64,335	-0,130	-0,094
-214,782	800,000	0,033	-0,104
-213,767	138,855	-0,062	0,059
-212,752	-19,929	0,101	-0,045
-211,738	29,725	0,100	0,061
-210,723	-55,911	-0,035	0,011
-209,709	-200,000	0,007	-0,110
-208,694	85,199	-0,123	-0,097
-207,679	-200,000	-0,002	0,067
-206,665	127,144	-0,064	-0,058
-205,650	-131,667	0,084	-0,008
-204,636	-9,672	-0,011	-0,006
-203,621	800,000	0,016	0,049
-202,606	-63,403	-0,196	-0,058
-201,592	800,000	0,021	-0,059
-200,577	-102,210	0,122	0,021
-199,563	18,191	0,085	-0,049
-198,548	204,215	-0,054	0,061
-197,533	-200,000	-0,013	0,048
-196,519	75,629	-0,131	-0,100
-195,504	-200,000	-0,032	-0,138
-194,490	97,637	-0,048	-0,040
-193,475	277,413	0,019	0,025
-192,460	-136,106	0,087	-0,007
-191,446	-200,000	-0,010	0,132
-190,431	-24,501	-0,101	-0,043
-189,417	800,000	0,030	0,063
-188,402	-200,000	0,002	0,094
-187,387	754,299	-0,044	-0,087
-186,373	-42,558	0,081	-0,030
-185,358	-200,000	0,001	0,006
-184,344	800,000	-0,027	-0,064
-183,329	2,534	0,095	-0,050
-182,315	119,006	-0,038	-0,034
-181,300	-67,227	-0,138	0,039
-180,285	800,000	-0,043	-0,091
-179,271	-12,622	-0,041	0,019
-178,256	-146,149	-0,078	-0,005
-177,242	800,000	0,044	0,108
-176,227	-200,000	0,008	0,133
-175,212	-200,000	-0,013	-0,088
-174,198	-155,034	-0,081	-0,004
-173,183	13,595	0,140	0,078
-172,169	-200,000	-0,015	-0,255
-171,154	-39,374	-0,137	-0,051
-170,139	-200,000	-0,006	0,053
-169,125	-200,000	-0,019	-0,104
-168,110	368,952	0,084	0,123
-167,096	-37,677	-0,107	-0,041
-166,081	-11,845	0,059	-0,028
-165,066	-181,486	-0,045	-0,001
-164,052	-58,933	-0,064	-0,020
-163,037	636,572	-0,033	0,060
-162,023	-94,669	0,189	-0,037
-161,008	-164,058	0,169	0,006
-159,993	-200,000	0,025	-0,115
-158,979	-50,676	0,126	0,043
-157,964	800,000	-0,027	0,065
-156,950	800,000	-0,016	-0,037
-155,935	-106,343	0,066	0,010
-154,920	-68,846	0,118	-0,033
-153,906	-0,101	0,126	0,064
-152,891	-114,742	-0,033	0,004
-151,877	102,006	0,048	0,040
-150,862	-117,551	0,119	-0,015
-149,847	800,000	-0,032	-0,067
-148,833	-22,566	0,095	0,041
-147,818	101,087	-0,030	-0,025
-146,804	56,760	-0,081	-0,057
-145,789	-200,000	0,004	0,111
-144,775	125,036	0,024	-0,022
-143,760	-155,081	-0,109	0,005
-142,745	28,783	-0,138	0,084
-141,731	-200,000	0,000	-0,055
-140,716	-122,437	-0,057	-0,007
-139,702	454,989	0,080	0,128
-138,687	22,673	-0,029	0,017
-137,672	-24,816	-0,066	-0,028
-136,658	-138,043	-0,099	-0,008
-135,643	800,000	-0,050	-0,151
-134,629	-16,003	-0,036	-0,016
-133,614	-14,955	-0,042	0,020
-132,599	-200,000	-0,016	-0,098
-131,585	800,000	-0,053	0,113
-130,570	22,646	-0,023	0,014
-129,556	167,819	0,085	-0,087
-128,541	-200,000	-0,002	0,103
-127,526	432,706	-0,031	-0,049
-126,512	30,066	0,088	0,054
-125,497	300,490	0,021	0,028
-124,483	93,815	0,051	-0,042
-123,468	6,397	0,054	-0,029
-122,453	-200,000	0,017	-0,142
-121,439	-1,065	-0,033	0,017
-120,424	158,579	0,060	0,060
-119,410	800,000	0,037	0,099
