DTS Sentinel unit serial number:	SN410029Multiplexer serial number:	ORYXHardware model number:	OX2-SRSoftware version number:	ORYX F/W v4,00 Oryx Data Collector v3.7.2.0data status	okinstallation	B5 Nyhavnadifferential loss correction	single-endedforward channel	channel 2reverse channel	N/Adate	2023/12/14time	01:47:13forward acquisition time	300,00reverse acquisition time	0,00gamma	499,1914k internal	0,3154k external	0,3154temperature offset calibration	1,0000default loss term (dB/km)	0,3820temperature slope calibration	1,0000multiplexer offset coefficient	1,0000multiplexer slope coefficient	1,0000fibre end	0,00T internal ref (°C)	8,68T ext. ref 1 (°C)	-7,41T ext. ref 2 (°C)	-7,45length (m)	temperature (°C)	Stokes	anti-Stokes-744,400	43,909	0,048	0,033
-743,385	-40,599	-0,317	-0,121
-742,371	-159,020	0,112	0,005
-741,356	-128,976	-0,234	-0,024
-740,342	-200,000	-0,037	0,177
-739,327	-142,064	-0,291	-0,021
-738,312	84,115	0,080	0,064
-737,298	-43,775	-0,286	-0,106
-736,283	98,129	0,133	0,113
-735,269	-108,911	-0,400	-0,062
-734,254	-16,035	0,215	0,100
-733,239	-10,395	-0,742	-0,362
-732,225	-28,984	0,207	0,087
-731,210	-200,000	0,013	0,080
-730,196	73,381	-0,162	-0,125
-729,181	-57,312	-0,103	0,033
-728,167	49,386	-0,100	-0,069
-727,152	-18,400	-0,119	-0,055
-726,137	36,888	-0,099	0,064
-725,123	-200,000	-0,005	-0,197
-724,108	406,425	-0,096	-0,151
-723,094	-200,000	0,013	-0,072
-722,079	800,000	0,034	-0,080
-721,064	218,383	0,116	0,137
-720,050	342,320	0,081	-0,117
-719,035	-200,000	0,035	0,128
-718,021	-10,050	-0,038	0,019
-717,006	-9,382	-0,094	0,046
-715,991	-76,349	-0,056	-0,014
-714,977	800,000	-0,041	-0,111
-713,962	-200,000	-0,018	0,097
-712,948	89,415	0,040	-0,033
-711,933	-98,904	-0,071	0,013
-710,918	611,987	-0,076	0,141
-709,904	-113,090	0,027	0,004
-708,889	207,579	0,081	-0,093
-707,875	-200,000	0,013	0,126
-706,860	387,842	-0,043	0,066
-705,845	112,647	0,098	-0,088
-704,831	313,084	-0,059	0,082
-703,816	-200,000	-0,016	0,076
-702,802	756,024	-0,040	0,079
-701,787	699,418	-0,021	-0,041
-700,772	-68,153	-0,105	-0,030
-699,758	2,973	-0,053	0,028
-698,743	324,231	0,117	-0,165
-697,729	-23,497	0,132	-0,058
-696,714	113,522	-0,096	0,086
-695,699	-15,899	0,082	-0,038
-694,685	-200,000	0,010	-0,082
-693,670	-42,591	-0,162	-0,060
-692,656	-67,820	0,061	-0,018
-691,641	-1,487	-0,041	0,021
-690,627	-31,697	0,081	-0,033
-689,612	-14,472	-0,103	-0,049
-688,597	-49,383	-0,036	-0,013
-687,583	188,339	-0,078	-0,086
-686,568	-200,000	-0,012	-0,083
-685,554	800,000	-0,022	-0,060
-684,539	800,000	0,051	-0,128
-683,524	231,795	-0,034	0,041
-682,510	202,478	0,038	0,043
-681,495	487,569	-0,050	0,084
-680,481	-95,013	0,082	0,016
-679,466	144,322	-0,018	-0,018
-678,451	182,293	0,084	-0,091
-677,437	15,855	-0,061	-0,035
-676,422	-200,000	-0,014	0,204
-675,408	-109,988	0,070	-0,011
-674,393	280,318	-0,164	-0,216
-673,378	14,390	-0,076	0,043
-672,364	-53,328	0,055	-0,018
-671,349	-2,474	-0,111	-0,057
-670,335	183,869	0,092	0,100
-669,320	313,569	-0,054	0,075
-668,305	124,958	-0,071	0,066
-667,291	256,847	0,046	0,058
-666,276	-104,938	0,145	-0,024
-665,262	-5,739	-0,084	-0,042
-664,247	-200,000	-0,000	-0,004
-663,232	800,000	0,028	0,086
-662,218	-135,784	0,053	0,005
-661,203	800,000	0,035	0,071
-660,189	800,000	-0,025	-0,060
-659,174	-27,983	-0,076	-0,032
-658,159	58,499	-0,091	-0,066
-657,145	-78,417	-0,082	0,020
-656,130	-200,000	0,023	0,077
-655,116	20,274	0,166	-0,098
-654,101	123,190	0,017	-0,016
-653,086	0,225	-0,034	0,018
-652,072	-40,503	-0,098	-0,037
-651,057	-200,000	0,003	0,065
-650,043	3,404	-0,104	0,056
-649,028	131,978	0,086	0,081
-648,014	-133,417	0,101	-0,009
-646,999	58,821	-0,097	-0,070
-645,984	232,323	0,091	-0,110
-644,970	108,174	0,090	0,079
-643,955	-200,000	0,004	0,125
-642,941	-147,512	-0,180	-0,011
-641,926	-122,703	0,085	0,010
-640,911	-89,540	0,078	0,017
-639,897	800,000	0,050	0,125
-638,882	435,565	0,080	0,128
-637,868	326,530	-0,054	-0,076
-636,853	200,198	-0,099	-0,112
-635,838	194,783	-0,034	0,038
-634,824	99,110	-0,057	0,048
-633,809	396,816	-0,093	0,143
-632,795	-121,410	0,111	0,013
-631,780	40,879	0,068	0,045
-630,765	-200,000	0,017	-0,070
-629,751	-200,000	-0,002	-0,076
-628,736	-10,147	-0,118	-0,058
-627,722	177,679	0,026	0,028
-626,707	161,437	0,052	-0,054
-625,692	-101,065	-0,183	0,033
-624,678	81,411	0,084	-0,067
-623,663	-152,208	-0,077	0,004
-622,649	800,000	-0,048	-0,141
-621,634	-200,000	-0,005	-0,097
-620,619	800,000	-0,032	0,086
-619,605	800,000	-0,032	-0,078
-618,590	800,000	-0,016	0,046
-617,576	169,574	0,061	0,064
-616,561	-200,000	-0,023	-0,079
-615,546	430,774	-0,087	-0,138
-614,532	6,580	-0,118	0,064
-613,517	-200,000	-0,023	0,102
-612,503	-91,205	0,017	-0,004
-611,488	-63,739	-0,151	-0,045
-610,474	-94,451	-0,054	0,011
-609,459	67,879	0,074	-0,055
-608,444	-200,000	0,003	0,145
-607,430	560,612	-0,060	-0,107
-606,415	-200,000	-0,008	-0,093
-605,401	-130,609	-0,038	0,004
-604,386	143,728	0,168	-0,164
-603,371	-200,000	0,051	0,185
-602,357	144,056	-0,110	0,108
-601,342	-200,000	0,019	-0,103
-600,328	106,021	-0,268	-0,233
-599,313	30,858	-0,064	0,040
-598,298	383,595	-0,049	-0,075
-597,284	-11,240	0,099	0,048
-596,269	362,396	-0,100	0,147
-595,255	690,254	0,056	0,109
-594,240	271,867	-0,055	-0,072
-593,225	-106,574	0,108	0,018
-592,211	800,000	-0,062	-0,173
-591,196	28,052	-0,084	0,052
-590,182	800,000	-0,052	0,132
-589,167	-200,000	-0,001	0,153
-588,152	-200,000	0,000	0,034
-587,138	-77,015	0,091	-0,023
-586,123	-36,769	0,053	0,021
-585,109	-112,403	-0,082	-0,012
-584,094	786,029	0,036	0,073
-583,079	-122,401	0,130	0,015
-582,065	-200,000	0,000	0,002
-581,050	800,000	-0,018	-0,036
-580,036	-29,824	0,047	0,019
-579,021	-15,185	0,032	-0,015
-578,006	316,117	-0,094	-0,130
-576,992	-125,400	0,108	-0,012
-575,977	-200,000	-0,019	0,154
-574,963	-48,410	0,115	0,040
-573,948	-200,000	-0,003	-0,096
-572,934	-164,528	-0,057	0,002
-571,919	800,000	0,059	-0,126
-570,904	-125,972	-0,063	0,007
-569,890	-38,019	-0,024	-0,009
-568,875	800,000	-0,015	-0,036
-567,861	172,844	0,057	0,060
-566,846	-97,521	-0,161	0,030
-565,831	-145,124	-0,044	-0,003
-564,817	-200,000	0,002	-0,006
-563,802	238,048	-0,063	-0,077
-562,788	-200,000	-0,018	0,100
-561,773	-200,000	-0,025	-0,116
-560,758	25,012	-0,123	0,075
-559,744	62,261	0,153	0,112
-558,729	-96,691	-0,070	0,013
-557,715	-2,106	-0,145	-0,074
-556,700	-59,251	-0,046	0,014
-555,685	800,000	-0,032	-0,084
-554,671	574,430	0,025	-0,046
-553,656	-140,454	0,120	0,009
-552,642	800,000	-0,018	-0,044
-551,627	623,982	0,057	0,105
-550,612	-200,000	-0,013	0,077
-549,598	-200,000	0,011	0,042
-548,583	800,000	-0,039	-0,124
-547,569	361,065	0,048	-0,071
-546,554	800,000	-0,029	0,075
-545,539	-117,392	0,073	0,010
-544,525	-142,624	0,082	0,006
-543,510	-12,528	0,090	0,043
-542,496	638,116	-0,034	0,063
-541,481	-200,000	0,003	0,042
-540,466	800,000	-0,040	0,123
-539,452	319,506	0,058	0,080
-538,437	-104,269	-0,014	-0,002
-537,423	800,000	0,027	-0,082
-536,408	800,000	-0,030	0,096
-535,393	-28,145	-0,198	-0,083
-534,379	-130,948	0,073	0,007
-533,364	-55,956	-0,057	0,019
-532,350	-62,486	0,117	-0,035
-531,335	-200,000	0,005	0,034
-530,321	70,747	-0,118	0,089
-529,306	-16,912	0,130	-0,060
-528,291	-151,664	0,033	0,002
-527,277	544,745	0,065	-0,114
-526,262	-200,000	-0,031	-0,168
-525,248	-200,000	0,044	-0,159
-524,233	-200,000	0,027	0,091
-523,218	0,293	0,158	0,082
-522,204	61,221	0,155	0,112
-521,189	800,000	0,033	0,083
-520,175	-34,055	-0,071	-0,029
-519,160	-131,436	0,112	0,011
-518,145	-200,000	-0,018	0,079
-517,131	236,645	-0,082	0,100
-516,116	-87,641	-0,060	-0,013
-515,102	-187,631	0,143	0,001
-514,087	-200,000	-0,003	-0,153
-513,072	271,565	-0,105	-0,136
-512,058	233,101	-0,046	0,055
-511,043	800,000	0,024	0,057
-510,029	-114,599	0,083	0,011
-509,014	0,955	0,154	0,080
-507,999	-200,000	0,005	-0,104
-506,985	-200,000	0,050	-0,162
-505,970	320,500	-0,073	-0,101
-504,956	-59,499	-0,059	-0,018
-503,941	-44,182	0,027	0,010
-502,926	-96,663	0,146	-0,028
-501,912	22,848	0,032	0,019
-500,897	800,000	0,064	0,165
-499,883	-2,781	-0,237	-0,121
-498,868	309,952	-0,081	-0,111
-497,853	233,549	0,025	-0,030
-496,839	-178,956	-0,104	-0,002
-495,824	-51,833	0,043	0,015
-494,810	631,779	0,034	0,064
-493,795	800,000	0,036	0,107
-492,781	-34,804	-0,068	0,027
-491,766	333,414	-0,039	0,056
-490,751	-38,040	-0,044	0,017
-489,737	-86,607	0,135	0,030
-488,722	180,287	0,049	0,052
-487,708	179,794	-0,030	0,033
-486,693	425,522	0,039	0,061
-485,678	-32,950	0,055	0,022
-484,664	-60,278	0,100	-0,031
-483,649	-200,000	0,012	-0,054
-482,635	-200,000	-0,010	-0,078
-481,620	800,000	-0,051	-0,130
-480,605	-54,359	-0,108	0,036
-479,591	22,951	0,084	0,050
-478,576	77,736	0,086	-0,067
-477,562	724,599	-0,057	-0,111
-476,547	232,414	-0,022	-0,027
-475,532	-69,435	0,112	-0,031
-474,518	292,763	-0,055	-0,073
-473,503	-147,825	0,129	-0,008
-472,489	379,487	0,091	0,136
-471,474	3,929	-0,095	0,051
-470,459	-113,303	-0,099	-0,014
-469,445	-200,000	0,009	-0,053
-468,430	-200,000	-0,010	0,051
-467,416	-200,000	0,021	-0,102
-466,401	-3,951	0,143	-0,072
-465,386	107,298	-0,060	0,052
-464,372	800,000	0,020	-0,044
-463,357	-117,089	0,095	0,013
-462,343	78,821	0,041	-0,032
-461,328	-74,751	-0,062	-0,016
-460,313	27,816	-0,115	-0,070
-459,299	398,731	0,107	0,165
-458,284	800,000	-0,015	0,036
-457,270	216,351	0,034	-0,039
-456,255	546,995	0,095	0,167
-455,241	20,135	-0,132	-0,077
-454,226	800,000	-0,014	-0,043
-453,211	733,455	0,040	-0,079
-452,197	-157,831	0,067	0,003
-451,182	-68,333	0,141	0,040
-450,168	-200,000	0,025	0,086
-449,153	240,123	-0,044	-0,054
-448,138	413,461	-0,080	-0,125
-447,124	-95,725	-0,155	-0,030
-446,109	153,542	0,082	-0,082
-445,095	474,262	0,064	0,106
-444,080	103,060	-0,114	0,098
-443,065	-32,849	-0,046	0,019
-442,051	-93,197	-0,067	0,013
-441,036	-153,964	0,034	0,002
-440,022	26,623	-0,027	0,016
-439,007	-200,000	0,001	0,084
-437,992	-26,272	-0,072	0,031
-436,978	-200,000	0,010	0,126
-435,963	-200,000	-0,000	0,100
-434,949	-141,485	-0,031	-0,002
-433,934	800,000	-0,045	0,132
-432,919	192,929	-0,115	-0,127
-431,905	412,260	-0,089	-0,138
-430,890	64,558	0,054	0,040
-429,876	-200,000	-0,001	-0,011
-428,861	-11,884	0,092	0,044
-427,846	98,689	-0,018	0,015
-426,832	-200,000	0,028	-0,201
-425,817	-39,294	0,066	0,025
-424,803	-200,000	0,019	0,156
-423,788	-200,000	0,010	0,043
-422,773	542,578	-0,030	0,052
-421,759	-200,000	-0,037	0,146
-420,744	-87,492	-0,084	0,018
-419,730	50,304	-0,150	0,103
-418,715	800,000	-0,007	-0,015
-417,701	-200,000	0,010	-0,042
-416,686	-200,000	0,006	0,025
-415,671	800,000	0,012	-0,036
-414,657	628,013	-0,044	0,082
-413,642	-200,000	-0,001	0,040
-412,628	-35,624	0,088	0,035
-411,613	347,275	-0,042	0,061
-410,598	644,538	-0,052	-0,096
-409,584	-54,003	0,051	0,017
-408,569	800,000	-0,072	0,160
-407,555	-138,116	-0,132	-0,011
-406,540	-76,232	0,021	-0,005
-405,525	-112,160	0,184	0,027
-404,511	117,323	-0,088	-0,079
-403,496	217,928	-0,026	0,031
-402,482	55,025	0,076	-0,053
-401,467	88,273	-0,062	0,050
-400,452	800,000	-0,073	-0,159
-399,438	-45,061	0,110	-0,040
-398,423	-30,829	-0,030	-0,012
-397,409	-35,916	0,054	0,021
-396,394	-8,546	-0,075	-0,037
-395,379	189,720	0,082	0,090
-394,365	238,205	0,033	0,040
-393,350	112,054	0,059	0,052
-392,336	232,633	0,077	0,092
-391,321	-58,374	-0,103	0,032
-390,306	-25,437	-0,121	-0,052
-389,292	-112,103	0,029	0,004
-388,277	800,000	0,046	-0,095
-387,263	255,911	-0,065	0,082
-386,248	-35,484	0,095	-0,038
-385,233	800,000	-0,022	0,060
-384,219	225,975	0,049	-0,058
-383,204	-90,055	0,090	0,019
-382,190	-62,794	-0,063	0,019
-381,175	55,966	0,001	-0,001
-380,160	-200,000	-0,002	-0,060
-379,146	-200,000	0,029	0,165
-378,131	30,871	0,192	0,119
-377,117	-167,333	-0,062	0,002
-376,102	-200,000	-0,010	-0,051
-375,088	72,638	0,085	-0,064
-374,073	800,000	0,050	-0,128
-373,058	518,151	-0,032	-0,055
-372,044	438,500	-0,012	0,019
-371,029	-38,970	-0,061	-0,023
-370,015	800,000	0,034	0,101
-369,000	-66,676	-0,083	0,024
-367,985	-63,506	-0,166	-0,049
-366,971	-33,483	0,134	0,054
-365,956	765,068	0,045	-0,090
-364,942	-141,951	-0,111	-0,008
-363,927	13,373	0,123	0,069
-362,912	556,077	-0,052	0,092
-361,898	90,003	-0,085	-0,069
-360,883	-38,818	-0,135	-0,051
-359,869	-76,893	-0,084	0,021
-358,854	45,363	0,050	-0,034
-357,839	-19,070	-0,033	0,015
-356,825	-98,708	0,100	-0,018
-355,810	-200,000	-0,003	-0,140
-354,796	-92,076	0,079	0,016
-353,781	-200,000	-0,015	-0,140
-352,766	-27,312	-0,096	0,041
-351,752	-6,296	0,032	0,016
-350,737	582,397	0,049	0,088
-349,723	-200,000	-0,000	-0,009
-348,708	305,935	-0,043	-0,059
-347,693	-20,996	-0,129	-0,057
-346,679	-57,587	-0,047	0,015
-345,664	-200,000	0,033	-0,194
-344,650	21,035	0,049	0,029
-343,635	-200,000	0,006	0,112
-342,620	241,105	0,053	0,065
-341,606	-30,814	0,123	-0,050
-340,591	5,856	-0,044	0,024
-339,577	-200,000	-0,017	0,123
-338,562	-92,281	-0,144	-0,029
-337,548	30,978	-0,050	-0,031
-336,533	-200,000	-0,028	0,124
-335,518	800,000	0,005	-0,013
-334,504	-125,933	-0,038	0,004
-333,489	-200,000	0,014	0,053
-332,475	9,129	-0,094	-0,051
-331,460	-46,425	-0,111	0,039
-330,445	5,944	0,068	0,036
-329,431	-200,000	0,013	-0,042
-328,416	-200,000	-0,018	-0,086
-327,402	800,000	-0,003	0,007
-326,387	151,095	-0,045	0,045
-325,372	98,746	-0,017	-0,014
-324,358	-63,956	-0,061	-0,018
-323,343	-69,289	0,171	0,047
-322,329	224,745	0,008	-0,010
-321,314	-66,545	-0,071	0,020
-320,299	-200,000	0,003	-0,081
-319,285	186,874	-0,045	-0,049
-318,270	-200,000	-0,014	-0,096
-317,256	-175,966	-0,096	-0,002
-316,241	552,180	0,039	-0,069
-315,226	77,175	0,079	-0,061
-314,212	-14,617	0,208	-0,096
-313,197	-141,835	-0,096	-0,007
-312,183	-86,758	0,077	-0,017
-311,168	-34,557	0,115	0,046
-310,153	-200,000	-0,007	-0,047
-309,139	527,452	0,033	-0,057
-308,124	-28,907	0,157	0,065
-307,110	-33,745	0,016	-0,006
-306,095	578,649	-0,045	0,080
-305,080	345,732	-0,074	-0,105
-304,066	-17,532	-0,092	-0,042
-303,051	189,203	-0,112	-0,122
-302,037	-49,137	0,102	0,035
-301,022	-121,776	0,026	0,003
-300,008	-28,176	-0,079	-0,033
-298,993	-183,826	-0,057	0,001
-297,978	-200,000	0,001	-0,068
-296,964	800,000	-0,013	0,027
-295,949	310,911	-0,047	-0,065
-294,935	-164,746	0,045	0,001
-293,920	460,779	0,020	0,032
-292,905	-93,993	0,103	0,020
-291,891	103,470	0,077	-0,065
-290,876	-135,439	-0,056	0,005
-289,862	16,541	-0,032	0,018
-288,847	-200,000	0,005	0,016
-287,832	-43,147	0,136	-0,050
-286,818	800,000	0,032	-0,088
-285,803	59,163	-0,041	0,029
-284,789	185,158	-0,069	0,074
-283,774	-200,000	0,003	0,018
-282,759	-200,000	0,033	-0,136
-281,745	146,380	0,058	0,057
-280,730	179,554	0,025	0,026
-279,716	-68,052	-0,074	0,021
-278,701	162,365	0,059	0,060
-277,686	511,224	0,064	0,108
-276,672	82,094	0,044	0,034
-275,657	130,300	0,035	0,032
-274,643	800,000	0,041	-0,088
-273,628	-200,000	-0,016	-0,064
-272,613	-16,536	0,050	-0,023
-271,599	-111,335	0,138	0,020
-270,584	671,340	0,051	0,095
-269,570	-99,445	-0,114	-0,021
-268,555	179,325	-0,118	0,126
-267,540	-200,000	-0,033	-0,150
-266,526	-200,000	-0,019	-0,101
-265,511	-200,000	0,014	0,159
-264,497	-200,000	0,018	0,059
-263,482	-200,000	0,034	-0,122
-262,467	-131,940	0,067	-0,006
-261,453	-200,000	-0,002	-0,012
-260,438	97,041	0,093	0,077
-259,424	-200,000	0,004	0,043
-258,409	-200,000	-0,008	0,092
-257,395	800,000	-0,014	-0,037
-256,380	-81,419	0,145	-0,034
-255,365	525,321	0,044	0,075
-254,351	-200,000	-0,012	0,039
-253,336	-72,762	-0,034	0,009
-252,322	181,264	-0,060	-0,064
-251,307	-200,000	-0,016	-0,105
-250,292	-117,005	-0,100	0,013
-249,278	-200,000	0,008	0,031
-248,263	-200,000	0,008	0,099
-247,249	-124,815	0,160	-0,018
-246,234	553,385	0,053	-0,092
-245,219	-90,777	-0,196	0,041
-244,205	141,222	0,038	0,036
-243,190	-12,957	-0,149	-0,070
-242,176	-118,402	0,107	0,014
-241,161	-200,000	-0,006	-0,101
-240,146	800,000	-0,030	0,077
-239,132	-200,000	-0,024	0,101
-238,117	-200,000	0,010	-0,057
-237,103	-3,367	-0,041	0,020
-236,088	800,000	-0,048	0,108
-235,073	129,689	-0,071	0,065
-234,059	362,366	0,026	-0,039
-233,044	47,664	0,050	0,034
-232,030	66,250	0,090	-0,066
-231,015	391,866	-0,041	0,062
-230,000	228,643	0,018	-0,022
-228,986	-200,000	0,002	-0,073
-227,971	-200,000	-0,019	-0,096
-226,957	283,331	0,050	0,065
-225,942	800,000	-0,024	0,060
-224,927	149,477	-0,118	-0,116
-223,913	700,594	-0,070	0,134
-222,898	364,257	-0,038	0,056
-221,884	164,217	0,032	-0,032
-220,869	800,000	-0,042	-0,119
-219,855	-71,329	0,085	-0,023
-218,840	53,598	0,057	-0,039
-217,825	-200,000	-0,010	0,038
-216,811	-200,000	-0,013	-0,084
-215,796	800,000	-0,052	-0,118
-214,782	606,474	0,026	-0,047
-213,767	-200,000	-0,009	-0,063
-212,752	42,131	0,018	-0,012
-211,738	451,940	0,058	0,093
-210,723	800,000	-0,052	-0,148
-209,709	679,717	0,027	-0,050
-208,694	75,429	0,054	-0,041
-207,679	-82,192	0,058	-0,014
-206,665	643,564	-0,023	0,043
-205,650	218,751	-0,075	0,086
-204,636	-200,000	-0,006	0,085
-203,621	15,034	0,046	-0,026
-202,606	384,023	-0,074	-0,111
-201,592	-200,000	0,025	-0,188
-200,577	-92,967	-0,093	-0,019
-199,563	-34,078	-0,128	-0,051
-198,548	466,171	0,129	0,210
-197,533	284,032	0,091	0,119
-196,519	800,000	-0,042	0,114
-195,504	-114,940	-0,094	-0,013
-194,490	26,693	0,089	0,054
-193,475	55,662	0,051	-0,035
-192,460	-91,349	-0,042	-0,009
-191,446	-166,088	-0,076	0,002
-190,431	203,703	0,076	0,085
-189,417	708,708	-0,007	-0,014
-188,402	320,916	-0,036	-0,050
-187,387	591,369	-0,054	0,096
-186,373	800,000	0,062	-0,140
-185,358	-200,000	-0,004	0,077
-184,344	800,000	0,016	0,037
-183,329	21,833	-0,013	-0,007
-182,315	-200,000	-0,021	-0,076
-181,300	-177,540	-0,021	0,000
-180,285	249,655	-0,092	-0,113
-179,271	-11,976	-0,114	-0,054
-178,256	253,332	0,118	0,145
-177,242	-96,495	0,119	-0,023
-176,227	-40,886	0,043	0,016
-175,212	800,000	-0,030	-0,078
-174,198	-200,000	0,059	-0,197
-173,183	800,000	-0,064	-0,131
-172,169	352,664	-0,116	-0,166
-171,154	-200,000	0,012	0,060
-170,139	800,000	0,037	0,117
-169,125	346,908	0,062	-0,088
-168,110	151,956	0,050	0,050
-167,096	800,000	0,025	0,079
-166,081	49,457	-0,063	-0,043
-165,066	226,107	-0,114	-0,134
-164,052	208,085	-0,019	0,022
-163,037	800,000	-0,020	0,056
-162,023	-97,386	0,095	-0,018
-161,008	682,899	0,069	0,131
-159,993	-200,000	-0,026	0,133
-158,979	-71,658	-0,089	0,024
-157,964	-200,000	-0,006	0,028
-156,950	187,062	0,044	0,048
-155,935	355,998	0,056	-0,081
-154,920	-130,384	0,111	0,011
-153,906	44,413	0,092	0,061
-152,891	-200,000	-0,013	0,122
-151,877	-73,969	-0,035	-0,009
-150,862	-88,374	0,071	-0,015
-149,847	685,518	-0,020	0,038
-148,833	800,000	-0,036	0,075
-147,818	-50,798	0,100	0,034
-146,804	800,000	0,011	0,031
-145,789	-200,000	-0,002	0,043
-144,775	627,800	-0,047	0,087
-143,760	-87,321	-0,119	-0,026
-142,745	8,971	0,124	0,067
-141,731	-145,608	0,047	0,003
-140,716	490,529	-0,017	-0,028
-139,702	-200,000	-0,033	0,153
-138,687	-16,458	-0,073	0,033
-137,672	-89,784	-0,147	-0,031
-136,658	102,285	-0,136	0,115
-135,643	89,041	0,032	-0,026
-134,629	132,604	-0,014	0,013
-133,614	-5,878	-0,028	-0,014
-132,599	362,325	-0,025	-0,036
-131,585	-12,193	0,069	0,032
-130,570	148,820	0,018	-0,018
-129,556	318,353	-0,027	0,037
-128,541	-200,000	0,011	-0,165
-127,526	-130,922	0,121	-0,012
-126,512	183,721	-0,097	-0,103
-125,497	652,918	-0,010	0,018
-124,483	800,000	0,025	0,076
-123,468	800,000	-0,005	-0,013
-122,453	247,569	-0,122	-0,149
-121,439	-174,956	0,134	-0,003
-120,424	-96,165	-0,087	0,017
-119,410	-200,000	-0,006	0,064
