DTS Sentinel unit serial number:	SN410029Multiplexer serial number:	ORYXHardware model number:	OX2-SRSoftware version number:	ORYX F/W v4,00 Oryx Data Collector v3.7.2.0data status	okinstallation	B5 Nyhavnadifferential loss correction	single-endedforward channel	channel 2reverse channel	N/Adate	2023/12/11time	20:42:13forward acquisition time	300,00reverse acquisition time	0,00gamma	499,1914k internal	0,3157k external	0,3157temperature offset calibration	1,0000default loss term (dB/km)	0,3820temperature slope calibration	1,0000multiplexer offset coefficient	1,0000multiplexer slope coefficient	1,0000fibre end	0,00T internal ref (°C)	16,05T ext. ref 1 (°C)	0,23T ext. ref 2 (°C)	-0,02length (m)	temperature (°C)	Stokes	anti-Stokes-744,400	-71,836	-0,002	-0,000
-743,385	-101,863	-0,243	-0,043
-742,371	-160,358	0,211	-0,008
-741,356	89,478	-0,266	0,219
-740,342	-46,148	0,134	0,048
-739,327	-199,291	-0,368	0,001
-738,312	800,000	0,063	-0,134
-737,298	-18,720	-0,184	0,084
-736,283	27,170	0,132	0,082
-735,269	-114,614	-0,178	-0,025
-734,254	-54,755	0,063	-0,021
-733,239	-32,866	-0,498	-0,203
-732,225	-155,069	0,314	-0,015
-731,210	800,000	0,012	0,036
-730,196	-200,000	0,015	-0,089
-729,181	800,000	-0,024	-0,068
-728,167	35,853	0,107	-0,069
-727,152	17,480	-0,051	0,030
-726,137	-200,000	0,005	-0,027
-725,123	-200,000	-0,002	0,036
-724,108	395,237	-0,072	-0,111
-723,094	-126,888	-0,100	-0,011
-722,079	800,000	-0,013	-0,034
-721,064	-57,735	0,082	0,026
-720,050	176,103	0,129	-0,138
-719,035	-200,000	0,003	-0,062
-718,021	-10,593	-0,132	0,064
-717,006	-200,000	-0,003	0,013
-715,991	-14,664	-0,107	0,051
-714,977	217,623	0,019	-0,022
-713,962	-15,920	-0,004	0,002
-712,948	-200,000	0,001	0,119
-711,933	130,761	0,058	-0,055
-710,918	800,000	0,026	-0,085
-709,904	40,712	0,116	-0,077
-708,889	-21,181	-0,078	0,035
-707,875	-200,000	-0,002	-0,101
-706,860	104,107	0,025	0,022
-705,845	-64,431	-0,097	0,029
-704,831	-20,510	0,169	0,076
-703,816	-158,712	-0,105	-0,004
-702,802	25,065	-0,021	0,013
-701,787	-200,000	-0,040	-0,159
-700,772	800,000	0,025	0,051
-699,758	-107,497	-0,103	0,017
-698,743	93,152	0,084	0,070
-697,729	207,909	0,054	0,062
-696,714	-200,000	-0,000	0,035
-695,699	-11,404	-0,129	0,062
-694,685	76,627	-0,098	-0,076
-693,670	381,621	0,076	-0,115
-692,656	800,000	0,080	-0,167
-691,641	557,841	-0,071	0,126
-690,627	-4,099	0,079	0,040
-689,612	359,194	0,052	-0,076
-688,597	487,839	-0,011	-0,019
-687,583	-83,849	-0,114	0,027
-686,568	648,765	-0,013	-0,024
-685,554	-200,000	-0,005	-0,078
-684,539	-3,642	0,135	0,069
-683,524	-152,562	0,021	-0,001
-682,510	263,864	-0,024	0,031
-681,495	-170,046	-0,113	0,003
-680,481	138,079	0,037	0,035
-679,466	-31,749	-0,023	0,010
-678,451	268,668	-0,053	0,069
-677,437	40,878	0,066	-0,044
-676,422	800,000	-0,032	-0,077
-675,408	-14,724	0,033	0,016
-674,393	27,746	0,054	-0,033
-673,378	800,000	-0,071	-0,181
-672,364	43,397	-0,162	-0,109
-671,349	-124,436	0,093	0,011
-670,335	800,000	0,025	-0,053
-669,320	-131,081	-0,139	-0,013
-668,305	800,000	0,026	-0,070
-667,291	-44,167	-0,137	-0,050
-666,276	-200,000	-0,038	-0,161
-665,262	657,209	-0,077	-0,145
-664,247	207,301	0,143	0,164
-663,232	-111,008	-0,085	-0,013
-662,218	-200,000	-0,016	0,112
-661,203	267,423	-0,035	0,046
-660,189	140,824	0,057	0,056
-659,174	-189,001	-0,065	-0,001
-658,159	-200,000	-0,005	-0,143
-657,145	-127,950	-0,164	-0,017
-656,130	-200,000	-0,001	0,142
-655,116	-33,555	0,093	0,037
-654,101	11,150	-0,096	0,054
-653,086	325,802	-0,029	0,041
-652,072	221,870	-0,039	-0,046
-651,057	79,446	-0,083	-0,065
-650,043	763,217	0,039	-0,078
-649,028	206,465	-0,110	-0,126
-648,014	-147,809	0,127	-0,008
-646,999	-200,000	-0,008	0,076
-645,984	-6,330	-0,123	0,061
-644,970	-144,987	-0,062	0,004
-643,955	-200,000	-0,037	-0,175
-642,941	-140,434	-0,169	-0,013
-641,926	-200,000	0,010	-0,088
-640,911	-200,000	0,019	-0,141
-639,897	179,625	0,064	-0,069
-638,882	160,230	-0,007	0,007
-637,868	81,990	-0,098	-0,078
-636,853	89,580	-0,115	-0,094
-635,838	-155,953	-0,082	0,004
-634,824	800,000	0,034	-0,084
-633,809	54,820	0,051	0,036
-632,795	38,922	-0,015	0,010
-631,780	-78,653	0,061	0,015
-630,765	-102,896	-0,154	-0,027
-629,751	242,811	-0,053	-0,065
-628,736	-92,164	-0,125	0,026
-627,722	-200,000	-0,027	-0,129
-626,707	-83,288	-0,018	-0,004
-625,692	-1,284	-0,065	-0,034
-624,678	45,788	0,061	-0,041
-623,663	519,536	0,067	0,115
-622,649	329,348	-0,063	-0,089
-621,634	-143,672	-0,060	-0,004
-620,619	149,478	-0,060	-0,060
-619,605	504,058	-0,053	0,091
-618,590	-200,000	-0,023	0,121
-617,576	-67,360	-0,106	0,030
-616,561	-92,460	-0,070	-0,014
-615,546	-200,000	-0,016	-0,063
-614,532	232,597	0,069	0,084
-613,517	151,610	-0,083	-0,083
-612,503	481,301	-0,055	-0,092
-611,488	-200,000	-0,013	0,054
-610,474	-200,000	0,022	0,157
-609,459	2,887	-0,069	-0,036
-608,444	-200,000	0,001	-0,150
-607,430	-200,000	0,027	-0,159
-606,415	498,847	-0,018	-0,031
-605,401	-119,916	0,124	-0,015
-604,386	-29,667	0,059	0,025
-603,371	391,259	-0,029	-0,045
-602,357	629,896	0,056	-0,104
-601,342	800,000	-0,043	-0,090
-600,328	-200,000	-0,002	-0,020
-599,313	185,968	-0,047	-0,052
-598,298	-200,000	-0,015	-0,103
-597,284	387,135	-0,022	-0,033
-596,269	282,009	0,009	-0,012
-595,255	-99,730	0,048	-0,009
-594,240	151,043	0,071	-0,071
-593,225	-200,000	-0,076	-0,253
-592,211	145,018	0,071	-0,069
-591,196	-121,341	-0,109	0,013
-590,182	3,539	-0,024	0,013
-589,167	88,624	0,088	0,071
-588,152	-123,938	0,131	-0,015
-587,138	95,395	0,088	-0,073
-586,123	800,000	0,030	-0,071
-585,109	-23,326	0,069	-0,030
-584,094	70,655	-0,098	-0,074
-583,079	471,552	0,040	-0,066
-582,065	-124,459	-0,031	0,004
-581,050	-200,000	-0,010	0,056
-580,036	-68,002	-0,077	-0,022
-579,021	-104,235	-0,042	0,007
-578,006	-200,000	-0,006	-0,019
-576,992	-200,000	-0,066	0,241
-575,977	-78,206	-0,108	-0,027
-574,963	176,678	0,119	0,127
-573,948	419,782	0,061	0,095
-572,934	243,687	0,058	-0,071
-571,919	-24,217	-0,106	-0,046
-570,904	-0,630	-0,090	0,047
-569,890	321,442	-0,088	0,123
-568,875	800,000	-0,031	0,078
-567,861	-200,000	0,001	0,118
-566,846	-147,494	-0,083	0,005
-565,831	302,272	0,063	0,085
-564,817	-50,313	-0,115	-0,039
-563,802	3,093	-0,060	-0,032
-562,788	21,143	-0,091	-0,054
-561,773	-29,377	0,057	0,024
-560,758	-200,000	0,026	-0,114
-559,744	51,737	0,030	-0,021
-558,729	-200,000	-0,026	-0,086
-557,715	-200,000	-0,032	0,122
-556,700	-75,127	-0,056	0,015
-555,685	-200,000	0,003	-0,066
-554,671	20,975	0,011	-0,006
-553,656	503,888	-0,024	-0,041
-552,642	129,173	-0,122	0,114
-551,627	0,547	0,065	0,034
-550,612	-12,062	0,056	0,027
-549,598	-28,114	-0,097	-0,041
-548,583	-200,000	0,002	-0,019
-547,569	149,609	0,060	-0,060
-546,554	96,053	-0,065	0,054
-545,539	-18,853	0,116	-0,052
-544,525	-200,000	0,000	-0,077
-543,510	226,990	0,005	0,005
-542,496	24,434	-0,094	-0,057
-541,481	-200,000	0,002	-0,127
-540,466	800,000	-0,036	0,079
-539,452	104,531	0,111	0,096
-538,437	-200,000	0,049	0,163
-537,423	741,071	0,027	0,054
-536,408	-173,789	-0,052	-0,001
-535,393	726,206	-0,033	-0,065
-534,379	-200,000	-0,031	0,113
-533,364	-46,496	-0,124	0,044
-532,350	489,724	0,082	0,137
-531,335	800,000	0,011	-0,023
-530,321	-200,000	0,009	0,165
-529,306	-151,633	0,128	0,007
-528,291	800,000	0,012	0,037
-527,277	-48,406	-0,037	0,013
-526,262	-39,706	0,059	-0,022
-525,248	-200,000	-0,009	-0,137
-524,233	-109,020	0,087	0,013
-523,218	800,000	0,015	0,049
-522,204	-14,705	-0,095	-0,045
-521,189	160,373	-0,063	-0,064
-520,175	69,940	-0,085	0,064
-519,160	-200,000	-0,002	0,017
-518,145	168,023	0,032	-0,034
-517,131	-29,349	-0,054	-0,023
-516,116	-200,000	-0,022	0,162
-515,102	25,525	0,045	-0,028
-514,087	28,065	0,224	-0,138
-513,072	2,367	-0,082	-0,043
-512,058	-200,000	0,001	0,021
-511,043	155,352	-0,015	-0,015
-510,029	-29,663	0,056	0,023
-509,014	-200,000	0,035	0,149
-507,999	-200,000	0,009	0,120
-506,985	58,194	-0,080	-0,057
-505,970	-142,318	-0,100	0,007
-504,956	52,524	0,120	0,083
-503,941	-137,437	0,074	-0,006
-502,926	800,000	-0,029	0,060
-501,912	-200,000	0,031	0,161
-500,897	800,000	0,028	-0,056
-499,883	-147,137	-0,056	0,003
-498,868	360,543	-0,080	0,117
-497,853	-200,000	0,003	-0,060
-496,839	-101,600	-0,110	-0,019
-495,824	800,000	0,012	0,037
-494,810	-117,347	0,215	-0,028
-493,795	742,178	0,076	0,150
-492,781	258,049	0,063	-0,079
-491,766	21,384	0,103	0,061
-490,751	-200,000	-0,006	-0,097
-489,737	-70,084	0,065	0,018
-488,722	271,893	0,056	-0,073
-487,708	521,486	0,116	0,199
-486,693	38,418	0,078	-0,051
-485,678	-200,000	-0,028	0,117
-484,664	25,549	-0,048	0,029
-483,649	112,271	0,088	-0,078
-482,635	800,000	-0,092	-0,193
-481,620	352,346	-0,036	-0,052
-480,605	-200,000	0,002	0,091
-479,591	-193,090	0,049	0,000
-478,576	132,756	-0,018	0,017
-477,562	-200,000	0,022	-0,099
-476,547	46,106	-0,104	0,070
-475,532	-86,600	-0,220	-0,049
-474,518	-200,000	0,028	0,173
-473,503	155,264	-0,065	0,065
-472,489	-167,338	0,079	-0,002
-471,474	47,205	-0,131	0,089
-470,459	-103,234	0,114	0,020
-469,445	69,627	-0,117	-0,087
-468,430	63,311	0,090	-0,066
-467,416	-200,000	0,013	-0,076
-466,401	264,830	0,074	-0,095
-465,386	-200,000	0,001	0,035
-464,372	32,033	-0,051	-0,032
-463,357	212,105	-0,094	-0,109
-462,343	-200,000	-0,016	-0,115
-461,328	-1,274	-0,110	-0,056
-460,313	-117,847	0,129	-0,017
-459,299	-200,000	0,009	0,057
-458,284	15,626	0,082	-0,047
-457,270	-200,000	-0,017	0,083
-456,255	3,474	-0,075	-0,040
-455,241	-69,298	0,089	-0,025
-454,226	-59,019	0,055	-0,017
-453,211	318,971	0,097	0,134
-452,197	800,000	0,065	0,177
-451,182	-200,000	-0,002	-0,020
-450,168	-69,768	-0,092	0,025
-449,153	-110,593	0,161	-0,024
-448,138	-200,000	-0,040	-0,156
-447,124	48,346	0,032	0,022
-446,109	160,276	0,013	0,014
-445,095	15,192	0,042	-0,024
-444,080	-51,308	0,162	0,055
-443,065	159,589	-0,041	0,042
-442,051	77,191	-0,126	0,097
-441,036	-31,344	0,057	-0,023
-440,022	-113,743	0,012	0,002
-439,007	-123,507	0,187	-0,021
-437,992	800,000	-0,027	0,082
-436,978	-51,539	-0,041	0,014
-435,963	800,000	-0,019	-0,057
-434,949	6,627	-0,111	-0,060
-433,934	-78,798	0,124	-0,031
-432,919	116,501	-0,087	-0,078
-431,905	800,000	-0,007	0,015
-430,890	154,739	0,071	0,071
-429,876	800,000	-0,040	-0,081
-428,861	488,252	-0,055	0,092
-427,846	294,170	0,052	-0,069
-426,832	800,000	0,017	-0,043
-425,817	20,344	0,074	-0,044
-424,803	211,873	-0,076	-0,088
-423,788	174,831	-0,042	0,045
-422,773	-200,000	-0,007	0,042
-421,759	424,693	0,027	0,042
-420,744	114,863	0,017	0,015
-419,730	-61,611	0,066	-0,020
-418,715	-200,000	-0,003	-0,088
-417,701	414,820	0,090	-0,140
-416,686	-1,128	0,068	-0,035
-415,671	-78,962	0,158	0,039
-414,657	169,027	0,027	0,028
-413,642	-158,623	0,007	0,000
-412,628	800,000	-0,061	0,155
-411,613	233,968	-0,027	-0,033
-410,598	-200,000	0,025	-0,080
-409,584	129,643	-0,070	-0,065
-408,569	324,835	0,048	-0,067
-407,555	424,667	-0,043	0,068
-406,540	800,000	-0,025	0,075
-405,525	800,000	0,012	0,026
-404,511	399,478	-0,074	0,113
-403,496	69,308	-0,039	-0,029
-402,482	-69,154	0,152	0,042
-401,467	471,898	0,061	0,100
-400,452	800,000	0,068	0,144
-399,438	-200,000	0,005	-0,065
-398,423	800,000	-0,015	0,042
-397,409	144,792	-0,010	0,010
-396,394	33,939	0,011	-0,007
-395,379	138,545	0,026	0,025
-394,365	187,138	0,157	-0,170
-393,350	800,000	0,033	-0,067
-392,336	-200,000	-0,006	-0,045
-391,321	800,000	0,030	-0,082
-390,306	-200,000	-0,031	-0,130
-389,292	454,816	-0,053	0,086
-388,277	5,593	-0,039	0,021
-387,263	114,681	0,087	-0,077
-386,248	-93,576	-0,074	0,015
-385,233	429,198	-0,021	-0,034
-384,219	263,670	-0,062	-0,078
-383,204	-200,000	-0,021	0,080
-382,190	202,555	-0,075	-0,084
-381,175	-200,000	-0,014	0,046
-380,160	-200,000	0,052	-0,000
-379,146	-30,258	0,075	-0,031
-378,131	-26,495	-0,111	0,047
-377,117	333,002	-0,071	-0,100
-376,102	-48,561	-0,056	-0,020
-375,088	-28,503	-0,054	0,022
-374,073	-200,000	-0,024	-0,078
-373,058	-116,411	0,076	-0,010
-372,044	800,000	-0,012	0,031
-371,029	800,000	0,030	0,070
-370,015	86,559	0,051	-0,041
-369,000	117,531	-0,038	-0,034
-367,985	-200,000	0,027	-0,095
-366,971	-9,360	-0,088	-0,043
-365,956	185,715	-0,024	-0,026
-364,942	-90,664	0,068	-0,014
-363,927	143,636	0,105	-0,101
-362,912	47,059	0,032	0,021
-361,898	23,111	-0,025	0,015
-360,883	-197,021	0,162	0,001
-359,869	-200,000	-0,013	0,121
-358,854	800,000	0,016	-0,041
-357,839	-200,000	0,004	0,024
-356,825	195,135	-0,035	0,038
-355,810	-1,239	0,035	-0,018
-354,796	28,677	0,061	0,038
-353,781	-40,174	-0,051	0,019
-352,766	-24,748	-0,116	0,050
-351,752	800,000	-0,044	-0,094
-350,737	800,000	0,045	0,128
-349,723	-68,661	0,225	0,063
-348,708	5,748	0,081	0,043
-347,693	81,128	0,039	-0,030
-346,679	-144,912	0,033	-0,002
-345,664	-160,626	-0,102	0,004
-344,650	-200,000	-0,006	-0,061
-343,635	-153,744	-0,075	0,004
-342,620	252,713	0,042	0,052
-341,606	573,814	0,051	-0,091
-340,591	30,528	-0,056	0,035
-339,577	-200,000	-0,026	0,113
-338,562	108,966	-0,079	-0,069
-337,548	43,990	-0,063	-0,042
-336,533	264,019	0,012	0,016
-335,518	163,096	0,017	-0,018
-334,504	-142,779	-0,076	-0,005
-333,489	-54,370	0,049	-0,016
-332,475	244,817	0,072	0,087
-331,460	-49,019	-0,127	0,044
-330,445	-131,653	-0,039	-0,004
-329,431	-200,000	0,002	0,030
-328,416	-40,012	0,128	-0,048
-327,402	-108,458	0,117	0,018
-326,387	800,000	-0,021	0,060
-325,372	-95,700	0,084	-0,016
-324,358	-200,000	-0,017	-0,103
-323,343	122,407	0,048	-0,044
-322,329	-200,000	-0,018	-0,058
-321,314	800,000	-0,040	0,121
-320,299	-200,000	-0,001	0,044
-319,285	78,631	0,062	-0,048
-318,270	-160,729	-0,081	-0,003
-317,256	-200,000	-0,026	0,087
-316,241	8,952	-0,017	0,009
-315,226	314,703	-0,064	0,088
-314,212	800,000	0,009	-0,021
-313,197	108,442	-0,076	0,066
-312,183	800,000	0,028	0,076
-311,168	172,762	-0,014	-0,015
-310,153	77,832	0,040	0,031
-309,139	94,613	-0,129	0,106
-308,124	-16,128	0,107	-0,049
-307,110	-200,000	-0,014	-0,082
-306,095	-114,211	-0,130	0,018
-305,080	445,904	0,023	0,037
-304,066	-200,000	0,017	0,075
-303,051	-1,788	-0,036	0,018
-302,037	268,111	-0,009	-0,011
-301,022	-200,000	-0,013	0,146
-300,008	-55,298	0,148	0,048
-298,993	95,246	0,093	-0,076
-297,978	-50,342	-0,143	-0,049
-296,964	-74,645	0,054	0,014
-295,949	127,440	0,099	-0,091
-294,935	162,390	-0,064	-0,066
-293,920	-37,758	-0,145	-0,056
-292,905	-107,146	0,173	-0,027
-291,891	60,271	-0,090	0,065
-290,876	-19,295	0,099	0,044
-289,862	-200,000	-0,034	0,126
-288,847	13,378	-0,098	0,055
-287,832	-38,311	0,118	0,045
-286,818	678,634	-0,045	-0,086
-285,803	219,644	0,085	0,099
-284,789	24,974	0,069	0,041
-283,774	183,429	0,043	0,046
-282,759	66,320	0,036	0,026
-281,745	216,077	0,082	0,095
-280,730	34,192	0,122	0,077
-279,716	709,287	-0,015	-0,028
-278,701	61,281	0,110	-0,079
-277,686	-145,644	-0,095	-0,006
-276,672	342,135	0,135	0,192
-275,657	-106,880	0,113	0,018
-274,643	379,197	-0,054	-0,081
-273,628	-200,000	0,016	-0,081
-272,613	-12,419	-0,054	-0,025
-271,599	250,208	0,069	-0,085
-270,584	354,718	0,100	-0,144
-269,570	-200,000	0,008	0,053
-268,555	-200,000	-0,002	0,058
-267,540	-200,000	-0,027	0,149
-266,526	219,825	-0,116	-0,134
-265,511	97,903	-0,118	-0,098
-264,497	-73,667	0,085	-0,022
-263,482	-200,000	-0,005	0,118
-262,467	-200,000	-0,030	0,115
-261,453	57,805	-0,163	0,115
-260,438	800,000	-0,032	-0,099
-259,424	800,000	0,015	0,034
-258,409	333,823	-0,037	-0,052
-257,395	-86,624	0,090	0,020
-256,380	194,775	0,051	-0,057
-255,365	800,000	-0,047	-0,104
-254,351	-200,000	0,005	0,110
-253,336	372,536	-0,055	0,081
-252,322	800,000	-0,038	-0,086
-251,307	800,000	-0,023	-0,051
-250,292	800,000	-0,038	0,106
-249,278	-200,000	0,017	0,094
-248,263	800,000	0,052	-0,135
-247,249	-200,000	-0,001	-0,021
-246,234	800,000	-0,022	0,047
-245,219	800,000	-0,022	0,063
-244,205	800,000	-0,034	0,072
-243,190	-200,000	0,010	-0,045
-242,176	413,760	0,017	0,027
-241,161	-200,000	-0,014	-0,050
-240,146	-42,783	0,101	-0,037
-239,132	-118,789	-0,125	-0,016
-238,117	-91,023	0,043	-0,009
-237,103	-159,392	-0,011	-0,000
-236,088	163,035	-0,060	-0,061
-235,073	-200,000	-0,018	0,067
-234,059	-200,000	0,005	0,034
-233,044	48,181	0,148	0,100
-232,030	96,377	0,025	-0,021
-231,015	136,242	-0,185	0,175
-230,000	-200,000	0,025	0,124
-228,986	-128,005	-0,031	0,003
-227,971	-152,356	0,123	-0,006
-226,957	123,299	0,055	0,050
-225,942	-9,739	0,095	0,046
-224,927	160,652	-0,091	-0,092
-223,913	40,727	0,079	0,052
-222,898	-43,431	-0,133	-0,048
-221,884	-200,000	-0,008	-0,193
-220,869	239,103	0,045	-0,055
-219,855	103,300	0,074	0,063
-218,840	144,230	-0,111	0,107
-217,825	364,796	-0,015	0,022
-216,811	-200,000	0,002	-0,031
-215,796	-200,000	-0,007	-0,082
-214,782	-52,590	0,091	0,030
-213,767	-6,027	0,052	-0,025
-212,752	54,588	-0,071	-0,049
-211,738	800,000	0,038	0,116
-210,723	262,512	-0,052	0,066
-209,709	706,174	-0,027	-0,051
-208,694	125,236	-0,114	-0,104
-207,679	387,906	-0,090	-0,134
-206,665	-72,380	0,074	0,020
-205,650	-56,443	-0,089	-0,028
-204,636	-50,657	0,141	0,048
-203,621	-200,000	-0,014	-0,070
-202,606	-200,000	0,013	0,077
-201,592	-68,797	-0,112	-0,031
-200,577	800,000	0,082	-0,170
-199,563	31,174	-0,111	-0,068
-198,548	-39,260	0,041	-0,015
-197,533	-48,743	0,108	-0,037
-196,519	119,101	0,049	0,044
-195,504	80,121	-0,081	0,063
-194,490	-110,062	0,107	-0,016
-193,475	800,000	-0,041	-0,100
-192,460	-200,000	-0,010	0,059
-191,446	-200,000	-0,013	-0,061
-190,431	-172,706	0,038	0,001
-189,417	717,491	-0,023	0,045
-188,402	175,574	-0,047	0,049
-187,387	-200,000	0,046	0,170
-186,373	622,110	-0,027	-0,050
-185,358	-200,000	0,002	-0,033
-184,344	800,000	0,046	0,126
-183,329	-124,322	0,065	0,007
-182,315	198,019	-0,043	0,048
-181,300	-73,075	-0,105	0,028
-180,285	-151,930	-0,033	0,002
-179,271	179,134	-0,111	0,117
-178,256	-200,000	0,001	0,009
-177,242	64,719	0,075	-0,055
-176,227	-200,000	0,017	-0,086
-175,212	122,904	-0,054	0,048
-174,198	800,000	0,048	0,153
-173,183	-85,368	-0,029	-0,006
-172,169	10,178	-0,065	-0,035
-171,154	-200,000	-0,024	-0,104
-170,139	21,258	-0,043	0,025
-169,125	-200,000	0,057	0,201
-168,110	4,445	0,052	0,027
-167,096	-134,612	0,166	-0,014
-166,081	800,000	-0,054	0,124
-165,066	-200,000	0,023	-0,108
-164,052	-200,000	0,012	0,042
-163,037	800,000	0,027	-0,060
-162,023	400,847	0,035	-0,053
-161,008	800,000	-0,020	0,060
-159,993	720,460	-0,055	0,105
-158,979	51,198	0,075	-0,051
-157,964	67,715	-0,143	-0,105
-156,950	-200,000	0,001	0,028
-155,935	-90,763	0,097	-0,020
-154,920	-200,000	-0,003	-0,139
-153,906	-10,254	0,039	0,019
-152,891	-146,819	-0,096	-0,006
-151,877	211,189	-0,109	-0,123
-150,862	800,000	-0,045	-0,100
-149,847	51,834	0,040	0,028
-148,833	800,000	0,063	0,129
-147,818	-200,000	-0,024	0,118
-146,804	156,963	-0,059	-0,059
-145,789	377,082	0,058	-0,085
-144,775	182,311	0,040	0,042
-143,760	800,000	-0,023	0,051
-142,745	-200,000	0,034	-0,118
-141,731	-43,850	0,096	0,035
-140,716	-112,025	0,145	-0,021
-139,702	71,794	-0,086	0,065
-138,687	126,331	0,025	-0,023
-137,672	-15,901	0,111	0,051
-136,658	-200,000	-0,010	0,078
-135,643	-137,525	-0,228	-0,018
-134,629	-200,000	0,012	-0,071
-133,614	550,620	-0,052	-0,090
-132,599	800,000	0,033	-0,083
-131,585	-31,348	-0,075	0,030
-130,570	410,909	0,087	-0,133
-129,556	-200,000	-0,050	-0,185
-128,541	800,000	0,054	-0,147
-127,526	800,000	0,040	-0,117
-126,512	800,000	-0,004	-0,013
-125,497	-125,225	0,047	-0,005
-124,483	49,971	-0,052	-0,035
-123,468	-41,914	-0,081	-0,030
-122,453	17,131	-0,124	-0,071
-121,439	-103,500	-0,097	-0,016
-120,424	-92,905	-0,152	0,030
-119,410	350,118	-0,054	0,076
