DTS Sentinel unit serial number:	SN410029Multiplexer serial number:	ORYXHardware model number:	OX2-SRSoftware version number:	ORYX F/W v4,00 Oryx Data Collector v3.7.2.0data status	okinstallation	B5 Nyhavnadifferential loss correction	single-endedforward channel	channel 2reverse channel	N/Adate	2023/12/12time	09:17:13forward acquisition time	300,00reverse acquisition time	0,00gamma	499,1914k internal	0,3157k external	0,3157temperature offset calibration	1,0000default loss term (dB/km)	0,3820temperature slope calibration	1,0000multiplexer offset coefficient	1,0000multiplexer slope coefficient	1,0000fibre end	0,00T internal ref (°C)	15,02T ext. ref 1 (°C)	-1,31T ext. ref 2 (°C)	-1,59length (m)	temperature (°C)	Stokes	anti-Stokes-744,400	381,436	0,040	0,061
-743,385	-163,065	-0,226	-0,008
-742,371	26,240	0,073	0,045
-741,356	-12,921	-0,163	0,078
-740,342	-4,763	0,141	0,071
-739,327	58,033	-0,268	-0,193
-738,312	523,595	-0,028	-0,049
-737,298	-163,918	-0,365	-0,012
-736,283	153,003	0,067	-0,068
-735,269	-78,702	-0,265	-0,066
-734,254	-200,000	0,013	0,119
-733,239	-34,090	-0,402	-0,162
-732,225	85,960	0,182	0,148
-731,210	-153,069	-0,140	-0,007
-730,196	244,502	-0,075	-0,094
-729,181	800,000	-0,036	-0,085
-728,167	-12,730	-0,102	0,049
-727,152	589,219	0,031	0,057
-726,137	-23,191	-0,059	0,026
-725,123	-57,814	0,027	0,009
-724,108	50,364	-0,115	-0,080
-723,094	53,879	-0,076	-0,053
-722,079	800,000	-0,041	0,104
-721,064	-120,176	-0,137	0,017
-720,050	-84,802	0,070	-0,016
-719,035	-41,644	0,055	-0,021
-718,021	472,775	-0,049	0,082
-717,006	45,125	0,028	-0,019
-715,991	-75,953	-0,183	-0,047
-714,977	-200,000	-0,011	-0,087
-713,962	-22,547	-0,046	0,020
-712,948	79,215	-0,081	-0,064
-711,933	-200,000	0,028	0,129
-710,918	72,344	-0,137	0,105
-709,904	-200,000	0,032	-0,230
-708,889	163,914	-0,091	-0,095
-707,875	-99,578	-0,068	-0,012
-706,860	-110,209	0,076	-0,012
-705,845	-200,000	0,045	0,149
-704,831	-125,067	0,087	0,010
-703,816	49,291	-0,108	-0,075
-702,802	-12,503	-0,070	0,033
-701,787	-33,694	-0,125	-0,051
-700,772	-124,730	0,069	0,008
-699,758	-3,198	-0,030	-0,015
-698,743	800,000	-0,025	0,061
-697,729	211,384	0,091	-0,105
-696,714	800,000	-0,018	0,058
-695,699	70,374	0,078	-0,060
-694,685	160,440	-0,148	-0,152
-693,670	330,552	0,045	-0,064
-692,656	711,675	0,099	-0,194
-691,641	800,000	0,022	-0,048
-690,627	800,000	-0,045	-0,120
-689,612	80,438	0,101	0,080
-688,597	336,315	-0,023	-0,033
-687,583	-200,000	-0,017	0,093
-686,568	-200,000	-0,015	-0,083
-685,554	298,207	0,017	0,023
-684,539	-200,000	-0,031	-0,129
-683,524	-99,580	-0,094	-0,017
-682,510	28,497	0,042	-0,026
-681,495	-200,000	0,013	0,160
-680,481	47,134	-0,057	-0,039
-679,466	94,592	-0,087	-0,072
-678,451	-151,677	0,057	-0,003
-677,437	800,000	-0,056	0,119
-676,422	254,808	-0,063	0,079
-675,408	196,289	-0,078	0,088
-674,393	800,000	0,017	0,052
-673,378	-200,000	-0,009	-0,185
-672,364	-200,000	-0,002	0,082
-671,349	-73,351	0,092	-0,024
-670,335	-144,424	0,066	-0,004
-669,320	-200,000	-0,001	0,005
-668,305	-30,965	0,107	-0,044
-667,291	-2,468	0,071	0,037
-666,276	102,886	-0,092	-0,079
-665,262	-200,000	0,012	-0,155
-664,247	800,000	-0,049	-0,102
-663,232	746,664	-0,056	0,111
-662,218	-22,932	0,168	0,074
-661,203	-53,525	-0,192	0,064
-660,189	-200,000	-0,021	0,079
-659,174	800,000	0,060	-0,127
-658,159	-200,000	-0,001	-0,059
-657,145	-200,000	0,005	-0,062
-656,130	-200,000	-0,010	-0,176
-655,116	565,453	-0,037	0,066
-654,101	56,434	0,023	-0,016
-653,086	260,722	0,040	-0,051
-652,072	301,393	0,033	-0,045
-651,057	72,772	0,036	0,027
-650,043	412,406	0,036	-0,056
-649,028	178,724	0,069	-0,074
-648,014	-200,000	0,008	-0,057
-646,999	193,618	0,019	-0,021
-645,984	235,674	0,066	0,080
-644,970	-55,872	-0,166	0,054
-643,955	-96,549	-0,165	-0,032
-642,941	199,447	-0,078	0,088
-641,926	-200,000	-0,010	0,132
-640,911	25,469	0,108	-0,066
-639,897	800,000	0,026	-0,057
-638,882	117,827	-0,013	-0,012
-637,868	310,491	0,060	0,083
-636,853	-99,549	-0,157	-0,029
-635,838	800,000	-0,026	-0,060
-634,824	-5,935	-0,125	0,063
-633,809	-0,637	0,086	0,044
-632,795	-200,000	-0,013	0,092
-631,780	128,763	-0,146	0,136
-630,765	-1,886	0,102	-0,053
-629,751	202,417	0,062	-0,070
-628,736	-200,000	-0,019	-0,086
-627,722	-200,000	0,021	-0,121
-626,707	28,296	0,024	0,015
-625,692	-173,669	0,111	0,002
-624,678	191,283	0,036	-0,040
-623,663	295,512	0,080	-0,108
-622,649	338,442	0,085	-0,121
-621,634	39,161	-0,112	-0,073
-620,619	800,000	-0,056	-0,139
-619,605	-200,000	0,000	0,006
-618,590	633,054	-0,022	0,042
-617,576	175,196	0,117	0,124
-616,561	561,749	-0,039	-0,069
-615,546	-30,086	-0,013	0,005
-614,532	-106,768	-0,224	0,036
-613,517	800,000	-0,048	-0,136
-612,503	485,696	-0,026	-0,044
-611,488	93,433	0,029	0,024
-610,474	148,921	0,030	0,030
-609,459	-7,617	0,071	-0,035
-608,444	800,000	-0,050	-0,153
-607,430	257,545	-0,049	-0,062
-606,415	-200,000	-0,020	-0,079
-605,401	92,152	-0,066	-0,055
-604,386	38,502	-0,090	0,058
-603,371	-19,195	0,118	0,054
-602,357	-200,000	-0,020	0,168
-601,342	-200,000	0,020	0,102
-600,328	433,997	-0,030	0,047
-599,313	-200,000	-0,030	-0,102
-598,298	283,862	0,051	0,067
-597,284	130,495	0,134	-0,126
-596,269	-200,000	0,001	-0,037
-595,255	183,722	0,069	0,075
-594,240	-200,000	-0,018	0,072
-593,225	-64,013	-0,114	-0,034
-592,211	800,000	-0,041	-0,098
-591,196	-55,407	-0,074	-0,024
-590,182	800,000	0,021	-0,044
-589,167	-108,424	-0,093	0,014
-588,152	-200,000	0,046	0,151
-587,138	149,057	-0,098	0,097
-586,123	-24,059	0,075	0,033
-585,109	800,000	0,020	-0,050
-584,094	193,564	-0,065	-0,072
-583,079	-72,483	0,081	-0,022
-582,065	197,519	0,011	0,012
-581,050	-76,775	-0,144	0,037
-580,036	-104,029	-0,172	-0,029
-579,021	-98,996	-0,097	0,018
-578,006	330,808	-0,054	-0,077
-576,992	155,485	-0,055	-0,056
-575,977	-91,582	0,080	-0,017
-574,963	115,777	-0,033	0,029
-573,948	31,430	0,097	0,061
-572,934	-192,443	0,162	0,001
-571,919	-154,656	-0,081	0,004
-570,904	-200,000	-0,009	-0,090
-569,890	429,227	0,044	0,070
-568,875	-200,000	0,004	0,147
-567,861	-104,937	0,160	0,027
-566,846	-200,000	-0,008	0,092
-565,831	266,470	-0,026	-0,033
-564,817	131,802	-0,100	-0,094
-563,802	800,000	-0,026	0,064
-562,788	302,758	-0,081	-0,110
-561,773	731,197	0,066	-0,129
-560,758	-200,000	-0,011	0,087
-559,744	-200,000	-0,002	-0,020
-558,729	-200,000	-0,014	0,060
-557,715	13,654	-0,061	0,034
-556,700	533,205	0,057	-0,099
-555,685	-200,000	-0,019	-0,072
-554,671	-200,000	0,021	-0,085
-553,656	-200,000	0,002	0,022
-552,642	-200,000	0,009	0,064
-551,627	-157,466	0,147	0,006
-550,612	80,990	-0,088	0,070
-549,598	800,000	-0,024	-0,064
-548,583	-200,000	0,018	0,068
-547,569	-31,724	-0,013	-0,005
-546,554	327,190	-0,036	0,050
-545,539	-200,000	-0,008	0,072
-544,525	800,000	0,011	0,028
-543,510	-200,000	0,002	0,049
-542,496	-200,000	0,001	0,065
-541,481	-55,969	-0,105	-0,034
-540,466	-85,800	-0,101	-0,023
-539,452	-200,000	-0,004	-0,026
-538,437	236,739	0,055	0,067
-537,423	142,805	-0,033	0,032
-536,408	-200,000	0,010	-0,063
-535,393	-200,000	0,001	-0,004
-534,379	163,163	0,039	-0,040
-533,364	-2,901	0,110	0,056
-532,350	106,973	0,057	0,050
-531,335	-200,000	0,019	0,104
-530,321	-5,204	-0,033	0,017
-529,306	-200,000	0,015	-0,095
-528,291	-200,000	0,000	0,148
-527,277	-200,000	0,018	-0,070
-526,262	-91,928	0,073	0,015
-525,248	-113,111	0,058	0,008
-524,233	517,283	0,061	0,105
-523,218	27,353	0,158	-0,097
-522,204	-200,000	0,010	-0,048
-521,189	800,000	-0,043	-0,095
-520,175	620,097	-0,049	-0,090
-519,160	173,295	0,089	-0,094
-518,145	261,385	0,073	0,093
-517,131	0,203	-0,142	-0,074
-516,116	-102,781	-0,051	-0,009
-515,102	222,293	0,052	-0,061
-514,087	-127,401	0,043	0,005
-513,072	-170,760	-0,172	-0,004
-512,058	81,074	0,156	0,123
-511,043	-51,600	0,060	0,020
-510,029	1,099	0,051	0,027
-509,014	-6,739	0,200	0,099
-507,999	-121,961	-0,273	-0,032
-506,985	-200,000	0,006	0,024
-505,970	-69,158	0,018	0,005
-504,956	-32,735	0,111	-0,045
-503,941	-82,469	0,141	0,033
-502,926	71,559	-0,053	0,040
-501,912	489,959	0,074	0,125
-500,897	-200,000	0,014	0,141
-499,883	-120,550	-0,079	-0,010
-498,868	117,986	0,040	0,036
-497,853	-85,008	0,138	-0,031
-496,839	-64,983	0,030	0,009
-495,824	-200,000	-0,008	0,113
-494,810	4,610	-0,098	0,052
-493,795	-200,000	0,033	0,142
-492,781	800,000	-0,017	-0,053
-491,766	495,007	-0,025	0,042
-490,751	-15,385	-0,062	0,029
-489,737	-150,471	-0,037	-0,002
-488,722	-200,000	-0,063	0,263
-487,708	800,000	0,011	0,023
-486,693	758,788	0,061	-0,121
-485,678	-200,000	0,004	-0,077
-484,664	131,391	-0,039	0,037
-483,649	251,886	0,044	0,055
-482,635	-131,763	-0,102	0,010
-481,620	92,342	0,131	0,108
-480,605	359,490	0,043	-0,063
-479,591	-48,198	-0,072	0,025
-478,576	800,000	0,022	0,062
-477,562	-9,313	-0,028	0,013
-476,547	-29,331	-0,026	-0,011
-475,532	-200,000	-0,000	-0,098
-474,518	368,351	-0,050	0,074
-473,503	-62,641	0,069	0,021
-472,489	800,000	-0,019	0,042
-471,474	181,976	-0,024	-0,026
-470,459	192,991	-0,033	0,036
-469,445	-200,000	-0,002	-0,009
-468,430	15,232	-0,025	-0,014
-467,416	37,956	-0,040	-0,026
-466,401	128,437	-0,058	-0,054
-465,386	-162,852	0,124	0,004
-464,372	800,000	0,045	-0,113
-463,357	-18,568	0,049	0,022
-462,343	1,548	0,051	-0,026
-461,328	6,266	-0,131	-0,071
-460,313	-200,000	0,006	-0,051
-459,299	47,891	0,088	-0,060
-458,284	-52,605	0,098	-0,033
-457,270	800,000	-0,030	-0,075
-456,255	-38,241	0,095	0,036
-455,241	-52,443	-0,233	-0,078
-454,226	-27,657	0,078	-0,033
-453,211	309,575	0,015	-0,021
-452,197	800,000	-0,020	-0,051
-451,182	800,000	-0,014	0,042
-450,168	127,929	0,087	-0,080
-449,153	60,708	-0,114	-0,083
-448,138	-200,000	0,006	-0,146
-447,124	-200,000	0,024	0,090
-446,109	342,164	-0,051	0,072
-445,095	61,825	0,117	0,085
-444,080	-200,000	-0,017	0,064
-443,065	-11,661	0,112	0,053
-442,051	355,402	-0,108	-0,157
-441,036	295,317	-0,018	0,023
-440,022	-200,000	-0,026	-0,092
-439,007	49,484	-0,105	-0,072
-437,992	-200,000	-0,019	0,125
-436,978	-121,302	0,100	0,012
-435,963	409,560	0,058	0,090
-434,949	-200,000	0,002	0,062
-433,934	-200,000	-0,003	-0,045
-432,919	626,600	0,054	-0,101
-431,905	657,668	0,005	0,009
-430,890	40,343	0,114	-0,075
-429,876	63,475	-0,100	0,073
-428,861	502,964	0,047	0,079
-427,846	724,379	-0,120	-0,233
-426,832	-152,698	-0,078	-0,004
-425,817	800,000	-0,028	0,088
-424,803	-200,000	-0,010	-0,060
-423,788	18,924	-0,092	-0,054
-422,773	-35,631	-0,011	-0,004
-421,759	681,728	0,043	-0,082
-420,744	94,230	-0,008	-0,007
-419,730	244,602	-0,044	-0,054
-418,715	-200,000	0,015	0,083
-417,701	143,740	0,052	0,050
-416,686	86,248	0,067	-0,053
-415,671	-60,514	0,149	0,046
-414,657	-200,000	0,027	0,129
-413,642	71,104	-0,083	-0,062
-412,628	800,000	-0,035	-0,109
-411,613	173,200	-0,095	-0,100
-410,598	3,943	0,122	-0,064
-409,584	-200,000	-0,002	-0,048
-408,569	-76,808	-0,076	-0,019
-407,555	800,000	-0,031	-0,096
-406,540	175,784	0,090	0,095
-405,525	800,000	-0,033	-0,098
-404,511	331,215	0,046	0,065
-403,496	-18,786	0,121	0,055
-402,482	-95,297	-0,058	-0,011
-401,467	-200,000	-0,023	0,116
-400,452	211,458	-0,137	0,157
-399,438	173,914	0,023	0,024
-398,423	28,959	-0,071	-0,043
-397,409	607,404	-0,065	0,119
-396,394	-112,291	0,120	-0,017
-395,379	-200,000	-0,002	-0,041
-394,365	800,000	-0,048	-0,114
-393,350	223,838	0,100	0,117
-392,336	-200,000	0,016	0,095
-391,321	-200,000	-0,029	0,126
-390,306	-103,503	0,057	-0,010
-389,292	-144,082	-0,110	-0,007
-388,277	350,950	-0,085	-0,122
-387,263	17,069	0,048	0,028
-386,248	100,168	-0,096	0,081
-385,233	205,871	-0,050	-0,057
-384,219	20,759	0,026	-0,015
-383,204	699,976	0,077	-0,147
-382,190	-124,166	-0,012	0,001
-381,175	197,983	-0,103	0,115
-380,160	800,000	0,034	0,078
-379,146	-200,000	0,019	0,163
-378,131	-200,000	-0,003	-0,038
-377,117	800,000	0,015	-0,041
-376,102	-29,795	0,028	0,012
-375,088	314,296	0,086	-0,118
-374,073	-200,000	-0,012	-0,040
-373,058	-48,192	-0,035	0,012
-372,044	-46,222	-0,026	-0,009
-371,029	800,000	0,061	0,131
-370,015	-114,133	0,050	-0,007
-369,000	5,778	0,045	-0,024
-367,985	-150,070	-0,087	-0,005
-366,971	-200,000	0,011	-0,116
-365,956	-41,754	-0,112	-0,041
-364,942	-31,520	-0,089	0,036
-363,927	241,590	-0,071	-0,087
-362,912	800,000	0,016	-0,043
-361,898	0,975	0,043	0,022
-360,883	-200,000	0,006	-0,062
-359,869	-49,273	0,101	-0,035
-358,854	-49,841	0,091	0,031
-357,839	37,124	0,139	0,089
-356,825	-200,000	-0,001	0,063
-355,810	494,493	-0,083	-0,139
-354,796	-200,000	-0,013	0,078
-353,781	-40,850	-0,057	-0,021
-352,766	12,496	0,099	-0,056
-351,752	222,377	-0,031	-0,037
-350,737	-200,000	0,011	-0,071
-349,723	-51,584	-0,068	0,023
-348,708	107,836	0,100	0,086
-347,693	630,151	0,039	-0,072
-346,679	-200,000	-0,022	-0,100
-345,664	-24,421	0,071	-0,030
-344,650	-200,000	0,011	-0,067
-343,635	407,439	-0,042	-0,064
-342,620	800,000	0,035	0,076
-341,606	520,983	0,019	-0,033
-340,591	-95,464	-0,135	0,026
-339,577	407,238	-0,034	-0,052
-338,562	302,907	-0,056	0,076
-337,548	35,153	0,126	0,080
-336,533	-200,000	0,001	-0,043
-335,518	277,683	0,063	-0,081
-334,504	-200,000	0,030	0,140
-333,489	800,000	-0,012	-0,025
-332,475	800,000	-0,002	-0,004
-331,460	-200,000	0,011	-0,080
-330,445	12,820	-0,019	0,011
-329,431	120,976	0,065	-0,059
-328,416	-67,831	-0,016	0,005
-327,402	538,839	0,033	-0,057
-326,387	709,634	-0,042	-0,080
-325,372	-7,528	0,186	0,091
-324,358	-54,488	0,086	-0,028
-323,343	-52,910	-0,063	0,021
-322,329	-81,370	0,147	0,035
-321,314	-6,709	0,050	-0,025
-320,299	244,235	-0,052	0,064
-319,285	-111,621	-0,099	-0,014
-318,270	-58,598	0,135	-0,042
-317,256	387,642	0,050	0,075
-316,241	79,262	-0,085	0,066
-315,226	800,000	0,063	0,131
-314,212	220,307	0,074	0,086
-313,197	145,316	-0,076	0,074
-312,183	800,000	-0,037	0,080
-311,168	-200,000	0,011	0,137
-310,153	-50,307	-0,093	0,032
-309,139	-200,000	0,001	-0,022
-308,124	34,233	-0,039	0,025
-307,110	800,000	-0,020	0,048
-306,095	800,000	-0,036	0,073
-305,080	175,444	-0,075	0,078
-304,066	-200,000	0,022	0,116
-303,051	-109,290	-0,056	0,009
-302,037	23,106	-0,052	0,031
-301,022	-0,827	-0,077	-0,040
-300,008	-28,989	-0,034	-0,014
-298,993	800,000	0,031	0,072
-297,978	11,911	0,034	-0,019
-296,964	-200,000	0,013	0,092
-295,949	-92,226	0,137	0,028
-294,935	245,914	-0,048	-0,059
-293,920	-200,000	0,018	-0,120
-292,905	712,707	0,026	-0,050
-291,891	-58,397	0,086	0,027
-290,876	-200,000	0,026	0,139
-289,862	-93,624	0,094	-0,019
-288,847	685,288	0,068	0,130
-287,832	-33,205	0,110	-0,044
-286,818	800,000	-0,015	-0,044
-285,803	468,956	0,038	0,063
-284,789	-81,880	0,107	0,025
-283,774	-73,039	-0,089	-0,024
-282,759	-41,282	0,168	0,062
-281,745	-200,000	0,019	0,144
-280,730	-102,140	-0,059	0,010
-279,716	-91,908	0,102	-0,021
-278,701	800,000	0,022	0,045
-277,686	-200,000	0,017	0,127
-276,672	-174,917	-0,044	-0,001
-275,657	-25,109	-0,051	-0,022
-274,643	-112,450	-0,061	-0,009
-273,628	-200,000	0,009	-0,032
-272,613	99,296	0,014	-0,012
-271,599	582,393	-0,093	0,167
-270,584	556,081	0,064	0,112
-269,570	-200,000	0,000	0,047
-268,555	33,475	-0,102	-0,064
-267,540	-200,000	-0,005	-0,043
-266,526	-120,226	-0,109	-0,013
-265,511	153,633	0,102	-0,102
-264,497	-100,493	0,082	-0,014
-263,482	42,705	-0,033	0,022
-262,467	-104,014	-0,165	-0,028
-261,453	305,560	0,038	0,051
-260,438	395,000	0,007	0,011
-259,424	-200,000	0,039	-0,161
-258,409	257,530	0,066	-0,082
-257,395	-158,504	-0,077	-0,003
-256,380	-125,681	0,192	-0,021
-255,365	-114,279	0,132	-0,018
-254,351	723,461	-0,060	0,115
-253,336	17,980	-0,054	-0,031
-252,322	800,000	-0,079	-0,181
-251,307	-200,000	-0,010	-0,114
-250,292	-200,000	0,001	-0,051
-249,278	310,830	-0,035	-0,048
-248,263	168,658	-0,016	0,017
-247,249	356,106	-0,117	0,169
-246,234	278,431	-0,028	-0,036
-245,219	-200,000	-0,061	-0,216
-244,205	-61,567	-0,029	-0,009
-243,190	-56,633	0,007	-0,002
-242,176	-57,378	-0,038	0,012
-241,161	-200,000	0,048	0,162
-240,146	18,605	-0,067	-0,038
-239,132	352,640	0,029	0,041
-238,117	-51,294	0,122	-0,041
-237,103	387,114	0,036	-0,054
-236,088	-200,000	0,032	0,124
-235,073	-200,000	0,015	0,086
-234,059	-93,664	0,017	0,003
-233,044	-121,572	0,087	0,010
-232,030	-200,000	-0,046	-0,162
-231,015	44,135	-0,137	0,091
-230,000	340,983	0,052	0,073
-228,986	199,358	0,053	0,059
-227,971	28,069	0,029	-0,017
-226,957	-83,244	-0,035	0,008
-225,942	96,039	-0,110	-0,091
-224,927	617,491	-0,018	0,034
-223,913	100,561	-0,064	-0,054
-222,898	30,391	0,085	-0,052
-221,884	-157,945	-0,028	-0,001
-220,869	800,000	0,009	-0,021
-219,855	-89,362	-0,091	-0,019
-218,840	123,482	0,017	0,016
-217,825	48,480	0,047	-0,032
-216,811	-200,000	0,002	-0,012
-215,796	-200,000	-0,015	-0,125
-214,782	-144,245	-0,231	0,015
-213,767	-50,975	0,051	-0,017
-212,752	693,009	0,039	0,073
-211,738	-200,000	-0,014	0,203
-210,723	326,276	0,085	-0,118
-209,709	-17,127	-0,101	0,046
-208,694	150,936	0,075	0,073
-207,679	-200,000	0,025	-0,093
-206,665	-15,466	0,060	0,028
-205,650	679,636	0,070	-0,131
-204,636	278,641	0,119	0,153
-203,621	-92,964	0,097	-0,019
-202,606	-20,653	-0,079	-0,035
-201,592	191,228	0,075	0,082
-200,577	194,909	0,056	-0,062
-199,563	-105,243	0,058	0,009
-198,548	267,216	-0,054	0,068
-197,533	261,838	0,011	0,013
-196,519	-3,839	-0,051	0,025
-195,504	800,000	-0,066	-0,139
-194,490	-148,591	-0,048	0,003
-193,475	-200,000	-0,011	-0,074
-192,460	-200,000	0,006	-0,034
-191,446	-200,000	-0,006	-0,040
-190,431	-103,010	0,088	0,015
-189,417	82,812	-0,103	0,080
-188,402	24,964	-0,065	-0,039
-187,387	364,064	-0,063	-0,091
-186,373	189,515	-0,104	-0,113
-185,358	-200,000	-0,028	-0,104
-184,344	-200,000	-0,020	0,169
-183,329	-200,000	-0,011	0,086
-182,315	-33,457	0,091	-0,036
-181,300	527,691	0,028	-0,048
-180,285	-200,000	-0,003	-0,078
-179,271	442,299	0,058	0,093
-178,256	800,000	-0,051	-0,120
-177,242	191,076	0,060	0,066
-176,227	-111,185	0,073	-0,011
-175,212	289,757	-0,103	-0,135
-174,198	171,095	-0,048	0,050
-173,183	-36,966	-0,106	-0,041
-172,169	-200,000	0,003	-0,099
-171,154	216,087	-0,005	0,006
-170,139	27,432	0,094	-0,057
-169,125	-200,000	0,019	0,064
-168,110	25,788	-0,083	0,050
-167,096	387,967	0,015	0,023
-166,081	-200,000	-0,019	-0,083
-165,066	-197,365	-0,147	0,001
-164,052	-89,182	-0,105	0,022
-163,037	-200,000	0,013	0,067
-162,023	-1,651	-0,038	0,019
-161,008	-200,000	-0,014	-0,190
-159,993	-186,146	-0,045	-0,000
-158,979	6,449	-0,044	0,024
-157,964	-200,000	-0,002	0,033
-156,950	-134,680	-0,052	0,005
-155,935	390,008	0,041	-0,062
-154,920	800,000	-0,008	-0,022
-153,906	-65,921	0,059	-0,017
-152,891	800,000	0,030	-0,062
-151,877	-200,000	0,002	-0,076
-150,862	-200,000	-0,000	0,032
-149,847	-133,654	-0,079	-0,007
-148,833	-33,688	0,104	0,041
-147,818	800,000	0,041	0,098
-146,804	55,805	0,099	-0,069
-145,789	223,524	-0,098	-0,114
-144,775	1,867	-0,099	-0,052
-143,760	-200,000	0,005	-0,061
-142,745	312,176	-0,032	0,044
-141,731	-200,000	-0,041	-0,155
-140,716	649,951	-0,032	-0,059
-139,702	-132,945	-0,095	-0,009
-138,687	800,000	0,023	0,053
-137,672	-65,006	-0,090	-0,026
-136,658	672,181	0,040	-0,075
-135,643	800,000	0,055	-0,169
-134,629	800,000	0,039	0,103
-133,614	800,000	-0,008	-0,018
-132,599	-51,975	0,035	-0,012
-131,585	-196,686	-0,063	0,000
-130,570	182,980	-0,060	0,064
-129,556	-200,000	-0,019	0,069
-128,541	80,131	0,043	0,033
-127,526	-69,409	0,069	0,019
-126,512	7,210	0,116	-0,062
-125,497	14,032	0,095	-0,053
-124,483	800,000	-0,056	-0,150
-123,468	16,736	0,130	-0,074
-122,453	296,942	0,092	-0,122
-121,439	-200,000	-0,017	-0,108
-120,424	17,923	-0,031	0,017
-119,410	800,000	0,022	-0,060
