DTS Sentinel unit serial number:	SN410029Multiplexer serial number:	ORYXHardware model number:	OX2-SRSoftware version number:	ORYX F/W v4,00 Oryx Data Collector v3.7.2.0data status	okinstallation	B5 Nyhavnadifferential loss correction	single-endedforward channel	channel 2reverse channel	N/Adate	2023/12/13time	17:57:13forward acquisition time	300,00reverse acquisition time	0,00gamma	499,1914k internal	0,3159k external	0,3159temperature offset calibration	1,0000default loss term (dB/km)	0,3820temperature slope calibration	1,0000multiplexer offset coefficient	1,0000multiplexer slope coefficient	1,0000fibre end	0,00T internal ref (°C)	13,27T ext. ref 1 (°C)	-3,99T ext. ref 2 (°C)	-4,09length (m)	temperature (°C)	Stokes	anti-Stokes-744,400	-67,737	0,140	0,040
-743,385	-200,000	-0,297	0,000
-742,371	43,284	0,145	0,098
-741,356	-73,372	-0,221	0,059
-740,342	-31,501	0,157	0,065
-739,327	-179,240	-0,198	0,003
-738,312	-120,257	0,142	-0,018
-737,298	-46,271	-0,255	-0,092
-736,283	1,998	0,085	0,045
-735,269	-142,726	-0,248	-0,018
-734,254	800,000	0,024	0,052
-733,239	-67,181	-0,523	-0,151
-732,225	117,957	0,204	0,185
-731,210	800,000	-0,035	0,112
-730,196	393,831	-0,069	-0,107
-729,181	19,773	0,061	-0,036
-728,167	800,000	0,064	0,158
-727,152	-132,824	-0,068	0,006
-726,137	725,718	0,062	0,123
-725,123	-200,000	-0,000	-0,073
-724,108	800,000	-0,061	0,125
-723,094	80,143	-0,101	-0,080
-722,079	800,000	-0,032	0,075
-721,064	-200,000	0,035	-0,125
-720,050	-154,717	-0,183	0,009
-719,035	-200,000	0,027	-0,119
-718,021	429,442	-0,049	-0,079
-717,006	-158,703	-0,089	0,004
-715,991	-40,647	-0,069	-0,026
-714,977	201,850	-0,054	-0,062
-713,962	-200,000	0,011	0,070
-712,948	-200,000	0,000	0,063
-711,933	162,380	0,137	0,141
-710,918	697,141	-0,078	0,152
-709,904	100,338	-0,031	-0,026
-708,889	204,867	-0,021	0,024
-707,875	-93,902	-0,016	0,003
-706,860	800,000	0,016	-0,044
-705,845	270,998	0,037	-0,048
-704,831	-200,000	-0,020	-0,083
-703,816	-59,438	-0,171	-0,054
-702,802	-26,312	0,012	-0,005
-701,787	-12,766	-0,043	0,020
-700,772	262,031	-0,101	-0,130
-699,758	-113,210	-0,043	0,006
-698,743	223,339	-0,018	0,022
-697,729	-124,679	-0,050	-0,006
-696,714	422,258	0,004	0,007
-695,699	93,288	-0,126	0,105
-694,685	-200,000	-0,002	-0,116
-693,670	-21,538	-0,041	0,018
-692,656	-161,548	-0,109	0,004
-691,641	62,187	0,098	-0,072
-690,627	-200,000	-0,015	0,049
-689,612	137,645	0,041	-0,039
-688,597	-66,527	-0,041	0,012
-687,583	-76,393	-0,194	0,050
-686,568	-87,035	-0,151	-0,033
-685,554	-200,000	0,012	0,067
-684,539	689,506	0,029	0,056
-683,524	-6,157	0,024	0,012
-682,510	-34,470	0,136	0,054
-681,495	-24,019	-0,052	-0,023
-680,481	-195,097	-0,074	-0,000
-679,466	145,631	-0,038	0,037
-678,451	-185,153	-0,191	-0,002
-677,437	-18,859	-0,011	-0,005
-676,422	-200,000	-0,007	0,155
-675,408	-81,034	-0,047	0,011
-674,393	-200,000	-0,019	-0,110
-673,378	-174,385	-0,107	-0,002
-672,364	446,847	-0,067	-0,108
-671,349	800,000	-0,066	-0,167
-670,335	58,578	-0,097	-0,070
-669,320	-41,870	0,036	0,014
-668,305	-42,389	-0,154	-0,058
-667,291	-107,471	-0,082	-0,013
-666,276	75,481	0,069	0,054
-665,262	91,307	-0,097	-0,080
-664,247	-27,140	-0,143	-0,061
-663,232	-114,286	0,096	-0,013
-662,218	191,028	-0,037	-0,041
-661,203	-9,203	-0,088	-0,043
-660,189	-161,023	0,048	-0,002
-659,174	-200,000	-0,018	-0,130
-658,159	185,055	0,070	-0,076
-657,145	-200,000	0,004	0,032
-656,130	-77,148	0,056	-0,014
-655,116	-154,296	0,048	-0,002
-654,101	100,269	-0,090	0,077
-653,086	-200,000	0,030	0,121
-652,072	86,768	-0,078	-0,063
-651,057	-200,000	-0,026	-0,137
-650,043	212,467	-0,045	0,052
-649,028	800,000	-0,031	0,066
-648,014	-200,000	-0,002	-0,049
-646,999	-8,037	0,106	-0,052
-645,984	-200,000	-0,002	0,030
-644,970	-14,304	-0,139	-0,066
-643,955	481,127	-0,117	-0,196
-642,941	-105,117	-0,170	-0,028
-641,926	-200,000	-0,001	-0,004
-640,911	-200,000	-0,014	-0,081
-639,897	-142,611	-0,036	-0,003
-638,882	-139,397	-0,182	-0,014
-637,868	-200,000	-0,003	-0,126
-636,853	-200,000	-0,021	-0,129
-635,838	-200,000	-0,000	0,038
-634,824	425,876	0,037	-0,059
-633,809	377,043	0,037	-0,055
-632,795	106,694	0,139	0,121
-631,780	800,000	-0,021	0,048
-630,765	-200,000	0,019	0,094
-629,751	508,042	0,047	0,080
-628,736	-70,334	-0,129	-0,036
-627,722	-200,000	0,027	0,236
-626,707	-36,755	-0,122	-0,048
-625,692	-84,853	0,121	-0,028
-624,678	11,471	-0,119	0,067
-623,663	28,203	-0,078	0,048
-622,649	-98,019	-0,106	-0,020
-621,634	583,130	0,045	-0,082
-620,619	-49,376	-0,082	-0,029
-619,605	153,305	0,049	-0,049
-618,590	512,184	0,029	0,049
-617,576	48,158	-0,100	-0,069
-616,561	44,202	-0,035	-0,024
-615,546	-22,654	-0,066	0,029
-614,532	166,966	-0,164	-0,171
-613,517	800,000	0,014	-0,043
-612,503	800,000	0,044	-0,129
-611,488	-200,000	0,002	-0,025
-610,474	800,000	-0,031	-0,070
-609,459	85,192	-0,030	-0,024
-608,444	199,839	-0,080	0,090
-607,430	436,879	0,090	-0,144
-606,415	5,512	0,099	-0,053
-605,401	286,847	0,032	-0,043
-604,386	-49,875	0,144	0,050
-603,371	-200,000	-0,010	0,044
-602,357	55,794	-0,081	-0,058
-601,342	129,163	-0,043	-0,040
-600,328	-200,000	-0,015	-0,050
-599,313	-98,501	-0,180	0,034
-598,298	229,365	0,078	0,093
-597,284	800,000	-0,036	0,105
-596,269	152,622	0,067	-0,067
-595,255	-200,000	-0,022	0,092
-594,240	62,583	-0,058	0,042
-593,225	124,360	0,029	0,027
-592,211	800,000	-0,039	0,117
-591,196	-65,105	-0,028	0,008
-590,182	-56,228	-0,169	0,055
-589,167	-111,809	-0,072	0,011
-588,152	-200,000	0,035	0,123
-587,138	-200,000	0,002	0,106
-586,123	-200,000	-0,006	0,028
-585,109	40,359	-0,060	-0,040
-584,094	337,182	-0,079	-0,113
-583,079	64,527	0,017	-0,013
-582,065	-112,174	-0,065	0,009
-581,050	800,000	0,008	0,025
-580,036	-142,583	0,022	0,002
-579,021	-200,000	0,016	-0,058
-578,006	-99,339	-0,177	0,032
-576,992	-200,000	0,005	0,027
-575,977	85,913	-0,022	0,017
-574,963	279,227	0,043	-0,056
-573,948	-28,033	0,080	-0,034
-572,934	-200,000	-0,017	-0,058
-571,919	-106,267	-0,128	-0,021
-570,904	62,778	-0,058	0,042
-569,890	800,000	0,014	-0,043
-568,875	-200,000	-0,011	0,038
-567,861	-116,927	-0,082	0,011
-566,846	311,354	-0,041	-0,056
-565,831	-200,000	-0,000	-0,009
-564,817	-200,000	0,037	-0,157
-563,802	17,297	-0,054	0,031
-562,788	631,560	0,065	0,122
-561,773	-200,000	0,017	0,117
-560,758	800,000	-0,079	0,172
-559,744	54,942	0,140	0,099
-558,729	-134,352	0,193	0,017
-557,715	257,174	-0,047	-0,060
-556,700	-200,000	-0,005	-0,054
-555,685	33,230	-0,118	0,074
-554,671	-200,000	0,005	0,041
-553,656	68,304	0,125	-0,094
-552,642	46,854	0,059	-0,040
-551,627	-144,829	-0,148	-0,010
-550,612	-200,000	-0,034	-0,132
-549,598	-40,584	0,071	-0,027
-548,583	-101,269	-0,062	0,011
-547,569	265,504	-0,070	0,089
-546,554	178,450	-0,051	0,055
-545,539	507,456	-0,073	0,124
-544,525	-70,634	0,232	0,064
-543,510	-52,110	-0,134	-0,045
-542,496	800,000	0,043	0,103
-541,481	21,742	-0,209	-0,124
-540,466	-139,465	-0,084	-0,006
-539,452	-47,614	0,115	0,041
-538,437	268,247	-0,035	0,044
-537,423	-74,660	-0,010	-0,003
-536,408	-200,000	-0,006	-0,072
-535,393	408,400	-0,100	-0,155
-534,379	255,045	0,078	0,098
-533,364	288,950	0,100	0,133
-532,350	-30,588	0,013	-0,005
-531,335	-200,000	0,003	0,026
-530,321	78,679	-0,076	0,059
-529,306	-200,000	0,020	0,077
-528,291	29,194	-0,034	-0,021
-527,277	545,615	0,070	0,122
-526,262	-200,000	0,021	-0,106
-525,248	125,372	-0,051	0,047
-524,233	800,000	0,044	0,134
-523,218	172,250	0,104	0,109
-522,204	800,000	0,027	0,062
-521,189	800,000	-0,056	-0,158
-520,175	-200,000	-0,002	-0,065
-519,160	-200,000	-0,006	0,071
-518,145	2,994	0,146	0,077
-517,131	-200,000	-0,007	0,079
-516,116	97,222	0,048	0,040
-515,102	-56,488	-0,158	-0,051
-514,087	-87,627	-0,039	0,009
-513,072	-200,000	-0,009	0,035
-512,058	-50,581	-0,098	0,034
-511,043	-152,164	-0,088	-0,005
-510,029	-126,637	-0,112	0,012
-509,014	182,629	0,074	-0,080
-507,999	3,743	0,125	0,066
-506,985	440,777	-0,011	0,017
-505,970	-139,865	-0,077	0,006
-504,956	-9,204	0,144	-0,070
-503,941	798,148	0,025	-0,051
-502,926	118,549	0,003	-0,003
-501,912	118,168	0,045	0,040
-500,897	268,843	0,058	0,074
-499,883	217,621	0,070	0,081
-498,868	-137,847	-0,135	0,011
-497,853	-200,000	-0,001	-0,026
-496,839	-200,000	-0,002	0,024
-495,824	-159,655	0,118	0,005
-494,810	422,754	-0,024	-0,037
-493,795	27,854	-0,026	0,016
-492,781	687,437	-0,050	-0,095
-491,766	232,043	0,067	-0,081
-490,751	230,894	0,096	-0,115
-489,737	-200,000	-0,001	-0,056
-488,722	800,000	0,023	0,050
-487,708	-142,113	-0,121	0,009
-486,693	-108,682	0,157	-0,024
-485,678	-143,295	-0,087	-0,006
-484,664	-137,392	0,030	-0,002
-483,649	548,532	0,037	-0,065
-482,635	-64,249	-0,095	0,028
-481,620	631,321	0,045	0,083
-480,605	397,617	-0,047	0,072
-479,591	800,000	0,017	0,037
-478,576	-95,776	-0,120	0,023
-477,562	106,046	-0,040	-0,035
-476,547	247,889	0,015	-0,019
-475,532	-200,000	0,045	-0,175
-474,518	800,000	-0,065	-0,186
-473,503	-200,000	-0,009	-0,036
-472,489	-90,986	0,067	0,014
-471,474	-115,680	-0,066	0,009
-470,459	7,881	0,088	-0,048
-469,445	110,175	-0,114	-0,100
-468,430	337,935	0,106	-0,151
-467,416	20,852	0,098	0,058
-466,401	671,859	0,053	0,100
-465,386	426,497	0,024	-0,038
-464,372	148,267	-0,048	-0,047
-463,357	233,770	-0,098	0,117
-462,343	-18,631	0,047	0,021
-461,328	14,407	0,194	-0,110
-460,313	-200,000	0,021	0,099
-459,299	-200,000	-0,051	0,165
-458,284	-200,000	0,042	0,196
-457,270	-200,000	-0,008	0,081
-456,255	-68,714	0,034	-0,010
-455,241	-99,219	0,060	-0,011
-454,226	5,572	-0,149	0,080
-453,211	-105,004	-0,086	0,014
-452,197	-20,987	-0,054	-0,024
-451,182	21,829	-0,088	0,052
-450,168	4,054	-0,011	0,006
-449,153	-200,000	0,002	-0,013
-448,138	-37,669	-0,132	-0,051
-447,124	782,668	-0,024	-0,048
-446,109	-13,102	0,056	-0,026
-445,095	-165,060	0,094	-0,003
-444,080	378,433	0,047	-0,070
-443,065	718,940	0,085	-0,165
-442,051	344,774	-0,038	-0,054
-441,036	-200,000	-0,019	-0,098
-440,022	531,607	-0,060	-0,104
-439,007	-71,887	-0,081	0,022
-437,992	63,092	0,111	0,081
-436,978	-143,919	0,076	0,005
-435,963	28,353	0,109	-0,067
-434,949	-39,909	-0,097	-0,037
-433,934	12,649	-0,053	-0,030
-432,919	129,145	-0,032	-0,029
-431,905	-99,972	0,093	-0,017
-430,890	-200,000	0,024	0,143
-429,876	104,058	0,097	0,083
-428,861	84,303	0,052	-0,041
-427,846	800,000	0,033	-0,104
-426,832	-200,000	-0,029	-0,103
-425,817	-99,856	-0,063	0,011
-424,803	-34,397	-0,118	0,047
-423,788	536,525	0,034	0,059
-422,773	-84,564	0,075	-0,017
-421,759	-133,666	0,170	0,015
-420,744	-140,128	-0,063	0,005
-419,730	-69,838	0,088	0,024
-418,715	-122,263	-0,059	-0,007
-417,701	-200,000	-0,002	-0,085
-416,686	795,014	0,048	0,096
-415,671	-200,000	0,005	0,098
-414,657	481,949	0,065	0,108
-413,642	200,829	0,042	-0,047
-412,628	184,994	0,179	-0,193
-411,613	-200,000	0,014	0,082
-410,598	66,790	-0,081	-0,060
-409,584	616,711	0,022	0,040
-408,569	-200,000	0,003	0,146
-407,555	-200,000	-0,012	0,143
-406,540	46,516	0,015	-0,010
-405,525	31,503	-0,157	-0,098
-404,511	-109,439	0,100	-0,015
-403,496	127,390	-0,080	-0,074
-402,482	-92,746	0,072	-0,015
-401,467	8,522	0,162	0,088
-400,452	800,000	-0,041	-0,092
-399,438	-200,000	0,013	-0,179
-398,423	576,257	-0,044	-0,079
-397,409	243,197	0,049	-0,060
-396,394	228,587	0,025	-0,030
-395,379	800,000	0,011	0,030
-394,365	60,392	-0,046	0,033
-393,350	-200,000	-0,001	0,054
-392,336	-115,586	0,107	0,014
-391,321	-57,572	0,047	-0,015
-390,306	-179,395	0,057	0,001
-389,292	800,000	-0,056	0,131
-388,277	80,328	0,051	-0,040
-387,263	3,485	0,068	0,036
-386,248	-200,000	-0,002	0,115
-385,233	608,825	0,033	0,059
-384,219	800,000	0,045	0,095
-383,204	800,000	0,033	0,099
-382,190	-98,264	-0,088	-0,016
-381,175	218,337	0,114	-0,133
-380,160	800,000	0,036	-0,081
-379,146	-200,000	0,011	0,038
-378,131	-200,000	-0,005	0,122
-377,117	800,000	0,046	0,094
-376,102	138,603	-0,072	-0,069
-375,088	38,655	-0,050	-0,032
-374,073	-90,736	-0,070	-0,015
-373,058	-61,293	0,123	0,037
-372,044	800,000	0,035	-0,088
-371,029	-12,279	-0,154	-0,073
-370,015	800,000	-0,038	0,102
-369,000	-56,086	-0,115	-0,037
-367,985	57,617	-0,071	-0,050
-366,971	-114,188	-0,128	-0,018
-365,956	10,709	0,084	0,047
-364,942	-200,000	0,011	0,052
-363,927	-45,459	0,060	0,022
-362,912	-95,348	0,204	0,040
-361,898	800,000	-0,006	0,019
-360,883	-200,000	-0,021	-0,130
-359,869	204,211	-0,058	-0,066
-358,854	-116,112	0,064	-0,009
-357,839	0,971	0,048	-0,025
-356,825	-29,888	-0,092	0,038
-355,810	-38,085	0,070	-0,027
-354,796	-200,000	-0,018	-0,078
-353,781	-74,435	-0,015	-0,004
-352,766	73,550	-0,072	-0,054
-351,752	800,000	-0,009	0,019
-350,737	-93,687	0,135	-0,027
-349,723	232,524	-0,045	-0,053
-348,708	-151,329	0,123	0,007
-347,693	615,932	0,074	0,135
-346,679	7,553	0,119	-0,064
-345,664	246,518	0,032	0,039
-344,650	-119,933	0,164	-0,020
-343,635	-200,000	-0,011	-0,083
-342,620	16,637	0,090	-0,052
-341,606	-200,000	0,014	0,049
-340,591	117,759	-0,078	0,070
-339,577	170,442	-0,042	-0,044
-338,562	-200,000	0,007	-0,090
-337,548	7,864	0,131	-0,071
-336,533	72,473	-0,064	-0,048
-335,518	-200,000	-0,035	-0,127
-334,504	-88,449	0,060	0,013
-333,489	800,000	0,028	0,075
-332,475	114,321	0,005	-0,005
-331,460	-58,618	-0,023	-0,007
-330,445	-200,000	0,016	0,084
-329,431	678,321	0,017	-0,032
-328,416	-30,955	0,128	-0,052
-327,402	-29,808	-0,065	-0,027
-326,387	-200,000	0,014	-0,060
-325,372	-200,000	0,023	0,117
-324,358	-200,000	-0,001	-0,005
-323,343	-200,000	-0,004	-0,067
-322,329	-6,037	0,154	-0,076
-321,314	585,672	0,019	0,033
-320,299	-200,000	-0,013	0,069
-319,285	319,832	0,031	0,043
-318,270	-116,878	-0,102	0,013
-317,256	-73,383	-0,093	0,024
-316,241	64,823	-0,119	-0,087
-315,226	-200,000	-0,001	-0,047
-314,212	800,000	0,047	0,118
-313,197	-200,000	-0,009	0,102
-312,183	257,102	0,031	-0,039
-311,168	800,000	0,014	0,042
-310,153	-66,585	0,046	-0,013
-309,139	-200,000	0,000	0,070
-308,124	-111,865	0,095	0,014
-307,110	-163,885	-0,054	-0,002
-306,095	77,568	0,150	0,116
-305,080	751,316	0,067	-0,131
-304,066	-4,334	0,126	-0,063
-303,051	-200,000	0,001	-0,034
-302,037	538,364	0,053	0,091
-301,022	-159,348	0,044	0,002
-300,008	-13,172	-0,065	0,031
-298,993	63,617	0,056	0,041
-297,978	539,967	0,017	0,030
-296,964	800,000	0,019	0,053
-295,949	800,000	-0,084	-0,184
-294,935	-169,157	-0,095	0,003
-293,920	254,796	-0,078	0,097
-292,905	-116,336	-0,077	0,010
-291,891	-200,000	-0,035	-0,132
-290,876	-200,000	0,006	-0,100
-289,862	-200,000	-0,039	-0,184
-288,847	-73,895	-0,058	-0,015
-287,832	199,604	-0,023	0,026
-286,818	310,968	-0,120	-0,163
-285,803	800,000	-0,047	0,109
-284,789	186,399	-0,047	0,050
-283,774	-49,722	-0,035	0,012
-282,759	-34,728	-0,067	-0,026
-281,745	123,267	0,032	0,029
-280,730	800,000	-0,017	0,047
-279,716	800,000	0,041	-0,115
-278,701	-65,687	0,113	0,033
-277,686	362,234	0,038	0,056
-276,672	-74,654	0,075	-0,019
-275,657	-200,000	-0,021	-0,069
-274,643	800,000	-0,063	-0,194
-273,628	197,362	0,086	-0,095
-272,613	-121,613	0,074	0,009
-271,599	414,957	0,029	0,045
-270,584	-85,816	-0,118	0,026
-269,570	-55,319	0,147	0,047
-268,555	-200,000	-0,014	-0,106
-267,540	-115,499	0,157	0,021
-266,526	101,508	-0,015	-0,012
-265,511	267,448	-0,092	-0,117
-264,497	747,184	-0,022	0,042
-263,482	-200,000	0,001	0,066
-262,467	800,000	-0,025	0,080
-261,453	-83,563	-0,047	-0,011
-260,438	-200,000	0,005	-0,039
-259,424	-16,379	-0,096	0,044
-258,409	361,015	0,049	-0,071
-257,395	123,464	0,074	-0,067
-256,380	-44,334	0,138	-0,050
-255,365	586,642	0,052	0,094
-254,351	-200,000	0,024	0,083
-253,336	-16,383	0,109	0,050
-252,322	-104,828	-0,164	-0,027
-251,307	238,759	-0,017	0,021
-250,292	-200,000	0,005	-0,031
-249,278	-34,952	-0,098	-0,039
-248,263	-172,746	0,038	-0,001
-247,249	38,438	-0,064	-0,041
-246,234	800,000	0,045	0,120
-245,219	-200,000	0,005	-0,035
-244,205	81,250	-0,070	-0,054
-243,190	-92,106	0,151	-0,031
-242,176	214,971	0,058	0,066
-241,161	-39,029	0,163	0,062
-240,146	141,488	0,079	0,076
-239,132	216,500	-0,064	0,073
-238,117	491,380	-0,053	0,088
-237,103	-83,460	0,004	-0,001
-236,088	375,621	-0,062	-0,092
-235,073	30,157	0,107	-0,066
-234,059	-125,427	0,061	0,007
-233,044	519,217	-0,068	0,115
-232,030	-51,136	0,112	-0,038
-231,015	800,000	0,056	0,165
-230,000	30,818	-0,082	0,050
-228,986	-62,261	0,037	-0,011
-227,971	800,000	-0,047	-0,129
-226,957	-181,532	-0,105	0,001
-225,942	153,401	0,061	-0,060
-224,927	-35,438	-0,118	0,046
-223,913	-122,544	-0,048	-0,006
-222,898	800,000	0,038	-0,093
-221,884	-152,279	-0,082	-0,004
-220,869	261,720	0,034	-0,043
-219,855	-30,738	-0,018	0,007
-218,840	66,272	0,099	-0,072
-217,825	15,608	-0,026	-0,014
-216,811	-90,053	-0,061	-0,013
-215,796	201,324	0,075	0,083
-214,782	-40,545	-0,176	0,066
-213,767	800,000	0,012	-0,026
-212,752	97,024	0,167	0,138
-211,738	-144,974	0,035	-0,002
-210,723	-2,215	-0,047	0,024
-209,709	-200,000	0,012	0,075
-208,694	-67,983	-0,232	-0,065
-207,679	65,450	-0,032	-0,023
-206,665	-200,000	0,000	-0,096
-205,650	-27,021	-0,071	0,030
-204,636	55,521	0,065	0,045
-203,621	-189,096	-0,099	-0,001
-202,606	232,838	-0,064	-0,076
-201,592	766,447	-0,041	-0,080
-200,577	299,981	0,043	0,058
-199,563	-37,448	0,051	-0,020
-198,548	282,059	-0,033	0,042
-197,533	185,056	-0,149	0,160
-196,519	-117,009	0,169	0,022
-195,504	-200,000	0,010	-0,096
-194,490	-34,993	-0,035	-0,014
-193,475	-200,000	0,003	0,107
-192,460	102,156	-0,040	0,034
-191,446	295,460	0,126	0,167
-190,431	198,123	-0,016	-0,017
-189,417	-50,113	0,029	0,010
-188,402	482,179	-0,061	0,101
-187,387	57,841	-0,067	-0,047
-186,373	718,708	0,055	-0,106
-185,358	204,739	0,076	-0,086
-184,344	-85,834	-0,085	0,019
-183,329	11,063	-0,007	0,004
-182,315	532,511	-0,019	-0,032
-181,300	-155,697	0,140	-0,006
-180,285	-200,000	-0,050	-0,206
-179,271	-200,000	0,037	-0,163
-178,256	-26,499	-0,133	0,056
-177,242	11,918	-0,055	-0,030
-176,227	-200,000	0,002	0,067
-175,212	201,326	-0,089	0,099
-174,198	-46,514	-0,140	0,049
-173,183	-177,755	0,081	-0,001
-172,169	74,307	-0,088	-0,067
-171,154	-200,000	-0,045	-0,170
-170,139	-71,711	0,135	0,036
-169,125	-200,000	-0,010	0,165
-168,110	47,959	0,072	0,048
-167,096	800,000	0,047	0,101
-166,081	-129,358	-0,080	0,008
-165,066	435,770	-0,027	0,042
-164,052	800,000	0,054	0,139
-163,037	-9,879	0,024	0,012
-162,023	84,686	0,041	-0,032
-161,008	-200,000	0,002	-0,020
-159,993	-139,842	0,080	-0,006
-158,979	-200,000	-0,015	-0,116
-157,964	30,942	-0,089	0,055
-156,950	-38,413	-0,045	0,017
-155,935	-80,768	0,146	-0,035
-154,920	800,000	-0,070	0,175
-153,906	243,520	0,102	0,124
-152,891	-28,196	0,039	0,016
-151,877	504,734	0,083	-0,138
-150,862	800,000	0,014	-0,034
-149,847	-200,000	0,026	-0,103
-148,833	-112,860	-0,125	0,018
-147,818	800,000	-0,016	-0,041
-146,804	-54,438	-0,153	-0,050
-145,789	72,620	-0,078	0,059
-144,775	-56,243	0,035	-0,011
-143,760	241,930	-0,047	0,057
-142,745	800,000	-0,026	0,060
-141,731	-200,000	-0,004	0,037
-140,716	68,681	-0,047	0,034
-139,702	-71,432	-0,123	-0,033
-138,687	800,000	-0,045	0,141
-137,672	797,398	-0,009	0,019
-136,658	211,138	0,068	0,077
-135,643	52,125	-0,131	0,090
-134,629	-200,000	0,007	0,129
-133,614	-200,000	0,000	-0,114
-132,599	-200,000	0,002	0,030
-131,585	720,557	0,063	-0,122
-130,570	800,000	0,007	0,019
-129,556	-200,000	-0,030	-0,118
-128,541	-166,683	-0,123	0,004
-127,526	33,536	0,055	-0,034
-126,512	800,000	-0,035	0,073
-125,497	-200,000	-0,009	0,048
-124,483	-71,575	-0,017	0,005
-123,468	62,553	-0,130	-0,093
-122,453	757,680	-0,057	-0,112
-121,439	218,050	-0,048	-0,055
-120,424	151,478	0,016	-0,016
-119,410	800,000	-0,041	0,102
