DTS Sentinel unit serial number:	SN410029Multiplexer serial number:	ORYXHardware model number:	OX2-SRSoftware version number:	ORYX F/W v4,00 Oryx Data Collector v3.7.2.0data status	okinstallation	B5 Nyhavnadifferential loss correction	single-endedforward channel	channel 2reverse channel	N/Adate	2023/12/12time	10:27:13forward acquisition time	300,00reverse acquisition time	0,00gamma	499,1914k internal	0,3158k external	0,3158temperature offset calibration	1,0000default loss term (dB/km)	0,3820temperature slope calibration	1,0000multiplexer offset coefficient	1,0000multiplexer slope coefficient	1,0000fibre end	0,00T internal ref (°C)	15,00T ext. ref 1 (°C)	-1,37T ext. ref 2 (°C)	-1,66length (m)	temperature (°C)	Stokes	anti-Stokes-744,400	64,318	0,074	0,055
-743,385	-54,312	-0,313	0,104
-742,371	97,340	0,077	0,065
-741,356	-51,098	-0,275	0,095
-740,342	-122,174	0,130	0,015
-739,327	-95,022	-0,294	-0,058
-738,312	4,954	0,156	-0,084
-737,298	-74,988	-0,169	0,044
-736,283	316,649	-0,064	0,089
-735,269	-123,836	-0,228	-0,026
-734,254	-51,734	0,151	0,051
-733,239	-98,217	-0,513	-0,096
-732,225	-104,740	0,291	0,049
-731,210	36,010	0,067	0,043
-730,196	35,776	0,057	0,037
-729,181	-83,792	-0,073	-0,017
-728,167	-200,000	-0,011	0,063
-727,152	84,294	0,047	0,038
-726,137	70,029	-0,043	-0,033
-725,123	-200,000	0,018	-0,075
-724,108	288,816	-0,108	-0,145
-723,094	-200,000	0,025	-0,199
-722,079	411,942	0,022	0,035
-721,064	442,892	0,038	0,061
-720,050	-137,860	-0,157	0,013
-719,035	-200,000	0,007	0,078
-718,021	540,067	-0,021	0,036
-717,006	800,000	-0,044	0,118
-715,991	24,049	-0,097	0,059
-714,977	-158,980	0,158	-0,006
-713,962	129,692	-0,084	-0,079
-712,948	-200,000	0,017	-0,101
-711,933	-145,702	0,054	0,003
-710,918	273,634	0,051	-0,067
-709,904	800,000	-0,032	0,070
-708,889	-92,814	-0,113	0,023
-707,875	229,154	-0,052	-0,062
-706,860	637,620	-0,036	0,068
-705,845	800,000	-0,031	0,086
-704,831	158,212	0,049	0,051
-703,816	106,612	0,079	-0,069
-702,802	-165,397	0,113	0,004
-701,787	-52,361	-0,114	-0,039
-700,772	800,000	-0,077	-0,165
-699,758	466,415	0,023	-0,037
-698,743	-200,000	-0,013	-0,067
-697,729	358,943	0,033	0,049
-696,714	205,223	0,007	-0,008
-695,699	-200,000	-0,031	0,126
-694,685	516,877	0,032	-0,055
-693,670	-44,869	0,161	-0,059
-692,656	115,094	-0,034	-0,030
-691,641	-119,577	-0,106	0,013
-690,627	-114,753	0,129	-0,018
-689,612	-76,644	0,079	0,020
-688,597	800,000	0,017	-0,037
-687,583	95,531	-0,140	-0,118
-686,568	-200,000	0,129	0,000
-685,554	800,000	0,011	0,025
-684,539	-61,731	0,076	0,023
-683,524	79,286	0,067	-0,053
-682,510	-200,000	0,000	-0,034
-681,495	143,226	-0,044	-0,043
-680,481	358,035	-0,134	0,197
-679,466	236,427	-0,026	0,032
-678,451	-141,452	-0,112	-0,008
-677,437	171,666	0,012	0,013
-676,422	-200,000	-0,005	-0,097
-675,408	-53,175	0,084	-0,028
-674,393	-200,000	-0,017	-0,111
-673,378	-200,000	-0,004	-0,073
-672,364	800,000	-0,028	-0,065
-671,349	334,364	0,098	-0,140
-670,335	-71,960	0,124	-0,034
-669,320	417,275	0,065	0,103
-668,305	-128,988	0,039	0,004
-667,291	410,404	0,062	0,097
-666,276	159,364	-0,061	-0,062
-665,262	135,986	-0,035	0,033
-664,247	78,781	0,046	-0,036
-663,232	32,718	-0,112	0,071
-662,218	800,000	-0,055	-0,119
-661,203	-88,825	-0,041	-0,009
-660,189	-10,379	0,063	0,031
-659,174	-15,413	0,153	-0,072
-658,159	143,404	-0,060	0,059
-657,145	800,000	-0,002	-0,005
-656,130	800,000	0,011	0,026
-655,116	-13,849	0,081	0,038
-654,101	-58,491	0,112	0,036
-653,086	-49,862	0,149	0,052
-652,072	-200,000	0,009	0,036
-651,057	-64,177	-0,083	0,025
-650,043	131,957	-0,113	-0,107
-649,028	800,000	-0,013	-0,038
-648,014	28,145	0,046	-0,028
-646,999	800,000	0,081	0,168
-645,984	-28,207	0,091	0,039
-644,970	301,448	-0,059	-0,080
-643,955	59,478	-0,113	-0,082
-642,941	360,772	-0,023	0,033
-641,926	63,212	-0,086	-0,063
-640,911	-166,803	-0,156	-0,005
-639,897	190,902	-0,057	0,064
-638,882	-200,000	-0,023	0,179
-637,868	211,230	0,081	0,094
-636,853	-24,425	-0,070	0,030
-635,838	-101,978	-0,156	0,027
-634,824	-200,000	-0,014	0,071
-633,809	-200,000	-0,007	0,051
-632,795	-81,325	-0,156	-0,037
-631,780	-200,000	-0,026	0,101
-630,765	-26,603	-0,085	-0,036
-629,751	80,485	-0,059	-0,047
-628,736	144,392	-0,020	-0,019
-627,722	800,000	0,027	0,085
-626,707	-93,404	-0,071	-0,014
-625,692	21,094	0,033	0,019
-624,678	-200,000	0,005	-0,149
-623,663	-200,000	-0,017	-0,108
-622,649	484,439	0,054	-0,091
-621,634	-103,115	-0,069	0,012
-620,619	-122,843	-0,123	0,014
-619,605	349,058	0,055	-0,079
-618,590	-23,481	0,124	0,055
-617,576	-23,476	0,051	-0,022
-616,561	370,082	0,055	-0,082
-615,546	-106,070	-0,132	-0,021
-614,532	800,000	0,070	0,154
-613,517	-200,000	-0,025	-0,105
-612,503	135,923	-0,060	0,057
-611,488	-200,000	0,051	-0,191
-610,474	75,941	0,050	0,038
-609,459	-200,000	-0,049	0,185
-608,444	72,553	-0,066	-0,050
-607,430	32,180	-0,061	0,038
-606,415	184,156	-0,110	0,120
-605,401	-20,644	0,114	-0,051
-604,386	-27,384	0,047	-0,020
-603,371	-200,000	-0,002	0,039
-602,357	-27,563	0,125	-0,053
-601,342	116,271	-0,046	-0,041
-600,328	-200,000	-0,020	-0,070
-599,313	800,000	0,019	-0,061
-598,298	-113,844	0,049	-0,007
-597,284	13,876	0,031	-0,017
-596,269	-200,000	-0,017	0,107
-595,255	-135,267	0,135	-0,012
-594,240	800,000	0,039	0,113
-593,225	800,000	-0,038	-0,111
-592,211	800,000	-0,010	0,030
-591,196	-66,519	0,070	-0,020
-590,182	-152,188	-0,070	0,004
-589,167	-76,053	-0,111	-0,029
-588,152	69,822	-0,087	-0,066
-587,138	-176,866	-0,071	-0,001
-586,123	619,741	-0,024	-0,045
-585,109	25,945	-0,082	-0,050
-584,094	-58,978	-0,043	0,013
-583,079	800,000	0,014	0,041
-582,065	-107,910	-0,090	0,014
-581,050	-120,626	0,077	0,009
-580,036	22,397	-0,047	-0,028
-579,021	753,852	-0,028	-0,055
-578,006	800,000	0,023	0,068
-576,992	-170,869	0,057	0,001
-575,977	390,012	0,029	-0,044
-574,963	32,495	-0,048	0,030
-573,948	-106,999	-0,057	0,009
-572,934	372,914	-0,020	0,029
-571,919	-200,000	-0,020	0,115
-570,904	800,000	0,061	-0,132
-569,890	800,000	-0,053	-0,154
-568,875	91,251	0,135	0,111
-567,861	800,000	-0,036	0,080
-566,846	277,145	0,011	-0,014
-565,831	-200,000	-0,007	-0,023
-564,817	-48,600	-0,061	0,021
-563,802	-200,000	-0,002	-0,141
-562,788	163,061	0,133	-0,137
-561,773	800,000	-0,067	-0,151
-560,758	-198,508	-0,079	-0,000
-559,744	223,240	-0,031	0,037
-558,729	-1,288	0,085	-0,044
-557,715	340,927	0,028	0,040
-556,700	181,208	-0,031	0,033
-555,685	800,000	0,016	0,041
-554,671	800,000	-0,009	0,028
-553,656	232,548	-0,018	0,021
-552,642	-3,416	0,077	0,039
-551,627	35,146	-0,017	0,011
-550,612	-200,000	-0,002	-0,110
-549,598	-58,501	-0,094	0,030
-548,583	-200,000	0,016	0,102
-547,569	-200,000	0,018	-0,061
-546,554	-71,724	-0,111	0,030
-545,539	558,415	-0,045	0,080
-544,525	199,160	0,039	-0,043
-543,510	122,539	-0,085	-0,078
-542,496	-200,000	-0,003	0,011
-541,481	800,000	0,038	-0,098
-540,466	16,274	0,094	0,054
-539,452	-200,000	-0,012	0,070
-538,437	591,961	-0,058	0,105
-537,423	-19,184	-0,025	0,011
-536,408	-45,056	-0,044	-0,016
-535,393	44,907	0,109	0,073
-534,379	3,328	0,018	0,009
-533,364	800,000	-0,028	-0,061
-532,350	-118,505	-0,075	0,010
-531,335	245,019	0,031	0,039
-530,321	118,858	0,046	-0,042
-529,306	-200,000	0,006	0,128
-528,291	-1,895	-0,088	0,045
-527,277	-89,464	0,101	-0,021
-526,262	780,739	-0,058	-0,116
-525,248	257,920	-0,035	0,044
-524,233	800,000	-0,042	0,120
-523,218	446,721	0,047	0,076
-522,204	-61,205	-0,047	0,014
-521,189	26,949	0,089	0,054
-520,175	-186,671	0,076	0,001
-519,160	-200,000	-0,003	-0,101
-518,145	-174,386	-0,026	-0,001
-517,131	800,000	0,012	-0,026
-516,116	800,000	0,027	-0,076
-515,102	-121,330	-0,115	0,014
-514,087	122,996	-0,057	0,052
-513,072	90,526	-0,088	0,072
-512,058	73,985	0,066	-0,051
-511,043	800,000	-0,017	-0,048
-510,029	-14,694	0,060	0,028
-509,014	115,500	-0,125	0,112
-507,999	-198,145	-0,103	-0,000
-506,985	-87,298	-0,166	0,036
-505,970	-116,054	-0,065	0,009
-504,956	-200,000	0,002	-0,041
-503,941	105,442	0,154	-0,133
-502,926	800,000	-0,019	0,042
-501,912	3,475	0,065	0,035
-500,897	-87,221	-0,116	-0,025
-499,883	-200,000	0,002	0,023
-498,868	800,000	0,024	-0,068
-497,853	599,584	-0,038	-0,068
-496,839	550,399	-0,075	-0,132
-495,824	-5,300	0,066	0,033
-494,810	230,488	0,110	0,131
-493,795	19,072	0,049	-0,029
-492,781	-200,000	-0,024	-0,171
-491,766	-200,000	-0,017	-0,107
-490,751	-45,672	0,114	-0,041
-489,737	516,667	0,020	-0,035
-488,722	5,542	0,057	-0,031
-487,708	-126,912	-0,099	-0,010
-486,693	53,445	0,118	0,082
-485,678	55,620	-0,079	0,056
-484,664	43,486	-0,269	-0,179
-483,649	-86,637	0,128	-0,028
-482,635	800,000	0,067	-0,166
-481,620	367,862	0,019	-0,028
-480,605	-108,168	-0,122	-0,019
-479,591	-200,000	-0,032	0,199
-478,576	-200,000	0,036	0,142
-477,562	-129,409	-0,101	0,010
-476,547	-200,000	-0,001	-0,159
-475,532	370,206	-0,042	0,062
-474,518	214,796	-0,027	0,031
-473,503	50,436	0,134	-0,092
-472,489	-200,000	0,003	0,031
-471,474	800,000	0,032	0,072
-470,459	-23,017	-0,015	-0,007
-469,445	-200,000	0,013	-0,057
-468,430	800,000	0,042	-0,135
-467,416	419,892	0,016	-0,025
-466,401	-106,724	0,106	-0,017
-465,386	108,324	-0,090	-0,078
-464,372	59,335	0,155	-0,111
-463,357	6,409	0,086	-0,047
-462,343	800,000	-0,049	-0,144
-461,328	73,684	0,053	0,040
-460,313	224,760	-0,066	-0,078
-459,299	-124,135	0,172	0,019
-458,284	-84,721	0,066	-0,015
-457,270	-200,000	0,006	0,107
-456,255	591,310	-0,030	-0,054
-455,241	-200,000	-0,041	-0,147
-454,226	800,000	0,023	0,059
-453,211	-74,008	0,044	0,011
-452,197	32,530	0,106	0,066
-451,182	539,610	-0,021	0,037
-450,168	800,000	-0,004	-0,009
-449,153	-161,364	0,120	-0,004
-448,138	52,266	-0,037	0,026
-447,124	-192,096	-0,063	-0,000
-446,109	800,000	0,011	-0,029
-445,095	-73,691	0,146	0,038
-444,080	157,513	0,122	0,123
-443,065	190,001	0,063	0,068
-442,051	10,714	-0,136	-0,075
-441,036	206,793	-0,078	0,089
-440,022	-94,877	0,069	0,014
-439,007	-130,808	-0,074	-0,007
-437,992	8,303	0,093	0,051
-436,978	800,000	0,054	0,136
-435,963	-178,564	-0,059	-0,001
-434,949	-200,000	0,001	-0,009
-433,934	108,982	0,065	-0,056
-432,919	91,091	-0,042	-0,034
-431,905	750,290	0,051	-0,100
-430,890	403,881	0,031	0,047
-429,876	-200,000	-0,020	0,081
-428,861	66,323	-0,067	-0,050
-427,846	-200,000	0,029	-0,100
-426,832	-118,436	-0,056	-0,007
-425,817	60,420	0,028	0,020
-424,803	357,139	-0,011	-0,016
-423,788	26,748	0,177	-0,108
-422,773	227,456	0,088	0,104
-421,759	800,000	0,035	-0,078
-420,744	-91,865	0,064	0,013
-419,730	174,916	-0,098	0,103
-418,715	-93,591	-0,191	0,038
-417,701	-12,587	0,093	0,044
-416,686	-125,299	-0,162	0,018
-415,671	269,015	-0,036	0,046
-414,657	39,489	0,172	-0,112
-413,642	-200,000	0,006	-0,071
-412,628	-147,518	-0,096	-0,006
-411,613	800,000	0,021	-0,067
-410,598	-200,000	-0,011	0,052
-409,584	-119,389	0,008	0,001
-408,569	143,584	0,064	0,062
-407,555	-200,000	0,012	0,108
-406,540	-99,390	0,084	0,015
-405,525	-200,000	-0,015	-0,065
-404,511	177,027	-0,011	-0,012
-403,496	674,043	0,056	-0,107
-402,482	-56,678	0,058	-0,018
-401,467	800,000	-0,042	0,125
-400,452	424,134	-0,045	0,071
-399,438	303,212	0,045	-0,061
-398,423	-200,000	-0,013	0,080
-397,409	-130,843	-0,097	0,009
-396,394	-200,000	-0,008	-0,137
-395,379	-200,000	0,012	-0,172
-394,365	-200,000	-0,014	0,067
-393,350	143,653	0,075	0,073
-392,336	-162,103	0,033	0,001
-391,321	-68,667	-0,090	0,025
-390,306	-200,000	-0,009	0,059
-389,292	131,382	0,108	-0,101
-388,277	132,407	-0,043	0,040
-387,263	-200,000	0,083	0,000
-386,248	716,501	0,016	0,031
-385,233	-200,000	0,001	0,139
-384,219	120,210	0,051	0,046
-383,204	-200,000	-0,004	-0,016
-382,190	-79,931	-0,048	0,012
-381,175	-200,000	-0,010	0,043
-380,160	472,799	0,026	0,042
-379,146	-125,194	-0,100	0,011
-378,131	-200,000	0,030	0,146
-377,117	141,274	0,070	-0,067
-376,102	-200,000	-0,003	-0,113
-375,088	-200,000	0,007	-0,029
-374,073	136,707	0,066	-0,063
-373,058	187,615	0,022	-0,024
-372,044	-76,547	-0,078	0,020
-371,029	800,000	0,020	-0,046
-370,015	320,167	-0,098	0,136
-369,000	800,000	0,055	0,149
-367,985	-10,909	-0,093	0,044
-366,971	800,000	0,031	0,099
-365,956	800,000	0,052	0,106
-364,942	-193,634	-0,073	0,000
-363,927	-50,069	0,069	0,024
-362,912	-32,907	-0,077	0,031
-361,898	-140,252	-0,170	-0,013
-360,883	-200,000	0,035	-0,118
-359,869	-148,505	-0,059	-0,003
-358,854	1,420	-0,086	0,045
-357,839	41,022	0,102	-0,067
-356,825	7,076	-0,064	0,035
-355,810	800,000	-0,030	0,072
-354,796	278,608	-0,067	-0,087
-353,781	800,000	0,038	-0,082
-352,766	-8,064	0,133	-0,065
-351,752	125,297	0,068	0,062
-350,737	685,997	0,051	0,097
-349,723	800,000	-0,024	0,066
-348,708	-154,393	0,108	0,005
-347,693	328,302	-0,017	0,023
-346,679	-200,000	-0,006	-0,101
-345,664	408,855	-0,113	-0,174
-344,650	62,380	-0,076	-0,055
-343,635	-118,721	0,058	0,007
-342,620	-159,410	0,136	0,005
-341,606	-99,942	-0,141	0,025
-340,591	-200,000	-0,002	0,127
-339,577	397,520	-0,074	-0,113
-338,562	18,139	-0,054	-0,031
-337,548	-138,486	0,136	-0,011
-336,533	-200,000	-0,001	0,052
-335,518	325,525	0,101	0,140
-334,504	16,105	-0,087	-0,050
-333,489	712,919	-0,029	0,056
-332,475	-10,104	0,047	0,023
-331,460	-86,885	0,141	0,031
-330,445	-200,000	-0,025	0,100
-329,431	-200,000	0,001	-0,030
-328,416	8,287	-0,115	0,063
-327,402	-200,000	0,017	0,155
-326,387	-17,518	-0,010	-0,005
-325,372	-54,043	0,084	-0,028
-324,358	38,878	-0,073	0,047
-323,343	49,949	0,085	-0,058
-322,329	4,843	0,095	0,051
-321,314	-63,757	-0,106	-0,031
-320,299	287,120	0,148	0,194
-319,285	800,000	0,037	0,093
-318,270	254,606	-0,100	0,124
-317,256	-200,000	-0,029	-0,116
-316,241	-11,815	-0,078	-0,037
-315,226	60,661	0,059	-0,042
-314,212	-141,608	-0,077	0,006
-313,197	-200,000	0,003	0,086
-312,183	-200,000	-0,008	-0,172
-311,168	109,425	-0,094	0,082
-310,153	-14,269	0,181	-0,084
-309,139	728,351	-0,113	-0,220
-308,124	-114,348	0,095	-0,013
-307,110	571,649	-0,050	-0,088
-306,095	25,030	-0,172	0,103
-305,080	215,373	0,058	-0,066
-304,066	13,116	0,071	-0,040
-303,051	540,913	-0,027	0,046
-302,037	-200,000	-0,014	0,051
-301,022	-200,000	0,010	0,037
-300,008	-29,229	0,041	0,017
-298,993	319,727	0,017	0,023
-297,978	-52,554	-0,116	-0,038
-296,964	47,946	-0,085	0,057
-295,949	-48,983	0,007	-0,002
-294,935	435,787	-0,097	-0,153
-293,920	-63,649	0,058	0,017
-292,905	-67,128	0,109	-0,031
-291,891	-119,419	0,083	0,010
-290,876	800,000	-0,037	0,096
-289,862	50,547	0,104	0,071
-288,847	800,000	-0,054	-0,122
-287,832	-200,000	-0,015	0,052
-286,818	800,000	-0,033	-0,079
-285,803	-172,798	-0,035	0,001
-284,789	-95,212	-0,046	-0,009
-283,774	583,238	0,058	0,104
-282,759	800,000	0,066	0,167
-281,745	40,261	0,067	0,043
-280,730	199,302	-0,101	-0,112
-279,716	-21,827	0,111	-0,049
-278,701	377,978	0,065	0,097
-277,686	-164,085	0,026	-0,001
-276,672	26,258	0,012	0,007
-275,657	-3,439	-0,068	0,034
-274,643	800,000	0,080	-0,181
-273,628	372,792	-0,015	-0,022
-272,613	-111,962	-0,139	-0,020
-271,599	771,650	0,035	-0,070
-270,584	-112,625	0,070	-0,010
-269,570	-200,000	-0,012	0,066
-268,555	-200,000	-0,047	0,192
-267,540	145,384	-0,019	0,019
-266,526	-200,000	0,000	-0,133
-265,511	43,342	0,059	-0,039
-264,497	800,000	0,017	0,044
-263,482	155,202	-0,070	-0,069
-262,467	92,948	0,169	0,138
-261,453	800,000	-0,036	0,099
-260,438	179,196	-0,062	-0,066
-259,424	-200,000	0,028	-0,089
-258,409	800,000	-0,051	-0,103
-257,395	-4,119	0,032	0,016
-256,380	25,559	-0,075	0,045
-255,365	148,979	0,078	0,077
-254,351	146,685	0,055	-0,054
-253,336	-200,000	0,014	0,173
-252,322	-200,000	0,007	-0,027
-251,307	214,015	-0,048	-0,055
-250,292	-200,000	0,021	-0,070
-249,278	-119,644	-0,056	0,007
-248,263	-96,252	0,209	-0,040
-247,249	3,446	0,035	-0,018
-246,234	-69,554	-0,013	-0,004
-245,219	800,000	-0,055	-0,130
-244,205	800,000	-0,040	0,106
-243,190	-200,000	0,002	-0,130
-242,176	80,929	0,141	0,110
-241,161	-151,297	0,035	0,002
-240,146	-200,000	-0,006	0,036
-239,132	212,375	0,070	0,080
-238,117	-200,000	0,002	0,021
-237,103	105,937	-0,035	-0,030
-236,088	6,176	0,041	-0,022
-235,073	219,543	0,035	0,041
-234,059	-200,000	-0,002	0,120
-233,044	32,212	0,052	-0,032
-232,030	-64,023	-0,081	0,024
-231,015	-200,000	-0,008	-0,032
-230,000	680,402	-0,042	-0,079
-228,986	75,526	-0,061	-0,046
-227,971	-89,938	0,128	0,027
-226,957	-50,687	0,115	0,039
-225,942	-115,404	0,111	0,015
-224,927	-82,974	-0,128	-0,030
-223,913	-200,000	-0,027	0,141
-222,898	-86,281	0,040	-0,009
-221,884	6,468	-0,064	0,034
-220,869	-15,969	-0,026	-0,012
-219,855	-8,822	0,099	-0,048
-218,840	800,000	0,046	0,096
-217,825	-143,054	-0,047	-0,003
-216,811	-200,000	0,019	0,078
-215,796	11,175	0,064	-0,036
-214,782	211,831	-0,051	0,058
-213,767	-24,579	0,073	0,031
-212,752	24,635	-0,046	-0,028
-211,738	800,000	0,023	-0,071
-210,723	-200,000	0,019	0,118
-209,709	6,904	0,109	0,058
-208,694	-181,719	0,216	0,003
-207,679	-71,953	-0,185	-0,049
-206,665	-65,495	0,037	0,011
-205,650	529,930	0,056	0,096
-204,636	-200,000	-0,011	0,040
-203,621	-23,268	0,030	-0,013
-202,606	800,000	-0,011	-0,025
-201,592	130,998	0,068	-0,063
-200,577	-200,000	-0,029	-0,204
-199,563	273,308	-0,041	-0,052
-198,548	-200,000	0,028	0,106
-197,533	-138,459	0,081	-0,006
-196,519	53,726	-0,067	0,047
-195,504	18,787	-0,118	0,068
-194,490	-200,000	-0,001	-0,011
-193,475	-200,000	0,017	-0,114
-192,460	-147,629	-0,040	0,002
-191,446	800,000	-0,016	-0,047
-190,431	-200,000	0,113	-0,000
-189,417	-196,089	-0,133	0,001
-188,402	111,106	0,097	0,085
-187,387	-95,927	-0,088	-0,017
-186,373	-200,000	0,001	-0,006
-185,358	-82,157	-0,097	-0,023
-184,344	-200,000	-0,029	0,096
-183,329	800,000	-0,015	-0,045
-182,315	-200,000	-0,044	-0,231
-181,300	-143,904	0,147	-0,010
-180,285	-85,475	-0,056	-0,013
-179,271	-37,748	-0,127	-0,048
-178,256	193,121	-0,033	0,036
-177,242	-200,000	-0,004	0,123
-176,227	-11,313	0,105	-0,050
-175,212	245,613	0,031	-0,038
-174,198	-30,883	-0,131	0,053
-173,183	-175,590	-0,085	-0,002
-172,169	5,970	0,073	0,039
-171,154	190,895	-0,022	-0,023
-170,139	-80,367	-0,062	0,015
-169,125	-200,000	-0,021	-0,106
-168,110	-200,000	0,033	-0,122
-167,096	-200,000	-0,007	0,124
-166,081	-93,758	-0,033	-0,007
-165,066	37,412	-0,068	-0,044
-164,052	-150,909	0,127	0,007
-163,037	667,841	-0,045	-0,085
-162,023	53,738	0,040	0,028
-161,008	-200,000	0,018	0,086
-159,993	-29,230	0,117	0,048
-158,979	16,648	0,054	0,031
-157,964	-149,182	-0,105	-0,006
-156,950	-200,000	-0,050	-0,239
-155,935	-200,000	-0,022	-0,078
-154,920	-23,015	0,133	-0,057
-153,906	-37,755	-0,041	-0,016
-152,891	6,501	-0,081	0,043
-151,877	-200,000	-0,031	-0,107
-150,862	306,034	-0,012	-0,017
-149,847	-200,000	-0,019	-0,134
-148,833	-200,000	0,020	0,092
-147,818	800,000	0,029	-0,061
-146,804	-200,000	-0,003	-0,022
-145,789	373,223	0,034	0,049
-144,775	132,852	0,056	-0,052
-143,760	255,453	-0,037	0,045
-142,745	-88,253	0,024	0,005
-141,731	353,559	0,024	0,034
-140,716	37,975	0,096	0,062
-139,702	56,841	-0,034	0,024
-138,687	494,555	0,045	0,075
-137,672	134,102	-0,056	0,052
-136,658	-53,638	-0,074	-0,024
-135,643	-200,000	0,016	-0,186
-134,629	762,394	-0,037	0,072
-133,614	-200,000	-0,040	0,214
-132,599	-200,000	0,004	0,015
-131,585	451,061	0,023	-0,037
-130,570	415,648	0,041	0,063
-129,556	224,126	0,025	0,029
-128,541	-169,970	-0,043	0,001
-127,526	88,708	-0,029	-0,023
-126,512	-20,265	-0,070	0,031
-125,497	596,731	-0,013	0,024
-124,483	-200,000	0,010	0,054
-123,468	-31,255	-0,027	0,011
-122,453	628,755	-0,018	-0,033
-121,439	-110,471	-0,121	0,018
-120,424	461,589	0,069	-0,112
-119,410	-119,304	0,147	-0,018
-118,395	145,248	0,059	0,057
