DTS Sentinel unit serial number:	SN410029Multiplexer serial number:	ORYXHardware model number:	OX2-SRSoftware version number:	ORYX F/W v4,00 Oryx Data Collector v3.7.2.0data status	okinstallation	B5 Nyhavnadifferential loss correction	single-endedforward channel	channel 2reverse channel	N/Adate	2023/12/12time	06:32:13forward acquisition time	300,00reverse acquisition time	0,00gamma	499,1914k internal	0,3158k external	0,3158temperature offset calibration	1,0000default loss term (dB/km)	0,3820temperature slope calibration	1,0000multiplexer offset coefficient	1,0000multiplexer slope coefficient	1,0000fibre end	0,00T internal ref (°C)	15,23T ext. ref 1 (°C)	-1,14T ext. ref 2 (°C)	-1,46length (m)	temperature (°C)	Stokes	anti-Stokes-744,400	-200,000	0,012	0,118
-743,385	-35,681	-0,223	0,089
-742,371	-200,000	0,037	0,156
-741,356	-0,968	-0,197	0,103
-740,342	-39,782	0,074	-0,029
-739,327	-104,897	-0,282	0,047
-738,312	223,635	0,013	0,016
-737,298	-84,816	-0,318	-0,073
-736,283	13,378	0,099	-0,056
-735,269	-161,546	-0,321	-0,012
-734,254	347,835	0,029	0,043
-733,239	-200,000	-0,497	0,001
-732,225	-126,966	0,115	0,012
-731,210	58,773	0,046	0,033
-730,196	308,527	-0,066	-0,090
-729,181	561,346	0,028	-0,050
-728,167	187,140	0,035	0,039
-727,152	-200,000	-0,022	-0,201
-726,137	680,426	0,091	-0,175
-725,123	5,702	-0,014	-0,008
-724,108	43,339	-0,164	-0,110
-723,094	-200,000	0,047	-0,221
-722,079	441,719	-0,088	-0,143
-721,064	153,788	0,047	-0,047
-720,050	370,500	0,056	0,084
-719,035	-200,000	-0,005	-0,074
-718,021	800,000	0,058	-0,119
-717,006	6,574	-0,065	0,035
-715,991	-143,048	-0,081	0,006
-714,977	479,117	-0,015	-0,024
-713,962	-6,629	0,059	0,030
-712,948	-131,059	-0,074	-0,007
-711,933	800,000	0,046	0,101
-710,918	-116,447	-0,059	-0,008
-709,904	-54,368	-0,036	0,012
-708,889	484,478	0,046	0,077
-707,875	-200,000	-0,006	-0,046
-706,860	46,708	-0,080	-0,055
-705,845	157,999	0,080	0,082
-704,831	237,321	-0,082	0,101
-703,816	-200,000	-0,003	0,039
-702,802	349,979	0,041	0,060
-701,787	800,000	0,077	-0,172
-700,772	70,717	-0,078	-0,059
-699,758	-137,978	0,120	-0,010
-698,743	-200,000	0,012	-0,111
-697,729	740,140	0,008	-0,015
-696,714	-58,456	0,078	-0,025
-695,699	202,569	0,054	-0,062
-694,685	-5,199	-0,031	-0,016
-693,670	800,000	-0,016	-0,049
-692,656	163,032	0,089	-0,092
-691,641	-199,653	-0,152	-0,001
-690,627	-143,180	0,120	-0,008
-689,612	-200,000	0,025	-0,098
-688,597	800,000	0,079	-0,177
-687,583	124,893	-0,071	-0,065
-686,568	431,759	-0,098	-0,157
-685,554	-200,000	0,013	-0,145
-684,539	182,169	0,078	-0,085
-683,524	83,293	-0,069	0,055
-682,510	614,125	-0,031	0,057
-681,495	-200,000	-0,011	0,039
-680,481	-167,136	-0,075	-0,002
-679,466	-200,000	0,027	-0,135
-678,451	-200,000	-0,028	-0,126
-677,437	-69,439	0,071	-0,020
-676,422	-200,000	0,010	0,064
-675,408	43,629	0,055	0,037
-674,393	9,334	-0,037	-0,021
-673,378	18,513	0,020	0,012
-672,364	800,000	0,046	-0,115
-671,349	88,416	-0,130	-0,106
-670,335	55,489	-0,045	-0,032
-669,320	-138,587	-0,053	0,004
-668,305	800,000	-0,004	0,010
-667,291	-115,598	-0,164	0,022
-666,276	8,862	-0,091	-0,050
-665,262	148,052	-0,134	-0,133
-664,247	-66,741	0,155	-0,045
-663,232	-200,000	0,004	-0,039
-662,218	-200,000	0,005	-0,037
-661,203	-62,962	0,113	-0,034
-660,189	-200,000	0,009	0,117
-659,174	-78,355	-0,106	-0,027
-658,159	800,000	-0,045	-0,111
-657,145	281,744	0,026	0,034
-656,130	56,878	0,073	-0,052
-655,116	282,081	0,077	-0,101
-654,101	800,000	0,026	0,072
-653,086	-200,000	-0,010	-0,068
-652,072	-200,000	-0,008	0,066
-651,057	48,199	-0,134	-0,092
-650,043	591,439	-0,040	-0,072
-649,028	-19,146	0,102	0,047
-648,014	214,066	0,107	0,125
-646,999	439,495	-0,022	0,036
-645,984	-200,000	-0,015	0,052
-644,970	-200,000	-0,002	0,095
-643,955	800,000	-0,029	-0,082
-642,941	800,000	0,021	0,066
-641,926	166,890	-0,058	-0,061
-640,911	-119,837	-0,022	0,003
-639,897	260,820	0,148	0,189
-638,882	201,946	0,081	0,091
-637,868	96,413	-0,100	-0,084
-636,853	-200,000	0,035	-0,115
-635,838	149,160	0,040	0,039
-634,824	800,000	0,036	0,118
-633,809	342,334	0,026	-0,038
-632,795	-200,000	0,023	0,104
-631,780	203,054	0,118	0,134
-630,765	-99,577	0,072	0,013
-629,751	-200,000	-0,004	0,055
-628,736	117,461	-0,098	-0,088
-627,722	169,587	-0,076	0,079
-626,707	-58,422	0,114	-0,036
-625,692	-200,000	-0,007	0,083
-624,678	-200,000	0,010	-0,054
-623,663	488,917	-0,041	0,069
-622,649	-200,000	0,004	-0,131
-621,634	-200,000	0,000	0,073
-620,619	789,642	-0,069	-0,140
-619,605	-200,000	-0,008	-0,094
-618,590	86,125	0,048	-0,039
-617,576	31,956	-0,029	-0,019
-616,561	-65,153	-0,025	0,007
-615,546	420,756	-0,019	0,030
-614,532	-34,393	-0,102	0,041
-613,517	122,070	-0,094	-0,086
-612,503	68,766	0,029	-0,022
-611,488	-200,000	-0,028	0,123
-610,474	418,775	-0,093	0,147
-609,459	191,764	-0,105	0,116
-608,444	39,376	0,051	-0,033
-607,430	408,611	0,100	-0,156
-606,415	17,978	0,040	-0,023
-605,401	800,000	0,025	0,077
-604,386	-200,000	-0,004	0,178
-603,371	-200,000	0,004	0,029
-602,357	-156,537	0,053	0,002
-601,342	125,335	0,051	0,047
-600,328	-200,000	-0,004	-0,050
-599,313	771,627	-0,015	-0,030
-598,298	800,000	0,017	0,039
-597,284	-200,000	-0,026	0,121
-596,269	-5,927	-0,059	0,029
-595,255	800,000	0,042	-0,090
-594,240	800,000	-0,004	0,013
-593,225	592,660	-0,089	-0,162
-592,211	-1,798	-0,098	0,051
-591,196	-69,252	-0,060	-0,017
-590,182	137,091	0,052	0,050
-589,167	-64,531	0,093	0,028
-588,152	800,000	0,016	0,040
-587,138	271,737	0,016	-0,021
-586,123	800,000	-0,073	-0,153
-585,109	-29,522	-0,068	-0,028
-584,094	-135,508	-0,064	0,005
-583,079	288,636	0,081	-0,107
-582,065	-200,000	-0,020	-0,152
-581,050	33,601	0,098	-0,062
-580,036	-200,000	-0,018	-0,093
-579,021	800,000	0,067	0,138
-578,006	-120,936	0,050	-0,006
-576,992	164,505	0,086	0,089
-575,977	-200,000	-0,003	-0,070
-574,963	-150,978	0,111	0,006
-573,948	482,963	0,009	0,016
-572,934	-43,777	-0,124	0,046
-571,919	800,000	-0,031	0,082
-570,904	5,940	0,069	-0,037
-569,890	-8,057	0,184	-0,091
-568,875	227,050	-0,056	-0,067
-567,861	-80,588	0,116	-0,028
-566,846	-129,421	0,040	-0,004
-565,831	63,011	-0,008	0,006
-564,817	-89,297	-0,136	-0,029
-563,802	800,000	0,053	-0,117
-562,788	-200,000	-0,006	-0,022
-561,773	31,273	-0,054	-0,034
-560,758	19,463	0,073	0,043
-559,744	-40,542	0,175	0,066
-558,729	-68,458	-0,094	0,027
-557,715	4,974	-0,074	0,040
-556,700	-106,518	0,082	-0,013
-555,685	13,293	-0,082	0,046
-554,671	800,000	-0,047	-0,102
-553,656	-78,563	-0,043	0,011
-552,642	-200,000	-0,009	0,067
-551,627	-168,928	0,105	-0,003
-550,612	800,000	0,014	0,044
-549,598	172,060	-0,127	-0,134
-548,583	-200,000	0,019	-0,107
-547,569	104,017	0,074	-0,064
-546,554	-70,510	-0,084	-0,023
-545,539	-109,402	0,065	0,010
-544,525	-27,247	-0,164	-0,070
-543,510	-200,000	-0,003	-0,142
-542,496	-124,148	-0,091	-0,010
-541,481	653,708	0,043	0,082
-540,466	416,031	-0,026	-0,040
-539,452	800,000	-0,037	0,082
-538,437	-126,130	0,099	0,011
-537,423	-200,000	-0,004	-0,081
-536,408	-200,000	-0,003	0,040
-535,393	157,902	0,090	0,091
-534,379	111,565	-0,052	-0,046
-533,364	-200,000	-0,038	-0,182
-532,350	85,426	0,106	-0,085
-531,335	181,436	-0,034	-0,037
-530,321	-59,422	0,113	-0,035
-529,306	653,033	-0,056	0,106
-528,291	-120,824	-0,172	0,021
-527,277	800,000	0,037	0,095
-526,262	49,359	-0,038	0,026
-525,248	108,810	-0,089	-0,077
-524,233	-181,560	0,041	-0,001
-523,218	-27,254	0,102	-0,043
-522,204	-200,000	0,009	-0,115
-521,189	-64,754	-0,021	0,006
-520,175	-200,000	0,006	-0,048
-519,160	-200,000	0,009	0,062
-518,145	43,459	0,070	0,047
-517,131	62,302	-0,047	-0,034
-516,116	-200,000	0,010	0,143
-515,102	62,787	-0,175	-0,128
-514,087	-200,000	-0,007	-0,037
-513,072	215,992	-0,092	0,107
-512,058	165,832	0,040	0,041
-511,043	-200,000	-0,013	-0,073
-510,029	-32,245	0,044	-0,018
-509,014	-82,301	-0,142	-0,033
-507,999	-200,000	-0,036	0,256
-506,985	86,551	-0,019	0,016
-505,970	-46,362	-0,120	0,043
-504,956	280,637	-0,027	0,036
-503,941	12,246	-0,092	-0,051
-502,926	-200,000	-0,016	0,106
-501,912	95,177	0,094	0,078
-500,897	-200,000	0,004	0,096
-499,883	-133,738	-0,157	0,014
-498,868	352,836	0,052	-0,076
-497,853	-53,253	-0,033	-0,011
-496,839	-200,000	-0,003	0,038
-495,824	-184,554	-0,016	0,000
-494,810	-200,000	0,003	0,062
-493,795	-111,161	0,010	-0,001
-492,781	475,140	0,009	-0,014
-491,766	-200,000	-0,009	0,030
-490,751	8,483	-0,039	0,022
-489,737	800,000	0,021	-0,051
-488,722	-200,000	-0,010	0,111
-487,708	800,000	0,068	0,162
-486,693	156,825	0,093	-0,094
-485,678	98,971	0,039	0,032
-484,664	4,358	-0,062	-0,033
-483,649	195,183	-0,065	-0,072
-482,635	-124,785	0,087	-0,010
-481,620	91,561	0,095	0,078
-480,605	-200,000	0,004	0,028
-479,591	-9,430	-0,087	0,042
-478,576	379,995	0,083	0,125
-477,562	-41,548	0,049	-0,018
-476,547	28,196	-0,095	0,058
-475,532	-200,000	0,003	0,110
-474,518	40,968	0,061	0,040
-473,503	-91,163	0,081	-0,017
-472,489	800,000	-0,023	-0,047
-471,474	-200,000	-0,002	-0,007
-470,459	-93,966	0,053	-0,011
-469,445	800,000	0,015	0,039
-468,430	11,147	-0,061	0,034
-467,416	-200,000	0,018	-0,076
-466,401	-108,292	0,048	0,008
-465,386	800,000	-0,028	0,064
-464,372	-74,849	0,057	-0,015
-463,357	-200,000	-0,002	-0,086
-462,343	56,753	-0,087	-0,062
-461,328	-200,000	0,020	-0,143
-460,313	14,769	-0,036	-0,021
-459,299	-200,000	-0,003	0,018
-458,284	88,093	0,075	0,060
-457,270	-110,425	-0,136	-0,020
-456,255	800,000	0,040	-0,107
-455,241	-89,144	-0,118	-0,025
-454,226	-97,958	0,124	-0,023
-453,211	189,106	0,028	0,030
-452,197	173,691	-0,034	0,036
-451,182	-200,000	0,014	-0,048
-450,168	235,457	0,049	0,059
-449,153	81,065	-0,083	-0,065
-448,138	-200,000	0,020	-0,090
-447,124	-80,445	0,075	0,018
-446,109	752,625	0,078	-0,155
-445,095	-101,646	-0,055	0,010
-444,080	800,000	0,038	0,086
-443,065	109,257	0,041	-0,036
-442,051	800,000	0,010	-0,024
-441,036	-20,495	-0,140	0,062
-440,022	-132,441	0,095	-0,009
-439,007	-107,137	0,186	0,030
-437,992	107,957	0,091	0,079
-436,978	-200,000	0,000	-0,095
-435,963	-142,622	0,077	-0,005
-434,949	-132,316	0,197	0,018
-433,934	470,480	-0,078	-0,129
-432,919	-200,000	0,004	-0,141
-431,905	800,000	-0,033	-0,103
-430,890	-98,660	-0,043	0,008
-429,876	213,077	-0,037	-0,043
-428,861	-39,845	-0,013	0,005
-427,846	288,915	0,044	0,058
-426,832	464,149	0,036	-0,058
-425,817	230,889	0,093	-0,111
-424,803	-154,662	-0,049	0,002
-423,788	176,003	-0,064	-0,067
-422,773	800,000	-0,056	0,168
-421,759	-164,150	-0,036	-0,001
-420,744	-200,000	-0,010	-0,052
-419,730	-65,570	-0,114	-0,033
-418,715	42,350	-0,020	-0,013
-417,701	95,053	0,043	-0,035
-416,686	-200,000	0,001	0,086
-415,671	800,000	0,085	0,185
-414,657	-16,845	-0,110	0,050
-413,642	-30,059	-0,116	-0,048
-412,628	800,000	0,053	0,112
-411,613	272,771	0,054	-0,069
-410,598	248,213	0,015	-0,018
-409,584	358,804	-0,033	-0,048
-408,569	-49,130	0,071	0,025
-407,555	-200,000	0,002	-0,152
-406,540	-200,000	0,034	-0,142
-405,525	-72,493	-0,063	-0,017
-404,511	614,533	-0,028	0,052
-403,496	19,124	0,063	-0,036
-402,482	-200,000	0,005	-0,048
-401,467	193,476	0,062	0,069
-400,452	-35,716	-0,084	0,033
-399,438	57,373	-0,132	-0,094
-398,423	-200,000	-0,013	0,046
-397,409	-200,000	-0,011	-0,046
-396,394	-200,000	0,001	0,068
-395,379	79,338	0,057	-0,044
-394,365	235,475	-0,042	0,051
-393,350	-117,405	0,171	-0,022
-392,336	-200,000	-0,073	0,000
-391,321	-102,116	0,074	-0,013
-390,306	-32,063	0,083	0,033
-389,292	55,250	-0,076	-0,053
-388,277	-200,000	0,027	-0,138
-387,263	-131,891	-0,030	0,003
-386,248	61,794	0,110	0,079
-385,233	45,434	0,092	-0,061
-384,219	800,000	-0,034	0,077
-383,204	663,242	-0,053	0,099
-382,190	146,999	-0,069	-0,067
-381,175	475,455	0,025	-0,040
-380,160	-200,000	0,025	0,174
-379,146	0,804	-0,035	-0,018
-378,131	-200,000	0,007	0,028
-377,117	481,073	0,103	0,170
-376,102	302,490	-0,025	-0,034
-375,088	-153,255	-0,059	-0,003
-374,073	111,413	0,006	0,005
-373,058	217,649	-0,061	0,070
-372,044	-3,962	0,085	0,043
-371,029	-8,004	0,107	0,052
-370,015	45,331	0,063	0,042
-369,000	45,491	0,051	-0,034
-367,985	800,000	0,040	-0,106
-366,971	245,336	0,099	-0,121
-365,956	-133,098	0,079	-0,007
-364,942	-65,666	0,099	0,029
-363,927	800,000	-0,011	0,024
-362,912	-49,609	-0,085	0,029
-361,898	-14,156	-0,079	-0,037
-360,883	-113,230	0,096	0,014
-359,869	-52,523	-0,062	-0,021
-358,854	602,284	-0,013	0,024
-357,839	-200,000	-0,039	0,134
-356,825	-200,000	-0,017	0,096
-355,810	-117,887	0,063	-0,008
-354,796	-155,226	0,112	-0,005
-353,781	-200,000	0,041	-0,133
-352,766	0,181	-0,121	-0,063
-351,752	-146,611	-0,065	-0,004
-350,737	800,000	-0,008	-0,017
-349,723	800,000	0,030	-0,063
-348,708	575,544	0,022	0,040
-347,693	-99,683	-0,083	0,015
-346,679	14,473	-0,089	-0,050
-345,664	-200,000	-0,038	0,142
-344,650	-29,603	0,098	-0,040
-343,635	-138,928	-0,114	0,009
-342,620	61,025	0,126	-0,090
-341,606	526,091	-0,110	0,190
-340,591	-170,740	-0,154	0,004
-339,577	326,390	0,043	-0,059
-338,562	83,228	0,082	-0,065
-337,548	447,943	-0,072	-0,115
-336,533	-109,245	0,029	0,004
-335,518	-140,393	0,113	0,008
-334,504	-0,846	-0,125	-0,064
-333,489	215,755	0,094	-0,109
-332,475	-62,739	-0,112	0,033
-331,460	-167,790	-0,082	-0,002
-330,445	800,000	-0,060	-0,135
-329,431	-200,000	0,094	0,000
-328,416	800,000	0,062	0,133
-327,402	206,777	0,056	0,064
-326,387	326,862	-0,072	-0,100
-325,372	49,213	0,034	0,023
-324,358	-1,578	0,021	0,010
-323,343	291,279	-0,047	0,063
-322,329	-200,000	0,003	0,051
-321,314	-82,626	-0,056	0,013
-320,299	-200,000	-0,028	0,122
-319,285	168,616	0,014	-0,014
-318,270	-180,668	0,073	0,001
-317,256	-19,963	0,158	-0,070
-316,241	99,097	0,129	-0,108
-315,226	138,550	0,120	0,114
-314,212	-138,928	0,093	0,007
-313,197	-7,731	-0,112	0,055
-312,183	800,000	-0,056	0,132
-311,168	189,729	-0,047	0,051
-310,153	789,184	-0,005	0,010
-309,139	-163,440	-0,149	0,005
-308,124	309,897	0,054	0,073
-307,110	-150,791	0,132	-0,007
-306,095	88,881	-0,175	0,141
-305,080	157,889	0,103	0,104
-304,066	-200,000	0,028	-0,145
-303,051	-200,000	0,012	-0,063
-302,037	167,235	-0,059	-0,060
-301,022	-44,678	-0,082	-0,030
-300,008	-200,000	0,005	0,044
-298,993	-200,000	-0,037	0,128
-297,978	800,000	0,051	0,139
-296,964	800,000	0,033	-0,072
-295,949	16,624	-0,065	-0,037
-294,935	800,000	0,040	-0,091
-293,920	-69,005	-0,149	0,041
-292,905	13,059	-0,082	-0,046
-291,891	661,825	0,089	0,168
-290,876	-200,000	-0,022	0,094
-289,862	800,000	-0,034	0,107
-288,847	-200,000	-0,005	-0,106
-287,832	42,371	-0,062	0,041
-286,818	-200,000	-0,003	0,013
-285,803	-85,750	0,082	-0,018
-284,789	235,481	0,126	-0,151
-283,774	-77,190	-0,046	0,012
-282,759	39,796	-0,026	0,017
-281,745	-200,000	0,002	0,079
-280,730	-200,000	-0,018	-0,113
-279,716	-64,053	0,119	0,035
-278,701	-118,629	0,027	0,003
-277,686	800,000	0,018	-0,046
-276,672	800,000	-0,018	0,055
-275,657	211,486	-0,037	0,043
-274,643	206,192	0,106	-0,119
-273,628	22,913	0,048	-0,028
-272,613	340,800	-0,055	-0,079
-271,599	800,000	0,013	-0,041
-270,584	-200,000	-0,009	0,037
-269,570	800,000	-0,032	-0,074
-268,555	-154,076	-0,092	-0,004
-267,540	-42,297	-0,091	-0,033
-266,526	800,000	-0,009	0,027
-265,511	-200,000	0,012	-0,048
-264,497	-114,093	0,130	-0,018
-263,482	-143,918	-0,161	-0,011
-262,467	-5,161	-0,130	0,065
-261,453	254,690	-0,126	-0,156
-260,438	-127,615	-0,075	0,008
-259,424	101,830	0,046	-0,038
-258,409	135,724	-0,063	-0,060
-257,395	800,000	-0,016	-0,050
-256,380	81,429	0,108	0,085
-255,365	800,000	-0,044	0,096
-254,351	-200,000	0,012	0,164
-253,336	338,008	-0,021	0,030
-252,322	-81,597	-0,061	-0,014
-251,307	-44,141	-0,103	0,037
-250,292	-133,636	0,092	0,008
-249,278	152,031	-0,183	0,181
-248,263	800,000	-0,033	0,067
-247,249	4,525	0,060	-0,032
-246,234	158,822	-0,045	-0,045
-245,219	244,890	-0,045	-0,054
-244,205	800,000	-0,044	-0,090
-243,190	-11,444	-0,012	-0,006
-242,176	-14,910	0,063	0,029
-241,161	-200,000	0,008	0,132
-240,146	332,718	-0,041	-0,057
-239,132	-136,100	0,147	0,012
-238,117	-200,000	0,013	-0,195
-237,103	-61,313	0,064	-0,019
-236,088	-137,457	-0,045	-0,004
-235,073	-19,220	-0,185	-0,083
-234,059	453,865	0,113	0,182
-233,044	800,000	-0,003	-0,006
-232,030	-200,000	-0,005	0,051
-231,015	131,082	-0,120	0,112
-230,000	-200,000	-0,021	-0,094
-228,986	-96,002	-0,077	0,015
-227,971	174,290	0,060	-0,063
-226,957	-13,055	-0,070	0,033
-225,942	14,073	0,062	-0,035
-224,927	30,650	-0,077	-0,047
-223,913	687,362	0,063	-0,120
-222,898	47,076	-0,047	0,032
-221,884	-175,050	-0,133	-0,003
-220,869	346,512	-0,118	-0,168
-219,855	-24,140	0,049	0,021
-218,840	222,973	0,041	0,048
-217,825	154,546	-0,085	-0,085
-216,811	-174,836	0,055	-0,001
-215,796	53,902	-0,167	-0,116
-214,782	114,028	0,049	0,043
-213,767	546,674	0,032	0,055
-212,752	281,114	-0,025	0,032
-211,738	442,399	-0,034	0,054
-210,723	4,430	0,104	0,055
-209,709	-3,449	-0,095	-0,047
-208,694	17,018	0,067	0,038
-207,679	77,712	0,030	-0,023
-206,665	800,000	0,033	0,089
-205,650	-200,000	0,029	0,113
-204,636	188,850	0,012	0,013
-203,621	206,553	0,084	-0,095
-202,606	-200,000	0,014	-0,101
-201,592	534,482	-0,042	-0,073
-200,577	494,423	-0,053	-0,088
-199,563	-1,298	-0,009	0,004
-198,548	-200,000	0,011	0,119
-197,533	-79,309	0,201	0,049
-196,519	428,483	-0,078	0,122
-195,504	157,784	0,095	-0,095
-194,490	-46,721	-0,117	-0,041
-193,475	474,172	-0,018	-0,030
-192,460	-81,324	-0,014	-0,003
-191,446	-160,600	0,078	-0,003
-190,431	28,058	0,079	0,048
-189,417	45,135	-0,078	0,051
-188,402	-43,211	0,062	-0,022
-187,387	-15,168	-0,039	-0,018
-186,373	374,652	0,047	0,069
-185,358	344,591	-0,035	-0,049
-184,344	209,363	-0,102	0,115
-183,329	-104,328	0,154	0,026
-182,315	-200,000	0,030	0,109
-181,300	-200,000	-0,008	-0,049
-180,285	-40,125	-0,080	0,030
-179,271	-52,929	-0,057	-0,019
-178,256	162,919	0,088	-0,089
-177,242	19,298	0,106	-0,061
-176,227	493,293	0,032	0,052
-175,212	187,340	0,041	-0,045
-174,198	302,934	0,093	0,125
-173,183	306,338	-0,071	-0,095
-172,169	92,577	-0,129	-0,105
-171,154	-112,724	0,122	-0,017
-170,139	-200,000	-0,016	-0,065
-169,125	-84,352	0,164	0,037
-168,110	1,771	0,185	-0,096
-167,096	53,834	-0,020	0,014
-166,081	200,154	0,091	-0,100
-165,066	127,429	-0,085	-0,078
-164,052	800,000	-0,011	0,027
-163,037	-9,743	-0,056	-0,027
-162,023	-200,000	-0,046	0,226
-161,008	235,672	0,027	0,032
-159,993	-10,266	-0,101	0,048
-158,979	35,337	-0,081	-0,051
-157,964	-200,000	-0,015	-0,150
-156,950	539,854	-0,022	-0,037
-155,935	-200,000	0,005	-0,015
-154,920	-65,591	0,025	-0,007
-153,906	-200,000	0,008	-0,075
-152,891	20,407	-0,084	0,049
-151,877	134,497	0,063	-0,059
-150,862	-200,000	0,002	-0,157
-149,847	86,595	0,041	0,032
-148,833	138,120	-0,107	-0,101
-147,818	537,479	-0,004	0,007
-146,804	38,209	-0,149	0,095
-145,789	-200,000	0,026	0,118
-144,775	-200,000	-0,007	0,125
-143,760	800,000	0,029	-0,059
-142,745	126,089	-0,086	-0,078
-141,731	-101,063	-0,024	-0,004
-140,716	-112,254	0,105	0,015
-139,702	485,682	-0,027	0,045
-138,687	-82,823	0,117	0,027
-137,672	-75,334	0,218	-0,056
-136,658	288,871	-0,045	-0,058
-135,643	-85,398	0,033	-0,007
-134,629	-37,123	-0,100	-0,038
-133,614	-60,524	0,125	0,038
-132,599	150,236	0,025	0,024
-131,585	15,952	-0,131	-0,074
-130,570	-9,497	-0,006	-0,003
-129,556	-89,552	0,076	-0,016
-128,541	-35,082	-0,121	-0,047
-127,526	10,478	-0,032	-0,017
-126,512	800,000	0,027	0,066
-125,497	158,555	0,127	0,127
-124,483	-200,000	0,004	0,149
-123,468	800,000	0,026	-0,075
-122,453	-79,263	-0,144	0,035
-121,439	-200,000	0,027	-0,089
-120,424	-121,747	0,036	0,004
-119,410	-200,000	0,018	-0,151
