DTS Sentinel unit serial number:	SN410029Multiplexer serial number:	ORYXHardware model number:	OX2-SRSoftware version number:	ORYX F/W v4,00 Oryx Data Collector v3.7.2.0data status	okinstallation	B5 Nyhavnadifferential loss correction	single-endedforward channel	channel 2reverse channel	N/Adate	2023/12/12time	01:57:13forward acquisition time	300,00reverse acquisition time	0,00gamma	499,1914k internal	0,3157k external	0,3157temperature offset calibration	1,0000default loss term (dB/km)	0,3820temperature slope calibration	1,0000multiplexer offset coefficient	1,0000multiplexer slope coefficient	1,0000fibre end	0,00T internal ref (°C)	15,84T ext. ref 1 (°C)	-0,63T ext. ref 2 (°C)	-0,90length (m)	temperature (°C)	Stokes	anti-Stokes-744,400	438,769	0,047	0,076
-743,385	-187,125	-0,257	0,003
-742,371	66,012	0,113	-0,084
-741,356	-167,736	-0,228	0,007
-740,342	670,144	0,047	0,091
-739,327	-2,552	-0,312	0,161
-738,312	98,197	0,075	-0,064
-737,298	-90,315	-0,313	-0,066
-736,283	-127,781	0,095	-0,010
-735,269	-28,184	-0,212	-0,090
-734,254	68,521	-0,044	-0,033
-733,239	-35,960	-0,594	-0,236
-732,225	-64,301	0,191	-0,057
-731,210	301,426	-0,081	-0,111
-730,196	-200,000	-0,007	-0,102
-729,181	168,452	-0,086	-0,090
-728,167	209,460	0,122	-0,141
-727,152	-177,815	0,102	0,002
-726,137	-115,653	-0,079	-0,011
-725,123	425,853	-0,011	-0,018
-724,108	-200,000	-0,028	-0,187
-723,094	-200,000	-0,014	0,078
-722,079	-126,997	-0,209	-0,022
-721,064	-200,000	0,018	0,183
-720,050	800,000	-0,031	0,082
-719,035	110,216	0,034	0,030
-718,021	-87,644	0,026	-0,006
-717,006	198,604	-0,075	0,084
-715,991	-200,000	0,000	-0,106
-714,977	-70,936	-0,150	-0,041
-713,962	-200,000	0,034	-0,121
-712,948	71,798	-0,080	-0,061
-711,933	-86,225	0,098	0,022
-710,918	23,946	0,020	0,012
-709,904	-75,235	0,053	-0,014
-708,889	-184,187	-0,213	0,003
-707,875	-200,000	-0,011	-0,071
-706,860	800,000	0,030	-0,082
-705,845	-200,000	-0,019	0,069
-704,831	-37,389	-0,085	0,033
-703,816	800,000	-0,049	0,119
-702,802	-13,540	-0,016	0,008
-701,787	-200,000	-0,038	-0,158
-700,772	35,642	0,087	-0,056
-699,758	112,841	0,011	-0,010
-698,743	-48,502	0,130	0,046
-697,729	715,311	-0,009	-0,017
-696,714	-200,000	0,029	-0,155
-695,699	180,466	-0,056	-0,061
-694,685	-200,000	0,027	-0,103
-693,670	-200,000	0,014	-0,112
-692,656	-152,885	0,125	0,006
-691,641	-113,467	-0,059	0,008
-690,627	67,168	0,110	0,082
-689,612	26,570	0,036	-0,022
-688,597	-37,594	-0,068	0,026
-687,583	34,592	-0,082	-0,053
-686,568	-200,000	0,005	0,028
-685,554	-200,000	0,004	-0,118
-684,539	-27,517	0,063	0,027
-683,524	800,000	0,036	0,079
-682,510	-15,088	0,048	0,022
-681,495	187,756	0,085	-0,094
-680,481	-33,046	0,119	-0,048
-679,466	-145,991	-0,158	-0,010
-678,451	-200,000	-0,004	-0,064
-677,437	-200,000	0,010	-0,142
-676,422	-44,904	0,089	0,033
-675,408	74,419	-0,068	-0,053
-674,393	152,574	0,112	0,113
-673,378	158,109	-0,097	-0,099
-672,364	-131,459	0,091	-0,009
-671,349	321,564	0,029	0,041
-670,335	313,387	0,092	-0,127
-669,320	9,511	0,067	0,037
-668,305	-200,000	0,049	0,177
-667,291	271,735	0,012	-0,016
-666,276	130,054	0,076	0,072
-665,262	421,807	-0,048	-0,077
-664,247	151,458	-0,071	0,072
-663,232	-13,210	-0,052	-0,025
-662,218	152,093	0,048	0,049
-661,203	88,284	-0,125	0,102
-660,189	148,304	-0,027	0,027
-659,174	-29,608	-0,040	-0,017
-658,159	-62,210	0,015	-0,005
-657,145	314,706	-0,066	-0,092
-656,130	714,411	-0,033	0,065
-655,116	-142,353	-0,073	0,005
-654,101	200,523	-0,039	0,044
-653,086	-8,543	0,156	-0,077
-652,072	-74,108	-0,110	-0,029
-651,057	361,064	-0,132	-0,195
-650,043	-200,000	0,010	-0,037
-649,028	-200,000	-0,022	-0,152
-648,014	183,918	0,092	0,100
-646,999	255,494	-0,089	0,112
-645,984	800,000	-0,036	0,079
-644,970	800,000	-0,003	-0,010
-643,955	-200,000	-0,002	-0,022
-642,941	-46,455	-0,029	-0,010
-641,926	125,520	-0,087	-0,081
-640,911	-113,694	0,136	-0,019
-639,897	-21,520	0,123	-0,055
-638,882	800,000	0,009	0,026
-637,868	-37,972	-0,141	-0,055
-636,853	-200,000	-0,017	0,125
-635,838	114,749	-0,101	-0,090
-634,824	270,405	0,044	0,057
-633,809	-200,000	-0,018	0,096
-632,795	-200,000	0,019	-0,088
-631,780	538,360	-0,061	-0,108
-630,765	183,788	0,046	-0,051
-629,751	113,865	-0,058	-0,052
-628,736	-200,000	-0,011	-0,035
-627,722	-200,000	-0,017	-0,183
-626,707	45,730	0,071	-0,048
-625,692	48,503	-0,022	-0,015
-624,678	-200,000	0,007	-0,024
-623,663	800,000	-0,033	0,073
-622,649	-200,000	0,038	0,129
-621,634	257,321	-0,036	0,046
-620,619	-144,451	-0,205	0,014
-619,605	198,222	0,012	0,013
-618,590	48,756	0,087	0,060
-617,576	-33,765	0,068	0,027
-616,561	-200,000	0,009	0,091
-615,546	-200,000	-0,001	-0,056
-614,532	441,750	-0,008	0,013
-613,517	-125,505	-0,070	0,008
-612,503	731,843	-0,050	0,098
-611,488	-200,000	-0,008	0,060
-610,474	6,353	-0,093	0,051
-609,459	-200,000	0,012	0,175
-608,444	800,000	0,024	0,053
-607,430	361,580	0,032	0,047
-606,415	-87,095	-0,096	0,021
-605,401	-200,000	0,009	0,082
-604,386	800,000	-0,020	0,061
-603,371	-4,414	0,053	-0,027
-602,357	357,516	-0,098	0,144
-601,342	-98,807	-0,088	0,016
-600,328	340,990	0,070	-0,100
-599,313	-200,000	-0,018	-0,065
-598,298	114,562	-0,131	-0,117
-597,284	-200,000	0,025	-0,100
-596,269	110,095	-0,129	-0,114
-595,255	88,176	-0,085	0,069
-594,240	169,162	0,011	-0,011
-593,225	204,876	-0,117	-0,134
-592,211	-200,000	-0,012	-0,222
-591,196	61,961	0,077	0,056
-590,182	-68,791	0,123	-0,035
-589,167	-42,990	-0,065	0,024
-588,152	-146,626	-0,045	0,003
-587,138	-200,000	0,014	-0,097
-586,123	-10,176	-0,109	-0,053
-585,109	-121,319	-0,048	0,006
-584,094	800,000	0,021	-0,051
-583,079	-200,000	-0,022	0,104
-582,065	280,623	-0,037	-0,049
-581,050	-9,495	0,105	0,051
-580,036	-106,315	-0,215	-0,035
-579,021	800,000	0,014	0,039
-578,006	428,790	0,041	-0,065
-576,992	45,364	-0,045	-0,030
-575,977	47,691	-0,214	0,146
-574,963	54,598	-0,041	-0,029
-573,948	-130,445	0,102	-0,010
-572,934	-200,000	-0,014	-0,108
-571,919	462,192	-0,084	-0,138
-570,904	304,484	-0,098	-0,134
-569,890	800,000	0,041	-0,095
-568,875	32,053	-0,065	-0,041
-567,861	800,000	0,024	-0,057
-566,846	21,600	0,118	-0,070
-565,831	-61,795	-0,077	0,023
-564,817	429,924	-0,063	-0,100
-563,802	648,481	-0,045	-0,084
-562,788	32,230	-0,052	0,033
-561,773	-200,000	0,012	-0,179
-560,758	434,524	-0,051	0,082
-559,744	52,973	-0,042	-0,029
-558,729	614,226	-0,072	0,132
-557,715	-192,117	-0,032	-0,000
-556,700	800,000	-0,029	0,089
-555,685	0,678	0,162	0,084
-554,671	417,044	-0,103	-0,162
-553,656	48,786	0,057	0,039
-552,642	115,889	0,065	-0,058
-551,627	434,708	-0,034	-0,055
-550,612	3,856	0,075	0,040
-549,598	289,772	0,036	0,048
-548,583	481,419	-0,029	-0,048
-547,569	-6,822	-0,085	-0,042
-546,554	166,392	-0,069	-0,072
-545,539	106,256	-0,099	-0,086
-544,525	-188,001	0,123	0,001
-543,510	283,097	-0,053	-0,070
-542,496	514,332	-0,079	-0,135
-541,481	800,000	0,047	-0,128
-540,466	163,669	0,045	-0,047
-539,452	261,759	0,021	0,026
-538,437	-200,000	-0,012	0,088
-537,423	348,665	0,092	-0,133
-536,408	95,413	0,121	0,101
-535,393	566,943	-0,024	-0,043
-534,379	-200,000	0,024	0,125
-533,364	500,282	-0,088	-0,149
-532,350	-200,000	0,007	-0,094
-531,335	-200,000	-0,031	-0,141
-530,321	-39,677	0,048	-0,018
-529,306	178,285	-0,060	0,064
-528,291	-48,222	0,055	-0,019
-527,277	178,112	0,074	-0,079
-526,262	-200,000	0,004	-0,098
-525,248	324,716	-0,052	-0,073
-524,233	42,555	0,035	0,023
-523,218	-34,815	-0,069	-0,028
-522,204	16,257	0,059	0,034
-521,189	79,475	-0,147	0,115
-520,175	177,198	-0,014	-0,015
-519,160	102,851	-0,045	-0,039
-518,145	-200,000	0,007	0,053
-517,131	160,131	0,101	0,103
-516,116	131,777	0,127	0,119
-515,102	-200,000	0,002	0,040
-514,087	41,702	-0,059	0,039
-513,072	-200,000	-0,000	-0,028
-512,058	756,362	-0,050	0,099
-511,043	-200,000	0,025	0,128
-510,029	-43,654	0,081	-0,030
-509,014	-200,000	0,030	0,106
-507,999	49,659	-0,133	-0,092
-506,985	-200,000	0,020	-0,148
-505,970	800,000	-0,010	0,025
-504,956	-78,655	0,044	0,011
-503,941	202,431	-0,065	-0,074
-502,926	176,675	0,088	0,093
-501,912	-200,000	0,023	0,126
-500,897	-200,000	0,005	0,060
-499,883	58,094	-0,081	-0,058
-498,868	800,000	0,023	-0,075
-497,853	800,000	-0,091	-0,208
-496,839	-200,000	0,023	-0,113
-495,824	231,009	-0,046	0,056
-494,810	-161,923	0,063	-0,002
-493,795	53,027	-0,051	-0,036
-492,781	140,890	0,036	0,035
-491,766	-143,139	-0,041	0,003
-490,751	800,000	-0,068	-0,170
-489,737	800,000	0,021	0,052
-488,722	800,000	-0,040	0,105
-487,708	-47,492	0,060	-0,021
-486,693	-200,000	-0,011	0,078
-485,678	12,273	0,096	-0,054
-484,664	270,483	0,035	0,045
-483,649	-107,145	0,084	0,013
-482,635	340,384	0,027	0,038
-481,620	-19,724	0,122	0,055
-480,605	-200,000	0,001	-0,016
-479,591	-124,810	-0,090	-0,010
-478,576	15,685	-0,035	-0,020
-477,562	-48,365	-0,063	-0,022
-476,547	-200,000	0,024	-0,229
-475,532	-29,770	-0,052	-0,021
-474,518	800,000	0,077	-0,171
-473,503	800,000	-0,058	0,130
-472,489	-134,108	0,181	0,016
-471,474	-200,000	-0,006	0,074
-470,459	25,841	0,037	0,022
-469,445	800,000	0,011	0,033
-468,430	-71,626	-0,170	0,046
-467,416	23,986	-0,127	-0,077
-466,401	730,702	0,039	0,077
-465,386	-3,992	-0,100	0,050
-464,372	-91,209	0,077	-0,016
-463,357	-91,026	0,028	-0,006
-462,343	-144,177	-0,137	-0,009
-461,328	547,527	-0,045	-0,080
-460,313	253,539	-0,047	0,059
-459,299	425,017	-0,031	-0,049
-458,284	398,625	0,088	0,135
-457,270	-200,000	0,026	-0,087
-456,255	109,832	0,105	0,092
-455,241	800,000	-0,032	0,070
-454,226	333,276	-0,039	-0,054
-453,211	800,000	0,064	0,149
-452,197	294,156	0,052	0,069
-451,182	800,000	0,064	-0,139
-450,168	-200,000	-0,019	0,066
-449,153	-80,165	0,076	-0,018
-448,138	-52,310	-0,093	0,031
-447,124	691,392	0,061	-0,117
-446,109	-200,000	-0,010	-0,041
-445,095	15,197	-0,089	0,051
-444,080	668,687	0,067	-0,128
-443,065	505,631	-0,048	0,082
-442,051	-57,768	-0,215	0,068
-441,036	-200,000	-0,014	-0,092
-440,022	800,000	-0,011	-0,029
-439,007	258,780	0,044	0,055
-437,992	-4,914	0,086	-0,043
-436,978	487,988	-0,031	-0,052
-435,963	177,353	0,050	-0,053
-434,949	514,981	0,082	0,141
-433,934	-93,911	-0,134	0,027
-432,919	-200,000	-0,029	-0,098
-431,905	337,517	-0,070	0,100
-430,890	23,005	-0,110	0,066
-429,876	-94,880	-0,033	0,006
-428,861	65,026	0,056	0,041
-427,846	-164,009	-0,023	0,001
-426,832	800,000	-0,057	0,143
-425,817	-191,391	-0,029	0,000
-424,803	-193,661	0,028	-0,000
-423,788	-200,000	0,035	-0,120
-422,773	64,771	0,101	0,074
-421,759	-138,260	0,014	-0,001
-420,744	800,000	0,032	-0,088
-419,730	-48,519	0,034	0,012
-418,715	-147,116	-0,140	-0,009
-417,701	-121,360	0,029	0,003
-416,686	800,000	0,034	0,100
-415,671	75,180	0,063	0,048
-414,657	56,187	-0,032	0,023
-413,642	800,000	0,059	-0,145
-412,628	-200,000	-0,038	-0,146
-411,613	-50,144	0,041	-0,014
-410,598	189,077	-0,102	-0,111
-409,584	-103,770	0,091	0,015
-408,569	800,000	0,010	0,026
-407,555	-111,949	-0,062	-0,009
-406,540	296,932	0,104	0,140
-405,525	221,789	0,029	0,033
-404,511	540,116	-0,061	-0,107
-403,496	568,971	-0,064	-0,113
-402,482	-6,415	-0,072	0,036
-401,467	-100,581	0,133	0,024
-400,452	800,000	0,047	-0,104
-399,438	259,338	-0,013	0,017
-398,423	-51,713	0,136	0,046
-397,409	800,000	-0,047	-0,132
-396,394	-7,711	-0,018	0,009
-395,379	-200,000	-0,001	-0,006
-394,365	689,994	0,037	-0,071
-393,350	96,761	-0,008	0,007
-392,336	362,175	-0,071	-0,104
-391,321	127,256	-0,039	-0,036
-390,306	-74,310	0,090	-0,024
-389,292	-200,000	-0,004	-0,111
-388,277	800,000	-0,062	-0,126
-387,263	-138,608	0,091	-0,007
-386,248	97,130	0,059	-0,050
-385,233	-200,000	0,002	-0,024
-384,219	-4,874	-0,111	-0,055
-383,204	287,846	-0,070	0,093
-382,190	-19,994	0,037	0,016
-381,175	-200,000	-0,014	-0,071
-380,160	-200,000	-0,004	0,050
-379,146	332,488	0,081	0,113
-378,131	20,296	-0,095	0,056
-377,117	741,162	0,057	0,112
-376,102	-66,530	0,024	-0,007
-375,088	-200,000	-0,008	0,088
-374,073	-200,000	0,019	-0,069
-373,058	-200,000	-0,011	-0,196
-372,044	-75,648	-0,060	-0,016
-371,029	687,171	0,064	0,121
-370,015	231,260	0,009	-0,011
-369,000	261,376	-0,035	-0,044
-367,985	558,934	0,035	-0,061
-366,971	-200,000	-0,011	0,073
-365,956	-19,484	-0,085	0,038
-364,942	96,410	-0,046	-0,038
-363,927	-30,693	0,167	0,068
-362,912	-200,000	0,057	-0,000
-361,898	581,649	0,051	-0,091
-360,883	-15,232	-0,048	0,022
-359,869	276,314	0,055	0,071
-358,854	-35,806	-0,135	-0,053
-357,839	65,105	0,082	0,060
-356,825	128,728	-0,076	0,070
-355,810	-98,624	-0,097	-0,018
-354,796	306,700	0,051	-0,070
-353,781	537,546	-0,101	-0,175
-352,766	-200,000	-0,001	0,091
-351,752	374,540	0,022	0,033
-350,737	800,000	0,020	0,047
-349,723	-200,000	-0,043	0,187
-348,708	-129,762	0,088	-0,009
-347,693	800,000	0,038	-0,081
-346,679	52,142	-0,065	-0,045
-345,664	-186,063	0,079	-0,001
-344,650	-46,781	-0,048	-0,017
-343,635	-133,387	0,063	0,006
-342,620	-120,699	0,102	-0,012
-341,606	-200,000	0,024	0,085
-340,591	10,575	0,153	0,084
-339,577	390,470	-0,124	-0,187
-338,562	-40,955	-0,071	-0,026
-337,548	-200,000	0,011	-0,069
-336,533	-200,000	-0,017	0,088
-335,518	-200,000	0,011	-0,090
-334,504	-34,160	0,060	-0,024
-333,489	-1,852	-0,125	0,064
-332,475	65,127	0,072	-0,052
-331,460	58,583	0,114	0,081
-330,445	509,949	-0,037	0,063
-329,431	800,000	0,003	-0,010
-328,416	-200,000	-0,018	0,092
-327,402	800,000	-0,098	0,248
-326,387	800,000	-0,050	-0,151
-325,372	615,528	-0,073	-0,133
-324,358	406,716	-0,046	-0,070
-323,343	-200,000	-0,002	-0,146
-322,329	-89,620	-0,010	0,002
-321,314	-44,131	0,127	0,046
-320,299	-200,000	0,001	0,013
-319,285	482,284	-0,085	0,140
-318,270	718,863	0,047	0,092
-317,256	215,734	0,058	0,067
-316,241	-200,000	0,002	0,054
-315,226	-18,568	0,085	0,038
-314,212	-200,000	-0,006	0,128
-313,197	-200,000	0,023	0,135
-312,183	-34,998	-0,072	0,029
-311,168	-74,783	-0,014	0,004
-310,153	-129,345	-0,024	-0,002
-309,139	103,359	0,067	-0,057
-308,124	246,244	0,031	0,038
-307,110	250,366	-0,072	-0,089
-306,095	-20,953	0,035	-0,015
-305,080	-200,000	-0,008	0,049
-304,066	-200,000	0,034	0,234
-303,051	122,861	-0,026	-0,024
-302,037	454,202	0,073	0,118
-301,022	-56,856	0,082	-0,026
-300,008	-200,000	0,031	0,181
-298,993	136,410	0,101	0,095
-297,978	800,000	-0,029	0,073
-296,964	157,348	-0,008	0,008
-295,949	-200,000	-0,002	-0,031
-294,935	258,019	-0,060	-0,075
-293,920	-200,000	0,033	-0,123
-292,905	247,887	0,089	0,109
-291,891	800,000	-0,050	-0,109
-290,876	150,515	-0,048	0,047
-289,862	800,000	-0,041	0,115
-288,847	-200,000	0,007	-0,094
-287,832	-200,000	-0,002	-0,107
-286,818	-140,659	0,100	-0,007
-285,803	800,000	-0,062	0,180
-284,789	581,421	0,040	0,070
-283,774	800,000	-0,028	0,090
-282,759	-200,000	-0,003	-0,015
-281,745	121,475	0,047	0,043
-280,730	-16,867	-0,050	-0,023
-279,716	177,353	-0,057	0,060
-278,701	-9,875	0,022	0,010
-277,686	339,417	-0,103	0,145
-276,672	-158,757	0,110	0,004
-275,657	800,000	0,061	-0,163
-274,643	-34,230	0,059	-0,023
-273,628	-200,000	-0,032	-0,151
-272,613	800,000	-0,006	-0,014
-271,599	140,101	0,083	0,079
-270,584	593,969	0,020	0,037
-269,570	146,125	0,051	-0,050
-268,555	186,997	-0,033	0,035
-267,540	734,634	-0,019	0,037
-266,526	257,312	0,082	0,102
-265,511	-12,908	-0,075	-0,035
-264,497	80,090	0,040	0,031
-263,482	280,999	0,020	-0,026
-262,467	-107,230	0,085	0,013
-261,453	776,515	0,022	-0,044
-260,438	800,000	-0,064	-0,178
-259,424	-102,123	0,071	0,012
-258,409	22,822	-0,061	-0,036
-257,395	-163,260	-0,105	-0,004
-256,380	440,870	0,046	0,073
-255,365	4,506	0,040	-0,021
-254,351	-92,630	0,044	0,009
-253,336	528,827	0,055	-0,094
-252,322	-134,198	-0,162	-0,014
-251,307	-49,330	0,073	0,025
-250,292	80,070	-0,112	0,087
-249,278	56,222	0,145	0,102
-248,263	-50,830	0,040	0,014
-247,249	278,453	0,086	-0,111
-246,234	-200,000	-0,030	-0,098
-245,219	91,017	-0,032	-0,026
-244,205	101,315	0,109	0,092
-243,190	-200,000	0,052	0,175
-242,176	800,000	0,025	0,074
-241,161	781,090	-0,059	0,117
-240,146	-112,924	0,147	0,021
-239,132	12,246	-0,011	0,006
-238,117	-87,017	-0,113	-0,025
-237,103	224,691	0,055	-0,065
-236,088	283,599	0,055	-0,072
-235,073	-16,044	-0,120	0,055
-234,059	-200,000	-0,010	0,098
-233,044	-141,385	-0,087	-0,006
-232,030	540,969	0,029	-0,050
-231,015	800,000	0,007	0,021
-230,000	-83,465	-0,106	-0,024
-228,986	-35,937	0,075	-0,029
-227,971	-200,000	-0,021	0,069
-226,957	-98,208	0,099	0,018
-225,942	286,827	0,042	-0,054
-224,927	-52,124	0,106	0,035
-223,913	24,430	0,098	0,059
-222,898	-3,586	-0,174	-0,087
-221,884	-200,000	-0,001	-0,027
-220,869	-67,358	0,167	0,047
-219,855	800,000	0,027	0,057
-218,840	-200,000	-0,005	0,134
-217,825	-200,000	0,051	0,173
-216,811	800,000	0,027	-0,077
-215,796	7,424	-0,171	0,092
-214,782	69,260	0,104	0,077
-213,767	-200,000	0,007	0,040
-212,752	-200,000	0,001	-0,042
-211,738	213,726	0,059	-0,068
-210,723	-5,383	-0,121	0,060
-209,709	-200,000	0,008	-0,079
-208,694	128,039	0,059	-0,054
-207,679	-141,419	-0,137	-0,010
-206,665	-200,000	0,000	-0,080
-205,650	124,439	0,066	-0,060
-204,636	-200,000	-0,003	0,019
-203,621	-2,914	-0,093	0,047
-202,606	248,250	-0,058	-0,071
-201,592	259,044	-0,028	0,034
-200,577	-96,856	-0,061	-0,011
-199,563	-117,629	0,212	-0,027
-198,548	800,000	-0,015	-0,048
-197,533	190,687	0,089	0,097
-196,519	124,258	0,150	0,136
-195,504	-54,337	0,035	0,011
-194,490	-16,356	0,149	0,068
-193,475	-98,256	0,054	-0,010
-192,460	237,060	-0,083	0,100
-191,446	98,811	-0,014	-0,012
-190,431	800,000	-0,025	0,062
-189,417	-77,347	-0,089	0,022
-188,402	363,852	0,054	0,078
-187,387	159,186	-0,112	-0,112
-186,373	149,949	-0,133	-0,130
-185,358	-200,000	0,009	-0,183
-184,344	-200,000	0,029	0,132
-183,329	39,405	0,062	-0,040
-182,315	-84,411	0,029	0,007
-181,300	-104,297	0,080	-0,013
-180,285	706,840	0,046	-0,089
-179,271	800,000	0,059	-0,146
-178,256	70,328	0,053	0,040
-177,242	-47,158	0,194	-0,068
-176,227	765,475	-0,029	-0,056
-175,212	800,000	0,049	0,111
-174,198	20,032	-0,144	0,084
-173,183	23,553	-0,047	0,028
-172,169	-200,000	0,001	0,016
-171,154	-45,915	-0,082	0,029
-170,139	-119,874	-0,005	0,001
-169,125	-141,290	0,048	0,004
-168,110	719,882	0,007	0,014
-167,096	-200,000	-0,002	0,034
-166,081	169,051	0,126	-0,130
-165,066	98,939	-0,059	-0,049
-164,052	-28,443	0,092	-0,038
-163,037	464,704	-0,062	0,101
-162,023	800,000	-0,008	0,018
-161,008	-163,807	0,171	0,006
-159,993	-200,000	-0,009	0,050
-158,979	359,061	0,040	0,058
-157,964	-88,218	-0,134	0,029
-156,950	800,000	-0,066	0,144
-155,935	84,377	0,091	-0,071
-154,920	-114,573	0,136	0,019
-153,906	49,929	0,087	0,059
-152,891	-115,241	-0,116	0,016
-151,877	474,728	-0,041	-0,066
-150,862	-17,235	-0,056	0,025
-149,847	800,000	0,018	0,045
-148,833	-200,000	0,002	0,046
-147,818	-200,000	-0,030	-0,125
-146,804	800,000	0,031	0,066
-145,789	3,296	-0,048	0,025
-144,775	-113,359	-0,147	-0,021
-143,760	-200,000	-0,008	-0,037
-142,745	-5,468	-0,157	-0,077
-141,731	-200,000	0,004	0,029
-140,716	800,000	-0,007	-0,018
-139,702	588,371	0,047	0,085
-138,687	22,267	-0,012	0,007
-137,672	-148,049	0,132	0,008
-136,658	286,215	0,051	-0,067
-135,643	-59,906	-0,028	-0,009
-134,629	-151,899	0,103	-0,005
-133,614	-200,000	0,008	-0,032
-132,599	589,772	-0,042	0,075
-131,585	606,005	0,086	0,154
-130,570	-97,025	-0,115	0,021
-129,556	-90,131	-0,083	0,017
-128,541	502,929	-0,016	-0,026
-127,526	535,923	0,073	0,125
-126,512	-13,548	0,102	-0,047
-125,497	800,000	-0,014	-0,039
-124,483	-68,763	0,092	0,025
-123,468	-65,797	0,090	0,026
-122,453	-89,593	0,002	-0,000
-121,439	-200,000	-0,004	-0,020
-120,424	-19,924	0,053	-0,024
-119,410	-200,000	0,020	-0,068
