DTS Sentinel unit serial number:	SN410029Multiplexer serial number:	ORYXHardware model number:	OX2-SRSoftware version number:	ORYX F/W v4,00 Oryx Data Collector v3.7.2.0data status	okinstallation	B5 Nyhavnadifferential loss correction	single-endedforward channel	channel 2reverse channel	N/Adate	2023/12/13time	00:27:13forward acquisition time	300,00reverse acquisition time	0,00gamma	499,1914k internal	0,3159k external	0,3159temperature offset calibration	1,0000default loss term (dB/km)	0,3820temperature slope calibration	1,0000multiplexer offset coefficient	1,0000multiplexer slope coefficient	1,0000fibre end	0,00T internal ref (°C)	14,27T ext. ref 1 (°C)	-2,23T ext. ref 2 (°C)	-2,57length (m)	temperature (°C)	Stokes	anti-Stokes-744,400	73,255	0,065	0,050
-743,385	-62,110	-0,344	-0,105
-742,371	-73,073	0,200	-0,054
-741,356	-131,485	-0,224	0,021
-740,342	21,356	0,112	0,067
-739,327	-113,111	-0,113	0,016
-738,312	448,569	-0,040	0,066
-737,298	-151,054	-0,316	0,017
-736,283	445,440	0,118	0,191
-735,269	5,786	-0,186	-0,101
-734,254	198,349	0,087	0,099
-733,239	10,582	-0,446	-0,250
-732,225	-166,102	0,193	0,006
-731,210	-11,122	-0,035	-0,017
-730,196	76,541	-0,051	-0,040
-729,181	-136,860	-0,057	0,005
-728,167	-104,161	-0,062	0,011
-727,152	-200,000	0,008	0,078
-726,137	-28,058	-0,164	-0,070
-725,123	-200,000	-0,014	-0,071
-724,108	-5,002	-0,132	-0,067
-723,094	-200,000	-0,050	-0,194
-722,079	-39,088	0,061	0,024
-721,064	407,876	-0,050	-0,078
-720,050	-15,673	-0,132	-0,062
-719,035	-84,670	-0,076	0,018
-718,021	-43,155	-0,123	-0,045
-717,006	-13,081	-0,145	0,069
-715,991	774,900	-0,011	-0,023
-714,977	-200,000	0,005	-0,034
-713,962	-200,000	-0,056	-0,208
-712,948	265,643	0,067	-0,087
-711,933	476,571	0,021	0,034
-710,918	-200,000	0,008	-0,095
-709,904	-200,000	-0,003	-0,082
-708,889	-72,485	0,069	-0,019
-707,875	-200,000	0,015	-0,102
-706,860	-100,493	0,020	0,004
-705,845	-0,267	0,132	0,069
-704,831	-8,041	0,103	0,051
-703,816	25,167	-0,105	-0,064
-702,802	-77,160	-0,058	0,015
-701,787	54,912	-0,058	-0,041
-700,772	-32,036	-0,098	0,040
-699,758	560,464	0,022	0,039
-698,743	76,597	0,045	-0,035
-697,729	52,370	0,117	-0,082
-696,714	-200,000	-0,014	-0,067
-695,699	136,049	0,021	0,020
-694,685	433,202	0,044	-0,070
-693,670	181,084	-0,028	-0,030
-692,656	26,490	-0,101	-0,062
-691,641	-200,000	-0,011	0,054
-690,627	-129,585	0,050	0,005
-689,612	-86,488	-0,037	-0,008
-688,597	800,000	-0,048	-0,138
-687,583	26,731	-0,118	-0,072
-686,568	800,000	-0,036	-0,102
-685,554	95,717	0,037	0,031
-684,539	5,595	0,138	-0,075
-683,524	171,062	0,056	0,060
-682,510	408,809	-0,073	0,115
-681,495	800,000	0,043	-0,094
-680,481	-200,000	-0,040	-0,166
-679,466	-200,000	0,005	0,027
-678,451	108,941	0,001	-0,001
-677,437	188,277	0,018	0,020
-676,422	94,372	0,101	-0,084
-675,408	736,107	0,005	0,010
-674,393	-68,194	-0,028	-0,008
-673,378	135,276	0,048	-0,046
-672,364	289,823	-0,038	-0,051
-671,349	-200,000	0,012	-0,096
-670,335	-200,000	-0,002	-0,176
-669,320	800,000	0,023	-0,054
-668,305	800,000	-0,038	-0,111
-667,291	-200,000	-0,023	0,087
-666,276	346,310	-0,121	-0,175
-665,262	-133,944	0,103	0,009
-664,247	800,000	0,042	-0,122
-663,232	-31,566	0,056	0,023
-662,218	800,000	0,045	0,103
-661,203	-41,948	-0,048	-0,018
-660,189	-74,363	0,092	-0,024
-659,174	53,709	-0,106	-0,074
-658,159	-200,000	-0,006	0,150
-657,145	154,838	-0,029	0,029
-656,130	-23,666	0,145	-0,064
-655,116	800,000	0,029	-0,088
-654,101	-52,886	0,111	0,037
-653,086	26,050	-0,104	0,064
-652,072	800,000	0,077	-0,162
-651,057	-109,154	-0,176	0,027
-650,043	-200,000	-0,002	-0,078
-649,028	-200,000	0,019	-0,108
-648,014	2,118	-0,052	-0,028
-646,999	-158,094	0,120	0,005
-645,984	263,725	-0,062	0,079
-644,970	-5,458	-0,063	0,032
-643,955	643,275	0,059	-0,111
-642,941	421,064	-0,057	-0,090
-641,926	116,137	0,049	-0,044
-640,911	15,871	0,053	-0,030
-639,897	763,253	-0,043	-0,086
-638,882	352,682	-0,017	0,025
-637,868	242,154	-0,024	-0,029
-636,853	28,139	-0,134	-0,083
-635,838	-51,412	-0,170	0,058
-634,824	236,779	-0,062	-0,076
-633,809	800,000	-0,048	-0,132
-632,795	197,243	0,084	0,094
-631,780	136,372	0,087	-0,083
-630,765	-129,261	-0,078	-0,008
-629,751	176,696	-0,075	0,080
-628,736	1,083	-0,075	0,040
-627,722	800,000	0,065	-0,176
-626,707	349,946	-0,057	-0,083
-625,692	-180,146	0,116	-0,002
-624,678	-200,000	-0,043	0,145
-623,663	88,489	-0,086	-0,070
-622,649	-200,000	-0,014	-0,110
-621,634	220,864	-0,140	-0,165
-620,619	-40,770	-0,064	-0,024
-619,605	18,942	0,145	-0,085
-618,590	540,691	0,061	-0,107
-617,576	36,312	-0,035	0,023
-616,561	182,652	0,070	-0,076
-615,546	800,000	-0,011	-0,023
-614,532	-14,447	-0,111	0,052
-613,517	-145,411	-0,186	-0,012
-612,503	93,955	-0,037	-0,031
-611,488	800,000	0,042	0,135
-610,474	-40,023	0,155	0,059
-609,459	131,648	-0,090	-0,085
-608,444	-65,459	-0,073	0,021
-607,430	53,556	0,035	-0,025
-606,415	39,127	-0,085	-0,055
-605,401	536,964	0,019	-0,033
-604,386	384,778	0,041	0,063
-603,371	197,961	0,051	-0,058
-602,357	208,931	0,093	0,107
-601,342	-94,848	0,016	0,003
-600,328	800,000	-0,094	-0,208
-599,313	-133,331	-0,145	-0,013
-598,298	181,969	0,070	0,075
-597,284	-200,000	0,013	0,127
-596,269	-108,820	0,047	0,007
-595,255	46,786	-0,028	-0,019
-594,240	-200,000	0,007	0,047
-593,225	800,000	0,022	0,050
-592,211	-97,409	0,066	0,012
-591,196	800,000	-0,016	0,046
-590,182	-81,539	-0,098	0,023
-589,167	655,307	-0,103	-0,194
-588,152	248,524	-0,028	0,035
-587,138	-200,000	-0,027	0,108
-586,123	53,588	-0,068	0,048
-585,109	131,255	0,055	-0,052
-584,094	-115,695	0,061	0,008
-583,079	800,000	0,028	-0,066
-582,065	-143,540	0,122	0,008
-581,050	-200,000	-0,002	0,042
-580,036	9,370	-0,090	-0,050
-579,021	73,574	-0,056	-0,043
-578,006	-118,615	-0,020	-0,003
-576,992	-21,781	-0,045	0,020
-575,977	-87,429	0,070	-0,015
-574,963	-200,000	0,012	0,148
-573,948	48,606	-0,036	0,024
-572,934	69,478	-0,034	-0,026
-571,919	800,000	-0,067	-0,160
-570,904	-200,000	-0,026	-0,106
-569,890	-13,117	-0,128	-0,061
-568,875	120,840	-0,008	0,008
-567,861	-32,417	0,037	-0,015
-566,846	-200,000	-0,001	-0,025
-565,831	-200,000	0,026	-0,104
-564,817	141,947	-0,057	-0,056
-563,802	169,805	-0,066	0,069
-562,788	-105,644	-0,052	-0,009
-561,773	-66,174	0,094	-0,027
-560,758	409,138	-0,016	-0,025
-559,744	538,454	0,032	0,057
-558,729	620,267	0,036	0,067
-557,715	-200,000	-0,009	-0,129
-556,700	-200,000	0,003	-0,040
-555,685	-39,817	-0,032	0,012
-554,671	-200,000	-0,017	0,062
-553,656	100,072	0,118	0,100
-552,642	-128,868	0,090	-0,009
-551,627	800,000	0,011	-0,028
-550,612	-132,499	-0,084	-0,008
-549,598	-5,675	0,083	-0,042
-548,583	-54,685	-0,085	-0,028
-547,569	218,993	-0,034	0,040
-546,554	-200,000	0,007	-0,110
-545,539	-54,836	-0,018	-0,006
-544,525	800,000	0,048	-0,105
-543,510	105,277	0,041	0,036
-542,496	418,613	-0,031	0,049
-541,481	86,312	0,050	-0,041
-540,466	-137,914	-0,090	-0,007
-539,452	-200,000	0,011	0,053
-538,437	112,526	0,146	0,129
-537,423	800,000	-0,035	-0,074
-536,408	-200,000	-0,020	-0,085
-535,393	-100,988	-0,101	-0,018
-534,379	-200,000	0,019	0,138
-533,364	-200,000	0,001	0,012
-532,350	-31,872	0,065	0,027
-531,335	13,131	0,062	-0,035
-530,321	-200,000	0,022	0,112
-529,306	-200,000	0,013	0,096
-528,291	-138,241	-0,028	0,002
-527,277	24,373	-0,084	-0,050
-526,262	-110,056	0,054	0,008
-525,248	-12,271	-0,054	-0,026
-524,233	248,516	-0,053	0,066
-523,218	-101,857	0,102	0,018
-522,204	11,075	-0,144	-0,080
-521,189	256,980	-0,033	0,041
-520,175	-200,000	-0,007	-0,052
-519,160	-200,000	-0,005	0,137
-518,145	66,866	0,046	0,034
-517,131	217,356	0,068	0,080
-516,116	60,633	0,061	0,044
-515,102	-131,528	0,148	-0,014
-514,087	-122,346	-0,135	0,016
-513,072	-200,000	-0,025	-0,176
-512,058	292,991	0,073	0,097
-511,043	-34,870	0,028	-0,011
-510,029	45,547	-0,097	0,066
-509,014	284,710	0,074	0,098
-507,999	-200,000	0,040	0,131
-506,985	-56,439	0,136	-0,044
-505,970	-183,823	-0,154	-0,002
-504,956	185,303	-0,037	-0,040
-503,941	-53,812	-0,069	0,023
-502,926	800,000	0,032	-0,072
-501,912	376,698	0,063	0,094
-500,897	-200,000	-0,004	0,033
-499,883	123,038	-0,007	-0,006
-498,868	-29,388	-0,201	-0,084
-497,853	-155,277	-0,027	0,001
-496,839	86,601	0,070	-0,056
-495,824	-74,350	0,041	-0,011
-494,810	800,000	0,081	-0,222
-493,795	500,691	0,147	0,248
-492,781	226,641	-0,083	0,099
-491,766	106,833	-0,045	0,039
-490,751	-50,578	-0,162	-0,056
-489,737	20,014	0,128	0,075
-488,722	43,554	0,093	0,062
-487,708	25,962	0,214	0,130
-486,693	42,787	-0,055	-0,036
-485,678	59,326	0,109	0,078
-484,664	58,578	-0,065	0,046
-483,649	-200,000	-0,006	-0,031
-482,635	-200,000	0,003	-0,044
-481,620	-79,368	0,079	-0,019
-480,605	29,949	0,032	0,020
-479,591	-35,119	0,018	0,007
-478,576	345,684	-0,059	-0,084
-477,562	-108,485	0,244	0,038
-476,547	-144,583	0,047	0,003
-475,532	-139,099	0,183	0,014
-474,518	800,000	0,017	-0,043
-473,503	-200,000	-0,001	0,065
-472,489	-23,225	-0,072	-0,031
-471,474	363,093	0,055	-0,081
-470,459	-17,901	0,018	0,008
-469,445	-200,000	-0,051	-0,196
-468,430	-200,000	-0,015	0,061
-467,416	-200,000	0,006	0,094
-466,401	420,012	-0,026	0,041
-465,386	-200,000	0,005	0,068
-464,372	36,391	0,116	0,074
-463,357	-12,658	-0,092	0,044
-462,343	50,897	0,042	0,029
-461,328	471,844	-0,030	-0,050
-460,313	800,000	0,009	-0,022
-459,299	-127,756	0,146	0,015
-458,284	192,010	0,100	0,110
-457,270	29,122	-0,120	0,074
-456,255	20,842	0,043	-0,025
-455,241	-1,276	-0,119	-0,061
-454,226	-200,000	-0,003	-0,080
-453,211	-200,000	-0,025	-0,082
-452,197	194,042	0,054	0,060
-451,182	-46,007	0,066	0,024
-450,168	142,331	0,057	0,055
-449,153	-200,000	0,040	0,151
-448,138	-138,592	-0,104	0,008
-447,124	11,996	-0,105	0,059
-446,109	302,887	-0,090	-0,121
-445,095	-68,619	0,073	-0,020
-444,080	-83,487	0,031	0,007
-443,065	800,000	0,052	0,128
-442,051	269,223	0,073	0,093
-441,036	199,314	0,085	0,095
-440,022	601,931	-0,042	0,076
-439,007	-200,000	-0,011	0,144
-437,992	40,688	0,068	-0,045
-436,978	-1,188	0,025	-0,013
-435,963	642,253	0,035	-0,066
-434,949	55,253	-0,066	-0,047
-433,934	-26,403	-0,010	-0,004
-432,919	-200,000	0,011	-0,224
-431,905	-11,481	-0,094	-0,045
-430,890	-200,000	0,000	-0,092
-429,876	-200,000	0,002	0,082
-428,861	-85,389	-0,043	-0,010
-427,846	800,000	0,032	-0,080
-426,832	-99,392	0,036	-0,007
-425,817	-152,111	-0,179	-0,009
-424,803	-105,419	-0,119	-0,019
-423,788	249,316	0,061	0,075
-422,773	183,588	-0,073	-0,079
-421,759	-200,000	-0,001	-0,135
-420,744	190,032	-0,099	-0,108
-419,730	64,362	-0,095	0,070
-418,715	-158,789	0,007	0,000
-417,701	-200,000	0,010	-0,117
-416,686	-95,510	0,086	0,017
-415,671	90,789	0,052	-0,042
-414,657	-200,000	0,010	0,061
-413,642	440,675	0,066	0,105
-412,628	-130,354	0,084	-0,008
-411,613	-200,000	-0,004	-0,067
-410,598	800,000	-0,044	-0,133
-409,584	778,126	-0,051	-0,102
-408,569	736,900	0,013	0,025
-407,555	-200,000	0,022	-0,162
-406,540	-200,000	0,030	0,135
-405,525	-125,203	-0,048	0,005
-404,511	800,000	-0,056	-0,175
-403,496	-177,160	-0,044	-0,001
-402,482	-200,000	0,010	0,117
-401,467	364,870	-0,061	0,089
-400,452	-200,000	0,000	-0,005
-399,438	800,000	0,015	-0,039
-398,423	295,330	-0,080	-0,107
-397,409	-68,251	-0,096	0,027
-396,394	-200,000	0,013	-0,143
-395,379	800,000	0,029	0,070
-394,365	82,168	0,062	-0,049
-393,350	800,000	0,064	0,159
-392,336	-98,158	0,069	-0,013
-391,321	-200,000	0,005	-0,031
-390,306	465,708	-0,091	-0,149
-389,292	-196,796	-0,043	0,000
-388,277	224,511	-0,015	-0,018
-387,263	-121,878	0,171	0,020
-386,248	180,335	-0,064	0,069
-385,233	-200,000	0,016	0,074
-384,219	-129,788	0,082	-0,008
-383,204	-200,000	0,007	0,092
-382,190	-200,000	0,002	0,106
-381,175	-120,889	-0,123	0,015
-380,160	-200,000	0,014	-0,098
-379,146	-200,000	-0,012	0,049
-378,131	-71,328	-0,114	-0,031
-377,117	-200,000	-0,018	-0,079
-376,102	-200,000	0,013	0,119
-375,088	-200,000	-0,022	0,111
-374,073	56,618	-0,097	-0,069
-373,058	253,416	0,077	0,096
-372,044	168,947	-0,056	0,058
-371,029	203,605	0,001	-0,001
-370,015	-132,781	0,145	0,013
-369,000	60,797	-0,045	0,032
-367,985	800,000	-0,012	-0,033
-366,971	40,376	-0,045	0,029
-365,956	-200,000	0,010	0,073
-364,942	110,654	0,076	0,066
-363,927	-2,313	0,057	-0,029
-362,912	-34,092	-0,035	-0,014
-361,898	-161,718	-0,175	0,006
-360,883	-47,767	0,098	-0,034
-359,869	-45,563	-0,014	0,005
-358,854	85,397	-0,085	0,067
-357,839	800,000	-0,056	0,153
-356,825	318,260	-0,050	0,069
-355,810	356,878	-0,095	-0,138
-354,796	-200,000	0,027	-0,102
-353,781	800,000	-0,045	-0,092
-352,766	-7,260	0,096	0,047
-351,752	16,713	-0,063	0,036
-350,737	512,403	0,072	0,123
-349,723	-78,919	0,063	0,016
-348,708	800,000	0,017	0,034
-347,693	800,000	-0,047	-0,135
-346,679	-99,260	-0,192	-0,035
-345,664	-200,000	0,001	0,038
-344,650	674,834	-0,053	0,101
-343,635	-90,625	-0,080	0,017
-342,620	633,226	-0,009	-0,017
-341,606	-88,473	-0,090	0,019
-340,591	-200,000	0,019	-0,094
-339,577	61,546	-0,052	-0,037
-338,562	-200,000	-0,012	-0,046
-337,548	-200,000	-0,007	0,122
-336,533	-37,547	0,097	-0,037
-335,518	-200,000	0,017	0,107
-334,504	-200,000	0,041	0,176
-333,489	-200,000	-0,002	0,013
-332,475	159,039	-0,049	-0,050
-331,460	42,461	-0,066	0,043
-330,445	-200,000	-0,008	-0,092
-329,431	-97,586	0,114	-0,021
-328,416	57,704	0,130	-0,092
-327,402	-92,382	0,099	-0,020
-326,387	800,000	-0,038	-0,105
-325,372	515,710	-0,102	-0,173
-324,358	54,599	0,048	-0,033
-323,343	215,693	-0,093	0,108
-322,329	-200,000	0,016	0,129
-321,314	-200,000	0,007	0,032
-320,299	91,301	-0,033	0,027
-319,285	50,978	-0,104	0,071
-318,270	-200,000	0,005	-0,113
-317,256	-65,784	-0,192	0,055
-316,241	15,799	-0,099	0,057
-315,226	676,867	0,044	-0,082
-314,212	-83,179	0,127	-0,029
-313,197	145,914	-0,077	0,075
-312,183	800,000	-0,008	-0,025
-311,168	437,608	0,024	-0,039
-310,153	-200,000	0,013	-0,091
-309,139	-146,016	0,075	0,005
-308,124	-200,000	-0,007	-0,048
-307,110	-200,000	0,003	-0,145
-306,095	-200,000	0,047	0,182
-305,080	159,704	-0,080	0,081
-304,066	800,000	0,034	0,089
-303,051	-200,000	-0,013	0,130
-302,037	-200,000	0,043	0,155
-301,022	324,563	0,064	0,089
-300,008	185,708	-0,022	0,024
-298,993	273,770	0,046	-0,059
-297,978	-200,000	0,007	-0,027
-296,964	261,239	-0,032	0,041
-295,949	800,000	0,027	-0,064
-294,935	27,186	0,035	-0,022
-293,920	179,006	0,050	0,053
-292,905	104,956	0,142	0,121
-291,891	800,000	-0,030	0,065
-290,876	157,299	-0,023	-0,023
-289,862	294,395	-0,129	-0,171
-288,847	-125,313	0,090	0,010
-287,832	800,000	-0,007	0,021
-286,818	237,226	0,010	0,012
-285,803	470,622	0,103	0,168
-284,789	-200,000	-0,005	-0,063
-283,774	12,504	0,047	-0,026
-282,759	54,180	0,090	-0,062
-281,745	5,389	-0,098	0,052
-280,730	-3,608	0,116	0,058
-279,716	54,234	0,115	0,080
-278,701	391,421	0,072	-0,109
-277,686	251,444	0,057	0,071
-276,672	-200,000	0,030	0,131
-275,657	-107,495	0,040	0,006
-274,643	127,020	0,023	0,021
-273,628	53,542	-0,160	-0,111
-272,613	800,000	0,032	-0,076
-271,599	-200,000	0,022	-0,081
-270,584	-200,000	0,008	0,031
-269,570	-200,000	0,008	-0,096
-268,555	-200,000	0,004	0,057
-267,540	23,748	-0,116	-0,069
-266,526	365,011	0,104	-0,153
-265,511	-81,288	0,122	0,029
-264,497	-49,431	-0,104	0,036
-263,482	800,000	0,028	0,079
-262,467	800,000	0,043	0,120
-261,453	800,000	0,031	0,088
-260,438	196,026	0,067	0,074
-259,424	-19,323	-0,093	0,041
-258,409	-39,404	-0,016	-0,006
-257,395	-131,046	-0,044	0,004
-256,380	562,305	0,030	-0,053
-255,365	800,000	0,039	-0,080
-254,351	281,424	-0,027	-0,036
-253,336	-41,985	-0,060	0,022
-252,322	800,000	0,023	-0,059
-251,307	-200,000	0,019	-0,103
-250,292	800,000	0,017	0,048
-249,278	293,458	0,091	0,120
-248,263	800,000	0,007	0,022
-247,249	124,856	0,064	-0,058
-246,234	-200,000	0,013	-0,049
-245,219	800,000	0,006	0,017
-244,205	112,413	0,056	-0,049
-243,190	-5,736	-0,053	0,026
-242,176	800,000	-0,015	0,047
-241,161	12,507	-0,155	0,086
-240,146	-38,795	0,069	0,026
-239,132	800,000	0,001	0,002
-238,117	-79,663	-0,062	-0,015
-237,103	800,000	0,079	-0,168
-236,088	-200,000	0,006	0,089
-235,073	86,362	0,114	0,091
-234,059	540,897	-0,016	-0,027
-233,044	29,858	-0,136	-0,084
-232,030	800,000	0,030	-0,088
-231,015	-167,505	0,104	-0,003
-230,000	-142,958	-0,080	0,005
-228,986	800,000	0,028	-0,070
-227,971	-56,611	-0,048	0,015
-226,957	525,084	0,049	0,083
-225,942	216,824	-0,020	-0,023
-224,927	-137,675	-0,058	-0,005
-223,913	676,137	0,042	0,079
-222,898	-100,879	-0,201	-0,035
-221,884	62,700	0,013	0,009
-220,869	-135,828	-0,032	-0,003
-219,855	-90,282	0,110	-0,023
-218,840	203,275	0,031	-0,035
-217,825	315,028	0,043	-0,059
-216,811	41,157	-0,100	-0,065
-215,796	-200,000	-0,021	-0,108
-214,782	58,280	-0,067	-0,048
-213,767	-200,000	0,004	0,067
-212,752	-200,000	0,029	0,121
-211,738	-61,001	-0,095	0,029
-210,723	800,000	-0,025	0,052
-209,709	-71,382	0,070	0,019
-208,694	517,337	0,037	0,063
-207,679	-64,525	-0,034	0,010
-206,665	-200,000	-0,000	-0,042
-205,650	373,724	0,102	0,151
-204,636	-71,759	-0,070	-0,019
-203,621	19,807	0,113	-0,066
-202,606	0,614	-0,069	0,036
-201,592	633,870	-0,043	-0,079
-200,577	30,911	-0,083	0,051
-199,563	32,253	0,100	-0,062
-198,548	-8,283	0,097	0,047
-197,533	82,845	0,118	0,092
-196,519	-200,000	-0,006	0,051
-195,504	-200,000	0,014	-0,066
-194,490	-11,696	-0,050	-0,023
-193,475	32,273	0,063	0,039
-192,460	604,268	-0,024	0,044
-191,446	-200,000	0,016	-0,062
-190,431	-200,000	-0,004	0,092
-189,417	308,979	0,023	0,031
-188,402	88,918	0,087	0,070
-187,387	-110,503	-0,133	-0,020
-186,373	-200,000	0,018	-0,104
-185,358	200,929	-0,025	0,028
-184,344	185,646	0,079	-0,085
-183,329	-200,000	0,018	0,116
-182,315	-121,207	0,075	-0,009
-181,300	-200,000	-0,016	-0,084
-180,285	-200,000	-0,002	0,069
-179,271	-114,239	0,126	-0,017
-178,256	-200,000	0,001	0,006
-177,242	368,914	0,015	-0,022
-176,227	-200,000	-0,005	0,041
-175,212	-200,000	-0,008	-0,034
-174,198	-116,311	-0,089	-0,012
-173,183	-114,989	-0,156	0,021
-172,169	548,612	0,070	-0,121
-171,154	800,000	-0,038	-0,104
-170,139	-200,000	0,006	0,025
-169,125	-23,911	0,103	0,044
-168,110	800,000	-0,050	0,116
-167,096	-53,159	0,025	0,008
-166,081	232,549	0,070	-0,083
-165,066	-200,000	-0,006	-0,064
-164,052	338,415	-0,041	-0,058
-163,037	39,685	0,117	0,075
-162,023	-1,618	-0,041	0,021
-161,008	723,823	-0,061	0,117
-159,993	102,930	0,143	0,120
-158,979	31,098	-0,133	-0,082
-157,964	204,277	-0,022	-0,025
-156,950	34,968	0,041	-0,026
-155,935	113,996	0,055	-0,048
-154,920	800,000	-0,028	-0,075
-153,906	421,726	-0,060	-0,093
-152,891	-200,000	0,013	-0,060
-151,877	-200,000	-0,021	0,077
-150,862	-50,366	0,051	0,017
-149,847	-60,347	0,119	0,036
-148,833	15,994	0,050	0,028
-147,818	404,468	0,042	0,064
-146,804	-73,156	-0,124	-0,033
-145,789	340,514	0,048	0,068
-144,775	-200,000	0,024	0,079
-143,760	-56,510	-0,125	-0,040
-142,745	189,107	0,033	0,036
-141,731	-73,195	0,045	-0,012
-140,716	-148,928	0,049	0,003
-139,702	-44,983	0,135	0,048
-138,687	-121,212	-0,169	-0,020
-137,672	800,000	0,057	-0,153
-136,658	-200,000	-0,011	0,162
-135,643	-200,000	0,014	-0,061
-134,629	-200,000	0,044	0,144
-133,614	525,969	0,048	0,081
-132,599	-138,349	0,182	-0,014
-131,585	-136,037	0,133	0,011
-130,570	800,000	0,021	-0,062
-129,556	-106,237	-0,187	0,030
-128,541	5,060	-0,107	-0,056
-127,526	28,018	-0,055	0,033
-126,512	80,799	0,068	0,053
-125,497	-200,000	0,002	0,013
-124,483	-200,000	0,041	-0,133
-123,468	-200,000	-0,000	-0,093
-122,453	-200,000	-0,017	-0,132
-121,439	800,000	0,002	-0,006
-120,424	152,223	-0,100	-0,098
-119,410	800,000	0,071	-0,173
-118,395	-65,388	0,191	-0,055
