DTS Sentinel unit serial number:	SN410029Multiplexer serial number:	ORYXHardware model number:	OX2-SRSoftware version number:	ORYX F/W v4,00 Oryx Data Collector v3.7.2.0data status	okinstallation	B5 Nyhavnadifferential loss correction	single-endedforward channel	channel 2reverse channel	N/Adate	2023/12/13time	03:02:13forward acquisition time	300,00reverse acquisition time	0,00gamma	499,1914k internal	0,3160k external	0,3160temperature offset calibration	1,0000default loss term (dB/km)	0,3820temperature slope calibration	1,0000multiplexer offset coefficient	1,0000multiplexer slope coefficient	1,0000fibre end	0,00T internal ref (°C)	13,99T ext. ref 1 (°C)	-2,46T ext. ref 2 (°C)	-2,78length (m)	temperature (°C)	Stokes	anti-Stokes-744,400	-131,515	0,027	0,003
-743,385	-133,438	-0,274	-0,025
-742,371	173,057	0,097	0,103
-741,356	-76,297	-0,299	0,077
-740,342	-136,011	0,167	0,014
-739,327	-174,532	-0,355	-0,007
-738,312	-125,087	0,129	0,014
-737,298	-73,850	-0,359	-0,095
-736,283	111,896	0,233	0,207
-735,269	-112,002	-0,301	-0,044
-734,254	-191,468	0,085	-0,001
-733,239	2,439	-0,559	-0,297
-732,225	-124,559	0,204	0,023
-731,210	205,921	0,091	0,105
-730,196	-185,199	-0,132	-0,001
-729,181	135,298	-0,057	-0,055
-728,167	-6,742	0,111	-0,055
-727,152	131,651	-0,050	-0,047
-726,137	-140,225	-0,005	0,000
-725,123	20,844	-0,130	-0,077
-724,108	797,606	-0,070	-0,143
-723,094	800,000	0,014	0,031
-722,079	-44,570	0,062	0,023
-721,064	-39,838	0,064	0,024
-720,050	-26,351	-0,082	-0,035
-719,035	-17,626	0,053	-0,024
-718,021	164,367	-0,091	0,095
-717,006	-106,633	0,151	-0,024
-715,991	-19,362	-0,158	-0,072
-714,977	554,929	-0,024	-0,042
-713,962	-123,461	-0,093	-0,011
-712,948	-71,129	-0,141	-0,039
-711,933	-76,522	0,068	-0,018
-710,918	-200,000	0,010	-0,121
-709,904	-38,826	-0,184	-0,071
-708,889	800,000	-0,010	-0,028
-707,875	-200,000	0,000	0,027
-706,860	-200,000	-0,034	0,126
-705,845	536,139	-0,048	0,085
-704,831	455,951	-0,029	0,047
-703,816	-200,000	0,000	-0,063
-702,802	404,390	-0,040	0,062
-701,787	376,641	-0,027	-0,041
-700,772	139,357	-0,094	0,091
-699,758	95,908	-0,051	0,043
-698,743	-158,131	0,121	0,005
-697,729	-10,387	-0,140	-0,068
-696,714	800,000	-0,009	0,019
-695,699	299,959	-0,102	-0,139
-694,685	70,645	0,060	0,045
-693,670	-91,364	-0,118	0,025
-692,656	-142,591	0,073	-0,005
-691,641	-108,192	-0,047	-0,007
-690,627	-200,000	-0,033	0,155
-689,612	800,000	-0,042	-0,098
-688,597	12,133	0,057	0,032
-687,583	109,597	-0,087	-0,077
-686,568	-115,631	-0,060	0,008
-685,554	-62,665	0,095	-0,029
-684,539	-200,000	-0,006	0,078
-683,524	424,525	0,017	0,026
-682,510	-200,000	-0,004	-0,076
-681,495	-91,619	0,064	-0,013
-680,481	-89,901	-0,025	0,005
-679,466	77,423	0,069	-0,054
-678,451	800,000	0,042	-0,093
-677,437	383,772	-0,068	-0,104
-676,422	259,341	0,044	0,055
-675,408	259,623	0,083	0,106
-674,393	-142,151	-0,073	0,005
-673,378	168,654	-0,082	-0,086
-672,364	12,094	-0,060	-0,034
-671,349	166,519	-0,090	0,094
-670,335	-200,000	0,010	-0,060
-669,320	299,223	0,040	0,054
-668,305	427,507	-0,090	-0,143
-667,291	247,072	-0,012	-0,015
-666,276	-108,583	-0,112	0,017
-665,262	-200,000	-0,018	-0,225
-664,247	-200,000	0,031	-0,138
-663,232	23,463	-0,119	-0,071
-662,218	-34,159	0,046	-0,018
-661,203	127,423	-0,069	-0,065
-660,189	177,298	0,069	0,074
-659,174	294,869	-0,063	-0,085
-658,159	-200,000	-0,023	-0,124
-657,145	-200,000	0,026	-0,181
-656,130	-92,986	0,026	0,005
-655,116	699,124	-0,037	0,072
-654,101	132,441	-0,107	0,101
-653,086	800,000	0,013	0,030
-652,072	-26,418	-0,097	0,042
-651,057	-1,093	0,027	0,014
-650,043	314,655	-0,024	0,034
-649,028	-200,000	-0,024	0,110
-648,014	800,000	0,055	0,137
-646,999	800,000	0,058	0,159
-645,984	222,102	0,039	0,046
-644,970	-115,059	-0,124	0,017
-643,955	800,000	0,042	-0,096
-642,941	21,877	-0,083	-0,050
-641,926	776,671	-0,013	-0,026
-640,911	800,000	-0,009	0,020
-639,897	-200,000	0,021	0,068
-638,882	800,000	0,021	-0,056
-637,868	-90,616	-0,051	-0,011
-636,853	-114,638	-0,116	-0,016
-635,838	-200,000	0,027	-0,121
-634,824	-200,000	-0,008	0,090
-633,809	229,680	0,137	0,164
-632,795	-88,516	0,146	0,032
-631,780	-133,540	0,069	-0,006
-630,765	-200,000	-0,064	-0,218
-629,751	-13,984	-0,099	-0,047
-628,736	-155,954	-0,171	0,008
-627,722	-78,141	-0,049	-0,012
-626,707	-200,000	-0,010	0,093
-625,692	206,773	0,065	0,075
-624,678	-56,651	-0,109	-0,035
-623,663	-200,000	-0,007	0,043
-622,649	-119,176	-0,019	-0,002
-621,634	77,089	-0,034	0,027
-620,619	-6,860	0,053	0,026
-619,605	-44,554	-0,086	-0,031
-618,590	-27,979	0,073	-0,031
-617,576	-200,000	0,011	0,044
-616,561	-115,587	-0,076	0,010
-615,546	-18,450	-0,094	0,043
-614,532	351,496	-0,034	0,050
-613,517	-76,337	-0,034	-0,009
-612,503	-200,000	-0,003	0,046
-611,488	-200,000	0,002	-0,060
-610,474	470,342	-0,014	-0,023
-609,459	800,000	0,049	-0,107
-608,444	621,226	0,059	-0,108
-607,430	19,445	0,105	-0,062
-606,415	430,502	0,043	-0,069
-605,401	-200,000	-0,002	-0,129
-604,386	-200,000	0,006	0,085
-603,371	0,618	-0,115	0,060
-602,357	22,306	0,033	0,019
-601,342	-200,000	0,010	-0,137
-600,328	4,510	-0,012	0,006
-599,313	237,869	-0,113	-0,137
-598,298	124,601	-0,048	-0,044
-597,284	269,392	0,031	0,040
-596,269	48,305	0,097	0,066
-595,255	227,985	0,021	0,025
-594,240	-88,057	-0,083	-0,018
-593,225	-200,000	-0,033	-0,176
-592,211	431,596	-0,051	0,080
-591,196	255,586	0,043	-0,054
-590,182	75,857	-0,075	-0,058
-589,167	-174,168	-0,048	0,001
-588,152	800,000	-0,024	0,054
-587,138	-200,000	0,025	0,109
-586,123	186,009	-0,118	-0,129
-585,109	238,286	-0,094	-0,115
-584,094	-200,000	-0,028	0,120
-583,079	-200,000	0,023	0,172
-582,065	-200,000	-0,003	-0,036
-581,050	800,000	-0,051	0,136
-580,036	21,420	0,067	-0,040
-579,021	-200,000	0,007	0,054
-578,006	222,389	-0,147	-0,173
-576,992	800,000	0,024	-0,051
-575,977	-46,831	0,027	-0,010
-574,963	800,000	0,059	0,165
-573,948	69,831	-0,078	0,059
-572,934	-178,841	-0,082	0,001
-571,919	49,420	-0,084	-0,058
-570,904	800,000	0,037	-0,079
-569,890	52,881	0,116	-0,081
-568,875	-200,000	-0,004	0,045
-567,861	-108,595	0,066	-0,010
-566,846	374,803	-0,120	-0,180
-565,831	800,000	-0,038	-0,083
-564,817	800,000	0,010	-0,027
-563,802	128,030	0,050	-0,047
-562,788	800,000	0,039	-0,089
-561,773	-200,000	0,021	-0,071
-560,758	203,638	-0,018	0,020
-559,744	50,533	0,059	-0,041
-558,729	106,993	-0,158	0,138
-557,715	-44,350	0,061	0,022
-556,700	-43,851	0,053	-0,019
-555,685	-200,000	-0,020	0,067
-554,671	34,036	-0,065	-0,042
-553,656	15,918	-0,030	0,017
-552,642	-145,877	-0,058	0,004
-551,627	-122,747	-0,048	0,006
-550,612	-200,000	-0,123	0,000
-549,598	43,294	-0,124	-0,083
-548,583	259,284	-0,035	0,044
-547,569	-200,000	0,007	-0,083
-546,554	-153,487	0,120	0,006
-545,539	55,876	0,109	0,077
-544,525	296,378	-0,074	-0,100
-543,510	393,428	0,010	0,015
-542,496	197,691	-0,105	-0,117
-541,481	27,513	-0,003	0,002
-540,466	-115,972	0,107	-0,014
-539,452	-138,356	0,066	0,005
-538,437	144,809	0,080	0,078
-537,423	-200,000	-0,011	-0,129
-536,408	-40,307	-0,087	-0,033
-535,393	-200,000	0,028	-0,095
-534,379	-33,487	-0,063	0,025
-533,364	-8,115	-0,067	-0,033
-532,350	-200,000	-0,001	0,016
-531,335	-151,707	0,095	0,005
-530,321	-12,725	0,094	-0,045
-529,306	-75,908	-0,149	0,038
-528,291	276,613	0,035	0,045
-527,277	31,070	-0,061	0,038
-526,262	-200,000	0,030	-0,107
-525,248	800,000	0,042	0,116
-524,233	202,022	0,016	0,018
-523,218	800,000	0,043	-0,101
-522,204	61,797	-0,062	0,045
-521,189	-200,000	-0,003	0,112
-520,175	218,803	-0,101	-0,118
-519,160	58,074	-0,059	-0,043
-518,145	-10,027	0,078	-0,038
-517,131	-200,000	0,025	-0,104
-516,116	-200,000	0,015	-0,066
-515,102	-37,453	-0,038	0,015
-514,087	672,033	0,044	-0,084
-513,072	-200,000	0,010	0,103
-512,058	-65,462	-0,102	-0,030
-511,043	110,109	0,054	-0,047
-510,029	-200,000	-0,015	0,102
-509,014	-15,360	0,076	-0,035
-507,999	693,167	0,035	-0,068
-506,985	800,000	0,017	0,050
-505,970	-191,558	-0,127	0,001
-504,956	231,907	-0,033	-0,040
-503,941	650,661	0,060	-0,113
-502,926	66,143	-0,009	-0,007
-501,912	775,079	-0,047	-0,093
-500,897	532,044	-0,017	-0,030
-499,883	-200,000	0,023	-0,085
-498,868	-151,087	0,083	-0,004
-497,853	113,612	-0,115	-0,102
-496,839	-200,000	-0,027	-0,135
-495,824	-140,092	0,118	-0,009
-494,810	-22,807	0,133	0,058
-493,795	613,916	0,042	0,076
-492,781	373,233	-0,047	0,070
-491,766	-114,258	-0,079	0,011
-490,751	50,049	-0,127	-0,087
-489,737	-21,518	0,041	-0,018
-488,722	-78,191	-0,081	-0,020
-487,708	800,000	-0,035	-0,095
-486,693	249,187	0,075	-0,093
-485,678	-200,000	0,024	-0,125
-484,664	10,772	-0,119	-0,066
-483,649	307,943	0,049	-0,067
-482,635	139,217	0,144	0,138
-481,620	-200,000	0,002	0,060
-480,605	800,000	-0,045	0,111
-479,591	66,924	0,037	-0,028
-478,576	-0,702	0,017	0,009
-477,562	74,868	0,064	0,049
-476,547	800,000	-0,046	-0,101
-475,532	-68,675	-0,121	-0,034
-474,518	369,786	0,074	0,110
-473,503	-126,043	-0,097	-0,010
-472,489	30,518	0,083	-0,052
-471,474	-200,000	-0,013	0,048
-470,459	-59,495	0,081	0,025
-469,445	518,964	-0,009	-0,016
-468,430	-119,967	-0,049	-0,006
-467,416	-200,000	0,026	-0,104
-466,401	-10,623	0,055	-0,026
-465,386	-166,684	0,154	0,005
-464,372	-200,000	0,001	0,209
-463,357	514,823	-0,026	-0,045
-462,343	179,455	-0,066	0,070
-461,328	-132,871	0,090	0,008
-460,313	-75,238	0,086	0,022
-459,299	113,116	0,104	0,092
-458,284	38,298	0,032	0,021
-457,270	58,649	-0,135	0,096
-456,255	314,663	0,058	0,080
-455,241	-10,517	0,097	-0,047
-454,226	52,426	-0,063	0,044
-453,211	-200,000	0,022	-0,077
-452,197	84,538	0,077	0,062
-451,182	710,741	-0,045	0,088
-450,168	463,467	-0,028	0,045
-449,153	-101,077	0,032	-0,006
-448,138	-200,000	-0,027	-0,160
-447,124	508,256	-0,049	-0,083
-446,109	638,132	-0,009	0,017
-445,095	-200,000	-0,004	0,126
-444,080	-9,020	0,039	0,019
-443,065	800,000	0,006	-0,012
-442,051	659,016	-0,023	0,042
-441,036	-152,938	-0,084	0,004
-440,022	182,470	-0,060	-0,065
-439,007	206,174	-0,064	0,073
-437,992	165,201	0,079	0,081
-436,978	27,009	-0,118	0,072
-435,963	-68,433	0,055	-0,016
-434,949	800,000	0,025	0,067
-433,934	455,827	-0,086	-0,139
-432,919	-72,520	-0,098	0,026
-431,905	-200,000	-0,024	0,197
-430,890	-138,361	0,058	-0,005
-429,876	-102,977	0,162	0,028
-428,861	-200,000	-0,001	0,027
-427,846	140,011	-0,048	0,046
-426,832	3,181	0,031	0,016
-425,817	-200,000	-0,007	-0,037
-424,803	-200,000	-0,010	0,075
-423,788	-171,931	0,059	-0,001
-422,773	-200,000	0,000	0,141
-421,759	773,955	-0,007	-0,014
-420,744	266,029	0,075	0,096
-419,730	-200,000	-0,002	-0,095
-418,715	-200,000	-0,022	-0,118
-417,701	-173,455	0,074	-0,002
-416,686	800,000	0,008	0,018
-415,671	-34,434	0,129	0,051
-414,657	338,541	0,035	0,050
-413,642	-137,551	-0,139	0,011
-412,628	-23,119	-0,062	0,027
-411,613	-179,593	-0,172	-0,003
-410,598	278,069	0,054	-0,070
-409,584	83,463	-0,093	-0,074
-408,569	-146,514	-0,084	-0,005
-407,555	-46,814	-0,044	0,016
-406,540	-116,302	-0,125	0,017
-405,525	-16,854	-0,012	-0,006
-404,511	800,000	-0,014	0,044
-403,496	-27,235	-0,055	0,023
-402,482	114,160	0,104	0,092
-401,467	800,000	0,012	-0,032
-400,452	-200,000	0,003	0,034
-399,438	253,820	-0,034	0,042
-398,423	517,802	0,066	0,113
-397,409	202,919	-0,076	-0,085
-396,394	800,000	-0,031	-0,087
-395,379	-200,000	-0,037	-0,184
-394,365	-96,452	0,032	0,006
-393,350	-200,000	-0,008	-0,130
-392,336	181,350	-0,023	-0,024
-391,321	-200,000	-0,002	-0,076
-390,306	10,469	-0,024	0,013
-389,292	92,408	-0,057	-0,047
-388,277	427,768	-0,028	0,043
-387,263	-108,370	-0,064	0,010
-386,248	-200,000	-0,012	-0,076
-385,233	73,942	-0,092	-0,070
-384,219	100,367	-0,057	-0,048
-383,204	800,000	0,013	0,029
-382,190	60,355	-0,083	-0,059
-381,175	800,000	0,068	0,142
-380,160	-200,000	0,010	-0,056
-379,146	-157,416	0,070	-0,003
-378,131	660,225	-0,078	-0,147
-377,117	19,695	0,071	0,041
-376,102	-47,509	-0,110	-0,039
-375,088	-60,058	0,078	-0,024
-374,073	-200,000	-0,014	-0,126
-373,058	-40,984	-0,075	-0,028
-372,044	39,479	0,058	0,038
-371,029	800,000	-0,080	0,225
-370,015	-39,862	0,111	0,042
-369,000	-200,000	0,017	0,074
-367,985	-200,000	-0,008	-0,041
-366,971	800,000	-0,037	-0,113
-365,956	-102,144	0,113	0,020
-364,942	-200,000	-0,035	0,154
-363,927	-77,403	0,089	-0,022
-362,912	800,000	0,019	0,049
-361,898	-157,902	0,173	-0,007
-360,883	345,132	-0,046	-0,066
-359,869	738,882	0,026	-0,050
-358,854	-103,034	0,040	0,007
-357,839	-200,000	0,000	0,003
-356,825	-200,000	0,005	0,029
-355,810	-200,000	-0,001	0,013
-354,796	-23,672	0,059	-0,025
-353,781	107,750	0,042	-0,037
-352,766	33,768	-0,102	-0,064
-351,752	19,058	-0,106	-0,062
-350,737	-57,330	0,053	-0,017
-349,723	120,113	0,050	-0,045
-348,708	-200,000	-0,128	0,000
-347,693	37,768	0,044	-0,028
-346,679	184,921	-0,093	-0,100
-345,664	36,785	0,016	0,010
-344,650	-200,000	-0,004	0,115
-343,635	391,236	-0,084	0,127
-342,620	800,000	0,040	-0,099
-341,606	141,945	0,041	-0,039
-340,591	800,000	0,066	-0,136
-339,577	-200,000	-0,007	0,043
-338,562	-200,000	0,022	-0,154
-337,548	-200,000	0,008	0,062
-336,533	-166,957	-0,083	0,002
-335,518	-89,774	0,163	0,034
-334,504	-82,963	0,059	0,014
-333,489	-101,082	0,017	0,003
-332,475	800,000	-0,082	-0,167
-331,460	-132,771	0,052	0,005
-330,445	-162,628	0,084	0,003
-329,431	8,603	0,119	-0,065
-328,416	219,485	0,108	0,126
-327,402	406,196	0,125	0,191
-326,387	218,682	0,060	0,070
-325,372	-200,000	-0,024	-0,091
-324,358	143,320	-0,083	0,080
-323,343	21,685	0,041	-0,024
-322,329	-125,293	0,116	0,013
-321,314	800,000	0,081	0,179
-320,299	238,095	0,129	0,156
-319,285	728,068	-0,039	0,077
-318,270	-92,198	0,041	-0,008
-317,256	-92,274	0,149	-0,030
-316,241	-200,000	0,013	-0,103
-315,226	-115,470	0,113	-0,015
-314,212	21,233	0,117	0,069
-313,197	-200,000	-0,009	0,105
-312,183	-131,673	0,029	0,003
-311,168	-29,423	-0,098	0,040
-310,153	-74,805	-0,108	-0,028
-309,139	29,469	0,016	0,010
-308,124	-58,102	0,081	0,026
-307,110	230,351	-0,079	0,094
-306,095	-200,000	-0,027	0,148
-305,080	84,790	-0,068	-0,054
-304,066	-61,686	-0,147	0,044
-303,051	236,977	0,057	0,068
-302,037	-200,000	-0,002	0,090
-301,022	-200,000	-0,007	-0,034
-300,008	-200,000	0,009	0,178
-298,993	8,961	0,178	0,097
-297,978	-200,000	0,008	0,036
-296,964	800,000	-0,043	0,128
-295,949	-105,541	-0,102	0,017
-294,935	-74,406	-0,117	0,030
-293,920	-85,583	-0,070	0,016
-292,905	-39,801	-0,057	0,021
-291,891	-112,587	0,130	-0,019
-290,876	78,045	0,100	0,077
-289,862	-200,000	0,016	0,084
-288,847	-200,000	0,001	-0,045
-287,832	-200,000	0,028	-0,123
-286,818	-200,000	-0,039	-0,179
-285,803	35,186	-0,082	0,052
-284,789	7,725	0,132	0,071
-283,774	-200,000	0,018	0,205
-282,759	171,459	-0,058	0,060
-281,745	43,733	0,156	0,103
-280,730	-200,000	0,021	-0,152
-279,716	-96,733	0,195	0,037
-278,701	177,611	-0,065	0,068
-277,686	-126,864	0,154	0,016
-276,672	-116,018	-0,089	0,012
-275,657	-188,293	-0,032	-0,000
-274,643	569,863	-0,014	-0,025
-273,628	-200,000	0,002	-0,161
-272,613	365,277	-0,105	-0,154
-271,599	-47,516	0,138	0,048
-270,584	-78,314	0,064	0,016
-269,570	422,374	-0,029	-0,045
-268,555	-200,000	-0,014	-0,066
-267,540	-200,000	-0,036	-0,188
-266,526	2,106	0,104	0,054
-265,511	230,583	0,126	-0,150
-264,497	-45,399	-0,086	0,031
-263,482	205,785	-0,043	0,049
-262,467	53,847	0,147	0,102
-261,453	201,567	-0,067	-0,075
-260,438	-200,000	-0,011	-0,072
-259,424	15,414	0,105	0,060
-258,409	-200,000	-0,008	-0,051
-257,395	188,023	-0,035	0,038
-256,380	800,000	0,078	0,163
-255,365	-153,011	-0,091	0,005
-254,351	-153,584	-0,153	-0,008
-253,336	-119,463	-0,234	-0,029
-252,322	130,899	-0,030	-0,028
-251,307	800,000	-0,039	0,083
-250,292	157,930	-0,032	-0,032
-249,278	-200,000	0,012	-0,071
-248,263	-53,360	-0,044	0,015
-247,249	-200,000	-0,003	-0,097
-246,234	-176,639	-0,133	0,002
-245,219	-141,630	0,207	0,015
-244,205	-200,000	0,009	-0,050
-243,190	250,578	-0,085	-0,104
-242,176	-35,927	-0,142	-0,055
-241,161	800,000	-0,039	0,092
-240,146	-200,000	0,013	0,129
-239,132	-130,349	-0,173	0,017
-238,117	146,038	-0,100	-0,097
-237,103	-200,000	-0,025	-0,150
-236,088	800,000	0,021	0,060
-235,073	-105,562	0,100	0,016
-234,059	-200,000	0,019	0,101
-233,044	172,394	-0,029	-0,030
-232,030	800,000	-0,067	-0,150
-231,015	140,142	-0,049	-0,047
-230,000	16,199	-0,099	-0,056
-228,986	679,578	-0,070	-0,132
-227,971	165,335	-0,070	-0,071
-226,957	564,202	0,075	0,131
-225,942	800,000	0,039	0,109
-224,927	-52,715	-0,048	0,016
-223,913	-200,000	-0,012	0,038
-222,898	458,443	-0,067	-0,108
-221,884	-200,000	0,004	0,026
-220,869	352,434	0,030	0,043
-219,855	151,348	-0,024	0,023
-218,840	-162,801	0,045	0,002
-217,825	-200,000	0,026	0,161
-216,811	662,782	-0,019	-0,036
-215,796	-60,212	-0,045	-0,014
-214,782	-75,687	0,034	0,009
-213,767	-56,603	0,039	-0,012
-212,752	-14,100	0,027	0,013
-211,738	142,183	0,050	0,048
-210,723	76,792	0,149	0,114
-209,709	124,681	0,050	-0,045
-208,694	-74,087	0,187	-0,048
-207,679	3,951	0,034	-0,018
-206,665	-139,574	-0,052	-0,004
-205,650	-45,146	0,077	0,027
-204,636	-86,028	0,051	0,011
-203,621	134,942	-0,071	-0,067
-202,606	158,208	-0,059	-0,059
-201,592	20,717	-0,036	0,021
-200,577	-200,000	-0,004	-0,053
-199,563	-3,309	0,047	0,024
-198,548	-137,215	0,044	0,004
-197,533	43,806	0,145	0,095
-196,519	-200,000	0,019	0,079
-195,504	800,000	0,025	-0,054
-194,490	-2,843	-0,079	-0,040
-193,475	-200,000	0,018	-0,094
-192,460	-200,000	0,033	0,126
-191,446	-83,615	0,160	0,037
-190,431	205,036	0,157	0,176
-189,417	-200,000	-0,024	0,161
-188,402	143,271	-0,101	0,097
-187,387	581,147	-0,047	-0,084
-186,373	-200,000	-0,003	-0,009
-185,358	800,000	0,041	-0,083
-184,344	-131,318	0,006	-0,001
-183,329	-161,735	0,170	-0,006
-182,315	50,678	-0,054	-0,037
-181,300	-108,151	-0,058	0,009
-180,285	198,390	0,054	-0,059
-179,271	400,747	0,023	-0,035
-178,256	139,084	0,077	-0,073
-177,242	-200,000	0,008	0,101
-176,227	-200,000	0,031	0,189
-175,212	-200,000	0,001	0,021
-174,198	-200,000	0,016	0,125
-173,183	33,878	-0,133	0,083
-172,169	-200,000	0,000	-0,137
-171,154	218,221	0,048	-0,055
-170,139	-200,000	0,010	0,069
-169,125	800,000	0,037	0,095
-168,110	-37,919	-0,094	0,036
-167,096	13,843	-0,056	-0,031
-166,081	-200,000	0,010	-0,053
-165,066	15,019	-0,069	0,039
-164,052	800,000	-0,028	-0,061
-163,037	187,550	-0,092	-0,099
-162,023	-16,864	0,119	-0,054
-161,008	30,711	0,070	0,043
-159,993	-33,155	0,037	-0,015
-158,979	502,491	-0,056	-0,094
-157,964	296,122	-0,021	-0,028
-156,950	208,003	0,013	-0,014
-155,935	800,000	-0,038	-0,080
-154,920	196,190	0,132	0,145
-153,906	-200,000	0,012	0,066
-152,891	-126,772	0,069	-0,007
-151,877	-57,256	-0,121	-0,038
-150,862	137,205	-0,080	-0,076
-149,847	400,919	0,041	0,062
-148,833	-200,000	-0,013	-0,045
-147,818	-137,231	0,147	-0,012
-146,804	46,120	-0,088	-0,058
-145,789	36,337	0,112	-0,071
-144,775	152,966	-0,019	0,019
-143,760	152,946	-0,054	0,053
-142,745	706,517	0,026	-0,050
-141,731	-34,713	0,171	-0,067
-140,716	-161,606	-0,148	-0,005
-139,702	363,894	0,011	0,016
-138,687	177,697	0,075	-0,079
-137,672	49,755	-0,118	0,080
-136,658	-99,396	-0,007	-0,001
-135,643	-200,000	-0,025	0,082
-134,629	8,094	-0,088	0,047
-133,614	50,069	0,090	0,061
-132,599	-200,000	-0,003	-0,017
-131,585	-122,336	0,175	-0,020
-130,570	396,937	0,067	0,101
-129,556	-200,000	0,006	-0,030
-128,541	-200,000	0,004	-0,024
-127,526	436,592	0,100	0,157
-126,512	-145,490	0,104	0,007
-125,497	34,054	0,062	-0,039
-124,483	-36,677	-0,053	-0,020
-123,468	241,620	0,029	-0,035
-122,453	-200,000	-0,002	-0,142
-121,439	-200,000	0,000	-0,080
-120,424	-120,129	-0,057	0,007
