DTS Sentinel unit serial number:	SN410029Multiplexer serial number:	ORYXHardware model number:	OX2-SRSoftware version number:	ORYX F/W v4,00 Oryx Data Collector v3.7.2.0data status	okinstallation	B5 Nyhavnadifferential loss correction	single-endedforward channel	channel 2reverse channel	N/Adate	2023/12/13time	11:07:13forward acquisition time	300,00reverse acquisition time	0,00gamma	499,1914k internal	0,3160k external	0,3160temperature offset calibration	1,0000default loss term (dB/km)	0,3820temperature slope calibration	1,0000multiplexer offset coefficient	1,0000multiplexer slope coefficient	1,0000fibre end	0,00T internal ref (°C)	13,70T ext. ref 1 (°C)	-2,46T ext. ref 2 (°C)	-2,76length (m)	temperature (°C)	Stokes	anti-Stokes-744,400	33,299	-0,032	-0,021
-743,385	-115,225	-0,322	-0,044
-742,371	116,852	0,026	0,024
-741,356	-64,398	-0,322	0,096
-740,342	287,406	0,101	0,135
-739,327	-10,759	-0,306	-0,149
-738,312	280,946	0,052	0,068
-737,298	-150,560	-0,471	-0,026
-736,283	-6,282	0,134	0,067
-735,269	-200,000	-0,329	0,001
-734,254	-111,327	0,186	0,028
-733,239	-44,562	-0,626	-0,229
-732,225	-143,593	0,373	-0,026
-731,210	-91,806	-0,153	0,032
-730,196	360,282	0,053	-0,079
-729,181	-171,435	-0,149	0,004
-728,167	-73,522	0,042	-0,011
-727,152	-200,000	-0,038	-0,186
-726,137	293,703	-0,059	0,079
-725,123	-72,628	-0,080	-0,021
-724,108	675,203	-0,047	-0,090
-723,094	-200,000	0,003	-0,086
-722,079	800,000	0,049	-0,132
-721,064	-200,000	-0,002	-0,163
-720,050	800,000	-0,039	-0,127
-719,035	-200,000	-0,008	-0,038
-718,021	72,587	-0,057	0,044
-717,006	-127,483	-0,061	0,006
-715,991	-158,192	0,129	-0,005
-714,977	-59,076	-0,069	-0,022
-713,962	-99,606	0,022	-0,004
-712,948	-153,057	-0,168	0,009
-711,933	17,145	0,102	0,059
-710,918	-200,000	0,038	-0,155
-709,904	-107,107	-0,070	0,011
-708,889	26,794	-0,055	-0,034
-707,875	-200,000	0,002	0,057
-706,860	222,701	-0,057	-0,067
-705,845	43,458	-0,073	0,049
-704,831	91,062	0,134	-0,110
-703,816	-37,402	-0,079	0,031
-702,802	800,000	-0,031	0,075
-701,787	-200,000	-0,021	-0,095
-700,772	160,444	-0,073	-0,075
-699,758	610,198	0,063	-0,116
-698,743	-90,938	0,182	0,038
-697,729	738,626	-0,042	0,082
-696,714	6,703	0,094	0,051
-695,699	-200,000	0,002	-0,061
-694,685	76,637	0,087	0,068
-693,670	-83,436	-0,043	0,010
-692,656	40,436	0,123	-0,081
-691,641	-200,000	0,012	-0,164
-690,627	165,273	-0,082	0,086
-689,612	335,135	0,047	-0,068
-688,597	602,663	-0,029	0,053
-687,583	30,803	-0,123	-0,077
-686,568	-200,000	0,034	0,186
-685,554	203,916	-0,103	-0,117
-684,539	-200,000	0,014	-0,093
-683,524	-200,000	0,008	-0,068
-682,510	-119,988	0,107	0,013
-681,495	-200,000	-0,021	-0,080
-680,481	219,526	-0,041	-0,048
-679,466	-200,000	-0,006	-0,106
-678,451	27,944	0,105	0,065
-677,437	800,000	-0,008	0,017
-676,422	617,729	0,000	0,000
-675,408	-200,000	-0,017	0,063
-674,393	-200,000	0,015	-0,105
-673,378	-200,000	0,005	0,043
-672,364	-155,015	-0,023	-0,001
-671,349	102,183	0,059	0,050
-670,335	432,998	-0,054	-0,087
-669,320	163,779	-0,116	-0,120
-668,305	-200,000	-0,007	0,059
-667,291	-200,000	-0,029	-0,100
-666,276	410,758	0,069	-0,108
-665,262	426,364	0,019	-0,031
-664,247	-200,000	0,026	0,131
-663,232	800,000	-0,014	-0,039
-662,218	781,198	-0,057	0,115
-661,203	687,082	0,024	0,047
-660,189	-200,000	-0,003	0,109
-659,174	321,624	-0,059	0,083
-658,159	414,601	0,039	0,061
-657,145	603,074	-0,053	-0,097
-656,130	-200,000	0,010	0,107
-655,116	-200,000	-0,005	0,016
-654,101	-78,437	-0,051	0,013
-653,086	800,000	-0,057	-0,118
-652,072	350,905	0,052	-0,076
-651,057	800,000	-0,075	-0,192
-650,043	53,868	0,030	-0,021
-649,028	800,000	-0,013	0,039
-648,014	318,455	0,037	-0,052
-646,999	-200,000	0,021	-0,069
-645,984	217,878	0,051	-0,059
-644,970	-178,967	-0,184	-0,003
-643,955	54,448	-0,068	-0,048
-642,941	-200,000	-0,078	-0,273
-641,926	-200,000	0,007	-0,097
-640,911	-200,000	0,024	0,086
-639,897	132,391	-0,054	0,051
-638,882	-200,000	0,022	0,083
-637,868	-200,000	-0,023	-0,085
-636,853	-39,964	-0,136	-0,052
-635,838	25,486	-0,111	-0,068
-634,824	-12,326	0,026	-0,013
-633,809	464,618	-0,043	0,071
-632,795	1,471	0,057	-0,030
-631,780	-176,565	-0,088	-0,002
-630,765	233,884	0,056	0,068
-629,751	-200,000	0,016	0,079
-628,736	469,511	0,051	-0,084
-627,722	-200,000	0,020	-0,092
-626,707	-200,000	-0,002	-0,007
-625,692	-158,112	-0,087	-0,004
-624,678	108,622	-0,057	-0,050
-623,663	75,521	-0,071	0,055
-622,649	-200,000	0,006	0,026
-621,634	-130,412	-0,215	0,021
-620,619	-141,593	-0,056	0,004
-619,605	-37,443	0,053	0,021
-618,590	-200,000	0,003	0,025
-617,576	105,454	0,081	0,070
-616,561	120,972	0,031	0,028
-615,546	800,000	0,012	-0,033
-614,532	141,923	-0,096	-0,093
-613,517	145,049	0,063	-0,062
-612,503	-114,714	0,070	-0,010
-611,488	-189,623	0,052	-0,000
-610,474	-158,036	-0,147	-0,006
-609,459	470,279	0,095	0,157
-608,444	527,245	-0,034	0,059
-607,430	-200,000	0,002	0,072
-606,415	800,000	-0,024	-0,075
-605,401	52,535	-0,059	0,041
-604,386	800,000	0,026	-0,084
-603,371	-115,543	-0,068	-0,009
-602,357	-200,000	-0,003	-0,027
-601,342	302,749	-0,028	-0,038
-600,328	-159,384	-0,058	0,002
-599,313	322,909	-0,098	0,137
-598,298	-132,093	0,076	-0,007
-597,284	-16,847	-0,137	0,063
-596,269	-200,000	-0,008	0,034
-595,255	-200,000	-0,002	-0,128
-594,240	-93,509	0,044	0,009
-593,225	146,801	-0,157	0,155
-592,211	-24,007	-0,058	0,025
-591,196	83,221	-0,045	-0,036
-590,182	-200,000	0,001	0,030
-589,167	-75,913	0,074	0,019
-588,152	-200,000	0,008	0,075
-587,138	-20,632	0,048	-0,021
-586,123	800,000	0,022	0,049
-585,109	-200,000	-0,039	-0,169
-584,094	800,000	0,035	0,092
-583,079	-72,661	-0,065	0,017
-582,065	-200,000	0,022	0,096
-581,050	665,106	0,039	-0,073
-580,036	7,502	-0,060	0,033
-579,021	-72,611	0,089	0,024
-578,006	800,000	0,080	-0,187
-576,992	-200,000	-0,035	0,120
-575,977	-98,810	0,093	0,017
-574,963	123,864	0,187	0,171
-573,948	-200,000	-0,032	0,112
-572,934	-114,151	-0,059	-0,008
-571,919	-12,240	0,053	-0,025
-570,904	451,843	0,036	0,059
-569,890	210,058	-0,143	-0,164
-568,875	318,065	-0,043	0,060
-567,861	-200,000	0,027	0,143
-566,846	3,419	-0,023	0,012
-565,831	29,389	0,044	0,027
-564,817	800,000	0,067	-0,203
-563,802	-30,480	-0,042	-0,017
-562,788	666,011	-0,048	-0,090
-561,773	-84,454	0,080	-0,018
-560,758	301,379	0,068	0,092
-559,744	7,578	-0,064	0,035
-558,729	360,269	-0,074	0,109
-557,715	112,354	-0,068	-0,060
-556,700	225,525	-0,096	-0,114
-555,685	-200,000	0,047	-0,159
-554,671	179,876	-0,095	0,102
-553,656	-200,000	0,023	0,077
-552,642	397,146	0,085	0,130
-551,627	357,436	-0,051	-0,075
-550,612	-91,153	-0,122	0,025
-549,598	-54,313	-0,139	0,046
-548,583	800,000	-0,018	-0,054
-547,569	-49,674	0,063	-0,022
-546,554	106,856	0,041	-0,036
-545,539	65,131	0,113	-0,083
-544,525	-99,327	0,145	0,027
-543,510	30,329	-0,025	0,015
-542,496	165,014	-0,036	-0,038
-541,481	-52,939	-0,142	-0,047
-540,466	-8,312	0,050	-0,024
-539,452	42,762	-0,047	0,031
-538,437	-110,779	-0,115	-0,017
-537,423	-81,489	0,096	0,023
-536,408	-200,000	0,015	-0,151
-535,393	387,686	-0,118	-0,179
-534,379	-70,676	-0,119	0,033
-533,364	-20,358	-0,043	-0,019
-532,350	800,000	0,028	0,075
-531,335	96,442	0,090	-0,075
-530,321	-200,000	0,010	0,061
-529,306	-183,231	-0,073	-0,001
-528,291	209,765	0,037	0,043
-527,277	15,063	0,053	0,030
-526,262	109,002	-0,111	0,097
-525,248	-152,795	0,056	-0,003
-524,233	-144,913	0,085	-0,006
-523,218	-48,407	-0,009	-0,003
-522,204	-200,000	-0,014	0,204
-521,189	80,245	0,046	0,036
-520,175	-200,000	-0,031	0,103
-519,160	24,979	-0,046	0,028
-518,145	-200,000	0,000	0,061
-517,131	-200,000	0,019	0,106
-516,116	800,000	0,022	-0,047
-515,102	-200,000	0,027	0,092
-514,087	-200,000	0,005	-0,078
-513,072	126,309	-0,053	0,049
-512,058	800,000	-0,028	-0,074
-511,043	268,232	0,059	0,076
-510,029	104,209	0,090	-0,077
-509,014	28,901	0,039	0,024
-507,999	-107,947	-0,049	-0,008
-506,985	176,224	-0,027	0,029
-505,970	800,000	-0,039	-0,080
-504,956	125,298	-0,062	-0,057
-503,941	140,433	-0,041	0,040
-502,926	-200,000	0,021	-0,093
-501,912	7,730	0,034	0,018
-500,897	-98,897	0,032	0,006
-499,883	-183,040	0,060	0,001
-498,868	-62,898	-0,033	0,010
-497,853	-200,000	-0,010	-0,054
-496,839	-106,674	-0,143	0,023
-495,824	170,177	-0,029	0,031
-494,810	-200,000	0,018	0,158
-493,795	-68,747	0,071	-0,020
-492,781	-200,000	-0,044	-0,182
-491,766	800,000	0,048	-0,099
-490,751	627,460	-0,032	-0,060
-489,737	800,000	0,008	0,025
-488,722	171,089	-0,054	-0,056
-487,708	-49,022	0,112	0,039
-486,693	-110,500	-0,037	-0,006
-485,678	-158,080	0,090	-0,004
-484,664	-127,360	-0,079	-0,008
-483,649	800,000	-0,048	-0,122
-482,635	800,000	-0,035	0,093
-481,620	800,000	0,017	0,051
-480,605	-200,000	-0,060	0,215
-479,591	-149,941	0,164	-0,009
-478,576	-95,160	0,035	-0,007
-477,562	718,906	-0,060	-0,116
-476,547	-14,333	-0,126	0,059
-475,532	-22,584	0,112	-0,049
-474,518	800,000	0,044	-0,115
-473,503	800,000	0,087	0,179
-472,489	-200,000	-0,023	0,216
-471,474	-49,396	0,198	0,068
-470,459	800,000	-0,025	0,056
-469,445	364,354	0,067	0,098
-468,430	17,745	-0,111	-0,064
-467,416	-45,824	0,081	-0,029
-466,401	-68,800	0,160	0,045
-465,386	-29,895	-0,107	-0,044
-464,372	27,040	-0,046	-0,028
-463,357	-116,310	-0,139	-0,019
-462,343	543,940	-0,030	0,052
-461,328	697,355	-0,041	-0,078
-460,313	800,000	0,014	0,029
-459,299	232,272	-0,044	0,053
-458,284	-200,000	0,088	0,000
-457,270	800,000	0,053	0,110
-456,255	440,441	0,042	0,067
-455,241	-16,468	0,047	0,022
-454,226	227,455	0,080	0,095
-453,211	-121,098	0,107	0,013
-452,197	-200,000	-0,021	0,110
-451,182	301,984	0,058	0,078
-450,168	40,418	-0,058	-0,038
-449,153	-142,609	0,152	-0,011
-448,138	110,782	-0,076	0,067
-447,124	800,000	-0,005	-0,015
-446,109	-20,570	-0,057	0,025
-445,095	-196,214	0,131	-0,001
-444,080	-200,000	-0,019	-0,131
-443,065	191,591	-0,030	-0,033
-442,051	184,361	0,019	0,020
-441,036	-125,845	-0,120	0,013
-440,022	-21,469	0,032	0,014
-439,007	372,908	-0,040	-0,060
-437,992	800,000	0,037	0,086
-436,978	13,017	-0,044	-0,025
-435,963	-200,000	-0,027	0,142
-434,949	-41,778	0,081	0,030
-433,934	429,867	-0,065	0,102
-432,919	800,000	-0,050	-0,125
-431,905	-75,219	0,102	0,026
-430,890	-200,000	0,021	0,077
-429,876	800,000	0,052	0,134
-428,861	261,652	-0,022	0,028
-427,846	800,000	0,016	-0,044
-426,832	615,246	-0,041	-0,075
-425,817	-86,703	0,121	0,027
-424,803	79,483	-0,065	-0,051
-423,788	-200,000	-0,003	-0,082
-422,773	433,756	0,108	0,171
-421,759	221,169	-0,049	0,057
-420,744	247,894	0,016	-0,020
-419,730	197,526	-0,063	-0,070
-418,715	-200,000	-0,029	-0,118
-417,701	45,115	-0,017	-0,011
-416,686	-97,677	0,027	-0,005
-415,671	-112,428	-0,039	0,006
-414,657	94,418	0,060	0,049
-413,642	-28,953	-0,124	0,051
-412,628	63,398	0,078	0,057
-411,613	-200,000	0,024	-0,101
-410,598	-200,000	-0,017	-0,107
-409,584	68,617	-0,013	0,010
-408,569	800,000	0,026	0,055
-407,555	-200,000	-0,007	-0,040
-406,540	-155,513	-0,087	0,004
-405,525	-200,000	0,012	-0,131
-404,511	-100,216	-0,147	0,026
-403,496	-200,000	0,014	-0,104
-402,482	800,000	-0,040	-0,083
-401,467	-200,000	0,003	-0,052
-400,452	-120,151	0,123	-0,015
-399,438	-200,000	0,003	0,032
-398,423	-98,926	0,053	0,010
-397,409	-200,000	-0,026	0,099
-396,394	800,000	0,033	-0,071
-395,379	-57,240	-0,104	-0,033
-394,365	-164,798	0,098	-0,003
-393,350	188,691	-0,036	-0,039
-392,336	238,312	-0,033	-0,039
-391,321	64,228	-0,042	-0,031
-390,306	-200,000	-0,019	-0,211
-389,292	23,043	0,033	-0,019
-388,277	-200,000	0,031	0,184
-387,263	2,220	0,072	-0,038
-386,248	44,591	0,025	0,017
-385,233	800,000	-0,005	0,017
-384,219	-200,000	0,026	0,114
-383,204	-23,952	0,038	-0,016
-382,190	-200,000	0,006	-0,025
-381,175	102,514	-0,070	0,059
-380,160	-64,241	-0,068	0,020
-379,146	-200,000	0,007	0,038
-378,131	-200,000	0,004	0,098
-377,117	-200,000	-0,009	-0,130
-376,102	-43,078	-0,163	0,060
-375,088	194,955	0,017	0,019
-374,073	-200,000	0,088	0,000
-373,058	-48,744	0,116	0,040
-372,044	194,314	0,002	-0,002
-371,029	800,000	-0,017	0,038
-370,015	-25,661	0,117	0,050
-369,000	294,495	-0,049	-0,065
-367,985	-97,444	-0,106	0,020
-366,971	531,327	0,059	-0,102
-365,956	123,061	-0,094	-0,085
-364,942	315,394	0,040	0,055
-363,927	510,117	-0,054	0,092
-362,912	-176,807	0,123	0,002
-361,898	222,561	-0,014	0,016
-360,883	-200,000	-0,003	-0,016
-359,869	111,750	-0,063	0,055
-358,854	-157,484	0,138	0,006
-357,839	800,000	0,085	0,211
-356,825	-200,000	0,004	0,022
-355,810	444,155	0,041	-0,066
-354,796	-200,000	-0,016	-0,151
-353,781	800,000	-0,033	-0,096
-352,766	12,031	0,017	-0,010
-351,752	102,763	-0,044	-0,038
-350,737	-103,141	0,088	-0,015
-349,723	-200,000	-0,002	-0,087
-348,708	800,000	0,044	0,104
-347,693	-200,000	-0,012	0,044
-346,679	-126,053	-0,104	-0,011
-345,664	26,887	0,003	0,002
-344,650	-184,060	0,059	-0,001
-343,635	481,021	-0,025	0,041
-342,620	-200,000	0,001	0,069
-341,606	147,291	0,056	0,055
-340,591	-200,000	0,001	0,056
-339,577	-72,133	-0,127	-0,034
-338,562	65,611	-0,112	0,082
-337,548	19,124	0,133	-0,077
-336,533	260,955	-0,053	0,067
-335,518	-47,849	-0,080	0,028
-334,504	800,000	0,051	-0,155
-333,489	800,000	-0,057	-0,115
-332,475	46,109	-0,105	-0,070
-331,460	-147,413	-0,054	-0,003
-330,445	800,000	0,020	-0,055
-329,431	506,820	-0,051	0,087
-328,416	-58,318	0,047	0,015
-327,402	-54,663	0,066	0,022
-326,387	-200,000	-0,051	-0,180
-325,372	-200,000	-0,013	0,069
-324,358	603,806	0,030	0,054
-323,343	-200,000	0,005	0,087
-322,329	-200,000	0,014	0,052
-321,314	241,417	0,085	0,103
-320,299	108,131	-0,043	-0,037
-319,285	-139,133	0,119	-0,009
-318,270	800,000	0,025	-0,058
-317,256	-200,000	-0,018	-0,119
-316,241	800,000	0,077	-0,191
-315,226	-59,236	0,036	0,011
-314,212	-200,000	-0,010	-0,057
-313,197	-114,058	0,097	0,013
-312,183	472,027	0,048	0,078
-311,168	162,350	-0,093	-0,094
-310,153	-18,937	0,100	0,045
-309,139	0,749	-0,017	0,009
-308,124	-2,680	-0,096	0,049
-307,110	-122,453	0,183	-0,021
-306,095	16,347	-0,036	-0,021
-305,080	-200,000	-0,008	-0,044
-304,066	-24,142	-0,135	0,058
-303,051	-200,000	-0,009	-0,154
-302,037	-200,000	-0,024	-0,077
-301,022	76,334	-0,079	0,060
-300,008	277,650	0,064	0,083
-298,993	-171,029	-0,094	-0,002
-297,978	128,796	-0,037	-0,035
-296,964	-110,843	0,064	-0,009
-295,949	263,008	0,061	-0,076
-294,935	800,000	0,070	-0,147
-293,920	230,631	-0,103	-0,122
-292,905	-119,334	0,123	0,015
-291,891	107,022	0,098	0,084
-290,876	191,418	-0,036	-0,039
-289,862	718,055	0,025	-0,049
-288,847	-200,000	-0,006	-0,030
-287,832	-200,000	-0,005	0,048
-286,818	-121,298	0,040	0,005
-285,803	-82,791	0,104	-0,024
-284,789	800,000	-0,010	-0,022
-283,774	718,494	-0,034	0,066
-282,759	-71,791	-0,048	0,013
-281,745	116,882	-0,072	-0,064
-280,730	800,000	-0,049	0,108
-279,716	-200,000	0,017	0,058
-278,701	-200,000	0,000	-0,003
-277,686	79,285	-0,027	-0,021
-276,672	39,208	-0,028	-0,018
-275,657	-123,802	0,071	-0,008
-274,643	166,331	-0,076	-0,078
-273,628	-51,880	-0,039	-0,013
-272,613	209,116	0,004	-0,004
-271,599	-68,459	0,109	0,031
-270,584	-200,000	-0,005	-0,115
-269,570	-63,001	0,047	-0,014
-268,555	433,268	0,051	-0,080
-267,540	-192,449	0,041	-0,000
-266,526	800,000	-0,044	-0,138
-265,511	238,647	0,050	-0,060
-264,497	180,997	0,104	-0,110
-263,482	-154,512	0,067	-0,003
-262,467	272,244	-0,013	-0,016
-261,453	800,000	-0,033	0,103
-260,438	128,538	-0,072	-0,067
-259,424	-81,554	-0,160	-0,038
-258,409	-200,000	0,005	0,171
-257,395	-200,000	0,011	-0,057
-256,380	-200,000	0,016	0,139
-255,365	800,000	0,040	0,109
-254,351	587,954	0,040	0,071
-253,336	-98,809	0,086	-0,016
-252,322	152,897	-0,104	-0,102
-251,307	-88,217	-0,092	-0,020
-250,292	18,238	-0,070	-0,040
-249,278	-47,172	-0,168	-0,059
-248,263	-200,000	0,006	-0,024
-247,249	-61,354	0,110	0,033
-246,234	800,000	0,047	0,112
-245,219	-200,000	0,024	0,086
-244,205	165,096	-0,037	0,037
-243,190	42,858	0,073	0,048
-242,176	-200,000	-0,029	0,123
-241,161	-154,989	-0,064	-0,003
-240,146	423,013	-0,073	-0,114
-239,132	598,088	0,034	0,062
-238,117	32,164	-0,017	0,010
-237,103	-200,000	0,025	-0,111
-236,088	162,315	0,113	0,114
-235,073	216,835	0,070	0,081
-234,059	-200,000	-0,017	0,102
-233,044	-200,000	-0,023	0,117
-232,030	-68,649	-0,044	-0,012
-231,015	241,384	-0,077	-0,093
-230,000	-200,000	0,010	0,052
-228,986	-200,000	0,010	-0,079
-227,971	-200,000	-0,002	0,092
-226,957	33,615	0,065	0,041
-225,942	-200,000	-0,001	-0,139
-224,927	25,615	0,122	0,073
-223,913	-84,036	0,071	0,016
-222,898	-200,000	-0,006	0,030
-221,884	273,035	0,045	0,058
-220,869	-87,109	-0,029	-0,006
-219,855	800,000	-0,004	-0,009
-218,840	-200,000	0,019	-0,154
-217,825	343,510	-0,032	-0,045
-216,811	169,900	0,101	0,105
-215,796	-200,000	0,028	-0,136
-214,782	-171,473	0,053	0,001
-213,767	340,862	0,091	-0,129
-212,752	369,167	0,046	-0,068
-211,738	-82,288	0,043	0,010
-210,723	-38,524	-0,113	-0,043
-209,709	197,885	-0,101	-0,111
-208,694	-200,000	-0,012	0,049
-207,679	-200,000	0,013	-0,066
-206,665	-0,605	0,060	-0,030
-205,650	-200,000	-0,018	0,187
-204,636	-83,509	0,104	0,024
-203,621	-75,625	-0,094	0,024
-202,606	-117,580	-0,132	0,017
-201,592	152,939	-0,122	-0,120
-200,577	152,230	-0,054	-0,054
-199,563	-200,000	0,005	0,117
-198,548	-48,036	0,131	-0,046
-197,533	299,618	0,077	0,102
-196,519	800,000	-0,084	-0,186
-195,504	-200,000	0,014	-0,103
-194,490	37,192	-0,057	-0,037
-193,475	294,082	-0,046	-0,061
-192,460	-38,956	-0,112	-0,042
-191,446	78,075	0,056	-0,043
-190,431	319,999	0,114	0,156
-189,417	84,825	-0,070	-0,055
-188,402	800,000	0,046	-0,096
-187,387	-20,453	-0,162	-0,072
-186,373	-200,000	0,006	-0,092
-185,358	-95,884	-0,070	-0,013
-184,344	75,653	0,029	-0,022
-183,329	25,956	-0,026	0,016
-182,315	201,422	0,045	-0,050
-181,300	-200,000	-0,011	0,073
-180,285	-200,000	0,017	-0,059
-179,271	800,000	-0,050	-0,119
-178,256	29,405	-0,072	-0,044
-177,242	-96,234	0,104	-0,020
-176,227	800,000	0,078	0,194
-175,212	9,154	0,059	-0,032
-174,198	132,600	0,079	0,073
-173,183	-82,334	0,005	-0,001
-172,169	-28,537	-0,057	0,024
-171,154	47,562	-0,028	-0,018
-170,139	314,330	0,123	0,167
-169,125	-90,818	0,265	0,055
-168,110	-200,000	-0,043	0,169
-167,096	-200,000	0,004	0,128
-166,081	182,456	-0,025	-0,026
-165,066	100,396	0,064	-0,053
-164,052	-10,322	0,038	-0,018
-163,037	5,025	-0,032	-0,017
-162,023	48,449	-0,033	-0,022
-161,008	-200,000	-0,028	0,090
-159,993	-200,000	0,028	0,123
-158,979	127,598	-0,049	-0,045
-157,964	800,000	0,053	-0,159
-156,950	396,682	0,060	-0,090
-155,935	800,000	0,018	-0,044
-154,920	1,547	-0,026	-0,014
-153,906	166,356	0,066	0,067
-152,891	-200,000	0,013	0,057
-151,877	800,000	0,035	-0,083
-150,862	-71,835	-0,120	-0,032
-149,847	-200,000	0,010	-0,078
-148,833	75,695	-0,092	-0,070
-147,818	-200,000	0,008	0,109
-146,804	5,545	0,065	0,034
-145,789	800,000	-0,025	-0,079
-144,775	-80,382	-0,109	0,026
-143,760	92,426	0,053	-0,043
-142,745	-200,000	-0,009	0,042
-141,731	63,257	0,080	0,057
-140,716	-200,000	-0,024	0,118
-139,702	490,509	0,069	0,114
-138,687	-112,889	0,070	-0,010
-137,672	-41,645	-0,041	0,015
-136,658	-154,545	-0,062	-0,003
-135,643	-200,000	-0,043	-0,174
-134,629	61,693	0,031	0,022
-133,614	-96,186	0,106	0,020
-132,599	-200,000	0,037	0,169
-131,585	800,000	-0,007	0,015
-130,570	94,035	-0,044	0,036
-129,556	-200,000	-0,001	-0,134
-128,541	91,245	-0,116	-0,094
-127,526	-46,783	0,019	-0,007
-126,512	554,252	0,111	-0,193
-125,497	-164,551	0,147	0,005
-124,483	73,614	0,096	0,072
-123,468	222,792	0,044	0,051
-122,453	79,404	-0,099	-0,076
-121,439	-49,302	-0,110	0,038
-120,424	149,561	-0,084	0,082
