DTS Sentinel unit serial number:	SN410029Multiplexer serial number:	ORYXHardware model number:	OX2-SRSoftware version number:	ORYX F/W v4,00 Oryx Data Collector v3.7.2.0data status	okinstallation	B5 Nyhavnadifferential loss correction	single-endedforward channel	channel 2reverse channel	N/Adate	2023/12/14time	11:47:13forward acquisition time	300,00reverse acquisition time	0,00gamma	499,1914k internal	0,3159k external	0,3159temperature offset calibration	1,0000default loss term (dB/km)	0,3820temperature slope calibration	1,0000multiplexer offset coefficient	1,0000multiplexer slope coefficient	1,0000fibre end	0,00T internal ref (°C)	7,54T ext. ref 1 (°C)	-7,97T ext. ref 2 (°C)	-7,97length (m)	temperature (°C)	Stokes	anti-Stokes-744,400	91,703	0,147	0,122
-743,385	-167,911	-0,334	-0,009
-742,371	58,398	0,188	0,136
-741,356	-135,371	-0,437	0,038
-740,342	-200,000	0,061	0,291
-739,327	-101,138	-0,431	-0,077
-738,312	-40,196	0,151	0,058
-737,298	-64,049	-0,352	-0,105
-736,283	-200,000	0,049	0,204
-735,269	79,800	-0,262	-0,207
-734,254	53,901	0,216	0,152
-733,239	29,306	-0,563	-0,351
-732,225	-71,854	0,280	0,076
-731,210	756,067	0,035	0,069
-730,196	-102,116	-0,220	-0,039
-729,181	-200,000	-0,060	-0,211
-728,167	390,543	-0,047	-0,072
-727,152	-102,168	-0,050	-0,009
-726,137	105,484	-0,135	-0,118
-725,123	179,513	-0,079	-0,086
-724,108	-13,691	-0,091	-0,043
-723,094	800,000	-0,025	-0,064
-722,079	63,427	-0,105	-0,077
-721,064	800,000	0,023	-0,068
-720,050	115,846	-0,036	-0,032
-719,035	-200,000	-0,009	-0,105
-718,021	214,081	0,070	-0,082
-717,006	334,134	-0,057	-0,082
-715,991	123,965	-0,146	-0,135
-714,977	800,000	0,011	-0,024
-713,962	800,000	-0,025	-0,055
-712,948	286,852	0,036	-0,048
-711,933	66,360	0,053	0,040
-710,918	-85,015	-0,026	0,006
-709,904	-200,000	-0,009	-0,110
-708,889	88,677	-0,042	-0,035
-707,875	-200,000	-0,013	-0,097
-706,860	-23,105	-0,122	-0,054
-705,845	235,195	0,061	-0,074
-704,831	443,901	0,069	0,111
-703,816	705,069	-0,080	-0,156
-702,802	244,268	-0,035	0,043
-701,787	-17,738	-0,067	0,031
-700,772	-200,000	0,003	-0,069
-699,758	-200,000	0,029	-0,201
-698,743	241,863	-0,137	-0,169
-697,729	791,169	-0,055	-0,111
-696,714	43,352	0,128	-0,086
-695,699	28,467	-0,107	-0,066
-694,685	-22,945	-0,039	0,017
-693,670	684,101	0,056	-0,107
-692,656	800,000	0,024	-0,062
-691,641	430,485	0,037	-0,058
-690,627	-148,284	-0,021	-0,001
-689,612	-200,000	-0,021	0,089
-688,597	-39,552	-0,068	-0,026
-687,583	-68,027	-0,150	0,043
-686,568	-200,000	-0,039	-0,158
-685,554	-200,000	0,006	-0,222
-684,539	-200,000	0,020	-0,089
-683,524	77,175	-0,037	0,029
-682,510	800,000	0,034	0,088
-681,495	-8,185	-0,132	0,065
-680,481	-73,425	-0,063	0,017
-679,466	-101,706	-0,019	0,003
-678,451	-93,375	0,142	0,029
-677,437	667,956	-0,012	-0,022
-676,422	-200,000	0,003	-0,093
-675,408	800,000	-0,050	-0,125
-674,393	75,861	-0,071	-0,055
-673,378	800,000	0,082	-0,183
-672,364	60,219	0,105	-0,076
-671,349	185,625	-0,067	0,074
-670,335	305,024	0,019	-0,026
-669,320	-200,000	-0,009	0,062
-668,305	-200,000	0,005	0,128
-667,291	92,329	-0,096	0,079
-666,276	-41,404	-0,195	-0,074
-665,262	-200,000	-0,001	-0,011
-664,247	-158,551	0,061	0,003
-663,232	-23,119	0,103	-0,045
-662,218	-1,942	-0,014	-0,007
-661,203	-165,253	-0,089	-0,003
-660,189	-148,991	0,010	-0,001
-659,174	-200,000	-0,065	-0,264
-658,159	-200,000	-0,001	-0,049
-657,145	800,000	0,035	-0,084
-656,130	110,171	-0,032	0,028
-655,116	-61,430	0,092	0,028
-654,101	-74,889	0,125	0,033
-653,086	-58,893	-0,061	0,019
-652,072	800,000	-0,015	-0,042
-651,057	-200,000	0,001	-0,160
-650,043	184,733	0,031	-0,034
-649,028	-172,489	-0,143	-0,003
-648,014	800,000	0,033	-0,074
-646,999	-36,472	0,087	-0,034
-645,984	800,000	0,032	-0,072
-644,970	800,000	-0,043	-0,108
-643,955	-68,694	-0,108	0,031
-642,941	800,000	-0,048	-0,117
-641,926	-80,588	0,136	-0,033
-640,911	-20,930	-0,115	-0,051
-639,897	-200,000	-0,024	0,131
-638,882	-134,827	-0,088	0,008
-637,868	-39,141	-0,016	0,006
-636,853	31,627	-0,136	-0,085
-635,838	422,616	0,032	0,050
-634,824	348,075	-0,072	0,105
-633,809	253,391	0,006	-0,008
-632,795	-200,000	0,022	-0,076
-631,780	421,771	0,088	0,140
-630,765	-200,000	0,000	0,031
-629,751	800,000	0,021	0,063
-628,736	28,413	-0,071	-0,044
-627,722	89,790	-0,084	-0,069
-626,707	-200,000	0,013	0,127
-625,692	162,629	0,070	0,072
-624,678	128,718	-0,032	0,030
-623,663	-200,000	-0,006	-0,043
-622,649	8,601	0,140	0,077
-621,634	-200,000	-0,035	0,163
-620,619	-30,265	-0,111	0,046
-619,605	-144,610	0,113	0,007
-618,590	-200,000	-0,015	-0,064
-617,576	95,058	0,101	-0,085
-616,561	-34,647	-0,035	-0,014
-615,546	-65,905	-0,117	-0,034
-614,532	800,000	-0,046	-0,148
-613,517	199,983	0,124	-0,139
-612,503	28,127	0,082	0,050
-611,488	-138,682	0,124	0,010
-610,474	661,287	-0,018	0,034
-609,459	203,242	0,061	-0,070
-608,444	252,227	-0,082	-0,102
-607,430	520,320	-0,055	-0,095
-606,415	775,582	0,069	-0,138
-605,401	800,000	0,044	0,093
-604,386	153,194	-0,037	-0,037
-603,371	519,691	0,028	0,049
-602,357	14,083	0,114	-0,065
-601,342	-26,395	-0,172	-0,074
-600,328	389,063	-0,051	-0,078
-599,313	218,194	0,029	0,034
-598,298	800,000	-0,008	0,020
-597,284	288,487	0,058	0,077
-596,269	170,426	-0,089	-0,094
-595,255	335,365	0,090	0,128
-594,240	-187,144	0,068	-0,001
-593,225	800,000	0,047	-0,147
-592,211	339,880	-0,076	0,108
-591,196	300,598	0,012	-0,017
-590,182	-200,000	-0,009	0,030
-589,167	585,523	-0,072	0,130
-588,152	3,498	-0,062	0,033
-587,138	353,691	0,036	-0,052
-586,123	-200,000	-0,011	-0,115
-585,109	800,000	-0,088	-0,193
-584,094	-137,739	0,140	0,011
-583,079	78,170	0,081	0,063
-582,065	800,000	0,029	0,081
-581,050	-12,517	-0,116	-0,055
-580,036	800,000	0,011	-0,030
-579,021	-54,448	0,053	-0,017
-578,006	416,192	0,019	-0,030
-576,992	175,266	0,062	-0,066
-575,977	800,000	-0,013	0,027
-574,963	132,983	-0,053	0,050
-573,948	115,467	0,104	-0,093
-572,934	800,000	-0,081	0,173
-571,919	-200,000	0,030	0,166
-570,904	377,919	0,027	-0,041
-569,890	75,204	0,036	0,028
-568,875	-116,386	-0,074	0,010
-567,861	-22,114	0,091	-0,040
-566,846	-200,000	-0,001	0,063
-565,831	-200,000	0,021	-0,080
-564,817	-68,888	0,023	0,006
-563,802	-54,092	-0,141	-0,047
-562,788	-200,000	-0,002	0,045
-561,773	800,000	0,027	-0,087
-560,758	128,569	0,034	0,032
-559,744	356,631	0,022	0,033
-558,729	-200,000	-0,005	-0,068
-557,715	-67,457	-0,107	-0,030
-556,700	-35,366	0,023	0,009
-555,685	465,771	-0,014	0,023
-554,671	182,551	-0,095	-0,102
-553,656	86,622	0,079	0,064
-552,642	-27,675	0,030	0,013
-551,627	-76,238	-0,043	0,011
-550,612	-32,532	-0,097	-0,039
-549,598	148,317	-0,043	-0,042
-548,583	-20,891	0,031	-0,014
-547,569	-140,151	-0,044	0,003
-546,554	-200,000	-0,008	0,150
-545,539	-82,561	0,133	0,031
-544,525	-13,778	-0,038	0,018
-543,510	-200,000	0,007	0,067
-542,496	285,259	-0,077	-0,101
-541,481	-200,000	0,020	-0,092
-540,466	800,000	0,010	0,031
-539,452	-175,127	-0,141	0,003
-538,437	-200,000	0,013	0,062
-537,423	661,891	-0,037	0,070
-536,408	-103,579	-0,066	-0,011
-535,393	218,366	-0,111	-0,130
-534,379	-200,000	0,019	-0,176
-533,364	-200,000	0,003	-0,026
-532,350	-200,000	-0,015	0,181
-531,335	-200,000	-0,017	-0,061
-530,321	-90,251	-0,148	-0,031
-529,306	-110,289	-0,039	0,006
-528,291	197,710	-0,060	-0,067
-527,277	-200,000	0,013	0,087
-526,262	-6,086	0,093	0,046
-525,248	356,075	-0,036	-0,053
-524,233	157,145	0,035	0,035
-523,218	-113,723	-0,047	-0,007
-522,204	-132,764	-0,162	-0,015
-521,189	358,915	-0,069	-0,101
-520,175	-36,441	0,075	0,029
-519,160	-200,000	0,006	0,136
-518,145	-14,061	0,075	0,035
-517,131	-80,507	0,047	0,011
-516,116	-200,000	-0,009	0,099
-515,102	800,000	-0,023	0,067
-514,087	800,000	-0,066	-0,142
-513,072	-200,000	0,035	-0,130
-512,058	-25,840	0,043	-0,018
-511,043	282,288	-0,042	-0,055
-510,029	-15,007	0,077	0,036
-509,014	-200,000	0,032	0,145
-507,999	-166,728	-0,122	0,004
-506,985	173,890	0,066	-0,070
-505,970	-46,697	-0,083	-0,030
-504,956	124,423	0,051	0,047
-503,941	-200,000	-0,007	0,070
-502,926	-135,661	-0,115	-0,010
-501,912	263,673	0,020	0,026
-500,897	-66,618	0,043	0,012
-499,883	796,919	-0,041	-0,083
-498,868	48,550	-0,044	0,030
-497,853	550,131	-0,046	-0,081
-496,839	-200,000	0,004	0,021
-495,824	133,484	0,028	0,026
-494,810	-50,862	0,103	-0,035
-493,795	69,653	-0,038	-0,029
-492,781	-68,409	0,055	-0,015
-491,766	-200,000	0,007	-0,033
-490,751	492,333	0,024	-0,040
-489,737	49,205	0,060	-0,041
-488,722	-200,000	-0,029	0,113
-487,708	167,785	-0,062	0,065
-486,693	-161,502	-0,150	-0,006
-485,678	800,000	0,065	0,178
-484,664	-52,334	-0,174	-0,058
-483,649	146,578	-0,015	-0,014
-482,635	-61,066	-0,060	-0,018
-481,620	311,560	-0,053	-0,072
-480,605	800,000	-0,015	0,046
-479,591	292,423	0,073	0,097
-478,576	-200,000	-0,004	0,122
-477,562	133,439	-0,152	-0,143
-476,547	48,793	-0,126	-0,086
-475,532	-200,000	0,007	-0,066
-474,518	-70,309	0,112	-0,031
-473,503	7,324	0,097	0,052
-472,489	800,000	-0,023	0,058
-471,474	-66,413	0,054	-0,016
-470,459	98,588	-0,022	0,018
-469,445	-135,182	-0,099	-0,009
-468,430	29,874	0,012	0,007
-467,416	200,744	0,045	-0,050
-466,401	130,044	0,114	0,106
-465,386	722,515	0,084	0,164
-464,372	-200,000	0,011	0,051
-463,357	-200,000	0,014	-0,179
-462,343	316,115	-0,065	0,090
-461,328	15,531	0,046	0,027
-460,313	105,967	-0,116	-0,100
-459,299	49,529	0,121	-0,083
-458,284	-200,000	-0,008	-0,100
-457,270	-200,000	-0,010	0,056
-456,255	-200,000	0,003	-0,073
-455,241	-200,000	0,004	0,058
-454,226	-200,000	-0,026	0,104
-453,211	-71,402	-0,107	-0,029
-452,197	-126,026	0,178	0,019
-451,182	-97,830	-0,036	0,007
-450,168	-39,155	0,037	0,014
-449,153	-200,000	-0,028	0,091
-448,138	800,000	-0,036	0,091
-447,124	-30,199	-0,048	0,020
-446,109	800,000	-0,049	0,132
-445,095	-118,521	0,115	-0,015
-444,080	144,591	-0,049	0,048
-443,065	-200,000	-0,002	0,043
-442,051	25,899	0,063	0,038
-441,036	-200,000	-0,021	-0,099
-440,022	-23,028	-0,075	-0,033
-439,007	800,000	0,032	-0,074
-437,992	-33,581	0,213	0,085
-436,978	-200,000	-0,012	0,276
-435,963	48,247	-0,066	0,045
-434,949	281,561	0,098	0,128
-433,934	800,000	-0,012	0,036
-432,919	37,290	0,044	-0,028
-431,905	174,125	0,053	0,055
-430,890	464,207	0,050	0,081
-429,876	-200,000	0,029	0,104
-428,861	-200,000	0,002	0,023
-427,846	-200,000	-0,020	-0,079
-426,832	800,000	0,024	-0,071
-425,817	181,472	0,042	0,045
-424,803	-200,000	0,006	0,045
-423,788	-200,000	-0,058	0,206
-422,773	360,582	0,073	0,107
-421,759	-200,000	0,014	0,136
-420,744	70,901	-0,045	0,034
-419,730	110,901	-0,059	0,052
-418,715	-200,000	-0,004	-0,135
-417,701	-200,000	0,016	-0,112
-416,686	275,445	0,087	0,113
-415,671	654,623	-0,044	-0,083
-414,657	109,956	-0,030	-0,026
-413,642	800,000	-0,040	-0,088
-412,628	-109,000	0,144	-0,022
-411,613	-200,000	0,001	-0,052
-410,598	-200,000	-0,010	0,062
-409,584	118,620	0,065	-0,058
-408,569	34,044	0,056	-0,035
-407,555	-200,000	-0,013	0,112
-406,540	86,857	-0,044	0,035
-405,525	-94,896	0,035	0,007
-404,511	-60,613	-0,082	-0,025
-403,496	74,855	-0,086	-0,066
-402,482	346,978	0,015	-0,022
-401,467	800,000	0,023	0,070
-400,452	-200,000	0,003	0,044
-399,438	800,000	-0,040	0,114
-398,423	716,638	-0,047	-0,092
-397,409	-200,000	0,006	-0,236
-396,394	-101,034	-0,037	0,007
-395,379	195,385	0,075	0,083
-394,365	85,866	-0,043	0,034
-393,350	-50,198	0,064	0,022
-392,336	440,004	-0,051	0,082
-391,321	-34,270	-0,100	0,040
-390,306	630,398	0,054	-0,101
-389,292	76,067	0,028	0,022
-388,277	347,121	0,083	0,119
-387,263	-47,369	0,120	-0,042
-386,248	-89,480	-0,027	0,006
-385,233	-200,000	-0,021	0,171
-384,219	-200,000	0,005	-0,026
-383,204	-42,547	-0,076	-0,028
-382,190	-111,446	0,096	-0,014
-381,175	140,634	-0,108	-0,103
-380,160	-122,493	0,020	-0,002
-379,146	245,546	0,068	-0,083
-378,131	-200,000	-0,037	0,123
-377,117	800,000	-0,024	0,049
-376,102	800,000	0,028	-0,086
-375,088	-27,875	-0,056	-0,024
-374,073	-200,000	0,003	-0,074
-373,058	-121,476	0,131	-0,016
-372,044	334,549	-0,082	0,115
-371,029	79,567	0,083	-0,064
-370,015	-143,944	0,159	0,011
-369,000	800,000	-0,038	-0,090
-367,985	92,732	0,063	-0,052
-366,971	800,000	-0,013	0,036
-365,956	62,041	0,169	0,122
-364,942	-3,148	0,036	-0,018
-363,927	-86,790	0,105	-0,023
-362,912	-61,429	-0,054	0,017
-361,898	381,495	-0,021	0,031
-360,883	-200,000	-0,007	0,027
-359,869	60,575	0,043	-0,031
-358,854	-200,000	0,025	0,122
-357,839	-129,220	0,129	-0,013
-356,825	-200,000	0,008	0,075
-355,810	156,501	0,066	-0,066
-354,796	-200,000	-0,003	-0,093
-353,781	-200,000	-0,025	0,093
-352,766	-85,128	-0,063	0,014
-351,752	-15,614	-0,022	-0,010
-350,737	105,424	0,099	0,084
-349,723	209,044	0,058	0,066
-348,708	-25,697	0,086	0,037
-347,693	-200,000	0,036	-0,119
-346,679	800,000	-0,013	0,035
-345,664	800,000	0,036	-0,092
-344,650	157,465	0,064	-0,065
-343,635	423,149	-0,081	0,127
-342,620	-200,000	0,030	0,143
-341,606	800,000	0,026	-0,084
-340,591	-200,000	-0,037	-0,161
-339,577	257,977	-0,125	-0,156
-338,562	-118,640	-0,094	0,012
-337,548	582,260	0,053	0,094
-336,533	421,146	0,033	0,051
-335,518	800,000	0,087	0,182
-334,504	178,059	0,062	-0,066
-333,489	-98,898	-0,041	-0,008
-332,475	-200,000	-0,001	-0,011
-331,460	-81,709	-0,145	-0,034
-330,445	43,182	0,122	-0,080
-329,431	-117,058	0,090	0,012
-328,416	-80,701	0,092	0,022
-327,402	118,116	-0,054	0,048
-326,387	-200,000	-0,023	0,138
-325,372	508,845	-0,065	0,109
-324,358	-200,000	-0,002	0,012
-323,343	-86,661	-0,133	0,029
-322,329	-123,915	0,082	-0,009
-321,314	303,493	-0,075	-0,101
-320,299	377,250	-0,034	0,050
-319,285	-90,013	0,064	0,013
-318,270	-8,010	-0,115	-0,056
-317,256	537,387	0,028	-0,049
-316,241	800,000	-0,012	-0,039
-315,226	-34,986	0,067	0,027
-314,212	430,214	0,027	0,043
-313,197	345,906	-0,005	0,007
-312,183	287,301	-0,041	-0,054
-311,168	586,337	0,042	-0,075
-310,153	-88,674	-0,110	-0,023
-309,139	274,596	0,038	-0,049
-308,124	-188,918	0,074	0,001
-307,110	800,000	-0,016	-0,037
-306,095	-2,809	0,082	-0,041
-305,080	-2,043	-0,137	0,069
-304,066	-134,082	-0,118	0,010
-303,051	77,805	0,075	-0,058
-302,037	269,297	0,050	-0,064
-301,022	-181,096	0,134	-0,002
-300,008	800,000	0,041	0,106
-298,993	800,000	-0,057	0,139
-297,978	16,095	-0,126	0,072
-296,964	160,424	-0,023	-0,023
-295,949	128,839	-0,051	0,047
-294,935	398,263	-0,090	-0,136
-293,920	63,133	0,126	0,092
-292,905	-21,979	0,088	-0,039
-291,891	800,000	0,053	0,151
-290,876	24,837	-0,078	-0,047
-289,862	-200,000	-0,005	-0,045
-288,847	-95,507	-0,063	0,012
-287,832	-200,000	0,008	-0,146
-286,818	-106,894	0,146	0,023
-285,803	-20,449	0,047	-0,021
-284,789	211,205	0,058	0,066
-283,774	-7,070	0,064	0,031
-282,759	-30,345	0,047	0,019
-281,745	757,321	0,038	-0,076
-280,730	-200,000	-0,026	-0,107
-279,716	-19,382	0,052	-0,023
-278,701	-53,254	-0,099	0,033
-277,686	278,123	0,087	0,112
-276,672	-200,000	-0,002	0,008
-275,657	66,051	0,076	-0,056
-274,643	-133,236	-0,063	-0,006
-273,628	800,000	0,017	-0,054
-272,613	-49,927	0,098	-0,034
-271,599	-200,000	0,005	-0,222
-270,584	755,011	-0,022	-0,042
-269,570	-60,282	0,074	-0,023
-268,555	135,920	0,127	-0,120
-267,540	-42,875	0,111	-0,041
-266,526	-61,690	-0,076	0,023
-265,511	-200,000	0,017	0,085
-264,497	-200,000	0,033	0,150
-263,482	-200,000	0,017	0,078
-262,467	-12,552	0,148	-0,070
-261,453	-200,000	0,028	-0,130
-260,438	-200,000	-0,042	-0,170
-259,424	-16,268	-0,091	0,042
-258,409	-200,000	-0,041	-0,168
-257,395	140,340	-0,035	-0,034
-256,380	-200,000	-0,010	-0,037
-255,365	-126,650	0,155	0,016
-254,351	4,231	-0,116	-0,061
-253,336	32,383	0,011	-0,007
-252,322	454,662	0,005	0,008
-251,307	272,766	-0,041	-0,052
-250,292	-9,247	-0,135	0,065
-249,278	118,794	0,060	0,053
-248,263	-22,144	0,134	-0,058
-247,249	-200,000	-0,006	0,070
-246,234	163,627	-0,032	0,032
-245,219	356,387	0,040	-0,057
-244,205	181,770	-0,039	-0,041
-243,190	800,000	0,048	-0,142
-242,176	-115,984	0,120	0,016
-241,161	23,844	-0,046	0,027
-240,146	509,545	0,049	0,082
-239,132	368,743	0,024	-0,035
-238,117	-48,097	-0,129	-0,045
-237,103	373,073	0,069	-0,102
-236,088	67,362	-0,052	-0,039
-235,073	-76,492	0,127	-0,032
-234,059	156,859	-0,092	0,092
-233,044	-200,000	0,006	0,125
-232,030	-200,000	0,025	0,119
-231,015	72,971	-0,067	-0,050
-230,000	-200,000	0,005	-0,103
-228,986	202,368	-0,121	0,135
-227,971	-156,919	0,113	-0,005
-226,957	-200,000	0,015	0,134
-225,942	-200,000	-0,025	0,139
-224,927	-153,495	0,030	0,001
-223,913	-86,792	0,099	-0,022
-222,898	-101,363	-0,071	0,012
-221,884	77,476	-0,050	-0,038
-220,869	325,798	-0,053	0,074
-219,855	52,763	0,132	0,091
-218,840	-118,685	0,059	0,007
-217,825	-45,475	-0,054	-0,019
-216,811	-200,000	-0,015	-0,143
-215,796	-51,163	-0,183	-0,062
-214,782	-164,469	-0,131	-0,004
-213,767	800,000	0,017	-0,044
-212,752	-200,000	0,008	-0,040
-211,738	5,174	0,023	0,012
-210,723	49,112	-0,082	-0,055
-209,709	-165,375	0,037	-0,001
-208,694	-200,000	0,013	-0,094
-207,679	55,990	-0,009	-0,006
-206,665	142,823	0,078	0,075
-205,650	17,996	-0,050	0,028
-204,636	-124,507	0,046	-0,005
-203,621	223,449	0,055	0,064
-202,606	-81,301	0,071	-0,017
-201,592	-133,137	-0,106	0,010
-200,577	322,484	0,064	-0,088
-199,563	84,210	0,058	0,046
-198,548	27,906	-0,066	0,040
-197,533	-33,923	-0,130	0,051
-196,519	11,850	-0,081	0,045
-195,504	800,000	-0,030	-0,081
-194,490	-200,000	-0,003	-0,105
-193,475	-200,000	0,010	-0,157
-192,460	-200,000	0,013	0,218
-191,446	53,690	-0,086	-0,060
-190,431	135,472	-0,016	0,015
-189,417	-30,310	-0,081	-0,033
-188,402	692,344	-0,104	-0,198
-187,387	800,000	0,068	-0,145
-186,373	-200,000	-0,019	-0,168
-185,358	-200,000	-0,024	0,110
-184,344	29,959	0,041	-0,025
-183,329	-63,285	-0,160	0,047
-182,315	-200,000	-0,022	0,091
-181,300	-20,092	-0,061	-0,027
-180,285	203,246	0,043	0,048
-179,271	728,685	-0,044	0,085
-178,256	570,959	-0,048	0,085
-177,242	800,000	0,037	0,079
-176,227	-37,829	0,105	0,040
-175,212	-101,548	-0,064	0,011
-174,198	19,308	-0,012	0,007
-173,183	-46,831	-0,028	-0,010
-172,169	253,296	-0,061	-0,076
-171,154	384,127	0,026	-0,038
-170,139	-127,767	0,085	-0,009
-169,125	192,382	0,045	-0,049
-168,110	148,094	-0,031	-0,030
-167,096	65,826	-0,069	0,050
-166,081	45,593	-0,035	0,023
-165,066	-19,251	-0,056	-0,025
-164,052	400,740	0,065	-0,098
-163,037	95,602	0,091	0,075
-162,023	-200,000	-0,005	0,112
-161,008	-200,000	0,020	-0,106
-159,993	716,655	0,041	0,079
-158,979	-177,822	-0,118	0,002
-157,964	606,869	-0,065	-0,117
-156,950	29,751	-0,085	-0,052
-155,935	92,691	0,086	0,070
-154,920	5,687	-0,110	-0,059
-153,906	-200,000	-0,019	0,069
-152,891	-200,000	-0,006	-0,106
-151,877	800,000	-0,021	0,066
-150,862	210,947	-0,106	-0,120
-149,847	800,000	0,039	-0,090
-148,833	-0,082	-0,079	-0,040
-147,818	-200,000	0,005	0,101
-146,804	-124,630	0,128	-0,014
-145,789	-200,000	-0,013	0,121
-144,775	546,705	-0,025	-0,043
-143,760	449,829	-0,049	-0,078
-142,745	-86,127	0,028	-0,006
-141,731	-200,000	-0,058	-0,239
-140,716	-144,943	0,049	-0,003
-139,702	800,000	-0,047	0,133
-138,687	-200,000	0,004	0,015
-137,672	-200,000	-0,001	-0,094
-136,658	760,647	0,044	-0,086
-135,643	1,330	-0,026	-0,013
-134,629	1,105	-0,083	0,043
-133,614	-41,667	0,041	0,015
-132,599	-168,403	0,042	-0,001
-131,585	243,550	-0,043	0,052
-130,570	800,000	0,040	-0,079
-129,556	-200,000	-0,005	-0,054
-128,541	198,709	-0,089	-0,098
-127,526	-26,032	-0,044	0,019
-126,512	-200,000	-0,059	0,000
-125,497	121,738	0,092	0,082
-124,483	513,283	-0,011	0,019
-123,468	130,915	-0,064	-0,060
-122,453	-200,000	0,031	-0,146
-121,439	800,000	-0,032	-0,098
-120,424	-33,671	0,123	-0,049
