DTS Sentinel unit serial number:	SN410029Multiplexer serial number:	ORYXHardware model number:	OX2-SRSoftware version number:	ORYX F/W v4,00 Oryx Data Collector v3.7.2.0data status	okinstallation	B5 Nyhavnadifferential loss correction	single-endedforward channel	channel 2reverse channel	N/Adate	2023/12/13time	01:47:13forward acquisition time	300,00reverse acquisition time	0,00gamma	499,1914k internal	0,3159k external	0,3159temperature offset calibration	1,0000default loss term (dB/km)	0,3820temperature slope calibration	1,0000multiplexer offset coefficient	1,0000multiplexer slope coefficient	1,0000fibre end	0,00T internal ref (°C)	14,07T ext. ref 1 (°C)	-2,31T ext. ref 2 (°C)	-2,60length (m)	temperature (°C)	Stokes	anti-Stokes-744,400	74,139	0,064	-0,049
-743,385	-142,333	-0,323	0,023
-742,371	-102,250	0,135	0,024
-741,356	-96,854	-0,236	0,045
-740,342	-106,961	0,070	-0,011
-739,327	-102,995	-0,211	-0,036
-738,312	800,000	0,062	0,199
-737,298	-94,338	-0,263	0,052
-736,283	-27,221	0,181	0,077
-735,269	-77,368	-0,242	0,062
-734,254	274,453	0,060	0,078
-733,239	-6,039	-0,506	-0,254
-732,225	-27,600	0,207	0,088
-731,210	800,000	0,011	-0,027
-730,196	-169,813	-0,035	0,001
-729,181	22,274	-0,121	0,073
-728,167	-57,989	-0,158	-0,050
-727,152	-200,000	0,036	-0,145
-726,137	-14,597	-0,116	-0,055
-725,123	-78,124	0,159	-0,040
-724,108	276,027	-0,082	0,107
-723,094	704,726	-0,088	-0,171
-722,079	90,622	-0,127	-0,105
-721,064	233,599	0,079	-0,096
-720,050	111,850	0,054	-0,048
-719,035	-93,487	-0,115	0,023
-718,021	282,796	-0,026	-0,035
-717,006	18,080	-0,030	-0,018
-715,991	-39,601	-0,025	0,009
-714,977	-4,545	0,051	0,026
-713,962	132,864	0,008	0,007
-712,948	-136,904	0,057	0,005
-711,933	136,355	0,056	-0,053
-710,918	800,000	0,003	-0,009
-709,904	-31,297	0,093	-0,038
-708,889	800,000	-0,017	-0,052
-707,875	511,210	-0,034	-0,058
-706,860	137,513	-0,081	-0,078
-705,845	-180,738	-0,048	-0,001
-704,831	-165,027	-0,068	0,002
-703,816	-200,000	0,014	0,111
-702,802	-200,000	0,024	-0,159
-701,787	101,389	0,152	-0,130
-700,772	-122,213	0,160	0,019
-699,758	-46,609	-0,049	-0,018
-698,743	7,476	0,071	-0,039
-697,729	-70,959	0,082	-0,023
-696,714	100,117	0,067	0,057
-695,699	-73,117	0,076	0,020
-694,685	-17,532	0,054	0,025
-693,670	-47,500	-0,061	-0,022
-692,656	61,154	-0,045	-0,033
-691,641	-84,123	0,063	0,015
-690,627	-200,000	0,003	0,035
-689,612	-87,575	0,033	0,007
-688,597	623,685	0,016	-0,030
-687,583	-41,253	-0,143	-0,054
-686,568	800,000	0,030	0,087
-685,554	-200,000	0,013	-0,086
-684,539	84,141	0,071	0,057
-683,524	24,576	-0,002	-0,001
-682,510	-92,459	0,064	-0,013
-681,495	-194,372	-0,027	0,000
-680,481	-154,175	-0,106	-0,005
-679,466	-43,929	-0,087	-0,032
-678,451	800,000	-0,042	-0,105
-677,437	385,525	0,062	0,094
-676,422	-30,409	0,062	-0,026
-675,408	136,277	-0,041	0,039
-674,393	67,096	0,095	-0,071
-673,378	49,854	-0,211	-0,146
-672,364	181,946	0,083	-0,090
-671,349	-57,411	-0,185	-0,059
-670,335	-200,000	-0,002	0,019
-669,320	-58,736	0,062	-0,019
-668,305	142,452	-0,050	0,049
-667,291	504,637	-0,077	-0,131
-666,276	-200,000	0,047	-0,189
-665,262	-67,663	-0,186	-0,053
-664,247	-84,384	-0,058	-0,013
-663,232	-200,000	-0,016	0,055
-662,218	-9,924	-0,055	-0,027
-661,203	800,000	0,028	-0,077
-660,189	261,197	-0,034	0,044
-659,174	372,693	-0,059	-0,088
-658,159	-200,000	-0,012	-0,096
-657,145	-20,118	-0,049	-0,022
-656,130	46,877	0,082	-0,056
-655,116	-80,930	0,116	0,028
-654,101	682,838	0,017	-0,032
-653,086	-10,495	0,116	-0,056
-652,072	-33,813	-0,016	-0,006
-651,057	-200,000	0,031	-0,209
-650,043	266,807	-0,086	-0,110
-649,028	86,037	0,031	-0,025
-648,014	800,000	0,023	0,056
-646,999	-200,000	0,043	-0,254
-645,984	-200,000	0,000	0,010
-644,970	-200,000	-0,027	-0,127
-643,955	-200,000	-0,018	-0,104
-642,941	-77,566	0,112	-0,028
-641,926	155,956	-0,126	-0,127
-640,911	800,000	0,038	0,093
-639,897	-106,321	-0,055	0,009
-638,882	-200,000	-0,005	0,047
-637,868	-82,769	0,106	-0,025
-636,853	-73,370	-0,077	0,021
-635,838	-39,457	-0,160	-0,061
-634,824	-200,000	-0,006	0,026
-633,809	-200,000	-0,016	0,087
-632,795	-34,950	0,029	-0,012
-631,780	-21,101	-0,030	0,014
-630,765	603,397	-0,058	-0,106
-629,751	254,322	0,093	0,117
-628,736	-71,376	-0,060	-0,016
-627,722	-200,000	0,018	-0,102
-626,707	-89,331	0,024	-0,005
-625,692	89,118	0,065	-0,053
-624,678	42,233	-0,111	-0,074
-623,663	-200,000	0,054	0,189
-622,649	-200,000	-0,020	-0,079
-621,634	96,572	-0,156	-0,131
-620,619	-200,000	0,025	-0,138
-619,605	38,182	0,067	-0,044
-618,590	-200,000	-0,047	0,190
-617,576	-200,000	-0,032	0,108
-616,561	87,335	0,034	-0,028
-615,546	-75,628	-0,039	0,010
-614,532	-168,750	-0,046	-0,001
-613,517	-200,000	0,021	-0,115
-612,503	-44,421	-0,081	0,030
-611,488	-60,357	-0,077	0,024
-610,474	-87,422	0,113	-0,025
-609,459	670,373	0,039	0,074
-608,444	-108,518	-0,202	0,032
-607,430	-200,000	0,000	-0,004
-606,415	-38,769	-0,010	-0,004
-605,401	32,108	0,100	-0,063
-604,386	-14,280	-0,158	0,074
-603,371	-179,121	0,149	0,002
-602,357	-200,000	-0,005	0,034
-601,342	-21,625	-0,031	0,014
-600,328	-200,000	0,028	-0,096
-599,313	-200,000	-0,009	-0,090
-598,298	-200,000	-0,015	-0,092
-597,284	283,419	0,052	0,068
-596,269	211,840	0,095	0,109
-595,255	-26,622	-0,106	-0,045
-594,240	-132,216	-0,086	-0,008
-593,225	-133,417	0,058	0,005
-592,211	-200,000	0,002	0,009
-591,196	103,457	0,091	0,078
-590,182	-46,140	0,078	-0,028
-589,167	-14,039	0,064	-0,030
-588,152	25,764	-0,096	0,058
-587,138	776,532	-0,063	0,126
-586,123	128,634	0,067	-0,063
-585,109	-200,000	0,016	-0,141
-584,094	-200,000	0,005	0,028
-583,079	-200,000	0,020	-0,093
-582,065	187,064	0,061	0,067
-581,050	94,027	0,146	-0,121
-580,036	151,048	-0,113	-0,113
-579,021	-98,910	-0,216	-0,040
-578,006	3,855	0,130	-0,069
-576,992	260,776	-0,052	0,066
-575,977	-33,950	0,229	0,092
-574,963	-84,241	0,059	0,014
-573,948	-200,000	-0,040	-0,175
-572,934	682,435	-0,054	0,103
-571,919	100,690	-0,100	-0,085
-570,904	304,920	-0,104	-0,141
-569,890	800,000	-0,023	-0,069
-568,875	-114,521	0,086	0,012
-567,861	-200,000	0,000	-0,041
-566,846	313,617	-0,054	0,074
-565,831	373,916	-0,047	0,070
-564,817	30,717	-0,118	0,073
-563,802	-63,892	0,023	0,007
-562,788	-153,819	-0,121	0,006
-561,773	120,754	0,004	0,004
-560,758	-200,000	-0,008	0,029
-559,744	-33,988	-0,086	-0,035
-558,729	-85,496	-0,138	-0,031
-557,715	-200,000	0,012	0,049
-556,700	498,939	-0,025	0,042
-555,685	-200,000	-0,009	-0,073
-554,671	29,262	-0,044	-0,028
-553,656	-94,610	0,063	-0,012
-552,642	-72,731	0,109	0,029
-551,627	336,105	-0,078	0,111
-550,612	-200,000	-0,007	0,057
-549,598	-18,173	-0,110	-0,050
-548,583	-50,469	-0,107	0,037
-547,569	70,237	0,058	0,044
-546,554	-10,416	0,062	0,030
-545,539	284,894	-0,025	-0,034
-544,525	-200,000	0,017	-0,082
-543,510	-200,000	0,004	-0,125
-542,496	151,792	0,078	-0,078
-541,481	800,000	0,010	-0,023
-540,466	-38,990	-0,086	-0,033
-539,452	-194,300	0,102	0,001
-538,437	308,763	0,043	-0,059
-537,423	362,267	0,056	0,083
-536,408	83,082	0,135	-0,108
-535,393	-200,000	0,011	-0,039
-534,379	512,411	0,056	0,095
-533,364	208,192	0,031	-0,036
-532,350	152,107	-0,061	-0,061
-531,335	-200,000	-0,013	-0,050
-530,321	733,462	0,040	-0,078
-529,306	164,775	-0,093	-0,096
-528,291	161,079	0,049	-0,050
-527,277	-55,643	-0,159	-0,052
-526,262	800,000	-0,057	-0,145
-525,248	143,770	-0,052	-0,051
-524,233	-11,385	0,090	0,043
-523,218	800,000	-0,051	0,134
-522,204	29,017	-0,039	0,024
-521,189	44,439	0,020	-0,013
-520,175	201,505	-0,035	0,039
-519,160	-200,000	-0,008	-0,027
-518,145	-86,170	0,026	0,006
-517,131	-200,000	-0,003	0,073
-516,116	-84,546	-0,109	0,025
-515,102	-162,309	-0,053	-0,002
-514,087	77,597	-0,049	-0,038
-513,072	44,762	0,096	-0,064
-512,058	-200,000	0,009	-0,043
-511,043	74,392	-0,034	-0,026
-510,029	392,458	-0,068	-0,104
-509,014	-132,060	0,099	-0,009
-507,999	-124,424	-0,053	-0,006
-506,985	-171,431	0,111	-0,003
-505,970	173,149	-0,046	-0,048
-504,956	-187,007	-0,093	0,001
-503,941	-15,854	-0,086	0,040
-502,926	800,000	-0,008	-0,020
-501,912	325,273	0,075	0,105
-500,897	-127,535	0,127	-0,013
-499,883	-143,987	0,080	-0,005
-498,868	776,764	-0,043	0,087
-497,853	-74,846	-0,150	0,039
-496,839	-110,853	0,082	0,012
-495,824	-200,000	-0,003	-0,011
-494,810	-71,170	0,011	-0,003
-493,795	208,302	-0,053	-0,060
-492,781	125,383	-0,055	-0,051
-491,766	-200,000	0,002	-0,073
-490,751	-46,168	-0,127	0,045
-489,737	238,004	0,064	0,078
-488,722	-200,000	-0,006	0,022
-487,708	800,000	0,014	0,033
-486,693	168,753	-0,096	0,100
-485,678	-200,000	0,022	-0,114
-484,664	-200,000	-0,005	0,083
-483,649	338,256	0,030	-0,042
-482,635	-200,000	-0,013	-0,165
-481,620	-16,078	-0,043	-0,020
-480,605	-200,000	0,016	-0,065
-479,591	183,763	-0,058	0,063
-478,576	-39,612	-0,035	-0,013
-477,562	-139,446	-0,086	0,007
-476,547	-200,000	-0,011	-0,045
-475,532	-165,587	-0,104	-0,003
-474,518	-27,084	-0,037	-0,016
-473,503	800,000	0,040	0,121
-472,489	121,446	0,069	-0,063
-471,474	-24,754	0,034	-0,015
-470,459	-200,000	-0,006	-0,116
-469,445	-33,246	0,077	-0,031
-468,430	27,914	0,036	-0,022
-467,416	800,000	0,025	0,055
-466,401	180,546	0,031	0,033
-465,386	800,000	-0,034	0,079
-464,372	-130,678	-0,093	-0,009
-463,357	109,006	-0,049	-0,043
-462,343	121,674	0,078	-0,070
-461,328	-200,000	-0,016	-0,111
-460,313	-24,327	0,066	-0,028
-459,299	-188,056	-0,022	-0,000
-458,284	-87,442	0,011	0,002
-457,270	143,931	0,042	0,040
-456,255	141,357	-0,017	0,017
-455,241	-26,339	-0,110	0,047
-454,226	212,326	-0,047	-0,054
-453,211	-200,000	0,009	-0,086
-452,197	22,020	-0,101	-0,060
-451,182	-34,640	0,147	-0,058
-450,168	47,137	-0,129	-0,087
-449,153	-6,473	-0,067	-0,033
-448,138	-200,000	0,002	0,046
-447,124	-200,000	0,004	-0,035
-446,109	-33,523	-0,113	-0,045
-445,095	-112,735	0,106	-0,015
-444,080	-20,988	-0,098	-0,043
-443,065	22,853	0,088	-0,052
-442,051	50,697	0,087	0,060
-441,036	15,183	0,077	0,044
-440,022	-20,530	-0,037	-0,016
-439,007	-61,332	0,073	-0,022
-437,992	800,000	0,045	0,102
-436,978	-200,000	-0,005	0,052
-435,963	606,662	0,031	0,056
-434,949	800,000	-0,013	-0,029
-433,934	-124,296	-0,065	0,007
-432,919	43,874	-0,027	-0,018
-431,905	171,180	0,092	0,096
-430,890	800,000	-0,069	-0,168
-429,876	-87,364	0,043	0,009
-428,861	-72,946	0,010	-0,003
-427,846	-200,000	-0,006	0,032
-426,832	-19,701	0,039	0,018
-425,817	-71,031	-0,093	-0,025
-424,803	570,608	-0,015	0,026
-423,788	86,898	0,096	0,077
-422,773	800,000	-0,014	-0,040
-421,759	2,236	0,064	0,034
-420,744	-50,535	0,025	0,009
-419,730	-147,743	-0,030	-0,002
-418,715	-200,000	0,024	0,134
-417,701	675,318	-0,012	-0,023
-416,686	269,718	0,027	0,035
-415,671	-110,728	0,115	-0,017
-414,657	800,000	0,008	0,024
-413,642	6,911	0,072	-0,039
-412,628	-8,689	-0,071	0,035
-411,613	-80,513	0,071	-0,017
-410,598	-200,000	-0,012	0,051
-409,584	-200,000	-0,012	0,060
-408,569	-200,000	0,017	-0,105
-407,555	-28,757	0,080	0,033
-406,540	135,957	-0,157	0,149
-405,525	800,000	0,058	-0,139
-404,511	-70,154	-0,027	-0,007
-403,496	573,660	-0,041	0,073
-402,482	-72,897	-0,128	0,034
-401,467	-200,000	-0,018	0,074
-400,452	800,000	-0,011	0,025
-399,438	91,181	0,076	0,062
-398,423	201,994	-0,113	0,126
-397,409	-200,000	-0,016	-0,130
-396,394	323,156	-0,117	0,162
-395,379	230,375	0,040	0,047
-394,365	190,251	0,057	0,063
-393,350	-158,769	0,149	0,006
-392,336	-96,766	-0,129	0,024
-391,321	-24,168	-0,025	-0,011
-390,306	-105,007	0,039	0,006
-389,292	-161,028	-0,091	-0,003
-388,277	-200,000	-0,014	0,055
-387,263	-200,000	-0,024	0,099
-386,248	45,185	0,066	-0,044
-385,233	47,033	-0,033	-0,023
-384,219	74,507	-0,061	-0,046
-383,204	-198,903	-0,124	0,000
-382,190	-99,157	0,067	-0,012
-381,175	15,652	-0,043	0,025
-380,160	800,000	0,024	0,059
-379,146	269,810	0,058	-0,074
-378,131	28,385	-0,050	0,031
-377,117	-200,000	-0,011	0,193
-376,102	-170,878	0,084	-0,002
-375,088	285,321	-0,101	-0,132
-374,073	-200,000	-0,019	-0,132
-373,058	-89,096	-0,120	-0,026
-372,044	148,211	0,116	0,114
-371,029	200,105	-0,109	0,121
-370,015	317,966	-0,058	0,079
-369,000	-33,885	0,008	0,003
-367,985	249,059	-0,044	0,054
-366,971	-52,903	0,049	-0,016
-365,956	627,010	0,102	0,187
-364,942	-124,770	0,047	-0,005
-363,927	280,849	0,088	-0,115
-362,912	453,948	0,029	-0,047
-361,898	-200,000	0,002	-0,121
-360,883	800,000	0,046	-0,119
-359,869	-200,000	0,017	-0,070
-358,854	623,579	0,019	-0,036
-357,839	-193,475	-0,056	0,000
-356,825	-200,000	0,004	0,066
-355,810	-200,000	0,023	0,099
-354,796	150,472	-0,052	0,052
-353,781	-200,000	-0,000	0,161
-352,766	800,000	-0,078	-0,187
-351,752	-132,684	0,133	-0,012
-350,737	33,692	0,044	0,028
-349,723	28,746	-0,054	0,033
-348,708	-200,000	-0,030	0,105
-347,693	105,674	0,067	0,058
-346,679	258,225	-0,043	0,054
-345,664	800,000	0,026	0,081
-344,650	800,000	0,041	-0,092
-343,635	632,214	0,042	0,077
-342,620	84,700	-0,102	0,081
-341,606	-112,147	-0,122	0,018
-340,591	131,795	0,121	0,113
-339,577	102,817	0,044	-0,037
-338,562	-78,134	-0,095	0,024
-337,548	141,438	0,058	-0,055
-336,533	26,641	0,020	0,012
-335,518	-44,188	0,022	-0,008
-334,504	388,528	-0,025	0,037
-333,489	-200,000	-0,034	-0,117
-332,475	800,000	-0,047	-0,112
-331,460	128,084	0,047	-0,044
-330,445	-200,000	-0,005	-0,093
-329,431	800,000	0,021	-0,056
-328,416	-200,000	0,015	0,163
-327,402	196,497	0,041	-0,045
-326,387	438,795	0,109	0,173
-325,372	198,883	-0,041	-0,046
-324,358	278,621	0,030	0,039
-323,343	27,667	-0,061	0,037
-322,329	-200,000	-0,005	0,069
-321,314	56,786	0,056	-0,040
-320,299	-200,000	-0,012	0,064
-319,285	-131,841	-0,046	-0,004
-318,270	-107,463	0,124	-0,019
-317,256	209,289	-0,094	-0,106
-316,241	446,694	0,031	-0,049
-315,226	800,000	-0,053	0,140
-314,212	507,859	0,015	-0,025
-313,197	-200,000	0,012	-0,124
-312,183	113,377	-0,043	-0,038
-311,168	-200,000	-0,007	0,047
-310,153	56,370	-0,080	-0,056
-309,139	800,000	0,029	-0,074
-308,124	-200,000	0,001	-0,133
-307,110	-36,398	0,102	0,040
-306,095	-138,215	0,009	-0,001
-305,080	-200,000	0,009	0,093
-304,066	800,000	-0,036	0,076
-303,051	132,676	-0,025	0,023
-302,037	800,000	0,014	0,040
-301,022	800,000	0,038	-0,078
-300,008	-2,698	-0,063	0,032
-298,993	-54,664	0,039	0,013
-297,978	800,000	-0,022	0,050
-296,964	-6,342	-0,013	0,006
-295,949	-14,390	-0,042	-0,020
-294,935	800,000	-0,015	-0,037
-293,920	113,434	0,082	0,072
-292,905	1,382	-0,066	0,034
-291,891	-200,000	0,009	0,199
-290,876	-96,843	0,055	-0,010
-289,862	800,000	-0,042	0,126
-288,847	77,614	0,045	0,035
-287,832	-200,000	-0,001	-0,095
-286,818	-200,000	-0,002	-0,023
-285,803	-27,888	0,141	0,059
-284,789	800,000	0,063	0,169
-283,774	274,329	0,025	-0,032
-282,759	-27,712	-0,023	-0,009
-281,745	-85,640	-0,012	0,003
-280,730	800,000	0,046	-0,105
-279,716	114,066	-0,112	-0,099
-278,701	800,000	0,045	0,142
-277,686	251,404	-0,025	-0,031
-276,672	112,795	-0,065	0,057
-275,657	-200,000	-0,015	0,067
-274,643	63,826	-0,082	0,059
-273,628	102,766	0,123	0,104
-272,613	463,204	-0,075	-0,121
-271,599	-132,518	0,125	-0,012
-270,584	-23,484	0,037	-0,016
-269,570	-26,279	-0,105	0,044
-268,555	-35,936	0,076	-0,030
-267,540	175,752	0,068	-0,071
-266,526	-200,000	-0,027	-0,107
-265,511	53,594	-0,087	-0,060
-264,497	-200,000	0,045	-0,155
-263,482	-200,000	-0,005	0,034
-262,467	16,209	0,062	0,035
-261,453	800,000	0,072	-0,148
-260,438	523,353	0,021	0,036
-259,424	204,128	-0,038	0,043
-258,409	-200,000	-0,040	0,161
-257,395	-42,737	0,059	0,022
-256,380	70,295	0,079	0,059
-255,365	13,194	0,088	0,049
-254,351	-73,249	0,056	-0,015
-253,336	-200,000	0,004	-0,093
-252,322	237,288	0,065	-0,078
-251,307	-13,970	0,108	-0,050
-250,292	469,563	-0,037	0,061
-249,278	-200,000	0,024	0,089
-248,263	239,385	0,119	0,143
-247,249	-111,890	0,050	-0,007
-246,234	-63,536	-0,093	0,028
-245,219	800,000	-0,018	-0,040
-244,205	-200,000	0,020	-0,177
-243,190	126,133	0,086	-0,078
-242,176	259,381	0,117	0,146
-241,161	-17,210	0,133	0,060
-240,146	-200,000	0,007	-0,034
-239,132	-143,835	0,131	0,009
-238,117	10,827	-0,025	0,014
-237,103	9,610	0,075	0,041
-236,088	-200,000	-0,046	0,149
-235,073	134,294	0,107	0,100
-234,059	-35,160	0,177	0,069
-233,044	-200,000	-0,012	0,151
-232,030	14,107	0,069	-0,039
-231,015	125,977	-0,101	0,093
-230,000	433,277	0,006	-0,009
-228,986	-1,545	0,086	0,043
-227,971	81,459	0,013	-0,010
-226,957	-3,648	0,197	0,098
-225,942	800,000	-0,051	0,137
-224,927	-200,000	0,008	0,062
-223,913	-200,000	0,010	-0,067
-222,898	342,823	-0,100	-0,142
-221,884	284,961	0,017	0,022
-220,869	-78,928	0,168	-0,041
-219,855	743,626	-0,009	0,018
-218,840	-200,000	0,007	-0,070
-217,825	-200,000	0,012	0,125
-216,811	-200,000	0,016	0,104
-215,796	67,141	0,109	-0,080
-214,782	-200,000	-0,026	-0,185
-213,767	-18,631	0,053	-0,024
-212,752	800,000	0,018	-0,039
-211,738	82,018	0,080	0,063
-210,723	800,000	-0,020	-0,042
-209,709	483,730	0,026	-0,043
-208,694	-27,447	0,060	0,025
-207,679	-34,246	0,023	0,009
-206,665	800,000	-0,037	0,100
-205,650	-66,334	-0,059	0,017
-204,636	475,909	-0,045	0,073
-203,621	112,620	0,123	-0,107
-202,606	64,340	-0,089	-0,065
-201,592	-200,000	-0,011	-0,119
-200,577	-27,484	0,078	0,033
-199,563	98,092	0,104	-0,086
-198,548	94,997	0,101	0,083
-197,533	-200,000	0,022	0,118
-196,519	147,111	0,140	0,136
-195,504	800,000	-0,022	-0,052
-194,490	-200,000	-0,003	0,045
-193,475	800,000	-0,027	-0,078
-192,460	-116,982	-0,032	-0,004
-191,446	-200,000	0,040	-0,133
-190,431	-123,521	0,117	0,013
-189,417	121,097	-0,085	0,077
-188,402	42,879	-0,127	-0,084
-187,387	238,703	-0,087	-0,105
-186,373	-200,000	-0,002	-0,117
-185,358	69,537	0,066	-0,049
-184,344	-69,639	-0,055	0,015
-183,329	137,678	-0,074	-0,070
-182,315	-162,219	0,057	-0,002
-181,300	215,015	0,056	0,064
-180,285	-110,641	-0,116	-0,017
-179,271	-114,224	-0,115	-0,016
-178,256	-28,151	-0,035	0,015
-177,242	800,000	-0,050	0,114
-176,227	800,000	0,050	0,116
-175,212	126,522	-0,036	0,033
-174,198	286,280	-0,042	0,055
-173,183	-128,473	-0,058	0,006
-172,169	-1,036	0,087	-0,044
-171,154	672,259	0,115	-0,216
-170,139	800,000	-0,030	-0,078
-169,125	111,612	0,133	0,115
-168,110	-200,000	-0,023	0,157
-167,096	-33,888	-0,049	0,019
-166,081	-200,000	0,005	-0,048
-165,066	-124,529	-0,047	0,005
-164,052	-67,456	0,077	0,022
-163,037	24,946	-0,175	-0,104
-162,023	178,866	-0,105	-0,110
-161,008	40,009	0,087	0,056
-159,993	364,456	-0,029	-0,042
-158,979	-130,132	-0,208	-0,020
-157,964	-22,289	-0,222	-0,096
-156,950	800,000	0,016	-0,044
-155,935	113,826	-0,159	0,139
-154,920	-200,000	0,003	0,125
-153,906	471,906	-0,098	0,160
-152,891	631,063	-0,023	-0,043
-151,877	399,658	0,067	-0,101
-150,862	-1,787	-0,069	-0,035
-149,847	800,000	-0,043	-0,126
-148,833	154,239	0,057	-0,056
-147,818	-123,231	0,098	-0,011
-146,804	652,222	-0,046	0,085
-145,789	800,000	0,053	0,135
-144,775	-106,273	0,055	-0,009
-143,760	-91,557	-0,126	-0,026
-142,745	144,828	-0,068	-0,065
-141,731	323,959	0,006	-0,008
-140,716	-200,000	0,007	0,071
-139,702	-72,887	0,198	0,052
-138,687	-200,000	0,000	0,081
-137,672	101,801	-0,149	-0,125
-136,658	-200,000	-0,005	-0,169
-135,643	398,586	-0,043	-0,065
-134,629	800,000	0,018	-0,053
-133,614	118,324	-0,051	-0,046
-132,599	-98,585	0,094	0,017
-131,585	-200,000	-0,036	0,148
-130,570	45,729	0,082	0,055
-129,556	99,064	-0,019	0,016
-128,541	42,528	0,112	0,073
-127,526	-71,755	-0,084	0,022
-126,512	30,898	0,154	0,095
-125,497	-121,993	0,100	0,012
-124,483	-200,000	0,009	0,050
-123,468	152,776	0,030	0,029
-122,453	-200,000	0,009	0,059
-121,439	-16,169	-0,195	-0,089
-120,424	-200,000	0,002	-0,039
-119,410	-200,000	0,011	-0,085
