DTS Sentinel unit serial number:	SN410029Multiplexer serial number:	ORYXHardware model number:	OX2-SRSoftware version number:	ORYX F/W v4,00 Oryx Data Collector v3.7.2.0data status	okinstallation	B5 Nyhavnadifferential loss correction	single-endedforward channel	channel 2reverse channel	N/Adate	2023/12/13time	20:22:13forward acquisition time	300,00reverse acquisition time	0,00gamma	499,1914k internal	0,3158k external	0,3158temperature offset calibration	1,0000default loss term (dB/km)	0,3820temperature slope calibration	1,0000multiplexer offset coefficient	1,0000multiplexer slope coefficient	1,0000fibre end	0,00T internal ref (°C)	10,86T ext. ref 1 (°C)	-6,18T ext. ref 2 (°C)	-6,22length (m)	temperature (°C)	Stokes	anti-Stokes-744,400	21,342	0,071	-0,042
-743,385	35,519	-0,217	-0,140
-742,371	-44,129	-0,014	-0,005
-741,356	-74,636	-0,164	-0,043
-740,342	306,416	0,108	0,149
-739,327	3,755	-0,317	-0,170
-738,312	800,000	0,018	0,042
-737,298	-14,689	-0,311	-0,147
-736,283	-98,823	0,176	0,033
-735,269	-158,454	-0,358	0,015
-734,254	800,000	0,087	0,250
-733,239	-54,020	-0,586	-0,195
-732,225	186,869	0,157	0,173
-731,210	634,373	-0,016	0,029
-730,196	-200,000	-0,005	-0,066
-729,181	-200,000	-0,015	-0,075
-728,167	-200,000	-0,025	-0,114
-727,152	-32,919	-0,076	0,031
-726,137	-200,000	-0,039	-0,141
-725,123	69,799	-0,081	-0,061
-724,108	56,113	-0,069	-0,049
-723,094	-200,000	-0,010	-0,104
-722,079	-116,693	0,103	-0,014
-721,064	11,200	-0,055	0,031
-720,050	-1,081	0,023	0,012
-719,035	-143,791	-0,231	-0,016
-718,021	-200,000	-0,021	-0,155
-717,006	377,785	-0,049	0,074
-715,991	-200,000	-0,000	-0,019
-714,977	-60,791	-0,190	-0,059
-713,962	110,797	0,046	-0,041
-712,948	800,000	-0,038	0,077
-711,933	-2,265	0,048	0,025
-710,918	223,471	-0,065	-0,077
-709,904	-200,000	0,027	-0,106
-708,889	309,116	-0,056	-0,077
-707,875	800,000	0,052	-0,141
-706,860	301,175	0,058	-0,079
-705,845	-135,183	0,135	-0,012
-704,831	47,616	-0,040	0,028
-703,816	800,000	-0,005	-0,011
-702,802	139,665	0,015	-0,014
-701,787	334,995	-0,111	-0,159
-700,772	-200,000	-0,006	-0,047
-699,758	-156,752	-0,175	-0,008
-698,743	-200,000	0,021	0,128
-697,729	800,000	0,056	0,117
-696,714	-37,997	-0,036	0,014
-695,699	240,325	0,084	0,104
-694,685	-25,415	-0,088	-0,038
-693,670	211,205	-0,028	0,033
-692,656	390,601	-0,054	-0,082
-691,641	231,765	-0,030	0,037
-690,627	53,725	0,069	-0,048
-689,612	-23,551	-0,020	-0,009
-688,597	-200,000	-0,009	0,160
-687,583	249,924	-0,026	-0,033
-686,568	2,283	-0,054	0,029
-685,554	104,574	-0,054	-0,047
-684,539	702,377	0,023	0,044
-683,524	3,145	0,111	0,059
-682,510	493,636	-0,048	0,080
-681,495	-200,000	-0,004	-0,044
-680,481	83,404	0,145	-0,116
-679,466	47,354	-0,033	-0,023
-678,451	277,861	-0,117	-0,154
-677,437	-200,000	0,014	0,056
-676,422	-39,816	-0,110	-0,042
-675,408	-200,000	-0,005	0,138
-674,393	41,978	0,052	0,034
-673,378	699,925	-0,056	-0,110
-672,364	79,309	-0,091	0,072
-671,349	-200,000	-0,002	0,034
-670,335	-164,438	0,010	0,000
-669,320	-200,000	0,002	-0,040
-668,305	160,355	0,062	-0,063
-667,291	-151,968	-0,068	-0,004
-666,276	800,000	0,022	0,048
-665,262	63,073	0,143	-0,105
-664,247	85,168	-0,159	-0,128
-663,232	-200,000	0,002	-0,166
-662,218	37,061	-0,075	0,049
-661,203	-12,476	-0,129	-0,062
-660,189	769,051	0,009	-0,018
-659,174	-200,000	0,049	-0,185
-658,159	-200,000	0,037	-0,121
-657,145	800,000	-0,012	-0,026
-656,130	-91,006	-0,134	-0,028
-655,116	800,000	-0,031	0,081
-654,101	14,942	-0,106	-0,061
-653,086	-183,716	0,051	0,001
-652,072	-113,421	-0,110	0,016
-651,057	-200,000	0,047	-0,160
-650,043	-101,183	0,044	-0,008
-649,028	76,585	0,023	0,018
-648,014	-11,354	0,134	-0,064
-646,999	334,043	-0,077	0,110
-645,984	445,322	0,040	0,065
-644,970	-200,000	-0,017	0,136
-643,955	157,288	-0,033	0,033
-642,941	192,410	0,119	-0,132
-641,926	-200,000	-0,010	0,044
-640,911	-200,000	0,016	0,097
-639,897	257,152	0,036	-0,045
-638,882	-30,222	-0,033	-0,014
-637,868	-200,000	-0,003	-0,106
-636,853	-200,000	-0,026	-0,149
-635,838	-200,000	0,001	-0,187
-634,824	-200,000	-0,008	0,042
-633,809	-200,000	-0,001	-0,142
-632,795	800,000	-0,061	-0,151
-631,780	92,850	0,038	0,032
-630,765	447,662	0,090	-0,145
-629,751	34,906	-0,075	0,048
-628,736	165,745	-0,101	-0,104
-627,722	-31,374	0,119	0,049
-626,707	59,685	0,170	-0,123
-625,692	-200,000	-0,004	0,036
-624,678	22,772	-0,019	-0,012
-623,663	207,123	0,117	0,134
-622,649	-37,538	-0,181	0,071
-621,634	-200,000	-0,071	0,246
-620,619	-54,591	-0,087	-0,029
-619,605	2,384	0,105	0,056
-618,590	40,768	0,048	-0,032
-617,576	-0,674	-0,131	-0,068
-616,561	800,000	0,027	0,073
-615,546	-137,705	-0,040	-0,003
-614,532	-200,000	0,027	-0,145
-613,517	-100,286	-0,100	0,018
-612,503	136,659	0,089	-0,086
-611,488	-200,000	-0,002	-0,055
-610,474	739,659	0,024	-0,048
-609,459	-60,149	0,055	-0,017
-608,444	452,095	-0,020	-0,032
-607,430	-200,000	0,007	-0,052
-606,415	-200,000	-0,003	-0,081
-605,401	94,018	-0,111	0,092
-604,386	-200,000	-0,010	0,070
-603,371	170,395	0,043	0,045
-602,357	313,704	-0,029	-0,040
-601,342	105,918	-0,101	-0,088
-600,328	160,024	0,085	0,087
-599,313	314,623	-0,045	-0,063
-598,298	-53,553	-0,074	-0,025
-597,284	78,726	0,077	0,060
-596,269	-119,858	-0,090	0,011
-595,255	188,788	0,074	0,081
-594,240	-200,000	0,012	0,099
-593,225	-0,700	0,126	0,065
-592,211	112,884	-0,150	-0,133
-591,196	10,614	0,033	-0,018
-590,182	-39,756	0,124	0,047
-589,167	274,113	0,078	-0,102
-588,152	432,028	0,063	-0,100
-587,138	-62,465	-0,066	-0,020
-586,123	-200,000	-0,015	-0,092
-585,109	235,354	-0,070	-0,085
-584,094	107,825	-0,078	-0,068
-583,079	-200,000	0,022	-0,074
-582,065	-200,000	-0,022	0,156
-581,050	800,000	0,063	0,146
-580,036	137,494	-0,089	-0,085
-579,021	711,947	-0,027	-0,053
-578,006	-200,000	-0,008	-0,034
-576,992	-200,000	0,007	-0,069
-575,977	800,000	-0,031	0,065
-574,963	573,620	-0,036	0,065
-573,948	-153,808	0,078	0,004
-572,934	-200,000	-0,009	-0,069
-571,919	-200,000	0,034	-0,167
-570,904	4,037	-0,070	0,037
-569,890	314,300	-0,046	-0,063
-568,875	-85,087	-0,062	-0,014
-567,861	-117,992	0,137	0,018
-566,846	25,220	0,109	-0,066
-565,831	65,308	-0,023	0,017
-564,817	272,529	0,066	-0,085
-563,802	231,974	-0,022	0,027
-562,788	206,589	-0,075	0,086
-561,773	80,657	0,096	0,076
-560,758	453,684	0,069	0,112
-559,744	38,918	-0,188	0,122
-558,729	-200,000	0,014	0,118
-557,715	94,682	-0,079	-0,066
-556,700	-25,098	0,063	-0,027
-555,685	-200,000	0,032	-0,144
-554,671	55,248	-0,071	0,050
-553,656	-16,587	0,063	-0,029
-552,642	-200,000	-0,014	0,059
-551,627	-200,000	0,018	0,059
-550,612	-200,000	0,012	-0,082
-549,598	-200,000	-0,002	-0,058
-548,583	96,644	-0,058	0,049
-547,569	-107,101	0,009	-0,001
-546,554	-200,000	0,014	0,087
-545,539	800,000	0,004	-0,010
-544,525	-200,000	0,018	-0,071
-543,510	-23,096	0,173	-0,076
-542,496	-96,912	-0,118	-0,022
-541,481	42,075	-0,120	-0,080
-540,466	162,406	0,085	-0,087
-539,452	434,353	0,046	-0,074
-538,437	-171,433	0,054	0,001
-537,423	39,073	0,055	-0,036
-536,408	-200,000	0,002	-0,017
-535,393	58,008	-0,048	-0,034
-534,379	800,000	0,007	0,021
-533,364	120,769	-0,028	-0,026
-532,350	800,000	0,033	-0,084
-531,335	550,577	0,123	0,216
-530,321	-150,137	0,037	0,002
-529,306	86,896	-0,044	0,036
-528,291	-115,063	-0,135	-0,019
-527,277	-200,000	0,001	0,039
-526,262	-200,000	0,009	-0,094
-525,248	800,000	0,015	0,040
-524,233	8,589	-0,058	-0,032
-523,218	-104,625	0,105	0,018
-522,204	47,646	0,068	-0,047
-521,189	392,745	0,070	-0,107
-520,175	20,801	0,085	-0,050
-519,160	8,545	0,051	-0,028
-518,145	39,925	-0,046	0,030
-517,131	-200,000	-0,014	0,121
-516,116	-143,089	0,029	-0,002
-515,102	246,776	0,015	-0,019
-514,087	-79,079	0,103	0,025
-513,072	-61,098	-0,070	-0,021
-512,058	800,000	0,021	0,054
-511,043	-69,651	0,188	0,052
-510,029	-200,000	0,030	0,097
-509,014	14,353	0,074	0,042
-507,999	-200,000	-0,018	0,150
-506,985	-200,000	-0,037	-0,129
-505,970	23,430	0,086	-0,052
-504,956	30,439	-0,039	-0,025
-503,941	-200,000	0,016	0,220
-502,926	-200,000	0,006	0,081
-501,912	306,492	0,094	0,128
-500,897	800,000	0,037	0,116
-499,883	-94,140	-0,125	0,025
-498,868	11,023	0,097	-0,054
-497,853	251,901	-0,058	-0,072
-496,839	-22,853	0,215	0,094
-495,824	-200,000	0,002	-0,107
-494,810	512,941	-0,038	-0,064
-493,795	138,091	0,013	-0,012
-492,781	477,303	-0,045	-0,074
-491,766	-200,000	-0,010	0,120
-490,751	-96,190	-0,009	0,002
-489,737	512,314	-0,009	-0,016
-488,722	-155,801	0,060	-0,003
-487,708	-23,250	0,114	0,050
-486,693	-200,000	0,012	0,043
-485,678	80,156	-0,144	0,113
-484,664	-32,073	-0,016	-0,006
-483,649	-6,536	-0,058	0,029
-482,635	-200,000	-0,002	0,042
-481,620	276,879	0,083	0,109
-480,605	800,000	-0,080	0,191
-479,591	183,237	0,025	0,026
-478,576	-21,818	-0,146	0,064
-477,562	335,093	-0,069	0,098
-476,547	179,355	-0,070	0,075
-475,532	800,000	-0,029	-0,060
-474,518	540,067	-0,074	-0,130
-473,503	-200,000	-0,012	-0,085
-472,489	-76,487	0,278	0,071
-471,474	646,588	-0,047	0,088
-470,459	59,988	-0,044	-0,032
-469,445	553,882	0,025	-0,045
-468,430	96,494	-0,119	-0,099
-467,416	42,725	-0,097	0,064
-466,401	-200,000	0,004	-0,043
-465,386	-52,949	-0,018	0,006
-464,372	-59,684	-0,071	-0,022
-463,357	-200,000	0,046	-0,171
-462,343	237,350	-0,133	-0,161
-461,328	259,982	-0,016	-0,020
-460,313	-24,968	0,069	0,030
-459,299	-8,338	-0,076	-0,037
-458,284	666,358	-0,020	-0,037
-457,270	494,393	-0,054	0,090
-456,255	42,754	-0,188	-0,124
-455,241	-200,000	-0,018	-0,082
-454,226	-128,566	-0,070	0,007
-453,211	-8,056	0,192	-0,094
-452,197	-113,773	0,101	-0,014
-451,182	4,522	0,075	0,040
-450,168	62,529	0,041	-0,030
-449,153	-160,601	-0,161	-0,006
-448,138	-150,592	-0,108	0,006
-447,124	82,519	-0,013	0,010
-446,109	-63,697	-0,099	0,029
-445,095	503,581	0,047	0,079
-444,080	800,000	0,016	-0,044
-443,065	800,000	0,025	0,052
-442,051	-200,000	-0,030	0,101
-441,036	100,782	0,061	-0,051
-440,022	800,000	-0,004	0,012
-439,007	-200,000	0,005	0,070
-437,992	400,759	0,047	-0,072
-436,978	387,811	-0,054	0,081
-435,963	206,516	-0,103	0,117
-434,949	800,000	-0,045	0,122
-433,934	800,000	0,017	0,049
-432,919	800,000	-0,038	-0,109
-431,905	-80,861	-0,065	-0,016
-430,890	289,271	0,060	0,080
-429,876	601,340	0,022	-0,041
-428,861	739,331	0,009	0,018
-427,846	269,340	0,073	-0,093
-426,832	396,699	-0,063	-0,096
-425,817	411,375	-0,096	0,149
-424,803	78,117	-0,051	-0,039
-423,788	183,634	-0,012	-0,013
-422,773	270,566	0,106	0,135
-421,759	413,757	0,025	0,039
-420,744	-124,395	0,091	-0,010
-419,730	666,836	-0,017	-0,032
-418,715	-98,979	-0,039	0,007
-417,701	203,857	0,069	-0,078
-416,686	-125,166	-0,027	-0,003
-415,671	800,000	0,085	0,172
-414,657	-200,000	-0,049	0,170
-413,642	-200,000	-0,004	0,029
-412,628	800,000	-0,012	0,030
-411,613	28,462	0,076	-0,047
-410,598	-106,536	-0,136	-0,022
-409,584	179,759	0,065	0,070
-408,569	-200,000	0,006	0,169
-407,555	11,897	0,257	0,143
-406,540	800,000	-0,042	0,121
-405,525	-62,938	-0,056	-0,017
-404,511	553,155	-0,003	0,005
-403,496	622,728	-0,077	-0,141
-402,482	335,028	-0,041	0,058
-401,467	-63,510	0,175	0,052
-400,452	800,000	-0,039	0,124
-399,438	738,855	-0,062	-0,122
-398,423	197,285	0,025	0,028
-397,409	-89,060	-0,100	0,021
-396,394	-200,000	-0,003	0,020
-395,379	10,357	0,095	-0,052
-394,365	299,810	0,048	-0,065
-393,350	800,000	0,045	0,135
-392,336	201,467	0,085	-0,096
-391,321	4,581	-0,149	-0,079
-390,306	800,000	-0,051	-0,128
-389,292	143,326	-0,053	-0,051
-388,277	314,564	-0,032	0,044
-387,263	439,300	-0,020	0,032
-386,248	-200,000	-0,003	0,093
-385,233	-200,000	0,006	0,059
-384,219	132,550	-0,045	0,042
-383,204	-200,000	-0,013	0,097
-382,190	362,386	0,081	0,118
-381,175	722,606	0,045	0,088
-380,160	76,606	0,087	-0,067
-379,146	-33,004	-0,058	0,023
-378,131	187,712	-0,038	0,041
-377,117	-139,424	0,039	0,003
-376,102	285,272	0,016	0,021
-375,088	-200,000	-0,001	0,036
-374,073	-58,632	-0,044	0,014
-373,058	800,000	-0,020	0,064
-372,044	-200,000	0,032	-0,111
-371,029	-119,074	-0,070	-0,009
-370,015	47,078	0,039	-0,026
-369,000	-200,000	-0,015	0,097
-367,985	206,184	-0,084	-0,095
-366,971	-86,029	-0,080	0,018
-365,956	215,558	0,026	0,031
-364,942	254,202	0,058	0,072
-363,927	800,000	-0,032	0,082
-362,912	-13,583	-0,197	-0,092
-361,898	-38,261	-0,073	-0,028
-360,883	62,525	-0,083	-0,060
-359,869	-80,486	-0,111	0,027
-358,854	-138,164	0,174	-0,014
-357,839	668,340	0,074	-0,139
-356,825	4,306	0,052	0,028
-355,810	-200,000	-0,029	-0,197
-354,796	-200,000	-0,016	0,060
-353,781	119,685	0,069	0,062
-352,766	193,118	-0,069	-0,076
-351,752	-150,837	0,112	0,006
-350,737	292,105	0,060	0,080
-349,723	-76,746	0,055	-0,014
-348,708	213,187	0,040	0,046
-347,693	419,632	0,070	0,109
-346,679	126,493	-0,126	-0,116
-345,664	130,524	0,061	-0,057
-344,650	259,100	-0,034	-0,043
-343,635	-33,950	0,110	-0,044
-342,620	278,808	0,094	0,121
-341,606	89,447	-0,037	-0,030
-340,591	306,520	-0,040	0,055
-339,577	-187,256	-0,033	-0,000
-338,562	208,528	-0,094	-0,106
-337,548	-133,312	0,054	0,005
-336,533	619,521	0,004	-0,008
-335,518	-98,980	0,153	0,028
-334,504	800,000	0,025	0,071
-333,489	800,000	-0,003	0,009
-332,475	800,000	0,047	-0,144
-331,460	-200,000	0,047	-0,231
-330,445	-9,287	0,084	-0,041
-329,431	238,246	-0,040	-0,048
-328,416	54,505	0,062	0,043
-327,402	-34,082	0,035	0,014
-326,387	-85,092	0,081	-0,018
-325,372	-8,372	-0,050	0,024
-324,358	193,802	0,061	-0,067
-323,343	199,115	-0,035	-0,038
-322,329	151,020	-0,030	-0,030
-321,314	265,671	0,047	0,059
-320,299	800,000	0,039	0,099
-319,285	131,764	0,118	-0,110
-318,270	-105,233	-0,078	0,013
-317,256	278,826	0,047	-0,061
-316,241	-35,725	-0,025	-0,010
-315,226	-124,931	0,110	-0,012
-314,212	80,845	-0,065	0,051
-313,197	800,000	-0,034	0,103
-312,183	44,836	-0,048	-0,032
-311,168	-35,544	0,106	-0,041
-310,153	432,407	0,062	0,098
-309,139	-200,000	-0,013	-0,067
-308,124	-200,000	0,021	-0,093
-307,110	-200,000	0,018	-0,126
-306,095	-166,223	-0,100	0,003
-305,080	-193,634	-0,234	0,001
-304,066	-20,131	-0,052	-0,023
-303,051	-36,175	-0,183	-0,071
-302,037	-114,444	0,118	-0,016
-301,022	-156,709	-0,064	0,003
-300,008	-200,000	-0,013	-0,046
-298,993	120,948	0,024	-0,022
-297,978	39,831	-0,151	0,098
-296,964	35,241	-0,051	0,033
-295,949	-200,000	0,040	-0,132
-294,935	603,008	-0,086	0,155
-293,920	640,186	0,051	0,095
-292,905	31,584	0,067	0,042
-291,891	-200,000	0,005	0,073
-290,876	196,158	-0,066	-0,072
-289,862	161,532	-0,056	-0,057
-288,847	-200,000	-0,008	-0,097
-287,832	-6,336	-0,024	-0,012
-286,818	71,268	0,037	-0,028
-285,803	314,716	0,028	-0,038
-284,789	1,661	0,103	-0,054
-283,774	-132,009	0,040	0,004
-282,759	61,481	-0,041	-0,030
-281,745	-75,898	-0,050	-0,013
-280,730	-200,000	0,009	-0,244
-279,716	-142,091	0,072	-0,005
-278,701	-23,307	0,071	-0,031
-277,686	-200,000	-0,030	0,108
-276,672	-43,133	0,122	0,045
-275,657	-200,000	-0,028	0,117
-274,643	-200,000	-0,002	-0,102
-273,628	185,790	-0,074	-0,079
-272,613	140,183	-0,043	-0,041
-271,599	352,751	0,018	-0,027
-270,584	742,259	-0,057	-0,111
-269,570	-95,314	0,051	-0,010
-268,555	-150,689	0,102	-0,006
-267,540	-33,164	0,044	-0,018
-266,526	9,579	-0,085	0,046
-265,511	696,006	0,035	0,067
-264,497	-200,000	-0,003	-0,075
-263,482	649,012	0,044	-0,081
-262,467	-37,703	0,086	0,033
-261,453	13,179	-0,060	0,034
-260,438	800,000	0,061	0,154
-259,424	290,902	0,047	-0,061
-258,409	4,508	0,096	-0,051
-257,395	196,185	0,024	-0,027
-256,380	102,557	-0,012	-0,010
-255,365	-135,673	0,045	-0,004
-254,351	-200,000	0,012	-0,068
-253,336	-200,000	-0,019	-0,137
-252,322	-96,857	0,034	0,006
-251,307	-200,000	0,003	-0,031
-250,292	-129,129	0,158	0,016
-249,278	-71,880	0,031	-0,008
-248,263	-56,211	0,032	0,010
-247,249	-115,514	0,156	-0,021
-246,234	800,000	-0,095	-0,194
-245,219	595,253	-0,048	-0,086
-244,205	800,000	-0,041	0,087
-243,190	800,000	0,063	0,165
-242,176	73,996	0,058	-0,044
-241,161	-200,000	-0,034	0,125
-240,146	-3,638	-0,083	0,042
-239,132	-60,971	0,084	-0,025
-238,117	-200,000	-0,021	-0,129
-237,103	-200,000	0,020	-0,068
-236,088	17,343	-0,089	-0,051
-235,073	-69,564	0,084	-0,023
-234,059	86,924	-0,116	0,092
-233,044	213,319	0,077	0,088
-232,030	-117,803	0,129	-0,017
-231,015	340,862	-0,005	-0,006
-230,000	-200,000	-0,007	-0,041
-228,986	188,332	0,055	-0,059
-227,971	-200,000	0,050	0,205
-226,957	800,000	0,039	0,121
-225,942	-6,259	-0,126	-0,062
-224,927	-35,832	-0,115	-0,045
-223,913	-106,346	-0,051	-0,008
-222,898	-200,000	0,001	0,043
-221,884	800,000	0,004	0,009
-220,869	-23,806	0,090	-0,039
-219,855	230,463	-0,036	0,043
-218,840	4,137	-0,091	0,048
-217,825	-44,004	-0,091	0,033
-216,811	800,000	-0,056	-0,132
-215,796	800,000	-0,047	-0,112
-214,782	800,000	-0,029	-0,067
-213,767	-166,221	0,061	-0,002
-212,752	13,597	0,064	-0,036
-211,738	-200,000	-0,039	0,155
-210,723	-88,113	-0,025	0,005
-209,709	303,884	-0,058	-0,078
-208,694	11,089	-0,095	0,052
-207,679	-200,000	-0,007	-0,025
-206,665	-200,000	-0,011	0,083
-205,650	428,077	0,038	-0,059
-204,636	-27,187	-0,072	-0,030
-203,621	107,412	-0,091	0,078
-202,606	-5,182	-0,157	0,078
-201,592	155,158	-0,049	-0,049
-200,577	66,598	-0,089	-0,065
-199,563	-21,533	-0,055	0,024
-198,548	-200,000	-0,014	0,061
-197,533	416,784	-0,105	-0,162
-196,519	569,589	0,041	-0,073
-195,504	-69,642	-0,102	0,028
-194,490	-79,281	0,037	-0,009
-193,475	55,176	0,064	-0,044
-192,460	-200,000	-0,015	-0,075
-191,446	459,255	0,046	-0,075
-190,431	333,059	0,024	0,034
-189,417	549,114	-0,094	0,162
-188,402	-101,302	-0,094	0,016
-187,387	-155,773	0,110	0,005
-186,373	800,000	-0,016	0,043
-185,358	78,847	0,028	0,021
-184,344	-200,000	0,027	0,153
-183,329	-200,000	-0,035	0,142
-182,315	-18,414	0,073	0,033
-181,300	104,702	0,075	0,063
-180,285	7,792	-0,101	-0,055
-179,271	-73,378	-0,165	0,043
-178,256	-200,000	-0,030	0,097
-177,242	800,000	-0,038	0,110
-176,227	-200,000	0,009	0,040
-175,212	800,000	-0,035	0,081
-174,198	-132,006	-0,052	-0,005
-173,183	181,170	-0,103	-0,109
-172,169	36,983	0,141	0,090
-171,154	271,095	0,060	-0,076
-170,139	-22,440	0,040	-0,017
-169,125	-200,000	-0,003	-0,054
-168,110	654,582	-0,106	0,197
-167,096	134,985	0,084	-0,078
-166,081	384,931	-0,080	0,120
-165,066	773,863	-0,021	-0,042
-164,052	-200,000	-0,000	0,011
-163,037	44,005	-0,117	0,077
-162,023	-127,442	0,116	0,012
-161,008	-47,217	0,138	0,048
-159,993	-200,000	-0,001	-0,065
-158,979	-200,000	-0,033	-0,166
-157,964	-147,912	0,120	0,007
-156,950	800,000	0,049	-0,129
-155,935	130,675	-0,070	0,065
-154,920	800,000	0,035	0,098
-153,906	800,000	-0,008	-0,021
-152,891	800,000	-0,057	0,116
-151,877	688,339	-0,082	-0,155
-150,862	800,000	-0,050	-0,150
-149,847	-200,000	-0,012	-0,110
-148,833	131,400	0,007	0,007
-147,818	-140,802	0,088	0,006
-146,804	177,853	-0,063	0,067
-145,789	-4,683	-0,153	-0,076
-144,775	800,000	0,050	-0,125
-143,760	-200,000	-0,023	-0,162
-142,745	-200,000	0,002	0,026
-141,731	43,638	-0,094	0,062
-140,716	-200,000	0,016	-0,074
-139,702	-200,000	-0,029	0,128
-138,687	800,000	-0,031	-0,064
-137,672	158,552	0,110	-0,110
-136,658	-122,874	-0,068	0,008
-135,643	-200,000	-0,009	-0,078
-134,629	17,405	0,085	-0,049
-133,614	800,000	-0,016	-0,043
-132,599	-49,234	0,134	0,046
-131,585	449,589	-0,035	0,056
-130,570	70,179	-0,068	-0,050
-129,556	-200,000	0,019	0,076
-128,541	800,000	0,048	0,147
-127,526	20,317	-0,081	-0,047
-126,512	-200,000	-0,009	0,031
-125,497	800,000	0,002	-0,006
-124,483	445,867	-0,020	0,032
-123,468	-200,000	-0,020	-0,067
-122,453	-152,597	-0,075	-0,004
-121,439	108,482	0,103	-0,089
-120,424	-167,240	-0,046	0,001
-119,410	-200,000	0,007	-0,038
