DTS Sentinel unit serial number:	SN410029Multiplexer serial number:	ORYXHardware model number:	OX2-SRSoftware version number:	ORYX F/W v4,00 Oryx Data Collector v3.7.2.0data status	okinstallation	B5 Nyhavnadifferential loss correction	single-endedforward channel	channel 2reverse channel	N/Adate	2023/12/12time	04:52:13forward acquisition time	300,00reverse acquisition time	0,00gamma	499,1914k internal	0,3157k external	0,3157temperature offset calibration	1,0000default loss term (dB/km)	0,3820temperature slope calibration	1,0000multiplexer offset coefficient	1,0000multiplexer slope coefficient	1,0000fibre end	0,00T internal ref (°C)	15,44T ext. ref 1 (°C)	-1,01T ext. ref 2 (°C)	-1,27length (m)	temperature (°C)	Stokes	anti-Stokes-744,400	-138,047	0,134	-0,011
-743,385	-99,142	-0,294	0,054
-742,371	-122,816	0,134	-0,016
-741,356	-197,575	-0,228	-0,001
-740,342	-125,759	0,038	-0,004
-739,327	-79,454	-0,348	-0,086
-738,312	95,919	0,036	0,030
-737,298	-20,572	-0,282	0,127
-736,283	-25,052	0,078	-0,034
-735,269	-68,449	-0,342	-0,097
-734,254	138,435	0,066	-0,064
-733,239	-40,060	-0,426	-0,163
-732,225	-68,968	0,208	-0,059
-731,210	-83,394	0,024	0,006
-730,196	800,000	0,015	-0,049
-729,181	800,000	-0,059	-0,124
-728,167	-76,523	-0,145	-0,037
-727,152	527,670	0,038	0,066
-726,137	735,098	-0,022	-0,043
-725,123	57,086	-0,037	0,026
-724,108	85,886	-0,143	-0,116
-723,094	-200,000	-0,013	-0,079
-722,079	-117,304	0,090	0,012
-721,064	406,362	-0,027	-0,042
-720,050	800,000	-0,053	-0,143
-719,035	-128,894	0,095	-0,010
-718,021	3,372	-0,091	-0,049
-717,006	-84,612	-0,068	0,016
-715,991	-106,609	-0,085	-0,014
-714,977	-104,024	-0,186	0,032
-713,962	322,399	-0,056	-0,078
-712,948	109,777	-0,032	0,028
-711,933	-129,347	0,128	-0,013
-710,918	26,093	-0,111	-0,068
-709,904	-200,000	-0,012	-0,063
-708,889	800,000	-0,091	-0,188
-707,875	95,880	-0,066	-0,055
-706,860	-28,054	-0,038	0,016
-705,845	505,743	0,076	-0,130
-704,831	-101,301	-0,054	0,010
-703,816	126,991	0,151	-0,141
-702,802	412,181	-0,042	0,066
-701,787	189,341	-0,045	0,050
-700,772	50,942	-0,098	0,068
-699,758	-155,461	0,119	0,006
-698,743	358,783	0,073	-0,108
-697,729	-151,584	-0,124	0,007
-696,714	364,002	-0,089	0,132
-695,699	-200,000	-0,009	-0,225
-694,685	-134,944	-0,058	-0,005
-693,670	468,986	0,023	-0,038
-692,656	-200,000	-0,002	0,065
-691,641	-200,000	-0,022	-0,140
-690,627	-41,515	-0,164	-0,062
-689,612	340,932	0,014	-0,020
-688,597	-200,000	-0,007	0,047
-687,583	-200,000	-0,002	-0,062
-686,568	800,000	-0,014	0,040
-685,554	-200,000	0,002	-0,110
-684,539	-58,055	-0,021	-0,007
-683,524	-200,000	-0,002	0,099
-682,510	-123,845	-0,090	0,010
-681,495	554,373	-0,064	-0,113
-680,481	-200,000	-0,027	-0,102
-679,466	10,524	0,075	-0,042
-678,451	244,655	0,060	-0,074
-677,437	-200,000	-0,005	-0,034
-676,422	800,000	-0,063	-0,158
-675,408	177,627	-0,063	0,068
-674,393	143,706	0,050	0,049
-673,378	-110,838	0,031	-0,005
-672,364	-26,598	-0,069	-0,030
-671,349	-40,695	-0,130	-0,049
-670,335	-27,638	-0,080	-0,034
-669,320	-200,000	-0,049	0,000
-668,305	-89,890	0,084	-0,018
-667,291	800,000	-0,044	-0,144
-666,276	28,598	-0,052	-0,032
-665,262	-47,482	-0,142	-0,050
-664,247	-200,000	0,011	0,043
-663,232	800,000	0,050	-0,122
-662,218	-200,000	-0,029	-0,170
-661,203	-58,848	-0,090	0,029
-660,189	-2,368	0,173	0,089
-659,174	2,579	-0,084	-0,044
-658,159	800,000	-0,045	-0,139
-657,145	-57,742	-0,104	-0,033
-656,130	136,202	0,051	-0,049
-655,116	-200,000	-0,003	-0,019
-654,101	800,000	-0,027	-0,066
-653,086	-54,613	0,019	0,006
-652,072	587,546	-0,056	-0,102
-651,057	800,000	-0,076	-0,194
-650,043	-200,000	0,004	-0,037
-649,028	800,000	-0,021	0,054
-648,014	-98,989	0,038	-0,007
-646,999	761,078	0,048	-0,097
-645,984	800,000	-0,039	0,112
-644,970	-118,812	-0,069	-0,009
-643,955	121,314	-0,082	0,075
-642,941	-200,000	-0,045	-0,181
-641,926	473,776	0,032	-0,054
-640,911	-94,017	0,132	-0,026
-639,897	-65,256	0,155	0,045
-638,882	-200,000	0,003	0,026
-637,868	-98,872	-0,180	0,033
-636,853	-124,451	0,035	0,004
-635,838	58,126	-0,117	0,084
-634,824	800,000	0,055	-0,160
-633,809	800,000	-0,042	0,118
-632,795	-5,525	0,058	0,029
-631,780	-129,360	0,048	0,005
-630,765	76,738	0,121	-0,094
-629,751	-173,332	-0,150	-0,003
-628,736	-129,333	-0,091	-0,009
-627,722	-200,000	0,015	-0,122
-626,707	-200,000	-0,008	-0,074
-625,692	614,795	0,058	0,107
-624,678	800,000	0,006	0,017
-623,663	-17,963	-0,108	-0,049
-622,649	271,056	-0,055	-0,072
-621,634	67,837	-0,053	0,040
-620,619	-200,000	-0,025	-0,147
-619,605	308,537	-0,065	-0,090
-618,590	547,129	0,041	-0,072
-617,576	135,638	0,090	0,086
-616,561	-45,649	-0,051	-0,019
-615,546	-200,000	0,013	-0,050
-614,532	-200,000	-0,042	-0,162
-613,517	133,920	0,149	-0,142
-612,503	800,000	-0,039	-0,082
-611,488	800,000	0,036	-0,087
-610,474	-72,935	0,062	-0,016
-609,459	18,339	-0,077	-0,045
-608,444	-167,112	0,105	0,003
-607,430	197,280	-0,084	0,094
-606,415	91,337	0,028	0,023
-605,401	-200,000	0,031	0,106
-604,386	63,022	-0,018	-0,013
-603,371	-200,000	-0,024	0,116
-602,357	800,000	-0,057	-0,148
-601,342	800,000	0,030	-0,084
-600,328	800,000	-0,045	-0,117
-599,313	3,399	-0,142	0,075
-598,298	-72,981	-0,015	0,004
-597,284	800,000	0,017	-0,039
-596,269	800,000	-0,036	0,116
-595,255	-200,000	0,031	0,144
-594,240	-91,892	-0,010	-0,002
-593,225	-186,325	-0,098	-0,001
-592,211	-68,035	-0,154	-0,044
-591,196	-97,663	0,127	0,024
-590,182	648,013	-0,008	0,015
-589,167	9,536	0,065	-0,036
-588,152	-200,000	-0,026	0,088
-587,138	-84,252	0,062	0,014
-586,123	-200,000	0,001	-0,276
-585,109	800,000	0,036	-0,107
-584,094	-40,688	-0,122	-0,046
-583,079	-39,060	0,054	0,021
-582,065	64,502	-0,102	-0,076
-581,050	-43,809	-0,121	0,044
-580,036	-115,192	-0,099	0,014
-579,021	-119,649	0,056	0,007
-578,006	-200,000	0,007	-0,111
-576,992	214,695	-0,092	-0,107
-575,977	633,727	0,041	-0,077
-574,963	-200,000	-0,002	-0,104
-573,948	-200,000	0,022	0,182
-572,934	262,684	0,066	0,084
-571,919	-69,478	-0,098	0,027
-570,904	-7,594	-0,074	0,037
-569,890	-200,000	-0,016	0,061
-568,875	393,644	-0,056	0,086
-567,861	297,265	0,028	-0,038
-566,846	124,210	-0,082	0,076
-565,831	20,321	0,165	-0,098
-564,817	-72,331	0,050	-0,013
-563,802	-200,000	0,017	-0,079
-562,788	-113,302	-0,091	-0,013
-561,773	-11,452	0,080	0,038
-560,758	-200,000	0,004	0,062
-559,744	250,646	0,011	-0,014
-558,729	284,140	-0,076	0,101
-557,715	-200,000	-0,013	-0,042
-556,700	-102,521	-0,099	0,017
-555,685	342,557	0,021	-0,031
-554,671	-61,064	0,029	-0,009
-553,656	-135,400	-0,050	0,004
-552,642	-31,493	-0,032	-0,013
-551,627	-200,000	0,008	-0,036
-550,612	52,581	0,055	-0,038
-549,598	-200,000	-0,005	0,083
-548,583	59,549	-0,096	0,070
-547,569	-155,848	0,075	-0,003
-546,554	-200,000	-0,014	0,044
-545,539	68,362	0,044	-0,033
-544,525	2,663	0,110	0,058
-543,510	16,254	-0,098	-0,056
-542,496	800,000	-0,010	0,025
-541,481	800,000	-0,067	-0,174
-540,466	158,095	0,128	0,130
-539,452	800,000	0,037	0,108
-538,437	-104,518	-0,100	-0,017
-537,423	800,000	-0,021	0,051
-536,408	-200,000	-0,025	-0,085
-535,393	375,301	0,073	-0,109
-534,379	116,495	-0,071	-0,064
-533,364	-200,000	0,009	-0,182
-532,350	276,037	-0,032	-0,042
-531,335	-6,976	-0,042	0,021
-530,321	-70,802	-0,088	-0,024
-529,306	74,003	0,032	0,025
-528,291	197,763	-0,051	0,057
-527,277	-200,000	-0,008	-0,052
-526,262	12,771	-0,077	-0,043
-525,248	151,675	0,074	0,074
-524,233	-200,000	0,015	-0,163
-523,218	-200,000	0,016	0,090
-522,204	699,418	-0,096	0,186
-521,189	-200,000	-0,008	0,029
-520,175	-200,000	-0,015	-0,077
-519,160	-200,000	0,022	0,081
-518,145	114,442	0,072	0,064
-517,131	-200,000	0,015	-0,111
-516,116	-200,000	-0,006	-0,040
-515,102	222,081	-0,046	0,054
-514,087	115,819	0,059	0,053
-513,072	2,863	-0,161	0,085
-512,058	-111,897	-0,057	0,008
-511,043	-200,000	0,011	-0,051
-510,029	100,120	0,099	0,084
-509,014	461,303	-0,029	0,048
-507,999	37,298	0,034	0,022
-506,985	-200,000	-0,020	-0,068
-505,970	332,597	-0,068	0,096
-504,956	126,702	0,035	-0,032
-503,941	2,071	-0,015	-0,008
-502,926	74,618	-0,061	-0,047
-501,912	-200,000	-0,006	0,063
-500,897	-200,000	-0,000	0,130
-499,883	136,285	0,041	0,039
-498,868	77,547	-0,087	0,068
-497,853	-200,000	-0,001	-0,050
-496,839	-200,000	-0,031	0,124
-495,824	-200,000	0,001	-0,053
-494,810	-43,848	0,124	0,046
-493,795	-99,109	-0,114	0,021
-492,781	-68,530	-0,077	0,022
-491,766	-144,554	-0,053	-0,003
-490,751	529,516	-0,057	0,099
-489,737	-173,449	0,092	-0,002
-488,722	-57,518	0,119	0,038
-487,708	-132,481	0,063	-0,006
-486,693	292,521	-0,087	0,116
-485,678	-55,598	0,101	0,033
-484,664	-93,502	-0,094	-0,019
-483,649	117,571	0,079	-0,071
-482,635	2,936	-0,074	0,039
-481,620	800,000	0,020	0,048
-480,605	-152,564	0,123	-0,006
-479,591	-95,815	0,159	-0,031
-478,576	73,500	-0,109	-0,083
-477,562	568,887	-0,071	-0,127
-476,547	-84,901	0,067	0,015
-475,532	-200,000	0,008	0,099
-474,518	5,901	-0,043	-0,023
-473,503	-29,330	0,173	-0,072
-472,489	-200,000	-0,019	0,210
-471,474	11,557	-0,016	0,009
-470,459	-199,015	-0,065	0,000
-469,445	-118,961	-0,076	-0,010
-468,430	-86,828	0,041	0,009
-467,416	205,943	0,047	0,054
-466,401	-167,625	0,025	-0,001
-465,386	341,563	-0,022	0,032
-464,372	96,274	-0,054	-0,045
-463,357	-200,000	-0,009	-0,139
-462,343	429,482	-0,037	0,058
-461,328	-70,823	0,026	-0,007
-460,313	353,095	0,008	-0,011
-459,299	172,521	-0,043	-0,045
-458,284	417,056	0,045	0,070
-457,270	-27,677	0,054	-0,023
-456,255	21,153	0,096	0,057
-455,241	-200,000	-0,009	0,074
-454,226	800,000	0,034	0,096
-453,211	713,625	-0,010	0,020
-452,197	785,586	0,029	0,059
-451,182	-200,000	-0,006	0,042
-450,168	800,000	0,065	0,143
-449,153	-200,000	-0,012	-0,044
-448,138	-85,003	-0,143	0,032
-447,124	-145,728	-0,012	-0,001
-446,109	-188,942	0,046	-0,000
-445,095	143,233	0,099	0,096
-444,080	708,854	-0,054	-0,105
-443,065	149,984	0,030	0,030
-442,051	-139,048	-0,034	0,003
-441,036	84,384	-0,087	-0,069
-440,022	209,174	0,092	0,105
-439,007	337,493	-0,087	0,124
-437,992	-200,000	-0,008	0,031
-436,978	70,119	-0,049	-0,037
-435,963	800,000	0,005	0,013
-434,949	304,528	-0,067	0,090
-433,934	92,308	-0,069	-0,057
-432,919	800,000	0,020	-0,063
-431,905	142,335	0,113	0,109
-430,890	-144,476	-0,119	-0,008
-429,876	348,835	0,062	-0,089
-428,861	32,884	-0,035	-0,022
-427,846	-91,086	0,063	0,013
-426,832	-125,016	-0,034	-0,004
-425,817	492,920	0,049	-0,083
-424,803	-200,000	-0,001	0,046
-423,788	-113,155	-0,059	0,008
-422,773	140,767	-0,053	0,051
-421,759	3,318	-0,140	0,074
-420,744	-93,548	0,066	0,013
-419,730	-58,166	0,151	0,048
-418,715	-45,335	0,121	-0,043
-417,701	-200,000	0,009	-0,128
-416,686	595,770	0,017	-0,030
-415,671	-110,615	0,058	-0,009
-414,657	-52,382	-0,125	0,042
-413,642	608,007	-0,050	0,092
-412,628	800,000	0,029	-0,078
-411,613	-90,361	0,170	-0,036
-410,598	0,528	-0,148	0,077
-409,584	-30,877	0,107	0,044
-408,569	17,081	0,077	-0,044
-407,555	800,000	-0,033	-0,092
-406,540	-192,928	-0,175	-0,001
-405,525	371,392	0,077	-0,114
-404,511	-156,839	0,080	0,004
-403,496	92,246	-0,049	-0,040
-402,482	-200,000	0,015	-0,072
-401,467	800,000	0,067	0,181
-400,452	800,000	-0,031	0,085
-399,438	-200,000	0,001	-0,024
-398,423	344,472	0,016	0,023
-397,409	17,539	-0,072	-0,041
-396,394	-145,939	0,113	0,007
-395,379	-139,623	0,089	-0,007
-394,365	136,224	0,078	0,074
-393,350	-200,000	-0,012	-0,076
-392,336	53,942	0,148	0,104
-391,321	-200,000	-0,009	0,147
-390,306	424,897	-0,105	-0,164
-389,292	-200,000	0,002	0,016
-388,277	168,594	0,104	0,108
-387,263	143,358	0,073	0,070
-386,248	800,000	-0,042	0,100
-385,233	800,000	-0,021	-0,065
-384,219	-200,000	-0,000	0,082
-383,204	800,000	0,005	0,017
-382,190	-200,000	-0,043	-0,140
-381,175	-18,118	0,163	0,074
-380,160	-118,447	-0,115	-0,015
-379,146	-107,719	-0,089	-0,014
-378,131	120,133	0,032	-0,029
-377,117	62,245	-0,057	0,041
-376,102	-200,000	0,009	-0,052
-375,088	349,718	0,079	-0,114
-374,073	-55,578	0,098	0,032
-373,058	800,000	-0,037	0,079
-372,044	389,781	0,039	0,058
-371,029	217,528	0,050	0,059
-370,015	57,433	0,030	-0,021
-369,000	43,255	-0,094	0,062
-367,985	-94,446	-0,142	0,028
-366,971	14,860	-0,072	0,041
-365,956	253,875	0,078	-0,097
-364,942	800,000	0,038	0,085
-363,927	325,276	0,043	-0,060
-362,912	-200,000	0,007	0,065
-361,898	-200,000	0,015	0,093
-360,883	-200,000	-0,003	0,052
-359,869	800,000	0,078	0,165
-358,854	-200,000	-0,010	0,068
-357,839	-6,610	0,047	-0,023
-356,825	13,181	0,097	-0,055
-355,810	509,813	0,036	-0,060
-354,796	-56,305	-0,088	-0,028
-353,781	-200,000	-0,041	-0,208
-352,766	199,291	0,070	-0,078
-351,752	-200,000	-0,021	-0,087
-350,737	87,079	-0,037	0,030
-349,723	-200,000	0,046	-0,151
-348,708	-200,000	0,019	-0,089
-347,693	-200,000	-0,012	-0,179
-346,679	1,867	-0,158	0,082
-345,664	-129,432	-0,111	-0,011
-344,650	131,616	0,125	-0,117
-343,635	312,878	0,052	-0,072
-342,620	-70,614	-0,121	0,033
-341,606	50,636	0,020	0,013
-340,591	168,749	-0,117	0,122
-339,577	800,000	-0,026	-0,059
-338,562	-200,000	0,006	-0,044
-337,548	372,745	0,058	0,086
-336,533	265,131	0,052	0,066
-335,518	463,238	-0,067	-0,109
-334,504	-139,234	0,159	0,012
-333,489	1,186	-0,073	0,038
-332,475	636,806	-0,049	-0,090
-331,460	-51,879	0,051	0,017
-330,445	82,208	-0,039	-0,031
-329,431	-122,652	0,193	0,022
-328,416	-200,000	-0,031	0,119
-327,402	-200,000	0,002	0,042
-326,387	20,065	0,036	0,021
-325,372	162,193	-0,058	0,059
-324,358	286,498	0,010	0,014
-323,343	154,613	0,149	0,149
-322,329	600,975	-0,016	0,028
-321,314	-15,320	0,059	0,027
-320,299	800,000	0,030	-0,089
-319,285	227,611	-0,135	0,159
-318,270	54,456	-0,103	-0,072
-317,256	-57,964	0,003	0,001
-316,241	-200,000	-0,002	-0,082
-315,226	166,649	0,100	0,103
-314,212	-4,916	0,130	-0,065
-313,197	-157,652	-0,111	0,005
-312,183	386,665	0,052	0,078
-311,168	-92,923	0,056	0,011
-310,153	424,488	-0,020	-0,031
-309,139	-84,505	-0,023	-0,005
-308,124	-59,758	0,031	0,010
-307,110	-200,000	0,052	0,167
-306,095	9,225	0,064	-0,035
-305,080	-200,000	-0,001	0,085
-304,066	800,000	0,014	-0,032
-303,051	-200,000	0,014	-0,055
-302,037	-200,000	0,008	0,064
-301,022	472,332	-0,028	0,045
-300,008	8,909	-0,056	0,031
-298,993	-200,000	-0,001	-0,049
-297,978	445,200	0,015	0,024
-296,964	-32,555	0,059	0,024
-295,949	-26,103	-0,055	-0,023
-294,935	-177,732	-0,147	-0,003
-293,920	717,197	-0,044	-0,085
-292,905	8,231	0,145	-0,079
-291,891	244,607	0,110	-0,134
-290,876	79,857	0,073	0,057
-289,862	-128,773	0,092	0,009
-288,847	-200,000	0,008	-0,125
-287,832	100,321	-0,089	-0,075
-286,818	75,518	0,082	0,062
-285,803	800,000	-0,058	0,146
-284,789	-50,791	0,088	0,030
-283,774	-200,000	-0,028	0,117
-282,759	-200,000	-0,012	-0,088
-281,745	-81,871	-0,083	-0,020
-280,730	220,986	-0,101	0,117
-279,716	50,176	-0,027	-0,018
-278,701	-39,295	0,178	0,067
-277,686	175,788	-0,057	-0,060
-276,672	295,714	-0,016	0,021
-275,657	208,905	0,030	0,034
-274,643	800,000	-0,045	-0,113
-273,628	-154,877	0,147	-0,007
-272,613	800,000	-0,050	-0,133
-271,599	-103,373	-0,058	0,010
-270,584	486,668	-0,019	-0,031
-269,570	128,029	-0,127	0,117
-268,555	-10,155	0,175	0,084
-267,540	270,842	-0,079	-0,101
-266,526	-200,000	-0,001	-0,059
-265,511	304,437	0,055	0,074
-264,497	-72,667	0,112	0,030
-263,482	0,928	0,031	-0,016
-262,467	-200,000	-0,011	0,054
-261,453	-88,332	-0,094	0,020
-260,438	-55,513	-0,040	0,013
-259,424	-185,024	0,052	0,001
-258,409	-78,304	0,050	-0,012
-257,395	-200,000	-0,013	0,057
-256,380	577,404	-0,017	0,030
-255,365	-120,191	0,264	0,032
-254,351	619,096	-0,035	-0,065
-253,336	231,060	-0,057	0,067
-252,322	-92,722	0,130	-0,026
-251,307	-76,892	-0,033	-0,008
-250,292	800,000	-0,014	-0,044
-249,278	-200,000	-0,010	-0,079
-248,263	-200,000	-0,006	0,051
-247,249	351,103	-0,019	-0,028
-246,234	-200,000	-0,012	-0,061
-245,219	54,361	-0,054	-0,037
-244,205	67,272	-0,082	-0,061
-243,190	800,000	0,031	0,070
-242,176	-200,000	0,009	-0,036
-241,161	-200,000	0,027	0,148
-240,146	-200,000	-0,034	0,112
-239,132	25,255	0,077	0,046
-238,117	-146,333	0,065	-0,004
-237,103	-200,000	0,034	-0,193
-236,088	314,239	-0,101	-0,138
-235,073	66,072	0,061	0,045
-234,059	-140,028	0,089	0,007
-233,044	157,698	-0,067	-0,067
-232,030	-52,001	0,017	0,006
-231,015	-15,167	-0,041	0,019
-230,000	-49,054	-0,121	-0,042
-228,986	115,373	-0,059	0,052
-227,971	-150,703	0,169	0,009
-226,957	-200,000	0,008	-0,052
-225,942	-103,975	-0,146	-0,024
-224,927	-1,061	-0,081	0,041
-223,913	164,557	-0,044	-0,045
-222,898	-173,613	-0,175	0,004
-221,884	170,618	-0,040	-0,041
-220,869	-145,247	-0,091	0,006
-219,855	13,983	0,082	0,046
-218,840	-200,000	-0,056	0,212
-217,825	-200,000	-0,024	-0,120
-216,811	-141,965	-0,089	0,006
-215,796	-140,303	0,023	0,002
-214,782	-100,344	-0,126	0,022
-213,767	3,722	-0,079	-0,042
-212,752	338,854	0,064	0,090
-211,738	-200,000	-0,004	-0,053
-210,723	-28,886	-0,116	0,048
-209,709	-149,659	-0,118	-0,007
-208,694	-200,000	-0,028	-0,206
-207,679	131,310	0,091	-0,084
-206,665	-200,000	0,022	-0,071
-205,650	800,000	-0,022	0,068
-204,636	-191,445	0,188	0,001
-203,621	370,928	-0,050	-0,073
-202,606	-200,000	0,007	0,033
-201,592	800,000	0,023	-0,061
-200,577	800,000	-0,039	0,088
-199,563	225,902	0,100	0,117
-198,548	29,279	0,094	0,058
-197,533	489,068	0,046	-0,075
-196,519	800,000	-0,014	-0,040
-195,504	56,663	-0,041	-0,029
-194,490	800,000	-0,033	-0,096
-193,475	86,869	-0,122	-0,097
-192,460	544,586	0,098	0,170
-191,446	800,000	0,041	-0,097
-190,431	-122,024	0,122	0,014
-189,417	-200,000	-0,001	-0,007
-188,402	95,326	0,053	-0,043
-187,387	-200,000	-0,012	-0,084
-186,373	169,876	0,074	-0,077
-185,358	-200,000	-0,008	-0,207
-184,344	-71,833	-0,085	-0,023
-183,329	-200,000	-0,004	0,046
-182,315	800,000	-0,030	-0,070
-181,300	800,000	0,035	-0,085
-180,285	-200,000	0,004	-0,070
-179,271	-134,798	-0,156	-0,013
-178,256	-200,000	0,014	-0,052
-177,242	230,335	0,063	-0,075
-176,227	311,786	0,056	0,076
-175,212	-66,346	0,165	0,047
-174,198	-123,428	-0,036	0,004
-173,183	-39,805	-0,121	0,045
-172,169	663,201	0,046	0,087
-171,154	175,749	-0,021	-0,022
-170,139	48,175	0,060	0,040
-169,125	-88,293	-0,053	0,011
-168,110	800,000	0,030	0,080
-167,096	123,903	0,097	0,088
-166,081	-26,734	-0,043	0,018
-165,066	131,967	-0,068	-0,063
-164,052	-163,981	0,057	0,002
-163,037	134,780	-0,066	-0,062
-162,023	-172,740	0,082	-0,002
-161,008	-57,010	0,033	0,010
-159,993	158,292	0,042	-0,043
-158,979	-92,647	0,057	-0,011
-157,964	-62,747	-0,081	-0,024
-156,950	800,000	-0,077	0,173
-155,935	-59,288	0,044	-0,013
-154,920	-86,837	0,079	-0,017
-153,906	283,361	-0,041	0,054
-152,891	-10,358	0,086	-0,041
-151,877	-133,469	-0,048	0,004
-150,862	-197,958	-0,086	-0,000
-149,847	-99,664	0,050	-0,009
-148,833	561,497	0,066	-0,116
-147,818	-87,842	-0,142	0,030
-146,804	800,000	0,011	0,027
-145,789	-200,000	0,006	-0,064
-144,775	-200,000	0,018	-0,118
-143,760	-104,659	-0,096	-0,016
-142,745	26,817	-0,018	0,011
-141,731	-200,000	-0,002	0,042
-140,716	338,697	-0,068	0,096
-139,702	35,445	-0,046	0,029
-138,687	-32,868	0,074	0,030
-137,672	365,961	0,049	0,071
-136,658	-200,000	-0,014	-0,134
-135,643	-198,760	-0,075	-0,000
-134,629	164,199	-0,057	-0,058
-133,614	-34,360	-0,163	-0,064
-132,599	-17,005	0,019	0,008
-131,585	-200,000	0,001	0,172
-130,570	269,085	-0,129	-0,163
-129,556	82,199	0,047	-0,037
-128,541	-147,116	-0,139	0,008
-127,526	677,602	0,066	-0,124
-126,512	-73,042	0,157	-0,041
-125,497	-163,698	-0,008	0,000
-124,483	-132,715	-0,134	0,012
-123,468	-101,475	-0,090	0,016
-122,453	-200,000	0,019	-0,065
-121,439	-200,000	-0,022	0,101
-120,424	-140,034	-0,088	0,007
