DTS Sentinel unit serial number:	SN410029Multiplexer serial number:	ORYXHardware model number:	OX2-SRSoftware version number:	ORYX F/W v4,00 Oryx Data Collector v3.7.2.0data status	okinstallation	B5 Nyhavnadifferential loss correction	single-endedforward channel	channel 2reverse channel	N/Adate	2023/12/13time	07:12:13forward acquisition time	300,00reverse acquisition time	0,00gamma	499,1914k internal	0,3160k external	0,3160temperature offset calibration	1,0000default loss term (dB/km)	0,3820temperature slope calibration	1,0000multiplexer offset coefficient	1,0000multiplexer slope coefficient	1,0000fibre end	0,00T internal ref (°C)	13,70T ext. ref 1 (°C)	-2,76T ext. ref 2 (°C)	-3,07length (m)	temperature (°C)	Stokes	anti-Stokes-744,400	-200,000	0,031	-0,126
-743,385	-108,059	-0,325	0,051
-742,371	-49,580	0,098	0,034
-741,356	-110,725	-0,290	-0,044
-740,342	-77,358	0,188	-0,048
-739,327	-64,846	-0,200	-0,059
-738,312	-200,000	0,020	0,168
-737,298	-152,610	-0,249	0,013
-736,283	148,676	-0,136	0,135
-735,269	12,925	-0,281	0,159
-734,254	-200,000	0,021	-0,073
-733,239	-40,296	-0,598	-0,228
-732,225	7,368	0,273	0,150
-731,210	-114,888	-0,026	0,004
-730,196	800,000	-0,006	0,017
-729,181	-25,431	-0,156	-0,068
-728,167	-200,000	-0,025	-0,094
-727,152	-13,916	0,108	0,051
-726,137	37,102	-0,060	0,039
-725,123	58,710	-0,088	-0,063
-724,108	-200,000	0,006	-0,099
-723,094	373,226	-0,090	-0,135
-722,079	-47,944	0,057	0,020
-721,064	-200,000	-0,011	0,055
-720,050	-23,643	-0,067	-0,029
-719,035	-46,929	-0,034	0,012
-718,021	-110,830	-0,131	0,020
-717,006	800,000	-0,087	-0,243
-715,991	183,609	-0,040	-0,044
-714,977	114,973	-0,091	-0,081
-713,962	800,000	-0,031	0,095
-712,948	-200,000	-0,010	-0,092
-711,933	-82,454	-0,066	0,016
-710,918	-200,000	0,011	-0,043
-709,904	-115,823	0,037	0,005
-708,889	113,781	-0,112	-0,100
-707,875	14,232	0,152	-0,087
-706,860	165,109	0,067	-0,070
-705,845	-68,356	-0,067	-0,019
-704,831	-200,000	-0,020	0,082
-703,816	333,824	-0,070	-0,100
-702,802	-12,835	-0,211	-0,101
-701,787	-121,653	-0,051	0,006
-700,772	-200,000	-0,009	-0,075
-699,758	-44,769	0,048	0,017
-698,743	-34,788	-0,051	-0,020
-697,729	-48,894	-0,050	-0,018
-696,714	-89,727	0,195	0,042
-695,699	-200,000	-0,003	-0,023
-694,685	-98,715	-0,062	0,012
-693,670	-200,000	0,011	-0,074
-692,656	2,250	0,050	-0,026
-691,641	-200,000	0,005	0,115
-690,627	-107,680	-0,096	0,015
-689,612	-200,000	-0,009	-0,067
-688,597	-144,916	-0,108	0,007
-687,583	-116,837	-0,087	-0,012
-686,568	65,738	-0,102	0,076
-685,554	-192,278	0,051	0,000
-684,539	148,178	-0,085	0,085
-683,524	433,431	-0,062	0,099
-682,510	328,822	0,048	-0,068
-681,495	800,000	-0,019	0,055
-680,481	1,445	-0,147	0,078
-679,466	19,132	-0,057	-0,033
-678,451	-155,224	0,054	-0,003
-677,437	-200,000	0,012	0,104
-676,422	-166,233	0,173	-0,005
-675,408	-130,354	0,100	-0,010
-674,393	95,656	0,019	0,016
-673,378	800,000	-0,029	-0,082
-672,364	-164,949	-0,078	0,003
-671,349	800,000	0,048	-0,103
-670,335	-102,798	-0,088	0,015
-669,320	-133,161	-0,051	0,005
-668,305	-48,882	0,169	0,059
-667,291	-43,630	-0,067	0,025
-666,276	120,764	-0,155	-0,142
-665,262	-200,000	-0,032	-0,202
-664,247	390,050	-0,019	0,030
-663,232	-200,000	-0,020	0,164
-662,218	-200,000	0,006	0,057
-661,203	64,616	-0,031	-0,023
-660,189	197,859	0,150	0,168
-659,174	800,000	-0,042	-0,095
-658,159	74,180	-0,139	-0,107
-657,145	-200,000	0,002	0,142
-656,130	-107,748	-0,104	0,017
-655,116	-100,887	-0,033	0,006
-654,101	-6,498	-0,060	0,030
-653,086	560,830	0,037	0,065
-652,072	-126,945	0,128	-0,014
-651,057	-128,914	-0,169	0,017
-650,043	-200,000	-0,032	-0,155
-649,028	274,343	0,059	-0,076
-648,014	-200,000	0,017	-0,124
-646,999	-200,000	-0,042	0,269
-645,984	-49,313	-0,076	-0,026
-644,970	-134,335	0,065	0,006
-643,955	-200,000	0,004	-0,083
-642,941	-34,507	-0,079	-0,032
-641,926	454,781	-0,047	0,077
-640,911	482,783	-0,023	-0,039
-639,897	800,000	0,050	-0,114
-638,882	-32,729	-0,015	-0,006
-637,868	629,171	0,037	-0,069
-636,853	717,648	-0,068	-0,133
-635,838	188,591	0,020	-0,021
-634,824	192,539	-0,102	-0,113
-633,809	800,000	-0,029	0,080
-632,795	-98,353	0,097	0,018
-631,780	800,000	-0,047	0,152
-630,765	336,168	-0,068	0,097
-629,751	12,893	-0,126	-0,071
-628,736	-132,049	0,081	0,008
-627,722	43,637	0,151	0,101
-626,707	218,931	0,045	-0,052
-625,692	-200,000	0,005	0,017
-624,678	-200,000	0,005	0,033
-623,663	-200,000	0,007	0,061
-622,649	61,975	-0,054	-0,039
-621,634	178,622	0,069	0,074
-620,619	800,000	-0,025	-0,056
-619,605	800,000	-0,024	0,061
-618,590	-105,692	0,098	-0,016
-617,576	33,738	0,027	0,017
-616,561	-200,000	-0,001	0,013
-615,546	309,600	-0,061	0,083
-614,532	-47,323	-0,139	0,049
-613,517	266,866	0,066	-0,085
-612,503	49,190	0,033	0,022
-611,488	-3,948	-0,125	0,063
-610,474	-127,932	0,015	0,002
-609,459	244,815	0,086	-0,106
-608,444	-200,000	-0,001	0,006
-607,430	-117,834	0,048	0,006
-606,415	50,102	-0,040	-0,028
-605,401	-84,289	0,106	-0,024
-604,386	800,000	0,082	0,203
-603,371	800,000	0,030	0,081
-602,357	514,443	0,049	-0,084
-601,342	-200,000	-0,023	-0,123
-600,328	-90,255	-0,048	0,010
-599,313	181,570	0,102	-0,110
-598,298	230,428	-0,015	0,018
-597,284	-200,000	0,022	0,119
-596,269	800,000	-0,014	0,037
-595,255	765,017	-0,034	0,068
-594,240	165,995	-0,064	-0,067
-593,225	-106,322	-0,177	-0,029
-592,211	-52,537	0,112	0,038
-591,196	-38,644	0,060	0,023
-590,182	54,598	0,064	-0,045
-589,167	-200,000	0,020	0,098
-588,152	-200,000	0,016	0,130
-587,138	800,000	0,015	-0,039
-586,123	306,458	-0,087	-0,119
-585,109	-200,000	0,007	-0,087
-584,094	-200,000	-0,004	-0,016
-583,079	-200,000	-0,019	-0,103
-582,065	133,116	-0,068	0,065
-581,050	40,108	0,098	0,064
-580,036	-130,588	-0,108	-0,011
-579,021	-200,000	0,002	-0,059
-578,006	-46,128	0,041	-0,015
-576,992	191,906	-0,067	-0,074
-575,977	322,167	0,129	-0,180
-574,963	-200,000	0,008	0,074
-573,948	-162,365	-0,019	0,001
-572,934	800,000	-0,043	0,089
-571,919	-69,441	-0,036	-0,010
-570,904	219,245	-0,070	0,082
-569,890	-17,623	0,075	0,034
-568,875	256,952	-0,042	-0,053
-567,861	800,000	0,028	0,080
-566,846	632,979	-0,030	-0,055
-565,831	-200,000	0,023	-0,102
-564,817	-105,328	-0,099	-0,016
-563,802	-87,482	-0,121	0,027
-562,788	-200,000	0,024	-0,089
-561,773	-200,000	-0,026	0,114
-560,758	-200,000	0,021	-0,072
-559,744	424,316	-0,098	0,154
-558,729	69,907	-0,085	0,064
-557,715	239,206	0,021	0,026
-556,700	72,696	-0,051	0,039
-555,685	-200,000	0,024	0,146
-554,671	-39,653	0,057	0,022
-553,656	414,720	0,042	0,065
-552,642	308,760	-0,045	-0,062
-551,627	-200,000	0,007	-0,115
-550,612	-160,737	0,126	0,005
-549,598	800,000	-0,032	-0,103
-548,583	276,883	-0,002	0,003
-547,569	-200,000	0,000	0,004
-546,554	85,268	0,084	-0,067
-545,539	-124,867	0,093	0,010
-544,525	-200,000	-0,002	-0,023
-543,510	119,602	0,060	0,054
-542,496	-10,676	0,060	0,029
-541,481	-200,000	-0,003	-0,089
-540,466	186,446	-0,056	-0,061
-539,452	168,064	0,066	-0,069
-538,437	800,000	-0,011	0,034
-537,423	271,183	0,042	0,055
-536,408	-200,000	0,005	-0,049
-535,393	280,118	-0,105	-0,137
-534,379	27,633	-0,111	-0,068
-533,364	-25,344	0,096	0,041
-532,350	800,000	0,025	-0,067
-531,335	-200,000	0,030	0,101
-530,321	-144,157	0,127	0,009
-529,306	-185,611	0,062	0,001
-528,291	-200,000	0,002	-0,092
-527,277	-200,000	-0,037	-0,165
-526,262	800,000	-0,018	-0,042
-525,248	-200,000	0,022	0,110
-524,233	-200,000	0,026	0,113
-523,218	62,119	0,070	0,051
-522,204	-200,000	0,010	0,119
-521,189	-200,000	-0,011	-0,046
-520,175	-68,006	0,072	-0,020
-519,160	-200,000	0,003	-0,055
-518,145	-109,743	0,008	-0,001
-517,131	62,841	0,092	-0,067
-516,116	-32,447	-0,050	0,020
-515,102	-182,267	-0,091	0,001
-514,087	-200,000	-0,016	0,062
-513,072	426,112	-0,044	-0,069
-512,058	519,206	-0,046	-0,080
-511,043	134,164	0,042	-0,040
-510,029	800,000	0,081	0,237
-509,014	23,075	-0,100	0,060
-507,999	-82,350	0,084	-0,020
-506,985	14,221	-0,056	-0,032
-505,970	-89,320	0,021	0,004
-504,956	-200,000	-0,000	-0,067
-503,941	-186,896	-0,084	-0,001
-502,926	-200,000	0,000	0,073
-501,912	-67,347	0,088	0,025
-500,897	114,334	-0,090	-0,080
-499,883	-154,576	-0,112	-0,005
-498,868	800,000	-0,032	0,065
-497,853	25,769	0,089	-0,054
-496,839	269,000	0,050	0,064
-495,824	-200,000	-0,006	0,109
-494,810	-82,445	0,191	-0,045
-493,795	46,673	-0,050	-0,034
-492,781	-200,000	-0,007	0,064
-491,766	-15,527	0,085	-0,039
-490,751	160,002	0,087	-0,089
-489,737	-49,084	-0,096	0,033
-488,722	-132,363	-0,133	-0,012
-487,708	252,383	0,049	0,061
-486,693	-200,000	-0,019	0,098
-485,678	-72,772	-0,058	0,016
-484,664	-95,409	0,054	0,010
-483,649	74,754	-0,077	-0,059
-482,635	-45,449	0,008	-0,003
-481,620	-163,744	0,139	0,005
-480,605	-12,059	0,092	-0,044
-479,591	-200,000	0,002	-0,066
-478,576	-110,915	-0,114	-0,017
-477,562	-50,322	-0,061	0,021
-476,547	305,930	-0,026	-0,036
-475,532	37,740	0,172	-0,111
-474,518	800,000	-0,032	-0,095
-473,503	-200,000	0,025	0,084
-472,489	-123,425	0,090	-0,010
-471,474	-31,357	-0,105	-0,043
-470,459	-128,455	-0,042	-0,004
-469,445	87,140	-0,040	0,033
-468,430	-100,035	-0,033	-0,006
-467,416	-151,916	0,102	-0,005
-466,401	-96,594	0,031	-0,006
-465,386	178,338	0,021	-0,023
-464,372	-136,504	-0,082	0,007
-463,357	800,000	0,044	0,135
-462,343	800,000	0,010	-0,030
-461,328	-64,503	-0,066	0,019
-460,313	800,000	-0,026	-0,076
-459,299	-200,000	-0,018	0,097
-458,284	544,287	0,085	0,148
-457,270	-115,541	-0,022	-0,003
-456,255	-200,000	-0,014	-0,062
-455,241	-82,541	-0,018	-0,004
-454,226	-104,685	-0,069	0,011
-453,211	452,899	-0,081	-0,131
-452,197	800,000	0,037	-0,077
-451,182	-102,455	-0,143	0,025
-450,168	59,109	0,049	0,035
-449,153	-185,075	-0,036	-0,000
-448,138	-200,000	0,023	-0,092
-447,124	-56,158	0,139	0,045
-446,109	21,028	-0,092	0,054
-445,095	103,995	-0,072	0,061
-444,080	286,034	-0,032	0,042
-443,065	89,554	0,059	-0,048
-442,051	-100,922	0,051	0,009
-441,036	-200,000	-0,016	0,100
-440,022	121,655	-0,013	0,012
-439,007	54,943	-0,038	-0,027
-437,992	37,516	0,070	-0,045
-436,978	-47,359	0,042	0,015
-435,963	89,428	0,148	0,120
-434,949	-7,480	0,032	-0,016
-433,934	-111,573	-0,099	-0,014
-432,919	109,645	-0,051	-0,045
-431,905	-200,000	0,002	-0,136
-430,890	-200,000	-0,005	0,084
-429,876	-200,000	0,030	0,110
-428,861	-19,225	0,084	0,038
-427,846	-35,705	0,103	-0,040
-426,832	21,369	-0,104	-0,061
-425,817	275,888	-0,062	0,081
-424,803	87,581	-0,095	0,076
-423,788	-42,689	0,065	0,024
-422,773	-145,857	0,035	-0,002
-421,759	-200,000	0,005	0,022
-420,744	54,082	-0,075	-0,052
-419,730	-200,000	-0,008	-0,053
-418,715	-200,000	0,003	-0,105
-417,701	390,625	-0,025	0,038
-416,686	140,720	0,065	-0,062
-415,671	8,862	0,085	-0,046
-414,657	-200,000	0,030	0,128
-413,642	65,828	0,170	0,125
-412,628	-40,405	0,096	0,036
-411,613	100,149	-0,145	-0,122
-410,598	-200,000	0,011	-0,104
-409,584	524,757	-0,023	0,039
-408,569	120,549	0,119	0,108
-407,555	-104,895	-0,239	0,039
-406,540	-200,000	0,078	0,000
-405,525	-200,000	-0,019	-0,134
-404,511	-200,000	0,005	-0,037
-403,496	800,000	0,033	0,103
-402,482	26,930	0,043	0,026
-401,467	800,000	-0,065	-0,168
-400,452	145,413	0,052	0,050
-399,438	800,000	0,039	0,114
-398,423	0,398	-0,063	0,033
-397,409	-200,000	0,019	-0,083
-396,394	123,717	0,014	-0,012
-395,379	-53,897	0,081	0,027
-394,365	561,633	-0,063	-0,111
-393,350	39,885	-0,064	-0,042
-392,336	800,000	0,042	-0,092
-391,321	-153,313	-0,187	0,009
-390,306	-88,471	0,056	-0,012
-389,292	395,290	-0,065	0,099
-388,277	-125,862	0,049	0,005
-387,263	22,143	0,109	-0,065
-386,248	110,604	0,141	0,123
-385,233	-200,000	0,016	0,071
-384,219	-80,425	-0,057	0,014
-383,204	-127,091	-0,205	0,022
-382,190	-66,961	-0,041	0,012
-381,175	-72,810	0,093	0,025
-380,160	-43,523	-0,074	-0,027
-379,146	800,000	-0,026	0,076
-378,131	333,557	-0,096	-0,135
-377,117	-62,414	0,086	0,026
-376,102	800,000	-0,086	-0,191
-375,088	-200,000	-0,003	-0,090
-374,073	593,695	-0,014	0,025
-373,058	214,319	0,044	-0,051
-372,044	-200,000	-0,065	0,214
-371,029	-89,300	0,116	0,025
-370,015	190,090	-0,041	-0,044
-369,000	-89,809	-0,069	0,014
-367,985	-97,376	-0,170	-0,032
-366,971	122,645	-0,110	-0,100
-365,956	-105,928	0,122	-0,020
-364,942	41,398	0,129	0,085
-363,927	-200,000	-0,021	0,127
-362,912	-77,590	-0,029	0,007
-361,898	60,481	0,021	-0,015
-360,883	-94,128	-0,077	0,015
-359,869	-200,000	0,005	-0,076
-358,854	173,793	0,048	0,050
-357,839	84,111	0,109	0,086
-356,825	771,755	0,065	-0,128
-355,810	569,278	0,011	0,019
-354,796	-188,518	-0,040	0,000
-353,781	111,874	-0,087	-0,076
-352,766	-128,579	-0,180	-0,018
-351,752	800,000	-0,063	-0,167
-350,737	2,606	0,152	-0,080
-349,723	-200,000	0,001	0,024
-348,708	-23,391	0,068	-0,030
-347,693	-166,008	0,095	-0,003
-346,679	800,000	-0,026	-0,070
-345,664	800,000	0,020	-0,043
-344,650	800,000	-0,036	0,086
-343,635	-52,179	0,068	-0,023
-342,620	789,851	0,082	0,165
-341,606	1,268	0,159	0,082
-340,591	-200,000	0,014	-0,105
-339,577	147,191	-0,081	-0,079
-338,562	-200,000	-0,002	-0,064
-337,548	-45,428	0,076	-0,027
-336,533	411,270	0,003	0,004
-335,518	66,957	0,120	0,088
-334,504	-200,000	0,007	-0,057
-333,489	-100,229	-0,109	-0,020
-332,475	-134,834	-0,046	-0,004
-331,460	-110,790	-0,034	0,005
-330,445	-63,446	0,082	-0,024
-329,431	427,410	0,056	0,088
-328,416	-118,050	-0,085	0,011
-327,402	-200,000	-0,018	0,119
-326,387	669,069	0,025	0,048
-325,372	-136,082	0,089	0,007
-324,358	441,469	0,030	-0,047
-323,343	-3,365	0,082	-0,041
-322,329	450,813	0,035	0,057
-321,314	309,547	0,085	0,116
-320,299	-146,687	0,039	0,002
-319,285	215,396	0,068	0,078
-318,270	800,000	0,014	0,041
-317,256	-200,000	-0,027	-0,149
-316,241	-200,000	0,015	-0,089
-315,226	-160,655	-0,044	0,002
-314,212	-158,594	-0,072	0,003
-313,197	800,000	0,020	-0,047
-312,183	347,844	0,046	0,066
-311,168	800,000	0,042	-0,110
-310,153	202,068	-0,074	0,082
-309,139	181,482	-0,044	0,047
-308,124	-200,000	0,013	0,084
-307,110	363,655	-0,073	0,107
-306,095	-65,163	-0,042	0,012
-305,080	-200,000	-0,004	0,019
-304,066	286,582	0,128	0,167
-303,051	40,405	-0,019	-0,012
-302,037	-200,000	0,013	-0,119
-301,022	-37,711	-0,087	0,033
-300,008	274,776	0,098	0,126
-298,993	-145,686	-0,130	-0,008
-297,978	24,743	-0,067	-0,040
-296,964	-17,139	0,013	-0,006
-295,949	192,484	0,053	0,058
-294,935	-39,477	0,011	-0,004
-293,920	-200,000	-0,031	0,108
-292,905	-14,520	0,043	-0,020
-291,891	-114,863	-0,050	0,007
-290,876	-46,902	-0,149	-0,052
-289,862	409,363	0,037	0,058
-288,847	385,066	-0,094	-0,141
-287,832	153,510	-0,086	-0,086
-286,818	-122,522	-0,169	-0,020
-285,803	-90,147	-0,082	0,017
-284,789	800,000	0,038	0,088
-283,774	-200,000	0,014	0,051
-282,759	-200,000	0,007	-0,178
-281,745	-150,126	-0,063	0,003
-280,730	-122,948	-0,044	0,005
-279,716	252,923	0,057	0,070
-278,701	2,603	0,087	-0,046
-277,686	85,096	0,118	0,094
-276,672	250,112	0,033	0,040
-275,657	-200,000	0,025	-0,091
-274,643	163,203	-0,102	-0,104
-273,628	170,591	0,028	0,029
-272,613	800,000	-0,009	0,022
-271,599	-79,981	0,032	0,008
-270,584	83,988	0,094	-0,074
-269,570	-200,000	-0,037	-0,141
-268,555	-196,692	-0,108	-0,001
-267,540	157,321	-0,038	-0,038
-266,526	166,747	0,080	0,082
-265,511	150,960	-0,082	0,080
-264,497	-24,401	0,061	-0,026
-263,482	-165,044	0,147	-0,005
-262,467	-200,000	-0,002	0,125
-261,453	-51,421	0,053	0,018
-260,438	-29,082	0,112	-0,046
-259,424	53,666	-0,112	0,078
-258,409	-200,000	0,017	0,088
-257,395	-200,000	0,004	0,036
-256,380	313,291	0,058	-0,079
-255,365	-200,000	0,009	-0,038
-254,351	-200,000	-0,003	-0,137
-253,336	107,185	-0,065	-0,056
-252,322	-200,000	-0,000	-0,079
-251,307	206,370	-0,057	-0,065
-250,292	800,000	-0,042	-0,108
-249,278	333,956	-0,027	-0,038
-248,263	-200,000	0,003	0,015
-247,249	144,860	-0,134	-0,130
-246,234	11,379	-0,124	-0,068
-245,219	-200,000	0,007	0,082
-244,205	-28,956	-0,078	-0,032
-243,190	7,125	0,021	-0,012
-242,176	137,547	0,073	0,069
-241,161	-200,000	0,003	0,098
-240,146	531,652	0,105	0,180
-239,132	-200,000	-0,000	0,013
-238,117	-21,616	0,069	0,030
-237,103	25,852	-0,096	-0,058
-236,088	314,332	0,117	-0,159
-235,073	43,715	0,085	-0,056
-234,059	-200,000	0,018	0,126
-233,044	-200,000	0,009	0,092
-232,030	-125,281	0,039	0,004
-231,015	-200,000	-0,040	-0,138
-230,000	-200,000	0,002	0,025
-228,986	319,606	0,106	0,145
-227,971	29,440	0,002	-0,001
-226,957	-27,537	0,113	-0,047
-225,942	-44,257	-0,160	-0,058
-224,927	422,760	-0,033	-0,051
-223,913	673,189	0,098	-0,184
-222,898	800,000	-0,055	-0,121
-221,884	-22,746	0,063	0,027
-220,869	800,000	-0,043	0,091
-219,855	529,362	-0,047	-0,080
-218,840	-200,000	0,008	-0,046
-217,825	-111,198	-0,120	-0,018
-216,811	26,019	-0,057	-0,034
-215,796	166,156	-0,062	0,063
-214,782	-200,000	0,001	-0,130
-213,767	-200,000	0,003	-0,041
-212,752	-70,996	0,044	0,012
-211,738	-200,000	-0,008	0,129
-210,723	383,579	-0,040	0,059
-209,709	439,211	-0,026	0,041
-208,694	800,000	-0,026	0,074
-207,679	107,616	0,096	0,082
-206,665	531,420	0,031	0,054
-205,650	350,772	-0,007	0,010
-204,636	66,258	0,097	0,071
-203,621	30,355	-0,117	0,072
-202,606	800,000	-0,048	0,137
-201,592	-35,836	-0,061	-0,024
-200,577	-30,256	0,097	-0,040
-199,563	800,000	-0,050	-0,143
-198,548	-200,000	-0,019	-0,126
-197,533	-200,000	-0,002	-0,036
-196,519	78,951	0,045	0,035
-195,504	-200,000	-0,009	0,104
-194,490	535,787	-0,035	0,059
-193,475	800,000	-0,027	-0,076
-192,460	-116,394	0,027	-0,004
-191,446	526,981	-0,028	0,048
-190,431	800,000	-0,037	-0,099
-189,417	800,000	-0,076	0,168
-188,402	800,000	0,085	-0,218
-187,387	88,483	0,051	-0,041
-186,373	61,898	-0,010	0,007
-185,358	-76,053	-0,077	0,019
-184,344	-168,983	-0,081	-0,002
-183,329	-200,000	0,016	-0,083
-182,315	661,049	0,032	-0,059
-181,300	800,000	-0,046	0,102
-180,285	-80,542	-0,096	0,023
-179,271	-200,000	0,003	0,053
-178,256	-32,799	-0,061	0,024
-177,242	143,351	0,050	0,048
-176,227	-200,000	0,014	0,108
-175,212	-200,000	-0,014	0,070
-174,198	-200,000	-0,011	-0,051
-173,183	647,742	0,024	0,044
-172,169	-45,323	-0,086	-0,030
-171,154	-70,236	0,110	-0,030
-170,139	-200,000	0,016	0,093
-169,125	408,957	-0,049	0,074
-168,110	-200,000	0,000	0,111
-167,096	-159,285	0,094	-0,004
-166,081	145,368	-0,031	0,030
-165,066	800,000	-0,025	-0,070
-164,052	354,986	-0,109	-0,157
-163,037	-10,558	-0,086	0,041
-162,023	-187,816	0,179	0,002
-161,008	120,674	0,085	0,076
-159,993	40,404	0,077	-0,050
-158,979	166,901	0,065	0,066
-157,964	-200,000	-0,005	0,034
-156,950	105,986	-0,104	-0,089
-155,935	42,966	-0,046	-0,030
-154,920	254,234	-0,054	-0,066
-153,906	555,324	-0,026	0,044
-152,891	45,214	-0,040	0,026
-151,877	800,000	0,010	0,031
-150,862	150,834	-0,024	-0,023
-149,847	-104,004	0,048	0,008
-148,833	-200,000	-0,021	-0,172
-147,818	-108,732	0,178	-0,027
-146,804	-55,710	-0,114	0,036
-145,789	-90,234	-0,112	-0,023
-144,775	-96,453	-0,050	-0,009
-143,760	364,363	0,034	0,049
-142,745	-48,914	-0,118	0,041
-141,731	-42,536	-0,162	-0,059
-140,716	704,395	0,088	-0,168
-139,702	-200,000	0,014	0,123
-138,687	261,467	0,015	0,018
-137,672	-130,020	-0,062	-0,006
-136,658	61,116	-0,057	0,041
-135,643	-200,000	0,014	-0,098
-134,629	19,567	-0,036	0,021
-133,614	800,000	0,054	0,160
-132,599	266,022	0,068	0,086
-131,585	-200,000	0,003	0,011
-130,570	-200,000	0,020	0,086
-129,556	-39,260	0,019	-0,007
-128,541	-43,697	-0,156	0,056
-127,526	800,000	-0,035	-0,091
-126,512	800,000	-0,046	0,135
-125,497	-9,301	0,056	-0,027
-124,483	-200,000	0,018	0,104
-123,468	448,308	0,024	0,038
-122,453	127,706	-0,067	-0,061
-121,439	16,180	0,131	-0,074
-120,424	-200,000	0,001	-0,012
