DTS Sentinel unit serial number:	SN410029Multiplexer serial number:	ORYXHardware model number:	OX2-SRSoftware version number:	ORYX F/W v4,00 Oryx Data Collector v3.7.2.0data status	okinstallation	B5 Nyhavnadifferential loss correction	single-endedforward channel	channel 2reverse channel	N/Adate	2023/12/12time	10:52:13forward acquisition time	300,00reverse acquisition time	0,00gamma	499,1914k internal	0,3158k external	0,3158temperature offset calibration	1,0000default loss term (dB/km)	0,3820temperature slope calibration	1,0000multiplexer offset coefficient	1,0000multiplexer slope coefficient	1,0000fibre end	0,00T internal ref (°C)	15,00T ext. ref 1 (°C)	-1,27T ext. ref 2 (°C)	-1,52length (m)	temperature (°C)	Stokes	anti-Stokes-744,400	-83,362	0,184	-0,043
-743,385	-139,148	-0,353	0,028
-742,371	174,762	0,058	0,062
-741,356	-104,762	-0,334	-0,056
-740,342	-24,162	0,081	-0,035
-739,327	-6,567	-0,274	-0,137
-738,312	258,747	0,070	-0,089
-737,298	-49,705	-0,277	0,097
-736,283	85,306	-0,038	0,031
-735,269	-54,181	-0,351	0,117
-734,254	479,842	0,061	0,102
-733,239	-52,684	-0,464	-0,157
-732,225	23,950	0,193	0,117
-731,210	-28,903	0,030	0,013
-730,196	-200,000	0,011	0,043
-729,181	-56,595	-0,236	0,077
-728,167	-111,693	0,092	-0,014
-727,152	-200,000	0,017	-0,216
-726,137	-39,683	-0,063	0,024
-725,123	92,590	-0,013	-0,011
-724,108	-100,971	-0,150	0,027
-723,094	123,299	-0,099	0,091
-722,079	630,852	-0,034	0,064
-721,064	116,546	0,067	0,060
-720,050	37,853	-0,024	0,016
-719,035	-200,000	-0,029	-0,131
-718,021	-133,731	0,153	0,014
-717,006	-200,000	0,055	-0,185
-715,991	-200,000	0,003	-0,124
-714,977	60,829	-0,071	-0,052
-713,962	258,043	0,030	-0,039
-712,948	244,024	0,037	0,046
-711,933	-180,963	-0,141	-0,002
-710,918	-196,509	0,102	-0,000
-709,904	254,051	-0,114	-0,144
-708,889	-200,000	0,001	0,128
-707,875	-52,630	-0,104	0,035
-706,860	-90,745	-0,139	-0,029
-705,845	-200,000	0,013	0,047
-704,831	-200,000	0,030	0,228
-703,816	-23,612	0,073	0,032
-702,802	-200,000	0,028	-0,100
-701,787	87,563	0,023	-0,019
-700,772	800,000	-0,022	0,069
-699,758	259,532	-0,036	0,045
-698,743	-200,000	0,003	0,103
-697,729	185,361	0,054	-0,059
-696,714	800,000	-0,049	0,139
-695,699	184,735	0,046	0,051
-694,685	-76,793	0,095	-0,024
-693,670	-8,893	-0,086	0,042
-692,656	186,528	-0,033	-0,037
-691,641	-200,000	-0,039	0,168
-690,627	800,000	-0,030	0,071
-689,612	-15,948	0,120	-0,056
-688,597	421,938	0,048	-0,077
-687,583	-200,000	-0,027	-0,172
-686,568	68,806	0,062	-0,047
-685,554	355,888	-0,015	0,022
-684,539	133,325	0,015	-0,014
-683,524	800,000	-0,018	-0,057
-682,510	-200,000	-0,005	0,090
-681,495	-158,366	-0,168	0,007
-680,481	428,400	0,013	0,020
-679,466	-200,000	0,005	-0,045
-678,451	800,000	-0,060	-0,141
-677,437	-200,000	0,001	-0,089
-676,422	-170,655	0,080	-0,002
-675,408	222,347	-0,025	0,030
-674,393	-200,000	0,021	-0,098
-673,378	-52,546	-0,091	-0,031
-672,364	54,910	-0,140	-0,099
-671,349	-200,000	0,003	0,018
-670,335	33,449	-0,048	-0,031
-669,320	800,000	-0,078	0,169
-668,305	-200,000	0,013	0,051
-667,291	40,332	-0,117	0,077
-666,276	-200,000	-0,011	-0,099
-665,262	195,857	-0,078	-0,088
-664,247	307,295	-0,053	-0,072
-663,232	78,492	0,057	0,045
-662,218	-200,000	0,000	-0,133
-661,203	-200,000	-0,005	0,036
-660,189	618,067	0,080	-0,149
-659,174	-200,000	0,005	-0,068
-658,159	-180,496	-0,084	-0,001
-657,145	754,266	-0,034	0,068
-656,130	191,940	0,098	-0,109
-655,116	-5,698	0,084	0,042
-654,101	-24,188	-0,035	0,015
-653,086	-200,000	-0,007	-0,155
-652,072	-200,000	-0,026	-0,094
-651,057	51,654	0,048	-0,034
-650,043	-23,975	0,079	0,034
-649,028	168,575	0,137	-0,143
-648,014	253,402	-0,103	-0,130
-646,999	-200,000	-0,021	0,121
-645,984	800,000	0,028	0,068
-644,970	-11,163	-0,060	-0,029
-643,955	445,608	-0,035	-0,057
-642,941	503,250	-0,069	-0,117
-641,926	-33,379	-0,149	0,060
-640,911	-200,000	-0,011	-0,041
-639,897	-200,000	-0,015	0,132
-638,882	-160,797	0,054	0,002
-637,868	-40,058	-0,074	-0,028
-636,853	335,459	0,045	0,064
-635,838	59,367	-0,121	-0,087
-634,824	-174,882	0,015	-0,000
-633,809	-91,449	-0,061	0,013
-632,795	-200,000	-0,001	0,040
-631,780	-200,000	0,013	0,054
-630,765	-25,604	-0,078	-0,033
-629,751	-200,000	-0,003	-0,058
-628,736	-200,000	-0,001	0,094
-627,722	-180,715	0,122	-0,002
-626,707	-200,000	0,008	-0,062
-625,692	-72,949	0,109	0,029
-624,678	-200,000	0,002	0,036
-623,663	24,463	-0,150	0,091
-622,649	123,730	-0,057	-0,052
-621,634	-1,766	0,024	0,012
-620,619	-30,400	-0,110	0,046
-619,605	-200,000	0,002	0,025
-618,590	-45,333	0,041	-0,015
-617,576	-35,208	0,118	-0,047
-616,561	-150,534	-0,141	0,008
-615,546	9,023	-0,049	0,027
-614,532	-39,854	-0,068	-0,026
-613,517	-63,340	0,117	-0,035
-612,503	-200,000	0,024	-0,134
-611,488	368,499	-0,043	0,063
-610,474	800,000	0,037	0,081
-609,459	-5,585	-0,066	-0,033
-608,444	-42,942	0,047	-0,017
-607,430	-97,681	0,097	-0,018
-606,415	-10,303	-0,044	-0,021
-605,401	175,823	0,012	0,013
-604,386	381,678	-0,023	0,035
-603,371	553,560	0,061	0,107
-602,357	-35,915	-0,032	0,013
-601,342	225,205	0,084	0,100
-600,328	-47,810	-0,102	0,036
-599,313	-84,443	0,081	0,019
-598,298	133,797	0,037	0,035
-597,284	89,235	0,065	0,053
-596,269	381,092	0,086	0,130
-595,255	47,610	0,043	-0,029
-594,240	800,000	-0,053	-0,171
-593,225	110,945	0,043	-0,038
-592,211	119,281	-0,038	-0,034
-591,196	201,626	-0,063	0,071
-590,182	-200,000	0,004	0,020
-589,167	110,909	-0,036	0,032
-588,152	390,825	0,049	0,075
-587,138	-147,253	-0,184	0,011
-586,123	-67,120	0,081	0,023
-585,109	50,342	-0,054	0,038
-584,094	-46,853	0,128	0,046
-583,079	800,000	-0,023	0,046
-582,065	800,000	0,026	0,057
-581,050	-200,000	-0,008	0,051
-580,036	55,878	0,046	-0,032
-579,021	-200,000	-0,014	-0,080
-578,006	800,000	0,062	-0,142
-576,992	800,000	0,014	0,045
-575,977	231,756	-0,024	-0,028
-574,963	800,000	-0,037	-0,087
-573,948	-200,000	0,020	0,102
-572,934	-81,679	-0,055	0,013
-571,919	-200,000	-0,006	-0,144
-570,904	-39,847	-0,093	0,035
-569,890	178,094	0,035	0,037
-568,875	800,000	0,050	-0,148
-567,861	243,071	0,070	-0,086
-566,846	-200,000	-0,006	0,050
-565,831	-138,106	0,082	0,007
-564,817	23,068	-0,151	-0,090
-563,802	800,000	0,052	-0,140
-562,788	-200,000	-0,010	-0,151
-561,773	800,000	0,015	-0,044
-560,758	-34,137	0,071	-0,028
-559,744	435,679	0,039	0,063
-558,729	-200,000	0,001	-0,126
-557,715	-124,788	-0,104	-0,012
-556,700	-200,000	0,013	0,122
-555,685	-5,555	-0,088	-0,044
-554,671	-200,000	0,027	0,089
-553,656	-89,969	0,166	0,035
-552,642	-96,933	0,135	0,026
-551,627	-47,982	0,112	-0,039
-550,612	800,000	-0,012	-0,039
-549,598	-200,000	-0,172	-0,000
-548,583	673,971	0,038	-0,073
-547,569	-49,461	0,158	-0,055
-546,554	-200,000	0,045	0,180
-545,539	-59,845	0,033	-0,010
-544,525	-126,929	-0,103	0,011
-543,510	-105,659	-0,115	0,019
-542,496	-125,649	-0,013	-0,001
-541,481	8,195	-0,108	-0,059
-540,466	-79,633	0,043	-0,010
-539,452	800,000	-0,015	0,036
-538,437	523,046	-0,041	-0,071
-537,423	-58,034	0,012	-0,004
-536,408	68,467	-0,047	0,035
-535,393	282,826	-0,035	-0,047
-534,379	-131,704	-0,069	0,007
-533,364	-181,523	0,123	-0,002
-532,350	-87,603	0,062	0,014
-531,335	397,764	0,018	0,027
-530,321	800,000	0,028	0,058
-529,306	-200,000	0,012	-0,045
-528,291	-27,804	-0,155	0,065
-527,277	401,572	0,025	-0,039
-526,262	800,000	0,026	0,067
-525,248	-200,000	-0,017	-0,090
-524,233	-59,398	0,109	0,034
-523,218	-171,662	-0,036	-0,001
-522,204	-200,000	0,014	-0,063
-521,189	800,000	0,011	-0,024
-520,175	176,839	-0,030	-0,032
-519,160	-200,000	-0,010	0,070
-518,145	483,187	0,070	0,117
-517,131	800,000	-0,039	0,100
-516,116	-200,000	0,020	0,119
-515,102	-85,941	-0,153	-0,034
-514,087	-200,000	0,013	-0,132
-513,072	91,314	0,076	0,062
-512,058	800,000	0,014	0,042
-511,043	548,319	0,010	-0,018
-510,029	106,983	0,058	-0,050
-509,014	-200,000	-0,028	0,125
-507,999	-81,241	0,049	0,012
-506,985	-31,725	-0,105	0,043
-505,970	-200,000	0,005	-0,067
-504,956	41,165	0,159	0,105
-503,941	-200,000	0,031	0,124
-502,926	-99,987	-0,062	-0,011
-501,912	-90,206	0,113	-0,024
-500,897	-16,680	-0,153	0,070
-499,883	-96,437	-0,121	-0,023
-498,868	800,000	0,017	-0,053
-497,853	800,000	-0,041	-0,131
-496,839	685,851	-0,035	-0,068
-495,824	5,966	0,160	0,086
-494,810	-200,000	-0,011	0,127
-493,795	-200,000	-0,023	-0,118
-492,781	230,521	-0,120	-0,143
-491,766	144,585	-0,054	-0,052
-490,751	-102,298	0,151	0,026
-489,737	-52,452	0,112	-0,038
-488,722	800,000	-0,026	-0,057
-487,708	386,877	-0,048	-0,073
-486,693	800,000	0,023	0,064
-485,678	478,964	-0,033	0,054
-484,664	-52,514	0,102	-0,034
-483,649	-7,514	-0,160	0,079
-482,635	96,302	0,109	0,091
-481,620	-200,000	-0,019	-0,077
-480,605	-13,774	-0,107	0,050
-479,591	99,198	0,067	0,057
-478,576	789,598	-0,041	-0,082
-477,562	-200,000	-0,024	-0,110
-476,547	800,000	-0,070	-0,159
-475,532	-101,971	0,134	0,023
-474,518	37,383	0,113	0,073
-473,503	-140,849	0,078	-0,006
-472,489	-191,406	0,078	0,001
-471,474	-200,000	0,042	-0,180
-470,459	106,742	0,054	-0,046
-469,445	185,027	-0,092	0,100
-468,430	16,604	0,054	0,031
-467,416	-200,000	0,011	0,079
-466,401	-40,465	0,042	-0,016
-465,386	-18,482	0,156	0,071
-464,372	146,898	-0,042	-0,042
-463,357	315,210	-0,088	-0,121
-462,343	-200,000	0,023	0,106
-461,328	30,314	-0,018	-0,011
-460,313	-200,000	-0,012	0,118
-459,299	800,000	0,050	-0,149
-458,284	800,000	0,061	0,175
-457,270	-200,000	-0,035	0,140
-456,255	668,541	0,035	-0,067
-455,241	-28,792	-0,078	-0,033
-454,226	63,104	-0,054	-0,039
-453,211	-156,135	0,037	0,002
-452,197	-200,000	-0,022	0,100
-451,182	-151,214	-0,047	-0,003
-450,168	-105,366	0,204	0,033
-449,153	179,528	-0,081	0,086
-448,138	-14,355	-0,080	0,037
-447,124	240,741	0,090	-0,109
-446,109	-27,935	0,155	-0,065
-445,095	-200,000	-0,014	0,057
-444,080	380,557	-0,030	0,045
-443,065	-200,000	-0,021	0,071
-442,051	194,197	0,060	0,066
-441,036	29,280	0,017	-0,010
-440,022	109,849	-0,053	-0,046
-439,007	800,000	-0,018	0,047
-437,992	336,555	0,051	0,072
-436,978	350,998	0,086	0,124
-435,963	-200,000	0,004	0,092
-434,949	115,941	0,042	-0,037
-433,934	2,370	-0,066	0,035
-432,919	85,573	0,068	0,054
-431,905	800,000	0,033	0,091
-430,890	-56,890	0,103	0,033
-429,876	71,663	0,134	-0,101
-428,861	-200,000	-0,004	-0,057
-427,846	-200,000	0,003	-0,084
-426,832	591,217	0,007	-0,012
-425,817	-200,000	-0,007	0,068
-424,803	-175,119	-0,090	0,002
-423,788	-200,000	-0,007	-0,086
-422,773	537,265	0,036	-0,062
-421,759	-200,000	-0,003	0,098
-420,744	800,000	-0,056	-0,134
-419,730	313,092	-0,089	-0,122
-418,715	535,241	-0,013	-0,023
-417,701	-65,752	-0,059	0,017
-416,686	-2,500	0,051	-0,026
-415,671	-163,403	0,039	0,001
-414,657	429,946	-0,034	0,054
-413,642	79,142	-0,093	0,072
-412,628	80,197	-0,090	0,071
-411,613	-131,188	-0,096	0,009
-410,598	133,059	-0,087	-0,081
-409,584	192,627	-0,051	-0,056
-408,569	214,978	0,134	0,155
-407,555	-200,000	-0,000	0,036
-406,540	800,000	0,042	0,099
-405,525	103,109	0,074	0,063
-404,511	800,000	-0,074	-0,170
-403,496	800,000	0,022	0,050
-402,482	800,000	-0,049	-0,117
-401,467	192,863	0,077	0,085
-400,452	-175,450	-0,108	0,002
-399,438	-200,000	0,006	0,077
-398,423	-193,466	-0,097	0,001
-397,409	-109,637	-0,033	-0,005
-396,394	800,000	0,055	0,119
-395,379	800,000	-0,049	-0,114
-394,365	-200,000	-0,002	-0,019
-393,350	255,959	0,021	-0,026
-392,336	-45,560	-0,052	0,019
-391,321	-14,448	-0,037	0,017
-390,306	800,000	0,020	-0,044
-389,292	-25,161	-0,174	-0,075
-388,277	74,583	0,093	0,071
-387,263	82,841	0,080	0,063
-386,248	287,860	0,045	-0,060
-385,233	44,607	-0,081	0,054
-384,219	202,909	-0,039	0,044
-383,204	-10,896	0,090	-0,043
-382,190	-121,876	-0,067	0,008
-381,175	-200,000	-0,003	0,052
-380,160	-154,384	0,080	0,004
-379,146	800,000	-0,015	-0,048
-378,131	-141,579	-0,068	-0,005
-377,117	122,883	-0,031	0,028
-376,102	35,941	-0,065	-0,042
-375,088	506,421	-0,046	-0,077
-374,073	569,135	-0,020	0,035
-373,058	-200,000	-0,010	0,048
-372,044	423,155	0,028	-0,043
-371,029	212,971	0,079	-0,091
-370,015	100,370	0,053	-0,045
-369,000	-200,000	0,003	-0,080
-367,985	70,922	-0,051	-0,038
-366,971	-200,000	-0,014	0,077
-365,956	215,093	0,063	0,073
-364,942	90,478	-0,040	0,033
-363,927	56,446	0,060	0,043
-362,912	-200,000	-0,032	-0,118
-361,898	-125,279	0,077	-0,008
-360,883	408,712	-0,031	-0,047
-359,869	8,738	-0,151	-0,082
-358,854	-39,639	0,055	-0,021
-357,839	50,233	0,029	0,020
-356,825	800,000	-0,037	0,095
-355,810	-31,066	-0,099	-0,040
-354,796	13,006	0,031	-0,018
-353,781	-151,665	-0,087	0,005
-352,766	-94,099	0,123	-0,024
-351,752	83,528	-0,094	0,074
-350,737	445,106	0,044	0,070
-349,723	-38,383	0,085	0,032
-348,708	800,000	0,025	0,068
-347,693	230,051	-0,078	-0,093
-346,679	121,377	-0,020	-0,018
-345,664	-200,000	0,005	-0,059
-344,650	84,593	0,063	0,050
-343,635	-200,000	-0,000	0,095
-342,620	189,877	0,035	0,038
-341,606	678,778	0,044	0,084
-340,591	-200,000	0,004	0,032
-339,577	144,805	-0,030	-0,029
-338,562	174,078	0,115	0,121
-337,548	5,507	0,095	-0,050
-336,533	-200,000	-0,025	0,095
-335,518	372,394	0,050	0,074
-334,504	-72,151	0,042	0,011
-333,489	-114,175	0,075	-0,010
-332,475	-19,899	0,033	-0,015
-331,460	-80,127	0,041	-0,010
-330,445	182,166	0,053	0,057
-329,431	-150,794	-0,073	-0,004
-328,416	800,000	-0,029	0,074
-327,402	369,597	-0,085	-0,125
-326,387	-200,000	-0,012	-0,044
-325,372	383,202	0,065	-0,097
-324,358	647,428	-0,082	-0,152
-323,343	-200,000	-0,001	-0,067
-322,329	-100,583	0,072	-0,013
-321,314	-77,940	-0,160	0,040
-320,299	-123,830	-0,080	-0,009
-319,285	-200,000	0,012	0,080
-318,270	-200,000	-0,015	-0,129
-317,256	-200,000	0,025	-0,081
-316,241	148,329	-0,138	-0,135
-315,226	32,501	-0,070	0,044
-314,212	83,773	0,074	0,058
-313,197	704,541	-0,060	0,115
-312,183	264,880	-0,007	0,009
-311,168	-200,000	-0,000	-0,004
-310,153	-200,000	0,008	-0,100
-309,139	-200,000	0,001	0,028
-308,124	-200,000	-0,001	-0,032
-307,110	800,000	0,023	0,068
-306,095	411,518	-0,033	0,051
-305,080	-91,158	-0,075	0,015
-304,066	-200,000	0,006	-0,033
-303,051	439,606	0,043	0,068
-302,037	-69,509	-0,145	0,040
-301,022	7,331	0,032	-0,017
-300,008	11,549	0,077	0,042
-298,993	-24,714	0,084	-0,036
-297,978	-200,000	-0,022	0,097
-296,964	800,000	0,019	-0,053
-295,949	-59,717	-0,075	-0,023
-294,935	-104,036	0,121	-0,020
-293,920	-200,000	0,006	0,054
-292,905	268,530	-0,060	0,076
-291,891	-200,000	0,001	-0,051
-290,876	800,000	0,021	0,052
-289,862	800,000	0,057	-0,122
-288,847	-160,533	-0,129	0,005
-287,832	-184,776	-0,008	0,000
-286,818	-37,492	0,079	-0,030
-285,803	-200,000	-0,009	0,060
-284,789	489,713	-0,047	-0,078
-283,774	171,632	0,054	-0,056
-282,759	625,948	-0,055	-0,102
-281,745	45,714	0,030	-0,020
-280,730	-27,847	0,083	-0,035
-279,716	-166,437	0,141	-0,004
-278,701	-93,203	0,081	0,016
-277,686	800,000	0,018	0,045
-276,672	596,278	-0,053	0,096
-275,657	141,879	-0,130	0,124
-274,643	-127,060	-0,116	0,012
-273,628	800,000	-0,024	0,057
-272,613	800,000	-0,044	0,103
-271,599	35,161	0,102	0,065
-270,584	-155,204	-0,045	0,002
-269,570	18,613	0,087	-0,050
-268,555	165,207	-0,065	-0,067
-267,540	-105,025	-0,119	0,019
-266,526	699,533	-0,037	-0,070
-265,511	533,833	0,052	-0,090
-264,497	84,402	-0,086	-0,068
-263,482	-78,535	0,107	0,026
-262,467	-43,394	0,083	0,030
-261,453	6,556	-0,081	0,043
-260,438	-200,000	-0,020	-0,105
-259,424	167,205	-0,083	-0,086
-258,409	-7,728	-0,135	-0,066
-257,395	180,009	-0,049	0,052
-256,380	-17,500	0,019	0,009
-255,365	30,343	0,090	0,056
-254,351	703,905	-0,055	0,105
-253,336	186,214	-0,039	-0,042
-252,322	175,171	-0,140	-0,147
-251,307	-200,000	0,026	-0,116
-250,292	800,000	-0,007	-0,014
-249,278	-166,631	0,109	-0,003
-248,263	22,444	0,071	0,042
-247,249	800,000	0,036	0,095
-246,234	-23,813	0,126	-0,054
-245,219	800,000	-0,011	-0,035
-244,205	20,791	-0,025	0,015
-243,190	126,932	-0,015	-0,014
-242,176	54,195	0,083	0,058
-241,161	61,130	0,075	0,054
-240,146	-83,770	0,075	0,017
-239,132	194,632	-0,079	0,087
-238,117	800,000	0,059	-0,134
-237,103	-18,339	-0,020	0,009
-236,088	303,019	0,082	0,110
-235,073	-85,129	-0,051	-0,012
-234,059	124,776	0,099	0,091
-233,044	-200,000	-0,022	0,132
-232,030	514,178	0,019	0,032
-231,015	800,000	0,058	-0,181
-230,000	-200,000	-0,016	-0,053
-228,986	57,188	-0,045	-0,032
-227,971	-86,269	0,095	0,021
-226,957	-200,000	0,016	0,140
-225,942	-94,967	0,075	0,015
-224,927	-200,000	0,007	-0,037
-223,913	257,969	-0,094	-0,117
-222,898	-150,795	-0,153	0,008
-221,884	13,622	0,204	0,114
-220,869	-158,434	0,044	-0,002
-219,855	-200,000	-0,011	0,162
-218,840	-200,000	0,030	0,161
-217,825	-30,431	-0,042	0,017
-216,811	800,000	0,064	-0,130
-215,796	28,763	0,056	-0,034
-214,782	580,637	-0,070	-0,124
-213,767	71,489	0,078	-0,059
-212,752	-200,000	-0,006	-0,165
-211,738	-26,283	-0,041	0,017
-210,723	175,220	0,058	-0,060
-209,709	-70,814	0,127	-0,034
-208,694	800,000	-0,045	-0,110
-207,679	539,661	-0,045	-0,078
-206,665	-101,772	0,079	0,014
-205,650	187,272	0,089	0,096
-204,636	-200,000	0,012	0,060
-203,621	692,852	-0,019	-0,037
-202,606	-98,679	-0,153	0,028
-201,592	-200,000	-0,008	-0,056
-200,577	800,000	0,033	-0,086
-199,563	386,654	-0,022	0,033
-198,548	-59,956	-0,076	-0,023
-197,533	-153,629	0,211	-0,010
-196,519	-200,000	0,005	0,015
-195,504	-142,316	-0,148	0,010
-194,490	-34,834	-0,195	-0,076
-193,475	800,000	0,013	-0,034
-192,460	800,000	0,029	-0,074
-191,446	-200,000	-0,001	0,101
-190,431	43,863	-0,087	0,057
-189,417	-11,134	-0,063	-0,030
-188,402	-200,000	0,012	-0,055
-187,387	-6,367	0,157	-0,077
-186,373	-48,508	-0,053	-0,018
-185,358	297,724	-0,086	0,114
-184,344	279,542	-0,088	0,114
-183,329	40,939	-0,072	0,047
-182,315	-86,217	0,013	0,003
-181,300	800,000	-0,020	-0,047
-180,285	-61,758	0,015	-0,005
-179,271	405,865	-0,074	0,113
-178,256	-65,516	-0,068	-0,019
-177,242	-200,000	-0,054	-0,228
-176,227	-200,000	0,012	-0,065
-175,212	3,725	0,113	-0,059
-174,198	334,246	-0,107	0,149
-173,183	-29,768	0,062	0,025
-172,169	-163,247	-0,055	0,002
-171,154	-25,864	-0,093	-0,039
-170,139	-200,000	-0,024	-0,094
-169,125	-200,000	0,012	0,113
-168,110	-155,555	-0,038	0,002
-167,096	67,260	-0,061	-0,045
-166,081	172,305	0,085	0,088
-165,066	751,832	0,032	-0,062
-164,052	87,678	-0,151	-0,121
-163,037	613,691	0,046	0,084
-162,023	41,318	0,069	0,045
-161,008	116,207	0,042	0,037
-159,993	104,941	0,056	-0,047
-158,979	61,232	-0,116	-0,083
-157,964	-129,982	0,042	-0,004
-156,950	-10,284	0,071	-0,034
-155,935	-43,131	-0,044	0,016
-154,920	800,000	-0,023	-0,051
-153,906	-176,672	0,119	-0,002
-152,891	207,199	-0,040	0,045
-151,877	800,000	-0,019	0,054
-150,862	800,000	0,036	-0,106
-149,847	-128,597	-0,141	-0,014
-148,833	681,813	-0,022	0,042
-147,818	-142,646	0,077	0,005
-146,804	-37,989	-0,154	0,058
-145,789	-200,000	-0,000	-0,011
-144,775	-5,862	0,100	-0,049
-143,760	106,588	-0,080	0,068
-142,745	12,489	-0,121	0,067
-141,731	601,450	0,034	0,060
-140,716	604,700	-0,073	0,132
-139,702	130,358	0,082	0,075
-138,687	93,652	-0,037	-0,031
-137,672	19,599	-0,086	-0,050
-136,658	-200,000	0,026	0,107
-135,643	19,810	-0,020	0,012
-134,629	55,157	-0,130	-0,090
-133,614	101,725	0,107	-0,090
-132,599	-200,000	-0,003	-0,164
-131,585	-34,974	-0,158	0,062
-130,570	544,884	0,055	-0,095
-129,556	354,871	-0,063	-0,091
-128,541	-200,000	0,005	-0,148
-127,526	20,338	0,113	0,066
-126,512	27,750	-0,068	-0,041
-125,497	-48,629	0,057	0,020
-124,483	77,091	0,035	-0,027
-123,468	800,000	0,029	0,075
-122,453	800,000	0,055	-0,118
-121,439	800,000	-0,113	0,227
-120,424	-200,000	0,017	-0,120
-119,410	305,271	0,085	-0,113
