DTS Sentinel unit serial number:	SN410029Multiplexer serial number:	ORYXHardware model number:	OX2-SRSoftware version number:	ORYX F/W v4,00 Oryx Data Collector v3.7.2.0data status	okinstallation	B5 Nyhavnadifferential loss correction	single-endedforward channel	channel 2reverse channel	N/Adate	2023/12/13time	10:57:13forward acquisition time	300,00reverse acquisition time	0,00gamma	499,1914k internal	0,3161k external	0,3161temperature offset calibration	1,0000default loss term (dB/km)	0,3820temperature slope calibration	1,0000multiplexer offset coefficient	1,0000multiplexer slope coefficient	1,0000fibre end	0,00T internal ref (°C)	13,69T ext. ref 1 (°C)	-2,51T ext. ref 2 (°C)	-2,82length (m)	temperature (°C)	Stokes	anti-Stokes-744,400	787,142	0,034	0,068
-743,385	25,593	-0,162	0,099
-742,371	12,110	0,137	-0,077
-741,356	-90,617	-0,228	0,048
-740,342	36,649	0,126	0,082
-739,327	-179,533	-0,276	0,004
-738,312	-36,222	0,112	0,044
-737,298	-102,985	-0,307	-0,053
-736,283	9,046	0,159	0,088
-735,269	-197,375	-0,333	-0,001
-734,254	464,444	0,085	0,140
-733,239	-101,980	-0,410	-0,072
-732,225	340,656	0,081	0,117
-731,210	-102,352	0,116	0,020
-730,196	-125,071	-0,037	-0,004
-729,181	89,862	0,061	0,050
-728,167	222,828	-0,018	-0,021
-727,152	-54,380	0,065	0,022
-726,137	64,779	-0,109	-0,081
-725,123	-126,020	-0,067	-0,007
-724,108	139,579	-0,115	0,111
-723,094	10,584	-0,133	-0,075
-722,079	334,709	-0,097	-0,139
-721,064	-107,760	0,046	0,007
-720,050	-36,232	-0,028	0,011
-719,035	265,674	-0,030	-0,038
-718,021	-37,247	-0,159	0,062
-717,006	-114,978	-0,147	0,020
-715,991	-200,000	-0,016	-0,138
-714,977	-200,000	0,043	-0,159
-713,962	238,756	0,018	-0,022
-712,948	115,267	0,096	0,086
-711,933	-200,000	-0,009	-0,127
-710,918	-85,712	-0,079	0,018
-709,904	-66,233	-0,092	0,027
-708,889	162,399	0,049	-0,050
-707,875	-64,265	-0,175	0,052
-706,860	-154,304	0,109	0,005
-705,845	-52,212	0,137	0,046
-704,831	-200,000	0,008	0,104
-703,816	466,603	-0,029	-0,048
-702,802	160,043	-0,055	-0,056
-701,787	-200,000	-0,024	0,101
-700,772	-200,000	0,026	-0,143
-699,758	99,836	0,100	0,085
-698,743	-200,000	-0,003	0,101
-697,729	29,065	-0,046	0,029
-696,714	-200,000	-0,010	0,115
-695,699	-128,232	-0,181	0,019
-694,685	241,486	-0,086	-0,105
-693,670	86,880	-0,039	0,032
-692,656	800,000	-0,030	-0,066
-691,641	800,000	-0,046	-0,138
-690,627	-200,000	-0,004	0,046
-689,612	-134,589	-0,013	0,001
-688,597	-127,029	-0,175	-0,019
-687,583	-130,665	0,135	0,013
-686,568	31,511	-0,093	0,059
-685,554	184,011	0,097	-0,106
-684,539	799,553	-0,016	0,033
-683,524	115,995	-0,083	0,075
-682,510	-103,448	-0,150	0,026
-681,495	-46,937	0,069	-0,025
-680,481	129,735	-0,075	-0,071
-679,466	-56,929	0,129	0,042
-678,451	346,626	0,091	-0,132
-677,437	65,846	0,093	-0,069
-676,422	36,925	0,071	0,046
-675,408	47,665	0,025	-0,017
-674,393	-32,935	-0,067	-0,027
-673,378	-112,565	-0,117	0,017
-672,364	800,000	0,029	-0,070
-671,349	-200,000	0,021	-0,105
-670,335	-66,718	-0,088	-0,025
-669,320	800,000	-0,006	0,014
-668,305	800,000	0,016	-0,043
-667,291	574,593	-0,037	0,067
-666,276	800,000	-0,028	-0,065
-665,262	77,161	-0,133	-0,104
-664,247	106,694	0,042	-0,037
-663,232	-200,000	0,015	0,056
-662,218	41,097	0,031	-0,021
-661,203	76,852	-0,024	-0,019
-660,189	513,561	0,085	0,147
-659,174	800,000	-0,014	0,029
-658,159	800,000	-0,024	0,074
-657,145	-29,059	0,035	-0,015
-656,130	-200,000	0,031	0,108
-655,116	78,193	-0,031	-0,024
-654,101	-200,000	0,005	0,076
-653,086	201,648	-0,044	0,050
-652,072	-200,000	-0,008	0,043
-651,057	800,000	-0,047	-0,117
-650,043	56,318	-0,056	0,040
-649,028	800,000	-0,014	-0,044
-648,014	-200,000	0,021	0,182
-646,999	-79,492	0,109	0,027
-645,984	158,275	0,096	-0,098
-644,970	-51,697	-0,140	-0,048
-643,955	-200,000	-0,024	-0,100
-642,941	-200,000	-0,006	-0,087
-641,926	-141,034	0,234	0,017
-640,911	800,000	-0,014	-0,031
-639,897	800,000	0,023	0,070
-638,882	220,653	-0,071	-0,083
-637,868	-64,246	-0,173	0,051
-636,853	144,112	-0,036	-0,036
-635,838	156,533	0,056	0,056
-634,824	-200,000	0,013	0,108
-633,809	-200,000	-0,003	0,155
-632,795	-128,968	0,081	0,008
-631,780	-200,000	0,001	-0,010
-630,765	-200,000	-0,018	-0,118
-629,751	-94,190	-0,080	-0,016
-628,736	800,000	-0,030	-0,090
-627,722	626,079	-0,025	0,047
-626,707	800,000	0,061	-0,161
-625,692	118,324	-0,134	0,121
-624,678	116,750	-0,101	-0,091
-623,663	-200,000	-0,005	-0,171
-622,649	503,522	-0,059	-0,101
-621,634	-185,399	0,097	-0,001
-620,619	-108,135	-0,048	0,007
-619,605	-19,235	0,124	-0,056
-618,590	-138,466	0,200	-0,016
-617,576	-23,181	0,117	0,052
-616,561	427,412	-0,038	0,061
-615,546	-200,000	0,003	0,039
-614,532	133,673	-0,036	0,034
-613,517	123,106	-0,048	0,044
-612,503	295,100	-0,090	-0,121
-611,488	-28,171	0,025	-0,010
-610,474	234,620	0,075	0,091
-609,459	-33,402	-0,048	0,019
-608,444	-200,000	0,022	-0,112
-607,430	-65,067	-0,070	0,021
-606,415	647,513	-0,026	0,049
-605,401	-91,514	-0,073	-0,015
-604,386	234,336	0,047	0,057
-603,371	800,000	0,029	-0,062
-602,357	800,000	-0,044	0,098
-601,342	517,446	0,032	-0,055
-600,328	83,334	-0,124	-0,099
-599,313	-36,047	-0,129	-0,051
-598,298	171,146	0,036	0,038
-597,284	-98,433	0,132	0,025
-596,269	287,230	0,035	0,046
-595,255	-18,029	0,080	0,037
-594,240	5,811	0,105	-0,057
-593,225	-17,365	-0,152	0,070
-592,211	275,549	0,058	-0,075
-591,196	800,000	0,034	-0,072
-590,182	800,000	-0,029	-0,081
-589,167	800,000	0,039	0,088
-588,152	-200,000	0,001	-0,018
-587,138	-200,000	-0,000	-0,078
-586,123	-144,125	-0,065	0,004
-585,109	-200,000	0,006	-0,095
-584,094	800,000	0,024	0,062
-583,079	-95,168	-0,087	-0,017
-582,065	269,609	-0,054	0,069
-581,050	800,000	0,045	0,103
-580,036	77,487	0,093	-0,072
-579,021	56,354	-0,145	-0,103
-578,006	-51,637	-0,049	-0,016
-576,992	288,846	0,110	-0,146
-575,977	-200,000	-0,006	-0,031
-574,963	-83,625	-0,138	0,032
-573,948	443,977	-0,079	-0,127
-572,934	665,822	-0,071	-0,135
-571,919	308,769	-0,077	-0,105
-570,904	800,000	-0,064	-0,143
-569,890	155,345	0,043	0,043
-568,875	292,346	0,084	-0,112
-567,861	-200,000	-0,008	-0,050
-566,846	-65,810	0,042	0,012
-565,831	800,000	-0,032	-0,092
-564,817	-200,000	0,014	-0,073
-563,802	-200,000	0,026	-0,150
-562,788	-0,197	-0,034	-0,018
-561,773	-131,442	0,153	0,015
-560,758	32,336	-0,038	0,024
-559,744	-51,877	0,093	0,031
-558,729	-200,000	0,006	0,149
-557,715	192,606	-0,041	-0,045
-556,700	-200,000	0,019	-0,142
-555,685	-50,414	-0,038	0,013
-554,671	-200,000	-0,011	-0,086
-553,656	10,692	-0,086	-0,048
-552,642	-200,000	-0,009	-0,081
-551,627	-200,000	-0,015	0,049
-550,612	-75,189	-0,089	-0,023
-549,598	800,000	-0,018	0,053
-548,583	800,000	-0,042	0,133
-547,569	423,973	0,072	0,113
-546,554	537,404	-0,042	-0,072
-545,539	67,058	-0,124	-0,093
-544,525	-53,080	0,071	-0,024
-543,510	18,120	0,058	-0,034
-542,496	-200,000	0,006	-0,075
-541,481	-97,495	-0,116	0,022
-540,466	-200,000	0,003	-0,013
-539,452	-200,000	0,010	0,183
-538,437	430,140	-0,046	0,072
-537,423	154,460	-0,049	0,049
-536,408	800,000	-0,033	0,075
-535,393	110,980	-0,086	-0,076
-534,379	309,818	-0,050	-0,069
-533,364	-200,000	0,001	0,055
-532,350	13,886	0,067	0,038
-531,335	315,107	0,066	0,091
-530,321	-107,030	0,126	-0,020
-529,306	800,000	-0,006	-0,014
-528,291	800,000	-0,102	-0,222
-527,277	-200,000	0,016	0,204
-526,262	-118,380	-0,101	0,013
-525,248	800,000	0,018	0,044
-524,233	344,134	0,072	0,103
-523,218	-103,492	-0,142	0,024
-522,204	6,562	0,112	-0,061
-521,189	-91,311	0,020	-0,004
-520,175	-63,936	-0,077	-0,023
-519,160	144,995	0,042	0,041
-518,145	122,185	-0,051	-0,047
-517,131	-200,000	-0,008	0,081
-516,116	51,867	0,038	0,027
-515,102	587,552	-0,091	-0,163
-514,087	1,506	-0,112	-0,059
-513,072	438,745	0,046	0,073
-512,058	390,917	-0,039	-0,059
-511,043	147,063	0,079	-0,077
-510,029	-50,061	0,059	-0,020
-509,014	-162,622	0,091	-0,003
-507,999	-158,064	0,094	-0,004
-506,985	800,000	-0,057	0,180
-505,970	-83,949	-0,086	-0,020
-504,956	-128,745	-0,084	0,009
-503,941	-157,129	0,075	0,003
-502,926	-43,611	-0,039	0,014
-501,912	800,000	-0,024	0,067
-500,897	-200,000	-0,028	-0,112
-499,883	-150,543	-0,120	0,007
-498,868	40,402	0,054	0,035
-497,853	-200,000	-0,000	-0,033
-496,839	14,246	0,129	-0,073
-495,824	390,275	0,026	0,040
-494,810	-200,000	-0,020	0,093
-493,795	-35,937	0,066	0,026
-492,781	-65,209	-0,060	0,018
-491,766	94,291	-0,032	0,026
-490,751	125,808	0,130	-0,120
-489,737	-12,933	0,095	0,045
-488,722	-96,280	0,148	0,028
-487,708	199,162	0,083	0,092
-486,693	-89,032	-0,104	0,022
-485,678	-200,000	0,016	0,054
-484,664	800,000	-0,043	-0,105
-483,649	-78,010	-0,043	0,011
-482,635	108,346	-0,121	0,105
-481,620	219,487	0,051	0,060
-480,605	13,554	-0,039	0,022
-479,591	-200,000	0,008	-0,037
-478,576	-200,000	0,022	0,112
-477,562	-38,939	-0,033	0,013
-476,547	79,147	0,019	0,015
-475,532	800,000	0,086	0,196
-474,518	-59,169	-0,142	0,044
-473,503	189,410	0,070	0,077
-472,489	-2,948	0,055	0,028
-471,474	-4,218	0,116	0,059
-470,459	-41,045	-0,095	-0,036
-469,445	-57,584	0,020	0,006
-468,430	-141,330	0,072	-0,005
-467,416	-17,206	-0,049	0,022
-466,401	800,000	0,013	0,040
-465,386	201,604	0,135	0,152
-464,372	-50,476	0,075	0,026
-463,357	-86,253	-0,107	0,024
-462,343	319,323	-0,041	0,057
-461,328	313,458	0,017	-0,023
-460,313	-121,461	-0,167	0,020
-459,299	33,169	0,078	0,049
-458,284	-117,224	0,061	0,008
-457,270	-29,722	0,084	-0,035
-456,255	800,000	-0,045	-0,122
-455,241	-27,512	0,104	0,044
-454,226	71,803	-0,173	-0,130
-453,211	544,718	-0,038	0,066
-452,197	-128,974	0,218	-0,022
-451,182	200,696	-0,060	-0,067
-450,168	67,108	0,039	0,029
-449,153	800,000	-0,055	-0,151
-448,138	86,428	0,095	0,077
-447,124	800,000	-0,076	-0,177
-446,109	-200,000	0,005	0,021
-445,095	338,131	0,054	0,077
-444,080	-200,000	0,015	-0,075
-443,065	800,000	0,021	0,051
-442,051	-200,000	0,031	-0,151
-441,036	116,683	-0,065	-0,058
-440,022	173,189	0,075	0,079
-439,007	466,312	-0,006	0,010
-437,992	137,569	-0,019	-0,018
-436,978	328,526	0,091	0,128
-435,963	800,000	0,007	0,017
-434,949	-71,994	-0,078	0,021
-433,934	143,971	0,073	-0,071
-432,919	164,687	-0,033	0,034
-431,905	-119,425	-0,140	-0,017
-430,890	228,841	-0,039	0,047
-429,876	800,000	-0,035	0,071
-428,861	-107,819	0,085	0,013
-427,846	800,000	0,010	0,022
-426,832	-53,351	-0,065	-0,022
-425,817	14,726	0,055	-0,031
-424,803	42,174	0,121	0,080
-423,788	453,539	0,023	0,037
-422,773	-172,679	0,088	0,002
-421,759	2,643	0,039	0,020
-420,744	82,839	-0,031	-0,024
-419,730	-200,000	0,015	-0,134
-418,715	371,493	-0,049	-0,072
-417,701	-200,000	0,016	-0,162
-416,686	-26,053	0,131	-0,056
-415,671	800,000	-0,038	0,110
-414,657	-31,884	0,108	-0,044
-413,642	-138,169	-0,048	-0,004
-412,628	-60,692	0,057	0,017
-411,613	-200,000	0,023	0,082
-410,598	800,000	-0,042	-0,132
-409,584	99,601	-0,055	0,046
-408,569	245,493	0,023	0,028
-407,555	-200,000	-0,002	0,016
-406,540	-55,944	0,065	-0,021
-405,525	-90,767	0,167	-0,035
-404,511	-145,959	0,022	-0,001
-403,496	13,914	0,059	0,033
-402,482	-200,000	0,033	-0,132
-401,467	307,746	0,039	0,053
-400,452	623,890	0,099	0,182
-399,438	207,041	-0,075	-0,085
-398,423	-200,000	-0,004	-0,135
-397,409	-200,000	-0,009	0,087
-396,394	152,814	0,060	-0,060
-395,379	-52,005	-0,070	0,023
-394,365	723,459	-0,024	0,047
-393,350	223,385	0,035	-0,041
-392,336	-134,423	0,181	-0,016
-391,321	34,199	-0,063	-0,040
-390,306	261,806	0,112	-0,141
-389,292	-91,589	-0,143	-0,029
-388,277	24,019	0,088	-0,053
-387,263	800,000	0,042	0,104
-386,248	176,149	-0,066	0,070
-385,233	-106,768	-0,052	0,008
-384,219	-28,737	-0,103	0,043
-383,204	800,000	0,049	-0,100
-382,190	242,401	-0,070	-0,085
-381,175	62,184	0,015	0,011
-380,160	66,057	0,124	0,091
-379,146	-200,000	-0,015	0,065
-378,131	-200,000	0,006	0,054
-377,117	-121,269	-0,173	0,021
-376,102	800,000	-0,008	0,022
-375,088	800,000	-0,009	0,020
-374,073	800,000	0,037	0,094
-373,058	800,000	-0,015	0,037
-372,044	357,253	0,069	0,100
-371,029	438,301	0,091	0,144
-370,015	-200,000	-0,007	0,060
-369,000	-60,217	-0,077	-0,024
-367,985	284,402	-0,025	-0,032
-366,971	-44,840	0,170	-0,061
-365,956	-44,518	-0,102	0,037
-364,942	-200,000	-0,013	-0,055
-363,927	442,645	0,089	0,141
-362,912	205,047	-0,075	0,084
-361,898	-127,634	0,055	-0,006
-360,883	800,000	0,032	0,084
-359,869	-200,000	-0,026	0,087
-358,854	-200,000	-0,031	-0,106
-357,839	189,601	-0,039	0,043
-356,825	-9,931	0,097	0,047
-355,810	-13,591	-0,075	0,035
-354,796	-200,000	0,013	0,057
-353,781	-200,000	0,003	0,061
-352,766	-23,479	-0,075	-0,033
-351,752	351,198	-0,014	0,021
-350,737	-107,337	-0,061	0,010
-349,723	286,712	0,056	0,073
-348,708	39,088	0,022	-0,014
-347,693	-200,000	-0,004	-0,123
-346,679	-157,536	0,057	-0,002
-345,664	360,722	0,116	-0,170
-344,650	155,060	0,042	-0,042
-343,635	-186,191	-0,082	-0,001
-342,620	343,317	-0,099	-0,142
-341,606	112,736	0,060	0,053
-340,591	161,125	0,062	-0,063
-339,577	155,111	-0,104	-0,104
-338,562	-82,066	0,049	0,012
-337,548	-200,000	0,013	-0,071
-336,533	653,399	0,084	-0,157
-335,518	-20,164	-0,012	0,005
-334,504	219,006	-0,043	0,050
-333,489	134,346	-0,028	0,026
-332,475	129,098	-0,064	0,059
-331,460	-146,032	-0,137	-0,009
-330,445	-55,314	-0,029	-0,009
-329,431	162,164	0,084	0,086
-328,416	-200,000	0,007	-0,027
-327,402	362,839	-0,045	-0,066
-326,387	-83,109	0,152	0,035
-325,372	-200,000	-0,015	-0,139
-324,358	139,997	0,093	0,088
-323,343	-200,000	-0,034	-0,108
-322,329	30,533	0,033	0,020
-321,314	409,227	0,112	0,173
-320,299	-200,000	0,014	0,063
-319,285	3,897	-0,087	-0,046
-318,270	-200,000	-0,018	-0,145
-317,256	800,000	-0,053	-0,111
-316,241	548,326	0,031	-0,053
-315,226	-200,000	-0,008	0,131
-314,212	454,744	-0,057	0,092
-313,197	143,899	0,078	-0,075
-312,183	-42,291	-0,062	-0,023
-311,168	800,000	-0,024	-0,070
-310,153	-34,588	0,015	0,006
-309,139	79,616	-0,058	-0,045
-308,124	41,825	-0,053	-0,035
-307,110	-200,000	-0,012	0,135
-306,095	-200,000	0,001	0,040
-305,080	129,816	0,072	-0,067
-304,066	3,922	-0,136	-0,072
-303,051	14,716	-0,032	-0,018
-302,037	408,538	-0,036	0,056
-301,022	-200,000	-0,020	-0,151
-300,008	27,043	-0,004	-0,002
-298,993	-84,075	-0,064	0,015
-297,978	31,252	0,025	-0,015
-296,964	410,347	0,098	0,150
-295,949	800,000	-0,020	-0,055
-294,935	-125,489	-0,038	-0,004
-293,920	800,000	0,047	0,114
-292,905	800,000	0,070	0,185
-291,891	-91,982	-0,057	0,012
-290,876	-200,000	-0,084	0,000
-289,862	-51,807	-0,056	0,019
-288,847	120,766	-0,088	0,079
-287,832	166,472	-0,056	0,058
-286,818	-57,130	-0,031	-0,010
-285,803	52,236	0,041	0,028
-284,789	-200,000	0,005	0,034
-283,774	-98,310	-0,118	-0,022
-282,759	115,990	-0,069	0,061
-281,745	-74,588	-0,173	-0,045
-280,730	-100,244	-0,136	-0,024
-279,716	485,110	0,074	-0,122
-278,701	-13,089	-0,132	-0,062
-277,686	-74,445	0,103	0,027
-276,672	554,058	-0,053	0,093
-275,657	-31,855	-0,017	0,007
-274,643	224,762	-0,016	-0,018
-273,628	-83,626	0,087	0,020
-272,613	-130,514	0,046	-0,004
-271,599	507,538	0,053	0,090
-270,584	656,081	-0,025	0,047
-269,570	-170,160	0,071	0,002
-268,555	-200,000	0,001	0,016
-267,540	-96,112	0,113	-0,021
-266,526	-200,000	0,006	-0,068
-265,511	60,703	-0,079	-0,057
-264,497	800,000	-0,028	0,068
-263,482	574,557	-0,038	0,068
-262,467	-200,000	-0,009	0,082
-261,453	167,621	-0,141	-0,145
-260,438	-200,000	-0,007	0,082
-259,424	259,801	0,061	0,076
-258,409	-200,000	0,048	-0,184
-257,395	276,346	-0,043	0,055
-256,380	-61,626	0,104	-0,031
-255,365	800,000	0,062	0,180
-254,351	-123,139	-0,039	0,004
-253,336	60,008	0,047	-0,033
-252,322	-47,865	-0,085	-0,030
-251,307	-160,860	0,140	0,005
-250,292	162,347	0,070	0,071
-249,278	-200,000	0,048	-0,217
-248,263	-14,352	-0,104	-0,048
-247,249	288,335	-0,014	-0,019
-246,234	272,075	-0,053	0,068
-245,219	-200,000	-0,004	0,064
-244,205	56,131	-0,201	-0,141
-243,190	-7,946	-0,048	0,023
-242,176	148,683	0,088	0,086
-241,161	-200,000	0,035	0,129
-240,146	-68,661	-0,087	-0,024
-239,132	-158,584	0,054	0,002
-238,117	536,434	0,085	-0,147
-237,103	144,265	-0,094	-0,091
-236,088	187,346	-0,081	-0,088
-235,073	-56,647	0,120	-0,038
-234,059	-76,197	0,106	-0,027
-233,044	-200,000	0,010	0,105
-232,030	800,000	0,037	0,111
-231,015	295,797	0,069	-0,092
-230,000	341,132	-0,132	-0,187
-228,986	-60,401	-0,106	0,032
-227,971	-200,000	-0,013	-0,116
-226,957	-133,274	0,201	-0,018
-225,942	390,500	-0,025	0,037
-224,927	56,132	-0,027	0,019
-223,913	-182,188	0,048	-0,001
-222,898	440,861	0,104	-0,165
-221,884	-178,997	0,121	-0,002
-220,869	-200,000	0,014	0,047
-219,855	425,012	0,051	0,080
-218,840	-76,588	-0,077	0,019
-217,825	86,094	0,082	0,065
-216,811	87,246	0,038	-0,030
-215,796	-89,134	-0,015	0,003
-214,782	-164,611	-0,035	0,001
-213,767	800,000	-0,021	0,059
-212,752	-24,371	0,069	0,030
-211,738	207,463	-0,053	0,060
-210,723	-76,839	0,124	0,031
-209,709	-200,000	0,003	-0,027
-208,694	714,990	-0,034	-0,065
-207,679	111,820	0,062	0,054
-206,665	-200,000	-0,018	-0,066
-205,650	-127,596	0,139	-0,014
-204,636	-25,107	-0,063	0,027
-203,621	-200,000	-0,001	-0,049
-202,606	21,997	-0,098	0,057
-201,592	-200,000	0,008	-0,111
-200,577	-200,000	-0,009	0,028
-199,563	800,000	-0,038	-0,084
-198,548	-33,907	0,146	-0,058
-197,533	-27,275	-0,127	-0,053
-196,519	-131,868	-0,075	0,007
-195,504	96,085	-0,066	0,055
-194,490	452,835	-0,042	-0,066
-193,475	18,499	0,020	0,012
-192,460	-30,396	-0,047	-0,019
-191,446	352,097	-0,038	0,054
-190,431	21,481	0,092	-0,054
-189,417	-126,715	0,091	0,010
-188,402	132,902	-0,053	0,050
-187,387	149,482	0,062	-0,061
-186,373	30,892	-0,056	0,035
-185,358	-80,002	0,127	-0,031
-184,344	391,741	0,049	0,074
-183,329	132,546	0,043	0,040
-182,315	80,604	0,161	0,125
-181,300	-39,673	-0,031	0,012
-180,285	-29,422	0,038	0,016
-179,271	109,513	-0,147	-0,127
-178,256	494,868	-0,033	-0,055
-177,242	311,922	0,139	0,188
-176,227	254,030	-0,082	0,101
-175,212	-200,000	-0,000	-0,058
-174,198	-32,142	-0,043	-0,017
-173,183	88,910	-0,107	0,086
-172,169	-200,000	-0,002	-0,072
-171,154	-9,543	-0,079	-0,038
-170,139	56,835	0,136	0,095
-169,125	120,827	-0,025	-0,022
-168,110	-200,000	0,012	0,147
-167,096	376,573	-0,024	0,035
-166,081	376,736	-0,079	-0,117
-165,066	-145,108	-0,063	-0,004
-164,052	-200,000	0,009	0,070
-163,037	-200,000	-0,013	0,111
-162,023	377,279	-0,025	0,036
-161,008	158,425	0,040	0,040
-159,993	87,290	-0,039	0,031
-158,979	255,339	-0,044	-0,054
-157,964	-127,275	-0,044	0,005
-156,950	-47,344	-0,190	0,066
-155,935	557,640	0,041	0,072
-154,920	-43,026	0,082	-0,030
-153,906	800,000	0,040	0,125
-152,891	-116,096	-0,065	0,009
-151,877	-102,680	0,212	0,036
-150,862	-21,988	-0,055	-0,024
-149,847	-135,492	-0,140	0,012
-148,833	800,000	0,026	0,070
-147,818	268,506	0,074	0,093
-146,804	-187,574	0,014	0,000
-145,789	263,540	0,046	0,058
-144,775	-60,630	-0,159	-0,048
-143,760	-200,000	-0,081	0,000
-142,745	-159,522	-0,113	0,004
-141,731	-200,000	0,005	-0,018
-140,716	-158,978	0,062	0,003
-139,702	-200,000	0,021	0,086
-138,687	-200,000	0,008	0,069
-137,672	-200,000	0,003	-0,119
-136,658	-93,372	-0,100	-0,020
-135,643	41,567	-0,062	-0,040
-134,629	373,214	-0,096	-0,141
-133,614	-200,000	-0,001	-0,045
-132,599	516,212	0,018	-0,031
-131,585	-119,167	0,095	0,012
-130,570	800,000	-0,025	0,070
-129,556	169,288	-0,047	-0,048
-128,541	-200,000	-0,012	0,083
-127,526	136,788	-0,075	0,071
-126,512	-75,502	0,108	-0,028
-125,497	503,492	0,093	-0,155
-124,483	-200,000	0,010	-0,041
-123,468	-19,195	0,013	0,006
-122,453	-47,384	0,020	-0,007
-121,439	550,447	-0,039	0,067
-120,424	154,753	0,079	-0,078
-119,410	800,000	-0,049	0,137
