DTS Sentinel unit serial number:	SN410029Multiplexer serial number:	ORYXHardware model number:	OX2-SRSoftware version number:	ORYX F/W v4,00 Oryx Data Collector v3.7.2.0data status	okinstallation	B5 Nyhavnadifferential loss correction	single-endedforward channel	channel 2reverse channel	N/Adate	2023/12/12time	18:47:13forward acquisition time	300,00reverse acquisition time	0,00gamma	499,1914k internal	0,3157k external	0,3157temperature offset calibration	1,0000default loss term (dB/km)	0,3820temperature slope calibration	1,0000multiplexer offset coefficient	1,0000multiplexer slope coefficient	1,0000fibre end	0,00T internal ref (°C)	15,56T ext. ref 1 (°C)	-1,06T ext. ref 2 (°C)	-1,38length (m)	temperature (°C)	Stokes	anti-Stokes-744,400	800,000	0,028	-0,067
-743,385	-8,778	-0,184	0,090
-742,371	527,197	0,077	0,134
-741,356	-124,013	-0,348	0,040
-740,342	-164,564	0,058	0,002
-739,327	-131,468	-0,296	-0,028
-738,312	481,425	0,048	-0,080
-737,298	-171,042	-0,241	0,006
-736,283	210,304	0,084	0,097
-735,269	-149,526	-0,180	0,010
-734,254	151,185	0,100	-0,100
-733,239	-104,762	-0,649	-0,109
-732,225	800,000	0,078	0,176
-731,210	156,841	-0,060	0,061
-730,196	-73,710	0,111	0,030
-729,181	-6,437	-0,108	0,054
-728,167	144,317	0,050	0,050
-727,152	600,796	-0,059	0,109
-726,137	-200,000	0,007	-0,095
-725,123	800,000	-0,060	-0,135
-724,108	-53,732	-0,118	0,040
-723,094	-200,000	-0,036	-0,134
-722,079	128,068	-0,018	-0,017
-721,064	29,451	-0,063	0,039
-720,050	-200,000	0,026	0,095
-719,035	-195,780	-0,016	0,000
-718,021	800,000	-0,048	-0,138
-717,006	-147,270	0,026	0,002
-715,991	800,000	0,013	0,030
-714,977	-90,923	0,092	-0,019
-713,962	-200,000	0,004	-0,027
-712,948	110,084	0,022	-0,020
-711,933	-27,959	0,088	0,037
-710,918	-200,000	0,011	-0,060
-709,904	-67,756	-0,124	-0,036
-708,889	115,853	-0,052	0,047
-707,875	72,986	-0,055	0,042
-706,860	-8,738	0,066	-0,033
-705,845	67,998	0,058	0,043
-704,831	-85,060	0,070	-0,016
-703,816	-200,000	0,022	0,096
-702,802	-70,456	0,224	0,062
-701,787	-120,982	-0,122	-0,015
-700,772	579,570	-0,086	0,156
-699,758	-200,000	0,000	0,017
-698,743	-78,211	0,124	-0,031
-697,729	137,272	-0,087	-0,084
-696,714	800,000	-0,029	-0,059
-695,699	-58,674	-0,108	-0,034
-694,685	85,764	-0,036	0,029
-693,670	-87,638	0,023	0,005
-692,656	137,517	-0,087	0,084
-691,641	104,378	0,092	0,080
-690,627	-200,000	-0,006	0,201
-689,612	778,307	0,045	0,090
-688,597	-5,025	-0,105	0,053
-687,583	397,014	-0,035	0,054
-686,568	-200,000	0,000	0,037
-685,554	212,332	-0,042	-0,049
-684,539	81,398	-0,101	-0,081
-683,524	-200,000	0,016	-0,080
-682,510	800,000	0,028	0,068
-681,495	270,545	-0,075	0,097
-680,481	-78,734	-0,100	0,025
-679,466	-67,941	-0,100	-0,029
-678,451	-130,711	-0,094	0,009
-677,437	304,072	0,115	-0,157
-676,422	-200,000	-0,026	-0,101
-675,408	800,000	-0,023	0,064
-674,393	-137,060	-0,185	0,015
-673,378	-14,918	-0,087	-0,041
-672,364	-200,000	-0,010	-0,048
-671,349	122,040	0,049	-0,045
-670,335	-200,000	-0,008	-0,066
-669,320	-13,761	-0,072	0,034
-668,305	590,122	-0,048	0,088
-667,291	35,667	-0,006	0,004
-666,276	96,423	-0,053	0,045
-665,262	-200,000	0,072	-0,000
-664,247	17,552	-0,041	0,024
-663,232	-56,493	0,016	0,005
-662,218	-200,000	-0,018	0,142
-661,203	169,667	0,094	0,099
-660,189	800,000	0,044	0,106
-659,174	-172,357	-0,022	0,000
-658,159	-200,000	0,052	-0,233
-657,145	70,019	-0,113	-0,086
-656,130	366,558	-0,081	0,121
-655,116	348,044	-0,012	0,017
-654,101	-83,842	0,113	-0,026
-653,086	138,278	0,056	-0,054
-652,072	-105,679	0,114	0,019
-651,057	108,784	-0,062	0,055
-650,043	800,000	-0,079	-0,172
-649,028	-200,000	-0,002	-0,052
-648,014	12,627	0,094	0,053
-646,999	65,072	0,123	-0,092
-645,984	432,138	-0,019	-0,030
-644,970	100,563	-0,106	-0,090
-643,955	98,300	-0,125	-0,105
-642,941	428,913	-0,045	-0,072
-641,926	-200,000	0,013	-0,088
-640,911	-200,000	0,004	0,109
-639,897	-53,309	-0,020	-0,007
-638,882	-200,000	0,016	-0,076
-637,868	132,219	0,154	0,146
-636,853	50,660	-0,055	-0,038
-635,838	-0,902	0,108	0,056
-634,824	-91,936	0,148	-0,030
-633,809	74,300	-0,089	-0,068
-632,795	512,741	-0,021	-0,036
-631,780	340,289	-0,094	0,136
-630,765	79,717	-0,070	-0,055
-629,751	-200,000	-0,024	-0,088
-628,736	294,558	-0,019	0,025
-627,722	75,632	-0,172	-0,134
-626,707	-5,489	0,076	-0,038
-625,692	173,867	-0,081	0,086
-624,678	689,778	0,051	-0,099
-623,663	12,953	-0,063	0,036
-622,649	23,130	-0,076	-0,046
-621,634	-124,226	-0,185	-0,021
-620,619	78,659	-0,079	-0,062
-619,605	9,236	-0,023	-0,013
-618,590	-200,000	-0,014	-0,069
-617,576	800,000	0,016	0,040
-616,561	176,437	-0,078	0,083
-615,546	-200,000	0,006	-0,036
-614,532	-89,947	-0,035	-0,007
-613,517	-200,000	0,016	-0,078
-612,503	332,251	0,078	0,111
-611,488	38,637	0,059	0,039
-610,474	573,073	-0,046	0,082
-609,459	-200,000	-0,020	0,140
-608,444	-28,349	-0,127	0,054
-607,430	26,587	-0,047	-0,029
-606,415	100,929	-0,033	0,028
-605,401	-5,774	0,041	-0,020
-604,386	800,000	-0,033	-0,084
-603,371	800,000	0,013	-0,038
-602,357	-59,616	-0,048	0,015
-601,342	-186,163	-0,153	0,002
-600,328	-200,000	0,007	0,121
-599,313	800,000	-0,032	-0,086
-598,298	15,804	-0,064	-0,037
-597,284	800,000	0,054	0,120
-596,269	-200,000	0,007	0,050
-595,255	-122,803	0,194	0,023
-594,240	-200,000	-0,025	0,092
-593,225	347,135	0,032	0,046
-592,211	-36,477	-0,060	0,024
-591,196	-200,000	0,002	0,135
-590,182	117,910	0,122	0,110
-589,167	15,988	-0,103	0,059
-588,152	-10,364	0,100	-0,048
-587,138	362,040	-0,082	-0,122
-586,123	43,669	-0,077	-0,052
-585,109	-8,535	-0,031	-0,015
-584,094	-200,000	0,024	0,103
-583,079	11,625	0,106	-0,060
-582,065	447,228	0,095	0,153
-581,050	-84,707	-0,104	-0,024
-580,036	-11,083	-0,135	0,065
-579,021	16,172	-0,100	-0,057
-578,006	96,619	0,101	-0,084
-576,992	-68,478	0,129	0,036
-575,977	-40,449	0,147	-0,056
-574,963	197,091	-0,078	0,087
-573,948	-200,000	0,025	0,082
-572,934	-200,000	-0,018	0,084
-571,919	-57,474	-0,237	0,076
-570,904	356,630	0,037	-0,054
-569,890	396,196	-0,053	-0,081
-568,875	276,400	0,073	-0,095
-567,861	-25,144	-0,065	0,028
-566,846	47,765	-0,072	-0,049
-565,831	175,900	-0,028	0,030
-564,817	-50,509	-0,098	-0,034
-563,802	2,857	0,065	-0,034
-562,788	-94,075	0,040	-0,008
-561,773	141,041	-0,016	0,015
-560,758	713,194	-0,025	-0,048
-559,744	147,317	0,114	-0,112
-558,729	251,291	0,054	0,068
-557,715	-49,763	-0,113	0,039
-556,700	-129,359	-0,145	-0,015
-555,685	335,173	-0,024	-0,034
-554,671	272,445	0,086	0,112
-553,656	31,971	-0,163	-0,103
-552,642	314,299	0,031	0,043
-551,627	-172,434	0,030	-0,001
-550,612	-200,000	0,008	-0,049
-549,598	-166,665	0,067	-0,002
-548,583	-200,000	0,017	-0,067
-547,569	-124,737	0,062	-0,007
-546,554	156,401	-0,033	-0,033
-545,539	187,691	-0,019	-0,021
-544,525	162,870	-0,127	-0,131
-543,510	-130,977	0,153	-0,015
-542,496	-46,653	0,024	0,008
-541,481	-200,000	0,023	-0,095
-540,466	171,179	0,009	-0,010
-539,452	-200,000	0,003	0,092
-538,437	78,968	0,123	0,097
-537,423	252,107	0,040	-0,050
-536,408	800,000	0,008	-0,022
-535,393	-200,000	-0,017	0,081
-534,379	102,656	0,054	-0,046
-533,364	-200,000	0,010	-0,088
-532,350	-200,000	0,001	0,093
-531,335	-200,000	-0,031	0,111
-530,321	271,680	0,056	0,073
-529,306	-200,000	-0,017	0,063
-528,291	-108,639	-0,150	0,023
-527,277	430,899	-0,058	-0,092
-526,262	-200,000	0,006	-0,130
-525,248	180,757	-0,058	-0,062
-524,233	-200,000	-0,020	0,066
-523,218	-46,333	0,131	-0,047
-522,204	225,256	0,111	0,131
-521,189	-35,040	0,032	0,013
-520,175	800,000	-0,031	0,077
-519,160	17,162	-0,108	0,062
-518,145	34,615	0,061	0,039
-517,131	-200,000	0,002	-0,064
-516,116	47,424	0,129	0,088
-515,102	129,260	-0,060	-0,056
-514,087	47,986	0,050	0,034
-513,072	763,632	-0,084	-0,167
-512,058	800,000	0,015	-0,033
-511,043	-200,000	-0,030	-0,129
-510,029	-26,581	0,055	0,024
-509,014	-200,000	-0,042	0,155
-507,999	-200,000	-0,049	-0,184
-506,985	761,577	0,018	-0,035
-505,970	165,082	-0,057	-0,059
-504,956	-6,097	0,068	-0,034
-503,941	-195,302	0,117	0,001
-502,926	-200,000	-0,005	-0,045
-501,912	303,648	0,065	-0,088
-500,897	322,189	0,064	-0,090
-499,883	-200,000	0,017	0,074
-498,868	-144,014	0,095	0,006
-497,853	309,263	-0,016	-0,022
-496,839	300,556	0,028	-0,038
-495,824	-88,554	0,104	-0,022
-494,810	39,568	0,072	-0,047
-493,795	-200,000	-0,071	-0,000
-492,781	-96,422	-0,144	-0,028
-491,766	800,000	-0,025	0,074
-490,751	150,356	-0,009	-0,009
-489,737	576,553	-0,018	0,033
-488,722	-10,575	0,099	0,048
-487,708	40,751	-0,069	-0,045
-486,693	71,300	0,147	0,111
-485,678	-50,304	0,155	0,053
-484,664	-200,000	-0,004	-0,091
-483,649	205,181	-0,076	-0,086
-482,635	23,906	0,118	-0,071
-481,620	761,445	-0,058	-0,115
-480,605	-71,341	-0,069	-0,019
-479,591	-200,000	0,011	0,206
-478,576	145,127	-0,078	0,076
-477,562	-101,003	0,061	0,011
-476,547	342,332	-0,127	-0,181
-475,532	165,840	0,046	-0,047
-474,518	534,450	-0,070	-0,122
-473,503	150,256	0,016	0,015
-472,489	-200,000	0,023	0,105
-471,474	800,000	0,035	-0,076
-470,459	800,000	0,007	-0,018
-469,445	-70,689	-0,146	0,040
-468,430	800,000	-0,033	-0,098
-467,416	-200,000	-0,009	-0,049
-466,401	-200,000	-0,008	0,079
-465,386	272,318	0,043	-0,056
-464,372	19,617	0,068	-0,040
-463,357	-144,578	-0,155	-0,010
-462,343	261,464	-0,105	-0,133
-461,328	235,858	0,026	0,032
-460,313	283,792	0,060	0,078
-459,299	30,654	-0,041	0,025
-458,284	800,000	0,019	0,058
-457,270	-41,382	-0,136	-0,051
-456,255	-12,304	0,071	-0,034
-455,241	-91,159	-0,123	-0,025
-454,226	69,314	0,068	0,051
-453,211	1,557	0,064	-0,034
-452,197	15,938	0,128	0,073
-451,182	-200,000	-0,022	0,106
-450,168	-200,000	-0,028	-0,163
-449,153	64,907	0,064	-0,047
-448,138	-80,879	-0,136	-0,033
-447,124	-200,000	-0,013	0,092
-446,109	261,566	0,024	0,031
-445,095	-200,000	0,009	0,062
-444,080	592,741	-0,071	0,129
-443,065	800,000	0,062	0,127
-442,051	-49,429	-0,080	-0,028
-441,036	-200,000	-0,004	0,028
-440,022	35,927	0,061	-0,039
-439,007	-165,571	0,044	0,001
-437,992	-186,753	0,082	0,001
-436,978	88,773	0,064	0,052
-435,963	-200,000	-0,037	0,163
-434,949	-200,000	-0,003	0,060
-433,934	-26,033	-0,077	0,033
-432,919	800,000	0,054	0,114
-431,905	-200,000	0,006	0,024
-430,890	-53,405	0,028	-0,009
-429,876	800,000	-0,016	0,044
-428,861	800,000	0,046	0,112
-427,846	-69,120	-0,052	-0,014
-426,832	237,139	0,085	-0,103
-425,817	20,350	-0,015	-0,009
-424,803	-13,547	0,061	0,028
-423,788	800,000	0,029	0,063
-422,773	193,189	0,067	-0,073
-421,759	322,275	0,075	0,104
-420,744	800,000	0,038	0,112
-419,730	-135,799	-0,058	0,005
-418,715	800,000	0,018	-0,052
-417,701	-200,000	-0,027	-0,115
-416,686	245,762	0,108	0,133
-415,671	231,458	-0,096	0,115
-414,657	-146,563	0,063	-0,004
-413,642	-200,000	-0,005	-0,078
-412,628	-200,000	0,003	0,084
-411,613	81,321	-0,058	-0,046
-410,598	6,616	0,118	-0,064
-409,584	-52,242	-0,087	-0,029
-408,569	-200,000	-0,009	0,148
-407,555	-114,727	0,110	0,015
-406,540	13,966	-0,076	0,043
-405,525	-113,719	-0,117	-0,016
-404,511	355,051	0,025	-0,037
-403,496	-38,361	-0,078	-0,030
-402,482	-29,404	0,107	0,044
-401,467	-87,027	-0,035	0,008
-400,452	-200,000	0,003	-0,138
-399,438	242,785	-0,068	0,083
-398,423	212,424	-0,032	-0,037
-397,409	6,412	0,036	-0,019
-396,394	-34,118	-0,102	-0,041
-395,379	-200,000	0,036	-0,146
-394,365	16,455	-0,051	0,029
-393,350	-200,000	0,002	0,109
-392,336	-74,129	-0,040	-0,011
-391,321	-200,000	-0,001	-0,054
-390,306	607,288	0,029	-0,053
-389,292	800,000	0,038	0,080
-388,277	-154,458	-0,050	-0,002
-387,263	800,000	-0,052	-0,153
-386,248	15,473	0,131	-0,075
-385,233	-73,427	0,078	0,020
-384,219	-18,563	0,057	-0,026
-383,204	640,039	-0,020	0,038
-382,190	161,892	0,142	-0,145
-381,175	9,179	0,070	-0,038
-380,160	22,336	-0,116	0,069
-379,146	15,745	0,131	-0,074
-378,131	19,588	-0,113	0,066
-377,117	-30,110	-0,061	0,025
-376,102	800,000	0,017	-0,048
-375,088	-151,936	-0,069	0,004
-374,073	-200,000	-0,012	-0,088
-373,058	-28,067	0,172	0,072
-372,044	169,746	-0,160	0,166
-371,029	31,649	0,046	0,029
-370,015	-4,511	0,061	-0,031
-369,000	673,895	0,016	0,029
-367,985	-200,000	0,010	-0,057
-366,971	-91,847	-0,141	-0,029
-365,956	-6,128	-0,066	-0,033
-364,942	-16,156	0,076	0,035
-363,927	235,070	0,040	0,047
-362,912	19,762	0,022	-0,013
-361,898	295,375	0,087	-0,116
-360,883	299,777	-0,085	-0,114
-359,869	74,256	-0,070	-0,054
-358,854	800,000	-0,084	0,171
-357,839	-56,005	0,108	-0,035
-356,825	623,918	0,061	0,112
-355,810	800,000	-0,036	0,089
-354,796	99,842	0,067	0,056
-353,781	-200,000	0,004	-0,049
-352,766	127,953	0,100	-0,092
-351,752	-200,000	-0,002	-0,024
-350,737	15,554	0,079	0,045
-349,723	-200,000	-0,001	0,077
-348,708	-111,331	-0,057	0,008
-347,693	-200,000	-0,006	-0,053
-346,679	323,677	-0,076	-0,106
-345,664	1,084	-0,055	0,028
-344,650	119,662	0,096	-0,087
-343,635	189,732	-0,075	0,082
-342,620	-200,000	0,029	0,162
-341,606	800,000	-0,012	-0,035
-340,591	-200,000	-0,003	0,028
-339,577	62,565	-0,107	0,078
-338,562	-200,000	0,039	-0,146
-337,548	-200,000	0,025	-0,261
-336,533	568,448	0,028	-0,049
-335,518	-49,542	-0,049	0,017
-334,504	-121,969	0,125	0,015
-333,489	-200,000	-0,012	0,133
-332,475	800,000	-0,011	-0,026
-331,460	146,851	0,035	-0,034
-330,445	162,290	-0,038	-0,038
-329,431	-59,322	-0,031	0,010
-328,416	800,000	-0,041	0,118
-327,402	495,658	0,009	-0,014
-326,387	343,838	0,121	0,172
-325,372	-117,668	-0,110	-0,014
-324,358	7,884	-0,106	-0,057
-323,343	-200,000	0,030	-0,165
-322,329	-0,582	0,115	-0,059
-321,314	520,519	0,070	-0,120
-320,299	-113,338	-0,111	0,016
-319,285	-200,000	0,003	-0,056
-318,270	22,836	-0,114	-0,068
-317,256	29,696	0,056	0,035
-316,241	-86,377	0,012	-0,003
-315,226	16,426	0,056	0,032
-314,212	26,126	0,084	-0,050
-313,197	800,000	-0,042	0,121
-312,183	-34,812	0,063	-0,025
-311,168	596,320	-0,039	-0,070
-310,153	211,267	-0,059	-0,067
-309,139	-200,000	0,002	-0,031
-308,124	-128,107	0,167	-0,017
-307,110	-105,888	0,047	0,008
-306,095	245,619	-0,063	0,077
-305,080	442,343	-0,024	-0,037
-304,066	-200,000	-0,004	-0,024
-303,051	221,657	0,061	0,071
-302,037	-22,814	-0,049	-0,021
-301,022	236,428	-0,095	0,114
-300,008	-27,123	0,090	-0,038
-298,993	313,124	0,031	0,043
-297,978	-29,420	-0,069	-0,029
-296,964	112,172	-0,116	-0,102
-295,949	271,521	-0,103	-0,132
-294,935	-200,000	-0,041	-0,180
-293,920	44,435	0,057	-0,038
-292,905	-75,966	0,072	0,018
-291,891	87,791	0,048	0,038
-290,876	680,212	-0,039	-0,073
-289,862	-9,610	-0,075	0,036
-288,847	413,250	-0,021	0,032
-287,832	-19,431	0,044	-0,020
-286,818	-152,212	0,091	-0,005
-285,803	52,838	0,045	0,031
-284,789	42,205	0,113	0,074
-283,774	-200,000	0,045	0,144
-282,759	-200,000	-0,008	-0,166
-281,745	-100,494	0,032	-0,006
-280,730	-70,602	0,012	0,003
-279,716	700,407	-0,026	-0,050
-278,701	217,568	0,015	0,017
-277,686	-200,000	0,002	0,091
-276,672	-19,141	0,065	-0,029
-275,657	9,134	-0,029	-0,016
-274,643	-200,000	0,002	-0,143
-273,628	800,000	-0,038	-0,092
-272,613	-172,766	0,209	0,005
-271,599	105,270	-0,034	0,029
-270,584	-92,499	-0,036	0,007
-269,570	-200,000	-0,032	0,110
-268,555	-200,000	-0,003	0,121
-267,540	342,053	0,088	-0,125
-266,526	-109,149	-0,120	0,018
-265,511	-123,919	-0,071	0,008
-264,497	16,523	0,106	-0,060
-263,482	1,259	0,059	-0,031
-262,467	-72,148	0,039	0,010
-261,453	-35,390	0,071	0,028
-260,438	487,383	0,064	-0,106
-259,424	394,151	-0,069	-0,104
-258,409	-83,118	0,045	-0,011
-257,395	5,384	-0,045	0,024
-256,380	-39,976	0,069	0,026
-255,365	-200,000	0,016	0,145
-254,351	-75,245	-0,076	0,019
-253,336	-200,000	-0,004	0,218
-252,322	347,660	-0,104	0,149
-251,307	-200,000	0,026	-0,219
-250,292	-200,000	0,017	-0,073
-249,278	-200,000	0,011	0,083
-248,263	107,271	-0,058	-0,049
-247,249	-0,246	0,102	-0,052
-246,234	38,669	-0,106	-0,068
-245,219	94,374	-0,102	-0,084
-244,205	800,000	0,058	-0,133
-243,190	174,971	0,024	0,025
-242,176	-55,073	-0,034	-0,011
-241,161	-39,655	0,075	0,028
-240,146	-200,000	-0,012	-0,080
-239,132	57,348	0,132	0,093
-238,117	54,117	-0,015	0,010
-237,103	98,245	0,085	-0,071
-236,088	800,000	0,055	-0,141
-235,073	800,000	0,020	-0,040
-234,059	92,536	-0,098	-0,080
-233,044	800,000	0,026	0,054
-232,030	800,000	-0,012	-0,029
-231,015	-200,000	0,011	-0,074
-230,000	407,506	0,032	0,049
-228,986	-105,648	-0,209	-0,034
-227,971	50,821	0,071	0,048
-226,957	80,672	-0,050	0,039
-225,942	283,780	-0,117	0,153
-224,927	-149,699	-0,066	-0,004
-223,913	-39,375	-0,069	0,026
-222,898	475,560	-0,073	-0,120
-221,884	-200,000	-0,039	-0,139
-220,869	202,417	0,051	0,058
-219,855	336,241	-0,033	-0,046
-218,840	273,364	-0,074	0,094
-217,825	-137,044	0,067	-0,005
-216,811	389,883	-0,035	-0,052
-215,796	800,000	-0,047	0,110
-214,782	800,000	0,045	-0,099
-213,767	-114,312	-0,018	-0,003
-212,752	92,513	0,226	0,184
-211,738	337,035	0,061	0,086
-210,723	-200,000	-0,043	0,159
-209,709	-1,064	-0,039	-0,020
-208,694	800,000	-0,021	-0,064
-207,679	-182,064	-0,173	-0,002
-206,665	-200,000	0,010	-0,056
-205,650	-57,532	0,079	0,025
-204,636	606,477	0,062	0,113
-203,621	-80,039	0,073	0,018
-202,606	-200,000	-0,031	-0,134
-201,592	-57,051	0,017	0,005
-200,577	-200,000	0,017	-0,062
-199,563	7,404	-0,115	-0,062
-198,548	800,000	-0,066	0,133
-197,533	-117,324	0,088	-0,011
-196,519	213,230	0,040	0,046
-195,504	634,444	0,027	-0,050
-194,490	115,435	0,064	0,057
-193,475	-92,308	0,044	-0,009
-192,460	-200,000	-0,040	0,146
-191,446	225,589	-0,014	0,017
-190,431	172,044	0,109	0,113
-189,417	800,000	0,024	0,072
-188,402	800,000	-0,033	0,077
-187,387	800,000	0,040	0,110
-186,373	262,897	-0,090	-0,113
-185,358	-200,000	-0,020	0,074
-184,344	52,668	-0,066	0,045
-183,329	800,000	-0,023	-0,056
-182,315	111,950	0,094	-0,082
-181,300	50,516	0,040	0,027
-180,285	-200,000	-0,055	-0,192
-179,271	323,537	-0,044	-0,061
-178,256	-200,000	0,010	0,059
-177,242	93,443	-0,071	0,058
-176,227	-171,608	0,105	0,002
-175,212	-200,000	-0,001	0,040
-174,198	-179,434	0,095	0,001
-173,183	-68,945	-0,025	-0,007
-172,169	-200,000	0,024	0,124
-171,154	-200,000	-0,006	0,098
-170,139	-200,000	-0,010	0,040
-169,125	-200,000	0,019	0,134
-168,110	241,013	0,058	0,069
-167,096	22,280	-0,101	0,060
-166,081	240,572	0,044	-0,053
-165,066	-38,624	-0,067	-0,025
-164,052	121,825	-0,097	0,087
-163,037	-40,921	0,083	-0,031
-162,023	4,465	0,036	0,019
-161,008	-200,000	-0,024	0,174
-159,993	800,000	-0,049	0,101
-158,979	84,912	0,044	-0,035
-157,964	399,539	-0,044	-0,067
-156,950	199,193	0,063	-0,070
-155,935	-110,846	-0,045	-0,007
-154,920	-83,520	0,078	0,018
-153,906	782,863	-0,101	0,200
-152,891	11,460	-0,019	-0,010
-151,877	155,413	0,063	0,063
-150,862	-200,000	-0,037	-0,225
-149,847	-200,000	0,000	-0,062
-148,833	-44,095	0,135	-0,049
-147,818	782,260	0,050	0,100
-146,804	-55,369	0,061	-0,020
-145,789	-200,000	0,002	-0,020
-144,775	800,000	-0,078	-0,183
-143,760	32,837	-0,024	0,015
-142,745	-76,209	-0,125	0,031
-141,731	-200,000	0,006	-0,181
-140,716	75,015	-0,033	-0,025
-139,702	127,224	-0,055	0,050
-138,687	-63,323	-0,156	-0,046
-137,672	-129,604	-0,110	0,011
-136,658	-70,966	-0,053	-0,014
-135,643	-200,000	-0,028	-0,144
-134,629	-18,381	-0,032	0,014
-133,614	150,007	-0,083	0,081
-132,599	450,788	0,044	0,071
-131,585	411,791	-0,035	0,054
-130,570	760,066	-0,054	-0,107
-129,556	82,219	-0,089	-0,069
-128,541	126,658	0,169	-0,154
-127,526	-200,000	0,014	0,082
-126,512	29,514	-0,045	-0,027
-125,497	-135,665	0,084	0,007
-124,483	-17,788	-0,079	0,036
-123,468	800,000	-0,034	-0,070
-122,453	-66,914	0,052	0,015
-121,439	618,324	0,094	0,171
-120,424	-54,556	0,035	-0,011
-119,410	82,595	0,027	-0,021
-118,395	-200,000	-0,025	-0,092
