DTS Sentinel unit serial number:	SN410029Multiplexer serial number:	ORYXHardware model number:	OX2-SRSoftware version number:	ORYX F/W v4,00 Oryx Data Collector v3.7.2.0data status	okinstallation	B5 Nyhavnadifferential loss correction	single-endedforward channel	channel 2reverse channel	N/Adate	2023/12/12time	21:02:13forward acquisition time	300,00reverse acquisition time	0,00gamma	499,1914k internal	0,3157k external	0,3157temperature offset calibration	1,0000default loss term (dB/km)	0,3820temperature slope calibration	1,0000multiplexer offset coefficient	1,0000multiplexer slope coefficient	1,0000fibre end	0,00T internal ref (°C)	15,02T ext. ref 1 (°C)	-1,65T ext. ref 2 (°C)	-1,97length (m)	temperature (°C)	Stokes	anti-Stokes-744,400	-16,467	0,070	0,033
-743,385	-148,265	-0,113	0,007
-742,371	55,386	0,084	0,060
-741,356	-177,790	-0,302	0,005
-740,342	800,000	0,063	0,206
-739,327	-94,293	-0,238	-0,047
-738,312	-34,564	0,122	0,049
-737,298	-108,950	-0,375	0,058
-736,283	-151,489	-0,040	0,002
-735,269	-128,809	-0,204	0,021
-734,254	68,610	0,069	0,052
-733,239	-57,628	-0,542	-0,174
-732,225	182,594	0,107	-0,117
-731,210	-200,000	0,002	0,136
-730,196	800,000	0,029	-0,063
-729,181	72,047	0,074	-0,057
-728,167	52,437	0,009	0,006
-727,152	-49,384	0,046	0,016
-726,137	112,822	-0,073	-0,065
-725,123	76,124	-0,077	0,060
-724,108	-200,000	-0,004	-0,121
-723,094	92,862	-0,023	-0,019
-722,079	-200,000	-0,016	0,075
-721,064	355,380	-0,070	0,103
-720,050	-200,000	-0,016	-0,096
-719,035	128,967	0,042	0,040
-718,021	-135,999	-0,127	0,011
-717,006	-200,000	0,007	0,024
-715,991	-63,494	-0,112	-0,034
-714,977	-68,889	-0,144	0,041
-713,962	-48,413	0,147	0,052
-712,948	-19,332	-0,029	0,013
-711,933	-14,186	0,087	-0,041
-710,918	111,298	0,043	0,038
-709,904	20,578	-0,076	-0,045
-708,889	118,770	-0,051	-0,046
-707,875	-2,610	-0,101	-0,052
-706,860	17,664	-0,090	0,053
-705,845	141,310	-0,009	0,008
-704,831	-200,000	-0,001	0,022
-703,816	-52,832	-0,060	-0,020
-702,802	-200,000	-0,009	-0,117
-701,787	-152,464	-0,158	0,008
-700,772	-200,000	-0,006	-0,129
-699,758	79,690	-0,144	-0,114
-698,743	188,809	0,051	0,056
-697,729	800,000	0,033	-0,069
-696,714	-184,953	0,043	0,000
-695,699	-200,000	0,025	-0,090
-694,685	-70,236	-0,097	-0,027
-693,670	528,227	0,030	-0,053
-692,656	800,000	-0,054	-0,170
-691,641	5,198	0,173	0,094
-690,627	-24,576	-0,151	-0,066
-689,612	360,280	-0,167	-0,246
-688,597	-200,000	-0,018	-0,169
-687,583	-72,205	-0,091	-0,025
-686,568	59,863	-0,086	-0,063
-685,554	-200,000	0,006	-0,121
-684,539	-48,011	-0,127	-0,045
-683,524	-170,448	0,164	0,004
-682,510	212,411	0,027	0,031
-681,495	-156,051	-0,026	0,001
-680,481	126,443	-0,075	-0,069
-679,466	800,000	-0,051	-0,147
-678,451	-17,751	-0,004	-0,002
-677,437	22,067	0,068	0,041
-676,422	-105,160	-0,093	0,015
-675,408	354,243	-0,058	0,085
-674,393	-64,887	-0,077	0,023
-673,378	9,426	-0,094	0,052
-672,364	487,492	-0,121	-0,203
-671,349	-51,239	-0,022	-0,008
-670,335	-200,000	-0,029	0,112
-669,320	37,975	0,059	-0,039
-668,305	-54,491	-0,196	0,065
-667,291	418,759	0,019	0,030
-666,276	257,568	-0,134	-0,170
-665,262	-200,000	-0,002	0,016
-664,247	328,480	0,018	-0,025
-663,232	-200,000	-0,015	-0,104
-662,218	-81,588	-0,135	0,032
-661,203	133,781	0,080	0,076
-660,189	79,096	0,024	0,019
-659,174	-159,976	-0,178	-0,007
-658,159	-84,895	-0,137	-0,031
-657,145	800,000	-0,069	-0,144
-656,130	126,030	-0,045	0,042
-655,116	-53,555	-0,100	0,033
-654,101	-3,137	-0,046	0,023
-653,086	-200,000	0,010	0,059
-652,072	130,990	-0,010	-0,010
-651,057	800,000	-0,056	-0,123
-650,043	-200,000	0,025	0,090
-649,028	327,512	0,052	0,073
-648,014	466,748	-0,045	0,074
-646,999	-73,684	-0,093	-0,025
-645,984	-200,000	-0,005	0,049
-644,970	467,425	-0,092	-0,152
-643,955	16,975	-0,143	-0,083
-642,941	-140,362	-0,028	-0,002
-641,926	109,985	-0,081	0,072
-640,911	66,350	0,100	0,075
-639,897	98,552	0,083	0,070
-638,882	473,766	0,017	0,028
-637,868	-200,000	-0,029	-0,105
-636,853	-200,000	-0,026	-0,126
-635,838	-143,535	-0,051	-0,004
-634,824	-200,000	0,049	-0,160
-633,809	-89,161	0,042	-0,009
-632,795	12,896	-0,099	-0,056
-631,780	800,000	-0,017	0,035
-630,765	190,582	0,047	-0,052
-629,751	-18,542	-0,130	0,059
-628,736	178,141	-0,071	-0,076
-627,722	-11,437	0,167	-0,081
-626,707	-87,500	-0,056	0,012
-625,692	-5,612	-0,074	0,037
-624,678	401,788	-0,031	0,048
-623,663	-200,000	-0,015	0,134
-622,649	164,348	0,027	-0,028
-621,634	-94,601	-0,094	0,019
-620,619	-48,149	0,054	-0,019
-619,605	-2,379	-0,119	0,061
-618,590	313,106	-0,081	0,112
-617,576	-87,490	0,049	0,011
-616,561	-147,600	-0,204	-0,012
-615,546	84,047	0,084	0,067
-614,532	-39,171	0,052	-0,020
-613,517	800,000	-0,052	0,139
-612,503	-118,350	-0,131	-0,017
-611,488	800,000	-0,065	0,151
-610,474	800,000	0,044	0,116
-609,459	331,693	-0,096	0,136
-608,444	51,513	-0,133	0,092
-607,430	154,014	-0,058	-0,058
-606,415	187,315	-0,071	0,078
-605,401	434,521	0,035	0,056
-604,386	-123,409	-0,153	-0,018
-603,371	606,799	0,018	-0,034
-602,357	262,336	-0,083	-0,106
-601,342	-43,723	0,092	-0,034
-600,328	800,000	-0,032	-0,067
-599,313	43,980	0,062	-0,042
-598,298	242,903	0,096	-0,118
-597,284	800,000	-0,007	-0,019
-596,269	47,140	0,133	-0,090
-595,255	-81,036	-0,077	-0,019
-594,240	-105,744	-0,115	0,019
-593,225	-200,000	0,004	0,027
-592,211	64,699	-0,125	-0,093
-591,196	-66,897	0,097	0,028
-590,182	-200,000	0,022	-0,100
-589,167	-200,000	-0,002	-0,103
-588,152	-200,000	0,007	0,026
-587,138	68,511	-0,086	0,065
-586,123	393,275	-0,013	-0,021
-585,109	-5,015	-0,130	-0,066
-584,094	394,779	-0,040	0,061
-583,079	26,241	-0,036	0,022
-582,065	-200,000	0,009	0,067
-581,050	643,382	-0,013	-0,024
-580,036	137,000	0,062	-0,059
-579,021	-200,000	0,005	-0,100
-578,006	61,113	0,066	-0,048
-576,992	800,000	-0,071	0,163
-575,977	-92,577	0,044	0,009
-574,963	288,602	0,078	-0,104
-573,948	12,138	-0,129	-0,073
-572,934	-200,000	-0,001	-0,100
-571,919	-70,485	-0,066	-0,018
-570,904	-89,288	-0,047	0,010
-569,890	48,991	-0,060	0,041
-568,875	441,082	0,052	0,083
-567,861	800,000	-0,043	-0,134
-566,846	800,000	0,042	-0,100
-565,831	-200,000	0,009	0,077
-564,817	-45,658	-0,076	0,027
-563,802	-144,314	-0,135	0,009
-562,788	50,415	0,065	-0,045
-561,773	-25,214	-0,115	0,050
-560,758	200,540	0,028	-0,031
-559,744	-200,000	-0,040	0,160
-558,729	292,066	-0,088	0,118
-557,715	-115,969	-0,053	-0,007
-556,700	-200,000	0,010	-0,100
-555,685	252,306	-0,085	-0,107
-554,671	-84,128	-0,098	-0,023
-553,656	646,359	0,048	0,089
-552,642	-86,659	0,137	-0,030
-551,627	-18,741	-0,056	-0,025
-550,612	70,533	0,112	-0,085
-549,598	-47,389	0,042	0,015
-548,583	752,914	-0,083	-0,166
-547,569	-145,121	-0,218	0,014
-546,554	-32,317	0,076	-0,031
-545,539	800,000	0,020	0,051
-544,525	39,469	0,057	0,037
-543,510	69,181	-0,037	-0,028
-542,496	-107,463	-0,030	-0,005
-541,481	-200,000	0,014	-0,082
-540,466	625,255	-0,021	0,039
-539,452	-200,000	0,023	-0,102
-538,437	353,729	-0,087	0,127
-537,423	-200,000	-0,016	0,075
-536,408	658,551	0,079	-0,150
-535,393	-60,228	-0,050	0,015
-534,379	800,000	-0,038	-0,116
-533,364	800,000	-0,038	-0,097
-532,350	-200,000	-0,032	0,170
-531,335	152,917	0,041	0,041
-530,321	289,804	0,083	-0,111
-529,306	-68,499	0,125	0,035
-528,291	-200,000	-0,003	0,099
-527,277	800,000	-0,039	-0,115
-526,262	-200,000	-0,001	-0,013
-525,248	63,152	0,040	0,029
-524,233	367,768	0,035	0,052
-523,218	471,138	0,068	0,112
-522,204	164,261	0,078	-0,080
-521,189	69,792	-0,076	-0,057
-520,175	-1,291	-0,100	-0,051
-519,160	417,228	0,053	0,084
-518,145	346,203	-0,058	-0,084
-517,131	-200,000	0,006	-0,171
-516,116	349,672	0,087	0,126
-515,102	37,571	0,092	0,059
-514,087	35,634	0,033	0,021
-513,072	-200,000	0,003	0,064
-512,058	195,505	0,085	-0,095
-511,043	653,075	-0,016	-0,030
-510,029	118,661	0,094	-0,084
-509,014	-200,000	-0,038	0,141
-507,999	-200,000	-0,000	0,072
-506,985	316,363	0,023	0,032
-505,970	-200,000	-0,000	-0,039
-504,956	-17,898	0,059	0,027
-503,941	478,686	0,051	0,085
-502,926	121,082	0,083	0,075
-501,912	-43,428	0,153	0,056
-500,897	-40,953	-0,139	0,052
-499,883	195,332	0,062	-0,068
-498,868	-73,426	0,034	-0,009
-497,853	328,288	0,058	-0,082
-496,839	800,000	0,017	-0,041
-495,824	-200,000	0,009	-0,036
-494,810	-31,099	0,023	-0,009
-493,795	411,410	0,074	0,116
-492,781	-200,000	-0,010	-0,060
-491,766	800,000	0,043	-0,102
-490,751	-200,000	-0,010	-0,165
-489,737	347,895	0,025	-0,036
-488,722	-200,000	0,021	0,164
-487,708	-200,000	0,004	0,144
-486,693	800,000	0,034	0,103
-485,678	57,382	0,085	-0,060
-484,664	-200,000	0,003	0,040
-483,649	595,378	0,056	-0,102
-482,635	800,000	0,014	0,042
-481,620	-200,000	-0,012	0,084
-480,605	333,695	-0,012	0,017
-479,591	390,492	0,036	-0,055
-478,576	-30,242	-0,028	0,011
-477,562	-70,171	-0,104	-0,029
-476,547	800,000	-0,041	-0,090
-475,532	30,409	0,062	-0,039
-474,518	478,034	0,069	0,114
-473,503	2,588	0,174	0,092
-472,489	60,426	-0,075	-0,054
-471,474	-158,362	0,103	0,004
-470,459	-136,072	-0,044	0,004
-469,445	17,153	-0,109	0,063
-468,430	-200,000	0,024	-0,140
-467,416	686,333	0,016	0,030
-466,401	206,739	-0,058	-0,067
-465,386	104,277	0,027	-0,023
-464,372	-200,000	-0,013	0,118
-463,357	-200,000	0,021	-0,120
-462,343	-200,000	0,004	-0,035
-461,328	-61,568	-0,126	-0,038
-460,313	118,186	0,043	0,038
-459,299	218,205	0,025	0,029
-458,284	35,345	0,160	0,102
-457,270	-200,000	-0,029	0,127
-456,255	-200,000	0,002	-0,098
-455,241	-153,729	-0,021	0,001
-454,226	800,000	-0,116	-0,245
-453,211	800,000	0,072	-0,181
-452,197	-173,874	-0,056	-0,001
-451,182	-200,000	-0,021	0,085
-450,168	800,000	0,017	-0,038
-449,153	93,290	-0,064	0,053
-448,138	-200,000	0,006	0,055
-447,124	18,995	0,059	-0,034
-446,109	-111,083	0,059	-0,009
-445,095	16,739	-0,034	0,019
-444,080	-200,000	0,001	-0,115
-443,065	-200,000	0,016	0,070
-442,051	-13,936	-0,020	-0,009
-441,036	800,000	-0,027	-0,081
-440,022	-200,000	-0,060	-0,247
-439,007	577,135	-0,064	-0,114
-437,992	-108,279	0,114	-0,018
-436,978	213,074	-0,039	0,045
-435,963	70,501	0,089	0,067
-434,949	306,224	-0,039	0,053
-433,934	-200,000	0,019	-0,072
-432,919	115,525	-0,094	-0,084
-431,905	131,433	0,039	-0,037
-430,890	375,989	-0,051	0,076
-429,876	800,000	0,054	-0,124
-428,861	-155,306	-0,110	-0,005
-427,846	800,000	0,021	0,052
-426,832	121,516	-0,133	-0,121
-425,817	-200,000	0,008	-0,046
-424,803	249,991	-0,038	0,047
-423,788	-91,625	-0,048	-0,010
-422,773	-200,000	-0,012	-0,090
-421,759	643,028	-0,032	0,060
-420,744	98,170	-0,050	0,042
-419,730	-200,000	-0,002	0,056
-418,715	111,710	-0,080	-0,070
-417,701	1,115	-0,061	-0,032
-416,686	-37,041	0,117	0,045
-415,671	-49,498	0,094	0,033
-414,657	-176,432	-0,097	0,002
-413,642	-200,000	-0,002	-0,020
-412,628	-46,627	-0,068	-0,024
-411,613	-0,427	0,040	0,021
-410,598	-111,381	0,100	0,015
-409,584	800,000	0,037	0,096
-408,569	63,686	-0,075	0,055
-407,555	-147,376	0,155	0,009
-406,540	-22,420	-0,102	0,045
-405,525	236,209	-0,135	0,163
-404,511	-200,000	-0,020	-0,067
-403,496	5,031	0,092	-0,049
-402,482	23,101	-0,044	-0,026
-401,467	800,000	-0,066	0,136
-400,452	52,996	0,132	0,092
-399,438	673,662	0,122	0,232
-398,423	362,592	-0,044	-0,065
-397,409	123,383	-0,100	0,091
-396,394	-1,128	-0,064	-0,033
-395,379	-38,415	-0,072	-0,028
-394,365	800,000	0,049	0,111
-393,350	-36,508	0,102	0,040
-392,336	50,506	-0,115	0,079
-391,321	-106,313	0,076	0,012
-390,306	-200,000	0,005	-0,138
-389,292	-31,739	-0,012	0,005
-388,277	576,198	0,015	-0,027
-387,263	-31,903	0,132	-0,054
-386,248	21,293	-0,067	0,039
-385,233	-36,988	0,039	0,015
-384,219	800,000	-0,017	0,039
-383,204	208,464	-0,085	-0,096
-382,190	-158,737	-0,141	-0,006
-381,175	-60,911	0,085	0,026
-380,160	-125,414	-0,134	0,015
-379,146	187,570	-0,013	0,014
-378,131	493,807	0,053	-0,088
-377,117	-17,658	-0,076	0,035
-376,102	-8,204	-0,039	0,019
-375,088	-200,000	0,001	0,075
-374,073	800,000	-0,021	0,044
-373,058	32,205	0,045	-0,028
-372,044	127,731	-0,053	-0,049
-371,029	-71,817	0,087	-0,023
-370,015	-200,000	0,038	0,142
-369,000	800,000	-0,010	-0,024
-367,985	-107,620	0,094	-0,015
-366,971	-200,000	0,016	0,053
-365,956	443,814	0,059	-0,094
-364,942	-1,698	0,061	0,031
-363,927	800,000	0,076	0,165
-362,912	800,000	0,011	-0,026
-361,898	-200,000	0,009	0,076
-360,883	-11,962	-0,062	-0,029
-359,869	-145,401	0,137	-0,009
-358,854	39,729	0,094	0,061
-357,839	-67,869	0,048	-0,014
-356,825	-200,000	-0,020	-0,068
-355,810	-200,000	0,024	-0,087
-354,796	-57,637	-0,124	0,039
-353,781	-105,675	-0,130	-0,021
-352,766	-200,000	0,012	-0,075
-351,752	-60,594	0,066	-0,020
-350,737	800,000	-0,045	0,145
-349,723	124,674	0,030	0,027
-348,708	22,054	0,108	0,064
-347,693	-8,400	0,028	0,014
-346,679	800,000	-0,018	0,057
-345,664	800,000	-0,060	0,140
-344,650	-200,000	-0,005	-0,025
-343,635	44,352	0,070	0,046
-342,620	602,021	0,069	0,126
-341,606	-147,996	-0,074	0,004
-340,591	-15,441	0,103	0,048
-339,577	82,014	0,074	-0,058
-338,562	800,000	-0,033	-0,094
-337,548	88,646	-0,050	0,041
-336,533	34,413	0,258	0,163
-335,518	-48,931	0,016	0,006
-334,504	-33,578	-0,049	0,020
-333,489	121,916	-0,021	-0,019
-332,475	800,000	-0,027	-0,070
-331,460	-200,000	-0,013	-0,056
-330,445	-79,310	0,028	-0,007
-329,431	9,064	0,052	0,029
-328,416	150,890	0,109	-0,108
-327,402	136,333	0,036	-0,034
-326,387	-200,000	0,025	0,119
-325,372	-66,347	0,088	-0,025
-324,358	-200,000	-0,009	-0,047
-323,343	165,722	-0,062	-0,064
-322,329	295,229	0,102	0,135
-321,314	563,049	0,076	0,135
-320,299	135,656	-0,074	-0,070
-319,285	-135,808	0,056	-0,005
-318,270	-159,091	0,089	0,004
-317,256	-200,000	0,032	-0,115
-316,241	242,170	0,037	0,045
-315,226	264,967	0,047	-0,060
-314,212	-200,000	0,006	-0,036
-313,197	-30,342	0,040	-0,016
-312,183	-200,000	0,003	0,123
-311,168	-200,000	0,014	-0,141
-310,153	-115,853	0,038	-0,005
-309,139	475,698	0,069	-0,113
-308,124	800,000	0,085	0,172
-307,110	348,416	-0,043	0,062
-306,095	-200,000	0,028	0,101
-305,080	-200,000	-0,013	0,068
-304,066	479,303	-0,018	-0,029
-303,051	-71,347	-0,058	0,016
-302,037	39,847	-0,074	-0,048
-301,022	-192,813	0,159	-0,001
-300,008	-92,928	-0,091	-0,018
-298,993	-1,251	-0,100	-0,051
-297,978	-200,000	-0,001	-0,052
-296,964	-200,000	-0,028	0,169
-295,949	-83,242	-0,106	-0,024
-294,935	127,100	0,094	-0,087
-293,920	-16,931	-0,121	-0,055
-292,905	-6,648	0,173	-0,085
-291,891	-200,000	0,018	0,080
-290,876	800,000	-0,008	-0,023
-289,862	-57,550	-0,034	-0,011
-288,847	-123,421	-0,074	-0,008
-287,832	-200,000	-0,024	0,156
-286,818	170,400	-0,087	0,091
-285,803	-200,000	-0,001	-0,021
-284,789	124,957	0,023	0,021
-283,774	800,000	-0,014	0,039
-282,759	135,305	0,053	-0,050
-281,745	-134,751	-0,064	0,006
-280,730	-125,709	-0,054	0,006
-279,716	-24,211	0,124	0,053
-278,701	638,496	-0,024	0,044
-277,686	-200,000	0,027	0,154
-276,672	800,000	0,024	-0,058
-275,657	611,177	0,056	-0,101
-274,643	-50,903	-0,071	0,024
-273,628	337,717	-0,025	-0,035
-272,613	-74,708	-0,080	-0,021
-271,599	-200,000	0,080	-0,000
-270,584	61,715	-0,112	0,080
-269,570	14,399	-0,091	0,052
-268,555	-56,594	-0,085	0,027
-267,540	765,755	-0,094	-0,186
-266,526	-14,548	-0,077	-0,036
-265,511	-200,000	0,011	0,110
-264,497	592,086	0,070	-0,126
-263,482	-160,898	0,173	-0,006
-262,467	782,216	0,056	0,111
-261,453	-37,623	0,075	0,029
-260,438	-200,000	0,006	-0,083
-259,424	800,000	-0,093	-0,187
-258,409	-200,000	-0,002	0,008
-257,395	-16,281	0,050	-0,023
-256,380	-200,000	-0,007	-0,040
-255,365	-200,000	0,023	0,121
-254,351	-122,041	0,046	0,005
-253,336	13,053	0,103	0,058
-252,322	-89,691	-0,161	0,034
-251,307	800,000	0,029	-0,072
-250,292	-200,000	-0,005	-0,078
-249,278	224,685	0,072	-0,084
-248,263	-136,654	-0,103	-0,008
-247,249	-100,886	-0,073	-0,013
-246,234	181,006	0,109	0,116
-245,219	-101,290	-0,149	-0,026
-244,205	535,982	0,035	-0,060
-243,190	-132,568	0,046	0,004
-242,176	479,297	0,031	-0,051
-241,161	337,895	-0,041	-0,057
-240,146	308,827	-0,017	0,023
-239,132	158,258	-0,023	-0,023
-238,117	800,000	0,025	-0,051
-237,103	76,336	-0,079	-0,060
-236,088	-2,105	0,054	0,027
-235,073	-200,000	-0,015	0,090
-234,059	407,612	0,099	0,152
-233,044	179,619	-0,079	-0,084
-232,030	-24,779	0,123	-0,052
-231,015	-146,320	-0,121	0,008
-230,000	723,892	-0,080	-0,154
-228,986	559,217	-0,042	-0,073
-227,971	-81,774	0,152	-0,036
-226,957	-47,238	0,115	-0,040
-225,942	238,010	0,085	0,102
-224,927	52,935	-0,096	0,066
-223,913	424,043	0,023	-0,037
-222,898	-100,571	0,120	0,021
-221,884	39,189	-0,066	0,042
-220,869	-200,000	-0,026	-0,093
-219,855	-200,000	0,011	0,112
-218,840	-200,000	-0,038	-0,122
-217,825	-39,314	-0,046	0,017
-216,811	-200,000	-0,002	-0,018
-215,796	-200,000	0,070	0,224
-214,782	800,000	0,036	0,108
-213,767	110,414	0,110	-0,096
-212,752	56,196	0,085	0,059
-211,738	98,946	0,160	-0,133
-210,723	-32,196	-0,056	0,022
-209,709	-87,978	-0,106	-0,023
-208,694	132,471	-0,087	0,081
-207,679	800,000	-0,048	-0,104
-206,665	-77,019	0,114	-0,028
-205,650	-200,000	-0,002	0,132
-204,636	-104,458	0,043	0,007
-203,621	151,621	-0,113	0,111
-202,606	646,806	0,048	-0,090
-201,592	-200,000	-0,029	-0,230
-200,577	-200,000	-0,015	-0,127
-199,563	-147,440	-0,082	0,005
-198,548	610,803	0,107	0,193
-197,533	-200,000	0,016	0,249
-196,519	-123,780	0,046	0,005
-195,504	-200,000	0,008	0,061
-194,490	-34,785	-0,103	-0,040
-193,475	57,658	-0,092	-0,065
-192,460	-101,441	0,060	0,010
-191,446	-43,099	0,031	-0,011
-190,431	-200,000	0,003	0,095
-189,417	-54,511	0,133	0,043
-188,402	39,883	0,114	0,074
-187,387	800,000	0,007	-0,023
-186,373	-101,620	-0,129	-0,022
-185,358	-149,511	0,037	-0,002
-184,344	152,082	-0,023	-0,023
-183,329	94,090	-0,088	0,072
-182,315	800,000	0,026	0,080
-181,300	-75,398	-0,140	-0,036
-180,285	174,211	-0,071	-0,075
-179,271	722,112	0,046	0,089
-178,256	-200,000	-0,003	0,101
-177,242	-200,000	0,002	0,162
-176,227	11,168	0,069	-0,038
-175,212	-200,000	0,020	-0,073
-174,198	-92,552	0,081	0,016
-173,183	127,843	-0,097	-0,089
-172,169	-147,789	-0,057	0,003
-171,154	128,771	0,088	0,081
-170,139	-122,450	0,109	0,013
-169,125	-200,000	0,029	-0,095
-168,110	-12,632	0,019	-0,009
-167,096	-200,000	0,003	0,123
-166,081	335,310	0,077	-0,108
-165,066	800,000	0,015	-0,038
-164,052	-200,000	-0,003	-0,031
-163,037	-200,000	0,063	0,203
-162,023	318,973	0,016	0,021
-161,008	-200,000	0,017	-0,054
-159,993	420,912	0,033	-0,052
-158,979	800,000	-0,014	-0,043
-157,964	-200,000	-0,014	-0,222
-156,950	-200,000	-0,072	-0,289
-155,935	237,033	0,028	-0,033
-154,920	310,323	0,038	-0,051
-153,906	134,610	-0,085	0,080
-152,891	56,079	0,021	0,015
-151,877	-17,871	-0,135	0,061
-150,862	-154,648	-0,056	-0,003
-149,847	-102,146	-0,048	0,008
-148,833	-200,000	-0,022	0,122
-147,818	-27,326	-0,054	0,022
-146,804	800,000	0,046	0,131
-145,789	156,063	-0,041	-0,040
-144,775	133,884	0,049	-0,046
-143,760	-200,000	-0,004	-0,043
-142,745	-112,914	-0,140	0,020
-141,731	84,639	0,045	-0,036
-140,716	-70,312	0,077	-0,021
-139,702	-200,000	0,019	0,096
-138,687	800,000	-0,080	0,190
-137,672	-120,673	0,093	0,011
-136,658	37,541	-0,079	-0,050
-135,643	622,348	-0,042	0,077
-134,629	66,882	-0,148	-0,108
-133,614	-200,000	0,009	0,039
-132,599	-43,849	0,103	-0,037
-131,585	800,000	-0,041	0,091
-130,570	128,762	-0,027	-0,025
-129,556	44,008	0,083	0,055
-128,541	-43,578	0,102	0,037
-127,526	125,983	0,056	0,051
-126,512	86,072	-0,008	0,006
-125,497	-200,000	0,013	0,094
-124,483	-97,123	-0,049	-0,009
-123,468	-91,608	-0,023	0,005
-122,453	115,507	-0,052	0,045
-121,439	-200,000	-0,004	0,104
-120,424	-18,229	-0,028	-0,013
-119,410	-95,840	-0,075	-0,014
