DTS Sentinel unit serial number:	SN410029Multiplexer serial number:	ORYXHardware model number:	OX2-SRSoftware version number:	ORYX F/W v4,00 Oryx Data Collector v3.7.2.0data status	okinstallation	B5 Nyhavnadifferential loss correction	single-endedforward channel	channel 2reverse channel	N/Adate	2023/12/14time	19:32:13forward acquisition time	300,00reverse acquisition time	0,00gamma	499,1914k internal	0,3156k external	0,3156temperature offset calibration	1,0000default loss term (dB/km)	0,3820temperature slope calibration	1,0000multiplexer offset coefficient	1,0000multiplexer slope coefficient	1,0000fibre end	0,00T internal ref (°C)	8,96T ext. ref 1 (°C)	-5,74T ext. ref 2 (°C)	-5,80length (m)	temperature (°C)	Stokes	anti-Stokes-744,400	208,851	0,148	0,171
-743,385	-97,270	-0,425	-0,081
-742,371	404,416	0,046	0,071
-741,356	-9,124	-0,325	-0,160
-740,342	519,145	0,119	0,206
-739,327	-117,030	-0,385	-0,051
-738,312	135,873	0,142	0,137
-737,298	-193,375	-0,308	0,002
-736,283	207,822	0,107	0,124
-735,269	-49,232	-0,245	-0,086
-734,254	393,224	0,059	0,091
-733,239	-5,445	-0,546	-0,275
-732,225	8,868	0,248	0,138
-731,210	-66,892	0,057	-0,016
-730,196	155,148	-0,035	0,036
-729,181	176,456	0,061	-0,066
-728,167	-200,000	-0,008	0,031
-727,152	36,736	0,127	0,082
-726,137	42,641	-0,129	-0,086
-725,123	800,000	0,038	-0,089
-724,108	-87,182	-0,150	-0,033
-723,094	464,109	-0,057	-0,095
-722,079	-6,653	-0,141	-0,071
-721,064	-200,000	-0,008	-0,094
-720,050	535,942	0,019	-0,034
-719,035	-200,000	0,002	-0,037
-718,021	-90,856	-0,136	0,029
-717,006	9,460	-0,138	0,077
-715,991	-200,000	-0,046	-0,154
-714,977	-139,650	-0,123	-0,010
-713,962	133,201	0,076	0,072
-712,948	250,351	0,051	-0,064
-711,933	356,854	-0,065	-0,096
-710,918	66,174	0,101	-0,076
-709,904	-178,253	-0,075	0,001
-708,889	217,884	-0,064	-0,075
-707,875	-162,487	-0,077	-0,003
-706,860	44,640	-0,107	-0,072
-705,845	755,596	0,019	0,039
-704,831	800,000	-0,033	0,084
-703,816	800,000	0,034	0,082
-702,802	156,490	0,113	-0,115
-701,787	-200,000	-0,026	-0,160
-700,772	-92,925	-0,156	-0,032
-699,758	-200,000	-0,026	0,169
-698,743	-6,650	0,054	0,027
-697,729	345,397	0,049	-0,071
-696,714	118,675	0,056	0,051
-695,699	19,474	-0,047	-0,027
-694,685	211,478	0,006	-0,006
-693,670	242,247	0,049	0,061
-692,656	-200,000	-0,027	-0,109
-691,641	307,109	-0,083	-0,114
-690,627	-17,647	-0,035	-0,016
-689,612	-200,000	-0,019	-0,106
-688,597	-57,385	-0,040	-0,013
-687,583	800,000	-0,013	0,037
-686,568	71,760	-0,051	0,039
-685,554	800,000	-0,013	-0,031
-684,539	106,571	-0,155	-0,135
-683,524	430,024	0,042	-0,067
-682,510	-90,030	-0,128	-0,027
-681,495	450,035	0,053	0,086
-680,481	800,000	-0,042	-0,109
-679,466	-121,253	-0,063	0,008
-678,451	96,804	0,037	0,031
-677,437	196,847	0,116	-0,130
-676,422	-120,819	0,100	0,012
-675,408	-90,992	0,038	0,008
-674,393	307,380	-0,073	0,100
-673,378	800,000	-0,036	-0,093
-672,364	158,333	-0,073	-0,074
-671,349	235,310	0,004	0,005
-670,335	25,413	-0,064	0,039
-669,320	-200,000	-0,013	0,075
-668,305	800,000	0,016	-0,036
-667,291	-38,145	-0,162	0,063
-666,276	366,472	-0,112	-0,166
-665,262	-200,000	-0,041	-0,181
-664,247	-200,000	-0,002	0,040
-663,232	-68,476	-0,084	-0,024
-662,218	-200,000	0,049	0,178
-661,203	135,255	0,064	-0,061
-660,189	-200,000	-0,007	-0,049
-659,174	-200,000	-0,033	-0,177
-658,159	729,123	-0,077	-0,153
-657,145	195,336	0,070	-0,079
-656,130	-200,000	0,001	0,012
-655,116	145,016	-0,133	0,131
-654,101	293,754	0,051	0,069
-653,086	87,794	-0,062	-0,051
-652,072	-159,193	-0,040	-0,002
-651,057	152,410	-0,128	0,128
-650,043	341,381	-0,037	-0,054
-649,028	-149,263	-0,048	0,003
-648,014	355,804	0,086	0,127
-646,999	-200,000	0,008	0,054
-645,984	-200,000	0,018	0,073
-644,970	-200,000	0,010	-0,120
-643,955	323,836	-0,064	-0,091
-642,941	-90,422	-0,123	-0,026
-641,926	-200,000	-0,018	-0,065
-640,911	-79,359	0,080	0,020
-639,897	800,000	0,056	0,171
-638,882	800,000	-0,033	0,077
-637,868	-6,430	0,088	0,044
-636,853	84,252	0,045	-0,036
-635,838	-200,000	-0,008	0,041
-634,824	182,042	0,050	-0,054
-633,809	2,824	-0,115	-0,061
-632,795	545,823	-0,022	-0,040
-631,780	-11,743	-0,070	-0,034
-630,765	11,120	-0,069	-0,039
-629,751	-200,000	-0,034	0,116
-628,736	74,777	-0,029	0,023
-627,722	10,603	0,090	0,050
-626,707	-200,000	0,000	0,013
-625,692	50,563	-0,125	0,087
-624,678	249,119	-0,013	-0,017
-623,663	800,000	0,010	-0,022
-622,649	-55,293	0,105	-0,034
-621,634	193,534	-0,029	-0,032
-620,619	-200,000	-0,020	-0,191
-619,605	266,829	0,027	-0,035
-618,590	266,538	0,080	0,103
-617,576	221,294	-0,078	0,092
-616,561	194,748	-0,039	0,044
-615,546	123,276	-0,066	0,061
-614,532	-200,000	-0,022	0,083
-613,517	627,433	-0,025	0,047
-612,503	492,109	0,048	-0,082
-611,488	295,856	0,026	0,035
-610,474	125,527	0,150	0,139
-609,459	-30,425	-0,056	0,023
-608,444	800,000	-0,033	0,084
-607,430	48,726	0,141	0,097
-606,415	-68,229	-0,123	0,035
-605,401	245,660	0,048	0,059
-604,386	227,796	0,028	-0,033
-603,371	-200,000	-0,002	0,049
-602,357	-200,000	-0,005	0,067
-601,342	91,652	0,077	-0,064
-600,328	119,445	0,052	-0,047
-599,313	483,238	-0,038	0,063
-598,298	800,000	-0,013	-0,038
-597,284	638,166	-0,023	-0,044
-596,269	-124,322	0,100	-0,011
-595,255	-48,405	-0,101	0,036
-594,240	-71,891	-0,128	-0,035
-593,225	520,683	0,024	-0,042
-592,211	36,661	0,114	-0,074
-591,196	800,000	-0,020	-0,054
-590,182	26,594	-0,070	0,043
-589,167	-200,000	0,010	-0,122
-588,152	-40,605	-0,040	0,015
-587,138	-107,003	0,091	0,015
-586,123	259,330	-0,117	-0,149
-585,109	-108,101	0,066	0,010
-584,094	-65,622	-0,129	-0,038
-583,079	61,728	0,049	0,036
-582,065	745,033	0,030	-0,060
-581,050	9,298	-0,152	-0,084
-580,036	-9,041	-0,065	0,032
-579,021	800,000	-0,034	-0,089
-578,006	-200,000	0,024	-0,089
-576,992	10,999	-0,112	0,063
-575,977	92,935	0,018	-0,015
-574,963	112,204	0,032	-0,028
-573,948	-86,227	-0,123	-0,027
-572,934	-200,000	-0,014	-0,098
-571,919	733,363	-0,044	-0,087
-570,904	800,000	-0,049	-0,114
-569,890	-200,000	0,010	-0,081
-568,875	-122,397	0,018	-0,002
-567,861	800,000	0,047	0,104
-566,846	-200,000	0,010	0,102
-565,831	517,751	-0,084	0,145
-564,817	399,471	-0,061	-0,093
-563,802	31,411	-0,049	-0,031
-562,788	-138,398	0,062	0,005
-561,773	-48,805	-0,132	0,046
-560,758	-200,000	-0,007	-0,034
-559,744	180,902	0,102	0,110
-558,729	123,997	-0,081	-0,074
-557,715	297,967	-0,027	0,036
-556,700	-147,276	0,145	-0,009
-555,685	57,377	-0,070	0,050
-554,671	-200,000	0,006	-0,049
-553,656	320,866	0,008	0,012
-552,642	800,000	0,014	0,037
-551,627	-200,000	0,017	0,065
-550,612	227,207	-0,060	-0,071
-549,598	-92,742	0,113	-0,023
-548,583	-139,788	-0,105	-0,008
-547,569	137,949	-0,022	0,021
-546,554	-174,654	0,054	-0,001
-545,539	28,038	-0,027	0,016
-544,525	20,379	0,054	-0,032
-543,510	800,000	-0,063	-0,199
-542,496	-35,996	-0,127	-0,050
-541,481	212,768	-0,120	-0,138
-540,466	-200,000	-0,002	-0,126
-539,452	82,711	0,080	0,064
-538,437	-200,000	-0,001	0,025
-537,423	800,000	0,011	0,035
-536,408	225,071	0,073	-0,087
-535,393	-1,221	-0,141	-0,073
-534,379	11,649	0,051	-0,029
-533,364	-37,810	-0,092	-0,035
-532,350	-200,000	-0,007	-0,033
-531,335	653,346	0,032	0,061
-530,321	223,215	0,026	0,031
-529,306	285,559	0,048	-0,064
-528,291	-78,442	-0,126	-0,031
-527,277	-121,132	-0,193	0,023
-526,262	-174,501	0,096	-0,002
-525,248	800,000	0,039	0,094
-524,233	-7,025	-0,005	-0,003
-523,218	-76,702	0,125	-0,032
-522,204	-113,747	0,061	0,009
-521,189	800,000	-0,026	-0,082
-520,175	36,820	-0,102	-0,066
-519,160	800,000	0,044	-0,103
-518,145	-200,000	-0,002	0,044
-517,131	-97,529	0,050	-0,009
-516,116	475,516	-0,057	-0,094
-515,102	-61,467	-0,101	-0,031
-514,087	-163,211	-0,082	-0,003
-513,072	566,872	-0,097	-0,172
-512,058	146,184	-0,027	-0,027
-511,043	101,341	-0,161	0,137
-510,029	118,364	0,045	0,041
-509,014	-200,000	0,026	0,114
-507,999	-176,471	-0,089	-0,002
-506,985	186,678	0,091	-0,099
-505,970	182,655	0,034	0,036
-504,956	8,571	-0,118	-0,065
-503,941	-200,000	-0,006	0,022
-502,926	-27,756	0,204	0,086
-501,912	45,001	-0,006	-0,004
-500,897	-72,042	0,090	0,024
-499,883	395,167	-0,032	0,048
-498,868	173,286	0,018	-0,019
-497,853	-200,000	-0,011	-0,081
-496,839	-86,848	-0,045	0,010
-495,824	-138,524	0,030	-0,002
-494,810	-49,402	0,043	-0,015
-493,795	85,947	-0,029	-0,024
-492,781	-151,943	-0,122	-0,006
-491,766	260,933	0,042	-0,053
-490,751	-200,000	-0,002	-0,092
-489,737	18,689	0,046	0,027
-488,722	33,376	0,018	0,012
-487,708	800,000	-0,079	0,168
-486,693	303,823	-0,057	-0,077
-485,678	-161,626	-0,098	-0,004
-484,664	-25,971	-0,112	-0,048
-483,649	800,000	-0,040	-0,101
-482,635	-163,560	-0,046	-0,002
-481,620	512,823	0,023	0,039
-480,605	-200,000	-0,012	0,062
-479,591	-200,000	-0,003	0,011
-478,576	503,376	-0,022	-0,037
-477,562	-200,000	0,007	0,025
-476,547	-200,000	-0,004	-0,020
-475,532	156,780	-0,080	0,081
-474,518	163,856	0,077	-0,079
-473,503	-13,610	0,038	-0,018
-472,489	-189,149	0,183	-0,002
-471,474	408,466	0,052	0,081
-470,459	-200,000	-0,021	0,077
-469,445	-200,000	0,011	-0,049
-468,430	186,973	-0,070	-0,076
-467,416	-83,179	-0,059	-0,014
-466,401	157,082	0,058	-0,058
-465,386	800,000	0,015	-0,039
-464,372	-122,763	-0,080	-0,009
-463,357	-200,000	0,004	-0,028
-462,343	358,218	0,029	-0,042
-461,328	-88,563	-0,021	-0,005
-460,313	114,847	0,090	0,080
-459,299	23,461	0,098	-0,059
-458,284	-200,000	-0,005	0,048
-457,270	-130,425	0,096	0,009
-456,255	-15,798	-0,155	-0,072
-455,241	-200,000	-0,001	-0,029
-454,226	19,652	0,025	-0,015
-453,211	-45,373	0,055	-0,020
-452,197	-92,872	0,024	0,005
-451,182	127,439	-0,100	-0,093
-450,168	111,295	0,033	0,029
-449,153	-200,000	0,003	-0,023
-448,138	800,000	0,049	-0,117
-447,124	144,949	-0,113	-0,111
-446,109	-87,638	0,139	0,030
-445,095	4,194	-0,043	0,023
-444,080	-200,000	0,005	0,061
-443,065	297,051	-0,046	-0,061
-442,051	-200,000	-0,008	-0,033
-441,036	20,242	-0,031	-0,018
-440,022	406,491	-0,028	-0,044
-439,007	156,138	0,057	-0,058
-437,992	374,771	0,006	0,009
-436,978	-95,652	-0,096	-0,018
-435,963	-118,819	-0,086	-0,011
-434,949	47,898	-0,094	-0,064
-433,934	800,000	-0,062	-0,128
-432,919	-200,000	-0,011	-0,056
-431,905	-200,000	-0,003	0,041
-430,890	-15,589	0,080	-0,037
-429,876	-200,000	-0,012	-0,071
-428,861	69,583	0,094	0,070
-427,846	-200,000	0,003	0,112
-426,832	-200,000	-0,011	0,042
-425,817	49,527	-0,023	0,016
-424,803	41,454	-0,023	0,015
-423,788	9,286	0,081	0,045
-422,773	-200,000	-0,011	0,108
-421,759	1,750	0,103	0,054
-420,744	800,000	0,021	-0,060
-419,730	28,731	-0,094	-0,058
-418,715	800,000	-0,023	0,056
-417,701	359,937	0,036	-0,053
-416,686	-200,000	-0,029	0,105
-415,671	-200,000	0,010	-0,035
-414,657	-6,043	0,103	0,051
-413,642	278,080	0,060	-0,078
-412,628	189,014	-0,057	-0,062
-411,613	332,360	-0,040	0,056
-410,598	-145,491	0,068	0,004
-409,584	281,048	-0,116	-0,151
-408,569	800,000	0,057	-0,120
-407,555	800,000	0,017	-0,052
-406,540	-200,000	-0,036	-0,139
-405,525	44,270	-0,061	-0,041
-404,511	-88,052	0,121	-0,026
-403,496	-139,290	-0,084	-0,007
-402,482	182,579	0,054	-0,058
-401,467	192,656	-0,118	-0,130
-400,452	55,906	0,116	0,082
-399,438	800,000	-0,056	0,145
-398,423	1,892	-0,085	-0,044
-397,409	492,057	0,049	0,082
-396,394	234,728	0,111	-0,134
-395,379	234,656	-0,059	-0,071
-394,365	-200,000	-0,016	-0,161
-393,350	-97,395	0,157	0,029
-392,336	395,956	0,121	0,184
-391,321	-200,000	-0,008	-0,106
-390,306	-142,682	-0,260	0,018
-389,292	93,105	-0,087	-0,072
-388,277	-30,359	-0,045	0,019
-387,263	-200,000	0,021	-0,138
-386,248	-114,195	-0,050	0,007
-385,233	407,484	-0,067	0,104
-384,219	-102,894	-0,119	-0,020
-383,204	-100,913	0,184	-0,033
-382,190	-200,000	0,026	-0,106
-381,175	371,218	-0,024	0,036
-380,160	-10,168	0,081	0,039
-379,146	255,953	0,033	0,041
-378,131	156,209	-0,036	-0,037
-377,117	800,000	0,009	0,028
-376,102	34,213	0,010	0,007
-375,088	-200,000	-0,004	-0,122
-374,073	800,000	0,051	0,158
-373,058	255,515	-0,026	0,033
-372,044	-47,113	0,096	-0,034
-371,029	-200,000	-0,028	0,107
-370,015	-170,644	-0,038	0,001
-369,000	800,000	-0,039	-0,126
-367,985	800,000	-0,046	-0,095
-366,971	-43,926	0,063	0,023
-365,956	-106,847	0,051	0,008
-364,942	-11,496	0,076	-0,036
-363,927	-53,492	0,112	-0,037
-362,912	-16,058	-0,144	0,066
-361,898	-200,000	0,019	0,156
-360,883	362,875	0,086	0,126
-359,869	-105,068	-0,064	0,011
-358,854	108,071	-0,070	-0,060
-357,839	39,426	0,099	0,064
-356,825	40,131	0,225	0,147
-355,810	380,078	0,032	0,047
-354,796	72,181	0,094	0,071
-353,781	125,616	-0,035	-0,032
-352,766	-200,000	0,030	-0,170
-351,752	800,000	0,043	0,117
-350,737	-35,219	-0,041	0,016
-349,723	-4,229	0,119	-0,060
-348,708	800,000	0,037	0,076
-347,693	-200,000	0,003	-0,029
-346,679	-200,000	0,016	0,139
-345,664	42,970	0,133	0,088
-344,650	-0,435	-0,056	0,029
-343,635	-100,739	0,066	0,012
-342,620	411,070	0,026	-0,040
-341,606	800,000	-0,029	0,073
-340,591	-200,000	-0,025	0,141
-339,577	254,409	-0,072	-0,090
-338,562	800,000	-0,021	0,047
-337,548	470,358	0,061	-0,100
-336,533	-15,241	0,078	0,036
-335,518	-101,765	0,074	0,013
-334,504	453,659	0,057	-0,091
-333,489	468,749	-0,024	-0,040
-332,475	800,000	-0,024	0,064
-331,460	23,125	0,089	0,053
-330,445	-40,346	0,121	0,046
-329,431	215,096	-0,045	-0,052
-328,416	-153,075	0,120	0,006
-327,402	-103,555	0,030	0,005
-326,387	-18,192	0,062	0,028
-325,372	135,809	0,039	-0,037
-324,358	-200,000	0,034	0,216
-323,343	12,553	-0,050	0,028
-322,329	-200,000	0,001	0,061
-321,314	-200,000	0,050	0,176
-320,299	-200,000	0,021	0,071
-319,285	218,836	-0,033	0,039
-318,270	-171,564	-0,070	-0,002
-317,256	-115,441	-0,069	-0,009
-316,241	480,062	-0,064	0,105
-315,226	-200,000	0,017	0,112
-314,212	543,024	0,039	0,068
-313,197	-135,863	-0,087	0,007
-312,183	-81,197	-0,093	-0,022
-311,168	276,635	0,027	-0,035
-310,153	-128,782	-0,124	0,012
-309,139	476,656	0,065	-0,107
-308,124	-175,575	0,144	0,003
-307,110	114,951	-0,055	-0,049
-306,095	64,852	0,075	0,055
-305,080	116,070	-0,085	-0,076
-304,066	-40,445	0,084	-0,032
-303,051	800,000	0,002	0,005
-302,037	-18,991	0,152	-0,068
-301,022	129,445	-0,068	0,063
-300,008	-200,000	0,004	0,019
-298,993	163,224	0,059	0,060
-297,978	36,701	-0,135	-0,086
-296,964	-151,017	0,091	-0,005
-295,949	-200,000	-0,026	-0,098
-294,935	14,351	0,142	-0,080
-293,920	-200,000	0,042	-0,206
-292,905	-200,000	0,029	-0,099
-291,891	153,812	0,115	0,115
-290,876	680,866	-0,062	-0,118
-289,862	-148,794	-0,087	0,005
-288,847	114,742	-0,017	0,015
-287,832	-200,000	0,008	-0,074
-286,818	-30,356	-0,010	-0,004
-285,803	-119,456	0,067	-0,008
-284,789	-114,894	-0,084	0,011
-283,774	89,831	0,047	0,038
-282,759	-62,609	-0,068	0,020
-281,745	66,625	0,049	-0,036
-280,730	-200,000	-0,028	-0,112
-279,716	-200,000	-0,009	-0,184
-278,701	-29,892	0,050	-0,021
-277,686	101,408	-0,085	-0,072
-276,672	-79,342	0,114	-0,028
-275,657	-41,101	0,085	-0,032
-274,643	-28,683	-0,108	0,045
-273,628	800,000	0,040	0,120
-272,613	611,934	0,054	0,098
-271,599	290,311	-0,053	0,070
-270,584	247,505	0,027	-0,033
-269,570	417,153	-0,018	0,028
-268,555	-155,379	-0,083	-0,004
-267,540	-112,793	0,032	0,005
-266,526	774,263	-0,036	0,072
-265,511	-200,000	0,036	0,121
-264,497	36,239	0,067	0,043
-263,482	-200,000	0,017	-0,098
-262,467	-200,000	-0,016	0,052
-261,453	-29,480	0,040	-0,017
-260,438	-16,045	-0,073	0,034
-259,424	96,083	-0,077	0,064
-258,409	-157,388	-0,067	0,003
-257,395	368,974	0,098	0,144
-256,380	120,884	-0,059	-0,053
-255,365	55,235	0,122	0,085
-254,351	-200,000	-0,011	0,043
-253,336	800,000	-0,047	0,128
-252,322	-200,000	0,004	0,151
-251,307	-200,000	0,018	0,074
-250,292	150,354	0,077	0,076
-249,278	215,157	0,068	0,079
-248,263	800,000	-0,043	0,111
-247,249	-160,668	-0,096	0,004
-246,234	113,539	-0,057	-0,050
-245,219	-200,000	-0,092	0,000
-244,205	93,794	0,050	0,041
-243,190	-200,000	0,029	0,209
-242,176	800,000	0,059	0,156
-241,161	-200,000	0,004	0,082
-240,146	9,960	0,097	0,053
-239,132	-200,000	0,027	-0,088
-238,117	12,013	-0,094	0,052
-237,103	80,435	0,136	-0,106
-236,088	167,426	0,007	0,007
-235,073	-22,764	-0,043	0,019
-234,059	-200,000	0,016	0,135
-233,044	542,734	0,032	-0,055
-232,030	-200,000	-0,011	0,077
-231,015	145,302	0,073	0,071
-230,000	478,510	0,045	0,075
-228,986	353,936	0,092	-0,133
-227,971	774,862	-0,041	-0,080
-226,957	-200,000	0,014	0,135
-225,942	65,330	-0,094	0,069
-224,927	39,356	0,154	0,099
-223,913	-16,984	-0,120	-0,054
-222,898	-96,979	-0,039	-0,007
-221,884	42,380	-0,081	-0,053
-220,869	800,000	-0,029	-0,058
-219,855	-95,595	0,110	-0,021
-218,840	-200,000	-0,010	0,120
-217,825	-41,408	0,028	0,010
-216,811	242,278	-0,071	-0,086
-215,796	-200,000	-0,034	0,119
-214,782	800,000	-0,014	0,039
-213,767	639,777	0,047	0,087
-212,752	-55,204	-0,065	0,021
-211,738	-162,691	0,111	0,004
-210,723	-200,000	-0,013	0,070
-209,709	-48,308	0,038	-0,013
-208,694	-200,000	-0,005	-0,049
-207,679	156,023	-0,087	-0,087
-206,665	-200,000	-0,033	0,126
-205,650	-200,000	0,006	-0,043
-204,636	-9,653	0,081	-0,039
-203,621	174,643	0,063	0,066
-202,606	-200,000	0,041	-0,148
-201,592	800,000	0,079	-0,163
-200,577	800,000	0,005	0,013
-199,563	800,000	0,034	0,109
-198,548	267,477	-0,074	0,094
-197,533	539,199	-0,060	0,103
-196,519	98,329	-0,041	-0,034
-195,504	-21,824	-0,080	0,035
-194,490	800,000	0,020	-0,051
-193,475	176,383	-0,035	-0,037
-192,460	-200,000	-0,023	0,113
-191,446	-200,000	-0,013	0,115
-190,431	800,000	0,072	0,161
-189,417	249,472	0,084	0,103
-188,402	19,600	-0,088	-0,051
-187,387	-71,237	-0,076	0,020
-186,373	800,000	0,077	-0,169
-185,358	180,813	0,021	0,022
-184,344	120,629	-0,061	0,055
-183,329	-90,652	0,246	-0,051
-182,315	800,000	-0,036	-0,091
-181,300	800,000	0,101	-0,219
-180,285	31,181	-0,068	-0,042
-179,271	514,669	-0,013	-0,023
-178,256	109,210	0,044	0,038
-177,242	-86,053	0,210	0,047
-176,227	-193,216	-0,076	-0,000
-175,212	-91,646	-0,109	0,022
-174,198	31,374	0,150	0,093
-173,183	120,840	0,036	0,032
-172,169	-200,000	0,000	-0,061
-171,154	240,187	-0,068	-0,082
-170,139	21,599	-0,093	-0,055
-169,125	-140,193	-0,091	0,007
-168,110	647,760	0,045	0,083
-167,096	415,614	0,054	-0,083
-166,081	64,255	-0,097	-0,070
-165,066	136,121	-0,043	-0,040
-164,052	800,000	-0,039	-0,096
-163,037	212,573	-0,037	-0,043
-162,023	75,182	-0,032	0,024
-161,008	-122,754	-0,079	0,009
-159,993	-104,700	-0,077	0,013
-158,979	-200,000	-0,006	-0,093
-157,964	-5,502	-0,070	-0,035
-156,950	800,000	-0,014	0,043
-155,935	-45,734	0,049	0,017
-154,920	-84,101	-0,033	0,007
-153,906	-139,016	0,056	0,004
-152,891	107,537	0,052	-0,045
-151,877	-149,351	0,012	-0,001
-150,862	-200,000	-0,020	-0,087
-149,847	432,234	0,026	-0,040
-148,833	800,000	0,029	-0,074
-147,818	-200,000	-0,037	0,211
-146,804	-200,000	0,023	-0,085
-145,789	406,474	0,051	0,078
-144,775	-200,000	0,014	0,108
-143,760	254,080	0,014	0,017
-142,745	-200,000	-0,035	-0,164
-141,731	-188,785	-0,181	-0,002
-140,716	-6,312	0,152	0,074
-139,702	-200,000	0,013	0,080
-138,687	9,848	0,065	-0,036
-137,672	-25,143	-0,086	-0,036
-136,658	378,320	-0,018	0,027
-135,643	-200,000	0,014	-0,162
-134,629	100,105	-0,114	-0,095
-133,614	19,931	0,088	-0,051
-132,599	637,254	0,063	0,115
-131,585	315,453	0,030	-0,040
-130,570	800,000	-0,023	0,070
-129,556	-200,000	-0,007	0,035
-128,541	-18,667	0,075	0,034
-127,526	694,886	0,032	-0,061
-126,512	800,000	0,044	0,094
-125,497	-137,257	-0,140	0,011
-124,483	800,000	0,040	-0,126
-123,468	294,425	-0,051	-0,068
-122,453	519,026	-0,057	-0,096
-121,439	164,139	-0,028	0,028
-120,424	31,361	-0,018	0,011
-119,410	-200,000	-0,010	0,124
