DTS Sentinel unit serial number:	SN410029Multiplexer serial number:	ORYXHardware model number:	OX2-SRSoftware version number:	ORYX F/W v4,00 Oryx Data Collector v3.7.2.0data status	okinstallation	B5 Nyhavnadifferential loss correction	single-endedforward channel	channel 2reverse channel	N/Adate	2023/12/13time	06:42:13forward acquisition time	300,00reverse acquisition time	0,00gamma	499,1914k internal	0,3160k external	0,3160temperature offset calibration	1,0000default loss term (dB/km)	0,3820temperature slope calibration	1,0000multiplexer offset coefficient	1,0000multiplexer slope coefficient	1,0000fibre end	0,00T internal ref (°C)	13,75T ext. ref 1 (°C)	-2,73T ext. ref 2 (°C)	-3,05length (m)	temperature (°C)	Stokes	anti-Stokes-744,400	-131,112	0,157	0,015
-743,385	-27,256	-0,347	-0,148
-742,371	-200,000	-0,016	0,149
-741,356	29,920	-0,262	0,164
-740,342	175,119	0,085	0,091
-739,327	-149,880	-0,304	-0,017
-738,312	83,004	0,007	-0,006
-737,298	18,301	-0,252	0,148
-736,283	-126,648	0,107	-0,012
-735,269	-123,254	-0,308	0,036
-734,254	2,595	0,160	0,085
-733,239	-27,394	-0,447	-0,191
-732,225	9,959	0,120	0,067
-731,210	63,288	0,055	-0,040
-730,196	-200,000	0,001	0,065
-729,181	800,000	0,040	-0,115
-728,167	674,379	-0,013	-0,024
-727,152	-200,000	-0,001	-0,155
-726,137	1,918	-0,200	-0,106
-725,123	-122,149	-0,057	0,007
-724,108	363,693	-0,054	0,081
-723,094	606,321	-0,066	-0,122
-722,079	275,424	-0,009	0,012
-721,064	-200,000	0,028	-0,095
-720,050	-60,388	0,058	0,018
-719,035	258,062	-0,083	-0,106
-718,021	-200,000	-0,009	0,049
-717,006	-3,397	-0,206	-0,105
-715,991	-70,812	0,081	0,022
-714,977	-200,000	-0,010	-0,088
-713,962	-200,000	-0,008	0,076
-712,948	-59,164	-0,048	0,015
-711,933	67,200	0,018	-0,013
-710,918	34,837	-0,122	0,079
-709,904	-109,926	-0,109	-0,017
-708,889	-172,346	-0,120	-0,003
-707,875	-6,751	-0,165	-0,082
-706,860	800,000	-0,008	-0,021
-705,845	-154,460	0,145	0,007
-704,831	-200,000	0,018	0,094
-703,816	-200,000	-0,006	-0,037
-702,802	51,656	-0,071	-0,050
-701,787	-65,009	-0,111	0,033
-700,772	-38,001	0,086	0,033
-699,758	21,550	-0,142	0,085
-698,743	800,000	0,028	0,085
-697,729	284,461	0,126	0,167
-696,714	-200,000	-0,003	0,064
-695,699	-200,000	0,013	-0,132
-694,685	41,728	0,110	-0,073
-693,670	-102,737	-0,113	0,020
-692,656	-200,000	-0,031	-0,107
-691,641	122,270	0,067	-0,061
-690,627	179,735	0,127	0,137
-689,612	196,327	0,045	-0,051
-688,597	16,233	-0,056	-0,033
-687,583	-59,716	0,102	-0,032
-686,568	57,826	0,100	-0,072
-685,554	49,696	-0,083	-0,058
-684,539	800,000	0,057	0,131
-683,524	-200,000	-0,004	0,093
-682,510	-200,000	0,001	0,047
-681,495	800,000	0,017	0,049
-680,481	800,000	-0,034	0,103
-679,466	2,082	-0,098	0,052
-678,451	-200,000	-0,007	-0,063
-677,437	-200,000	-0,017	0,090
-676,422	314,198	-0,029	0,040
-675,408	-200,000	-0,001	0,064
-674,393	-155,560	0,096	0,004
-673,378	800,000	0,051	-0,136
-672,364	-62,636	-0,089	0,027
-671,349	-200,000	0,022	0,111
-670,335	800,000	0,043	-0,108
-669,320	325,942	0,025	0,035
-668,305	381,595	-0,020	-0,030
-667,291	106,281	0,007	0,006
-666,276	338,569	-0,017	0,025
-665,262	-200,000	-0,014	-0,076
-664,247	122,249	-0,133	-0,122
-663,232	284,097	-0,057	-0,076
-662,218	-130,666	0,062	0,006
-661,203	-200,000	0,013	-0,079
-660,189	494,715	0,048	-0,082
-659,174	-89,260	0,167	-0,036
-658,159	-179,886	-0,180	-0,003
-657,145	800,000	-0,051	0,124
-656,130	300,531	-0,009	-0,012
-655,116	364,267	0,115	0,170
-654,101	800,000	-0,014	-0,041
-653,086	-103,389	-0,105	-0,018
-652,072	165,542	0,169	0,176
-651,057	398,331	-0,072	-0,111
-650,043	-200,000	-0,012	-0,092
-649,028	-200,000	-0,008	0,030
-648,014	-40,951	0,019	-0,007
-646,999	-126,165	-0,051	0,006
-645,984	-128,823	-0,056	0,006
-644,970	616,242	-0,051	0,094
-643,955	328,005	-0,074	0,105
-642,941	-74,442	0,145	-0,038
-641,926	659,084	0,015	0,029
-640,911	-13,673	-0,025	0,012
-639,897	425,477	-0,055	-0,087
-638,882	-200,000	0,005	-0,152
-637,868	135,001	-0,058	-0,055
-636,853	-93,700	-0,171	0,034
-635,838	-97,310	-0,086	0,016
-634,824	145,733	-0,052	-0,051
-633,809	150,398	0,067	-0,066
-632,795	92,345	-0,039	0,032
-631,780	76,943	0,099	0,077
-630,765	47,920	0,074	0,050
-629,751	-200,000	0,025	0,155
-628,736	200,401	-0,027	-0,031
-627,722	-41,495	0,145	0,055
-626,707	362,801	0,063	0,093
-625,692	140,875	-0,046	0,045
-624,678	-117,880	-0,082	-0,011
-623,663	402,586	0,046	0,072
-622,649	-34,826	-0,107	0,043
-621,634	171,391	0,053	-0,055
-620,619	288,842	-0,055	0,073
-619,605	-75,933	0,048	-0,012
-618,590	70,637	-0,137	0,104
-617,576	-200,000	0,045	0,207
-616,561	-200,000	-0,001	-0,110
-615,546	-104,468	-0,245	-0,041
-614,532	9,800	-0,103	-0,057
-613,517	83,617	-0,032	-0,026
-612,503	-45,768	0,117	-0,042
-611,488	16,678	-0,101	0,058
-610,474	-45,874	-0,075	-0,027
-609,459	360,593	-0,053	0,077
-608,444	208,416	-0,076	0,087
-607,430	-52,555	0,087	-0,029
-606,415	20,439	0,094	-0,055
-605,401	517,154	0,084	-0,144
-604,386	-200,000	0,002	-0,034
-603,371	365,907	0,060	0,089
-602,357	121,265	-0,044	-0,040
-601,342	97,123	-0,028	0,024
-600,328	-27,854	-0,043	0,018
-599,313	-200,000	-0,006	0,055
-598,298	800,000	0,048	0,122
-597,284	-200,000	0,013	0,151
-596,269	-200,000	0,004	-0,034
-595,255	-4,858	0,091	0,046
-594,240	6,633	-0,062	0,034
-593,225	-200,000	-0,007	-0,122
-592,211	329,929	-0,081	-0,115
-591,196	-49,867	-0,046	0,016
-590,182	-55,996	0,103	0,033
-589,167	-57,450	0,074	0,024
-588,152	800,000	0,018	-0,052
-587,138	800,000	-0,030	0,066
-586,123	-200,000	-0,014	0,094
-585,109	143,690	0,063	-0,062
-584,094	-30,109	-0,086	-0,036
-583,079	583,534	-0,043	-0,078
-582,065	800,000	-0,020	0,056
-581,050	236,015	0,007	-0,009
-580,036	-78,662	0,145	-0,036
-579,021	254,963	0,031	0,039
-578,006	-200,000	-0,024	-0,093
-576,992	-200,000	0,027	-0,103
-575,977	800,000	-0,013	0,041
-574,963	123,147	-0,031	0,029
-573,948	-200,000	-0,007	0,034
-572,934	31,978	0,183	-0,115
-571,919	428,496	-0,055	-0,087
-570,904	800,000	0,026	-0,070
-569,890	-200,000	-0,001	-0,022
-568,875	800,000	0,032	0,082
-567,861	155,472	0,021	-0,021
-566,846	-200,000	0,002	0,126
-565,831	-200,000	0,012	-0,082
-564,817	-182,953	0,047	-0,001
-563,802	800,000	-0,003	0,008
-562,788	800,000	0,013	-0,039
-561,773	-200,000	0,024	0,107
-560,758	143,360	0,059	0,058
-559,744	229,406	-0,114	0,136
-558,729	-49,918	0,030	0,010
-557,715	-18,392	-0,097	0,044
-556,700	800,000	-0,040	-0,093
-555,685	-4,522	-0,093	-0,047
-554,671	-200,000	0,004	0,088
-553,656	-190,586	-0,100	0,001
-552,642	800,000	0,058	0,118
-551,627	-67,009	0,085	0,024
-550,612	-132,720	-0,118	0,011
-549,598	248,054	-0,048	-0,059
-548,583	-28,484	-0,020	-0,008
-547,569	-200,000	-0,006	-0,036
-546,554	-200,000	0,002	0,015
-545,539	87,350	0,077	0,062
-544,525	-200,000	0,013	0,119
-543,510	-100,082	-0,161	-0,029
-542,496	545,348	-0,059	-0,103
-541,481	-140,391	-0,058	0,004
-540,466	489,295	0,084	-0,141
-539,452	448,122	0,047	-0,076
-538,437	800,000	-0,032	0,069
-537,423	345,851	-0,037	0,053
-536,408	-78,325	0,090	0,023
-535,393	-120,589	-0,085	-0,010
-534,379	248,504	0,107	-0,132
-533,364	595,166	-0,049	-0,089
-532,350	-200,000	-0,002	-0,070
-531,335	-200,000	-0,023	0,089
-530,321	427,688	-0,058	-0,092
-529,306	-57,828	-0,110	0,035
-528,291	165,874	0,028	0,029
-527,277	-200,000	-0,034	-0,169
-526,262	-84,586	-0,117	0,027
-525,248	422,120	0,039	0,062
-524,233	-200,000	-0,023	0,105
-523,218	61,049	0,114	0,083
-522,204	-35,591	0,092	0,036
-521,189	-45,070	-0,073	-0,026
-520,175	654,930	-0,019	-0,035
-519,160	-200,000	0,016	-0,056
-518,145	149,529	0,064	-0,063
-517,131	-32,256	-0,040	0,016
-516,116	349,144	0,048	0,070
-515,102	88,425	0,119	0,096
-514,087	-200,000	-0,032	0,200
-513,072	-200,000	0,012	-0,128
-512,058	654,524	0,045	-0,084
-511,043	-66,887	-0,077	0,022
-510,029	-98,698	0,113	-0,021
-509,014	49,934	0,052	-0,036
-507,999	80,056	0,044	0,035
-506,985	75,391	-0,012	0,009
-505,970	-28,106	-0,099	-0,042
-504,956	800,000	-0,036	0,082
-503,941	710,586	0,052	0,100
-502,926	177,818	0,079	0,084
-501,912	800,000	-0,017	0,038
-500,897	135,120	0,051	0,048
-499,883	83,941	-0,056	-0,045
-498,868	5,929	0,075	-0,040
-497,853	502,787	-0,089	-0,151
-496,839	-62,773	0,036	0,011
-495,824	30,917	-0,063	0,039
-494,810	-132,712	0,046	-0,004
-493,795	800,000	-0,026	-0,081
-492,781	-62,522	-0,058	-0,017
-491,766	800,000	0,044	-0,133
-490,751	800,000	-0,005	0,013
-489,737	-200,000	-0,022	-0,113
-488,722	-73,618	0,212	0,056
-487,708	5,278	0,083	-0,044
-486,693	-200,000	-0,007	0,047
-485,678	599,752	0,062	0,113
-484,664	-111,156	-0,148	0,022
-483,649	-25,195	0,067	0,029
-482,635	-15,805	0,084	-0,039
-481,620	-200,000	0,010	-0,108
-480,605	367,941	0,074	-0,109
-479,591	-92,526	0,015	-0,003
-478,576	-107,535	-0,046	-0,007
-477,562	800,000	-0,051	-0,160
-476,547	168,231	-0,043	0,045
-475,532	-65,756	0,076	0,022
-474,518	-143,563	0,035	0,002
-473,503	-188,869	-0,119	0,001
-472,489	-200,000	0,001	0,090
-471,474	199,366	0,106	-0,119
-470,459	310,507	-0,033	-0,045
-469,445	-200,000	0,004	-0,013
-468,430	-200,000	0,004	-0,118
-467,416	-200,000	-0,020	0,075
-466,401	-200,000	0,026	0,115
-465,386	71,805	-0,068	0,052
-464,372	182,330	0,025	-0,027
-463,357	218,491	0,049	-0,057
-462,343	-200,000	0,047	-0,260
-461,328	-11,335	-0,070	0,033
-460,313	-24,301	0,098	0,042
-459,299	800,000	0,049	0,120
-458,284	43,607	-0,043	-0,028
-457,270	-200,000	-0,007	-0,121
-456,255	800,000	-0,028	-0,090
-455,241	-200,000	-0,030	-0,212
-454,226	2,193	0,076	0,040
-453,211	741,578	-0,030	-0,059
-452,197	277,894	0,081	-0,106
-451,182	800,000	0,020	0,059
-450,168	-200,000	-0,001	0,086
-449,153	24,318	-0,053	0,032
-448,138	26,495	-0,035	-0,021
-447,124	161,057	-0,030	-0,031
-446,109	158,773	-0,064	-0,064
-445,095	-200,000	0,016	-0,093
-444,080	-200,000	0,014	0,072
-443,065	88,400	-0,057	0,046
-442,051	-112,940	-0,018	-0,003
-441,036	635,954	-0,067	-0,125
-440,022	-47,781	-0,044	0,016
-439,007	0,457	0,077	-0,040
-437,992	71,417	0,064	-0,048
-436,978	-97,449	0,083	-0,016
-435,963	-200,000	0,007	0,200
-434,949	52,714	-0,066	0,046
-433,934	-106,542	-0,012	0,002
-432,919	800,000	-0,034	-0,090
-431,905	379,249	-0,025	-0,037
-430,890	-200,000	-0,025	0,093
-429,876	800,000	0,046	-0,122
-428,861	-200,000	0,026	0,105
-427,846	-200,000	0,014	-0,072
-426,832	421,855	-0,034	-0,053
-425,817	-47,370	-0,116	0,041
-424,803	119,510	0,034	0,031
-423,788	436,803	-0,031	-0,049
-422,773	-81,066	0,143	0,034
-421,759	594,077	-0,011	0,020
-420,744	800,000	-0,036	0,091
-419,730	2,090	-0,094	0,049
-418,715	86,283	-0,039	0,031
-417,701	-137,778	0,095	0,008
-416,686	800,000	-0,054	0,120
-415,671	341,394	0,067	-0,095
-414,657	57,018	0,033	-0,023
-413,642	162,122	0,025	-0,025
-412,628	-145,844	-0,055	-0,004
-411,613	-0,218	0,106	-0,054
-410,598	204,704	-0,028	-0,032
-409,584	121,369	0,105	0,095
-408,569	206,325	0,029	0,033
-407,555	-43,962	0,117	-0,043
-406,540	-200,000	0,002	-0,051
-405,525	262,842	-0,071	0,089
-404,511	444,020	0,057	-0,092
-403,496	148,450	-0,053	0,052
-402,482	24,451	-0,051	-0,030
-401,467	-23,682	0,119	-0,052
-400,452	202,361	-0,025	0,028
-399,438	-144,026	-0,050	0,003
-398,423	-178,199	-0,113	-0,002
-397,409	800,000	-0,018	-0,045
-396,394	-195,523	-0,010	0,000
-395,379	-200,000	0,015	0,111
-394,365	-95,659	-0,085	-0,016
-393,350	-83,143	0,031	0,007
-392,336	-200,000	-0,004	0,037
-391,321	-200,000	-0,017	0,106
-390,306	800,000	-0,016	-0,047
-389,292	-109,709	0,084	-0,013
-388,277	101,540	0,127	-0,108
-387,263	-115,220	0,100	0,014
-386,248	-200,000	0,001	0,211
-385,233	-200,000	0,020	0,128
-384,219	2,081	0,024	0,013
-383,204	-200,000	-0,016	-0,084
-382,190	-200,000	0,005	-0,101
-381,175	244,900	-0,075	0,091
-380,160	530,522	-0,077	0,132
-379,146	-58,612	0,159	0,050
-378,131	340,985	-0,015	0,021
-377,117	-200,000	0,003	-0,025
-376,102	-176,051	-0,089	-0,002
-375,088	-200,000	-0,011	-0,039
-374,073	281,184	-0,046	0,060
-373,058	31,979	0,087	0,054
-372,044	677,455	-0,038	0,072
-371,029	72,653	0,081	-0,062
-370,015	800,000	0,030	0,082
-369,000	-71,277	-0,071	0,019
-367,985	-88,453	0,096	-0,021
-366,971	585,508	-0,082	0,147
-365,956	-143,549	0,023	-0,002
-364,942	28,679	0,085	-0,052
-363,927	800,000	-0,026	0,073
-362,912	142,670	0,096	-0,093
-361,898	198,532	-0,044	-0,049
-360,883	-176,810	0,131	-0,002
-359,869	356,395	-0,047	0,068
-358,854	800,000	0,039	-0,101
-357,839	375,021	-0,050	0,074
-356,825	-157,567	0,064	0,003
-355,810	137,956	-0,066	0,063
-354,796	0,688	-0,089	-0,046
-353,781	-71,652	-0,066	0,018
-352,766	-163,978	0,144	0,005
-351,752	371,458	-0,082	0,121
-350,737	20,831	0,126	0,074
-349,723	150,718	-0,048	0,047
-348,708	-47,450	0,048	-0,017
-347,693	24,319	0,056	-0,034
-346,679	-200,000	0,008	-0,038
-345,664	-200,000	0,040	-0,134
-344,650	800,000	-0,028	-0,081
-343,635	-200,000	0,085	0,000
-342,620	800,000	0,072	0,167
-341,606	105,336	0,034	-0,029
-340,591	800,000	0,027	0,061
-339,577	800,000	-0,013	0,028
-338,562	-57,724	0,022	0,007
-337,548	-200,000	0,001	-0,040
-336,533	32,617	0,149	0,094
-335,518	-4,545	0,168	0,084
-334,504	-25,924	-0,058	0,025
-333,489	-200,000	0,035	0,154
-332,475	97,523	-0,112	0,093
-331,460	81,278	-0,072	0,056
-330,445	98,232	0,164	-0,136
-329,431	-113,151	0,126	0,018
-328,416	800,000	-0,045	-0,109
-327,402	-130,128	-0,076	-0,007
-326,387	-103,366	0,087	-0,015
-325,372	-67,620	-0,127	-0,036
-324,358	-60,498	-0,067	-0,021
-323,343	-200,000	-0,003	-0,052
-322,329	135,059	-0,087	-0,082
-321,314	-3,057	0,058	0,029
-320,299	102,227	-0,086	0,073
-319,285	-59,867	-0,085	-0,026
-318,270	-167,279	0,038	0,001
-317,256	-58,419	-0,128	-0,040
-316,241	407,697	-0,047	-0,072
-315,226	800,000	0,020	0,057
-314,212	-200,000	-0,002	0,049
-313,197	39,154	-0,107	-0,069
-312,183	128,419	-0,090	0,083
-311,168	526,925	-0,032	-0,054
-310,153	-200,000	-0,014	-0,132
-309,139	-32,022	0,066	-0,027
-308,124	-200,000	-0,002	0,040
-307,110	24,681	0,071	0,042
-306,095	800,000	-0,011	0,026
-305,080	-6,101	0,012	-0,006
-304,066	-42,015	-0,046	-0,017
-303,051	-200,000	-0,050	-0,184
-302,037	85,206	-0,040	0,032
-301,022	800,000	-0,028	0,074
-300,008	-200,000	0,023	0,169
-298,993	-13,407	0,070	-0,033
-297,978	-5,178	-0,121	0,060
-296,964	9,699	0,083	-0,045
-295,949	170,661	-0,040	-0,042
-294,935	644,181	-0,057	-0,107
-293,920	-10,628	-0,019	-0,009
-292,905	-45,804	-0,079	-0,028
-291,891	609,360	-0,036	-0,065
-290,876	-116,854	-0,091	-0,012
-289,862	800,000	0,042	-0,123
-288,847	97,839	-0,084	-0,069
-287,832	-200,000	0,003	-0,052
-286,818	-200,000	0,041	-0,152
-285,803	800,000	-0,074	-0,170
-284,789	-200,000	0,006	0,097
-283,774	800,000	0,021	0,059
-282,759	240,881	-0,056	-0,068
-281,745	-43,455	-0,086	0,031
-280,730	352,065	-0,064	-0,092
-279,716	800,000	-0,023	-0,069
-278,701	25,560	0,088	0,053
-277,686	180,153	0,129	0,137
-276,672	800,000	0,053	-0,141
-275,657	-200,000	-0,006	-0,169
-274,643	74,732	-0,097	-0,074
-273,628	-76,651	-0,164	0,041
-272,613	-176,707	0,092	0,002
-271,599	800,000	-0,030	0,065
-270,584	-200,000	0,001	-0,039
-269,570	470,298	0,038	0,062
-268,555	-31,893	-0,102	0,041
-267,540	-120,382	-0,154	-0,019
-266,526	589,725	-0,043	0,077
-265,511	-121,351	0,095	0,011
-264,497	-200,000	-0,009	-0,044
-263,482	462,979	0,008	-0,014
-262,467	237,656	0,034	-0,041
-261,453	263,361	-0,006	0,008
-260,438	268,864	0,032	0,041
-259,424	-200,000	-0,008	-0,069
-258,409	-77,302	-0,085	0,021
-257,395	305,162	0,156	0,210
-256,380	-200,000	0,017	0,057
-255,365	11,472	-0,079	0,044
-254,351	68,399	-0,076	0,057
-253,336	-200,000	-0,035	0,118
-252,322	561,377	0,073	-0,128
-251,307	-58,881	-0,072	0,022
-250,292	-20,912	0,036	-0,016
-249,278	124,316	0,081	0,073
-248,263	38,017	0,021	0,014
-247,249	10,849	0,103	-0,057
-246,234	747,288	-0,033	-0,064
-245,219	24,968	-0,105	-0,063
-244,205	-200,000	0,035	-0,159
-243,190	137,632	0,141	0,133
-242,176	-33,298	0,150	0,060
-241,161	186,552	-0,082	0,088
-240,146	-34,578	0,097	0,038
-239,132	217,908	-0,025	-0,028
-238,117	-127,545	-0,032	0,003
-237,103	800,000	0,055	-0,144
-236,088	-200,000	0,015	-0,056
-235,073	-31,955	0,213	-0,086
-234,059	800,000	0,022	0,044
-233,044	-200,000	0,020	-0,091
-232,030	-25,752	0,062	0,026
-231,015	-200,000	-0,022	0,105
-230,000	64,406	-0,076	-0,055
-228,986	-79,279	-0,162	-0,039
-227,971	-200,000	0,003	0,070
-226,957	-200,000	0,033	-0,108
-225,942	-200,000	0,014	0,058
-224,927	65,499	0,120	0,088
-223,913	-139,906	-0,095	0,007
-222,898	-200,000	0,045	-0,179
-221,884	20,606	0,073	0,042
-220,869	800,000	0,056	-0,144
-219,855	240,956	-0,025	0,030
-218,840	20,009	-0,008	0,005
-217,825	502,036	0,008	-0,014
-216,811	800,000	-0,025	0,073
-215,796	636,297	-0,008	0,015
-214,782	-200,000	-0,006	-0,058
-213,767	-63,601	0,045	0,013
-212,752	173,490	0,025	-0,026
-211,738	-94,258	0,249	-0,049
-210,723	-67,062	-0,081	-0,023
-209,709	622,725	-0,009	-0,016
-208,694	68,338	-0,100	0,074
-207,679	5,704	-0,037	-0,020
-206,665	-122,729	-0,035	-0,004
-205,650	-200,000	-0,034	0,166
-204,636	15,974	0,070	-0,040
-203,621	148,304	0,043	0,042
-202,606	-2,428	-0,078	0,039
-201,592	800,000	-0,038	-0,090
-200,577	41,233	-0,027	0,018
-199,563	169,135	0,064	0,066
-198,548	88,969	0,059	0,047
-197,533	800,000	0,068	0,141
-196,519	289,982	0,047	-0,062
-195,504	-58,069	-0,090	0,028
-194,490	112,923	0,049	0,043
-193,475	-85,816	-0,102	-0,023
-192,460	253,788	0,092	0,114
-191,446	-36,044	-0,016	-0,006
-190,431	-116,856	0,117	-0,015
-189,417	-147,704	-0,099	-0,006
-188,402	-35,028	0,049	-0,019
-187,387	57,497	-0,136	0,096
-186,373	-92,538	-0,059	0,012
-185,358	406,797	-0,019	-0,030
-184,344	-110,176	-0,158	-0,024
-183,329	-40,191	0,152	-0,057
-182,315	736,339	-0,061	0,118
-181,300	-82,904	-0,136	-0,031
-180,285	-200,000	0,018	0,087
-179,271	800,000	0,017	0,047
-178,256	-126,947	0,036	0,004
-177,242	-153,808	0,117	-0,006
-176,227	-200,000	-0,011	0,070
-175,212	-38,822	0,077	0,029
-174,198	-200,000	0,017	-0,131
-173,183	-130,149	-0,053	-0,005
-172,169	58,716	-0,070	-0,050
-171,154	345,174	0,060	-0,086
-170,139	68,390	0,012	0,009
-169,125	-200,000	0,005	-0,028
-168,110	153,411	-0,062	0,061
-167,096	800,000	0,044	0,092
-166,081	90,007	-0,043	-0,035
-165,066	42,730	-0,113	-0,074
-164,052	274,769	0,082	-0,105
-163,037	341,973	0,044	0,062
-162,023	-200,000	0,003	-0,028
-161,008	8,436	-0,109	-0,059
-159,993	298,126	-0,053	0,071
-158,979	99,830	0,062	0,052
-157,964	-105,498	-0,069	-0,011
-156,950	-200,000	0,045	-0,182
-155,935	-200,000	0,000	-0,099
-154,920	36,597	0,035	0,023
-153,906	800,000	0,006	0,015
-152,891	-80,196	-0,066	0,016
-151,877	-120,849	-0,125	-0,015
-150,862	568,097	0,058	0,102
-149,847	800,000	-0,098	-0,197
-148,833	-200,000	-0,016	-0,100
-147,818	0,276	0,148	0,076
-146,804	9,448	0,108	0,059
-145,789	281,309	0,044	-0,056
-144,775	6,586	0,023	-0,012
-143,760	44,075	0,049	-0,032
-142,745	-2,893	-0,138	-0,069
-141,731	-200,000	-0,008	0,124
-140,716	800,000	0,038	-0,079
-139,702	-200,000	-0,014	0,112
-138,687	10,463	0,042	0,023
-137,672	393,490	0,052	0,078
-136,658	28,564	-0,102	-0,062
-135,643	800,000	0,005	-0,016
-134,629	197,102	-0,148	-0,162
-133,614	-200,000	-0,015	0,097
-132,599	-200,000	0,010	0,205
-131,585	800,000	0,076	0,151
-130,570	-200,000	0,084	0,272
-129,556	-151,193	-0,161	0,009
-128,541	-200,000	-0,003	-0,105
-127,526	-200,000	0,018	0,068
-126,512	-200,000	-0,027	0,146
-125,497	-16,729	0,062	0,028
-124,483	-127,476	0,105	-0,011
-123,468	32,967	-0,084	-0,052
-122,453	498,125	0,012	0,021
-121,439	800,000	0,057	0,145
-120,424	-200,000	0,011	0,079
-119,410	-200,000	0,001	0,042
-118,395	222,521	-0,070	0,082
