DTS Sentinel unit serial number:	SN410029Multiplexer serial number:	ORYXHardware model number:	OX2-SRSoftware version number:	ORYX F/W v4,00 Oryx Data Collector v3.7.2.0data status	okinstallation	B5 Nyhavnadifferential loss correction	single-endedforward channel	channel 2reverse channel	N/Adate	2023/12/13time	14:52:13forward acquisition time	300,00reverse acquisition time	0,00gamma	499,1914k internal	0,3160k external	0,3160temperature offset calibration	1,0000default loss term (dB/km)	0,3820temperature slope calibration	1,0000multiplexer offset coefficient	1,0000multiplexer slope coefficient	1,0000fibre end	0,00T internal ref (°C)	15,00T ext. ref 1 (°C)	-1,24T ext. ref 2 (°C)	-1,55length (m)	temperature (°C)	Stokes	anti-Stokes-744,400	708,123	0,037	-0,073
-743,385	66,740	-0,121	0,091
-742,371	800,000	0,054	0,167
-741,356	-65,183	-0,267	0,079
-740,342	160,551	0,136	0,140
-739,327	-153,195	-0,308	0,016
-738,312	-97,275	0,045	0,009
-737,298	-155,833	-0,296	0,014
-736,283	310,731	0,037	0,052
-735,269	-165,699	-0,330	-0,010
-734,254	-10,828	0,035	0,017
-733,239	-78,910	-0,476	-0,118
-732,225	-109,496	0,234	0,036
-731,210	-97,519	-0,113	-0,021
-730,196	-100,477	0,068	0,012
-729,181	-200,000	-0,027	0,190
-728,167	-170,193	-0,158	0,004
-727,152	14,526	0,013	0,007
-726,137	116,546	-0,054	0,049
-725,123	-200,000	0,006	-0,041
-724,108	-135,092	-0,092	-0,008
-723,094	-200,000	-0,004	-0,090
-722,079	-200,000	-0,012	-0,066
-721,064	115,294	0,072	0,065
-720,050	-200,000	0,014	0,091
-719,035	-11,321	-0,130	-0,063
-718,021	-123,740	-0,109	-0,013
-717,006	117,226	0,076	0,069
-715,991	-200,000	0,014	0,080
-714,977	75,035	-0,080	-0,062
-713,962	-63,796	0,065	-0,020
-712,948	-200,000	-0,024	0,105
-711,933	172,173	-0,066	0,070
-710,918	800,000	0,039	-0,095
-709,904	-200,000	0,002	-0,118
-708,889	-193,036	-0,077	0,000
-707,875	237,525	-0,079	-0,096
-706,860	335,811	0,078	0,111
-705,845	-200,000	0,053	0,226
-704,831	-200,000	-0,008	-0,130
-703,816	243,992	-0,028	-0,034
-702,802	115,192	-0,064	-0,058
-701,787	-103,031	-0,151	-0,026
-700,772	800,000	0,031	-0,098
-699,758	-200,000	-0,015	0,125
-698,743	800,000	0,029	-0,091
-697,729	673,769	0,012	-0,023
-696,714	-200,000	0,001	0,083
-695,699	4,618	-0,086	-0,046
-694,685	193,172	-0,060	-0,067
-693,670	155,376	0,109	-0,110
-692,656	701,367	0,022	-0,043
-691,641	163,698	0,033	-0,034
-690,627	373,406	0,089	0,134
-689,612	-11,137	0,068	-0,033
-688,597	800,000	-0,034	-0,093
-687,583	-149,944	0,021	0,001
-686,568	-50,209	-0,079	-0,027
-685,554	-127,361	-0,117	0,012
-684,539	37,225	-0,040	0,026
-683,524	450,635	0,078	0,127
-682,510	-200,000	-0,022	0,115
-681,495	512,505	0,057	0,098
-680,481	-200,000	0,023	-0,077
-679,466	45,548	0,052	0,035
-678,451	800,000	-0,040	-0,082
-677,437	-200,000	-0,002	-0,069
-676,422	110,623	0,087	-0,077
-675,408	-200,000	-0,008	0,075
-674,393	-92,184	0,061	0,013
-673,378	153,314	-0,091	0,092
-672,364	-200,000	0,032	-0,121
-671,349	800,000	-0,029	-0,081
-670,335	-200,000	0,002	-0,080
-669,320	-177,758	-0,095	0,002
-668,305	475,356	-0,055	0,091
-667,291	178,811	-0,056	-0,060
-666,276	-200,000	0,015	-0,048
-665,262	59,967	0,027	0,020
-664,247	-200,000	-0,052	-0,295
-663,232	-200,000	0,009	0,037
-662,218	265,769	0,033	0,043
-661,203	-161,293	-0,049	-0,002
-660,189	-200,000	0,001	-0,099
-659,174	800,000	-0,078	-0,181
-658,159	0,518	-0,112	-0,058
-657,145	134,194	-0,059	-0,056
-656,130	-52,393	-0,122	-0,041
-655,116	476,329	0,065	0,109
-654,101	184,360	0,120	0,131
-653,086	-200,000	0,007	-0,031
-652,072	775,331	-0,066	-0,133
-651,057	-200,000	-0,003	-0,044
-650,043	-200,000	0,018	-0,100
-649,028	524,273	-0,087	-0,151
-648,014	-200,000	-0,000	0,110
-646,999	789,927	-0,045	-0,092
-645,984	252,925	0,046	-0,057
-644,970	293,598	-0,078	0,105
-643,955	800,000	-0,020	-0,052
-642,941	405,130	-0,124	-0,193
-641,926	-61,757	0,012	0,004
-640,911	-150,513	0,099	-0,005
-639,897	800,000	0,074	0,168
-638,882	91,666	0,055	0,046
-637,868	-200,000	0,020	-0,091
-636,853	50,114	-0,071	0,049
-635,838	-78,023	-0,121	-0,030
-634,824	30,198	-0,069	0,043
-633,809	-118,200	0,128	0,016
-632,795	452,870	-0,074	-0,121
-631,780	800,000	-0,020	0,053
-630,765	-200,000	0,016	0,123
-629,751	727,531	-0,054	-0,106
-628,736	359,863	-0,038	-0,057
-627,722	-200,000	0,036	-0,184
-626,707	631,148	0,040	0,075
-625,692	-51,677	-0,045	-0,015
-624,678	800,000	0,032	0,068
-623,663	-200,000	-0,001	-0,081
-622,649	-200,000	-0,012	-0,112
-621,634	-122,743	-0,073	-0,009
-620,619	4,097	-0,063	-0,034
-619,605	208,727	0,096	-0,110
-618,590	111,078	-0,053	0,047
-617,576	104,445	0,143	0,123
-616,561	-163,837	-0,115	-0,004
-615,546	-56,992	-0,054	-0,017
-614,532	262,322	-0,083	0,106
-613,517	247,632	-0,071	-0,088
-612,503	800,000	0,023	-0,050
-611,488	-107,148	-0,039	-0,006
-610,474	169,162	0,055	-0,058
-609,459	-200,000	-0,005	0,093
-608,444	-200,000	-0,038	-0,157
-607,430	-40,228	-0,149	-0,057
-606,415	-200,000	0,046	-0,156
-605,401	-51,829	-0,101	-0,034
-604,386	97,986	-0,035	0,029
-603,371	-112,035	-0,093	0,014
-602,357	-113,692	-0,169	0,024
-601,342	-67,289	-0,056	-0,016
-600,328	-59,541	-0,047	0,015
-599,313	800,000	-0,024	-0,055
-598,298	166,769	0,017	0,017
-597,284	800,000	0,039	0,117
-596,269	800,000	-0,002	-0,005
-595,255	121,781	0,205	-0,188
-594,240	-113,359	-0,065	0,009
-593,225	-200,000	-0,025	-0,108
-592,211	800,000	0,003	0,008
-591,196	291,373	0,111	0,148
-590,182	800,000	-0,009	0,027
-589,167	-131,661	0,198	-0,019
-588,152	-200,000	-0,009	-0,060
-587,138	800,000	-0,056	0,130
-586,123	225,049	-0,050	-0,060
-585,109	-200,000	-0,012	-0,081
-584,094	262,633	-0,015	0,019
-583,079	-65,108	0,101	0,030
-582,065	-200,000	0,001	0,134
-581,050	-200,000	-0,003	-0,030
-580,036	194,897	0,065	-0,072
-579,021	-200,000	0,007	-0,098
-578,006	-200,000	-0,014	-0,073
-576,992	-200,000	0,003	-0,073
-575,977	358,853	0,030	-0,044
-574,963	80,727	0,062	0,049
-573,948	-200,000	-0,013	0,091
-572,934	800,000	0,084	0,183
-571,919	-85,825	-0,088	0,020
-570,904	621,386	-0,080	0,148
-569,890	-144,995	-0,137	0,009
-568,875	17,844	0,046	-0,027
-567,861	7,117	-0,064	-0,035
-566,846	47,269	0,146	-0,099
-565,831	-200,000	-0,018	0,065
-564,817	-16,794	-0,046	-0,021
-563,802	-120,661	-0,132	-0,016
-562,788	-145,256	0,056	0,004
-561,773	-43,306	0,057	-0,021
-560,758	775,049	0,014	-0,029
-559,744	-200,000	0,027	0,097
-558,729	18,866	0,093	-0,054
-557,715	-200,000	0,005	0,021
-556,700	800,000	-0,047	-0,145
-555,685	-200,000	-0,002	-0,041
-554,671	-33,447	-0,060	0,024
-553,656	-200,000	0,011	0,083
-552,642	17,153	-0,079	0,045
-551,627	-200,000	0,002	-0,015
-550,612	387,908	-0,052	-0,079
-549,598	-44,091	0,083	0,030
-548,583	5,367	0,022	-0,012
-547,569	800,000	-0,045	0,098
-546,554	-31,969	-0,058	-0,024
-545,539	-119,696	0,028	-0,003
-544,525	516,069	0,048	0,082
-543,510	-81,891	0,085	-0,020
-542,496	-155,893	-0,079	0,004
-541,481	54,401	0,101	0,071
-540,466	50,317	-0,088	-0,061
-539,452	97,829	-0,114	0,096
-538,437	-200,000	0,004	-0,059
-537,423	-82,302	-0,164	-0,039
-536,408	47,569	-0,061	0,042
-535,393	-200,000	0,044	-0,142
-534,379	-71,209	0,065	-0,018
-533,364	72,390	-0,049	-0,037
-532,350	236,926	0,151	-0,184
-531,335	-200,000	0,004	-0,078
-530,321	800,000	0,030	-0,079
-529,306	-38,935	-0,020	0,008
-528,291	-200,000	0,003	0,012
-527,277	160,834	0,061	-0,062
-526,262	58,600	-0,059	-0,042
-525,248	779,340	0,042	-0,085
-524,233	-114,245	0,084	0,012
-523,218	441,244	0,049	0,079
-522,204	-200,000	-0,012	0,045
-521,189	52,511	0,103	-0,072
-520,175	14,554	-0,038	0,022
-519,160	-50,207	0,054	-0,019
-518,145	-7,685	-0,079	0,039
-517,131	-200,000	-0,035	-0,131
-516,116	324,349	0,024	0,033
-515,102	211,313	0,020	0,023
-514,087	800,000	-0,026	-0,057
-513,072	-157,040	0,099	0,004
-512,058	179,683	0,058	0,062
-511,043	251,663	-0,019	-0,024
-510,029	-200,000	-0,002	0,097
-509,014	279,139	-0,043	-0,056
-507,999	585,326	-0,042	0,075
-506,985	800,000	0,065	-0,169
-505,970	105,787	-0,163	-0,141
-504,956	-200,000	-0,001	-0,070
-503,941	350,712	-0,042	-0,061
-502,926	437,798	-0,081	0,129
-501,912	-200,000	0,002	-0,095
-500,897	-200,000	-0,001	0,123
-499,883	657,743	-0,037	-0,070
-498,868	-67,367	-0,096	0,027
-497,853	-200,000	0,021	-0,070
-496,839	-200,000	0,022	0,150
-495,824	-200,000	-0,019	0,152
-494,810	112,852	0,124	0,110
-493,795	456,678	0,031	-0,051
-492,781	14,988	-0,084	-0,048
-491,766	528,690	0,024	0,042
-490,751	-200,000	-0,012	-0,175
-489,737	44,383	0,125	-0,083
-488,722	-92,331	-0,071	-0,015
-487,708	554,734	-0,032	0,056
-486,693	153,623	0,083	-0,083
-485,678	800,000	-0,013	0,039
-484,664	800,000	-0,024	-0,055
-483,649	210,036	0,043	-0,050
-482,635	800,000	0,041	-0,084
-481,620	-53,640	0,020	0,007
-480,605	800,000	0,033	0,091
-479,591	-100,987	0,104	-0,018
-478,576	128,848	-0,066	0,061
-477,562	-63,176	-0,090	-0,027
-476,547	-200,000	-0,012	-0,181
-475,532	345,454	0,100	0,144
-474,518	-200,000	-0,015	0,118
-473,503	261,339	0,053	0,067
-472,489	214,569	0,032	-0,037
-471,474	194,654	0,105	-0,116
-470,459	143,223	0,019	-0,018
-469,445	-20,277	-0,075	-0,033
-468,430	456,901	0,042	-0,068
-467,416	-4,944	0,050	0,025
-466,401	-42,364	0,053	0,019
-465,386	155,932	-0,050	0,050
-464,372	-118,132	0,086	-0,011
-463,357	-200,000	-0,000	-0,054
-462,343	26,183	-0,179	0,109
-461,328	-73,728	0,027	0,007
-460,313	-78,950	0,067	-0,017
-459,299	-200,000	-0,021	-0,102
-458,284	800,000	-0,010	-0,022
-457,270	800,000	-0,048	0,117
-456,255	290,456	0,029	0,039
-455,241	476,967	-0,003	0,005
-454,226	-173,529	-0,140	-0,003
-453,211	-76,732	-0,022	-0,006
-452,197	43,061	0,058	0,039
-451,182	-200,000	-0,008	0,063
-450,168	-200,000	0,020	0,085
-449,153	148,425	-0,079	-0,077
-448,138	-200,000	-0,010	-0,065
-447,124	-200,000	0,025	-0,117
-446,109	65,944	-0,075	-0,056
-445,095	-200,000	-0,026	-0,087
-444,080	-44,472	0,069	0,025
-443,065	187,340	-0,056	-0,061
-442,051	-200,000	-0,018	0,159
-441,036	-200,000	-0,005	-0,070
-440,022	-200,000	0,003	-0,105
-439,007	320,665	-0,066	-0,092
-437,992	-200,000	-0,008	0,060
-436,978	-39,862	0,064	-0,024
-435,963	-200,000	-0,011	0,095
-434,949	106,204	0,039	-0,033
-433,934	-156,558	-0,066	0,003
-432,919	22,117	0,095	0,056
-431,905	502,111	-0,049	0,083
-430,890	-200,000	-0,006	-0,036
-429,876	-200,000	-0,130	0,000
-428,861	-51,944	0,077	-0,026
-427,846	324,434	-0,029	0,040
-426,832	249,177	-0,048	-0,059
-425,817	54,891	-0,072	0,051
-424,803	-118,170	0,070	0,009
-423,788	-4,112	0,077	0,039
-422,773	-41,545	-0,052	0,019
-421,759	-87,116	0,006	0,001
-420,744	166,059	-0,061	-0,063
-419,730	777,196	0,030	0,060
-418,715	800,000	-0,015	-0,047
-417,701	-51,587	-0,031	0,011
-416,686	373,165	-0,021	0,031
-415,671	54,500	0,090	0,063
-414,657	384,124	-0,058	0,088
-413,642	-48,002	-0,153	0,053
-412,628	-71,510	-0,039	-0,010
-411,613	-200,000	-0,015	0,053
-410,598	-200,000	-0,014	-0,088
-409,584	22,547	0,090	0,053
-408,569	739,168	-0,040	0,079
-407,555	-83,316	-0,069	-0,016
-406,540	-200,000	0,007	0,063
-405,525	191,856	-0,050	-0,055
-404,511	-106,757	-0,099	0,016
-403,496	-200,000	0,003	0,019
-402,482	-200,000	0,005	-0,024
-401,467	-8,497	0,027	0,013
-400,452	-200,000	-0,008	-0,036
-399,438	-90,790	-0,101	-0,021
-398,423	-128,134	-0,026	0,003
-397,409	-50,772	-0,090	-0,030
-396,394	-17,506	0,076	-0,035
-395,379	-200,000	0,020	-0,084
-394,365	-200,000	0,009	0,196
-393,350	221,510	0,043	0,050
-392,336	367,684	0,074	0,110
-391,321	499,018	0,070	-0,118
-390,306	-127,065	0,038	-0,004
-389,292	800,000	0,034	-0,108
-388,277	-44,865	-0,045	-0,016
-387,263	-200,000	-0,028	0,127
-386,248	2,114	-0,051	-0,027
-385,233	143,779	0,032	-0,031
-384,219	193,834	-0,060	-0,066
-383,204	-200,000	0,010	0,100
-382,190	146,458	0,073	0,071
-381,175	-64,344	0,094	0,028
-380,160	-11,475	0,017	0,008
-379,146	-106,351	0,077	-0,012
-378,131	800,000	0,008	0,022
-377,117	800,000	0,029	0,064
-376,102	-160,374	-0,083	-0,003
-375,088	355,606	0,022	0,032
-374,073	-57,463	0,147	-0,047
-373,058	-200,000	-0,014	-0,074
-372,044	-125,873	0,115	-0,012
-371,029	47,904	0,053	0,036
-370,015	-200,000	0,015	0,093
-369,000	-200,000	-0,022	0,075
-367,985	435,159	-0,007	0,012
-366,971	88,638	0,059	0,048
-365,956	38,344	0,033	-0,021
-364,942	800,000	0,034	-0,083
-363,927	-200,000	0,002	-0,025
-362,912	-200,000	-0,000	0,087
-361,898	800,000	0,045	0,106
-360,883	42,810	-0,083	0,055
-359,869	27,664	0,143	0,087
-358,854	-70,251	0,041	-0,011
-357,839	480,556	0,029	-0,048
-356,825	201,522	-0,064	0,071
-355,810	-200,000	0,018	-0,130
-354,796	-117,319	-0,141	-0,018
-353,781	-50,051	-0,094	-0,032
-352,766	800,000	0,016	-0,052
-351,752	424,743	0,038	-0,059
-350,737	-63,172	-0,070	0,021
-349,723	109,992	-0,025	-0,022
-348,708	-200,000	0,052	0,168
-347,693	-129,243	0,062	0,006
-346,679	221,386	-0,101	-0,118
-345,664	-39,237	0,172	0,065
-344,650	800,000	0,007	-0,021
-343,635	-200,000	-0,011	0,038
-342,620	-78,051	0,067	0,017
-341,606	-200,000	0,007	0,153
-340,591	800,000	0,026	0,060
-339,577	-200,000	0,034	-0,136
-338,562	47,200	-0,117	-0,079
-337,548	183,382	-0,060	0,064
-336,533	479,396	-0,011	-0,018
-335,518	-99,884	0,181	-0,032
-334,504	800,000	-0,024	-0,053
-333,489	-53,458	-0,253	-0,083
-332,475	-200,000	0,003	-0,058
-331,460	19,023	-0,133	-0,077
-330,445	-166,783	0,099	-0,003
-329,431	800,000	0,029	-0,061
-328,416	30,305	0,051	0,032
-327,402	-200,000	-0,013	0,050
-326,387	71,306	-0,088	0,066
-325,372	800,000	0,030	-0,075
-324,358	800,000	-0,042	-0,120
-323,343	-46,846	-0,108	-0,038
-322,329	-112,555	-0,069	0,010
-321,314	33,354	-0,105	-0,066
-320,299	-75,834	0,157	-0,040
-319,285	-125,982	0,072	0,008
-318,270	-200,000	0,013	0,073
-317,256	-106,763	-0,137	-0,022
-316,241	26,720	0,121	-0,073
-315,226	72,007	0,059	0,044
-314,212	-200,000	-0,020	-0,066
-313,197	755,425	-0,033	0,066
-312,183	-116,015	-0,068	0,009
-311,168	10,031	-0,095	0,052
-310,153	-1,221	0,041	-0,021
-309,139	-200,000	0,004	-0,105
-308,124	-168,341	0,119	0,003
-307,110	-65,524	-0,118	-0,034
-306,095	-200,000	-0,027	-0,129
-305,080	257,051	-0,106	0,132
-304,066	800,000	-0,016	-0,041
-303,051	344,036	-0,039	0,055
-302,037	-87,673	-0,095	-0,020
-301,022	322,613	0,046	-0,064
-300,008	-200,000	-0,006	0,083
-298,993	-137,064	0,058	0,005
-297,978	-200,000	-0,027	0,130
-296,964	-89,690	0,026	-0,005
-295,949	800,000	-0,020	-0,062
-294,935	142,331	-0,097	-0,093
-293,920	78,892	-0,030	-0,023
-292,905	-122,453	0,139	0,016
-291,891	-59,886	0,078	0,024
-290,876	-200,000	-0,016	0,139
-289,862	-200,000	-0,002	-0,030
-288,847	-51,554	-0,178	0,060
-287,832	-200,000	-0,013	0,076
-286,818	20,813	0,049	0,029
-285,803	800,000	-0,025	0,069
-284,789	-200,000	0,009	-0,098
-283,774	-200,000	0,004	-0,108
-282,759	-200,000	-0,016	0,093
-281,745	-32,129	-0,041	0,017
-280,730	-200,000	-0,002	-0,031
-279,716	260,411	0,101	-0,127
-278,701	409,229	0,068	0,105
-277,686	408,603	0,065	0,100
-276,672	-157,997	-0,182	0,008
-275,657	534,444	-0,050	-0,086
-274,643	92,109	-0,072	0,058
-273,628	800,000	0,029	-0,068
-272,613	475,993	0,052	0,085
-271,599	-94,084	0,094	-0,018
-270,584	414,723	-0,046	0,071
-269,570	173,040	0,010	0,011
-268,555	27,063	0,116	-0,070
-267,540	-96,297	0,082	-0,016
-266,526	-117,901	-0,135	-0,017
-265,511	-12,605	-0,090	-0,042
-264,497	25,962	-0,073	0,044
-263,482	-200,000	-0,013	-0,053
-262,467	186,783	-0,013	0,014
-261,453	-151,609	0,132	0,007
-260,438	800,000	-0,037	0,090
-259,424	31,299	-0,057	-0,036
-258,409	0,478	0,069	-0,036
-257,395	-124,202	0,027	0,003
-256,380	768,421	0,095	0,188
-255,365	800,000	0,025	0,067
-254,351	-200,000	0,019	0,110
-253,336	-200,000	0,082	0,000
-252,322	143,568	0,024	-0,024
-251,307	648,119	-0,025	0,045
-250,292	-200,000	-0,016	-0,064
-249,278	-152,797	0,045	-0,002
-248,263	-67,441	0,039	0,011
-247,249	-200,000	-0,017	0,070
-246,234	-156,062	0,086	0,004
-245,219	36,469	-0,071	-0,045
-244,205	-200,000	-0,008	0,107
-243,190	-53,863	0,173	-0,057
-242,176	-200,000	0,008	-0,040
-241,161	11,245	-0,017	0,010
-240,146	-200,000	0,027	-0,116
-239,132	124,526	0,063	0,057
-238,117	101,894	-0,054	0,045
-237,103	-200,000	-0,024	0,195
-236,088	15,232	-0,054	-0,030
-235,073	654,609	-0,030	0,056
-234,059	-200,000	0,005	-0,040
-233,044	-170,230	0,125	-0,003
-232,030	-200,000	-0,020	0,084
-231,015	800,000	-0,049	-0,114
-230,000	-200,000	-0,023	-0,151
-228,986	-200,000	0,018	0,092
-227,971	800,000	0,017	-0,039
-226,957	-45,892	0,139	0,049
-225,942	93,809	0,064	-0,053
-224,927	-36,744	-0,214	0,083
-223,913	-80,817	0,082	-0,019
-222,898	-200,000	0,011	0,042
-221,884	-200,000	-0,012	-0,090
-220,869	800,000	0,046	0,096
-219,855	-122,791	0,074	0,008
-218,840	41,998	-0,079	0,052
-217,825	-200,000	0,032	0,171
-216,811	-200,000	0,002	-0,109
-215,796	800,000	-0,063	-0,165
-214,782	201,881	0,048	0,053
-213,767	-58,433	-0,100	0,031
-212,752	-125,744	0,080	0,009
-211,738	306,277	-0,026	0,035
-210,723	477,881	-0,029	0,047
-209,709	215,796	0,014	0,016
-208,694	117,812	0,101	-0,090
-207,679	747,797	-0,027	-0,054
-206,665	-200,000	0,011	-0,052
-205,650	-129,788	0,054	0,005
-204,636	6,487	0,103	-0,055
-203,621	57,503	0,072	0,051
-202,606	-176,973	0,226	0,004
-201,592	-200,000	0,001	0,270
-200,577	-150,089	-0,092	0,005
-199,563	249,271	0,070	-0,085
-198,548	34,737	0,090	-0,057
-197,533	800,000	0,061	0,178
-196,519	40,805	-0,019	0,013
-195,504	-200,000	0,001	0,058
-194,490	-200,000	-0,019	-0,193
-193,475	-194,686	0,087	-0,000
-192,460	169,118	-0,010	-0,011
-191,446	-120,073	0,052	-0,006
-190,431	800,000	-0,032	0,096
-189,417	800,000	0,011	-0,030
-188,402	-87,509	-0,057	-0,012
-187,387	-28,916	-0,108	-0,044
-186,373	-4,489	0,099	0,049
-185,358	-200,000	0,041	0,173
-184,344	133,830	0,117	-0,109
-183,329	-200,000	-0,002	0,034
-182,315	800,000	-0,012	0,035
-181,300	260,609	-0,069	-0,086
-180,285	70,625	0,049	0,036
-179,271	800,000	-0,022	-0,067
-178,256	69,233	-0,046	-0,034
-177,242	-129,408	0,053	0,005
-176,227	-62,351	-0,069	0,020
-175,212	590,532	0,041	-0,074
-174,198	124,823	-0,049	-0,045
-173,183	507,858	0,009	-0,016
-172,169	-104,933	-0,117	-0,019
-171,154	382,231	0,048	0,071
-170,139	-160,000	0,106	-0,004
-169,125	191,866	0,016	-0,017
-168,110	30,016	0,062	0,038
-167,096	-200,000	0,011	-0,062
-166,081	-200,000	0,038	0,156
-165,066	315,248	-0,121	0,165
-164,052	46,454	-0,094	-0,063
-163,037	-60,909	-0,091	0,027
-162,023	30,798	0,084	0,052
-161,008	-89,173	-0,109	0,023
-159,993	-123,154	0,051	-0,006
-158,979	68,639	0,036	0,027
-157,964	-200,000	0,004	-0,050
-156,950	-200,000	0,010	0,135
-155,935	8,237	0,149	0,080
-154,920	4,248	-0,168	0,088
-153,906	35,946	0,040	-0,025
-152,891	155,720	0,089	0,088
-151,877	-200,000	-0,003	0,029
-150,862	-200,000	0,027	-0,092
-149,847	-200,000	0,002	0,096
-148,833	800,000	-0,029	0,063
-147,818	11,363	-0,015	0,008
-146,804	-61,824	0,085	0,025
-145,789	26,304	0,012	-0,007
-144,775	-161,275	0,093	-0,003
-143,760	-171,659	-0,173	0,004
-142,745	-200,000	-0,018	-0,063
-141,731	240,961	-0,072	-0,087
-140,716	44,169	0,147	0,097
-139,702	440,119	-0,071	0,112
-138,687	800,000	-0,061	-0,140
-137,672	661,477	0,073	0,135
-136,658	-2,755	0,051	0,025
-135,643	-5,927	-0,150	0,074
-134,629	-200,000	-0,017	-0,073
-133,614	6,953	-0,139	-0,074
-132,599	162,827	0,016	-0,017
-131,585	5,155	-0,041	-0,022
-130,570	-200,000	0,021	-0,115
-129,556	-200,000	-0,016	-0,098
-128,541	-200,000	-0,038	-0,123
-127,526	800,000	0,034	0,078
-126,512	618,923	-0,079	0,143
-125,497	-177,364	0,117	-0,002
-124,483	-74,867	-0,071	0,018
-123,468	160,631	0,077	0,077
-122,453	18,474	-0,068	-0,039
-121,439	104,814	0,047	0,040
-120,424	405,178	0,035	-0,053
