DTS Sentinel unit serial number:	SN410029Multiplexer serial number:	ORYXHardware model number:	OX2-SRSoftware version number:	ORYX F/W v4,00 Oryx Data Collector v3.7.2.0data status	okinstallation	B5 Nyhavnadifferential loss correction	single-endedforward channel	channel 2reverse channel	N/Adate	2023/12/13time	04:07:13forward acquisition time	300,00reverse acquisition time	0,00gamma	499,1914k internal	0,3159k external	0,3159temperature offset calibration	1,0000default loss term (dB/km)	0,3820temperature slope calibration	1,0000multiplexer offset coefficient	1,0000multiplexer slope coefficient	1,0000fibre end	0,00T internal ref (°C)	13,94T ext. ref 1 (°C)	-2,43T ext. ref 2 (°C)	-2,74length (m)	temperature (°C)	Stokes	anti-Stokes-744,400	-200,000	0,025	-0,166
-743,385	11,178	-0,199	-0,112
-742,371	-51,789	0,133	0,045
-741,356	-89,341	-0,337	0,073
-740,342	-200,000	0,001	0,013
-739,327	-126,115	-0,364	-0,040
-738,312	7,191	0,133	-0,073
-737,298	31,215	-0,166	0,105
-736,283	18,047	-0,035	0,021
-735,269	-78,984	-0,275	0,068
-734,254	-155,159	0,105	0,005
-733,239	-37,643	-0,472	-0,184
-732,225	75,688	0,181	0,141
-731,210	-200,000	-0,013	0,210
-730,196	-148,046	-0,162	0,010
-729,181	-115,895	-0,123	-0,017
-728,167	53,580	-0,030	0,021
-727,152	-79,254	-0,082	-0,020
-726,137	-37,325	-0,111	0,043
-725,123	122,594	0,060	0,055
-724,108	190,820	0,040	-0,044
-723,094	425,218	0,076	-0,122
-722,079	447,705	-0,042	0,068
-721,064	-123,195	0,081	-0,009
-720,050	14,627	0,038	0,022
-719,035	-35,088	0,062	0,025
-718,021	14,455	-0,065	-0,037
-717,006	-200,000	-0,027	0,147
-715,991	731,748	-0,047	-0,092
-714,977	-7,005	-0,076	-0,038
-713,962	-200,000	-0,013	-0,050
-712,948	-3,323	-0,051	-0,026
-711,933	800,000	0,028	-0,073
-710,918	-200,000	0,001	-0,023
-709,904	-200,000	-0,042	-0,171
-708,889	-107,698	-0,068	0,011
-707,875	-25,662	-0,084	-0,036
-706,860	-67,923	0,087	-0,025
-705,845	-200,000	0,017	0,125
-704,831	-14,981	0,033	-0,016
-703,816	18,188	-0,200	-0,117
-702,802	-200,000	0,004	-0,058
-701,787	259,082	-0,071	-0,091
-700,772	184,862	-0,062	0,068
-699,758	121,112	0,017	0,015
-698,743	259,310	-0,079	-0,100
-697,729	-200,000	-0,023	0,083
-696,714	-102,549	-0,133	0,023
-695,699	473,283	-0,038	0,063
-694,685	387,991	0,025	-0,039
-693,670	-200,000	-0,013	-0,184
-692,656	-81,761	-0,052	-0,012
-691,641	-74,378	0,101	-0,027
-690,627	189,290	0,043	-0,047
-689,612	-46,060	-0,087	-0,031
-688,597	-124,542	0,202	0,023
-687,583	355,045	-0,141	-0,207
-686,568	-59,229	-0,071	0,022
-685,554	379,553	-0,047	-0,071
-684,539	101,723	0,037	-0,032
-683,524	-2,234	0,049	0,025
-682,510	-129,510	-0,053	0,005
-681,495	800,000	-0,039	0,105
-680,481	800,000	0,003	-0,009
-679,466	-11,612	-0,201	-0,097
-678,451	249,342	0,095	-0,119
-677,437	-200,000	-0,006	-0,064
-676,422	-135,459	0,077	-0,007
-675,408	-72,727	0,012	-0,003
-674,393	-108,231	-0,077	0,012
-673,378	83,865	-0,161	-0,129
-672,364	-200,000	0,003	-0,025
-671,349	-66,850	-0,092	-0,027
-670,335	-112,595	-0,082	-0,012
-669,320	67,149	-0,096	0,072
-668,305	345,095	0,017	-0,024
-667,291	-200,000	0,013	-0,045
-666,276	800,000	-0,013	0,038
-665,262	238,775	-0,126	-0,154
-664,247	778,105	-0,027	-0,055
-663,232	555,898	-0,097	-0,172
-662,218	-200,000	0,034	-0,125
-661,203	17,427	-0,041	0,024
-660,189	-200,000	-0,013	-0,125
-659,174	-111,913	-0,133	-0,020
-658,159	-158,095	-0,078	0,003
-657,145	800,000	-0,051	-0,124
-656,130	-46,620	0,025	0,009
-655,116	-200,000	0,000	-0,070
-654,101	-111,469	-0,005	0,001
-653,086	-128,813	-0,099	-0,010
-652,072	-31,424	-0,150	-0,062
-651,057	-116,830	0,093	0,012
-650,043	-97,562	-0,187	-0,035
-649,028	-25,091	-0,087	0,038
-648,014	-107,545	0,083	-0,013
-646,999	19,770	-0,068	-0,040
-645,984	-200,000	-0,002	-0,078
-644,970	-117,480	-0,114	0,015
-643,955	287,899	-0,102	-0,136
-642,941	376,052	-0,112	-0,168
-641,926	-200,000	0,009	-0,034
-640,911	800,000	0,071	0,147
-639,897	-200,000	-0,005	-0,105
-638,882	226,168	0,105	0,125
-637,868	-123,492	0,025	0,003
-636,853	-200,000	-0,025	-0,105
-635,838	800,000	0,046	-0,105
-634,824	-76,657	-0,101	-0,026
-633,809	459,248	-0,039	-0,064
-632,795	-200,000	0,010	0,042
-631,780	-200,000	-0,007	0,093
-630,765	-200,000	0,006	0,096
-629,751	127,390	-0,098	-0,091
-628,736	-200,000	-0,010	-0,084
-627,722	-200,000	-0,012	0,123
-626,707	-159,986	0,143	0,006
-625,692	-141,234	0,105	0,008
-624,678	79,983	-0,057	-0,045
-623,663	118,631	-0,117	-0,106
-622,649	549,747	-0,060	-0,105
-621,634	-78,204	-0,192	-0,048
-620,619	534,215	0,028	0,048
-619,605	-200,000	0,010	0,056
-618,590	705,959	0,065	0,126
-617,576	223,157	-0,078	0,092
-616,561	-200,000	0,003	0,085
-615,546	-57,980	0,053	-0,017
-614,532	-200,000	-0,018	-0,166
-613,517	147,813	-0,108	-0,107
-612,503	325,542	0,031	0,043
-611,488	-200,000	-0,003	-0,030
-610,474	328,015	0,051	0,072
-609,459	-200,000	-0,007	0,040
-608,444	134,313	0,075	0,071
-607,430	-33,809	-0,192	-0,077
-606,415	184,992	0,041	0,045
-605,401	-200,000	-0,015	0,059
-604,386	197,381	-0,122	0,136
-603,371	82,983	0,134	0,107
-602,357	237,921	-0,073	0,089
-601,342	-200,000	-0,027	0,133
-600,328	800,000	0,028	-0,088
-599,313	339,928	0,061	0,087
-598,298	-12,868	-0,102	0,049
-597,284	271,747	0,061	-0,078
-596,269	469,212	-0,101	0,167
-595,255	-51,624	-0,060	-0,020
-594,240	254,992	-0,072	-0,091
-593,225	658,905	-0,038	-0,072
-592,211	-200,000	-0,045	-0,266
-591,196	393,979	-0,041	-0,063
-590,182	-146,964	-0,072	0,004
-589,167	783,129	0,078	0,157
-588,152	17,650	-0,088	0,051
-587,138	509,133	0,008	-0,013
-586,123	73,148	0,107	0,082
-585,109	-200,000	-0,009	-0,040
-584,094	-164,067	-0,068	0,002
-583,079	16,250	-0,026	-0,015
-582,065	66,967	0,014	0,010
-581,050	-56,785	0,032	-0,010
-580,036	447,745	-0,055	0,089
-579,021	780,695	0,045	-0,091
-578,006	800,000	0,037	-0,114
-576,992	-200,000	-0,002	-0,062
-575,977	76,786	-0,030	-0,024
-574,963	-200,000	0,026	0,107
-573,948	666,420	0,029	-0,054
-572,934	36,500	0,150	-0,097
-571,919	-163,174	0,053	0,002
-570,904	5,042	-0,067	-0,036
-569,890	126,222	0,120	-0,111
-568,875	-30,715	0,072	0,030
-567,861	800,000	-0,100	-0,221
-566,846	259,678	0,022	0,027
-565,831	240,912	-0,040	0,049
-564,817	-39,035	-0,155	-0,059
-563,802	142,340	-0,018	0,018
-562,788	-197,758	0,065	0,000
-561,773	-199,129	-0,084	-0,000
-560,758	113,572	-0,111	-0,098
-559,744	-55,573	-0,066	-0,021
-558,729	212,729	-0,038	0,044
-557,715	49,719	-0,086	0,059
-556,700	-168,073	-0,153	0,004
-555,685	-47,527	-0,035	0,012
-554,671	-125,512	0,162	0,018
-553,656	-200,000	-0,009	0,074
-552,642	-200,000	-0,003	0,166
-551,627	119,669	0,087	0,078
-550,612	800,000	0,052	-0,112
-549,598	370,110	-0,025	0,037
-548,583	-79,790	-0,131	-0,032
-547,569	800,000	-0,017	-0,041
-546,554	778,903	0,056	0,112
-545,539	-163,175	-0,013	0,000
-544,525	-139,719	0,104	-0,008
-543,510	333,192	0,006	-0,008
-542,496	-200,000	-0,009	-0,065
-541,481	-87,593	0,141	0,031
-540,466	-200,000	0,007	-0,089
-539,452	-63,407	-0,035	0,010
-538,437	702,122	-0,072	0,139
-537,423	-19,568	0,193	0,087
-536,408	457,633	0,014	0,023
-535,393	-37,754	0,091	-0,035
-534,379	-102,959	0,049	-0,008
-533,364	-200,000	-0,003	-0,063
-532,350	14,355	0,068	0,038
-531,335	-200,000	0,021	0,150
-530,321	-200,000	-0,015	0,092
-529,306	483,671	-0,023	0,039
-528,291	-5,490	-0,074	0,037
-527,277	236,885	0,052	0,063
-526,262	76,519	-0,060	0,046
-525,248	-66,882	0,116	-0,033
-524,233	425,642	-0,029	0,046
-523,218	-0,670	-0,168	-0,087
-522,204	34,791	0,121	0,077
-521,189	-200,000	-0,014	0,140
-520,175	-200,000	-0,021	-0,099
-519,160	266,116	-0,072	0,092
-518,145	-114,707	-0,100	-0,014
-517,131	-200,000	0,005	0,130
-516,116	799,157	0,069	0,139
-515,102	228,493	-0,048	0,058
-514,087	-200,000	-0,010	-0,102
-513,072	95,579	-0,095	-0,079
-512,058	-112,883	0,034	0,005
-511,043	-200,000	-0,009	0,089
-510,029	-84,814	0,072	-0,016
-509,014	56,310	0,070	-0,050
-507,999	800,000	-0,016	-0,052
-506,985	261,994	0,085	-0,108
-505,970	-40,932	0,136	0,051
-504,956	-200,000	-0,011	-0,039
-503,941	67,091	0,108	0,080
-502,926	-86,893	0,140	-0,031
-501,912	-28,669	-0,073	-0,031
-500,897	766,517	-0,047	-0,095
-499,883	-72,136	0,136	0,037
-498,868	-70,367	-0,038	-0,010
-497,853	-96,680	-0,060	0,011
-496,839	-200,000	-0,026	0,091
-495,824	800,000	-0,042	0,093
-494,810	298,677	-0,060	0,080
-493,795	75,519	-0,039	0,030
-492,781	286,215	-0,049	-0,065
-491,766	-200,000	-0,016	0,053
-490,751	-200,000	-0,022	0,194
-489,737	800,000	-0,048	-0,152
-488,722	-9,105	0,108	0,052
-487,708	58,375	0,071	0,051
-486,693	800,000	0,008	0,019
-485,678	84,840	0,051	0,041
-484,664	-45,464	-0,026	0,010
-483,649	-134,329	-0,065	-0,006
-482,635	30,771	0,057	0,036
-481,620	48,603	0,086	0,058
-480,605	800,000	-0,066	0,190
-479,591	-90,812	0,161	-0,034
-478,576	108,406	0,033	-0,029
-477,562	-200,000	0,026	-0,106
-476,547	73,737	0,165	-0,126
-475,532	-200,000	0,004	0,046
-474,518	800,000	-0,029	-0,080
-473,503	-20,848	0,005	0,002
-472,489	-78,905	0,061	0,015
-471,474	-36,991	-0,087	0,034
-470,459	113,502	-0,075	0,066
-469,445	-200,000	0,018	0,060
-468,430	-47,905	0,078	0,027
-467,416	-63,296	0,110	0,033
-466,401	89,952	0,051	-0,042
-465,386	438,131	0,055	0,088
-464,372	800,000	-0,015	0,042
-463,357	-200,000	-0,048	0,175
-462,343	57,268	-0,075	-0,053
-461,328	-5,874	-0,100	0,050
-460,313	-200,000	0,023	-0,079
-459,299	-200,000	-0,036	-0,127
-458,284	-200,000	-0,019	0,119
-457,270	-200,000	0,005	0,096
-456,255	-200,000	0,002	-0,014
-455,241	341,233	0,047	-0,067
-454,226	79,032	-0,060	-0,047
-453,211	-69,572	-0,064	-0,018
-452,197	3,476	0,075	-0,040
-451,182	355,411	-0,059	-0,086
-450,168	790,913	0,041	-0,082
-449,153	404,771	-0,058	-0,090
-448,138	-200,000	-0,012	-0,065
-447,124	-101,792	-0,041	0,007
-446,109	93,612	-0,033	-0,027
-445,095	-200,000	0,019	0,066
-444,080	-129,058	-0,112	0,011
-443,065	19,111	0,052	0,030
-442,051	-200,000	-0,012	-0,073
-441,036	-97,952	-0,133	0,025
-440,022	102,085	0,007	-0,006
-439,007	-51,170	0,105	0,035
-437,992	533,423	-0,057	0,099
-436,978	-51,639	-0,132	-0,044
-435,963	-116,841	0,030	0,004
-434,949	83,608	0,087	-0,069
-433,934	481,916	-0,006	-0,009
-432,919	-200,000	-0,001	-0,040
-431,905	-84,067	-0,041	0,010
-430,890	800,000	0,047	0,139
-429,876	-134,500	0,075	0,007
-428,861	61,797	-0,078	-0,056
-427,846	-200,000	0,016	0,114
-426,832	800,000	-0,028	0,074
-425,817	-200,000	-0,029	-0,124
-424,803	-200,000	-0,001	0,035
-423,788	88,740	0,052	0,042
-422,773	-47,952	-0,084	0,029
-421,759	595,128	0,011	-0,020
-420,744	-148,820	-0,114	-0,007
-419,730	39,983	-0,141	-0,092
-418,715	-200,000	-0,027	-0,110
-417,701	-200,000	-0,007	0,080
-416,686	-79,392	0,114	0,028
-415,671	-50,040	0,120	-0,041
-414,657	603,051	-0,058	0,104
-413,642	-200,000	0,057	0,248
-412,628	373,837	0,029	0,044
-411,613	89,509	0,017	0,014
-410,598	800,000	-0,019	-0,043
-409,584	156,171	0,077	0,077
-408,569	99,641	0,074	-0,062
-407,555	-21,919	0,064	-0,028
-406,540	-81,405	-0,085	-0,020
-405,525	-187,893	-0,012	0,000
-404,511	800,000	0,032	-0,096
-403,496	-18,502	-0,042	-0,019
-402,482	486,955	-0,064	-0,106
-401,467	-61,226	0,099	-0,030
-400,452	-200,000	-0,014	-0,145
-399,438	-200,000	-0,024	-0,087
-398,423	127,911	-0,051	0,048
-397,409	-200,000	-0,009	0,046
-396,394	-200,000	0,002	-0,045
-395,379	120,061	0,111	0,100
-394,365	25,322	0,092	0,056
-393,350	-200,000	0,016	-0,069
-392,336	209,894	-0,106	-0,121
-391,321	-60,306	-0,151	0,047
-390,306	202,089	-0,054	0,060
-389,292	800,000	0,044	0,099
-388,277	-79,448	0,181	0,044
-387,263	158,973	0,109	0,111
-386,248	-55,508	0,070	0,023
-385,233	516,265	0,034	0,058
-384,219	-41,083	0,054	0,020
-383,204	800,000	-0,016	-0,051
-382,190	-200,000	-0,014	-0,072
-381,175	-200,000	-0,016	-0,103
-380,160	-129,840	0,177	0,017
-379,146	68,664	0,074	-0,055
-378,131	119,838	0,036	-0,032
-377,117	800,000	-0,026	0,056
-376,102	-37,641	0,133	-0,051
-375,088	800,000	-0,040	-0,095
-374,073	466,483	0,024	-0,039
-373,058	800,000	0,005	-0,017
-372,044	87,606	0,046	0,037
-371,029	-200,000	-0,002	-0,089
-370,015	-66,947	-0,094	-0,027
-369,000	-36,495	0,079	0,031
-367,985	-200,000	0,008	-0,113
-366,971	800,000	0,042	-0,086
-365,956	511,856	-0,079	0,134
-364,942	-144,992	-0,027	0,002
-363,927	-200,000	0,027	0,108
-362,912	-200,000	0,005	-0,030
-361,898	-200,000	-0,004	0,057
-360,883	187,490	0,014	0,015
-359,869	40,549	-0,023	-0,015
-358,854	800,000	0,071	-0,146
-357,839	-200,000	0,033	-0,111
-356,825	-21,172	0,054	-0,024
-355,810	-200,000	-0,007	0,048
-354,796	-200,000	-0,039	-0,180
-353,781	-30,020	-0,031	0,013
-352,766	249,737	-0,070	0,086
-351,752	384,327	-0,051	0,076
-350,737	35,820	-0,043	-0,027
-349,723	-81,291	0,091	0,022
-348,708	800,000	-0,049	0,101
-347,693	800,000	0,038	-0,115
-346,679	-121,076	-0,071	-0,009
-345,664	37,841	-0,089	0,057
-344,650	18,527	-0,017	0,010
-343,635	122,630	0,113	-0,103
-342,620	333,124	-0,059	-0,083
-341,606	30,227	0,126	-0,078
-340,591	800,000	0,037	-0,076
-339,577	355,251	-0,031	-0,045
-338,562	-88,408	-0,110	0,024
-337,548	-63,036	-0,024	-0,007
-336,533	-77,771	-0,043	-0,011
-335,518	-200,000	0,016	0,057
-334,504	-41,654	0,146	0,054
-333,489	398,329	0,016	0,025
-332,475	-30,089	-0,112	-0,046
-331,460	-14,365	0,122	-0,057
-330,445	0,089	0,085	0,044
-329,431	318,498	-0,035	0,049
-328,416	-26,542	0,128	0,054
-327,402	-200,000	0,040	0,131
-326,387	-100,914	-0,131	-0,023
-325,372	800,000	0,046	0,100
-324,358	540,599	-0,049	-0,085
-323,343	800,000	-0,054	-0,125
-322,329	-200,000	-0,020	-0,100
-321,314	-200,000	-0,016	0,107
-320,299	-72,342	0,097	0,026
-319,285	-136,461	-0,179	0,015
-318,270	349,794	-0,017	0,025
-317,256	485,562	0,012	-0,020
-316,241	-15,416	0,055	0,025
-315,226	44,927	-0,193	0,128
-314,212	174,590	0,090	0,094
-313,197	-63,785	0,175	0,051
-312,183	-68,308	0,030	-0,008
-311,168	251,746	-0,070	0,086
-310,153	-200,000	-0,012	-0,117
-309,139	327,208	-0,106	-0,148
-308,124	-200,000	0,002	-0,043
-307,110	-200,000	0,017	0,212
-306,095	35,316	0,083	-0,053
-305,080	-1,043	-0,054	0,027
-304,066	-200,000	-0,016	0,070
-303,051	229,287	0,069	-0,082
-302,037	-200,000	-0,015	-0,071
-301,022	455,167	0,092	-0,148
-300,008	800,000	-0,056	0,129
-298,993	49,106	0,068	0,046
-297,978	177,954	-0,004	-0,004
-296,964	206,529	-0,068	-0,076
-295,949	387,224	-0,063	-0,094
-294,935	498,100	0,009	-0,016
-293,920	-114,432	-0,083	-0,011
-292,905	99,494	0,018	-0,015
-291,891	-133,981	0,104	-0,009
-290,876	-158,283	-0,067	0,003
-289,862	274,260	-0,024	-0,031
-288,847	800,000	0,082	-0,182
-287,832	-19,941	-0,124	-0,055
-286,818	-200,000	0,018	0,070
-285,803	-8,674	0,085	0,041
-284,789	320,501	-0,062	-0,085
-283,774	-200,000	0,024	0,201
-282,759	147,447	-0,048	-0,047
-281,745	205,979	-0,026	-0,030
-280,730	-49,780	0,035	0,012
-279,716	59,791	-0,109	-0,078
-278,701	800,000	0,045	0,143
-277,686	-200,000	0,002	0,010
-276,672	447,652	0,090	0,145
-275,657	216,540	0,053	0,061
-274,643	44,346	-0,098	-0,065
-273,628	800,000	0,031	-0,064
-272,613	479,313	-0,057	0,094
-271,599	84,317	0,050	-0,039
-270,584	-200,000	0,008	0,139
-269,570	-118,943	0,062	0,008
-268,555	344,729	-0,064	0,091
-267,540	-200,000	0,022	0,078
-266,526	800,000	-0,034	-0,108
-265,511	-200,000	-0,021	-0,120
-264,497	-23,357	0,175	-0,076
-263,482	-126,638	0,116	-0,012
-262,467	-105,676	-0,137	0,022
-261,453	153,286	-0,087	0,086
-260,438	-163,957	-0,159	0,005
-259,424	800,000	0,035	-0,110
-258,409	-105,861	-0,024	0,004
-257,395	-200,000	0,005	0,137
-256,380	69,125	0,123	0,091
-255,365	-200,000	-0,015	0,085
-254,351	12,904	0,057	0,032
-253,336	-72,330	0,073	-0,019
-252,322	800,000	0,038	-0,111
-251,307	800,000	0,025	0,073
-250,292	-200,000	0,006	-0,082
-249,278	-200,000	-0,010	0,104
-248,263	-200,000	0,000	0,038
-247,249	-200,000	-0,025	0,096
-246,234	-200,000	0,002	0,055
-245,219	-102,319	-0,023	0,004
-244,205	-200,000	-0,005	0,023
-243,190	121,547	-0,051	-0,046
-242,176	-77,782	-0,140	0,035
-241,161	-40,502	0,071	0,027
-240,146	-23,551	0,036	-0,016
-239,132	30,256	-0,062	-0,038
-238,117	20,677	-0,089	0,052
-237,103	45,084	0,126	-0,084
-236,088	425,045	0,038	0,060
-235,073	24,487	0,053	0,031
-234,059	800,000	0,014	-0,028
-233,044	-6,813	-0,050	0,024
-232,030	140,611	0,029	-0,027
-231,015	232,790	0,055	-0,066
-230,000	-72,658	-0,069	0,018
-228,986	-17,031	-0,053	-0,024
-227,971	41,868	-0,038	-0,025
-226,957	800,000	-0,019	0,049
-225,942	-200,000	-0,028	-0,096
-224,927	-80,644	-0,128	0,030
-223,913	800,000	-0,040	-0,112
-222,898	800,000	-0,007	-0,020
-221,884	-200,000	0,006	-0,041
-220,869	33,469	-0,046	-0,029
-219,855	160,876	0,058	-0,058
-218,840	126,185	0,162	-0,148
-217,825	800,000	0,036	-0,081
-216,811	-200,000	-0,021	0,068
-215,796	184,017	0,074	-0,080
-214,782	182,821	-0,095	-0,101
-213,767	262,849	0,004	0,005
-212,752	190,334	-0,070	-0,076
-211,738	-200,000	0,023	0,099
-210,723	735,184	0,029	-0,056
-209,709	-90,826	-0,057	0,012
-208,694	-11,107	-0,115	-0,054
-207,679	89,163	-0,012	0,010
-206,665	-34,933	0,150	0,059
-205,650	4,672	0,078	0,041
-204,636	192,793	0,092	-0,100
-203,621	10,957	0,064	0,035
-202,606	130,280	-0,070	-0,064
-201,592	70,439	0,083	0,062
-200,577	49,868	-0,047	0,032
-199,563	-200,000	-0,003	-0,109
-198,548	-107,921	0,154	0,024
-197,533	-47,461	-0,089	0,031
-196,519	-200,000	0,016	0,103
-195,504	-69,780	0,061	-0,017
-194,490	163,445	-0,080	-0,081
-193,475	156,509	-0,089	0,088
-192,460	800,000	-0,046	-0,113
-191,446	-200,000	0,003	0,158
-190,431	-92,164	-0,027	0,005
-189,417	217,280	0,065	0,074
-188,402	101,680	0,075	-0,063
-187,387	18,633	-0,127	0,073
-186,373	47,494	0,037	-0,025
-185,358	6,806	0,078	0,042
-184,344	-16,421	-0,104	0,047
-183,329	298,809	0,054	0,072
-182,315	-119,908	-0,030	0,004
-181,300	-138,060	-0,039	0,003
-180,285	373,125	-0,098	0,144
-179,271	-200,000	-0,008	-0,063
-178,256	800,000	0,049	0,102
-177,242	47,228	0,008	0,006
-176,227	-200,000	-0,011	0,048
-175,212	800,000	0,022	-0,053
-174,198	40,331	-0,065	-0,042
-173,183	194,973	0,098	-0,108
-172,169	203,122	0,021	-0,024
-171,154	800,000	0,025	-0,069
-170,139	-200,000	0,016	-0,077
-169,125	349,826	0,093	0,132
-168,110	-192,594	0,117	0,001
-167,096	-82,207	-0,143	-0,033
-166,081	-67,257	-0,029	-0,008
-165,066	-200,000	-0,007	-0,163
-164,052	800,000	-0,040	-0,087
-163,037	157,753	-0,084	-0,084
-162,023	800,000	0,053	-0,120
-161,008	-5,547	0,133	-0,065
-159,993	-200,000	0,018	0,063
-158,979	-27,471	-0,063	-0,026
-157,964	5,903	-0,028	0,015
-156,950	-54,428	-0,123	-0,040
-155,935	65,232	0,162	-0,118
-154,920	-17,804	0,053	0,024
-153,906	24,543	-0,098	0,058
-152,891	-200,000	0,015	-0,078
-151,877	-87,679	0,135	-0,029
-150,862	-137,740	-0,124	-0,010
-149,847	43,503	0,039	0,025
-148,833	800,000	-0,017	-0,039
-147,818	280,701	-0,111	-0,143
-146,804	-15,218	-0,027	0,012
-145,789	94,920	-0,059	0,049
-144,775	-124,538	0,104	0,012
-143,760	-200,000	-0,018	-0,076
-142,745	410,226	-0,067	-0,103
-141,731	-200,000	-0,007	0,127
-140,716	800,000	-0,084	-0,197
-139,702	-39,391	0,064	0,024
-138,687	-200,000	0,002	0,015
-137,672	-176,669	-0,156	0,003
-136,658	-151,889	-0,070	0,004
-135,643	182,408	0,043	-0,046
-134,629	-64,896	-0,105	-0,030
-133,614	-162,458	0,056	-0,002
-132,599	719,074	-0,039	-0,075
-131,585	90,228	-0,051	0,041
-130,570	-179,338	0,031	-0,000
-129,556	320,608	-0,026	-0,036
-128,541	2,394	0,041	-0,021
-127,526	-200,000	0,006	-0,024
-126,512	-200,000	0,018	0,104
-125,497	516,488	0,027	0,046
-124,483	100,992	-0,059	0,049
-123,468	677,739	0,046	0,086
-122,453	-81,672	0,058	0,014
-121,439	-200,000	-0,026	-0,098
-120,424	-53,760	-0,116	0,038
