DTS Sentinel unit serial number:	SN410029Multiplexer serial number:	ORYXHardware model number:	OX2-SRSoftware version number:	ORYX F/W v4,00 Oryx Data Collector v3.7.2.0data status	okinstallation	B5 Nyhavnadifferential loss correction	single-endedforward channel	channel 2reverse channel	N/Adate	2023/12/12time	08:27:14forward acquisition time	300,00reverse acquisition time	0,00gamma	499,1914k internal	0,3158k external	0,3158temperature offset calibration	1,0000default loss term (dB/km)	0,3820temperature slope calibration	1,0000multiplexer offset coefficient	1,0000multiplexer slope coefficient	1,0000fibre end	0,00T internal ref (°C)	15,08T ext. ref 1 (°C)	-1,27T ext. ref 2 (°C)	-1,57length (m)	temperature (°C)	Stokes	anti-Stokes-744,400	-88,220	0,119	-0,026
-743,385	50,103	-0,127	-0,088
-742,371	800,000	0,048	0,123
-741,356	-57,811	-0,282	0,090
-740,342	800,000	0,096	0,233
-739,327	67,316	-0,313	0,235
-738,312	800,000	0,011	0,033
-737,298	-109,989	-0,226	0,035
-736,283	702,811	0,040	0,078
-735,269	-96,337	-0,309	-0,060
-734,254	163,420	0,085	0,089
-733,239	-146,594	-0,417	-0,026
-732,225	5,897	0,119	0,065
-731,210	434,936	0,034	-0,055
-730,196	4,655	-0,090	-0,049
-729,181	36,175	0,068	0,044
-728,167	106,664	-0,108	-0,094
-727,152	-112,843	-0,078	-0,011
-726,137	-87,836	-0,137	0,030
-725,123	288,813	0,047	-0,063
-724,108	-200,000	0,002	-0,094
-723,094	373,720	0,033	-0,049
-722,079	5,674	-0,125	-0,068
-721,064	255,993	-0,059	0,075
-720,050	800,000	-0,047	0,133
-719,035	-72,203	0,149	-0,040
-718,021	-200,000	-0,027	-0,140
-717,006	-107,975	-0,255	-0,040
-715,991	123,778	-0,034	0,032
-714,977	77,466	-0,060	0,047
-713,962	25,699	0,060	-0,036
-712,948	-200,000	0,003	-0,042
-711,933	800,000	-0,059	-0,135
-710,918	422,405	-0,035	-0,055
-709,904	-200,000	0,009	-0,250
-708,889	353,586	-0,069	-0,102
-707,875	800,000	-0,022	-0,053
-706,860	-200,000	-0,001	-0,010
-705,845	28,902	0,112	-0,070
-704,831	68,134	0,116	0,087
-703,816	245,705	0,034	-0,042
-702,802	800,000	-0,006	-0,019
-701,787	-200,000	0,009	-0,036
-700,772	107,911	-0,034	-0,030
-699,758	-94,314	-0,109	0,022
-698,743	-66,885	0,146	0,042
-697,729	800,000	-0,016	-0,052
-696,714	-53,822	-0,119	0,040
-695,699	-161,176	-0,097	0,004
-694,685	57,953	-0,103	0,074
-693,670	-200,000	0,017	-0,116
-692,656	-88,368	-0,056	0,012
-691,641	20,752	-0,083	-0,049
-690,627	-102,923	-0,063	0,011
-689,612	153,021	-0,072	-0,073
-688,597	800,000	0,013	-0,039
-687,583	557,836	-0,085	-0,151
-686,568	-107,265	-0,184	0,029
-685,554	-47,722	0,041	-0,015
-684,539	-120,589	0,087	0,011
-683,524	-200,000	0,003	0,050
-682,510	-72,583	0,130	-0,035
-681,495	-92,744	-0,014	0,003
-680,481	143,185	-0,073	0,071
-679,466	71,398	-0,047	-0,036
-678,451	-70,361	-0,081	0,022
-677,437	-124,666	0,063	-0,007
-676,422	213,019	-0,042	0,048
-675,408	72,236	0,108	-0,082
-674,393	-200,000	0,029	0,116
-673,378	630,565	-0,044	-0,083
-672,364	14,197	-0,158	0,090
-671,349	99,755	0,068	-0,058
-670,335	800,000	0,013	0,039
-669,320	-50,611	0,167	0,058
-668,305	489,415	0,045	0,077
-667,291	426,500	0,055	0,087
-666,276	30,369	-0,060	0,038
-665,262	-78,891	0,018	-0,004
-664,247	162,611	-0,089	-0,092
-663,232	800,000	0,024	-0,074
-662,218	130,083	0,067	0,063
-661,203	95,569	0,041	-0,034
-660,189	-200,000	-0,015	-0,097
-659,174	97,436	0,050	-0,042
-658,159	36,929	-0,193	-0,125
-657,145	-56,995	-0,152	-0,049
-656,130	-200,000	0,001	-0,086
-655,116	-184,816	0,003	0,000
-654,101	15,076	-0,111	0,063
-653,086	204,895	0,089	0,102
-652,072	-110,975	-0,059	0,009
-651,057	800,000	0,077	-0,165
-650,043	-78,302	0,122	-0,031
-649,028	-152,143	-0,047	0,002
-648,014	-200,000	-0,008	0,118
-646,999	473,039	-0,069	0,115
-645,984	-126,469	-0,144	-0,016
-644,970	-31,479	0,072	0,030
-643,955	78,862	0,098	-0,077
-642,941	60,653	0,061	0,044
-641,926	362,981	-0,053	0,078
-640,911	45,599	0,063	0,043
-639,897	46,984	0,061	0,042
-638,882	588,768	-0,018	-0,033
-637,868	366,737	0,034	-0,051
-636,853	-152,171	-0,092	0,005
-635,838	75,542	0,118	0,091
-634,824	-200,000	-0,001	-0,098
-633,809	-79,516	-0,042	0,010
-632,795	-200,000	0,010	0,066
-631,780	-200,000	0,006	0,153
-630,765	-127,854	-0,021	-0,002
-629,751	235,324	-0,101	-0,123
-628,736	-158,397	-0,102	0,004
-627,722	-200,000	-0,012	-0,187
-626,707	-113,010	-0,062	-0,009
-625,692	360,205	0,058	-0,086
-624,678	-200,000	-0,047	-0,158
-623,663	183,081	-0,041	-0,045
-622,649	151,772	-0,083	-0,083
-621,634	464,455	0,056	-0,092
-620,619	-200,000	0,011	-0,127
-619,605	-200,000	-0,004	-0,091
-618,590	164,630	0,045	-0,047
-617,576	-145,298	-0,138	0,009
-616,561	-56,280	-0,070	0,023
-615,546	61,357	-0,140	-0,102
-614,532	-20,167	-0,066	-0,030
-613,517	320,586	-0,109	-0,152
-612,503	-79,004	-0,056	0,014
-611,488	201,542	-0,048	-0,054
-610,474	-150,257	-0,077	0,004
-609,459	61,083	-0,114	0,083
-608,444	800,000	-0,036	0,100
-607,430	800,000	-0,049	0,121
-606,415	102,341	0,026	-0,022
-605,401	-77,653	-0,179	0,045
-604,386	800,000	-0,081	0,181
-603,371	346,844	0,038	0,055
-602,357	800,000	-0,050	0,129
-601,342	-200,000	0,016	0,051
-600,328	-154,835	-0,103	-0,005
-599,313	-27,607	-0,070	-0,030
-598,298	530,425	-0,016	0,027
-597,284	-200,000	-0,012	-0,041
-596,269	-57,884	-0,062	0,020
-595,255	-200,000	-0,004	0,121
-594,240	-200,000	0,009	-0,065
-593,225	-153,411	0,036	0,002
-592,211	-14,172	-0,039	-0,018
-591,196	139,398	0,049	-0,047
-590,182	800,000	0,026	-0,055
-589,167	216,861	-0,058	0,068
-588,152	315,485	-0,048	0,066
-587,138	225,924	-0,044	-0,052
-586,123	462,653	0,093	-0,152
-585,109	-94,094	0,039	-0,008
-584,094	1,941	-0,076	-0,040
-583,079	800,000	0,043	0,092
-582,065	732,527	0,073	0,144
-581,050	456,973	0,028	0,046
-580,036	153,566	-0,079	0,079
-579,021	-73,777	-0,098	-0,026
-578,006	53,182	-0,062	-0,044
-576,992	-135,217	0,090	-0,008
-575,977	63,824	0,062	0,046
-574,963	156,833	0,046	0,047
-573,948	-12,637	-0,073	0,035
-572,934	800,000	-0,021	0,044
-571,919	-200,000	0,003	-0,090
-570,904	-136,178	0,161	0,014
-569,890	-200,000	-0,004	0,068
-568,875	259,366	0,103	0,130
-567,861	-94,340	0,133	0,026
-566,846	-146,335	-0,056	0,004
-565,831	800,000	-0,014	-0,036
-564,817	-200,000	-0,013	-0,086
-563,802	800,000	0,012	0,025
-562,788	-200,000	0,008	-0,076
-561,773	-128,854	0,062	0,006
-560,758	463,398	0,034	-0,055
-559,744	92,764	0,090	0,074
-558,729	5,753	-0,081	0,044
-557,715	255,475	-0,051	0,064
-556,700	-166,296	-0,120	0,004
-555,685	217,869	-0,050	-0,058
-554,671	6,009	-0,100	-0,054
-553,656	-72,145	0,100	-0,027
-552,642	231,701	0,118	0,142
-551,627	123,592	-0,070	0,064
-550,612	-142,036	0,127	0,009
-549,598	551,599	-0,040	-0,070
-548,583	-200,000	-0,017	-0,094
-547,569	71,029	0,035	0,027
-546,554	-135,168	-0,115	0,010
-545,539	-200,000	-0,012	0,082
-544,525	-200,000	0,015	0,100
-543,510	112,055	-0,078	0,069
-542,496	-200,000	0,000	0,058
-541,481	800,000	-0,024	-0,057
-540,466	-90,945	-0,027	-0,006
-539,452	-200,000	0,017	0,071
-538,437	648,304	0,015	-0,028
-537,423	21,834	-0,057	-0,034
-536,408	-21,095	0,094	-0,042
-535,393	177,706	0,068	-0,072
-534,379	-91,569	0,053	0,011
-533,364	640,487	-0,048	0,089
-532,350	-200,000	0,002	0,037
-531,335	800,000	0,036	-0,106
-530,321	241,578	0,028	0,035
-529,306	22,176	-0,080	0,048
-528,291	159,515	0,086	0,087
-527,277	-117,650	0,127	0,016
-526,262	46,738	-0,017	0,012
-525,248	-31,428	0,090	0,037
-524,233	687,954	-0,021	-0,040
-523,218	-45,986	-0,045	0,016
-522,204	-200,000	-0,020	-0,087
-521,189	-200,000	-0,022	-0,083
-520,175	55,563	0,154	0,109
-519,160	108,027	-0,097	-0,084
-518,145	104,877	-0,067	-0,058
-517,131	-200,000	0,040	0,133
-516,116	-24,185	-0,098	0,042
-515,102	198,649	0,041	0,046
-514,087	-102,815	0,111	-0,019
-513,072	124,118	-0,068	-0,062
-512,058	-200,000	-0,004	-0,038
-511,043	252,924	-0,033	-0,041
-510,029	74,021	0,178	-0,136
-509,014	-44,406	0,089	-0,033
-507,999	153,449	0,059	0,059
-506,985	757,364	-0,031	0,062
-505,970	577,955	0,015	0,027
-504,956	800,000	0,027	-0,061
-503,941	-73,830	-0,070	0,018
-502,926	-127,268	0,054	0,006
-501,912	577,306	-0,022	0,039
-500,897	-32,618	0,096	-0,039
-499,883	-98,281	-0,156	0,029
-498,868	183,680	-0,030	-0,033
-497,853	-200,000	-0,022	-0,100
-496,839	-200,000	-0,012	-0,123
-495,824	-119,587	-0,041	-0,005
-494,810	127,246	0,114	0,106
-493,795	-200,000	-0,037	0,000
-492,781	111,106	-0,048	0,043
-491,766	-117,730	-0,063	0,008
-490,751	160,487	0,056	-0,057
-489,737	-7,955	0,086	0,042
-488,722	-17,691	0,115	0,052
-487,708	800,000	0,022	0,055
-486,693	-73,411	0,024	-0,006
-485,678	13,623	0,046	-0,026
-484,664	-46,386	-0,042	0,015
-483,649	-200,000	0,003	-0,124
-482,635	695,445	-0,040	-0,077
-481,620	9,593	0,135	-0,075
-480,605	-98,282	0,085	0,016
-479,591	-200,000	-0,001	0,030
-478,576	378,393	0,005	-0,007
-477,562	-97,037	-0,041	-0,008
-476,547	-105,580	0,033	0,005
-475,532	-153,122	0,055	0,003
-474,518	310,215	0,053	0,073
-473,503	-200,000	0,023	0,156
-472,489	-200,000	-0,018	0,080
-471,474	800,000	-0,034	0,069
-470,459	800,000	-0,023	-0,047
-469,445	-131,330	-0,079	0,008
-468,430	13,708	-0,058	-0,033
-467,416	-200,000	0,015	0,049
-466,401	800,000	-0,043	0,124
-465,386	-129,346	-0,149	0,015
-464,372	-178,341	0,138	-0,002
-463,357	-200,000	0,006	-0,079
-462,343	99,124	-0,051	-0,043
-461,328	800,000	0,039	-0,105
-460,313	131,064	0,069	0,065
-459,299	-200,000	-0,007	-0,042
-458,284	104,784	-0,073	-0,063
-457,270	430,676	0,052	0,082
-456,255	-200,000	-0,013	-0,072
-455,241	221,492	-0,030	0,036
-454,226	-51,415	0,136	-0,046
-453,211	755,076	-0,067	0,133
-452,197	-37,233	0,148	0,058
-451,182	6,231	0,082	-0,044
-450,168	-200,000	0,011	0,091
-449,153	-135,429	-0,158	-0,014
-448,138	-200,000	-0,047	-0,170
-447,124	-200,000	0,001	-0,142
-446,109	139,820	0,076	0,073
-445,095	25,344	-0,030	0,018
-444,080	-200,000	0,015	-0,091
-443,065	65,655	0,120	0,089
-442,051	107,662	0,049	0,042
-441,036	-200,000	0,015	-0,072
-440,022	691,945	-0,020	-0,038
-439,007	-200,000	0,016	-0,133
-437,992	656,683	-0,070	-0,131
-436,978	800,000	0,052	0,121
-435,963	-92,692	0,085	0,017
-434,949	-137,040	0,015	0,001
-433,934	164,924	0,031	0,032
-432,919	-32,054	0,050	0,020
-431,905	-200,000	-0,007	-0,107
-430,890	800,000	0,013	0,028
-429,876	241,529	0,055	-0,067
-428,861	232,097	0,105	0,126
-427,846	5,372	-0,067	-0,036
-426,832	-200,000	-0,004	0,014
-425,817	-200,000	-0,038	0,137
-424,803	-35,272	-0,080	0,032
-423,788	-16,960	-0,106	-0,048
-422,773	632,730	0,060	-0,111
-421,759	-21,277	0,083	0,037
-420,744	109,649	0,053	0,046
-419,730	509,632	-0,098	-0,166
-418,715	-117,847	0,037	0,005
-417,701	-66,284	-0,062	0,018
-416,686	-86,779	0,167	0,037
-415,671	-200,000	0,029	-0,142
-414,657	374,939	0,022	0,033
-413,642	307,266	-0,046	-0,063
-412,628	-102,221	0,049	0,008
-411,613	292,114	-0,061	-0,081
-410,598	-200,000	-0,016	-0,062
-409,584	-20,931	0,028	0,012
-408,569	-200,000	0,010	-0,092
-407,555	85,341	0,047	0,037
-406,540	-200,000	0,033	0,121
-405,525	18,911	-0,109	-0,064
-404,511	-27,544	-0,054	0,023
-403,496	-200,000	-0,029	-0,149
-402,482	29,538	0,098	-0,061
-401,467	-200,000	-0,008	0,115
-400,452	293,379	0,093	0,123
-399,438	-200,000	-0,018	0,085
-398,423	118,459	0,048	-0,043
-397,409	800,000	-0,034	-0,088
-396,394	-200,000	-0,012	-0,062
-395,379	800,000	0,034	-0,071
-394,365	-51,059	0,054	0,018
-393,350	254,883	-0,014	-0,018
-392,336	45,706	0,089	-0,059
-391,321	800,000	0,036	-0,082
-390,306	-89,948	-0,067	0,014
-389,292	-200,000	-0,015	-0,061
-388,277	135,887	0,098	-0,093
-387,263	293,903	-0,031	-0,041
-386,248	800,000	0,018	0,052
-385,233	-200,000	0,038	0,176
-384,219	238,189	-0,064	0,077
-383,204	-71,236	-0,014	0,004
-382,190	464,391	-0,077	-0,126
-381,175	-200,000	0,003	-0,178
-380,160	-111,599	-0,097	0,014
-379,146	-200,000	-0,041	0,145
-378,131	-62,765	0,134	-0,040
-377,117	573,025	0,043	-0,077
-376,102	-172,535	-0,074	-0,002
-375,088	-131,281	0,031	-0,003
-374,073	109,205	0,009	-0,008
-373,058	174,641	0,180	0,190
-372,044	466,826	-0,103	0,169
-371,029	-200,000	0,019	0,158
-370,015	-200,000	-0,039	-0,158
-369,000	-103,208	-0,023	0,004
-367,985	188,317	0,056	-0,061
-366,971	-66,184	0,077	0,022
-365,956	-200,000	0,030	0,160
-364,942	-30,297	-0,138	-0,057
-363,927	269,471	-0,039	0,050
-362,912	-200,000	0,007	0,100
-361,898	-129,479	-0,116	0,012
-360,883	-165,133	0,056	-0,002
-359,869	-200,000	-0,006	-0,064
-358,854	128,359	0,034	-0,032
-357,839	528,766	-0,027	-0,047
-356,825	167,798	0,055	-0,057
-355,810	14,263	0,005	-0,003
-354,796	-140,751	-0,150	0,011
-353,781	-44,913	0,145	-0,052
-352,766	-109,563	0,036	0,005
-351,752	-200,000	-0,008	0,148
-350,737	43,003	0,086	-0,057
-349,723	91,702	0,018	0,015
-348,708	800,000	-0,021	-0,068
-347,693	298,150	0,043	-0,057
-346,679	254,535	-0,105	-0,131
-345,664	16,240	-0,025	0,015
-344,650	-141,055	-0,094	0,007
-343,635	-53,524	-0,099	0,033
-342,620	800,000	0,049	0,108
-341,606	-186,276	0,046	-0,000
-340,591	-110,640	0,048	0,007
-339,577	67,885	-0,026	-0,019
-338,562	800,000	0,034	0,077
-337,548	488,357	-0,092	-0,152
-336,533	-1,108	0,106	-0,054
-335,518	-200,000	-0,006	0,021
-334,504	143,001	0,089	0,086
-333,489	191,686	-0,060	0,066
-332,475	-171,697	0,099	-0,002
-331,460	156,682	-0,095	-0,095
-330,445	77,408	-0,089	0,068
-329,431	53,138	0,054	-0,038
-328,416	-11,180	0,088	-0,042
-327,402	-200,000	0,008	-0,061
-326,387	336,151	-0,050	-0,070
-325,372	42,311	-0,153	-0,101
-324,358	12,710	0,018	0,010
-323,343	6,756	-0,138	-0,074
-322,329	-200,000	0,014	-0,092
-321,314	514,403	-0,040	0,068
-320,299	-200,000	0,045	0,194
-319,285	101,985	0,055	-0,046
-318,270	-173,911	-0,064	-0,001
-317,256	330,934	-0,015	-0,021
-316,241	236,682	-0,079	-0,095
-315,226	-131,012	0,054	0,005
-314,212	-200,000	0,009	0,083
-313,197	800,000	0,039	0,109
-312,183	-200,000	-0,033	0,123
-311,168	-200,000	0,006	0,027
-310,153	-106,135	-0,077	0,012
-309,139	88,125	0,091	-0,073
-308,124	142,930	0,137	0,133
-307,110	-200,000	0,012	-0,071
-306,095	-41,452	0,074	0,027
-305,080	-23,299	-0,107	0,046
-304,066	-83,333	-0,082	-0,019
-303,051	-200,000	0,014	-0,050
-302,037	-167,723	-0,053	0,001
-301,022	391,715	0,054	-0,082
-300,008	-200,000	-0,008	-0,045
-298,993	472,213	-0,072	0,118
-297,978	800,000	-0,041	-0,098
-296,964	-200,000	-0,000	0,075
-295,949	800,000	-0,056	-0,131
-294,935	-29,575	-0,041	-0,017
-293,920	-0,939	-0,018	0,009
-292,905	-66,142	-0,042	0,012
-291,891	-160,238	-0,030	0,001
-290,876	800,000	-0,006	0,019
-289,862	-200,000	0,000	-0,097
-288,847	800,000	0,034	0,101
-287,832	93,829	0,037	-0,031
-286,818	800,000	-0,024	0,073
-285,803	53,250	0,058	-0,040
-284,789	48,176	-0,046	0,031
-283,774	-33,675	0,194	0,077
-282,759	34,332	-0,054	0,034
-281,745	47,991	0,038	-0,026
-280,730	97,731	-0,046	0,039
-279,716	-90,152	-0,072	0,015
-278,701	800,000	0,052	0,106
-277,686	775,088	-0,028	0,055
-276,672	-101,065	-0,060	0,011
-275,657	178,446	-0,014	-0,015
-274,643	-118,812	0,022	-0,003
-273,628	-14,118	-0,081	-0,038
-272,613	800,000	-0,048	0,127
-271,599	-200,000	-0,013	0,055
-270,584	-200,000	-0,000	0,082
-269,570	436,221	0,049	-0,077
-268,555	800,000	-0,017	0,050
-267,540	30,617	-0,032	0,020
-266,526	271,567	-0,032	-0,041
-265,511	800,000	0,011	0,028
-264,497	-89,485	0,114	-0,024
-263,482	352,384	-0,044	0,063
-262,467	63,638	-0,060	-0,044
-261,453	-200,000	-0,006	0,045
-260,438	-194,355	0,044	-0,000
-259,424	-105,610	0,042	0,007
-258,409	725,647	-0,035	-0,068
-257,395	-97,906	0,079	0,015
-256,380	32,389	0,044	-0,028
-255,365	800,000	0,084	0,186
-254,351	18,035	-0,062	-0,036
-253,336	273,595	-0,072	-0,092
-252,322	-200,000	0,019	0,100
-251,307	16,003	0,146	-0,083
-250,292	569,377	-0,031	0,054
-249,278	-200,000	-0,005	-0,036
-248,263	48,842	0,036	0,024
-247,249	-11,419	0,151	-0,072
-246,234	-67,576	-0,120	-0,034
-245,219	-146,696	-0,068	0,004
-244,205	800,000	0,010	-0,030
-243,190	-156,195	0,062	0,003
-242,176	-63,198	0,049	0,015
-241,161	-101,548	0,135	-0,024
-240,146	800,000	0,024	-0,071
-239,132	-200,000	-0,019	0,074
-238,117	138,056	0,116	-0,110
-237,103	-24,420	-0,093	-0,040
-236,088	-200,000	0,007	0,088
-235,073	-112,720	-0,123	0,017
-234,059	164,577	-0,160	0,163
-233,044	125,094	0,063	0,057
-232,030	-200,000	-0,026	0,112
-231,015	-200,000	-0,006	-0,058
-230,000	-200,000	0,009	-0,086
-228,986	-200,000	-0,029	0,145
-227,971	-200,000	-0,009	0,070
-226,957	709,582	0,023	0,044
-225,942	553,318	0,082	-0,143
-224,927	-121,657	-0,088	0,010
-223,913	-59,317	-0,062	0,019
-222,898	-32,585	0,085	0,034
-221,884	276,021	-0,051	0,066
-220,869	-111,782	-0,162	-0,023
-219,855	141,391	-0,020	0,019
-218,840	-16,824	0,116	0,053
-217,825	763,180	-0,094	0,184
-216,811	-200,000	-0,006	0,032
-215,796	282,635	0,065	-0,085
-214,782	10,288	0,039	-0,021
-213,767	647,672	0,076	0,141
-212,752	219,717	0,073	0,084
-211,738	151,818	0,128	-0,126
-210,723	214,040	-0,089	-0,102
-209,709	-56,113	0,095	-0,030
-208,694	72,880	-0,074	-0,056
-207,679	-131,374	0,103	-0,010
-206,665	-59,781	0,083	-0,026
-205,650	437,256	-0,056	-0,088
-204,636	34,301	-0,077	0,048
-203,621	800,000	0,009	0,021
-202,606	-149,364	-0,134	-0,008
-201,592	512,535	-0,038	-0,064
-200,577	63,412	0,059	-0,043
-199,563	800,000	0,058	-0,159
-198,548	773,067	0,067	0,132
-197,533	179,007	0,018	-0,018
-196,519	-68,440	-0,021	-0,006
-195,504	-200,000	0,017	-0,143
-194,490	173,195	-0,043	-0,045
-193,475	3,171	-0,127	0,066
-192,460	649,587	0,007	0,012
-191,446	-60,270	0,103	0,031
-190,431	101,467	-0,065	0,055
-189,417	800,000	-0,008	-0,017
-188,402	800,000	-0,073	-0,160
-187,387	90,920	0,099	-0,080
-186,373	-200,000	0,003	0,032
-185,358	-200,000	0,003	0,068
-184,344	208,229	0,095	0,107
-183,329	208,689	0,086	0,097
-182,315	611,979	0,061	0,111
-181,300	-67,323	0,033	0,009
-180,285	145,596	-0,049	0,047
-179,271	463,171	0,034	-0,056
-178,256	800,000	-0,025	-0,060
-177,242	367,415	0,018	-0,026
-176,227	67,289	-0,040	-0,030
-175,212	-28,511	-0,085	-0,035
-174,198	-144,551	-0,027	-0,002
-173,183	53,042	0,027	-0,018
-172,169	-25,389	-0,022	-0,009
-171,154	32,558	0,088	-0,055
-170,139	634,391	0,080	-0,147
-169,125	167,728	0,052	0,054
-168,110	407,494	0,099	0,151
-167,096	-44,116	-0,045	0,016
-166,081	-200,000	-0,038	-0,143
-165,066	226,079	-0,082	-0,096
-164,052	-117,697	-0,119	-0,015
-163,037	101,986	0,138	-0,116
-162,023	192,743	0,058	0,063
-161,008	-76,721	-0,107	-0,027
-159,993	-80,504	0,046	0,011
-158,979	800,000	-0,020	0,059
-157,964	-200,000	0,015	-0,072
-156,950	624,346	-0,071	-0,130
-155,935	-136,668	-0,020	-0,002
-154,920	73,724	0,054	-0,041
-153,906	800,000	-0,030	0,073
-152,891	-69,063	-0,044	0,012
-151,877	-103,232	0,045	-0,008
-150,862	-200,000	-0,041	-0,136
-149,847	-11,069	0,020	0,010
-148,833	-200,000	0,015	0,050
-147,818	-63,843	0,036	-0,011
-146,804	-114,479	-0,050	-0,007
-145,789	800,000	0,036	-0,083
-144,775	800,000	-0,071	-0,183
-143,760	-60,143	0,023	-0,007
-142,745	-32,711	0,083	-0,033
-141,731	350,346	0,052	-0,074
-140,716	-47,905	-0,114	0,040
-139,702	-200,000	-0,000	0,021
-138,687	251,440	-0,007	0,008
-137,672	-200,000	0,012	-0,046
-136,658	-69,802	-0,076	-0,021
-135,643	0,823	0,140	-0,072
-134,629	-37,530	0,069	0,026
-133,614	17,370	-0,031	-0,018
-132,599	188,706	0,087	0,094
-131,585	-200,000	-0,038	0,136
-130,570	-200,000	-0,005	0,071
-129,556	-49,944	-0,089	0,030
-128,541	-200,000	-0,007	0,098
-127,526	800,000	-0,005	0,012
-126,512	800,000	-0,023	-0,058
-125,497	-200,000	-0,018	0,121
-124,483	-74,600	0,108	0,028
-123,468	-111,564	-0,094	0,014
-122,453	-77,212	0,069	0,017
-121,439	-51,809	-0,100	0,033
-120,424	-155,817	0,076	0,003
-119,410	146,290	-0,062	-0,060
