DTS Sentinel unit serial number:	SN410029Multiplexer serial number:	ORYXHardware model number:	OX2-SRSoftware version number:	ORYX F/W v4,00 Oryx Data Collector v3.7.2.0data status	okinstallation	B5 Nyhavnadifferential loss correction	single-endedforward channel	channel 2reverse channel	N/Adate	2023/12/13time	15:02:13forward acquisition time	300,00reverse acquisition time	0,00gamma	499,1914k internal	0,3160k external	0,3160temperature offset calibration	1,0000default loss term (dB/km)	0,3820temperature slope calibration	1,0000multiplexer offset coefficient	1,0000multiplexer slope coefficient	1,0000fibre end	0,00T internal ref (°C)	15,00T ext. ref 1 (°C)	-1,30T ext. ref 2 (°C)	-1,60length (m)	temperature (°C)	Stokes	anti-Stokes-744,400	249,151	0,068	0,086
-743,385	-42,306	-0,296	-0,111
-742,371	-61,119	0,055	0,017
-741,356	-89,975	-0,238	0,051
-740,342	20,278	0,037	0,022
-739,327	-102,178	-0,364	0,064
-738,312	-84,303	0,079	-0,018
-737,298	-166,579	-0,294	-0,009
-736,283	563,699	0,074	0,133
-735,269	-0,228	-0,267	-0,139
-734,254	260,468	0,071	0,090
-733,239	-70,417	-0,508	-0,141
-732,225	187,634	0,089	0,098
-731,210	103,307	-0,028	0,024
-730,196	269,526	-0,030	-0,039
-729,181	370,174	0,054	0,081
-728,167	-200,000	-0,019	-0,094
-727,152	257,612	-0,097	0,124
-726,137	-29,341	0,012	0,005
-725,123	671,752	-0,023	0,044
-724,108	210,401	0,045	-0,052
-723,094	-150,972	-0,083	0,005
-722,079	262,871	-0,091	-0,117
-721,064	-200,000	0,019	0,073
-720,050	362,254	-0,098	0,145
-719,035	-129,358	0,082	0,008
-718,021	-200,000	-0,014	-0,094
-717,006	402,968	0,017	0,026
-715,991	276,352	-0,073	-0,095
-714,977	42,790	-0,013	-0,008
-713,962	223,260	0,069	-0,082
-712,948	-167,628	-0,011	-0,000
-711,933	800,000	0,032	0,100
-710,918	135,854	-0,066	0,063
-709,904	-200,000	-0,045	-0,249
-708,889	30,274	-0,144	-0,090
-707,875	-7,815	-0,102	0,050
-706,860	-200,000	0,003	-0,070
-705,845	-200,000	-0,009	0,096
-704,831	129,940	-0,028	0,027
-703,816	10,854	-0,066	-0,037
-702,802	-97,515	0,065	0,012
-701,787	11,585	-0,039	-0,022
-700,772	475,520	-0,050	-0,083
-699,758	-200,000	0,012	0,061
-698,743	-75,876	-0,019	0,005
-697,729	-119,485	0,086	-0,011
-696,714	-200,000	-0,005	0,064
-695,699	-200,000	-0,017	-0,069
-694,685	-116,208	-0,075	0,010
-693,670	765,702	0,049	-0,098
-692,656	-200,000	-0,043	-0,163
-691,641	800,000	0,010	-0,026
-690,627	-200,000	0,033	0,141
-689,612	168,414	0,063	-0,066
-688,597	319,795	0,077	-0,107
-687,583	-80,712	-0,153	0,037
-686,568	170,356	-0,062	0,066
-685,554	-170,017	-0,032	0,001
-684,539	800,000	0,035	0,073
-683,524	-47,997	-0,016	0,006
-682,510	170,364	-0,017	-0,018
-681,495	-200,000	-0,007	0,150
-680,481	800,000	-0,024	-0,072
-679,466	508,241	-0,070	-0,120
-678,451	117,228	0,078	-0,070
-677,437	-200,000	-0,039	-0,172
-676,422	578,113	0,027	0,048
-675,408	27,063	0,027	0,016
-674,393	800,000	-0,085	0,211
-673,378	-200,000	-0,034	-0,116
-672,364	-200,000	-0,009	0,035
-671,349	375,442	-0,046	-0,069
-670,335	-200,000	-0,004	-0,076
-669,320	-200,000	0,025	-0,109
-668,305	285,131	0,037	0,049
-667,291	26,078	0,024	0,014
-666,276	-200,000	-0,019	-0,093
-665,262	800,000	-0,047	-0,149
-664,247	-128,529	0,165	0,017
-663,232	-20,697	-0,109	-0,049
-662,218	-58,015	0,052	0,017
-661,203	-52,817	-0,105	0,035
-660,189	-200,000	0,005	-0,023
-659,174	59,479	-0,043	-0,031
-658,159	156,255	0,051	0,052
-657,145	-8,327	-0,058	0,029
-656,130	350,320	0,021	-0,030
-655,116	-142,125	0,172	-0,012
-654,101	-200,000	-0,022	0,095
-653,086	74,171	-0,036	0,027
-652,072	-129,754	-0,055	-0,005
-651,057	34,803	-0,076	-0,049
-650,043	-200,000	0,015	0,075
-649,028	-12,222	-0,152	-0,073
-648,014	267,299	0,014	-0,018
-646,999	-200,000	0,015	0,089
-645,984	577,156	0,082	0,147
-644,970	-200,000	-0,033	0,148
-643,955	52,100	-0,125	-0,087
-642,941	-200,000	0,007	-0,088
-641,926	-200,000	0,016	0,115
-640,911	-200,000	-0,035	-0,178
-639,897	-73,938	0,006	-0,002
-638,882	-200,000	-0,022	0,163
-637,868	38,729	-0,031	-0,020
-636,853	285,441	-0,105	-0,139
-635,838	-111,144	0,113	-0,017
-634,824	-114,340	-0,092	-0,013
-633,809	6,417	0,076	0,041
-632,795	337,782	-0,052	-0,075
-631,780	-200,000	0,010	0,034
-630,765	-99,230	-0,118	0,022
-629,751	800,000	0,033	-0,099
-628,736	88,801	-0,031	-0,025
-627,722	-200,000	-0,002	-0,009
-626,707	-200,000	0,001	0,068
-625,692	50,048	-0,080	0,056
-624,678	800,000	0,033	-0,098
-623,663	-47,234	0,077	-0,027
-622,649	61,048	-0,136	-0,099
-621,634	800,000	0,011	-0,033
-620,619	-17,333	-0,043	-0,020
-619,605	-126,704	0,037	-0,004
-618,590	-200,000	-0,000	-0,034
-617,576	347,195	0,046	-0,067
-616,561	-200,000	0,006	0,118
-615,546	-88,374	-0,113	-0,025
-614,532	-104,866	-0,116	-0,019
-613,517	-200,000	0,011	0,075
-612,503	258,715	-0,032	-0,040
-611,488	-20,257	0,110	-0,049
-610,474	-189,941	0,113	-0,001
-609,459	-16,982	-0,117	-0,054
-608,444	800,000	-0,026	0,055
-607,430	-154,755	-0,113	0,005
-606,415	-200,000	0,002	-0,025
-605,401	-200,000	-0,000	-0,070
-604,386	-67,153	-0,014	0,004
-603,371	116,777	0,100	0,090
-602,357	550,592	0,036	-0,064
-601,342	-23,367	0,031	-0,013
-600,328	273,324	-0,091	-0,118
-599,313	-82,720	-0,011	-0,002
-598,298	74,880	-0,065	-0,050
-597,284	-200,000	-0,002	-0,040
-596,269	-108,346	0,063	-0,010
-595,255	35,329	0,067	-0,043
-594,240	7,196	-0,022	-0,012
-593,225	-200,000	0,008	-0,041
-592,211	40,861	-0,094	0,062
-591,196	-200,000	-0,007	-0,047
-590,182	-183,292	0,126	0,002
-589,167	-200,000	-0,027	0,199
-588,152	-149,653	0,079	0,004
-587,138	109,113	0,043	-0,038
-586,123	382,869	-0,072	-0,109
-585,109	800,000	-0,041	0,092
-584,094	421,065	0,054	0,085
-583,079	-117,802	0,056	-0,007
-582,065	-10,472	-0,076	0,037
-581,050	31,827	0,036	0,023
-580,036	-200,000	-0,010	-0,074
-579,021	30,466	0,101	-0,063
-578,006	-200,000	-0,020	-0,079
-576,992	-36,447	-0,043	0,017
-575,977	-140,141	-0,079	0,006
-574,963	-200,000	0,035	-0,159
-573,948	-200,000	-0,005	0,078
-572,934	110,713	0,055	0,049
-571,919	800,000	-0,050	-0,114
-570,904	-72,133	-0,062	-0,017
-569,890	-200,000	0,033	0,121
-568,875	264,229	0,110	0,140
-567,861	168,956	0,095	0,099
-566,846	13,301	-0,141	0,080
-565,831	-77,910	-0,055	-0,014
-564,817	-126,327	-0,099	-0,011
-563,802	-200,000	-0,004	0,088
-562,788	-200,000	-0,014	-0,059
-561,773	-84,011	0,061	-0,014
-560,758	-70,870	-0,082	0,022
-559,744	-200,000	0,009	-0,090
-558,729	-100,654	-0,080	-0,014
-557,715	-44,291	-0,093	-0,034
-556,700	4,770	-0,127	-0,068
-555,685	800,000	0,024	-0,062
-554,671	501,385	-0,103	0,175
-553,656	-94,113	0,106	0,021
-552,642	-200,000	-0,014	-0,132
-551,627	-200,000	-0,000	0,034
-550,612	-200,000	0,001	0,030
-549,598	259,060	0,076	-0,096
-548,583	-103,538	-0,073	-0,012
-547,569	-120,754	-0,054	0,007
-546,554	539,058	0,071	0,123
-545,539	-16,653	0,045	0,021
-544,525	-38,993	0,084	0,032
-543,510	-30,782	0,047	-0,019
-542,496	267,817	-0,085	0,110
-541,481	-200,000	-0,015	0,089
-540,466	800,000	0,041	0,112
-539,452	-0,786	-0,069	0,035
-538,437	42,228	0,027	0,018
-537,423	-200,000	0,017	0,154
-536,408	-37,345	0,022	0,009
-535,393	-24,409	0,084	0,036
-534,379	-22,884	0,060	-0,026
-533,364	157,960	-0,015	-0,015
-532,350	141,321	0,058	0,056
-531,335	456,854	0,091	0,148
-530,321	-200,000	-0,016	0,120
-529,306	-200,000	-0,009	-0,166
-528,291	646,456	-0,045	-0,084
-527,277	38,286	-0,084	0,055
-526,262	99,219	0,103	-0,087
-525,248	-200,000	0,019	-0,067
-524,233	-200,000	-0,012	-0,040
-523,218	-30,422	-0,083	-0,034
-522,204	-83,275	0,094	0,022
-521,189	-53,010	-0,067	0,022
-520,175	554,246	-0,050	-0,089
-519,160	4,348	0,052	-0,028
-518,145	86,656	-0,066	0,053
-517,131	-200,000	0,022	-0,137
-516,116	-95,901	-0,054	-0,010
-515,102	-121,554	-0,060	-0,007
-514,087	340,555	0,050	-0,072
-513,072	-57,088	0,030	-0,010
-512,058	-59,995	-0,080	0,025
-511,043	800,000	0,012	0,027
-510,029	529,680	-0,039	0,067
-509,014	322,423	0,094	-0,131
-507,999	-24,340	0,088	0,038
-506,985	800,000	-0,021	-0,048
-505,970	121,410	0,108	-0,098
-504,956	-84,555	-0,165	0,038
-503,941	-200,000	0,026	-0,193
-502,926	-200,000	-0,004	0,065
-501,912	149,279	-0,050	0,049
-500,897	-32,962	0,161	0,065
-499,883	-43,003	-0,090	-0,033
-498,868	-200,000	-0,029	-0,098
-497,853	71,885	0,075	-0,057
-496,839	-172,615	0,094	0,002
-495,824	118,188	-0,023	0,021
-494,810	800,000	0,062	0,165
-493,795	265,485	0,102	-0,130
-492,781	-200,000	0,002	-0,033
-491,766	24,671	0,080	-0,048
-490,751	-200,000	0,007	0,052
-489,737	92,290	-0,081	-0,067
-488,722	-200,000	0,032	0,111
-487,708	-127,659	0,048	-0,005
-486,693	-200,000	0,010	0,068
-485,678	-124,539	-0,109	-0,012
-484,664	504,427	0,062	-0,105
-483,649	-200,000	0,012	0,055
-482,635	633,569	0,018	-0,034
-481,620	-121,367	0,077	0,009
-480,605	-24,788	0,079	-0,034
-479,591	800,000	0,028	-0,066
-478,576	2,595	-0,064	0,034
-477,562	-119,098	-0,129	-0,016
-476,547	-92,127	0,079	0,016
-475,532	-60,720	-0,023	-0,007
-474,518	-22,924	-0,046	0,020
-473,503	145,144	0,030	-0,029
-472,489	676,302	-0,033	0,062
-471,474	-39,553	0,049	-0,019
-470,459	800,000	-0,041	-0,083
-469,445	800,000	0,021	0,063
-468,430	-200,000	0,012	0,125
-467,416	-124,690	0,069	0,008
-466,401	-200,000	0,022	0,104
-465,386	-200,000	-0,012	0,054
-464,372	-200,000	-0,031	0,211
-463,357	-107,371	-0,117	0,019
-462,343	-111,208	0,088	-0,013
-461,328	-200,000	-0,038	-0,147
-460,313	6,433	0,163	0,088
-459,299	64,733	0,081	0,060
-458,284	-194,112	-0,082	-0,000
-457,270	132,513	0,152	-0,143
-456,255	800,000	0,012	0,033
-455,241	158,177	-0,015	-0,015
-454,226	800,000	-0,023	0,048
-453,211	-200,000	0,004	-0,107
-452,197	-200,000	0,011	-0,047
-451,182	-48,073	0,129	0,045
-450,168	-200,000	-0,006	-0,069
-449,153	521,901	-0,011	-0,020
-448,138	-200,000	0,027	-0,124
-447,124	497,453	-0,038	-0,065
-446,109	42,470	0,080	0,053
-445,095	-142,784	-0,050	0,003
-444,080	381,526	0,026	0,039
-443,065	-6,609	-0,048	0,024
-442,051	-200,000	0,013	-0,049
-441,036	-109,908	-0,109	-0,017
-440,022	370,737	0,157	-0,232
-439,007	132,209	-0,095	-0,089
-437,992	533,927	0,064	-0,110
-436,978	-200,000	-0,009	0,090
-435,963	-200,000	0,007	0,136
-434,949	-200,000	0,013	-0,081
-433,934	800,000	0,004	-0,009
-432,919	214,092	-0,112	-0,129
-431,905	-66,619	-0,120	0,034
-430,890	299,805	0,067	0,090
-429,876	-18,006	0,129	-0,059
-428,861	-200,000	-0,030	0,172
-427,846	108,314	0,036	0,031
-426,832	-200,000	0,024	-0,092
-425,817	-27,707	-0,061	-0,026
-424,803	143,348	-0,040	-0,039
-423,788	90,150	0,067	-0,054
-422,773	259,712	-0,062	0,078
-421,759	-49,147	0,054	-0,019
-420,744	-85,761	-0,099	0,022
-419,730	201,486	-0,055	-0,061
-418,715	-103,857	0,108	0,018
-417,701	180,054	-0,049	-0,053
-416,686	-22,666	0,065	0,029
-415,671	340,497	0,023	-0,033
-414,657	-34,483	-0,141	0,056
-413,642	404,879	-0,046	0,071
-412,628	-21,004	0,031	0,014
-411,613	-200,000	-0,044	-0,175
-410,598	-200,000	-0,022	0,125
-409,584	-0,481	-0,134	-0,069
-408,569	-200,000	0,006	0,099
-407,555	342,256	0,024	0,034
-406,540	65,456	-0,021	0,016
-405,525	-200,000	0,007	-0,122
-404,511	-77,258	-0,106	-0,027
-403,496	-74,066	-0,056	0,015
-402,482	-47,747	-0,070	-0,024
-401,467	-166,209	0,159	-0,005
-400,452	-134,671	0,058	0,005
-399,438	-55,949	-0,178	-0,057
-398,423	95,807	-0,087	0,072
-397,409	88,391	0,027	-0,022
-396,394	800,000	0,025	-0,055
-395,379	167,369	0,043	0,044
-394,365	-200,000	0,008	0,042
-393,350	86,863	0,137	0,110
-392,336	174,317	0,070	-0,073
-391,321	800,000	-0,011	-0,030
-390,306	-200,000	0,022	-0,110
-389,292	-120,624	-0,143	-0,017
-388,277	118,070	-0,062	0,056
-387,263	2,673	0,148	0,078
-386,248	186,907	0,071	-0,077
-385,233	-200,000	-0,007	0,052
-384,219	351,594	-0,016	0,023
-383,204	-200,000	0,003	-0,080
-382,190	467,613	-0,034	0,055
-381,175	136,913	0,036	0,034
-380,160	7,239	0,048	-0,026
-379,146	-95,456	0,088	0,017
-378,131	800,000	-0,036	-0,085
-377,117	254,724	0,093	-0,116
-376,102	103,304	0,030	-0,026
-375,088	77,201	0,090	0,069
-374,073	-200,000	-0,011	0,040
-373,058	1,674	-0,019	0,010
-372,044	-200,000	-0,010	-0,034
-371,029	345,336	-0,056	0,080
-370,015	660,824	-0,022	0,041
-369,000	138,313	-0,094	0,089
-367,985	540,587	-0,018	0,031
-366,971	-200,000	0,004	-0,072
-365,956	800,000	-0,019	-0,045
-364,942	-147,128	0,100	-0,006
-363,927	-200,000	0,025	0,171
-362,912	-200,000	0,007	-0,096
-361,898	-48,950	-0,116	-0,040
-360,883	800,000	0,057	-0,167
-359,869	607,681	-0,066	-0,121
-358,854	505,107	0,101	0,170
-357,839	800,000	-0,015	0,043
-356,825	10,090	-0,068	-0,038
-355,810	127,877	0,024	0,023
-354,796	-145,856	-0,040	0,003
-353,781	239,404	-0,036	-0,043
-352,766	582,999	0,027	0,049
-351,752	-4,535	0,152	0,076
-350,737	-94,121	-0,101	0,020
-349,723	451,081	-0,081	0,130
-348,708	288,167	0,080	0,105
-347,693	-34,142	-0,068	-0,027
-346,679	689,576	-0,036	-0,068
-345,664	-200,000	-0,007	0,023
-344,650	-111,268	-0,091	-0,013
-343,635	786,963	0,047	0,094
-342,620	-200,000	-0,002	-0,017
-341,606	506,755	-0,004	-0,008
-340,591	-200,000	0,022	-0,114
-339,577	-200,000	0,008	-0,214
-338,562	350,458	-0,061	-0,088
-337,548	208,564	0,089	-0,101
-336,533	-200,000	-0,002	-0,105
-335,518	509,602	0,104	0,177
-334,504	91,580	0,072	0,058
-333,489	225,304	-0,030	-0,036
-332,475	97,555	-0,120	0,100
-331,460	-200,000	-0,010	0,060
-330,445	-200,000	-0,008	0,052
-329,431	-5,875	0,120	0,060
-328,416	-153,401	0,167	0,008
-327,402	-200,000	-0,016	0,142
-326,387	-30,691	-0,023	0,009
-325,372	-200,000	-0,007	0,127
-324,358	-170,461	-0,058	-0,001
-323,343	-9,119	0,054	-0,026
-322,329	-9,493	0,076	-0,037
-321,314	-166,433	-0,044	0,001
-320,299	-200,000	0,006	0,022
-319,285	-78,385	0,128	0,032
-318,270	-96,445	-0,155	0,029
-317,256	-89,203	0,066	-0,014
-316,241	-30,137	0,065	-0,026
-315,226	-200,000	0,037	0,137
-314,212	69,738	0,073	0,054
-313,197	584,104	0,054	0,096
-312,183	735,206	-0,049	-0,095
-311,168	-55,364	-0,139	0,045
-310,153	346,913	-0,053	0,075
-309,139	-88,822	0,169	-0,036
-308,124	-147,843	-0,130	-0,008
-307,110	-56,110	0,090	-0,029
-306,095	97,250	-0,062	-0,052
-305,080	-51,744	0,103	-0,035
-304,066	-98,777	-0,140	0,026
-303,051	-200,000	-0,003	0,023
-302,037	-179,310	-0,121	0,002
-301,022	800,000	0,025	-0,062
-300,008	181,335	0,082	-0,087
-298,993	-109,046	-0,127	0,019
-297,978	117,666	0,134	0,119
-296,964	-200,000	0,000	-0,141
-295,949	-200,000	-0,049	-0,182
-294,935	0,549	0,109	-0,056
-293,920	-113,557	-0,008	0,001
-292,905	156,102	0,075	-0,074
-291,891	-200,000	0,003	0,060
-290,876	-125,296	0,035	-0,004
-289,862	515,598	-0,025	-0,043
-288,847	205,420	-0,035	-0,039
-287,832	162,755	0,129	-0,132
-286,818	192,331	0,035	0,039
-285,803	-105,259	0,115	0,019
-284,789	33,255	-0,148	0,093
-283,774	-115,930	0,076	0,010
-282,759	800,000	0,012	0,029
-281,745	-71,525	-0,092	0,025
-280,730	-138,754	-0,057	-0,004
-279,716	372,186	0,048	0,070
-278,701	-155,847	-0,115	0,005
-277,686	72,965	0,085	0,065
-276,672	84,449	0,080	-0,063
-275,657	630,496	-0,018	0,034
-274,643	144,800	-0,041	0,039
-273,628	122,846	-0,193	-0,175
-272,613	-57,524	-0,132	-0,042
-271,599	422,427	0,050	0,078
-270,584	-156,450	-0,083	0,004
-269,570	260,539	-0,064	0,080
-268,555	94,541	0,083	0,068
-267,540	-16,792	0,065	-0,030
-266,526	129,598	0,052	-0,048
-265,511	632,425	0,025	0,046
-264,497	-148,775	-0,077	0,004
-263,482	38,148	-0,051	0,033
-262,467	800,000	-0,021	0,054
-261,453	309,454	0,075	0,101
-260,438	36,902	0,099	-0,063
-259,424	56,861	-0,112	0,079
-258,409	800,000	0,016	-0,039
-257,395	675,567	-0,050	0,094
-256,380	86,504	0,043	-0,034
-255,365	-78,462	0,055	-0,014
-254,351	800,000	-0,051	-0,116
-253,336	337,637	-0,072	-0,101
-252,322	-200,000	0,001	-0,092
-251,307	-0,078	0,065	-0,033
-250,292	183,664	0,064	-0,068
-249,278	48,387	-0,088	0,059
-248,263	111,945	0,093	0,081
-247,249	166,645	0,094	0,097
-246,234	680,221	-0,028	-0,054
-245,219	686,073	-0,037	0,070
-244,205	92,300	-0,040	0,033
-243,190	-200,000	0,021	-0,141
-242,176	-200,000	0,007	0,210
-241,161	240,203	0,026	0,031
-240,146	-200,000	0,005	0,035
-239,132	-118,943	0,115	0,014
-238,117	-200,000	-0,009	-0,042
-237,103	800,000	0,005	-0,015
-236,088	319,719	-0,049	0,068
-235,073	91,464	0,135	0,110
-234,059	448,455	0,039	-0,063
-233,044	589,050	0,035	-0,062
-232,030	-110,200	-0,128	-0,019
-231,015	-200,000	0,008	-0,029
-230,000	-89,270	0,169	-0,036
-228,986	17,594	0,031	0,018
-227,971	701,773	0,087	-0,167
-226,957	-174,184	0,076	-0,002
-225,942	-3,549	0,074	0,037
-224,927	105,762	-0,119	0,101
-223,913	131,584	-0,123	-0,114
-222,898	-200,000	-0,009	-0,088
-221,884	227,353	0,033	-0,039
-220,869	55,538	0,166	-0,116
-219,855	-135,529	0,080	0,007
-218,840	-18,358	-0,105	0,047
-217,825	345,649	-0,035	0,050
-216,811	128,320	-0,048	-0,044
-215,796	-60,593	0,070	0,021
-214,782	800,000	-0,029	-0,092
-213,767	-200,000	-0,015	0,066
-212,752	-90,855	0,087	0,018
-211,738	548,018	-0,072	0,124
-210,723	147,398	0,070	-0,068
-209,709	-62,811	0,126	0,037
-208,694	793,597	-0,082	-0,164
-207,679	-124,763	-0,033	0,004
-206,665	159,595	0,068	0,068
-205,650	38,406	0,076	0,049
-204,636	-200,000	0,007	0,031
-203,621	-95,751	0,125	0,024
-202,606	314,501	0,069	-0,093
-201,592	190,773	-0,083	0,090
-200,577	-200,000	0,019	0,069
-199,563	-200,000	-0,002	-0,036
-198,548	487,825	0,046	0,077
-197,533	-56,420	-0,072	0,023
-196,519	800,000	-0,051	0,110
-195,504	19,903	-0,179	-0,104
-194,490	-86,849	0,025	-0,006
-193,475	-140,287	-0,224	-0,017
-192,460	800,000	-0,040	0,102
-191,446	222,062	-0,056	0,065
-190,431	-134,595	-0,118	-0,010
-189,417	-73,582	-0,118	0,031
-188,402	189,151	-0,040	0,043
-187,387	-75,852	0,085	-0,021
-186,373	41,893	-0,101	0,066
-185,358	-176,768	0,133	0,002
-184,344	800,000	0,020	-0,041
-183,329	43,400	-0,040	-0,026
-182,315	129,322	0,042	0,039
-181,300	127,586	0,048	0,044
-180,285	-200,000	0,007	-0,047
-179,271	800,000	-0,055	0,135
-178,256	145,896	-0,065	0,063
-177,242	588,880	-0,036	-0,064
-176,227	-179,794	-0,047	0,001
-175,212	-1,756	-0,101	-0,051
-174,198	213,713	0,080	0,091
-173,183	-13,658	-0,086	-0,040
-172,169	28,727	-0,102	0,062
-171,154	800,000	-0,019	-0,038
-170,139	-68,810	0,038	-0,011
-169,125	-200,000	-0,034	-0,118
-168,110	-200,000	0,002	-0,093
-167,096	-31,587	0,105	0,042
-166,081	-149,356	-0,122	0,007
-165,066	-122,084	-0,081	0,010
-164,052	800,000	0,016	-0,033
-163,037	249,951	0,034	-0,042
-162,023	0,980	0,091	0,047
-161,008	192,006	0,077	-0,084
-159,993	-10,511	-0,116	0,055
-158,979	83,984	-0,143	-0,112
-157,964	800,000	-0,009	0,017
-156,950	-200,000	0,019	0,113
-155,935	482,614	0,055	0,090
-154,920	-102,434	0,115	0,020
-153,906	47,846	-0,028	0,019
-152,891	-54,320	0,093	0,030
-151,877	-85,506	0,130	0,029
-150,862	552,759	0,044	-0,076
-149,847	-200,000	0,009	0,083
-148,833	112,220	0,010	0,008
-147,818	-200,000	-0,027	0,172
-146,804	146,319	-0,028	-0,027
-145,789	557,017	0,053	-0,092
-144,775	800,000	0,064	-0,183
-143,760	97,828	-0,034	0,028
-142,745	-4,279	-0,213	-0,106
-141,731	183,033	0,133	0,141
-140,716	-112,799	0,115	0,016
-139,702	-200,000	0,037	0,199
-138,687	800,000	-0,024	0,068
-137,672	800,000	-0,032	0,068
-136,658	51,425	0,019	0,013
-135,643	-1,150	0,145	-0,073
-134,629	-200,000	-0,006	0,024
-133,614	-134,931	0,057	-0,005
-132,599	-200,000	-0,025	-0,084
-131,585	-121,684	-0,100	-0,012
-130,570	278,676	0,024	0,031
-129,556	-53,641	0,039	-0,013
-128,541	207,740	-0,084	-0,095
-127,526	800,000	-0,044	-0,092
-126,512	-200,000	-0,020	-0,097
-125,497	266,429	-0,017	-0,022
-124,483	800,000	-0,061	0,132
-123,468	343,492	-0,062	0,088
-122,453	-37,842	-0,065	0,025
-121,439	120,293	0,071	-0,064
-120,424	12,484	-0,087	-0,048
-119,410	163,554	-0,025	-0,026
