DTS Sentinel unit serial number:	SN410029Multiplexer serial number:	ORYXHardware model number:	OX2-SRSoftware version number:	ORYX F/W v4,00 Oryx Data Collector v3.7.2.0data status	okinstallation	B5 Nyhavnadifferential loss correction	single-endedforward channel	channel 2reverse channel	N/Adate	2023/12/11time	20:52:13forward acquisition time	300,00reverse acquisition time	0,00gamma	499,1914k internal	0,3157k external	0,3157temperature offset calibration	1,0000default loss term (dB/km)	0,3820temperature slope calibration	1,0000multiplexer offset coefficient	1,0000multiplexer slope coefficient	1,0000fibre end	0,00T internal ref (°C)	16,10T ext. ref 1 (°C)	0,17T ext. ref 2 (°C)	-0,05length (m)	temperature (°C)	Stokes	anti-Stokes-744,400	65,621	0,110	0,082
-743,385	-102,598	-0,345	0,060
-742,371	-44,940	0,137	-0,050
-741,356	-131,156	-0,279	0,027
-740,342	67,991	0,104	0,078
-739,327	-57,800	-0,340	-0,109
-738,312	76,996	0,092	0,072
-737,298	-103,201	-0,223	-0,038
-736,283	342,176	0,050	-0,072
-735,269	-85,453	-0,190	-0,043
-734,254	-200,000	-0,011	0,119
-733,239	-131,310	-0,443	-0,043
-732,225	394,034	0,080	0,124
-731,210	-36,769	0,138	0,054
-730,196	-103,031	0,177	0,031
-729,181	-200,000	0,017	0,066
-728,167	-57,421	0,055	0,018
-727,152	-99,549	-0,036	-0,007
-726,137	-71,319	-0,048	-0,013
-725,123	202,024	-0,102	-0,116
-724,108	377,930	0,025	-0,037
-723,094	-19,206	-0,091	0,042
-722,079	320,593	-0,057	-0,080
-721,064	56,209	-0,053	-0,038
-720,050	-94,141	-0,051	0,010
-719,035	291,085	0,034	-0,046
-718,021	-200,000	0,002	-0,012
-717,006	-151,555	-0,086	0,005
-715,991	-183,982	-0,171	0,002
-714,977	311,625	-0,073	-0,101
-713,962	7,982	-0,169	-0,093
-712,948	-200,000	-0,007	-0,066
-711,933	478,296	-0,030	-0,051
-710,918	800,000	-0,048	-0,102
-709,904	-200,000	-0,031	-0,116
-708,889	-200,000	-0,025	-0,097
-707,875	299,957	-0,081	-0,111
-706,860	-160,946	0,139	0,005
-705,845	-200,000	0,010	-0,123
-704,831	133,364	-0,038	0,036
-703,816	162,374	-0,052	-0,054
-702,802	-31,558	-0,034	0,014
-701,787	79,211	-0,114	-0,090
-700,772	51,194	0,057	0,040
-699,758	-141,042	0,143	0,011
-698,743	-200,000	0,012	-0,194
-697,729	50,761	0,131	-0,091
-696,714	-200,000	0,041	0,164
-695,699	-200,000	-0,012	-0,105
-694,685	-89,727	0,060	-0,013
-693,670	-80,327	-0,162	0,040
-692,656	-58,470	-0,115	-0,036
-691,641	355,208	-0,046	0,067
-690,627	-200,000	-0,008	-0,067
-689,612	412,084	0,049	0,076
-688,597	23,093	-0,135	-0,081
-687,583	254,804	-0,105	-0,133
-686,568	408,777	-0,125	-0,195
-685,554	177,047	0,096	-0,103
-684,539	-76,813	0,111	-0,028
-683,524	160,831	-0,061	0,063
-682,510	800,000	0,061	0,128
-681,495	-123,760	-0,064	0,007
-680,481	77,395	0,112	-0,088
-679,466	-6,700	-0,086	0,043
-678,451	85,619	-0,095	0,077
-677,437	-200,000	0,015	-0,064
-676,422	-200,000	0,028	0,169
-675,408	-118,009	0,071	0,009
-674,393	-53,788	-0,093	0,031
-673,378	47,698	-0,180	0,123
-672,364	-200,000	0,007	-0,116
-671,349	-84,873	0,035	-0,008
-670,335	-184,717	-0,040	-0,000
-669,320	52,032	-0,063	0,044
-668,305	800,000	0,054	0,128
-667,291	-76,725	0,134	-0,034
-666,276	-200,000	0,036	0,156
-665,262	-145,365	-0,060	0,004
-664,247	225,995	-0,030	-0,036
-663,232	800,000	0,061	0,166
-662,218	-109,092	0,118	0,018
-661,203	26,350	-0,079	0,048
-660,189	-200,000	-0,024	-0,153
-659,174	-15,196	0,096	-0,045
-658,159	62,465	0,120	0,088
-657,145	41,542	-0,045	-0,030
-656,130	800,000	-0,009	-0,023
-655,116	109,590	0,054	0,048
-654,101	-200,000	-0,043	0,140
-653,086	800,000	0,052	-0,109
-652,072	-53,938	0,031	-0,010
-651,057	-90,885	-0,122	-0,026
-650,043	136,978	-0,026	-0,025
-649,028	359,214	-0,134	-0,197
-648,014	-48,236	-0,110	0,039
-646,999	-200,000	-0,006	0,046
-645,984	176,290	-0,083	-0,089
-644,970	774,040	-0,047	-0,095
-643,955	226,353	-0,067	-0,080
-642,941	-181,263	0,023	0,000
-641,926	104,981	0,052	-0,045
-640,911	84,389	-0,049	0,039
-639,897	778,765	0,068	-0,136
-638,882	-200,000	0,000	-0,089
-637,868	-137,301	-0,077	0,006
-636,853	800,000	-0,050	-0,112
-635,838	-200,000	0,022	-0,131
-634,824	409,868	-0,020	-0,032
-633,809	800,000	-0,036	0,096
-632,795	460,390	0,051	0,083
-631,780	-89,683	-0,065	-0,014
-630,765	-153,151	0,098	0,005
-629,751	-200,000	-0,013	-0,050
-628,736	63,812	-0,051	-0,038
-627,722	-200,000	0,017	0,123
-626,707	-200,000	0,003	0,073
-625,692	-5,692	-0,121	0,061
-624,678	734,141	0,058	0,114
-623,663	22,461	0,013	0,008
-622,649	346,310	-0,073	-0,106
-621,634	500,971	-0,066	-0,113
-620,619	-97,647	-0,072	-0,013
-619,605	800,000	0,026	0,061
-618,590	183,751	0,074	-0,080
-617,576	-200,000	0,001	0,110
-616,561	-57,253	0,075	-0,024
-615,546	-200,000	-0,059	-0,236
-614,532	-200,000	0,022	-0,097
-613,517	-200,000	-0,013	-0,220
-612,503	200,262	0,077	-0,087
-611,488	-200,000	-0,009	-0,107
-610,474	174,326	-0,021	-0,022
-609,459	-200,000	-0,003	-0,017
-608,444	154,823	-0,036	-0,036
-607,430	-200,000	-0,009	-0,032
-606,415	167,800	-0,106	-0,110
-605,401	-27,249	0,195	0,083
-604,386	179,737	0,009	-0,009
-603,371	-200,000	0,010	-0,038
-602,357	-200,000	0,018	0,067
-601,342	235,445	0,060	-0,073
-600,328	745,413	-0,039	-0,078
-599,313	-119,956	-0,047	-0,006
-598,298	-169,399	0,106	-0,003
-597,284	213,547	-0,095	0,110
-596,269	800,000	0,013	-0,042
-595,255	314,194	0,090	0,124
-594,240	0,367	-0,099	0,052
-593,225	195,786	-0,102	-0,114
-592,211	2,536	-0,079	-0,042
-591,196	490,548	-0,027	0,045
-590,182	-2,186	0,030	0,015
-589,167	195,056	-0,113	0,126
-588,152	-91,272	0,092	-0,019
-587,138	241,298	0,057	0,069
-586,123	-200,000	-0,019	-0,067
-585,109	320,429	-0,137	-0,191
-584,094	-78,644	-0,106	0,026
-583,079	800,000	0,037	-0,095
-582,065	-200,000	0,009	0,104
-581,050	323,398	-0,094	0,132
-580,036	-92,055	-0,011	-0,002
-579,021	-110,574	0,071	-0,011
-578,006	-131,995	-0,062	-0,006
-576,992	-60,878	-0,093	0,029
-575,977	-200,000	0,021	0,112
-574,963	-79,935	0,080	-0,020
-573,948	248,909	-0,086	-0,107
-572,934	280,146	-0,077	0,101
-571,919	570,917	0,047	-0,084
-570,904	-106,334	0,084	-0,014
-569,890	562,535	-0,047	-0,083
-568,875	543,930	0,028	-0,050
-567,861	800,000	0,019	-0,050
-566,846	-200,000	-0,005	0,039
-565,831	-200,000	-0,008	-0,039
-564,817	95,846	-0,163	-0,137
-563,802	-200,000	-0,024	0,103
-562,788	-200,000	-0,028	-0,100
-561,773	800,000	0,015	-0,040
-560,758	639,352	0,077	-0,144
-559,744	514,590	0,009	-0,016
-558,729	749,506	0,015	-0,029
-557,715	98,365	-0,095	0,080
-556,700	-200,000	-0,001	-0,037
-555,685	-200,000	-0,005	-0,142
-554,671	463,452	-0,055	-0,090
-553,656	202,697	-0,056	-0,063
-552,642	343,134	0,034	-0,049
-551,627	-135,385	-0,106	0,009
-550,612	800,000	0,005	0,010
-549,598	-200,000	-0,000	-0,141
-548,583	-1,281	0,155	0,080
-547,569	800,000	-0,051	0,119
-546,554	327,654	0,014	-0,019
-545,539	-106,516	0,081	-0,013
-544,525	-200,000	0,008	-0,089
-543,510	112,287	-0,157	0,139
-542,496	-34,933	-0,046	0,018
-541,481	401,466	-0,037	-0,056
-540,466	224,082	-0,043	0,051
-539,452	-129,961	0,022	-0,002
-538,437	-200,000	-0,050	-0,175
-537,423	-93,048	0,164	0,033
-536,408	183,751	-0,068	0,073
-535,393	-200,000	0,021	-0,086
-534,379	74,619	-0,071	-0,054
-533,364	-75,125	-0,071	0,018
-532,350	-54,608	0,133	-0,044
-531,335	10,408	0,068	-0,038
-530,321	119,093	0,020	0,018
-529,306	-25,435	0,056	0,024
-528,291	-2,473	0,104	0,053
-527,277	-9,209	-0,112	0,055
-526,262	-67,647	-0,047	-0,013
-525,248	224,320	0,028	-0,033
-524,233	800,000	-0,006	0,015
-523,218	-200,000	0,001	0,106
-522,204	-200,000	0,005	0,044
-521,189	-200,000	-0,006	-0,062
-520,175	329,019	0,069	-0,098
-519,160	-200,000	-0,029	-0,116
-518,145	105,441	-0,067	0,058
-517,131	39,823	0,069	0,045
-516,116	557,183	0,031	-0,055
-515,102	-131,696	-0,056	0,005
-514,087	800,000	-0,056	0,131
-513,072	-70,609	-0,117	-0,032
-512,058	78,329	0,037	-0,029
-511,043	-74,257	0,151	0,040
-510,029	-200,000	-0,002	-0,052
-509,014	600,013	0,055	0,100
-507,999	-131,847	-0,151	-0,014
-506,985	-75,942	0,130	-0,033
-505,970	-47,264	-0,037	-0,013
-504,956	80,606	-0,045	0,035
-503,941	800,000	0,069	-0,145
-502,926	-200,000	-0,052	0,197
-501,912	-163,781	-0,086	0,003
-500,897	-200,000	0,004	0,046
-499,883	462,948	-0,085	-0,140
-498,868	-200,000	0,007	-0,052
-497,853	415,207	-0,025	0,039
-496,839	-200,000	0,004	-0,137
-495,824	-71,599	0,133	-0,036
-494,810	-22,173	0,128	-0,056
-493,795	800,000	0,012	0,037
-492,781	-74,562	0,067	0,017
-491,766	-111,222	0,079	0,012
-490,751	-121,534	0,103	0,012
-489,737	-200,000	-0,023	-0,101
-488,722	800,000	0,020	-0,050
-487,708	121,709	-0,028	-0,026
-486,693	510,888	0,038	-0,064
-485,678	133,426	0,124	-0,117
-484,664	1,364	-0,075	-0,039
-483,649	283,059	0,049	-0,065
-482,635	-200,000	0,011	-0,047
-481,620	-58,918	-0,047	-0,015
-480,605	-149,748	-0,193	-0,011
-479,591	260,601	0,013	-0,016
-478,576	96,193	0,103	0,086
-477,562	127,709	-0,105	-0,097
-476,547	306,201	-0,046	-0,063
-475,532	156,879	0,054	0,055
-474,518	-102,102	0,091	0,016
-473,503	800,000	0,073	0,155
-472,489	-26,852	0,054	0,023
-471,474	-200,000	-0,012	0,060
-470,459	800,000	0,027	0,066
-469,445	800,000	-0,042	-0,134
-468,430	45,561	0,037	-0,025
-467,416	266,435	0,089	-0,114
-466,401	800,000	0,008	0,018
-465,386	-140,736	0,007	0,001
-464,372	-23,840	-0,060	0,026
-463,357	219,541	0,084	0,098
-462,343	-107,563	-0,164	-0,026
-461,328	156,031	0,053	-0,053
-460,313	171,250	-0,053	-0,055
-459,299	-10,171	-0,068	0,033
-458,284	114,846	0,114	-0,101
-457,270	-200,000	0,015	0,099
-456,255	10,898	0,058	0,032
-455,241	800,000	-0,029	-0,092
-454,226	220,752	-0,055	0,064
-453,211	800,000	-0,046	-0,143
-452,197	-111,040	0,083	-0,012
-451,182	800,000	-0,019	0,044
-450,168	-21,479	-0,116	0,051
-449,153	-200,000	0,009	-0,061
-448,138	178,181	-0,077	-0,082
-447,124	-200,000	-0,007	-0,026
-446,109	-200,000	-0,002	-0,067
-445,095	594,420	-0,045	0,082
-444,080	405,038	0,096	0,148
-443,065	-88,400	0,064	-0,014
-442,051	-200,000	-0,018	0,067
-441,036	169,501	0,073	-0,076
-440,022	409,776	0,037	-0,057
-439,007	-160,770	-0,182	0,007
-437,992	55,021	-0,098	0,069
-436,978	-184,609	0,115	-0,001
-435,963	-27,282	0,044	-0,019
-434,949	65,395	0,048	0,035
-433,934	-129,655	-0,186	0,018
-432,919	180,978	-0,094	-0,101
-431,905	800,000	-0,076	-0,190
-430,890	79,613	0,101	0,079
-429,876	396,079	-0,021	0,032
-428,861	800,000	0,056	0,113
-427,846	7,320	-0,050	-0,027
-426,832	-114,182	0,136	0,019
-425,817	-200,000	0,014	-0,176
-424,803	-136,763	0,074	0,006
-423,788	-65,478	-0,064	0,019
-422,773	-200,000	0,006	0,072
-421,759	452,632	-0,085	0,137
-420,744	524,785	-0,040	0,069
-419,730	-200,000	0,006	-0,098
-418,715	-121,172	-0,075	0,009
-417,701	18,786	0,033	0,019
-416,686	-200,000	-0,028	0,100
-415,671	-200,000	0,031	0,134
-414,657	-80,877	0,055	0,013
-413,642	558,196	0,035	0,061
-412,628	208,739	-0,118	0,135
-411,613	41,874	-0,153	-0,101
-410,598	-82,559	-0,034	-0,008
-409,584	800,000	0,053	-0,137
-408,569	37,745	0,112	0,072
-407,555	800,000	0,061	0,174
-406,540	128,524	-0,068	0,063
-405,525	187,019	-0,112	0,122
-404,511	-200,000	0,002	-0,056
-403,496	-89,166	-0,110	-0,024
-402,482	29,928	-0,034	0,021
-401,467	61,789	0,068	0,049
-400,452	407,658	0,051	0,079
-399,438	-200,000	0,005	0,106
-398,423	133,874	0,057	0,054
-397,409	-84,628	0,045	0,010
-396,394	800,000	0,035	-0,079
-395,379	-21,539	-0,132	0,058
-394,365	73,717	-0,081	0,062
-393,350	800,000	0,036	0,097
-392,336	163,338	-0,025	-0,026
-391,321	204,321	0,074	-0,083
-390,306	22,972	-0,065	-0,039
-389,292	800,000	-0,022	0,045
-388,277	36,918	-0,067	0,043
-387,263	-137,597	0,019	-0,002
-386,248	-115,648	0,023	0,003
-385,233	-200,000	0,005	0,047
-384,219	128,229	0,035	0,033
-383,204	36,337	-0,088	-0,057
-382,190	296,698	-0,077	0,103
-381,175	-200,000	-0,021	0,136
-380,160	-200,000	-0,022	-0,075
-379,146	-69,979	0,152	0,042
-378,131	143,463	0,042	0,041
-377,117	800,000	-0,015	-0,042
-376,102	-165,343	-0,142	-0,004
-375,088	214,307	0,016	0,018
-374,073	56,834	-0,074	0,052
-373,058	324,665	0,065	-0,090
-372,044	-49,412	-0,070	-0,024
-371,029	161,699	-0,017	-0,018
-370,015	659,467	0,029	-0,055
-369,000	128,016	-0,130	-0,120
-367,985	-132,070	-0,096	-0,009
-366,971	321,305	0,077	-0,107
-365,956	-200,000	-0,001	0,056
-364,942	-84,572	0,067	0,015
-363,927	-47,590	-0,058	-0,020
-362,912	751,711	0,099	0,195
-361,898	-106,767	0,192	-0,031
-360,883	-47,035	-0,143	-0,051
-359,869	2,174	0,045	0,024
-358,854	-74,908	-0,120	-0,031
-357,839	-94,298	0,107	-0,021
-356,825	-200,000	0,007	-0,042
-355,810	174,233	0,016	0,017
-354,796	-200,000	0,021	-0,071
-353,781	342,879	-0,098	0,140
-352,766	-106,643	-0,096	0,015
-351,752	-24,165	-0,005	0,002
-350,737	-166,614	0,117	0,003
-349,723	587,142	0,042	-0,075
-348,708	-154,034	0,140	-0,007
-347,693	-4,381	-0,110	-0,055
-346,679	-200,000	0,022	-0,090
-345,664	-24,868	-0,055	-0,024
-344,650	-200,000	0,013	-0,045
-343,635	-200,000	0,010	-0,084
-342,620	410,711	-0,003	-0,005
-341,606	351,119	-0,070	-0,100
-340,591	46,075	0,148	0,099
-339,577	45,440	-0,047	0,032
-338,562	79,812	0,123	-0,096
-337,548	93,440	0,055	-0,045
-336,533	-200,000	0,004	-0,079
-335,518	800,000	0,024	0,055
-334,504	-200,000	0,013	0,173
-333,489	322,022	-0,126	0,174
-332,475	-53,720	-0,037	-0,012
-331,460	11,208	0,106	0,059
-330,445	800,000	-0,047	0,102
-329,431	800,000	0,019	-0,039
-328,416	207,539	0,021	0,024
-327,402	-200,000	-0,020	0,183
-326,387	800,000	-0,015	0,047
-325,372	-200,000	0,010	0,074
-324,358	220,899	-0,129	0,150
-323,343	108,892	0,109	-0,094
-322,329	252,586	0,098	0,121
-321,314	-21,457	0,072	0,032
-320,299	-200,000	0,023	-0,083
-319,285	-29,825	0,075	0,031
-318,270	-89,390	-0,128	-0,027
-317,256	-200,000	0,024	0,080
-316,241	120,055	0,025	0,022
-315,226	-138,883	-0,164	0,013
-314,212	-103,065	0,078	-0,013
-313,197	126,892	0,064	-0,059
-312,183	-200,000	-0,022	-0,088
-311,168	121,503	0,058	0,052
-310,153	190,558	-0,062	-0,067
-309,139	3,500	0,047	0,025
-308,124	-179,000	-0,075	0,001
-307,110	84,679	0,169	0,134
-306,095	35,905	-0,058	0,037
-305,080	-26,360	0,071	-0,030
-304,066	-43,279	0,083	0,030
-303,051	-18,006	-0,085	0,039
-302,037	-200,000	-0,002	0,113
-301,022	-80,313	-0,014	-0,003
-300,008	278,957	0,063	-0,081
-298,993	-144,356	0,060	0,004
-297,978	303,206	-0,026	-0,034
-296,964	-55,621	-0,129	-0,041
-295,949	743,911	-0,039	-0,077
-294,935	-172,436	0,102	-0,002
-293,920	-123,340	0,047	0,005
-292,905	-106,720	0,090	0,014
-291,891	-69,310	0,029	0,008
-290,876	-200,000	0,045	0,198
-289,862	-200,000	0,037	-0,133
-288,847	-63,610	-0,146	0,043
-287,832	-119,334	0,133	-0,017
-286,818	32,374	0,045	0,028
-285,803	31,969	0,024	-0,015
-284,789	-55,829	0,195	0,063
-283,774	-200,000	0,010	0,034
-282,759	-33,058	0,057	0,023
-281,745	727,854	-0,041	-0,080
-280,730	-200,000	0,000	-0,035
-279,716	25,396	0,077	-0,046
-278,701	146,324	0,045	0,044
-277,686	800,000	-0,018	0,044
-276,672	430,614	0,076	0,120
-275,657	100,170	-0,075	0,063
-274,643	800,000	-0,028	-0,063
-273,628	-33,130	0,025	0,010
-272,613	599,135	-0,040	-0,072
-271,599	-20,111	-0,084	0,037
-270,584	44,335	0,023	0,015
-269,570	-200,000	-0,028	0,111
-268,555	215,510	0,018	-0,021
-267,540	360,019	0,048	0,069
-266,526	43,920	-0,129	0,085
-265,511	-200,000	-0,013	0,063
-264,497	-104,470	-0,097	-0,016
-263,482	99,091	0,034	0,029
-262,467	800,000	-0,033	0,083
-261,453	-200,000	-0,000	0,059
-260,438	800,000	0,042	-0,120
-259,424	-105,595	0,030	-0,005
-258,409	153,888	0,021	0,020
-257,395	-121,504	-0,120	-0,014
-256,380	-33,414	-0,089	0,035
-255,365	-200,000	0,018	-0,125
-254,351	-43,387	0,118	-0,043
-253,336	89,153	-0,070	0,057
-252,322	13,255	0,068	0,038
-251,307	6,766	-0,028	-0,015
-250,292	63,490	0,085	0,062
-249,278	-200,000	0,001	0,064
-248,263	-200,000	0,005	0,112
-247,249	-66,468	0,090	0,026
-246,234	68,867	-0,127	-0,094
-245,219	68,462	0,047	0,035
-244,205	68,683	-0,130	-0,096
-243,190	216,604	0,070	-0,080
-242,176	-200,000	0,004	0,045
-241,161	-25,986	-0,069	-0,029
-240,146	800,000	-0,038	-0,104
-239,132	0,029	-0,137	-0,070
-238,117	-76,865	0,055	0,014
-237,103	495,802	-0,026	-0,043
-236,088	-108,192	-0,012	0,002
-235,073	800,000	0,049	0,110
-234,059	-200,000	-0,008	0,146
-233,044	-200,000	-0,012	0,141
-232,030	-200,000	-0,001	0,031
-231,015	800,000	-0,035	0,084
-230,000	404,549	0,076	-0,116
-228,986	-111,265	0,089	-0,013
-227,971	-34,365	0,020	-0,008
-226,957	72,201	0,158	0,119
-225,942	261,895	-0,033	-0,041
-224,927	276,100	-0,026	0,034
-223,913	90,560	-0,012	0,010
-222,898	18,119	0,122	-0,070
-221,884	800,000	-0,058	-0,138
-220,869	-119,913	0,093	0,011
-219,855	-81,649	0,123	0,029
-218,840	-109,689	0,045	0,007
-217,825	-200,000	0,025	-0,095
-216,811	-20,948	0,273	0,121
-215,796	579,411	0,025	-0,044
-214,782	-200,000	-0,019	0,098
-213,767	91,616	0,049	0,040
-212,752	105,213	-0,071	0,060
-211,738	-200,000	-0,004	0,186
-210,723	-200,000	0,009	0,034
-209,709	800,000	0,060	-0,144
-208,694	188,588	0,041	-0,044
-207,679	406,771	0,047	-0,071
-206,665	800,000	0,018	-0,049
-205,650	-142,244	-0,062	-0,004
-204,636	-67,567	0,100	0,028
-203,621	99,327	-0,059	0,050
-202,606	-83,715	0,061	0,014
-201,592	495,726	0,064	0,106
-200,577	-200,000	-0,046	-0,181
-199,563	399,367	-0,079	-0,121
-198,548	-144,214	0,177	0,012
-197,533	176,436	0,040	0,042
-196,519	297,504	-0,101	0,134
-195,504	-200,000	-0,005	-0,055
-194,490	48,738	-0,048	0,032
-193,475	36,346	0,072	-0,046
-192,460	-72,827	0,008	-0,002
-191,446	146,945	-0,065	-0,063
-190,431	290,252	-0,073	0,095
-189,417	-114,071	0,039	0,005
-188,402	304,405	-0,104	-0,140
-187,387	-78,618	-0,055	0,013
-186,373	-102,356	-0,117	0,020
-185,358	800,000	-0,020	0,059
-184,344	500,046	-0,041	0,068
-183,329	-200,000	-0,004	0,094
-182,315	-45,689	0,086	0,030
-181,300	-38,605	-0,022	0,009
-180,285	47,521	0,092	-0,062
-179,271	800,000	-0,068	-0,138
-178,256	75,313	-0,040	0,030
-177,242	-1,918	0,043	0,022
-176,227	800,000	0,006	0,017
-175,212	-145,427	-0,079	0,005
-174,198	800,000	-0,016	-0,045
-173,183	-200,000	0,035	0,154
-172,169	800,000	0,038	-0,082
-171,154	-200,000	-0,004	0,045
-170,139	800,000	0,038	0,096
-169,125	18,264	0,183	0,105
-168,110	-200,000	0,003	-0,064
-167,096	-200,000	-0,004	-0,015
-166,081	603,119	-0,028	0,051
-165,066	4,395	-0,020	0,010
-164,052	-200,000	-0,002	-0,036
-163,037	-184,919	0,080	-0,001
-162,023	-129,648	-0,087	0,009
-161,008	178,599	-0,004	0,004
-159,993	-15,200	0,096	-0,044
-158,979	-200,000	-0,008	-0,053
-157,964	800,000	0,028	-0,071
-156,950	-1,420	-0,110	0,056
-155,935	503,678	-0,059	0,100
-154,920	-200,000	0,010	0,062
-153,906	800,000	-0,044	0,124
-152,891	800,000	0,052	0,142
-151,877	-113,603	-0,008	0,001
-150,862	532,949	-0,038	-0,066
-149,847	-84,055	-0,109	-0,025
-148,833	800,000	0,032	-0,099
-147,818	86,288	0,113	-0,089
-146,804	800,000	0,033	0,087
-145,789	783,026	-0,019	0,037
-144,775	281,621	-0,022	-0,028
-143,760	321,818	0,018	0,025
-142,745	186,939	-0,133	-0,142
-141,731	-55,181	-0,095	0,030
-140,716	-200,000	0,038	0,147
-139,702	-200,000	-0,008	0,112
-138,687	-87,200	0,100	0,022
-137,672	-200,000	0,008	-0,113
-136,658	-99,144	-0,138	-0,025
-135,643	119,378	-0,087	0,078
-134,629	-200,000	0,029	-0,128
-133,614	-154,294	-0,066	0,003
-132,599	-200,000	-0,022	0,118
-131,585	371,168	0,023	0,033
-130,570	-200,000	-0,002	0,059
-129,556	-200,000	0,006	-0,045
-128,541	-200,000	-0,000	0,054
-127,526	-6,130	0,130	-0,064
-126,512	-200,000	0,019	-0,170
-125,497	800,000	-0,063	0,138
-124,483	-15,410	-0,096	0,044
-123,468	-129,995	0,083	0,008
-122,453	-50,890	-0,173	-0,058
-121,439	-88,650	0,056	0,012
-120,424	-84,885	-0,065	0,015
-119,410	-12,790	0,101	0,047
