DTS Sentinel unit serial number:	SN410029Multiplexer serial number:	ORYXHardware model number:	OX2-SRSoftware version number:	ORYX F/W v4,00 Oryx Data Collector v3.7.2.0data status	okinstallation	B5 Nyhavnadifferential loss correction	single-endedforward channel	channel 2reverse channel	N/Adate	2023/12/13time	02:27:13forward acquisition time	300,00reverse acquisition time	0,00gamma	499,1914k internal	0,3160k external	0,3160temperature offset calibration	1,0000default loss term (dB/km)	0,3820temperature slope calibration	1,0000multiplexer offset coefficient	1,0000multiplexer slope coefficient	1,0000fibre end	0,00T internal ref (°C)	14,01T ext. ref 1 (°C)	-2,45T ext. ref 2 (°C)	-2,77length (m)	temperature (°C)	Stokes	anti-Stokes-744,400	-23,079	0,082	0,036
-743,385	-100,307	-0,280	0,051
-742,371	-96,019	0,158	0,031
-741,356	-137,691	-0,310	-0,025
-740,342	-122,682	0,126	-0,015
-739,327	-56,813	-0,225	-0,073
-738,312	-52,588	0,087	0,029
-737,298	-82,393	-0,305	0,072
-736,283	-69,007	0,108	-0,030
-735,269	-94,065	-0,297	0,060
-734,254	94,375	0,132	0,111
-733,239	-58,529	-0,450	-0,143
-732,225	55,427	0,130	-0,092
-731,210	117,638	-0,022	-0,020
-730,196	-86,206	-0,062	0,014
-729,181	800,000	-0,037	0,110
-728,167	52,846	-0,075	-0,053
-727,152	800,000	0,051	-0,140
-726,137	-200,000	-0,033	-0,159
-725,123	-20,013	-0,094	0,043
-724,108	139,894	0,029	-0,028
-723,094	168,139	-0,132	-0,138
-722,079	-151,286	0,014	-0,001
-721,064	-123,710	-0,145	0,017
-720,050	-110,599	-0,118	-0,018
-719,035	295,370	-0,024	-0,033
-718,021	-167,718	0,056	0,002
-717,006	22,194	0,029	-0,017
-715,991	800,000	-0,053	-0,108
-714,977	800,000	-0,042	-0,120
-713,962	-106,590	-0,072	0,012
-712,948	9,776	0,063	0,035
-711,933	657,092	-0,037	-0,070
-710,918	479,949	-0,017	-0,029
-709,904	51,453	-0,180	-0,126
-708,889	800,000	0,026	-0,054
-707,875	-1,499	-0,123	-0,063
-706,860	-200,000	0,007	-0,042
-705,845	66,762	0,049	0,037
-704,831	428,433	0,055	-0,087
-703,816	-13,474	-0,180	-0,085
-702,802	96,088	-0,029	0,024
-701,787	-200,000	0,009	0,047
-700,772	41,157	0,096	0,064
-699,758	11,973	0,041	0,023
-698,743	-200,000	0,033	-0,160
-697,729	-200,000	-0,011	0,072
-696,714	-87,096	0,164	0,036
-695,699	-200,000	-0,013	-0,146
-694,685	-18,341	-0,054	-0,025
-693,670	794,649	-0,090	-0,184
-692,656	-64,589	0,107	-0,032
-691,641	155,181	-0,051	0,051
-690,627	51,692	0,057	0,040
-689,612	34,502	0,028	0,018
-688,597	-88,572	-0,072	0,016
-687,583	800,000	0,059	-0,187
-686,568	-126,714	0,069	0,007
-685,554	733,109	-0,061	-0,120
-684,539	800,000	-0,034	-0,090
-683,524	123,876	-0,051	0,047
-682,510	-127,272	-0,071	0,008
-681,495	-15,949	0,098	-0,046
-680,481	19,074	-0,096	-0,056
-679,466	732,062	-0,023	-0,045
-678,451	-200,000	-0,017	-0,073
-677,437	-200,000	-0,022	0,090
-676,422	304,059	0,032	0,044
-675,408	160,352	-0,079	0,081
-674,393	194,457	-0,027	0,030
-673,378	800,000	-0,022	-0,060
-672,364	-17,339	-0,081	0,038
-671,349	800,000	0,015	-0,039
-670,335	800,000	0,046	-0,139
-669,320	520,949	-0,080	0,139
-668,305	-200,000	0,001	0,065
-667,291	202,541	-0,058	0,066
-666,276	136,772	-0,084	-0,081
-665,262	-160,794	-0,187	-0,007
-664,247	94,765	-0,045	0,037
-663,232	16,044	0,033	0,019
-662,218	-200,000	-0,012	0,058
-661,203	800,000	-0,046	-0,104
-660,189	-148,815	-0,051	-0,003
-659,174	-200,000	0,010	-0,069
-658,159	-91,219	-0,067	0,014
-657,145	-18,110	-0,018	0,008
-656,130	-200,000	0,005	0,110
-655,116	349,280	-0,038	-0,055
-654,101	277,302	-0,008	0,010
-653,086	-28,305	-0,148	-0,063
-652,072	153,745	0,056	-0,056
-651,057	800,000	-0,029	-0,087
-650,043	-113,082	0,114	-0,016
-649,028	646,963	0,029	0,054
-648,014	118,405	-0,038	-0,035
-646,999	184,524	0,142	0,155
-645,984	67,289	-0,088	0,066
-644,970	157,139	-0,054	-0,055
-643,955	-116,340	-0,071	-0,010
-642,941	-108,099	-0,097	0,015
-641,926	-200,000	-0,004	-0,030
-640,911	52,726	0,053	0,037
-639,897	-54,330	-0,083	-0,028
-638,882	-200,000	-0,001	-0,018
-637,868	800,000	-0,045	-0,095
-636,853	529,958	-0,064	-0,112
-635,838	166,721	-0,127	-0,132
-634,824	-38,185	0,064	-0,025
-633,809	800,000	0,010	0,022
-632,795	-200,000	-0,004	-0,028
-631,780	-200,000	0,006	0,145
-630,765	576,623	0,035	-0,063
-629,751	314,847	0,060	0,083
-628,736	-117,228	0,083	-0,011
-627,722	496,794	-0,010	-0,018
-626,707	-200,000	0,017	-0,060
-625,692	123,515	0,029	-0,027
-624,678	371,656	-0,042	-0,062
-623,663	800,000	0,008	-0,026
-622,649	147,081	-0,044	0,043
-621,634	-200,000	-0,035	-0,144
-620,619	253,464	0,015	0,019
-619,605	-200,000	-0,003	0,040
-618,590	-200,000	-0,016	0,052
-617,576	190,454	0,092	-0,101
-616,561	-200,000	0,001	0,077
-615,546	39,731	-0,111	-0,073
-614,532	-200,000	-0,008	0,120
-613,517	-35,039	-0,033	0,013
-612,503	-200,000	-0,023	0,164
-611,488	800,000	0,035	0,081
-610,474	104,621	-0,054	-0,046
-609,459	156,506	-0,099	0,100
-608,444	30,908	-0,123	-0,077
-607,430	378,628	-0,075	-0,113
-606,415	800,000	0,022	-0,057
-605,401	-200,000	-0,012	0,059
-604,386	637,244	-0,037	-0,069
-603,371	261,568	-0,065	-0,083
-602,357	-200,000	-0,017	-0,071
-601,342	-46,898	-0,103	0,037
-600,328	99,295	-0,090	-0,076
-599,313	300,989	-0,081	-0,109
-598,298	238,221	0,060	0,073
-597,284	800,000	0,024	-0,055
-596,269	-200,000	-0,014	-0,122
-595,255	-6,895	0,042	0,021
-594,240	-37,514	-0,098	0,038
-593,225	-77,992	-0,102	-0,026
-592,211	-49,204	-0,175	0,061
-591,196	-106,746	0,086	0,014
-590,182	-63,112	-0,107	0,032
-589,167	-200,000	-0,012	0,047
-588,152	-10,514	0,045	0,022
-587,138	800,000	-0,030	0,090
-586,123	-200,000	-0,009	0,129
-585,109	-200,000	0,015	-0,117
-584,094	676,158	-0,023	-0,045
-583,079	-200,000	-0,017	-0,114
-582,065	-200,000	0,041	0,000
-581,050	-200,000	0,007	-0,075
-580,036	163,295	-0,035	0,036
-579,021	-50,332	-0,022	0,008
-578,006	-40,708	0,129	0,049
-576,992	607,434	0,065	-0,118
-575,977	800,000	0,031	0,081
-574,963	297,525	-0,088	0,118
-573,948	-78,551	0,046	-0,011
-572,934	800,000	-0,052	-0,108
-571,919	-107,647	-0,083	-0,013
-570,904	-200,000	-0,044	-0,165
-569,890	12,736	0,033	-0,019
-568,875	314,506	0,104	0,143
-567,861	-28,739	0,104	0,044
-566,846	800,000	-0,028	0,072
-565,831	455,369	-0,035	0,056
-564,817	800,000	0,023	-0,068
-563,802	77,369	-0,099	-0,077
-562,788	800,000	-0,051	-0,112
-561,773	800,000	0,017	0,043
-560,758	232,822	-0,024	0,029
-559,744	313,654	-0,020	-0,027
-558,729	800,000	0,033	-0,076
-557,715	-15,835	-0,026	-0,012
-556,700	-200,000	0,002	-0,092
-555,685	557,565	0,046	-0,082
-554,671	-27,020	0,157	0,067
-553,656	-55,308	0,111	0,036
-552,642	62,799	-0,063	0,046
-551,627	-180,128	-0,071	0,001
-550,612	-151,645	0,125	-0,007
-549,598	-42,879	-0,121	0,045
-548,583	-200,000	0,003	-0,074
-547,569	-200,000	0,011	-0,106
-546,554	154,549	-0,012	-0,012
-545,539	-125,692	0,102	-0,011
-544,525	-63,961	0,114	-0,034
-543,510	800,000	0,045	-0,095
-542,496	533,862	0,030	-0,051
-541,481	26,578	-0,096	-0,059
-540,466	-68,529	-0,206	-0,058
-539,452	-200,000	0,029	-0,121
-538,437	-130,164	0,071	-0,007
-537,423	-200,000	-0,023	0,117
-536,408	800,000	-0,019	-0,050
-535,393	-200,000	-0,009	0,047
-534,379	4,132	0,150	-0,080
-533,364	-200,000	-0,011	-0,121
-532,350	-132,226	0,116	-0,011
-531,335	118,811	0,084	0,076
-530,321	-200,000	0,020	0,107
-529,306	396,036	0,062	-0,095
-528,291	225,799	-0,061	-0,073
-527,277	-7,700	-0,040	-0,020
-526,262	-200,000	0,007	0,057
-525,248	-200,000	0,014	0,072
-524,233	-29,219	-0,084	0,035
-523,218	70,709	-0,071	-0,054
-522,204	800,000	0,041	-0,118
-521,189	397,664	0,013	-0,020
-520,175	-55,790	-0,159	-0,052
-519,160	87,495	-0,005	-0,004
-518,145	-200,000	-0,018	0,100
-517,131	139,629	-0,052	0,050
-516,116	-200,000	0,027	-0,127
-515,102	97,039	0,074	0,062
-514,087	-128,501	0,048	0,005
-513,072	800,000	-0,004	0,011
-512,058	800,000	-0,014	0,044
-511,043	-77,664	0,049	-0,012
-510,029	-200,000	0,009	-0,132
-509,014	27,918	-0,080	-0,049
-507,999	800,000	0,034	0,071
-506,985	405,582	-0,032	-0,050
-505,970	800,000	0,049	-0,134
-504,956	349,896	-0,019	0,027
-503,941	-200,000	0,062	0,221
-502,926	748,217	0,017	-0,033
-501,912	-18,933	-0,049	0,022
-500,897	594,039	-0,038	0,068
-499,883	-200,000	0,013	0,065
-498,868	117,799	-0,073	-0,065
-497,853	130,923	-0,105	-0,098
-496,839	103,770	0,095	0,081
-495,824	66,256	-0,134	0,100
-494,810	-200,000	0,007	-0,035
-493,795	26,373	0,138	0,084
-492,781	800,000	-0,034	0,071
-491,766	95,107	-0,086	-0,072
-490,751	-200,000	-0,010	-0,085
-489,737	-200,000	0,004	-0,083
-488,722	-124,093	0,063	0,007
-487,708	479,394	0,113	0,187
-486,693	-28,077	-0,149	0,063
-485,678	-200,000	0,033	0,129
-484,664	-63,620	0,076	-0,022
-483,649	-200,000	0,012	-0,057
-482,635	-181,707	-0,062	0,001
-481,620	369,368	0,059	0,087
-480,605	75,725	0,035	-0,027
-479,591	800,000	-0,028	0,081
-478,576	-120,306	-0,123	-0,015
-477,562	566,525	-0,050	-0,089
-476,547	-200,000	0,014	-0,112
-475,532	134,864	0,142	-0,135
-474,518	160,386	0,086	0,087
-473,503	-200,000	-0,025	0,113
-472,489	92,633	0,014	0,011
-471,474	800,000	-0,042	0,109
-470,459	39,100	0,047	0,031
-469,445	800,000	0,016	0,049
-468,430	278,549	-0,095	0,123
-467,416	800,000	0,010	-0,031
-466,401	-200,000	-0,018	-0,143
-465,386	-9,733	0,093	0,045
-464,372	312,987	-0,093	0,128
-463,357	-200,000	0,012	-0,089
-462,343	-200,000	-0,003	-0,015
-461,328	-12,859	-0,142	0,067
-460,313	-200,000	0,063	0,213
-459,299	-200,000	0,011	0,079
-458,284	108,123	-0,068	0,059
-457,270	69,704	-0,042	0,031
-456,255	-200,000	-0,039	-0,148
-455,241	108,663	0,037	-0,032
-454,226	412,011	0,047	-0,073
-453,211	600,097	0,054	-0,099
-452,197	128,454	0,084	-0,078
-451,182	678,250	-0,031	0,058
-450,168	439,970	-0,130	-0,208
-449,153	41,881	0,062	0,041
-448,138	-184,124	-0,065	-0,001
-447,124	349,823	0,009	-0,012
-446,109	800,000	0,028	-0,073
-445,095	-200,000	-0,014	0,084
-444,080	-200,000	0,015	0,108
-443,065	240,565	0,071	-0,087
-442,051	-128,278	-0,065	0,007
-441,036	800,000	0,051	-0,105
-440,022	-200,000	-0,001	-0,056
-439,007	77,487	0,056	0,043
-437,992	-121,046	-0,028	0,003
-436,978	-189,186	-0,096	-0,001
-435,963	800,000	-0,026	0,074
-434,949	116,268	0,114	0,102
-433,934	800,000	-0,055	0,114
-432,919	800,000	0,043	0,111
-431,905	58,204	-0,061	0,043
-430,890	532,364	0,024	-0,041
-429,876	240,244	0,052	0,063
-428,861	-200,000	0,014	-0,079
-427,846	58,662	0,081	0,058
-426,832	800,000	0,046	-0,094
-425,817	279,127	-0,066	-0,085
-424,803	-200,000	-0,027	0,117
-423,788	573,756	-0,019	0,034
-422,773	104,242	0,139	0,119
-421,759	544,294	0,007	-0,012
-420,744	-11,392	0,071	0,034
-419,730	261,252	-0,074	-0,094
-418,715	83,734	0,046	0,036
-417,701	193,025	-0,064	-0,071
-416,686	-60,496	0,120	-0,037
-415,671	-200,000	0,010	0,081
-414,657	445,568	-0,030	0,048
-413,642	190,840	-0,021	0,023
-412,628	384,624	-0,127	0,191
-411,613	139,900	-0,082	0,079
-410,598	800,000	0,010	-0,024
-409,584	-200,000	0,001	-0,029
-408,569	261,704	0,079	0,099
-407,555	389,139	-0,076	0,114
-406,540	-7,492	0,106	0,052
-405,525	129,539	0,052	-0,048
-404,511	426,365	-0,092	-0,144
-403,496	119,461	0,018	-0,016
-402,482	-200,000	-0,010	0,043
-401,467	-111,068	0,160	0,024
-400,452	-40,942	0,068	-0,025
-399,438	-200,000	0,017	0,086
-398,423	800,000	0,032	-0,066
-397,409	122,049	-0,010	0,009
-396,394	-38,118	-0,084	0,032
-395,379	-200,000	-0,001	0,080
-394,365	-103,213	0,079	-0,013
-393,350	-115,924	-0,079	0,011
-392,336	442,337	0,028	0,045
-391,321	-200,000	-0,006	-0,058
-390,306	-162,053	-0,023	-0,001
-389,292	-200,000	-0,011	-0,106
-388,277	109,067	-0,084	-0,073
-387,263	54,457	0,144	-0,101
-386,248	-200,000	0,016	0,081
-385,233	328,145	-0,052	0,073
-384,219	-78,904	0,091	0,022
-383,204	-43,453	-0,031	0,011
-382,190	-200,000	0,018	-0,064
-381,175	650,239	0,086	-0,160
-380,160	-86,469	0,197	-0,044
-379,146	-135,958	0,086	0,007
-378,131	-106,810	0,075	-0,012
-377,117	-99,044	-0,091	0,017
-376,102	800,000	-0,016	0,043
-375,088	-200,000	-0,048	-0,165
-374,073	106,240	0,088	0,075
-373,058	-82,061	0,134	0,031
-372,044	84,078	0,032	-0,025
-371,029	-200,000	0,027	0,109
-370,015	173,733	-0,080	0,084
-369,000	-25,926	-0,058	0,025
-367,985	-108,490	0,090	0,014
-366,971	-200,000	-0,001	-0,036
-365,956	108,448	-0,036	0,031
-364,942	742,676	0,007	-0,014
-363,927	-200,000	0,003	0,053
-362,912	311,958	-0,016	-0,022
-361,898	-200,000	-0,018	-0,111
-360,883	363,057	-0,018	-0,026
-359,869	800,000	0,046	-0,092
-358,854	-52,760	0,119	0,040
-357,839	613,623	0,010	0,018
-356,825	-28,085	0,087	0,036
-355,810	312,105	-0,091	-0,125
-354,796	700,674	-0,011	-0,021
-353,781	50,331	0,025	0,017
-352,766	800,000	-0,013	0,028
-351,752	-200,000	-0,028	0,150
-350,737	-12,606	0,171	0,081
-349,723	-200,000	0,013	0,099
-348,708	-110,203	-0,048	0,007
-347,693	-162,579	-0,131	-0,005
-346,679	210,238	0,045	-0,051
-345,664	-55,131	-0,091	-0,030
-344,650	800,000	-0,014	0,039
-343,635	-67,319	0,080	-0,023
-342,620	-200,000	0,013	0,071
-341,606	800,000	0,008	-0,021
-340,591	-200,000	0,024	0,126
-339,577	-81,766	0,094	0,022
-338,562	282,885	-0,053	-0,070
-337,548	-79,545	0,046	0,011
-336,533	-200,000	0,010	0,102
-335,518	55,050	0,007	-0,005
-334,504	800,000	0,026	0,067
-333,489	-107,095	-0,085	-0,013
-332,475	418,452	0,076	-0,118
-331,460	-80,364	-0,053	-0,013
-330,445	65,627	-0,119	-0,087
-329,431	83,463	0,100	-0,079
-328,416	134,424	-0,116	-0,109
-327,402	225,665	0,058	-0,068
-326,387	-47,758	-0,054	-0,019
-325,372	-126,457	-0,082	0,009
-324,358	-106,535	0,143	-0,023
-323,343	130,590	-0,073	0,067
-322,329	800,000	-0,031	0,093
-321,314	171,731	0,045	0,047
-320,299	401,950	-0,085	0,130
-319,285	18,192	0,074	-0,043
-318,270	-200,000	0,025	-0,164
-317,256	537,183	-0,020	0,035
-316,241	229,479	0,050	-0,059
-315,226	-200,000	-0,004	-0,126
-314,212	175,663	0,044	0,046
-313,197	-20,788	0,085	0,037
-312,183	31,900	0,063	0,039
-311,168	53,018	-0,040	-0,028
-310,153	220,544	-0,075	-0,087
-309,139	800,000	0,032	-0,095
-308,124	509,328	-0,060	-0,101
-307,110	31,299	-0,054	0,034
-306,095	-31,591	0,074	0,030
-305,080	-100,160	-0,043	-0,008
-304,066	-176,638	-0,090	-0,002
-303,051	800,000	-0,029	0,084
-302,037	30,752	-0,081	-0,050
-301,022	50,466	0,066	0,045
-300,008	800,000	-0,060	-0,147
-298,993	-85,138	0,170	0,038
-297,978	176,494	0,016	0,017
-296,964	-77,259	-0,044	0,011
-295,949	800,000	0,018	-0,045
-294,935	100,822	-0,072	-0,061
-293,920	-23,616	-0,097	-0,042
-292,905	579,621	-0,066	0,117
-291,891	39,447	0,090	-0,058
-290,876	-200,000	-0,024	0,123
-289,862	711,970	0,044	0,086
-288,847	19,848	-0,131	0,076
-287,832	211,885	0,016	0,018
-286,818	66,061	-0,033	-0,024
-285,803	-135,668	0,139	0,012
-284,789	42,180	-0,083	-0,055
-283,774	296,520	-0,045	0,060
-282,759	-200,000	0,008	0,053
-281,745	-22,234	-0,063	-0,027
-280,730	-20,931	-0,101	0,045
-279,716	-62,080	0,165	0,049
-278,701	-200,000	0,009	-0,111
-277,686	800,000	-0,048	-0,122
-276,672	89,183	0,081	0,065
-275,657	189,294	0,056	-0,061
-274,643	10,991	-0,076	0,042
-273,628	-51,296	0,082	-0,027
-272,613	405,834	0,024	-0,037
-271,599	131,480	0,034	-0,031
-270,584	-136,422	0,154	-0,013
-269,570	800,000	-0,028	-0,065
-268,555	-111,084	0,042	-0,006
-267,540	800,000	-0,040	-0,127
-266,526	-130,858	-0,034	0,003
-265,511	74,606	0,040	-0,031
-264,497	-200,000	-0,004	0,033
-263,482	98,547	0,064	0,053
-262,467	800,000	0,028	0,088
-261,453	-200,000	-0,012	-0,064
-260,438	131,311	-0,089	-0,083
-259,424	800,000	0,042	0,094
-258,409	200,882	-0,088	0,098
-257,395	-110,218	0,160	-0,024
-256,380	737,551	0,069	0,135
-255,365	69,452	0,117	0,087
-254,351	-200,000	-0,007	0,047
-253,336	72,171	0,032	0,024
-252,322	165,693	-0,040	-0,041
-251,307	-200,000	0,004	-0,050
-250,292	800,000	0,045	0,095
-249,278	-30,194	0,171	0,070
-248,263	-200,000	-0,011	0,094
-247,249	-99,257	0,065	-0,012
-246,234	231,012	-0,053	0,063
-245,219	-200,000	0,009	0,066
-244,205	-200,000	0,007	0,081
-243,190	-49,540	-0,016	-0,006
-242,176	-106,314	0,131	-0,021
-241,161	-51,335	-0,075	0,025
-240,146	28,094	-0,072	-0,044
-239,132	-200,000	0,000	-0,091
-238,117	-184,503	0,014	-0,000
-237,103	39,452	-0,148	-0,095
-236,088	-101,744	-0,027	-0,005
-235,073	-174,641	0,097	-0,002
-234,059	48,307	-0,086	0,058
-233,044	397,278	0,050	0,076
-232,030	800,000	0,048	0,119
-231,015	-25,350	-0,043	-0,018
-230,000	-5,146	-0,054	0,027
-228,986	-200,000	0,035	0,194
-227,971	-200,000	-0,013	-0,054
-226,957	45,921	0,020	0,013
-225,942	-58,644	0,154	0,048
-224,927	-20,554	-0,087	0,039
-223,913	360,719	0,035	-0,051
-222,898	-159,704	0,044	-0,002
-221,884	281,878	-0,041	-0,053
-220,869	-73,715	-0,050	-0,013
-219,855	213,229	0,069	0,079
-218,840	-11,944	-0,103	0,048
-217,825	-44,443	0,096	0,035
-216,811	-100,029	-0,137	-0,024
-215,796	-200,000	-0,018	-0,064
-214,782	800,000	-0,002	0,005
-213,767	-200,000	-0,002	-0,046
-212,752	50,112	0,187	0,127
-211,738	-200,000	0,018	0,169
-210,723	-119,078	0,075	-0,009
-209,709	-200,000	-0,015	-0,069
-208,694	115,131	0,049	-0,043
-207,679	-200,000	-0,004	-0,024
-206,665	800,000	-0,022	0,052
-205,650	45,217	0,036	-0,024
-204,636	164,384	0,086	0,087
-203,621	-200,000	0,010	0,053
-202,606	-200,000	0,008	-0,053
-201,592	159,152	0,043	-0,043
-200,577	107,526	0,054	-0,046
-199,563	309,779	0,070	-0,095
-198,548	-200,000	0,005	0,064
-197,533	71,867	-0,034	0,025
-196,519	-200,000	-0,013	-0,047
-195,504	-38,261	-0,050	-0,019
-194,490	307,863	-0,039	-0,053
-193,475	46,411	-0,134	-0,089
-192,460	207,120	0,055	0,062
-191,446	-106,250	-0,102	-0,016
-190,431	-178,994	-0,136	0,002
-189,417	-200,000	-0,011	-0,043
-188,402	1,122	-0,093	-0,048
-187,387	661,852	0,013	-0,025
-186,373	11,808	-0,114	0,063
-185,358	800,000	0,037	-0,095
-184,344	-200,000	-0,002	-0,057
-183,329	-116,675	0,061	-0,008
-182,315	236,365	-0,104	0,124
-181,300	-146,568	-0,097	-0,006
-180,285	154,700	-0,062	0,062
-179,271	230,657	-0,093	-0,110
-178,256	-46,687	0,034	0,012
-177,242	66,377	-0,019	0,014
-176,227	96,198	0,060	0,049
-175,212	800,000	0,048	0,100
-174,198	-200,000	-0,011	0,077
-173,183	800,000	-0,025	-0,051
-172,169	128,620	-0,159	-0,146
-171,154	-200,000	-0,014	0,069
-170,139	-110,385	-0,086	0,013
-169,125	227,046	-0,032	-0,037
-168,110	636,889	0,074	-0,137
-167,096	234,645	-0,031	-0,037
-166,081	800,000	0,060	-0,131
-165,066	-49,039	-0,093	-0,032
-164,052	-200,000	0,001	0,030
-163,037	-200,000	0,009	-0,142
-162,023	-17,283	0,036	-0,016
-161,008	-27,120	-0,112	-0,047
-159,993	250,155	0,037	0,045
-158,979	118,726	-0,056	-0,050
-157,964	800,000	0,080	0,178
-156,950	12,625	0,090	-0,050
-155,935	458,024	0,052	0,084
-154,920	-114,311	-0,007	0,001
-153,906	-16,362	0,121	-0,055
-152,891	7,679	-0,055	0,030
-151,877	-200,000	0,031	0,186
-150,862	-200,000	-0,002	-0,054
-149,847	-17,644	-0,103	-0,046
-148,833	800,000	0,040	-0,107
-147,818	122,953	-0,048	0,044
-146,804	95,954	-0,095	-0,078
-145,789	-200,000	-0,014	-0,050
-144,775	-200,000	0,005	0,109
-143,760	-22,493	0,072	-0,031
-142,745	-15,197	0,088	-0,040
-141,731	47,004	-0,127	0,085
-140,716	-1,572	-0,136	0,069
-139,702	569,198	0,080	-0,141
-138,687	-200,000	-0,021	0,077
-137,672	53,606	-0,057	0,040
-136,658	-200,000	0,032	-0,119
-135,643	44,228	0,140	0,092
-134,629	-155,672	0,094	-0,004
-133,614	-63,811	0,089	-0,026
-132,599	-200,000	-0,021	0,119
-131,585	-3,154	-0,043	-0,022
-130,570	-77,662	-0,121	0,030
-129,556	-76,561	-0,128	-0,032
-128,541	43,945	-0,129	-0,085
-127,526	177,356	0,060	0,063
-126,512	166,050	-0,116	0,119
-125,497	-107,084	0,137	0,021
-124,483	-200,000	-0,006	0,181
-123,468	62,144	0,046	0,033
-122,453	-155,041	-0,146	-0,007
-121,439	214,776	-0,029	-0,033
-120,424	800,000	-0,071	-0,204
