DTS Sentinel unit serial number:	SN410029Multiplexer serial number:	ORYXHardware model number:	OX2-SRSoftware version number:	ORYX F/W v4,00 Oryx Data Collector v3.7.2.0data status	okinstallation	B5 Nyhavnadifferential loss correction	single-endedforward channel	channel 2reverse channel	N/Adate	2023/12/13time	16:07:13forward acquisition time	300,00reverse acquisition time	0,00gamma	499,1914k internal	0,3160k external	0,3160temperature offset calibration	1,0000default loss term (dB/km)	0,3820temperature slope calibration	1,0000multiplexer offset coefficient	1,0000multiplexer slope coefficient	1,0000fibre end	0,00T internal ref (°C)	14,88T ext. ref 1 (°C)	-1,69T ext. ref 2 (°C)	-1,93length (m)	temperature (°C)	Stokes	anti-Stokes-744,400	95,466	0,041	0,034
-743,385	-141,261	-0,234	-0,017
-742,371	-135,631	0,187	0,016
-741,356	-124,877	-0,272	0,030
-740,342	-50,611	0,123	0,042
-739,327	-97,540	-0,317	0,060
-738,312	151,081	0,080	-0,080
-737,298	-40,899	-0,292	-0,111
-736,283	-200,000	0,019	-0,115
-735,269	58,212	-0,175	0,126
-734,254	488,295	0,062	0,104
-733,239	-27,223	-0,558	-0,238
-732,225	-37,360	0,264	0,103
-731,210	100,449	0,136	-0,116
-730,196	476,564	0,029	-0,049
-729,181	675,466	-0,066	-0,127
-728,167	800,000	-0,014	0,044
-727,152	-200,000	0,004	-0,050
-726,137	70,806	0,050	0,038
-725,123	800,000	0,044	0,093
-724,108	231,548	-0,075	-0,091
-723,094	-29,769	-0,057	0,024
-722,079	181,203	0,060	0,065
-721,064	-22,246	-0,116	-0,051
-720,050	47,374	0,148	-0,102
-719,035	462,660	0,056	0,092
-718,021	-200,000	0,020	-0,196
-717,006	-200,000	-0,027	-0,155
-715,991	800,000	-0,048	0,123
-714,977	23,551	-0,125	-0,076
-713,962	-48,893	-0,079	0,028
-712,948	559,003	-0,055	-0,097
-711,933	-85,278	-0,158	0,036
-710,918	224,120	0,030	0,036
-709,904	365,407	-0,158	-0,235
-708,889	-200,000	0,007	-0,108
-707,875	-200,000	0,002	0,017
-706,860	156,188	-0,077	-0,078
-705,845	71,894	-0,175	-0,134
-704,831	66,198	-0,157	-0,117
-703,816	165,366	0,027	-0,028
-702,802	-47,483	-0,010	0,003
-701,787	305,385	0,044	-0,061
-700,772	49,639	-0,098	0,068
-699,758	800,000	-0,017	0,043
-698,743	-36,527	-0,029	0,011
-697,729	-200,000	0,003	-0,096
-696,714	-58,902	0,056	-0,018
-695,699	-19,143	-0,059	0,027
-694,685	-126,561	-0,204	-0,022
-693,670	-163,858	-0,078	-0,003
-692,656	207,765	0,055	0,063
-691,641	371,725	-0,056	-0,084
-690,627	-158,878	-0,069	0,003
-689,612	-14,547	-0,120	0,057
-688,597	-5,141	-0,039	-0,020
-687,583	753,863	-0,056	-0,111
-686,568	27,595	0,023	0,014
-685,554	243,204	-0,030	-0,037
-684,539	347,733	0,064	-0,093
-683,524	-136,554	-0,065	0,005
-682,510	800,000	0,045	-0,091
-681,495	-183,995	-0,086	0,001
-680,481	-50,305	-0,103	-0,036
-679,466	202,664	-0,055	0,063
-678,451	-88,027	-0,139	-0,030
-677,437	-200,000	-0,001	-0,055
-676,422	139,958	0,021	0,021
-675,408	389,286	-0,076	-0,115
-674,393	800,000	-0,027	-0,064
-673,378	-158,262	-0,086	-0,004
-672,364	-200,000	0,016	-0,101
-671,349	62,049	-0,085	0,062
-670,335	800,000	-0,021	0,051
-669,320	538,616	-0,038	-0,066
-668,305	-159,257	0,042	-0,002
-667,291	173,083	0,057	0,060
-666,276	-200,000	-0,009	0,045
-665,262	800,000	-0,027	-0,081
-664,247	451,500	0,041	-0,067
-663,232	-200,000	0,012	-0,048
-662,218	-174,400	-0,067	-0,001
-661,203	800,000	-0,057	-0,184
-660,189	-79,805	-0,020	-0,005
-659,174	-83,815	0,065	-0,015
-658,159	431,984	0,032	-0,052
-657,145	-200,000	-0,010	-0,091
-656,130	192,093	-0,048	-0,053
-655,116	32,996	-0,032	-0,020
-654,101	-180,397	0,064	-0,001
-653,086	-200,000	0,013	-0,048
-652,072	800,000	0,087	-0,256
-651,057	800,000	0,041	-0,125
-650,043	238,811	-0,044	0,054
-649,028	-76,153	-0,109	-0,028
-648,014	90,322	0,130	-0,107
-646,999	-105,339	0,011	0,002
-645,984	-200,000	-0,029	-0,137
-644,970	131,087	-0,017	-0,016
-643,955	-143,476	-0,071	0,005
-642,941	-200,000	-0,030	-0,198
-641,926	-144,335	0,065	0,004
-640,911	-200,000	0,001	0,008
-639,897	-200,000	-0,013	0,146
-638,882	800,000	-0,028	-0,091
-637,868	95,489	0,105	-0,088
-636,853	156,395	-0,032	0,033
-635,838	800,000	0,030	-0,074
-634,824	30,643	-0,021	-0,013
-633,809	34,363	0,096	-0,062
-632,795	31,078	0,063	0,039
-631,780	-200,000	-0,003	0,132
-630,765	102,750	-0,014	-0,012
-629,751	746,412	0,018	0,035
-628,736	80,232	-0,077	-0,061
-627,722	-157,960	-0,054	0,002
-626,707	-160,405	0,057	-0,002
-625,692	-60,326	0,045	-0,014
-624,678	17,699	-0,079	0,046
-623,663	228,678	-0,033	-0,040
-622,649	0,881	-0,072	0,038
-621,634	792,548	-0,034	-0,070
-620,619	800,000	0,043	-0,128
-619,605	-49,351	-0,078	-0,027
-618,590	28,786	0,095	-0,059
-617,576	771,083	0,054	0,109
-616,561	-111,466	-0,191	0,028
-615,546	703,269	0,056	0,109
-614,532	-200,000	-0,000	0,105
-613,517	800,000	-0,033	-0,093
-612,503	-61,866	-0,104	0,032
-611,488	439,080	0,031	0,050
-610,474	-2,562	0,129	-0,066
-609,459	2,318	-0,131	-0,069
-608,444	7,628	-0,046	-0,025
-607,430	305,409	-0,032	-0,044
-606,415	150,661	0,053	0,053
-605,401	-149,175	0,105	0,006
-604,386	800,000	-0,061	0,189
-603,371	251,404	0,029	0,036
-602,357	31,740	0,079	0,050
-601,342	-156,210	-0,105	0,005
-600,328	376,916	-0,053	-0,080
-599,313	-200,000	-0,012	-0,169
-598,298	-30,410	-0,050	-0,021
-597,284	-200,000	0,013	-0,058
-596,269	255,061	-0,063	-0,079
-595,255	-113,889	0,059	-0,008
-594,240	-119,497	-0,104	0,013
-593,225	95,138	-0,041	0,034
-592,211	-151,727	-0,107	-0,006
-591,196	222,332	0,058	-0,068
-590,182	52,895	-0,066	0,047
-589,167	474,204	0,092	0,153
-588,152	-5,120	-0,015	0,008
-587,138	401,863	0,059	-0,091
-586,123	151,778	-0,018	-0,018
-585,109	-200,000	-0,109	0,000
-584,094	-200,000	-0,015	-0,078
-583,079	-77,003	0,123	-0,031
-582,065	-158,371	-0,092	0,004
-581,050	46,214	0,009	-0,006
-580,036	-200,000	0,000	-0,009
-579,021	-200,000	-0,003	0,064
-578,006	800,000	0,011	-0,035
-576,992	122,847	-0,036	-0,033
-575,977	117,733	0,060	0,054
-574,963	15,301	0,079	-0,045
-573,948	60,268	-0,070	-0,050
-572,934	203,479	0,095	-0,107
-571,919	-200,000	-0,011	-0,125
-570,904	19,627	-0,051	-0,030
-569,890	-200,000	-0,052	-0,226
-568,875	9,587	0,090	-0,050
-567,861	438,409	0,034	0,054
-566,846	166,908	0,065	-0,067
-565,831	37,030	-0,149	-0,096
-564,817	113,261	0,044	0,039
-563,802	71,381	0,058	-0,044
-562,788	-114,020	-0,112	0,016
-561,773	21,280	0,051	0,030
-560,758	-28,117	0,159	0,067
-559,744	-49,129	0,099	-0,034
-558,729	-80,088	-0,108	-0,026
-557,715	-200,000	0,007	0,025
-556,700	-58,605	-0,124	-0,039
-555,685	-200,000	0,001	-0,031
-554,671	-200,000	-0,005	0,044
-553,656	-200,000	0,019	-0,068
-552,642	-10,757	0,094	0,045
-551,627	-30,388	0,010	-0,004
-550,612	-200,000	-0,037	0,140
-549,598	-79,585	-0,090	-0,022
-548,583	-35,784	-0,119	-0,047
-547,569	495,150	-0,028	-0,048
-546,554	-28,616	-0,025	-0,011
-545,539	-81,477	-0,086	-0,021
-544,525	-200,000	-0,031	-0,149
-543,510	-200,000	-0,016	-0,055
-542,496	-19,066	-0,154	-0,070
-541,481	800,000	-0,035	-0,076
-540,466	157,669	-0,059	-0,060
-539,452	118,979	0,062	0,056
-538,437	-200,000	0,013	0,130
-537,423	-200,000	-0,004	0,086
-536,408	-91,075	-0,079	-0,016
-535,393	338,417	0,026	0,038
-534,379	-200,000	0,003	-0,078
-533,364	96,526	0,062	0,052
-532,350	-42,694	0,099	-0,036
-531,335	-103,466	0,037	0,006
-530,321	91,711	-0,028	-0,023
-529,306	170,344	0,095	-0,099
-528,291	-103,135	-0,166	0,028
-527,277	304,845	-0,023	0,032
-526,262	-200,000	-0,014	0,048
-525,248	-97,311	0,062	0,012
-524,233	800,000	-0,035	0,093
-523,218	81,796	0,057	0,045
-522,204	473,197	0,029	-0,047
-521,189	18,626	-0,145	0,085
-520,175	800,000	-0,045	0,112
-519,160	109,911	0,161	-0,141
-518,145	-65,841	0,068	-0,020
-517,131	-16,249	0,153	-0,070
-516,116	-200,000	-0,013	-0,053
-515,102	59,128	-0,023	0,016
-514,087	-200,000	0,016	0,074
-513,072	349,010	-0,040	-0,058
-512,058	-5,401	-0,169	-0,085
-511,043	-200,000	-0,003	-0,032
-510,029	-200,000	-0,004	0,179
-509,014	-200,000	-0,004	-0,057
-507,999	-40,966	-0,085	0,032
-506,985	-200,000	0,009	-0,086
-505,970	-18,647	-0,046	-0,021
-504,956	-73,796	0,098	0,026
-503,941	12,277	-0,094	0,053
-502,926	64,585	0,034	0,025
-501,912	-200,000	0,018	0,116
-500,897	800,000	-0,029	-0,061
-499,883	-97,746	0,046	0,009
-498,868	718,278	-0,035	-0,067
-497,853	-200,000	-0,022	-0,149
-496,839	800,000	-0,035	-0,083
-495,824	-68,755	0,084	0,023
-494,810	-20,883	0,108	0,048
-493,795	-163,617	0,054	-0,002
-492,781	-30,781	-0,159	0,065
-491,766	800,000	0,048	-0,132
-490,751	-76,152	-0,130	0,033
-489,737	744,919	0,035	-0,070
-488,722	289,900	-0,021	0,028
-487,708	-200,000	-0,011	0,042
-486,693	262,283	-0,095	0,120
-485,678	33,905	0,099	-0,063
-484,664	320,165	-0,016	-0,022
-483,649	-200,000	-0,007	-0,152
-482,635	-200,000	-0,006	0,035
-481,620	800,000	0,016	-0,041
-480,605	-4,667	-0,088	0,044
-479,591	-200,000	-0,009	0,030
-478,576	800,000	-0,031	-0,080
-477,562	-77,535	-0,098	0,025
-476,547	57,421	-0,094	-0,067
-475,532	800,000	-0,070	-0,142
-474,518	-200,000	-0,000	0,121
-473,503	7,441	0,008	0,004
-472,489	58,542	-0,094	0,067
-471,474	-200,000	0,008	0,085
-470,459	-112,424	-0,163	0,024
-469,445	-95,055	-0,055	0,011
-468,430	-109,817	-0,067	0,010
-467,416	-200,000	0,011	0,063
-466,401	562,199	0,053	0,093
-465,386	-95,214	0,065	0,013
-464,372	-76,450	-0,106	-0,027
-463,357	-200,000	-0,033	-0,142
-462,343	8,102	-0,166	-0,090
-461,328	-24,106	-0,061	-0,026
-460,313	-200,000	-0,001	0,066
-459,299	-200,000	0,002	-0,051
-458,284	159,703	-0,014	0,014
-457,270	771,213	-0,010	-0,020
-456,255	800,000	0,078	0,168
-455,241	149,132	0,033	0,032
-454,226	617,650	-0,071	0,131
-453,211	33,490	0,054	0,034
-452,197	-63,047	-0,124	-0,037
-451,182	-110,359	0,020	-0,003
-450,168	-102,183	-0,113	-0,020
-449,153	710,561	0,043	0,083
-448,138	-17,462	-0,122	0,056
-447,124	276,219	-0,061	0,079
-446,109	24,271	-0,011	-0,007
-445,095	787,123	-0,061	-0,122
-444,080	13,367	0,052	0,029
-443,065	800,000	0,017	0,049
-442,051	-200,000	0,003	0,066
-441,036	-107,437	-0,162	0,026
-440,022	-22,023	0,095	-0,042
-439,007	800,000	0,014	-0,035
-437,992	491,363	-0,023	-0,038
-436,978	601,789	0,033	-0,060
-435,963	61,848	-0,035	-0,025
-434,949	57,784	-0,096	0,068
-433,934	-200,000	-0,000	0,053
-432,919	22,959	-0,067	-0,040
-431,905	178,263	0,060	-0,063
-430,890	257,111	0,109	-0,137
-429,876	-19,415	0,042	0,019
-428,861	-74,933	-0,082	0,021
-427,846	-200,000	-0,013	0,070
-426,832	-124,487	-0,136	-0,015
-425,817	321,265	-0,048	0,067
-424,803	-200,000	-0,007	-0,068
-423,788	175,151	0,071	-0,075
-422,773	630,671	-0,054	0,099
-421,759	800,000	0,048	0,125
-420,744	-127,844	-0,081	-0,008
-419,730	86,819	-0,166	-0,134
-418,715	556,781	0,063	-0,110
-417,701	-44,184	-0,044	0,016
-416,686	54,941	-0,029	0,021
-415,671	13,515	0,113	0,064
-414,657	-200,000	0,008	0,151
-413,642	323,341	0,048	-0,067
-412,628	-6,183	-0,023	-0,011
-411,613	80,449	-0,085	-0,067
-410,598	-200,000	-0,014	-0,168
-409,584	-200,000	0,006	-0,066
-408,569	800,000	-0,030	-0,082
-407,555	225,269	-0,083	0,098
-406,540	398,821	-0,058	0,089
-405,525	-21,782	-0,136	0,060
-404,511	-123,623	0,083	-0,009
-403,496	50,374	0,022	0,015
-402,482	-156,639	0,046	-0,002
-401,467	271,865	0,120	0,155
-400,452	-200,000	0,031	-0,143
-399,438	-86,696	-0,128	-0,028
-398,423	800,000	0,007	0,018
-397,409	800,000	0,057	-0,175
-396,394	800,000	-0,032	-0,099
-395,379	118,328	0,074	0,066
-394,365	-83,338	0,014	0,003
-393,350	-65,662	-0,029	0,008
-392,336	-177,943	0,078	0,001
-391,321	800,000	-0,039	0,085
-390,306	-46,564	-0,105	-0,037
-389,292	-26,972	-0,084	-0,035
-388,277	800,000	0,013	-0,027
-387,263	28,410	0,055	0,034
-386,248	228,968	0,060	0,071
-385,233	270,590	-0,072	-0,092
-384,219	6,311	-0,087	0,047
-383,204	-53,758	0,073	0,024
-382,190	-7,142	0,041	-0,020
-381,175	417,039	-0,091	-0,142
-380,160	-200,000	-0,004	0,136
-379,146	72,146	0,080	-0,061
-378,131	-100,984	-0,080	0,014
-377,117	-177,103	-0,077	0,001
-376,102	800,000	0,063	-0,175
-375,088	278,438	-0,069	-0,089
-374,073	-77,385	0,040	0,010
-373,058	437,974	-0,035	0,056
-372,044	-200,000	-0,004	0,034
-371,029	21,827	0,082	0,048
-370,015	215,948	-0,082	0,095
-369,000	800,000	0,029	-0,073
-367,985	-169,084	0,083	0,002
-366,971	49,735	-0,092	-0,063
-365,956	35,046	0,085	0,054
-364,942	225,098	-0,062	-0,072
-363,927	96,291	0,048	-0,040
-362,912	-60,651	0,120	0,037
-361,898	800,000	0,020	-0,043
-360,883	77,519	-0,161	0,124
-359,869	-200,000	0,008	-0,080
-358,854	800,000	-0,066	0,148
-357,839	95,791	-0,012	-0,010
-356,825	-150,925	0,121	0,007
-355,810	63,081	-0,050	-0,037
-354,796	39,177	-0,027	-0,018
-353,781	251,632	0,047	-0,058
-352,766	232,516	-0,051	-0,061
-351,752	-122,446	0,085	-0,010
-350,737	-54,940	0,098	-0,032
-349,723	228,095	-0,008	-0,009
-348,708	714,821	0,042	-0,082
-347,693	41,422	-0,099	0,065
-346,679	-131,178	-0,044	0,004
-345,664	800,000	0,015	-0,039
-344,650	411,324	0,082	-0,127
-343,635	800,000	0,007	-0,019
-342,620	-200,000	-0,006	-0,024
-341,606	-83,396	-0,138	0,032
-340,591	149,792	0,073	-0,072
-339,577	-200,000	0,008	-0,059
-338,562	39,939	0,121	-0,078
-337,548	-200,000	-0,020	-0,175
-336,533	16,743	0,026	-0,015
-335,518	43,381	-0,038	0,025
-334,504	361,058	0,126	0,184
-333,489	-200,000	0,051	0,185
-332,475	-200,000	-0,014	0,079
-331,460	53,125	-0,012	-0,009
-330,445	230,854	0,070	-0,084
-329,431	-125,911	-0,047	-0,005
-328,416	-200,000	-0,006	0,054
-327,402	-135,678	0,075	-0,006
-326,387	-200,000	0,018	-0,074
-325,372	-161,799	0,080	-0,003
-324,358	-31,299	-0,110	0,045
-323,343	-34,698	-0,040	-0,016
-322,329	71,149	0,133	-0,100
-321,314	288,226	0,027	0,036
-320,299	-200,000	0,024	0,089
-319,285	346,447	0,062	-0,089
-318,270	-200,000	0,016	-0,052
-317,256	-89,722	-0,133	-0,028
-316,241	-7,985	0,219	0,107
-315,226	-71,558	-0,070	0,019
-314,212	-200,000	0,009	0,046
-313,197	255,376	0,137	0,171
-312,183	712,180	0,005	0,009
-311,168	-200,000	0,009	0,036
-310,153	481,555	0,033	-0,055
-309,139	-200,000	-0,030	-0,131
-308,124	800,000	0,010	-0,022
-307,110	140,275	0,027	0,026
-306,095	-161,143	0,161	-0,006
-305,080	-61,579	-0,028	0,008
-304,066	-131,291	-0,069	0,007
-303,051	800,000	0,067	-0,159
-302,037	800,000	-0,008	-0,023
-301,022	48,380	-0,120	-0,081
-300,008	148,129	0,095	0,093
-298,993	235,045	0,038	0,045
-297,978	-183,691	0,057	-0,001
-296,964	-200,000	-0,012	-0,039
-295,949	-161,308	-0,098	-0,004
-294,935	45,287	0,015	0,010
-293,920	387,488	0,080	0,121
-292,905	-200,000	0,009	-0,041
-291,891	-48,853	0,230	-0,079
-290,876	-62,964	-0,074	0,022
-289,862	89,623	-0,053	0,043
-288,847	584,932	0,015	-0,026
-287,832	-28,234	0,158	-0,066
-286,818	-39,267	0,126	0,048
-285,803	82,978	-0,057	0,045
-284,789	27,646	0,155	0,094
-283,774	494,762	0,057	0,095
-282,759	106,125	-0,099	-0,085
-281,745	-85,830	-0,092	0,020
-280,730	533,676	0,050	0,087
-279,716	800,000	-0,032	-0,068
-278,701	800,000	-0,031	0,095
-277,686	453,213	0,052	0,084
-276,672	-200,000	0,056	0,241
-275,657	800,000	0,021	0,049
-274,643	800,000	0,044	0,097
-273,628	-124,590	-0,011	0,001
-272,613	259,943	-0,038	-0,048
-271,599	111,409	0,007	-0,006
-270,584	800,000	0,084	0,241
-269,570	117,005	-0,140	0,125
-268,555	-200,000	-0,005	0,028
-267,540	315,497	0,107	-0,147
-266,526	178,483	-0,057	-0,060
-265,511	-200,000	-0,012	-0,057
-264,497	286,849	-0,006	0,008
-263,482	800,000	0,082	0,170
-262,467	-200,000	0,011	-0,070
-261,453	-200,000	-0,007	0,046
-260,438	469,455	0,026	0,042
-259,424	26,453	0,053	0,032
-258,409	224,785	-0,027	0,031
-257,395	368,663	-0,043	-0,064
-256,380	-128,452	-0,017	-0,002
-255,365	21,867	-0,114	0,067
-254,351	29,393	0,054	0,033
-253,336	31,254	-0,020	-0,013
-252,322	337,820	-0,019	-0,026
-251,307	-25,070	-0,068	0,029
-250,292	-121,776	0,147	0,017
-249,278	-176,191	0,173	0,003
-248,263	122,734	-0,030	0,027
-247,249	-68,565	-0,118	-0,033
-246,234	-77,343	0,126	0,031
-245,219	123,207	0,047	-0,042
-244,205	7,675	0,147	0,079
-243,190	-174,269	-0,150	-0,003
-242,176	41,394	-0,012	0,008
-241,161	-126,252	0,172	0,018
-240,146	-43,471	-0,071	-0,026
-239,132	361,145	0,046	0,067
-238,117	115,172	0,104	0,092
-237,103	-200,000	0,019	0,068
-236,088	420,394	-0,033	-0,052
-235,073	-200,000	0,025	0,137
-234,059	540,653	0,067	0,116
-233,044	117,497	0,018	0,016
-232,030	210,922	-0,025	0,028
-231,015	-200,000	0,012	-0,106
-230,000	205,878	-0,064	0,072
-228,986	-94,279	0,092	-0,018
-227,971	-200,000	0,019	0,140
-226,957	66,459	0,117	-0,086
-225,942	-115,357	0,120	-0,016
-224,927	12,874	-0,016	0,009
-223,913	-98,562	0,144	-0,026
-222,898	-200,000	-0,080	-0,000
-221,884	84,724	0,020	0,016
-220,869	41,914	-0,072	-0,047
-219,855	-135,811	-0,100	-0,008
-218,840	434,040	0,021	-0,033
-217,825	262,526	-0,086	-0,107
-216,811	283,311	0,054	-0,071
-215,796	-40,087	-0,036	0,014
-214,782	-105,152	-0,042	0,007
-213,767	-200,000	-0,018	0,065
-212,752	-200,000	-0,032	0,218
-211,738	176,745	0,036	0,038
-210,723	76,563	0,145	-0,111
-209,709	-200,000	-0,011	0,151
-208,694	800,000	-0,052	0,110
-207,679	-200,000	-0,010	-0,042
-206,665	-175,102	0,146	-0,003
-205,650	-152,247	0,085	0,004
-204,636	126,825	0,093	0,085
-203,621	-200,000	-0,006	-0,108
-202,606	800,000	-0,022	-0,048
-201,592	90,263	0,111	0,090
-200,577	261,889	-0,063	-0,079
-199,563	-52,822	0,095	0,031
-198,548	265,913	-0,083	0,105
-197,533	-75,935	0,165	0,042
-196,519	-43,285	0,099	0,036
-195,504	-200,000	-0,006	-0,077
-194,490	105,291	-0,100	0,085
-193,475	15,065	-0,122	-0,069
-192,460	383,035	0,075	0,111
-191,446	-200,000	0,008	0,226
-190,431	-46,051	0,048	-0,017
-189,417	800,000	0,035	0,106
-188,402	95,861	-0,010	-0,008
-187,387	800,000	-0,031	0,075
-186,373	-133,940	-0,142	0,012
-185,358	-154,057	0,155	0,007
-184,344	800,000	-0,049	-0,108
-183,329	-135,552	-0,099	-0,008
-182,315	-107,126	0,095	-0,015
-181,300	800,000	-0,042	-0,091
-180,285	-200,000	0,074	-0,274
-179,271	-200,000	-0,057	-0,207
-178,256	-147,774	0,057	0,003
-177,242	-200,000	0,014	0,059
-176,227	238,954	0,045	0,054
-175,212	373,234	-0,083	0,122
-174,198	-15,424	0,057	-0,026
-173,183	-200,000	0,003	-0,042
-172,169	800,000	-0,022	-0,050
-171,154	-77,973	-0,074	-0,018
-170,139	-188,946	0,133	-0,001
-169,125	-123,727	-0,090	0,010
-168,110	-120,712	0,068	0,008
-167,096	-97,018	-0,037	0,007
-166,081	-200,000	0,017	0,082
-165,066	-200,000	-0,040	-0,154
-164,052	-133,671	0,235	-0,021
-163,037	-28,223	-0,067	-0,028
-162,023	20,027	0,047	-0,027
-161,008	114,080	0,123	-0,108
-159,993	117,479	0,039	0,034
-158,979	-91,159	0,045	0,009
-157,964	800,000	-0,069	0,204
-156,950	-200,000	-0,008	0,061
-155,935	-200,000	0,003	-0,049
-154,920	-200,000	-0,008	0,189
-153,906	-200,000	-0,004	0,089
-152,891	105,782	-0,138	0,117
-151,877	-200,000	-0,002	-0,034
-150,862	45,481	-0,041	0,027
-149,847	-90,124	-0,067	0,014
-148,833	100,005	-0,083	-0,069
-147,818	800,000	-0,025	0,061
-146,804	175,147	0,058	-0,060
-145,789	-34,635	-0,041	0,016
-144,775	223,116	-0,056	0,065
-143,760	-119,844	0,086	-0,011
-142,745	800,000	-0,036	-0,110
-141,731	-200,000	0,001	-0,044
-140,716	-127,124	0,084	0,009
-139,702	-200,000	0,029	0,113
-138,687	800,000	-0,048	0,122
-137,672	386,839	0,091	0,135
-136,658	-76,625	-0,076	-0,019
-135,643	-109,311	-0,149	0,022
-134,629	88,827	-0,077	0,061
-133,614	-200,000	-0,031	0,134
-132,599	-200,000	0,015	0,082
-131,585	-200,000	0,009	-0,043
-130,570	174,504	-0,072	0,075
-129,556	-200,000	-0,004	0,047
-128,541	-72,422	0,116	0,031
-127,526	-59,314	0,060	0,018
-126,512	-200,000	0,002	-0,142
-125,497	-53,503	0,068	0,022
-124,483	171,691	0,032	0,033
-123,468	-200,000	0,004	-0,068
-122,453	-200,000	0,046	-0,176
-121,439	75,392	-0,049	-0,037
-120,424	800,000	-0,057	0,140
-119,410	-200,000	0,004	0,109
