DTS Sentinel unit serial number:	SN410029Multiplexer serial number:	ORYXHardware model number:	OX2-SRSoftware version number:	ORYX F/W v4,00 Oryx Data Collector v3.7.2.0data status	okinstallation	B5 Nyhavnadifferential loss correction	single-endedforward channel	channel 2reverse channel	N/Adate	2023/12/14time	14:32:13forward acquisition time	300,00reverse acquisition time	0,00gamma	499,1914k internal	0,3157k external	0,3157temperature offset calibration	1,0000default loss term (dB/km)	0,3820temperature slope calibration	1,0000multiplexer offset coefficient	1,0000multiplexer slope coefficient	1,0000fibre end	0,00T internal ref (°C)	8,01T ext. ref 1 (°C)	-8,07T ext. ref 2 (°C)	-8,13length (m)	temperature (°C)	Stokes	anti-Stokes-744,400	103,636	0,103	0,089
-743,385	-48,485	-0,360	-0,127
-742,371	333,947	0,111	0,159
-741,356	-110,030	-0,317	-0,048
-740,342	380,121	0,137	0,207
-739,327	-99,866	-0,305	-0,056
-738,312	42,964	0,152	0,102
-737,298	-61,551	-0,406	-0,125
-736,283	40,301	0,129	0,085
-735,269	-77,415	-0,390	-0,099
-734,254	122,556	0,146	0,135
-733,239	-48,896	-0,477	-0,168
-732,225	-147,169	0,278	0,017
-731,210	-200,000	0,012	-0,090
-730,196	-159,032	-0,157	-0,006
-729,181	800,000	-0,046	-0,144
-728,167	199,285	0,036	0,040
-727,152	-200,000	0,015	-0,056
-726,137	-200,000	0,001	0,034
-725,123	132,885	0,015	0,014
-724,108	-200,000	-0,023	-0,109
-723,094	-200,000	0,020	-0,084
-722,079	800,000	-0,074	-0,178
-721,064	86,716	-0,064	-0,052
-720,050	-75,020	-0,063	-0,017
-719,035	-200,000	-0,033	0,110
-718,021	-119,160	-0,091	0,012
-717,006	-67,527	-0,097	0,028
-715,991	307,843	-0,126	-0,174
-714,977	115,891	-0,117	-0,105
-713,962	-38,220	-0,057	-0,022
-712,948	-148,451	0,119	0,007
-711,933	73,589	-0,198	-0,153
-710,918	-200,000	0,007	-0,053
-709,904	-63,099	-0,036	0,011
-708,889	-200,000	0,009	-0,055
-707,875	800,000	-0,060	-0,168
-706,860	66,618	-0,137	-0,102
-705,845	-200,000	0,004	-0,125
-704,831	-5,063	-0,166	0,084
-703,816	181,407	-0,147	-0,160
-702,802	205,752	0,121	0,139
-701,787	157,343	-0,060	-0,061
-700,772	82,546	-0,105	-0,084
-699,758	491,874	0,029	0,050
-698,743	191,176	0,046	0,051
-697,729	800,000	0,016	-0,041
-696,714	-69,220	-0,036	0,010
-695,699	8,835	0,093	-0,052
-694,685	-200,000	-0,015	-0,065
-693,670	-39,207	-0,067	0,026
-692,656	-146,119	0,075	0,005
-691,641	752,439	0,037	0,074
-690,627	297,407	-0,057	0,078
-689,612	-162,129	0,083	-0,003
-688,597	75,469	-0,096	-0,075
-687,583	-78,133	-0,217	-0,055
-686,568	192,164	-0,011	-0,013
-685,554	-3,999	0,104	-0,053
-684,539	-200,000	-0,003	-0,044
-683,524	520,571	0,061	0,105
-682,510	175,286	-0,060	0,064
-681,495	-48,902	0,048	-0,017
-680,481	719,310	-0,097	-0,191
-679,466	-24,101	-0,054	0,024
-678,451	-200,000	0,001	-0,014
-677,437	25,619	-0,099	-0,061
-676,422	353,061	0,037	0,055
-675,408	195,832	-0,029	-0,032
-674,393	-200,000	0,002	0,119
-673,378	-118,709	-0,178	0,023
-672,364	214,235	-0,052	0,060
-671,349	10,119	0,070	-0,039
-670,335	78,586	-0,035	-0,027
-669,320	-200,000	0,005	0,092
-668,305	800,000	-0,022	-0,062
-667,291	-9,315	-0,108	0,053
-666,276	-17,227	0,015	0,007
-665,262	290,908	-0,173	-0,231
-664,247	-177,353	-0,035	-0,001
-663,232	423,591	0,005	0,008
-662,218	-200,000	0,008	0,064
-661,203	-200,000	-0,007	-0,120
-660,189	800,000	0,060	-0,136
-659,174	-200,000	-0,007	-0,184
-658,159	10,806	-0,108	-0,061
-657,145	2,986	-0,098	-0,052
-656,130	190,918	0,020	0,022
-655,116	48,249	0,079	-0,055
-654,101	-6,989	0,108	0,054
-653,086	-200,000	0,005	0,089
-652,072	28,499	-0,108	-0,067
-651,057	78,743	-0,037	-0,029
-650,043	800,000	0,043	-0,093
-649,028	82,533	0,124	-0,099
-648,014	-200,000	-0,008	-0,113
-646,999	800,000	0,072	0,155
-645,984	346,136	0,072	-0,105
-644,970	-152,357	0,104	0,005
-643,955	7,729	-0,135	-0,074
-642,941	-200,000	-0,002	-0,084
-641,926	145,005	0,027	-0,027
-640,911	69,167	0,042	0,031
-639,897	-51,283	-0,068	-0,023
-638,882	-30,208	0,104	0,043
-637,868	-200,000	0,002	-0,119
-636,853	321,491	0,018	-0,026
-635,838	192,446	0,078	-0,087
-634,824	-200,000	-0,001	-0,053
-633,809	-200,000	0,027	0,108
-632,795	-115,711	0,042	-0,006
-631,780	146,582	0,060	-0,060
-630,765	-92,029	-0,074	-0,015
-629,751	412,820	0,055	-0,085
-628,736	136,467	-0,078	-0,075
-627,722	132,829	0,119	0,113
-626,707	188,879	-0,062	-0,069
-625,692	42,981	-0,048	-0,032
-624,678	-200,000	0,017	0,105
-623,663	496,704	0,034	-0,057
-622,649	-200,000	0,009	0,040
-621,634	166,208	0,063	-0,066
-620,619	-118,048	0,013	0,002
-619,605	-200,000	0,009	0,038
-618,590	290,919	-0,059	0,079
-617,576	30,842	0,121	0,076
-616,561	19,664	-0,101	0,059
-615,546	-52,450	0,132	-0,044
-614,532	-21,031	-0,082	-0,037
-613,517	800,000	-0,022	-0,047
-612,503	49,671	0,049	0,034
-611,488	-39,652	0,071	-0,027
-610,474	201,896	0,075	-0,085
-609,459	93,127	-0,066	0,055
-608,444	-31,335	-0,097	-0,040
-607,430	-26,050	-0,060	-0,026
-606,415	23,151	-0,111	-0,067
-605,401	800,000	-0,028	0,076
-604,386	533,475	-0,047	-0,082
-603,371	715,759	0,061	0,120
-602,357	-120,702	-0,078	0,010
-601,342	-151,194	-0,069	-0,004
-600,328	800,000	-0,032	-0,079
-599,313	176,357	-0,082	0,087
-598,298	78,018	0,084	-0,065
-597,284	17,025	0,048	0,028
-596,269	105,556	0,015	-0,013
-595,255	62,248	-0,032	0,023
-594,240	43,249	0,038	0,025
-593,225	-137,339	-0,087	-0,007
-592,211	800,000	-0,076	-0,155
-591,196	239,896	-0,012	-0,015
-590,182	-83,139	0,231	-0,054
-589,167	513,974	-0,036	0,062
-588,152	800,000	-0,045	-0,108
-587,138	86,672	-0,046	-0,037
-586,123	-200,000	-0,004	0,013
-585,109	-91,797	-0,080	-0,016
-584,094	82,257	0,042	-0,034
-583,079	641,911	0,040	0,076
-582,065	-200,000	-0,020	0,165
-581,050	662,261	-0,017	0,031
-580,036	-200,000	0,019	0,071
-579,021	-33,336	-0,138	0,056
-578,006	-200,000	-0,068	0,000
-576,992	-125,682	-0,017	0,002
-575,977	-121,964	0,059	-0,007
-574,963	90,488	0,063	-0,052
-573,948	156,207	-0,090	0,091
-572,934	-200,000	-0,072	0,000
-571,919	-136,573	0,031	-0,003
-570,904	-150,436	-0,105	-0,006
-569,890	576,021	-0,082	0,148
-568,875	-200,000	0,017	0,094
-567,861	65,944	0,076	-0,056
-566,846	26,676	0,098	-0,060
-565,831	-32,840	0,155	0,063
-564,817	-200,000	0,018	-0,080
-563,802	-200,000	-0,054	-0,231
-562,788	-200,000	0,005	-0,070
-561,773	-75,191	0,109	0,028
-560,758	107,442	0,103	-0,090
-559,744	-128,188	0,161	0,017
-558,729	-132,477	-0,102	-0,009
-557,715	-134,902	0,129	-0,011
-556,700	-13,267	-0,058	-0,028
-555,685	-55,419	0,079	0,026
-554,671	-200,000	-0,001	-0,063
-553,656	-116,389	0,158	0,021
-552,642	301,714	0,110	0,149
-551,627	-145,896	0,013	-0,001
-550,612	800,000	-0,050	-0,148
-549,598	-66,110	-0,042	0,012
-548,583	-200,000	0,017	-0,064
-547,569	-98,410	-0,123	-0,023
-546,554	-70,060	0,110	-0,031
-545,539	800,000	-0,062	-0,154
-544,525	-182,441	-0,055	-0,001
-543,510	-109,839	-0,057	-0,009
-542,496	-200,000	-0,038	-0,158
-541,481	-200,000	0,018	-0,132
-540,466	800,000	-0,024	0,053
-539,452	68,746	0,080	-0,060
-538,437	-25,364	0,147	0,063
-537,423	36,970	-0,056	-0,036
-536,408	-200,000	-0,003	-0,026
-535,393	-129,976	0,065	0,006
-534,379	-86,283	-0,130	-0,029
-533,364	-68,526	0,019	0,005
-532,350	-200,000	0,034	-0,151
-531,335	611,197	-0,064	0,117
-530,321	64,360	-0,037	-0,027
-529,306	-27,095	-0,042	-0,018
-528,291	-200,000	0,036	0,139
-527,277	-125,147	-0,151	0,017
-526,262	468,232	0,029	-0,047
-525,248	800,000	0,033	-0,106
-524,233	268,701	0,125	0,160
-523,218	-146,762	-0,037	0,002
-522,204	362,689	0,026	-0,039
-521,189	167,551	-0,048	-0,050
-520,175	800,000	-0,057	-0,133
-519,160	-49,916	-0,084	-0,029
-518,145	-18,077	0,122	-0,056
-517,131	800,000	0,056	0,120
-516,116	-200,000	0,015	0,048
-515,102	323,116	-0,012	-0,017
-514,087	219,646	-0,046	-0,054
-513,072	103,903	-0,100	-0,086
-512,058	10,746	0,053	-0,030
-511,043	17,929	-0,120	0,069
-510,029	-10,430	0,132	-0,064
-509,014	-34,389	-0,123	0,049
-507,999	72,397	0,146	-0,111
-506,985	36,001	0,102	0,065
-505,970	-53,389	-0,125	-0,041
-504,956	-200,000	0,002	0,017
-503,941	800,000	0,042	-0,123
-502,926	-200,000	0,011	0,045
-501,912	-127,173	-0,160	0,017
-500,897	-12,048	0,201	0,096
-499,883	800,000	0,013	-0,031
-498,868	-24,444	-0,067	0,029
-497,853	-77,076	-0,160	-0,040
-496,839	-200,000	0,015	-0,059
-495,824	-200,000	0,012	0,210
-494,810	-106,626	-0,074	-0,012
-493,795	-200,000	0,015	-0,093
-492,781	-134,196	-0,034	-0,003
-491,766	35,713	-0,130	-0,084
-490,751	-200,000	-0,009	-0,061
-489,737	700,169	0,072	-0,139
-488,722	-47,199	-0,076	-0,027
-487,708	650,336	0,019	0,036
-486,693	141,054	-0,062	0,060
-485,678	409,769	-0,076	0,117
-484,664	-85,110	0,021	-0,005
-483,649	35,494	-0,054	-0,035
-482,635	-200,000	0,010	-0,092
-481,620	17,376	-0,097	0,056
-480,605	357,983	-0,008	0,012
-479,591	-200,000	-0,008	-0,053
-478,576	-47,932	0,068	0,024
-477,562	-15,508	-0,134	-0,062
-476,547	-200,000	-0,043	-0,138
-475,532	800,000	-0,041	0,090
-474,518	-73,371	0,108	0,029
-473,503	-200,000	0,012	-0,112
-472,489	-1,304	-0,023	0,012
-471,474	-71,579	0,062	0,017
-470,459	-86,161	0,124	-0,028
-469,445	-200,000	0,003	-0,104
-468,430	109,671	-0,124	-0,108
-467,416	422,140	0,073	0,115
-466,401	-94,167	0,137	0,027
-465,386	800,000	0,080	0,206
-464,372	800,000	-0,037	-0,083
-463,357	461,449	-0,143	-0,233
-462,343	-200,000	0,015	-0,099
-461,328	148,161	-0,059	-0,058
-460,313	226,063	-0,073	0,086
-459,299	800,000	-0,019	0,050
-458,284	358,114	-0,008	0,012
-457,270	33,484	-0,113	-0,071
-456,255	-127,137	0,083	-0,009
-455,241	800,000	0,025	-0,078
-454,226	-200,000	0,014	0,107
-453,211	-52,075	0,078	-0,026
-452,197	15,081	0,032	-0,018
-451,182	69,224	0,106	0,079
-450,168	414,448	-0,062	0,097
-449,153	-200,000	0,007	-0,081
-448,138	800,000	-0,023	-0,059
-447,124	-121,438	0,004	0,000
-446,109	-196,925	0,133	-0,001
-445,095	-200,000	-0,003	0,024
-444,080	800,000	0,065	0,190
-443,065	73,909	0,117	0,089
-442,051	-69,665	-0,079	-0,022
-441,036	-11,001	-0,030	0,014
-440,022	416,370	0,036	-0,056
-439,007	-130,669	-0,064	0,006
-437,992	229,486	0,050	0,060
-436,978	568,688	0,034	0,060
-435,963	178,415	-0,049	0,052
-434,949	564,235	-0,096	0,170
-433,934	800,000	-0,013	0,027
-432,919	-81,966	-0,047	0,011
-431,905	-200,000	-0,054	-0,237
-430,890	310,909	0,052	-0,070
-429,876	95,873	-0,044	0,037
-428,861	-200,000	-0,009	0,061
-427,846	-90,290	-0,094	-0,020
-426,832	37,221	-0,065	-0,042
-425,817	-78,884	-0,172	-0,042
-424,803	-200,000	0,005	0,023
-423,788	159,752	0,138	0,140
-422,773	-62,722	0,122	-0,036
-421,759	408,548	-0,054	-0,083
-420,744	-29,304	0,052	0,022
-419,730	7,759	0,031	-0,017
-418,715	-99,096	-0,029	0,005
-417,701	-16,369	-0,148	-0,068
-416,686	-200,000	0,015	0,091
-415,671	-153,903	0,103	-0,005
-414,657	-167,888	-0,028	0,001
-413,642	-200,000	0,018	0,223
-412,628	-200,000	0,004	0,041
-411,613	77,540	-0,064	0,050
-410,598	318,413	-0,084	0,116
-409,584	800,000	-0,051	0,111
-408,569	-61,248	0,148	-0,045
-407,555	336,271	0,048	0,068
-406,540	222,783	0,042	0,049
-405,525	800,000	-0,034	-0,087
-404,511	800,000	-0,009	0,018
-403,496	-200,000	0,000	-0,011
-402,482	-200,000	-0,025	0,092
-401,467	187,822	0,062	0,067
-400,452	758,314	-0,085	0,168
-399,438	61,749	0,042	-0,030
-398,423	-75,068	0,022	-0,006
-397,409	156,395	-0,085	-0,085
-396,394	-155,470	-0,019	0,001
-395,379	-200,000	-0,021	-0,081
-394,365	-56,917	-0,100	-0,032
-393,350	572,355	0,082	0,146
-392,336	575,493	-0,084	0,150
-391,321	100,097	-0,071	0,060
-390,306	-200,000	-0,005	0,044
-389,292	-172,235	0,150	-0,003
-388,277	-16,108	0,095	0,044
-387,263	328,182	0,132	0,185
-386,248	-200,000	-0,008	0,081
-385,233	147,849	0,054	-0,053
-384,219	-200,000	-0,014	0,059
-383,204	-200,000	0,007	0,087
-382,190	18,862	-0,140	0,081
-381,175	438,297	0,027	-0,043
-380,160	-107,192	0,017	-0,003
-379,146	341,009	-0,026	-0,038
-378,131	231,001	0,042	-0,050
-377,117	-84,214	0,100	-0,023
-376,102	14,917	-0,090	0,051
-375,088	-200,000	0,014	-0,115
-374,073	404,804	-0,058	-0,089
-373,058	125,020	0,052	0,048
-372,044	-175,273	-0,092	-0,002
-371,029	788,790	-0,032	0,063
-370,015	676,381	-0,038	-0,072
-369,000	15,038	0,088	-0,050
-367,985	800,000	-0,016	-0,042
-366,971	-200,000	0,007	0,101
-365,956	-200,000	0,028	0,157
-364,942	633,466	-0,051	0,094
-363,927	-200,000	-0,039	0,169
-362,912	-21,409	0,147	0,065
-361,898	-52,139	-0,038	0,013
-360,883	-112,728	-0,035	-0,005
-359,869	412,953	-0,030	0,047
-358,854	-200,000	-0,008	-0,053
-357,839	170,050	0,024	-0,024
-356,825	36,852	0,116	-0,074
-355,810	547,242	0,032	0,056
-354,796	272,006	-0,092	-0,118
-353,781	-200,000	-0,002	-0,013
-352,766	-200,000	-0,024	0,121
-351,752	800,000	0,040	-0,085
-350,737	196,344	0,120	0,133
-349,723	-58,570	-0,034	-0,011
-348,708	20,046	-0,060	0,035
-347,693	-200,000	0,018	-0,120
-346,679	183,438	0,111	-0,120
-345,664	800,000	0,047	-0,115
-344,650	151,382	-0,065	0,064
-343,635	800,000	-0,011	-0,027
-342,620	-126,342	0,009	0,001
-341,606	78,283	0,079	0,061
-340,591	-40,706	0,069	0,026
-339,577	-200,000	-0,012	-0,095
-338,562	522,159	0,020	0,034
-337,548	-198,719	-0,019	0,000
-336,533	98,416	0,103	-0,086
-335,518	15,654	0,206	0,117
-334,504	-50,723	0,107	0,036
-333,489	106,370	-0,070	-0,060
-332,475	119,129	-0,100	-0,090
-331,460	554,976	0,022	-0,038
-330,445	-28,864	0,035	0,014
-329,431	800,000	-0,012	0,035
-328,416	341,836	0,063	0,090
-327,402	22,428	0,051	0,030
-326,387	-200,000	-0,042	0,196
-325,372	408,916	-0,047	0,073
-324,358	146,018	0,020	0,019
-323,343	-155,521	0,198	0,009
-322,329	-90,515	-0,136	-0,028
-321,314	300,009	0,060	0,080
-320,299	-200,000	-0,003	-0,039
-319,285	81,464	-0,122	0,096
-318,270	-31,344	-0,143	0,058
-317,256	138,664	0,093	0,089
-316,241	-200,000	-0,004	-0,057
-315,226	800,000	0,016	-0,038
-314,212	-200,000	0,028	0,106
-313,197	-200,000	0,018	0,060
-312,183	173,529	-0,096	-0,100
-311,168	193,105	-0,058	0,064
-310,153	53,787	-0,068	-0,047
-309,139	-200,000	0,009	0,072
-308,124	-58,429	-0,082	0,026
-307,110	263,926	-0,049	-0,062
-306,095	-150,701	0,133	-0,007
-305,080	-76,365	-0,060	0,015
-304,066	-200,000	0,009	-0,044
-303,051	474,566	-0,040	0,066
-302,037	800,000	-0,041	0,092
-301,022	-133,656	0,109	0,010
-300,008	124,038	-0,103	0,094
-298,993	626,721	0,100	0,184
-297,978	800,000	0,001	0,002
-296,964	-200,000	-0,011	-0,053
-295,949	800,000	0,031	-0,068
-294,935	-125,059	-0,090	-0,010
-293,920	110,538	-0,083	-0,072
-292,905	-200,000	-0,006	-0,053
-291,891	23,882	-0,036	0,022
-290,876	80,561	0,010	0,008
-289,862	-200,000	-0,063	-0,223
-288,847	-200,000	-0,011	0,108
-287,832	-85,792	-0,071	0,016
-286,818	-189,589	0,084	0,001
-285,803	800,000	0,009	-0,019
-284,789	-43,417	0,077	-0,028
-283,774	-45,426	-0,058	0,021
-282,759	-81,559	-0,023	0,005
-281,745	319,105	-0,078	-0,107
-280,730	-200,000	-0,017	0,088
-279,716	110,757	0,040	0,035
-278,701	-200,000	0,007	-0,039
-277,686	-68,164	0,097	0,027
-276,672	-200,000	0,032	0,126
-275,657	328,454	-0,044	0,061
-274,643	-89,385	0,106	-0,022
-273,628	-58,820	-0,054	-0,017
-272,613	-1,148	0,066	-0,034
-271,599	185,023	-0,082	0,089
-270,584	800,000	0,019	0,043
-269,570	-82,234	-0,191	0,045
-268,555	86,993	0,064	0,051
-267,540	-12,667	0,048	0,023
-266,526	-36,008	-0,184	-0,072
-265,511	213,273	-0,092	-0,105
-264,497	-65,301	0,080	0,023
-263,482	30,734	0,119	0,074
-262,467	69,651	0,088	0,066
-261,453	578,174	0,023	0,041
-260,438	-200,000	-0,013	0,047
-259,424	255,692	-0,028	0,034
-258,409	115,115	-0,055	-0,048
-257,395	-52,293	0,067	-0,022
-256,380	113,251	-0,047	0,042
-255,365	800,000	0,049	0,153
-254,351	-200,000	-0,006	0,056
-253,336	375,693	0,045	0,067
-252,322	-149,429	-0,072	-0,004
-251,307	296,395	-0,050	-0,067
-250,292	796,284	0,029	-0,058
-249,278	-14,246	0,083	-0,039
-248,263	-79,496	-0,048	-0,012
-247,249	63,696	0,054	-0,039
-246,234	153,340	-0,050	-0,049
-245,219	-200,000	-0,028	-0,145
-244,205	108,267	-0,090	-0,078
-243,190	-200,000	-0,021	0,085
-242,176	412,012	-0,052	-0,080
-241,161	-200,000	0,020	-0,188
-240,146	178,784	0,147	-0,155
-239,132	-96,039	-0,104	-0,020
-238,117	-200,000	-0,009	-0,100
-237,103	-49,766	-0,027	-0,009
-236,088	-200,000	-0,006	-0,092
-235,073	-102,274	0,127	-0,022
-234,059	-39,379	0,027	0,010
-233,044	316,459	-0,026	-0,036
-232,030	-136,185	-0,033	-0,003
-231,015	-145,207	-0,126	0,008
-230,000	123,872	-0,044	-0,040
-228,986	-147,783	0,114	-0,007
-227,971	-65,666	0,118	-0,034
-226,957	19,301	0,053	0,031
-225,942	-200,000	-0,001	-0,041
-224,927	780,525	-0,052	0,103
-223,913	501,699	-0,004	0,007
-222,898	-200,000	-0,004	-0,041
-221,884	410,480	0,049	-0,075
-220,869	-63,918	-0,030	-0,009
-219,855	32,072	0,041	-0,026
-218,840	800,000	0,038	-0,108
-217,825	-71,521	-0,111	-0,030
-216,811	800,000	0,008	0,024
-215,796	-4,760	-0,072	-0,036
-214,782	-200,000	0,006	0,131
-213,767	198,233	-0,094	-0,104
-212,752	-6,518	0,161	0,079
-211,738	-200,000	0,012	0,089
-210,723	-40,701	-0,067	-0,025
-209,709	-42,963	-0,068	-0,025
-208,694	-200,000	-0,004	-0,037
-207,679	-117,272	-0,083	0,011
-206,665	-150,814	-0,083	0,004
-205,650	800,000	0,051	-0,103
-204,636	66,105	0,147	0,108
-203,621	94,692	-0,106	0,087
-202,606	-200,000	0,006	-0,103
-201,592	-200,000	-0,022	0,130
-200,577	800,000	0,031	0,068
-199,563	-104,362	0,085	0,014
-198,548	-200,000	0,004	-0,100
-197,533	800,000	-0,025	0,078
-196,519	800,000	-0,037	0,075
-195,504	429,715	-0,035	-0,055
-194,490	-131,202	-0,046	-0,004
-193,475	16,209	-0,082	0,046
-192,460	59,703	0,072	0,052
-191,446	800,000	-0,022	-0,044
-190,431	-200,000	0,042	-0,162
-189,417	-143,569	-0,113	-0,008
-188,402	311,352	0,063	0,086
-187,387	223,002	0,019	-0,022
-186,373	-200,000	-0,002	-0,017
-185,358	218,663	0,089	-0,102
-184,344	-113,583	0,109	0,015
-183,329	800,000	-0,022	0,065
-182,315	18,218	-0,142	0,081
-181,300	40,366	0,101	0,065
-180,285	145,481	-0,098	-0,094
-179,271	-112,668	0,136	0,019
-178,256	54,622	0,014	-0,010
-177,242	75,258	0,096	-0,073
-176,227	-200,000	0,013	0,124
-175,212	738,129	-0,080	0,156
-174,198	-34,305	-0,099	0,039
-173,183	-200,000	-0,020	0,069
-172,169	364,572	0,043	-0,062
-171,154	-99,161	0,031	0,006
-170,139	16,722	0,033	0,019
-169,125	800,000	0,034	0,106
-168,110	-138,658	-0,162	-0,013
-167,096	-200,000	0,007	0,037
-166,081	800,000	0,029	-0,070
-165,066	247,617	-0,086	-0,104
-164,052	-200,000	-0,003	-0,037
-163,037	20,596	0,093	-0,054
-162,023	-45,524	-0,065	0,023
-161,008	-200,000	0,014	-0,060
-159,993	28,535	-0,129	-0,078
-158,979	-200,000	-0,008	-0,052
-157,964	-200,000	0,012	-0,048
-156,950	-200,000	0,020	-0,086
-155,935	-200,000	-0,039	0,176
-154,920	-163,855	0,130	-0,004
-153,906	275,393	0,054	-0,069
-152,891	-200,000	0,021	0,117
-151,877	126,974	0,041	-0,037
-150,862	-155,174	-0,068	0,003
-149,847	800,000	-0,032	-0,074
-148,833	800,000	0,062	0,177
-147,818	-200,000	0,008	0,059
-146,804	-104,630	0,124	0,020
-145,789	112,624	-0,039	0,034
-144,775	-200,000	0,002	-0,122
-143,760	626,019	0,093	-0,170
-142,745	467,924	-0,053	-0,087
-141,731	-24,877	0,114	0,049
-140,716	121,731	-0,040	-0,036
-139,702	707,668	0,050	0,096
-138,687	-18,234	-0,036	0,016
-137,672	167,178	0,044	-0,045
-136,658	-200,000	0,044	-0,206
-135,643	-200,000	-0,001	-0,099
-134,629	242,854	-0,050	-0,061
-133,614	-97,407	0,031	-0,006
-132,599	-85,076	0,065	0,015
-131,585	-86,182	0,148	0,033
-130,570	-62,265	-0,185	0,055
-129,556	800,000	-0,026	-0,068
-128,541	800,000	-0,048	-0,111
-127,526	-16,306	-0,052	-0,024
-126,512	800,000	-0,048	0,103
-125,497	-74,230	-0,078	0,020
-124,483	35,936	0,177	0,112
-123,468	386,799	-0,051	0,076
-122,453	18,229	0,157	0,090
-121,439	-79,269	-0,230	0,056
-120,424	192,147	-0,084	0,091
