DTS Sentinel unit serial number:	SN410029Multiplexer serial number:	ORYXHardware model number:	OX2-SRSoftware version number:	ORYX F/W v4,00 Oryx Data Collector v3.7.2.0data status	okinstallation	B5 Nyhavnadifferential loss correction	single-endedforward channel	channel 2reverse channel	N/Adate	2023/12/13time	02:22:13forward acquisition time	300,00reverse acquisition time	0,00gamma	499,1914k internal	0,3159k external	0,3159temperature offset calibration	1,0000default loss term (dB/km)	0,3820temperature slope calibration	1,0000multiplexer offset coefficient	1,0000multiplexer slope coefficient	1,0000fibre end	0,00T internal ref (°C)	14,01T ext. ref 1 (°C)	-2,43T ext. ref 2 (°C)	-2,73length (m)	temperature (°C)	Stokes	anti-Stokes-744,400	-57,422	0,201	0,065
-743,385	-84,164	-0,228	-0,053
-742,371	-99,770	0,170	-0,031
-741,356	-111,949	-0,276	0,041
-740,342	253,174	0,099	0,125
-739,327	-125,743	-0,375	0,041
-738,312	126,336	0,084	-0,079
-737,298	-46,768	-0,264	-0,095
-736,283	26,417	0,070	0,043
-735,269	-135,877	-0,247	-0,021
-734,254	21,657	0,077	-0,046
-733,239	-27,524	-0,441	-0,188
-732,225	-136,962	0,226	0,019
-731,210	628,517	-0,025	-0,046
-730,196	-200,000	-0,013	0,048
-729,181	-200,000	0,004	0,016
-728,167	-116,579	0,102	-0,014
-727,152	-9,186	-0,066	0,032
-726,137	152,857	-0,118	-0,119
-725,123	-200,000	-0,008	-0,052
-724,108	46,367	-0,118	-0,081
-723,094	4,852	-0,074	-0,040
-722,079	-200,000	-0,015	-0,122
-721,064	-200,000	-0,014	-0,106
-720,050	-200,000	-0,024	0,112
-719,035	225,719	-0,036	0,043
-718,021	134,398	0,168	-0,160
-717,006	-200,000	-0,054	-0,186
-715,991	-194,036	-0,182	0,001
-714,977	-4,782	-0,088	0,045
-713,962	-10,436	-0,031	-0,015
-712,948	495,427	-0,033	-0,056
-711,933	800,000	0,037	-0,101
-710,918	-139,926	-0,096	-0,007
-709,904	65,918	-0,067	0,050
-708,889	22,544	-0,087	-0,052
-707,875	-200,000	-0,007	0,023
-706,860	800,000	0,023	-0,062
-705,845	-200,000	-0,009	-0,035
-704,831	-200,000	0,001	0,023
-703,816	-200,000	-0,025	0,089
-702,802	187,212	-0,102	-0,112
-701,787	-111,161	-0,023	-0,003
-700,772	-200,000	-0,009	-0,053
-699,758	-200,000	0,037	-0,161
-698,743	-49,200	-0,123	0,043
-697,729	-200,000	-0,027	0,212
-696,714	-200,000	-0,013	-0,044
-695,699	723,960	-0,014	0,028
-694,685	-103,199	-0,135	0,023
-693,670	680,391	-0,027	-0,052
-692,656	-200,000	0,005	0,061
-691,641	318,973	0,080	-0,112
-690,627	395,270	0,069	0,105
-689,612	800,000	-0,055	0,116
-688,597	329,444	-0,072	-0,103
-687,583	-9,917	-0,132	-0,064
-686,568	-12,169	-0,068	-0,032
-685,554	-37,092	-0,099	-0,039
-684,539	335,663	0,013	-0,018
-683,524	-200,000	0,021	0,140
-682,510	-158,671	0,114	0,005
-681,495	800,000	-0,047	0,099
-680,481	-63,695	0,058	-0,017
-679,466	800,000	0,073	-0,175
-678,451	582,439	0,014	0,026
-677,437	-134,614	0,145	0,013
-676,422	-7,561	-0,079	-0,039
-675,408	-107,889	0,113	-0,018
-674,393	-123,513	-0,135	0,016
-673,378	-79,649	0,018	-0,004
-672,364	-200,000	-0,071	-0,231
-671,349	-200,000	0,009	-0,176
-670,335	800,000	0,033	-0,086
-669,320	-200,000	0,016	-0,055
-668,305	800,000	-0,002	0,004
-667,291	800,000	-0,024	0,067
-666,276	-121,547	-0,085	0,010
-665,262	800,000	-0,030	0,063
-664,247	-200,000	-0,003	-0,079
-663,232	210,965	-0,053	0,061
-662,218	-200,000	-0,007	0,072
-661,203	10,354	0,097	0,054
-660,189	-24,190	0,151	-0,066
-659,174	15,877	-0,106	-0,061
-658,159	-184,952	-0,126	-0,001
-657,145	159,013	-0,090	0,092
-656,130	710,165	0,016	0,030
-655,116	73,593	0,142	0,109
-654,101	-23,230	-0,097	0,043
-653,086	-39,630	0,069	-0,026
-652,072	351,897	0,024	-0,035
-651,057	-88,895	-0,103	0,022
-650,043	800,000	-0,023	-0,060
-649,028	-44,617	0,047	-0,017
-648,014	713,528	0,040	0,078
-646,999	228,062	-0,051	0,062
-645,984	-200,000	0,000	0,081
-644,970	-66,026	-0,128	-0,037
-643,955	-200,000	0,009	-0,118
-642,941	48,567	-0,128	-0,088
-641,926	146,917	-0,037	0,036
-640,911	-131,853	-0,058	0,006
-639,897	800,000	0,024	0,058
-638,882	-200,000	0,003	0,137
-637,868	31,676	0,079	0,050
-636,853	-66,086	-0,108	0,032
-635,838	-200,000	-0,026	0,085
-634,824	208,533	0,074	-0,085
-633,809	-200,000	0,003	-0,012
-632,795	4,254	0,040	-0,021
-631,780	200,573	-0,064	-0,072
-630,765	-104,375	-0,060	-0,010
-629,751	11,855	-0,106	-0,059
-628,736	-112,926	-0,064	-0,009
-627,722	-132,362	-0,075	0,007
-626,707	466,166	0,045	-0,074
-625,692	18,031	0,074	0,043
-624,678	800,000	0,038	0,113
-623,663	-200,000	0,024	0,122
-622,649	-87,587	-0,072	0,016
-621,634	-151,640	0,047	-0,002
-620,619	-53,125	-0,093	-0,031
-619,605	58,580	-0,044	0,032
-618,590	-200,000	0,018	0,072
-617,576	-20,833	0,191	0,086
-616,561	-29,275	0,077	-0,032
-615,546	800,000	-0,066	0,152
-614,532	800,000	-0,007	0,023
-613,517	336,668	-0,052	-0,075
-612,503	114,158	0,019	0,017
-611,488	-200,000	-0,002	-0,007
-610,474	-200,000	-0,011	0,092
-609,459	540,052	0,061	0,107
-608,444	202,961	-0,025	0,028
-607,430	800,000	0,011	0,026
-606,415	-82,567	-0,065	0,015
-605,401	-200,000	0,017	-0,055
-604,386	47,542	-0,138	-0,094
-603,371	-70,895	-0,034	0,009
-602,357	800,000	0,034	0,077
-601,342	-141,934	-0,010	0,001
-600,328	-200,000	0,008	-0,100
-599,313	-200,000	0,011	-0,139
-598,298	-39,554	0,033	0,013
-597,284	-200,000	0,008	-0,055
-596,269	-178,724	-0,113	-0,002
-595,255	-149,991	-0,093	-0,005
-594,240	131,965	0,017	-0,016
-593,225	62,546	0,133	-0,097
-592,211	130,612	-0,068	-0,064
-591,196	-112,535	0,102	0,015
-590,182	800,000	0,015	-0,038
-589,167	-200,000	0,001	0,109
-588,152	285,057	-0,027	0,036
-587,138	140,173	-0,036	0,035
-586,123	-200,000	-0,023	-0,082
-585,109	-200,000	0,011	-0,039
-584,094	-95,325	-0,148	-0,029
-583,079	154,191	-0,076	0,076
-582,065	-200,000	0,029	0,132
-581,050	-23,563	-0,117	0,051
-580,036	582,839	-0,019	-0,034
-579,021	-200,000	-0,017	0,092
-578,006	-46,054	-0,138	-0,050
-576,992	-83,650	0,116	-0,027
-575,977	139,338	0,056	0,054
-574,963	771,951	-0,022	-0,044
-573,948	244,103	-0,041	0,051
-572,934	-177,288	0,117	-0,002
-571,919	-42,988	-0,038	0,014
-570,904	108,040	-0,013	-0,011
-569,890	-64,412	-0,121	-0,036
-568,875	0,752	-0,050	0,026
-567,861	800,000	0,024	0,058
-566,846	250,716	-0,034	0,043
-565,831	440,122	-0,018	-0,028
-564,817	800,000	-0,017	-0,052
-563,802	-97,791	0,100	-0,019
-562,788	-32,577	0,092	-0,037
-561,773	-200,000	0,005	-0,053
-560,758	534,255	0,047	0,081
-559,744	-76,770	0,069	0,017
-558,729	800,000	-0,070	0,147
-557,715	-79,904	0,106	-0,026
-556,700	-60,655	-0,163	-0,050
-555,685	-200,000	-0,016	-0,172
-554,671	800,000	-0,033	0,068
-553,656	-143,874	0,052	0,004
-552,642	398,633	0,061	0,094
-551,627	-200,000	0,019	-0,079
-550,612	-130,121	-0,054	0,005
-549,598	800,000	0,028	-0,088
-548,583	243,133	-0,016	-0,019
-547,569	458,304	0,039	-0,063
-546,554	98,700	0,123	-0,104
-545,539	-200,000	-0,008	0,092
-544,525	158,846	0,065	0,066
-543,510	-200,000	0,018	-0,125
-542,496	-162,317	-0,028	-0,001
-541,481	-11,420	-0,037	0,018
-540,466	-173,412	0,039	0,001
-539,452	-200,000	-0,005	0,119
-538,437	-200,000	0,004	-0,020
-537,423	327,348	0,099	0,139
-536,408	377,195	-0,051	-0,077
-535,393	38,561	-0,119	-0,077
-534,379	-22,540	-0,179	-0,079
-533,364	-107,568	-0,081	-0,013
-532,350	0,673	0,142	0,074
-531,335	352,849	0,065	-0,094
-530,321	-61,173	-0,129	0,040
-529,306	800,000	0,022	0,067
-528,291	134,131	-0,086	-0,081
-527,277	-167,403	0,075	0,002
-526,262	-200,000	0,008	-0,046
-525,248	73,436	0,033	-0,025
-524,233	31,974	0,086	-0,054
-523,218	-3,016	-0,091	0,046
-522,204	-200,000	0,020	-0,084
-521,189	-200,000	0,001	-0,177
-520,175	-43,015	-0,131	0,048
-519,160	800,000	-0,052	-0,123
-518,145	222,239	0,069	0,081
-517,131	-88,711	0,067	-0,014
-516,116	-34,036	0,056	0,022
-515,102	-52,241	-0,034	-0,012
-514,087	800,000	0,034	-0,102
-513,072	-200,000	-0,038	-0,178
-512,058	-200,000	-0,031	-0,117
-511,043	20,788	-0,041	-0,024
-510,029	-105,822	0,103	0,017
-509,014	353,104	-0,036	0,052
-507,999	70,105	-0,065	0,049
-506,985	800,000	0,017	0,036
-505,970	143,411	-0,094	-0,091
-504,956	800,000	-0,032	0,091
-503,941	-100,317	0,064	0,011
-502,926	-12,076	0,078	0,037
-501,912	800,000	0,045	0,115
-500,897	62,091	-0,080	0,058
-499,883	-200,000	-0,014	0,064
-498,868	-199,759	-0,062	-0,000
-497,853	-76,727	0,175	0,044
-496,839	-3,238	-0,100	0,051
-495,824	-72,621	0,035	0,009
-494,810	-116,792	-0,119	0,016
-493,795	89,030	-0,056	0,045
-492,781	800,000	0,027	0,076
-491,766	431,502	-0,035	-0,056
-490,751	665,200	0,042	-0,079
-489,737	358,165	0,034	-0,049
-488,722	-200,000	-0,004	0,046
-487,708	-200,000	-0,004	-0,014
-486,693	-200,000	-0,022	0,080
-485,678	-191,016	0,144	0,001
-484,664	-200,000	0,044	-0,173
-483,649	273,064	0,060	-0,078
-482,635	300,775	-0,040	-0,054
-481,620	52,652	-0,121	-0,084
-480,605	51,163	0,134	-0,093
-479,591	59,100	0,122	0,087
-478,576	469,238	-0,057	-0,093
-477,562	800,000	-0,022	-0,064
-476,547	-200,000	0,002	-0,064
-475,532	159,818	0,061	-0,062
-474,518	-200,000	-0,003	0,032
-473,503	73,079	0,115	0,088
-472,489	-78,552	-0,158	0,039
-471,474	-200,000	-0,040	-0,157
-470,459	-200,000	0,041	-0,151
-469,445	6,173	-0,021	-0,011
-468,430	-91,873	0,010	-0,002
-467,416	42,342	-0,011	0,007
-466,401	-200,000	0,009	-0,042
-465,386	-200,000	-0,021	-0,076
-464,372	98,602	-0,057	-0,048
-463,357	101,415	0,016	-0,013
-462,343	-200,000	-0,011	-0,114
-461,328	-200,000	0,071	-0,240
-460,313	800,000	-0,033	-0,081
-459,299	80,386	0,063	0,049
-458,284	110,879	0,034	0,030
-457,270	-200,000	0,011	0,058
-456,255	315,424	0,032	0,044
-455,241	91,863	-0,067	0,055
-454,226	-200,000	0,008	0,076
-453,211	268,945	0,077	0,098
-452,197	73,058	-0,033	-0,025
-451,182	-91,399	-0,059	0,012
-450,168	228,731	0,044	-0,053
-449,153	212,149	-0,096	-0,110
-448,138	-73,665	-0,183	0,048
-447,124	-200,000	0,005	-0,139
-446,109	-90,632	0,070	-0,015
-445,095	-33,126	0,011	-0,004
-444,080	-151,934	0,169	0,009
-443,065	-200,000	0,021	0,069
-442,051	-200,000	0,009	-0,061
-441,036	-200,000	0,025	-0,136
-440,022	476,494	-0,055	0,091
-439,007	-200,000	0,010	-0,039
-437,992	-200,000	0,011	0,049
-436,978	207,643	-0,026	-0,029
-435,963	-200,000	-0,036	0,118
-434,949	-97,833	-0,149	0,028
-433,934	800,000	0,032	-0,096
-432,919	21,823	-0,080	-0,047
-431,905	-93,571	0,065	-0,013
-430,890	249,020	0,109	0,134
-429,876	-176,324	0,140	0,003
-428,861	-100,540	0,031	0,006
-427,846	337,631	-0,066	-0,094
-426,832	-200,000	-0,005	-0,141
-425,817	-113,851	-0,046	-0,006
-424,803	438,432	-0,045	-0,071
-423,788	189,021	0,079	0,087
-422,773	-79,899	0,160	-0,039
-421,759	-200,000	-0,001	0,044
-420,744	60,486	-0,074	0,054
-419,730	729,426	-0,039	-0,076
-418,715	800,000	0,044	-0,102
-417,701	-100,541	-0,055	-0,010
-416,686	800,000	0,016	-0,050
-415,671	-200,000	0,002	0,102
-414,657	79,003	0,079	0,061
-413,642	-200,000	-0,018	-0,149
-412,628	-200,000	0,016	-0,255
-411,613	-200,000	0,034	-0,222
-410,598	86,869	-0,085	-0,068
-409,584	800,000	0,011	-0,025
-408,569	166,382	0,082	0,085
-407,555	800,000	-0,035	0,076
-406,540	800,000	-0,053	-0,130
-405,525	27,732	0,044	-0,027
-404,511	173,759	0,015	0,016
-403,496	-200,000	0,033	-0,125
-402,482	-200,000	-0,009	-0,044
-401,467	311,289	0,019	-0,026
-400,452	-118,602	0,036	-0,005
-399,438	-200,000	0,022	0,112
-398,423	203,968	0,036	0,041
-397,409	339,668	0,082	-0,116
-396,394	-96,465	0,079	0,015
-395,379	800,000	-0,020	0,053
-394,365	-200,000	-0,013	-0,084
-393,350	-200,000	-0,021	0,137
-392,336	368,925	-0,038	0,056
-391,321	-60,475	-0,110	-0,034
-390,306	-200,000	0,012	-0,058
-389,292	-171,267	-0,005	-0,000
-388,277	305,480	0,125	-0,169
-387,263	-16,093	0,167	0,077
-386,248	-200,000	0,010	-0,065
-385,233	-200,000	-0,000	0,023
-384,219	204,722	0,035	0,040
-383,204	601,878	0,039	0,071
-382,190	545,537	-0,107	-0,187
-381,175	101,153	0,016	-0,014
-380,160	703,812	-0,059	0,113
-379,146	-8,927	0,115	0,056
-378,131	-49,400	-0,053	0,018
-377,117	581,588	-0,064	-0,115
-376,102	-200,000	-0,034	-0,141
-375,088	38,368	-0,134	0,087
-374,073	-200,000	0,036	-0,115
-373,058	-200,000	-0,011	0,127
-372,044	-88,693	-0,013	-0,003
-371,029	-113,424	0,056	0,008
-370,015	-200,000	-0,001	0,048
-369,000	-200,000	0,013	-0,043
-367,985	168,233	0,031	0,032
-366,971	119,796	-0,074	0,066
-365,956	800,000	-0,025	-0,071
-364,942	48,964	0,032	-0,022
-363,927	30,821	0,023	0,014
-362,912	800,000	-0,029	-0,072
-361,898	689,716	-0,007	-0,014
-360,883	472,114	0,020	0,033
-359,869	-200,000	0,016	0,114
-358,854	-13,205	-0,110	-0,052
-357,839	-3,499	0,210	0,106
-356,825	-200,000	-0,004	0,032
-355,810	272,465	0,045	0,058
-354,796	-200,000	-0,003	0,103
-353,781	-189,362	0,080	-0,001
-352,766	-200,000	0,006	0,123
-351,752	35,672	-0,129	0,082
-350,737	800,000	-0,053	0,115
-349,723	-200,000	-0,024	0,079
-348,708	432,150	0,098	0,154
-347,693	-16,827	-0,129	-0,059
-346,679	-200,000	-0,001	0,009
-345,664	-200,000	0,004	-0,096
-344,650	-200,000	-0,028	0,207
-343,635	-120,538	0,091	-0,011
-342,620	-150,232	0,161	-0,009
-341,606	800,000	0,069	0,167
-340,591	447,956	-0,049	0,079
-339,577	-114,167	-0,066	0,009
-338,562	240,506	0,109	0,132
-337,548	-12,413	-0,108	-0,051
-336,533	-200,000	0,015	0,079
-335,518	20,169	0,143	-0,084
-334,504	354,321	0,078	0,112
-333,489	-200,000	0,002	-0,141
-332,475	-161,908	0,033	0,001
-331,460	144,264	-0,027	-0,026
-330,445	-125,572	0,068	-0,007
-329,431	195,279	-0,067	0,074
-328,416	232,165	0,008	0,009
-327,402	800,000	0,017	0,040
-326,387	-200,000	0,011	0,048
-325,372	-63,096	-0,071	-0,021
-324,358	314,484	0,053	0,073
-323,343	-200,000	-0,014	-0,065
-322,329	-200,000	-0,010	-0,068
-321,314	-200,000	-0,007	0,199
-320,299	-200,000	0,025	0,105
-319,285	-46,262	-0,101	0,036
-318,270	-200,000	0,022	-0,081
-317,256	95,329	-0,050	-0,041
-316,241	-68,297	-0,087	0,024
-315,226	-200,000	-0,002	0,025
-314,212	-134,362	-0,026	-0,002
-313,197	129,544	0,025	0,023
-312,183	238,373	-0,073	-0,088
-311,168	-23,819	0,091	-0,039
-310,153	149,047	-0,056	-0,055
-309,139	800,000	-0,063	-0,128
-308,124	-12,717	-0,025	-0,012
-307,110	317,501	0,075	0,103
-306,095	-146,407	0,035	-0,002
-305,080	9,868	-0,072	0,040
-304,066	74,669	-0,085	0,064
-303,051	61,040	0,026	0,019
-302,037	103,431	0,107	0,091
-301,022	204,037	-0,058	0,065
-300,008	-28,526	0,096	0,040
-298,993	-8,115	0,048	0,023
-297,978	-67,401	0,110	-0,031
-296,964	202,423	-0,077	0,086
-295,949	471,772	-0,040	-0,065
-294,935	800,000	-0,029	-0,090
-293,920	649,875	0,070	0,130
-292,905	412,264	-0,013	-0,019
-291,891	-200,000	-0,012	0,149
-290,876	415,837	-0,069	0,107
-289,862	168,990	-0,119	-0,123
-288,847	199,802	0,080	-0,089
-287,832	-113,229	0,068	-0,010
-286,818	129,185	-0,144	0,133
-285,803	-200,000	0,033	-0,200
-284,789	-200,000	-0,042	0,164
-283,774	205,862	-0,077	-0,087
-282,759	125,127	0,078	0,071
-281,745	800,000	-0,041	0,130
-280,730	-200,000	-0,009	-0,068
-279,716	85,599	0,060	0,048
-278,701	-102,183	0,070	-0,012
-277,686	-106,438	0,011	0,002
-276,672	115,234	0,037	0,033
-275,657	106,997	-0,054	0,046
-274,643	-200,000	0,008	-0,048
-273,628	800,000	0,046	-0,140
-272,613	128,391	-0,035	0,032
-271,599	-78,121	-0,084	0,021
-270,584	-143,450	0,093	0,006
-269,570	270,195	0,044	-0,056
-268,555	-5,220	-0,042	0,021
-267,540	556,219	0,015	-0,027
-266,526	83,687	-0,154	0,121
-265,511	-42,883	0,219	-0,080
-264,497	-136,030	-0,124	0,010
-263,482	-82,676	0,185	0,043
-262,467	175,699	-0,007	-0,007
-261,453	157,772	0,088	0,088
-260,438	188,831	-0,066	0,071
-259,424	3,533	0,136	-0,071
-258,409	759,298	-0,028	-0,054
-257,395	-200,000	-0,014	-0,082
-256,380	-200,000	-0,005	0,052
-255,365	800,000	0,022	0,058
-254,351	-200,000	0,024	0,100
-253,336	295,173	-0,070	-0,092
-252,322	138,418	0,085	0,080
-251,307	203,766	0,042	-0,047
-250,292	418,465	0,016	-0,024
-249,278	-110,070	0,174	0,026
-248,263	-28,805	-0,055	0,023
-247,249	-80,888	-0,069	-0,016
-246,234	-132,611	0,030	-0,003
-245,219	122,684	0,029	0,026
-244,205	800,000	-0,029	-0,073
-243,190	-54,505	0,143	-0,046
-242,176	5,852	0,158	0,084
-241,161	-200,000	0,010	-0,051
-240,146	-100,048	-0,073	-0,013
-239,132	800,000	-0,031	-0,087
-238,117	162,573	-0,045	-0,046
-237,103	-91,329	-0,079	0,016
-236,088	94,589	0,136	0,112
-235,073	6,060	0,199	0,106
-234,059	-197,415	0,070	0,000
-233,044	-200,000	-0,017	0,165
-232,030	43,014	0,096	0,063
-231,015	381,544	-0,083	-0,124
-230,000	250,552	-0,055	-0,067
-228,986	-200,000	-0,018	-0,070
-227,971	274,699	0,017	-0,022
-226,957	426,816	0,031	0,049
-225,942	-200,000	-0,017	0,063
-224,927	-200,000	0,009	0,065
-223,913	436,391	-0,053	-0,083
-222,898	-200,000	0,016	-0,101
-221,884	408,437	0,099	-0,151
-220,869	32,795	-0,062	0,039
-219,855	12,503	0,122	0,068
-218,840	244,022	0,047	-0,057
-217,825	23,082	0,029	-0,017
-216,811	-200,000	0,009	-0,102
-215,796	-61,114	-0,086	-0,026
-214,782	-200,000	0,015	0,149
-213,767	800,000	-0,041	-0,107
-212,752	483,849	-0,010	0,017
-211,738	-86,028	0,155	-0,034
-210,723	-74,767	-0,161	0,041
-209,709	-28,197	0,095	-0,040
-208,694	-54,428	-0,115	0,037
-207,679	363,221	-0,079	0,115
-206,665	250,606	0,079	-0,097
-205,650	-20,740	0,048	-0,021
-204,636	-13,668	0,123	-0,057
-203,621	800,000	-0,047	0,099
-202,606	206,066	-0,094	0,106
-201,592	800,000	-0,012	-0,031
-200,577	-127,608	-0,008	-0,001
-199,563	14,634	0,054	0,030
-198,548	-200,000	0,025	0,202
-197,533	321,844	-0,040	0,054
-196,519	800,000	-0,077	0,175
-195,504	-200,000	0,017	-0,122
-194,490	-83,753	-0,101	0,023
-193,475	454,932	-0,031	-0,050
-192,460	51,097	-0,114	0,078
-191,446	800,000	0,040	0,094
-190,431	800,000	0,013	0,028
-189,417	-195,970	-0,193	0,001
-188,402	189,986	-0,040	0,043
-187,387	-200,000	0,014	-0,051
-186,373	-200,000	0,004	-0,049
-185,358	36,137	0,064	0,040
-184,344	424,671	0,049	-0,076
-183,329	76,447	-0,012	0,009
-182,315	55,669	0,068	0,047
-181,300	563,589	-0,069	-0,122
-180,285	-200,000	0,001	-0,003
-179,271	-116,858	-0,083	0,011
-178,256	24,317	-0,041	-0,024
-177,242	199,132	0,056	-0,062
-176,227	100,135	-0,104	0,087
-175,212	800,000	-0,024	0,068
-174,198	-19,602	-0,045	0,020
-173,183	520,018	-0,032	0,055
-172,169	49,129	0,031	0,021
-171,154	-119,036	-0,136	-0,017
-170,139	241,786	0,010	0,012
-169,125	260,227	0,026	0,032
-168,110	800,000	0,010	-0,030
-167,096	-67,677	0,052	-0,015
-166,081	510,527	0,084	-0,141
-165,066	800,000	0,026	0,066
-164,052	800,000	0,042	-0,131
-163,037	350,644	-0,106	0,152
-162,023	-200,000	0,019	-0,083
-161,008	-64,820	-0,110	0,032
-159,993	-45,160	0,104	0,037
-158,979	7,916	-0,075	-0,040
-157,964	432,511	-0,097	-0,152
-156,950	135,971	-0,116	-0,109
-155,935	495,689	0,012	0,020
-154,920	-200,000	0,006	0,022
-153,906	324,712	0,016	0,022
-152,891	-200,000	0,001	0,116
-151,877	-200,000	0,001	-0,088
-150,862	-29,052	0,063	-0,026
-149,847	-177,278	0,193	-0,003
-148,833	245,977	-0,066	-0,080
-147,818	-200,000	0,009	0,035
-146,804	511,156	-0,050	-0,083
-145,789	-108,170	0,221	-0,034
-144,775	-92,948	-0,156	-0,031
-143,760	-200,000	0,000	0,032
-142,745	800,000	-0,068	-0,165
-141,731	134,252	0,094	-0,087
-140,716	-11,743	-0,079	-0,037
-139,702	365,619	0,069	0,100
-138,687	-200,000	-0,018	0,067
-137,672	-42,299	0,106	0,039
-136,658	-49,139	-0,047	0,016
-135,643	-200,000	-0,005	0,019
-134,629	-200,000	0,018	-0,126
-133,614	76,767	0,072	-0,055
-132,599	453,191	0,047	0,075
-131,585	-182,263	-0,148	0,002
-130,570	331,892	-0,053	-0,074
-129,556	209,065	0,030	-0,034
-128,541	88,732	0,129	-0,103
-127,526	800,000	-0,008	0,020
-126,512	-109,646	-0,035	-0,005
-125,497	800,000	0,034	0,073
-124,483	147,952	-0,005	0,004
-123,468	800,000	0,038	0,097
-122,453	-103,508	0,075	0,013
-121,439	-200,000	0,022	-0,104
-120,424	-66,469	-0,123	0,035
