DTS Sentinel unit serial number:	SN410029Multiplexer serial number:	ORYXHardware model number:	OX2-SRSoftware version number:	ORYX F/W v4,00 Oryx Data Collector v3.7.2.0data status	okinstallation	B5 Nyhavnadifferential loss correction	single-endedforward channel	channel 2reverse channel	N/Adate	2023/12/11time	19:32:13forward acquisition time	300,00reverse acquisition time	0,00gamma	499,1914k internal	0,3159k external	0,3159temperature offset calibration	1,0000default loss term (dB/km)	0,3820temperature slope calibration	1,0000multiplexer offset coefficient	1,0000multiplexer slope coefficient	1,0000fibre end	0,00T internal ref (°C)	15,67T ext. ref 1 (°C)	-0,09T ext. ref 2 (°C)	-0,32length (m)	temperature (°C)	Stokes	anti-Stokes-744,400	51,327	0,064	-0,045
-743,385	-121,702	-0,322	0,039
-742,371	4,093	0,089	-0,048
-741,356	-0,395	-0,265	0,138
-740,342	10,672	-0,036	0,020
-739,327	-157,826	-0,256	-0,011
-738,312	151,695	0,073	0,073
-737,298	-64,398	-0,383	-0,114
-736,283	-81,395	-0,044	0,011
-735,269	-122,409	-0,179	-0,021
-734,254	153,887	0,073	0,074
-733,239	-78,038	-0,499	-0,126
-732,225	681,930	0,064	0,123
-731,210	-146,174	0,072	0,005
-730,196	-200,000	0,023	-0,177
-729,181	-200,000	-0,033	-0,123
-728,167	-91,877	0,033	0,007
-727,152	-200,000	-0,026	-0,097
-726,137	-102,456	0,027	0,005
-725,123	-200,000	-0,027	0,095
-724,108	764,769	-0,070	-0,140
-723,094	660,936	-0,055	-0,106
-722,079	-116,572	-0,140	-0,019
-721,064	792,927	0,048	0,099
-720,050	-200,000	0,001	-0,086
-719,035	285,221	-0,036	-0,047
-718,021	-35,505	-0,091	0,036
-717,006	-107,937	-0,175	0,028
-715,991	800,000	0,016	-0,047
-714,977	-168,839	0,035	-0,001
-713,962	121,950	-0,053	0,049
-712,948	106,565	0,038	-0,033
-711,933	49,587	-0,093	-0,065
-710,918	-47,629	0,092	0,033
-709,904	72,155	-0,067	0,052
-708,889	-200,000	-0,039	-0,155
-707,875	-200,000	-0,037	-0,193
-706,860	-200,000	-0,025	-0,202
-705,845	69,949	0,109	0,083
-704,831	610,703	0,051	-0,095
-703,816	235,258	0,064	-0,078
-702,802	-69,492	0,052	0,015
-701,787	800,000	0,069	-0,162
-700,772	61,622	-0,059	-0,043
-699,758	41,990	0,047	0,031
-698,743	427,770	0,079	0,125
-697,729	-200,000	0,041	0,171
-696,714	-200,000	-0,012	0,039
-695,699	116,741	0,012	0,011
-694,685	-200,000	0,025	-0,136
-693,670	800,000	-0,040	-0,096
-692,656	400,283	0,056	-0,086
-691,641	-128,491	0,111	-0,011
-690,627	109,899	0,042	-0,037
-689,612	0,981	0,057	-0,030
-688,597	210,475	0,044	0,051
-687,583	-200,000	-0,011	-0,112
-686,568	-35,519	0,094	0,037
-685,554	-200,000	0,004	0,024
-684,539	775,270	-0,008	-0,016
-683,524	-96,615	0,068	0,013
-682,510	0,701	-0,057	-0,030
-681,495	-156,930	0,119	-0,005
-680,481	304,099	0,011	0,015
-679,466	194,662	0,054	-0,060
-678,451	-111,224	0,136	-0,020
-677,437	-200,000	0,042	-0,146
-676,422	12,719	-0,074	0,042
-675,408	52,083	0,019	-0,013
-674,393	-47,667	-0,099	-0,035
-673,378	-200,000	-0,018	-0,076
-672,364	-52,527	-0,103	-0,035
-671,349	-200,000	-0,002	0,017
-670,335	-115,467	-0,041	-0,006
-669,320	374,928	0,006	-0,008
-668,305	-164,913	0,076	-0,002
-667,291	800,000	0,030	0,067
-666,276	-200,000	0,011	0,040
-665,262	132,845	-0,094	-0,090
-664,247	465,088	-0,033	-0,054
-663,232	94,479	0,014	0,012
-662,218	74,858	0,083	0,064
-661,203	-112,662	-0,041	-0,006
-660,189	800,000	0,022	0,056
-659,174	-113,448	-0,122	0,017
-658,159	800,000	0,008	0,027
-657,145	800,000	0,057	-0,154
-656,130	-11,736	-0,136	-0,065
-655,116	208,754	0,038	-0,044
-654,101	304,790	-0,103	0,141
-653,086	-146,569	-0,142	0,009
-652,072	800,000	-0,013	-0,029
-651,057	800,000	-0,079	-0,199
-650,043	35,805	0,033	0,021
-649,028	-200,000	-0,149	0,000
-648,014	-105,479	0,096	0,016
-646,999	-149,679	0,052	-0,003
-645,984	-41,525	0,131	0,049
-644,970	167,700	-0,061	-0,063
-643,955	-35,383	-0,103	-0,041
-642,941	49,462	-0,182	-0,126
-641,926	-129,831	-0,014	0,001
-640,911	372,543	0,053	0,080
-639,897	800,000	0,011	0,030
-638,882	-200,000	0,012	0,053
-637,868	-200,000	-0,008	0,042
-636,853	80,088	-0,095	-0,075
-635,838	-48,537	-0,009	-0,003
-634,824	90,260	-0,055	0,045
-633,809	24,807	0,078	0,047
-632,795	-71,007	0,122	-0,033
-631,780	800,000	0,034	0,099
-630,765	-200,000	-0,002	-0,035
-629,751	-21,675	-0,077	-0,034
-628,736	2,053	-0,057	-0,030
-627,722	47,657	-0,016	0,011
-626,707	588,019	-0,027	-0,048
-625,692	-200,000	-0,025	0,147
-624,678	76,534	-0,109	-0,085
-623,663	-55,578	-0,061	-0,020
-622,649	-200,000	-0,045	-0,243
-621,634	277,813	-0,101	-0,133
-620,619	-84,416	-0,066	0,015
-619,605	-166,517	0,125	-0,004
-618,590	-200,000	0,008	-0,071
-617,576	-149,143	0,100	0,006
-616,561	-200,000	0,002	0,102
-615,546	-123,938	-0,074	-0,008
-614,532	336,313	-0,044	-0,063
-613,517	-200,000	0,043	-0,180
-612,503	-200,000	0,005	-0,055
-611,488	-29,104	0,087	0,037
-610,474	347,625	0,041	-0,059
-609,459	-17,909	0,030	0,014
-608,444	100,075	-0,048	-0,041
-607,430	800,000	-0,023	-0,058
-606,415	-33,078	0,049	0,020
-605,401	-20,224	0,051	-0,023
-604,386	110,474	-0,106	-0,093
-603,371	-200,000	0,008	0,074
-602,357	88,370	0,072	0,059
-601,342	-108,550	-0,100	-0,016
-600,328	92,359	-0,107	-0,088
-599,313	496,268	-0,037	0,063
-598,298	605,576	-0,034	-0,062
-597,284	343,745	-0,015	-0,022
-596,269	86,440	-0,025	0,020
-595,255	-52,149	0,147	-0,050
-594,240	181,229	0,034	-0,036
-593,225	800,000	0,059	0,126
-592,211	486,473	0,039	0,065
-591,196	427,854	0,060	-0,094
-590,182	-182,650	-0,078	0,001
-589,167	398,538	0,042	0,065
-588,152	-200,000	0,014	-0,110
-587,138	800,000	-0,034	0,070
-586,123	369,915	0,074	-0,111
-585,109	3,997	-0,011	0,006
-584,094	440,286	-0,060	-0,096
-583,079	21,620	0,123	-0,073
-582,065	493,195	0,064	0,108
-581,050	800,000	-0,017	0,041
-580,036	-200,000	0,003	-0,014
-579,021	2,254	0,137	-0,072
-578,006	-200,000	-0,004	0,012
-576,992	-107,704	-0,018	-0,003
-575,977	800,000	-0,070	0,146
-574,963	87,979	-0,090	0,073
-573,948	664,499	-0,066	0,126
-572,934	-200,000	0,014	0,062
-571,919	-200,000	-0,030	-0,162
-570,904	-31,215	0,051	-0,021
-569,890	185,686	-0,063	-0,069
-568,875	135,033	0,122	0,116
-567,861	-75,568	-0,032	0,008
-566,846	52,762	-0,065	-0,046
-565,831	-59,459	0,055	0,017
-564,817	-135,890	0,067	-0,006
-563,802	-60,494	-0,097	-0,030
-562,788	-83,253	-0,143	-0,033
-561,773	-97,219	0,033	0,006
-560,758	108,859	0,080	0,070
-559,744	-200,000	-0,007	0,066
-558,729	800,000	-0,012	0,038
-557,715	357,868	-0,068	-0,099
-556,700	-46,180	-0,054	0,019
-555,685	-34,946	0,060	0,024
-554,671	800,000	0,017	-0,042
-553,656	-200,000	0,017	-0,056
-552,642	-197,618	0,116	-0,001
-551,627	-200,000	0,008	-0,035
-550,612	-4,356	0,018	0,009
-549,598	0,740	-0,066	-0,034
-548,583	70,969	0,114	-0,086
-547,569	800,000	0,038	-0,119
-546,554	800,000	-0,011	-0,033
-545,539	438,628	-0,100	0,160
-544,525	152,634	-0,010	-0,010
-543,510	800,000	-0,032	-0,087
-542,496	729,325	0,057	0,112
-541,481	-200,000	0,011	-0,070
-540,466	442,824	0,043	0,069
-539,452	-23,906	-0,057	0,025
-538,437	-200,000	-0,013	-0,054
-537,423	395,963	-0,069	-0,106
-536,408	-131,075	-0,080	0,008
-535,393	-200,000	-0,004	-0,114
-534,379	-200,000	0,008	0,119
-533,364	234,572	0,045	0,054
-532,350	800,000	0,032	0,081
-531,335	-200,000	-0,035	-0,135
-530,321	-135,607	-0,039	0,003
-529,306	50,383	0,040	0,028
-528,291	-200,000	0,017	-0,123
-527,277	597,280	0,032	0,059
-526,262	-200,000	-0,018	-0,096
-525,248	-200,000	-0,020	-0,086
-524,233	206,594	-0,046	-0,053
-523,218	-200,000	0,011	-0,095
-522,204	-104,368	-0,153	-0,026
-521,189	317,544	0,090	-0,125
-520,175	-200,000	0,021	-0,105
-519,160	119,300	0,077	0,070
-518,145	-7,377	0,028	0,014
-517,131	800,000	-0,059	-0,153
-516,116	-66,606	-0,078	0,022
-515,102	-200,000	0,014	0,060
-514,087	747,353	-0,048	0,094
-513,072	800,000	0,034	0,079
-512,058	800,000	0,030	-0,096
-511,043	-163,427	-0,030	-0,001
-510,029	800,000	0,061	0,173
-509,014	-200,000	0,012	0,109
-507,999	-110,966	-0,047	-0,007
-506,985	800,000	0,012	-0,025
-505,970	261,536	0,045	-0,057
-504,956	-200,000	0,015	-0,057
-503,941	-72,705	-0,134	-0,036
-502,926	-73,504	0,187	-0,049
-501,912	800,000	0,025	0,071
-500,897	363,676	0,085	-0,125
-499,883	396,892	0,012	-0,018
-498,868	-129,056	0,150	-0,015
-497,853	-200,000	-0,003	0,088
-496,839	-200,000	-0,005	0,034
-495,824	170,565	-0,051	0,053
-494,810	65,242	-0,059	0,043
-493,795	-200,000	0,007	-0,062
-492,781	-25,420	0,097	0,042
-491,766	583,309	-0,049	-0,089
-490,751	-200,000	0,001	0,017
-489,737	237,079	0,076	-0,093
-488,722	-72,123	0,170	0,046
-487,708	260,200	-0,047	-0,059
-486,693	110,845	0,066	0,058
-485,678	800,000	0,025	-0,065
-484,664	-200,000	0,002	-0,152
-483,649	800,000	0,012	-0,024
-482,635	54,466	-0,009	-0,006
-481,620	291,585	0,077	0,103
-480,605	268,423	-0,057	0,073
-479,591	-200,000	-0,024	0,120
-478,576	-200,000	-0,005	-0,167
-477,562	53,129	-0,098	-0,069
-476,547	379,618	0,087	0,131
-475,532	-55,081	-0,039	-0,013
-474,518	-74,408	0,141	0,037
-473,503	-200,000	-0,010	0,095
-472,489	-200,000	0,043	0,159
-471,474	-200,000	0,009	0,150
-470,459	-131,150	0,019	0,002
-469,445	167,066	-0,057	-0,059
-468,430	222,562	0,034	-0,040
-467,416	800,000	0,019	-0,045
-466,401	-87,156	-0,123	0,027
-465,386	202,856	0,062	0,070
-464,372	800,000	0,018	0,041
-463,357	-200,000	0,023	0,086
-462,343	8,785	0,036	-0,020
-461,328	323,594	0,066	-0,092
-460,313	-200,000	-0,014	-0,101
-459,299	-200,000	0,001	-0,050
-458,284	800,000	0,029	0,076
-457,270	20,224	-0,149	0,087
-456,255	-105,274	-0,058	-0,009
-455,241	435,211	-0,083	-0,132
-454,226	58,242	-0,060	-0,043
-453,211	-200,000	-0,012	0,057
-452,197	467,898	0,036	0,059
-451,182	-200,000	0,026	0,109
-450,168	-4,868	-0,022	0,011
-449,153	17,293	-0,047	-0,027
-448,138	800,000	0,092	-0,235
-447,124	107,493	-0,045	-0,039
-446,109	800,000	0,021	0,063
-445,095	-7,352	0,038	-0,019
-444,080	283,242	0,091	0,119
-443,065	800,000	-0,059	0,124
-442,051	-200,000	0,011	0,065
-441,036	-200,000	0,018	-0,070
-440,022	-15,590	0,063	0,029
-439,007	15,547	0,131	-0,075
-437,992	173,184	-0,143	0,150
-436,978	-145,640	0,121	-0,008
-435,963	295,201	0,061	0,082
-434,949	-43,692	-0,106	-0,039
-433,934	203,544	-0,061	0,068
-432,919	800,000	-0,030	-0,082
-431,905	-109,199	0,115	0,018
-430,890	-200,000	-0,024	0,109
-429,876	267,743	-0,092	-0,117
-428,861	-51,666	0,095	-0,032
-427,846	-21,414	0,052	-0,023
-426,832	263,769	0,096	-0,121
-425,817	105,787	-0,164	-0,141
-424,803	800,000	0,032	0,078
-423,788	121,416	0,045	0,041
-422,773	800,000	-0,068	-0,143
-421,759	800,000	-0,025	-0,054
-420,744	225,672	0,083	0,098
-419,730	-132,995	-0,224	0,020
-418,715	-200,000	-0,029	-0,124
-417,701	800,000	-0,051	-0,116
-416,686	7,628	-0,100	-0,055
-415,671	-128,398	-0,171	0,017
-414,657	-200,000	-0,001	-0,026
-413,642	-200,000	0,009	0,128
-412,628	-61,253	-0,057	0,017
-411,613	-200,000	-0,012	-0,090
-410,598	-170,838	-0,052	-0,001
-409,584	209,530	-0,055	0,063
-408,569	76,812	0,073	0,056
-407,555	212,883	0,034	0,039
-406,540	357,628	0,080	-0,116
-405,525	-200,000	0,009	-0,091
-404,511	-200,000	0,000	-0,212
-403,496	800,000	-0,050	-0,153
-402,482	18,728	-0,186	-0,108
-401,467	-101,358	0,046	0,008
-400,452	-65,083	0,050	0,015
-399,438	-200,000	0,005	-0,055
-398,423	137,023	-0,057	-0,054
-397,409	424,324	0,026	0,040
-396,394	188,038	-0,006	-0,007
-395,379	-3,910	-0,053	-0,027
-394,365	366,297	-0,083	0,121
-393,350	486,890	0,047	0,079
-392,336	-23,719	-0,117	0,051
-391,321	-120,319	0,039	-0,005
-390,306	-37,356	-0,096	0,037
-389,292	17,859	-0,035	0,020
-388,277	-200,000	-0,016	-0,137
-387,263	800,000	0,036	0,110
-386,248	57,696	0,080	-0,057
-385,233	-31,164	-0,131	-0,053
-384,219	-200,000	-0,010	-0,073
-383,204	637,537	0,076	-0,140
-382,190	800,000	0,065	-0,174
-381,175	-200,000	-0,024	-0,161
-380,160	308,615	-0,049	-0,066
-379,146	-200,000	0,035	0,273
-378,131	792,744	0,052	0,104
-377,117	79,290	-0,100	0,078
-376,102	30,985	-0,084	-0,052
-375,088	220,215	0,023	0,027
-374,073	800,000	-0,038	-0,089
-373,058	43,149	0,003	0,002
-372,044	-200,000	-0,007	-0,049
-371,029	800,000	0,008	0,026
-370,015	-200,000	-0,045	0,158
-369,000	456,002	-0,018	-0,029
-367,985	123,111	0,051	0,047
-366,971	-21,194	-0,020	0,009
-365,956	485,836	0,033	0,054
-364,942	-200,000	0,005	-0,032
-363,927	495,944	0,025	-0,042
-362,912	45,562	-0,154	-0,103
-361,898	-200,000	-0,000	-0,072
-360,883	21,459	-0,037	0,022
-359,869	66,739	-0,207	0,153
-358,854	-118,017	0,020	0,003
-357,839	547,732	0,048	0,084
-356,825	-200,000	-0,008	0,277
-355,810	434,359	0,060	-0,095
-354,796	-200,000	-0,003	0,042
-353,781	800,000	-0,073	-0,195
-352,766	432,224	-0,041	-0,065
-351,752	291,709	-0,039	0,051
-350,737	27,750	0,163	-0,100
-349,723	-40,787	-0,008	0,003
-348,708	800,000	-0,019	0,044
-347,693	-91,261	-0,024	-0,005
-346,679	-200,000	0,032	0,241
-345,664	116,182	0,108	-0,096
-344,650	-200,000	0,002	0,051
-343,635	-200,000	0,014	-0,086
-342,620	-164,769	0,107	-0,003
-341,606	90,983	0,086	-0,070
-340,591	-200,000	-0,027	0,093
-339,577	106,898	-0,042	0,036
-338,562	12,462	0,122	0,068
-337,548	800,000	0,013	-0,040
-336,533	-106,738	0,059	-0,009
-335,518	-200,000	0,044	0,168
-334,504	706,391	-0,045	0,087
-333,489	-200,000	-0,001	0,042
-332,475	800,000	0,008	-0,018
-331,460	-47,348	-0,148	-0,052
-330,445	-141,630	0,080	0,006
-329,431	74,876	0,143	0,109
-328,416	257,166	-0,104	0,129
-327,402	-80,173	-0,064	0,015
-326,387	-113,647	0,135	-0,019
-325,372	239,680	-0,148	-0,179
-324,358	428,259	-0,028	-0,043
-323,343	-200,000	-0,001	0,017
-322,329	800,000	0,023	0,073
-321,314	-85,441	0,172	0,039
-320,299	54,657	0,090	-0,063
-319,285	355,902	-0,037	0,054
-318,270	-200,000	0,025	0,083
-317,256	202,038	0,121	-0,135
-316,241	-200,000	-0,021	-0,118
-315,226	-200,000	0,000	0,081
-314,212	32,058	0,029	0,018
-313,197	681,270	-0,025	0,048
-312,183	-200,000	0,012	-0,053
-311,168	-200,000	0,001	-0,072
-310,153	-49,401	-0,092	-0,031
-309,139	108,907	0,041	0,036
-308,124	342,898	-0,045	0,064
-307,110	153,786	-0,138	0,137
-306,095	309,478	0,054	0,074
-305,080	-200,000	0,007	-0,026
-304,066	-59,997	-0,085	0,026
-303,051	337,723	-0,049	-0,070
-302,037	-107,150	-0,086	0,014
-301,022	800,000	-0,047	-0,115
-300,008	144,417	0,132	0,128
-298,993	-200,000	-0,018	-0,120
-297,978	-76,361	-0,036	0,009
-296,964	-200,000	-0,017	-0,121
-295,949	-68,796	0,029	0,008
-294,935	762,850	-0,024	-0,048
-293,920	112,455	-0,037	0,032
-292,905	800,000	-0,052	0,112
-291,891	176,882	0,030	-0,032
-290,876	-6,215	0,092	0,045
-289,862	301,374	-0,058	0,077
-288,847	-200,000	-0,018	-0,162
-287,832	-21,758	-0,119	-0,052
-286,818	-0,591	0,024	0,012
-285,803	-200,000	0,002	-0,061
-284,789	800,000	0,043	0,092
-283,774	-41,376	0,097	-0,036
-282,759	56,384	-0,096	0,067
-281,745	247,502	0,084	0,103
-280,730	-43,688	0,041	-0,015
-279,716	-33,274	0,114	0,045
-278,701	800,000	-0,060	0,172
-277,686	-200,000	0,047	0,000
-276,672	800,000	-0,054	0,172
-275,657	800,000	0,045	0,127
-274,643	-200,000	0,007	0,060
-273,628	137,621	-0,075	0,071
-272,613	1,563	-0,034	0,018
-271,599	281,619	0,040	0,052
-270,584	43,963	0,120	0,079
-269,570	-134,262	0,112	0,010
-268,555	433,600	0,039	0,061
-267,540	-4,844	0,096	0,047
-266,526	-70,173	-0,051	-0,014
-265,511	-29,688	-0,063	-0,026
-264,497	-200,000	0,008	-0,094
-263,482	-69,145	0,087	0,024
-262,467	-95,924	-0,117	-0,022
-261,453	-174,837	0,100	0,002
-260,438	12,438	0,062	-0,034
-259,424	221,769	-0,054	-0,063
-258,409	800,000	-0,019	-0,050
-257,395	3,498	-0,034	0,018
-256,380	800,000	0,008	0,019
-255,365	800,000	-0,014	0,034
-254,351	800,000	-0,027	0,058
-253,336	203,937	-0,016	0,018
-252,322	49,397	-0,109	0,074
-251,307	81,229	-0,053	-0,041
-250,292	233,357	-0,043	-0,052
-249,278	-200,000	0,002	-0,013
-248,263	-90,803	-0,089	0,018
-247,249	-200,000	-0,001	0,095
-246,234	13,351	0,044	0,024
-245,219	283,361	-0,043	-0,056
-244,205	-85,356	0,130	-0,029
-243,190	48,039	0,076	-0,051
-242,176	-200,000	0,004	0,107
-241,161	237,432	-0,021	0,026
-240,146	-200,000	-0,016	0,092
-239,132	-127,927	0,134	0,014
-238,117	800,000	0,032	-0,076
-237,103	-112,301	-0,071	-0,010
-236,088	800,000	-0,026	0,067
-235,073	-67,781	-0,107	0,030
-234,059	-200,000	-0,005	-0,026
-233,044	275,566	0,017	-0,022
-232,030	214,943	-0,013	0,015
-231,015	-200,000	-0,001	0,043
-230,000	714,330	-0,039	-0,075
-228,986	40,545	0,091	0,059
-227,971	524,947	0,101	0,172
-226,957	-200,000	0,005	0,027
-225,942	48,253	0,144	-0,097
-224,927	122,614	-0,084	-0,076
-223,913	800,000	0,046	-0,101
-222,898	38,735	-0,169	0,109
-221,884	45,396	0,200	0,133
-220,869	800,000	-0,076	0,160
-219,855	800,000	0,071	0,200
-218,840	699,853	-0,058	0,110
-217,825	-104,403	-0,098	-0,016
-216,811	-189,817	0,087	0,001
-215,796	-200,000	-0,002	-0,094
-214,782	-11,148	0,083	0,039
-213,767	151,357	-0,026	-0,026
-212,752	11,064	-0,044	0,024
-211,738	321,294	-0,077	-0,106
-210,723	-200,000	0,008	-0,038
-209,709	-156,475	-0,136	-0,006
-208,694	373,910	-0,032	0,048
-207,679	-96,205	-0,151	-0,029
-206,665	141,993	0,057	-0,055
-205,650	800,000	0,064	0,132
-204,636	-16,335	0,109	0,050
-203,621	497,861	-0,027	-0,045
-202,606	-200,000	-0,039	-0,234
-201,592	-200,000	-0,030	-0,156
-200,577	800,000	0,046	-0,132
-199,563	-31,503	-0,019	0,007
-198,548	-200,000	-0,027	0,109
-197,533	-85,950	-0,047	0,011
-196,519	4,216	-0,053	0,028
-195,504	-89,574	0,116	0,024
-194,490	299,389	-0,118	-0,157
-193,475	277,226	-0,044	0,056
-192,460	-78,282	0,107	-0,026
-191,446	800,000	0,012	0,027
-190,431	41,194	0,148	0,096
-189,417	700,043	0,044	-0,083
-188,402	800,000	-0,016	0,043
-187,387	392,827	-0,030	0,045
-186,373	-81,156	0,050	-0,012
-185,358	-188,298	0,089	0,001
-184,344	223,041	0,064	-0,075
-183,329	-120,670	0,050	0,006
-182,315	-71,785	-0,135	0,036
-181,300	7,909	0,074	-0,040
-180,285	87,924	-0,137	-0,110
-179,271	-200,000	0,004	0,012
-178,256	-200,000	0,001	-0,072
-177,242	-200,000	0,022	0,102
-176,227	800,000	0,055	0,130
-175,212	137,372	0,061	0,057
-174,198	214,432	-0,075	0,085
-173,183	-13,695	-0,124	-0,058
-172,169	800,000	-0,035	-0,076
-171,154	800,000	-0,022	-0,047
-170,139	132,137	0,129	0,120
-169,125	-200,000	0,012	0,110
-168,110	-177,226	0,101	0,002
-167,096	275,646	-0,028	-0,036
-166,081	800,000	0,038	-0,095
-165,066	800,000	0,045	-0,108
-164,052	800,000	0,027	-0,060
-163,037	19,639	0,062	-0,036
-162,023	-140,306	-0,041	0,003
-161,008	56,932	0,039	0,028
-159,993	-145,399	-0,116	0,007
-158,979	-27,859	-0,085	0,035
-157,964	800,000	0,035	0,094
-156,950	-66,522	0,182	0,052
-155,935	24,177	0,096	-0,057
-154,920	-200,000	0,002	0,191
-153,906	-200,000	0,006	0,063
-152,891	9,960	-0,072	0,039
-151,877	-200,000	0,028	0,115
-150,862	-106,452	-0,109	0,017
-149,847	-25,845	-0,110	-0,047
-148,833	800,000	-0,012	0,025
-147,818	-87,977	0,047	-0,010
-146,804	18,164	0,046	0,026
-145,789	99,150	-0,017	-0,014
-144,775	478,188	0,022	-0,036
-143,760	-33,499	-0,105	-0,042
-142,745	399,068	-0,071	-0,108
-141,731	527,589	-0,020	0,035
-140,716	-200,000	-0,001	0,004
-139,702	-200,000	-0,010	-0,099
-138,687	308,930	-0,052	0,071
-137,672	800,000	-0,028	0,074
-136,658	-77,749	0,044	0,011
-135,643	-171,336	-0,125	0,003
-134,629	-200,000	-0,041	0,135
-133,614	-115,491	-0,105	-0,014
-132,599	-122,729	0,094	0,011
-131,585	466,769	-0,048	0,078
-130,570	316,004	-0,014	-0,020
-129,556	-200,000	-0,005	0,023
-128,541	-40,495	0,132	-0,049
-127,526	53,295	0,042	-0,029
-126,512	-120,572	0,056	-0,007
-125,497	-200,000	-0,023	0,178
-124,483	-158,483	0,158	-0,006
-123,468	-200,000	0,020	-0,168
-122,453	147,303	0,102	-0,099
-121,439	65,255	-0,069	-0,050
-120,424	-114,547	0,110	0,015
-119,410	-20,073	-0,100	-0,044
