DTS Sentinel unit serial number:	SN410029Multiplexer serial number:	ORYXHardware model number:	OX2-SRSoftware version number:	ORYX F/W v4,00 Oryx Data Collector v3.7.2.0data status	okinstallation	B5 Nyhavnadifferential loss correction	single-endedforward channel	channel 2reverse channel	N/Adate	2023/12/14time	04:57:13forward acquisition time	300,00reverse acquisition time	0,00gamma	499,1914k internal	0,3156k external	0,3156temperature offset calibration	1,0000default loss term (dB/km)	0,3820temperature slope calibration	1,0000multiplexer offset coefficient	1,0000multiplexer slope coefficient	1,0000fibre end	0,00T internal ref (°C)	7,81T ext. ref 1 (°C)	-8,71T ext. ref 2 (°C)	-8,75length (m)	temperature (°C)	Stokes	anti-Stokes-744,400	5,998	0,248	0,135
-743,385	-114,860	-0,439	-0,061
-742,371	11,160	0,213	0,120
-741,356	-165,691	-0,307	-0,010
-740,342	94,671	0,116	0,097
-739,327	-164,106	-0,271	-0,009
-738,312	135,187	0,137	0,132
-737,298	-190,463	-0,375	-0,003
-736,283	-141,275	0,204	-0,015
-735,269	-108,770	-0,534	-0,083
-734,254	-200,000	-0,012	0,125
-733,239	-23,007	-0,473	-0,209
-732,225	-36,780	0,308	0,121
-731,210	-200,000	0,021	-0,073
-730,196	-200,000	0,000	-0,013
-729,181	-153,565	-0,116	-0,006
-728,167	319,363	-0,063	0,088
-727,152	187,984	0,052	-0,057
-726,137	313,217	0,091	-0,126
-725,123	434,248	-0,064	0,103
-724,108	-155,679	-0,134	-0,006
-723,094	-200,000	0,005	-0,154
-722,079	159,647	-0,138	-0,142
-721,064	96,610	-0,024	0,021
-720,050	14,898	-0,078	-0,045
-719,035	800,000	-0,061	-0,186
-718,021	24,634	-0,025	-0,015
-717,006	-98,867	-0,011	-0,002
-715,991	614,703	-0,092	0,170
-714,977	-102,836	0,114	0,020
-713,962	25,954	-0,129	-0,079
-712,948	-15,076	-0,274	-0,129
-711,933	584,463	0,011	-0,020
-710,918	-200,000	0,007	-0,154
-709,904	92,778	-0,053	-0,044
-708,889	800,000	0,036	-0,100
-707,875	-200,000	-0,023	-0,188
-706,860	-200,000	0,006	-0,094
-705,845	-200,000	-0,007	0,053
-704,831	36,395	-0,064	0,042
-703,816	216,151	0,038	-0,045
-702,802	800,000	-0,015	-0,032
-701,787	-85,336	-0,195	0,045
-700,772	-200,000	0,011	0,054
-699,758	262,263	-0,022	0,028
-698,743	-200,000	0,035	0,151
-697,729	456,030	0,093	-0,153
-696,714	-31,472	0,023	0,010
-695,699	360,232	-0,053	-0,078
-694,685	153,028	0,050	-0,050
-693,670	646,111	-0,012	-0,023
-692,656	800,000	0,025	-0,078
-691,641	182,184	0,091	-0,099
-690,627	-84,388	-0,140	0,032
-689,612	-122,979	0,084	0,010
-688,597	800,000	-0,023	0,069
-687,583	520,997	0,040	-0,070
-686,568	-200,000	-0,013	-0,048
-685,554	795,864	-0,018	-0,037
-684,539	-200,000	0,010	-0,041
-683,524	-47,655	0,036	0,013
-682,510	-118,943	0,023	0,003
-681,495	356,770	0,047	-0,070
-680,481	144,082	-0,086	-0,085
-679,466	270,865	-0,054	-0,070
-678,451	107,324	-0,048	-0,042
-677,437	-94,501	-0,046	-0,009
-676,422	800,000	-0,033	0,075
-675,408	-200,000	-0,004	-0,207
-674,393	-24,519	-0,111	0,048
-673,378	70,929	-0,120	0,091
-672,364	-200,000	-0,034	-0,112
-671,349	800,000	0,034	-0,076
-670,335	800,000	-0,019	-0,049
-669,320	56,713	-0,055	-0,039
-668,305	512,489	0,038	0,065
-667,291	517,067	-0,063	-0,109
-666,276	416,229	-0,088	-0,139
-665,262	-200,000	-0,038	-0,149
-664,247	71,389	-0,102	-0,077
-663,232	79,855	0,016	0,012
-662,218	-108,687	-0,149	-0,023
-661,203	184,181	-0,050	-0,054
-660,189	-59,486	-0,100	-0,032
-659,174	-191,085	0,080	-0,001
-658,159	-164,588	-0,063	-0,002
-657,145	-20,037	-0,097	0,044
-656,130	528,476	-0,003	0,006
-655,116	120,819	-0,105	-0,096
-654,101	344,740	0,082	0,118
-653,086	71,094	-0,074	0,057
-652,072	-4,370	-0,029	-0,015
-651,057	800,000	0,045	-0,120
-650,043	150,237	-0,132	0,132
-649,028	528,629	0,023	0,040
-648,014	800,000	0,012	-0,030
-646,999	8,030	0,042	0,023
-645,984	-200,000	0,021	0,107
-644,970	-200,000	0,021	-0,128
-643,955	-200,000	-0,016	-0,055
-642,941	-53,537	0,082	0,027
-641,926	-200,000	0,010	-0,052
-640,911	800,000	-0,022	0,058
-639,897	178,337	0,059	0,064
-638,882	-48,527	-0,106	-0,037
-637,868	-200,000	0,009	0,030
-636,853	800,000	-0,060	-0,159
-635,838	-200,000	-0,040	-0,140
-634,824	382,025	0,054	0,081
-633,809	349,505	-0,063	-0,092
-632,795	-200,000	0,002	0,113
-631,780	800,000	-0,054	-0,144
-630,765	149,499	-0,083	-0,083
-629,751	-48,455	-0,159	0,056
-628,736	491,981	-0,082	-0,139
-627,722	136,051	-0,079	-0,076
-626,707	131,955	-0,071	-0,067
-625,692	-200,000	0,047	-0,157
-624,678	-123,974	0,120	-0,014
-623,663	26,206	0,082	-0,050
-622,649	273,712	-0,048	-0,063
-621,634	33,322	0,015	-0,010
-620,619	-103,405	0,041	0,007
-619,605	217,375	0,019	0,022
-618,590	672,178	0,033	-0,063
-617,576	122,508	-0,125	-0,115
-616,561	-200,000	-0,004	0,133
-615,546	-200,000	-0,018	-0,089
-614,532	-200,000	-0,015	-0,152
-613,517	225,889	0,040	0,047
-612,503	-200,000	0,006	0,044
-611,488	452,136	0,017	-0,028
-610,474	-200,000	0,011	0,115
-609,459	122,397	-0,025	0,023
-608,444	-200,000	-0,124	-0,000
-607,430	-47,814	-0,089	-0,031
-606,415	574,584	-0,062	0,111
-605,401	-200,000	-0,022	0,095
-604,386	800,000	0,019	0,046
-603,371	-36,313	-0,094	0,037
-602,357	-200,000	0,034	0,184
-601,342	96,763	0,030	0,025
-600,328	-2,188	-0,056	-0,029
-599,313	-200,000	0,004	0,061
-598,298	128,188	0,079	-0,073
-597,284	-85,417	-0,246	-0,056
-596,269	-28,640	0,069	0,029
-595,255	-72,153	-0,017	0,005
-594,240	-110,818	-0,099	0,015
-593,225	-200,000	-0,011	-0,173
-592,211	-200,000	0,005	-0,066
-591,196	-148,439	0,153	0,009
-590,182	89,338	0,066	0,054
-589,167	497,538	-0,042	0,072
-588,152	-200,000	-0,002	-0,084
-587,138	-200,000	0,015	-0,147
-586,123	-200,000	0,006	-0,109
-585,109	105,782	-0,077	0,066
-584,094	-200,000	0,006	-0,099
-583,079	529,113	-0,038	0,066
-582,065	-200,000	0,020	-0,079
-581,050	800,000	-0,028	0,065
-580,036	-70,318	0,101	0,028
-579,021	-200,000	0,008	0,054
-578,006	741,827	0,052	-0,102
-576,992	-133,276	-0,084	0,008
-575,977	103,155	0,074	-0,063
-574,963	-90,261	0,143	0,030
-573,948	20,195	-0,048	-0,028
-572,934	-63,052	0,148	0,044
-571,919	-200,000	0,017	0,084
-570,904	737,834	-0,058	-0,115
-569,890	-52,808	0,085	-0,029
-568,875	190,411	-0,071	-0,078
-567,861	-200,000	-0,021	0,094
-566,846	623,208	-0,026	-0,048
-565,831	30,923	0,012	0,007
-564,817	-10,084	-0,023	-0,011
-563,802	800,000	0,035	-0,082
-562,788	546,683	0,054	-0,095
-561,773	-1,270	-0,121	-0,062
-560,758	7,131	0,139	0,076
-559,744	30,332	-0,018	-0,011
-558,729	-112,550	-0,132	-0,019
-557,715	-200,000	0,023	-0,106
-556,700	800,000	-0,023	-0,050
-555,685	-70,484	-0,085	-0,023
-554,671	-64,020	0,181	-0,054
-553,656	-200,000	0,007	0,114
-552,642	114,737	0,025	0,022
-551,627	0,009	-0,152	0,079
-550,612	-200,000	0,021	0,122
-549,598	142,425	0,033	-0,032
-548,583	205,300	-0,087	-0,099
-547,569	-155,400	0,096	-0,004
-546,554	800,000	-0,024	-0,063
-545,539	-99,445	-0,119	0,022
-544,525	31,874	0,085	0,054
-543,510	-200,000	0,003	-0,022
-542,496	517,053	-0,041	0,071
-541,481	-3,619	-0,083	-0,042
-540,466	800,000	0,018	-0,039
-539,452	542,306	0,070	0,122
-538,437	-146,211	0,072	-0,005
-537,423	800,000	0,015	0,033
-536,408	-200,000	0,015	0,049
-535,393	-86,437	-0,116	0,026
-534,379	296,199	0,026	-0,035
-533,364	219,738	-0,103	0,121
-532,350	87,835	0,082	-0,066
-531,335	800,000	0,027	-0,072
-530,321	-200,000	-0,026	0,107
-529,306	99,161	0,058	-0,049
-528,291	-52,643	-0,131	-0,044
-527,277	-200,000	0,004	-0,176
-526,262	-200,000	0,015	-0,122
-525,248	162,967	-0,017	0,017
-524,233	-156,911	0,118	0,005
-523,218	259,735	-0,041	0,052
-522,204	65,449	0,076	-0,056
-521,189	89,970	0,044	-0,036
-520,175	73,980	0,121	-0,093
-519,160	-16,897	-0,086	0,039
-518,145	410,068	0,025	0,039
-517,131	-200,000	-0,001	-0,043
-516,116	-21,601	-0,058	-0,026
-515,102	800,000	0,060	0,122
-514,087	-3,774	0,077	-0,039
-513,072	-46,387	-0,118	-0,042
-512,058	-200,000	-0,005	-0,036
-511,043	15,870	0,039	-0,022
-510,029	214,214	-0,102	-0,118
-509,014	527,396	0,048	0,082
-507,999	497,154	0,038	-0,064
-506,985	-200,000	0,020	-0,071
-505,970	660,712	-0,033	-0,063
-504,956	45,970	-0,060	-0,041
-503,941	87,109	0,097	0,078
-502,926	122,441	0,079	-0,072
-501,912	28,267	0,122	-0,075
-500,897	-74,619	-0,090	-0,023
-499,883	-200,000	-0,024	0,089
-498,868	32,846	-0,105	-0,066
-497,853	-160,718	0,108	0,004
-496,839	-200,000	-0,000	-0,005
-495,824	11,894	0,121	0,067
-494,810	800,000	-0,080	-0,176
-493,795	-120,720	-0,113	-0,014
-492,781	-28,523	0,046	-0,019
-491,766	479,172	0,030	-0,049
-490,751	-21,612	-0,014	-0,006
-489,737	6,790	0,047	-0,025
-488,722	-200,000	-0,022	0,096
-487,708	-200,000	0,003	0,162
-486,693	800,000	-0,064	0,146
-485,678	641,162	0,050	-0,093
-484,664	-189,498	-0,046	0,000
-483,649	264,674	-0,095	-0,122
-482,635	-200,000	0,012	0,115
-481,620	800,000	0,028	-0,069
-480,605	135,859	-0,057	-0,054
-479,591	-116,960	0,020	-0,003
-478,576	119,978	-0,122	0,110
-477,562	27,058	0,028	-0,017
-476,547	800,000	-0,032	-0,098
-475,532	800,000	-0,058	0,150
-474,518	-82,460	0,157	0,037
-473,503	-200,000	0,001	-0,038
-472,489	98,314	-0,010	-0,008
-471,474	448,858	0,067	0,109
-470,459	248,322	-0,113	-0,139
-469,445	-60,115	0,038	0,012
-468,430	181,335	-0,070	0,076
-467,416	-200,000	0,035	0,159
-466,401	38,288	0,146	-0,095
-465,386	157,222	-0,136	0,137
-464,372	-132,091	0,089	-0,008
-463,357	192,755	-0,139	-0,153
-462,343	-35,323	-0,061	0,024
-461,328	-200,000	0,014	-0,049
-460,313	-89,736	0,097	0,020
-459,299	117,546	0,066	0,059
-458,284	-161,374	0,034	0,001
-457,270	53,440	0,079	-0,055
-456,255	800,000	-0,041	-0,085
-455,241	680,964	-0,053	-0,101
-454,226	162,164	-0,096	0,098
-453,211	-12,810	0,082	0,039
-452,197	486,994	-0,044	-0,073
-451,182	-200,000	-0,003	0,076
-450,168	-200,000	-0,030	0,103
-449,153	128,004	0,056	0,052
-448,138	800,000	-0,051	-0,142
-447,124	17,822	-0,052	-0,030
-446,109	-168,647	0,042	0,001
-445,095	155,035	0,048	0,048
-444,080	69,425	-0,093	0,069
-443,065	147,065	-0,043	0,042
-442,051	52,158	0,065	0,045
-441,036	-97,394	-0,134	0,025
-440,022	-77,524	0,128	-0,032
-439,007	-200,000	0,011	-0,081
-437,992	-8,205	0,103	-0,050
-436,978	631,607	-0,091	0,169
-435,963	441,797	0,046	-0,074
-434,949	800,000	-0,017	-0,052
-433,934	800,000	-0,058	-0,165
-432,919	-80,592	0,098	-0,024
-431,905	615,129	-0,050	-0,092
-430,890	-74,911	0,114	0,030
-429,876	-200,000	-0,001	0,181
-428,861	-120,240	-0,061	0,008
-427,846	-200,000	0,003	0,030
-426,832	-41,101	0,063	-0,024
-425,817	112,396	-0,084	-0,074
-424,803	-36,680	-0,037	-0,014
-423,788	184,686	0,048	0,051
-422,773	-200,000	-0,011	0,083
-421,759	800,000	0,013	-0,037
-420,744	-200,000	-0,011	0,101
-419,730	297,757	-0,077	0,103
-418,715	-1,282	-0,075	-0,038
-417,701	-200,000	0,008	0,054
-416,686	38,783	0,084	-0,054
-415,671	-52,744	-0,081	-0,027
-414,657	-200,000	0,012	0,098
-413,642	452,783	0,047	-0,076
-412,628	37,632	-0,043	0,028
-411,613	286,763	-0,024	0,031
-410,598	69,640	0,027	-0,020
-409,584	800,000	0,043	-0,117
-408,569	-37,553	-0,039	0,015
-407,555	117,931	0,082	-0,074
-406,540	-200,000	0,018	0,125
-405,525	800,000	-0,010	0,027
-404,511	28,070	0,084	-0,051
-403,496	304,175	-0,048	0,065
-402,482	-89,858	0,129	0,027
-401,467	0,147	0,048	0,025
-400,452	-200,000	-0,041	-0,204
-399,438	-200,000	-0,007	-0,112
-398,423	-200,000	0,015	-0,089
-397,409	0,099	-0,079	-0,041
-396,394	149,221	0,056	0,055
-395,379	-82,952	-0,079	-0,018
-394,365	-200,000	-0,041	-0,156
-393,350	-147,132	0,174	-0,011
-392,336	765,482	-0,063	0,124
-391,321	120,490	0,017	-0,016
-390,306	245,307	-0,068	-0,083
-389,292	-71,988	-0,055	0,015
-388,277	131,905	-0,011	0,010
-387,263	630,203	0,058	0,108
-386,248	223,652	0,012	0,014
-385,233	-78,361	-0,048	-0,012
-384,219	800,000	0,030	0,093
-383,204	392,500	-0,040	-0,060
-382,190	-138,369	-0,090	0,007
-381,175	800,000	-0,035	0,085
-380,160	-200,000	-0,001	0,072
-379,146	-21,866	0,117	0,051
-378,131	3,232	-0,127	-0,067
-377,117	-141,086	0,070	0,005
-376,102	726,893	-0,033	0,065
-375,088	780,646	0,022	-0,044
-374,073	-141,919	-0,116	0,008
-373,058	-169,953	0,053	0,001
-372,044	-60,553	0,068	-0,021
-371,029	-200,000	-0,063	0,000
-370,015	-49,400	0,083	0,029
-369,000	186,657	-0,035	0,038
-367,985	-160,929	-0,043	0,002
-366,971	800,000	-0,035	0,096
-365,956	-200,000	0,014	0,113
-364,942	-200,000	0,009	0,116
-363,927	-200,000	-0,005	0,062
-362,912	138,071	-0,114	0,109
-361,898	351,833	0,052	-0,075
-360,883	102,067	-0,096	-0,081
-359,869	345,365	-0,070	0,101
-358,854	381,644	0,074	0,110
-357,839	100,619	0,110	0,092
-356,825	177,516	-0,040	-0,043
-355,810	-120,442	0,149	0,018
-354,796	147,969	0,035	0,034
-353,781	-64,286	-0,083	-0,025
-352,766	-12,188	0,104	0,049
-351,752	-200,000	0,002	0,014
-350,737	318,147	0,020	-0,027
-349,723	800,000	0,026	0,055
-348,708	174,336	0,135	0,142
-347,693	-200,000	0,013	0,076
-346,679	-138,334	-0,100	-0,008
-345,664	98,361	0,029	0,025
-344,650	800,000	-0,018	-0,038
-343,635	-178,753	0,100	-0,002
-342,620	89,881	-0,039	0,032
-341,606	-200,000	0,019	0,086
-340,591	369,601	-0,098	-0,145
-339,577	800,000	-0,073	-0,171
-338,562	-200,000	0,038	-0,129
-337,548	82,411	0,043	-0,034
-336,533	800,000	0,041	-0,114
-335,518	296,616	-0,036	0,048
-334,504	-35,688	-0,032	0,013
-333,489	-100,020	0,102	-0,018
-332,475	-78,429	0,074	0,018
-331,460	387,456	-0,018	-0,027
-330,445	337,397	-0,042	0,059
-329,431	-2,155	-0,024	0,012
-328,416	531,618	-0,050	0,087
-327,402	-112,435	-0,065	-0,009
-326,387	-46,800	0,110	-0,039
-325,372	-104,720	-0,147	-0,024
-324,358	444,682	0,018	-0,028
-323,343	-5,189	0,050	-0,025
-322,329	-200,000	-0,007	0,039
-321,314	683,951	0,047	-0,090
-320,299	380,290	-0,065	-0,098
-319,285	87,153	0,148	0,119
-318,270	72,470	0,089	-0,067
-317,256	-200,000	-0,015	0,055
-316,241	46,038	-0,062	0,041
-315,226	-200,000	-0,001	-0,013
-314,212	106,087	-0,029	0,025
-313,197	361,131	0,047	0,068
-312,183	-200,000	-0,015	-0,083
-311,168	-83,841	0,057	-0,013
-310,153	20,204	-0,164	0,096
-309,139	-56,142	0,045	0,014
-308,124	-200,000	-0,029	-0,222
-307,110	-151,713	-0,056	-0,003
-306,095	-200,000	0,028	0,228
-305,080	-146,759	-0,060	-0,004
-304,066	104,241	0,021	-0,018
-303,051	-112,214	-0,178	0,026
-302,037	86,591	-0,099	0,079
-301,022	118,629	0,036	-0,032
-300,008	-200,000	0,023	0,076
-298,993	-1,983	0,100	-0,051
-297,978	-87,173	0,051	0,011
-296,964	563,716	-0,034	-0,061
-295,949	-139,814	-0,029	-0,002
-294,935	800,000	-0,020	-0,048
-293,920	116,059	0,005	-0,005
-292,905	-99,466	-0,051	0,009
-291,891	-67,756	-0,106	0,030
-290,876	-200,000	-0,039	0,219
-289,862	-200,000	-0,012	0,052
-288,847	141,498	-0,101	0,097
-287,832	-50,251	0,129	-0,044
-286,818	-200,000	0,016	0,129
-285,803	325,058	-0,060	-0,084
-284,789	88,927	0,137	0,110
-283,774	800,000	0,083	0,247
-282,759	707,063	0,017	-0,032
-281,745	-200,000	-0,003	0,042
-280,730	-200,000	-0,004	0,031
-279,716	-200,000	0,009	-0,061
-278,701	192,766	-0,072	0,079
-277,686	-164,423	0,151	-0,005
-276,672	-200,000	0,007	0,108
-275,657	355,446	-0,045	0,065
-274,643	-200,000	-0,001	-0,020
-273,628	646,647	-0,062	-0,116
-272,613	93,279	-0,021	-0,017
-271,599	98,562	0,047	-0,039
-270,584	-10,752	0,046	0,022
-269,570	-200,000	-0,017	-0,087
-268,555	23,504	-0,049	-0,029
-267,540	-154,262	-0,087	0,004
-266,526	-200,000	-0,023	-0,074
-265,511	218,839	0,092	-0,106
-264,497	-200,000	-0,013	-0,048
-263,482	-200,000	0,011	0,090
-262,467	-15,792	0,029	-0,013
-261,453	491,241	-0,044	0,073
-260,438	254,767	0,046	-0,057
-259,424	-200,000	-0,016	-0,116
-258,409	800,000	-0,023	-0,048
-257,395	250,527	0,064	0,078
-256,380	-23,124	0,047	0,020
-255,365	-47,891	0,083	0,029
-254,351	-200,000	-0,009	-0,087
-253,336	111,232	-0,075	0,066
-252,322	226,684	0,039	-0,046
-251,307	6,054	-0,081	0,043
-250,292	800,000	0,020	0,059
-249,278	-49,839	0,146	-0,050
-248,263	-29,428	-0,073	-0,030
-247,249	800,000	0,029	0,063
-246,234	112,537	-0,061	0,053
-245,219	87,168	-0,008	-0,007
-244,205	-200,000	-0,003	-0,052
-243,190	768,867	0,045	0,089
-242,176	-200,000	-0,033	0,131
-241,161	33,888	0,130	-0,081
-240,146	-110,227	-0,033	0,005
-239,132	-153,472	0,126	-0,006
-238,117	285,229	0,083	-0,109
-237,103	-102,535	-0,052	0,009
-236,088	36,000	-0,009	0,006
-235,073	-200,000	0,008	0,105
-234,059	-146,175	0,076	0,005
-233,044	23,191	-0,147	0,087
-232,030	-200,000	0,004	0,068
-231,015	-200,000	0,013	0,053
-230,000	-200,000	0,019	-0,144
-228,986	-200,000	-0,027	0,139
-227,971	432,022	0,058	0,091
-226,957	-200,000	-0,017	0,123
-225,942	-42,909	-0,091	-0,033
-224,927	-24,349	-0,020	-0,009
-223,913	800,000	0,014	-0,044
-222,898	519,911	-0,049	-0,083
-221,884	-14,819	0,058	0,027
-220,869	-46,672	0,032	-0,011
-219,855	-142,674	-0,059	-0,004
-218,840	-54,192	0,074	0,024
-217,825	-12,593	-0,072	-0,034
-216,811	-200,000	0,044	-0,163
-215,796	572,978	-0,091	-0,161
-214,782	-148,544	0,051	-0,003
-213,767	221,575	-0,106	0,124
-212,752	-200,000	0,001	0,041
-211,738	-153,587	-0,086	-0,004
-210,723	-200,000	0,004	-0,073
-209,709	158,235	-0,023	-0,023
-208,694	800,000	-0,027	-0,057
-207,679	276,374	-0,092	-0,118
-206,665	92,341	-0,056	-0,046
-205,650	89,968	-0,144	0,116
-204,636	-71,103	0,054	-0,015
-203,621	-200,000	-0,015	0,145
-202,606	-200,000	-0,027	0,154
-201,592	-162,697	0,034	0,001
-200,577	-52,115	0,066	0,022
-199,563	25,146	0,097	-0,058
-198,548	800,000	-0,009	-0,029
-197,533	-84,139	0,119	-0,027
-196,519	-93,704	-0,024	-0,005
-195,504	105,075	-0,086	0,073
-194,490	-79,393	0,100	-0,024
-193,475	-43,069	-0,125	-0,045
-192,460	14,930	0,086	0,049
-191,446	274,961	0,045	0,058
-190,431	800,000	0,016	-0,046
-189,417	-200,000	0,009	0,083
-188,402	-200,000	0,010	-0,116
-187,387	800,000	0,027	0,062
-186,373	-74,877	0,028	0,007
-185,358	-113,186	0,031	0,004
-184,344	-34,429	0,126	0,050
-183,329	-200,000	-0,011	-0,057
-182,315	189,531	0,097	0,105
-181,300	655,973	0,020	0,036
-180,285	233,348	-0,077	0,091
-179,271	-63,832	0,156	-0,046
-178,256	61,907	-0,046	0,033
-177,242	428,525	0,067	0,105
-176,227	-18,279	0,071	-0,032
-175,212	109,961	0,042	-0,036
-174,198	800,000	0,038	-0,099
-173,183	800,000	-0,022	-0,049
-172,169	-170,068	-0,037	0,001
-171,154	-114,024	-0,102	-0,014
-170,139	-24,903	0,070	-0,030
-169,125	19,181	0,152	-0,088
-168,110	560,020	0,020	0,035
-167,096	234,895	0,017	0,020
-166,081	-162,354	-0,057	0,002
-165,066	-12,573	-0,117	-0,055
-164,052	-72,931	-0,049	0,013
-163,037	-175,867	-0,023	0,000
-162,023	-24,767	0,126	0,054
-161,008	-27,673	-0,016	-0,007
-159,993	-200,000	0,044	0,174
-158,979	-200,000	-0,016	0,093
-157,964	367,973	-0,106	-0,155
-156,950	-34,293	-0,092	0,036
-155,935	-92,630	0,142	-0,028
-154,920	-81,684	0,126	-0,030
-153,906	-36,073	-0,098	0,038
-152,891	-113,126	0,018	0,002
-151,877	-200,000	-0,006	0,042
-150,862	-200,000	0,030	-0,130
-149,847	109,336	-0,022	0,019
-148,833	13,631	0,034	0,019
-147,818	196,425	-0,011	-0,012
-146,804	-48,564	0,123	-0,042
-145,789	426,173	-0,031	0,049
-144,775	562,782	-0,030	-0,053
-143,760	800,000	0,058	-0,135
-142,745	383,201	-0,054	-0,081
-141,731	239,013	0,025	-0,030
-140,716	398,409	-0,081	-0,122
-139,702	64,236	0,039	0,028
-138,687	-103,524	0,081	0,013
-137,672	-6,419	0,112	-0,055
-136,658	-200,000	-0,015	-0,048
-135,643	800,000	-0,020	0,056
-134,629	-76,774	-0,148	-0,037
-133,614	-200,000	0,028	-0,129
-132,599	606,341	0,033	-0,060
-131,585	-81,579	-0,075	-0,018
-130,570	-56,798	0,082	0,026
-129,556	49,764	-0,054	0,036
-128,541	-200,000	-0,018	-0,084
-127,526	-200,000	0,043	-0,167
-126,512	-200,000	-0,007	-0,025
-125,497	746,612	-0,104	0,203
-124,483	-80,553	0,114	-0,027
-123,468	-80,248	-0,044	0,011
-122,453	800,000	-0,068	-0,144
-121,439	484,008	0,060	-0,098
-120,424	288,605	0,006	-0,008
