DTS Sentinel unit serial number:	SN410029Multiplexer serial number:	ORYXHardware model number:	OX2-SRSoftware version number:	ORYX F/W v4,00 Oryx Data Collector v3.7.2.0data status	okinstallation	B5 Nyhavnadifferential loss correction	single-endedforward channel	channel 2reverse channel	N/Adate	2023/12/11time	16:02:13forward acquisition time	300,00reverse acquisition time	0,00gamma	499,1914k internal	0,3166k external	0,3166temperature offset calibration	1,0000default loss term (dB/km)	0,3820temperature slope calibration	1,0000multiplexer offset coefficient	1,0000multiplexer slope coefficient	1,0000fibre end	0,00T internal ref (°C)	13,71T ext. ref 1 (°C)	-1,30T ext. ref 2 (°C)	-1,37length (m)	temperature (°C)	Stokes	anti-Stokes-744,400	159,413	0,099	-0,101
-743,385	-162,704	-0,364	-0,013
-742,371	-108,771	0,199	-0,031
-741,356	-84,269	-0,306	0,071
-740,342	126,466	0,169	0,157
-739,327	-86,900	-0,206	-0,046
-738,312	-81,741	0,165	0,039
-737,298	-199,354	-0,400	0,001
-736,283	72,081	-0,014	-0,011
-735,269	-73,514	-0,498	-0,133
-734,254	62,179	0,088	0,064
-733,239	-36,923	-0,385	-0,151
-732,225	415,656	-0,015	-0,023
-731,210	294,375	-0,022	-0,030
-730,196	800,000	0,021	-0,045
-729,181	-200,000	0,022	0,105
-728,167	-66,545	0,063	0,018
-727,152	203,993	-0,094	-0,107
-726,137	-153,806	-0,118	0,006
-725,123	-200,000	-0,002	0,052
-724,108	-200,000	-0,020	-0,122
-723,094	-31,369	-0,078	0,032
-722,079	-84,757	-0,090	0,021
-721,064	246,687	-0,066	-0,081
-720,050	497,587	0,062	0,106
-719,035	36,625	-0,135	0,087
-718,021	-200,000	0,004	-0,053
-717,006	-51,217	-0,140	-0,048
-715,991	800,000	-0,051	-0,134
-714,977	-200,000	-0,007	-0,153
-713,962	800,000	0,026	0,053
-712,948	-92,258	-0,077	0,016
-711,933	800,000	-0,044	-0,130
-710,918	-77,643	-0,094	0,024
-709,904	-3,061	-0,019	-0,010
-708,889	96,902	-0,042	0,035
-707,875	-147,976	-0,142	-0,009
-706,860	-20,840	0,076	0,034
-705,845	-200,000	0,006	0,025
-704,831	74,397	0,034	-0,026
-703,816	177,429	-0,059	-0,064
-702,802	-200,000	0,009	0,096
-701,787	31,570	-0,047	-0,030
-700,772	625,460	0,050	-0,092
-699,758	-54,296	-0,140	-0,047
-698,743	800,000	0,064	0,168
-697,729	-62,320	0,082	-0,025
-696,714	13,347	-0,071	0,040
-695,699	196,913	-0,053	-0,059
-694,685	-200,000	-0,021	-0,073
-693,670	27,098	-0,158	-0,097
-692,656	-200,000	-0,020	-0,152
-691,641	-24,356	0,070	0,030
-690,627	-76,729	0,092	-0,024
-689,612	118,484	-0,062	-0,056
-688,597	-62,093	-0,108	-0,033
-687,583	-32,170	-0,125	-0,051
-686,568	766,786	-0,014	-0,028
-685,554	-111,758	-0,168	-0,025
-684,539	-32,304	-0,117	0,048
-683,524	-200,000	0,008	0,096
-682,510	-200,000	0,025	0,135
-681,495	-117,563	-0,109	-0,014
-680,481	28,017	-0,034	0,021
-679,466	-61,486	0,137	-0,042
-678,451	87,525	-0,100	-0,081
-677,437	-50,922	-0,046	-0,016
-676,422	30,433	0,088	0,055
-675,408	192,080	0,104	-0,115
-674,393	-200,000	-0,029	-0,123
-673,378	20,584	-0,038	-0,023
-672,364	-138,083	0,050	0,004
-671,349	-200,000	0,036	-0,267
-670,335	255,819	0,090	-0,114
-669,320	-194,110	-0,129	0,001
-668,305	-200,000	0,021	0,074
-667,291	256,859	-0,065	0,082
-666,276	-170,181	0,056	-0,001
-665,262	-200,000	0,016	-0,096
-664,247	-119,078	-0,097	0,012
-663,232	-120,099	-0,057	0,007
-662,218	800,000	-0,022	0,063
-661,203	-200,000	-0,006	-0,077
-660,189	800,000	-0,089	-0,208
-659,174	91,782	-0,081	-0,067
-658,159	722,990	0,059	0,116
-657,145	286,945	0,046	-0,060
-656,130	-112,098	-0,077	0,011
-655,116	133,124	0,039	0,036
-654,101	-200,000	0,021	-0,077
-653,086	800,000	-0,015	0,043
-652,072	-10,962	-0,051	-0,025
-651,057	-80,857	0,025	-0,006
-650,043	3,467	-0,129	-0,068
-649,028	-131,724	-0,094	-0,009
-648,014	-102,246	0,072	0,013
-646,999	112,642	-0,041	0,036
-645,984	-200,000	0,011	0,064
-644,970	-65,290	-0,220	-0,065
-643,955	-68,012	-0,075	0,021
-642,941	-19,425	-0,190	0,086
-641,926	118,490	0,127	0,115
-640,911	-200,000	-0,012	0,057
-639,897	-81,224	-0,083	0,020
-638,882	-200,000	-0,019	-0,100
-637,868	-200,000	-0,015	-0,080
-636,853	359,799	0,040	-0,059
-635,838	800,000	-0,034	-0,091
-634,824	-200,000	0,022	-0,087
-633,809	71,743	0,032	-0,024
-632,795	800,000	0,012	0,033
-631,780	-200,000	-0,007	-0,034
-630,765	173,396	0,055	-0,058
-629,751	-200,000	-0,035	-0,138
-628,736	-117,125	-0,043	0,006
-627,722	222,649	-0,025	-0,029
-626,707	87,273	0,034	-0,027
-625,692	300,523	-0,080	0,108
-624,678	800,000	-0,026	-0,064
-623,663	203,392	0,042	0,048
-622,649	61,092	-0,113	-0,082
-621,634	93,484	0,109	0,090
-620,619	113,862	0,040	-0,036
-619,605	-200,000	-0,033	0,113
-618,590	457,593	-0,078	0,127
-617,576	800,000	0,086	0,184
-616,561	504,289	-0,053	0,091
-615,546	570,792	0,090	-0,162
-614,532	698,648	0,046	-0,090
-613,517	174,533	0,033	0,035
-612,503	-200,000	-0,003	-0,050
-611,488	-200,000	0,050	0,253
-610,474	-200,000	0,002	0,159
-609,459	-200,000	0,004	0,113
-608,444	-111,462	0,052	0,008
-607,430	777,815	-0,020	-0,040
-606,415	140,971	-0,093	-0,090
-605,401	-118,425	-0,062	-0,008
-604,386	-200,000	-0,012	-0,080
-603,371	-187,024	0,067	-0,001
-602,357	-142,096	-0,100	0,007
-601,342	188,657	-0,045	-0,049
-600,328	-200,000	-0,009	-0,033
-599,313	-200,000	-0,001	-0,120
-598,298	-200,000	0,008	0,090
-597,284	-200,000	0,020	0,081
-596,269	-123,592	0,105	0,012
-595,255	-194,552	0,213	-0,001
-594,240	520,370	-0,063	-0,108
-593,225	-200,000	0,005	-0,054
-592,211	-15,564	0,106	0,049
-591,196	-200,000	-0,001	-0,060
-590,182	-133,740	-0,088	0,008
-589,167	387,249	0,054	0,081
-588,152	-8,841	-0,092	-0,045
-587,138	-117,009	-0,050	-0,007
-586,123	36,317	-0,130	-0,084
-585,109	40,684	0,048	-0,032
-584,094	-200,000	-0,005	0,097
-583,079	800,000	-0,037	0,105
-582,065	62,753	0,106	0,078
-581,050	-155,133	-0,138	-0,006
-580,036	-200,000	-0,025	0,095
-579,021	800,000	-0,053	-0,145
-578,006	800,000	0,019	0,051
-576,992	125,864	0,020	0,018
-575,977	-127,927	-0,093	-0,010
-574,963	-119,829	0,035	0,004
-573,948	0,600	-0,046	-0,024
-572,934	800,000	-0,016	-0,049
-571,919	52,193	-0,046	-0,032
-570,904	-186,587	-0,063	0,001
-569,890	-95,265	-0,072	0,014
-568,875	448,982	0,062	-0,100
-567,861	-200,000	0,017	0,122
-566,846	11,961	0,095	0,053
-565,831	-200,000	-0,054	0,187
-564,817	-117,308	0,061	-0,008
-563,802	26,650	0,072	0,044
-562,788	335,524	-0,006	0,009
-561,773	-156,964	-0,091	0,004
-560,758	163,370	0,040	0,041
-559,744	-102,652	0,040	-0,007
-558,729	289,294	0,089	0,117
-557,715	-85,866	-0,052	0,012
-556,700	-200,000	0,019	-0,150
-555,685	73,599	-0,055	-0,042
-554,671	68,984	0,098	0,074
-553,656	83,814	0,020	0,016
-552,642	259,779	0,045	0,057
-551,627	-89,109	0,211	-0,045
-550,612	-106,363	-0,205	0,033
-549,598	498,256	-0,026	0,043
-548,583	361,713	0,148	-0,217
-547,569	87,886	0,069	-0,056
-546,554	176,529	0,128	0,136
-545,539	800,000	-0,054	0,112
-544,525	64,042	-0,053	0,039
-543,510	224,632	0,005	-0,006
-542,496	-36,843	0,029	0,011
-541,481	165,820	-0,120	-0,124
-540,466	-23,701	-0,023	-0,010
-539,452	-128,101	0,248	-0,026
-538,437	-200,000	0,014	-0,056
-537,423	195,118	-0,018	0,020
-536,408	-200,000	-0,004	-0,039
-535,393	107,377	-0,044	-0,038
-534,379	-39,893	-0,074	0,028
-533,364	-200,000	-0,029	-0,183
-532,350	68,537	0,064	-0,048
-531,335	800,000	0,058	-0,132
-530,321	130,574	0,098	0,092
-529,306	440,310	0,055	0,088
-528,291	128,240	0,015	0,014
-527,277	-88,232	-0,105	0,023
-526,262	-104,070	-0,050	0,008
-525,248	153,738	-0,072	-0,072
-524,233	-173,933	0,159	0,003
-523,218	-200,000	-0,020	-0,072
-522,204	-137,793	-0,090	0,007
-521,189	54,570	-0,028	0,019
-520,175	68,839	-0,040	-0,030
-519,160	-150,531	-0,138	0,008
-518,145	-200,000	0,040	0,218
-517,131	800,000	0,047	0,097
-516,116	88,801	-0,057	0,046
-515,102	125,859	-0,136	-0,125
-514,087	-69,079	0,130	-0,036
-513,072	-200,000	0,033	-0,178
-512,058	16,715	-0,078	-0,045
-511,043	-13,298	0,107	0,050
-510,029	159,489	-0,062	0,063
-509,014	-56,845	-0,131	-0,042
-507,999	800,000	0,024	0,051
-506,985	54,835	0,033	0,023
-505,970	-12,503	0,050	0,024
-504,956	-28,643	-0,064	0,027
-503,941	686,294	-0,059	-0,113
-502,926	53,593	-0,049	-0,034
-501,912	26,194	0,081	0,049
-500,897	-91,996	0,053	-0,011
-499,883	-77,903	-0,136	-0,034
-498,868	318,708	0,068	-0,094
-497,853	550,583	0,093	-0,164
-496,839	-200,000	-0,022	0,077
-495,824	-200,000	-0,019	0,064
-494,810	-41,749	0,175	0,065
-493,795	393,469	-0,067	-0,101
-492,781	-67,340	0,067	-0,019
-491,766	243,436	-0,054	0,067
-490,751	27,496	0,045	-0,028
-489,737	-53,382	0,067	0,022
-488,722	-61,106	0,096	0,029
-487,708	-73,999	-0,056	-0,015
-486,693	-200,000	0,003	0,117
-485,678	160,498	-0,062	0,063
-484,664	101,529	0,140	-0,119
-483,649	246,768	-0,057	-0,070
-482,635	503,735	0,019	-0,032
-481,620	-28,090	0,104	-0,044
-480,605	-22,450	0,080	-0,035
-479,591	-79,784	-0,152	-0,037
-478,576	-200,000	-0,002	-0,049
-477,562	390,846	-0,062	-0,094
-476,547	-25,206	-0,185	-0,079
-475,532	668,206	0,022	-0,042
-474,518	-110,717	0,149	0,022
-473,503	-200,000	0,013	0,087
-472,489	-200,000	-0,012	0,134
-471,474	-200,000	-0,033	-0,155
-470,459	72,154	0,060	-0,045
-469,445	135,480	0,055	0,052
-468,430	-200,000	0,016	-0,136
-467,416	184,213	0,044	0,048
-466,401	-200,000	0,009	0,144
-465,386	466,527	0,097	0,159
-464,372	800,000	-0,019	-0,051
-463,357	440,509	-0,032	-0,052
-462,343	-159,111	-0,099	-0,004
-461,328	-200,000	0,006	0,049
-460,313	335,444	-0,042	0,060
-459,299	-200,000	0,014	-0,052
-458,284	-200,000	-0,007	0,061
-457,270	79,682	0,039	0,030
-456,255	562,952	0,065	0,115
-455,241	3,666	-0,101	-0,053
-454,226	-200,000	-0,010	0,035
-453,211	-139,285	0,078	0,006
-452,197	800,000	-0,023	0,055
-451,182	800,000	0,023	0,070
-450,168	115,211	0,033	0,029
-449,153	-200,000	-0,007	0,055
-448,138	113,097	0,010	0,009
-447,124	-20,045	-0,161	0,072
-446,109	57,564	0,059	-0,042
-445,095	-200,000	-0,007	0,084
-444,080	516,414	0,043	0,074
-443,065	3,365	0,094	0,049
-442,051	135,612	-0,064	-0,061
-441,036	-79,388	0,046	0,011
-440,022	214,001	0,088	0,101
-439,007	99,987	-0,129	0,108
-437,992	175,896	-0,043	0,045
-436,978	-103,606	0,077	0,013
-435,963	369,745	0,049	0,072
-434,949	-1,089	-0,062	-0,032
-433,934	245,349	-0,036	0,044
-432,919	-200,000	0,002	-0,012
-431,905	7,811	0,017	-0,009
-430,890	-200,000	0,019	0,163
-429,876	-102,481	0,026	-0,005
-428,861	-50,238	-0,088	0,030
-427,846	-34,564	0,092	-0,036
-426,832	800,000	0,064	-0,184
-425,817	-42,716	-0,141	0,052
-424,803	-54,663	-0,031	-0,010
-423,788	-88,342	-0,117	0,025
-422,773	-41,191	0,055	-0,021
-421,759	-200,000	-0,025	0,143
-420,744	-109,777	-0,074	0,011
-419,730	52,794	0,090	-0,062
-418,715	485,351	0,089	0,148
-417,701	800,000	-0,015	-0,032
-416,686	-3,944	-0,042	0,021
-415,671	-4,383	0,155	-0,078
-414,657	-156,381	0,048	0,002
-413,642	166,451	-0,054	-0,056
-412,628	-200,000	0,036	0,117
-411,613	32,936	0,075	0,047
-410,598	-16,575	-0,068	-0,031
-409,584	717,103	-0,015	0,030
-408,569	-70,438	0,090	0,024
-407,555	221,468	-0,044	0,051
-406,540	561,183	-0,087	-0,154
-405,525	369,431	-0,080	-0,118
-404,511	-12,932	0,004	0,002
-403,496	65,438	0,077	0,056
-402,482	593,775	0,028	-0,051
-401,467	-200,000	0,021	0,091
-400,452	-87,378	0,080	-0,017
-399,438	190,766	0,038	0,041
-398,423	800,000	0,073	0,151
-397,409	-200,000	-0,003	-0,032
-396,394	-170,748	0,084	-0,002
-395,379	186,754	0,069	-0,074
-394,365	207,577	-0,030	-0,034
-393,350	-114,792	0,125	0,017
-392,336	-85,380	-0,065	-0,015
-391,321	-182,182	-0,090	-0,001
-390,306	133,182	-0,113	0,106
-389,292	592,484	-0,037	0,067
-388,277	-16,743	-0,075	-0,034
-387,263	-110,633	0,198	0,029
-386,248	-200,000	-0,026	0,084
-385,233	-91,105	0,083	0,017
-384,219	-136,657	0,065	0,005
-383,204	800,000	-0,005	0,012
-382,190	404,349	-0,035	0,054
-381,175	8,098	0,012	0,006
-380,160	84,687	0,093	0,074
-379,146	37,605	0,107	-0,069
-378,131	394,699	-0,019	-0,028
-377,117	-18,840	-0,025	-0,011
-376,102	294,917	0,112	-0,148
-375,088	-64,240	0,067	0,020
-374,073	-1,260	-0,133	0,068
-373,058	98,585	0,060	0,050
-372,044	128,969	-0,022	-0,020
-371,029	102,920	0,120	-0,102
-370,015	191,349	-0,053	0,058
-369,000	261,386	-0,055	-0,069
-367,985	800,000	0,082	-0,174
-366,971	-44,405	-0,078	0,028
-365,956	613,580	-0,074	-0,135
-364,942	800,000	0,035	0,081
-363,927	-86,227	-0,039	0,009
-362,912	137,686	-0,066	0,063
-361,898	800,000	0,018	0,047
-360,883	187,196	-0,066	0,071
-359,869	-30,270	0,047	-0,019
-358,854	-116,214	-0,056	-0,007
-357,839	-50,634	0,095	0,032
-356,825	129,565	0,099	0,092
-355,810	294,013	-0,059	0,078
-354,796	-104,086	0,067	-0,011
-353,781	800,000	0,023	-0,058
-352,766	481,177	-0,052	-0,087
-351,752	66,719	0,062	0,045
-350,737	16,299	-0,188	0,107
-349,723	-45,696	-0,052	-0,019
-348,708	69,959	-0,038	0,029
-347,693	-200,000	0,007	0,077
-346,679	56,630	0,067	0,047
-345,664	-200,000	0,019	-0,118
-344,650	800,000	-0,032	-0,081
-343,635	66,264	0,043	-0,032
-342,620	-200,000	0,011	0,040
-341,606	-47,441	-0,129	-0,045
-340,591	96,353	-0,080	-0,066
-339,577	5,965	-0,044	-0,023
-338,562	-5,068	-0,033	-0,016
-337,548	-78,298	0,065	0,016
-336,533	49,085	0,030	-0,020
-335,518	-53,085	-0,131	0,043
-334,504	-151,867	-0,021	0,001
-333,489	-200,000	0,008	-0,109
-332,475	171,746	-0,040	0,041
-331,460	-200,000	0,017	-0,070
-330,445	462,809	-0,076	0,123
-329,431	-200,000	-0,011	0,189
-328,416	1,166	-0,131	0,068
-327,402	181,669	-0,032	0,034
-326,387	-200,000	-0,003	-0,117
-325,372	284,440	0,066	0,086
-324,358	291,102	-0,070	0,092
-323,343	-121,002	-0,075	-0,009
-322,329	-68,812	0,108	-0,030
-321,314	-81,598	0,139	0,033
-320,299	39,837	0,205	0,133
-319,285	-200,000	-0,044	0,142
-318,270	110,666	0,087	-0,076
-317,256	289,078	-0,039	-0,051
-316,241	203,565	-0,049	-0,055
-315,226	692,647	-0,068	-0,130
-314,212	318,195	0,083	0,113
-313,197	22,868	0,109	0,064
-312,183	-200,000	0,009	-0,198
-311,168	-93,913	-0,065	0,013
-310,153	-95,301	0,072	0,014
-309,139	-200,000	0,024	-0,077
-308,124	222,113	0,016	-0,019
-307,110	-36,174	0,073	0,028
-306,095	-97,970	-0,146	0,027
-305,080	-113,741	0,100	-0,014
-304,066	557,225	-0,048	-0,085
-303,051	96,969	-0,076	-0,063
-302,037	-146,395	-0,082	0,005
-301,022	639,950	0,026	-0,049
-300,008	-200,000	0,005	0,072
-298,993	280,098	0,055	-0,071
-297,978	639,436	0,042	-0,078
-296,964	-154,540	-0,075	-0,004
-295,949	-200,000	-0,003	0,045
-294,935	-200,000	-0,024	0,098
-293,920	-200,000	0,001	0,010
-292,905	-200,000	-0,009	0,113
-291,891	63,358	-0,055	-0,040
-290,876	125,477	0,092	0,084
-289,862	-78,859	-0,157	0,038
-288,847	671,123	0,008	-0,014
-287,832	-30,073	0,057	-0,023
-286,818	-7,567	-0,035	0,017
-285,803	23,856	-0,123	0,073
-284,789	-157,445	0,160	-0,007
-283,774	87,518	-0,030	0,024
-282,759	-82,738	0,091	0,021
-281,745	124,100	-0,074	-0,067
-280,730	-146,484	-0,127	-0,008
-279,716	287,554	0,082	0,108
-278,701	-200,000	0,020	0,126
-277,686	-36,589	0,166	-0,064
-276,672	266,827	0,030	-0,038
-275,657	-200,000	0,013	-0,047
-274,643	345,778	0,041	-0,059
-273,628	-200,000	-0,013	0,076
-272,613	-93,111	-0,073	-0,015
-271,599	-200,000	-0,017	-0,156
-270,584	144,850	0,027	-0,026
-269,570	396,376	0,058	0,088
-268,555	-174,512	0,074	0,001
-267,540	351,561	-0,023	0,033
-266,526	21,355	0,087	-0,051
-265,511	800,000	0,019	-0,045
-264,497	-200,000	-0,007	0,038
-263,482	33,670	-0,029	0,018
-262,467	78,824	-0,038	0,030
-261,453	-200,000	-0,002	-0,062
-260,438	750,473	-0,036	-0,070
-259,424	-200,000	0,034	-0,138
-258,409	177,837	-0,119	-0,126
-257,395	-38,817	0,109	0,041
-256,380	800,000	-0,036	0,078
-255,365	154,587	0,063	0,063
-254,351	126,745	-0,111	0,102
-253,336	511,103	-0,053	-0,089
-252,322	-200,000	-0,035	-0,159
-251,307	-200,000	-0,013	0,076
-250,292	77,122	-0,045	0,035
-249,278	-128,115	-0,118	0,012
-248,263	24,573	-0,040	0,024
-247,249	-200,000	0,008	-0,050
-246,234	-200,000	-0,005	-0,042
-245,219	800,000	-0,048	0,122
-244,205	80,490	-0,066	-0,051
-243,190	-200,000	-0,010	-0,109
-242,176	125,042	-0,107	0,097
-241,161	119,653	-0,062	-0,055
-240,146	448,253	-0,071	0,114
-239,132	671,455	-0,036	0,068
-238,117	259,346	0,060	-0,074
-237,103	-200,000	-0,016	-0,116
-236,088	23,203	0,036	-0,021
-235,073	16,090	0,024	0,014
-234,059	800,000	-0,027	-0,065
-233,044	137,614	-0,052	-0,049
-232,030	-200,000	0,018	-0,126
-231,015	191,258	-0,090	0,098
-230,000	246,899	-0,057	-0,069
-228,986	800,000	0,060	-0,120
-227,971	60,525	0,053	-0,038
-226,957	40,697	0,071	-0,046
-225,942	800,000	-0,039	-0,118
-224,927	-200,000	0,052	-0,178
-223,913	-200,000	-0,017	-0,104
-222,898	-77,638	0,045	-0,011
-221,884	800,000	-0,010	-0,025
-220,869	800,000	-0,052	0,146
-219,855	-112,890	0,036	-0,005
-218,840	-64,950	0,100	-0,029
-217,825	-200,000	0,011	-0,092
-216,811	-200,000	-0,043	0,170
-215,796	12,205	0,071	-0,039
-214,782	294,210	0,053	0,071
-213,767	-109,918	-0,030	-0,004
-212,752	7,560	0,076	0,041
-211,738	-99,138	0,068	0,012
-210,723	203,424	0,058	0,065
-209,709	-65,921	-0,098	-0,028
-208,694	-200,000	0,018	-0,162
-207,679	209,410	-0,113	0,127
-206,665	-97,940	0,065	-0,012
-205,650	-147,955	0,180	-0,011
-204,636	-171,399	0,050	-0,001
-203,621	800,000	-0,023	0,072
-202,606	270,250	-0,051	-0,065
-201,592	-128,092	-0,030	-0,003
-200,577	260,323	0,032	0,040
-199,563	-200,000	0,013	0,069
-198,548	-126,680	0,075	0,008
-197,533	-200,000	-0,000	0,082
-196,519	800,000	-0,057	0,126
-195,504	42,451	-0,063	-0,041
-194,490	64,101	-0,129	-0,093
-193,475	-143,018	-0,047	-0,003
-192,460	-200,000	-0,010	-0,051
-191,446	800,000	0,039	0,079
-190,431	-200,000	0,010	0,061
-189,417	43,874	-0,049	0,032
-188,402	-9,719	0,079	0,038
-187,387	126,542	-0,017	-0,016
-186,373	-163,528	-0,103	0,003
-185,358	522,525	-0,146	-0,248
-184,344	320,450	-0,067	-0,092
-183,329	-19,187	0,050	-0,022
-182,315	-53,190	0,064	0,021
-181,300	639,842	0,004	0,007
-180,285	108,413	0,109	0,094
-179,271	-200,000	-0,004	-0,052
-178,256	-178,034	0,084	-0,001
-177,242	36,629	-0,086	-0,054
-176,227	36,225	0,110	-0,069
-175,212	98,434	0,159	-0,132
-174,198	-121,498	-0,092	-0,011
-173,183	-109,869	-0,117	0,017
-172,169	223,806	0,026	-0,030
-171,154	-26,351	-0,045	-0,019
-170,139	-111,855	0,190	0,027
-169,125	-62,399	-0,100	0,030
-168,110	9,797	-0,036	-0,019
-167,096	-193,431	-0,069	0,000
-166,081	-200,000	-0,006	-0,106
-165,066	-142,923	-0,109	-0,007
-164,052	-200,000	-0,019	0,103
-163,037	800,000	0,035	0,087
-162,023	-123,024	0,051	-0,006
-161,008	-97,810	0,067	-0,012
-159,993	800,000	-0,050	-0,149
-158,979	-200,000	-0,014	-0,211
-157,964	-156,672	0,089	-0,004
-156,950	-200,000	-0,044	-0,143
-155,935	-106,836	0,038	-0,006
-154,920	-116,024	0,105	0,014
-153,906	-144,393	-0,177	-0,012
-152,891	-95,803	0,048	-0,009
-151,877	306,012	-0,036	-0,048
-150,862	-42,348	-0,125	-0,045
-149,847	-200,000	-0,005	0,033
-148,833	800,000	-0,051	-0,115
-147,818	202,574	-0,045	-0,050
-146,804	-200,000	0,042	-0,136
-145,789	800,000	0,017	-0,040
-144,775	-15,905	-0,096	-0,044
-143,760	-53,310	0,110	-0,036
-142,745	-200,000	-0,021	0,089
-141,731	381,181	0,063	-0,094
-140,716	42,035	-0,066	-0,043
-139,702	271,040	0,012	0,015
-138,687	251,544	-0,121	0,149
-137,672	94,888	0,017	-0,014
-136,658	12,241	-0,104	0,058
-135,643	-200,000	-0,017	0,088
-134,629	147,196	-0,070	0,067
-133,614	-200,000	0,001	-0,025
-132,599	-16,396	0,045	0,021
-131,585	432,863	-0,083	0,129
-130,570	77,567	-0,041	0,031
-129,556	100,089	-0,131	-0,109
-128,541	288,657	0,072	0,094
-127,526	67,026	0,081	0,059
-126,512	359,523	0,041	-0,060
-125,497	-5,135	0,103	-0,051
-124,483	155,061	-0,037	-0,036
-123,468	241,486	0,055	0,066
-122,453	9,153	-0,127	-0,069
-121,439	-9,127	-0,120	-0,058
-120,424	-121,968	0,080	0,009
