DTS Sentinel unit serial number:	SN410029Multiplexer serial number:	ORYXHardware model number:	OX2-SRSoftware version number:	ORYX F/W v4,00 Oryx Data Collector v3.7.2.0data status	okinstallation	B5 Nyhavnadifferential loss correction	single-endedforward channel	channel 2reverse channel	N/Adate	2023/12/11time	18:37:13forward acquisition time	300,00reverse acquisition time	0,00gamma	499,1914k internal	0,3161k external	0,3161temperature offset calibration	1,0000default loss term (dB/km)	0,3820temperature slope calibration	1,0000multiplexer offset coefficient	1,0000multiplexer slope coefficient	1,0000fibre end	0,00T internal ref (°C)	15,26T ext. ref 1 (°C)	-0,36T ext. ref 2 (°C)	-0,60length (m)	temperature (°C)	Stokes	anti-Stokes-744,400	151,400	0,062	-0,063
-743,385	-106,748	-0,297	0,048
-742,371	-107,291	0,190	0,030
-741,356	-41,654	-0,242	-0,091
-740,342	-6,823	0,145	0,072
-739,327	-56,506	-0,186	0,060
-738,312	72,707	0,070	0,054
-737,298	-149,559	-0,315	-0,018
-736,283	-50,897	0,094	0,032
-735,269	-47,445	-0,168	0,060
-734,254	3,619	0,109	0,058
-733,239	-131,464	-0,441	-0,042
-732,225	-95,639	0,119	-0,023
-731,210	-200,000	-0,012	0,092
-730,196	-200,000	0,023	0,084
-729,181	-134,034	-0,027	-0,002
-728,167	11,381	-0,089	-0,050
-727,152	96,082	0,002	-0,001
-726,137	-114,753	-0,118	-0,016
-725,123	-200,000	0,002	-0,132
-724,108	23,263	-0,070	0,042
-723,094	75,513	-0,086	-0,066
-722,079	244,389	0,080	-0,099
-721,064	-71,502	-0,022	0,006
-720,050	-70,194	-0,128	0,035
-719,035	116,010	0,036	0,032
-718,021	-12,777	-0,059	0,028
-717,006	800,000	-0,033	-0,074
-715,991	132,347	-0,108	-0,103
-714,977	800,000	-0,015	-0,032
-713,962	-15,504	-0,169	-0,079
-712,948	32,669	-0,065	0,041
-711,933	67,367	0,108	-0,081
-710,918	-140,905	-0,054	-0,004
-709,904	91,373	-0,078	-0,064
-708,889	54,054	-0,025	-0,018
-707,875	-200,000	-0,017	-0,090
-706,860	303,400	0,049	-0,067
-705,845	-200,000	-0,027	0,100
-704,831	-200,000	0,016	-0,133
-703,816	-29,368	0,151	-0,063
-702,802	245,728	-0,054	0,066
-701,787	-12,103	-0,118	-0,057
-700,772	-200,000	-0,001	-0,009
-699,758	171,539	-0,086	0,091
-698,743	-200,000	0,022	0,082
-697,729	-16,940	-0,234	0,108
-696,714	360,983	-0,022	0,033
-695,699	99,196	0,076	0,064
-694,685	-200,000	-0,043	-0,204
-693,670	105,884	0,036	-0,032
-692,656	83,611	0,124	0,099
-691,641	800,000	0,051	-0,152
-690,627	10,179	0,130	-0,072
-689,612	516,909	-0,014	-0,024
-688,597	800,000	-0,009	0,021
-687,583	-50,111	-0,110	-0,038
-686,568	449,569	-0,076	-0,124
-685,554	-200,000	0,036	-0,180
-684,539	-124,652	0,120	0,013
-683,524	-69,050	-0,057	-0,016
-682,510	-122,261	-0,165	-0,020
-681,495	-81,785	-0,082	-0,020
-680,481	800,000	-0,006	-0,015
-679,466	471,203	-0,058	-0,096
-678,451	-200,000	-0,036	0,163
-677,437	-67,624	-0,053	0,015
-676,422	68,733	-0,061	0,046
-675,408	-79,165	-0,134	0,033
-674,393	-200,000	0,006	-0,125
-673,378	505,649	-0,062	-0,105
-672,364	800,000	0,030	-0,092
-671,349	800,000	-0,013	-0,029
-670,335	-131,010	0,194	-0,019
-669,320	29,002	0,057	-0,035
-668,305	10,758	-0,089	-0,050
-667,291	608,998	-0,037	0,069
-666,276	74,084	-0,092	-0,071
-665,262	217,353	0,053	0,062
-664,247	-92,948	-0,078	-0,016
-663,232	-200,000	-0,013	0,067
-662,218	-200,000	-0,040	0,206
-661,203	-31,841	-0,126	0,052
-660,189	-200,000	-0,010	0,054
-659,174	-200,000	-0,013	-0,062
-658,159	-88,770	-0,146	0,032
-657,145	600,222	-0,099	-0,181
-656,130	-200,000	0,028	-0,130
-655,116	-93,616	0,112	-0,023
-654,101	-6,927	0,087	0,043
-653,086	-104,163	0,097	-0,016
-652,072	-132,484	-0,121	-0,011
-651,057	-137,288	0,082	-0,007
-650,043	735,565	0,024	0,047
-649,028	684,251	0,036	-0,068
-648,014	350,439	0,059	0,086
-646,999	131,360	-0,082	0,077
-645,984	-84,354	0,108	0,025
-644,970	-200,000	-0,015	-0,086
-643,955	-12,314	-0,127	-0,061
-642,941	418,549	0,066	-0,104
-641,926	800,000	0,019	0,040
-640,911	58,262	0,075	0,054
-639,897	-94,362	0,049	0,010
-638,882	162,450	-0,080	0,082
-637,868	-52,567	-0,112	0,038
-636,853	-9,727	-0,063	0,031
-635,838	-200,000	0,004	0,208
-634,824	800,000	0,022	0,046
-633,809	-142,736	-0,115	-0,008
-632,795	-124,031	0,108	-0,012
-631,780	-58,003	-0,066	-0,021
-630,765	-42,751	0,068	-0,025
-629,751	474,771	-0,073	-0,122
-628,736	24,852	-0,093	0,056
-627,722	-97,016	0,132	0,025
-626,707	1,625	0,157	0,083
-625,692	21,819	0,072	0,043
-624,678	238,621	-0,029	0,036
-623,663	800,000	0,007	0,021
-622,649	181,575	0,024	-0,026
-621,634	-200,000	-0,027	-0,147
-620,619	-58,568	0,108	0,034
-619,605	-113,009	0,045	-0,006
-618,590	133,829	0,133	0,126
-617,576	-200,000	0,050	0,169
-616,561	800,000	0,014	-0,045
-615,546	391,866	-0,026	-0,039
-614,532	26,313	-0,084	-0,051
-613,517	-71,368	-0,057	-0,016
-612,503	-200,000	-0,017	-0,116
-611,488	289,646	-0,060	-0,079
-610,474	800,000	0,013	-0,039
-609,459	113,511	-0,091	0,081
-608,444	800,000	-0,041	-0,130
-607,430	-80,883	0,055	-0,013
-606,415	317,279	-0,007	-0,009
-605,401	-200,000	0,014	-0,070
-604,386	646,084	0,014	-0,025
-603,371	35,399	-0,096	-0,062
-602,357	800,000	-0,034	-0,073
-601,342	800,000	-0,015	0,030
-600,328	435,402	0,021	-0,034
-599,313	798,323	0,069	-0,140
-598,298	-200,000	-0,001	-0,050
-597,284	-200,000	0,019	-0,085
-596,269	70,354	-0,070	0,053
-595,255	-200,000	-0,003	0,033
-594,240	771,351	0,086	-0,173
-593,225	143,718	-0,015	-0,014
-592,211	-11,012	0,002	0,001
-591,196	-62,356	-0,129	-0,039
-590,182	237,024	0,067	0,081
-589,167	-140,282	-0,090	-0,007
-588,152	800,000	-0,037	0,117
-587,138	800,000	0,009	-0,030
-586,123	6,924	-0,039	0,021
-585,109	435,561	-0,036	-0,058
-584,094	-117,056	-0,077	0,010
-583,079	-200,000	0,015	-0,065
-582,065	-200,000	0,015	0,051
-581,050	-200,000	0,033	0,180
-580,036	-83,492	-0,078	-0,018
-579,021	188,604	-0,078	-0,086
-578,006	111,899	0,169	-0,149
-576,992	-172,487	-0,067	-0,002
-575,977	64,779	-0,064	0,047
-574,963	-200,000	0,019	-0,072
-573,948	157,851	0,063	0,064
-572,934	-90,616	-0,062	0,013
-571,919	-140,844	0,094	0,007
-570,904	-200,000	0,008	-0,077
-569,890	-36,959	0,006	0,002
-568,875	-172,247	0,117	0,003
-567,861	122,767	-0,086	-0,079
-566,846	-161,082	0,074	0,003
-565,831	400,471	-0,058	-0,089
-564,817	-200,000	0,007	-0,038
-563,802	17,553	0,075	-0,043
-562,788	142,019	-0,172	-0,167
-561,773	570,074	0,032	0,057
-560,758	-0,668	0,066	-0,034
-559,744	-200,000	-0,007	0,115
-558,729	34,044	0,032	0,020
-557,715	346,219	-0,040	0,058
-556,700	-147,757	-0,080	0,005
-555,685	33,654	0,065	0,041
-554,671	82,368	-0,135	-0,107
-553,656	-22,953	0,094	-0,041
-552,642	-7,312	-0,040	0,020
-551,627	612,029	0,053	0,098
-550,612	-178,457	0,038	0,001
-549,598	333,532	-0,072	-0,102
-548,583	-46,342	-0,116	-0,041
-547,569	-200,000	-0,002	0,029
-546,554	-38,581	-0,081	0,031
-545,539	26,740	0,069	-0,042
-544,525	-200,000	0,005	0,062
-543,510	450,183	-0,042	0,067
-542,496	-79,210	-0,080	-0,020
-541,481	564,406	0,030	-0,053
-540,466	24,692	-0,059	0,036
-539,452	800,000	0,036	0,107
-538,437	-200,000	0,017	-0,066
-537,423	575,412	-0,067	0,119
-536,408	103,550	-0,064	0,055
-535,393	368,435	0,059	0,087
-534,379	74,484	-0,038	0,029
-533,364	67,827	0,045	0,034
-532,350	66,965	-0,043	0,032
-531,335	-200,000	0,016	0,093
-530,321	54,068	0,082	0,058
-529,306	10,016	-0,046	-0,026
-528,291	800,000	-0,020	-0,063
-527,277	22,933	-0,095	-0,056
-526,262	743,933	0,010	0,020
-525,248	800,000	-0,040	-0,081
-524,233	800,000	0,038	0,095
-523,218	26,273	0,073	0,044
-522,204	617,417	0,041	-0,076
-521,189	334,620	-0,117	-0,165
-520,175	62,807	-0,040	-0,029
-519,160	81,425	0,090	0,071
-518,145	-200,000	-0,001	0,161
-517,131	126,141	0,027	-0,025
-516,116	-200,000	0,002	0,025
-515,102	-200,000	0,020	0,094
-514,087	499,567	-0,041	-0,068
-513,072	-34,514	-0,087	-0,035
-512,058	686,658	0,067	-0,128
-511,043	-200,000	-0,017	-0,077
-510,029	-200,000	0,011	-0,085
-509,014	-105,241	0,154	-0,025
-507,999	26,972	-0,122	0,074
-506,985	206,843	-0,056	0,064
-505,970	389,088	0,025	-0,037
-504,956	147,581	-0,040	0,039
-503,941	761,731	0,072	0,143
-502,926	-200,000	0,026	-0,092
-501,912	109,438	0,062	0,054
-500,897	-63,180	-0,040	-0,012
-499,883	-55,475	-0,047	0,015
-498,868	-200,000	0,027	-0,102
-497,853	-200,000	0,020	-0,119
-496,839	-104,758	-0,048	-0,008
-495,824	-6,298	-0,037	0,018
-494,810	-87,304	0,075	-0,017
-493,795	-31,693	0,038	0,015
-492,781	509,153	-0,005	0,009
-491,766	-200,000	-0,022	0,118
-490,751	565,554	-0,030	-0,052
-489,737	-17,041	0,018	0,008
-488,722	800,000	0,074	0,211
-487,708	413,277	-0,058	-0,090
-486,693	20,528	0,113	-0,067
-485,678	61,380	0,055	-0,040
-484,664	274,081	0,017	-0,022
-483,649	206,351	-0,090	-0,102
-482,635	386,210	0,071	-0,106
-481,620	497,086	0,092	-0,154
-480,605	-140,524	-0,136	0,010
-479,591	-200,000	0,005	-0,102
-478,576	86,733	-0,080	-0,064
-477,562	-46,301	-0,140	-0,050
-476,547	581,796	0,015	-0,027
-475,532	800,000	0,055	0,142
-474,518	-133,289	0,065	-0,006
-473,503	-200,000	0,012	0,126
-472,489	220,461	0,043	0,051
-471,474	-200,000	-0,026	0,093
-470,459	-200,000	-0,001	0,053
-469,445	666,369	0,003	-0,006
-468,430	-20,938	-0,057	0,025
-467,416	-101,969	-0,166	-0,029
-466,401	800,000	-0,023	0,048
-465,386	108,720	-0,031	-0,027
-464,372	-29,581	-0,035	0,014
-463,357	157,995	-0,089	-0,090
-462,343	162,645	0,012	0,012
-461,328	-94,308	0,107	0,021
-460,313	-200,000	-0,033	-0,129
-459,299	-200,000	0,022	0,188
-458,284	800,000	-0,019	-0,050
-457,270	-32,036	-0,014	0,005
-456,255	-200,000	0,007	-0,049
-455,241	-75,536	-0,061	-0,016
-454,226	-200,000	0,019	-0,101
-453,211	-100,587	-0,061	0,011
-452,197	225,428	-0,046	-0,054
-451,182	46,362	0,128	0,087
-450,168	800,000	0,063	0,136
-449,153	-81,261	-0,063	0,015
-448,138	91,199	-0,049	-0,040
-447,124	-40,187	0,001	-0,001
-446,109	62,246	0,080	0,058
-445,095	-38,216	0,117	0,045
-444,080	-88,962	0,069	-0,015
-443,065	-51,015	-0,114	0,039
-442,051	-200,000	0,007	-0,061
-441,036	-79,805	-0,027	0,007
-440,022	-32,146	0,042	-0,017
-439,007	58,642	0,071	0,051
-437,992	-21,431	0,067	0,030
-436,978	189,335	0,122	-0,133
-435,963	800,000	0,002	-0,006
-434,949	98,019	-0,057	0,047
-433,934	57,998	-0,033	0,024
-432,919	184,372	-0,041	-0,044
-431,905	374,535	0,040	-0,060
-430,890	-90,707	0,092	-0,019
-429,876	7,655	-0,045	-0,024
-428,861	-169,388	-0,087	-0,002
-427,846	800,000	0,033	-0,071
-426,832	-200,000	0,029	-0,140
-425,817	82,502	0,034	0,027
-424,803	800,000	-0,054	-0,123
-423,788	465,043	-0,048	-0,078
-422,773	-153,529	-0,063	0,003
-421,759	-80,885	0,072	-0,017
-420,744	-200,000	-0,004	0,040
-419,730	126,734	-0,048	-0,044
-418,715	800,000	-0,030	0,079
-417,701	-82,102	-0,026	0,006
-416,686	-200,000	0,003	-0,026
-415,671	-200,000	0,022	0,087
-414,657	800,000	-0,070	0,147
-413,642	-57,621	0,057	-0,018
-412,628	187,036	0,017	0,018
-411,613	-200,000	-0,031	-0,107
-410,598	42,864	0,047	-0,031
-409,584	111,345	0,080	0,070
-408,569	-142,582	0,065	-0,005
-407,555	-73,073	0,062	-0,016
-406,540	-91,099	0,040	0,008
-405,525	-88,644	-0,147	0,032
-404,511	232,033	-0,089	-0,106
-403,496	18,727	-0,078	0,046
-402,482	800,000	0,074	0,153
-401,467	800,000	-0,060	0,181
-400,452	-77,189	-0,046	0,012
-399,438	-42,808	-0,095	-0,035
-398,423	93,920	0,089	-0,073
-397,409	800,000	0,007	-0,022
-396,394	-200,000	0,036	-0,129
-395,379	-200,000	-0,011	0,098
-394,365	-200,000	-0,001	-0,099
-393,350	800,000	0,063	-0,146
-392,336	258,148	0,010	0,012
-391,321	350,697	-0,069	-0,099
-390,306	-200,000	-0,004	0,074
-389,292	143,015	0,119	-0,115
-388,277	-71,491	0,086	-0,023
-387,263	120,379	-0,028	0,025
-386,248	142,324	0,075	0,073
-385,233	-135,234	0,183	0,016
-384,219	56,341	-0,137	-0,097
-383,204	800,000	-0,016	-0,034
-382,190	71,070	0,090	-0,068
-381,175	8,992	0,050	-0,027
-380,160	-200,000	0,020	0,090
-379,146	-200,000	0,002	0,041
-378,131	637,660	-0,023	0,043
-377,117	-103,914	-0,101	-0,017
-376,102	-45,959	0,074	0,026
-375,088	800,000	-0,050	0,140
-374,073	511,668	-0,052	0,088
-373,058	320,651	0,106	-0,147
-372,044	22,460	0,093	0,055
-371,029	-200,000	0,009	0,216
-370,015	158,472	0,108	0,109
-369,000	140,166	0,074	-0,071
-367,985	-106,760	-0,047	-0,007
-366,971	112,204	-0,109	-0,095
-365,956	-102,612	0,225	0,039
-364,942	-97,900	0,093	-0,017
-363,927	800,000	-0,019	0,038
-362,912	472,127	-0,027	0,044
-361,898	-200,000	0,011	-0,138
-360,883	32,007	-0,104	-0,065
-359,869	111,616	0,017	0,015
-358,854	-200,000	-0,019	-0,198
-357,839	-128,202	0,101	-0,010
-356,825	800,000	0,068	0,176
-355,810	19,464	-0,038	-0,022
-354,796	350,578	-0,085	-0,123
-353,781	35,289	0,045	0,028
-352,766	-200,000	-0,008	-0,041
-351,752	800,000	0,040	0,085
-350,737	-28,306	-0,104	0,043
-349,723	-200,000	-0,015	0,068
-348,708	-200,000	0,012	0,066
-347,693	185,189	0,018	0,020
-346,679	-88,733	-0,056	-0,012
-345,664	516,062	-0,020	-0,035
-344,650	430,417	-0,069	-0,109
-343,635	-200,000	0,039	-0,140
-342,620	3,765	0,041	-0,022
-341,606	800,000	0,039	-0,086
-340,591	534,711	0,020	0,035
-339,577	90,384	-0,115	-0,094
-338,562	-200,000	-0,054	-0,212
-337,548	-115,037	-0,167	-0,023
-336,533	-8,498	0,073	0,035
-335,518	-69,730	0,151	0,042
-334,504	104,998	0,054	0,046
-333,489	217,690	0,036	0,041
-332,475	-200,000	0,010	-0,174
-331,460	114,588	0,077	-0,068
-330,445	-158,515	0,049	0,002
-329,431	-200,000	0,013	-0,052
-328,416	-82,450	0,095	0,022
-327,402	-200,000	-0,016	0,138
-326,387	212,191	0,054	0,062
-325,372	-200,000	-0,016	-0,129
-324,358	800,000	0,031	-0,091
-323,343	800,000	0,053	-0,121
-322,329	-124,555	0,097	0,011
-321,314	-200,000	-0,005	-0,070
-320,299	-30,829	0,095	-0,039
-319,285	-112,781	0,121	0,017
-318,270	-28,607	0,055	-0,023
-317,256	-92,092	-0,102	-0,021
-316,241	-51,450	0,046	0,015
-315,226	121,740	0,046	-0,042
-314,212	392,878	-0,038	-0,058
-313,197	105,120	0,165	0,141
-312,183	-200,000	-0,044	0,181
-311,168	-200,000	-0,005	-0,099
-310,153	-71,072	-0,097	0,026
-309,139	-29,921	-0,131	0,054
-308,124	-103,847	0,065	0,011
-307,110	800,000	0,069	0,172
-306,095	478,692	0,021	-0,035
-305,080	39,660	0,098	0,064
-304,066	122,329	-0,103	-0,093
-303,051	-122,257	-0,081	0,009
-302,037	-59,523	0,064	-0,020
-301,022	206,604	-0,076	0,085
-300,008	-200,000	0,005	0,036
-298,993	-83,639	-0,062	0,014
-297,978	-7,023	-0,028	-0,014
-296,964	87,893	-0,070	-0,056
-295,949	499,745	-0,036	-0,061
-294,935	-166,845	-0,108	-0,003
-293,920	-102,004	-0,097	0,017
-292,905	142,663	0,064	-0,061
-291,891	-50,320	-0,050	0,017
-290,876	-200,000	-0,010	0,117
-289,862	-13,005	-0,152	0,071
-288,847	-200,000	0,016	-0,082
-287,832	241,266	0,043	-0,052
-286,818	-200,000	0,011	-0,064
-285,803	97,179	0,084	-0,070
-284,789	700,448	0,044	0,084
-283,774	48,907	-0,066	0,045
-282,759	800,000	-0,024	-0,073
-281,745	728,504	0,010	0,020
-280,730	1,511	0,066	0,034
-279,716	800,000	-0,063	0,139
-278,701	171,465	0,064	0,067
-277,686	800,000	0,051	0,151
-276,672	-76,537	-0,103	0,026
-275,657	-87,102	-0,105	0,023
-274,643	-122,024	-0,157	0,018
-273,628	-93,117	-0,117	-0,023
-272,613	-200,000	-0,000	-0,023
-271,599	800,000	0,088	0,214
-270,584	-87,417	-0,029	0,006
-269,570	800,000	0,086	0,196
-268,555	-95,826	-0,171	-0,033
-267,540	73,134	-0,050	0,038
-266,526	-158,071	0,126	0,005
-265,511	58,846	-0,096	0,068
-264,497	154,643	0,111	-0,111
-263,482	-85,890	-0,115	-0,026
-262,467	371,435	0,053	0,078
-261,453	20,848	-0,123	-0,072
-260,438	338,569	0,016	-0,023
-259,424	-200,000	-0,002	-0,142
-258,409	228,616	-0,066	0,078
-257,395	-95,556	0,075	-0,014
-256,380	457,075	0,051	0,082
-255,365	173,208	0,039	0,041
-254,351	-35,058	-0,038	-0,015
-253,336	89,681	-0,077	0,062
-252,322	-200,000	0,006	0,086
-251,307	449,933	0,032	0,051
-250,292	-61,103	0,152	0,046
-249,278	-14,150	0,034	-0,016
-248,263	31,610	-0,173	0,107
-247,249	53,095	-0,054	-0,037
-246,234	-200,000	0,000	-0,031
-245,219	-200,000	-0,044	0,165
-244,205	-200,000	-0,013	-0,089
-243,190	181,038	0,107	-0,114
-242,176	26,254	-0,024	0,014
-241,161	264,218	0,034	0,043
-240,146	192,240	0,092	0,100
-239,132	-70,417	-0,023	0,006
-238,117	212,822	0,023	-0,027
-237,103	800,000	0,038	-0,096
-236,088	98,776	-0,117	-0,098
-235,073	3,258	-0,162	-0,085
-234,059	534,067	-0,029	0,051
-233,044	-43,327	-0,023	0,009
-232,030	800,000	-0,052	-0,124
-231,015	-111,065	-0,058	-0,009
-230,000	-200,000	-0,032	-0,119
-228,986	800,000	-0,042	0,123
-227,971	-34,970	0,058	-0,023
-226,957	145,097	0,027	0,026
-225,942	796,395	-0,041	-0,083
-224,927	-74,450	-0,071	0,018
-223,913	422,673	-0,016	0,025
-222,898	295,630	-0,130	-0,172
-221,884	-23,441	0,146	-0,063
-220,869	-200,000	-0,094	-0,000
-219,855	-37,855	0,079	-0,030
-218,840	-64,436	0,066	-0,019
-217,825	-200,000	0,018	-0,073
-216,811	-200,000	0,026	0,194
-215,796	622,298	0,056	-0,102
-214,782	-200,000	0,006	-0,045
-213,767	385,461	0,035	-0,052
-212,752	92,256	0,056	-0,045
-211,738	750,219	0,057	0,111
-210,723	-136,558	-0,162	0,013
-209,709	800,000	0,060	-0,157
-208,694	44,793	-0,139	-0,092
-207,679	-58,605	0,045	-0,014
-206,665	17,194	0,048	0,028
-205,650	34,737	-0,053	-0,034
-204,636	800,000	0,047	0,135
-203,621	190,417	-0,018	-0,019
-202,606	721,127	-0,045	-0,087
-201,592	386,393	-0,033	-0,049
-200,577	-200,000	-0,018	0,093
-199,563	352,162	0,048	0,069
-198,548	-200,000	-0,019	0,145
-197,533	-50,556	0,044	-0,015
-196,519	769,851	0,030	0,059
-195,504	82,838	-0,092	-0,072
-194,490	48,975	-0,095	-0,064
-193,475	-39,687	-0,063	0,024
-192,460	-200,000	0,009	-0,073
-191,446	-200,000	-0,024	0,142
-190,431	425,993	0,042	0,066
-189,417	-200,000	0,020	0,110
-188,402	73,333	0,067	0,050
-187,387	800,000	0,036	0,088
-186,373	-200,000	-0,017	-0,089
-185,358	152,234	0,119	-0,117
-184,344	800,000	-0,022	-0,062
-183,329	800,000	0,062	0,153
-182,315	800,000	0,031	0,093
-181,300	473,501	0,008	-0,012
-180,285	-200,000	-0,005	-0,053
-179,271	-200,000	-0,045	0,214
-178,256	-200,000	0,009	-0,126
-177,242	-200,000	-0,017	-0,071
-176,227	-94,989	0,102	-0,020
-175,212	190,345	-0,099	0,107
-174,198	-165,138	-0,094	-0,003
-173,183	167,152	0,048	-0,049
-172,169	21,563	-0,060	0,035
-171,154	800,000	0,079	0,166
-170,139	-156,517	0,132	0,006
-169,125	76,715	0,112	-0,086
-168,110	-200,000	0,005	0,130
-167,096	800,000	0,032	-0,066
-166,081	-200,000	-0,016	-0,053
-165,066	141,587	-0,086	0,082
-164,052	512,471	0,016	-0,027
-163,037	298,083	-0,033	-0,044
-162,023	112,713	-0,067	0,059
-161,008	-200,000	0,028	0,188
-159,993	-200,000	0,018	0,199
-158,979	-110,193	0,023	-0,003
-157,964	31,130	-0,076	-0,047
-156,950	144,210	0,085	0,082
-155,935	-7,169	0,171	0,083
-154,920	-70,444	-0,024	-0,006
-153,906	-200,000	0,011	0,048
-152,891	-58,087	0,029	0,009
-151,877	5,628	-0,035	0,019
-150,862	-52,324	-0,052	0,017
-149,847	658,148	-0,009	-0,016
-148,833	-102,152	-0,076	-0,013
-147,818	248,222	-0,041	-0,050
-146,804	800,000	0,016	0,034
-145,789	-19,349	0,095	0,042
-144,775	800,000	-0,037	0,090
-143,760	86,249	-0,061	0,049
-142,745	-36,141	0,070	-0,027
-141,731	-70,343	0,064	0,017
-140,716	-11,649	0,109	0,051
-139,702	800,000	-0,086	0,181
-138,687	132,682	0,033	0,030
-137,672	800,000	0,064	0,136
-136,658	-35,817	-0,066	-0,026
-135,643	668,924	-0,101	0,188
-134,629	282,586	0,035	0,045
-133,614	27,301	-0,189	0,114
-132,599	-21,942	0,115	0,050
-131,585	-143,385	0,020	0,001
-130,570	-19,461	-0,061	-0,027
-129,556	401,565	-0,061	-0,093
-128,541	-200,000	-0,003	0,074
-127,526	-200,000	0,005	0,099
-126,512	-200,000	-0,008	0,048
-125,497	800,000	0,041	0,092
-124,483	218,307	0,062	0,072
-123,468	103,738	-0,079	0,067
-122,453	-200,000	0,018	0,059
-121,439	458,886	-0,069	-0,111
-120,424	244,523	0,008	-0,010
-119,410	-200,000	0,006	-0,108
-118,395	800,000	0,033	-0,070
