DTS Sentinel unit serial number:	SN410029Multiplexer serial number:	ORYXHardware model number:	OX2-SRSoftware version number:	ORYX F/W v4,00 Oryx Data Collector v3.7.2.0data status	okinstallation	B5 Nyhavnadifferential loss correction	single-endedforward channel	channel 2reverse channel	N/Adate	2023/12/13time	19:12:13forward acquisition time	300,00reverse acquisition time	0,00gamma	499,1914k internal	0,3160k external	0,3160temperature offset calibration	1,0000default loss term (dB/km)	0,3820temperature slope calibration	1,0000multiplexer offset coefficient	1,0000multiplexer slope coefficient	1,0000fibre end	0,00T internal ref (°C)	11,97T ext. ref 1 (°C)	-5,20T ext. ref 2 (°C)	-5,30length (m)	temperature (°C)	Stokes	anti-Stokes-744,400	-122,466	-0,008	0,001
-743,385	-145,996	-0,384	-0,025
-742,371	-33,086	0,214	0,087
-741,356	-108,880	-0,376	0,059
-740,342	-36,015	0,206	0,082
-739,327	-25,443	-0,367	-0,159
-738,312	137,395	0,085	0,082
-737,298	-103,311	-0,331	-0,057
-736,283	-200,000	0,107	-0,000
-735,269	23,126	-0,168	-0,102
-734,254	-104,954	-0,063	-0,011
-733,239	-115,775	-0,684	-0,093
-732,225	-4,308	0,157	0,080
-731,210	82,820	-0,077	0,061
-730,196	196,841	0,039	0,044
-729,181	-119,815	-0,074	0,009
-728,167	-200,000	0,033	-0,107
-727,152	-77,844	-0,099	0,025
-726,137	190,648	0,059	-0,065
-725,123	-200,000	-0,002	-0,244
-724,108	250,742	-0,083	-0,104
-723,094	256,529	-0,085	-0,107
-722,079	140,149	-0,216	-0,210
-721,064	-200,000	0,021	-0,098
-720,050	-200,000	0,024	-0,129
-719,035	-200,000	-0,006	-0,066
-718,021	556,849	-0,075	-0,133
-717,006	-200,000	-0,040	-0,138
-715,991	800,000	0,018	-0,042
-714,977	-57,088	-0,199	-0,064
-713,962	-58,682	0,092	-0,029
-712,948	267,171	0,035	-0,045
-711,933	-200,000	0,037	0,134
-710,918	-57,715	-0,075	0,024
-709,904	-64,366	-0,218	-0,065
-708,889	-200,000	0,000	-0,012
-707,875	-56,785	0,030	-0,010
-706,860	-66,419	0,100	0,029
-705,845	441,358	0,031	0,050
-704,831	391,337	0,075	0,115
-703,816	289,082	-0,010	-0,013
-702,802	-200,000	0,019	-0,075
-701,787	-22,431	-0,081	-0,036
-700,772	252,914	-0,013	-0,017
-699,758	32,508	0,119	0,075
-698,743	37,888	-0,099	0,064
-697,729	800,000	0,035	0,090
-696,714	-4,604	-0,039	-0,020
-695,699	-53,458	-0,043	-0,014
-694,685	-152,169	-0,016	0,001
-693,670	54,658	-0,060	-0,043
-692,656	-33,347	0,021	-0,008
-691,641	37,648	0,063	0,041
-690,627	513,601	-0,053	-0,092
-689,612	582,075	0,064	-0,116
-688,597	5,132	-0,156	0,084
-687,583	800,000	-0,033	-0,097
-686,568	800,000	-0,019	-0,055
-685,554	-102,078	0,058	0,010
-684,539	-18,630	-0,028	0,013
-683,524	-200,000	0,014	0,050
-682,510	3,736	-0,150	0,080
-681,495	271,034	-0,043	0,056
-680,481	-183,568	-0,025	0,000
-679,466	346,192	0,049	-0,071
-678,451	-200,000	0,000	0,031
-677,437	416,995	0,057	0,089
-676,422	432,438	0,015	0,023
-675,408	-51,840	-0,052	-0,018
-674,393	-48,053	0,081	-0,029
-673,378	-100,541	-0,014	0,002
-672,364	-39,451	-0,055	0,021
-671,349	-63,178	-0,043	-0,013
-670,335	-200,000	0,003	0,031
-669,320	-200,000	-0,032	0,168
-668,305	58,559	-0,040	0,029
-667,291	136,836	0,044	-0,042
-666,276	126,001	-0,068	0,063
-665,262	-200,000	-0,019	-0,080
-664,247	-200,000	-0,010	-0,064
-663,232	-53,071	0,071	0,024
-662,218	-200,000	0,006	-0,114
-661,203	162,721	-0,046	0,047
-660,189	-148,025	-0,074	0,004
-659,174	134,958	0,029	0,028
-658,159	-38,814	-0,060	-0,023
-657,145	-106,644	-0,081	-0,013
-656,130	100,886	0,033	0,028
-655,116	304,051	-0,021	-0,029
-654,101	132,353	0,143	0,136
-653,086	33,743	-0,065	0,041
-652,072	2,376	-0,063	-0,033
-651,057	-200,000	0,010	-0,069
-650,043	557,465	0,010	-0,017
-649,028	-149,546	-0,187	-0,011
-648,014	-200,000	0,008	0,128
-646,999	-29,160	-0,106	0,044
-645,984	-168,829	-0,067	0,002
-644,970	51,916	0,075	-0,052
-643,955	-8,435	-0,100	-0,049
-642,941	-27,977	-0,159	-0,067
-641,926	-200,000	0,012	-0,101
-640,911	800,000	0,025	0,078
-639,897	-88,075	0,149	-0,033
-638,882	250,458	0,054	-0,068
-637,868	-200,000	0,025	-0,197
-636,853	-141,809	-0,040	-0,003
-635,838	-44,130	-0,100	-0,037
-634,824	-200,000	-0,003	-0,038
-633,809	-200,000	0,012	0,045
-632,795	-39,057	0,041	-0,016
-631,780	425,409	0,099	0,157
-630,765	-200,000	-0,002	0,131
-629,751	-200,000	-0,001	-0,062
-628,736	-200,000	0,019	-0,184
-627,722	40,002	-0,125	-0,082
-626,707	800,000	0,019	-0,048
-625,692	800,000	0,036	0,115
-624,678	-200,000	-0,001	-0,002
-623,663	98,575	0,070	0,059
-622,649	-194,563	-0,077	-0,000
-621,634	-7,817	0,163	0,080
-620,619	296,464	-0,071	-0,095
-619,605	-166,776	0,043	0,001
-618,590	-21,597	0,149	-0,066
-617,576	-200,000	0,029	-0,155
-616,561	6,712	0,128	-0,070
-615,546	-200,000	0,008	0,040
-614,532	216,585	-0,144	0,168
-613,517	800,000	-0,072	-0,175
-612,503	800,000	0,033	-0,097
-611,488	-200,000	0,003	0,050
-610,474	0,465	-0,028	-0,015
-609,459	-139,143	-0,060	-0,005
-608,444	75,655	-0,086	-0,067
-607,430	-127,079	-0,086	-0,009
-606,415	-200,000	0,007	-0,025
-605,401	-200,000	-0,010	-0,106
-604,386	519,590	0,009	-0,015
-603,371	-145,117	0,033	0,002
-602,357	-200,000	0,009	0,040
-601,342	800,000	0,011	-0,022
-600,328	-200,000	0,001	0,073
-599,313	-94,679	0,058	-0,011
-598,298	141,907	-0,097	-0,094
-597,284	95,614	0,047	0,040
-596,269	-141,107	-0,045	0,003
-595,255	800,000	-0,105	0,229
-594,240	157,240	0,067	-0,068
-593,225	-81,646	-0,154	-0,037
-592,211	552,045	0,079	-0,140
-591,196	-14,157	0,122	-0,057
-590,182	-75,760	-0,153	0,039
-589,167	10,843	0,090	-0,050
-588,152	139,174	0,042	-0,041
-587,138	494,078	-0,012	-0,020
-586,123	-11,793	-0,040	0,019
-585,109	800,000	-0,021	-0,054
-584,094	800,000	0,013	-0,034
-583,079	-108,295	0,070	0,011
-582,065	343,416	-0,080	0,116
-581,050	732,348	-0,040	0,079
-580,036	-50,712	-0,148	0,051
-579,021	-200,000	0,009	-0,116
-578,006	-108,888	-0,070	-0,011
-576,992	125,194	0,038	0,035
-575,977	530,925	0,018	-0,031
-574,963	-107,180	-0,040	0,006
-573,948	-48,352	0,100	0,035
-572,934	487,438	-0,079	0,132
-571,919	86,965	-0,035	0,028
-570,904	-71,885	-0,085	0,023
-569,890	67,826	-0,078	0,058
-568,875	-113,209	-0,124	0,018
-567,861	800,000	0,038	-0,082
-566,846	8,075	0,042	-0,023
-565,831	800,000	0,058	-0,156
-564,817	-139,818	-0,052	-0,004
-563,802	108,157	0,054	0,048
-562,788	-85,223	0,047	0,011
-561,773	-200,000	0,023	-0,118
-560,758	-112,559	0,154	-0,022
-559,744	233,990	-0,036	0,044
-558,729	800,000	0,046	0,116
-557,715	-200,000	-0,001	-0,125
-556,700	88,989	-0,084	-0,068
-555,685	255,755	0,034	-0,043
-554,671	44,870	0,099	-0,067
-553,656	175,535	0,035	-0,037
-552,642	25,540	-0,079	0,048
-551,627	800,000	0,026	0,055
-550,612	800,000	-0,008	0,018
-549,598	-128,322	-0,146	-0,015
-548,583	86,605	0,100	0,080
-547,569	30,820	-0,059	0,037
-546,554	80,571	-0,151	0,119
-545,539	-62,555	0,151	0,046
-544,525	-8,413	0,091	0,044
-543,510	-54,377	-0,098	-0,032
-542,496	-104,233	-0,064	-0,011
-541,481	55,214	-0,092	-0,065
-540,466	200,154	0,063	0,070
-539,452	72,743	-0,063	0,048
-538,437	-103,273	-0,021	-0,004
-537,423	-200,000	0,001	0,076
-536,408	800,000	-0,080	-0,179
-535,393	61,488	0,081	-0,058
-534,379	-55,308	-0,149	-0,049
-533,364	406,274	-0,031	-0,048
-532,350	800,000	0,011	0,024
-531,335	-139,150	0,129	0,010
-530,321	-30,434	-0,087	0,036
-529,306	57,215	-0,102	-0,073
-528,291	-96,462	0,068	0,013
-527,277	160,305	0,053	-0,054
-526,262	-38,149	-0,201	-0,078
-525,248	800,000	0,022	-0,053
-524,233	-110,948	0,065	-0,010
-523,218	10,435	-0,083	-0,046
-522,204	800,000	-0,059	-0,173
-521,189	-22,012	0,050	-0,022
-520,175	-137,262	-0,083	0,007
-519,160	-39,131	0,096	0,037
-518,145	30,946	0,067	-0,042
-517,131	-200,000	0,000	0,114
-516,116	-50,822	0,213	0,073
-515,102	-48,515	0,146	-0,051
-514,087	-200,000	-0,034	-0,250
-513,072	241,497	-0,084	-0,103
-512,058	-75,943	0,082	-0,021
-511,043	-200,000	-0,004	0,024
-510,029	-200,000	0,009	-0,136
-509,014	800,000	0,027	-0,075
-507,999	176,828	0,048	0,051
-506,985	-98,365	-0,058	-0,011
-505,970	229,642	-0,059	-0,070
-504,956	-140,891	-0,051	0,004
-503,941	116,461	0,111	-0,099
-502,926	51,205	0,070	0,048
-501,912	-200,000	0,011	0,093
-500,897	34,926	-0,015	-0,009
-499,883	369,609	0,044	-0,065
-498,868	-200,000	0,002	0,036
-497,853	391,326	-0,047	-0,072
-496,839	69,404	-0,014	0,010
-495,824	260,703	0,066	-0,084
-494,810	226,101	-0,033	0,039
-493,795	-81,170	0,086	0,021
-492,781	-126,295	0,030	0,003
-491,766	122,287	0,032	0,029
-490,751	-200,000	0,000	-0,018
-489,737	63,032	-0,068	0,050
-488,722	83,303	-0,052	-0,041
-487,708	361,036	0,057	0,084
-486,693	226,140	-0,029	0,035
-485,678	134,150	-0,061	-0,058
-484,664	89,691	0,181	-0,147
-483,649	-200,000	0,000	-0,149
-482,635	607,121	-0,021	0,039
-481,620	108,207	0,040	0,035
-480,605	131,976	-0,070	0,066
-479,591	-131,565	-0,114	-0,011
-478,576	800,000	-0,028	-0,058
-477,562	16,452	0,071	-0,041
-476,547	23,624	-0,168	-0,101
-475,532	315,878	0,026	-0,036
-474,518	-22,084	-0,137	0,060
-473,503	-200,000	0,005	0,121
-472,489	-200,000	-0,002	-0,044
-471,474	514,974	0,055	0,094
-470,459	0,383	-0,064	0,033
-469,445	-164,421	-0,087	-0,003
-468,430	-113,502	0,107	-0,015
-467,416	-200,000	-0,005	0,075
-466,401	-35,139	-0,039	-0,015
-465,386	-56,223	0,076	-0,025
-464,372	-200,000	0,005	0,181
-463,357	262,976	-0,129	-0,164
-462,343	97,662	0,074	0,062
-461,328	-107,704	-0,111	-0,018
-460,313	-200,000	0,001	-0,090
-459,299	800,000	-0,017	-0,048
-458,284	800,000	0,027	-0,074
-457,270	669,910	-0,008	0,016
-456,255	163,481	0,019	0,020
-455,241	198,680	-0,044	0,050
-454,226	800,000	0,026	-0,081
-453,211	-84,365	0,115	-0,026
-452,197	261,909	0,098	0,125
-451,182	-7,109	-0,112	-0,055
-450,168	-30,463	-0,094	-0,039
-449,153	800,000	-0,056	-0,149
-448,138	-96,873	-0,077	0,015
-447,124	37,834	-0,107	0,069
-446,109	20,623	-0,048	0,028
-445,095	423,393	-0,043	0,067
-444,080	137,273	0,060	0,057
-443,065	736,691	-0,047	0,093
-442,051	-137,383	-0,139	-0,011
-441,036	800,000	0,024	0,064
-440,022	111,589	-0,096	0,085
-439,007	55,620	-0,070	-0,049
-437,992	800,000	0,030	0,064
-436,978	438,442	-0,042	0,067
-435,963	-145,331	0,128	0,008
-434,949	618,858	-0,106	0,194
-433,934	-38,793	-0,094	-0,036
-432,919	118,909	0,047	0,043
-431,905	-58,365	-0,070	0,022
-430,890	-200,000	0,005	0,027
-429,876	246,317	0,047	-0,058
-428,861	17,495	0,172	0,099
-427,846	192,661	-0,101	-0,111
-426,832	-200,000	0,030	-0,180
-425,817	-80,987	0,153	0,037
-424,803	-53,161	-0,043	0,014
-423,788	-200,000	-0,022	-0,087
-422,773	-156,155	0,172	0,008
-421,759	800,000	-0,005	0,013
-420,744	45,528	-0,126	0,084
-419,730	800,000	-0,032	0,075
-418,715	69,350	-0,018	0,013
-417,701	-200,000	0,014	-0,064
-416,686	97,685	0,067	-0,056
-415,671	281,421	0,010	0,013
-414,657	-109,044	-0,080	-0,012
-413,642	79,430	-0,080	-0,062
-412,628	-200,000	-0,005	0,130
-411,613	-200,000	0,003	0,020
-410,598	-102,817	0,101	0,017
-409,584	-200,000	-0,012	0,090
-408,569	-200,000	0,004	0,139
-407,555	452,803	0,053	0,086
-406,540	107,289	0,137	-0,118
-405,525	113,598	0,028	-0,025
-404,511	800,000	-0,053	-0,154
-403,496	-89,208	-0,030	-0,006
-402,482	51,403	-0,048	-0,033
-401,467	69,935	0,098	0,073
-400,452	229,659	0,087	0,103
-399,438	68,145	0,151	0,112
-398,423	342,843	0,039	-0,056
-397,409	564,393	-0,039	-0,069
-396,394	-200,000	-0,014	-0,131
-395,379	-200,000	0,005	0,016
-394,365	-102,994	-0,086	0,015
-393,350	-123,874	-0,118	-0,013
-392,336	438,963	-0,025	0,039
-391,321	-19,222	-0,113	-0,051
-390,306	570,919	-0,120	-0,214
-389,292	-200,000	-0,008	-0,055
-388,277	-200,000	-0,009	0,117
-387,263	800,000	-0,032	0,090
-386,248	73,559	0,028	0,021
-385,233	-24,296	0,128	-0,055
-384,219	27,045	0,052	0,032
-383,204	-17,058	-0,170	-0,078
-382,190	-67,047	0,068	-0,019
-381,175	52,365	-0,076	-0,052
-380,160	800,000	0,040	-0,119
-379,146	-200,000	-0,001	0,038
-378,131	292,718	-0,031	0,041
-377,117	15,566	0,103	-0,059
-376,102	-36,428	-0,155	0,060
-375,088	-200,000	0,005	0,027
-374,073	155,787	0,012	-0,012
-373,058	-174,272	-0,089	-0,002
-372,044	800,000	0,046	0,123
-371,029	-13,155	-0,073	0,034
-370,015	-200,000	-0,026	0,181
-369,000	-73,831	0,061	-0,016
-367,985	65,984	0,003	0,002
-366,971	800,000	0,034	0,103
-365,956	349,909	-0,049	0,071
-364,942	-134,597	0,043	-0,004
-363,927	-96,803	0,134	-0,025
-362,912	10,008	0,046	0,025
-361,898	231,009	-0,110	-0,130
-360,883	-200,000	0,056	-0,223
-359,869	-73,418	0,062	0,016
-358,854	-200,000	-0,015	0,080
-357,839	-111,848	0,201	0,029
-356,825	-14,449	0,021	-0,010
-355,810	800,000	0,032	-0,085
-354,796	243,757	-0,058	-0,071
-353,781	504,954	0,028	0,048
-352,766	-200,000	-0,012	-0,087
-351,752	169,851	-0,096	0,100
-350,737	-200,000	0,030	0,167
-349,723	-200,000	-0,005	-0,130
-348,708	402,564	0,014	0,021
-347,693	-71,620	0,025	-0,007
-346,679	-200,000	-0,006	-0,069
-345,664	64,136	0,085	-0,062
-344,650	273,299	-0,066	0,085
-343,635	648,904	0,062	-0,115
-342,620	-200,000	0,003	-0,014
-341,606	-200,000	-0,039	0,183
-340,591	800,000	-0,039	-0,120
-339,577	543,675	-0,029	-0,051
-338,562	-200,000	0,027	-0,094
-337,548	800,000	0,063	-0,147
-336,533	45,225	0,104	0,070
-335,518	227,016	-0,053	-0,062
-334,504	800,000	0,013	0,029
-333,489	-200,000	-0,018	0,184
-332,475	-30,653	-0,114	-0,047
-331,460	-23,185	0,069	0,030
-330,445	-200,000	0,039	0,141
-329,431	-4,938	0,061	-0,031
-328,416	673,277	0,069	0,130
-327,402	-34,258	0,137	0,054
-326,387	154,760	0,012	-0,012
-325,372	388,231	-0,035	0,052
-324,358	-36,304	0,100	-0,039
-323,343	55,445	-0,136	-0,095
-322,329	-200,000	-0,033	0,161
-321,314	-28,526	0,073	0,030
-320,299	127,911	0,064	-0,059
-319,285	-52,559	-0,029	0,010
-318,270	242,871	0,073	-0,089
-317,256	-68,612	-0,164	0,046
-316,241	655,605	-0,126	0,235
-315,226	-200,000	0,021	-0,087
-314,212	61,977	0,058	0,041
-313,197	697,209	0,032	-0,061
-312,183	9,726	0,027	0,015
-311,168	62,499	0,077	-0,055
-310,153	173,431	0,115	-0,120
-309,139	-82,282	-0,078	0,018
-308,124	397,510	-0,029	-0,045
-307,110	58,135	0,092	-0,065
-306,095	-157,971	-0,095	-0,004
-305,080	-200,000	-0,008	-0,048
-304,066	-138,389	-0,140	-0,011
-303,051	-200,000	0,017	-0,091
-302,037	-169,002	-0,053	-0,001
-301,022	-93,969	0,134	0,026
-300,008	-200,000	-0,009	0,065
-298,993	800,000	0,039	0,083
-297,978	-149,106	0,066	-0,004
-296,964	130,367	-0,055	0,051
-295,949	-200,000	0,006	-0,074
-294,935	-200,000	-0,004	-0,072
-293,920	-55,406	0,052	-0,017
-292,905	44,169	0,042	-0,028
-291,891	-200,000	-0,006	0,174
-290,876	73,803	-0,042	0,032
-289,862	-7,491	0,042	-0,021
-288,847	-200,000	0,011	0,045
-287,832	370,466	-0,074	0,109
-286,818	-63,720	-0,078	-0,023
-285,803	-94,604	-0,037	-0,007
-284,789	-14,317	-0,084	0,039
-283,774	-200,000	-0,029	0,153
-282,759	-90,837	-0,186	0,038
-281,745	-23,127	-0,097	-0,042
-280,730	230,956	-0,086	-0,102
-279,716	462,702	0,023	-0,037
-278,701	22,518	-0,007	-0,004
-277,686	-75,561	0,070	-0,018
-276,672	-200,000	0,012	0,052
-275,657	800,000	0,026	0,056
-274,643	730,231	-0,040	-0,079
-273,628	176,446	0,101	0,106
-272,613	487,538	-0,026	0,044
-271,599	-185,565	0,090	0,001
-270,584	-47,604	0,159	0,055
-269,570	-0,575	0,064	0,033
-268,555	-20,415	0,106	0,047
-267,540	-200,000	0,027	-0,116
-266,526	-68,727	-0,040	0,011
-265,511	-200,000	0,003	-0,021
-264,497	-200,000	0,002	0,075
-263,482	-107,114	0,143	0,023
-262,467	-183,330	0,051	0,001
-261,453	-200,000	0,008	0,106
-260,438	319,360	0,050	0,068
-259,424	-200,000	0,026	-0,170
-258,409	-11,057	0,120	0,057
-257,395	192,244	0,051	-0,056
-256,380	154,789	-0,055	0,055
-255,365	-197,406	-0,050	-0,000
-254,351	378,049	-0,052	-0,076
-253,336	-60,852	-0,100	-0,030
-252,322	15,736	-0,090	0,051
-251,307	55,565	0,074	0,052
-250,292	290,512	0,073	0,096
-249,278	262,105	0,083	0,104
-248,263	-200,000	0,019	-0,079
-247,249	-6,338	0,094	-0,046
-246,234	-128,134	0,093	0,009
-245,219	520,851	0,045	-0,077
-244,205	800,000	-0,036	-0,105
-243,190	-33,636	-0,080	-0,032
-242,176	-100,905	-0,035	-0,006
-241,161	577,860	0,048	-0,085
-240,146	800,000	0,053	0,165
-239,132	-200,000	0,001	0,093
-238,117	14,844	-0,077	0,044
-237,103	31,900	-0,065	0,040
-236,088	111,897	0,042	0,037
-235,073	800,000	0,032	0,094
-234,059	-200,000	0,017	0,057
-233,044	22,421	0,182	0,107
-232,030	-200,000	0,011	-0,137
-231,015	421,698	0,119	-0,186
-230,000	800,000	-0,049	-0,098
-228,986	-200,000	-0,001	0,037
-227,971	-200,000	0,010	0,068
-226,957	-66,151	0,104	0,030
-225,942	50,203	-0,089	0,060
-224,927	-91,928	0,064	0,013
-223,913	-8,076	0,084	-0,041
-222,898	130,229	-0,065	0,060
-221,884	-41,703	0,098	-0,036
-220,869	-18,150	-0,116	-0,052
-219,855	-79,209	0,140	0,034
-218,840	-39,930	0,096	-0,036
-217,825	-18,042	0,086	0,039
-216,811	-192,877	0,033	0,000
-215,796	-123,924	-0,132	-0,015
-214,782	166,179	-0,054	-0,056
-213,767	-13,554	-0,058	-0,027
-212,752	-17,935	-0,008	0,004
-211,738	-153,133	-0,070	-0,003
-210,723	-200,000	-0,014	0,048
-209,709	368,581	0,015	0,022
-208,694	-200,000	0,005	0,028
-207,679	-52,675	-0,052	0,017
-206,665	-51,849	0,059	-0,020
-205,650	-25,412	-0,070	-0,030
-204,636	800,000	-0,061	0,143
-203,621	63,800	0,050	0,036
-202,606	-64,896	0,098	-0,028
-201,592	81,514	0,021	0,016
-200,577	21,099	-0,053	0,031
-199,563	-200,000	0,004	0,014
-198,548	-79,081	-0,092	-0,022
-197,533	-200,000	0,001	0,039
-196,519	341,716	0,130	0,183
-195,504	-200,000	-0,020	-0,066
-194,490	19,142	-0,103	0,060
-193,475	-92,592	-0,192	-0,039
-192,460	-74,141	0,017	-0,004
-191,446	-74,040	0,102	0,026
-190,431	-55,443	0,097	-0,031
-189,417	-200,000	-0,030	0,202
-188,402	236,825	-0,097	0,116
-187,387	-200,000	0,007	0,049
-186,373	-133,538	-0,061	0,005
-185,358	-15,353	-0,012	0,006
-184,344	328,554	0,019	0,026
-183,329	-150,299	0,081	0,004
-182,315	-29,906	0,048	-0,020
-181,300	-200,000	0,002	-0,049
-180,285	13,558	-0,130	-0,073
-179,271	-200,000	-0,032	-0,183
-178,256	451,639	0,030	-0,048
-177,242	-200,000	0,003	-0,066
-176,227	147,356	0,126	-0,122
-175,212	495,808	-0,057	0,095
-174,198	-200,000	0,023	0,119
-173,183	513,131	-0,052	0,088
-172,169	8,275	0,029	0,016
-171,154	-200,000	-0,019	-0,074
-170,139	121,885	-0,016	-0,014
-169,125	-200,000	-0,012	0,100
-168,110	97,354	-0,097	0,080
-167,096	465,006	0,010	0,017
-166,081	70,480	-0,113	-0,084
-165,066	-62,609	-0,051	0,015
-164,052	276,479	-0,045	0,058
-163,037	-200,000	0,009	-0,031
-162,023	382,351	-0,020	-0,029
-161,008	-19,593	0,154	-0,068
-159,993	-200,000	-0,001	0,082
-158,979	-111,321	-0,132	-0,019
-157,964	-97,009	0,117	-0,022
-156,950	120,212	0,084	0,075
-155,935	-38,073	0,165	0,063
-154,920	508,228	0,040	0,068
-153,906	-200,000	0,019	0,075
-152,891	-200,000	-0,002	0,046
-151,877	-200,000	-0,008	-0,146
-150,862	-69,724	-0,034	-0,009
-149,847	155,573	-0,060	-0,060
-148,833	-200,000	-0,003	0,052
-147,818	-200,000	-0,008	0,066
-146,804	-95,796	-0,158	-0,030
-145,789	-44,323	-0,056	-0,020
-144,775	800,000	0,032	0,088
-143,760	76,773	-0,029	0,022
-142,745	12,463	0,009	-0,005
-141,731	-200,000	0,015	-0,056
-140,716	-200,000	-0,006	0,110
-139,702	800,000	0,046	0,132
-138,687	800,000	-0,060	0,145
-137,672	-113,844	0,075	0,010
-136,658	161,534	-0,101	0,102
-135,643	800,000	-0,008	0,019
-134,629	-121,003	0,074	-0,009
-133,614	740,010	-0,024	-0,046
-132,599	-200,000	0,007	0,144
-131,585	-200,000	-0,013	0,087
-130,570	5,381	-0,069	-0,037
-129,556	378,688	-0,063	-0,093
-128,541	-200,000	-0,011	-0,095
-127,526	326,040	0,049	-0,067
-126,512	800,000	0,047	-0,112
-125,497	-200,000	-0,002	-0,091
-124,483	-200,000	0,015	0,164
-123,468	-200,000	-0,009	0,061
-122,453	-200,000	0,000	-0,040
-121,439	800,000	-0,064	-0,189
-120,424	-118,804	-0,049	-0,006
-119,410	-110,901	-0,087	-0,013
