DTS Sentinel unit serial number:	SN410029Multiplexer serial number:	ORYXHardware model number:	OX2-SRSoftware version number:	ORYX F/W v4,00 Oryx Data Collector v3.7.2.0data status	okinstallation	B5 Nyhavnadifferential loss correction	single-endedforward channel	channel 2reverse channel	N/Adate	2023/12/13time	03:22:13forward acquisition time	300,00reverse acquisition time	0,00gamma	499,1914k internal	0,3160k external	0,3160temperature offset calibration	1,0000default loss term (dB/km)	0,3820temperature slope calibration	1,0000multiplexer offset coefficient	1,0000multiplexer slope coefficient	1,0000fibre end	0,00T internal ref (°C)	13,94T ext. ref 1 (°C)	-2,47T ext. ref 2 (°C)	-2,80length (m)	temperature (°C)	Stokes	anti-Stokes-744,400	-32,902	0,186	0,076
-743,385	-93,544	-0,311	-0,063
-742,371	-130,322	0,203	0,020
-741,356	-116,609	-0,282	0,038
-740,342	800,000	0,044	0,112
-739,327	-111,641	-0,302	-0,045
-738,312	20,552	0,131	-0,078
-737,298	-86,286	-0,316	-0,071
-736,283	11,023	0,119	0,067
-735,269	-29,975	-0,326	0,136
-734,254	800,000	0,095	0,198
-733,239	-2,301	-0,387	-0,199
-732,225	502,057	0,121	0,207
-731,210	-200,000	-0,028	0,129
-730,196	-200,000	0,021	-0,081
-729,181	531,461	0,034	-0,060
-728,167	680,858	-0,081	-0,157
-727,152	800,000	0,014	0,042
-726,137	800,000	-0,051	0,113
-725,123	658,335	-0,058	-0,111
-724,108	-200,000	0,003	0,077
-723,094	15,857	-0,046	-0,027
-722,079	800,000	0,019	0,056
-721,064	207,287	-0,047	-0,054
-720,050	46,455	-0,004	0,003
-719,035	110,989	0,046	0,041
-718,021	177,402	-0,011	0,012
-717,006	41,373	-0,078	-0,052
-715,991	153,522	-0,165	-0,166
-714,977	-200,000	-0,038	-0,145
-713,962	-40,247	0,105	-0,040
-712,948	-63,011	-0,078	-0,024
-711,933	800,000	0,054	0,117
-710,918	426,411	0,057	0,091
-709,904	110,475	0,111	-0,098
-708,889	10,267	-0,136	-0,076
-707,875	-200,000	0,019	-0,079
-706,860	526,951	0,070	-0,123
-705,845	800,000	0,034	-0,109
-704,831	-112,499	0,135	-0,020
-703,816	-200,000	0,012	-0,087
-702,802	-157,520	0,025	-0,001
-701,787	-92,283	-0,096	0,020
-700,772	185,681	-0,066	0,072
-699,758	198,823	0,024	-0,027
-698,743	-145,062	0,056	-0,004
-697,729	-3,551	0,088	0,045
-696,714	6,073	-0,037	-0,020
-695,699	-23,741	0,023	0,010
-694,685	800,000	-0,001	-0,001
-693,670	800,000	-0,071	-0,155
-692,656	-200,000	-0,009	-0,220
-691,641	211,808	0,035	0,041
-690,627	-200,000	-0,028	0,124
-689,612	-200,000	0,022	0,083
-688,597	15,271	0,035	-0,020
-687,583	-44,198	-0,141	0,052
-686,568	-37,786	-0,051	0,020
-685,554	-82,832	-0,108	0,025
-684,539	44,237	0,059	-0,040
-683,524	-200,000	0,001	0,142
-682,510	800,000	-0,061	0,143
-681,495	475,667	-0,056	0,093
-680,481	-200,000	-0,016	-0,140
-679,466	-80,823	0,053	-0,013
-678,451	800,000	-0,031	-0,090
-677,437	-18,070	0,026	-0,012
-676,422	5,826	-0,096	-0,052
-675,408	217,903	-0,023	0,027
-674,393	-73,127	0,102	0,027
-673,378	248,317	-0,046	-0,057
-672,364	279,778	-0,046	-0,061
-671,349	138,465	-0,059	0,057
-670,335	44,206	0,048	0,032
-669,320	-200,000	-0,037	0,150
-668,305	339,149	-0,113	-0,162
-667,291	-200,000	0,002	-0,078
-666,276	135,367	0,129	0,123
-665,262	-115,268	-0,215	0,030
-664,247	-25,185	-0,133	-0,057
-663,232	-174,648	0,089	-0,002
-662,218	59,974	0,040	0,029
-661,203	-161,461	0,100	0,004
-660,189	-138,867	-0,113	-0,009
-659,174	-69,985	-0,126	0,035
-658,159	-16,947	0,076	-0,035
-657,145	-138,112	-0,047	0,004
-656,130	-114,119	0,101	0,014
-655,116	-52,336	0,078	0,026
-654,101	-37,859	-0,104	-0,040
-653,086	6,241	-0,105	0,057
-652,072	-102,746	0,135	-0,023
-651,057	54,045	-0,042	0,030
-650,043	26,747	0,071	0,044
-649,028	759,365	0,030	-0,059
-648,014	758,983	0,074	-0,149
-646,999	10,446	-0,069	0,038
-645,984	3,737	0,117	0,063
-644,970	40,303	-0,112	0,074
-643,955	-190,322	-0,109	0,001
-642,941	-200,000	-0,001	-0,153
-641,926	166,329	0,036	-0,037
-640,911	-79,519	0,045	-0,011
-639,897	-154,110	-0,069	-0,003
-638,882	619,590	0,020	0,036
-637,868	-113,437	-0,119	-0,017
-636,853	-181,040	0,025	0,000
-635,838	-170,272	-0,042	0,001
-634,824	-121,997	0,080	-0,010
-633,809	-200,000	-0,010	-0,060
-632,795	280,744	0,048	-0,063
-631,780	505,564	-0,029	0,049
-630,765	61,075	0,052	0,038
-629,751	800,000	0,020	-0,043
-628,736	-200,000	-0,000	0,018
-627,722	484,052	-0,071	0,120
-626,707	-45,146	-0,149	-0,054
-625,692	-90,206	0,018	0,004
-624,678	-200,000	0,018	0,078
-623,663	-200,000	-0,011	0,064
-622,649	50,660	-0,026	0,018
-621,634	-200,000	0,002	-0,038
-620,619	780,252	0,066	-0,133
-619,605	81,670	-0,055	0,044
-618,590	202,423	0,042	-0,048
-617,576	9,871	-0,085	0,047
-616,561	-200,000	0,043	-0,153
-615,546	-66,782	0,029	-0,008
-614,532	-200,000	-0,012	-0,133
-613,517	351,151	-0,035	-0,050
-612,503	211,186	0,021	0,025
-611,488	800,000	-0,036	-0,097
-610,474	-200,000	0,023	0,161
-609,459	255,717	-0,043	0,054
-608,444	8,616	-0,103	0,057
-607,430	800,000	-0,064	-0,178
-606,415	114,081	-0,062	0,055
-605,401	54,985	-0,068	-0,048
-604,386	131,469	0,058	0,055
-603,371	8,503	0,107	0,059
-602,357	53,149	-0,038	0,027
-601,342	226,070	-0,115	-0,136
-600,328	-64,016	-0,105	0,031
-599,313	61,439	-0,085	-0,062
-598,298	800,000	0,058	0,120
-597,284	800,000	0,032	-0,067
-596,269	150,850	-0,055	-0,055
-595,255	-200,000	-0,003	-0,094
-594,240	316,445	0,034	-0,047
-593,225	90,501	0,093	-0,076
-592,211	-95,510	-0,127	0,025
-591,196	161,128	0,049	0,051
-590,182	-19,564	-0,062	0,028
-589,167	-114,702	0,162	-0,022
-588,152	165,626	0,080	-0,083
-587,138	-114,375	-0,188	0,026
-586,123	-94,438	-0,061	-0,012
-585,109	195,684	-0,059	-0,066
-584,094	-200,000	0,019	-0,091
-583,079	79,244	0,056	-0,044
-582,065	-24,136	0,044	-0,019
-581,050	-200,000	0,016	0,134
-580,036	-20,927	-0,109	0,049
-579,021	-53,425	0,042	0,014
-578,006	86,979	-0,123	-0,100
-576,992	-200,000	-0,018	0,108
-575,977	143,190	-0,028	-0,028
-574,963	-200,000	-0,008	0,048
-573,948	270,890	-0,069	-0,089
-572,934	-93,143	0,185	-0,037
-571,919	53,920	-0,029	0,020
-570,904	-48,154	-0,064	-0,022
-569,890	67,804	0,140	-0,105
-568,875	-49,263	-0,056	-0,019
-567,861	-129,977	-0,020	-0,002
-566,846	9,624	-0,099	0,055
-565,831	-200,000	0,012	-0,049
-564,817	-200,000	-0,018	-0,121
-563,802	22,307	-0,024	0,014
-562,788	-200,000	-0,020	-0,070
-561,773	-200,000	0,001	-0,087
-560,758	-162,413	-0,100	-0,004
-559,744	-200,000	-0,025	0,141
-558,729	-200,000	0,001	0,047
-557,715	-116,528	-0,032	0,004
-556,700	-200,000	-0,013	-0,076
-555,685	-200,000	-0,037	-0,127
-554,671	674,798	-0,038	0,073
-553,656	178,280	-0,055	0,058
-552,642	800,000	0,006	-0,017
-551,627	38,751	0,086	-0,056
-550,612	-200,000	-0,001	-0,046
-549,598	276,595	-0,052	0,068
-548,583	186,712	-0,051	0,055
-547,569	290,344	0,041	0,055
-546,554	800,000	0,093	0,225
-545,539	49,722	-0,012	-0,009
-544,525	-9,275	0,061	0,030
-543,510	144,833	-0,081	-0,080
-542,496	79,311	-0,035	0,027
-541,481	122,188	-0,102	-0,093
-540,466	122,598	-0,024	-0,022
-539,452	-15,415	0,154	0,072
-538,437	-200,000	0,011	0,101
-537,423	189,966	0,060	-0,065
-536,408	800,000	-0,084	-0,198
-535,393	131,376	0,100	-0,093
-534,379	442,517	-0,050	-0,080
-533,364	-200,000	-0,020	-0,123
-532,350	800,000	-0,040	-0,082
-531,335	503,695	-0,026	-0,044
-530,321	163,165	0,080	-0,082
-529,306	-41,749	-0,074	-0,028
-528,291	-200,000	-0,026	0,114
-527,277	6,779	0,068	-0,037
-526,262	140,981	-0,063	0,060
-525,248	34,868	0,076	0,048
-524,233	-112,866	0,134	-0,019
-523,218	-200,000	-0,032	0,108
-522,204	-200,000	0,014	0,090
-521,189	14,650	-0,048	0,028
-520,175	255,377	-0,037	0,047
-519,160	98,592	-0,120	-0,101
-518,145	-200,000	-0,014	0,138
-517,131	800,000	-0,036	-0,094
-516,116	58,442	-0,087	0,062
-515,102	4,211	-0,085	-0,045
-514,087	-27,263	0,023	0,010
-513,072	105,148	0,043	0,037
-512,058	208,017	-0,076	-0,087
-511,043	800,000	-0,065	0,143
-510,029	630,319	-0,029	0,054
-509,014	-107,001	-0,029	-0,005
-507,999	378,250	0,032	0,048
-506,985	264,237	-0,036	-0,045
-505,970	384,772	0,013	-0,020
-504,956	597,449	-0,095	0,173
-503,941	169,822	0,045	-0,047
-502,926	-186,802	0,057	0,001
-501,912	-64,181	-0,154	0,046
-500,897	168,078	0,039	-0,040
-499,883	-8,185	-0,117	-0,057
-498,868	-200,000	0,009	-0,134
-497,853	386,080	0,099	-0,149
-496,839	800,000	0,018	-0,058
-495,824	-171,592	0,092	-0,002
-494,810	293,790	0,040	0,054
-493,795	224,882	-0,041	-0,049
-492,781	510,884	-0,049	0,084
-491,766	800,000	0,083	-0,179
-490,751	412,729	0,053	-0,083
-489,737	580,472	-0,004	0,006
-488,722	-200,000	0,045	-0,153
-487,708	279,828	0,059	-0,078
-486,693	-78,415	-0,123	-0,031
-485,678	800,000	-0,023	-0,061
-484,664	362,199	0,029	0,042
-483,649	-121,503	0,071	0,009
-482,635	-121,387	0,080	0,010
-481,620	109,711	-0,044	0,039
-480,605	-200,000	0,009	0,067
-479,591	800,000	0,019	0,050
-478,576	160,764	0,072	0,073
-477,562	-200,000	0,019	-0,073
-476,547	-123,121	0,114	-0,013
-475,532	-192,590	-0,031	0,000
-474,518	349,945	0,039	0,057
-473,503	29,141	0,125	0,077
-472,489	773,796	-0,041	0,082
-471,474	5,796	0,022	0,012
-470,459	239,199	-0,101	-0,123
-469,445	800,000	0,027	-0,056
-468,430	-39,676	-0,116	0,044
-467,416	111,388	0,038	0,033
-466,401	-200,000	-0,001	-0,024
-465,386	-200,000	-0,039	0,127
-464,372	-76,174	-0,070	0,018
-463,357	390,930	0,081	-0,124
-462,343	164,076	-0,112	-0,115
-461,328	53,615	0,159	-0,111
-460,313	300,485	0,058	-0,078
-459,299	-159,291	0,049	-0,002
-458,284	278,259	0,003	-0,004
-457,270	0,326	-0,121	0,063
-456,255	-200,000	0,033	0,145
-455,241	-61,072	-0,108	-0,033
-454,226	-112,340	-0,100	0,014
-453,211	206,414	0,057	0,065
-452,197	-200,000	0,032	0,162
-451,182	800,000	0,029	0,081
-450,168	496,558	0,108	-0,182
-449,153	-57,568	-0,123	-0,039
-448,138	800,000	-0,044	-0,129
-447,124	-200,000	0,008	-0,091
-446,109	291,393	-0,049	0,065
-445,095	210,429	0,049	0,056
-444,080	-10,880	0,026	-0,013
-443,065	-200,000	0,009	0,040
-442,051	575,123	-0,052	0,092
-441,036	345,257	-0,061	-0,087
-440,022	800,000	0,023	0,067
-439,007	39,374	-0,110	-0,072
-437,992	-2,094	0,077	-0,039
-436,978	-9,206	0,055	-0,027
-435,963	-184,662	0,092	-0,001
-434,949	-2,867	-0,119	0,060
-433,934	-63,666	-0,108	-0,032
-432,919	-75,898	-0,070	0,018
-431,905	-200,000	0,036	0,125
-430,890	2,389	0,067	0,035
-429,876	317,366	0,049	-0,067
-428,861	24,712	0,054	0,033
-427,846	-89,592	-0,082	0,017
-426,832	-107,317	0,120	0,019
-425,817	-13,514	-0,093	-0,044
-424,803	800,000	-0,037	0,089
-423,788	10,157	-0,107	-0,059
-422,773	-200,000	0,008	-0,028
-421,759	28,254	-0,046	0,028
-420,744	639,133	0,055	-0,102
-419,730	243,865	-0,006	-0,008
-418,715	-119,019	-0,093	-0,012
-417,701	-91,309	0,122	0,025
-416,686	686,481	-0,049	-0,095
-415,671	18,824	0,040	-0,023
-414,657	-200,000	0,017	0,112
-413,642	79,665	0,147	0,114
-412,628	-200,000	-0,048	-0,166
-411,613	-19,567	-0,056	-0,025
-410,598	-96,442	0,069	0,013
-409,584	-81,067	0,052	0,012
-408,569	281,948	0,128	0,168
-407,555	-200,000	0,002	-0,091
-406,540	-110,836	0,081	-0,012
-405,525	318,232	0,055	-0,076
-404,511	-17,596	-0,107	-0,049
-403,496	-200,000	0,002	-0,108
-402,482	418,495	0,067	0,104
-401,467	-55,658	0,086	0,028
-400,452	-200,000	-0,037	0,141
-399,438	82,361	-0,126	0,099
-398,423	43,048	-0,041	-0,027
-397,409	800,000	-0,034	-0,070
-396,394	-9,089	0,068	-0,033
-395,379	248,503	0,063	-0,078
-394,365	132,848	0,045	0,042
-393,350	609,034	-0,004	-0,008
-392,336	45,197	0,054	0,036
-391,321	-200,000	0,000	-0,034
-390,306	83,906	-0,089	-0,071
-389,292	102,770	-0,102	-0,086
-388,277	-1,127	0,086	0,044
-387,263	53,870	-0,154	0,108
-386,248	-200,000	-0,024	0,080
-385,233	-200,000	0,012	0,051
-384,219	-200,000	0,004	-0,018
-383,204	-152,868	0,059	-0,003
-382,190	-37,840	-0,132	-0,051
-381,175	331,320	0,076	-0,107
-380,160	-85,512	0,099	-0,022
-379,146	302,718	0,047	-0,063
-378,131	114,715	0,092	0,082
-377,117	169,341	0,049	-0,051
-376,102	156,771	-0,091	0,091
-375,088	-200,000	-0,025	-0,145
-374,073	-18,669	-0,063	0,029
-373,058	39,117	-0,043	0,028
-372,044	-107,350	-0,053	-0,008
-371,029	394,765	-0,024	-0,036
-370,015	800,000	-0,023	0,051
-369,000	-129,919	-0,100	-0,010
-367,985	800,000	-0,042	-0,100
-366,971	-200,000	-0,009	-0,054
-365,956	-200,000	0,020	-0,086
-364,942	21,967	0,060	-0,035
-363,927	-200,000	0,041	-0,147
-362,912	296,995	-0,068	0,091
-361,898	-200,000	-0,013	0,046
-360,883	-16,347	-0,061	0,028
-359,869	-25,893	-0,093	0,040
-358,854	-107,807	-0,098	-0,015
-357,839	-137,483	0,074	-0,006
-356,825	-140,926	0,082	-0,006
-355,810	-142,876	0,081	-0,006
-354,796	-40,667	-0,118	0,044
-353,781	-79,895	-0,146	-0,035
-352,766	425,055	0,050	0,079
-351,752	-67,995	0,088	0,025
-350,737	217,495	-0,031	0,036
-349,723	15,893	0,064	0,036
-348,708	-140,260	0,060	-0,005
-347,693	337,058	-0,096	-0,135
-346,679	123,491	0,102	-0,093
-345,664	165,857	0,025	0,025
-344,650	800,000	0,032	0,087
-343,635	278,434	0,024	0,031
-342,620	583,997	0,045	-0,081
-341,606	-93,419	0,189	-0,038
-340,591	800,000	-0,010	0,025
-339,577	61,986	-0,095	-0,069
-338,562	800,000	0,012	-0,029
-337,548	272,814	-0,081	-0,104
-336,533	-200,000	0,024	0,157
-335,518	53,649	0,084	0,059
-334,504	176,094	0,023	0,025
-333,489	-98,889	0,086	-0,016
-332,475	10,339	0,119	-0,066
-331,460	-53,970	-0,057	-0,019
-330,445	318,875	-0,120	0,166
-329,431	-200,000	-0,001	0,026
-328,416	800,000	0,035	0,085
-327,402	565,938	0,012	0,021
-326,387	30,959	-0,105	-0,065
-325,372	-133,590	-0,056	-0,005
-324,358	-165,097	0,011	0,000
-323,343	-24,405	-0,124	-0,053
-322,329	800,000	-0,071	0,199
-321,314	-200,000	-0,017	0,101
-320,299	-105,401	0,100	-0,016
-319,285	-200,000	0,018	-0,087
-318,270	-12,375	-0,052	-0,024
-317,256	-33,000	0,113	-0,045
-316,241	-114,026	0,079	-0,011
-315,226	-52,815	0,134	0,044
-314,212	5,167	-0,094	-0,050
-313,197	126,606	-0,066	0,061
-312,183	800,000	-0,010	-0,029
-311,168	-200,000	-0,029	-0,096
-310,153	-200,000	0,017	0,065
-309,139	138,484	-0,017	0,016
-308,124	-56,592	0,110	0,035
-307,110	208,767	0,111	-0,126
-306,095	-6,686	0,111	-0,055
-305,080	-200,000	0,020	-0,099
-304,066	-136,589	0,032	0,003
-303,051	-91,193	-0,065	-0,013
-302,037	800,000	0,019	-0,054
-301,022	800,000	0,027	0,080
-300,008	401,772	0,066	-0,101
-298,993	70,118	-0,132	0,099
-297,978	433,590	0,053	-0,083
-296,964	-200,000	0,031	0,121
-295,949	-135,898	0,078	-0,007
-294,935	385,588	-0,058	-0,088
-293,920	-200,000	0,016	0,142
-292,905	-41,419	0,070	0,026
-291,891	-200,000	0,000	0,124
-290,876	800,000	-0,031	0,083
-289,862	204,535	0,041	-0,046
-288,847	-36,417	-0,152	0,059
-287,832	64,510	-0,059	-0,043
-286,818	-9,455	-0,091	0,044
-285,803	554,857	0,039	-0,069
-284,789	60,301	0,054	0,039
-283,774	45,098	-0,105	-0,070
-282,759	-156,526	-0,118	-0,005
-281,745	-53,446	-0,039	-0,013
-280,730	62,702	-0,052	0,038
-279,716	-66,060	-0,145	-0,042
-278,701	-136,947	0,088	0,007
-277,686	-135,494	0,094	0,008
-276,672	800,000	-0,053	0,131
-275,657	0,604	-0,048	0,025
-274,643	-159,511	0,041	0,002
-273,628	-114,921	0,152	0,021
-272,613	-200,000	-0,006	0,088
-271,599	-80,291	-0,063	0,015
-270,584	-183,676	0,026	0,000
-269,570	800,000	0,035	0,077
-268,555	-154,288	0,070	0,003
-267,540	-148,836	0,046	-0,003
-266,526	-122,055	-0,154	0,018
-265,511	-200,000	-0,005	0,037
-264,497	-200,000	-0,029	0,121
-263,482	-200,000	0,004	0,172
-262,467	-125,111	0,006	0,001
-261,453	-200,000	0,030	-0,110
-260,438	-171,812	-0,057	-0,001
-259,424	419,022	-0,033	-0,052
-258,409	22,067	-0,066	-0,039
-257,395	-57,364	0,178	0,056
-256,380	-200,000	0,005	0,044
-255,365	4,241	0,101	0,053
-254,351	354,939	0,032	0,046
-253,336	-80,886	0,062	-0,015
-252,322	-200,000	-0,001	0,024
-251,307	94,185	-0,094	0,077
-250,292	-44,457	0,058	-0,021
-249,278	113,828	0,080	0,070
-248,263	397,139	-0,041	0,063
-247,249	-29,802	0,083	0,034
-246,234	74,250	-0,080	-0,060
-245,219	-200,000	-0,018	0,095
-244,205	-20,011	0,043	-0,019
-243,190	-200,000	0,009	0,065
-242,176	254,927	-0,073	0,091
-241,161	176,402	0,157	0,164
-240,146	-200,000	-0,011	-0,063
-239,132	-80,582	0,085	0,020
-238,117	-200,000	0,014	0,095
-237,103	-200,000	-0,013	-0,061
-236,088	-140,708	0,115	-0,008
-235,073	155,009	-0,031	-0,030
-234,059	-111,482	0,099	0,014
-233,044	286,321	-0,066	0,086
-232,030	-139,089	-0,133	-0,010
-231,015	-200,000	-0,011	-0,131
-230,000	-67,139	0,068	-0,019
-228,986	-187,049	0,153	-0,001
-227,971	-200,000	0,018	0,143
-226,957	-200,000	0,007	0,053
-225,942	800,000	-0,021	-0,052
-224,927	-33,322	0,110	0,044
-223,913	118,824	0,034	-0,030
-222,898	-81,092	-0,185	-0,044
-221,884	-200,000	0,001	-0,091
-220,869	-200,000	-0,019	0,099
-219,855	29,668	0,124	-0,076
-218,840	460,162	-0,068	0,110
-217,825	-200,000	-0,024	0,113
-216,811	277,914	-0,032	-0,041
-215,796	800,000	-0,039	-0,118
-214,782	97,289	-0,051	0,042
-213,767	15,928	0,048	-0,027
-212,752	800,000	0,035	0,090
-211,738	454,104	0,045	0,072
-210,723	284,826	0,057	0,075
-209,709	11,745	-0,122	-0,068
-208,694	-200,000	-0,002	-0,062
-207,679	-55,450	0,118	-0,038
-206,665	-200,000	-0,000	0,004
-205,650	-200,000	0,001	0,154
-204,636	-47,311	-0,083	-0,029
-203,621	369,614	0,034	-0,049
-202,606	135,767	-0,112	-0,105
-201,592	-35,339	-0,061	0,024
-200,577	69,987	-0,047	0,035
-199,563	800,000	0,044	0,095
-198,548	83,084	-0,030	0,023
-197,533	-200,000	-0,003	0,026
-196,519	-200,000	0,016	0,186
-195,504	160,219	0,038	0,038
-194,490	-200,000	0,008	-0,107
-193,475	-43,214	-0,039	0,014
-192,460	320,666	0,078	0,107
-191,446	-22,687	0,200	-0,087
-190,431	-130,728	0,079	0,008
-189,417	571,295	0,030	0,052
-188,402	125,324	-0,090	0,082
-187,387	-150,449	0,244	0,013
-186,373	-134,079	0,109	-0,010
-185,358	88,092	-0,056	-0,044
-184,344	-89,190	0,157	-0,033
-183,329	-78,588	-0,055	-0,013
-182,315	57,894	0,076	0,053
-181,300	207,426	0,074	-0,083
-180,285	459,773	0,044	-0,071
-179,271	800,000	0,041	0,098
-178,256	22,063	-0,099	0,058
-177,242	-200,000	0,008	-0,070
-176,227	-72,113	0,065	0,017
-175,212	56,762	0,171	0,120
-174,198	167,533	-0,079	-0,081
-173,183	316,330	0,146	-0,199
-172,169	-123,054	0,026	-0,003
-171,154	-128,944	0,053	0,005
-170,139	-200,000	0,028	0,168
-169,125	29,304	-0,027	0,017
-168,110	-74,406	0,085	0,022
-167,096	-200,000	0,013	0,045
-166,081	-200,000	-0,067	0,000
-165,066	-200,000	0,003	0,027
-164,052	-57,671	-0,064	-0,020
-163,037	800,000	0,009	0,018
-162,023	334,067	0,070	0,098
-161,008	45,937	0,043	0,028
-159,993	334,524	-0,111	0,155
-158,979	-34,110	-0,061	-0,024
-157,964	-200,000	-0,036	-0,135
-156,950	800,000	0,014	0,036
-155,935	239,645	-0,118	-0,141
-154,920	800,000	-0,030	0,071
-153,906	-200,000	0,005	-0,096
-152,891	161,574	-0,127	-0,128
-151,877	139,674	0,027	-0,026
-150,862	-89,874	-0,035	0,007
-149,847	-131,043	0,073	-0,007
-148,833	-41,976	0,066	0,024
-147,818	501,301	0,024	0,041
-146,804	-200,000	-0,043	-0,173
-145,789	135,537	0,045	0,042
-144,775	-66,248	-0,042	-0,012
-143,760	800,000	0,029	-0,078
-142,745	101,178	0,033	-0,028
-141,731	758,672	0,065	0,127
-140,716	108,776	-0,056	0,048
-139,702	-32,804	0,056	0,022
-138,687	-200,000	-0,012	0,040
-137,672	800,000	0,058	-0,123
-136,658	-120,609	-0,087	-0,010
-135,643	-200,000	0,016	-0,080
-134,629	-137,162	0,059	-0,005
-133,614	73,125	0,065	0,049
-132,599	249,759	0,064	-0,079
-131,585	-200,000	-0,037	0,150
-130,570	-161,021	-0,015	-0,001
-129,556	-96,726	-0,098	-0,018
-128,541	-27,341	-0,056	0,023
-127,526	800,000	0,029	0,064
-126,512	79,500	-0,081	0,063
-125,497	-68,084	0,152	0,042
-124,483	-99,932	0,039	0,007
-123,468	143,966	0,054	0,052
-122,453	-76,614	0,054	0,014
-121,439	-91,748	-0,107	0,022
-120,424	-200,000	-0,031	0,111
-119,410	350,232	0,072	0,102
-118,395	-43,726	0,072	0,026
