DTS Sentinel unit serial number:	SN410029Multiplexer serial number:	ORYXHardware model number:	OX2-SRSoftware version number:	ORYX F/W v4,00 Oryx Data Collector v3.7.2.0data status	okinstallation	B5 Nyhavnadifferential loss correction	single-endedforward channel	channel 2reverse channel	N/Adate	2023/12/14time	07:07:13forward acquisition time	300,00reverse acquisition time	0,00gamma	499,1914k internal	0,3159k external	0,3159temperature offset calibration	1,0000default loss term (dB/km)	0,3820temperature slope calibration	1,0000multiplexer offset coefficient	1,0000multiplexer slope coefficient	1,0000fibre end	0,00T internal ref (°C)	7,26T ext. ref 1 (°C)	-9,19T ext. ref 2 (°C)	-9,29length (m)	temperature (°C)	Stokes	anti-Stokes-744,400	-99,621	0,261	0,048
-743,385	-69,434	-0,461	-0,130
-742,371	571,098	0,103	0,186
-741,356	-33,503	-0,453	-0,184
-740,342	-4,690	0,146	0,074
-739,327	-127,830	-0,359	-0,038
-738,312	-41,969	-0,019	0,007
-737,298	-97,206	-0,391	-0,074
-736,283	-112,589	0,182	-0,026
-735,269	-64,353	-0,351	-0,104
-734,254	-24,744	0,111	0,048
-733,239	-61,666	-0,521	-0,160
-732,225	106,052	0,257	0,224
-731,210	-200,000	0,009	0,067
-730,196	800,000	-0,054	-0,134
-729,181	2,802	-0,079	-0,042
-728,167	800,000	0,050	-0,127
-727,152	1,548	-0,199	-0,105
-726,137	204,292	-0,023	-0,026
-725,123	-200,000	0,025	-0,127
-724,108	-6,695	-0,134	-0,067
-723,094	-200,000	-0,039	-0,197
-722,079	-91,485	-0,093	-0,019
-721,064	-0,377	0,008	-0,004
-720,050	800,000	0,033	0,078
-719,035	800,000	-0,017	0,052
-718,021	800,000	0,060	-0,150
-717,006	-87,463	-0,131	-0,029
-715,991	800,000	-0,031	-0,091
-714,977	135,271	-0,048	0,046
-713,962	180,134	-0,019	-0,021
-712,948	135,042	0,011	0,010
-711,933	485,249	-0,019	-0,032
-710,918	-200,000	-0,012	-0,057
-709,904	-200,000	0,021	0,112
-708,889	800,000	0,028	0,068
-707,875	164,841	-0,162	-0,169
-706,860	-200,000	-0,004	-0,097
-705,845	-89,337	-0,086	-0,019
-704,831	-49,872	0,061	-0,021
-703,816	-200,000	-0,002	0,066
-702,802	158,279	0,009	-0,009
-701,787	800,000	0,045	-0,093
-700,772	140,585	-0,015	0,014
-699,758	245,526	-0,074	0,092
-698,743	41,132	-0,072	0,047
-697,729	273,503	0,041	0,054
-696,714	219,816	0,029	-0,034
-695,699	-58,174	-0,165	0,053
-694,685	-177,292	-0,131	-0,002
-693,670	176,787	-0,045	-0,048
-692,656	-200,000	0,004	-0,088
-691,641	-154,686	-0,045	0,002
-690,627	154,311	0,094	-0,095
-689,612	-200,000	-0,009	0,075
-688,597	272,489	-0,041	0,053
-687,583	800,000	0,045	-0,096
-686,568	323,055	0,006	0,008
-685,554	12,217	-0,046	-0,026
-684,539	240,358	0,046	-0,057
-683,524	97,026	-0,169	0,142
-682,510	383,256	0,077	0,116
-681,495	800,000	0,024	0,055
-680,481	121,101	-0,124	-0,114
-679,466	-143,375	0,123	0,009
-678,451	452,701	-0,038	-0,062
-677,437	800,000	-0,050	0,104
-676,422	28,447	-0,123	-0,076
-675,408	-200,000	0,000	0,139
-674,393	40,261	0,026	-0,017
-673,378	-158,358	-0,124	-0,005
-672,364	-200,000	-0,005	0,103
-671,349	800,000	-0,053	-0,110
-670,335	-44,138	0,131	0,048
-669,320	534,921	0,031	0,054
-668,305	210,477	-0,030	-0,035
-667,291	174,402	-0,100	-0,106
-666,276	9,940	0,066	-0,037
-665,262	90,992	-0,079	0,065
-664,247	-200,000	0,018	-0,101
-663,232	90,886	0,080	-0,066
-662,218	86,431	-0,044	0,036
-661,203	-200,000	-0,006	0,134
-660,189	686,847	-0,053	-0,102
-659,174	-95,504	-0,096	-0,019
-658,159	-55,720	-0,210	-0,069
-657,145	128,535	-0,092	-0,086
-656,130	-200,000	0,002	0,127
-655,116	186,913	-0,104	0,114
-654,101	-47,118	0,196	0,070
-653,086	-200,000	-0,021	0,080
-652,072	-200,000	-0,028	0,179
-651,057	79,586	-0,133	-0,105
-650,043	-200,000	-0,006	-0,171
-649,028	800,000	0,045	-0,130
-648,014	-120,284	0,109	0,013
-646,999	-200,000	0,021	0,070
-645,984	-139,322	-0,058	0,004
-644,970	800,000	-0,024	-0,077
-643,955	-42,241	-0,056	-0,021
-642,941	149,754	-0,110	-0,110
-641,926	224,620	-0,073	-0,087
-640,911	472,612	-0,066	0,110
-639,897	95,510	0,086	-0,072
-638,882	58,968	-0,059	0,043
-637,868	-82,403	-0,027	-0,006
-636,853	-112,795	-0,125	-0,018
-635,838	-200,000	0,002	-0,012
-634,824	-200,000	0,018	-0,180
-633,809	-200,000	-0,021	-0,074
-632,795	-152,818	0,123	-0,006
-631,780	-114,305	0,085	0,012
-630,765	97,647	-0,042	-0,036
-629,751	180,921	0,004	-0,004
-628,736	800,000	0,050	-0,113
-627,722	-110,103	-0,094	-0,014
-626,707	-38,982	-0,148	0,057
-625,692	105,240	0,034	-0,029
-624,678	-200,000	-0,002	0,026
-623,663	20,398	-0,036	-0,021
-622,649	800,000	-0,020	-0,065
-621,634	-18,705	0,015	-0,007
-620,619	223,993	-0,054	-0,064
-619,605	93,162	0,039	0,033
-618,590	-128,009	0,164	-0,017
-617,576	-96,490	-0,063	-0,012
-616,561	-5,467	-0,042	0,021
-615,546	-48,004	-0,039	0,014
-614,532	800,000	0,070	-0,146
-613,517	209,087	-0,064	-0,073
-612,503	-102,286	0,089	-0,016
-611,488	678,879	-0,061	-0,117
-610,474	-131,673	-0,187	0,018
-609,459	76,015	-0,076	0,059
-608,444	540,374	0,044	-0,076
-607,430	800,000	-0,033	0,092
-606,415	-200,000	0,060	0,195
-605,401	-48,178	0,083	-0,029
-604,386	-43,119	0,131	0,048
-603,371	190,516	-0,040	0,044
-602,357	63,370	-0,036	-0,027
-601,342	-200,000	-0,024	-0,135
-600,328	-200,000	0,017	-0,117
-599,313	312,750	-0,088	-0,122
-598,298	273,489	0,014	-0,018
-597,284	-89,703	0,010	-0,002
-596,269	800,000	-0,040	-0,102
-595,255	603,634	-0,031	-0,057
-594,240	-61,368	-0,012	-0,004
-593,225	-130,493	-0,054	-0,005
-592,211	106,437	-0,070	-0,061
-591,196	-119,772	0,137	-0,017
-590,182	-90,248	0,113	-0,024
-589,167	-200,000	0,025	0,138
-588,152	-200,000	-0,004	0,079
-587,138	54,464	0,066	-0,047
-586,123	800,000	0,029	0,078
-585,109	35,433	-0,129	-0,083
-584,094	800,000	0,036	-0,085
-583,079	-85,254	0,090	-0,020
-582,065	-104,812	0,055	0,009
-581,050	16,999	-0,108	-0,063
-580,036	127,984	-0,091	-0,084
-579,021	227,724	0,045	-0,054
-578,006	-200,000	0,001	-0,056
-576,992	-84,549	-0,070	0,016
-575,977	-167,844	0,283	-0,008
-574,963	336,842	-0,076	0,108
-573,948	800,000	-0,057	0,116
-572,934	519,343	-0,031	-0,053
-571,919	730,909	-0,023	0,045
-570,904	-78,863	-0,026	0,007
-569,890	-72,623	-0,046	0,012
-568,875	800,000	-0,049	-0,113
-567,861	72,888	0,145	-0,111
-566,846	-200,000	0,023	-0,095
-565,831	-118,362	-0,230	-0,029
-564,817	-93,503	0,137	0,028
-563,802	163,111	0,024	0,025
-562,788	800,000	-0,054	-0,123
-561,773	272,286	0,099	0,128
-560,758	32,475	0,058	-0,037
-559,744	-200,000	0,001	-0,007
-558,729	-16,481	0,062	-0,029
-557,715	185,627	-0,193	-0,210
-556,700	800,000	0,036	-0,088
-555,685	161,252	-0,053	-0,054
-554,671	-48,690	-0,085	-0,030
-553,656	-164,339	0,201	-0,007
-552,642	-159,645	-0,020	-0,001
-551,627	800,000	0,040	0,099
-550,612	87,731	0,043	0,035
-549,598	-157,747	-0,089	-0,004
-548,583	-200,000	0,020	0,095
-547,569	64,867	0,073	-0,054
-546,554	600,053	0,068	-0,125
-545,539	73,711	0,047	0,036
-544,525	-150,882	0,104	-0,006
-543,510	167,157	-0,095	-0,099
-542,496	-200,000	-0,018	-0,210
-541,481	-200,000	0,010	0,040
-540,466	204,756	0,061	0,069
-539,452	-132,236	0,045	0,004
-538,437	364,286	0,079	0,116
-537,423	800,000	-0,016	0,039
-536,408	-45,566	-0,033	0,012
-535,393	-200,000	-0,019	-0,164
-534,379	-68,661	-0,089	0,025
-533,364	271,920	-0,078	-0,100
-532,350	-53,192	-0,017	0,006
-531,335	800,000	-0,024	0,057
-530,321	-91,695	0,080	0,017
-529,306	313,612	-0,053	-0,073
-528,291	397,544	-0,053	-0,081
-527,277	-168,442	-0,099	-0,003
-526,262	-105,209	0,101	-0,017
-525,248	60,159	0,086	0,062
-524,233	800,000	0,015	0,045
-523,218	275,204	-0,055	-0,072
-522,204	-57,633	-0,111	-0,035
-521,189	-200,000	0,001	0,012
-520,175	-7,762	-0,008	-0,004
-519,160	3,816	-0,037	-0,019
-518,145	800,000	-0,015	0,043
-517,131	-89,814	-0,053	-0,011
-516,116	536,044	0,031	0,054
-515,102	317,399	0,055	-0,076
-514,087	-200,000	0,031	-0,135
-513,072	297,378	-0,072	-0,096
-512,058	800,000	-0,073	0,158
-511,043	10,748	-0,106	0,059
-510,029	-200,000	-0,001	-0,035
-509,014	-200,000	-0,024	0,116
-507,999	10,629	-0,071	-0,039
-506,985	94,288	-0,149	-0,124
-505,970	36,248	0,065	-0,042
-504,956	-36,012	-0,032	0,012
-503,941	800,000	0,015	-0,048
-502,926	147,974	0,048	0,047
-501,912	-200,000	0,022	0,084
-500,897	-93,207	0,056	-0,011
-499,883	-53,496	0,038	0,013
-498,868	-62,820	-0,054	0,016
-497,853	800,000	0,044	0,134
-496,839	-200,000	0,020	0,088
-495,824	-97,917	-0,021	-0,004
-494,810	-200,000	0,002	0,070
-493,795	-200,000	0,007	0,195
-492,781	-6,198	0,108	0,054
-491,766	237,776	0,102	0,123
-490,751	-49,835	-0,200	-0,069
-489,737	-101,030	0,113	-0,020
-488,722	348,567	0,088	0,126
-487,708	-99,643	0,084	-0,015
-486,693	-108,718	-0,047	-0,007
-485,678	-57,318	-0,211	0,067
-484,664	-21,173	-0,160	0,071
-483,649	-70,799	0,062	-0,017
-482,635	45,634	-0,039	0,026
-481,620	457,561	0,053	0,087
-480,605	620,305	-0,036	0,066
-479,591	-45,662	-0,030	-0,011
-478,576	-200,000	0,003	0,048
-477,562	187,335	-0,017	-0,019
-476,547	-146,593	-0,099	-0,006
-475,532	-200,000	0,023	0,078
-474,518	-200,000	0,048	0,160
-473,503	-200,000	-0,023	0,085
-472,489	800,000	0,047	0,145
-471,474	800,000	0,019	-0,045
-470,459	-162,165	-0,088	-0,003
-469,445	156,120	-0,021	-0,021
-468,430	-200,000	0,008	0,116
-467,416	-140,634	0,120	-0,009
-466,401	-10,640	0,034	-0,017
-465,386	-42,612	-0,039	-0,015
-464,372	800,000	0,042	-0,127
-463,357	-6,579	-0,128	0,063
-462,343	-200,000	0,017	-0,098
-461,328	-108,626	0,101	-0,016
-460,313	183,230	-0,050	0,054
-459,299	-31,688	-0,126	0,051
-458,284	-85,923	0,064	-0,014
-457,270	9,662	-0,054	0,030
-456,255	-200,000	-0,006	-0,133
-455,241	-126,111	-0,146	-0,016
-454,226	-165,661	0,018	-0,001
-453,211	137,126	-0,151	0,144
-452,197	116,588	0,052	0,047
-451,182	-200,000	-0,039	0,135
-450,168	-200,000	0,014	0,106
-449,153	-4,043	-0,043	0,022
-448,138	-200,000	0,027	-0,098
-447,124	502,661	0,011	-0,018
-446,109	-200,000	-0,011	0,074
-445,095	259,760	-0,027	-0,034
-444,080	-200,000	-0,020	0,112
-443,065	67,367	0,111	-0,083
-442,051	-200,000	0,019	-0,105
-441,036	-92,494	-0,032	-0,007
-440,022	64,349	-0,084	0,062
-439,007	143,451	0,055	0,054
-437,992	-200,000	-0,015	0,131
-436,978	-14,086	0,117	0,055
-435,963	-164,716	-0,144	0,005
-434,949	560,900	-0,031	0,055
-433,934	-200,000	-0,009	-0,040
-432,919	-200,000	-0,007	-0,122
-431,905	-200,000	-0,133	-0,000
-430,890	124,927	0,054	0,049
-429,876	721,601	0,052	0,102
-428,861	-175,052	0,139	-0,003
-427,846	144,226	-0,071	-0,069
-426,832	36,856	-0,103	-0,066
-425,817	435,659	0,031	0,048
-424,803	800,000	0,038	-0,083
-423,788	-176,644	0,125	-0,002
-422,773	-200,000	0,000	0,073
-421,759	-200,000	0,000	0,032
-420,744	182,937	-0,030	0,033
-419,730	-72,764	-0,032	0,009
-418,715	-81,658	-0,127	-0,030
-417,701	-200,000	0,007	0,083
-416,686	-17,304	0,076	0,034
-415,671	234,348	-0,034	-0,041
-414,657	-200,000	0,028	0,096
-413,642	-85,219	0,195	0,044
-412,628	29,944	-0,125	-0,077
-411,613	23,452	-0,049	0,029
-410,598	150,204	-0,060	-0,060
-409,584	800,000	0,014	0,043
-408,569	-24,795	-0,107	0,046
-407,555	656,627	-0,072	0,136
-406,540	-200,000	-0,003	0,021
-405,525	-200,000	0,009	-0,059
-404,511	-67,481	0,092	0,026
-403,496	-13,516	-0,107	-0,050
-402,482	-58,540	-0,080	-0,025
-401,467	-120,225	0,091	0,011
-400,452	195,109	0,108	0,119
-399,438	636,543	0,024	0,044
-398,423	-37,153	-0,005	0,002
-397,409	111,261	-0,074	0,065
-396,394	-18,405	-0,047	0,021
-395,379	19,209	-0,034	-0,020
-394,365	-200,000	-0,043	0,214
-393,350	355,574	-0,055	0,080
-392,336	-51,724	-0,063	0,021
-391,321	-161,563	0,112	0,004
-390,306	395,029	-0,087	0,132
-389,292	647,390	-0,031	-0,057
-388,277	51,819	-0,154	-0,107
-387,263	-200,000	-0,023	0,112
-386,248	800,000	0,022	0,066
-385,233	6,863	0,020	-0,011
-384,219	-200,000	-0,014	-0,071
-383,204	800,000	-0,035	-0,110
-382,190	800,000	0,019	-0,039
-381,175	-200,000	0,013	-0,105
-380,160	-200,000	0,020	0,069
-379,146	800,000	0,020	0,055
-378,131	373,752	-0,047	0,070
-377,117	800,000	-0,051	0,117
-376,102	800,000	0,038	0,111
-375,088	-200,000	0,025	-0,133
-374,073	-75,808	-0,113	0,029
-373,058	-2,580	0,131	-0,067
-372,044	-200,000	-0,038	0,159
-371,029	-6,967	0,017	0,008
-370,015	773,386	0,022	0,043
-369,000	270,467	0,095	0,122
-367,985	-135,962	-0,070	0,006
-366,971	503,505	-0,084	-0,142
-365,956	26,500	0,030	-0,018
-364,942	796,944	-0,018	0,036
-363,927	-200,000	0,002	0,029
-362,912	-46,231	-0,090	-0,032
-361,898	348,524	0,031	-0,045
-360,883	-129,850	-0,105	0,010
-359,869	-169,161	0,059	-0,002
-358,854	52,698	-0,055	0,038
-357,839	-200,000	-0,018	-0,058
-356,825	105,990	0,091	-0,078
-355,810	-151,773	-0,131	0,007
-354,796	72,229	0,032	0,024
-353,781	-105,130	0,027	-0,004
-352,766	-200,000	-0,016	-0,089
-351,752	-200,000	0,039	-0,133
-350,737	356,166	0,044	0,063
-349,723	39,080	0,131	0,085
-348,708	593,228	0,030	0,054
-347,693	-200,000	-0,002	-0,104
-346,679	100,868	-0,042	-0,036
-345,664	205,828	0,134	0,152
-344,650	108,092	-0,111	-0,096
-343,635	-100,230	0,160	0,029
-342,620	-200,000	0,099	0,000
-341,606	242,811	-0,072	-0,087
-340,591	156,741	-0,050	0,050
-339,577	-200,000	-0,028	-0,137
-338,562	800,000	-0,035	-0,111
-337,548	232,796	-0,012	-0,014
-336,533	-200,000	0,001	-0,047
-335,518	800,000	-0,049	0,119
-334,504	-92,083	0,032	-0,007
-333,489	-33,219	-0,151	-0,060
-332,475	25,035	-0,116	0,070
-331,460	-200,000	0,003	-0,075
-330,445	800,000	0,022	0,057
-329,431	103,485	0,113	0,096
-328,416	-200,000	-0,024	0,117
-327,402	-35,483	-0,048	-0,019
-326,387	144,758	0,112	0,109
-325,372	800,000	0,029	-0,064
-324,358	201,261	0,089	0,100
-323,343	18,268	-0,095	0,055
-322,329	140,854	0,024	-0,023
-321,314	405,831	0,072	0,110
-320,299	459,026	0,041	-0,067
-319,285	-200,000	0,006	0,033
-318,270	-25,375	-0,091	0,039
-317,256	269,149	-0,031	-0,040
-316,241	-200,000	0,041	-0,195
-315,226	-69,925	0,071	0,019
-314,212	-124,018	0,121	0,014
-313,197	-26,492	0,105	0,044
-312,183	507,173	0,035	0,059
-311,168	-5,906	-0,114	-0,056
-310,153	800,000	0,018	-0,043
-309,139	-133,171	-0,032	-0,003
-308,124	-200,000	0,002	0,109
-307,110	406,663	0,071	0,108
-306,095	-43,077	0,018	-0,006
-305,080	-200,000	0,039	0,143
-304,066	11,820	-0,137	0,076
-303,051	12,073	-0,051	0,028
-302,037	48,881	0,029	0,020
-301,022	130,543	-0,016	-0,015
-300,008	-49,568	0,040	-0,014
-298,993	-46,108	-0,111	-0,039
-297,978	-21,667	-0,054	0,024
-296,964	41,617	-0,097	-0,064
-295,949	-113,251	0,151	-0,021
-294,935	-80,916	-0,107	0,025
-293,920	17,883	0,063	-0,036
-292,905	237,092	0,091	-0,109
-291,891	580,532	0,020	-0,035
-290,876	81,037	-0,019	0,015
-289,862	134,115	-0,045	-0,042
-288,847	-170,784	0,038	-0,001
-287,832	800,000	-0,037	-0,106
-286,818	234,973	0,085	-0,102
-285,803	76,782	-0,008	0,006
-284,789	536,695	0,040	-0,069
-283,774	-159,303	0,117	-0,005
-282,759	800,000	-0,016	0,050
-281,745	-200,000	-0,146	-0,000
-280,730	-24,101	0,115	0,050
-279,716	800,000	0,030	0,066
-278,701	800,000	-0,017	0,050
-277,686	-16,138	-0,001	0,000
-276,672	-200,000	0,008	-0,044
-275,657	-90,490	-0,147	0,031
-274,643	257,261	0,021	0,026
-273,628	651,453	-0,059	-0,109
-272,613	-26,486	-0,105	-0,044
-271,599	800,000	0,039	-0,088
-270,584	47,112	0,093	-0,062
-269,570	-200,000	0,003	0,059
-268,555	44,462	0,031	-0,021
-267,540	-200,000	-0,017	0,084
-266,526	-200,000	0,027	-0,113
-265,511	1,649	0,110	0,057
-264,497	-49,453	0,029	0,010
-263,482	3,678	0,047	-0,025
-262,467	42,738	0,087	-0,057
-261,453	181,754	0,066	0,071
-260,438	-60,164	-0,033	0,010
-259,424	-200,000	-0,004	-0,015
-258,409	-200,000	-0,004	-0,037
-257,395	178,230	0,112	-0,118
-256,380	-45,507	0,084	-0,030
-255,365	-200,000	0,009	-0,093
-254,351	503,980	-0,037	-0,062
-253,336	-200,000	0,004	0,173
-252,322	44,876	0,029	-0,019
-251,307	-200,000	-0,013	0,054
-250,292	125,360	0,121	0,110
-249,278	-200,000	0,011	0,082
-248,263	-200,000	-0,010	0,085
-247,249	-83,060	0,065	0,015
-246,234	167,493	0,042	0,043
-245,219	49,058	-0,052	-0,035
-244,205	-200,000	0,039	-0,177
-243,190	-116,964	0,176	0,023
-242,176	44,696	-0,103	-0,069
-241,161	350,856	0,083	-0,118
-240,146	232,495	0,031	0,037
-239,132	187,879	-0,064	-0,069
-238,117	-200,000	0,003	0,013
-237,103	136,554	0,020	0,019
-236,088	67,463	0,070	0,051
-235,073	-200,000	-0,011	0,059
-234,059	70,974	-0,062	0,046
-233,044	-152,256	0,158	-0,008
-232,030	-84,966	-0,107	0,024
-231,015	594,989	-0,039	0,069
-230,000	-63,345	-0,118	0,035
-228,986	77,786	0,102	-0,079
-227,971	-112,187	0,048	-0,007
-226,957	26,669	-0,045	0,027
-225,942	36,094	0,089	0,057
-224,927	-16,107	0,116	0,053
-223,913	-200,000	0,024	-0,108
-222,898	-158,906	-0,099	0,004
-221,884	567,031	-0,045	0,079
-220,869	-70,429	0,053	-0,014
-219,855	339,157	-0,017	-0,024
-218,840	-16,104	-0,067	-0,031
-217,825	209,419	0,060	-0,068
-216,811	-200,000	0,001	0,009
-215,796	166,957	0,067	0,069
-214,782	800,000	0,025	-0,069
-213,767	148,497	-0,048	-0,047
-212,752	-96,175	0,066	-0,013
-211,738	79,129	0,044	0,034
-210,723	-200,000	-0,016	-0,065
-209,709	800,000	0,006	0,014
-208,694	800,000	-0,030	-0,083
-207,679	800,000	0,022	-0,059
-206,665	278,963	0,045	0,058
-205,650	800,000	-0,025	-0,054
-204,636	529,067	-0,019	0,033
-203,621	758,196	-0,033	0,065
-202,606	400,896	-0,037	0,056
-201,592	-23,179	-0,189	-0,082
-200,577	800,000	-0,034	-0,076
-199,563	800,000	0,044	0,132
-198,548	-200,000	-0,036	0,151
-197,533	-65,852	0,164	0,047
-196,519	-38,555	0,063	-0,024
-195,504	165,571	-0,104	0,106
-194,490	-31,687	-0,076	0,031
-193,475	-200,000	0,011	0,103
-192,460	267,757	0,073	0,093
-191,446	-154,887	-0,110	0,005
-190,431	23,550	0,103	0,061
-189,417	39,235	0,008	0,005
-188,402	-64,700	0,160	0,046
-187,387	453,367	0,022	0,036
-186,373	-92,041	-0,066	-0,013
-185,358	-200,000	0,017	0,100
-184,344	-6,023	0,064	-0,031
-183,329	-68,180	0,097	-0,027
-182,315	279,055	0,041	0,053
-181,300	229,202	0,161	-0,190
-180,285	-36,065	-0,118	-0,046
-179,271	-200,000	0,024	-0,138
-178,256	-200,000	-0,015	0,080
-177,242	171,734	-0,063	-0,065
-176,227	-200,000	-0,005	0,031
-175,212	-88,232	0,126	-0,027
-174,198	8,751	-0,060	0,032
-173,183	82,647	0,061	0,047
-172,169	-139,936	-0,171	0,013
-171,154	-134,021	0,120	0,011
-170,139	177,713	0,085	0,089
-169,125	4,464	0,027	-0,014
-168,110	267,142	0,068	-0,086
-167,096	-200,000	-0,010	-0,058
-166,081	-10,214	-0,146	-0,070
-165,066	-125,927	0,047	0,005
-164,052	64,748	0,014	0,010
-163,037	107,713	0,087	-0,075
-162,023	-137,537	0,135	0,011
-161,008	-30,941	-0,120	0,048
-159,993	124,797	0,053	-0,048
-158,979	-200,000	0,001	-0,009
-157,964	800,000	-0,029	-0,067
-156,950	800,000	-0,085	-0,186
-155,935	61,401	-0,081	-0,058
-154,920	800,000	0,033	0,078
-153,906	246,852	0,058	-0,071
-152,891	800,000	-0,029	-0,083
-151,877	-200,000	-0,004	0,053
-150,862	-38,056	-0,111	-0,042
-149,847	207,586	-0,127	-0,143
-148,833	-125,023	-0,149	0,016
-147,818	70,393	0,100	-0,074
-146,804	800,000	-0,043	0,099
-145,789	-168,417	0,020	0,001
-144,775	17,527	-0,020	0,011
-143,760	-31,372	-0,115	-0,046
-142,745	-200,000	-0,019	0,070
-141,731	36,385	-0,089	0,056
-140,716	800,000	-0,011	-0,026
-139,702	-147,965	0,113	0,007
-138,687	-28,942	0,022	0,009
-137,672	366,594	-0,050	0,074
-136,658	357,183	-0,094	-0,136
-135,643	800,000	0,028	-0,057
-134,629	-200,000	0,001	-0,003
-133,614	42,518	0,083	0,054
-132,599	410,281	-0,050	-0,076
-131,585	-67,475	0,061	0,017
-130,570	-138,892	-0,135	-0,010
-129,556	-2,679	-0,083	-0,041
-128,541	-200,000	0,008	-0,233
-127,526	-200,000	0,027	-0,099
-126,512	415,436	0,053	-0,082
-125,497	51,245	0,106	-0,072
-124,483	800,000	-0,007	-0,022
-123,468	456,824	0,034	-0,055
-122,453	-129,325	-0,065	0,006
-121,439	-200,000	-0,006	0,024
-120,424	-9,166	-0,097	-0,047
-119,410	-200,000	-0,001	-0,043
