DTS Sentinel unit serial number:	SN410029Multiplexer serial number:	ORYXHardware model number:	OX2-SRSoftware version number:	ORYX F/W v4,00 Oryx Data Collector v3.7.2.0data status	okinstallation	B5 Nyhavnadifferential loss correction	single-endedforward channel	channel 2reverse channel	N/Adate	2023/12/12time	02:02:13forward acquisition time	300,00reverse acquisition time	0,00gamma	499,1914k internal	0,3156k external	0,3156temperature offset calibration	1,0000default loss term (dB/km)	0,3820temperature slope calibration	1,0000multiplexer offset coefficient	1,0000multiplexer slope coefficient	1,0000fibre end	0,00T internal ref (°C)	15,82T ext. ref 1 (°C)	-0,65T ext. ref 2 (°C)	-0,92length (m)	temperature (°C)	Stokes	anti-Stokes-744,400	-146,789	0,117	0,007
-743,385	-119,723	-0,227	0,029
-742,371	-57,453	0,127	-0,041
-741,356	16,583	-0,232	0,135
-740,342	-16,182	0,178	0,083
-739,327	-99,078	-0,312	-0,058
-738,312	-200,000	-0,007	0,091
-737,298	-121,790	-0,180	0,022
-736,283	-200,000	0,036	0,137
-735,269	-158,461	-0,255	0,011
-734,254	186,456	0,078	0,086
-733,239	-182,072	-0,391	0,005
-732,225	-5,421	0,198	0,100
-731,210	11,803	0,149	0,084
-730,196	800,000	0,037	-0,102
-729,181	800,000	0,047	-0,138
-728,167	-73,656	-0,035	-0,009
-727,152	-75,542	0,071	0,018
-726,137	-182,478	-0,123	-0,002
-725,123	800,000	-0,026	-0,072
-724,108	-98,873	-0,034	0,006
-723,094	-200,000	-0,002	-0,033
-722,079	-200,000	-0,037	-0,154
-721,064	-200,000	0,040	-0,155
-720,050	671,776	0,058	0,112
-719,035	-200,000	-0,005	0,079
-718,021	-127,591	-0,051	-0,005
-717,006	203,641	-0,070	0,080
-715,991	-144,046	-0,201	-0,014
-714,977	-13,702	-0,112	-0,053
-713,962	-200,000	-0,001	0,081
-712,948	304,291	0,028	0,039
-711,933	304,420	0,042	-0,058
-710,918	-25,944	-0,093	-0,040
-709,904	-42,087	-0,050	-0,019
-708,889	-88,945	-0,145	-0,031
-707,875	30,355	0,156	-0,098
-706,860	367,568	-0,050	-0,074
-705,845	271,876	0,127	0,166
-704,831	-0,342	0,121	0,063
-703,816	-200,000	0,005	-0,020
-702,802	-161,452	-0,023	0,001
-701,787	46,782	0,028	-0,019
-700,772	256,173	-0,037	-0,047
-699,758	800,000	0,031	-0,074
-698,743	-16,250	-0,031	-0,015
-697,729	126,653	0,086	0,080
-696,714	-200,000	-0,041	0,157
-695,699	82,328	-0,081	-0,064
-694,685	216,268	-0,035	-0,041
-693,670	624,930	-0,055	0,102
-692,656	-200,000	0,000	0,030
-691,641	177,034	0,069	0,074
-690,627	-118,666	0,024	-0,003
-689,612	800,000	0,025	0,079
-688,597	379,019	0,048	0,072
-687,583	-144,581	-0,034	0,002
-686,568	-200,000	0,015	-0,071
-685,554	-200,000	-0,002	-0,032
-684,539	201,233	0,064	0,073
-683,524	9,021	0,014	0,008
-682,510	11,401	-0,066	0,037
-681,495	38,000	-0,029	0,019
-680,481	100,484	-0,094	-0,080
-679,466	800,000	-0,056	-0,144
-678,451	-200,000	0,016	-0,099
-677,437	342,791	-0,065	0,095
-676,422	308,023	0,110	0,151
-675,408	18,077	-0,093	-0,054
-674,393	800,000	0,023	-0,072
-673,378	-98,715	-0,100	-0,019
-672,364	-200,000	-0,026	-0,157
-671,349	382,029	0,042	0,063
-670,335	50,607	-0,050	-0,035
-669,320	186,595	-0,087	-0,095
-668,305	170,016	0,085	-0,090
-667,291	-52,946	-0,142	0,048
-666,276	-32,739	-0,077	-0,031
-665,262	-90,583	-0,170	0,036
-664,247	800,000	0,034	-0,082
-663,232	19,130	-0,105	0,062
-662,218	130,805	0,077	-0,073
-661,203	-72,194	0,089	0,024
-660,189	-200,000	-0,001	0,014
-659,174	22,644	-0,151	-0,091
-658,159	800,000	-0,079	-0,206
-657,145	43,734	0,014	-0,009
-656,130	-200,000	0,009	-0,046
-655,116	54,057	-0,066	-0,047
-654,101	-9,224	0,080	-0,039
-653,086	597,508	-0,083	0,151
-652,072	212,489	-0,059	0,068
-651,057	800,000	-0,034	-0,079
-650,043	-137,388	0,068	0,006
-649,028	173,523	-0,089	0,094
-648,014	-34,039	-0,108	-0,043
-646,999	800,000	0,021	-0,055
-645,984	566,981	-0,052	-0,093
-644,970	-48,963	-0,126	0,044
-643,955	800,000	-0,032	-0,097
-642,941	-15,909	0,050	0,023
-641,926	-200,000	0,001	0,052
-640,911	800,000	-0,026	0,070
-639,897	-200,000	-0,026	0,099
-638,882	114,843	-0,064	0,057
-637,868	39,056	0,022	-0,014
-636,853	7,441	-0,079	0,043
-635,838	-145,743	-0,087	0,006
-634,824	406,048	0,049	0,077
-633,809	-25,511	-0,087	-0,038
-632,795	-147,941	0,065	-0,004
-631,780	-200,000	-0,027	0,091
-630,765	800,000	-0,020	-0,065
-629,751	800,000	0,042	-0,120
-628,736	18,892	-0,084	0,049
-627,722	-99,489	-0,028	0,005
-626,707	-58,146	0,044	0,014
-625,692	-200,000	0,015	0,056
-624,678	800,000	0,026	0,067
-623,663	-115,356	0,180	0,025
-622,649	-200,000	0,012	-0,048
-621,634	-200,000	-0,016	-0,060
-620,619	124,709	-0,089	-0,082
-619,605	-130,385	0,060	-0,006
-618,590	800,000	-0,018	-0,048
-617,576	-161,454	0,117	0,004
-616,561	-150,771	0,128	-0,007
-615,546	12,375	0,035	-0,020
-614,532	114,064	-0,139	-0,124
-613,517	-72,755	0,054	0,015
-612,503	-200,000	0,001	-0,097
-611,488	454,647	0,073	0,118
-610,474	-200,000	0,028	0,103
-609,459	455,284	0,073	0,120
-608,444	-200,000	-0,008	-0,049
-607,430	49,984	-0,095	0,066
-606,415	95,700	-0,064	-0,053
-605,401	63,356	-0,134	-0,099
-604,386	-164,292	0,141	-0,005
-603,371	73,276	-0,065	0,050
-602,357	164,285	-0,095	-0,099
-601,342	-200,000	0,037	-0,127
-600,328	-200,000	-0,021	-0,140
-599,313	15,602	0,146	0,084
-598,298	-53,905	-0,153	0,051
-597,284	-200,000	-0,027	0,088
-596,269	800,000	-0,009	0,023
-595,255	186,533	0,030	-0,032
-594,240	-68,180	-0,110	-0,031
-593,225	-30,156	0,063	0,026
-592,211	-62,265	0,094	-0,028
-591,196	438,394	-0,058	-0,094
-590,182	-39,528	0,179	-0,068
-589,167	263,094	-0,017	0,022
-588,152	-200,000	-0,022	-0,079
-587,138	538,175	-0,038	0,066
-586,123	60,491	0,065	-0,047
-585,109	96,983	-0,142	-0,119
-584,094	13,394	0,068	-0,039
-583,079	-200,000	-0,004	0,049
-582,065	-200,000	0,001	0,147
-581,050	58,064	0,081	0,058
-580,036	14,105	-0,061	-0,035
-579,021	-200,000	-0,001	-0,011
-578,006	142,213	-0,117	-0,114
-576,992	-19,372	0,016	-0,007
-575,977	-200,000	-0,001	-0,099
-574,963	-152,190	0,116	0,006
-573,948	-21,510	-0,042	0,019
-572,934	800,000	0,042	-0,087
-571,919	139,583	-0,070	0,067
-570,904	800,000	-0,028	0,078
-569,890	5,879	0,054	0,029
-568,875	707,737	0,025	-0,048
-567,861	-24,158	0,099	-0,043
-566,846	222,866	-0,057	0,068
-565,831	112,257	-0,065	-0,057
-564,817	-88,818	-0,082	-0,018
-563,802	232,970	0,091	-0,110
-562,788	47,472	0,111	-0,076
-561,773	-200,000	0,007	-0,140
-560,758	-200,000	0,011	-0,041
-559,744	301,494	-0,031	0,043
-558,729	131,101	-0,043	-0,041
-557,715	599,356	0,039	0,072
-556,700	800,000	0,014	0,036
-555,685	49,334	-0,050	0,034
-554,671	-128,440	-0,035	-0,004
-553,656	-47,397	0,046	-0,016
-552,642	800,000	0,087	0,263
-551,627	-36,717	-0,100	0,039
-550,612	147,910	-0,014	0,014
-549,598	800,000	-0,037	-0,092
-548,583	-200,000	0,015	-0,079
-547,569	-75,708	-0,087	0,022
-546,554	14,194	0,175	0,099
-545,539	271,011	0,045	-0,058
-544,525	800,000	0,023	0,050
-543,510	120,081	0,056	-0,051
-542,496	-64,365	-0,177	-0,052
-541,481	-200,000	0,049	-0,190
-540,466	134,111	0,074	-0,070
-539,452	-62,904	0,061	0,018
-538,437	61,237	-0,109	-0,079
-537,423	419,719	0,033	0,051
-536,408	-22,723	-0,111	0,049
-535,393	189,614	0,058	0,063
-534,379	-200,000	0,002	0,029
-533,364	-127,881	-0,046	-0,005
-532,350	112,142	-0,101	0,090
-531,335	239,744	0,052	-0,063
-530,321	137,380	0,072	0,068
-529,306	-200,000	0,004	-0,042
-528,291	800,000	0,045	-0,113
-527,277	-200,000	0,043	-0,227
-526,262	-200,000	0,007	0,056
-525,248	-31,171	-0,017	-0,007
-524,233	-109,352	0,127	-0,020
-523,218	-200,000	0,034	-0,148
-522,204	164,270	0,075	0,077
-521,189	86,542	-0,084	0,068
-520,175	-13,920	0,041	-0,019
-519,160	-200,000	-0,006	-0,056
-518,145	-105,425	0,085	0,014
-517,131	436,067	-0,017	-0,027
-516,116	-200,000	-0,011	-0,039
-515,102	-44,523	-0,039	0,014
-514,087	95,019	0,121	-0,101
-513,072	-200,000	-0,014	-0,087
-512,058	275,336	0,059	-0,077
-511,043	493,179	-0,006	-0,011
-510,029	518,836	-0,058	0,100
-509,014	98,225	0,020	0,017
-507,999	-55,700	0,165	-0,054
-506,985	800,000	-0,024	-0,078
-505,970	-105,683	-0,076	0,012
-504,956	-200,000	-0,043	-0,153
-503,941	-2,255	-0,060	-0,030
-502,926	-68,147	0,155	0,044
-501,912	87,915	-0,064	0,052
-500,897	7,061	0,064	0,035
-499,883	259,552	-0,031	0,039
-498,868	33,739	0,052	-0,033
-497,853	-61,629	0,078	0,024
-496,839	-200,000	0,039	-0,142
-495,824	81,857	0,017	-0,014
-494,810	-169,758	-0,046	0,001
-493,795	-97,797	-0,025	-0,005
-492,781	-56,482	-0,014	0,005
-491,766	-7,065	-0,026	-0,013
-490,751	-156,243	0,067	0,003
-489,737	200,282	-0,026	-0,029
-488,722	101,843	0,148	0,126
-487,708	617,609	0,070	0,129
-486,693	-80,360	-0,096	-0,023
-485,678	688,823	-0,011	0,021
-484,664	-9,878	0,083	-0,040
-483,649	800,000	0,026	-0,065
-482,635	238,307	0,057	0,069
-481,620	-200,000	0,046	0,178
-480,605	-200,000	-0,015	0,126
-479,591	-200,000	-0,011	-0,052
-478,576	-200,000	0,031	0,139
-477,562	-12,459	-0,082	-0,039
-476,547	-200,000	0,016	-0,095
-475,532	617,907	-0,032	-0,059
-474,518	371,183	-0,070	-0,104
-473,503	-21,372	0,114	0,051
-472,489	463,334	0,033	-0,053
-471,474	-200,000	-0,041	-0,179
-470,459	800,000	-0,030	-0,064
-469,445	134,437	-0,093	-0,088
-468,430	-200,000	0,012	-0,054
-467,416	291,653	0,051	0,068
-466,401	357,731	0,039	0,057
-465,386	76,644	0,101	0,078
-464,372	-200,000	-0,017	0,056
-463,357	-23,319	-0,085	-0,037
-462,343	-108,336	0,119	-0,018
-461,328	800,000	0,020	0,042
-460,313	-200,000	0,015	-0,118
-459,299	428,469	-0,009	-0,014
-458,284	-200,000	0,002	0,014
-457,270	412,426	-0,066	-0,102
-456,255	-114,351	-0,173	-0,024
-455,241	276,095	-0,021	0,027
-454,226	335,328	-0,091	-0,130
-453,211	800,000	0,026	-0,064
-452,197	-8,984	0,050	-0,025
-451,182	-200,000	-0,006	0,046
-450,168	133,255	0,118	0,111
-449,153	-68,643	-0,138	-0,039
-448,138	-200,000	-0,005	0,034
-447,124	-79,362	-0,085	-0,021
-446,109	111,836	0,055	-0,048
-445,095	-200,000	-0,002	-0,032
-444,080	279,385	-0,059	0,077
-443,065	-200,000	0,024	-0,141
-442,051	800,000	0,029	0,062
-441,036	-64,294	-0,069	-0,020
-440,022	-200,000	-0,004	0,022
-439,007	599,055	0,052	-0,094
-437,992	-135,736	0,065	-0,006
-436,978	800,000	-0,027	0,059
-435,963	-85,075	-0,104	-0,024
-434,949	693,950	0,071	-0,137
-433,934	752,168	-0,038	-0,074
-432,919	-200,000	-0,016	0,055
-431,905	-85,444	0,080	0,018
-430,890	-106,589	0,077	0,012
-429,876	354,079	0,059	0,085
-428,861	-98,269	0,086	0,016
-427,846	356,351	-0,038	-0,055
-426,832	-47,342	0,021	-0,008
-425,817	163,260	0,033	-0,033
-424,803	105,051	0,133	-0,114
-423,788	800,000	-0,018	0,045
-422,773	707,425	0,111	0,214
-421,759	-200,000	-0,015	0,061
-420,744	-104,865	-0,053	-0,009
-419,730	-200,000	-0,047	0,154
-418,715	84,963	0,035	-0,028
-417,701	-11,577	-0,085	0,041
-416,686	-200,000	0,002	0,080
-415,671	-200,000	-0,036	-0,166
-414,657	-200,000	-0,039	0,138
-413,642	-200,000	0,014	0,137
-412,628	147,940	0,064	-0,063
-411,613	-60,523	-0,084	0,026
-410,598	66,337	-0,085	-0,063
-409,584	-21,333	-0,050	0,022
-408,569	10,976	0,099	0,055
-407,555	-95,353	-0,245	-0,048
-406,540	-200,000	-0,016	-0,111
-405,525	-200,000	0,013	-0,154
-404,511	-200,000	-0,008	0,052
-403,496	54,766	-0,040	0,028
-402,482	210,076	0,114	-0,130
-401,467	158,429	-0,065	0,066
-400,452	553,742	-0,076	-0,133
-399,438	-133,617	0,077	0,007
-398,423	414,669	-0,057	-0,088
-397,409	518,591	0,070	0,120
-396,394	-200,000	0,004	-0,170
-395,379	-200,000	0,012	0,082
-394,365	385,060	0,047	0,071
-393,350	-200,000	0,003	0,085
-392,336	800,000	0,037	0,080
-391,321	800,000	0,027	0,066
-390,306	64,537	-0,124	-0,091
-389,292	-200,000	0,000	-0,025
-388,277	-146,135	0,087	-0,005
-387,263	86,332	-0,023	0,018
-386,248	-200,000	-0,008	0,220
-385,233	-86,219	0,012	-0,003
-384,219	443,100	-0,066	0,105
-383,204	649,543	-0,033	-0,062
-382,190	-89,693	-0,107	-0,023
-381,175	44,018	-0,053	-0,036
-380,160	323,423	-0,071	0,098
-379,146	78,455	0,136	0,106
-378,131	-80,139	0,100	-0,024
-377,117	228,111	-0,130	0,155
-376,102	363,169	0,020	0,029
-375,088	-19,473	0,022	0,010
-374,073	-47,879	-0,145	0,051
-373,058	42,393	0,117	0,077
-372,044	-200,000	-0,025	0,169
-371,029	-200,000	0,035	0,115
-370,015	142,096	-0,115	0,111
-369,000	343,614	-0,071	0,102
-367,985	155,459	-0,096	-0,096
-366,971	-44,062	-0,068	-0,025
-365,956	3,111	0,054	0,029
-364,942	309,896	-0,055	0,074
-363,927	-200,000	-0,002	-0,014
-362,912	-200,000	-0,017	0,083
-361,898	-134,747	-0,114	-0,010
-360,883	-102,266	-0,127	0,022
-359,869	800,000	0,006	-0,013
-358,854	333,094	-0,018	-0,026
-357,839	-40,385	0,090	0,034
-356,825	-171,390	-0,123	-0,003
-355,810	260,977	-0,042	-0,052
-354,796	433,430	0,062	-0,099
-353,781	800,000	0,027	0,066
-352,766	-200,000	-0,010	0,044
-351,752	-200,000	0,024	0,097
-350,737	524,226	0,110	0,188
-349,723	-200,000	0,003	-0,059
-348,708	-129,021	0,080	0,008
-347,693	444,438	-0,043	0,070
-346,679	593,904	-0,041	0,074
-345,664	46,426	0,066	0,045
-344,650	273,723	-0,036	-0,047
-343,635	553,482	-0,004	0,006
-342,620	-200,000	0,004	-0,161
-341,606	172,938	0,102	-0,107
-340,591	-200,000	0,000	-0,014
-339,577	800,000	0,041	-0,109
-338,562	441,024	0,101	-0,160
-337,548	-200,000	0,051	-0,181
-336,533	-200,000	0,041	-0,140
-335,518	-68,674	-0,099	-0,028
-334,504	-199,171	-0,028	0,000
-333,489	-200,000	-0,036	0,196
-332,475	-200,000	0,006	-0,169
-331,460	-28,347	0,169	0,071
-330,445	-129,884	-0,040	-0,004
-329,431	800,000	0,043	0,137
-328,416	122,757	0,069	0,063
-327,402	268,190	-0,072	0,092
-326,387	-83,746	0,059	0,014
-325,372	211,335	-0,077	0,088
-324,358	800,000	-0,027	-0,058
-323,343	-200,000	0,023	0,137
-322,329	-150,339	-0,041	0,002
-321,314	800,000	0,066	0,176
-320,299	88,667	0,094	-0,076
-319,285	-97,282	0,084	0,016
-318,270	605,878	-0,060	-0,108
-317,256	-200,000	0,009	-0,226
-316,241	-200,000	0,005	-0,034
-315,226	64,655	0,104	0,076
-314,212	-31,355	0,095	-0,039
-313,197	146,216	0,039	-0,038
-312,183	-30,776	0,029	-0,012
-311,168	-166,829	-0,093	0,003
-310,153	55,969	-0,110	0,077
-309,139	68,145	-0,083	0,062
-308,124	-81,469	0,128	-0,030
-307,110	800,000	0,018	0,051
-306,095	-200,000	0,013	0,061
-305,080	-33,932	-0,048	0,019
-304,066	-200,000	0,032	-0,108
-303,051	-200,000	-0,038	-0,150
-302,037	81,604	0,060	0,047
-301,022	-3,090	-0,055	-0,028
-300,008	-142,191	0,079	0,006
-298,993	800,000	0,080	-0,181
-297,978	-116,838	-0,104	0,014
-296,964	671,879	0,039	-0,073
-295,949	-200,000	0,026	0,114
-294,935	-200,000	-0,012	-0,126
-293,920	-61,759	0,054	-0,016
-292,905	800,000	-0,032	0,097
-291,891	-55,162	-0,072	0,023
-290,876	-48,578	-0,086	0,030
-289,862	800,000	-0,017	0,041
-288,847	173,416	0,039	-0,041
-287,832	800,000	-0,014	-0,035
-286,818	518,807	-0,050	-0,086
-285,803	292,595	-0,146	0,194
-284,789	-200,000	0,003	-0,092
-283,774	209,443	-0,099	0,113
-282,759	66,053	0,077	-0,057
-281,745	130,021	-0,082	-0,076
-280,730	-78,663	0,123	0,030
-279,716	115,197	0,089	-0,079
-278,701	-200,000	0,036	-0,118
-277,686	280,517	-0,052	0,067
-276,672	-200,000	-0,007	-0,041
-275,657	800,000	0,022	0,065
-274,643	-175,480	0,062	0,001
-273,628	-33,087	0,071	-0,029
-272,613	-200,000	0,024	-0,221
-271,599	-48,594	0,046	-0,016
-270,584	-39,877	-0,040	0,015
-269,570	-200,000	-0,001	0,128
-268,555	800,000	-0,026	-0,064
-267,540	800,000	-0,042	0,108
-266,526	-155,628	0,080	-0,004
-265,511	-62,223	0,162	0,048
-264,497	800,000	0,071	0,163
-263,482	1,537	0,069	-0,036
-262,467	-12,127	-0,135	0,064
-261,453	688,556	-0,119	0,226
-260,438	214,470	0,027	-0,031
-259,424	-200,000	-0,016	-0,062
-258,409	471,190	0,029	0,048
-257,395	289,793	-0,075	0,098
-256,380	164,118	0,009	-0,009
-255,365	79,704	-0,029	0,023
-254,351	-200,000	-0,001	-0,130
-253,336	800,000	0,025	-0,071
-252,322	-200,000	-0,004	0,037
-251,307	368,532	0,054	-0,079
-250,292	295,360	0,047	-0,062
-249,278	800,000	0,071	0,166
-248,263	300,980	0,032	0,043
-247,249	800,000	-0,020	-0,051
-246,234	-200,000	0,001	0,069
-245,219	-57,419	-0,081	0,026
-244,205	315,191	-0,071	-0,097
-243,190	-153,488	0,053	-0,003
-242,176	313,778	0,098	0,133
-241,161	381,425	-0,007	0,011
-240,146	-200,000	0,006	-0,041
-239,132	-77,312	-0,087	-0,022
-238,117	-200,000	0,031	0,119
-237,103	44,129	-0,085	0,057
-236,088	-99,517	-0,117	-0,021
-235,073	-101,549	0,137	-0,024
-234,059	750,188	0,072	0,141
-233,044	608,110	0,062	0,112
-232,030	-85,575	-0,141	0,032
-231,015	-79,817	-0,068	0,016
-230,000	418,215	0,041	-0,063
-228,986	800,000	-0,049	0,137
-227,971	5,691	-0,058	0,031
-226,957	-200,000	-0,008	0,033
-225,942	-32,937	0,050	0,020
-224,927	157,334	-0,067	0,067
-223,913	-200,000	0,007	-0,129
-222,898	-73,364	0,082	-0,022
-221,884	116,267	-0,080	-0,071
-220,869	24,355	-0,066	0,039
-219,855	43,715	0,069	0,046
-218,840	-200,000	0,006	0,066
-217,825	-200,000	-0,017	0,142
-216,811	141,205	0,056	-0,053
-215,796	124,725	-0,081	0,074
-214,782	350,334	-0,021	0,030
-213,767	-75,324	0,072	-0,018
-212,752	-200,000	0,010	-0,147
-211,738	258,596	0,129	-0,161
-210,723	313,740	-0,048	-0,066
-209,709	569,004	-0,059	-0,104
-208,694	-8,830	0,076	-0,037
-207,679	-140,058	0,098	-0,007
-206,665	233,033	-0,042	-0,051
-205,650	235,811	-0,093	-0,111
-204,636	22,536	-0,078	-0,046
-203,621	-200,000	-0,007	0,142
-202,606	-101,429	0,020	0,003
-201,592	139,836	-0,076	-0,072
-200,577	800,000	0,042	-0,093
-199,563	-145,758	-0,075	0,005
-198,548	-200,000	-0,024	0,090
-197,533	800,000	-0,045	0,092
-196,519	800,000	-0,045	0,109
-195,504	-81,776	0,048	0,011
-194,490	-200,000	-0,000	-0,078
-193,475	183,567	0,069	0,074
-192,460	-200,000	0,003	0,024
-191,446	-96,172	-0,126	0,024
-190,431	-200,000	-0,007	0,042
-189,417	-30,342	0,024	0,010
-188,402	-200,000	0,003	-0,043
-187,387	-6,279	-0,171	-0,084
-186,373	-97,090	0,094	-0,018
-185,358	273,302	0,082	-0,105
-184,344	107,576	0,123	-0,106
-183,329	87,318	-0,124	-0,099
-182,315	-44,307	0,150	0,054
-181,300	107,094	-0,063	0,054
-180,285	-67,532	0,120	-0,034
-179,271	-68,640	-0,080	-0,022
-178,256	277,694	-0,042	0,054
-177,242	129,206	-0,042	0,039
-176,227	130,086	0,009	-0,009
-175,212	114,749	-0,146	0,128
-174,198	36,129	-0,066	0,042
-173,183	29,810	0,034	0,021
-172,169	371,759	-0,088	-0,130
-171,154	-130,555	0,011	-0,001
-170,139	-200,000	0,004	0,029
-169,125	-200,000	0,010	-0,041
-168,110	-200,000	-0,005	0,016
-167,096	203,460	-0,036	-0,040
-166,081	-58,359	0,102	0,032
-165,066	174,016	-0,089	-0,093
-164,052	-119,115	-0,010	-0,001
-163,037	-43,539	-0,047	-0,017
-162,023	208,267	0,076	0,086
-161,008	-71,554	0,097	-0,026
-159,993	120,299	-0,061	-0,055
-158,979	800,000	-0,012	-0,026
-157,964	94,072	-0,059	0,049
-156,950	204,629	0,073	0,082
-155,935	221,838	0,085	0,099
-154,920	156,898	-0,093	0,093
-153,906	-200,000	-0,010	0,092
-152,891	-200,000	0,021	0,070
-151,877	43,310	0,140	-0,092
-150,862	612,066	0,069	-0,126
-149,847	-200,000	0,020	-0,152
-148,833	-105,994	0,071	0,011
-147,818	202,444	-0,102	0,114
-146,804	-20,941	0,034	-0,015
-145,789	-155,486	-0,130	0,006
-144,775	30,802	0,073	-0,045
-143,760	-200,000	-0,034	-0,136
-142,745	188,800	-0,129	-0,139
-141,731	22,024	0,058	0,034
-140,716	193,168	0,037	-0,040
-139,702	-5,155	0,206	-0,102
-138,687	256,329	0,068	-0,084
-137,672	550,146	-0,056	0,097
-136,658	-26,365	-0,052	-0,022
-135,643	-200,000	0,010	-0,145
-134,629	115,028	0,019	0,017
-133,614	259,624	0,066	0,082
-132,599	23,198	0,089	-0,053
-131,585	-48,895	-0,114	0,039
-130,570	800,000	0,037	-0,077
-129,556	-80,656	-0,115	-0,027
-128,541	-200,000	-0,006	-0,101
-127,526	-200,000	-0,009	0,059
-126,512	-200,000	-0,010	0,049
-125,497	-200,000	0,016	-0,055
-124,483	43,745	-0,080	-0,053
-123,468	-87,035	0,044	0,010
-122,453	-51,006	-0,102	0,034
-121,439	9,280	0,144	0,078
-120,424	30,539	-0,084	0,052
-119,410	96,336	0,098	0,081
