DTS Sentinel unit serial number:	SN410029Multiplexer serial number:	ORYXHardware model number:	OX2-SRSoftware version number:	ORYX F/W v4,00 Oryx Data Collector v3.7.2.0data status	okinstallation	B5 Nyhavnadifferential loss correction	single-endedforward channel	channel 2reverse channel	N/Adate	2023/12/11time	20:57:13forward acquisition time	300,00reverse acquisition time	0,00gamma	499,1914k internal	0,3157k external	0,3157temperature offset calibration	1,0000default loss term (dB/km)	0,3820temperature slope calibration	1,0000multiplexer offset coefficient	1,0000multiplexer slope coefficient	1,0000fibre end	0,00T internal ref (°C)	16,12T ext. ref 1 (°C)	0,25T ext. ref 2 (°C)	-0,01length (m)	temperature (°C)	Stokes	anti-Stokes-744,400	800,000	0,014	-0,039
-743,385	-6,283	-0,230	0,115
-742,371	800,000	-0,001	-0,003
-741,356	-97,592	-0,105	0,020
-740,342	800,000	0,073	0,187
-739,327	-111,355	-0,468	0,070
-738,312	-18,631	-0,042	0,019
-737,298	-112,176	-0,341	-0,050
-736,283	-200,000	-0,008	0,080
-735,269	33,159	-0,239	0,153
-734,254	143,621	0,030	0,029
-733,239	-0,148	-0,490	-0,256
-732,225	48,738	0,076	0,052
-731,210	151,313	0,080	-0,080
-730,196	800,000	0,038	-0,084
-729,181	800,000	-0,037	0,107
-728,167	41,705	-0,082	-0,055
-727,152	122,079	-0,015	0,014
-726,137	-65,345	-0,172	-0,051
-725,123	-200,000	0,008	-0,055
-724,108	-200,000	-0,018	-0,084
-723,094	380,711	-0,097	-0,147
-722,079	369,452	0,011	-0,017
-721,064	-48,086	-0,082	-0,029
-720,050	439,425	0,066	0,106
-719,035	29,174	-0,058	0,036
-718,021	115,805	0,096	-0,086
-717,006	19,041	-0,132	0,078
-715,991	-51,785	0,008	-0,003
-714,977	-51,181	-0,099	-0,034
-713,962	-148,981	-0,072	0,004
-712,948	339,442	0,021	0,031
-711,933	5,158	-0,154	0,083
-710,918	71,986	0,083	0,063
-709,904	800,000	-0,029	-0,086
-708,889	63,421	0,006	-0,004
-707,875	-200,000	-0,005	-0,076
-706,860	-43,040	0,059	0,022
-705,845	-200,000	0,004	-0,043
-704,831	687,686	0,069	0,133
-703,816	29,667	-0,092	0,058
-702,802	-68,543	-0,087	-0,025
-701,787	800,000	0,037	-0,115
-700,772	-200,000	-0,024	-0,107
-699,758	499,468	-0,057	0,097
-698,743	-11,298	0,147	0,071
-697,729	-200,000	0,048	0,161
-696,714	-200,000	-0,023	-0,076
-695,699	279,420	-0,015	-0,020
-694,685	152,681	-0,071	0,072
-693,670	-130,236	0,088	-0,009
-692,656	-200,000	0,007	-0,100
-691,641	-49,475	-0,041	0,014
-690,627	-157,588	-0,189	-0,008
-689,612	-200,000	-0,012	0,137
-688,597	-200,000	-0,005	-0,117
-687,583	-16,710	-0,051	0,024
-686,568	800,000	-0,031	-0,064
-685,554	288,802	-0,064	-0,086
-684,539	354,884	0,039	0,058
-683,524	20,058	0,175	0,103
-682,510	50,789	-0,106	0,074
-681,495	-200,000	0,047	-0,181
-680,481	34,060	0,052	-0,034
-679,466	52,898	0,066	-0,047
-678,451	8,552	0,060	-0,033
-677,437	147,877	0,039	0,039
-676,422	-151,548	0,220	0,012
-675,408	-144,416	-0,027	0,002
-674,393	5,447	-0,054	0,029
-673,378	654,624	0,023	-0,044
-672,364	-200,000	-0,007	-0,061
-671,349	484,799	0,050	-0,084
-670,335	53,860	-0,083	-0,058
-669,320	0,256	0,060	-0,031
-668,305	800,000	-0,033	0,083
-667,291	348,267	0,039	0,056
-666,276	-200,000	-0,005	-0,039
-665,262	-103,692	-0,070	-0,012
-664,247	305,088	0,067	0,092
-663,232	800,000	-0,048	0,119
-662,218	-10,449	-0,164	0,079
-661,203	-115,429	0,026	-0,004
-660,189	259,412	-0,045	-0,058
-659,174	31,485	-0,093	0,059
-658,159	60,897	-0,070	-0,051
-657,145	43,884	-0,066	-0,044
-656,130	-138,938	0,070	-0,005
-655,116	800,000	-0,057	-0,162
-654,101	214,198	0,066	-0,077
-653,086	77,050	-0,134	-0,105
-652,072	391,851	-0,038	0,058
-651,057	106,179	-0,061	-0,053
-650,043	513,426	-0,021	-0,037
-649,028	800,000	0,075	-0,201
-648,014	400,423	0,039	-0,060
-646,999	49,282	0,040	0,027
-645,984	53,796	-0,076	0,053
-644,970	-30,165	-0,011	-0,005
-643,955	-40,041	-0,116	-0,044
-642,941	800,000	0,028	-0,075
-641,926	232,160	0,067	0,081
-640,911	-54,036	0,046	-0,015
-639,897	-81,403	0,048	-0,012
-638,882	685,301	-0,055	0,106
-637,868	161,772	-0,077	-0,079
-636,853	-200,000	-0,007	0,042
-635,838	155,434	-0,127	-0,129
-634,824	10,655	0,037	-0,020
-633,809	243,377	-0,024	0,029
-632,795	-37,885	0,154	0,060
-631,780	-200,000	0,003	-0,074
-630,765	-148,986	-0,043	-0,002
-629,751	-200,000	-0,011	0,080
-628,736	-200,000	-0,007	-0,064
-627,722	800,000	-0,043	-0,093
-626,707	-17,343	-0,063	-0,029
-625,692	-200,000	0,037	0,146
-624,678	62,588	0,119	0,087
-623,663	-16,403	0,118	0,055
-622,649	54,367	-0,125	0,088
-621,634	666,204	-0,043	0,082
-620,619	-123,449	-0,143	-0,017
-619,605	17,176	0,067	-0,039
-618,590	181,033	0,026	0,028
-617,576	43,237	-0,101	-0,067
-616,561	-85,060	-0,141	-0,032
-615,546	-12,326	-0,016	0,008
-614,532	362,468	0,044	-0,065
-613,517	27,182	-0,090	0,055
-612,503	-200,000	0,007	0,067
-611,488	-115,939	-0,068	-0,009
-610,474	7,936	-0,060	0,033
-609,459	97,576	0,059	0,050
-608,444	-200,000	-0,005	0,026
-607,430	800,000	-0,030	-0,072
-606,415	-200,000	0,006	0,146
-605,401	75,416	0,119	0,092
-604,386	668,759	0,034	0,065
-603,371	161,257	0,008	-0,008
-602,357	-157,687	-0,141	0,006
-601,342	800,000	0,026	-0,082
-600,328	110,727	-0,063	-0,056
-599,313	-4,359	-0,044	0,022
-598,298	-200,000	-0,001	-0,170
-597,284	222,572	0,101	0,120
-596,269	-200,000	-0,022	0,175
-595,255	50,160	0,087	-0,060
-594,240	179,190	-0,039	-0,042
-593,225	-70,336	-0,028	-0,008
-592,211	98,844	0,153	0,129
-591,196	-104,988	0,115	-0,019
-590,182	-148,516	0,066	0,004
-589,167	-200,000	0,006	0,130
-588,152	-200,000	0,022	-0,121
-587,138	176,759	-0,054	-0,058
-586,123	800,000	0,035	0,085
-585,109	111,244	-0,142	-0,125
-584,094	-200,000	-0,003	-0,131
-583,079	-200,000	0,005	0,089
-582,065	-200,000	0,014	0,062
-581,050	-200,000	-0,006	0,042
-580,036	153,028	0,008	0,008
-579,021	-22,676	0,081	0,036
-578,006	11,355	-0,183	0,102
-576,992	196,996	-0,056	-0,063
-575,977	26,389	0,030	0,018
-574,963	290,452	0,088	0,118
-573,948	91,724	-0,089	0,073
-572,934	207,819	-0,022	0,025
-571,919	-56,209	-0,091	-0,030
-570,904	-74,348	-0,118	-0,031
-569,890	-27,666	-0,139	-0,059
-568,875	-127,451	-0,092	0,010
-567,861	228,211	-0,066	0,079
-566,846	-9,375	-0,041	-0,020
-565,831	-117,580	-0,059	0,008
-564,817	415,617	0,033	-0,052
-563,802	800,000	0,044	-0,133
-562,788	-200,000	0,002	0,010
-561,773	-116,797	-0,099	0,013
-560,758	250,369	-0,087	-0,109
-559,744	-61,469	-0,105	0,032
-558,729	115,721	0,138	0,123
-557,715	800,000	0,096	-0,200
-556,700	345,710	0,070	-0,101
-555,685	-103,254	-0,057	-0,010
-554,671	-200,000	0,001	0,034
-553,656	-158,722	0,060	0,002
-552,642	791,430	-0,086	-0,174
-551,627	-33,380	-0,178	-0,072
-550,612	-21,749	0,114	-0,051
-549,598	-200,000	-0,019	0,132
-548,583	-200,000	-0,019	-0,064
-547,569	-85,855	-0,183	-0,041
-546,554	106,071	0,047	0,041
-545,539	-29,479	0,077	0,032
-544,525	159,841	-0,060	0,061
-543,510	-85,354	0,103	0,023
-542,496	-67,398	-0,133	-0,038
-541,481	800,000	0,024	-0,075
-540,466	800,000	0,051	-0,108
-539,452	697,921	0,027	-0,053
-538,437	245,961	0,080	-0,098
-537,423	-200,000	0,001	0,053
-536,408	-16,603	0,040	0,018
-535,393	-78,503	0,020	0,005
-534,379	-200,000	-0,003	0,075
-533,364	800,000	-0,041	-0,089
-532,350	409,382	0,055	0,086
-531,335	-200,000	0,003	0,112
-530,321	800,000	-0,018	0,043
-529,306	-59,474	-0,152	0,048
-528,291	800,000	-0,035	0,081
-527,277	-160,599	0,053	0,002
-526,262	438,114	-0,036	0,058
-525,248	-9,466	0,045	-0,022
-524,233	-200,000	-0,009	-0,055
-523,218	-139,565	0,091	0,007
-522,204	643,931	0,042	-0,079
-521,189	-172,889	-0,053	0,001
-520,175	800,000	0,050	-0,131
-519,160	77,564	-0,080	-0,062
-518,145	460,780	-0,038	0,062
-517,131	12,776	0,144	-0,081
-516,116	-200,000	-0,013	-0,168
-515,102	-200,000	0,028	0,129
-514,087	-200,000	0,012	0,057
-513,072	119,701	-0,097	-0,088
-512,058	97,386	-0,009	-0,008
-511,043	-174,425	0,094	0,002
-510,029	-99,453	0,086	-0,016
-509,014	50,914	0,023	-0,016
-507,999	304,771	-0,114	0,155
-506,985	-156,656	-0,065	0,003
-505,970	284,897	-0,023	-0,030
-504,956	212,033	0,016	-0,018
-503,941	34,034	-0,030	-0,019
-502,926	800,000	-0,017	0,054
-501,912	-200,000	0,005	0,202
-500,897	-200,000	0,010	-0,062
-499,883	-200,000	-0,015	-0,062
-498,868	-139,321	-0,099	0,008
-497,853	751,224	0,045	-0,089
-496,839	416,334	0,050	-0,079
-495,824	665,039	0,026	-0,050
-494,810	349,791	0,057	-0,082
-493,795	-200,000	-0,005	-0,048
-492,781	-100,526	-0,117	-0,021
-491,766	-200,000	0,007	-0,140
-490,751	3,051	-0,084	-0,044
-489,737	289,670	-0,055	-0,072
-488,722	-36,919	0,151	0,059
-487,708	-81,000	0,066	0,016
-486,693	800,000	-0,028	0,062
-485,678	-158,680	-0,091	-0,004
-484,664	69,700	0,046	0,034
-483,649	-110,237	-0,133	0,020
-482,635	-95,907	-0,047	-0,009
-481,620	-22,321	-0,081	0,036
-480,605	206,025	0,069	0,078
-479,591	-122,287	0,034	-0,004
-478,576	-200,000	0,023	0,075
-477,562	800,000	-0,023	-0,060
-476,547	-26,447	-0,039	0,017
-475,532	51,120	-0,026	0,018
-474,518	11,360	0,101	0,056
-473,503	-200,000	-0,000	0,013
-472,489	-200,000	0,001	-0,033
-471,474	-148,026	0,069	0,004
-470,459	-200,000	0,008	0,029
-469,445	-200,000	0,014	-0,075
-468,430	-200,000	-0,049	0,176
-467,416	800,000	-0,013	0,034
-466,401	159,908	0,033	0,034
-465,386	-200,000	0,014	0,171
-464,372	-103,667	0,108	-0,018
-463,357	735,193	0,017	-0,034
-462,343	236,489	-0,087	0,105
-461,328	29,884	0,140	0,087
-460,313	49,906	-0,050	0,035
-459,299	262,501	-0,043	0,054
-458,284	-200,000	0,009	0,051
-457,270	-145,365	-0,068	-0,004
-456,255	800,000	-0,075	-0,153
-455,241	-200,000	-0,020	0,099
-454,226	153,122	-0,065	-0,065
-453,211	-10,578	-0,061	-0,029
-452,197	106,505	-0,065	-0,056
-451,182	-200,000	0,022	0,103
-450,168	-129,775	-0,089	0,009
-449,153	800,000	-0,015	-0,039
-448,138	25,546	0,125	-0,076
-447,124	-200,000	0,011	0,046
-446,109	321,254	0,025	-0,035
-445,095	-173,885	-0,083	0,002
-444,080	57,007	0,069	-0,049
-443,065	396,312	-0,022	-0,034
-442,051	-30,873	-0,046	-0,019
-441,036	-200,000	-0,013	-0,081
-440,022	15,824	-0,179	-0,102
-439,007	154,963	0,149	0,149
-437,992	-200,000	0,006	0,083
-436,978	-74,382	0,044	-0,012
-435,963	-136,447	0,042	-0,003
-434,949	65,773	0,027	-0,020
-433,934	-82,431	-0,103	-0,024
-432,919	-38,770	0,103	0,039
-431,905	72,729	-0,038	-0,029
-430,890	7,162	-0,129	-0,070
-429,876	-18,982	0,098	0,044
-428,861	-200,000	-0,024	-0,083
-427,846	-163,882	0,088	-0,003
-426,832	197,574	-0,115	-0,128
-425,817	86,154	0,057	-0,046
-424,803	6,320	-0,131	-0,071
-423,788	692,023	0,032	0,061
-422,773	-89,110	0,064	-0,014
-421,759	-152,537	-0,088	0,005
-420,744	-74,658	0,054	-0,014
-419,730	-43,536	0,155	-0,057
-418,715	340,137	-0,024	0,034
-417,701	-200,000	-0,003	0,062
-416,686	-127,714	-0,158	0,016
-415,671	-54,817	0,070	0,023
-414,657	140,856	-0,092	0,088
-413,642	-50,707	0,078	0,026
-412,628	-200,000	-0,019	-0,062
-411,613	-174,037	-0,104	-0,002
-410,598	-200,000	-0,001	0,041
-409,584	800,000	-0,031	0,077
-408,569	-70,578	-0,132	0,036
-407,555	220,262	0,116	0,135
-406,540	198,175	-0,055	0,061
-405,525	-200,000	-0,006	-0,050
-404,511	-148,881	-0,109	0,006
-403,496	-159,753	-0,115	0,005
-402,482	-200,000	-0,014	-0,123
-401,467	-130,420	0,105	0,010
-400,452	800,000	-0,048	-0,128
-399,438	-200,000	-0,006	0,086
-398,423	800,000	0,063	0,127
-397,409	69,154	0,130	-0,097
-396,394	-200,000	0,003	0,019
-395,379	134,531	0,082	0,078
-394,365	128,607	-0,140	0,130
-393,350	-77,449	0,042	0,011
-392,336	-22,001	-0,041	0,018
-391,321	295,041	0,039	-0,052
-390,306	-200,000	-0,007	0,054
-389,292	60,041	-0,111	0,079
-388,277	-200,000	-0,034	-0,123
-387,263	185,629	0,144	-0,155
-386,248	-56,722	0,116	-0,037
-385,233	54,227	0,079	0,055
-384,219	800,000	0,039	-0,111
-383,204	203,070	0,110	-0,124
-382,190	590,018	-0,029	-0,053
-381,175	547,365	0,065	-0,113
-380,160	490,422	-0,047	-0,078
-379,146	15,057	-0,049	-0,028
-378,131	-200,000	-0,038	0,142
-377,117	126,152	-0,085	0,078
-376,102	156,994	0,017	-0,017
-375,088	-165,723	-0,186	-0,006
-374,073	3,233	0,055	-0,029
-373,058	194,699	-0,059	-0,065
-372,044	-200,000	0,011	-0,084
-371,029	800,000	0,021	0,047
-370,015	12,396	-0,067	0,037
-369,000	-75,488	-0,097	-0,025
-367,985	189,559	0,023	0,025
-366,971	47,784	-0,122	-0,082
-365,956	205,432	0,024	0,027
-364,942	33,475	0,100	-0,063
-363,927	800,000	0,044	0,121
-362,912	-144,618	-0,071	-0,005
-361,898	11,520	0,045	-0,025
-360,883	-16,683	-0,057	-0,026
-359,869	28,926	-0,039	0,024
-358,854	677,121	0,016	-0,030
-357,839	-102,020	0,068	0,012
-356,825	486,624	-0,010	-0,017
-355,810	-200,000	-0,012	0,069
-354,796	-72,900	-0,068	0,018
-353,781	-54,960	-0,128	0,042
-352,766	153,841	0,131	0,130
-351,752	800,000	0,047	-0,127
-350,737	-75,896	0,025	-0,006
-349,723	-200,000	0,025	0,093
-348,708	-20,491	-0,151	0,067
-347,693	-133,959	0,059	-0,005
-346,679	-42,987	-0,088	-0,032
-345,664	-200,000	-0,003	-0,091
-344,650	-200,000	-0,010	-0,061
-343,635	594,372	-0,031	0,056
-342,620	800,000	-0,041	0,108
-341,606	-17,802	0,122	-0,055
-340,591	-200,000	0,027	-0,140
-339,577	800,000	-0,031	-0,074
-338,562	-200,000	0,006	-0,047
-337,548	-25,626	-0,075	-0,032
-336,533	414,966	0,068	0,106
-335,518	127,115	-0,058	0,054
-334,504	-67,210	0,124	-0,035
-333,489	51,658	0,056	-0,038
-332,475	16,589	0,142	0,081
-331,460	354,659	-0,039	-0,057
-330,445	51,349	0,060	0,041
-329,431	-200,000	0,024	0,124
-328,416	42,626	0,063	-0,042
-327,402	-200,000	0,019	-0,066
-326,387	77,667	0,088	0,068
-325,372	800,000	0,033	0,083
-324,358	538,743	-0,054	0,094
-323,343	-80,024	0,076	0,018
-322,329	577,929	-0,054	0,096
-321,314	319,239	-0,087	0,120
-320,299	423,251	-0,119	0,187
-319,285	-24,972	0,161	-0,069
-318,270	800,000	-0,068	-0,167
-317,256	128,832	0,094	-0,087
-316,241	511,260	0,041	-0,070
-315,226	13,429	-0,121	0,068
-314,212	64,691	0,070	0,051
-313,197	-125,523	0,193	0,021
-312,183	-57,798	0,100	-0,032
-311,168	40,111	-0,050	0,033
-310,153	89,483	0,018	0,014
-309,139	51,116	-0,053	0,037
-308,124	-200,000	0,003	-0,105
-307,110	-112,517	0,156	-0,022
-306,095	-84,225	0,082	-0,019
-305,080	362,529	0,048	0,070
-304,066	-200,000	0,002	-0,071
-303,051	143,791	-0,021	-0,020
-302,037	-200,000	0,009	0,051
-301,022	-200,000	-0,017	-0,116
-300,008	60,317	0,040	0,029
-298,993	-200,000	-0,001	0,070
-297,978	9,167	-0,047	-0,026
-296,964	116,941	0,033	0,029
-295,949	153,040	-0,106	-0,105
-294,935	32,642	-0,170	-0,107
-293,920	26,050	-0,087	-0,052
-292,905	-98,751	0,096	0,018
-291,891	227,643	-0,050	-0,059
-290,876	197,078	-0,020	0,023
-289,862	-200,000	0,004	0,035
-288,847	-200,000	-0,020	-0,064
-287,832	619,034	-0,031	-0,057
-286,818	44,886	0,017	-0,011
-285,803	800,000	0,026	0,053
-284,789	-56,201	0,069	0,022
-283,774	800,000	-0,078	0,162
-282,759	406,032	0,062	0,095
-281,745	178,563	0,032	-0,034
-280,730	-200,000	-0,032	-0,118
-279,716	322,353	0,092	-0,128
-278,701	407,577	0,036	0,056
-277,686	-100,963	-0,031	-0,006
-276,672	37,220	-0,011	-0,007
-275,657	800,000	0,020	-0,060
-274,643	779,790	-0,058	-0,115
-273,628	-200,000	-0,002	-0,032
-272,613	25,248	0,089	0,054
-271,599	-26,205	-0,066	-0,028
-270,584	-200,000	-0,026	0,111
-269,570	40,353	0,077	-0,050
-268,555	244,048	-0,047	0,057
-267,540	-67,303	0,081	-0,023
-266,526	18,556	0,061	-0,035
-265,511	-196,889	0,097	-0,000
-264,497	-200,000	0,009	0,114
-263,482	273,135	-0,010	-0,013
-262,467	-153,778	0,117	-0,006
-261,453	670,318	-0,038	-0,072
-260,438	94,892	0,017	0,014
-259,424	-18,756	-0,045	-0,020
-258,409	89,094	-0,024	0,019
-257,395	-200,000	0,003	0,142
-256,380	-200,000	-0,011	-0,078
-255,365	76,310	-0,067	-0,051
-254,351	-200,000	0,005	-0,098
-253,336	312,319	0,038	-0,051
-252,322	-93,713	0,107	-0,021
-251,307	145,128	0,114	-0,110
-250,292	800,000	-0,029	-0,091
-249,278	-200,000	-0,010	0,075
-248,263	-200,000	0,009	0,185
-247,249	800,000	-0,032	0,076
-246,234	-130,798	-0,079	-0,008
-245,219	29,515	-0,098	-0,060
-244,205	-200,000	0,002	-0,077
-243,190	-200,000	-0,016	-0,133
-242,176	52,871	0,051	-0,035
-241,161	125,466	0,070	-0,064
-240,146	-59,128	-0,058	-0,018
-239,132	-200,000	0,010	0,075
-238,117	-200,000	-0,000	0,125
-237,103	58,665	0,087	-0,062
-236,088	-200,000	0,018	-0,111
-235,073	-200,000	0,002	-0,024
-234,059	-200,000	0,015	0,054
-233,044	630,536	0,029	0,054
-232,030	155,089	-0,049	-0,049
-231,015	-51,898	0,025	-0,008
-230,000	-94,487	-0,125	0,024
-228,986	800,000	0,035	-0,079
-227,971	-26,885	0,133	-0,056
-226,957	-121,089	-0,154	-0,018
-225,942	800,000	0,048	0,134
-224,927	783,146	0,063	0,124
-223,913	-66,686	-0,012	-0,004
-222,898	-200,000	0,009	0,082
-221,884	-200,000	-0,004	-0,119
-220,869	722,525	-0,049	0,094
-219,855	-21,776	0,183	-0,080
-218,840	-200,000	-0,035	0,118
-217,825	306,780	0,051	-0,069
-216,811	800,000	-0,036	0,080
-215,796	-46,235	-0,133	-0,047
-214,782	302,055	-0,052	-0,070
-213,767	-200,000	0,002	-0,066
-212,752	128,315	-0,113	0,104
-211,738	-86,291	0,030	0,007
-210,723	800,000	0,028	0,081
-209,709	-38,299	-0,050	0,019
-208,694	647,562	0,018	0,034
-207,679	-200,000	0,022	-0,094
-206,665	800,000	0,038	-0,119
-205,650	206,029	0,038	0,042
-204,636	-200,000	-0,000	-0,018
-203,621	667,730	-0,062	0,117
-202,606	-177,982	0,091	-0,002
-201,592	151,968	-0,068	-0,067
-200,577	113,053	0,031	0,027
-199,563	23,804	-0,038	-0,023
-198,548	50,299	-0,023	0,016
-197,533	800,000	-0,039	0,087
-196,519	800,000	-0,033	0,086
-195,504	314,494	-0,035	0,047
-194,490	-137,278	0,055	0,004
-193,475	-200,000	-0,001	-0,005
-192,460	156,783	0,076	-0,076
-191,446	-5,130	0,127	0,063
-190,431	-133,811	0,211	0,019
-189,417	167,920	-0,038	-0,039
-188,402	800,000	-0,060	0,153
-187,387	1,049	0,040	-0,020
-186,373	12,449	-0,022	0,012
-185,358	-200,000	-0,006	-0,070
-184,344	-200,000	0,020	0,073
-183,329	-200,000	0,007	0,144
-182,315	-16,156	0,050	0,023
-181,300	-200,000	-0,021	-0,073
-180,285	-109,114	0,066	0,010
-179,271	663,759	-0,014	0,026
-178,256	-116,619	0,068	-0,009
-177,242	351,143	-0,026	-0,037
-176,227	-200,000	0,011	-0,055
-175,212	-81,795	0,029	0,007
-174,198	588,575	-0,031	-0,056
-173,183	-142,312	-0,134	0,009
-172,169	-200,000	0,007	-0,141
-171,154	-200,000	-0,003	-0,031
-170,139	661,883	0,049	-0,091
-169,125	800,000	0,057	0,124
-168,110	352,312	0,067	0,096
-167,096	95,076	0,094	-0,077
-166,081	-35,319	-0,119	0,047
-165,066	-14,436	0,090	0,042
-164,052	49,779	-0,120	0,082
-163,037	76,225	0,139	-0,106
-162,023	-200,000	0,014	0,087
-161,008	-71,119	0,160	0,043
-159,993	106,783	0,020	-0,017
-158,979	-105,051	0,007	0,001
-157,964	800,000	-0,024	-0,071
-156,950	392,440	-0,128	0,193
-155,935	-45,748	0,170	-0,060
-154,920	-86,114	0,046	0,010
-153,906	800,000	-0,050	-0,100
-152,891	118,052	0,160	0,142
-151,877	-200,000	0,021	0,177
-150,862	102,835	0,060	-0,051
-149,847	-61,600	-0,098	0,029
-148,833	-162,327	0,024	-0,001
-147,818	11,067	-0,065	0,036
-146,804	-99,047	0,036	-0,007
-145,789	-200,000	-0,027	-0,127
-144,775	-200,000	0,031	-0,194
-143,760	527,177	0,048	-0,081
-142,745	-83,934	-0,034	-0,008
-141,731	-104,867	-0,024	0,004
-140,716	-200,000	-0,003	-0,038
-139,702	800,000	0,042	0,121
-138,687	650,093	0,026	0,048
-137,672	-200,000	0,001	0,063
-136,658	-134,558	0,091	-0,008
-135,643	6,202	-0,117	0,063
-134,629	134,760	0,056	0,052
-133,614	479,946	-0,078	-0,127
-132,599	64,251	0,076	-0,055
-131,585	-200,000	-0,008	0,064
-130,570	491,635	-0,045	0,075
-129,556	-139,856	-0,215	0,016
-128,541	-9,641	0,114	0,054
-127,526	-70,974	-0,051	0,014
-126,512	-200,000	-0,041	-0,131
-125,497	65,281	0,070	0,051
-124,483	-55,787	-0,035	0,011
-123,468	110,518	0,028	-0,025
-122,453	129,532	-0,023	-0,022
-121,439	800,000	-0,032	-0,091
-120,424	800,000	-0,069	0,141
-119,410	-51,067	0,089	-0,030
