DTS Sentinel unit serial number:	SN410029Multiplexer serial number:	ORYXHardware model number:	OX2-SRSoftware version number:	ORYX F/W v4,00 Oryx Data Collector v3.7.2.0data status	okinstallation	B5 Nyhavnadifferential loss correction	single-endedforward channel	channel 2reverse channel	N/Adate	2023/12/14time	08:47:13forward acquisition time	300,00reverse acquisition time	0,00gamma	499,1914k internal	0,3160k external	0,3160temperature offset calibration	1,0000default loss term (dB/km)	0,3820temperature slope calibration	1,0000multiplexer offset coefficient	1,0000multiplexer slope coefficient	1,0000fibre end	0,00T internal ref (°C)	7,01T ext. ref 1 (°C)	-9,16T ext. ref 2 (°C)	-9,22length (m)	temperature (°C)	Stokes	anti-Stokes-744,400	-105,215	0,164	0,027
-743,385	-61,013	-0,409	-0,127
-742,371	800,000	0,051	0,140
-741,356	-162,165	-0,380	-0,014
-740,342	-44,670	0,175	0,064
-739,327	3,635	-0,308	-0,165
-738,312	-200,000	-0,034	0,129
-737,298	-149,626	-0,339	0,019
-736,283	98,579	0,174	0,148
-735,269	-53,371	-0,549	-0,184
-734,254	-141,819	0,216	0,016
-733,239	14,622	-0,484	-0,278
-732,225	60,351	0,191	0,139
-731,210	-33,852	-0,066	-0,027
-730,196	-192,592	-0,052	0,000
-729,181	334,448	0,073	-0,104
-728,167	800,000	0,016	-0,044
-727,152	-78,042	0,018	-0,004
-726,137	-200,000	-0,005	-0,051
-725,123	-150,460	0,052	-0,003
-724,108	56,590	-0,153	-0,109
-723,094	-158,626	-0,100	-0,004
-722,079	-200,000	-0,007	-0,109
-721,064	-40,712	-0,029	0,011
-720,050	467,275	0,027	0,044
-719,035	-77,195	-0,067	-0,017
-718,021	227,826	-0,094	0,113
-717,006	-125,856	-0,087	0,010
-715,991	-67,698	-0,106	0,030
-714,977	-48,105	-0,095	-0,034
-713,962	-195,718	-0,172	0,001
-712,948	345,094	0,055	-0,080
-711,933	169,568	-0,120	0,127
-710,918	-98,288	0,141	-0,026
-709,904	-63,949	-0,095	-0,028
-708,889	-111,304	0,095	-0,014
-707,875	69,402	-0,095	-0,072
-706,860	37,488	-0,025	0,016
-705,845	-19,017	0,043	-0,020
-704,831	-0,006	0,099	0,052
-703,816	324,307	-0,133	-0,187
-702,802	677,502	-0,017	-0,033
-701,787	-200,000	-0,014	-0,092
-700,772	-150,338	-0,111	0,006
-699,758	-200,000	0,008	0,105
-698,743	800,000	0,064	0,188
-697,729	107,765	0,138	0,121
-696,714	61,456	0,049	0,036
-695,699	187,679	-0,053	0,059
-694,685	343,097	0,047	-0,068
-693,670	233,609	-0,096	-0,117
-692,656	-200,000	0,003	0,030
-691,641	-104,741	0,131	0,022
-690,627	-200,000	0,012	0,066
-689,612	-169,105	-0,069	0,002
-688,597	-153,053	-0,056	0,003
-687,583	-106,449	-0,073	0,012
-686,568	116,450	-0,036	0,032
-685,554	-200,000	0,002	0,078
-684,539	-200,000	0,009	0,101
-683,524	-200,000	-0,020	0,066
-682,510	-23,242	0,114	0,050
-681,495	490,605	-0,030	-0,051
-680,481	-200,000	-0,016	-0,054
-679,466	199,842	-0,059	-0,067
-678,451	-196,870	-0,081	-0,000
-677,437	800,000	-0,052	0,149
-676,422	-200,000	0,002	0,029
-675,408	731,480	0,094	0,185
-674,393	22,768	-0,061	-0,036
-673,378	-200,000	0,009	0,063
-672,364	201,399	-0,103	-0,117
-671,349	28,663	0,024	0,015
-670,335	364,987	-0,030	-0,045
-669,320	619,825	-0,100	0,185
-668,305	416,265	-0,061	0,096
-667,291	695,573	-0,080	-0,155
-666,276	-200,000	-0,009	-0,070
-665,262	800,000	0,045	-0,105
-664,247	-200,000	0,007	-0,130
-663,232	-200,000	0,006	-0,054
-662,218	-200,000	0,088	0,000
-661,203	14,723	-0,025	0,015
-660,189	296,796	0,050	0,067
-659,174	17,056	0,047	0,027
-658,159	-93,073	-0,162	-0,033
-657,145	409,206	-0,064	-0,100
-656,130	-27,774	-0,082	-0,035
-655,116	26,955	-0,105	0,064
-654,101	800,000	0,028	-0,087
-653,086	-200,000	0,018	-0,072
-652,072	800,000	-0,055	-0,160
-651,057	331,953	-0,074	-0,105
-650,043	-141,484	-0,023	-0,002
-649,028	-200,000	-0,018	-0,116
-648,014	800,000	0,021	0,056
-646,999	66,502	0,084	-0,062
-645,984	-200,000	0,003	-0,109
-644,970	-21,820	-0,127	0,056
-643,955	-200,000	0,002	-0,057
-642,941	312,512	-0,037	0,050
-641,926	-200,000	-0,026	0,134
-640,911	617,700	0,046	0,085
-639,897	28,336	0,086	0,054
-638,882	-139,191	-0,056	-0,004
-637,868	-9,305	0,084	0,041
-636,853	551,095	-0,071	-0,126
-635,838	800,000	-0,037	-0,107
-634,824	-0,422	0,099	-0,052
-633,809	-87,036	-0,033	0,007
-632,795	544,824	0,033	0,059
-631,780	800,000	-0,038	0,111
-630,765	9,024	-0,037	-0,020
-629,751	-200,000	0,002	0,033
-628,736	800,000	-0,028	0,065
-627,722	315,920	-0,098	-0,136
-626,707	-68,945	0,023	-0,006
-625,692	225,300	-0,030	-0,036
-624,678	2,278	-0,076	-0,040
-623,663	-200,000	-0,003	0,143
-622,649	-32,639	-0,188	0,076
-621,634	145,417	-0,040	0,040
-620,619	50,332	-0,066	-0,046
-619,605	-200,000	0,006	-0,054
-618,590	-200,000	0,001	-0,126
-617,576	-200,000	0,013	0,102
-616,561	-200,000	-0,029	0,096
-615,546	-123,540	-0,098	-0,011
-614,532	-87,485	-0,192	0,042
-613,517	-79,204	-0,159	0,039
-612,503	-69,251	-0,072	-0,020
-611,488	-119,168	0,091	-0,012
-610,474	745,325	-0,080	0,158
-609,459	146,041	-0,037	0,036
-608,444	-200,000	-0,007	0,111
-607,430	-200,000	0,017	-0,079
-606,415	557,330	0,077	0,136
-605,401	-13,431	0,051	-0,024
-604,386	182,332	-0,105	0,114
-603,371	231,662	-0,043	0,052
-602,357	-44,625	-0,072	-0,026
-601,342	-17,894	0,047	-0,022
-600,328	-29,687	-0,103	0,043
-599,313	-93,713	0,194	0,039
-598,298	-63,238	-0,252	0,076
-597,284	-200,000	0,002	-0,053
-596,269	70,487	-0,024	-0,018
-595,255	-200,000	-0,026	0,098
-594,240	-110,693	0,053	0,008
-593,225	-32,381	0,009	-0,004
-592,211	-200,000	0,004	0,073
-591,196	-200,000	-0,006	-0,105
-590,182	-142,329	0,053	-0,004
-589,167	-32,902	0,056	0,023
-588,152	35,912	-0,107	0,069
-587,138	-200,000	-0,009	0,060
-586,123	-149,593	-0,155	-0,009
-585,109	378,166	-0,044	-0,065
-584,094	81,336	0,068	0,054
-583,079	72,424	-0,043	-0,033
-582,065	22,965	-0,071	-0,043
-581,050	-200,000	-0,001	-0,071
-580,036	-75,346	-0,060	-0,015
-579,021	-200,000	-0,019	-0,101
-578,006	-128,607	-0,135	-0,014
-576,992	8,997	-0,079	-0,044
-575,977	-200,000	0,008	-0,033
-574,963	247,208	-0,019	0,024
-573,948	700,393	0,014	0,028
-572,934	246,056	0,089	0,110
-571,919	-47,034	-0,117	0,042
-570,904	-115,300	0,069	-0,009
-569,890	-200,000	-0,010	0,074
-568,875	-21,249	0,093	-0,041
-567,861	-51,779	-0,068	-0,023
-566,846	71,792	0,044	0,033
-565,831	-200,000	0,014	-0,049
-564,817	800,000	0,035	-0,103
-563,802	-50,007	-0,076	0,026
-562,788	48,224	-0,092	-0,063
-561,773	-200,000	0,002	0,029
-560,758	-200,000	0,009	0,043
-559,744	-19,610	0,085	-0,038
-558,729	-53,452	-0,145	0,048
-557,715	-96,335	0,061	0,012
-556,700	221,134	-0,057	-0,067
-555,685	-44,582	0,104	-0,038
-554,671	176,935	0,090	-0,096
-553,656	-111,412	0,082	0,012
-552,642	701,763	0,034	-0,065
-551,627	182,201	0,029	-0,031
-550,612	800,000	-0,013	0,031
-549,598	29,982	-0,087	0,054
-548,583	777,560	-0,005	0,010
-547,569	272,915	0,031	-0,040
-546,554	51,714	0,032	0,022
-545,539	260,208	0,052	-0,066
-544,525	25,622	0,078	0,047
-543,510	-200,000	0,013	0,042
-542,496	800,000	0,044	-0,124
-541,481	-200,000	-0,002	-0,148
-540,466	-200,000	-0,016	-0,073
-539,452	800,000	0,030	-0,066
-538,437	254,161	-0,033	-0,042
-537,423	800,000	-0,077	0,245
-536,408	800,000	-0,040	0,096
-535,393	-200,000	0,024	0,167
-534,379	-49,051	0,029	0,010
-533,364	225,770	0,030	0,036
-532,350	800,000	0,048	0,101
-531,335	394,483	0,043	0,065
-530,321	-70,950	0,058	-0,016
-529,306	-2,268	-0,066	0,034
-528,291	-135,334	-0,087	0,008
-527,277	-131,948	0,079	0,007
-526,262	-27,512	0,074	-0,031
-525,248	-12,636	0,074	0,035
-524,233	184,082	0,054	0,059
-523,218	94,208	0,106	0,088
-522,204	-116,159	-0,049	-0,007
-521,189	-13,935	-0,077	-0,036
-520,175	243,829	0,103	-0,127
-519,160	58,981	0,037	-0,026
-518,145	-12,228	0,162	0,077
-517,131	395,889	0,020	0,031
-516,116	-109,810	-0,074	-0,011
-515,102	-200,000	0,016	0,063
-514,087	123,363	-0,049	-0,045
-513,072	-109,616	0,060	-0,009
-512,058	800,000	0,039	0,097
-511,043	-200,000	-0,007	-0,077
-510,029	494,456	-0,007	-0,012
-509,014	-200,000	0,009	0,031
-507,999	-128,197	-0,117	-0,012
-506,985	217,857	-0,153	0,179
-505,970	-194,498	0,182	-0,001
-504,956	-26,984	0,077	-0,033
-503,941	11,374	0,066	0,037
-502,926	151,593	0,036	0,035
-501,912	-164,688	-0,072	0,002
-500,897	-200,000	0,021	0,212
-499,883	154,569	-0,052	-0,053
-498,868	-24,243	-0,119	-0,052
-497,853	-95,522	-0,222	-0,043
-496,839	-74,517	0,045	-0,012
-495,824	-18,153	0,081	0,037
-494,810	800,000	-0,021	-0,061
-493,795	-200,000	-0,021	0,088
-492,781	-200,000	0,027	-0,167
-491,766	-98,059	-0,130	0,024
-490,751	-200,000	0,001	0,075
-489,737	-11,887	0,099	-0,047
-488,722	800,000	0,044	0,122
-487,708	-200,000	-0,021	0,085
-486,693	34,047	0,063	-0,040
-485,678	130,051	-0,030	-0,028
-484,664	-39,052	0,075	-0,029
-483,649	58,635	-0,117	-0,083
-482,635	4,219	0,053	-0,028
-481,620	188,567	0,101	0,111
-480,605	-40,138	0,101	-0,038
-479,591	135,742	0,018	0,017
-478,576	1,270	-0,047	0,025
-477,562	-35,882	-0,082	-0,032
-476,547	514,379	-0,065	-0,111
-475,532	-200,000	-0,008	0,070
-474,518	-200,000	-0,057	-0,206
-473,503	440,901	-0,020	0,032
-472,489	78,409	0,111	0,086
-471,474	114,664	-0,122	0,108
-470,459	-84,601	0,112	-0,026
-469,445	800,000	0,014	0,029
-468,430	170,928	0,039	0,040
-467,416	-158,112	0,084	0,004
-466,401	212,547	0,069	0,080
-465,386	69,922	0,005	0,003
-464,372	375,840	-0,035	-0,052
-463,357	-33,360	-0,057	0,023
-462,343	-32,718	0,063	0,026
-461,328	125,506	-0,108	-0,100
-460,313	95,910	-0,092	0,076
-459,299	-60,305	0,160	0,049
-458,284	-94,580	0,092	-0,018
-457,270	756,386	-0,066	-0,130
-456,255	402,082	0,072	0,111
-455,241	733,950	0,075	0,148
-454,226	269,944	-0,026	0,034
-453,211	-200,000	-0,028	-0,090
-452,197	42,143	0,007	0,004
-451,182	-110,728	-0,113	0,017
-450,168	-83,054	-0,072	0,017
-449,153	-38,889	0,101	0,039
-448,138	800,000	0,022	-0,055
-447,124	15,427	-0,035	0,020
-446,109	144,627	0,029	-0,028
-445,095	715,222	-0,012	-0,023
-444,080	179,166	-0,028	0,030
-443,065	800,000	-0,014	-0,039
-442,051	-69,943	-0,200	0,055
-441,036	-61,019	-0,055	0,017
-440,022	-200,000	-0,059	0,228
-439,007	76,661	0,119	-0,092
-437,992	-200,000	-0,002	-0,022
-436,978	800,000	0,031	0,072
-435,963	-138,851	0,080	0,006
-434,949	-53,195	-0,115	0,038
-433,934	598,541	0,026	-0,047
-432,919	-67,465	-0,093	-0,026
-431,905	379,603	0,051	-0,077
-430,890	-200,000	-0,008	-0,087
-429,876	800,000	-0,046	0,116
-428,861	88,720	0,083	0,067
-427,846	92,757	-0,114	-0,093
-426,832	-200,000	0,001	-0,105
-425,817	92,373	-0,061	0,050
-424,803	-34,438	0,086	-0,034
-423,788	-200,000	0,039	-0,209
-422,773	-77,177	0,090	-0,023
-421,759	123,893	-0,049	0,045
-420,744	220,706	0,027	-0,032
-419,730	96,274	-0,041	-0,034
-418,715	-200,000	0,020	-0,147
-417,701	-200,000	0,009	0,044
-416,686	68,451	-0,006	-0,005
-415,671	-200,000	0,014	0,133
-414,657	-27,317	0,023	0,010
-413,642	165,977	0,067	-0,069
-412,628	-200,000	-0,015	-0,061
-411,613	-200,000	-0,002	0,051
-410,598	-200,000	0,008	0,038
-409,584	138,041	0,085	0,081
-408,569	-35,905	0,129	0,050
-407,555	800,000	0,055	-0,148
-406,540	63,031	0,028	0,021
-405,525	-12,693	-0,071	-0,034
-404,511	362,371	-0,068	-0,100
-403,496	800,000	-0,039	0,103
-402,482	309,083	0,041	-0,056
-401,467	-13,139	0,043	0,020
-400,452	-101,318	-0,088	-0,015
-399,438	800,000	0,052	0,128
-398,423	-107,428	-0,108	0,017
-397,409	-200,000	-0,003	-0,020
-396,394	-110,136	-0,167	-0,025
-395,379	-60,356	0,149	-0,046
-394,365	282,783	-0,061	-0,079
-393,350	800,000	-0,025	0,068
-392,336	-152,096	0,034	-0,002
-391,321	562,728	0,033	-0,058
-390,306	-200,000	0,028	-0,101
-389,292	800,000	-0,023	-0,054
-388,277	-200,000	-0,006	-0,152
-387,263	255,799	-0,033	0,041
-386,248	-63,575	-0,110	0,032
-385,233	-13,970	0,026	0,012
-384,219	-58,827	0,069	-0,022
-383,204	-50,533	0,141	0,048
-382,190	140,060	-0,095	-0,091
-381,175	326,026	0,026	-0,036
-380,160	-28,780	0,107	-0,045
-379,146	22,360	0,051	-0,030
-378,131	800,000	0,042	0,087
-377,117	800,000	-0,046	-0,107
-376,102	-84,729	-0,044	-0,010
-375,088	631,685	-0,075	0,139
-374,073	183,894	0,011	0,012
-373,058	794,054	0,019	0,037
-372,044	-14,878	-0,003	0,001
-371,029	87,313	-0,077	0,062
-370,015	-96,262	-0,082	-0,016
-369,000	152,797	0,026	0,026
-367,985	157,124	-0,078	-0,079
-366,971	800,000	0,052	-0,111
-365,956	-61,826	0,067	-0,020
-364,942	-62,769	0,067	-0,020
-363,927	-46,283	-0,066	-0,023
-362,912	800,000	-0,030	0,081
-361,898	800,000	0,032	0,079
-360,883	-41,544	-0,051	0,019
-359,869	-200,000	0,011	-0,175
-358,854	212,032	-0,061	-0,070
-357,839	-200,000	0,030	0,132
-356,825	69,386	0,086	-0,064
-355,810	800,000	-0,022	0,068
-354,796	-200,000	-0,019	-0,105
-353,781	-53,924	-0,035	-0,012
-352,766	78,910	0,126	-0,098
-351,752	379,922	-0,027	-0,040
-350,737	116,098	0,081	-0,072
-349,723	-200,000	0,002	-0,018
-348,708	800,000	0,028	0,083
-347,693	27,016	0,066	-0,040
-346,679	-64,006	-0,109	-0,032
-345,664	290,829	-0,064	0,085
-344,650	34,673	0,089	0,056
-343,635	-75,827	0,073	0,019
-342,620	-200,000	0,021	-0,133
-341,606	-16,505	-0,146	-0,067
-340,591	800,000	-0,039	-0,083
-339,577	362,600	0,025	-0,037
-338,562	-88,994	-0,065	0,014
-337,548	153,697	-0,161	0,160
-336,533	463,303	-0,019	-0,032
-335,518	800,000	0,042	-0,096
-334,504	194,988	-0,073	0,080
-333,489	-115,713	-0,050	0,007
-332,475	-200,000	-0,054	-0,241
-331,460	-88,940	0,016	-0,003
-330,445	138,041	-0,035	0,033
-329,431	800,000	0,037	-0,076
-328,416	149,507	0,047	0,046
-327,402	-132,580	-0,143	0,013
-326,387	800,000	0,030	0,088
-325,372	704,301	-0,010	0,020
-324,358	25,761	-0,059	0,036
-323,343	-4,016	-0,138	0,069
-322,329	116,160	0,107	-0,095
-321,314	452,554	0,080	0,129
-320,299	800,000	-0,075	-0,170
-319,285	784,695	0,036	-0,071
-318,270	8,037	0,058	0,032
-317,256	-19,346	-0,077	0,035
-316,241	-200,000	0,001	0,077
-315,226	122,137	-0,095	0,086
-314,212	66,867	0,038	-0,028
-313,197	-200,000	-0,013	0,051
-312,183	-200,000	-0,007	-0,054
-311,168	175,438	-0,087	0,092
-310,153	254,813	0,080	-0,099
-309,139	-69,339	0,090	0,025
-308,124	-200,000	-0,017	0,135
-307,110	-200,000	-0,017	-0,105
-306,095	-116,524	0,214	-0,028
-305,080	-149,687	-0,013	-0,001
-304,066	646,995	-0,078	-0,146
-303,051	196,769	-0,041	0,046
-302,037	257,922	0,016	0,020
-301,022	-200,000	0,004	0,037
-300,008	-148,564	0,135	-0,008
-298,993	484,161	0,064	-0,106
-297,978	-99,674	-0,204	0,037
-296,964	-45,347	0,079	-0,028
-295,949	-200,000	0,004	0,035
-294,935	116,509	-0,097	0,086
-293,920	5,457	0,049	0,026
-292,905	521,948	0,031	0,053
-291,891	366,798	0,093	0,136
-290,876	132,487	-0,022	-0,021
-289,862	-0,023	-0,049	-0,025
-288,847	-200,000	-0,014	-0,081
-287,832	-200,000	0,008	0,094
-286,818	139,368	0,049	0,047
-285,803	51,231	0,026	-0,018
-284,789	800,000	-0,045	0,104
-283,774	474,807	0,039	-0,064
-282,759	166,074	0,041	-0,042
-281,745	40,649	0,076	-0,050
-280,730	-138,338	-0,057	-0,004
-279,716	-200,000	-0,014	-0,152
-278,701	-200,000	-0,094	-0,000
-277,686	325,556	0,011	0,015
-276,672	50,138	-0,109	-0,074
-275,657	-167,111	0,100	-0,003
-274,643	-200,000	-0,002	-0,087
-273,628	436,747	-0,116	-0,183
-272,613	-106,819	0,080	-0,013
-271,599	-200,000	0,000	0,026
-270,584	-57,615	0,117	-0,037
-269,570	-200,000	0,021	0,077
-268,555	-68,861	0,078	0,022
-267,540	256,950	-0,069	-0,086
-266,526	-147,225	-0,015	0,001
-265,511	419,284	-0,135	-0,209
-264,497	49,797	0,118	0,081
-263,482	34,383	-0,056	0,035
-262,467	233,856	0,053	-0,063
-261,453	-26,850	0,099	-0,042
-260,438	-200,000	0,013	-0,139
-259,424	4,522	-0,153	-0,081
-258,409	143,439	0,063	0,060
-257,395	-200,000	0,019	-0,067
-256,380	-108,307	-0,070	0,011
-255,365	-96,370	0,173	0,033
-254,351	800,000	-0,030	0,094
-253,336	92,859	-0,070	-0,057
-252,322	-200,000	-0,033	-0,146
-251,307	-200,000	-0,009	-0,042
-250,292	-200,000	-0,001	-0,034
-249,278	-16,508	0,046	0,021
-248,263	-2,585	0,129	0,065
-247,249	132,061	0,081	-0,076
-246,234	-82,296	0,087	0,020
-245,219	177,329	0,040	-0,043
-244,205	309,762	-0,057	-0,078
-243,190	80,514	-0,063	-0,049
-242,176	143,750	-0,069	0,067
-241,161	212,034	-0,051	-0,059
-240,146	34,562	0,075	-0,047
-239,132	44,631	-0,134	0,089
-238,117	-200,000	-0,000	0,007
-237,103	251,916	-0,064	-0,079
-236,088	446,833	0,033	-0,053
-235,073	-128,595	0,180	0,018
-234,059	-20,311	0,089	0,039
-233,044	-89,947	0,046	0,010
-232,030	-86,177	-0,022	-0,005
-231,015	-200,000	0,015	-0,103
-230,000	-20,710	0,008	-0,004
-228,986	-200,000	-0,004	0,020
-227,971	57,417	-0,047	0,033
-226,957	-53,648	0,022	0,007
-225,942	800,000	0,041	0,109
-224,927	60,111	-0,125	0,089
-223,913	-82,322	0,054	0,013
-222,898	-200,000	-0,002	-0,072
-221,884	-131,356	-0,013	-0,001
-220,869	800,000	0,060	0,130
-219,855	-200,000	0,024	0,141
-218,840	800,000	0,022	0,059
-217,825	20,854	-0,054	0,032
-216,811	-21,875	-0,156	0,068
-215,796	-155,227	-0,132	0,006
-214,782	-200,000	0,006	-0,118
-213,767	-200,000	0,015	-0,060
-212,752	1,395	0,216	0,112
-211,738	-200,000	0,012	-0,054
-210,723	-200,000	0,004	-0,213
-209,709	648,141	0,033	-0,060
-208,694	176,171	-0,086	-0,090
-207,679	119,911	0,084	-0,076
-206,665	133,315	0,130	0,121
-205,650	125,064	0,051	-0,046
-204,636	70,434	-0,041	0,031
-203,621	702,625	0,017	0,033
-202,606	-75,738	-0,087	-0,022
-201,592	18,675	0,195	0,112
-200,577	800,000	0,029	-0,083
-199,563	271,813	0,072	-0,092
-198,548	-200,000	0,027	0,104
-197,533	800,000	0,019	-0,052
-196,519	-200,000	0,046	0,000
-195,504	-145,833	-0,088	-0,006
-194,490	671,366	0,032	-0,061
-193,475	373,458	-0,040	0,058
-192,460	6,542	0,124	0,066
-191,446	800,000	-0,039	0,112
-190,431	286,226	0,059	0,077
-189,417	-200,000	0,004	0,146
-188,402	108,243	0,041	0,035
-187,387	-200,000	0,018	-0,108
-186,373	55,078	0,092	-0,064
-185,358	112,469	0,070	0,061
-184,344	76,481	-0,046	-0,035
-183,329	-200,000	-0,018	-0,058
-182,315	-10,195	-0,024	-0,012
-181,300	-45,566	-0,042	-0,015
-180,285	-112,131	-0,140	0,020
-179,271	800,000	0,025	0,054
-178,256	800,000	-0,038	-0,103
-177,242	118,532	0,091	0,081
-176,227	25,349	0,041	0,024
-175,212	268,110	0,056	-0,071
-174,198	800,000	-0,024	-0,056
-173,183	-52,212	0,045	0,015
-172,169	60,422	-0,147	-0,105
-171,154	800,000	-0,029	0,088
-170,139	467,447	0,024	0,038
-169,125	800,000	0,061	0,133
-168,110	-200,000	0,008	-0,111
-167,096	497,918	-0,106	0,177
-166,081	-153,808	0,058	0,003
-165,066	-200,000	-0,008	0,036
-164,052	-89,157	0,071	0,015
-163,037	800,000	0,042	-0,091
-162,023	-200,000	-0,008	0,148
-161,008	-200,000	-0,002	0,025
-159,993	800,000	-0,045	-0,098
-158,979	59,529	0,030	0,021
-157,964	800,000	0,043	0,104
-156,950	600,918	0,015	-0,027
-155,935	-5,021	0,111	-0,055
-154,920	-159,684	0,062	0,002
-153,906	-200,000	0,003	0,080
-152,891	-200,000	-0,021	0,119
-151,877	44,751	-0,031	-0,021
-150,862	-200,000	-0,002	0,134
-149,847	-200,000	0,033	-0,205
-148,833	431,994	0,018	-0,029
-147,818	-200,000	-0,001	0,113
-146,804	-200,000	0,009	0,174
-145,789	12,998	-0,159	0,088
-144,775	-70,200	-0,084	0,023
-143,760	800,000	-0,013	0,030
-142,745	-200,000	-0,004	-0,043
-141,731	205,831	0,041	0,045
-140,716	42,827	0,102	0,067
-139,702	-13,589	0,155	0,072
-138,687	207,018	0,027	-0,030
-137,672	800,000	0,045	-0,094
-136,658	-200,000	0,020	-0,106
-135,643	-49,984	-0,087	-0,030
-134,629	546,649	0,070	0,121
-133,614	800,000	0,032	0,087
-132,599	-139,119	0,150	-0,012
-131,585	-61,444	-0,097	0,029
-130,570	-200,000	0,004	0,023
-129,556	-200,000	-0,032	0,122
-128,541	-160,788	-0,077	0,003
-127,526	-110,995	0,142	0,021
-126,512	-200,000	-0,009	0,081
-125,497	183,447	0,145	0,155
-124,483	162,228	0,056	0,056
-123,468	77,589	-0,075	-0,058
-122,453	614,067	0,027	0,049
-121,439	64,094	-0,123	-0,089
-120,424	172,121	0,005	0,005
-119,410	-19,604	0,032	-0,014
-118,395	800,000	0,024	0,049
