DTS Sentinel unit serial number:	SN410029Multiplexer serial number:	ORYXHardware model number:	OX2-SRSoftware version number:	ORYX F/W v4,00 Oryx Data Collector v3.7.2.0data status	okinstallation	B5 Nyhavnadifferential loss correction	single-endedforward channel	channel 2reverse channel	N/Adate	2023/12/14time	07:22:13forward acquisition time	300,00reverse acquisition time	0,00gamma	499,1914k internal	0,3159k external	0,3159temperature offset calibration	1,0000default loss term (dB/km)	0,3820temperature slope calibration	1,0000multiplexer offset coefficient	1,0000multiplexer slope coefficient	1,0000fibre end	0,00T internal ref (°C)	7,19T ext. ref 1 (°C)	-9,24T ext. ref 2 (°C)	-9,33length (m)	temperature (°C)	Stokes	anti-Stokes-744,400	-113,742	0,153	0,022
-743,385	-87,729	-0,525	-0,116
-742,371	448,511	0,129	0,210
-741,356	3,034	-0,309	-0,165
-740,342	30,004	0,214	0,134
-739,327	104,277	-0,279	-0,241
-738,312	3,056	0,168	0,090
-737,298	-88,016	-0,450	-0,099
-736,283	-83,287	0,148	0,035
-735,269	-75,264	-0,491	-0,128
-734,254	-170,782	0,301	-0,007
-733,239	-75,698	-0,636	-0,165
-732,225	259,260	0,156	0,198
-731,210	-153,455	0,068	0,003
-730,196	3,004	-0,114	-0,061
-729,181	103,185	-0,116	-0,100
-728,167	-100,456	-0,058	-0,010
-727,152	-88,039	0,074	0,016
-726,137	-122,918	-0,169	0,020
-725,123	-51,573	-0,166	0,057
-724,108	-200,000	0,022	-0,154
-723,094	32,150	-0,215	-0,137
-722,079	-200,000	-0,009	-0,077
-721,064	-140,075	-0,073	0,006
-720,050	2,312	0,055	-0,029
-719,035	196,755	0,027	-0,030
-718,021	-139,732	-0,154	-0,012
-717,006	-49,718	-0,184	-0,064
-715,991	222,116	-0,057	-0,068
-714,977	-200,000	0,016	-0,104
-713,962	-200,000	0,009	0,057
-712,948	434,218	0,068	-0,109
-711,933	-200,000	0,001	-0,061
-710,918	484,321	0,050	0,085
-709,904	377,445	-0,089	-0,134
-708,889	-200,000	0,001	-0,129
-707,875	800,000	-0,037	0,093
-706,860	172,067	0,076	0,081
-705,845	-200,000	0,021	0,097
-704,831	193,449	-0,045	0,050
-703,816	122,051	-0,110	-0,101
-702,802	-15,143	-0,114	-0,054
-701,787	150,771	0,029	0,029
-700,772	-155,368	0,137	-0,006
-699,758	800,000	-0,011	0,031
-698,743	-166,333	0,084	0,003
-697,729	117,531	0,098	0,088
-696,714	-200,000	-0,003	0,047
-695,699	591,895	-0,033	-0,060
-694,685	47,573	-0,040	-0,028
-693,670	-49,498	-0,102	-0,035
-692,656	-102,362	0,226	0,039
-691,641	-200,000	-0,058	0,195
-690,627	-200,000	0,005	0,191
-689,612	-119,604	-0,096	0,012
-688,597	545,457	0,079	-0,139
-687,583	203,894	-0,048	0,055
-686,568	-26,089	-0,096	0,041
-685,554	-108,929	-0,122	-0,019
-684,539	91,952	-0,095	-0,078
-683,524	-173,497	0,154	0,003
-682,510	-21,242	0,131	-0,058
-681,495	-200,000	-0,001	0,018
-680,481	687,746	-0,021	-0,041
-679,466	800,000	0,020	-0,050
-678,451	-48,920	0,114	0,040
-677,437	564,640	-0,002	0,004
-676,422	-58,070	0,073	-0,023
-675,408	200,466	-0,073	-0,083
-674,393	-81,324	0,059	0,014
-673,378	-200,000	-0,009	-0,128
-672,364	87,962	-0,065	-0,053
-671,349	471,701	0,038	0,064
-670,335	-56,637	0,087	-0,028
-669,320	800,000	-0,014	0,036
-668,305	-200,000	0,001	-0,014
-667,291	112,620	0,141	-0,126
-666,276	-131,656	-0,122	0,012
-665,262	-142,524	0,044	0,003
-664,247	-38,851	-0,078	0,030
-663,232	-200,000	0,019	-0,085
-662,218	746,194	0,032	-0,063
-661,203	-200,000	-0,003	0,046
-660,189	154,219	-0,070	0,070
-659,174	-200,000	-0,013	-0,094
-658,159	-200,000	0,020	-0,085
-657,145	479,723	-0,024	-0,041
-656,130	-169,373	0,190	0,005
-655,116	43,731	-0,071	-0,048
-654,101	129,715	0,068	0,064
-653,086	-200,000	0,003	0,060
-652,072	62,577	0,126	-0,092
-651,057	-200,000	0,009	-0,114
-650,043	-13,135	-0,072	0,034
-649,028	-200,000	-0,001	-0,045
-648,014	-46,524	-0,053	-0,019
-646,999	800,000	0,025	-0,069
-645,984	-200,000	-0,000	0,156
-644,970	800,000	0,033	0,074
-643,955	-146,407	-0,181	0,011
-642,941	141,557	0,062	-0,060
-641,926	129,266	-0,086	-0,080
-640,911	-177,031	0,156	-0,003
-639,897	198,979	-0,075	0,085
-638,882	223,189	-0,018	0,022
-637,868	-200,000	0,036	-0,140
-636,853	667,071	0,036	-0,069
-635,838	-95,964	-0,035	0,007
-634,824	47,932	-0,116	-0,080
-633,809	-200,000	0,013	0,110
-632,795	-54,865	-0,010	-0,003
-631,780	369,472	-0,031	0,046
-630,765	-86,833	-0,040	0,009
-629,751	-76,671	-0,042	0,011
-628,736	-200,000	0,020	-0,104
-627,722	-200,000	-0,017	0,058
-626,707	329,630	-0,052	-0,074
-625,692	429,001	0,012	-0,019
-624,678	635,286	-0,044	0,083
-623,663	-200,000	-0,061	0,221
-622,649	384,453	0,050	-0,076
-621,634	-53,670	-0,052	0,017
-620,619	197,798	-0,066	-0,074
-619,605	-200,000	0,042	-0,135
-618,590	-43,023	0,054	-0,020
-617,576	74,859	0,037	0,028
-616,561	800,000	-0,027	0,081
-615,546	-200,000	-0,017	-0,063
-614,532	-42,924	-0,139	-0,052
-613,517	-200,000	-0,049	-0,204
-612,503	-80,980	0,036	0,009
-611,488	-44,823	-0,124	0,045
-610,474	87,456	-0,073	0,059
-609,459	-200,000	-0,002	0,042
-608,444	-200,000	0,020	-0,066
-607,430	-200,000	-0,019	0,085
-606,415	800,000	0,043	0,135
-605,401	-41,704	-0,131	0,049
-604,386	529,359	0,074	0,129
-603,371	800,000	0,003	0,007
-602,357	800,000	-0,029	0,083
-601,342	195,816	-0,060	0,067
-600,328	-171,646	-0,050	0,001
-599,313	-112,927	-0,067	0,010
-598,298	-59,349	0,030	0,009
-597,284	-10,366	0,098	0,048
-596,269	62,909	0,034	-0,025
-595,255	-200,000	-0,030	0,101
-594,240	-99,187	0,057	-0,010
-593,225	800,000	0,034	0,074
-592,211	289,762	-0,094	-0,125
-591,196	38,507	-0,081	0,053
-590,182	148,414	0,071	-0,071
-589,167	-185,627	0,115	-0,001
-588,152	263,667	-0,111	0,142
-587,138	-104,800	-0,099	0,016
-586,123	800,000	-0,039	-0,106
-585,109	49,298	0,115	-0,079
-584,094	34,902	0,057	-0,036
-583,079	145,895	0,102	0,100
-582,065	149,560	0,012	0,012
-581,050	309,235	-0,076	-0,105
-580,036	-200,000	-0,006	0,154
-579,021	-3,299	0,044	-0,022
-578,006	-13,048	-0,175	-0,083
-576,992	-101,305	0,147	-0,026
-575,977	138,591	-0,009	-0,009
-574,963	3,427	-0,054	-0,029
-573,948	-200,000	0,010	0,211
-572,934	-34,421	0,082	0,033
-571,919	46,449	-0,059	0,040
-570,904	-23,320	0,164	-0,072
-569,890	800,000	0,020	0,045
-568,875	-200,000	0,003	-0,073
-567,861	800,000	-0,021	0,063
-566,846	-13,597	-0,060	0,028
-565,831	-135,153	-0,066	-0,006
-564,817	-200,000	0,019	-0,158
-563,802	-200,000	0,030	-0,141
-562,788	-30,660	-0,121	-0,050
-561,773	10,423	-0,059	0,033
-560,758	-128,976	0,087	0,009
-559,744	-200,000	0,006	-0,148
-558,729	182,945	0,075	-0,081
-557,715	-32,692	-0,182	-0,074
-556,700	167,135	-0,116	-0,121
-555,685	158,117	-0,184	-0,187
-554,671	-39,427	0,087	-0,033
-553,656	263,339	-0,108	0,137
-552,642	-200,000	0,002	0,167
-551,627	-35,497	-0,148	-0,059
-550,612	6,267	-0,029	-0,016
-549,598	-200,000	-0,020	-0,166
-548,583	-200,000	-0,025	-0,144
-547,569	800,000	-0,062	-0,128
-546,554	-200,000	0,011	-0,080
-545,539	-43,486	0,065	0,024
-544,525	-106,606	-0,029	0,005
-543,510	-101,613	0,094	0,017
-542,496	-200,000	0,034	0,111
-541,481	-83,204	-0,167	0,039
-540,466	9,046	0,068	-0,038
-539,452	211,567	-0,020	-0,023
-538,437	-200,000	-0,004	0,102
-537,423	-200,000	-0,022	0,124
-536,408	735,388	0,039	-0,076
-535,393	105,790	-0,048	-0,041
-534,379	-200,000	0,013	-0,108
-533,364	-66,844	-0,049	0,014
-532,350	-46,970	0,159	-0,057
-531,335	599,057	0,026	-0,048
-530,321	116,393	0,118	0,105
-529,306	-12,919	-0,044	-0,021
-528,291	800,000	0,041	-0,092
-527,277	-199,374	-0,086	0,000
-526,262	83,039	-0,038	-0,030
-525,248	289,426	0,007	-0,010
-524,233	-41,232	0,082	0,031
-523,218	800,000	0,016	-0,046
-522,204	85,789	-0,036	0,029
-521,189	32,162	0,096	-0,060
-520,175	800,000	0,033	-0,078
-519,160	398,383	0,057	-0,088
-518,145	-200,000	-0,075	-0,251
-517,131	-200,000	-0,003	-0,068
-516,116	30,574	0,082	0,051
-515,102	638,062	0,020	0,037
-514,087	-200,000	0,005	-0,058
-513,072	3,257	-0,102	0,054
-512,058	74,822	0,026	-0,020
-511,043	283,976	0,087	0,114
-510,029	76,238	-0,092	0,071
-509,014	15,573	-0,036	0,021
-507,999	-200,000	-0,030	0,135
-506,985	14,682	0,056	0,032
-505,970	-49,240	0,062	-0,022
-504,956	114,556	0,019	-0,017
-503,941	-35,564	0,100	0,039
-502,926	103,303	-0,020	0,017
-501,912	-200,000	-0,001	0,189
-500,897	293,526	-0,060	0,080
-499,883	-42,462	-0,067	0,025
-498,868	-200,000	-0,004	-0,105
-497,853	223,260	0,061	-0,071
-496,839	150,358	0,087	0,086
-495,824	-106,951	-0,054	-0,009
-494,810	175,682	-0,070	0,074
-493,795	-47,759	-0,102	-0,036
-492,781	-200,000	0,000	0,008
-491,766	-200,000	0,010	-0,111
-490,751	-60,001	0,062	-0,019
-489,737	-173,060	-0,066	-0,001
-488,722	-116,028	-0,104	0,014
-487,708	56,626	0,030	0,021
-486,693	800,000	0,084	0,240
-485,678	-43,474	-0,119	0,044
-484,664	800,000	-0,018	0,043
-483,649	10,887	-0,242	-0,134
-482,635	207,021	0,086	-0,098
-481,620	-157,566	0,067	0,003
-480,605	-200,000	0,008	0,091
-479,591	-13,731	-0,123	0,058
-478,576	34,040	0,110	-0,070
-477,562	-175,261	-0,008	-0,000
-476,547	-9,758	-0,145	-0,070
-475,532	487,689	0,063	-0,106
-474,518	154,617	-0,033	0,033
-473,503	-200,000	0,021	0,136
-472,489	102,175	-0,037	0,032
-471,474	-25,622	-0,022	0,009
-470,459	226,035	-0,010	0,012
-469,445	89,657	-0,019	0,016
-468,430	-56,418	0,058	-0,019
-467,416	800,000	-0,050	0,108
-466,401	800,000	0,086	0,191
-465,386	-200,000	0,025	0,085
-464,372	209,710	-0,029	-0,033
-463,357	-8,759	0,025	0,012
-462,343	-200,000	-0,044	-0,153
-461,328	31,287	0,037	-0,023
-460,313	-200,000	0,007	-0,035
-459,299	290,877	-0,050	0,066
-458,284	-200,000	0,022	0,090
-457,270	136,171	0,047	0,044
-456,255	229,024	-0,021	-0,025
-455,241	-2,094	0,106	-0,054
-454,226	-120,211	0,157	0,019
-453,211	332,263	0,028	0,039
-452,197	-200,000	-0,003	0,081
-451,182	-200,000	0,008	0,078
-450,168	617,542	-0,015	-0,027
-449,153	362,273	0,029	0,042
-448,138	253,345	0,079	-0,098
-447,124	800,000	-0,015	-0,033
-446,109	-93,781	0,161	0,032
-445,095	410,755	-0,067	-0,104
-444,080	0,700	0,152	0,079
-443,065	3,099	-0,025	-0,013
-442,051	121,348	0,035	-0,031
-441,036	-18,232	-0,098	0,044
-440,022	800,000	-0,044	-0,138
-439,007	-200,000	0,017	-0,093
-437,992	-200,000	0,041	-0,204
-436,978	36,604	-0,085	0,055
-435,963	-200,000	0,004	0,068
-434,949	800,000	-0,029	0,072
-433,934	424,599	-0,049	-0,077
-432,919	-105,905	-0,046	0,008
-431,905	-122,519	-0,139	0,016
-430,890	-200,000	0,009	0,073
-429,876	-200,000	0,006	-0,031
-428,861	800,000	-0,020	0,064
-427,846	-114,217	-0,124	-0,017
-426,832	-92,039	-0,071	0,015
-425,817	729,752	0,020	-0,039
-424,803	564,458	-0,039	-0,069
-423,788	-124,198	0,029	-0,003
-422,773	-200,000	-0,005	0,018
-421,759	233,491	-0,065	-0,078
-420,744	-200,000	0,001	0,058
-419,730	-200,000	-0,023	-0,180
-418,715	-38,241	-0,027	-0,011
-417,701	165,152	-0,041	0,042
-416,686	438,240	-0,031	-0,049
-415,671	-200,000	-0,023	0,106
-414,657	47,286	-0,021	0,014
-413,642	0,758	0,037	0,019
-412,628	127,244	-0,046	-0,042
-411,613	-104,833	-0,046	-0,008
-410,598	-11,768	0,040	0,019
-409,584	-200,000	0,045	-0,175
-408,569	800,000	0,054	-0,156
-407,555	230,925	0,038	-0,046
-406,540	-151,915	0,044	0,002
-405,525	-138,688	-0,063	0,005
-404,511	-200,000	-0,010	-0,105
-403,496	-200,000	-0,007	-0,132
-402,482	-79,016	0,142	-0,035
-401,467	442,155	0,083	0,132
-400,452	319,429	0,054	0,075
-399,438	-11,201	-0,075	-0,036
-398,423	22,665	-0,066	-0,039
-397,409	57,370	-0,037	-0,026
-396,394	151,067	0,120	-0,119
-395,379	123,650	-0,095	-0,087
-394,365	-54,529	0,114	0,037
-393,350	154,221	0,163	0,163
-392,336	327,615	-0,038	0,053
-391,321	144,966	-0,020	-0,020
-390,306	-200,000	-0,011	0,133
-389,292	13,245	0,003	-0,002
-388,277	759,853	-0,059	0,118
-387,263	800,000	0,024	0,059
-386,248	134,206	0,074	0,069
-385,233	20,195	0,177	0,104
-384,219	67,976	0,036	0,027
-383,204	800,000	0,025	-0,061
-382,190	800,000	0,039	-0,100
-381,175	-90,572	-0,107	0,022
-380,160	130,670	-0,048	0,045
-379,146	-35,215	0,074	0,029
-378,131	-37,035	0,031	0,012
-377,117	342,303	-0,032	0,045
-376,102	-200,000	-0,001	0,034
-375,088	-200,000	0,010	-0,085
-374,073	7,838	-0,018	-0,010
-373,058	-62,248	0,075	-0,022
-372,044	-200,000	-0,012	-0,064
-371,029	-130,200	0,174	-0,017
-370,015	800,000	-0,028	0,063
-369,000	-80,394	-0,136	-0,033
-367,985	248,479	-0,053	0,066
-366,971	-159,449	-0,071	0,003
-365,956	283,673	0,031	0,040
-364,942	800,000	-0,017	0,035
-363,927	-86,851	0,162	0,036
-362,912	112,941	-0,083	0,073
-361,898	800,000	-0,005	0,013
-360,883	-200,000	0,014	0,136
-359,869	8,270	0,109	0,060
-358,854	-200,000	0,004	0,032
-357,839	256,800	0,092	-0,115
-356,825	-93,377	-0,043	-0,009
-355,810	1,600	0,118	-0,062
-354,796	-200,000	0,015	0,058
-353,781	-140,228	0,055	-0,004
-352,766	-48,690	-0,080	0,028
-351,752	285,645	0,027	0,036
-350,737	-98,698	0,103	-0,019
-349,723	35,507	0,022	-0,014
-348,708	-65,189	-0,119	0,035
-347,693	57,802	0,105	0,075
-346,679	-142,264	-0,038	-0,003
-345,664	290,371	0,064	-0,085
-344,650	320,305	-0,051	0,070
-343,635	800,000	-0,062	0,152
-342,620	800,000	0,058	-0,154
-341,606	800,000	0,057	0,141
-340,591	-1,639	0,064	0,032
-339,577	63,773	0,056	0,041
-338,562	-145,235	-0,154	-0,010
-337,548	591,536	0,010	-0,019
-336,533	77,075	-0,135	0,104
-335,518	420,448	-0,056	-0,088
-334,504	30,367	-0,045	0,028
-333,489	-200,000	-0,007	-0,194
-332,475	243,835	-0,129	-0,157
-331,460	800,000	0,006	-0,013
-330,445	-200,000	-0,003	-0,056
-329,431	111,137	-0,045	-0,039
-328,416	184,527	-0,024	0,026
-327,402	-200,000	0,011	0,048
-326,387	-110,409	0,127	-0,019
-325,372	202,760	-0,072	-0,081
-324,358	228,785	-0,033	-0,039
-323,343	800,000	0,041	-0,120
-322,329	43,661	-0,122	-0,081
-321,314	-28,967	0,042	0,017
-320,299	258,919	0,076	0,095
-319,285	-92,847	-0,113	-0,023
-318,270	-86,485	-0,131	0,029
-317,256	-16,937	-0,137	0,063
-316,241	-200,000	-0,004	-0,035
-315,226	-48,020	-0,028	0,010
-314,212	117,088	0,189	0,168
-313,197	28,093	0,094	-0,057
-312,183	212,217	-0,101	-0,116
-311,168	50,219	-0,094	0,064
-310,153	800,000	-0,022	-0,051
-309,139	-200,000	0,000	-0,055
-308,124	374,567	0,061	0,090
-307,110	-200,000	0,018	0,103
-306,095	358,968	0,045	-0,066
-305,080	800,000	0,021	-0,044
-304,066	-15,024	-0,010	-0,005
-303,051	253,440	-0,064	-0,080
-302,037	119,680	0,019	0,017
-301,022	-99,877	-0,032	0,006
-300,008	-28,747	0,229	-0,095
-298,993	-159,581	-0,020	-0,001
-297,978	-81,954	0,080	-0,019
-296,964	-200,000	-0,038	-0,142
-295,949	169,698	0,034	0,035
-294,935	-39,179	-0,062	-0,024
-293,920	-200,000	-0,005	-0,117
-292,905	16,253	-0,033	-0,019
-291,891	324,346	0,093	0,129
-290,876	213,864	-0,041	0,047
-289,862	-129,978	-0,132	0,013
-288,847	393,451	-0,075	0,113
-287,832	340,853	-0,006	0,009
-286,818	-77,905	0,080	-0,020
-285,803	34,517	0,118	0,074
-284,789	55,644	0,058	-0,041
-283,774	-122,327	-0,063	0,007
-282,759	206,324	0,083	-0,093
-281,745	-65,472	-0,073	-0,021
-280,730	-54,392	-0,069	-0,023
-279,716	800,000	-0,018	-0,038
-278,701	80,144	-0,078	-0,061
-277,686	344,876	-0,043	-0,062
-276,672	800,000	-0,028	0,084
-275,657	-200,000	0,033	0,259
-274,643	-200,000	-0,015	0,062
-273,628	-200,000	0,004	-0,070
-272,613	-200,000	0,003	0,032
-271,599	-200,000	-0,002	0,080
-270,584	800,000	0,018	-0,052
-269,570	-168,997	0,175	0,005
-268,555	385,728	0,023	-0,035
-267,540	800,000	0,048	-0,124
-266,526	769,302	-0,043	-0,085
-265,511	800,000	0,077	-0,162
-264,497	800,000	0,053	0,168
-263,482	355,966	0,033	0,048
-262,467	-4,654	0,085	0,042
-261,453	-200,000	0,015	0,145
-260,438	-200,000	0,013	0,103
-259,424	175,805	0,089	-0,093
-258,409	-200,000	-0,002	0,068
-257,395	318,248	0,099	0,135
-256,380	-200,000	0,001	-0,042
-255,365	231,147	0,014	0,017
-254,351	-9,457	0,095	0,046
-253,336	490,086	0,046	-0,076
-252,322	14,673	-0,032	-0,018
-251,307	271,130	-0,082	0,104
-250,292	161,985	-0,020	-0,020
-249,278	-200,000	-0,025	0,101
-248,263	694,392	-0,019	0,036
-247,249	-75,320	0,064	0,016
-246,234	-116,281	-0,048	-0,006
-245,219	-160,625	0,146	-0,006
-244,205	-200,000	0,014	-0,139
-243,190	-200,000	-0,029	0,152
-242,176	-106,019	-0,020	-0,003
-241,161	-14,335	0,092	-0,043
-240,146	484,791	-0,004	-0,006
-239,132	-88,329	-0,019	0,004
-238,117	-200,000	0,017	0,142
-237,103	129,878	-0,112	-0,103
-236,088	51,106	0,107	-0,073
-235,073	74,364	0,066	-0,050
-234,059	76,220	0,089	-0,068
-233,044	230,014	-0,083	-0,098
-232,030	36,510	-0,063	-0,040
-231,015	-29,442	0,062	-0,026
-230,000	-45,351	-0,124	0,044
-228,986	-15,189	-0,097	-0,045
-227,971	-94,374	0,141	-0,027
-226,957	800,000	0,030	0,087
-225,942	361,599	0,092	0,133
-224,927	-185,888	-0,042	-0,000
-223,913	192,740	-0,062	-0,067
-222,898	-141,233	-0,143	0,010
-221,884	778,395	-0,009	0,018
-220,869	-106,156	0,049	0,008
-219,855	318,771	-0,026	0,036
-218,840	776,902	0,027	0,054
-217,825	800,000	0,037	-0,113
-216,811	92,597	0,050	-0,041
-215,796	-0,145	-0,116	-0,059
-214,782	57,469	0,049	0,035
-213,767	-200,000	0,014	0,078
-212,752	697,081	0,045	0,086
-211,738	200,573	0,040	-0,045
-210,723	-200,000	-0,003	-0,110
-209,709	-200,000	-0,006	-0,071
-208,694	239,907	-0,073	-0,088
-207,679	800,000	-0,062	-0,126
-206,665	-51,618	0,081	0,027
-205,650	206,824	-0,042	0,048
-204,636	-93,598	0,172	0,034
-203,621	-98,298	0,163	0,030
-202,606	77,191	-0,096	0,074
-201,592	369,832	0,077	-0,113
-200,577	104,654	0,089	0,076
-199,563	-200,000	0,014	0,090
-198,548	-154,550	0,037	-0,002
-197,533	-83,926	-0,118	-0,027
-196,519	-200,000	0,010	0,048
-195,504	35,850	-0,073	-0,046
-194,490	800,000	-0,018	-0,037
-193,475	414,583	0,017	-0,026
-192,460	367,445	0,043	-0,063
-191,446	440,830	0,094	0,149
-190,431	397,178	0,060	0,091
-189,417	-172,381	-0,132	0,003
-188,402	800,000	0,040	-0,100
-187,387	-45,819	-0,046	0,016
-186,373	-22,187	-0,032	-0,014
-185,358	-200,000	0,006	0,088
-184,344	387,489	0,016	0,025
-183,329	-200,000	0,032	0,121
-182,315	-79,241	0,098	0,024
-181,300	-65,400	-0,119	-0,034
-180,285	-200,000	-0,007	-0,052
-179,271	-200,000	-0,026	-0,178
-178,256	-69,132	-0,111	-0,031
-177,242	33,971	0,115	-0,072
-176,227	-47,936	0,083	0,029
-175,212	-200,000	-0,004	0,116
-174,198	-63,557	-0,098	-0,029
-173,183	366,827	0,051	0,074
-172,169	-123,608	0,083	0,009
-171,154	-200,000	-0,010	-0,061
-170,139	130,026	-0,044	0,040
-169,125	800,000	0,054	0,164
-168,110	-200,000	0,002	0,045
-167,096	800,000	0,037	0,091
-166,081	70,477	-0,186	0,138
-165,066	88,686	-0,047	-0,038
-164,052	314,730	0,042	0,057
-163,037	57,916	0,083	-0,058
-162,023	-195,347	-0,020	0,000
-161,008	121,345	0,109	-0,098
-159,993	283,492	-0,042	-0,054
-158,979	-181,786	-0,181	0,002
-157,964	-200,000	0,007	0,031
-156,950	800,000	0,060	-0,135
-155,935	-123,664	0,167	0,019
-154,920	112,719	-0,038	-0,034
-153,906	264,027	0,074	0,092
-152,891	800,000	0,016	0,034
-151,877	-200,000	-0,001	-0,173
-150,862	2,410	-0,074	-0,039
-149,847	-8,127	-0,069	0,033
-148,833	-10,057	-0,016	-0,008
-147,818	-200,000	-0,005	-0,028
-146,804	-30,083	0,136	0,056
-145,789	573,516	-0,011	0,020
-144,775	203,412	0,008	0,009
-143,760	195,561	-0,035	0,038
-142,745	47,137	0,055	-0,037
-141,731	800,000	0,008	-0,020
-140,716	515,639	0,012	-0,021
-139,702	85,189	-0,018	0,014
-138,687	-200,000	-0,015	0,052
-137,672	-200,000	-0,020	-0,107
-136,658	290,071	-0,054	-0,071
-135,643	-200,000	0,043	-0,166
-134,629	-200,000	-0,002	-0,148
-133,614	762,676	-0,050	0,098
-132,599	727,666	0,016	-0,031
-131,585	23,738	0,202	0,119
-130,570	800,000	0,045	-0,123
-129,556	502,852	-0,062	-0,103
-128,541	529,286	-0,110	-0,188
-127,526	-19,783	-0,035	-0,016
-126,512	-10,584	0,208	-0,099
-125,497	-200,000	-0,023	-0,083
-124,483	-89,958	0,063	0,013
-123,468	-200,000	0,004	0,017
-122,453	-200,000	-0,034	0,118
-121,439	-200,000	-0,013	0,066
-120,424	-200,000	-0,011	-0,037
-119,410	-200,000	0,000	-0,042
