DTS Sentinel unit serial number:	SN410029Multiplexer serial number:	ORYXHardware model number:	OX2-SRSoftware version number:	ORYX F/W v4,00 Oryx Data Collector v3.7.2.0data status	okinstallation	B5 Nyhavnadifferential loss correction	single-endedforward channel	channel 2reverse channel	N/Adate	2023/12/12time	07:37:13forward acquisition time	300,00reverse acquisition time	0,00gamma	499,1914k internal	0,3158k external	0,3158temperature offset calibration	1,0000default loss term (dB/km)	0,3820temperature slope calibration	1,0000multiplexer offset coefficient	1,0000multiplexer slope coefficient	1,0000fibre end	0,00T internal ref (°C)	15,14T ext. ref 1 (°C)	-1,14T ext. ref 2 (°C)	-1,42length (m)	temperature (°C)	Stokes	anti-Stokes-744,400	235,629	0,067	0,082
-743,385	-118,968	-0,393	-0,050
-742,371	-200,000	0,024	0,152
-741,356	-67,446	-0,295	0,085
-740,342	-42,525	0,156	0,058
-739,327	-81,852	-0,260	0,062
-738,312	695,186	0,066	-0,129
-737,298	-158,090	-0,337	-0,014
-736,283	800,000	0,018	0,056
-735,269	-134,355	-0,214	-0,019
-734,254	-6,238	0,129	-0,065
-733,239	-20,478	-0,464	-0,209
-732,225	-58,006	0,104	0,033
-731,210	-200,000	0,005	-0,037
-730,196	62,336	-0,004	0,003
-729,181	-200,000	-0,036	-0,117
-728,167	-200,000	-0,047	-0,233
-727,152	291,805	0,009	0,012
-726,137	56,672	-0,164	-0,118
-725,123	27,529	0,196	-0,121
-724,108	-60,277	-0,191	-0,060
-723,094	800,000	0,042	-0,127
-722,079	523,538	0,080	-0,139
-721,064	536,824	0,014	-0,025
-720,050	800,000	0,063	-0,142
-719,035	27,443	0,053	-0,033
-718,021	-165,870	-0,140	0,004
-717,006	-200,000	-0,003	-0,135
-715,991	95,313	-0,143	-0,120
-714,977	59,551	-0,168	-0,122
-713,962	-77,546	0,063	0,016
-712,948	800,000	-0,065	-0,145
-711,933	800,000	0,078	-0,177
-710,918	-60,176	-0,093	-0,029
-709,904	223,342	0,054	-0,064
-708,889	385,389	-0,007	-0,011
-707,875	183,360	0,092	-0,100
-706,860	-22,080	-0,028	0,012
-705,845	-91,742	0,038	0,008
-704,831	51,189	-0,065	0,045
-703,816	-47,728	0,068	-0,024
-702,802	145,903	-0,128	-0,126
-701,787	-200,000	-0,000	-0,029
-700,772	-200,000	0,003	-0,038
-699,758	17,832	-0,064	-0,037
-698,743	-200,000	0,020	-0,095
-697,729	646,513	-0,060	-0,113
-696,714	-48,888	-0,070	-0,025
-695,699	-200,000	0,016	-0,177
-694,685	-137,305	-0,108	-0,009
-693,670	722,680	0,032	-0,064
-692,656	505,535	-0,034	-0,058
-691,641	176,509	-0,021	0,022
-690,627	-25,860	0,041	0,018
-689,612	800,000	-0,030	-0,085
-688,597	-200,000	-0,007	0,036
-687,583	-171,439	-0,055	0,001
-686,568	800,000	0,024	-0,065
-685,554	-200,000	-0,017	0,175
-684,539	-24,890	0,063	-0,027
-683,524	24,240	0,057	-0,035
-682,510	202,042	0,058	-0,066
-681,495	-6,206	-0,193	-0,097
-680,481	54,274	-0,080	-0,057
-679,466	800,000	0,076	-0,169
-678,451	395,775	-0,056	-0,087
-677,437	-31,745	0,099	-0,041
-676,422	145,085	-0,012	-0,012
-675,408	-108,932	-0,167	0,026
-674,393	800,000	0,045	-0,112
-673,378	-98,632	0,100	-0,019
-672,364	310,801	0,023	-0,032
-671,349	0,008	-0,092	-0,048
-670,335	-36,508	0,043	-0,017
-669,320	-46,724	-0,042	0,015
-668,305	-200,000	0,006	0,035
-667,291	800,000	0,029	0,063
-666,276	-85,060	-0,103	0,024
-665,262	54,504	0,070	0,050
-664,247	216,875	-0,089	-0,105
-663,232	37,940	-0,086	0,056
-662,218	30,325	0,120	0,075
-661,203	238,574	-0,031	-0,038
-660,189	800,000	0,014	0,039
-659,174	317,847	-0,013	0,018
-658,159	-15,107	-0,066	-0,031
-657,145	-165,858	-0,065	-0,002
-656,130	25,019	-0,134	0,081
-655,116	321,093	-0,033	0,046
-654,101	-45,657	-0,115	0,041
-653,086	-200,000	-0,023	-0,115
-652,072	44,239	-0,008	0,005
-651,057	391,596	-0,039	-0,059
-650,043	-70,127	-0,083	-0,023
-649,028	-141,150	-0,055	-0,004
-648,014	639,092	-0,026	0,049
-646,999	9,775	0,082	0,046
-645,984	182,156	-0,065	-0,070
-644,970	-148,694	-0,190	0,011
-643,955	478,417	-0,034	-0,057
-642,941	-124,470	-0,090	0,010
-641,926	-200,000	-0,027	0,113
-640,911	129,701	0,145	0,136
-639,897	800,000	-0,057	0,120
-638,882	800,000	0,047	-0,139
-637,868	-61,720	-0,100	0,031
-636,853	-200,000	0,006	-0,109
-635,838	-200,000	0,007	-0,045
-634,824	144,335	-0,089	-0,087
-633,809	-200,000	-0,007	-0,177
-632,795	-200,000	-0,000	0,043
-631,780	36,575	-0,041	0,026
-630,765	-61,612	0,041	-0,012
-629,751	-52,500	0,039	-0,013
-628,736	170,071	-0,089	-0,094
-627,722	-200,000	-0,013	-0,246
-626,707	-200,000	0,006	-0,082
-625,692	89,551	0,174	0,142
-624,678	-200,000	-0,036	0,127
-623,663	30,185	-0,053	0,033
-622,649	90,893	-0,067	-0,055
-621,634	800,000	0,066	-0,160
-620,619	-101,010	-0,079	-0,014
-619,605	541,912	-0,042	-0,074
-618,590	-63,383	0,094	-0,028
-617,576	-29,149	0,085	0,035
-616,561	-52,570	-0,014	-0,005
-615,546	800,000	-0,020	-0,045
-614,532	333,397	-0,082	-0,116
-613,517	180,326	0,067	0,072
-612,503	-95,717	-0,055	0,011
-611,488	656,562	0,049	-0,092
-610,474	116,722	0,042	0,038
-609,459	800,000	0,005	0,015
-608,444	270,697	0,085	-0,109
-607,430	-200,000	-0,028	-0,118
-606,415	-200,000	0,037	-0,145
-605,401	373,796	0,066	0,099
-604,386	-50,532	0,144	-0,050
-603,371	-156,081	-0,037	-0,002
-602,357	19,187	-0,051	-0,030
-601,342	469,266	-0,071	-0,117
-600,328	13,411	-0,124	0,070
-599,313	800,000	-0,022	0,059
-598,298	-200,000	0,004	0,018
-597,284	-200,000	-0,017	-0,073
-596,269	800,000	0,014	-0,032
-595,255	800,000	-0,022	-0,052
-594,240	800,000	0,058	0,146
-593,225	1,138	0,047	-0,024
-592,211	226,464	-0,081	-0,097
-591,196	-200,000	0,006	0,103
-590,182	582,452	0,031	0,055
-589,167	-200,000	-0,005	0,028
-588,152	-143,740	-0,108	0,007
-587,138	297,616	-0,081	0,110
-586,123	-200,000	-0,019	-0,094
-585,109	-200,000	-0,008	-0,123
-584,094	-113,019	-0,085	0,012
-583,079	618,085	-0,064	0,118
-582,065	615,107	0,018	-0,033
-581,050	-200,000	-0,014	0,065
-580,036	-200,000	0,004	-0,045
-579,021	-24,426	0,055	-0,024
-578,006	-48,262	-0,082	0,029
-576,992	-126,543	-0,070	-0,007
-575,977	-200,000	0,036	0,136
-574,963	800,000	0,068	0,184
-573,948	-86,843	-0,197	0,044
-572,934	-200,000	0,013	0,110
-571,919	-101,220	0,055	-0,010
-570,904	-126,042	-0,047	0,005
-569,890	67,762	-0,097	-0,072
-568,875	-92,276	-0,064	-0,013
-567,861	-20,590	0,149	-0,067
-566,846	-200,000	-0,019	0,121
-565,831	351,043	-0,011	-0,017
-564,817	701,039	-0,070	-0,135
-563,802	82,007	-0,088	0,070
-562,788	-44,469	-0,054	0,020
-561,773	68,007	0,067	0,050
-560,758	-200,000	-0,013	0,113
-559,744	-153,187	0,124	-0,006
-558,729	-20,773	0,069	0,031
-557,715	-110,738	0,119	-0,018
-556,700	-200,000	-0,033	-0,135
-555,685	-200,000	-0,004	0,053
-554,671	-17,054	0,076	-0,035
-553,656	-162,328	0,004	0,000
-552,642	169,188	-0,063	0,066
-551,627	-200,000	-0,010	0,075
-550,612	800,000	0,029	-0,067
-549,598	-200,000	0,004	-0,135
-548,583	-20,848	0,073	-0,033
-547,569	-97,375	-0,106	-0,020
-546,554	-200,000	0,014	0,062
-545,539	764,859	0,072	0,144
-544,525	445,685	-0,047	-0,076
-543,510	72,964	0,005	0,004
-542,496	525,989	-0,074	-0,128
-541,481	379,786	0,061	-0,092
-540,466	24,760	0,070	0,043
-539,452	-200,000	0,004	-0,049
-538,437	765,048	0,005	-0,009
-537,423	-200,000	-0,004	0,111
-536,408	313,518	0,034	-0,047
-535,393	88,126	0,064	-0,052
-534,379	-60,253	0,112	0,035
-533,364	-84,988	-0,111	-0,025
-532,350	-55,765	-0,017	-0,006
-531,335	-96,475	0,142	0,027
-530,321	800,000	-0,019	0,059
-529,306	305,052	0,067	-0,092
-528,291	-96,537	-0,147	-0,028
-527,277	101,281	0,018	0,015
-526,262	-200,000	-0,007	-0,069
-525,248	800,000	-0,036	-0,107
-524,233	-63,866	-0,160	0,048
-523,218	-53,892	0,066	-0,022
-522,204	-149,977	-0,082	-0,005
-521,189	-57,429	-0,122	-0,039
-520,175	-124,851	-0,098	-0,011
-519,160	800,000	0,030	-0,080
-518,145	-113,873	0,088	0,012
-517,131	800,000	-0,035	0,087
-516,116	-112,789	0,086	0,012
-515,102	-200,000	0,036	0,164
-514,087	-68,667	-0,023	0,006
-513,072	24,699	-0,013	-0,008
-512,058	-40,619	-0,059	-0,022
-511,043	655,892	0,046	0,087
-510,029	111,411	0,104	0,092
-509,014	707,608	0,055	0,106
-507,999	178,130	-0,141	0,150
-506,985	1,020	0,118	0,061
-505,970	-93,979	-0,174	-0,035
-504,956	28,847	0,099	-0,061
-503,941	109,998	-0,047	-0,041
-502,926	-200,000	-0,013	0,073
-501,912	-200,000	0,014	0,155
-500,897	-200,000	-0,017	0,078
-499,883	-107,403	-0,051	0,008
-498,868	84,939	-0,063	-0,050
-497,853	-106,116	-0,028	0,004
-496,839	-129,759	0,061	0,006
-495,824	8,736	0,189	-0,104
-494,810	63,524	0,072	0,053
-493,795	-200,000	-0,001	0,018
-492,781	800,000	-0,036	-0,110
-491,766	-118,119	0,007	0,001
-490,751	-80,303	-0,096	-0,023
-489,737	71,009	0,110	0,083
-488,722	-200,000	-0,011	0,103
-487,708	471,260	0,039	0,064
-486,693	462,632	0,068	0,110
-485,678	-200,000	-0,004	0,037
-484,664	-164,982	-0,118	-0,004
-483,649	-62,792	-0,049	-0,015
-482,635	-200,000	0,020	-0,082
-481,620	-200,000	0,038	0,000
-480,605	-100,859	-0,065	0,011
-479,591	-200,000	-0,004	-0,058
-478,576	-57,227	-0,089	0,028
-477,562	686,356	-0,029	-0,056
-476,547	-67,635	-0,041	0,012
-475,532	237,891	-0,074	-0,089
-474,518	-63,767	0,132	0,039
-473,503	142,796	0,101	0,098
-472,489	103,707	0,070	0,060
-471,474	317,152	0,100	-0,138
-470,459	14,937	0,071	-0,040
-469,445	-200,000	0,026	-0,141
-468,430	-200,000	-0,023	-0,092
-467,416	-200,000	0,037	0,141
-466,401	-200,000	-0,021	0,096
-465,386	-30,183	-0,128	-0,053
-464,372	800,000	0,039	0,114
-463,357	-97,017	-0,091	0,017
-462,343	-148,973	-0,133	0,008
-461,328	81,239	-0,050	0,039
-460,313	-56,331	0,089	-0,029
-459,299	17,628	-0,037	0,021
-458,284	-138,854	-0,037	-0,003
-457,270	-106,880	0,123	-0,020
-456,255	-38,932	-0,122	-0,047
-455,241	-200,000	0,001	-0,021
-454,226	-69,886	-0,106	0,029
-453,211	-200,000	-0,022	0,107
-452,197	-88,803	0,100	-0,021
-451,182	86,279	0,043	0,034
-450,168	-101,812	0,153	-0,027
-449,153	248,306	-0,025	0,031
-448,138	152,680	-0,077	0,077
-447,124	110,976	-0,051	-0,045
-446,109	800,000	0,046	0,115
-445,095	800,000	0,047	0,139
-444,080	-116,715	0,151	-0,020
-443,065	800,000	0,041	-0,126
-442,051	88,460	-0,090	-0,073
-441,036	71,862	-0,085	0,064
-440,022	-200,000	-0,012	0,053
-439,007	-200,000	0,011	-0,064
-437,992	800,000	0,017	-0,052
-436,978	67,830	0,030	-0,022
-435,963	-200,000	0,016	-0,122
-434,949	-43,934	0,021	0,008
-433,934	-200,000	0,049	-0,163
-432,919	-93,324	-0,125	-0,025
-431,905	-31,143	-0,168	-0,069
-430,890	-17,475	0,165	0,075
-429,876	100,622	-0,085	0,072
-428,861	74,150	0,106	0,081
-427,846	-128,108	-0,154	-0,016
-426,832	62,234	-0,109	0,079
-425,817	-200,000	-0,022	-0,079
-424,803	-130,986	-0,119	0,011
-423,788	-128,554	0,110	0,011
-422,773	217,502	0,043	0,050
-421,759	800,000	-0,034	0,091
-420,744	-127,172	0,011	0,001
-419,730	-200,000	-0,001	0,037
-418,715	217,423	-0,067	-0,078
-417,701	-200,000	-0,002	-0,096
-416,686	800,000	0,026	-0,058
-415,671	443,188	0,047	0,075
-414,657	213,728	0,076	0,087
-413,642	-200,000	-0,044	0,190
-412,628	-51,423	-0,052	-0,017
-411,613	128,973	-0,053	-0,049
-410,598	-200,000	0,020	-0,114
-409,584	211,242	0,076	0,087
-408,569	609,201	0,039	-0,072
-407,555	-200,000	-0,019	0,098
-406,540	63,525	-0,056	-0,041
-405,525	48,776	-0,052	0,035
-404,511	-80,281	-0,143	-0,035
-403,496	10,999	-0,035	-0,020
-402,482	106,964	-0,129	0,111
-401,467	-135,517	0,112	0,010
-400,452	238,078	0,108	-0,131
-399,438	-20,487	0,049	0,022
-398,423	-1,075	0,051	-0,026
-397,409	-200,000	0,009	0,032
-396,394	60,729	0,012	0,008
-395,379	-59,868	0,066	0,020
-394,365	-43,604	0,103	-0,038
-393,350	-200,000	-0,018	-0,106
-392,336	329,093	-0,047	0,066
-391,321	201,613	-0,101	-0,113
-390,306	35,349	-0,060	0,039
-389,292	-73,993	0,020	-0,005
-388,277	531,059	0,069	-0,118
-387,263	43,488	0,108	0,072
-386,248	800,000	0,072	0,163
-385,233	-82,643	-0,100	-0,023
-384,219	596,329	-0,037	-0,066
-383,204	-200,000	-0,004	0,040
-382,190	-157,276	-0,151	-0,007
-381,175	-184,116	0,094	0,001
-380,160	-133,778	-0,157	0,014
-379,146	-93,389	-0,106	0,021
-378,131	-147,336	0,076	0,005
-377,117	-20,962	-0,078	-0,035
-376,102	197,149	0,050	0,055
-375,088	-200,000	-0,127	-0,000
-374,073	719,154	-0,012	0,024
-373,058	493,959	0,087	0,146
-372,044	-200,000	0,008	0,117
-371,029	-200,000	-0,028	0,169
-370,015	-38,750	-0,036	0,014
-369,000	800,000	-0,083	-0,205
-367,985	-200,000	0,008	-0,099
-366,971	231,108	0,029	0,034
-365,956	22,057	0,025	-0,015
-364,942	-158,808	0,088	0,004
-363,927	563,409	0,019	-0,034
-362,912	17,636	0,033	0,019
-361,898	2,537	-0,042	0,022
-360,883	-200,000	-0,012	-0,214
-359,869	-200,000	-0,014	-0,049
-358,854	800,000	0,091	-0,190
-357,839	-200,000	-0,018	0,100
-356,825	399,541	-0,120	0,183
-355,810	-200,000	-0,000	0,143
-354,796	-200,000	0,040	0,215
-353,781	120,080	-0,041	0,037
-352,766	-200,000	-0,021	-0,109
-351,752	308,636	0,038	-0,051
-350,737	22,952	0,058	0,034
-349,723	-3,646	0,121	0,061
-348,708	800,000	-0,077	0,212
-347,693	-82,135	0,052	-0,012
-346,679	-200,000	0,019	-0,216
-345,664	201,448	0,148	-0,166
-344,650	12,576	0,099	0,055
-343,635	46,141	0,002	0,001
-342,620	799,937	0,008	0,016
-341,606	-200,000	0,009	0,110
-340,591	-169,975	0,065	0,002
-339,577	-153,318	-0,120	-0,006
-338,562	-149,389	-0,013	-0,001
-337,548	-86,340	0,160	0,035
-336,533	-200,000	0,172	0,001
-335,518	204,168	-0,106	0,119
-334,504	5,119	0,029	-0,015
-333,489	800,000	-0,034	0,094
-332,475	-97,305	-0,018	0,003
-331,460	-200,000	-0,004	-0,021
-330,445	-145,803	-0,154	-0,010
-329,431	800,000	0,008	-0,022
-328,416	-200,000	-0,028	-0,092
-327,402	-38,843	0,079	0,030
-326,387	-126,740	-0,014	-0,001
-325,372	-200,000	-0,030	0,097
-324,358	-200,000	0,019	-0,107
-323,343	177,145	-0,065	-0,069
-322,329	-200,000	-0,020	0,079
-321,314	154,314	0,089	-0,089
-320,299	-61,759	-0,117	0,035
-319,285	76,452	-0,071	0,054
-318,270	20,110	-0,090	-0,053
-317,256	152,521	-0,093	-0,092
-316,241	212,573	0,035	-0,040
-315,226	79,818	0,089	0,069
-314,212	-126,223	0,023	0,003
-313,197	-200,000	-0,014	0,128
-312,183	125,114	0,035	0,032
-311,168	800,000	0,042	-0,121
-310,153	-200,000	-0,002	-0,071
-309,139	-129,167	-0,020	0,002
-308,124	287,872	0,060	-0,079
-307,110	-200,000	0,014	0,062
-306,095	-200,000	-0,013	0,047
-305,080	29,583	-0,036	0,022
-304,066	-145,288	0,067	-0,004
-303,051	-200,000	0,004	0,023
-302,037	800,000	-0,023	0,047
-301,022	800,000	0,081	-0,251
-300,008	20,050	-0,037	0,022
-298,993	800,000	0,014	0,032
-297,978	157,440	0,049	-0,049
-296,964	-200,000	-0,007	-0,101
-295,949	227,905	-0,033	-0,039
-294,935	191,347	-0,044	-0,048
-293,920	-200,000	0,006	0,105
-292,905	141,922	0,014	0,014
-291,891	352,416	-0,040	-0,057
-290,876	-200,000	0,047	-0,183
-289,862	143,033	-0,085	0,082
-288,847	-156,886	0,085	-0,004
-287,832	800,000	-0,053	-0,153
-286,818	71,599	0,075	-0,056
-285,803	-137,080	0,072	0,006
-284,789	471,311	-0,038	-0,061
-283,774	70,350	0,082	-0,061
-282,759	-134,873	0,023	-0,002
-281,745	-108,245	-0,063	-0,010
-280,730	31,915	-0,112	-0,070
-279,716	-134,915	0,012	0,001
-278,701	493,966	0,015	-0,024
-277,686	42,329	0,090	0,059
-276,672	78,759	0,086	0,066
-275,657	-200,000	-0,030	0,187
-274,643	270,515	-0,053	0,068
-273,628	259,513	-0,054	-0,068
-272,613	51,744	0,035	0,024
-271,599	-105,635	0,143	0,023
-270,584	-200,000	0,043	0,146
-269,570	-39,342	0,031	-0,012
-268,555	-99,305	0,087	-0,016
-267,540	-154,740	-0,148	-0,007
-266,526	174,564	-0,114	-0,119
-265,511	-200,000	0,004	-0,062
-264,497	171,861	0,055	0,058
-263,482	345,283	0,034	-0,048
-262,467	800,000	0,023	-0,055
-261,453	57,184	0,063	-0,044
-260,438	-200,000	-0,020	0,123
-259,424	-200,000	0,017	-0,054
-258,409	405,146	-0,044	0,067
-257,395	-200,000	-0,003	0,014
-256,380	334,306	0,056	0,078
-255,365	475,095	0,036	-0,059
-254,351	111,439	0,053	0,046
-253,336	140,948	-0,035	-0,033
-252,322	-200,000	-0,032	-0,134
-251,307	-132,873	-0,156	-0,014
-250,292	-77,556	-0,123	-0,030
-249,278	259,203	0,082	0,103
-248,263	-21,256	-0,067	0,029
-247,249	-143,890	0,227	0,015
-246,234	800,000	0,008	0,019
-245,219	-200,000	-0,028	-0,144
-244,205	-200,000	-0,002	-0,010
-243,190	800,000	-0,015	-0,041
-242,176	-142,423	0,043	0,003
-241,161	-31,269	-0,037	-0,015
-240,146	134,247	0,116	0,108
-239,132	-200,000	-0,028	0,187
-238,117	-32,041	-0,140	-0,057
-237,103	-200,000	-0,003	0,038
-236,088	-24,471	-0,064	0,028
-235,073	-26,049	0,138	0,058
-234,059	-86,656	0,062	0,014
-233,044	-200,000	-0,009	-0,124
-232,030	738,791	0,067	-0,131
-231,015	-200,000	-0,008	-0,040
-230,000	210,393	0,109	-0,124
-228,986	7,209	-0,103	0,055
-227,971	583,214	0,072	0,129
-226,957	-23,110	-0,087	0,038
-225,942	-50,088	0,114	0,039
-224,927	485,756	0,012	-0,019
-223,913	170,622	0,150	-0,156
-222,898	-67,792	-0,098	0,028
-221,884	240,603	-0,103	0,125
-220,869	-29,495	-0,095	0,039
-219,855	61,632	0,118	-0,084
-218,840	-200,000	-0,041	0,148
-217,825	800,000	-0,003	-0,011
-216,811	-122,945	-0,065	0,007
-215,796	30,641	-0,104	-0,064
-214,782	-200,000	0,011	-0,046
-213,767	96,582	-0,041	-0,034
-212,752	155,871	0,103	0,103
-211,738	-200,000	-0,042	0,138
-210,723	-14,911	-0,058	0,027
-209,709	-200,000	0,014	0,047
-208,694	249,058	0,099	0,122
-207,679	800,000	-0,036	0,077
-206,665	155,989	-0,069	0,069
-205,650	301,144	0,044	0,059
-204,636	-49,569	-0,017	0,006
-203,621	-85,338	-0,102	0,023
-202,606	-179,091	0,043	0,001
-201,592	537,962	-0,073	-0,125
-200,577	-182,909	0,028	0,000
-199,563	374,548	0,041	-0,061
-198,548	0,779	0,069	0,036
-197,533	-200,000	-0,029	0,177
-196,519	-89,729	0,082	0,017
-195,504	369,799	-0,055	-0,081
-194,490	-200,000	-0,005	-0,057
-193,475	800,000	-0,029	-0,061
-192,460	800,000	-0,019	-0,043
-191,446	-156,432	0,075	0,003
-190,431	800,000	-0,042	-0,091
-189,417	-7,980	0,210	-0,102
-188,402	800,000	0,028	-0,080
-187,387	-200,000	0,010	-0,099
-186,373	-200,000	-0,035	-0,149
-185,358	-5,056	-0,073	0,036
-184,344	-200,000	0,009	-0,084
-183,329	-90,042	0,113	-0,023
-182,315	383,044	-0,082	-0,122
-181,300	-132,796	-0,166	-0,015
-180,285	13,406	-0,113	-0,063
-179,271	-200,000	-0,066	-0,220
-178,256	311,832	0,092	-0,124
-177,242	209,026	0,110	0,124
-176,227	-200,000	-0,017	0,160
-175,212	-29,866	0,027	-0,011
-174,198	223,686	0,110	0,128
-173,183	-200,000	0,001	-0,090
-172,169	137,982	0,040	-0,038
-171,154	-200,000	-0,007	-0,045
-170,139	616,453	0,090	0,163
-169,125	131,914	0,059	0,055
-168,110	800,000	-0,043	0,137
-167,096	168,903	-0,024	0,025
-166,081	-200,000	0,002	-0,046
-165,066	-124,926	0,095	0,010
-164,052	800,000	-0,007	0,015
-163,037	-200,000	0,002	0,021
-162,023	-100,978	0,079	-0,014
-161,008	-200,000	0,004	-0,030
-159,993	-91,018	0,010	-0,002
-158,979	-200,000	0,018	0,186
-157,964	80,758	0,024	0,019
-156,950	-67,636	-0,067	0,019
-155,935	-31,635	0,056	0,023
-154,920	22,377	0,040	-0,024
-153,906	-200,000	0,029	-0,107
-152,891	62,174	0,057	-0,041
-151,877	-83,033	-0,049	0,011
-150,862	-39,815	-0,092	0,035
-149,847	234,793	-0,071	0,084
-148,833	208,869	-0,045	-0,050
-147,818	800,000	0,048	0,128
-146,804	-97,748	0,089	-0,016
-145,789	558,240	0,068	0,119
-144,775	7,140	-0,119	0,064
-143,760	-200,000	0,013	-0,091
-142,745	-200,000	-0,012	-0,045
-141,731	-174,189	-0,041	-0,001
-140,716	800,000	-0,029	0,073
-139,702	-27,886	0,025	0,011
-138,687	-200,000	0,045	0,219
-137,672	800,000	-0,043	0,128
-136,658	225,690	0,040	0,046
-135,643	21,288	-0,083	-0,048
-134,629	-200,000	0,009	0,096
-133,614	4,561	0,114	-0,060
-132,599	-200,000	0,000	0,165
-131,585	800,000	0,051	0,116
-130,570	-135,257	-0,069	-0,006
-129,556	157,503	0,034	0,034
-128,541	-30,035	-0,046	0,019
-127,526	-200,000	-0,036	0,131
-126,512	484,528	-0,032	-0,052
-125,497	800,000	-0,022	0,057
-124,483	12,634	-0,071	0,039
-123,468	385,341	-0,057	0,085
-122,453	288,179	0,012	-0,015
-121,439	-16,539	0,045	0,021
-120,424	-200,000	0,003	-0,093
