DTS Sentinel unit serial number:	SN410029Multiplexer serial number:	ORYXHardware model number:	OX2-SRSoftware version number:	ORYX F/W v4,00 Oryx Data Collector v3.7.2.0data status	okinstallation	B5 Nyhavnadifferential loss correction	single-endedforward channel	channel 2reverse channel	N/Adate	2023/12/12time	11:32:13forward acquisition time	300,00reverse acquisition time	0,00gamma	499,1914k internal	0,3158k external	0,3158temperature offset calibration	1,0000default loss term (dB/km)	0,3820temperature slope calibration	1,0000multiplexer offset coefficient	1,0000multiplexer slope coefficient	1,0000fibre end	0,00T internal ref (°C)	15,08T ext. ref 1 (°C)	-1,05T ext. ref 2 (°C)	-1,31length (m)	temperature (°C)	Stokes	anti-Stokes-744,400	-113,921	0,075	0,011
-743,385	-172,530	-0,243	-0,006
-742,371	-16,766	0,136	0,063
-741,356	-27,809	-0,304	0,129
-740,342	-6,363	0,178	0,089
-739,327	-66,694	-0,244	0,071
-738,312	517,247	0,011	0,020
-737,298	-92,651	-0,335	-0,069
-736,283	-114,777	0,143	0,020
-735,269	-122,547	-0,370	0,044
-734,254	-84,566	0,301	-0,069
-733,239	-28,518	-0,553	-0,234
-732,225	60,972	0,188	0,138
-731,210	-16,535	0,048	0,022
-730,196	30,037	0,112	-0,070
-729,181	399,042	-0,078	-0,122
-728,167	-200,000	0,003	0,016
-727,152	120,595	-0,074	-0,067
-726,137	144,557	-0,046	-0,046
-725,123	-72,725	-0,016	-0,004
-724,108	-32,592	-0,184	0,075
-723,094	-200,000	-0,013	-0,140
-722,079	316,954	-0,039	-0,054
-721,064	213,683	0,057	-0,067
-720,050	-41,193	0,050	-0,019
-719,035	-200,000	-0,011	0,051
-718,021	-56,380	-0,040	0,013
-717,006	115,699	-0,040	0,036
-715,991	82,579	0,091	-0,073
-714,977	99,647	-0,005	0,005
-713,962	-60,287	-0,146	0,045
-712,948	211,684	-0,040	-0,047
-711,933	-130,586	-0,068	-0,007
-710,918	-200,000	-0,006	-0,023
-709,904	-200,000	0,022	-0,115
-708,889	156,165	0,035	-0,035
-707,875	-200,000	-0,011	-0,093
-706,860	800,000	0,052	-0,160
-705,845	-43,496	0,079	-0,029
-704,831	-60,660	0,107	0,033
-703,816	-200,000	0,034	-0,150
-702,802	36,054	-0,048	0,031
-701,787	-200,000	-0,006	-0,108
-700,772	-200,000	0,002	-0,064
-699,758	308,233	0,036	0,050
-698,743	14,496	-0,088	-0,050
-697,729	268,600	-0,003	0,004
-696,714	-200,000	0,007	0,036
-695,699	403,422	-0,043	-0,067
-694,685	-200,000	0,026	-0,106
-693,670	-200,000	-0,000	-0,060
-692,656	-200,000	0,000	0,013
-691,641	410,203	0,079	0,124
-690,627	-45,588	0,173	0,063
-689,612	212,989	-0,027	0,031
-688,597	3,162	-0,131	-0,070
-687,583	-55,858	0,105	-0,034
-686,568	385,276	-0,045	-0,068
-685,554	177,756	-0,021	-0,023
-684,539	235,120	0,070	0,085
-683,524	-200,000	0,002	-0,063
-682,510	-200,000	-0,011	0,042
-681,495	11,478	-0,030	0,017
-680,481	342,346	-0,048	-0,070
-679,466	800,000	-0,051	-0,117
-678,451	-141,607	-0,047	0,003
-677,437	-36,450	-0,080	0,032
-676,422	258,119	-0,032	0,041
-675,408	99,662	0,031	0,026
-674,393	468,654	-0,037	-0,061
-673,378	209,894	-0,079	-0,091
-672,364	264,412	0,060	-0,078
-671,349	-200,000	0,013	-0,045
-670,335	-93,916	-0,046	-0,009
-669,320	-17,952	-0,120	0,055
-668,305	-200,000	0,007	0,103
-667,291	-200,000	0,001	-0,074
-666,276	-200,000	-0,003	-0,114
-665,262	800,000	-0,064	-0,133
-664,247	193,766	-0,033	0,037
-663,232	765,424	-0,039	0,079
-662,218	-200,000	0,001	0,080
-661,203	-155,413	-0,102	-0,005
-660,189	18,684	-0,024	-0,014
-659,174	-25,795	-0,086	-0,037
-658,159	110,238	-0,050	0,044
-657,145	800,000	0,047	0,101
-656,130	106,936	0,072	-0,063
-655,116	66,694	-0,136	0,101
-654,101	139,693	0,093	0,090
-653,086	-48,555	0,090	-0,032
-652,072	800,000	-0,028	-0,085
-651,057	800,000	-0,035	0,087
-650,043	-200,000	-0,020	-0,243
-649,028	800,000	0,038	-0,081
-648,014	312,306	-0,025	0,034
-646,999	91,414	-0,068	-0,056
-645,984	-200,000	-0,005	0,150
-644,970	800,000	-0,028	-0,069
-643,955	-34,787	-0,172	-0,069
-642,941	800,000	0,055	0,119
-641,926	-22,963	-0,085	0,038
-640,911	165,671	0,109	-0,114
-639,897	-77,912	0,023	-0,006
-638,882	-91,497	-0,149	-0,031
-637,868	800,000	0,030	0,066
-636,853	424,473	-0,073	-0,116
-635,838	1,625	0,087	-0,046
-634,824	800,000	-0,039	-0,079
-633,809	626,992	-0,052	-0,096
-632,795	226,936	0,140	0,168
-631,780	-7,609	0,127	0,063
-630,765	-0,166	-0,063	0,033
-629,751	-52,765	-0,035	-0,012
-628,736	-66,553	-0,034	0,010
-627,722	-152,547	0,156	0,008
-626,707	45,872	0,056	0,038
-625,692	217,884	0,039	-0,046
-624,678	-200,000	0,005	-0,086
-623,663	800,000	-0,042	0,121
-622,649	380,648	-0,069	0,104
-621,634	800,000	-0,067	-0,139
-620,619	-31,247	0,099	-0,041
-619,605	76,201	0,011	0,008
-618,590	78,826	-0,042	-0,033
-617,576	-37,677	0,036	0,014
-616,561	114,749	-0,064	-0,057
-615,546	-200,000	-0,007	-0,067
-614,532	-24,390	-0,217	-0,094
-613,517	-200,000	-0,028	-0,126
-612,503	-139,947	0,141	0,011
-611,488	-62,330	-0,109	0,033
-610,474	-13,444	-0,127	0,060
-609,459	34,432	0,046	-0,029
-608,444	35,881	-0,072	0,046
-607,430	-119,592	-0,082	-0,010
-606,415	238,489	-0,040	-0,049
-605,401	-200,000	0,003	0,030
-604,386	-22,491	-0,018	-0,008
-603,371	800,000	0,040	0,098
-602,357	800,000	0,045	0,110
-601,342	7,751	-0,108	-0,059
-600,328	-200,000	-0,036	-0,203
-599,313	58,369	-0,121	-0,087
-598,298	-55,584	0,092	-0,030
-597,284	215,280	-0,086	-0,100
-596,269	554,778	-0,065	-0,115
-595,255	5,730	-0,029	0,016
-594,240	-157,951	-0,091	0,004
-593,225	-100,256	-0,069	0,012
-592,211	-31,744	-0,181	-0,074
-591,196	-29,656	0,033	-0,014
-590,182	-56,014	-0,076	0,025
-589,167	7,539	0,116	-0,063
-588,152	477,937	0,048	-0,079
-587,138	313,610	0,069	0,095
-586,123	-85,647	-0,089	0,020
-585,109	-184,266	0,116	0,001
-584,094	35,436	0,039	0,025
-583,079	-200,000	0,025	0,105
-582,065	109,221	0,050	0,044
-581,050	-200,000	0,004	0,113
-580,036	93,210	0,067	0,056
-579,021	15,714	0,109	0,063
-578,006	-200,000	0,001	0,031
-576,992	359,982	0,052	-0,076
-575,977	199,566	0,122	-0,137
-574,963	-200,000	0,031	0,146
-573,948	-200,000	-0,062	0,204
-572,934	-34,567	0,105	0,042
-571,919	800,000	-0,039	0,104
-570,904	-80,994	0,043	-0,010
-569,890	-31,212	-0,061	-0,025
-568,875	-59,722	-0,052	0,016
-567,861	111,752	0,070	-0,062
-566,846	209,765	-0,096	0,111
-565,831	276,439	-0,035	0,046
-564,817	800,000	-0,010	-0,022
-563,802	-114,822	-0,136	-0,019
-562,788	52,674	0,119	-0,083
-561,773	78,643	0,034	0,027
-560,758	-200,000	0,017	0,120
-559,744	-200,000	0,030	0,133
-558,729	-59,037	-0,085	-0,027
-557,715	-200,000	-0,011	0,082
-556,700	800,000	0,025	0,058
-555,685	108,982	0,058	0,051
-554,671	115,169	-0,023	-0,020
-553,656	258,976	-0,031	-0,039
-552,642	106,106	-0,056	0,048
-551,627	800,000	0,018	0,058
-550,612	-200,000	0,004	0,035
-549,598	800,000	-0,062	-0,135
-548,583	-124,971	-0,021	0,002
-547,569	336,641	0,050	-0,071
-546,554	-200,000	-0,024	0,107
-545,539	260,181	0,081	0,102
-544,525	800,000	-0,023	0,060
-543,510	18,034	0,064	0,037
-542,496	16,236	0,011	-0,006
-541,481	24,987	-0,021	0,013
-540,466	577,629	-0,057	0,103
-539,452	-200,000	0,004	-0,137
-538,437	275,697	0,070	0,091
-537,423	-200,000	0,002	-0,017
-536,408	-175,039	-0,112	0,002
-535,393	800,000	-0,051	-0,131
-534,379	-200,000	-0,005	0,022
-533,364	63,264	0,137	-0,101
-532,350	-200,000	0,007	0,090
-531,335	228,223	0,102	0,121
-530,321	-200,000	-0,035	-0,130
-529,306	50,758	-0,061	-0,042
-528,291	-87,659	-0,035	-0,008
-527,277	75,074	-0,113	-0,087
-526,262	11,700	0,069	0,039
-525,248	-107,880	0,091	-0,014
-524,233	-40,822	0,048	0,018
-523,218	-116,837	0,187	0,025
-522,204	365,238	0,084	0,125
-521,189	-56,532	-0,081	-0,026
-520,175	-102,275	0,075	-0,013
-519,160	-138,809	0,162	0,013
-518,145	210,692	0,033	0,038
-517,131	-41,062	-0,020	-0,008
-516,116	800,000	-0,043	0,132
-515,102	-63,321	0,158	-0,047
-514,087	-200,000	-0,027	0,121
-513,072	-36,026	-0,163	0,064
-512,058	-54,448	-0,059	-0,019
-511,043	-133,659	0,089	-0,008
-510,029	800,000	0,027	0,072
-509,014	616,541	-0,044	0,080
-507,999	-200,000	0,031	0,201
-506,985	800,000	0,025	-0,066
-505,970	355,401	-0,060	-0,087
-504,956	-200,000	-0,007	-0,139
-503,941	482,153	0,108	-0,180
-502,926	-115,373	-0,051	0,007
-501,912	-112,070	0,052	0,008
-500,897	800,000	-0,015	0,044
-499,883	394,275	0,029	0,044
-498,868	-66,858	0,066	-0,019
-497,853	59,008	0,048	0,034
-496,839	800,000	0,018	0,044
-495,824	-200,000	0,018	0,089
-494,810	617,907	0,077	0,142
-493,795	68,322	0,092	0,069
-492,781	511,398	0,048	0,082
-491,766	678,846	-0,029	-0,055
-490,751	131,635	-0,056	-0,053
-489,737	119,659	0,045	0,040
-488,722	241,264	0,032	-0,039
-487,708	-98,419	0,226	0,042
-486,693	800,000	-0,038	0,083
-485,678	-200,000	0,007	0,071
-484,664	12,067	-0,085	-0,048
-483,649	800,000	-0,070	-0,153
-482,635	51,839	0,129	-0,089
-481,620	659,266	-0,056	0,106
-480,605	79,149	0,033	0,026
-479,591	108,154	-0,005	0,005
-478,576	800,000	-0,027	-0,067
-477,562	700,349	-0,033	-0,063
-476,547	-55,422	-0,054	0,018
-475,532	800,000	-0,049	-0,109
-474,518	307,998	0,049	0,067
-473,503	-9,307	0,115	0,056
-472,489	-55,344	0,064	-0,021
-471,474	800,000	0,033	-0,106
-470,459	-62,674	0,070	-0,021
-469,445	800,000	0,045	-0,108
-468,430	-200,000	-0,009	0,115
-467,416	-69,466	0,076	-0,021
-466,401	91,424	0,066	0,054
-465,386	114,725	0,016	-0,015
-464,372	499,429	-0,094	0,158
-463,357	-200,000	-0,004	-0,099
-462,343	-95,121	0,085	-0,017
-461,328	-116,346	0,065	-0,009
-460,313	-1,835	-0,107	-0,055
-459,299	-89,805	0,115	0,024
-458,284	79,815	0,102	-0,080
-457,270	245,660	-0,078	-0,096
-456,255	485,126	-0,046	-0,076
-455,241	800,000	0,066	-0,135
-454,226	101,823	-0,078	-0,067
-453,211	-20,601	-0,013	0,006
-452,197	66,202	0,143	0,106
-451,182	373,960	0,074	-0,110
-450,168	-94,100	0,065	0,013
-449,153	-200,000	-0,037	-0,178
-448,138	-75,443	0,057	-0,015
-447,124	52,823	0,104	0,072
-446,109	258,418	0,021	0,027
-445,095	-100,961	0,233	0,041
-444,080	-59,731	-0,111	-0,034
-443,065	-36,607	0,027	0,011
-442,051	324,846	-0,032	0,045
-441,036	662,553	-0,036	0,069
-440,022	105,217	0,042	-0,036
-439,007	-8,019	0,064	-0,031
-437,992	11,326	-0,105	0,058
-436,978	356,023	0,167	0,243
-435,963	-82,624	0,202	0,047
-434,949	-52,989	0,022	-0,007
-433,934	-200,000	-0,020	-0,080
-432,919	-68,397	-0,182	-0,051
-431,905	800,000	-0,062	0,169
-430,890	-200,000	-0,009	-0,045
-429,876	1,729	0,115	-0,060
-428,861	9,826	0,133	0,073
-427,846	-199,322	-0,120	-0,000
-426,832	-141,431	-0,066	0,005
-425,817	-66,076	0,096	0,028
-424,803	115,298	-0,051	-0,046
-423,788	-200,000	0,018	0,073
-422,773	247,670	0,023	0,028
-421,759	-200,000	0,043	0,145
-420,744	800,000	-0,056	-0,114
-419,730	800,000	-0,027	0,083
-418,715	-146,757	-0,081	0,005
-417,701	800,000	0,018	-0,051
-416,686	555,703	0,049	-0,086
-415,671	-146,552	0,076	0,005
-414,657	-50,352	0,029	-0,010
-413,642	351,071	0,027	0,039
-412,628	193,524	-0,128	0,141
-411,613	800,000	-0,038	-0,083
-410,598	197,401	-0,021	-0,023
-409,584	800,000	0,016	0,032
-408,569	19,919	0,084	-0,049
-407,555	238,029	0,075	-0,090
-406,540	-200,000	0,013	0,046
-405,525	54,319	-0,043	-0,030
-404,511	789,070	0,072	-0,144
-403,496	183,085	-0,052	0,056
-402,482	-70,635	-0,052	0,014
-401,467	26,882	0,129	-0,078
-400,452	-200,000	0,004	0,086
-399,438	22,074	-0,032	0,019
-398,423	-77,654	-0,046	0,012
-397,409	328,004	-0,051	-0,071
-396,394	-95,053	-0,047	0,009
-395,379	800,000	-0,059	0,121
-394,365	-200,000	0,006	0,040
-393,350	-200,000	0,009	-0,081
-392,336	-75,937	0,075	-0,019
-391,321	67,682	-0,102	-0,076
-390,306	-200,000	0,001	-0,114
-389,292	141,685	-0,029	0,028
-388,277	-200,000	0,005	-0,034
-387,263	-116,241	0,084	0,011
-386,248	-135,782	-0,026	0,002
-385,233	800,000	0,064	0,179
-384,219	-26,600	-0,087	0,037
-383,204	273,398	-0,117	-0,151
-382,190	-22,586	-0,121	-0,053
-381,175	-200,000	0,006	0,060
-380,160	-200,000	-0,011	0,125
-379,146	-200,000	-0,028	0,104
-378,131	-61,772	-0,045	-0,014
-377,117	57,141	-0,106	-0,075
-376,102	800,000	-0,029	-0,080
-375,088	-200,000	-0,013	-0,087
-374,073	800,000	-0,022	-0,051
-373,058	-112,087	0,113	0,016
-372,044	-200,000	-0,009	0,046
-371,029	177,041	0,160	0,169
-370,015	123,107	-0,117	0,106
-369,000	-15,942	0,122	-0,056
-367,985	351,267	-0,035	-0,050
-366,971	579,770	-0,078	-0,139
-365,956	-135,170	0,058	-0,005
-364,942	360,149	-0,002	0,003
-363,927	-200,000	-0,018	0,065
-362,912	50,334	0,174	0,119
-361,898	-47,917	-0,098	0,034
-360,883	258,000	-0,064	-0,080
-359,869	-36,445	-0,059	0,023
-358,854	-125,366	-0,048	0,005
-357,839	-6,783	0,067	0,033
-356,825	-76,494	0,192	0,049
-355,810	567,306	-0,037	-0,066
-354,796	425,505	-0,027	0,042
-353,781	-116,508	-0,083	0,011
-352,766	18,500	-0,038	0,022
-351,752	-64,383	0,122	0,036
-350,737	93,759	-0,043	0,035
-349,723	105,849	0,105	-0,090
-348,708	409,133	0,065	0,101
-347,693	-200,000	0,010	-0,046
-346,679	-200,000	-0,023	-0,083
-345,664	776,544	-0,020	-0,040
-344,650	2,840	0,061	0,032
-343,635	-121,317	0,004	0,001
-342,620	800,000	0,025	-0,070
-341,606	-148,670	0,127	-0,007
-340,591	6,715	-0,063	0,034
-339,577	54,273	0,129	-0,090
-338,562	95,768	-0,098	-0,081
-337,548	800,000	-0,034	0,086
-336,533	800,000	-0,032	0,088
-335,518	69,748	-0,103	0,077
-334,504	-89,759	0,051	0,011
-333,489	337,328	-0,077	0,109
-332,475	800,000	-0,059	-0,123
-331,460	278,328	-0,117	-0,151
-330,445	-72,382	0,038	0,010
-329,431	79,581	0,063	0,049
-328,416	800,000	-0,033	0,090
-327,402	77,406	0,081	-0,062
-326,387	339,411	0,088	-0,125
-325,372	427,341	-0,061	-0,095
-324,358	-200,000	0,012	0,073
-323,343	-200,000	0,010	-0,119
-322,329	-94,871	0,142	0,028
-321,314	-26,762	-0,081	-0,034
-320,299	-81,213	0,071	0,017
-319,285	800,000	-0,047	-0,097
-318,270	800,000	-0,035	-0,083
-317,256	-200,000	-0,010	0,068
-316,241	-74,422	-0,052	-0,014
-315,226	-137,834	-0,059	0,005
-314,212	293,932	0,045	-0,060
-313,197	407,578	-0,054	0,084
-312,183	-200,000	0,006	0,133
-311,168	-200,000	0,001	-0,121
-310,153	-200,000	0,005	-0,150
-309,139	-102,361	0,099	-0,017
-308,124	-200,000	-0,032	0,122
-307,110	-110,402	0,024	0,004
-306,095	-200,000	0,007	0,161
-305,080	147,089	-0,120	0,117
-304,066	37,953	-0,090	-0,058
-303,051	388,999	-0,079	-0,119
-302,037	-67,970	0,043	-0,012
-301,022	-27,076	0,142	-0,060
-300,008	250,851	0,030	0,037
-298,993	800,000	0,046	0,124
-297,978	121,394	0,053	-0,048
-296,964	-200,000	-0,002	-0,085
-295,949	-116,401	-0,059	-0,008
-294,935	169,102	-0,153	0,158
-293,920	423,106	-0,025	-0,040
-292,905	181,139	0,048	-0,051
-291,891	35,290	-0,152	0,097
-290,876	-200,000	0,023	0,077
-289,862	-200,000	0,002	-0,117
-288,847	505,922	-0,082	-0,138
-287,832	-141,336	-0,124	0,009
-286,818	-135,008	0,101	0,009
-285,803	36,970	0,113	0,072
-284,789	-59,592	0,185	0,057
-283,774	800,000	0,040	0,091
-282,759	-200,000	-0,010	0,140
-281,745	339,178	0,063	-0,089
-280,730	303,738	0,046	-0,062
-279,716	23,671	0,062	0,037
-278,701	-41,040	0,078	0,029
-277,686	-39,853	0,072	-0,027
-276,672	800,000	0,005	0,013
-275,657	-166,232	-0,080	-0,002
-274,643	-18,588	-0,212	-0,095
-273,628	-26,978	-0,045	0,019
-272,613	22,921	0,108	0,064
-271,599	-200,000	-0,003	0,056
-270,584	800,000	0,033	0,085
-269,570	-40,263	0,065	-0,024
-268,555	800,000	-0,013	0,033
-267,540	-153,661	-0,119	0,006
-266,526	229,259	-0,072	-0,085
-265,511	-200,000	0,031	-0,107
-264,497	-140,183	0,174	0,013
-263,482	-153,248	0,065	0,003
-262,467	295,508	0,068	0,090
-261,453	-200,000	0,013	-0,067
-260,438	-25,813	0,255	-0,108
-259,424	117,195	0,005	-0,004
-258,409	-81,995	-0,189	-0,044
-257,395	-200,000	-0,018	0,075
-256,380	-200,000	0,021	0,176
-255,365	800,000	0,035	-0,076
-254,351	-157,110	0,072	0,003
-253,336	-200,000	0,011	0,044
-252,322	34,550	0,050	-0,031
-251,307	-57,007	-0,078	-0,025
-250,292	-200,000	-0,011	0,042
-249,278	-74,870	0,026	-0,007
-248,263	-200,000	-0,036	-0,117
-247,249	-200,000	0,005	0,040
-246,234	-200,000	-0,012	0,061
-245,219	358,991	0,097	-0,141
-244,205	-50,640	-0,061	-0,021
-243,190	-41,014	0,027	-0,010
-242,176	-43,147	0,017	-0,006
-241,161	16,884	0,135	0,077
-240,146	-33,645	-0,076	0,030
-239,132	49,799	0,056	0,038
-238,117	120,178	-0,100	-0,090
-237,103	45,255	-0,080	0,053
-236,088	-96,220	-0,061	0,012
-235,073	-200,000	0,045	-0,147
-234,059	274,091	-0,016	0,021
-233,044	800,000	-0,072	0,157
-232,030	48,901	0,054	0,037
-231,015	-200,000	-0,013	0,057
-230,000	256,163	-0,036	-0,045
-228,986	-112,161	-0,091	0,013
-227,971	800,000	0,064	0,130
-226,957	-74,653	-0,033	0,009
-225,942	800,000	0,020	-0,054
-224,927	-162,762	-0,121	0,004
-223,913	-200,000	0,015	-0,125
-222,898	-144,835	-0,116	-0,008
-221,884	-69,754	-0,073	-0,020
-220,869	58,828	-0,051	0,036
-219,855	-46,254	0,131	0,046
-218,840	265,882	0,085	0,107
-217,825	-200,000	0,000	0,045
-216,811	-16,330	-0,104	0,048
-215,796	292,455	-0,014	-0,019
-214,782	-200,000	0,005	-0,038
-213,767	-200,000	-0,013	-0,075
-212,752	297,719	-0,047	-0,062
-211,738	51,640	0,076	0,052
-210,723	11,706	-0,031	-0,017
-209,709	-72,917	-0,163	-0,043
-208,694	108,279	-0,064	0,055
-207,679	-52,968	-0,022	0,007
-206,665	-130,289	0,049	0,005
-205,650	-68,891	0,030	0,008
-204,636	-200,000	-0,039	-0,126
-203,621	56,025	-0,118	0,082
-202,606	366,131	0,049	-0,071
-201,592	-200,000	0,016	-0,152
-200,577	-26,611	-0,075	-0,032
-199,563	800,000	-0,062	-0,143
-198,548	21,020	0,078	0,046
-197,533	-127,835	0,037	-0,004
-196,519	773,848	-0,047	0,093
-195,504	121,748	-0,029	-0,026
-194,490	187,771	-0,073	-0,079
-193,475	-200,000	0,014	-0,164
-192,460	67,382	-0,003	0,002
-191,446	-82,707	-0,101	-0,023
-190,431	320,877	-0,010	-0,014
-189,417	-200,000	-0,005	-0,016
-188,402	-200,000	-0,036	-0,154
-187,387	-64,644	-0,121	-0,035
-186,373	47,965	0,068	-0,046
-185,358	58,681	-0,057	0,040
-184,344	40,481	-0,063	-0,041
-183,329	-58,725	0,068	0,021
-182,315	-31,661	-0,050	0,020
-181,300	85,735	-0,088	-0,069
-180,285	-128,299	0,092	0,009
-179,271	-64,713	-0,072	-0,021
-178,256	444,170	0,025	-0,040
-177,242	800,000	0,061	0,125
-176,227	-167,766	0,147	0,004
-175,212	22,323	-0,108	-0,063
-174,198	276,814	-0,044	-0,056
-173,183	61,219	-0,161	-0,115
-172,169	75,999	-0,062	0,047
-171,154	-149,562	-0,130	-0,007
-170,139	314,279	-0,035	0,048
-169,125	-200,000	-0,020	0,077
-168,110	-1,515	-0,098	0,050
-167,096	202,472	0,059	-0,066
-166,081	-8,502	-0,175	-0,084
-165,066	46,979	0,099	-0,066
-164,052	-119,179	-0,058	-0,007
-163,037	123,819	0,033	0,030
-162,023	88,814	-0,062	0,050
-161,008	800,000	0,040	0,122
-159,993	-200,000	-0,004	-0,040
-158,979	652,059	-0,077	-0,143
-157,964	292,573	-0,037	0,049
-156,950	352,272	-0,043	0,062
-155,935	-0,922	0,061	0,031
-154,920	301,181	-0,034	0,045
-153,906	-200,000	0,018	0,061
-152,891	291,284	-0,048	-0,064
-151,877	800,000	-0,031	0,069
-150,862	528,661	-0,075	-0,127
-149,847	800,000	-0,015	0,043
-148,833	123,810	0,034	-0,030
-147,818	-17,668	-0,054	-0,024
-146,804	61,098	0,110	0,079
-145,789	260,817	-0,077	0,096
-144,775	33,692	0,013	0,008
-143,760	239,362	-0,049	-0,059
-142,745	-200,000	-0,013	-0,068
-141,731	-200,000	0,015	-0,131
-140,716	-200,000	-0,007	-0,088
-139,702	516,478	-0,020	0,034
-138,687	-44,440	0,067	0,024
-137,672	366,698	-0,065	0,094
-136,658	-67,714	-0,077	0,021
-135,643	-51,178	0,125	-0,042
-134,629	298,830	-0,045	-0,059
-133,614	-122,183	0,087	-0,010
-132,599	143,078	-0,104	-0,100
-131,585	-143,525	-0,098	-0,007
-130,570	549,834	-0,019	-0,033
-129,556	-79,195	-0,134	-0,033
-128,541	-76,474	-0,095	0,024
-127,526	72,969	0,064	0,048
-126,512	-200,000	0,007	-0,027
-125,497	800,000	0,019	0,042
-124,483	325,121	-0,017	-0,024
-123,468	718,844	0,032	0,062
-122,453	416,037	0,015	-0,024
-121,439	-24,591	-0,043	0,018
-120,424	1,323	-0,083	-0,043
-119,410	-200,000	-0,005	-0,064
-118,395	528,984	-0,010	0,017
