DTS Sentinel unit serial number:	SN410029Multiplexer serial number:	ORYXHardware model number:	OX2-SRSoftware version number:	ORYX F/W v4,00 Oryx Data Collector v3.7.2.0data status	okinstallation	B5 Nyhavnadifferential loss correction	single-endedforward channel	channel 2reverse channel	N/Adate	2023/12/11time	15:57:13forward acquisition time	300,00reverse acquisition time	0,00gamma	499,1914k internal	0,3166k external	0,3166temperature offset calibration	1,0000default loss term (dB/km)	0,3820temperature slope calibration	1,0000multiplexer offset coefficient	1,0000multiplexer slope coefficient	1,0000fibre end	0,00T internal ref (°C)	13,64T ext. ref 1 (°C)	-1,43T ext. ref 2 (°C)	-1,55length (m)	temperature (°C)	Stokes	anti-Stokes-744,400	-200,000	0,031	0,193
-743,385	-69,140	-0,275	-0,077
-742,371	15,666	0,166	0,096
-741,356	-20,696	-0,275	-0,123
-740,342	-29,587	0,143	0,060
-739,327	-24,633	-0,280	-0,122
-738,312	-74,562	0,162	-0,043
-737,298	-179,372	-0,313	0,005
-736,283	-200,000	-0,023	0,116
-735,269	-13,593	-0,272	0,129
-734,254	332,133	0,134	0,191
-733,239	-36,644	-0,514	-0,202
-732,225	-25,022	0,009	-0,004
-731,210	68,893	0,065	0,049
-730,196	257,935	-0,070	-0,088
-729,181	158,479	-0,088	-0,090
-728,167	-50,088	0,088	0,031
-727,152	-162,982	-0,016	-0,001
-726,137	-148,304	-0,130	0,008
-725,123	800,000	0,018	-0,039
-724,108	312,129	-0,122	-0,168
-723,094	800,000	-0,071	-0,196
-722,079	-200,000	0,007	-0,058
-721,064	122,522	0,146	0,134
-720,050	669,252	0,019	0,037
-719,035	174,505	-0,042	0,045
-718,021	-200,000	-0,009	0,040
-717,006	33,013	0,116	0,074
-715,991	-57,591	-0,056	-0,018
-714,977	227,752	0,045	-0,054
-713,962	800,000	0,038	-0,091
-712,948	-200,000	-0,003	-0,053
-711,933	-97,306	0,030	-0,006
-710,918	-99,156	-0,117	0,021
-709,904	800,000	-0,062	-0,146
-708,889	155,774	0,069	-0,070
-707,875	800,000	0,040	-0,083
-706,860	800,000	-0,022	0,061
-705,845	58,048	0,089	0,064
-704,831	720,472	0,040	0,078
-703,816	-4,544	0,124	-0,062
-702,802	800,000	0,012	-0,034
-701,787	-200,000	0,009	0,086
-700,772	15,435	-0,201	-0,115
-699,758	63,354	-0,029	-0,021
-698,743	-200,000	0,031	-0,157
-697,729	800,000	-0,031	0,079
-696,714	34,586	-0,065	0,042
-695,699	249,350	0,063	-0,079
-694,685	527,515	0,087	-0,151
-693,670	-4,770	-0,145	-0,073
-692,656	-200,000	0,020	-0,129
-691,641	-79,435	-0,088	-0,022
-690,627	800,000	-0,087	-0,204
-689,612	-10,919	0,130	0,063
-688,597	-44,828	0,054	0,020
-687,583	-200,000	0,033	-0,168
-686,568	295,803	-0,062	-0,083
-685,554	800,000	-0,024	0,076
-684,539	-111,535	0,214	0,032
-683,524	235,616	0,016	-0,019
-682,510	-16,784	-0,032	0,015
-681,495	-45,771	-0,149	-0,054
-680,481	130,866	-0,061	-0,057
-679,466	800,000	0,036	0,076
-678,451	800,000	0,041	-0,103
-677,437	51,365	-0,051	-0,035
-676,422	5,418	0,174	0,094
-675,408	-200,000	0,001	0,131
-674,393	-200,000	-0,016	-0,114
-673,378	-200,000	0,028	-0,098
-672,364	23,259	0,112	-0,067
-671,349	190,828	0,031	0,035
-670,335	-200,000	0,013	0,076
-669,320	-30,687	0,080	0,033
-668,305	-200,000	-0,003	0,037
-667,291	-36,026	-0,079	0,031
-666,276	-200,000	0,033	0,122
-665,262	101,128	-0,087	-0,074
-664,247	-200,000	0,031	-0,104
-663,232	61,175	-0,090	0,065
-662,218	183,901	0,059	-0,064
-661,203	-200,000	-0,010	-0,172
-660,189	-25,214	0,078	-0,034
-659,174	108,900	-0,012	-0,011
-658,159	119,142	-0,054	-0,049
-657,145	17,703	0,169	-0,098
-656,130	129,950	0,056	-0,052
-655,116	-177,297	-0,034	0,001
-654,101	53,819	-0,041	-0,029
-653,086	800,000	0,028	-0,057
-652,072	-200,000	0,003	-0,094
-651,057	74,505	-0,033	-0,026
-650,043	-78,087	-0,156	0,039
-649,028	289,534	-0,041	0,054
-648,014	-200,000	-0,015	-0,090
-646,999	800,000	-0,011	0,032
-645,984	88,277	-0,024	-0,019
-644,970	-200,000	0,015	-0,070
-643,955	-13,242	-0,066	-0,031
-642,941	758,585	0,019	-0,038
-641,926	26,202	0,099	-0,060
-640,911	800,000	-0,039	0,096
-639,897	-15,148	-0,080	-0,038
-638,882	-170,981	0,121	-0,003
-637,868	223,917	-0,018	-0,021
-636,853	-16,694	0,046	-0,021
-635,838	-200,000	-0,014	-0,152
-634,824	666,778	-0,042	-0,079
-633,809	-129,550	0,163	0,016
-632,795	-200,000	0,010	0,053
-631,780	75,074	0,048	0,037
-630,765	-200,000	-0,001	-0,150
-629,751	-200,000	0,001	-0,176
-628,736	142,633	-0,073	-0,071
-627,722	446,949	0,117	-0,190
-626,707	-112,624	0,090	0,013
-625,692	800,000	-0,025	0,071
-624,678	272,026	0,105	0,135
-623,663	-200,000	-0,006	0,116
-622,649	-200,000	-0,011	0,072
-621,634	114,556	-0,023	0,021
-620,619	-79,340	-0,135	0,033
-619,605	47,514	0,077	-0,052
-618,590	-200,000	-0,012	-0,129
-617,576	-61,135	-0,058	0,018
-616,561	800,000	0,036	0,077
-615,546	-162,428	0,027	0,001
-614,532	-200,000	0,023	-0,094
-613,517	133,232	0,070	-0,066
-612,503	-67,775	0,170	0,048
-611,488	800,000	0,071	0,146
-610,474	163,310	-0,076	-0,079
-609,459	-200,000	-0,010	0,138
-608,444	-131,508	-0,121	0,012
-607,430	-121,231	-0,025	-0,003
-606,415	-200,000	-0,013	-0,088
-605,401	217,767	0,022	0,026
-604,386	228,675	-0,074	0,088
-603,371	422,999	0,067	0,106
-602,357	-200,000	-0,005	-0,187
-601,342	19,020	-0,060	-0,035
-600,328	79,349	-0,055	0,043
-599,313	-45,362	-0,066	-0,024
-598,298	800,000	0,054	-0,114
-597,284	-99,447	0,103	0,019
-596,269	-143,522	0,120	-0,008
-595,255	-131,509	-0,094	0,009
-594,240	-109,650	-0,099	-0,015
-593,225	-156,966	-0,037	-0,002
-592,211	242,320	-0,026	0,032
-591,196	2,123	-0,018	-0,010
-590,182	800,000	0,029	-0,062
-589,167	-84,950	0,094	-0,021
-588,152	293,990	-0,066	-0,088
-587,138	-200,000	-0,050	-0,175
-586,123	742,708	-0,025	-0,050
-585,109	-200,000	0,019	0,147
-584,094	335,831	-0,072	0,102
-583,079	76,220	0,062	0,048
-582,065	800,000	-0,036	-0,097
-581,050	-47,676	0,039	0,014
-580,036	-56,892	-0,092	0,029
-579,021	457,548	-0,078	-0,127
-578,006	800,000	0,037	-0,096
-576,992	-112,853	0,117	-0,017
-575,977	-34,656	0,111	-0,044
-574,963	-200,000	-0,024	0,129
-573,948	412,559	0,033	0,052
-572,934	158,719	-0,063	-0,064
-571,919	800,000	0,014	0,041
-570,904	-28,274	-0,125	-0,053
-569,890	455,143	-0,041	0,067
-568,875	10,421	-0,097	0,054
-567,861	-8,232	-0,005	-0,002
-566,846	800,000	0,052	0,142
-565,831	12,971	-0,015	-0,009
-564,817	-200,000	-0,020	-0,141
-563,802	68,406	0,121	0,090
-562,788	800,000	-0,077	-0,162
-561,773	191,925	0,070	-0,077
-560,758	-200,000	0,024	0,104
-559,744	-200,000	0,002	0,078
-558,729	253,118	0,075	0,093
-557,715	603,765	-0,092	-0,167
-556,700	-53,844	-0,062	0,021
-555,685	-20,889	-0,051	-0,023
-554,671	-200,000	0,006	0,094
-553,656	-96,595	0,124	0,024
-552,642	41,384	-0,029	0,019
-551,627	800,000	0,023	-0,067
-550,612	-200,000	-0,012	-0,068
-549,598	347,870	-0,042	-0,060
-548,583	-120,170	-0,067	0,008
-547,569	67,261	-0,019	-0,014
-546,554	800,000	0,030	0,094
-545,539	-200,000	-0,003	0,028
-544,525	-24,472	0,077	-0,033
-543,510	504,203	-0,068	-0,115
-542,496	442,655	0,040	-0,063
-541,481	232,593	0,089	-0,107
-540,466	166,661	-0,021	0,022
-539,452	505,772	-0,042	-0,071
-538,437	-200,000	-0,018	0,091
-537,423	46,638	0,043	0,029
-536,408	-200,000	-0,012	-0,064
-535,393	800,000	-0,023	0,057
-534,379	-133,591	-0,180	-0,016
-533,364	-200,000	0,002	0,077
-532,350	-200,000	0,016	-0,141
-531,335	-128,078	-0,127	0,013
-530,321	-7,263	0,021	-0,010
-529,306	85,307	0,032	0,026
-528,291	-101,356	0,089	0,016
-527,277	800,000	-0,075	-0,155
-526,262	-200,000	-0,010	-0,089
-525,248	-125,888	0,079	0,009
-524,233	-183,798	0,063	-0,001
-523,218	-156,800	0,099	-0,004
-522,204	-144,521	-0,102	0,007
-521,189	292,051	-0,025	-0,034
-520,175	-200,000	0,003	-0,017
-519,160	14,405	-0,157	0,089
-518,145	16,414	0,081	0,046
-517,131	-91,615	0,088	0,018
-516,116	-200,000	-0,003	-0,020
-515,102	-125,327	0,089	0,010
-514,087	-60,187	-0,138	0,043
-513,072	177,275	0,089	0,094
-512,058	-200,000	-0,008	-0,106
-511,043	61,611	0,012	0,009
-510,029	-200,000	-0,012	-0,149
-509,014	-200,000	-0,002	0,041
-507,999	-56,287	-0,136	0,044
-506,985	144,406	-0,103	-0,100
-505,970	-79,339	0,042	0,010
-504,956	-200,000	-0,023	0,088
-503,941	800,000	0,033	0,091
-502,926	800,000	-0,042	-0,120
-501,912	183,576	0,094	0,101
-500,897	-148,790	-0,084	-0,005
-499,883	470,790	-0,107	-0,176
-498,868	512,402	0,035	-0,060
-497,853	-200,000	0,012	0,103
-496,839	800,000	-0,074	0,174
-495,824	800,000	-0,010	-0,031
-494,810	66,959	-0,099	0,073
-493,795	73,762	0,075	0,057
-492,781	101,616	-0,076	-0,064
-491,766	107,127	-0,078	0,067
-490,751	17,383	-0,063	-0,037
-489,737	-200,000	0,001	-0,068
-488,722	0,322	0,073	-0,038
-487,708	800,000	0,045	0,092
-486,693	-51,858	-0,051	0,017
-485,678	457,187	-0,075	-0,121
-484,664	-11,791	0,110	0,053
-483,649	800,000	0,031	-0,065
-482,635	563,741	0,041	0,072
-481,620	24,558	-0,048	-0,029
-480,605	800,000	0,036	0,081
-479,591	-92,501	-0,070	0,014
-478,576	323,130	0,017	-0,023
-477,562	-200,000	-0,027	0,103
-476,547	-96,143	-0,114	-0,022
-475,532	762,637	-0,028	-0,055
-474,518	-193,219	0,111	-0,001
-473,503	116,146	-0,053	0,047
-472,489	3,933	0,005	0,003
-471,474	-200,000	-0,005	0,037
-470,459	58,639	0,032	-0,023
-469,445	-156,460	0,155	-0,007
-468,430	-34,429	0,087	-0,034
-467,416	77,712	-0,046	0,036
-466,401	800,000	-0,032	0,083
-465,386	-83,783	-0,070	-0,016
-464,372	-104,904	-0,079	0,013
-463,357	-200,000	0,022	-0,078
-462,343	-36,654	-0,042	-0,016
-461,328	129,432	-0,060	-0,055
-460,313	800,000	-0,052	-0,127
-459,299	18,982	-0,068	-0,039
-458,284	127,804	0,056	-0,051
-457,270	573,734	0,035	0,062
-456,255	-200,000	0,000	0,066
-455,241	-200,000	0,015	-0,067
-454,226	-200,000	0,005	-0,118
-453,211	800,000	0,025	-0,055
-452,197	-200,000	0,011	0,060
-451,182	23,287	0,133	0,079
-450,168	-132,939	-0,049	0,004
-449,153	14,975	-0,101	-0,057
-448,138	717,467	-0,085	-0,166
-447,124	416,233	-0,069	-0,107
-446,109	166,827	0,035	0,036
-445,095	-200,000	-0,026	0,098
-444,080	800,000	-0,053	-0,168
-443,065	159,917	0,105	0,106
-442,051	103,029	0,109	0,092
-441,036	-143,877	0,099	-0,007
-440,022	800,000	-0,039	-0,093
-439,007	-200,000	-0,030	0,128
-437,992	-200,000	-0,011	0,056
-436,978	-149,603	-0,140	0,008
-435,963	-146,595	0,084	0,005
-434,949	800,000	-0,031	0,090
-433,934	800,000	-0,032	-0,094
-432,919	-200,000	-0,001	-0,081
-431,905	0,555	0,082	0,042
-430,890	-200,000	-0,032	0,194
-429,876	800,000	0,031	0,084
-428,861	-132,550	0,030	0,003
-427,846	70,452	-0,056	-0,042
-426,832	-200,000	-0,013	0,102
-425,817	-134,224	-0,089	-0,008
-424,803	800,000	-0,038	-0,079
-423,788	73,114	0,091	0,069
-422,773	8,820	-0,022	-0,012
-421,759	17,969	0,069	-0,040
-420,744	-83,929	-0,074	-0,017
-419,730	-45,793	0,038	-0,014
-418,715	341,911	-0,047	-0,067
-417,701	10,846	0,091	-0,050
-416,686	571,871	-0,030	-0,054
-415,671	-67,714	0,043	-0,012
-414,657	800,000	-0,040	0,120
-413,642	0,163	0,056	-0,029
-412,628	-67,848	-0,044	0,012
-411,613	108,745	0,062	0,053
-410,598	-200,000	-0,014	-0,097
-409,584	-28,431	0,110	-0,046
-408,569	8,009	-0,087	0,047
-407,555	800,000	0,041	0,090
-406,540	-68,275	0,047	-0,013
-405,525	-64,779	-0,134	-0,039
-404,511	-37,490	-0,043	0,017
-403,496	512,200	0,047	-0,080
-402,482	800,000	0,068	0,162
-401,467	50,205	0,138	-0,095
-400,452	48,318	0,148	0,101
-399,438	78,872	0,098	0,076
-398,423	113,347	-0,126	-0,111
-397,409	345,104	-0,070	0,100
-396,394	179,994	0,065	-0,070
-395,379	62,837	0,058	-0,042
-394,365	310,868	-0,036	-0,049
-393,350	-81,460	0,098	-0,023
-392,336	81,405	0,140	-0,110
-391,321	38,646	-0,052	0,033
-390,306	-88,071	0,028	-0,006
-389,292	11,937	0,011	-0,006
-388,277	-200,000	-0,029	0,097
-387,263	-79,936	0,068	-0,016
-386,248	800,000	-0,006	-0,012
-385,233	111,026	-0,047	0,041
-384,219	800,000	-0,006	-0,014
-383,204	-119,337	-0,046	0,006
-382,190	-39,795	0,036	-0,014
-381,175	712,274	-0,015	-0,030
-380,160	-9,418	0,165	0,079
-379,146	-64,691	0,021	0,006
-378,131	-73,600	-0,024	-0,006
-377,117	-200,000	-0,030	0,154
-376,102	-120,983	-0,071	0,009
-375,088	257,487	-0,082	-0,103
-374,073	181,237	-0,045	-0,048
-373,058	264,622	-0,049	-0,062
-372,044	13,769	0,032	-0,018
-371,029	-135,500	-0,065	-0,006
-370,015	607,808	-0,037	-0,067
-369,000	178,585	0,042	0,045
-367,985	-200,000	-0,085	-0,290
-366,971	92,162	-0,087	0,071
-365,956	776,435	0,113	0,224
-364,942	258,336	0,116	0,145
-363,927	45,847	0,076	0,051
-362,912	-21,985	0,065	0,028
-361,898	800,000	-0,023	-0,062
-360,883	67,928	-0,022	0,016
-359,869	776,922	0,027	-0,054
-358,854	-200,000	0,003	0,039
-357,839	267,083	0,071	0,090
-356,825	-200,000	0,009	0,058
-355,810	489,111	-0,050	0,083
-354,796	-200,000	-0,003	0,175
-353,781	76,523	-0,019	0,014
-352,766	137,052	0,128	0,121
-351,752	184,683	-0,053	-0,057
-350,737	-39,920	0,006	-0,002
-349,723	-200,000	0,029	0,102
-348,708	372,469	-0,073	0,108
-347,693	374,785	-0,054	0,079
-346,679	-3,826	0,146	-0,073
-345,664	287,577	-0,016	-0,020
-344,650	30,298	-0,075	-0,046
-343,635	234,362	0,066	0,079
-342,620	800,000	-0,063	0,171
-341,606	-200,000	0,002	0,074
-340,591	800,000	-0,065	-0,156
-339,577	-149,130	-0,053	-0,003
-338,562	-33,646	-0,057	-0,023
-337,548	-74,574	0,022	-0,006
-336,533	-122,803	-0,040	0,005
-335,518	-83,335	0,236	-0,054
-334,504	-60,252	-0,064	0,020
-333,489	25,065	0,028	0,017
-332,475	800,000	0,022	-0,058
-331,460	-39,048	0,072	-0,027
-330,445	-200,000	-0,008	0,048
-329,431	18,899	-0,140	-0,081
-328,416	172,696	0,058	-0,061
-327,402	-200,000	-0,008	0,132
-326,387	-124,298	0,172	0,019
-325,372	-153,423	-0,050	0,002
-324,358	83,749	-0,059	0,047
-323,343	-38,873	-0,060	-0,023
-322,329	15,249	-0,071	-0,040
-321,314	357,343	0,026	-0,038
-320,299	47,216	0,052	0,035
-319,285	162,448	-0,063	0,064
-318,270	42,586	-0,114	-0,075
-317,256	324,709	-0,069	-0,095
-316,241	236,215	-0,103	0,123
-315,226	299,508	0,033	0,045
-314,212	224,592	-0,021	0,025
-313,197	706,595	0,024	0,046
-312,183	800,000	-0,029	0,088
-311,168	-67,763	0,104	0,029
-310,153	684,468	0,056	-0,106
-309,139	540,460	-0,035	0,061
-308,124	296,149	-0,030	0,039
-307,110	85,518	0,118	-0,094
-306,095	-200,000	-0,003	0,112
-305,080	33,223	0,170	0,106
-304,066	32,311	-0,029	0,018
-303,051	-153,248	-0,072	0,004
-302,037	-200,000	0,004	0,069
-301,022	-7,853	0,082	0,040
-300,008	794,622	-0,013	-0,027
-298,993	118,626	0,076	-0,068
-297,978	380,150	0,035	-0,052
-296,964	-74,019	-0,054	-0,014
-295,949	74,210	-0,134	-0,101
-294,935	11,529	0,108	-0,060
-293,920	-47,683	0,125	-0,044
-292,905	-98,975	0,061	0,011
-291,891	315,376	0,156	0,213
-290,876	-200,000	0,016	-0,123
-289,862	-47,535	-0,131	0,046
-288,847	261,234	0,042	-0,053
-287,832	-32,095	-0,076	-0,031
-286,818	192,658	-0,084	0,092
-285,803	-108,043	-0,106	0,016
-284,789	664,414	0,070	0,130
-283,774	27,248	0,118	0,072
-282,759	-46,617	-0,102	0,036
-281,745	-32,795	-0,085	-0,034
-280,730	247,209	-0,086	-0,105
-279,716	-200,000	-0,005	-0,059
-278,701	-52,723	-0,082	-0,027
-277,686	800,000	0,045	-0,092
-276,672	-170,337	0,082	0,002
-275,657	800,000	-0,029	-0,077
-274,643	-200,000	-0,013	-0,205
-273,628	-200,000	-0,003	0,036
-272,613	800,000	0,013	-0,033
-271,599	800,000	0,035	0,094
-270,584	-200,000	-0,025	-0,101
-269,570	44,815	-0,058	0,039
-268,555	429,480	-0,138	-0,217
-267,540	586,872	0,024	0,044
-266,526	-127,507	-0,126	0,013
-265,511	-38,807	-0,017	0,006
-264,497	-123,684	0,159	-0,018
-263,482	-51,429	-0,018	0,006
-262,467	-108,889	0,114	0,017
-261,453	169,116	0,072	0,074
-260,438	-200,000	-0,005	0,024
-259,424	243,973	-0,036	-0,044
-258,409	252,844	-0,023	0,029
-257,395	319,307	0,095	0,130
-256,380	-200,000	0,013	-0,100
-255,365	-200,000	-0,012	0,098
-254,351	-103,457	-0,102	-0,017
-253,336	800,000	-0,016	-0,047
-252,322	-200,000	0,000	-0,031
-251,307	800,000	-0,012	-0,034
-250,292	-8,697	-0,061	-0,029
-249,278	-77,161	-0,017	0,004
-248,263	33,800	0,081	0,051
-247,249	414,798	-0,020	0,030
-246,234	800,000	0,052	-0,157
-245,219	-200,000	0,002	-0,015
-244,205	-120,628	-0,127	-0,015
-243,190	-200,000	0,005	0,077
-242,176	465,223	0,029	0,047
-241,161	45,602	0,145	0,097
-240,146	-200,000	0,009	0,047
-239,132	-84,061	-0,041	0,009
-238,117	800,000	0,013	0,031
-237,103	-5,686	0,081	-0,040
-236,088	-74,563	0,083	0,021
-235,073	-4,803	0,107	0,053
-234,059	242,795	0,079	-0,096
-233,044	284,293	-0,048	-0,063
-232,030	409,842	-0,016	0,025
-231,015	-127,381	-0,129	-0,013
-230,000	51,146	0,051	0,035
-228,986	-8,431	0,008	-0,004
-227,971	76,498	0,114	0,087
-226,957	-113,541	-0,144	-0,020
-225,942	-27,742	0,084	-0,035
-224,927	800,000	-0,012	0,030
-223,913	132,854	-0,017	-0,016
-222,898	-42,765	-0,056	0,020
-221,884	800,000	0,029	0,060
-220,869	800,000	0,050	-0,137
-219,855	-33,464	-0,084	0,033
-218,840	-200,000	0,002	0,078
-217,825	231,902	-0,054	0,064
-216,811	-200,000	-0,006	0,145
-215,796	-101,316	-0,113	0,020
-214,782	10,280	0,073	-0,040
-213,767	-72,431	0,041	0,011
-212,752	-148,387	-0,068	-0,004
-211,738	-92,283	0,138	-0,028
-210,723	-200,000	0,013	0,159
-209,709	-88,769	-0,146	0,031
-208,694	-42,175	-0,043	-0,016
-207,679	-200,000	-0,014	0,144
-206,665	240,193	-0,032	0,038
-205,650	185,679	0,093	-0,099
-204,636	-68,441	-0,054	-0,015
-203,621	800,000	0,055	-0,122
-202,606	347,171	0,074	-0,105
-201,592	82,986	-0,101	0,079
-200,577	257,309	-0,060	0,075
-199,563	531,254	0,029	0,049
-198,548	-200,000	0,009	0,033
-197,533	-47,200	0,088	0,031
-196,519	-200,000	-0,016	0,198
-195,504	-200,000	0,010	0,125
-194,490	-59,391	-0,118	-0,036
-193,475	-100,827	0,075	-0,013
-192,460	-22,261	-0,088	0,038
-191,446	-200,000	0,082	-0,000
-190,431	81,980	0,103	-0,080
-189,417	22,271	0,072	0,042
-188,402	-45,458	-0,016	-0,006
-187,387	-200,000	-0,060	-0,207
-186,373	-200,000	0,023	-0,128
-185,358	219,737	-0,054	0,062
-184,344	-98,331	0,104	0,019
-183,329	-200,000	-0,048	0,153
-182,315	-200,000	-0,017	0,057
-181,300	-28,562	0,064	-0,026
-180,285	-200,000	0,006	-0,104
-179,271	-157,381	-0,112	-0,005
-178,256	82,577	-0,023	-0,018
-177,242	104,249	0,050	-0,042
-176,227	-97,493	0,130	-0,024
-175,212	51,605	-0,069	-0,047
-174,198	-200,000	0,028	-0,176
-173,183	-165,715	-0,135	0,004
-172,169	3,078	-0,070	0,037
-171,154	-55,978	-0,107	0,034
-170,139	36,667	0,052	0,033
-169,125	692,412	0,044	0,084
-168,110	-200,000	0,001	-0,040
-167,096	-82,567	-0,021	-0,005
-166,081	336,704	-0,092	-0,129
-165,066	260,888	0,008	0,010
-164,052	-104,204	-0,141	-0,023
-163,037	-200,000	0,012	0,138
-162,023	-89,742	0,121	-0,025
-161,008	179,964	0,109	0,114
-159,993	-200,000	0,006	0,038
-158,979	80,970	-0,029	0,022
-157,964	197,954	-0,019	0,021
-156,950	-35,548	-0,051	-0,020
-155,935	40,861	0,110	-0,071
-154,920	-200,000	0,071	-0,000
-153,906	-200,000	0,015	-0,085
-152,891	99,000	-0,068	-0,057
-151,877	189,001	-0,044	-0,048
-150,862	77,092	0,031	0,024
-149,847	556,191	0,036	-0,062
-148,833	12,277	-0,065	-0,036
-147,818	-3,979	0,141	0,070
-146,804	-54,423	0,022	-0,007
-145,789	-56,371	-0,115	-0,036
-144,775	168,598	0,031	-0,032
-143,760	-200,000	-0,038	-0,225
-142,745	-200,000	-0,036	-0,167
-141,731	-200,000	0,006	-0,030
-140,716	761,022	-0,005	-0,010
-139,702	-77,221	0,097	-0,024
-138,687	-138,795	0,138	0,011
-137,672	62,303	0,085	-0,061
-136,658	786,538	0,069	-0,136
-135,643	68,152	0,032	0,023
-134,629	800,000	0,025	0,050
-133,614	-62,088	0,044	0,013
-132,599	296,793	-0,040	0,052
-131,585	220,913	-0,101	0,116
-130,570	800,000	-0,016	-0,036
-129,556	-3,122	-0,056	-0,028
-128,541	-200,000	0,011	0,078
-127,526	45,963	0,160	-0,106
-126,512	-200,000	-0,008	-0,121
-125,497	69,903	-0,054	0,040
-124,483	-200,000	0,022	0,134
-123,468	-73,535	-0,162	0,042
-122,453	546,399	0,039	0,067
-121,439	-113,028	-0,004	0,000
-120,424	800,000	-0,063	-0,189
-119,410	-200,000	0,002	0,168
-118,395	598,847	0,060	0,108
