DTS Sentinel unit serial number:	SN410029Multiplexer serial number:	ORYXHardware model number:	OX2-SRSoftware version number:	ORYX F/W v4,00 Oryx Data Collector v3.7.2.0data status	okinstallation	B5 Nyhavnadifferential loss correction	single-endedforward channel	channel 2reverse channel	N/Adate	2023/12/14time	18:12:13forward acquisition time	300,00reverse acquisition time	0,00gamma	499,1914k internal	0,3156k external	0,3156temperature offset calibration	1,0000default loss term (dB/km)	0,3820temperature slope calibration	1,0000multiplexer offset coefficient	1,0000multiplexer slope coefficient	1,0000fibre end	0,00T internal ref (°C)	8,41T ext. ref 1 (°C)	-6,95T ext. ref 2 (°C)	-6,98length (m)	temperature (°C)	Stokes	anti-Stokes-744,400	-70,100	0,269	0,075
-743,385	77,785	-0,292	-0,229
-742,371	81,983	0,226	0,180
-741,356	-137,381	-0,294	-0,024
-740,342	-200,000	-0,014	0,068
-739,327	-44,473	-0,443	-0,163
-738,312	-25,526	0,160	0,069
-737,298	-91,544	-0,432	-0,090
-736,283	115,432	0,141	0,127
-735,269	-131,902	-0,241	0,023
-734,254	34,241	0,087	0,056
-733,239	-85,087	-0,454	-0,104
-732,225	-138,292	0,269	-0,022
-731,210	-200,000	-0,018	-0,077
-730,196	179,194	-0,019	-0,021
-729,181	800,000	-0,042	-0,096
-728,167	-92,640	-0,015	-0,003
-727,152	-200,000	0,000	-0,113
-726,137	308,368	-0,014	-0,019
-725,123	-200,000	-0,006	-0,085
-724,108	277,024	0,031	-0,041
-723,094	-200,000	0,025	0,109
-722,079	494,591	-0,058	-0,099
-721,064	-6,280	0,089	0,045
-720,050	-89,613	-0,077	0,016
-719,035	74,550	0,048	0,037
-718,021	-165,732	0,047	-0,001
-717,006	-46,854	-0,100	-0,036
-715,991	-130,333	-0,170	0,017
-714,977	53,604	-0,110	-0,077
-713,962	-125,611	0,161	-0,018
-712,948	-200,000	-0,029	-0,126
-711,933	212,635	-0,031	-0,036
-710,918	180,109	-0,066	-0,071
-709,904	-46,506	-0,174	-0,063
-708,889	-110,946	0,129	0,019
-707,875	121,458	-0,019	-0,018
-706,860	174,042	0,085	-0,090
-705,845	-35,353	0,185	-0,074
-704,831	110,644	-0,082	0,073
-703,816	-200,000	0,006	0,029
-702,802	53,240	-0,116	0,082
-701,787	-200,000	-0,002	0,074
-700,772	-70,201	-0,076	-0,021
-699,758	-115,840	-0,160	0,022
-698,743	274,286	0,073	0,096
-697,729	-7,447	-0,086	0,043
-696,714	-200,000	-0,022	0,137
-695,699	-200,000	0,033	0,108
-694,685	-200,000	0,017	0,095
-693,670	267,857	0,014	0,019
-692,656	-200,000	-0,022	0,203
-691,641	-200,000	0,008	0,080
-690,627	800,000	-0,046	-0,147
-689,612	274,762	-0,021	-0,027
-688,597	173,785	0,026	0,028
-687,583	-200,000	-0,001	-0,030
-686,568	800,000	0,022	-0,063
-685,554	325,629	-0,092	0,130
-684,539	440,743	-0,034	0,054
-683,524	591,728	-0,027	-0,049
-682,510	-87,881	-0,079	0,017
-681,495	-10,771	-0,082	0,040
-680,481	800,000	-0,034	-0,091
-679,466	800,000	-0,075	-0,184
-678,451	-75,247	0,061	-0,016
-677,437	257,076	0,024	0,031
-676,422	44,799	0,010	-0,007
-675,408	-5,790	-0,045	0,022
-674,393	57,719	-0,064	0,046
-673,378	-200,000	0,005	-0,066
-672,364	800,000	-0,063	-0,132
-671,349	99,420	0,087	-0,074
-670,335	60,632	-0,141	-0,102
-669,320	-200,000	0,003	-0,030
-668,305	505,611	0,025	-0,043
-667,291	-200,000	0,016	-0,079
-666,276	149,575	-0,102	0,101
-665,262	-200,000	-0,020	0,104
-664,247	-63,527	-0,092	0,027
-663,232	-77,565	0,029	0,007
-662,218	800,000	0,044	0,126
-661,203	-55,519	-0,055	0,018
-660,189	-49,533	0,137	0,048
-659,174	138,262	-0,008	-0,008
-658,159	-7,550	-0,048	-0,024
-657,145	185,023	0,047	-0,051
-656,130	3,138	-0,151	-0,081
-655,116	-200,000	-0,001	0,035
-654,101	-200,000	-0,020	0,068
-653,086	233,190	0,114	0,138
-652,072	-200,000	-0,008	-0,108
-651,057	-2,500	0,067	-0,035
-650,043	-24,774	0,090	-0,039
-649,028	-69,862	-0,113	0,031
-648,014	-200,000	0,007	-0,030
-646,999	-55,261	0,218	-0,072
-645,984	366,522	-0,074	-0,110
-644,970	494,323	0,027	-0,046
-643,955	508,632	0,016	-0,027
-642,941	-200,000	0,021	0,000
-641,926	-200,000	0,033	0,179
-640,911	800,000	0,031	0,096
-639,897	78,808	-0,045	0,035
-638,882	-200,000	0,011	0,035
-637,868	397,994	-0,073	0,113
-636,853	800,000	0,040	-0,095
-635,838	-158,082	0,093	-0,004
-634,824	320,964	0,029	-0,041
-633,809	-200,000	-0,035	-0,140
-632,795	-200,000	-0,001	-0,030
-631,780	-200,000	0,005	0,062
-630,765	-63,440	-0,112	-0,034
-629,751	-103,391	-0,195	0,033
-628,736	800,000	-0,049	-0,130
-627,722	-200,000	-0,004	-0,087
-626,707	35,862	0,177	-0,114
-625,692	9,188	0,096	0,053
-624,678	800,000	0,065	0,141
-623,663	190,860	-0,056	0,062
-622,649	267,740	0,035	-0,045
-621,634	800,000	-0,072	0,155
-620,619	31,038	0,020	-0,013
-619,605	-200,000	0,019	0,089
-618,590	-200,000	0,011	0,158
-617,576	-41,370	0,091	0,034
-616,561	-104,419	-0,107	-0,018
-615,546	64,209	-0,090	0,066
-614,532	289,867	-0,073	-0,097
-613,517	-20,772	-0,079	0,035
-612,503	-200,000	0,003	-0,150
-611,488	-61,906	0,069	-0,021
-610,474	800,000	0,078	0,177
-609,459	204,549	-0,008	0,010
-608,444	800,000	0,065	-0,175
-607,430	800,000	-0,049	-0,110
-606,415	-146,790	-0,153	-0,010
-605,401	-0,177	0,116	-0,060
-604,386	611,152	-0,021	0,039
-603,371	5,631	-0,016	-0,009
-602,357	-58,972	-0,040	-0,013
-601,342	-200,000	-0,015	0,052
-600,328	-36,732	0,100	-0,039
-599,313	-200,000	-0,001	-0,017
-598,298	338,571	0,028	0,040
-597,284	111,533	0,057	0,050
-596,269	281,230	-0,057	0,075
-595,255	212,842	-0,067	0,078
-594,240	-200,000	-0,006	-0,111
-593,225	37,762	-0,087	0,057
-592,211	239,876	-0,074	-0,090
-591,196	-130,702	0,112	-0,011
-590,182	81,825	-0,105	0,083
-589,167	800,000	0,018	0,054
-588,152	460,463	-0,054	-0,089
-587,138	-39,967	-0,105	0,040
-586,123	-200,000	0,014	0,094
-585,109	-80,476	-0,077	0,019
-584,094	-200,000	-0,000	0,021
-583,079	-200,000	0,014	0,156
-582,065	-81,441	0,150	-0,036
-581,050	-200,000	-0,027	0,163
-580,036	-44,948	-0,054	-0,019
-579,021	-115,404	-0,028	-0,004
-578,006	50,693	0,037	0,026
-576,992	85,631	-0,032	-0,026
-575,977	-200,000	0,023	-0,107
-574,963	178,454	-0,030	0,032
-573,948	-74,275	0,160	-0,042
-572,934	34,192	0,119	-0,076
-571,919	800,000	0,026	-0,084
-570,904	124,498	-0,140	-0,129
-569,890	102,092	0,080	0,068
-568,875	800,000	-0,040	0,121
-567,861	-6,367	0,149	0,074
-566,846	-200,000	0,005	-0,056
-565,831	-178,179	-0,099	0,002
-564,817	49,323	-0,162	-0,111
-563,802	-16,030	-0,008	-0,004
-562,788	-96,035	-0,144	0,028
-561,773	800,000	-0,040	0,106
-560,758	-88,584	-0,061	-0,013
-559,744	-101,086	-0,167	0,030
-558,729	-200,000	0,035	-0,120
-557,715	67,315	-0,077	0,057
-556,700	32,356	-0,066	0,042
-555,685	-200,000	0,016	-0,061
-554,671	-200,000	0,012	-0,072
-553,656	390,963	0,059	-0,091
-552,642	-200,000	0,008	0,155
-551,627	-200,000	0,006	-0,035
-550,612	428,227	-0,057	0,091
-549,598	800,000	0,033	-0,075
-548,583	-164,930	-0,244	-0,008
-547,569	800,000	0,040	-0,086
-546,554	348,051	0,091	-0,131
-545,539	-142,006	0,094	0,007
-544,525	-200,000	-0,016	0,052
-543,510	-200,000	-0,028	-0,157
-542,496	-200,000	-0,014	0,054
-541,481	-28,261	-0,101	-0,042
-540,466	-180,683	0,123	0,002
-539,452	63,651	0,056	0,041
-538,437	-200,000	-0,002	-0,047
-537,423	-74,824	0,059	-0,015
-536,408	-39,690	0,114	0,043
-535,393	-21,074	-0,118	-0,053
-534,379	-192,150	0,106	0,001
-533,364	-39,027	0,080	0,031
-532,350	82,016	0,138	-0,109
-531,335	-89,885	-0,057	-0,012
-530,321	25,501	0,087	0,053
-529,306	-93,459	0,115	-0,023
-528,291	800,000	0,021	-0,046
-527,277	305,373	-0,089	-0,122
-526,262	-31,908	-0,090	-0,037
-525,248	-200,000	0,002	-0,049
-524,233	-168,615	0,094	0,003
-523,218	74,052	-0,060	0,046
-522,204	-200,000	0,004	-0,112
-521,189	-69,186	-0,040	-0,011
-520,175	800,000	0,049	-0,140
-519,160	10,757	0,079	-0,044
-518,145	-109,867	-0,076	0,012
-517,131	192,375	0,032	0,035
-516,116	692,005	0,059	-0,113
-515,102	199,068	-0,012	-0,013
-514,087	302,459	-0,050	-0,068
-513,072	-200,000	-0,052	0,191
-512,058	-200,000	0,000	-0,023
-511,043	422,404	0,088	0,139
-510,029	800,000	-0,063	0,140
-509,014	106,997	0,094	0,082
-507,999	-76,691	0,026	-0,007
-506,985	-158,421	-0,069	0,003
-505,970	136,455	-0,115	0,109
-504,956	-200,000	0,001	0,084
-503,941	-86,450	0,107	0,024
-502,926	548,653	0,006	0,011
-501,912	-200,000	0,012	0,107
-500,897	-88,033	0,110	0,024
-499,883	800,000	0,029	-0,067
-498,868	71,566	0,106	0,081
-497,853	-10,549	0,095	-0,046
-496,839	800,000	-0,042	-0,098
-495,824	-64,436	0,282	-0,083
-494,810	201,604	-0,106	-0,119
-493,795	-200,000	-0,010	-0,036
-492,781	413,710	0,049	-0,077
-491,766	-200,000	0,012	-0,068
-490,751	-200,000	0,015	-0,065
-489,737	17,105	-0,112	-0,064
-488,722	-200,000	-0,003	0,055
-487,708	534,519	0,057	-0,099
-486,693	173,281	0,114	-0,120
-485,678	800,000	-0,090	-0,209
-484,664	-95,241	-0,055	0,011
-483,649	386,253	-0,037	0,056
-482,635	-87,294	-0,183	0,040
-481,620	-93,941	0,020	0,004
-480,605	717,045	0,083	0,162
-479,591	-200,000	-0,016	0,061
-478,576	649,209	-0,027	0,051
-477,562	93,279	0,126	-0,104
-476,547	177,621	-0,055	0,059
-475,532	227,309	-0,095	-0,113
-474,518	-143,761	0,055	0,004
-473,503	800,000	0,021	0,048
-472,489	436,893	-0,076	0,121
-471,474	0,986	0,153	0,080
-470,459	-200,000	-0,006	0,097
-469,445	10,866	-0,072	0,040
-468,430	-200,000	0,005	-0,063
-467,416	-200,000	-0,003	0,137
-466,401	-117,296	0,085	-0,011
-465,386	-92,074	0,066	0,014
-464,372	-200,000	-0,021	0,101
-463,357	124,609	-0,070	0,064
-462,343	-152,482	-0,121	-0,006
-461,328	800,000	0,059	0,185
-460,313	22,522	0,057	-0,034
-459,299	208,215	-0,054	-0,061
-458,284	30,728	0,114	0,071
-457,270	56,875	0,059	-0,042
-456,255	-200,000	-0,003	0,121
-455,241	-44,044	-0,128	-0,047
-454,226	-55,130	0,087	0,028
-453,211	41,169	0,068	0,045
-452,197	772,938	-0,050	-0,100
-451,182	-169,531	0,077	0,002
-450,168	44,869	-0,044	-0,030
-449,153	-200,000	-0,011	-0,050
-448,138	-37,674	-0,159	0,062
-447,124	293,758	-0,010	-0,013
-446,109	65,328	-0,090	-0,066
-445,095	257,857	0,030	0,038
-444,080	142,817	0,100	0,097
-443,065	-70,239	0,059	0,016
-442,051	-200,000	0,019	-0,097
-441,036	800,000	0,012	0,029
-440,022	-57,652	0,134	0,042
-439,007	-68,154	-0,087	0,025
-437,992	167,640	-0,027	-0,028
-436,978	25,012	0,155	-0,094
-435,963	-134,577	-0,095	0,008
-434,949	-103,155	0,038	0,007
-433,934	800,000	-0,046	0,125
-432,919	81,925	0,040	0,032
-431,905	494,189	-0,034	0,056
-430,890	-162,807	0,169	0,006
-429,876	365,664	0,018	0,027
-428,861	800,000	0,062	0,149
-427,846	-47,989	-0,193	-0,068
-426,832	-141,894	0,016	-0,001
-425,817	488,955	-0,030	-0,049
-424,803	63,614	-0,052	0,038
-423,788	-200,000	-0,012	0,055
-422,773	800,000	0,066	0,138
-421,759	139,060	0,054	-0,052
-420,744	-200,000	-0,023	-0,133
-419,730	107,014	-0,073	0,063
-418,715	-59,792	0,051	0,016
-417,701	-172,851	-0,139	0,003
-416,686	800,000	0,015	-0,039
-415,671	-43,324	0,101	-0,037
-414,657	-200,000	0,002	0,039
-413,642	183,992	0,067	-0,072
-412,628	-200,000	0,003	-0,088
-411,613	288,026	-0,081	-0,107
-410,598	70,822	-0,066	0,050
-409,584	-68,990	0,149	0,041
-408,569	-93,287	0,062	0,012
-407,555	-200,000	-0,025	-0,114
-406,540	-80,244	-0,068	0,016
-405,525	-200,000	-0,010	-0,048
-404,511	-200,000	0,017	0,117
-403,496	-200,000	-0,008	-0,116
-402,482	-200,000	0,051	-0,168
-401,467	-200,000	0,001	0,183
-400,452	135,593	0,120	0,114
-399,438	443,903	-0,020	-0,033
-398,423	-200,000	0,029	0,113
-397,409	707,919	0,009	0,018
-396,394	9,518	-0,106	-0,058
-395,379	25,345	0,087	-0,053
-394,365	131,778	-0,127	0,119
-393,350	-5,933	-0,099	0,049
-392,336	357,899	0,040	0,059
-391,321	94,481	-0,015	-0,013
-390,306	44,582	-0,075	-0,050
-389,292	800,000	-0,034	-0,088
-388,277	-190,341	-0,065	0,001
-387,263	78,358	0,051	0,040
-386,248	60,521	-0,067	-0,048
-385,233	-19,012	0,026	-0,012
-384,219	211,318	-0,030	0,035
-383,204	566,305	0,051	-0,090
-382,190	-14,877	0,082	-0,038
-381,175	-53,933	-0,116	0,038
-380,160	800,000	-0,026	0,062
-379,146	-61,942	0,122	0,037
-378,131	93,278	0,101	-0,083
-377,117	-200,000	-0,032	-0,134
-376,102	137,073	-0,103	0,098
-375,088	-55,703	-0,059	-0,019
-374,073	-200,000	0,053	-0,187
-373,058	-152,600	0,122	-0,006
-372,044	-200,000	-0,005	-0,079
-371,029	277,887	0,095	0,123
-370,015	88,488	-0,053	0,043
-369,000	263,828	-0,074	-0,094
-367,985	-117,391	0,018	0,002
-366,971	-118,744	0,078	0,010
-365,956	-200,000	0,003	0,054
-364,942	698,721	-0,039	0,075
-363,927	-34,308	-0,090	0,036
-362,912	-178,089	0,042	0,001
-361,898	-45,056	-0,084	0,030
-360,883	24,930	-0,070	0,042
-359,869	372,121	0,087	-0,129
-358,854	-200,000	-0,019	-0,070
-357,839	171,793	0,071	0,074
-356,825	-200,000	0,035	-0,138
-355,810	-200,000	0,008	-0,119
-354,796	-62,745	-0,157	-0,047
-353,781	149,523	0,021	-0,020
-352,766	18,753	-0,012	-0,007
-351,752	-101,937	0,134	0,023
-350,737	-109,221	0,137	0,021
-349,723	-14,848	0,033	-0,015
-348,708	-200,000	0,027	0,188
-347,693	-200,000	0,011	0,093
-346,679	-200,000	0,009	-0,073
-345,664	81,060	-0,050	-0,040
-344,650	-108,117	0,131	-0,020
-343,635	-94,969	0,139	-0,027
-342,620	-200,000	-0,011	0,041
-341,606	-112,254	0,120	0,017
-340,591	-39,457	-0,057	-0,022
-339,577	531,828	-0,107	0,184
-338,562	-24,202	-0,111	0,048
-337,548	-200,000	0,011	-0,040
-336,533	152,773	0,018	-0,018
-335,518	450,145	0,018	-0,030
-334,504	-200,000	-0,001	0,082
-333,489	417,805	-0,075	0,117
-332,475	-34,115	-0,079	-0,031
-331,460	800,000	0,021	-0,058
-330,445	60,361	-0,105	-0,075
-329,431	800,000	0,021	0,054
-328,416	136,455	0,066	0,062
-327,402	-33,556	0,046	0,018
-326,387	-200,000	0,022	0,072
-325,372	-126,560	-0,059	-0,006
-324,358	800,000	0,044	-0,129
-323,343	-200,000	-0,014	0,093
-322,329	89,685	-0,027	-0,022
-321,314	-200,000	-0,021	0,130
-320,299	-166,310	0,113	0,003
-319,285	105,916	-0,047	0,040
-318,270	800,000	-0,016	0,033
-317,256	708,698	0,015	0,028
-316,241	-74,262	0,148	-0,038
-315,226	-57,093	0,049	-0,016
-314,212	15,181	0,099	0,056
-313,197	-200,000	0,019	0,075
-312,183	12,288	-0,134	0,075
-311,168	502,879	0,048	-0,080
-310,153	126,176	-0,073	0,067
-309,139	-200,000	-0,006	-0,022
-308,124	800,000	0,064	-0,179
-307,110	-27,298	0,110	0,046
-306,095	-107,475	0,109	-0,017
-305,080	645,798	0,049	-0,090
-304,066	662,523	-0,079	0,147
-303,051	-177,994	0,034	-0,001
-302,037	-97,855	0,048	-0,009
-301,022	-56,106	0,096	-0,031
-300,008	-38,562	0,058	0,022
-298,993	-200,000	-0,009	-0,054
-297,978	800,000	0,034	0,108
-296,964	92,969	-0,088	0,072
-295,949	-200,000	-0,007	0,042
-294,935	-12,241	-0,084	-0,040
-293,920	800,000	0,035	0,073
-292,905	800,000	-0,009	-0,018
-291,891	491,516	0,043	0,072
-290,876	35,403	0,123	0,078
-289,862	-165,298	0,168	-0,005
-288,847	-200,000	0,004	-0,183
-287,832	-200,000	-0,010	-0,125
-286,818	-93,861	-0,081	-0,016
-285,803	-178,056	0,048	0,001
-284,789	60,697	-0,006	0,004
-283,774	14,651	-0,119	-0,067
-282,759	260,042	0,045	-0,057
-281,745	-67,612	-0,073	-0,020
-280,730	800,000	0,036	-0,078
-279,716	-200,000	-0,008	-0,113
-278,701	144,239	0,134	-0,130
-277,686	-31,853	-0,026	0,011
-276,672	-106,379	-0,064	-0,010
-275,657	-66,046	-0,025	-0,007
-274,643	56,699	0,061	0,043
-273,628	-200,000	-0,026	-0,213
-272,613	800,000	-0,027	-0,063
-271,599	-113,761	0,115	-0,016
-270,584	-200,000	0,007	0,037
-269,570	256,484	0,048	0,060
-268,555	-132,804	-0,075	-0,007
-267,540	-87,794	-0,091	-0,020
-266,526	72,131	-0,067	-0,050
-265,511	154,623	-0,017	0,017
-264,497	-2,724	0,087	-0,044
-263,482	-41,824	-0,089	-0,033
-262,467	162,040	-0,056	-0,056
-261,453	-200,000	0,004	-0,069
-260,438	94,854	-0,106	-0,087
-259,424	-200,000	0,001	-0,005
-258,409	147,199	0,021	-0,020
-257,395	30,929	-0,108	0,067
-256,380	54,436	-0,040	0,028
-255,365	-130,294	-0,065	-0,006
-254,351	-154,905	-0,119	0,006
-253,336	-18,432	-0,069	-0,031
-252,322	373,582	0,076	-0,112
-251,307	-79,940	-0,126	0,030
-250,292	800,000	0,027	0,084
-249,278	-37,774	-0,068	-0,026
-248,263	-35,861	0,115	-0,045
-247,249	-200,000	-0,017	-0,069
-246,234	-119,018	-0,230	-0,029
-245,219	357,029	-0,018	0,026
-244,205	26,276	-0,065	-0,039
-243,190	-200,000	-0,003	-0,016
-242,176	-200,000	0,007	-0,074
-241,161	-105,033	0,070	-0,011
-240,146	110,851	0,111	-0,097
-239,132	-200,000	-0,008	-0,156
-238,117	-130,424	0,135	0,013
-237,103	83,617	-0,048	0,038
-236,088	-166,921	0,012	-0,000
-235,073	27,304	0,039	0,024
-234,059	-200,000	0,003	0,102
-233,044	712,448	0,037	-0,071
-232,030	11,240	0,134	-0,074
-231,015	-123,574	-0,125	0,014
-230,000	-74,192	-0,122	-0,032
-228,986	223,705	-0,046	0,053
-227,971	-89,558	-0,075	-0,016
-226,957	89,146	0,091	0,073
-225,942	481,967	-0,031	0,051
-224,927	82,030	-0,074	-0,058
-223,913	4,173	-0,059	-0,031
-222,898	-200,000	0,015	-0,113
-221,884	800,000	-0,019	-0,055
-220,869	185,889	0,053	0,057
-219,855	433,876	0,041	0,065
-218,840	-200,000	-0,024	0,144
-217,825	13,463	0,036	0,020
-216,811	-200,000	0,007	-0,088
-215,796	183,028	0,075	-0,080
-214,782	93,457	0,054	0,044
-213,767	-97,687	0,047	-0,009
-212,752	-134,997	0,080	-0,007
-211,738	83,529	0,071	0,056
-210,723	717,316	-0,040	0,077
-209,709	115,964	-0,090	-0,079
-208,694	-74,690	0,018	0,005
-207,679	439,025	0,009	0,014
-206,665	-194,933	0,131	-0,001
-205,650	57,348	0,043	-0,030
-204,636	-200,000	-0,010	0,121
-203,621	800,000	-0,037	0,098
-202,606	139,465	-0,090	0,085
-201,592	221,755	-0,046	0,053
-200,577	-200,000	0,039	-0,135
-199,563	800,000	0,040	-0,120
-198,548	-44,665	-0,068	0,025
-197,533	-200,000	0,031	-0,113
-196,519	88,620	0,028	-0,023
-195,504	-83,523	-0,070	-0,016
-194,490	-109,477	-0,099	0,015
-193,475	-166,696	0,097	-0,003
-192,460	158,775	-0,102	0,103
-191,446	242,665	0,041	0,049
-190,431	252,825	-0,028	-0,035
-189,417	-95,325	-0,120	0,023
-188,402	-200,000	-0,032	0,135
-187,387	-200,000	0,005	-0,050
-186,373	-97,482	-0,116	0,022
-185,358	800,000	-0,056	0,154
-184,344	515,598	0,029	0,050
-183,329	28,306	-0,111	0,067
-182,315	800,000	0,032	0,083
-181,300	36,821	-0,077	-0,049
-180,285	-200,000	-0,044	-0,163
-179,271	-54,390	-0,096	0,031
-178,256	-76,049	0,039	-0,010
-177,242	406,657	-0,120	0,184
-176,227	288,734	-0,134	0,175
-175,212	101,413	0,054	0,046
-174,198	-28,539	-0,075	-0,031
-173,183	800,000	-0,054	-0,127
-172,169	-200,000	0,014	0,167
-171,154	-200,000	-0,003	-0,109
-170,139	-100,695	0,085	0,015
-169,125	-200,000	-0,022	0,096
-168,110	-200,000	-0,008	0,077
-167,096	-200,000	0,005	0,053
-166,081	800,000	-0,004	-0,011
-165,066	-80,378	-0,211	-0,050
-164,052	481,048	0,079	0,129
-163,037	-27,192	-0,077	-0,032
-162,023	63,612	0,098	-0,071
-161,008	800,000	0,015	0,042
-159,993	-41,322	0,054	-0,020
-158,979	-145,704	0,040	0,003
-157,964	35,411	0,069	0,044
-156,950	160,766	0,045	-0,045
-155,935	-200,000	-0,003	-0,051
-154,920	-174,410	0,062	0,001
-153,906	800,000	-0,025	0,060
-152,891	-200,000	0,008	-0,071
-151,877	-32,885	-0,030	0,012
-150,862	681,567	0,056	-0,106
-149,847	3,148	-0,062	-0,032
-148,833	385,666	0,045	-0,068
-147,818	-179,909	0,076	-0,001
-146,804	465,585	-0,046	0,075
-145,789	-200,000	0,001	0,037
-144,775	-200,000	-0,017	-0,127
-143,760	800,000	0,024	-0,056
-142,745	161,942	0,055	-0,056
-141,731	109,856	-0,041	-0,035
-140,716	238,426	-0,085	0,102
-139,702	-113,528	-0,016	-0,002
-138,687	-116,044	-0,011	-0,001
-137,672	-146,055	0,103	-0,006
-136,658	-143,213	-0,129	0,009
-135,643	128,494	0,117	-0,107
-134,629	526,785	0,033	-0,055
-133,614	-66,338	-0,042	0,012
-132,599	-200,000	0,006	0,037
-131,585	800,000	0,016	-0,038
-130,570	590,737	0,065	0,117
-129,556	-200,000	-0,006	-0,068
-128,541	-130,194	0,093	0,009
-127,526	63,534	-0,096	-0,069
-126,512	-200,000	-0,006	-0,094
-125,497	-200,000	0,007	0,089
-124,483	-200,000	-0,014	-0,087
-123,468	-200,000	-0,025	0,100
-122,453	-82,322	0,071	0,017
-121,439	800,000	-0,029	-0,085
-120,424	317,968	-0,081	-0,111
