DTS Sentinel unit serial number:	SN410029Multiplexer serial number:	ORYXHardware model number:	OX2-SRSoftware version number:	ORYX F/W v4,00 Oryx Data Collector v3.7.2.0data status	okinstallation	B5 Nyhavnadifferential loss correction	single-endedforward channel	channel 2reverse channel	N/Adate	2023/12/12time	12:22:13forward acquisition time	300,00reverse acquisition time	0,00gamma	499,1914k internal	0,3158k external	0,3158temperature offset calibration	1,0000default loss term (dB/km)	0,3820temperature slope calibration	1,0000multiplexer offset coefficient	1,0000multiplexer slope coefficient	1,0000fibre end	0,00T internal ref (°C)	15,27T ext. ref 1 (°C)	-0,61T ext. ref 2 (°C)	-0,86length (m)	temperature (°C)	Stokes	anti-Stokes-744,400	-139,296	0,115	0,009
-743,385	-103,418	-0,236	0,041
-742,371	-88,763	0,128	0,028
-741,356	-44,382	-0,217	0,080
-740,342	-200,000	0,030	0,140
-739,327	-108,285	-0,383	0,060
-738,312	389,076	0,044	0,068
-737,298	-183,920	-0,323	-0,004
-736,283	-79,667	0,119	0,029
-735,269	-46,297	-0,219	-0,079
-734,254	-200,000	-0,001	0,028
-733,239	-38,420	-0,578	-0,224
-732,225	-7,703	0,098	-0,049
-731,210	-21,200	-0,156	0,070
-730,196	-200,000	-0,002	0,021
-729,181	-200,000	0,023	-0,091
-728,167	800,000	0,054	-0,139
-727,152	-39,533	-0,034	-0,013
-726,137	-64,759	0,063	-0,019
-725,123	49,253	0,022	-0,015
-724,108	800,000	-0,055	0,118
-723,094	-118,412	-0,053	-0,007
-722,079	538,065	0,080	-0,141
-721,064	-63,746	-0,112	-0,034
-720,050	14,052	0,056	-0,032
-719,035	-75,974	-0,137	-0,035
-718,021	13,115	-0,109	-0,062
-717,006	-200,000	0,029	0,102
-715,991	-54,873	-0,157	-0,052
-714,977	109,913	-0,069	-0,061
-713,962	499,625	0,106	-0,181
-712,948	800,000	-0,041	-0,120
-711,933	-64,177	-0,145	-0,043
-710,918	513,961	-0,040	-0,068
-709,904	150,438	-0,159	-0,159
-708,889	-200,000	0,011	-0,143
-707,875	642,544	-0,085	-0,161
-706,860	312,101	-0,059	0,082
-705,845	800,000	0,041	-0,093
-704,831	-69,245	0,110	0,031
-703,816	92,990	0,036	-0,030
-702,802	-200,000	0,010	0,078
-701,787	-200,000	-0,010	-0,102
-700,772	-43,984	-0,056	0,021
-699,758	153,939	0,028	-0,028
-698,743	-200,000	-0,028	-0,142
-697,729	-200,000	0,003	0,117
-696,714	456,246	-0,017	0,027
-695,699	-97,925	-0,070	-0,013
-694,685	307,989	-0,043	-0,060
-693,670	-193,244	0,077	0,000
-692,656	-31,768	-0,100	-0,041
-691,641	-200,000	0,016	-0,108
-690,627	68,957	-0,022	-0,016
-689,612	92,901	-0,013	0,011
-688,597	56,277	-0,130	-0,093
-687,583	-200,000	0,028	-0,091
-686,568	-34,751	0,093	0,037
-685,554	-200,000	0,006	-0,103
-684,539	-139,004	0,063	0,005
-683,524	800,000	-0,055	-0,116
-682,510	-50,092	-0,078	-0,027
-681,495	-80,841	-0,104	0,025
-680,481	800,000	0,021	0,049
-679,466	800,000	-0,002	0,004
-678,451	-37,100	-0,158	0,062
-677,437	-63,576	0,147	0,044
-676,422	60,042	-0,082	0,059
-675,408	-200,000	-0,000	-0,091
-674,393	-64,557	0,106	0,031
-673,378	165,849	0,072	-0,075
-672,364	-140,993	-0,034	-0,003
-671,349	800,000	-0,028	-0,070
-670,335	-113,423	-0,153	-0,022
-669,320	8,959	0,100	-0,055
-668,305	12,309	-0,114	-0,064
-667,291	12,938	-0,056	0,032
-666,276	-157,638	0,088	-0,004
-665,262	-53,047	-0,200	0,067
-664,247	-200,000	0,001	0,052
-663,232	69,658	0,067	-0,051
-662,218	7,332	0,034	0,019
-661,203	800,000	0,010	0,027
-660,189	6,745	-0,072	0,039
-659,174	-96,908	0,016	0,003
-658,159	-200,000	0,057	-0,211
-657,145	636,383	0,026	-0,049
-656,130	-72,848	-0,081	0,022
-655,116	64,151	0,063	-0,046
-654,101	800,000	-0,019	-0,045
-653,086	800,000	-0,048	0,140
-652,072	-24,299	-0,073	-0,032
-651,057	-2,589	-0,164	0,084
-650,043	670,496	0,078	-0,149
-649,028	-200,000	-0,001	-0,108
-648,014	-200,000	-0,013	-0,059
-646,999	106,816	0,043	0,037
-645,984	-119,023	0,074	0,009
-644,970	800,000	0,014	-0,039
-643,955	800,000	-0,012	0,026
-642,941	99,574	0,048	-0,041
-641,926	719,232	0,069	-0,135
-640,911	-200,000	-0,006	-0,073
-639,897	800,000	0,026	-0,063
-638,882	17,670	-0,047	-0,027
-637,868	-200,000	0,034	0,250
-636,853	-46,538	-0,098	-0,035
-635,838	213,256	-0,051	-0,059
-634,824	151,801	0,043	-0,043
-633,809	136,748	0,059	-0,057
-632,795	25,129	-0,043	-0,026
-631,780	-28,531	0,091	-0,038
-630,765	-200,000	0,011	0,109
-629,751	-200,000	-0,006	0,080
-628,736	-103,114	0,074	-0,013
-627,722	-5,759	0,037	-0,018
-626,707	33,702	-0,062	-0,039
-625,692	64,341	-0,080	-0,059
-624,678	-116,313	-0,050	0,007
-623,663	-200,000	-0,011	0,112
-622,649	-66,014	-0,117	-0,034
-621,634	19,750	0,027	0,016
-620,619	-142,333	0,110	-0,008
-619,605	-200,000	-0,039	-0,130
-618,590	-93,304	-0,111	0,022
-617,576	-55,813	0,029	-0,010
-616,561	-24,725	-0,136	-0,059
-615,546	-87,795	0,093	-0,020
-614,532	-200,000	-0,032	-0,142
-613,517	-29,904	0,053	0,022
-612,503	-97,006	-0,137	-0,026
-611,488	-200,000	0,023	0,088
-610,474	-10,915	-0,059	0,028
-609,459	106,709	0,095	0,082
-608,444	-200,000	-0,001	-0,092
-607,430	458,437	-0,059	-0,097
-606,415	510,782	-0,073	-0,126
-605,401	146,213	0,039	-0,038
-604,386	59,898	-0,075	0,055
-603,371	800,000	0,083	0,185
-602,357	661,818	0,042	0,080
-601,342	-30,363	-0,060	0,025
-600,328	323,071	-0,071	-0,100
-599,313	-200,000	0,007	-0,103
-598,298	0,108	0,163	-0,085
-597,284	800,000	0,058	-0,136
-596,269	136,871	-0,127	-0,121
-595,255	-57,279	0,079	-0,025
-594,240	483,490	-0,050	-0,084
-593,225	31,635	-0,054	0,034
-592,211	98,267	-0,060	-0,051
-591,196	99,161	-0,012	0,010
-590,182	-62,625	0,165	-0,050
-589,167	-200,000	-0,026	-0,086
-588,152	162,538	0,069	-0,071
-587,138	0,733	0,092	0,048
-586,123	-200,000	0,001	-0,050
-585,109	105,566	-0,044	-0,038
-584,094	-94,205	0,058	-0,012
-583,079	29,895	-0,045	0,028
-582,065	-153,676	0,230	-0,011
-581,050	-200,000	0,008	0,058
-580,036	800,000	-0,044	0,120
-579,021	126,053	0,051	-0,047
-578,006	-200,000	-0,014	0,050
-576,992	162,670	0,073	-0,075
-575,977	-134,252	-0,043	0,004
-574,963	-111,222	0,141	0,021
-573,948	139,627	0,118	-0,114
-572,934	800,000	0,042	0,132
-571,919	-94,114	-0,128	-0,026
-570,904	173,533	-0,049	-0,052
-569,890	351,314	0,095	-0,139
-568,875	13,246	0,055	0,031
-567,861	245,777	0,033	-0,041
-566,846	-200,000	-0,021	0,099
-565,831	-125,162	-0,110	0,012
-564,817	-200,000	0,013	-0,129
-563,802	800,000	-0,057	-0,153
-562,788	-107,774	-0,164	-0,026
-561,773	-55,348	0,041	0,013
-560,758	-147,840	0,141	0,009
-559,744	-200,000	0,002	0,075
-558,729	800,000	0,038	0,119
-557,715	2,405	-0,124	-0,065
-556,700	191,224	-0,023	-0,025
-555,685	-200,000	-0,008	0,062
-554,671	-200,000	-0,002	0,052
-553,656	251,231	-0,119	0,149
-552,642	-200,000	0,036	0,145
-551,627	247,345	0,021	-0,026
-550,612	561,976	0,073	-0,129
-549,598	800,000	-0,048	-0,130
-548,583	-200,000	0,006	0,028
-547,569	283,134	-0,090	0,118
-546,554	-200,000	0,009	-0,090
-545,539	135,762	-0,031	0,029
-544,525	636,883	-0,055	0,103
-543,510	-200,000	-0,040	0,141
-542,496	-166,030	-0,089	-0,003
-541,481	157,460	0,087	-0,088
-540,466	-64,042	-0,177	-0,052
-539,452	348,360	-0,056	0,081
-538,437	31,293	0,067	0,042
-537,423	-200,000	0,020	-0,096
-536,408	340,946	0,056	-0,080
-535,393	-200,000	-0,006	-0,183
-534,379	310,382	0,044	-0,060
-533,364	-152,010	-0,094	-0,005
-532,350	800,000	0,097	0,266
-531,335	-200,000	0,026	0,091
-530,321	-89,581	-0,054	0,011
-529,306	486,932	-0,064	0,108
-528,291	-200,000	0,005	-0,029
-527,277	-200,000	0,018	-0,064
-526,262	-83,445	0,018	0,004
-525,248	-25,238	-0,046	-0,020
-524,233	800,000	-0,031	0,073
-523,218	-200,000	0,037	0,151
-522,204	-200,000	-0,066	-0,225
-521,189	35,819	-0,067	-0,043
-520,175	133,698	-0,074	-0,070
-519,160	-165,320	-0,139	0,004
-518,145	800,000	0,029	-0,075
-517,131	400,761	0,078	0,119
-516,116	800,000	0,061	0,144
-515,102	620,501	-0,039	0,073
-514,087	-200,000	0,006	-0,121
-513,072	800,000	-0,026	-0,078
-512,058	-100,237	0,080	-0,014
-511,043	74,284	-0,070	-0,054
-510,029	-200,000	0,008	-0,148
-509,014	336,414	-0,029	0,041
-507,999	-111,431	-0,136	0,020
-506,985	-124,287	-0,071	-0,008
-505,970	-118,274	0,023	-0,003
-504,956	116,200	0,094	-0,084
-503,941	-81,931	0,077	-0,018
-502,926	216,758	-0,026	0,030
-501,912	-200,000	-0,024	0,080
-500,897	108,012	0,037	-0,032
-499,883	184,924	-0,149	0,162
-498,868	4,289	-0,148	-0,079
-497,853	46,614	-0,130	-0,088
-496,839	-200,000	0,005	-0,167
-495,824	104,744	0,011	0,009
-494,810	167,507	-0,027	0,028
-493,795	-98,487	0,036	0,007
-492,781	508,920	0,073	-0,124
-491,766	431,166	0,055	0,086
-490,751	-138,616	-0,091	0,007
-489,737	87,589	-0,073	0,059
-488,722	58,795	0,072	-0,052
-487,708	-200,000	0,002	-0,007
-486,693	-200,000	0,006	0,053
-485,678	-200,000	-0,009	-0,092
-484,664	83,443	-0,106	-0,084
-483,649	-200,000	-0,016	-0,061
-482,635	-64,304	0,098	-0,029
-481,620	-200,000	0,017	-0,062
-480,605	800,000	0,077	0,158
-479,591	427,051	-0,080	-0,127
-478,576	119,944	0,026	0,023
-477,562	409,186	-0,061	-0,095
-476,547	-57,766	0,041	-0,013
-475,532	530,016	0,020	0,035
-474,518	-200,000	-0,005	0,159
-473,503	-200,000	0,025	-0,135
-472,489	-200,000	0,000	0,099
-471,474	335,819	-0,059	-0,083
-470,459	-38,796	-0,136	-0,052
-469,445	-200,000	0,050	-0,192
-468,430	-200,000	-0,017	-0,133
-467,416	94,437	-0,093	-0,077
-466,401	800,000	0,036	-0,093
-465,386	-188,133	-0,105	0,001
-464,372	24,064	-0,031	0,019
-463,357	-200,000	0,002	-0,092
-462,343	66,141	-0,067	-0,050
-461,328	2,744	-0,100	-0,053
-460,313	64,387	-0,100	0,074
-459,299	800,000	0,048	-0,126
-458,284	800,000	0,031	0,071
-457,270	-200,000	-0,009	-0,138
-456,255	30,619	0,044	-0,027
-455,241	663,296	-0,008	0,016
-454,226	-200,000	0,013	0,067
-453,211	-89,273	0,094	-0,020
-452,197	-200,000	0,007	0,102
-451,182	-41,290	0,051	0,019
-450,168	561,606	0,095	0,168
-449,153	277,000	-0,034	0,044
-448,138	800,000	-0,039	-0,102
-447,124	325,447	0,086	0,120
-446,109	-200,000	-0,011	-0,066
-445,095	259,973	0,106	0,134
-444,080	-200,000	0,004	0,157
-443,065	-127,830	-0,070	-0,007
-442,051	800,000	-0,050	-0,106
-441,036	-200,000	-0,012	-0,083
-440,022	-25,135	-0,155	0,067
-439,007	-200,000	-0,049	-0,191
-437,992	100,664	-0,052	-0,044
-436,978	-122,997	0,123	0,014
-435,963	95,611	0,083	0,069
-434,949	217,450	0,071	0,083
-433,934	-199,317	-0,013	0,000
-432,919	251,820	-0,063	-0,079
-431,905	800,000	0,032	0,068
-430,890	800,000	-0,045	-0,117
-429,876	285,229	0,051	0,067
-428,861	-73,042	0,113	0,030
-427,846	125,930	-0,047	0,043
-426,832	-200,000	0,001	-0,107
-425,817	-200,000	-0,025	0,085
-424,803	-1,856	-0,125	0,064
-423,788	800,000	0,081	0,177
-422,773	-124,403	-0,109	0,012
-421,759	-168,977	0,099	-0,003
-420,744	401,083	-0,085	0,130
-419,730	800,000	-0,040	-0,097
-418,715	439,934	-0,074	-0,118
-417,701	161,829	0,132	-0,135
-416,686	-53,874	-0,007	-0,002
-415,671	-18,941	0,066	0,030
-414,657	261,773	0,050	0,063
-413,642	800,000	0,035	0,089
-412,628	72,478	0,076	-0,058
-411,613	260,975	0,070	-0,089
-410,598	483,943	-0,041	-0,068
-409,584	-35,284	0,019	-0,008
-408,569	-108,208	-0,056	-0,009
-407,555	-6,817	-0,022	-0,011
-406,540	-187,784	0,079	0,001
-405,525	-200,000	-0,009	-0,051
-404,511	339,333	-0,087	-0,123
-403,496	13,728	-0,088	-0,050
-402,482	4,230	0,080	0,042
-401,467	126,722	0,108	0,100
-400,452	-103,267	0,093	-0,016
-399,438	-17,479	-0,090	0,041
-398,423	-29,540	0,071	0,030
-397,409	-28,573	-0,096	0,040
-396,394	125,163	-0,050	0,046
-395,379	602,031	-0,052	0,095
-394,365	124,423	0,059	0,054
-393,350	-200,000	0,014	0,177
-392,336	-4,760	0,039	0,020
-391,321	367,776	0,035	-0,051
-390,306	800,000	-0,003	0,010
-389,292	800,000	-0,119	-0,245
-388,277	800,000	0,030	-0,093
-387,263	-135,383	0,140	0,012
-386,248	-200,000	-0,061	0,210
-385,233	597,587	0,026	0,047
-384,219	-200,000	-0,028	0,000
-383,204	-112,989	-0,038	0,005
-382,190	264,178	-0,018	-0,022
-381,175	641,676	0,059	-0,109
-380,160	92,243	0,057	0,047
-379,146	-200,000	0,006	0,045
-378,131	-70,106	0,108	-0,030
-377,117	184,008	0,057	0,061
-376,102	535,629	0,078	-0,135
-375,088	-165,661	0,068	-0,002
-374,073	168,444	-0,071	0,073
-373,058	302,289	0,064	0,087
-372,044	-131,153	-0,092	-0,009
-371,029	-200,000	0,010	0,048
-370,015	-135,113	-0,032	0,003
-369,000	-81,170	-0,055	0,013
-367,985	712,373	0,085	0,164
-366,971	-200,000	0,005	-0,042
-365,956	-68,347	-0,066	-0,018
-364,942	90,293	0,018	0,015
-363,927	232,105	-0,038	0,046
-362,912	800,000	0,025	0,074
-361,898	-23,300	-0,049	0,021
-360,883	552,189	0,058	-0,101
-359,869	-2,927	-0,148	-0,075
-358,854	340,358	0,044	0,062
-357,839	513,880	0,049	0,083
-356,825	-143,700	0,165	0,011
-355,810	-200,000	0,042	0,176
-354,796	313,527	-0,056	0,077
-353,781	-119,161	-0,094	-0,012
-352,766	-155,253	-0,134	0,006
-351,752	654,144	-0,025	-0,048
-350,737	-114,978	0,135	-0,018
-349,723	-200,000	-0,014	0,060
-348,708	253,138	-0,058	-0,073
-347,693	-112,067	-0,114	0,017
-346,679	31,049	-0,075	0,047
-345,664	82,268	-0,073	0,058
-344,650	-85,296	0,062	0,014
-343,635	168,880	-0,056	0,058
-342,620	-200,000	-0,008	-0,085
-341,606	41,416	0,009	-0,006
-340,591	-69,703	0,086	0,024
-339,577	-70,620	0,076	0,021
-338,562	-200,000	-0,019	0,076
-337,548	-200,000	-0,007	-0,073
-336,533	461,925	0,066	0,108
-335,518	-70,641	0,190	-0,052
-334,504	-200,000	0,004	-0,031
-333,489	71,932	0,066	-0,049
-332,475	-200,000	-0,017	-0,135
-331,460	360,533	-0,088	-0,128
-330,445	-123,340	0,063	0,007
-329,431	-200,000	0,004	0,021
-328,416	800,000	0,078	0,178
-327,402	-200,000	-0,048	0,158
-326,387	-200,000	-0,009	0,061
-325,372	101,849	-0,107	-0,091
-324,358	350,444	0,033	-0,048
-323,343	566,900	0,034	-0,059
-322,329	-18,445	0,130	-0,059
-321,314	-108,591	0,220	0,034
-320,299	-200,000	-0,009	0,081
-319,285	58,680	-0,084	0,060
-318,270	266,503	-0,007	-0,009
-317,256	-132,063	-0,160	-0,015
-316,241	-200,000	0,025	-0,110
-315,226	-117,440	0,063	-0,008
-314,212	-200,000	0,013	-0,134
-313,197	-200,000	-0,001	-0,022
-312,183	-38,217	-0,097	-0,037
-311,168	398,074	-0,060	-0,091
-310,153	800,000	0,025	-0,073
-309,139	100,441	-0,078	-0,066
-308,124	771,794	-0,017	-0,033
-307,110	224,928	0,050	0,058
-306,095	-66,374	0,135	0,039
-305,080	97,498	-0,046	-0,039
-304,066	800,000	0,065	0,157
-303,051	-6,471	-0,103	-0,050
-302,037	-101,961	-0,167	0,029
-301,022	-107,766	0,099	-0,015
-300,008	-175,388	0,092	-0,002
-298,993	29,862	-0,068	0,042
-297,978	57,018	0,045	-0,032
-296,964	-200,000	-0,007	-0,042
-295,949	-200,000	0,008	0,091
-294,935	114,975	-0,050	-0,044
-293,920	28,708	-0,081	-0,050
-292,905	-58,179	-0,023	-0,007
-291,891	-200,000	-0,019	0,094
-290,876	259,378	-0,039	-0,049
-289,862	800,000	0,008	0,024
-288,847	117,446	-0,092	-0,082
-287,832	435,102	0,032	-0,051
-286,818	800,000	-0,047	0,126
-285,803	-128,107	0,130	-0,013
-284,789	-92,728	0,050	0,010
-283,774	800,000	-0,056	0,138
-282,759	800,000	0,017	0,041
-281,745	67,673	-0,085	0,063
-280,730	-200,000	0,010	-0,118
-279,716	36,930	0,114	-0,073
-278,701	-99,680	0,121	-0,022
-277,686	-146,715	0,067	-0,004
-276,672	64,122	-0,083	0,061
-275,657	322,141	-0,021	0,028
-274,643	-62,525	-0,142	0,043
-273,628	74,366	-0,118	0,090
-272,613	608,591	-0,027	-0,049
-271,599	-100,104	0,104	0,019
-270,584	-200,000	-0,008	-0,196
-269,570	454,863	-0,051	0,083
-268,555	-200,000	0,051	0,165
-267,540	-40,320	0,031	0,012
-266,526	800,000	0,024	-0,060
-265,511	800,000	0,031	-0,097
-264,497	452,652	0,011	-0,018
-263,482	-71,795	-0,129	0,035
-262,467	100,688	0,098	0,082
-261,453	-109,522	0,071	0,011
-260,438	-63,307	-0,133	-0,039
-259,424	-200,000	0,002	0,089
-258,409	-200,000	-0,011	-0,048
-257,395	-200,000	0,013	-0,125
-256,380	285,032	-0,035	0,045
-255,365	349,245	0,018	0,025
-254,351	16,334	0,125	0,071
-253,336	2,093	-0,212	-0,110
-252,322	-157,867	0,043	0,002
-251,307	-200,000	-0,007	-0,047
-250,292	-140,903	0,116	0,009
-249,278	-68,938	0,039	0,011
-248,263	-42,429	-0,125	0,046
-247,249	800,000	0,022	-0,055
-246,234	134,923	0,028	0,027
-245,219	800,000	-0,020	0,043
-244,205	-37,031	0,020	-0,008
-243,190	264,359	0,021	0,027
-242,176	60,916	0,054	0,039
-241,161	380,229	0,061	0,091
-240,146	-5,028	0,137	-0,068
-239,132	461,415	-0,031	-0,050
-238,117	-97,110	-0,102	-0,019
-237,103	-200,000	-0,026	-0,105
-236,088	190,664	-0,135	0,147
-235,073	800,000	-0,041	0,099
-234,059	-91,690	0,087	0,018
-233,044	-200,000	0,002	0,050
-232,030	800,000	0,058	0,121
-231,015	158,244	-0,057	-0,057
-230,000	800,000	-0,082	0,168
-228,986	-38,184	0,110	-0,042
-227,971	-200,000	-0,006	0,202
-226,957	65,109	0,106	0,077
-225,942	-129,186	-0,050	-0,005
-224,927	-142,721	0,083	-0,006
-223,913	508,594	-0,037	0,063
-222,898	-200,000	0,003	0,057
-221,884	105,292	0,028	-0,024
-220,869	-200,000	0,001	-0,020
-219,855	213,016	0,027	0,031
-218,840	800,000	-0,026	0,070
-217,825	-200,000	0,028	0,100
-216,811	705,698	0,045	-0,086
-215,796	18,102	0,028	-0,016
-214,782	-107,637	0,028	0,004
-213,767	715,240	0,036	0,070
-212,752	119,568	0,210	0,188
-211,738	-200,000	0,013	-0,106
-210,723	800,000	0,021	-0,062
-209,709	-112,119	0,162	0,023
-208,694	800,000	0,038	-0,084
-207,679	146,520	-0,041	0,040
-206,665	-113,338	0,096	-0,013
-205,650	-63,257	-0,033	-0,010
-204,636	702,973	-0,063	0,119
-203,621	800,000	0,027	-0,060
-202,606	684,986	-0,052	-0,098
-201,592	-182,936	0,135	0,002
-200,577	-200,000	0,020	0,110
-199,563	-17,869	-0,083	-0,038
-198,548	-200,000	0,008	0,132
-197,533	-9,561	0,085	0,041
-196,519	219,741	-0,056	-0,065
-195,504	522,051	-0,011	0,018
-194,490	-200,000	0,001	-0,062
-193,475	172,942	0,017	-0,018
-192,460	-114,515	0,052	0,007
-191,446	-143,495	0,034	-0,002
-190,431	3,728	0,041	0,021
-189,417	216,625	-0,076	0,088
-188,402	-113,368	-0,128	-0,018
-187,387	-49,310	-0,180	-0,061
-186,373	-200,000	0,022	-0,086
-185,358	218,244	0,042	0,048
-184,344	160,003	0,155	0,156
-183,329	-89,767	0,086	-0,018
-182,315	182,119	-0,052	0,055
-181,300	800,000	0,023	-0,056
-180,285	800,000	0,016	0,040
-179,271	-10,988	-0,060	0,028
-178,256	800,000	0,035	-0,107
-177,242	27,720	-0,041	-0,025
-176,227	-200,000	0,009	0,045
-175,212	19,929	0,085	-0,049
-174,198	-199,816	0,108	-0,000
-173,183	-200,000	0,021	-0,133
-172,169	26,741	-0,119	0,071
-171,154	793,795	-0,062	0,124
-170,139	185,254	-0,060	0,064
-169,125	-7,839	0,054	0,026
-168,110	-47,079	0,137	-0,048
-167,096	526,910	-0,055	0,094
-166,081	28,108	-0,089	0,054
-165,066	-52,257	-0,083	0,028
-164,052	41,847	-0,104	-0,068
-163,037	76,589	0,104	0,079
-162,023	-200,000	-0,013	-0,141
-161,008	168,950	0,057	0,058
-159,993	800,000	-0,016	0,033
-158,979	800,000	-0,012	0,025
-157,964	70,505	-0,056	-0,041
-156,950	171,584	-0,096	0,100
-155,935	21,874	-0,106	-0,062
-154,920	-88,416	0,062	0,013
-153,906	204,837	0,090	0,101
-152,891	276,523	-0,074	0,094
-151,877	-10,297	-0,057	0,027
-150,862	-26,104	-0,122	0,052
-149,847	-83,549	-0,060	-0,014
-148,833	26,190	-0,073	-0,044
-147,818	-200,000	0,008	-0,052
-146,804	-90,451	0,076	-0,016
-145,789	604,805	0,037	-0,067
-144,775	-30,119	0,046	-0,019
-143,760	-200,000	0,025	-0,080
-142,745	-200,000	-0,223	0,001
-141,731	23,990	-0,058	-0,035
-140,716	304,246	-0,052	0,069
-139,702	40,468	0,092	0,059
-138,687	40,990	-0,109	0,071
-137,672	-200,000	-0,023	-0,084
-136,658	800,000	0,048	0,127
-135,643	-200,000	-0,004	-0,037
-134,629	800,000	0,051	0,158
-133,614	800,000	0,027	0,060
-132,599	73,972	0,128	0,097
-131,585	188,698	-0,046	0,050
-130,570	-200,000	-0,034	0,158
-129,556	800,000	-0,010	-0,033
-128,541	-200,000	0,004	0,019
-127,526	800,000	-0,052	-0,106
-126,512	-200,000	0,019	0,064
-125,497	59,915	-0,045	-0,032
-124,483	60,240	0,108	-0,077
-123,468	94,541	-0,123	-0,101
-122,453	393,039	0,013	0,019
-121,439	111,505	0,088	0,076
-120,424	-200,000	0,037	-0,121
-119,410	-200,000	0,014	0,090
