DTS Sentinel unit serial number:	SN410029Multiplexer serial number:	ORYXHardware model number:	OX2-SRSoftware version number:	ORYX F/W v4,00 Oryx Data Collector v3.7.2.0data status	okinstallation	B5 Nyhavnadifferential loss correction	single-endedforward channel	channel 2reverse channel	N/Adate	2023/12/13time	14:27:13forward acquisition time	300,00reverse acquisition time	0,00gamma	499,1914k internal	0,3160k external	0,3160temperature offset calibration	1,0000default loss term (dB/km)	0,3820temperature slope calibration	1,0000multiplexer offset coefficient	1,0000multiplexer slope coefficient	1,0000fibre end	0,00T internal ref (°C)	14,94T ext. ref 1 (°C)	-1,21T ext. ref 2 (°C)	-1,51length (m)	temperature (°C)	Stokes	anti-Stokes-744,400	529,071	0,045	0,079
-743,385	43,766	-0,230	0,155
-742,371	800,000	0,033	0,077
-741,356	22,823	-0,100	0,060
-740,342	-12,132	0,066	-0,032
-739,327	-27,001	-0,308	0,132
-738,312	57,284	0,041	-0,030
-737,298	-89,661	-0,311	-0,067
-736,283	-162,070	0,108	-0,004
-735,269	-55,057	-0,253	0,083
-734,254	-142,771	0,133	0,009
-733,239	-92,267	-0,522	-0,107
-732,225	-118,663	0,143	-0,018
-731,210	93,268	-0,045	0,037
-730,196	-132,341	0,144	0,013
-729,181	-40,694	-0,074	-0,028
-728,167	98,299	-0,093	-0,079
-727,152	-23,442	-0,133	-0,059
-726,137	-200,000	-0,007	0,063
-725,123	-200,000	0,007	0,035
-724,108	-49,490	0,105	-0,037
-723,094	-200,000	-0,035	-0,214
-722,079	221,576	-0,061	-0,072
-721,064	716,367	0,020	-0,038
-720,050	-200,000	-0,004	-0,039
-719,035	800,000	-0,012	0,028
-718,021	244,279	-0,058	-0,072
-717,006	70,104	-0,112	-0,085
-715,991	-45,556	-0,136	-0,049
-714,977	342,068	-0,034	0,049
-713,962	386,361	0,050	-0,076
-712,948	800,000	0,012	0,033
-711,933	-150,072	0,094	0,005
-710,918	-110,454	-0,197	0,030
-709,904	494,518	-0,013	-0,023
-708,889	420,161	-0,031	-0,049
-707,875	-96,165	-0,126	0,024
-706,860	-85,286	0,122	-0,028
-705,845	800,000	0,060	-0,164
-704,831	155,387	0,068	0,069
-703,816	-141,024	-0,098	-0,007
-702,802	43,890	-0,081	-0,054
-701,787	-200,000	-0,012	0,050
-700,772	70,671	-0,102	-0,078
-699,758	800,000	-0,063	-0,169
-698,743	99,488	0,078	0,066
-697,729	-200,000	-0,006	-0,068
-696,714	-57,023	-0,134	0,043
-695,699	-158,961	-0,196	-0,008
-694,685	-200,000	-0,006	-0,041
-693,670	-92,302	-0,168	0,035
-692,656	243,199	0,035	-0,043
-691,641	402,640	0,061	0,094
-690,627	56,767	0,017	0,012
-689,612	800,000	0,028	-0,085
-688,597	682,719	0,045	-0,086
-687,583	-175,758	-0,013	-0,000
-686,568	64,293	-0,086	0,063
-685,554	-200,000	-0,040	-0,192
-684,539	179,838	-0,085	-0,092
-683,524	-50,927	0,068	0,023
-682,510	-46,218	-0,104	0,037
-681,495	-200,000	0,008	0,031
-680,481	108,835	-0,049	0,043
-679,466	-200,000	0,021	0,108
-678,451	31,275	-0,111	0,070
-677,437	-78,825	0,104	-0,026
-676,422	239,774	-0,053	-0,065
-675,408	42,050	-0,093	-0,062
-674,393	56,043	0,085	0,061
-673,378	432,036	-0,067	-0,107
-672,364	122,025	-0,127	-0,116
-671,349	139,237	0,113	0,109
-670,335	-16,848	-0,063	0,029
-669,320	157,336	0,065	0,066
-668,305	-200,000	-0,002	0,087
-667,291	-70,940	-0,115	-0,032
-666,276	-200,000	-0,021	0,141
-665,262	-131,648	-0,145	-0,014
-664,247	524,956	0,029	-0,051
-663,232	-200,000	0,010	-0,090
-662,218	83,546	-0,060	0,048
-661,203	-16,248	0,074	0,035
-660,189	-44,050	-0,107	0,039
-659,174	-127,085	-0,041	-0,004
-658,159	800,000	-0,034	-0,071
-657,145	-53,637	-0,108	0,036
-656,130	-18,453	0,057	0,026
-655,116	-164,657	-0,074	-0,002
-654,101	-200,000	-0,029	0,134
-653,086	800,000	-0,030	0,067
-652,072	-125,734	-0,092	0,010
-651,057	800,000	0,030	-0,087
-650,043	-12,565	-0,105	-0,050
-649,028	615,302	-0,074	-0,136
-648,014	722,757	0,046	0,089
-646,999	-200,000	-0,005	-0,038
-645,984	-16,679	-0,055	0,025
-644,970	89,093	-0,275	-0,225
-643,955	56,749	-0,053	-0,038
-642,941	-200,000	0,016	-0,067
-641,926	21,427	-0,128	-0,076
-640,911	734,899	-0,031	0,062
-639,897	800,000	0,029	0,085
-638,882	14,125	0,039	-0,022
-637,868	207,453	0,064	0,074
-636,853	274,525	0,018	-0,024
-635,838	800,000	-0,030	-0,098
-634,824	800,000	0,025	-0,073
-633,809	74,467	0,050	0,039
-632,795	-53,789	-0,020	0,007
-631,780	-28,253	-0,054	0,023
-630,765	-200,000	0,034	0,169
-629,751	498,141	-0,067	0,114
-628,736	800,000	0,035	0,102
-627,722	-200,000	-0,004	-0,071
-626,707	39,634	0,042	-0,028
-625,692	800,000	-0,010	-0,030
-624,678	-200,000	-0,022	0,116
-623,663	-200,000	-0,016	-0,072
-622,649	161,387	0,127	-0,130
-621,634	-47,850	-0,073	0,026
-620,619	461,567	0,075	0,123
-619,605	-200,000	-0,005	0,022
-618,590	-0,979	-0,053	-0,028
-617,576	-18,425	-0,136	-0,062
-616,561	-200,000	0,027	0,124
-615,546	-200,000	0,008	0,051
-614,532	-152,668	-0,152	-0,008
-613,517	256,845	-0,116	0,146
-612,503	-200,000	0,037	-0,166
-611,488	-32,085	0,091	0,037
-610,474	-200,000	0,011	-0,080
-609,459	-38,442	-0,071	-0,027
-608,444	190,057	-0,095	0,105
-607,430	746,224	-0,065	-0,130
-606,415	-41,433	-0,010	-0,004
-605,401	-137,700	0,034	-0,003
-604,386	381,823	0,052	0,078
-603,371	-150,727	-0,057	0,003
-602,357	-42,403	-0,147	-0,055
-601,342	577,767	-0,050	-0,090
-600,328	589,982	-0,024	-0,044
-599,313	-200,000	0,021	-0,087
-598,298	800,000	0,046	0,135
-597,284	31,192	0,102	0,064
-596,269	800,000	0,068	0,174
-595,255	611,568	0,006	-0,011
-594,240	364,733	0,037	0,055
-593,225	800,000	-0,063	-0,191
-592,211	-200,000	0,002	-0,053
-591,196	800,000	0,054	0,115
-590,182	-118,174	0,172	0,022
-589,167	-200,000	0,008	0,091
-588,152	89,509	-0,150	-0,122
-587,138	-200,000	-0,010	-0,074
-586,123	-119,412	-0,026	-0,003
-585,109	-200,000	0,006	-0,075
-584,094	-71,556	-0,138	-0,038
-583,079	290,919	0,048	0,064
-582,065	95,423	0,048	0,040
-581,050	800,000	0,060	0,140
-580,036	162,653	-0,031	0,032
-579,021	5,294	-0,039	-0,021
-578,006	-200,000	0,004	-0,055
-576,992	60,802	0,042	0,030
-575,977	800,000	0,023	0,074
-574,963	15,493	0,074	0,042
-573,948	-150,576	0,046	-0,003
-572,934	-73,336	0,099	0,026
-571,919	800,000	-0,013	-0,032
-570,904	-200,000	-0,001	-0,095
-569,890	-63,907	-0,162	-0,048
-568,875	44,581	-0,079	-0,053
-567,861	-9,852	-0,150	0,073
-566,846	62,146	0,090	-0,065
-565,831	-127,426	-0,121	0,013
-564,817	87,579	-0,066	0,053
-563,802	-8,951	-0,092	0,045
-562,788	-200,000	0,015	-0,142
-561,773	-131,084	0,167	0,016
-560,758	-200,000	0,003	-0,090
-559,744	-200,000	0,007	-0,074
-558,729	-96,445	-0,019	0,004
-557,715	24,774	-0,055	-0,033
-556,700	-200,000	-0,002	-0,041
-555,685	-200,000	-0,003	-0,057
-554,671	800,000	0,016	-0,035
-553,656	-200,000	0,005	0,063
-552,642	-200,000	0,006	0,059
-551,627	-158,804	-0,081	0,003
-550,612	-200,000	-0,001	0,082
-549,598	-56,184	-0,128	0,041
-548,583	247,715	-0,037	-0,045
-547,569	10,957	0,102	-0,057
-546,554	-200,000	0,009	-0,062
-545,539	-104,225	-0,062	-0,011
-544,525	-200,000	-0,015	0,102
-543,510	-42,017	-0,034	0,013
-542,496	-6,431	0,113	-0,056
-541,481	55,002	-0,086	0,060
-540,466	103,078	-0,066	0,057
-539,452	-1,851	0,061	-0,031
-538,437	424,047	0,067	-0,105
-537,423	105,075	0,023	-0,020
-536,408	121,310	-0,018	-0,017
-535,393	153,377	-0,070	-0,070
-534,379	-200,000	0,009	0,073
-533,364	112,318	0,011	-0,010
-532,350	-200,000	-0,018	-0,133
-531,335	-78,063	-0,049	0,012
-530,321	-149,837	0,115	0,006
-529,306	-5,217	0,103	0,052
-528,291	-200,000	0,028	-0,191
-527,277	57,680	-0,113	-0,081
-526,262	-32,730	0,106	-0,043
-525,248	-200,000	0,010	0,101
-524,233	30,005	0,186	0,116
-523,218	109,184	-0,041	-0,035
-522,204	21,289	0,063	0,037
-521,189	-68,529	-0,017	0,005
-520,175	-129,169	0,007	0,001
-519,160	151,816	-0,106	0,106
-518,145	-94,614	0,106	-0,021
-517,131	-57,828	0,068	0,022
-516,116	423,458	0,048	-0,075
-515,102	48,646	0,052	-0,035
-514,087	219,498	-0,105	-0,123
-513,072	800,000	0,037	0,097
-512,058	365,916	0,067	-0,099
-511,043	-200,000	0,011	-0,060
-510,029	800,000	-0,029	-0,061
-509,014	-90,606	-0,100	-0,021
-507,999	-200,000	-0,003	-0,051
-506,985	83,021	0,158	-0,125
-505,970	800,000	0,040	-0,112
-504,956	530,603	-0,078	-0,136
-503,941	237,364	-0,067	-0,081
-502,926	800,000	0,068	0,140
-501,912	-200,000	0,012	0,127
-500,897	351,820	-0,082	0,118
-499,883	800,000	0,023	-0,062
-498,868	-200,000	-0,032	0,107
-497,853	-132,462	-0,063	-0,006
-496,839	99,606	0,093	0,079
-495,824	-13,343	-0,122	0,057
-494,810	41,327	0,094	-0,062
-493,795	800,000	0,042	0,091
-492,781	-200,000	-0,037	0,123
-491,766	136,510	-0,086	0,082
-490,751	-65,810	-0,154	-0,045
-489,737	-200,000	0,007	0,046
-488,722	140,961	0,098	-0,095
-487,708	253,463	-0,101	0,126
-486,693	116,028	0,038	-0,034
-485,678	213,542	0,020	-0,023
-484,664	54,741	-0,124	0,087
-483,649	-200,000	-0,004	0,070
-482,635	-52,036	-0,148	-0,050
-481,620	326,206	0,047	0,066
-480,605	-200,000	0,028	0,133
-479,591	-33,415	0,116	0,047
-478,576	82,161	0,101	0,079
-477,562	-200,000	0,000	0,044
-476,547	-6,110	-0,077	0,038
-475,532	-60,347	0,072	-0,022
-474,518	800,000	0,089	0,190
-473,503	25,151	0,108	0,065
-472,489	-105,280	0,116	0,019
-471,474	99,511	0,024	-0,020
-470,459	800,000	0,077	-0,190
-469,445	-200,000	0,006	-0,052
-468,430	-46,487	-0,052	-0,018
-467,416	185,268	0,043	0,047
-466,401	-48,368	0,033	-0,011
-465,386	255,797	0,028	0,036
-464,372	30,339	-0,049	-0,030
-463,357	95,811	0,025	0,021
-462,343	-200,000	0,024	-0,150
-461,328	-200,000	0,011	0,133
-460,313	-200,000	0,002	0,143
-459,299	-42,483	0,125	-0,046
-458,284	-200,000	0,003	0,081
-457,270	-10,324	-0,116	0,056
-456,255	274,652	-0,060	-0,077
-455,241	68,144	-0,021	-0,016
-454,226	-91,954	-0,109	0,022
-453,211	-115,589	-0,089	0,012
-452,197	303,265	0,105	0,143
-451,182	-200,000	-0,014	0,124
-450,168	225,904	-0,088	0,104
-449,153	396,206	-0,011	-0,017
-448,138	-200,000	0,035	0,143
-447,124	-200,000	-0,001	0,113
-446,109	-200,000	-0,016	0,089
-445,095	-15,992	0,072	-0,033
-444,080	182,745	0,059	0,064
-443,065	-35,429	-0,086	-0,034
-442,051	49,203	-0,093	0,064
-441,036	800,000	0,025	0,066
-440,022	273,289	-0,096	-0,124
-439,007	-200,000	0,011	0,045
-437,992	337,528	0,025	-0,036
-436,978	412,739	0,053	0,083
-435,963	-200,000	0,016	-0,055
-434,949	24,998	0,119	0,072
-433,934	800,000	-0,037	-0,091
-432,919	158,363	-0,099	-0,100
-431,905	-82,456	-0,185	-0,043
-430,890	450,311	0,090	-0,145
-429,876	289,809	0,086	-0,114
-428,861	116,853	-0,034	0,031
-427,846	800,000	0,019	0,056
-426,832	-200,000	-0,019	-0,167
-425,817	0,297	-0,110	0,057
-424,803	-64,495	0,082	0,024
-423,788	755,504	-0,052	-0,103
-422,773	-200,000	0,002	0,117
-421,759	-95,686	-0,045	0,009
-420,744	800,000	-0,024	0,073
-419,730	628,972	-0,045	-0,083
-418,715	182,828	0,061	-0,065
-417,701	542,529	0,025	-0,043
-416,686	167,510	-0,116	0,120
-415,671	800,000	-0,022	0,053
-414,657	-114,274	0,063	0,009
-413,642	-200,000	-0,016	0,114
-412,628	-200,000	0,010	0,114
-411,613	800,000	-0,030	-0,093
-410,598	513,523	-0,079	-0,134
-409,584	-200,000	-0,012	0,054
-408,569	74,901	0,083	0,063
-407,555	-49,501	0,161	0,055
-406,540	-80,316	-0,057	-0,014
-405,525	-33,448	-0,089	-0,036
-404,511	800,000	0,084	-0,176
-403,496	398,492	-0,046	-0,071
-402,482	-200,000	-0,004	0,019
-401,467	-41,153	0,070	-0,026
-400,452	628,352	0,117	0,216
-399,438	800,000	-0,044	-0,141
-398,423	800,000	-0,027	-0,073
-397,409	367,283	-0,037	-0,054
-396,394	-200,000	0,044	-0,165
-395,379	78,821	0,080	-0,062
-394,365	800,000	0,029	-0,092
-393,350	800,000	-0,043	0,106
-392,336	-5,363	-0,102	0,051
-391,321	95,637	-0,060	0,050
-390,306	93,057	-0,083	-0,068
-389,292	-74,662	-0,104	0,027
-388,277	59,328	-0,044	-0,032
-387,263	-36,961	0,068	0,026
-386,248	-121,778	0,077	-0,009
-385,233	66,246	0,021	-0,015
-384,219	-122,485	-0,030	0,003
-383,204	162,563	0,154	0,157
-382,190	-200,000	-0,034	0,137
-381,175	-200,000	0,002	0,057
-380,160	189,653	-0,041	0,044
-379,146	-49,438	0,062	0,021
-378,131	-119,587	0,050	-0,006
-377,117	440,222	0,004	0,007
-376,102	-200,000	0,012	-0,136
-375,088	93,784	-0,169	-0,139
-374,073	800,000	0,042	-0,110
-373,058	253,421	0,078	0,097
-372,044	-158,666	0,087	0,004
-371,029	-76,107	-0,026	-0,007
-370,015	149,483	0,078	0,077
-369,000	-200,000	-0,007	0,027
-367,985	223,022	-0,037	-0,044
-366,971	800,000	-0,032	0,075
-365,956	302,858	0,072	0,097
-364,942	-9,835	-0,081	-0,039
-363,927	430,884	0,046	-0,072
-362,912	167,100	0,110	-0,114
-361,898	27,309	-0,038	-0,023
-360,883	-46,511	0,089	-0,031
-359,869	-200,000	0,009	-0,063
-358,854	-200,000	0,008	-0,141
-357,839	-200,000	0,005	-0,038
-356,825	800,000	-0,008	-0,019
-355,810	800,000	-0,024	-0,065
-354,796	190,544	-0,068	-0,074
-353,781	-200,000	-0,026	0,108
-352,766	800,000	-0,042	-0,096
-351,752	-26,950	-0,080	-0,034
-350,737	-200,000	0,025	0,139
-349,723	71,581	0,038	0,029
-348,708	-106,313	0,039	-0,006
-347,693	64,294	-0,032	-0,023
-346,679	-200,000	0,014	-0,075
-345,664	-200,000	-0,035	-0,123
-344,650	156,987	0,059	-0,060
-343,635	-200,000	-0,026	0,110
-342,620	-200,000	-0,012	0,084
-341,606	-200,000	-0,039	0,212
-340,591	435,847	-0,116	0,183
-339,577	800,000	-0,036	-0,077
-338,562	-82,558	-0,054	-0,013
-337,548	112,761	-0,072	-0,063
-336,533	-73,032	0,028	0,007
-335,518	308,419	0,067	0,091
-334,504	-73,899	-0,077	-0,020
-333,489	-200,000	-0,004	0,098
-332,475	-200,000	-0,002	-0,056
-331,460	800,000	0,054	-0,126
-330,445	44,676	0,031	-0,021
-329,431	-147,850	0,062	0,004
-328,416	-200,000	-0,037	0,185
-327,402	-34,800	0,060	-0,024
-326,387	294,642	0,021	-0,028
-325,372	-200,000	0,009	-0,049
-324,358	-157,492	-0,074	-0,003
-323,343	99,598	0,042	-0,035
-322,329	-123,012	0,057	-0,007
-321,314	196,689	0,068	0,075
-320,299	208,545	0,041	0,047
-319,285	232,030	0,078	-0,093
-318,270	559,590	-0,052	-0,091
-317,256	-5,707	0,109	0,054
-316,241	-92,911	0,076	-0,015
-315,226	-42,309	-0,036	0,013
-314,212	800,000	0,047	0,121
-313,197	800,000	0,030	-0,089
-312,183	-98,570	0,043	0,008
-311,168	79,908	-0,043	0,033
-310,153	-200,000	0,015	0,091
-309,139	395,241	0,061	-0,092
-308,124	-200,000	0,001	0,048
-307,110	-200,000	0,036	0,130
-306,095	-66,417	0,105	-0,030
-305,080	711,583	-0,059	-0,114
-304,066	-86,773	-0,081	-0,018
-303,051	-143,150	0,017	0,001
-302,037	19,110	0,038	0,022
-301,022	55,823	-0,055	0,038
-300,008	791,955	-0,008	-0,016
-298,993	-71,994	-0,066	-0,018
-297,978	-101,280	-0,100	-0,018
-296,964	-200,000	-0,011	0,134
-295,949	189,870	-0,042	-0,045
-294,935	725,371	-0,039	0,076
-293,920	-183,952	0,244	0,003
-292,905	-96,168	0,111	-0,021
-291,891	114,929	0,082	0,072
-290,876	762,195	0,030	0,060
-289,862	66,437	-0,129	-0,095
-288,847	80,521	-0,096	-0,075
-287,832	84,967	0,035	0,028
-286,818	-200,000	-0,016	-0,096
-285,803	-200,000	0,018	-0,075
-284,789	166,609	-0,039	-0,040
-283,774	46,980	0,074	0,049
-282,759	286,114	0,033	0,044
-281,745	105,955	0,071	-0,061
-280,730	-200,000	-0,042	-0,152
-279,716	298,082	0,045	0,060
-278,701	-1,930	-0,101	0,051
-277,686	800,000	0,073	0,163
-276,672	-52,135	0,047	0,016
-275,657	-5,568	0,047	-0,023
-274,643	189,447	-0,051	-0,056
-273,628	-99,843	0,062	0,011
-272,613	-34,775	-0,139	0,055
-271,599	148,474	0,036	0,036
-270,584	-200,000	0,014	0,087
-269,570	333,433	0,070	0,098
-268,555	-26,493	-0,054	-0,023
-267,540	-42,224	-0,047	0,017
-266,526	-83,125	-0,021	0,005
-265,511	-200,000	0,023	0,117
-264,497	800,000	-0,044	0,132
-263,482	313,681	0,022	-0,030
-262,467	72,598	-0,047	0,036
-261,453	800,000	0,025	-0,065
-260,438	35,918	-0,089	0,056
-259,424	800,000	0,096	-0,207
-258,409	-200,000	-0,018	0,079
-257,395	-48,796	-0,167	0,058
-256,380	-200,000	0,018	0,059
-255,365	-200,000	0,008	0,143
-254,351	-105,761	0,104	-0,017
-253,336	-96,651	0,112	-0,021
-252,322	-134,663	-0,058	-0,005
-251,307	105,918	0,106	-0,091
-250,292	-49,510	-0,038	-0,013
-249,278	61,422	0,053	0,038
-248,263	441,723	0,023	0,037
-247,249	-200,000	-0,004	0,081
-246,234	-107,808	-0,022	0,003
-245,219	746,725	0,067	-0,130
-244,205	-200,000	-0,003	-0,137
-243,190	606,290	-0,030	0,054
-242,176	800,000	0,019	0,047
-241,161	280,843	0,120	0,155
-240,146	274,559	-0,055	-0,070
-239,132	-200,000	-0,025	-0,122
-238,117	90,748	0,007	-0,006
-237,103	-200,000	-0,013	-0,129
-236,088	552,505	-0,060	-0,104
-235,073	147,263	-0,039	0,038
-234,059	800,000	0,013	0,032
-233,044	136,770	0,078	0,073
-232,030	-77,689	-0,182	-0,045
-231,015	-200,000	-0,004	-0,021
-230,000	784,798	0,027	-0,054
-228,986	500,875	-0,052	-0,087
-227,971	640,676	-0,052	-0,095
-226,957	134,874	0,091	-0,085
-225,942	-200,000	-0,009	0,075
-224,927	367,030	0,049	-0,071
-223,913	-74,824	0,163	0,042
-222,898	-73,353	-0,091	-0,024
-221,884	382,584	-0,025	0,037
-220,869	-200,000	-0,005	0,020
-219,855	11,104	0,128	0,070
-218,840	-200,000	-0,002	0,118
-217,825	-93,794	-0,084	0,017
-216,811	800,000	-0,009	0,022
-215,796	295,152	-0,098	-0,129
-214,782	14,490	0,155	-0,087
-213,767	-200,000	-0,004	0,019
-212,752	-200,000	-0,013	-0,051
-211,738	392,378	-0,043	0,064
-210,723	174,821	-0,083	-0,086
-209,709	-200,000	0,009	0,044
-208,694	729,785	-0,036	-0,069
-207,679	2,308	0,035	-0,018
-206,665	1,227	0,037	0,019
-205,650	240,919	0,051	0,062
-204,636	800,000	0,040	-0,087
-203,621	312,710	0,051	-0,069
-202,606	-200,000	-0,003	0,056
-201,592	-200,000	0,007	0,044
-200,577	197,866	-0,031	-0,034
-199,563	800,000	-0,040	0,115
-198,548	-32,683	-0,091	0,036
-197,533	-200,000	0,013	0,091
-196,519	296,740	-0,028	-0,037
-195,504	-200,000	-0,001	-0,028
-194,490	-200,000	-0,001	0,012
-193,475	88,859	-0,099	0,079
-192,460	144,105	0,095	-0,091
-191,446	199,774	0,044	0,049
-190,431	284,364	0,098	0,127
-189,417	-200,000	-0,014	0,052
-188,402	61,855	0,048	0,034
-187,387	29,221	-0,111	-0,068
-186,373	800,000	-0,040	-0,086
-185,358	13,526	0,040	-0,022
-184,344	217,577	0,083	0,095
-183,329	-200,000	0,006	-0,028
-182,315	-200,000	0,007	-0,053
-181,300	-200,000	-0,009	-0,040
-180,285	48,179	-0,060	-0,041
-179,271	800,000	0,031	-0,076
-178,256	-200,000	-0,009	-0,196
-177,242	-33,051	-0,128	-0,051
-176,227	388,152	0,044	-0,066
-175,212	160,890	-0,045	0,045
-174,198	-60,285	-0,055	0,017
-173,183	162,387	-0,046	-0,046
-172,169	22,159	-0,050	0,030
-171,154	124,607	-0,108	-0,098
-170,139	157,531	0,062	-0,062
-169,125	-15,584	-0,200	0,092
-168,110	-200,000	0,001	0,075
-167,096	-123,234	0,175	-0,020
-166,081	60,318	0,056	-0,040
-165,066	800,000	0,020	-0,062
-164,052	407,232	-0,018	-0,027
-163,037	204,162	0,019	0,021
-162,023	64,948	0,058	-0,042
-161,008	-200,000	0,028	0,107
-159,993	-184,149	0,197	-0,002
-158,979	-141,723	0,175	0,012
-157,964	800,000	-0,059	-0,135
-156,950	67,367	-0,141	-0,103
-155,935	-82,334	-0,053	0,012
-154,920	-31,611	0,088	0,036
-153,906	35,863	0,076	0,048
-152,891	-23,400	-0,010	0,004
-151,877	11,378	-0,059	0,033
-150,862	77,243	0,101	-0,078
-149,847	19,790	0,040	0,023
-148,833	77,797	0,096	0,074
-147,818	25,993	0,009	0,006
-146,804	94,757	-0,080	0,065
-145,789	26,506	0,053	0,032
-144,775	319,569	-0,062	0,085
-143,760	-138,784	0,081	0,006
-142,745	-24,232	-0,010	0,004
-141,731	60,483	-0,041	-0,029
-140,716	-136,149	0,236	-0,020
-139,702	-51,753	0,064	0,021
-138,687	437,870	-0,028	0,044
-137,672	-45,397	-0,086	0,031
-136,658	370,421	0,071	0,104
-135,643	-200,000	0,002	0,118
-134,629	0,463	-0,083	0,043
-133,614	123,985	-0,039	0,035
-132,599	-116,599	-0,145	0,019
-131,585	109,803	0,050	-0,043
-130,570	-92,196	-0,072	-0,015
-129,556	-109,171	-0,087	-0,013
-128,541	423,190	-0,041	-0,063
-127,526	103,246	0,089	-0,075
-126,512	177,265	0,010	0,010
-125,497	785,285	-0,037	0,073
-124,483	88,120	0,056	-0,045
-123,468	-24,856	0,093	-0,040
-122,453	-186,149	0,051	-0,001
-121,439	800,000	0,017	0,035
-120,424	173,230	-0,028	-0,029
-119,410	-61,408	0,078	-0,024
-118,395	35,671	0,052	0,033
