DTS Sentinel unit serial number:	SN410029Multiplexer serial number:	ORYXHardware model number:	OX2-SRSoftware version number:	ORYX F/W v4,00 Oryx Data Collector v3.7.2.0data status	okinstallation	B5 Nyhavnadifferential loss correction	single-endedforward channel	channel 2reverse channel	N/Adate	2023/12/11time	20:12:13forward acquisition time	300,00reverse acquisition time	0,00gamma	499,1914k internal	0,3158k external	0,3158temperature offset calibration	1,0000default loss term (dB/km)	0,3820temperature slope calibration	1,0000multiplexer offset coefficient	1,0000multiplexer slope coefficient	1,0000fibre end	0,00T internal ref (°C)	15,90T ext. ref 1 (°C)	0,08T ext. ref 2 (°C)	-0,15length (m)	temperature (°C)	Stokes	anti-Stokes-744,400	-100,903	0,037	0,007
-743,385	10,391	-0,203	0,114
-742,371	-104,122	0,160	-0,027
-741,356	-148,491	-0,157	0,009
-740,342	103,782	0,019	0,017
-739,327	-63,885	-0,302	-0,091
-738,312	-187,106	0,208	-0,002
-737,298	-85,264	-0,293	-0,067
-736,283	-59,322	0,099	0,031
-735,269	-128,545	-0,231	-0,024
-734,254	-200,000	0,007	0,041
-733,239	-83,319	-0,361	-0,085
-732,225	-119,730	0,114	-0,014
-731,210	-27,328	0,076	0,032
-730,196	-72,545	0,068	0,018
-729,181	-111,291	0,022	0,003
-728,167	-156,600	-0,055	0,002
-727,152	800,000	0,018	-0,049
-726,137	800,000	-0,049	0,123
-725,123	-41,486	-0,037	0,014
-724,108	-45,157	-0,031	0,011
-723,094	-38,819	-0,058	-0,022
-722,079	800,000	-0,025	-0,052
-721,064	127,235	-0,039	-0,036
-720,050	206,263	0,096	0,110
-719,035	-88,725	-0,116	0,025
-718,021	182,295	-0,030	-0,033
-717,006	-200,000	-0,015	0,085
-715,991	307,901	-0,035	0,048
-714,977	800,000	0,008	-0,020
-713,962	13,148	-0,117	-0,067
-712,948	132,543	0,025	0,024
-711,933	76,277	0,107	-0,083
-710,918	-200,000	-0,007	-0,035
-709,904	168,124	-0,069	-0,072
-708,889	606,360	-0,106	-0,196
-707,875	148,522	-0,020	-0,020
-706,860	-60,920	-0,121	-0,037
-705,845	-66,014	-0,061	0,018
-704,831	169,808	-0,028	0,030
-703,816	-200,000	-0,004	0,089
-702,802	67,766	-0,127	0,096
-701,787	753,512	-0,051	-0,102
-700,772	-200,000	0,030	-0,099
-699,758	-118,143	0,082	0,011
-698,743	-16,750	0,105	0,049
-697,729	256,783	0,030	-0,038
-696,714	138,015	-0,044	-0,043
-695,699	-5,688	-0,046	0,023
-694,685	351,036	-0,026	-0,038
-693,670	176,882	-0,026	0,028
-692,656	-100,599	-0,121	-0,022
-691,641	-200,000	-0,011	0,052
-690,627	277,145	0,041	-0,054
-689,612	-200,000	-0,006	0,135
-688,597	-72,953	-0,098	0,026
-687,583	37,937	0,080	-0,052
-686,568	800,000	0,039	0,084
-685,554	115,057	-0,092	-0,082
-684,539	800,000	-0,010	-0,025
-683,524	-200,000	0,016	-0,114
-682,510	-200,000	-0,012	-0,045
-681,495	167,589	0,040	0,041
-680,481	-200,000	0,013	-0,073
-679,466	746,044	-0,070	-0,138
-678,451	-139,897	-0,108	-0,008
-677,437	-200,000	0,018	-0,075
-676,422	-200,000	-0,008	0,099
-675,408	-21,306	-0,029	0,013
-674,393	13,113	-0,063	0,036
-673,378	429,225	-0,029	0,046
-672,364	-42,325	-0,115	-0,043
-671,349	-121,343	-0,027	0,003
-670,335	-197,889	-0,122	-0,001
-669,320	11,625	0,087	0,049
-668,305	174,405	0,058	-0,061
-667,291	-140,358	-0,163	0,012
-666,276	-76,680	-0,175	-0,045
-665,262	-26,971	0,044	0,019
-664,247	-200,000	0,033	-0,124
-663,232	228,540	-0,015	0,018
-662,218	800,000	0,008	-0,025
-661,203	-93,271	-0,182	-0,037
-660,189	-51,622	0,014	0,005
-659,174	-94,214	-0,062	-0,012
-658,159	-64,823	-0,086	-0,025
-657,145	102,521	-0,024	0,020
-656,130	-83,868	-0,060	0,014
-655,116	-200,000	0,028	0,155
-654,101	178,075	0,019	-0,021
-653,086	-200,000	0,042	0,143
-652,072	95,535	-0,131	0,110
-651,057	309,534	-0,065	-0,089
-650,043	75,791	-0,086	-0,067
-649,028	800,000	-0,039	0,084
-648,014	127,348	0,084	0,078
-646,999	-71,525	-0,076	0,021
-645,984	692,764	-0,003	-0,005
-644,970	158,405	-0,039	0,040
-643,955	800,000	-0,056	-0,125
-642,941	115,896	-0,087	-0,078
-641,926	83,612	0,012	0,009
-640,911	369,424	-0,044	0,066
-639,897	-18,801	0,128	-0,059
-638,882	-200,000	0,000	-0,076
-637,868	99,592	-0,125	-0,106
-636,853	92,895	-0,042	-0,035
-635,838	-200,000	-0,008	-0,034
-634,824	51,629	0,072	-0,050
-633,809	-167,206	-0,096	-0,003
-632,795	-200,000	0,021	0,082
-631,780	800,000	0,013	-0,028
-630,765	-200,000	-0,005	-0,090
-629,751	205,226	-0,029	0,033
-628,736	-133,584	-0,141	-0,013
-627,722	-108,030	0,176	0,028
-626,707	234,140	-0,058	0,070
-625,692	800,000	0,048	0,152
-624,678	800,000	-0,021	0,054
-623,663	42,276	-0,035	-0,024
-622,649	-200,000	0,013	-0,053
-621,634	62,315	-0,065	-0,048
-620,619	-9,500	-0,048	-0,023
-619,605	36,039	-0,153	0,099
-618,590	-113,831	0,038	-0,005
-617,576	-73,770	-0,073	0,019
-616,561	800,000	0,028	0,077
-615,546	103,629	-0,072	0,062
-614,532	-28,175	-0,082	0,034
-613,517	-200,000	0,009	0,040
-612,503	800,000	-0,037	-0,111
-611,488	-131,849	0,019	-0,002
-610,474	-200,000	-0,020	-0,071
-609,459	-79,367	0,139	0,034
-608,444	8,965	0,090	0,049
-607,430	-200,000	0,015	0,052
-606,415	-161,978	-0,184	0,007
-605,401	-200,000	0,004	0,106
-604,386	36,100	0,091	0,058
-603,371	-132,530	-0,140	-0,013
-602,357	800,000	0,021	-0,064
-601,342	30,248	-0,138	0,086
-600,328	-200,000	-0,003	-0,131
-599,313	492,423	0,007	-0,012
-598,298	-200,000	0,007	0,041
-597,284	-14,377	0,089	-0,042
-596,269	96,702	-0,101	0,084
-595,255	20,376	-0,086	-0,051
-594,240	-102,335	0,104	0,018
-593,225	509,728	-0,017	-0,030
-592,211	-200,000	0,002	-0,160
-591,196	800,000	-0,036	0,089
-590,182	105,755	0,032	0,028
-589,167	800,000	0,074	0,169
-588,152	49,163	-0,132	0,091
-587,138	62,211	-0,023	0,017
-586,123	-52,035	-0,172	-0,058
-585,109	-200,000	-0,015	0,129
-584,094	5,098	-0,096	0,052
-583,079	418,918	-0,074	0,117
-582,065	217,548	0,029	0,034
-581,050	22,448	-0,119	-0,071
-580,036	16,770	-0,085	0,049
-579,021	-149,146	-0,036	0,002
-578,006	102,332	0,062	-0,053
-576,992	800,000	-0,028	-0,086
-575,977	-122,051	0,073	-0,009
-574,963	-34,624	-0,045	-0,018
-573,948	158,921	0,106	0,108
-572,934	-188,003	0,115	-0,001
-571,919	222,888	-0,067	-0,079
-570,904	-35,437	-0,103	-0,041
-569,890	800,000	0,026	0,082
-568,875	-200,000	-0,015	0,053
-567,861	161,903	-0,042	0,043
-566,846	-200,000	-0,004	0,084
-565,831	8,212	-0,054	-0,029
-564,817	698,552	-0,052	-0,100
-563,802	139,829	0,108	0,104
-562,788	800,000	-0,019	0,060
-561,773	-200,000	-0,009	-0,043
-560,758	688,178	0,013	0,025
-559,744	-155,100	0,064	-0,003
-558,729	-200,000	-0,006	-0,059
-557,715	-111,550	-0,168	-0,025
-556,700	-200,000	-0,010	-0,169
-555,685	-78,933	-0,048	-0,012
-554,671	472,524	-0,025	0,042
-553,656	-16,219	0,052	0,024
-552,642	-94,646	0,065	-0,013
-551,627	-200,000	-0,012	-0,120
-550,612	-141,636	-0,090	0,006
-549,598	-200,000	0,010	-0,117
-548,583	56,735	0,037	0,026
-547,569	-94,641	0,119	0,024
-546,554	-6,223	-0,069	0,034
-545,539	-45,935	-0,039	-0,014
-544,525	23,435	-0,095	0,057
-543,510	772,207	-0,074	0,148
-542,496	269,783	0,033	-0,043
-541,481	800,000	-0,064	-0,148
-540,466	-194,317	0,072	-0,000
-539,452	-129,927	0,064	-0,006
-538,437	1,826	-0,099	0,052
-537,423	-111,719	0,153	-0,022
-536,408	-200,000	-0,012	-0,115
-535,393	-133,010	-0,019	0,002
-534,379	-200,000	0,005	-0,065
-533,364	192,936	0,049	-0,054
-532,350	34,979	0,081	-0,052
-531,335	800,000	0,044	0,120
-530,321	-42,448	-0,063	0,023
-529,306	-200,000	-0,032	-0,107
-528,291	-23,214	0,110	0,048
-527,277	163,810	-0,051	0,053
-526,262	81,217	-0,125	-0,099
-525,248	800,000	-0,029	0,071
-524,233	353,086	0,086	0,125
-523,218	46,662	0,110	0,074
-522,204	800,000	-0,029	0,065
-521,189	101,445	0,105	-0,089
-520,175	-88,957	0,027	-0,006
-519,160	-49,267	0,137	0,047
-518,145	-200,000	0,018	0,099
-517,131	800,000	0,008	-0,018
-516,116	-64,872	0,034	-0,010
-515,102	-8,804	0,087	-0,042
-514,087	324,411	-0,019	-0,026
-513,072	-151,772	-0,135	0,007
-512,058	246,331	-0,074	-0,091
-511,043	150,655	0,049	0,048
-510,029	-200,000	-0,003	-0,053
-509,014	-59,467	-0,065	0,020
-507,999	238,811	-0,052	0,063
-506,985	29,585	0,079	0,049
-505,970	258,360	0,093	-0,117
-504,956	158,686	-0,051	-0,052
-503,941	51,726	0,068	0,047
-502,926	49,644	0,087	-0,060
-501,912	44,246	0,050	0,033
-500,897	-200,000	-0,002	0,015
-499,883	143,019	-0,150	-0,145
-498,868	-122,777	0,160	0,019
-497,853	333,800	0,037	-0,053
-496,839	-57,689	-0,245	-0,078
-495,824	-157,734	0,122	0,005
-494,810	143,313	0,058	0,057
-493,795	800,000	0,007	0,022
-492,781	-101,509	-0,096	-0,017
-491,766	242,421	0,005	0,006
-490,751	354,620	-0,062	-0,091
-489,737	12,685	-0,033	-0,019
-488,722	-58,117	-0,145	0,046
-487,708	-50,942	0,134	0,046
-486,693	-184,369	0,130	0,002
-485,678	307,192	-0,055	-0,074
-484,664	-200,000	-0,005	-0,091
-483,649	-200,000	0,021	0,175
-482,635	-120,154	0,075	-0,009
-481,620	29,077	0,101	0,063
-480,605	-144,074	0,085	0,006
-479,591	-87,239	0,034	-0,008
-478,576	-200,000	0,014	0,113
-477,562	-200,000	-0,020	0,097
-476,547	178,553	0,069	-0,074
-475,532	455,365	0,014	-0,023
-474,518	273,234	-0,059	0,077
-473,503	230,618	-0,033	0,040
-472,489	187,312	-0,006	-0,007
-471,474	169,676	0,014	0,014
-470,459	-200,000	-0,006	-0,091
-469,445	-102,541	-0,114	0,020
-468,430	81,090	0,031	0,025
-467,416	12,829	0,089	-0,050
-466,401	800,000	-0,004	-0,010
-465,386	94,739	0,063	0,052
-464,372	-200,000	-0,013	0,069
-463,357	259,774	-0,055	-0,070
-462,343	-105,327	-0,080	-0,013
-461,328	-137,723	-0,178	0,014
-460,313	156,921	-0,027	0,028
-459,299	-70,612	-0,091	-0,025
-458,284	800,000	0,061	0,132
-457,270	-106,514	0,087	0,014
-456,255	-200,000	0,033	-0,106
-455,241	-200,000	0,010	-0,032
-454,226	-200,000	-0,003	0,082
-453,211	-53,016	0,062	0,021
-452,197	-9,803	0,029	0,014
-451,182	-25,611	0,107	0,046
-450,168	242,387	0,026	0,032
-449,153	800,000	-0,026	0,080
-448,138	-100,330	-0,090	-0,016
-447,124	-82,193	0,147	-0,035
-446,109	-200,000	0,022	0,114
-445,095	-2,398	0,113	-0,058
-444,080	225,818	0,050	-0,059
-443,065	11,104	0,120	0,067
-442,051	-26,819	0,027	0,011
-441,036	-200,000	-0,003	-0,050
-440,022	303,698	0,034	-0,047
-439,007	-48,682	-0,165	-0,058
-437,992	86,935	-0,057	0,046
-436,978	-131,493	-0,057	0,005
-435,963	-42,733	-0,023	-0,008
-434,949	-200,000	-0,007	-0,091
-433,934	-91,065	-0,168	-0,035
-432,919	333,488	0,064	-0,091
-431,905	-66,707	0,054	-0,015
-430,890	139,767	0,015	0,014
-429,876	274,898	0,028	0,036
-428,861	-53,076	0,074	-0,025
-427,846	70,821	0,082	-0,062
-426,832	170,445	-0,138	-0,144
-425,817	36,753	0,040	-0,026
-424,803	-104,452	-0,202	-0,034
-423,788	800,000	0,083	-0,173
-422,773	-200,000	-0,033	-0,130
-421,759	-162,353	0,046	0,002
-420,744	144,637	-0,052	0,051
-419,730	-89,114	-0,034	0,007
-418,715	1,232	0,033	-0,017
-417,701	28,920	0,066	0,041
-416,686	657,193	-0,048	0,090
-415,671	-200,000	0,000	0,108
-414,657	-93,480	0,041	-0,008
-413,642	464,708	-0,023	0,038
-412,628	-200,000	-0,014	-0,046
-411,613	-120,051	-0,200	0,025
-410,598	-57,154	-0,097	-0,031
-409,584	-200,000	0,020	-0,094
-408,569	-12,052	0,159	-0,075
-407,555	-88,814	-0,229	-0,049
-406,540	800,000	0,046	-0,124
-405,525	167,352	-0,051	0,053
-404,511	15,679	-0,137	-0,078
-403,496	-200,000	-0,003	0,079
-402,482	-6,619	0,103	0,051
-401,467	98,077	-0,067	0,056
-400,452	-200,000	0,019	-0,098
-399,438	-200,000	-0,006	0,065
-398,423	-47,265	-0,054	0,019
-397,409	-89,976	-0,058	-0,012
-396,394	-200,000	-0,022	0,073
-395,379	133,600	-0,095	0,089
-394,365	800,000	-0,033	0,075
-393,350	528,521	-0,047	-0,082
-392,336	21,964	0,048	-0,029
-391,321	-63,259	0,038	-0,011
-390,306	-63,715	-0,169	-0,050
-389,292	140,190	-0,024	-0,023
-388,277	-54,894	0,065	-0,021
-387,263	25,702	0,172	0,104
-386,248	-176,253	0,071	0,001
-385,233	-54,791	0,153	0,050
-384,219	146,929	-0,042	-0,041
-383,204	-54,899	-0,086	0,028
-382,190	800,000	-0,001	-0,004
-381,175	12,768	-0,106	-0,059
-380,160	800,000	-0,049	0,159
-379,146	598,384	0,079	0,144
-378,131	-68,838	0,060	0,017
-377,117	-200,000	-0,191	0,000
-376,102	172,283	-0,075	0,078
-375,088	-112,988	-0,148	-0,021
-374,073	50,976	-0,080	-0,055
-373,058	11,436	0,040	0,022
-372,044	-115,716	0,179	0,024
-371,029	-39,432	-0,092	-0,035
-370,015	658,501	-0,062	-0,117
-369,000	141,424	-0,028	-0,027
-367,985	-39,979	-0,105	-0,040
-366,971	-200,000	0,007	-0,034
-365,956	657,577	-0,043	-0,081
-364,942	629,800	-0,037	0,069
-363,927	627,860	0,031	-0,056
-362,912	-200,000	0,024	0,258
-361,898	149,140	-0,074	-0,073
-360,883	-56,455	-0,061	-0,019
-359,869	198,540	0,070	0,078
-358,854	101,243	0,109	-0,092
-357,839	359,331	-0,041	0,060
-356,825	-200,000	0,003	0,030
-355,810	113,611	-0,013	0,011
-354,796	-8,355	-0,133	0,064
-353,781	-200,000	-0,039	0,134
-352,766	144,427	-0,028	-0,028
-351,752	30,509	0,065	0,040
-350,737	-200,000	-0,010	0,134
-349,723	145,813	-0,112	-0,109
-348,708	351,575	0,033	-0,048
-347,693	-200,000	-0,009	-0,052
-346,679	800,000	0,047	-0,145
-345,664	228,400	-0,020	-0,024
-344,650	-96,148	0,110	0,021
-343,635	-118,290	0,083	-0,011
-342,620	-72,316	-0,047	-0,012
-341,606	65,481	0,068	0,050
-340,591	671,656	0,052	-0,098
-339,577	22,902	0,079	-0,047
-338,562	800,000	0,037	-0,095
-337,548	-36,328	-0,033	-0,013
-336,533	-46,211	0,162	-0,058
-335,518	327,349	0,061	0,084
-334,504	-200,000	-0,019	-0,076
-333,489	-200,000	-0,003	-0,055
-332,475	193,015	-0,033	-0,037
-331,460	-200,000	-0,004	-0,082
-330,445	317,752	-0,073	0,100
-329,431	17,871	0,070	0,040
-328,416	13,552	0,104	0,058
-327,402	-200,000	0,023	-0,112
-326,387	-200,000	0,033	0,124
-325,372	229,245	-0,031	-0,036
-324,358	416,122	-0,052	-0,081
-323,343	97,310	0,080	0,067
-322,329	-200,000	0,002	-0,071
-321,314	-108,925	0,036	-0,005
-320,299	42,767	-0,057	0,038
-319,285	567,306	0,040	0,070
-318,270	6,916	-0,185	-0,100
-317,256	800,000	0,038	-0,085
-316,241	38,694	-0,093	-0,060
-315,226	471,444	-0,013	0,022
-314,212	88,715	-0,052	0,042
-313,197	342,842	0,040	0,057
-312,183	90,914	-0,092	-0,075
-311,168	-200,000	-0,018	0,173
-310,153	800,000	-0,039	-0,086
-309,139	325,373	0,046	0,064
-308,124	-128,117	0,059	0,006
-307,110	178,583	0,051	0,055
-306,095	-116,927	0,105	-0,014
-305,080	-200,000	0,005	0,031
-304,066	-200,000	-0,036	-0,126
-303,051	-200,000	-0,008	-0,143
-302,037	800,000	0,044	-0,108
-301,022	-200,000	0,003	0,088
-300,008	800,000	0,051	-0,152
-298,993	7,857	0,025	-0,013
-297,978	47,735	0,025	-0,017
-296,964	-200,000	0,004	-0,138
-295,949	39,821	0,066	-0,043
-294,935	800,000	-0,012	-0,038
-293,920	-200,000	0,003	-0,014
-292,905	192,245	0,058	-0,063
-291,891	-200,000	-0,007	0,148
-290,876	2,188	-0,055	0,029
-289,862	-9,841	0,112	-0,054
-288,847	82,766	-0,058	0,045
-287,832	21,843	0,160	0,094
-286,818	-200,000	-0,007	0,089
-285,803	-200,000	-0,018	-0,065
-284,789	315,091	-0,069	0,095
-283,774	0,268	0,176	0,091
-282,759	800,000	-0,020	-0,041
-281,745	800,000	0,033	-0,097
-280,730	-200,000	-0,007	0,094
-279,716	-57,871	-0,099	-0,031
-278,701	-200,000	0,011	-0,092
-277,686	387,547	-0,055	0,083
-276,672	-200,000	-0,041	0,161
-275,657	-200,000	0,052	0,183
-274,643	440,789	0,027	0,043
-273,628	4,019	0,070	-0,037
-272,613	212,404	-0,011	0,013
-271,599	800,000	0,016	-0,043
-270,584	481,708	0,011	-0,018
-269,570	-116,314	0,134	0,018
-268,555	-66,863	-0,037	-0,011
-267,540	13,364	0,103	-0,057
-266,526	346,566	-0,060	-0,085
-265,511	462,479	0,078	0,126
-264,497	-101,591	-0,150	-0,026
-263,482	53,943	0,174	0,121
-262,467	-68,525	0,078	0,022
-261,453	-94,730	-0,073	-0,014
-260,438	145,326	-0,061	-0,059
-259,424	-200,000	0,008	-0,067
-258,409	31,931	0,102	-0,063
-257,395	-136,286	-0,096	-0,008
-256,380	187,831	0,056	-0,060
-255,365	-48,614	-0,061	-0,021
-254,351	-200,000	-0,034	-0,123
-253,336	199,742	0,064	-0,071
-252,322	-200,000	-0,004	-0,018
-251,307	93,006	0,068	-0,055
-250,292	-70,054	0,128	-0,035
-249,278	191,651	0,059	-0,065
-248,263	800,000	0,026	-0,078
-247,249	225,794	0,032	0,037
-246,234	25,927	0,089	-0,054
-245,219	384,682	-0,095	-0,143
-244,205	-200,000	-0,025	-0,105
-243,190	-200,000	-0,032	-0,103
-242,176	-200,000	0,002	0,132
-241,161	744,867	-0,016	-0,032
-240,146	-69,325	0,104	0,029
-239,132	800,000	-0,024	0,058
-238,117	-18,079	-0,048	0,022
-237,103	-53,531	-0,014	0,005
-236,088	551,386	0,017	0,030
-235,073	294,514	0,077	0,101
-234,059	800,000	0,027	0,086
-233,044	104,350	0,059	0,050
-232,030	-200,000	0,013	-0,077
-231,015	-81,683	-0,132	-0,031
-230,000	17,734	-0,119	-0,068
-228,986	-171,110	0,018	0,000
-227,971	-20,640	-0,119	0,052
-226,957	-37,371	0,172	0,066
-225,942	-200,000	0,012	0,084
-224,927	37,500	-0,107	0,068
-223,913	474,183	0,064	0,105
-222,898	-139,411	-0,113	-0,009
-221,884	362,925	-0,048	-0,070
-220,869	-138,175	0,090	0,007
-219,855	-200,000	-0,012	-0,041
-218,840	-200,000	0,041	0,160
-217,825	51,236	0,057	0,039
-216,811	529,586	-0,040	-0,069
-215,796	-19,550	-0,112	-0,050
-214,782	-96,157	0,078	-0,015
-213,767	-200,000	0,003	0,064
-212,752	-32,770	0,109	0,043
-211,738	190,838	0,052	-0,057
-210,723	441,976	-0,074	0,118
-209,709	-200,000	-0,040	0,176
-208,694	119,298	-0,104	-0,093
-207,679	-200,000	0,015	0,066
-206,665	13,340	0,033	0,018
-205,650	-200,000	0,020	0,085
-204,636	800,000	-0,054	-0,118
-203,621	208,147	-0,047	0,054
-202,606	800,000	0,029	0,072
-201,592	742,364	0,026	0,051
-200,577	800,000	-0,059	0,141
-199,563	-117,152	-0,064	0,008
-198,548	-200,000	0,008	-0,035
-197,533	-39,027	0,089	-0,034
-196,519	58,575	0,051	-0,036
-195,504	593,783	-0,047	-0,085
-194,490	426,278	0,123	-0,192
-193,475	1,155	0,049	0,025
-192,460	41,195	0,014	-0,009
-191,446	800,000	-0,035	-0,110
-190,431	123,630	-0,117	0,106
-189,417	130,941	0,077	-0,071
-188,402	126,516	0,094	-0,086
-187,387	351,339	-0,014	-0,020
-186,373	-90,616	-0,119	-0,025
-185,358	-200,000	-0,000	-0,080
-184,344	293,867	-0,038	-0,050
-183,329	292,766	-0,027	-0,036
-182,315	464,333	0,016	0,026
-181,300	42,760	0,056	-0,037
-180,285	114,425	0,111	-0,097
-179,271	66,886	-0,118	0,086
-178,256	64,699	0,019	0,014
-177,242	-88,312	0,072	0,015
-176,227	261,582	-0,062	0,078
-175,212	42,532	0,094	0,061
-174,198	108,355	0,121	0,104
-173,183	-200,000	0,038	0,172
-172,169	-59,073	-0,042	-0,013
-171,154	40,502	-0,046	0,030
-170,139	49,847	0,066	-0,045
-169,125	529,978	0,046	-0,079
-168,110	-185,822	0,144	-0,002
-167,096	-131,069	0,016	-0,001
-166,081	-200,000	0,012	-0,038
-165,066	-171,655	0,061	0,001
-164,052	-144,415	0,087	0,006
-163,037	50,927	0,029	0,020
-162,023	-23,511	0,114	0,049
-161,008	-91,203	0,112	-0,023
-159,993	44,464	-0,199	0,131
-158,979	-87,921	0,083	-0,018
-157,964	34,801	-0,068	0,043
-156,950	800,000	0,012	-0,035
-155,935	43,980	0,049	-0,032
-154,920	600,506	0,061	0,110
-153,906	-145,687	-0,077	0,005
-152,891	308,184	0,049	-0,067
-151,877	-200,000	0,010	-0,067
-150,862	-128,370	-0,092	-0,009
-149,847	80,267	0,031	0,024
-148,833	-200,000	-0,022	0,073
-147,818	800,000	-0,030	0,078
-146,804	-200,000	-0,002	0,063
-145,789	235,337	0,026	-0,032
-144,775	-200,000	-0,009	-0,166
-143,760	-200,000	0,016	0,094
-142,745	107,569	-0,084	-0,072
-141,731	-200,000	0,010	0,031
-140,716	-200,000	-0,002	-0,072
-139,702	-200,000	0,006	0,056
-138,687	-200,000	0,003	-0,094
-137,672	-61,400	0,098	0,029
-136,658	-52,856	-0,125	0,041
-135,643	220,452	0,048	0,056
-134,629	21,296	-0,033	-0,019
-133,614	-61,151	-0,140	0,042
-132,599	800,000	-0,021	0,046
-131,585	-200,000	-0,021	0,086
-130,570	800,000	-0,033	-0,078
-129,556	30,651	-0,191	0,117
-128,541	800,000	-0,058	0,124
-127,526	-200,000	0,023	0,080
-126,512	33,520	-0,046	-0,029
-125,497	-93,850	0,145	0,029
-124,483	-75,398	-0,087	0,022
-123,468	105,881	0,083	0,071
-122,453	-200,000	-0,002	-0,033
-121,439	-200,000	0,015	-0,062
-120,424	-83,554	-0,081	-0,018
-119,410	348,570	0,066	0,094
