DTS Sentinel unit serial number:	SN410029Multiplexer serial number:	ORYXHardware model number:	OX2-SRSoftware version number:	ORYX F/W v4,00 Oryx Data Collector v3.7.2.0data status	okinstallation	B5 Nyhavnadifferential loss correction	single-endedforward channel	channel 2reverse channel	N/Adate	2023/12/14time	06:57:13forward acquisition time	300,00reverse acquisition time	0,00gamma	499,1914k internal	0,3159k external	0,3159temperature offset calibration	1,0000default loss term (dB/km)	0,3820temperature slope calibration	1,0000multiplexer offset coefficient	1,0000multiplexer slope coefficient	1,0000fibre end	0,00T internal ref (°C)	7,31T ext. ref 1 (°C)	-9,11T ext. ref 2 (°C)	-9,19length (m)	temperature (°C)	Stokes	anti-Stokes-744,400	-32,673	0,193	-0,079
-743,385	-106,471	-0,369	-0,060
-742,371	-28,730	0,204	0,086
-741,356	-47,270	-0,449	-0,160
-740,342	730,664	0,153	0,303
-739,327	-1,439	-0,405	-0,210
-738,312	494,697	0,042	0,071
-737,298	-104,465	-0,394	-0,066
-736,283	800,000	0,031	0,094
-735,269	-119,824	-0,355	0,045
-734,254	47,008	0,138	0,094
-733,239	-64,989	-0,618	-0,183
-732,225	94,072	0,193	0,161
-731,210	-69,723	0,152	0,043
-730,196	362,798	0,021	0,031
-729,181	-97,871	-0,144	-0,027
-728,167	-157,513	0,053	-0,002
-727,152	510,945	0,043	0,074
-726,137	98,546	-0,246	-0,209
-725,123	800,000	0,048	-0,132
-724,108	34,101	-0,049	-0,032
-723,094	-39,919	-0,052	0,020
-722,079	517,452	0,042	0,072
-721,064	-49,126	-0,134	-0,047
-720,050	496,252	-0,051	-0,086
-719,035	602,245	0,034	0,062
-718,021	-200,000	-0,010	-0,035
-717,006	800,000	0,015	-0,041
-715,991	477,416	-0,022	-0,037
-714,977	-200,000	0,000	0,034
-713,962	16,129	-0,139	-0,080
-712,948	790,679	0,053	0,108
-711,933	8,712	-0,056	0,031
-710,918	86,442	-0,115	0,093
-709,904	105,314	-0,066	0,057
-708,889	-113,425	-0,139	-0,020
-707,875	212,107	-0,097	-0,113
-706,860	262,298	-0,053	0,067
-705,845	0,379	-0,051	-0,027
-704,831	-191,447	0,086	0,001
-703,816	-12,710	0,020	-0,009
-702,802	-200,000	-0,019	-0,110
-701,787	-83,918	-0,101	-0,023
-700,772	-158,481	-0,139	0,006
-699,758	-7,708	0,067	0,033
-698,743	154,887	0,166	0,168
-697,729	443,462	0,023	0,037
-696,714	-68,595	0,176	-0,050
-695,699	465,902	-0,040	-0,065
-694,685	-200,000	0,015	-0,089
-693,670	158,579	-0,025	0,026
-692,656	-200,000	0,003	0,104
-691,641	-135,627	-0,090	-0,008
-690,627	136,646	0,078	0,075
-689,612	311,115	-0,065	0,090
-688,597	-200,000	0,026	-0,088
-687,583	344,360	-0,077	-0,111
-686,568	146,822	-0,025	-0,025
-685,554	-200,000	0,009	0,063
-684,539	314,791	-0,073	0,101
-683,524	683,514	-0,012	-0,023
-682,510	-162,774	0,030	0,001
-681,495	-25,730	0,019	0,008
-680,481	0,367	-0,046	-0,024
-679,466	635,488	-0,030	0,057
-678,451	-71,361	-0,046	0,013
-677,437	800,000	0,040	0,105
-676,422	-36,447	-0,064	0,025
-675,408	-200,000	0,009	-0,118
-674,393	141,067	0,126	-0,122
-673,378	311,496	-0,051	-0,071
-672,364	800,000	-0,070	-0,188
-671,349	-200,000	0,047	-0,175
-670,335	245,655	-0,045	-0,056
-669,320	129,995	-0,079	-0,075
-668,305	90,676	-0,025	-0,020
-667,291	-142,764	0,151	0,011
-666,276	-1,227	-0,073	0,038
-665,262	-104,581	-0,036	0,006
-664,247	-200,000	0,012	-0,050
-663,232	800,000	0,058	0,180
-662,218	355,495	0,088	0,130
-661,203	540,952	-0,031	-0,054
-660,189	-200,000	-0,051	-0,188
-659,174	322,933	0,072	0,100
-658,159	-134,198	-0,204	0,018
-657,145	-200,000	-0,023	-0,142
-656,130	73,604	0,076	-0,058
-655,116	727,320	-0,033	0,065
-654,101	800,000	-0,035	0,073
-653,086	-63,107	0,051	-0,015
-652,072	322,122	0,071	0,100
-651,057	99,402	-0,189	-0,160
-650,043	59,948	-0,062	-0,045
-649,028	800,000	-0,060	-0,184
-648,014	108,693	0,104	-0,091
-646,999	72,069	0,049	0,037
-645,984	-51,708	0,076	-0,026
-644,970	35,664	-0,088	0,057
-643,955	-200,000	0,012	-0,180
-642,941	-62,751	0,094	-0,028
-641,926	36,067	0,058	-0,037
-640,911	800,000	0,026	0,067
-639,897	-136,285	-0,161	-0,014
-638,882	-163,659	0,048	-0,002
-637,868	196,366	-0,057	0,064
-636,853	71,339	-0,044	-0,033
-635,838	800,000	0,057	-0,136
-634,824	205,634	-0,075	-0,086
-633,809	-200,000	-0,004	-0,086
-632,795	-111,528	-0,053	-0,008
-631,780	-129,519	-0,103	0,010
-630,765	-35,242	0,059	-0,023
-629,751	800,000	-0,077	-0,196
-628,736	69,959	-0,046	-0,035
-627,722	-200,000	-0,004	-0,078
-626,707	33,761	0,072	-0,046
-625,692	120,578	0,008	0,007
-624,678	-200,000	0,028	-0,114
-623,663	-6,188	0,055	0,027
-622,649	-200,000	0,032	-0,105
-621,634	-117,842	-0,179	-0,023
-620,619	262,928	-0,033	0,042
-619,605	74,538	0,057	-0,044
-618,590	24,806	0,069	0,042
-617,576	-37,749	0,074	0,029
-616,561	800,000	0,043	-0,122
-615,546	76,293	-0,133	-0,103
-614,532	-59,917	-0,007	-0,002
-613,517	252,730	-0,026	-0,033
-612,503	776,570	0,045	0,091
-611,488	-200,000	-0,024	0,119
-610,474	-200,000	-0,040	0,167
-609,459	-200,000	-0,001	0,043
-608,444	233,334	-0,079	-0,095
-607,430	112,091	-0,049	-0,043
-606,415	-78,218	0,098	0,024
-605,401	-47,832	0,011	0,004
-604,386	-200,000	0,011	-0,066
-603,371	-36,801	0,072	-0,028
-602,357	800,000	-0,011	0,029
-601,342	58,733	-0,112	0,080
-600,328	-95,375	0,084	-0,016
-599,313	313,086	-0,079	-0,109
-598,298	632,496	0,091	-0,169
-597,284	-200,000	0,022	-0,123
-596,269	800,000	-0,062	0,172
-595,255	-163,154	-0,021	0,001
-594,240	74,486	-0,101	-0,078
-593,225	76,139	0,112	-0,087
-592,211	5,326	0,130	-0,070
-591,196	800,000	0,056	-0,155
-590,182	179,127	-0,029	-0,031
-589,167	-200,000	0,002	-0,034
-588,152	800,000	-0,052	0,141
-587,138	44,347	0,071	-0,048
-586,123	-55,574	-0,056	-0,018
-585,109	-58,442	0,105	0,033
-584,094	67,362	-0,019	-0,014
-583,079	109,939	-0,020	0,017
-582,065	-200,000	0,015	0,092
-581,050	226,310	-0,136	0,161
-580,036	-156,227	-0,055	-0,002
-579,021	-200,000	-0,002	-0,061
-578,006	-94,912	-0,135	-0,026
-576,992	34,064	0,174	-0,111
-575,977	800,000	0,006	0,018
-574,963	20,181	0,036	-0,021
-573,948	-200,000	-0,007	0,105
-572,934	-200,000	-0,022	0,117
-571,919	-200,000	-0,019	-0,175
-570,904	105,002	-0,132	-0,114
-569,890	-150,846	-0,109	-0,006
-568,875	20,551	0,061	-0,036
-567,861	-42,216	0,051	-0,019
-566,846	800,000	-0,051	0,104
-565,831	-12,415	0,164	0,078
-564,817	129,734	-0,085	-0,080
-563,802	-168,594	-0,179	-0,005
-562,788	-127,871	-0,053	-0,006
-561,773	-200,000	0,004	0,051
-560,758	-200,000	0,005	0,119
-559,744	289,548	-0,055	0,073
-558,729	-200,000	0,017	0,070
-557,715	-200,000	-0,008	0,049
-556,700	-58,677	-0,098	0,031
-555,685	-4,267	-0,135	-0,068
-554,671	800,000	-0,059	0,128
-553,656	86,836	0,149	0,120
-552,642	-5,222	0,097	0,049
-551,627	-200,000	-0,007	-0,054
-550,612	-58,504	0,044	-0,014
-549,598	-100,206	-0,022	-0,004
-548,583	417,331	0,058	0,090
-547,569	585,558	-0,040	-0,072
-546,554	296,980	-0,033	0,044
-545,539	58,403	-0,054	-0,038
-544,525	-200,000	-0,017	-0,060
-543,510	800,000	0,022	-0,054
-542,496	-78,800	-0,074	0,018
-541,481	201,667	0,043	0,049
-540,466	800,000	0,049	-0,104
-539,452	800,000	-0,023	-0,056
-538,437	-74,977	0,150	-0,039
-537,423	-200,000	0,013	0,082
-536,408	800,000	0,059	-0,145
-535,393	12,646	-0,160	-0,090
-534,379	800,000	-0,066	-0,162
-533,364	-136,123	0,090	-0,008
-532,350	-4,846	-0,091	0,046
-531,335	328,630	-0,039	0,056
-530,321	-200,000	0,008	0,059
-529,306	531,677	0,047	0,081
-528,291	110,803	0,027	-0,024
-527,277	80,158	0,038	0,029
-526,262	-142,350	0,121	-0,009
-525,248	133,661	0,024	-0,023
-524,233	800,000	0,035	-0,107
-523,218	80,294	0,066	0,052
-522,204	-8,825	0,053	0,026
-521,189	-97,099	0,001	-0,000
-520,175	-42,891	-0,088	0,032
-519,160	-120,032	-0,108	-0,013
-518,145	346,747	-0,059	-0,085
-517,131	-145,386	0,032	-0,002
-516,116	651,083	0,066	0,124
-515,102	310,925	-0,121	0,167
-514,087	-107,374	-0,048	-0,008
-513,072	800,000	0,076	-0,226
-512,058	-66,616	-0,037	0,011
-511,043	47,731	-0,073	0,050
-510,029	-200,000	-0,043	-0,147
-509,014	-200,000	0,026	0,097
-507,999	-200,000	-0,023	0,088
-506,985	97,265	0,010	0,008
-505,970	140,521	-0,061	0,059
-504,956	-200,000	0,001	0,018
-503,941	80,792	0,022	0,017
-502,926	183,226	0,073	-0,079
-501,912	1,718	0,067	0,035
-500,897	367,793	0,095	0,141
-499,883	59,196	0,075	0,054
-498,868	353,485	-0,038	-0,055
-497,853	800,000	0,033	-0,085
-496,839	-200,000	-0,026	-0,149
-495,824	-52,813	0,097	0,032
-494,810	103,931	0,061	-0,052
-493,795	-72,661	-0,124	-0,033
-492,781	195,972	0,043	-0,048
-491,766	-200,000	0,026	0,132
-490,751	-200,000	0,033	-0,121
-489,737	-125,864	-0,087	-0,009
-488,722	418,135	0,067	0,105
-487,708	71,344	0,080	0,061
-486,693	-104,224	-0,036	-0,006
-485,678	-140,999	0,082	-0,006
-484,664	-200,000	-0,034	-0,170
-483,649	-24,889	-0,042	-0,018
-482,635	800,000	0,050	0,143
-481,620	115,458	0,058	-0,051
-480,605	-200,000	-0,005	-0,043
-479,591	-200,000	-0,007	-0,039
-478,576	800,000	-0,023	0,070
-477,562	207,919	-0,044	0,050
-476,547	-159,372	-0,211	-0,008
-475,532	-86,525	-0,140	-0,031
-474,518	-165,474	0,084	-0,003
-473,503	-200,000	-0,004	0,073
-472,489	2,279	-0,032	0,017
-471,474	-27,358	-0,046	0,020
-470,459	-200,000	-0,004	0,056
-469,445	-200,000	0,002	-0,014
-468,430	421,910	0,070	0,110
-467,416	4,443	-0,150	0,080
-466,401	-57,390	0,130	0,041
-465,386	-200,000	0,005	0,059
-464,372	-200,000	-0,041	-0,139
-463,357	59,026	-0,126	-0,090
-462,343	-108,846	-0,037	0,006
-461,328	800,000	0,041	0,127
-460,313	54,870	-0,028	0,020
-459,299	148,875	0,066	0,065
-458,284	-200,000	0,000	0,072
-457,270	800,000	-0,039	0,097
-456,255	800,000	-0,044	0,103
-455,241	36,036	0,074	0,047
-454,226	136,181	-0,082	-0,078
-453,211	-151,891	-0,143	-0,007
-452,197	-13,251	-0,107	0,051
-451,182	-200,000	-0,019	0,081
-450,168	-200,000	0,011	-0,114
-449,153	-41,048	-0,138	0,052
-448,138	-53,996	-0,072	0,024
-447,124	-200,000	0,031	0,137
-446,109	-93,031	0,108	-0,022
-445,095	-111,207	-0,094	-0,014
-444,080	-200,000	-0,041	-0,180
-443,065	-45,075	-0,095	0,034
-442,051	66,891	-0,171	-0,127
-441,036	277,204	0,074	-0,096
-440,022	-17,669	0,081	-0,037
-439,007	800,000	0,043	-0,114
-437,992	405,814	0,070	0,107
-436,978	800,000	-0,027	0,060
-435,963	-83,058	-0,083	0,019
-434,949	-200,000	-0,009	-0,146
-433,934	800,000	0,038	-0,118
-432,919	-114,632	-0,077	0,011
-431,905	-143,084	-0,108	-0,007
-430,890	-133,370	0,103	-0,009
-429,876	-200,000	0,008	-0,089
-428,861	189,450	0,101	0,110
-427,846	-33,895	0,117	0,047
-426,832	800,000	0,011	-0,032
-425,817	-117,098	0,028	-0,004
-424,803	157,289	0,049	0,049
-423,788	-66,423	0,111	-0,032
-422,773	39,566	0,072	-0,047
-421,759	-158,917	-0,063	0,003
-420,744	-200,000	-0,015	-0,066
-419,730	800,000	-0,033	-0,073
-418,715	280,864	0,079	-0,103
-417,701	-29,733	-0,134	-0,055
-416,686	25,999	0,066	0,040
-415,671	11,118	0,164	-0,091
-414,657	-200,000	-0,068	0,000
-413,642	563,066	-0,080	0,141
-412,628	177,686	-0,044	0,046
-411,613	-200,000	-0,030	-0,112
-410,598	209,245	0,076	-0,087
-409,584	-200,000	-0,017	-0,059
-408,569	800,000	0,047	0,147
-407,555	-134,500	0,144	-0,013
-406,540	-18,138	-0,124	0,056
-405,525	-83,584	0,016	-0,004
-404,511	-33,761	-0,046	0,018
-403,496	-200,000	0,006	-0,072
-402,482	-200,000	0,002	0,137
-401,467	-20,038	-0,041	0,018
-400,452	-144,026	0,021	-0,001
-399,438	-149,370	-0,093	-0,005
-398,423	66,576	0,087	-0,064
-397,409	-161,795	-0,200	-0,007
-396,394	224,426	-0,037	-0,044
-395,379	-87,985	0,082	-0,018
-394,365	112,378	-0,053	0,047
-393,350	-200,000	0,006	0,058
-392,336	-38,351	-0,069	-0,026
-391,321	-23,162	0,053	0,023
-390,306	574,000	-0,029	-0,051
-389,292	-200,000	-0,008	0,031
-388,277	-168,300	0,034	0,001
-387,263	-200,000	0,034	0,109
-386,248	441,334	0,122	0,194
-385,233	800,000	0,017	-0,046
-384,219	-80,127	0,121	0,029
-383,204	-200,000	-0,012	-0,133
-382,190	-7,277	0,063	-0,031
-381,175	-200,000	-0,012	0,053
-380,160	345,201	0,072	0,103
-379,146	208,806	-0,051	0,058
-378,131	118,722	0,041	0,036
-377,117	800,000	0,025	-0,067
-376,102	12,295	-0,031	0,017
-375,088	800,000	-0,035	-0,104
-374,073	115,182	-0,074	0,065
-373,058	70,102	0,052	0,039
-372,044	-115,367	0,128	-0,017
-371,029	-200,000	0,005	-0,027
-370,015	-200,000	0,007	0,074
-369,000	800,000	-0,073	-0,188
-367,985	800,000	0,037	-0,119
-366,971	-93,233	-0,055	-0,011
-365,956	111,450	0,086	0,075
-364,942	800,000	0,012	0,027
-363,927	83,811	-0,065	0,052
-362,912	-134,954	-0,056	-0,005
-361,898	-4,924	-0,125	0,062
-360,883	11,388	0,082	0,046
-359,869	-200,000	-0,025	0,000
-358,854	-111,590	-0,053	-0,008
-357,839	163,028	0,118	0,120
-356,825	-39,437	-0,098	0,037
-355,810	674,058	0,046	0,087
-354,796	719,212	0,050	0,098
-353,781	5,839	-0,068	-0,036
-352,766	-8,789	0,035	0,017
-351,752	800,000	0,024	0,069
-350,737	16,181	0,134	0,076
-349,723	-56,244	0,092	0,030
-348,708	325,972	0,079	0,110
-347,693	-200,000	-0,022	-0,139
-346,679	424,783	-0,094	-0,147
-345,664	-118,085	0,038	0,005
-344,650	-72,538	0,118	0,031
-343,635	154,622	0,102	0,102
-342,620	-51,987	0,097	0,032
-341,606	13,737	0,020	-0,011
-340,591	110,558	0,049	-0,043
-339,577	-53,544	-0,147	-0,049
-338,562	-122,295	-0,054	-0,006
-337,548	-200,000	-0,026	0,084
-336,533	800,000	0,042	-0,121
-335,518	800,000	0,056	0,126
-334,504	800,000	0,028	-0,057
-333,489	-105,323	0,068	0,011
-332,475	372,972	-0,027	-0,041
-331,460	588,319	0,040	0,071
-330,445	-143,835	0,082	-0,006
-329,431	647,280	-0,072	0,133
-328,416	800,000	0,056	0,131
-327,402	800,000	0,016	0,046
-326,387	800,000	0,041	0,115
-325,372	11,357	0,050	0,028
-324,358	-200,000	0,026	-0,144
-323,343	795,590	0,046	-0,093
-322,329	-24,900	0,069	0,029
-321,314	-200,000	0,014	-0,151
-320,299	655,293	0,077	0,144
-319,285	-200,000	0,013	0,041
-318,270	15,810	0,073	-0,041
-317,256	800,000	-0,036	0,093
-316,241	-200,000	-0,014	-0,063
-315,226	84,522	-0,104	0,082
-314,212	-200,000	-0,022	-0,106
-313,197	-163,211	0,040	0,001
-312,183	83,382	0,015	-0,012
-311,168	-117,212	0,046	-0,006
-310,153	-171,057	0,120	0,003
-309,139	-144,842	-0,082	0,005
-308,124	-200,000	0,014	-0,057
-307,110	173,895	0,080	-0,084
-306,095	306,452	0,023	-0,031
-305,080	-200,000	0,013	0,056
-304,066	25,375	-0,069	-0,041
-303,051	94,285	-0,063	-0,052
-302,037	-151,644	-0,220	0,012
-301,022	-81,069	0,069	0,016
-300,008	-200,000	0,008	0,071
-298,993	-200,000	-0,001	-0,042
-297,978	-49,661	-0,142	-0,049
-296,964	20,269	-0,105	-0,061
-295,949	57,490	0,022	0,015
-294,935	119,131	-0,075	-0,067
-293,920	800,000	0,033	-0,090
-292,905	679,419	-0,022	0,042
-291,891	60,815	0,092	0,066
-290,876	-158,768	0,059	-0,002
-289,862	-200,000	0,027	-0,092
-288,847	-39,278	0,023	-0,009
-287,832	19,226	-0,036	0,021
-286,818	-200,000	0,025	0,096
-285,803	-49,140	-0,049	-0,017
-284,789	13,161	-0,151	-0,085
-283,774	312,057	0,029	0,040
-282,759	4,663	-0,124	-0,066
-281,745	-200,000	0,020	0,075
-280,730	-69,361	-0,073	0,020
-279,716	-200,000	-0,003	0,114
-278,701	-200,000	-0,003	-0,084
-277,686	375,036	-0,030	0,044
-276,672	25,481	-0,072	-0,043
-275,657	692,416	0,036	-0,069
-274,643	645,656	-0,078	-0,145
-273,628	800,000	0,035	0,106
-272,613	-200,000	-0,020	0,065
-271,599	800,000	-0,011	0,030
-270,584	142,036	0,086	-0,083
-269,570	800,000	-0,086	-0,196
-268,555	125,530	0,126	0,115
-267,540	-90,437	-0,110	-0,023
-266,526	287,283	-0,056	-0,074
-265,511	-200,000	-0,015	0,152
-264,497	-27,719	0,163	-0,068
-263,482	499,764	0,037	0,063
-262,467	-97,724	0,076	0,014
-261,453	282,366	-0,045	-0,058
-260,438	-27,375	0,058	0,024
-259,424	-200,000	0,004	0,022
-258,409	800,000	-0,028	-0,073
-257,395	800,000	0,060	-0,156
-256,380	83,498	0,034	-0,027
-255,365	294,854	-0,020	0,026
-254,351	-17,537	0,083	0,038
-253,336	-200,000	0,018	-0,131
-252,322	-200,000	-0,018	0,073
-251,307	-200,000	-0,024	0,087
-250,292	176,812	0,061	0,064
-249,278	-200,000	-0,003	-0,030
-248,263	-112,690	0,098	0,014
-247,249	53,483	0,059	0,041
-246,234	163,395	-0,116	-0,118
-245,219	800,000	-0,051	0,127
-244,205	-178,249	0,018	0,000
-243,190	150,491	0,050	-0,049
-242,176	800,000	0,027	-0,077
-241,161	-115,181	-0,063	-0,009
-240,146	-113,605	0,060	-0,008
-239,132	-81,504	-0,121	0,028
-238,117	-115,039	-0,013	-0,002
-237,103	-200,000	-0,022	-0,077
-236,088	113,435	0,043	-0,038
-235,073	800,000	-0,010	-0,022
-234,059	800,000	0,039	0,091
-233,044	314,315	0,072	0,099
-232,030	-200,000	0,029	-0,121
-231,015	-73,628	-0,222	-0,058
-230,000	50,091	-0,036	-0,025
-228,986	-200,000	0,005	-0,095
-227,971	800,000	0,014	-0,041
-226,957	800,000	-0,030	0,077
-225,942	135,662	0,112	0,105
-224,927	-200,000	0,012	-0,127
-223,913	-114,132	-0,097	0,013
-222,898	-28,224	0,035	-0,015
-221,884	800,000	0,043	0,094
-220,869	-143,151	0,094	0,006
-219,855	-200,000	-0,002	0,102
-218,840	49,830	0,119	0,081
-217,825	-200,000	0,004	-0,075
-216,811	269,344	0,052	-0,066
-215,796	516,091	-0,025	-0,043
-214,782	-200,000	-0,012	0,098
-213,767	-200,000	0,020	-0,083
-212,752	439,311	0,137	0,217
-211,738	-200,000	-0,005	-0,024
-210,723	800,000	0,031	0,076
-209,709	14,042	0,099	-0,056
-208,694	-200,000	-0,042	-0,165
-207,679	-24,360	0,108	0,046
-206,665	115,007	-0,043	0,038
-205,650	-6,461	0,109	-0,053
-204,636	414,748	0,047	0,072
-203,621	44,557	0,107	-0,071
-202,606	19,798	-0,036	0,021
-201,592	-200,000	0,008	0,060
-200,577	6,956	0,065	0,035
-199,563	77,324	-0,088	-0,068
-198,548	-196,353	0,048	-0,000
-197,533	256,586	0,003	0,004
-196,519	-8,087	0,037	0,018
-195,504	285,929	0,014	0,019
-194,490	-200,000	-0,045	-0,175
-193,475	-31,519	-0,256	0,103
-192,460	-96,093	0,054	0,010
-191,446	-200,000	0,004	0,205
-190,431	-56,856	0,099	0,032
-189,417	9,770	-0,080	-0,044
-188,402	-59,732	0,080	0,025
-187,387	-121,471	-0,112	0,013
-186,373	69,055	-0,038	0,028
-185,358	200,792	0,061	-0,067
-184,344	270,395	-0,106	0,135
-183,329	-200,000	0,006	0,094
-182,315	800,000	-0,038	0,094
-181,300	31,385	0,047	0,029
-180,285	-200,000	-0,026	0,115
-179,271	-200,000	-0,005	-0,034
-178,256	142,218	0,018	-0,017
-177,242	254,620	0,002	0,003
-176,227	406,082	-0,020	0,030
-175,212	395,468	-0,057	0,086
-174,198	800,000	-0,021	0,054
-173,183	-200,000	0,001	-0,067
-172,169	182,022	-0,050	0,053
-171,154	166,890	-0,023	0,023
-170,139	-171,068	0,094	0,002
-169,125	513,415	-0,035	-0,060
-168,110	362,552	-0,033	0,048
-167,096	225,118	0,022	0,025
-166,081	-36,654	-0,089	0,034
-165,066	-200,000	-0,002	0,028
-164,052	505,724	0,022	-0,037
-163,037	170,333	-0,023	0,024
-162,023	-200,000	0,036	0,147
-161,008	-200,000	-0,001	-0,048
-159,993	-200,000	-0,012	0,088
-158,979	-95,366	-0,127	-0,024
-157,964	34,285	-0,016	0,010
-156,950	90,070	-0,116	-0,093
-155,935	-200,000	-0,000	0,124
-154,920	-101,860	-0,061	0,010
-153,906	800,000	0,041	0,096
-152,891	300,908	0,073	-0,098
-151,877	35,973	0,099	-0,063
-150,862	29,547	-0,069	-0,042
-149,847	-147,804	0,060	0,004
-148,833	-95,346	-0,088	0,017
-147,818	-200,000	0,014	0,109
-146,804	46,998	0,072	0,048
-145,789	-66,643	0,066	0,019
-144,775	47,976	-0,194	-0,130
-143,760	-68,930	0,095	0,026
-142,745	609,639	-0,108	-0,195
-141,731	-145,878	0,068	0,004
-140,716	22,052	-0,048	-0,028
-139,702	-88,912	0,040	-0,008
-138,687	-63,865	0,006	0,002
-137,672	-200,000	0,015	0,186
-136,658	574,851	-0,067	-0,117
-135,643	-81,289	0,024	-0,006
-134,629	-96,207	0,089	0,017
-133,614	-200,000	-0,026	0,108
-132,599	150,761	0,079	0,077
-131,585	738,338	0,046	-0,089
-130,570	-200,000	-0,001	-0,037
-129,556	469,057	-0,069	-0,111
-128,541	159,186	-0,079	0,079
-127,526	-200,000	-0,013	0,173
-126,512	-130,604	0,083	0,008
-125,497	-89,734	-0,017	-0,004
-124,483	78,716	-0,084	0,065
-123,468	15,341	-0,092	0,052
-122,453	22,098	-0,104	-0,061
-121,439	-67,112	0,082	0,023
-120,424	-200,000	-0,013	0,133
-119,410	-59,771	-0,070	0,021
-118,395	-45,858	0,082	0,029
