DTS Sentinel unit serial number:	SN410029Multiplexer serial number:	ORYXHardware model number:	OX2-SRSoftware version number:	ORYX F/W v4,00 Oryx Data Collector v3.7.2.0data status	okinstallation	B5 Nyhavnadifferential loss correction	single-endedforward channel	channel 2reverse channel	N/Adate	2023/12/12time	05:57:13forward acquisition time	300,00reverse acquisition time	0,00gamma	499,1914k internal	0,3158k external	0,3158temperature offset calibration	1,0000default loss term (dB/km)	0,3820temperature slope calibration	1,0000multiplexer offset coefficient	1,0000multiplexer slope coefficient	1,0000fibre end	0,00T internal ref (°C)	15,31T ext. ref 1 (°C)	-1,06T ext. ref 2 (°C)	-1,35length (m)	temperature (°C)	Stokes	anti-Stokes-744,400	274,629	0,128	0,167
-743,385	-133,912	-0,225	-0,020
-742,371	23,860	0,172	0,104
-741,356	81,843	-0,263	0,209
-740,342	595,366	0,034	0,062
-739,327	-90,586	-0,262	0,055
-738,312	7,256	-0,042	-0,023
-737,298	-104,778	-0,343	0,058
-736,283	61,995	0,094	-0,069
-735,269	-50,541	-0,195	0,067
-734,254	-147,817	0,105	0,006
-733,239	-191,160	-0,434	0,003
-732,225	-133,695	0,178	0,016
-731,210	-56,419	0,126	-0,041
-730,196	-136,926	-0,062	-0,005
-729,181	369,762	-0,123	-0,185
-728,167	-200,000	0,024	-0,098
-727,152	-200,000	0,010	0,054
-726,137	-200,000	-0,022	0,127
-725,123	28,965	-0,023	-0,014
-724,108	161,005	-0,099	-0,103
-723,094	267,295	-0,127	-0,164
-722,079	-123,603	-0,095	0,011
-721,064	-96,906	0,167	-0,032
-720,050	-87,805	-0,143	-0,031
-719,035	-115,198	0,041	0,006
-718,021	-44,674	0,101	-0,037
-717,006	517,371	-0,050	-0,087
-715,991	-200,000	-0,005	-0,118
-714,977	19,973	0,052	0,031
-713,962	734,676	-0,070	0,138
-712,948	-49,760	-0,127	-0,044
-711,933	622,583	-0,015	-0,027
-710,918	-200,000	0,008	-0,120
-709,904	220,496	-0,030	-0,036
-708,889	66,193	-0,095	-0,071
-707,875	-200,000	-0,049	-0,164
-706,860	-200,000	-0,014	-0,110
-705,845	-97,248	-0,204	-0,039
-704,831	303,494	0,063	0,086
-703,816	31,325	-0,145	0,091
-702,802	58,884	-0,091	0,066
-701,787	-23,163	-0,133	-0,059
-700,772	51,355	-0,041	-0,028
-699,758	-44,132	-0,143	-0,052
-698,743	321,972	0,035	0,050
-697,729	800,000	-0,038	-0,110
-696,714	-200,000	-0,005	0,037
-695,699	-110,262	-0,121	-0,018
-694,685	29,933	-0,111	-0,069
-693,670	800,000	-0,047	-0,143
-692,656	359,926	-0,026	-0,039
-691,641	224,326	0,036	-0,043
-690,627	-200,000	0,034	0,139
-689,612	154,409	-0,059	-0,059
-688,597	-200,000	-0,004	-0,092
-687,583	-165,917	-0,048	0,001
-686,568	-26,267	-0,068	-0,029
-685,554	-114,038	-0,056	-0,008
-684,539	-6,109	0,063	-0,031
-683,524	471,047	-0,049	-0,081
-682,510	800,000	0,019	-0,057
-681,495	319,473	-0,042	-0,059
-680,481	84,376	0,035	-0,028
-679,466	-46,262	-0,060	0,022
-678,451	151,319	-0,079	0,080
-677,437	98,258	0,047	-0,040
-676,422	61,799	0,046	0,034
-675,408	110,715	0,068	0,060
-674,393	-60,076	0,075	0,023
-673,378	-76,404	-0,102	-0,026
-672,364	40,188	-0,020	0,013
-671,349	800,000	0,059	-0,168
-670,335	-173,999	0,146	0,003
-669,320	-200,000	-0,009	0,041
-668,305	-65,956	0,003	-0,001
-667,291	-142,482	0,071	0,005
-666,276	-5,413	0,019	-0,010
-665,262	588,898	-0,062	-0,112
-664,247	-200,000	-0,004	0,017
-663,232	-89,691	0,032	-0,007
-662,218	40,398	0,019	-0,012
-661,203	-81,175	0,047	-0,011
-660,189	-7,289	0,049	0,024
-659,174	-200,000	-0,001	-0,044
-658,159	-200,000	-0,028	-0,124
-657,145	-47,380	-0,081	-0,029
-656,130	56,165	0,095	-0,068
-655,116	-104,577	0,031	0,005
-654,101	800,000	-0,038	0,097
-653,086	231,269	-0,036	0,044
-652,072	83,726	-0,092	0,073
-651,057	228,843	-0,092	-0,110
-650,043	-100,770	-0,074	-0,013
-649,028	800,000	0,034	-0,077
-648,014	19,567	0,114	-0,067
-646,999	-6,463	0,063	-0,031
-645,984	65,034	-0,075	0,055
-644,970	-50,259	-0,222	-0,077
-643,955	102,766	0,065	-0,056
-642,941	-200,000	0,008	-0,139
-641,926	235,799	0,054	0,066
-640,911	153,999	-0,104	0,105
-639,897	503,492	0,014	0,024
-638,882	800,000	-0,056	0,160
-637,868	41,454	-0,094	0,062
-636,853	-200,000	0,021	-0,080
-635,838	800,000	-0,076	-0,224
-634,824	187,573	-0,036	0,040
-633,809	6,065	0,102	-0,055
-632,795	259,852	0,080	-0,101
-631,780	214,805	-0,067	-0,078
-630,765	800,000	0,036	-0,103
-629,751	-78,336	0,111	-0,028
-628,736	221,984	-0,134	-0,158
-627,722	-200,000	0,005	-0,085
-626,707	-200,000	-0,038	0,170
-625,692	23,606	-0,083	0,050
-624,678	325,333	0,110	-0,154
-623,663	0,950	-0,034	-0,018
-622,649	-59,730	-0,123	-0,039
-621,634	493,463	-0,067	-0,113
-620,619	-137,771	-0,093	0,008
-619,605	439,300	0,004	-0,007
-618,590	328,350	0,045	0,063
-617,576	800,000	0,038	-0,124
-616,561	-200,000	0,021	0,077
-615,546	103,121	-0,048	-0,041
-614,532	-200,000	-0,005	0,100
-613,517	-200,000	0,030	0,107
-612,503	-17,778	-0,049	-0,023
-611,488	-200,000	0,011	-0,099
-610,474	800,000	-0,025	-0,062
-609,459	-200,000	-0,037	0,140
-608,444	145,881	-0,044	0,043
-607,430	800,000	-0,013	-0,028
-606,415	800,000	-0,065	-0,141
-605,401	35,748	-0,129	0,083
-604,386	-200,000	0,009	-0,080
-603,371	-200,000	0,021	-0,078
-602,357	74,261	0,010	-0,007
-601,342	37,373	0,047	-0,030
-600,328	374,191	-0,070	-0,105
-599,313	-89,103	0,025	0,005
-598,298	42,318	0,022	0,015
-597,284	-200,000	0,105	0,000
-596,269	65,168	0,062	0,046
-595,255	211,709	0,067	0,078
-594,240	109,904	-0,034	0,030
-593,225	-200,000	-0,019	-0,114
-592,211	96,689	-0,114	0,096
-591,196	-124,592	0,029	0,003
-590,182	-200,000	0,009	-0,042
-589,167	-70,564	-0,037	-0,010
-588,152	360,413	0,109	0,160
-587,138	-4,187	-0,084	0,043
-586,123	84,268	-0,066	-0,053
-585,109	27,634	0,097	0,060
-584,094	-200,000	0,022	-0,118
-583,079	104,183	-0,029	0,025
-582,065	95,911	0,158	0,132
-581,050	26,303	-0,058	0,036
-580,036	206,750	-0,103	-0,117
-579,021	-200,000	-0,033	-0,123
-578,006	800,000	-0,026	-0,070
-576,992	-147,839	0,080	-0,005
-575,977	800,000	0,010	0,029
-574,963	387,782	-0,047	0,072
-573,948	252,815	0,132	0,165
-572,934	112,625	-0,040	-0,035
-571,919	-200,000	-0,003	0,095
-570,904	800,000	-0,034	0,071
-569,890	-118,568	0,098	0,013
-568,875	341,389	0,081	-0,116
-567,861	-200,000	0,004	0,038
-566,846	800,000	-0,028	0,065
-565,831	-200,000	0,001	0,013
-564,817	-200,000	0,001	-0,134
-563,802	-200,000	-0,009	-0,114
-562,788	-116,291	-0,100	-0,013
-561,773	683,300	0,030	-0,058
-560,758	155,439	0,034	-0,035
-559,744	450,990	-0,140	-0,227
-558,729	-62,367	0,108	0,033
-557,715	-33,229	-0,058	-0,023
-556,700	-200,000	-0,012	0,043
-555,685	-200,000	0,012	-0,048
-554,671	-75,587	0,101	0,026
-553,656	-24,449	-0,053	-0,023
-552,642	800,000	-0,010	-0,033
-551,627	800,000	-0,043	-0,108
-550,612	-200,000	0,005	-0,074
-549,598	702,663	-0,094	-0,181
-548,583	-200,000	-0,001	0,157
-547,569	-124,809	-0,012	-0,001
-546,554	-77,559	0,093	-0,023
-545,539	-200,000	-0,004	-0,020
-544,525	-200,000	0,001	0,030
-543,510	-200,000	-0,019	0,095
-542,496	800,000	-0,043	-0,095
-541,481	-146,330	-0,232	-0,015
-540,466	-46,447	-0,105	0,038
-539,452	800,000	-0,034	-0,107
-538,437	3,614	0,073	-0,039
-537,423	-200,000	0,030	0,105
-536,408	148,894	-0,134	-0,132
-535,393	482,613	-0,040	0,067
-534,379	800,000	0,040	-0,117
-533,364	155,899	-0,080	0,081
-532,350	-200,000	-0,010	-0,099
-531,335	122,671	0,082	0,075
-530,321	-200,000	-0,003	0,124
-529,306	84,637	-0,104	0,084
-528,291	116,348	-0,046	-0,041
-527,277	-80,481	-0,122	-0,030
-526,262	-1,336	-0,045	0,023
-525,248	184,628	0,123	-0,133
-524,233	102,844	-0,078	0,067
-523,218	208,875	-0,040	0,046
-522,204	-33,018	-0,097	0,039
-521,189	107,766	0,089	-0,078
-520,175	116,250	0,056	-0,050
-519,160	-200,000	-0,060	-0,236
-518,145	-175,093	0,040	-0,001
-517,131	-200,000	-0,004	-0,073
-516,116	529,452	0,054	0,093
-515,102	-117,782	0,114	0,015
-514,087	800,000	-0,030	0,092
-513,072	111,044	0,041	0,036
-512,058	-21,821	-0,099	0,044
-511,043	466,593	-0,034	0,056
-510,029	-200,000	0,060	0,196
-509,014	-10,349	0,078	0,038
-507,999	-37,871	-0,068	0,026
-506,985	407,753	0,044	-0,068
-505,970	-200,000	0,000	-0,040
-504,956	-200,000	-0,001	-0,081
-503,941	167,900	0,100	0,104
-502,926	-38,300	0,052	0,020
-501,912	41,643	0,066	0,043
-500,897	-200,000	0,016	0,058
-499,883	326,644	-0,077	-0,109
-498,868	-21,944	-0,101	-0,045
-497,853	13,373	-0,007	0,004
-496,839	-13,531	-0,094	-0,044
-495,824	-12,462	0,098	0,047
-494,810	800,000	-0,021	0,057
-493,795	33,881	0,124	0,078
-492,781	631,625	0,066	-0,123
-491,766	-99,266	0,070	0,013
-490,751	161,034	-0,013	0,013
-489,737	-101,953	0,117	0,020
-488,722	800,000	0,030	0,063
-487,708	246,510	-0,056	-0,069
-486,693	-200,000	-0,017	0,069
-485,678	681,164	0,022	-0,041
-484,664	387,723	-0,097	0,147
-483,649	-200,000	0,015	0,091
-482,635	-116,995	0,113	0,015
-481,620	-156,725	-0,158	0,007
-480,605	800,000	0,080	0,223
-479,591	-78,578	0,048	0,012
-478,576	776,749	0,020	0,040
-477,562	-200,000	0,019	0,088
-476,547	-79,559	0,080	0,020
-475,532	-34,032	-0,069	-0,027
-474,518	214,107	0,123	-0,143
-473,503	-83,227	0,108	0,025
-472,489	-200,000	-0,024	0,110
-471,474	-200,000	-0,000	-0,043
-470,459	-86,307	-0,058	-0,013
-469,445	122,507	-0,118	-0,107
-468,430	-71,901	0,058	-0,016
-467,416	-100,468	0,113	-0,020
-466,401	-54,558	0,154	-0,051
-465,386	13,493	0,144	-0,081
-464,372	800,000	0,019	-0,062
-463,357	800,000	0,048	0,112
-462,343	-200,000	0,009	-0,172
-461,328	-200,000	0,033	-0,141
-460,313	800,000	-0,010	-0,021
-459,299	-89,777	0,118	-0,025
-458,284	32,171	0,023	-0,014
-457,270	615,784	0,079	0,146
-456,255	447,103	0,053	-0,086
-455,241	-143,036	-0,136	-0,009
-454,226	116,983	-0,045	-0,040
-453,211	335,773	0,030	-0,043
-452,197	-56,992	0,059	0,019
-451,182	-108,273	0,033	0,005
-450,168	-200,000	0,019	0,070
-449,153	108,268	-0,006	0,005
-448,138	143,051	-0,101	-0,098
-447,124	-200,000	0,004	-0,165
-446,109	-94,805	0,129	-0,025
-445,095	-200,000	-0,037	0,137
-444,080	800,000	0,068	0,165
-443,065	-86,607	-0,031	0,007
-442,051	-73,220	0,044	0,012
-441,036	-104,219	-0,119	-0,020
-440,022	11,671	-0,080	0,045
-439,007	-200,000	0,021	0,076
-437,992	-200,000	0,019	-0,089
-436,978	-54,640	0,115	-0,038
-435,963	38,306	0,120	-0,078
-434,949	800,000	-0,013	-0,034
-433,934	-61,136	0,081	-0,025
-432,919	35,731	-0,116	-0,074
-431,905	-113,714	0,052	0,007
-430,890	-200,000	0,005	-0,028
-429,876	-37,966	0,170	0,066
-428,861	48,745	-0,022	-0,015
-427,846	9,106	0,054	0,030
-426,832	236,551	0,053	0,063
-425,817	619,160	0,068	-0,125
-424,803	800,000	0,055	0,174
-423,788	-200,000	-0,053	0,219
-422,773	173,568	-0,049	0,051
-421,759	414,499	-0,030	-0,047
-420,744	261,915	0,038	0,047
-419,730	172,390	0,008	-0,008
-418,715	-200,000	0,028	0,109
-417,701	-37,216	0,050	0,020
-416,686	480,095	0,044	-0,073
-415,671	-28,459	-0,125	0,052
-414,657	504,807	0,101	0,171
-413,642	-30,626	-0,099	0,041
-412,628	-89,191	-0,107	-0,023
-411,613	-139,255	-0,051	0,004
-410,598	-200,000	-0,005	-0,144
-409,584	-200,000	0,041	0,200
-408,569	-200,000	0,005	-0,065
-407,555	-145,737	-0,094	0,006
-406,540	-200,000	0,012	0,099
-405,525	-200,000	0,004	0,075
-404,511	800,000	-0,038	-0,112
-403,496	492,627	0,017	-0,028
-402,482	232,604	0,005	0,007
-401,467	-200,000	-0,002	0,056
-400,452	412,760	0,051	-0,080
-399,438	17,448	-0,087	0,050
-398,423	800,000	0,036	-0,074
-397,409	-61,386	-0,162	-0,049
-396,394	42,228	-0,095	-0,063
-395,379	800,000	-0,043	0,138
-394,365	-200,000	-0,010	-0,045
-393,350	-200,000	0,020	0,068
-392,336	435,865	-0,065	0,102
-391,321	-200,000	-0,025	-0,141
-390,306	114,369	0,031	-0,028
-389,292	391,830	-0,082	0,124
-388,277	180,555	0,128	0,137
-387,263	42,775	-0,048	0,032
-386,248	-160,563	-0,124	0,005
-385,233	-90,508	-0,076	0,016
-384,219	431,009	-0,029	0,045
-383,204	-88,733	-0,030	-0,006
-382,190	800,000	0,026	-0,056
-381,175	485,203	0,056	-0,093
-380,160	709,866	0,038	-0,073
-379,146	-22,074	-0,112	0,049
-378,131	93,991	0,026	0,021
-377,117	136,345	-0,068	0,065
-376,102	-200,000	0,004	-0,079
-375,088	-162,956	-0,056	0,002
-374,073	506,240	0,075	-0,126
-373,058	29,645	0,070	0,043
-372,044	320,064	0,104	0,143
-371,029	-200,000	-0,045	0,164
-370,015	-39,556	-0,038	0,014
-369,000	800,000	0,026	-0,081
-367,985	-58,435	-0,078	-0,024
-366,971	-200,000	-0,006	-0,109
-365,956	1,477	0,082	0,043
-364,942	131,168	0,124	0,116
-363,927	800,000	-0,051	0,119
-362,912	-58,343	-0,026	-0,008
-361,898	-14,251	-0,100	0,047
-360,883	447,525	0,085	-0,136
-359,869	-59,836	-0,049	0,015
-358,854	699,213	0,031	-0,059
-357,839	355,556	-0,026	0,038
-356,825	25,319	0,134	-0,080
-355,810	800,000	-0,044	0,141
-354,796	-200,000	0,000	-0,105
-353,781	-200,000	0,002	0,052
-352,766	-200,000	0,030	0,123
-351,752	800,000	0,022	0,071
-350,737	-200,000	0,013	0,079
-349,723	107,209	-0,042	0,036
-348,708	-108,953	0,108	0,016
-347,693	-200,000	-0,029	-0,158
-346,679	-81,624	0,115	0,027
-345,664	330,218	-0,054	-0,076
-344,650	-16,988	0,092	-0,042
-343,635	-36,698	-0,114	-0,044
-342,620	347,560	0,156	0,223
-341,606	-79,021	0,059	0,014
-340,591	-200,000	0,020	0,082
-339,577	320,022	-0,028	-0,039
-338,562	800,000	0,040	-0,123
-337,548	-137,335	-0,049	0,004
-336,533	800,000	-0,076	0,235
-335,518	102,902	-0,023	0,020
-334,504	-200,000	-0,009	0,057
-333,489	-75,629	-0,083	-0,021
-332,475	371,306	-0,024	-0,036
-331,460	800,000	-0,036	-0,112
-330,445	-128,438	0,065	-0,007
-329,431	289,672	0,100	0,132
-328,416	-57,350	-0,034	-0,011
-327,402	114,088	0,006	0,006
-326,387	222,750	0,120	0,141
-325,372	10,455	-0,074	-0,041
-324,358	170,329	0,036	0,038
-323,343	-5,631	-0,104	-0,052
-322,329	-19,937	0,181	0,081
-321,314	203,778	0,037	-0,042
-320,299	19,082	0,097	0,056
-319,285	104,368	-0,068	-0,058
-318,270	39,945	-0,044	-0,028
-317,256	475,905	0,077	-0,127
-316,241	800,000	0,036	-0,082
-315,226	-200,000	0,018	0,080
-314,212	168,690	0,095	0,098
-313,197	-200,000	-0,012	0,058
-312,183	60,439	-0,060	-0,043
-311,168	123,996	0,124	-0,113
-310,153	-147,441	-0,188	-0,011
-309,139	123,314	0,082	0,074
-308,124	387,883	-0,047	0,071
-307,110	-200,000	-0,016	-0,098
-306,095	-127,264	0,099	-0,010
-305,080	122,996	-0,043	-0,039
-304,066	-200,000	-0,012	-0,155
-303,051	-92,209	0,075	0,015
-302,037	-67,038	-0,108	-0,031
-301,022	800,000	0,039	-0,116
-300,008	124,545	-0,071	0,064
-298,993	-102,903	0,062	0,011
-297,978	-151,864	0,084	0,004
-296,964	406,873	-0,023	0,036
-295,949	-22,889	-0,033	-0,014
-294,935	-85,510	-0,062	-0,014
-293,920	-200,000	-0,008	0,070
-292,905	138,723	0,048	-0,046
-291,891	-200,000	0,033	0,162
-290,876	-200,000	-0,042	0,183
-289,862	299,483	0,077	-0,103
-288,847	-47,831	-0,048	0,017
-287,832	-130,759	-0,053	0,005
-286,818	-114,222	-0,057	0,008
-285,803	433,392	-0,049	-0,077
-284,789	-200,000	-0,009	0,085
-283,774	-9,109	-0,049	0,024
-282,759	800,000	-0,026	0,067
-281,745	800,000	-0,069	0,171
-280,730	19,743	-0,164	-0,095
-279,716	-200,000	0,007	-0,053
-278,701	-83,406	0,141	-0,032
-277,686	-76,674	0,120	0,030
-276,672	-200,000	-0,011	-0,102
-275,657	182,295	0,102	-0,109
-274,643	-200,000	-0,013	-0,044
-273,628	75,420	-0,136	-0,104
-272,613	-19,165	-0,056	0,025
-271,599	48,779	-0,080	-0,054
-270,584	-200,000	0,000	0,003
-269,570	-64,398	-0,050	0,015
-268,555	-87,182	-0,074	0,016
-267,540	800,000	0,032	-0,082
-266,526	438,494	-0,090	-0,143
-265,511	800,000	0,008	-0,019
-264,497	-87,035	0,043	-0,009
-263,482	-44,363	0,055	0,020
-262,467	58,878	-0,135	-0,096
-261,453	800,000	0,025	0,057
-260,438	800,000	0,012	0,038
-259,424	34,637	-0,079	-0,050
-258,409	-151,264	-0,030	0,002
-257,395	217,360	-0,028	0,032
-256,380	173,133	0,030	0,031
-255,365	-54,248	0,097	0,032
-254,351	-138,357	-0,016	-0,001
-253,336	20,816	0,084	-0,049
-252,322	137,690	-0,117	-0,111
-251,307	800,000	-0,020	0,056
-250,292	228,116	0,073	0,086
-249,278	-103,577	0,055	-0,009
-248,263	8,232	0,088	0,047
-247,249	27,432	0,127	0,077
-246,234	396,258	-0,021	-0,032
-245,219	-84,924	-0,014	0,003
-244,205	190,417	-0,039	0,042
-243,190	800,000	0,024	0,073
-242,176	329,848	0,051	-0,070
-241,161	79,619	-0,122	0,095
-240,146	401,260	0,046	0,070
-239,132	800,000	0,009	0,023
-238,117	-100,576	-0,044	-0,008
-237,103	316,553	0,075	0,102
-236,088	476,065	0,015	-0,024
-235,073	5,586	0,038	0,020
-234,059	-72,453	-0,073	0,019
-233,044	451,896	-0,059	-0,095
-232,030	-55,551	0,130	-0,042
-231,015	-200,000	0,001	-0,018
-230,000	-200,000	0,006	-0,069
-228,986	319,356	-0,042	-0,057
-227,971	77,377	-0,067	-0,051
-226,957	-200,000	0,009	0,153
-225,942	-6,993	-0,018	-0,009
-224,927	261,540	0,078	0,098
-223,913	-70,770	-0,055	-0,015
-222,898	185,298	-0,088	-0,094
-221,884	-200,000	0,023	0,073
-220,869	-85,645	-0,046	0,010
-219,855	-200,000	0,023	0,093
-218,840	800,000	0,020	-0,051
-217,825	104,366	0,078	0,067
-216,811	-96,208	-0,233	-0,044
-215,796	-3,015	-0,087	0,043
-214,782	-91,426	0,021	-0,004
-213,767	49,991	0,081	-0,055
-212,752	227,965	0,053	-0,062
-211,738	-39,126	0,059	-0,022
-210,723	-102,091	-0,186	-0,032
-209,709	-73,840	0,123	-0,032
-208,694	-90,787	0,052	0,011
-207,679	800,000	0,040	0,092
-206,665	409,715	-0,026	0,040
-205,650	70,970	0,045	-0,033
-204,636	-200,000	0,036	0,125
-203,621	370,844	-0,018	0,027
-202,606	561,551	-0,034	-0,060
-201,592	-200,000	-0,001	-0,033
-200,577	-200,000	-0,020	-0,134
-199,563	73,951	-0,057	0,043
-198,548	174,581	-0,057	-0,060
-197,533	-200,000	0,077	0,000
-196,519	-23,605	-0,194	0,084
-195,504	224,324	0,039	0,046
-194,490	-62,715	-0,069	-0,021
-193,475	765,909	0,061	0,121
-192,460	-41,287	0,136	-0,050
-191,446	800,000	-0,035	-0,076
-190,431	310,085	0,033	0,045
-189,417	-200,000	-0,010	0,044
-188,402	749,185	0,086	-0,169
-187,387	457,576	0,054	-0,086
-186,373	-200,000	0,007	-0,034
-185,358	-130,168	0,127	-0,012
-184,344	755,493	0,042	0,083
-183,329	-200,000	0,008	0,141
-182,315	-200,000	0,056	0,000
-181,300	-148,956	-0,142	-0,008
-180,285	-200,000	-0,004	-0,128
-179,271	-73,176	-0,114	-0,030
-178,256	800,000	-0,013	-0,032
-177,242	74,250	-0,086	0,065
-176,227	100,195	-0,083	0,069
-175,212	21,118	0,125	-0,073
-174,198	-200,000	0,024	-0,087
-173,183	-152,671	-0,119	0,006
-172,169	-200,000	-0,001	0,007
-171,154	-168,234	-0,049	-0,001
-170,139	800,000	0,022	-0,066
-169,125	800,000	0,021	0,048
-168,110	-70,191	0,047	0,013
-167,096	66,852	-0,081	0,059
-166,081	187,623	-0,071	0,076
-165,066	75,436	0,039	0,030
-164,052	-200,000	-0,003	-0,041
-163,037	-77,252	0,131	-0,033
-162,023	-200,000	0,015	-0,082
-161,008	586,566	0,012	-0,022
-159,993	800,000	0,058	0,140
-158,979	613,267	-0,007	0,014
-157,964	-34,195	-0,049	0,019
-156,950	800,000	0,034	0,089
-155,935	90,049	-0,025	-0,020
-154,920	-200,000	0,002	0,097
-153,906	-200,000	0,033	-0,152
-152,891	25,428	-0,073	0,044
-151,877	-77,460	-0,192	0,048
-150,862	800,000	-0,067	-0,155
-149,847	192,160	0,086	0,094
-148,833	-200,000	-0,004	-0,098
-147,818	800,000	0,044	-0,112
-146,804	73,463	0,060	-0,045
-145,789	14,831	0,142	0,080
-144,775	241,694	0,093	-0,112
-143,760	325,332	0,066	0,092
-142,745	-200,000	0,012	0,074
-141,731	-200,000	-0,039	-0,133
-140,716	-16,156	0,060	0,027
-139,702	-28,549	-0,131	0,054
-138,687	391,547	-0,044	0,066
-137,672	800,000	-0,023	-0,051
-136,658	135,474	-0,097	0,091
-135,643	-114,872	-0,026	-0,003
-134,629	-200,000	0,002	-0,037
-133,614	-200,000	-0,026	0,119
-132,599	-200,000	0,020	0,079
-131,585	227,029	-0,014	-0,016
-130,570	135,419	0,040	-0,037
-129,556	114,492	0,083	-0,073
-128,541	94,420	-0,064	0,052
-127,526	800,000	0,012	0,029
-126,512	532,685	-0,018	-0,031
-125,497	58,714	0,061	0,043
-124,483	363,496	0,024	0,034
-123,468	-115,373	-0,110	-0,015
-122,453	-200,000	0,000	0,009
-121,439	-200,000	0,005	0,048
-120,424	800,000	-0,081	-0,176
-119,410	800,000	0,035	0,077
