DTS Sentinel unit serial number:	SN410029Multiplexer serial number:	ORYXHardware model number:	OX2-SRSoftware version number:	ORYX F/W v4,00 Oryx Data Collector v3.7.2.0data status	okinstallation	B5 Nyhavnadifferential loss correction	single-endedforward channel	channel 2reverse channel	N/Adate	2023/12/14time	07:57:13forward acquisition time	300,00reverse acquisition time	0,00gamma	499,1914k internal	0,3160k external	0,3160temperature offset calibration	1,0000default loss term (dB/km)	0,3820temperature slope calibration	1,0000multiplexer offset coefficient	1,0000multiplexer slope coefficient	1,0000fibre end	0,00T internal ref (°C)	7,06T ext. ref 1 (°C)	-9,22T ext. ref 2 (°C)	-9,29length (m)	temperature (°C)	Stokes	anti-Stokes-744,400	-157,834	0,211	-0,009
-743,385	-16,382	-0,273	-0,127
-742,371	-66,132	0,211	0,062
-741,356	-141,479	-0,393	0,029
-740,342	90,705	0,166	0,137
-739,327	-181,367	-0,448	-0,006
-738,312	12,977	0,209	0,119
-737,298	-80,467	-0,432	-0,105
-736,283	252,733	0,147	0,185
-735,269	31,588	-0,328	-0,208
-734,254	59,079	0,255	0,184
-733,239	3,102	-0,465	-0,248
-732,225	338,078	0,076	0,110
-731,210	102,850	0,075	0,064
-730,196	-43,129	-0,135	0,050
-729,181	92,646	-0,083	0,069
-728,167	-200,000	0,010	-0,050
-727,152	34,176	0,052	-0,034
-726,137	800,000	-0,044	-0,125
-725,123	255,967	-0,039	-0,050
-724,108	-200,000	-0,019	-0,113
-723,094	87,692	-0,090	-0,073
-722,079	-138,502	0,107	0,009
-721,064	-35,462	0,197	-0,078
-720,050	229,992	0,005	-0,006
-719,035	19,020	-0,106	-0,062
-718,021	800,000	-0,041	-0,087
-717,006	739,452	0,037	-0,073
-715,991	800,000	-0,038	-0,085
-714,977	-58,637	-0,172	-0,054
-713,962	17,686	0,105	-0,061
-712,948	329,360	0,075	0,107
-711,933	-200,000	-0,036	-0,134
-710,918	800,000	0,068	-0,191
-709,904	22,493	-0,154	-0,093
-708,889	-200,000	0,020	-0,065
-707,875	800,000	-0,080	-0,240
-706,860	800,000	-0,027	0,069
-705,845	73,450	-0,072	-0,055
-704,831	-126,325	-0,083	0,009
-703,816	579,904	-0,041	-0,074
-702,802	153,286	0,051	0,052
-701,787	-141,801	-0,058	0,004
-700,772	397,751	0,078	0,120
-699,758	-56,481	0,076	0,025
-698,743	-200,000	0,015	-0,048
-697,729	-40,824	-0,156	0,059
-696,714	800,000	0,009	0,026
-695,699	-200,000	-0,020	0,091
-694,685	-3,114	-0,139	-0,071
-693,670	0,752	-0,040	0,021
-692,656	28,768	-0,086	0,053
-691,641	169,017	-0,015	-0,016
-690,627	406,464	0,073	-0,114
-689,612	278,498	0,043	-0,056
-688,597	-112,460	-0,165	-0,024
-687,583	562,459	-0,104	-0,186
-686,568	-200,000	-0,010	0,063
-685,554	387,645	-0,038	0,057
-684,539	-14,516	0,052	0,025
-683,524	-200,000	-0,020	-0,098
-682,510	-179,201	-0,018	-0,000
-681,495	163,905	-0,236	-0,244
-680,481	800,000	-0,022	0,060
-679,466	-121,989	-0,059	0,007
-678,451	2,480	0,025	0,013
-677,437	117,760	-0,047	-0,042
-676,422	-103,158	0,072	-0,012
-675,408	-122,402	-0,108	0,013
-674,393	-73,941	-0,090	0,024
-673,378	53,110	-0,099	-0,070
-672,364	-93,808	0,083	-0,017
-671,349	-48,632	0,024	-0,008
-670,335	-108,504	0,043	0,007
-669,320	357,971	0,052	0,077
-668,305	800,000	0,039	-0,081
-667,291	176,954	0,018	0,020
-666,276	-200,000	0,003	-0,061
-665,262	-156,516	-0,154	0,007
-664,247	-200,000	0,012	-0,063
-663,232	13,181	-0,049	0,028
-662,218	-200,000	0,006	0,126
-661,203	-200,000	-0,049	0,167
-660,189	800,000	0,022	-0,062
-659,174	208,030	-0,058	-0,067
-658,159	-138,588	-0,198	-0,016
-657,145	194,264	0,031	-0,035
-656,130	800,000	0,038	-0,122
-655,116	187,649	-0,080	-0,088
-654,101	-95,913	0,056	-0,011
-653,086	800,000	-0,044	-0,139
-652,072	-188,465	-0,068	-0,001
-651,057	800,000	0,038	-0,079
-650,043	-200,000	-0,004	0,020
-649,028	-162,689	-0,119	0,004
-648,014	-200,000	-0,021	-0,085
-646,999	100,964	-0,088	0,075
-645,984	171,083	0,044	-0,046
-644,970	800,000	-0,040	-0,105
-643,955	311,587	0,007	-0,010
-642,941	-200,000	0,018	-0,063
-641,926	-200,000	-0,000	-0,143
-640,911	-168,475	0,075	0,002
-639,897	800,000	-0,013	-0,042
-638,882	51,383	-0,023	0,016
-637,868	800,000	-0,039	-0,110
-636,853	-200,000	-0,011	-0,042
-635,838	338,493	-0,043	-0,062
-634,824	-0,040	-0,112	0,058
-633,809	-103,717	-0,064	-0,011
-632,795	-116,443	-0,127	-0,017
-631,780	205,789	-0,068	0,077
-630,765	711,860	-0,066	-0,129
-629,751	800,000	-0,045	-0,112
-628,736	-200,000	-0,002	0,013
-627,722	328,040	0,037	0,052
-626,707	-114,260	0,145	-0,020
-625,692	443,462	-0,034	0,055
-624,678	180,020	-0,043	-0,046
-623,663	-93,790	-0,069	0,014
-622,649	241,017	-0,021	-0,026
-621,634	-73,032	0,134	-0,036
-620,619	62,905	-0,044	-0,033
-619,605	-200,000	0,004	0,054
-618,590	800,000	0,015	0,039
-617,576	9,613	0,095	0,053
-616,561	-37,783	-0,085	-0,033
-615,546	520,076	-0,050	-0,086
-614,532	88,306	-0,125	-0,102
-613,517	135,471	-0,056	0,053
-612,503	-200,000	-0,002	0,028
-611,488	-200,000	-0,006	0,025
-610,474	183,323	-0,030	0,032
-609,459	-64,090	-0,125	-0,037
-608,444	-122,971	-0,072	0,008
-607,430	-74,436	-0,081	0,021
-606,415	-200,000	-0,006	0,050
-605,401	267,233	0,055	0,070
-604,386	461,663	-0,021	0,034
-603,371	278,599	-0,087	0,114
-602,357	-67,433	0,059	-0,017
-601,342	-122,548	-0,115	-0,014
-600,328	381,133	-0,058	-0,088
-599,313	29,466	-0,155	0,096
-598,298	60,649	-0,056	0,040
-597,284	162,454	0,102	-0,105
-596,269	92,595	0,040	0,033
-595,255	15,597	0,075	-0,043
-594,240	-200,000	0,008	-0,090
-593,225	-200,000	0,025	-0,110
-592,211	-200,000	0,011	0,055
-591,196	113,766	0,040	0,035
-590,182	188,232	0,084	-0,092
-589,167	87,781	-0,044	-0,035
-588,152	800,000	0,014	0,040
-587,138	-52,862	-0,106	0,036
-586,123	-8,301	0,079	-0,039
-585,109	-200,000	-0,037	-0,122
-584,094	-119,959	-0,083	-0,010
-583,079	800,000	-0,069	-0,174
-582,065	-56,743	-0,105	-0,034
-581,050	-94,776	0,164	0,032
-580,036	43,450	0,043	-0,029
-579,021	-200,000	-0,017	-0,109
-578,006	15,408	0,058	-0,033
-576,992	-81,316	-0,076	0,018
-575,977	132,448	0,098	0,093
-574,963	321,001	-0,053	0,074
-573,948	-104,673	-0,028	0,005
-572,934	-161,789	-0,085	-0,003
-571,919	-138,624	0,156	0,012
-570,904	-107,523	-0,075	-0,012
-569,890	-77,279	-0,156	0,039
-568,875	-86,358	0,130	-0,029
-567,861	-200,000	0,012	-0,096
-566,846	146,119	-0,035	0,035
-565,831	304,786	0,101	0,138
-564,817	452,637	0,076	0,123
-563,802	5,138	-0,148	-0,079
-562,788	87,219	-0,042	0,034
-561,773	287,831	0,068	-0,091
-560,758	-74,111	-0,017	0,005
-559,744	-111,856	0,152	-0,022
-558,729	297,446	0,057	0,076
-557,715	800,000	0,030	-0,065
-556,700	-137,270	-0,069	0,006
-555,685	-200,000	0,002	-0,057
-554,671	800,000	0,028	-0,074
-553,656	-200,000	-0,009	-0,061
-552,642	800,000	0,027	0,082
-551,627	764,237	-0,046	-0,093
-550,612	-39,336	-0,170	0,065
-549,598	86,242	-0,016	0,013
-548,583	800,000	-0,053	-0,112
-547,569	148,478	0,055	0,054
-546,554	8,668	0,084	-0,046
-545,539	328,769	0,024	0,034
-544,525	-200,000	-0,002	0,047
-543,510	800,000	-0,039	-0,115
-542,496	-200,000	-0,026	-0,096
-541,481	-176,906	-0,036	-0,001
-540,466	-200,000	-0,012	0,040
-539,452	-97,121	0,087	0,016
-538,437	-36,073	-0,060	0,023
-537,423	800,000	0,021	-0,049
-536,408	748,977	-0,037	-0,073
-535,393	4,590	-0,124	-0,066
-534,379	327,418	-0,011	0,016
-533,364	-50,366	-0,041	0,014
-532,350	363,061	-0,020	-0,029
-531,335	-154,564	0,140	0,007
-530,321	126,504	0,019	-0,018
-529,306	-87,997	0,104	0,023
-528,291	-14,448	-0,108	0,051
-527,277	50,135	-0,177	0,122
-526,262	61,203	0,056	-0,040
-525,248	800,000	0,078	0,162
-524,233	-200,000	-0,011	-0,054
-523,218	-81,906	0,078	-0,019
-522,204	488,715	0,029	-0,048
-521,189	147,861	-0,088	-0,087
-520,175	88,940	-0,108	0,088
-519,160	-77,545	-0,143	-0,036
-518,145	399,447	-0,055	-0,084
-517,131	-200,000	0,026	0,087
-516,116	376,423	0,076	0,114
-515,102	-70,495	0,194	0,053
-514,087	157,341	-0,053	-0,053
-513,072	123,275	-0,061	-0,056
-512,058	183,922	0,071	-0,077
-511,043	-200,000	0,005	0,020
-510,029	-200,000	-0,005	0,124
-509,014	125,173	0,060	-0,055
-507,999	168,970	-0,106	-0,110
-506,985	-106,278	-0,114	0,018
-505,970	-177,722	0,040	0,001
-504,956	-163,061	-0,040	-0,001
-503,941	-200,000	0,015	0,054
-502,926	109,397	0,125	0,109
-501,912	-98,341	0,094	-0,017
-500,897	693,551	-0,057	0,110
-499,883	419,424	0,076	0,120
-498,868	155,851	-0,034	-0,034
-497,853	9,875	0,021	0,011
-496,839	70,190	-0,005	0,004
-495,824	281,316	-0,119	0,155
-494,810	778,885	0,065	-0,130
-493,795	53,958	0,158	0,110
-492,781	-82,214	-0,107	-0,025
-491,766	3,265	-0,188	-0,099
-490,751	595,555	-0,041	0,074
-489,737	23,840	0,072	0,043
-488,722	-100,461	0,139	0,025
-487,708	17,691	-0,023	0,013
-486,693	272,384	-0,027	0,035
-485,678	155,699	0,073	-0,074
-484,664	72,216	-0,086	0,066
-483,649	-200,000	0,005	-0,127
-482,635	-49,556	-0,067	0,023
-481,620	800,000	0,002	0,005
-480,605	800,000	-0,023	-0,048
-479,591	430,031	-0,029	0,046
-478,576	-200,000	0,016	0,106
-477,562	-112,900	-0,106	-0,015
-476,547	309,828	-0,069	-0,094
-475,532	602,509	0,060	-0,108
-474,518	-200,000	0,002	-0,087
-473,503	-16,914	0,110	0,051
-472,489	147,745	0,019	0,019
-471,474	-76,963	-0,142	0,036
-470,459	-13,454	-0,091	-0,043
-469,445	800,000	-0,061	-0,130
-468,430	-200,000	0,008	-0,121
-467,416	-200,000	0,003	-0,100
-466,401	185,252	0,084	-0,091
-465,386	800,000	0,035	0,099
-464,372	419,846	0,040	0,063
-463,357	-200,000	-0,029	-0,143
-462,343	800,000	-0,014	-0,032
-461,328	310,007	0,068	-0,093
-460,313	277,511	-0,030	0,039
-459,299	-44,079	0,113	0,041
-458,284	-83,789	0,057	-0,013
-457,270	7,306	-0,087	0,047
-456,255	710,670	-0,010	0,019
-455,241	-125,946	0,031	0,003
-454,226	-16,157	0,115	0,053
-453,211	-103,161	0,066	0,011
-452,197	139,084	-0,054	0,052
-451,182	346,967	0,073	0,105
-450,168	-78,571	-0,021	-0,005
-449,153	339,356	0,039	0,055
-448,138	70,954	-0,169	-0,128
-447,124	-200,000	0,001	0,021
-446,109	26,053	0,123	0,075
-445,095	142,816	0,066	-0,064
-444,080	-60,065	0,031	0,010
-443,065	778,478	-0,038	0,076
-442,051	-200,000	0,004	0,033
-441,036	39,840	-0,029	-0,019
-440,022	70,316	-0,061	0,046
-439,007	102,774	-0,043	0,037
-437,992	482,830	0,029	-0,049
-436,978	-200,000	0,006	-0,021
-435,963	-200,000	-0,009	0,077
-434,949	8,705	-0,093	-0,051
-433,934	195,097	0,023	0,026
-432,919	800,000	-0,040	-0,089
-431,905	349,008	-0,024	-0,034
-430,890	-60,945	0,044	0,013
-429,876	-200,000	-0,006	0,020
-428,861	-200,000	-0,007	0,077
-427,846	186,201	0,015	-0,017
-426,832	475,914	0,054	0,090
-425,817	-200,000	-0,007	0,046
-424,803	-200,000	-0,014	0,063
-423,788	-200,000	-0,014	0,049
-422,773	77,160	0,067	0,052
-421,759	323,343	-0,041	-0,057
-420,744	-102,528	-0,065	0,011
-419,730	800,000	-0,039	0,106
-418,715	258,079	-0,067	0,084
-417,701	-13,789	0,121	-0,057
-416,686	800,000	0,053	-0,131
-415,671	-200,000	-0,018	0,082
-414,657	-106,349	0,036	-0,006
-413,642	-8,958	0,093	-0,045
-412,628	-34,113	-0,064	-0,025
-411,613	-200,000	-0,004	-0,081
-410,598	800,000	0,021	-0,044
-409,584	-51,432	0,091	-0,031
-408,569	-200,000	0,025	0,121
-407,555	-200,000	-0,024	0,090
-406,540	-200,000	-0,002	0,035
-405,525	-15,809	0,042	-0,020
-404,511	-103,947	0,048	0,008
-403,496	-200,000	-0,000	-0,042
-402,482	-200,000	0,012	0,135
-401,467	3,137	0,098	0,052
-400,452	334,446	0,083	0,117
-399,438	800,000	-0,024	0,050
-398,423	479,417	-0,111	-0,184
-397,409	-8,979	-0,163	-0,079
-396,394	40,160	-0,132	-0,086
-395,379	-200,000	-0,001	-0,028
-394,365	-129,187	-0,091	-0,009
-393,350	-200,000	-0,028	0,093
-392,336	-200,000	-0,005	-0,178
-391,321	-200,000	-0,013	-0,091
-390,306	37,975	0,007	0,005
-389,292	-200,000	-0,016	-0,053
-388,277	189,527	-0,038	0,042
-387,263	128,820	0,005	-0,004
-386,248	-84,746	0,074	-0,017
-385,233	133,545	-0,095	0,090
-384,219	800,000	-0,011	-0,030
-383,204	-153,849	0,068	-0,003
-382,190	-200,000	-0,012	-0,058
-381,175	-200,000	-0,032	-0,107
-380,160	198,443	0,043	0,047
-379,146	-146,344	0,076	0,005
-378,131	109,417	-0,031	0,027
-377,117	167,983	0,038	0,039
-376,102	-200,000	0,011	-0,084
-375,088	-165,225	-0,096	-0,003
-374,073	-171,886	0,067	0,002
-373,058	-137,959	0,053	0,004
-372,044	-200,000	-0,035	0,123
-371,029	10,897	0,081	-0,045
-370,015	549,762	-0,036	-0,063
-369,000	-200,000	-0,006	-0,171
-367,985	-200,000	-0,005	-0,067
-366,971	-200,000	-0,006	0,033
-365,956	666,757	-0,021	-0,040
-364,942	800,000	-0,023	-0,058
-363,927	-77,031	0,067	-0,017
-362,912	-200,000	0,008	0,111
-361,898	225,171	0,046	0,054
-360,883	-200,000	0,012	-0,045
-359,869	-200,000	-0,009	0,041
-358,854	38,822	-0,047	0,030
-357,839	-20,485	0,110	0,049
-356,825	199,495	-0,034	0,038
-355,810	-90,929	0,053	-0,011
-354,796	-145,919	-0,104	0,007
-353,781	184,867	0,023	-0,025
-352,766	-66,532	0,065	-0,019
-351,752	-200,000	0,004	-0,039
-350,737	253,271	0,052	0,065
-349,723	-200,000	0,002	0,133
-348,708	-200,000	-0,006	0,036
-347,693	74,289	-0,076	0,058
-346,679	800,000	-0,035	0,108
-345,664	3,995	-0,085	0,045
-344,650	78,827	0,077	-0,059
-343,635	402,691	0,113	0,173
-342,620	121,856	-0,026	-0,024
-341,606	-47,345	0,106	0,037
-340,591	435,504	-0,046	0,073
-339,577	246,643	-0,061	0,075
-338,562	-22,937	-0,120	0,052
-337,548	800,000	0,030	0,086
-336,533	384,192	0,068	0,103
-335,518	-128,693	0,082	0,008
-334,504	131,398	0,080	0,074
-333,489	800,000	0,043	-0,129
-332,475	-200,000	-0,020	-0,127
-331,460	800,000	-0,085	-0,191
-330,445	53,060	0,063	0,044
-329,431	-200,000	0,046	0,154
-328,416	800,000	0,052	0,121
-327,402	409,848	-0,031	0,047
-326,387	-55,622	-0,123	0,040
-325,372	136,061	0,054	0,051
-324,358	672,265	-0,060	-0,114
-323,343	-200,000	0,012	-0,165
-322,329	69,786	0,049	-0,037
-321,314	-200,000	-0,015	-0,052
-320,299	-115,971	-0,109	0,015
-319,285	-84,691	0,239	0,054
-318,270	-117,107	-0,033	0,004
-317,256	24,638	-0,007	-0,004
-316,241	371,305	-0,048	-0,071
-315,226	405,784	0,022	-0,034
-314,212	78,155	-0,116	-0,090
-313,197	1,985	-0,048	-0,025
-312,183	10,958	0,187	0,103
-311,168	-51,875	-0,133	-0,045
-310,153	97,530	-0,116	-0,097
-309,139	188,767	0,042	0,046
-308,124	186,941	0,106	0,114
-307,110	-200,000	0,004	0,087
-306,095	-200,000	0,020	0,070
-305,080	-153,624	-0,188	0,009
-304,066	133,244	-0,117	-0,109
-303,051	800,000	0,045	-0,101
-302,037	197,392	0,026	0,029
-301,022	-64,110	0,021	-0,006
-300,008	-128,594	0,107	0,011
-298,993	104,608	0,046	-0,039
-297,978	73,281	0,092	0,070
-296,964	-66,148	-0,117	0,033
-295,949	-119,748	-0,073	0,009
-294,935	378,161	0,075	-0,111
-293,920	128,287	0,047	0,043
-292,905	-75,042	0,159	-0,041
-291,891	800,000	0,056	0,116
-290,876	-200,000	-0,005	0,070
-289,862	66,483	0,159	-0,117
-288,847	41,197	-0,058	0,038
-287,832	158,266	0,019	-0,019
-286,818	800,000	0,031	-0,094
-285,803	197,148	-0,081	-0,089
-284,789	-38,495	-0,027	0,010
-283,774	51,904	0,015	0,010
-282,759	74,401	-0,105	0,080
-281,745	178,314	-0,068	-0,072
-280,730	12,561	0,043	-0,024
-279,716	-110,580	0,053	-0,008
-278,701	-110,554	0,159	0,024
-277,686	167,706	0,036	-0,037
-276,672	800,000	0,037	0,091
-275,657	179,251	0,065	0,069
-274,643	800,000	-0,020	0,050
-273,628	434,257	-0,096	-0,151
-272,613	800,000	0,042	0,093
-271,599	-200,000	-0,005	0,062
-270,584	70,950	0,059	-0,044
-269,570	5,845	-0,050	-0,027
-268,555	746,503	0,046	-0,089
-267,540	51,966	-0,066	0,045
-266,526	1,097	-0,044	-0,023
-265,511	90,359	-0,069	-0,056
-264,497	30,544	-0,049	0,030
-263,482	91,226	-0,095	0,077
-262,467	-129,538	0,154	-0,015
-261,453	25,978	-0,085	0,051
-260,438	262,170	0,031	-0,039
-259,424	384,736	-0,047	0,070
-258,409	-200,000	-0,015	-0,049
-257,395	800,000	0,021	-0,046
-256,380	-73,706	0,138	-0,036
-255,365	800,000	0,125	0,298
-254,351	-200,000	-0,049	0,172
-253,336	34,925	-0,163	-0,103
-252,322	6,643	-0,150	-0,081
-251,307	800,000	0,042	0,087
-250,292	-146,898	-0,070	-0,004
-249,278	-59,023	-0,165	0,051
-248,263	800,000	0,054	0,116
-247,249	-200,000	-0,004	0,181
-246,234	800,000	0,043	-0,125
-245,219	-115,087	0,018	0,002
-244,205	-68,489	0,053	-0,015
-243,190	111,586	-0,067	0,059
-242,176	-200,000	-0,006	0,031
-241,161	19,671	0,061	0,036
-240,146	800,000	0,087	0,194
-239,132	-42,982	0,039	-0,014
-238,117	116,975	-0,056	-0,050
-237,103	-200,000	0,007	0,027
-236,088	-49,006	0,149	-0,051
-235,073	297,044	0,017	0,023
-234,059	223,978	0,070	0,082
-233,044	-200,000	0,015	-0,080
-232,030	405,631	-0,013	-0,020
-231,015	428,402	-0,076	-0,119
-230,000	-200,000	-0,017	-0,053
-228,986	23,525	0,094	0,056
-227,971	-200,000	0,018	0,066
-226,957	-46,696	0,122	0,043
-225,942	-86,762	0,026	0,006
-224,927	37,218	-0,015	-0,010
-223,913	-200,000	-0,010	-0,162
-222,898	-62,597	0,070	0,021
-221,884	-30,038	-0,187	-0,076
-220,869	49,349	-0,019	-0,013
-219,855	800,000	-0,036	0,114
-218,840	-100,820	-0,180	-0,032
-217,825	-62,836	-0,064	0,019
-216,811	186,181	-0,020	0,022
-215,796	-200,000	-0,038	-0,136
-214,782	368,181	-0,055	-0,081
-213,767	87,456	0,065	0,052
-212,752	-76,354	0,221	-0,056
-211,738	-163,451	0,056	0,002
-210,723	-200,000	-0,007	-0,172
-209,709	370,201	0,016	0,023
-208,694	-167,342	-0,046	0,001
-207,679	-200,000	0,008	-0,086
-206,665	293,153	0,031	0,041
-205,650	-200,000	0,012	0,082
-204,636	-200,000	-0,044	0,149
-203,621	32,626	0,103	0,064
-202,606	201,167	0,116	-0,129
-201,592	126,033	-0,110	-0,100
-200,577	-126,586	-0,186	-0,020
-199,563	-78,691	0,070	0,017
-198,548	800,000	0,024	-0,063
-197,533	-103,421	0,138	0,023
-196,519	15,938	0,079	0,045
-195,504	656,675	-0,033	-0,061
-194,490	800,000	0,058	-0,119
-193,475	0,721	0,050	-0,026
-192,460	-70,987	0,075	0,020
-191,446	17,411	-0,072	0,041
-190,431	206,976	0,038	0,043
-189,417	9,438	0,063	-0,034
-188,402	-4,438	-0,017	-0,008
-187,387	-96,281	-0,244	0,046
-186,373	27,413	0,051	0,031
-185,358	-37,377	0,094	0,036
-184,344	303,123	0,031	-0,041
-183,329	228,494	0,093	0,110
-182,315	-200,000	-0,005	-0,032
-181,300	-200,000	0,002	-0,010
-180,285	-162,473	0,133	-0,005
-179,271	-200,000	0,016	0,077
-178,256	-200,000	0,005	0,020
-177,242	-200,000	-0,018	0,070
-176,227	800,000	0,050	-0,125
-175,212	-200,000	0,005	-0,035
-174,198	-134,341	0,174	-0,015
-173,183	7,681	-0,094	0,050
-172,169	-62,229	-0,080	0,024
-171,154	-81,461	0,021	-0,005
-170,139	-13,258	0,073	-0,034
-169,125	538,762	-0,001	-0,001
-168,110	124,463	-0,120	0,109
-167,096	800,000	0,017	0,047
-166,081	800,000	-0,017	0,043
-165,066	-20,200	-0,109	-0,048
-164,052	-200,000	0,006	0,023
-163,037	415,993	0,034	-0,052
-162,023	-111,227	0,061	-0,009
-161,008	-106,833	0,145	-0,023
-159,993	800,000	0,058	0,130
-158,979	240,681	0,097	0,117
-157,964	-200,000	0,036	-0,167
-156,950	11,367	0,001	-0,001
-155,935	-43,708	0,094	0,034
-154,920	160,381	0,053	0,053
-153,906	641,577	0,075	0,139
-152,891	35,623	-0,185	-0,117
-151,877	223,730	-0,072	-0,084
-150,862	-200,000	-0,002	0,057
-149,847	0,856	-0,096	-0,049
-148,833	800,000	0,042	-0,116
-147,818	-34,470	0,059	-0,023
-146,804	-200,000	-0,012	0,076
-145,789	186,634	-0,107	0,114
-144,775	-61,806	-0,069	-0,021
-143,760	-200,000	0,000	0,117
-142,745	-19,910	-0,067	-0,030
-141,731	-200,000	-0,014	-0,055
-140,716	-200,000	0,002	-0,035
-139,702	199,846	0,065	0,072
-138,687	216,008	0,021	0,024
-137,672	-132,779	-0,119	-0,011
-136,658	787,641	-0,047	-0,093
-135,643	5,396	0,088	-0,047
-134,629	800,000	0,009	-0,023
-133,614	197,828	-0,078	0,086
-132,599	251,467	-0,063	0,077
-131,585	-200,000	-0,048	0,224
-130,570	-67,601	0,085	-0,024
-129,556	-96,515	-0,033	-0,006
-128,541	-200,000	-0,036	-0,158
-127,526	293,656	0,056	-0,074
-126,512	104,961	-0,025	-0,021
-125,497	44,704	-0,089	0,059
-124,483	37,271	-0,101	-0,064
-123,468	-200,000	-0,048	0,203
-122,453	-88,782	-0,077	-0,016
-121,439	64,295	0,062	-0,045
-120,424	612,596	-0,020	-0,036
-119,410	740,080	0,051	-0,098
-118,395	800,000	0,032	0,102
