DTS Sentinel unit serial number:	SN410029Multiplexer serial number:	ORYXHardware model number:	OX2-SRSoftware version number:	ORYX F/W v4,00 Oryx Data Collector v3.7.2.0data status	okinstallation	B5 Nyhavnadifferential loss correction	single-endedforward channel	channel 2reverse channel	N/Adate	2023/12/12time	03:32:13forward acquisition time	300,00reverse acquisition time	0,00gamma	499,1914k internal	0,3156k external	0,3156temperature offset calibration	1,0000default loss term (dB/km)	0,3820temperature slope calibration	1,0000multiplexer offset coefficient	1,0000multiplexer slope coefficient	1,0000fibre end	0,00T internal ref (°C)	15,67T ext. ref 1 (°C)	-0,78T ext. ref 2 (°C)	-1,10length (m)	temperature (°C)	Stokes	anti-Stokes-744,400	-116,155	0,213	0,029
-743,385	9,216	-0,313	-0,174
-742,371	-57,087	0,156	-0,051
-741,356	-23,048	-0,256	0,113
-740,342	35,766	0,112	0,073
-739,327	-25,041	-0,308	0,134
-738,312	-200,000	-0,014	0,059
-737,298	-87,993	-0,357	-0,078
-736,283	64,658	0,059	0,043
-735,269	-130,133	-0,264	0,026
-734,254	98,450	0,122	0,104
-733,239	-82,738	-0,436	-0,103
-732,225	14,272	0,126	0,072
-731,210	-200,000	-0,002	-0,057
-730,196	208,967	0,059	-0,068
-729,181	62,635	-0,105	0,077
-728,167	235,421	-0,016	0,020
-727,152	800,000	-0,054	0,128
-726,137	208,637	0,062	0,071
-725,123	52,717	-0,085	-0,060
-724,108	-200,000	-0,004	-0,059
-723,094	241,906	-0,019	0,024
-722,079	650,179	0,052	-0,098
-721,064	-67,346	-0,113	0,032
-720,050	-200,000	-0,009	-0,084
-719,035	-45,877	-0,101	0,036
-718,021	651,159	0,035	-0,067
-717,006	-200,000	-0,028	-0,139
-715,991	-200,000	0,025	-0,098
-714,977	800,000	-0,077	-0,202
-713,962	800,000	0,022	0,051
-712,948	-200,000	0,048	0,162
-711,933	-18,650	0,063	-0,029
-710,918	24,777	-0,135	-0,082
-709,904	-200,000	-0,001	-0,081
-708,889	-178,012	0,055	0,001
-707,875	-16,254	-0,035	-0,016
-706,860	232,229	0,093	0,113
-705,845	-126,410	0,081	-0,009
-704,831	589,887	-0,089	0,163
-703,816	-45,309	0,077	0,028
-702,802	145,443	0,032	-0,032
-701,787	-200,000	0,016	-0,110
-700,772	300,852	-0,035	-0,048
-699,758	-3,531	0,022	-0,011
-698,743	800,000	0,015	0,042
-697,729	-66,210	0,033	0,009
-696,714	4,199	0,002	-0,001
-695,699	12,706	-0,108	0,061
-694,685	1,556	0,064	-0,034
-693,670	230,076	0,057	-0,069
-692,656	351,286	0,075	0,110
-691,641	-200,000	-0,021	-0,114
-690,627	-200,000	0,002	0,055
-689,612	-93,700	-0,032	0,006
-688,597	0,112	0,055	0,029
-687,583	270,023	-0,042	0,054
-686,568	-62,717	-0,076	-0,023
-685,554	76,239	0,018	-0,014
-684,539	-87,692	-0,105	0,023
-683,524	381,333	0,081	-0,123
-682,510	121,274	0,043	-0,039
-681,495	100,678	-0,030	0,025
-680,481	-200,000	-0,011	0,060
-679,466	800,000	-0,085	-0,191
-678,451	-155,934	-0,103	0,005
-677,437	11,972	-0,070	-0,039
-676,422	-200,000	-0,009	-0,034
-675,408	-163,565	-0,037	0,001
-674,393	224,337	0,047	0,056
-673,378	50,049	-0,071	-0,049
-672,364	800,000	-0,017	-0,056
-671,349	-200,000	0,001	-0,101
-670,335	-200,000	0,009	-0,073
-669,320	391,397	0,076	0,116
-668,305	282,439	-0,067	-0,088
-667,291	-118,355	0,019	-0,003
-666,276	-138,412	-0,141	-0,011
-665,262	-11,511	-0,084	0,040
-664,247	-200,000	0,037	-0,136
-663,232	328,963	0,037	-0,053
-662,218	87,950	-0,020	0,016
-661,203	-200,000	-0,015	-0,088
-660,189	800,000	0,031	0,073
-659,174	800,000	-0,016	0,046
-658,159	-200,000	0,009	-0,048
-657,145	-200,000	-0,020	-0,099
-656,130	-103,649	-0,029	-0,005
-655,116	-44,238	0,070	-0,026
-654,101	-8,958	-0,099	-0,049
-653,086	800,000	0,022	0,069
-652,072	-114,982	-0,091	0,013
-651,057	152,297	0,060	-0,060
-650,043	-91,740	-0,038	-0,008
-649,028	371,987	-0,081	-0,121
-648,014	-73,254	0,050	-0,013
-646,999	403,194	-0,063	0,097
-645,984	468,982	0,048	0,080
-644,970	-2,783	-0,044	-0,022
-643,955	-70,522	-0,089	-0,025
-642,941	-200,000	0,026	-0,240
-641,926	-144,112	-0,123	-0,008
-640,911	-102,969	0,046	-0,008
-639,897	484,885	0,037	0,061
-638,882	568,218	0,028	-0,049
-637,868	800,000	0,011	0,025
-636,853	800,000	-0,032	-0,098
-635,838	125,443	-0,084	0,078
-634,824	-38,148	-0,048	-0,018
-633,809	-200,000	0,053	0,208
-632,795	435,278	-0,032	0,051
-631,780	-200,000	-0,021	-0,075
-630,765	800,000	0,007	0,023
-629,751	125,387	-0,044	-0,040
-628,736	78,333	-0,071	-0,055
-627,722	800,000	0,059	0,136
-626,707	-50,380	-0,070	0,024
-625,692	-112,029	0,087	-0,013
-624,678	-9,477	0,080	-0,039
-623,663	88,228	0,062	-0,051
-622,649	115,555	0,070	-0,063
-621,634	-200,000	-0,003	-0,084
-620,619	800,000	-0,059	-0,129
-619,605	-141,939	-0,066	-0,005
-618,590	-200,000	-0,017	-0,089
-617,576	-200,000	-0,003	0,013
-616,561	-200,000	0,031	-0,122
-615,546	-81,857	-0,153	-0,037
-614,532	800,000	-0,081	-0,184
-613,517	71,910	-0,074	-0,056
-612,503	114,375	0,062	-0,055
-611,488	125,951	-0,069	-0,064
-610,474	-200,000	-0,011	0,156
-609,459	152,189	0,120	-0,120
-608,444	-200,000	0,027	0,090
-607,430	36,722	-0,124	-0,080
-606,415	31,925	0,090	0,057
-605,401	80,424	0,066	-0,052
-604,386	252,539	0,035	0,044
-603,371	339,487	0,069	-0,099
-602,357	141,799	0,118	-0,114
-601,342	-87,397	-0,038	0,008
-600,328	-18,715	-0,224	-0,102
-599,313	-200,000	-0,024	-0,084
-598,298	-200,000	-0,003	-0,031
-597,284	84,291	-0,061	0,049
-596,269	-200,000	0,003	0,030
-595,255	312,844	0,076	-0,106
-594,240	-61,411	0,116	-0,035
-593,225	156,187	-0,074	-0,075
-592,211	149,802	0,038	-0,038
-591,196	-200,000	0,030	-0,140
-590,182	-200,000	0,041	-0,156
-589,167	-164,241	-0,025	0,001
-588,152	383,335	-0,082	0,124
-587,138	-200,000	-0,040	0,172
-586,123	-92,972	0,020	0,004
-585,109	135,656	0,064	-0,061
-584,094	-200,000	-0,008	-0,225
-583,079	90,905	0,073	0,060
-582,065	800,000	0,010	0,024
-581,050	-200,000	-0,009	-0,060
-580,036	-200,000	0,013	0,100
-579,021	-107,255	0,133	-0,021
-578,006	-200,000	-0,004	-0,050
-576,992	183,036	0,086	0,094
-575,977	-14,726	0,032	-0,015
-574,963	58,314	0,087	0,062
-573,948	-200,000	-0,010	-0,058
-572,934	800,000	0,046	0,115
-571,919	47,092	0,106	0,072
-570,904	-80,374	-0,059	0,014
-569,890	-159,015	-0,121	0,005
-568,875	184,839	-0,007	-0,007
-567,861	800,000	0,023	0,051
-566,846	-200,000	0,017	0,149
-565,831	141,751	-0,090	0,087
-564,817	-81,986	0,024	0,006
-563,802	-200,000	0,030	-0,142
-562,788	800,000	-0,017	-0,053
-561,773	-163,564	-0,018	0,001
-560,758	-11,302	0,085	-0,041
-559,744	-103,327	0,068	-0,012
-558,729	-162,365	-0,131	-0,005
-557,715	122,644	-0,028	0,026
-556,700	-133,619	-0,024	0,002
-555,685	101,085	-0,026	-0,022
-554,671	171,586	0,107	0,112
-553,656	-200,000	0,000	-0,102
-552,642	157,629	-0,048	-0,048
-551,627	4,782	0,063	0,034
-550,612	-200,000	-0,016	-0,065
-549,598	-77,331	0,083	-0,021
-548,583	93,290	-0,078	-0,065
-547,569	-200,000	-0,003	-0,030
-546,554	-135,372	0,040	0,003
-545,539	-90,452	-0,073	0,015
-544,525	-200,000	-0,016	0,094
-543,510	-200,000	-0,004	-0,034
-542,496	280,437	-0,054	-0,070
-541,481	-95,466	-0,087	-0,017
-540,466	-69,361	-0,035	0,010
-539,452	56,880	0,013	-0,009
-538,437	-50,077	-0,109	0,038
-537,423	-88,580	-0,118	0,025
-536,408	-200,000	-0,004	-0,097
-535,393	773,363	-0,080	-0,161
-534,379	-34,296	-0,087	0,035
-533,364	427,906	0,035	0,055
-532,350	685,002	0,033	0,062
-531,335	-200,000	-0,003	0,073
-530,321	800,000	0,039	0,092
-529,306	-91,086	0,136	-0,028
-528,291	-64,710	-0,197	-0,058
-527,277	107,891	-0,104	-0,090
-526,262	-200,000	-0,001	0,121
-525,248	-200,000	0,012	0,118
-524,233	128,789	-0,047	0,043
-523,218	-200,000	-0,054	0,190
-522,204	-200,000	-0,020	0,184
-521,189	-200,000	0,002	-0,013
-520,175	-200,000	-0,011	0,081
-519,160	800,000	-0,042	-0,110
-518,145	74,820	-0,040	-0,031
-517,131	-200,000	-0,025	0,115
-516,116	-50,896	-0,104	-0,036
-515,102	270,512	-0,050	-0,064
-514,087	800,000	-0,033	0,068
-513,072	339,667	-0,070	0,100
-512,058	311,376	0,010	0,014
-511,043	421,486	-0,010	0,016
-510,029	800,000	-0,008	0,024
-509,014	800,000	0,040	0,111
-507,999	-81,875	0,079	0,019
-506,985	-54,273	-0,078	0,026
-505,970	434,078	0,057	0,091
-504,956	-127,831	0,123	0,013
-503,941	-116,474	0,073	0,010
-502,926	-52,663	0,066	-0,022
-501,912	391,297	0,133	0,202
-500,897	-200,000	0,014	-0,091
-499,883	-41,157	0,044	-0,017
-498,868	800,000	-0,014	0,035
-497,853	116,334	-0,073	0,066
-496,839	-156,070	0,133	0,006
-495,824	-60,348	-0,046	0,014
-494,810	160,295	0,067	-0,068
-493,795	368,397	-0,028	0,042
-492,781	628,297	0,057	0,106
-491,766	76,562	0,086	-0,066
-490,751	-200,000	0,008	-0,106
-489,737	-31,547	0,089	-0,036
-488,722	-118,472	-0,056	0,007
-487,708	-200,000	0,018	-0,061
-486,693	605,931	-0,049	-0,090
-485,678	-145,234	-0,043	0,003
-484,664	139,750	-0,047	-0,046
-483,649	194,943	-0,027	-0,030
-482,635	114,865	0,084	-0,075
-481,620	231,243	-0,048	0,057
-480,605	502,423	0,054	-0,091
-479,591	44,290	-0,011	0,007
-478,576	-172,052	-0,125	0,003
-477,562	43,559	-0,045	0,030
-476,547	-200,000	0,025	0,167
-475,532	-108,098	-0,035	-0,005
-474,518	32,378	0,042	-0,026
-473,503	800,000	-0,044	-0,090
-472,489	-68,846	0,087	-0,024
-471,474	-200,000	0,013	-0,074
-470,459	14,175	-0,037	-0,021
-469,445	-66,246	-0,105	0,030
-468,430	-52,283	-0,082	0,027
-467,416	-192,156	0,124	0,001
-466,401	-101,217	0,166	-0,029
-465,386	-200,000	-0,001	-0,057
-464,372	-147,383	-0,037	0,002
-463,357	-200,000	-0,002	-0,134
-462,343	381,105	-0,115	-0,173
-461,328	-200,000	0,009	0,034
-460,313	-200,000	-0,004	0,025
-459,299	-200,000	-0,000	-0,089
-458,284	618,043	-0,025	0,046
-457,270	-70,803	-0,042	-0,011
-456,255	800,000	0,025	-0,057
-455,241	-126,054	-0,149	-0,016
-454,226	290,461	0,024	0,031
-453,211	190,611	0,031	0,034
-452,197	-16,275	0,143	0,066
-451,182	146,909	0,065	0,064
-450,168	-200,000	-0,009	0,194
-449,153	49,673	-0,094	-0,064
-448,138	168,681	0,073	-0,076
-447,124	184,552	0,043	0,047
-446,109	50,889	0,090	0,062
-445,095	-31,718	0,050	0,020
-444,080	441,996	-0,043	0,068
-443,065	16,163	0,083	0,047
-442,051	8,613	0,032	0,018
-441,036	334,613	0,100	-0,141
-440,022	-0,563	-0,110	0,057
-439,007	376,068	0,032	0,048
-437,992	614,781	0,058	0,106
-436,978	99,083	0,167	0,141
-435,963	800,000	0,057	0,127
-434,949	-148,291	-0,088	-0,005
-433,934	683,002	0,036	-0,068
-432,919	526,238	-0,063	-0,108
-431,905	53,730	0,134	0,093
-430,890	-151,068	0,118	0,006
-429,876	-200,000	-0,004	0,044
-428,861	-200,000	-0,016	0,164
-427,846	16,580	0,049	-0,028
-426,832	-200,000	-0,044	-0,143
-425,817	165,143	-0,060	-0,061
-424,803	800,000	-0,027	0,058
-423,788	-110,177	0,192	0,029
-422,773	-200,000	0,034	0,134
-421,759	28,064	0,036	0,022
-420,744	-157,766	0,055	0,002
-419,730	-120,875	-0,043	0,005
-418,715	-73,750	-0,121	0,032
-417,701	800,000	0,008	-0,018
-416,686	740,727	-0,042	-0,082
-415,671	1,401	0,065	0,034
-414,657	-200,000	-0,047	0,152
-413,642	-200,000	-0,015	-0,059
-412,628	-52,901	-0,134	-0,045
-411,613	131,987	-0,046	-0,043
-410,598	193,970	0,085	-0,094
-409,584	800,000	0,047	-0,150
-408,569	-200,000	-0,011	-0,048
-407,555	-15,257	0,157	0,073
-406,540	132,804	-0,094	-0,089
-405,525	-200,000	-0,003	0,084
-404,511	-200,000	0,037	-0,151
-403,496	59,661	0,092	-0,066
-402,482	-200,000	0,001	0,072
-401,467	800,000	0,058	0,149
-400,452	408,441	0,055	0,086
-399,438	800,000	0,017	-0,053
-398,423	527,378	0,037	0,064
-397,409	-200,000	0,044	-0,141
-396,394	395,574	0,077	-0,118
-395,379	-10,547	0,097	0,046
-394,365	-8,674	0,063	-0,031
-393,350	-50,742	0,076	0,026
-392,336	-130,517	-0,125	-0,012
-391,321	-200,000	0,001	-0,008
-390,306	60,882	-0,121	0,087
-389,292	800,000	-0,021	-0,059
-388,277	167,028	0,051	0,052
-387,263	34,534	0,106	0,067
-386,248	508,920	0,086	0,145
-385,233	800,000	0,032	-0,100
-384,219	800,000	0,061	-0,171
-383,204	-51,796	-0,064	-0,021
-382,190	181,278	-0,071	-0,076
-381,175	-18,468	0,026	-0,012
-380,160	-200,000	-0,002	0,085
-379,146	740,966	0,043	-0,085
-378,131	708,417	-0,012	-0,022
-377,117	-24,430	0,142	-0,061
-376,102	800,000	-0,020	0,044
-375,088	-151,359	-0,037	-0,002
-374,073	48,850	-0,057	-0,039
-373,058	534,394	-0,045	-0,078
-372,044	102,382	-0,017	0,015
-371,029	-147,719	-0,058	-0,003
-370,015	193,588	-0,033	-0,037
-369,000	19,003	-0,077	0,045
-367,985	-200,000	0,003	-0,108
-366,971	-69,522	-0,068	-0,019
-365,956	-200,000	-0,004	-0,044
-364,942	767,007	0,088	0,174
-363,927	518,865	-0,030	0,052
-362,912	329,899	-0,038	0,053
-361,898	-200,000	-0,005	-0,090
-360,883	174,911	-0,071	0,075
-359,869	-174,822	-0,093	-0,002
-358,854	-200,000	-0,012	-0,055
-357,839	-200,000	-0,012	0,093
-356,825	800,000	0,015	0,034
-355,810	-200,000	-0,033	0,132
-354,796	205,538	-0,026	-0,029
-353,781	800,000	0,025	-0,058
-352,766	-53,977	-0,105	-0,034
-351,752	-200,000	-0,024	0,080
-350,737	800,000	0,047	0,126
-349,723	-200,000	-0,009	0,130
-348,708	-200,000	0,013	0,152
-347,693	2,910	0,148	0,078
-346,679	763,645	0,041	-0,081
-345,664	-200,000	-0,019	-0,085
-344,650	173,223	-0,024	-0,025
-343,635	355,837	0,024	0,034
-342,620	-200,000	0,036	0,182
-341,606	129,348	-0,058	0,054
-340,591	525,584	-0,020	0,035
-339,577	-49,549	0,019	-0,007
-338,562	-2,325	0,053	-0,027
-337,548	499,378	0,007	0,011
-336,533	295,030	-0,094	0,125
-335,518	-84,891	-0,082	-0,019
-334,504	-200,000	-0,007	-0,041
-333,489	31,545	0,070	0,043
-332,475	-56,998	-0,144	-0,046
-331,460	-103,446	-0,105	-0,018
-330,445	199,734	0,056	-0,063
-329,431	-200,000	-0,026	-0,115
-328,416	800,000	-0,042	-0,095
-327,402	381,202	0,055	0,083
-326,387	800,000	0,016	0,041
-325,372	-200,000	-0,009	0,031
-324,358	800,000	-0,028	-0,079
-323,343	91,259	0,091	-0,074
-322,329	352,472	0,081	0,116
-321,314	315,901	0,051	0,070
-320,299	730,303	-0,076	0,149
-319,285	-164,031	0,094	0,003
-318,270	344,150	0,030	0,043
-317,256	-200,000	0,021	-0,088
-316,241	0,468	-0,086	0,045
-315,226	-200,000	0,005	-0,086
-314,212	-173,299	0,179	0,004
-313,197	357,208	-0,073	-0,106
-312,183	282,182	0,052	0,068
-311,168	79,559	-0,052	-0,041
-310,153	-0,060	0,038	-0,020
-309,139	800,000	-0,010	0,027
-308,124	800,000	0,018	0,037
-307,110	718,990	-0,026	-0,050
-306,095	-200,000	-0,005	-0,081
-305,080	800,000	-0,064	0,132
-304,066	-92,886	-0,043	-0,009
-303,051	-200,000	-0,019	-0,195
-302,037	-200,000	0,027	0,173
-301,022	-0,803	0,047	0,024
-300,008	800,000	-0,063	0,152
-298,993	-62,108	0,133	0,040
-297,978	149,230	0,017	-0,017
-296,964	-155,674	-0,071	-0,003
-295,949	-200,000	0,016	-0,054
-294,935	-200,000	-0,005	-0,111
-293,920	-200,000	-0,017	-0,126
-292,905	-200,000	0,001	0,057
-291,891	-200,000	-0,012	0,045
-290,876	0,287	0,040	0,020
-289,862	-103,081	-0,086	0,015
-288,847	800,000	0,035	-0,088
-287,832	-67,460	-0,118	0,033
-286,818	21,141	0,034	-0,020
-285,803	-200,000	-0,013	0,146
-284,789	-87,010	0,045	0,010
-283,774	162,893	0,069	0,070
-282,759	247,915	0,054	-0,067
-281,745	135,692	-0,069	0,065
-280,730	-200,000	0,020	-0,075
-279,716	800,000	-0,049	-0,107
-278,701	72,193	0,026	-0,019
-277,686	-115,416	0,041	0,006
-276,672	62,286	0,093	0,067
-275,657	-10,574	0,086	-0,041
-274,643	61,753	-0,120	0,086
-273,628	-0,817	-0,056	-0,028
-272,613	800,000	0,046	0,125
-271,599	-3,908	0,105	0,053
-270,584	17,866	0,102	0,059
-269,570	-200,000	0,002	0,034
-268,555	800,000	0,008	-0,017
-267,540	-200,000	-0,003	0,019
-266,526	152,244	-0,148	-0,146
-265,511	125,376	0,137	-0,125
-264,497	477,129	0,015	0,024
-263,482	259,845	0,040	0,050
-262,467	511,495	-0,038	0,064
-261,453	120,679	0,006	0,005
-260,438	-7,700	-0,048	0,024
-259,424	800,000	-0,063	-0,134
-258,409	-200,000	-0,002	0,037
-257,395	450,683	0,022	0,035
-256,380	-144,492	-0,045	0,003
-255,365	800,000	-0,061	0,151
-254,351	-200,000	0,009	0,084
-253,336	800,000	0,048	-0,118
-252,322	264,983	-0,050	-0,063
-251,307	800,000	0,025	0,076
-250,292	-200,000	0,015	0,066
-249,278	-200,000	0,030	0,111
-248,263	410,080	-0,030	0,046
-247,249	-200,000	0,009	0,034
-246,234	800,000	0,014	-0,028
-245,219	-200,000	-0,005	-0,068
-244,205	323,496	0,068	-0,094
-243,190	-200,000	-0,154	0,000
-242,176	107,332	0,103	-0,088
-241,161	15,082	0,033	-0,019
-240,146	-200,000	0,012	0,078
-239,132	90,997	-0,028	-0,023
-238,117	800,000	-0,078	-0,226
-237,103	-200,000	-0,045	0,171
-236,088	-200,000	0,004	-0,026
-235,073	-58,018	0,204	0,064
-234,059	225,808	-0,111	-0,131
-233,044	-167,404	-0,111	-0,003
-232,030	-68,411	-0,067	0,019
-231,015	212,776	-0,065	-0,074
-230,000	-43,583	-0,128	-0,046
-228,986	-63,976	0,196	0,058
-227,971	-200,000	-0,013	0,076
-226,957	61,633	0,045	0,032
-225,942	262,310	0,069	0,087
-224,927	47,149	-0,030	-0,020
-223,913	-200,000	0,021	0,127
-222,898	-200,000	-0,005	-0,091
-221,884	64,095	-0,095	0,069
-220,869	211,062	0,133	0,151
-219,855	-72,616	0,115	0,031
-218,840	-80,687	-0,032	0,008
-217,825	191,151	0,074	-0,081
-216,811	634,789	-0,112	-0,206
-215,796	-101,748	-0,161	0,028
-214,782	-174,939	-0,209	-0,004
-213,767	-200,000	0,000	0,066
-212,752	-200,000	-0,011	0,090
-211,738	199,538	0,041	-0,045
-210,723	800,000	-0,013	0,036
-209,709	547,211	-0,043	-0,074
-208,694	-146,006	-0,209	0,013
-207,679	800,000	-0,037	-0,083
-206,665	-5,318	-0,083	0,041
-205,650	9,779	-0,044	0,024
-204,636	-200,000	-0,016	0,154
-203,621	177,716	0,077	0,082
-202,606	19,552	-0,060	-0,035
-201,592	454,194	0,075	-0,120
-200,577	127,965	-0,078	0,072
-199,563	185,547	0,072	-0,077
-198,548	-200,000	0,032	-0,128
-197,533	-110,818	-0,183	-0,027
-196,519	33,048	0,110	0,069
-195,504	800,000	-0,063	0,132
-194,490	125,587	-0,103	0,093
-193,475	-114,081	0,055	-0,008
-192,460	199,133	-0,041	-0,045
-191,446	-112,129	0,054	-0,008
-190,431	240,328	-0,009	-0,011
-189,417	-85,951	0,127	-0,028
-188,402	268,334	-0,041	-0,052
-187,387	209,229	0,057	-0,065
-186,373	-51,210	-0,109	0,036
-185,358	800,000	-0,048	0,133
-184,344	-91,157	-0,063	0,013
-183,329	-11,980	-0,004	-0,002
-182,315	-86,682	0,053	-0,012
-181,300	-200,000	-0,021	-0,087
-180,285	-157,474	-0,143	-0,006
-179,271	88,915	0,084	-0,067
-178,256	387,703	0,033	0,049
-177,242	117,595	0,128	-0,114
-176,227	46,735	0,060	0,040
-175,212	-200,000	-0,009	0,073
-174,198	-25,541	-0,048	-0,020
-173,183	199,590	0,089	0,098
-172,169	-200,000	0,001	-0,194
-171,154	-200,000	0,025	-0,129
-170,139	-151,007	0,040	0,002
-169,125	-200,000	0,028	0,126
-168,110	-200,000	0,044	-0,185
-167,096	800,000	0,033	-0,082
-166,081	468,439	-0,090	-0,146
-165,066	108,011	0,067	-0,057
-164,052	-200,000	0,041	-0,144
-163,037	-200,000	-0,006	0,023
-162,023	-122,878	-0,051	0,006
-161,008	-200,000	0,036	0,123
-159,993	-200,000	0,004	0,067
-158,979	-200,000	-0,024	-0,109
-157,964	169,617	-0,065	-0,067
-156,950	-200,000	0,003	0,016
-155,935	-16,145	-0,129	0,059
-154,920	-109,121	0,021	0,003
-153,906	-200,000	0,037	0,209
-152,891	-121,712	0,106	-0,012
-151,877	-10,061	0,056	0,027
-150,862	-61,481	-0,094	0,028
-149,847	313,945	-0,077	-0,105
-148,833	-36,985	-0,057	-0,022
-147,818	-25,345	0,153	0,065
-146,804	-200,000	0,037	0,166
-145,789	-200,000	0,017	0,133
-144,775	800,000	0,027	0,072
-143,760	-114,970	-0,136	0,018
-142,745	-21,088	0,198	-0,087
-141,731	-132,727	-0,031	-0,003
-140,716	800,000	0,006	0,021
-139,702	-200,000	-0,000	0,069
-138,687	-22,719	0,081	0,035
-137,672	219,713	-0,067	-0,078
-136,658	-59,472	0,178	-0,055
-135,643	-3,742	0,101	-0,050
-134,629	-110,174	-0,190	0,028
-133,614	-131,119	0,100	-0,009
-132,599	287,053	-0,007	0,010
-131,585	640,374	0,053	-0,098
-130,570	-200,000	0,003	0,061
-129,556	96,659	-0,101	0,084
-128,541	800,000	-0,019	0,044
-127,526	408,362	-0,061	0,093
-126,512	-34,281	0,060	0,023
-125,497	-200,000	-0,044	0,171
-124,483	118,114	0,063	-0,056
-123,468	-200,000	0,002	-0,057
-122,453	-99,437	0,100	0,018
-121,439	83,482	-0,154	-0,121
-120,424	-200,000	-0,025	-0,121
