DTS Sentinel unit serial number:	SN410029Multiplexer serial number:	ORYXHardware model number:	OX2-SRSoftware version number:	ORYX F/W v4,00 Oryx Data Collector v3.7.2.0data status	okinstallation	B5 Nyhavnadifferential loss correction	single-endedforward channel	channel 2reverse channel	N/Adate	2023/12/14time	06:42:13forward acquisition time	300,00reverse acquisition time	0,00gamma	499,1914k internal	0,3158k external	0,3158temperature offset calibration	1,0000default loss term (dB/km)	0,3820temperature slope calibration	1,0000multiplexer offset coefficient	1,0000multiplexer slope coefficient	1,0000fibre end	0,00T internal ref (°C)	7,38T ext. ref 1 (°C)	-9,09T ext. ref 2 (°C)	-9,18length (m)	temperature (°C)	Stokes	anti-Stokes-744,400	-126,622	0,162	-0,018
-743,385	-106,297	-0,332	-0,054
-742,371	-200,000	0,021	0,086
-741,356	-65,913	-0,340	-0,100
-740,342	151,570	0,173	0,173
-739,327	-146,532	-0,390	-0,025
-738,312	-200,000	-0,020	0,091
-737,298	-130,724	-0,371	-0,036
-736,283	-54,765	0,219	0,072
-735,269	-92,697	-0,447	0,091
-734,254	-200,000	0,006	0,086
-733,239	-86,755	-0,514	-0,115
-732,225	168,137	0,225	0,236
-731,210	-200,000	0,000	-0,013
-730,196	800,000	-0,036	-0,102
-729,181	72,354	-0,037	0,028
-728,167	-200,000	0,013	0,054
-727,152	459,324	-0,071	-0,116
-726,137	63,539	-0,130	-0,096
-725,123	800,000	0,023	0,051
-724,108	341,886	-0,063	0,091
-723,094	649,008	-0,093	-0,175
-722,079	-63,513	-0,081	0,024
-721,064	-12,054	-0,112	-0,054
-720,050	800,000	-0,062	-0,146
-719,035	-105,043	0,150	0,025
-718,021	175,854	-0,110	-0,117
-717,006	-56,529	0,070	-0,023
-715,991	173,583	-0,188	-0,200
-714,977	165,223	0,030	0,031
-713,962	242,219	-0,054	-0,066
-712,948	126,336	-0,111	0,103
-711,933	800,000	-0,004	0,011
-710,918	215,404	0,026	0,030
-709,904	95,096	-0,178	0,149
-708,889	800,000	-0,015	0,042
-707,875	800,000	-0,029	-0,064
-706,860	-17,474	0,008	0,004
-705,845	-200,000	-0,001	-0,049
-704,831	0,388	0,009	0,005
-703,816	253,886	0,071	0,089
-702,802	56,006	-0,082	0,058
-701,787	135,022	-0,007	0,006
-700,772	-200,000	0,000	0,073
-699,758	-200,000	0,002	-0,088
-698,743	-66,341	0,086	-0,025
-697,729	-147,554	0,081	0,005
-696,714	-199,119	0,037	-0,000
-695,699	800,000	0,046	-0,134
-694,685	404,026	-0,093	-0,144
-693,670	-200,000	0,004	-0,051
-692,656	124,394	-0,106	-0,098
-691,641	-6,715	0,092	-0,046
-690,627	225,281	0,030	0,036
-689,612	309,422	0,047	-0,064
-688,597	-19,911	-0,113	-0,051
-687,583	69,907	-0,183	-0,139
-686,568	-200,000	-0,001	-0,069
-685,554	-137,097	0,103	-0,009
-684,539	-165,182	-0,147	-0,005
-683,524	454,667	-0,098	0,160
-682,510	52,576	-0,057	-0,040
-681,495	-7,525	0,090	-0,045
-680,481	-14,842	0,035	-0,017
-679,466	714,024	-0,065	0,127
-678,451	92,230	-0,047	0,039
-677,437	10,944	0,073	-0,041
-676,422	138,198	0,064	-0,061
-675,408	577,193	-0,029	0,053
-674,393	-126,787	0,044	-0,005
-673,378	-200,000	-0,025	0,132
-672,364	224,606	-0,024	0,028
-671,349	-106,433	-0,127	-0,021
-670,335	70,935	0,044	0,033
-669,320	-155,544	0,060	0,003
-668,305	-125,312	0,109	-0,012
-667,291	800,000	0,044	0,098
-666,276	800,000	-0,089	-0,184
-665,262	-200,000	-0,010	-0,064
-664,247	800,000	-0,054	0,152
-663,232	104,617	-0,099	-0,086
-662,218	-22,372	-0,020	0,009
-661,203	800,000	0,030	0,068
-660,189	580,803	-0,038	0,069
-659,174	-200,000	-0,019	0,162
-658,159	-137,775	-0,113	0,009
-657,145	-1,378	-0,094	0,048
-656,130	289,352	-0,051	0,068
-655,116	521,673	-0,062	0,108
-654,101	-200,000	0,016	0,093
-653,086	800,000	0,011	0,024
-652,072	330,738	0,077	-0,109
-651,057	-37,585	-0,069	-0,027
-650,043	403,683	0,020	-0,031
-649,028	-79,507	0,033	-0,008
-648,014	-200,000	-0,017	0,147
-646,999	-200,000	0,011	-0,153
-645,984	800,000	0,049	0,156
-644,970	-62,026	-0,126	-0,038
-643,955	-200,000	-0,002	-0,153
-642,941	316,121	0,025	0,035
-641,926	-200,000	0,025	0,116
-640,911	800,000	0,014	-0,039
-639,897	-200,000	0,016	0,081
-638,882	800,000	-0,060	-0,178
-637,868	84,393	-0,077	0,061
-636,853	-200,000	-0,041	-0,189
-635,838	181,633	-0,122	0,132
-634,824	-200,000	-0,002	0,079
-633,809	26,706	-0,041	0,025
-632,795	-200,000	0,000	0,041
-631,780	-117,791	-0,044	0,006
-630,765	225,972	0,074	-0,088
-629,751	-200,000	-0,034	-0,119
-628,736	82,783	-0,044	-0,035
-627,722	-200,000	0,027	0,132
-626,707	-200,000	0,005	-0,140
-625,692	800,000	0,020	0,050
-624,678	507,756	0,023	-0,039
-623,663	-82,034	-0,066	0,016
-622,649	-200,000	0,014	-0,097
-621,634	800,000	0,035	0,085
-620,619	-200,000	0,000	-0,080
-619,605	71,187	0,101	0,077
-618,590	-90,145	0,130	-0,028
-617,576	-200,000	0,028	0,105
-616,561	201,336	0,044	-0,050
-615,546	800,000	0,041	-0,109
-614,532	124,657	-0,110	-0,102
-613,517	-100,641	-0,101	-0,018
-612,503	11,317	0,135	-0,076
-611,488	67,226	-0,149	0,112
-610,474	28,396	-0,006	-0,004
-609,459	-22,664	-0,156	-0,069
-608,444	-200,000	0,023	-0,078
-607,430	-200,000	-0,013	-0,173
-606,415	-200,000	-0,025	-0,288
-605,401	16,830	0,107	0,062
-604,386	-200,000	0,012	-0,118
-603,371	-200,000	0,015	-0,057
-602,357	-163,007	-0,069	-0,002
-601,342	116,717	0,136	-0,123
-600,328	-72,789	-0,079	-0,021
-599,313	-200,000	-0,024	0,094
-598,298	301,697	-0,050	0,068
-597,284	213,916	0,057	-0,066
-596,269	-119,987	0,156	-0,019
-595,255	-200,000	-0,005	-0,033
-594,240	358,540	0,044	-0,065
-593,225	-100,391	-0,047	0,008
-592,211	800,000	-0,054	0,121
-591,196	58,245	0,073	-0,052
-590,182	-90,439	-0,081	0,017
-589,167	-200,000	0,000	0,062
-588,152	69,888	-0,051	-0,039
-587,138	-103,417	-0,092	0,016
-586,123	76,740	-0,173	-0,134
-585,109	-163,732	-0,005	0,000
-584,094	-132,390	0,100	-0,009
-583,079	482,190	0,021	-0,035
-582,065	-200,000	0,012	0,093
-581,050	-39,421	0,053	0,020
-580,036	282,790	-0,054	0,071
-579,021	-88,176	-0,173	0,038
-578,006	121,893	-0,013	0,012
-576,992	-189,451	-0,035	0,000
-575,977	-141,603	-0,037	-0,003
-574,963	177,203	-0,048	0,051
-573,948	-57,560	0,035	-0,011
-572,934	346,850	0,061	0,088
-571,919	-184,412	0,082	0,001
-570,904	-161,808	0,134	-0,005
-569,890	122,557	-0,035	-0,032
-568,875	-200,000	0,025	0,109
-567,861	779,062	0,076	0,152
-566,846	800,000	-0,021	-0,049
-565,831	551,992	0,045	0,080
-564,817	-22,282	0,119	-0,053
-563,802	-200,000	0,012	-0,084
-562,788	-10,047	-0,068	0,033
-561,773	-108,035	0,088	0,014
-560,758	-7,355	-0,065	-0,032
-559,744	33,243	0,099	0,063
-558,729	-200,000	0,056	-0,204
-557,715	-118,053	-0,098	0,013
-556,700	-200,000	-0,015	-0,087
-555,685	800,000	-0,002	0,004
-554,671	552,052	-0,049	0,087
-553,656	800,000	-0,036	0,081
-552,642	-117,960	0,100	0,013
-551,627	800,000	0,017	-0,054
-550,612	-200,000	-0,008	-0,086
-549,598	75,626	0,082	-0,063
-548,583	-200,000	0,002	-0,060
-547,569	444,406	0,065	-0,104
-546,554	800,000	0,037	-0,096
-545,539	107,548	0,068	0,059
-544,525	178,553	-0,087	0,093
-543,510	-200,000	0,018	0,060
-542,496	546,476	-0,035	0,062
-541,481	800,000	-0,015	-0,039
-540,466	-6,081	-0,040	0,020
-539,452	537,394	0,063	0,110
-538,437	800,000	-0,050	-0,113
-537,423	282,493	0,097	0,128
-536,408	185,993	-0,056	-0,060
-535,393	-200,000	-0,002	-0,068
-534,379	-200,000	0,023	-0,104
-533,364	-200,000	-0,009	0,079
-532,350	377,772	0,074	0,111
-531,335	-39,932	0,174	0,066
-530,321	-102,397	-0,135	-0,023
-529,306	225,285	0,080	0,095
-528,291	211,764	0,029	-0,034
-527,277	-95,381	-0,075	-0,015
-526,262	800,000	-0,071	0,175
-525,248	175,148	0,021	-0,022
-524,233	-200,000	0,002	0,044
-523,218	310,696	0,065	-0,090
-522,204	-30,062	0,019	0,008
-521,189	-108,574	-0,078	0,012
-520,175	-200,000	-0,028	-0,101
-519,160	-200,000	-0,022	-0,082
-518,145	-200,000	-0,003	-0,224
-517,131	10,607	-0,122	0,068
-516,116	-200,000	-0,000	0,056
-515,102	800,000	0,036	-0,107
-514,087	800,000	-0,014	-0,045
-513,072	-29,713	-0,049	-0,020
-512,058	229,366	-0,070	-0,083
-511,043	216,455	-0,092	-0,107
-510,029	-200,000	0,012	-0,064
-509,014	225,791	-0,108	0,128
-507,999	213,812	0,067	-0,077
-506,985	-21,945	0,040	-0,018
-505,970	-200,000	0,013	-0,078
-504,956	39,000	0,072	-0,047
-503,941	-70,848	0,104	-0,028
-502,926	-200,000	-0,041	-0,153
-501,912	15,822	0,094	-0,054
-500,897	-200,000	0,013	0,081
-499,883	-200,000	-0,009	-0,057
-498,868	479,882	-0,100	-0,166
-497,853	-71,475	0,053	0,014
-496,839	-200,000	0,018	-0,096
-495,824	-200,000	0,007	0,089
-494,810	800,000	-0,035	-0,082
-493,795	-24,008	0,075	0,033
-492,781	-87,210	-0,059	-0,013
-491,766	-112,493	0,055	0,008
-490,751	303,995	0,074	-0,101
-489,737	-26,923	-0,046	0,020
-488,722	17,035	0,101	-0,058
-487,708	332,587	0,046	0,064
-486,693	-26,164	0,075	-0,032
-485,678	-200,000	-0,002	-0,032
-484,664	800,000	-0,027	-0,071
-483,649	169,356	0,059	-0,061
-482,635	-47,788	-0,088	0,031
-481,620	143,430	0,090	0,088
-480,605	775,841	0,064	0,129
-479,591	-200,000	-0,005	-0,063
-478,576	800,000	0,014	-0,041
-477,562	-120,574	0,085	0,010
-476,547	-200,000	0,013	-0,064
-475,532	-171,887	-0,085	-0,002
-474,518	-54,976	-0,028	0,009
-473,503	-200,000	0,038	-0,132
-472,489	-200,000	0,005	-0,061
-471,474	-186,508	-0,061	0,001
-470,459	172,894	0,015	0,016
-469,445	-64,408	-0,057	-0,017
-468,430	29,182	0,047	-0,029
-467,416	-56,894	0,101	0,032
-466,401	800,000	-0,005	-0,012
-465,386	800,000	-0,058	0,153
-464,372	3,141	-0,083	-0,044
-463,357	115,702	-0,132	-0,118
-462,343	140,698	-0,034	-0,032
-461,328	-20,637	0,048	0,021
-460,313	-99,918	0,026	-0,005
-459,299	663,862	0,066	0,125
-458,284	-200,000	-0,026	0,185
-457,270	180,065	0,056	-0,060
-456,255	249,722	0,040	-0,049
-455,241	-200,000	0,003	-0,017
-454,226	-200,000	-0,014	-0,054
-453,211	-107,949	-0,098	0,015
-452,197	-62,476	-0,143	0,043
-451,182	800,000	0,017	-0,035
-450,168	800,000	0,066	-0,159
-449,153	-200,000	-0,023	-0,159
-448,138	-200,000	0,013	-0,055
-447,124	180,394	-0,136	-0,146
-446,109	800,000	0,026	-0,079
-445,095	-45,150	-0,099	0,036
-444,080	511,731	0,057	0,097
-443,065	139,416	0,076	-0,073
-442,051	274,960	-0,034	-0,044
-441,036	-200,000	-0,010	-0,058
-440,022	-144,706	-0,102	-0,007
-439,007	-28,629	0,133	-0,056
-437,992	30,160	-0,031	0,020
-436,978	800,000	0,009	-0,019
-435,963	-200,000	-0,024	0,127
-434,949	-10,864	-0,061	-0,029
-433,934	244,165	0,022	0,027
-432,919	-200,000	0,006	-0,044
-431,905	-200,000	0,027	0,150
-430,890	-32,844	0,095	0,038
-429,876	-18,911	-0,043	-0,020
-428,861	-96,643	0,091	0,017
-427,846	410,478	0,029	0,045
-426,832	3,301	0,100	-0,053
-425,817	-118,830	-0,202	-0,026
-424,803	-102,613	0,039	0,007
-423,788	-87,113	0,078	0,017
-422,773	-11,541	-0,056	-0,027
-421,759	12,645	0,138	0,077
-420,744	-200,000	0,002	-0,091
-419,730	-150,197	-0,097	0,005
-418,715	-200,000	-0,002	-0,060
-417,701	355,317	0,061	-0,088
-416,686	-147,274	0,090	0,005
-415,671	14,095	0,047	0,027
-414,657	-131,939	0,065	-0,006
-413,642	266,018	0,019	0,024
-412,628	322,408	0,098	-0,136
-411,613	-59,316	-0,063	-0,020
-410,598	-13,644	-0,118	0,056
-409,584	-200,000	0,011	0,098
-408,569	29,230	0,063	0,039
-407,555	298,838	0,040	-0,054
-406,540	-200,000	-0,023	-0,113
-405,525	-200,000	-0,023	0,087
-404,511	45,195	-0,095	-0,064
-403,496	-93,707	-0,104	0,021
-402,482	-200,000	-0,020	-0,133
-401,467	-200,000	-0,020	-0,066
-400,452	3,746	0,133	-0,071
-399,438	375,540	0,038	0,056
-398,423	-39,847	0,042	-0,016
-397,409	570,433	0,030	-0,053
-396,394	-11,917	-0,077	0,036
-395,379	71,247	0,076	0,057
-394,365	8,002	0,088	0,048
-393,350	-59,784	0,043	-0,013
-392,336	800,000	0,005	-0,012
-391,321	380,994	-0,065	-0,097
-390,306	27,617	-0,119	0,073
-389,292	30,783	0,017	0,011
-388,277	800,000	0,030	0,085
-387,263	60,386	-0,014	-0,010
-386,248	24,839	0,107	-0,064
-385,233	-160,554	0,076	0,003
-384,219	-75,988	0,032	-0,008
-383,204	-150,246	-0,061	-0,003
-382,190	-101,770	-0,144	0,025
-381,175	17,556	-0,108	-0,062
-380,160	-200,000	-0,007	0,051
-379,146	116,376	0,116	0,104
-378,131	208,996	0,029	0,033
-377,117	4,019	-0,047	-0,025
-376,102	800,000	0,068	0,204
-375,088	-200,000	0,009	0,092
-374,073	-42,768	-0,073	0,027
-373,058	-114,519	0,046	0,006
-372,044	716,723	-0,020	0,040
-371,029	230,306	0,019	0,023
-370,015	166,430	-0,078	0,080
-369,000	-200,000	-0,055	-0,195
-367,985	-176,457	-0,157	0,003
-366,971	800,000	0,039	0,091
-365,956	800,000	0,037	0,108
-364,942	53,859	0,051	0,035
-363,927	800,000	-0,022	-0,059
-362,912	-95,810	0,124	-0,024
-361,898	-179,758	-0,125	0,002
-360,883	800,000	-0,020	0,065
-359,869	9,962	-0,087	0,048
-358,854	800,000	0,022	-0,070
-357,839	-75,606	0,095	0,024
-356,825	-153,957	0,077	0,004
-355,810	-25,881	-0,080	0,034
-354,796	30,933	-0,135	0,084
-353,781	10,953	0,086	0,047
-352,766	477,304	0,085	0,140
-351,752	-200,000	0,002	-0,127
-350,737	166,613	0,073	0,075
-349,723	800,000	0,038	0,094
-348,708	151,273	0,034	0,034
-347,693	100,161	0,094	0,079
-346,679	716,464	-0,069	-0,134
-345,664	-200,000	0,001	0,020
-344,650	-200,000	-0,004	0,045
-343,635	800,000	0,023	0,066
-342,620	325,770	-0,052	0,072
-341,606	-200,000	0,005	0,104
-340,591	142,582	0,074	0,072
-339,577	800,000	0,024	-0,057
-338,562	291,821	-0,006	-0,008
-337,548	77,765	-0,008	-0,006
-336,533	-200,000	-0,021	0,091
-335,518	458,477	-0,054	0,087
-334,504	-200,000	-0,015	0,188
-333,489	-200,000	-0,016	-0,102
-332,475	-68,348	-0,115	-0,032
-331,460	-200,000	-0,021	-0,129
-330,445	-200,000	0,010	0,091
-329,431	443,921	0,117	0,187
-328,416	-40,266	-0,032	-0,012
-327,402	-125,188	0,037	-0,004
-326,387	-8,551	0,033	0,016
-325,372	315,980	-0,039	-0,053
-324,358	-200,000	-0,002	-0,033
-323,343	800,000	0,014	-0,044
-322,329	237,628	0,056	-0,067
-321,314	-200,000	0,013	-0,130
-320,299	-13,068	-0,055	0,026
-319,285	800,000	-0,036	0,092
-318,270	-124,108	0,069	-0,008
-317,256	-55,630	-0,129	0,042
-316,241	-154,960	-0,051	-0,002
-315,226	85,282	0,113	0,090
-314,212	168,129	0,135	-0,140
-313,197	133,207	-0,012	0,011
-312,183	295,801	-0,038	0,051
-311,168	351,696	0,035	-0,050
-310,153	-200,000	-0,003	0,056
-309,139	-105,638	-0,103	0,017
-308,124	305,208	0,100	0,135
-307,110	800,000	0,091	0,198
-306,095	290,004	0,122	0,161
-305,080	-200,000	-0,006	-0,040
-304,066	-200,000	0,006	0,044
-303,051	2,797	-0,159	-0,083
-302,037	800,000	0,023	-0,061
-301,022	3,221	0,123	0,065
-300,008	0,332	-0,063	0,032
-298,993	-30,344	-0,039	0,016
-297,978	-7,759	-0,027	-0,013
-296,964	800,000	0,038	-0,094
-295,949	-41,973	-0,050	0,019
-294,935	-200,000	-0,022	-0,111
-293,920	71,929	0,136	-0,103
-292,905	402,261	-0,070	0,107
-291,891	-79,446	-0,041	-0,010
-290,876	-200,000	-0,003	-0,012
-289,862	108,798	-0,052	0,045
-288,847	489,438	0,054	0,089
-287,832	49,701	-0,175	0,119
-286,818	29,485	0,115	-0,071
-285,803	63,563	0,123	0,089
-284,789	-200,000	0,001	-0,055
-283,774	203,913	-0,121	0,136
-282,759	-12,129	-0,009	0,004
-281,745	169,236	0,078	-0,081
-280,730	-200,000	0,006	-0,095
-279,716	800,000	0,031	-0,073
-278,701	-72,647	0,060	0,016
-277,686	-200,000	0,024	0,121
-276,672	-117,341	-0,056	-0,007
-275,657	-200,000	0,004	-0,032
-274,643	-132,191	-0,033	0,003
-273,628	-114,404	-0,053	0,007
-272,613	244,322	-0,097	-0,119
-271,599	-200,000	0,009	0,078
-270,584	-118,640	-0,060	0,008
-269,570	28,180	0,017	0,011
-268,555	-43,833	-0,076	0,028
-267,540	75,063	-0,040	-0,030
-266,526	-200,000	-0,007	-0,069
-265,511	-40,910	-0,168	-0,063
-264,497	152,512	-0,143	0,142
-263,482	-200,000	-0,010	0,072
-262,467	189,268	0,054	0,058
-261,453	95,125	-0,038	0,031
-260,438	800,000	0,017	0,042
-259,424	163,961	-0,099	-0,101
-258,409	800,000	-0,022	-0,067
-257,395	800,000	0,021	-0,051
-256,380	-42,819	0,156	0,057
-255,365	655,426	0,043	0,081
-254,351	119,832	0,078	0,070
-253,336	234,261	0,017	-0,020
-252,322	-99,760	-0,170	0,031
-251,307	-200,000	-0,007	-0,133
-250,292	49,847	-0,086	-0,059
-249,278	106,066	-0,007	0,006
-248,263	800,000	0,027	0,080
-247,249	418,390	-0,018	0,028
-246,234	206,543	0,049	0,055
-245,219	328,671	-0,031	0,043
-244,205	-17,034	-0,093	-0,042
-243,190	620,231	0,091	0,167
-242,176	648,147	0,031	0,058
-241,161	-59,869	-0,083	-0,025
-240,146	61,249	0,139	0,100
-239,132	460,641	0,066	0,107
-238,117	222,694	-0,090	-0,105
-237,103	-53,825	0,132	-0,043
-236,088	-200,000	0,004	-0,094
-235,073	-33,423	-0,065	-0,026
-234,059	-82,114	0,233	0,055
-233,044	-6,435	-0,005	0,003
-232,030	-0,177	0,015	-0,008
-231,015	800,000	-0,016	-0,046
-230,000	-75,120	-0,209	0,054
-228,986	-200,000	-0,006	0,077
-227,971	-200,000	0,011	0,060
-226,957	43,555	0,131	-0,086
-225,942	-200,000	-0,028	-0,145
-224,927	-200,000	0,017	0,183
-223,913	309,305	-0,035	-0,048
-222,898	-99,129	-0,068	0,012
-221,884	-158,101	0,048	-0,002
-220,869	800,000	-0,064	-0,135
-219,855	-200,000	-0,007	-0,060
-218,840	107,005	-0,049	0,042
-217,825	-131,626	-0,087	0,008
-216,811	132,467	-0,029	-0,027
-215,796	800,000	-0,013	0,028
-214,782	-6,283	-0,049	-0,024
-213,767	800,000	0,014	-0,041
-212,752	358,262	0,019	0,027
-211,738	800,000	0,029	0,065
-210,723	551,640	0,018	-0,031
-209,709	-110,870	-0,123	-0,018
-208,694	800,000	-0,061	-0,183
-207,679	800,000	0,009	-0,026
-206,665	-111,532	0,105	-0,015
-205,650	-6,616	0,124	-0,061
-204,636	-200,000	-0,048	0,191
-203,621	-200,000	-0,002	0,109
-202,606	10,137	-0,094	-0,051
-201,592	-101,811	0,140	0,024
-200,577	308,886	0,083	-0,112
-199,563	452,357	0,037	0,059
-198,548	800,000	-0,023	0,063
-197,533	-200,000	-0,013	0,074
-196,519	-200,000	-0,002	-0,013
-195,504	-36,443	-0,041	0,016
-194,490	341,752	-0,050	0,070
-193,475	800,000	-0,047	-0,101
-192,460	800,000	0,057	0,159
-191,446	-46,639	0,185	0,065
-190,431	-33,368	-0,076	-0,030
-189,417	-145,001	-0,061	-0,004
-188,402	56,936	-0,151	-0,106
-187,387	177,875	0,064	-0,067
-186,373	-5,801	0,075	0,037
-185,358	-200,000	0,015	-0,107
-184,344	418,155	-0,024	0,038
-183,329	-200,000	-0,003	0,035
-182,315	133,647	-0,048	0,045
-181,300	651,098	0,065	0,121
-180,285	95,352	-0,105	-0,087
-179,271	-115,873	-0,041	-0,005
-178,256	-75,876	-0,018	-0,004
-177,242	77,629	-0,096	0,073
-176,227	-200,000	-0,003	0,055
-175,212	33,046	0,074	0,046
-174,198	439,460	0,068	0,107
-173,183	-200,000	-0,012	0,066
-172,169	57,988	-0,129	0,091
-171,154	-200,000	0,014	0,080
-170,139	79,900	-0,097	0,075
-169,125	-67,455	0,045	0,013
-168,110	-200,000	-0,043	0,212
-167,096	800,000	0,039	0,082
-166,081	-200,000	-0,016	-0,109
-165,066	124,320	-0,073	0,066
-164,052	-176,015	0,076	-0,001
-163,037	-51,388	-0,115	0,039
-162,023	370,475	0,076	0,112
-161,008	800,000	0,049	-0,142
-159,993	-200,000	0,021	-0,075
-158,979	107,393	-0,061	-0,053
-157,964	-97,366	0,034	-0,006
-156,950	178,928	-0,034	0,035
-155,935	126,952	0,111	0,101
-154,920	-51,737	0,079	-0,026
-153,906	454,898	0,013	-0,020
-152,891	-200,000	-0,027	-0,180
-151,877	204,394	-0,056	-0,063
-150,862	635,026	0,028	0,051
-149,847	121,179	-0,028	0,025
-148,833	788,807	0,056	0,112
-147,818	800,000	-0,074	0,161
-146,804	103,910	0,074	0,063
-145,789	-200,000	-0,007	-0,034
-144,775	-4,238	0,108	-0,054
-143,760	800,000	0,054	-0,114
-142,745	476,840	-0,043	-0,070
-141,731	800,000	-0,023	-0,066
-140,716	72,493	0,098	-0,074
-139,702	37,773	-0,061	-0,039
-138,687	50,421	0,080	0,055
-137,672	51,155	-0,046	-0,032
-136,658	-79,565	-0,084	-0,020
-135,643	132,094	0,050	0,046
-134,629	-200,000	-0,052	-0,196
-133,614	800,000	-0,058	0,143
-132,599	800,000	-0,040	0,093
-131,585	-29,395	-0,126	0,052
-130,570	-200,000	0,022	0,076
-129,556	299,420	-0,036	0,048
-128,541	-200,000	0,013	0,092
-127,526	800,000	-0,037	-0,079
-126,512	797,246	0,010	0,021
-125,497	95,882	0,074	0,061
-124,483	-200,000	0,017	0,091
-123,468	37,249	-0,095	0,060
-122,453	133,358	-0,117	-0,109
-121,439	103,371	-0,078	-0,066
-120,424	-200,000	0,001	-0,079
-119,410	146,469	-0,073	0,071
