DTS Sentinel unit serial number:	SN410029Multiplexer serial number:	ORYXHardware model number:	OX2-SRSoftware version number:	ORYX F/W v4,00 Oryx Data Collector v3.7.2.0data status	okinstallation	B5 Nyhavnadifferential loss correction	single-endedforward channel	channel 2reverse channel	N/Adate	2023/12/13time	19:57:13forward acquisition time	300,00reverse acquisition time	0,00gamma	499,1914k internal	0,3159k external	0,3159temperature offset calibration	1,0000default loss term (dB/km)	0,3820temperature slope calibration	1,0000multiplexer offset coefficient	1,0000multiplexer slope coefficient	1,0000fibre end	0,00T internal ref (°C)	11,24T ext. ref 1 (°C)	-5,82T ext. ref 2 (°C)	-5,88length (m)	temperature (°C)	Stokes	anti-Stokes-744,400	4,262	0,102	0,055
-743,385	-200,000	-0,390	0,000
-742,371	332,075	0,064	-0,091
-741,356	-161,130	-0,294	-0,011
-740,342	373,193	0,101	0,152
-739,327	-43,361	-0,302	0,112
-738,312	-200,000	0,002	0,118
-737,298	-158,676	-0,423	-0,018
-736,283	-163,451	0,187	0,006
-735,269	-141,775	-0,267	-0,019
-734,254	-51,252	0,280	0,096
-733,239	10,549	-0,480	-0,268
-732,225	-38,204	0,255	0,099
-731,210	800,000	-0,027	0,076
-730,196	-164,488	0,047	0,002
-729,181	800,000	-0,061	0,126
-728,167	466,879	0,055	-0,092
-727,152	153,608	0,027	-0,027
-726,137	144,244	-0,091	-0,090
-725,123	-200,000	-0,019	-0,066
-724,108	-200,000	-0,145	0,000
-723,094	214,731	-0,089	-0,104
-722,079	-161,661	-0,075	-0,003
-721,064	-200,000	-0,039	-0,145
-720,050	43,063	0,044	-0,030
-719,035	142,581	-0,045	-0,044
-718,021	30,549	-0,209	-0,132
-717,006	-2,186	0,090	-0,046
-715,991	-71,293	-0,115	-0,031
-714,977	-154,100	-0,051	0,003
-713,962	105,892	0,091	-0,079
-712,948	94,688	0,043	-0,036
-711,933	-200,000	-0,016	-0,063
-710,918	800,000	-0,012	-0,036
-709,904	-17,512	0,109	0,050
-708,889	11,328	-0,102	-0,057
-707,875	168,466	-0,077	-0,080
-706,860	145,260	-0,048	0,047
-705,845	-200,000	0,015	-0,098
-704,831	-77,477	0,039	0,010
-703,816	62,251	0,058	0,042
-702,802	-85,494	0,175	0,040
-701,787	-61,156	-0,082	0,025
-700,772	-118,654	-0,100	-0,013
-699,758	800,000	-0,009	-0,019
-698,743	161,740	-0,062	0,064
-697,729	34,544	0,137	0,088
-696,714	-200,000	-0,024	-0,202
-695,699	3,556	-0,080	0,043
-694,685	-91,735	0,057	0,012
-693,670	800,000	-0,074	-0,153
-692,656	574,549	0,057	0,103
-691,641	800,000	-0,019	-0,060
-690,627	-26,118	-0,023	-0,010
-689,612	-15,097	0,013	0,006
-688,597	100,096	-0,040	0,034
-687,583	-200,000	-0,029	-0,119
-686,568	-200,000	0,028	0,149
-685,554	800,000	0,076	-0,202
-684,539	751,477	0,076	-0,152
-683,524	82,269	-0,078	0,062
-682,510	-63,592	-0,064	-0,019
-681,495	-91,204	-0,152	-0,032
-680,481	-200,000	-0,022	-0,089
-679,466	12,420	-0,050	-0,028
-678,451	564,013	-0,052	-0,093
-677,437	531,792	0,021	0,036
-676,422	-200,000	-0,006	0,073
-675,408	287,291	-0,020	0,027
-674,393	-124,596	-0,221	0,025
-673,378	-12,450	-0,100	-0,048
-672,364	31,251	0,140	0,088
-671,349	-200,000	0,017	-0,125
-670,335	473,693	0,015	0,025
-669,320	800,000	0,017	0,052
-668,305	153,328	0,074	-0,074
-667,291	-7,572	0,097	0,048
-666,276	-39,517	-0,119	-0,046
-665,262	220,066	-0,069	-0,081
-664,247	-70,813	-0,018	-0,005
-663,232	60,815	0,071	0,051
-662,218	-200,000	-0,000	0,031
-661,203	749,414	-0,030	-0,060
-660,189	-200,000	-0,019	-0,079
-659,174	457,800	-0,121	-0,198
-658,159	4,876	-0,150	-0,081
-657,145	153,735	-0,089	0,089
-656,130	-98,415	0,105	-0,020
-655,116	100,020	0,058	-0,049
-654,101	-162,835	-0,073	-0,003
-653,086	422,254	-0,056	-0,089
-652,072	568,988	0,077	-0,138
-651,057	4,493	-0,104	-0,056
-650,043	-200,000	-0,010	-0,040
-649,028	-67,773	-0,097	0,028
-648,014	800,000	-0,021	-0,048
-646,999	794,837	-0,060	-0,122
-645,984	-116,081	0,050	0,007
-644,970	12,034	0,040	0,022
-643,955	247,135	0,040	0,050
-642,941	-200,000	-0,006	-0,155
-641,926	201,626	-0,102	-0,115
-640,911	-200,000	-0,001	-0,009
-639,897	252,389	0,089	0,112
-638,882	31,664	0,041	0,026
-637,868	-200,000	0,000	-0,048
-636,853	141,670	0,024	0,023
-635,838	-200,000	0,005	0,068
-634,824	-200,000	-0,004	0,050
-633,809	121,966	0,032	0,029
-632,795	127,668	0,017	-0,016
-631,780	98,114	-0,038	-0,032
-630,765	111,347	-0,107	-0,094
-629,751	179,105	0,066	-0,071
-628,736	-200,000	-0,004	-0,050
-627,722	800,000	0,051	0,139
-626,707	131,031	0,119	0,112
-625,692	374,619	0,020	-0,030
-624,678	-37,910	-0,179	-0,069
-623,663	-200,000	-0,053	-0,197
-622,649	776,916	0,037	0,075
-621,634	-200,000	0,020	-0,100
-620,619	-78,218	-0,126	-0,031
-619,605	-90,946	0,114	0,024
-618,590	800,000	0,022	0,052
-617,576	-200,000	-0,005	-0,063
-616,561	-200,000	0,016	-0,115
-615,546	126,783	-0,057	-0,053
-614,532	-200,000	0,002	-0,016
-613,517	158,484	0,032	-0,032
-612,503	-171,177	0,060	0,001
-611,488	687,877	-0,079	0,152
-610,474	275,253	0,047	-0,061
-609,459	-200,000	-0,005	-0,071
-608,444	-68,177	-0,067	0,019
-607,430	260,811	-0,012	-0,015
-606,415	319,315	-0,052	-0,073
-605,401	-200,000	-0,002	0,037
-604,386	210,432	0,013	0,015
-603,371	-200,000	-0,021	-0,100
-602,357	-169,381	-0,174	-0,005
-601,342	-200,000	-0,006	-0,078
-600,328	-200,000	-0,069	-0,225
-599,313	331,193	0,049	-0,069
-598,298	800,000	-0,049	-0,116
-597,284	387,511	-0,083	0,126
-596,269	-98,101	0,081	0,015
-595,255	-86,336	0,152	0,034
-594,240	-200,000	0,006	0,195
-593,225	800,000	-0,046	-0,114
-592,211	800,000	0,015	-0,043
-591,196	0,170	0,061	0,032
-590,182	-166,980	0,072	0,002
-589,167	-96,457	-0,185	0,035
-588,152	-0,645	-0,098	-0,051
-587,138	-200,000	0,010	-0,041
-586,123	-167,969	0,060	-0,002
-585,109	-200,000	0,013	-0,115
-584,094	-200,000	-0,009	-0,040
-583,079	-99,171	0,045	0,008
-582,065	384,569	-0,021	-0,032
-581,050	800,000	0,047	-0,099
-580,036	75,303	-0,073	0,057
-579,021	-59,846	0,084	-0,026
-578,006	-200,000	0,001	0,033
-576,992	214,843	-0,053	-0,062
-575,977	-200,000	0,005	-0,023
-574,963	493,550	-0,021	0,036
-573,948	10,491	0,114	0,063
-572,934	273,390	-0,044	-0,057
-571,919	302,931	0,028	-0,038
-570,904	529,119	-0,038	-0,066
-569,890	283,240	0,127	-0,168
-568,875	-108,568	0,075	-0,012
-567,861	-95,624	0,088	-0,017
-566,846	-200,000	0,001	-0,049
-565,831	42,561	-0,054	0,036
-564,817	-101,924	-0,092	0,016
-563,802	-192,157	0,072	-0,000
-562,788	-159,111	0,122	-0,005
-561,773	800,000	-0,062	-0,156
-560,758	-200,000	-0,008	-0,077
-559,744	35,938	-0,135	0,087
-558,729	787,256	-0,024	0,048
-557,715	132,877	-0,145	0,137
-556,700	112,073	-0,008	-0,007
-555,685	-9,959	-0,091	0,044
-554,671	-200,000	0,012	0,051
-553,656	-46,458	0,186	0,066
-552,642	260,586	-0,096	0,121
-551,627	429,038	0,015	0,023
-550,612	-181,292	0,090	-0,001
-549,598	113,347	-0,060	-0,053
-548,583	-97,782	-0,047	0,009
-547,569	-200,000	0,007	-0,027
-546,554	264,135	0,121	0,154
-545,539	800,000	-0,013	-0,037
-544,525	589,024	-0,029	-0,053
-543,510	-200,000	0,021	-0,081
-542,496	-200,000	-0,006	0,150
-541,481	-38,923	0,060	0,023
-540,466	370,549	-0,042	0,063
-539,452	72,496	0,081	-0,062
-538,437	-200,000	0,044	0,158
-537,423	162,123	0,090	0,092
-536,408	-200,000	0,003	0,024
-535,393	800,000	-0,048	-0,121
-534,379	-200,000	-0,005	0,020
-533,364	361,776	-0,027	0,039
-532,350	-103,744	0,128	-0,022
-531,335	-200,000	0,010	-0,069
-530,321	196,260	0,074	0,082
-529,306	-104,578	0,015	0,003
-528,291	84,110	-0,105	0,084
-527,277	-30,665	-0,134	0,055
-526,262	-200,000	0,012	-0,092
-525,248	233,167	0,053	-0,063
-524,233	-74,105	0,082	-0,021
-523,218	356,086	0,027	-0,039
-522,204	-126,293	0,075	-0,008
-521,189	39,264	0,091	-0,059
-520,175	-200,000	-0,037	-0,138
-519,160	800,000	0,027	-0,071
-518,145	37,985	-0,095	0,062
-517,131	-200,000	-0,013	-0,116
-516,116	-166,984	0,027	0,001
-515,102	800,000	-0,010	-0,032
-514,087	-145,125	-0,104	-0,007
-513,072	313,879	-0,074	0,102
-512,058	800,000	-0,018	-0,047
-511,043	-3,373	0,100	-0,051
-510,029	274,680	-0,004	0,005
-509,014	-65,986	0,050	-0,015
-507,999	591,720	-0,063	-0,114
-506,985	73,440	-0,114	-0,087
-505,970	-30,400	0,050	-0,021
-504,956	480,451	0,031	0,052
-503,941	282,479	0,086	0,113
-502,926	342,369	0,068	0,098
-501,912	25,364	-0,081	0,049
-500,897	75,237	-0,080	0,062
-499,883	-200,000	-0,010	-0,132
-498,868	195,631	0,058	-0,065
-497,853	-86,597	-0,063	0,014
-496,839	353,991	-0,015	-0,021
-495,824	-126,202	0,063	-0,007
-494,810	103,229	0,062	-0,053
-493,795	408,057	0,052	0,080
-492,781	800,000	0,011	0,022
-491,766	-83,282	-0,073	0,017
-490,751	-200,000	-0,000	0,037
-489,737	43,604	-0,033	-0,022
-488,722	658,412	-0,054	0,102
-487,708	-169,056	0,157	-0,004
-486,693	27,858	-0,167	0,103
-485,678	800,000	0,020	-0,049
-484,664	-200,000	-0,011	-0,143
-483,649	6,343	-0,011	0,006
-482,635	87,327	-0,015	-0,012
-481,620	-200,000	0,003	0,049
-480,605	59,574	0,047	-0,034
-479,591	43,397	-0,042	0,028
-478,576	-69,463	0,025	-0,007
-477,562	60,984	0,053	-0,038
-476,547	-200,000	0,016	0,165
-475,532	-27,539	0,062	-0,026
-474,518	800,000	0,007	-0,019
-473,503	-22,058	0,090	-0,039
-472,489	800,000	-0,056	0,136
-471,474	-200,000	-0,002	0,047
-470,459	-54,300	0,067	0,022
-469,445	230,148	-0,133	-0,159
-468,430	8,384	0,045	-0,024
-467,416	-73,044	0,054	-0,014
-466,401	-200,000	0,014	-0,117
-465,386	158,465	0,035	0,035
-464,372	-181,833	0,051	0,001
-463,357	-200,000	0,008	-0,030
-462,343	-10,063	0,085	-0,041
-461,328	-174,964	-0,094	0,002
-460,313	-200,000	-0,024	0,095
-459,299	64,929	0,104	0,077
-458,284	40,283	0,055	0,036
-457,270	-49,299	-0,112	-0,039
-456,255	167,250	0,027	-0,028
-455,241	162,082	-0,054	-0,055
-454,226	668,158	-0,024	0,045
-453,211	-200,000	0,021	0,112
-452,197	-87,009	-0,041	0,009
-451,182	72,552	-0,047	0,036
-450,168	-54,409	-0,102	0,034
-449,153	-139,377	0,101	0,008
-448,138	7,351	-0,050	-0,027
-447,124	51,954	0,100	-0,069
-446,109	-122,046	-0,030	0,004
-445,095	-200,000	-0,001	0,170
-444,080	27,173	0,058	-0,035
-443,065	136,991	-0,072	-0,069
-442,051	-58,383	0,067	-0,021
-441,036	-41,579	-0,084	0,031
-440,022	800,000	-0,035	-0,077
-439,007	-200,000	-0,006	-0,025
-437,992	-200,000	0,024	-0,081
-436,978	-88,524	0,050	0,011
-435,963	-43,957	-0,071	0,026
-434,949	79,744	-0,058	-0,046
-433,934	800,000	0,050	-0,131
-432,919	504,689	0,049	-0,083
-431,905	-200,000	0,014	-0,081
-430,890	800,000	0,007	-0,019
-429,876	469,617	-0,054	-0,089
-428,861	-115,354	-0,048	-0,007
-427,846	-200,000	-0,023	-0,090
-426,832	260,240	-0,080	0,101
-425,817	666,539	-0,062	-0,117
-424,803	-200,000	-0,006	-0,168
-423,788	-200,000	0,003	-0,023
-422,773	-38,660	0,064	0,024
-421,759	290,695	-0,056	0,075
-420,744	-200,000	0,006	0,031
-419,730	800,000	-0,036	0,092
-418,715	-12,282	-0,130	-0,062
-417,701	40,919	0,047	0,031
-416,686	584,191	-0,012	-0,021
-415,671	675,303	0,066	0,125
-414,657	-200,000	-0,001	0,119
-413,642	-200,000	0,007	0,034
-412,628	10,990	-0,105	-0,058
-411,613	-200,000	-0,015	-0,149
-410,598	494,558	0,072	0,121
-409,584	-70,747	0,056	0,015
-408,569	93,017	0,039	0,032
-407,555	-18,010	0,085	0,039
-406,540	-49,736	-0,152	0,052
-405,525	-113,271	-0,042	-0,006
-404,511	36,838	-0,061	-0,039
-403,496	390,230	-0,072	0,108
-402,482	54,212	0,102	0,071
-401,467	-10,819	0,078	0,037
-400,452	73,264	-0,051	-0,039
-399,438	669,648	0,068	-0,130
-398,423	179,085	0,062	0,066
-397,409	-200,000	-0,003	-0,066
-396,394	800,000	-0,054	0,156
-395,379	-3,159	0,119	-0,060
-394,365	-200,000	0,001	0,106
-393,350	662,670	-0,052	0,098
-392,336	-85,481	-0,137	0,031
-391,321	160,406	-0,044	-0,044
-390,306	-200,000	-0,005	0,040
-389,292	138,164	0,077	0,073
-388,277	248,598	-0,109	-0,134
-387,263	215,440	0,132	0,153
-386,248	669,568	0,107	0,202
-385,233	-200,000	-0,003	-0,043
-384,219	800,000	0,063	-0,177
-383,204	562,227	-0,085	0,151
-382,190	226,565	0,048	0,057
-381,175	-149,432	0,068	-0,004
-380,160	447,921	-0,031	0,050
-379,146	-62,260	0,045	0,014
-378,131	100,895	0,107	-0,091
-377,117	-200,000	0,028	-0,125
-376,102	-200,000	-0,003	-0,059
-375,088	-200,000	-0,002	-0,020
-374,073	37,196	-0,153	-0,098
-373,058	800,000	-0,060	0,148
-372,044	-36,911	0,150	0,058
-371,029	-85,207	-0,028	0,006
-370,015	-200,000	-0,011	-0,164
-369,000	-87,212	0,106	-0,023
-367,985	-66,510	-0,134	-0,038
-366,971	-200,000	0,021	-0,068
-365,956	-200,000	-0,017	-0,089
-364,942	-200,000	-0,007	-0,195
-363,927	-200,000	0,012	0,132
-362,912	-200,000	0,027	0,236
-361,898	-62,466	0,068	-0,020
-360,883	-55,026	-0,104	-0,034
-359,869	-32,337	-0,013	0,005
-358,854	9,831	0,143	-0,079
-357,839	-200,000	0,015	0,063
-356,825	683,610	0,045	-0,085
-355,810	39,309	0,133	-0,086
-354,796	-105,557	-0,029	0,005
-353,781	-200,000	0,022	-0,138
-352,766	-56,548	0,027	0,009
-351,752	-200,000	-0,010	0,059
-350,737	-0,796	0,105	0,054
-349,723	-64,873	-0,093	0,027
-348,708	387,494	0,040	-0,061
-347,693	-19,476	-0,035	0,016
-346,679	638,948	0,016	-0,031
-345,664	-200,000	-0,018	-0,101
-344,650	286,065	-0,033	-0,044
-343,635	-122,894	0,071	0,008
-342,620	262,586	-0,109	0,137
-341,606	118,158	-0,073	0,065
-340,591	38,979	0,032	-0,021
-339,577	800,000	-0,034	-0,072
-338,562	-200,000	0,010	-0,084
-337,548	-200,000	-0,019	0,187
-336,533	174,442	0,061	0,064
-335,518	-200,000	0,001	0,063
-334,504	495,033	0,034	0,057
-333,489	190,133	-0,092	-0,100
-332,475	-10,393	0,053	0,025
-331,460	-11,144	0,059	0,028
-330,445	-13,029	0,036	-0,017
-329,431	-147,132	0,077	0,005
-328,416	75,716	0,081	0,062
-327,402	-108,334	-0,127	-0,020
-326,387	774,107	0,047	0,094
-325,372	179,191	-0,009	-0,009
-324,358	44,957	-0,087	-0,058
-323,343	-53,572	-0,140	-0,046
-322,329	54,203	0,123	0,086
-321,314	-200,000	0,001	0,073
-320,299	342,167	0,040	0,057
-319,285	-200,000	0,014	-0,047
-318,270	-200,000	-0,013	0,061
-317,256	9,978	-0,108	-0,059
-316,241	215,692	-0,054	-0,063
-315,226	46,793	-0,138	0,093
-314,212	800,000	-0,023	0,046
-313,197	287,748	-0,058	0,076
-312,183	345,086	0,051	0,073
-311,168	89,739	-0,137	-0,111
-310,153	-12,642	-0,106	-0,050
-309,139	-69,711	0,061	0,017
-308,124	800,000	-0,034	0,107
-307,110	81,174	0,107	0,084
-306,095	779,833	0,078	0,156
-305,080	-200,000	-0,002	0,104
-304,066	-58,939	-0,024	-0,008
-303,051	-200,000	-0,003	-0,191
-302,037	505,679	0,021	-0,035
-301,022	638,486	-0,040	0,073
-300,008	-100,544	0,024	0,004
-298,993	-156,457	-0,055	-0,002
-297,978	-200,000	0,004	0,038
-296,964	-181,230	0,079	0,001
-295,949	-82,417	-0,128	0,030
-294,935	-70,489	0,221	0,060
-293,920	-200,000	-0,018	0,126
-292,905	-28,726	0,061	-0,025
-291,891	800,000	0,028	-0,064
-290,876	70,767	0,104	0,078
-289,862	586,962	-0,013	-0,023
-288,847	571,788	0,051	0,091
-287,832	344,438	-0,048	-0,068
-286,818	-200,000	0,002	-0,045
-285,803	130,185	-0,085	0,078
-284,789	7,827	0,121	-0,065
-283,774	-105,885	0,125	-0,020
-282,759	-200,000	-0,120	0,000
-281,745	416,824	-0,070	-0,109
-280,730	-69,123	0,092	-0,025
-279,716	-200,000	-0,023	0,104
-278,701	-152,121	-0,085	-0,004
-277,686	-91,706	0,055	-0,011
-276,672	492,142	-0,112	0,186
-275,657	-200,000	0,009	0,167
-274,643	-200,000	-0,014	-0,192
-273,628	-200,000	-0,009	0,050
-272,613	385,281	-0,012	-0,019
-271,599	800,000	-0,009	0,026
-270,584	-59,828	0,215	0,066
-269,570	282,326	-0,060	0,078
-268,555	-200,000	-0,002	0,117
-267,540	800,000	-0,068	0,143
-266,526	36,205	-0,116	-0,074
-265,511	800,000	-0,026	-0,063
-264,497	89,863	0,104	0,084
-263,482	71,601	0,038	-0,029
-262,467	800,000	-0,032	0,080
-261,453	-200,000	-0,010	-0,155
-260,438	129,293	-0,093	-0,086
-259,424	-180,454	-0,211	-0,003
-258,409	800,000	-0,015	0,044
-257,395	319,912	-0,045	-0,062
-256,380	-138,435	0,098	0,008
-255,365	337,165	-0,014	-0,020
-254,351	59,324	-0,039	-0,028
-253,336	-200,000	0,017	-0,071
-252,322	98,764	0,050	-0,042
-251,307	6,946	0,061	-0,033
-250,292	-78,896	0,086	0,021
-249,278	186,410	-0,112	0,120
-248,263	-98,981	0,114	-0,021
-247,249	-181,699	0,019	0,000
-246,234	189,699	-0,094	-0,102
-245,219	-45,568	-0,051	-0,018
-244,205	3,755	-0,076	-0,040
-243,190	90,678	0,134	-0,108
-242,176	68,164	-0,018	-0,013
-241,161	-70,565	0,042	0,011
-240,146	-200,000	0,025	-0,125
-239,132	51,370	0,112	0,077
-238,117	99,316	-0,065	-0,054
-237,103	-127,382	-0,064	0,007
-236,088	-8,858	0,040	-0,019
-235,073	60,405	0,076	-0,054
-234,059	-200,000	0,031	-0,118
-233,044	-200,000	-0,000	0,095
-232,030	10,165	-0,108	-0,059
-231,015	-200,000	-0,004	-0,048
-230,000	-169,296	-0,121	0,003
-228,986	-20,001	-0,069	0,031
-227,971	-200,000	0,001	0,096
-226,957	-200,000	0,008	0,039
-225,942	22,519	0,112	-0,066
-224,927	128,951	0,047	0,043
-223,913	-136,937	-0,050	-0,004
-222,898	161,837	0,064	-0,065
-221,884	800,000	0,035	-0,105
-220,869	-30,129	0,085	0,035
-219,855	276,840	-0,070	0,091
-218,840	-200,000	0,029	0,146
-217,825	0,866	-0,089	-0,046
-216,811	-200,000	-0,010	-0,099
-215,796	16,865	-0,101	-0,057
-214,782	800,000	0,024	-0,052
-213,767	91,944	0,101	0,082
-212,752	-200,000	0,016	0,111
-211,738	302,181	0,099	0,132
-210,723	186,251	0,070	0,076
-209,709	800,000	-0,036	0,078
-208,694	393,394	-0,019	-0,029
-207,679	263,349	-0,092	0,115
-206,665	396,890	0,012	-0,018
-205,650	88,263	0,047	0,038
-204,636	-15,055	-0,046	0,021
-203,621	-85,078	0,049	-0,011
-202,606	-24,940	-0,083	-0,035
-201,592	278,285	-0,031	-0,040
-200,577	54,214	-0,137	-0,095
-199,563	770,674	0,046	-0,091
-198,548	-16,793	-0,075	-0,034
-197,533	100,415	0,155	-0,130
-196,519	228,895	-0,070	0,083
-195,504	800,000	0,035	0,077
-194,490	800,000	-0,040	0,106
-193,475	800,000	-0,042	0,091
-192,460	-104,309	0,062	0,010
-191,446	-200,000	0,019	0,186
-190,431	75,461	0,152	0,116
-189,417	-85,366	-0,031	0,007
-188,402	26,841	-0,026	0,016
-187,387	-30,061	0,092	-0,038
-186,373	-78,973	-0,076	-0,019
-185,358	-200,000	-0,012	0,064
-184,344	724,934	0,046	0,088
-183,329	-33,706	-0,025	0,010
-182,315	-43,790	-0,173	0,063
-181,300	-17,157	-0,025	0,011
-180,285	34,783	0,135	0,085
-179,271	-200,000	-0,034	0,149
-178,256	-200,000	0,014	0,080
-177,242	-200,000	-0,012	0,049
-176,227	-134,166	-0,087	-0,008
-175,212	-200,000	-0,017	-0,087
-174,198	-56,947	0,035	-0,011
-173,183	-29,287	-0,014	0,006
-172,169	-2,386	-0,112	0,057
-171,154	-200,000	0,004	0,053
-170,139	-101,937	-0,065	-0,011
-169,125	-70,729	0,175	0,047
-168,110	-123,005	-0,126	-0,014
-167,096	-97,988	-0,076	-0,014
-166,081	-200,000	0,012	-0,041
-165,066	-200,000	0,001	-0,055
-164,052	800,000	-0,038	-0,078
-163,037	-143,935	0,065	0,004
-162,023	95,086	0,050	-0,041
-161,008	-67,305	-0,094	0,026
-159,993	-19,042	-0,074	-0,033
-158,979	-200,000	-0,040	-0,129
-157,964	-7,914	0,087	-0,042
-156,950	23,804	0,020	0,012
-155,935	384,806	-0,058	-0,086
-154,920	762,420	0,028	0,054
-153,906	-100,874	0,070	-0,012
-152,891	30,484	0,101	-0,062
-151,877	33,454	0,044	-0,028
-150,862	110,476	-0,022	-0,019
-149,847	800,000	0,028	0,063
-148,833	-143,022	0,019	0,001
-147,818	119,542	-0,058	0,052
-146,804	8,171	-0,070	-0,038
-145,789	800,000	0,031	-0,096
-144,775	-200,000	-0,007	-0,058
-143,760	49,723	0,084	-0,057
-142,745	-104,478	-0,095	0,016
-141,731	170,307	-0,090	-0,093
-140,716	800,000	-0,068	0,152
-139,702	-161,143	-0,031	0,001
-138,687	128,061	0,098	-0,090
-137,672	800,000	0,034	-0,080
-136,658	52,699	-0,084	-0,058
-135,643	94,776	0,076	-0,062
-134,629	-200,000	-0,013	-0,114
-133,614	-31,646	-0,118	-0,047
-132,599	284,012	0,070	-0,091
-131,585	-148,350	0,018	0,001
-130,570	452,673	0,028	0,044
-129,556	753,333	0,033	0,065
-128,541	-13,453	-0,086	0,040
-127,526	319,912	-0,029	-0,039
-126,512	679,400	0,033	0,062
-125,497	135,796	-0,027	-0,026
-124,483	319,922	-0,064	-0,088
-123,468	-104,489	0,072	-0,012
-122,453	-200,000	0,003	-0,165
-121,439	660,429	0,019	-0,035
-120,424	-200,000	0,009	0,043
-119,410	-33,751	-0,048	0,019
