DTS Sentinel unit serial number:	SN410029Multiplexer serial number:	ORYXHardware model number:	OX2-SRSoftware version number:	ORYX F/W v4,00 Oryx Data Collector v3.7.2.0data status	okinstallation	B5 Nyhavnadifferential loss correction	single-endedforward channel	channel 2reverse channel	N/Adate	2023/12/12time	23:07:13forward acquisition time	300,00reverse acquisition time	0,00gamma	499,1914k internal	0,3158k external	0,3158temperature offset calibration	1,0000default loss term (dB/km)	0,3820temperature slope calibration	1,0000multiplexer offset coefficient	1,0000multiplexer slope coefficient	1,0000fibre end	0,00T internal ref (°C)	14,50T ext. ref 1 (°C)	-2,04T ext. ref 2 (°C)	-2,36length (m)	temperature (°C)	Stokes	anti-Stokes-744,400	110,049	0,122	-0,108
-743,385	44,796	-0,313	-0,212
-742,371	-61,813	0,148	0,045
-741,356	-2,247	-0,247	0,127
-740,342	89,953	-0,080	0,066
-739,327	-82,924	-0,190	-0,045
-738,312	216,945	0,061	0,071
-737,298	-119,222	-0,155	-0,020
-736,283	-200,000	-0,007	0,050
-735,269	-136,379	-0,266	0,022
-734,254	-87,917	0,166	0,036
-733,239	-22,590	-0,539	-0,239
-732,225	95,180	0,058	0,049
-731,210	81,608	-0,092	0,073
-730,196	41,552	-0,022	-0,015
-729,181	693,214	-0,035	-0,068
-728,167	589,961	0,018	0,033
-727,152	-108,842	-0,075	0,012
-726,137	131,826	-0,123	-0,117
-725,123	197,674	-0,034	-0,038
-724,108	800,000	-0,039	-0,102
-723,094	269,174	0,015	0,019
-722,079	59,241	-0,098	-0,071
-721,064	541,586	-0,061	0,107
-720,050	193,937	-0,091	0,101
-719,035	-200,000	0,001	0,065
-718,021	-83,608	-0,074	-0,017
-717,006	-70,519	-0,140	-0,039
-715,991	-144,982	-0,091	-0,006
-714,977	800,000	-0,074	-0,154
-713,962	-200,000	0,006	0,094
-712,948	-200,000	-0,025	-0,117
-711,933	-22,553	-0,113	-0,050
-710,918	181,004	0,079	-0,085
-709,904	83,989	-0,091	0,073
-708,889	-18,048	-0,136	-0,063
-707,875	420,473	0,045	-0,072
-706,860	-147,833	-0,054	0,003
-705,845	800,000	-0,037	-0,085
-704,831	-79,846	0,086	-0,021
-703,816	-100,059	-0,093	0,017
-702,802	188,730	-0,062	-0,069
-701,787	800,000	-0,035	0,078
-700,772	72,474	-0,075	-0,057
-699,758	800,000	0,021	0,059
-698,743	-77,082	-0,069	-0,017
-697,729	-79,086	0,064	0,016
-696,714	-64,875	-0,144	0,042
-695,699	-198,445	0,077	-0,000
-694,685	-22,027	-0,055	-0,024
-693,670	-97,182	-0,085	0,016
-692,656	-5,755	0,045	0,022
-691,641	715,320	0,078	-0,154
-690,627	21,603	-0,055	0,033
-689,612	-126,709	-0,043	0,005
-688,597	-200,000	0,018	0,063
-687,583	800,000	-0,034	-0,104
-686,568	-200,000	-0,007	-0,027
-685,554	17,464	0,024	-0,014
-684,539	-200,000	0,016	-0,090
-683,524	800,000	0,088	-0,252
-682,510	-0,688	-0,137	-0,071
-681,495	-144,626	0,173	-0,012
-680,481	2,461	-0,068	0,036
-679,466	0,124	-0,297	-0,155
-678,451	-54,546	-0,146	-0,048
-677,437	-116,989	-0,036	0,005
-676,422	-200,000	0,009	0,159
-675,408	253,725	-0,041	-0,052
-674,393	-200,000	0,004	-0,034
-673,378	59,906	-0,071	-0,052
-672,364	48,270	-0,076	-0,052
-671,349	-38,533	-0,035	-0,013
-670,335	3,024	0,072	-0,038
-669,320	50,823	-0,026	-0,018
-668,305	323,933	-0,055	0,077
-667,291	-15,093	0,144	-0,068
-666,276	450,353	-0,037	0,061
-665,262	353,832	0,012	-0,017
-664,247	116,968	0,061	-0,055
-663,232	754,569	0,020	0,039
-662,218	148,083	-0,099	0,099
-661,203	17,298	-0,124	0,072
-660,189	671,284	0,043	0,082
-659,174	-200,000	-0,024	-0,189
-658,159	71,141	0,033	-0,025
-657,145	-182,795	0,043	0,001
-656,130	18,159	0,064	0,037
-655,116	51,979	-0,126	0,088
-654,101	-200,000	-0,002	-0,020
-653,086	166,473	-0,038	-0,040
-652,072	49,294	0,068	0,047
-651,057	175,115	0,032	0,034
-650,043	-170,426	-0,145	-0,004
-649,028	-58,425	-0,208	-0,066
-648,014	800,000	0,030	0,079
-646,999	-200,000	-0,010	0,158
-645,984	-200,000	-0,004	0,108
-644,970	-200,000	-0,038	0,134
-643,955	-151,642	-0,028	-0,001
-642,941	87,017	0,099	-0,080
-641,926	59,800	-0,086	-0,062
-640,911	800,000	-0,023	0,048
-639,897	761,608	0,034	0,068
-638,882	135,199	-0,071	0,068
-637,868	-75,437	0,091	0,024
-636,853	70,908	-0,057	-0,043
-635,838	711,762	0,061	-0,119
-634,824	800,000	-0,022	0,054
-633,809	-58,424	0,154	0,049
-632,795	-119,001	-0,099	0,013
-631,780	-170,236	-0,069	0,002
-630,765	18,365	-0,070	0,041
-629,751	6,975	-0,021	0,011
-628,736	-200,000	0,033	-0,142
-627,722	-89,880	-0,053	-0,011
-626,707	418,468	0,077	0,121
-625,692	500,001	0,009	-0,015
-624,678	135,712	0,075	-0,072
-623,663	-40,843	-0,059	0,022
-622,649	271,255	0,064	-0,083
-621,634	-163,412	-0,135	-0,005
-620,619	-200,000	0,009	-0,144
-619,605	-200,000	-0,025	-0,132
-618,590	-27,424	0,137	0,058
-617,576	256,864	0,092	-0,116
-616,561	66,873	0,048	-0,036
-615,546	-143,038	-0,113	-0,008
-614,532	-148,577	0,053	-0,003
-613,517	-42,261	0,007	-0,002
-612,503	-136,302	-0,151	0,013
-611,488	-126,169	0,088	0,010
-610,474	124,063	-0,092	-0,085
-609,459	800,000	-0,028	0,065
-608,444	378,060	-0,058	-0,087
-607,430	-16,988	0,023	0,010
-606,415	81,666	-0,066	-0,052
-605,401	-97,945	-0,065	0,012
-604,386	-200,000	-0,008	0,045
-603,371	-200,000	-0,003	-0,048
-602,357	-200,000	-0,005	-0,056
-601,342	-200,000	0,024	-0,093
-600,328	-200,000	-0,007	0,069
-599,313	-155,548	-0,103	0,005
-598,298	80,748	-0,075	-0,059
-597,284	800,000	-0,054	0,142
-596,269	692,645	0,060	0,115
-595,255	68,685	-0,102	0,077
-594,240	79,784	-0,011	0,009
-593,225	-12,188	-0,148	-0,070
-592,211	-132,253	0,015	-0,001
-591,196	-21,292	-0,086	0,038
-590,182	-200,000	-0,003	0,026
-589,167	-71,957	0,173	-0,047
-588,152	-200,000	0,024	-0,114
-587,138	800,000	0,059	-0,166
-586,123	-90,731	-0,068	-0,014
-585,109	-85,694	-0,024	0,006
-584,094	-200,000	0,028	0,131
-583,079	-200,000	0,000	0,034
-582,065	-5,108	0,022	-0,011
-581,050	-200,000	0,037	0,143
-580,036	319,049	0,070	0,097
-579,021	112,778	-0,117	0,104
-578,006	-200,000	-0,041	-0,136
-576,992	-77,060	-0,090	0,023
-575,977	800,000	0,048	-0,121
-574,963	-200,000	-0,022	0,092
-573,948	-200,000	-0,009	0,101
-572,934	203,702	0,020	-0,022
-571,919	-200,000	-0,010	-0,191
-570,904	-161,689	-0,100	-0,004
-569,890	209,407	-0,037	-0,042
-568,875	-162,533	0,128	-0,005
-567,861	168,408	0,055	0,057
-566,846	-200,000	-0,007	-0,105
-565,831	142,844	-0,070	-0,068
-564,817	62,479	-0,152	0,111
-563,802	-84,664	-0,060	0,014
-562,788	-75,982	-0,042	0,011
-561,773	-200,000	-0,010	0,096
-560,758	189,427	-0,037	-0,040
-559,744	800,000	0,051	-0,116
-558,729	-200,000	0,037	-0,167
-557,715	-152,832	-0,065	-0,003
-556,700	-200,000	-0,016	0,106
-555,685	-136,891	-0,073	0,006
-554,671	-45,268	-0,085	-0,031
-553,656	-19,421	-0,071	-0,032
-552,642	-30,839	-0,085	-0,035
-551,627	172,299	-0,026	-0,027
-550,612	-200,000	-0,007	-0,054
-549,598	-71,373	0,045	-0,012
-548,583	68,166	-0,125	0,094
-547,569	-2,728	-0,115	0,059
-546,554	56,385	0,055	0,039
-545,539	-200,000	0,005	-0,072
-544,525	-119,580	0,062	-0,008
-543,510	-200,000	-0,006	0,022
-542,496	510,379	-0,053	-0,091
-541,481	-147,258	-0,062	0,004
-540,466	800,000	0,023	-0,058
-539,452	-200,000	-0,067	0,000
-538,437	58,418	0,157	0,112
-537,423	408,874	0,070	0,109
-536,408	80,395	-0,048	-0,038
-535,393	210,677	-0,116	-0,134
-534,379	436,701	-0,034	-0,054
-533,364	800,000	0,018	0,050
-532,350	154,294	0,094	-0,095
-531,335	-124,400	0,147	0,017
-530,321	168,761	-0,051	-0,053
-529,306	732,402	-0,047	-0,092
-528,291	-190,095	-0,135	-0,001
-527,277	372,808	0,024	0,037
-526,262	800,000	-0,007	-0,016
-525,248	46,426	-0,047	0,032
-524,233	-200,000	-0,000	-0,026
-523,218	520,496	-0,058	0,099
-522,204	112,718	-0,072	-0,064
-521,189	-89,777	0,073	-0,015
-520,175	734,422	0,024	0,048
-519,160	789,966	-0,004	-0,009
-518,145	800,000	-0,053	0,151
-517,131	-200,000	0,022	-0,087
-516,116	-53,396	-0,136	0,045
-515,102	800,000	-0,033	-0,100
-514,087	-158,559	-0,165	0,007
-513,072	-12,066	-0,116	-0,055
-512,058	467,506	0,031	-0,050
-511,043	-43,686	-0,059	-0,021
-510,029	-200,000	-0,007	0,057
-509,014	3,646	0,054	0,029
-507,999	-16,647	0,052	-0,024
-506,985	800,000	-0,012	-0,037
-505,970	77,425	-0,036	-0,028
-504,956	-180,676	-0,103	-0,002
-503,941	-200,000	0,004	0,039
-502,926	-8,814	0,114	0,056
-501,912	395,116	-0,028	0,043
-500,897	-200,000	-0,019	0,109
-499,883	-200,000	0,011	-0,108
-498,868	35,283	-0,081	-0,052
-497,853	-95,017	-0,107	0,021
-496,839	-3,367	-0,082	0,041
-495,824	22,878	0,063	-0,037
-494,810	-34,451	0,097	0,039
-493,795	-200,000	0,011	0,067
-492,781	-200,000	0,009	-0,127
-491,766	62,301	-0,083	0,060
-490,751	-44,072	-0,096	-0,035
-489,737	39,299	0,056	0,036
-488,722	-78,977	0,094	0,023
-487,708	-200,000	-0,002	0,127
-486,693	35,419	0,031	-0,020
-485,678	-200,000	0,021	-0,098
-484,664	125,371	0,081	0,075
-483,649	172,916	-0,081	-0,086
-482,635	-99,507	-0,053	0,010
-481,620	800,000	-0,051	0,124
-480,605	78,950	0,112	0,088
-479,591	800,000	0,020	0,051
-478,576	-140,501	0,010	0,001
-477,562	800,000	0,016	0,037
-476,547	-136,718	-0,148	0,012
-475,532	-42,848	0,026	-0,009
-474,518	800,000	0,049	0,106
-473,503	255,723	0,022	-0,027
-472,489	67,242	0,066	-0,049
-471,474	-200,000	0,003	0,038
-470,459	61,353	-0,117	0,085
-469,445	166,323	0,065	-0,067
-468,430	-164,864	-0,131	-0,004
-467,416	247,354	0,065	-0,080
-466,401	-92,295	-0,112	0,023
-465,386	104,084	0,095	0,081
-464,372	800,000	-0,021	0,048
-463,357	-94,437	0,103	0,020
-462,343	16,231	-0,141	0,081
-461,328	-117,620	-0,080	0,010
-460,313	-32,493	0,072	0,029
-459,299	-200,000	0,037	0,129
-458,284	-200,000	0,040	0,000
-457,270	60,656	0,061	-0,044
-456,255	800,000	0,020	-0,059
-455,241	314,417	-0,058	-0,080
-454,226	-121,535	-0,069	-0,008
-453,211	-182,938	0,060	0,001
-452,197	800,000	0,052	0,115
-451,182	-43,355	0,131	0,048
-450,168	43,436	-0,197	0,131
-449,153	-23,547	-0,110	0,048
-448,138	-158,569	-0,047	-0,002
-447,124	113,337	0,003	-0,003
-446,109	205,944	0,063	-0,072
-445,095	555,094	0,049	0,087
-444,080	-171,070	0,089	-0,002
-443,065	360,208	0,098	0,143
-442,051	800,000	-0,048	0,113
-441,036	307,851	0,049	-0,066
-440,022	-89,101	-0,026	-0,006
-439,007	1,702	0,062	-0,032
-437,992	178,608	0,028	0,030
-436,978	800,000	0,055	-0,111
-435,963	-127,464	-0,084	-0,009
-434,949	-49,045	0,166	-0,057
-433,934	350,562	-0,044	0,063
-432,919	-36,765	0,124	-0,048
-431,905	800,000	0,007	-0,015
-430,890	-30,678	0,086	0,035
-429,876	-200,000	-0,003	0,017
-428,861	155,780	0,046	0,046
-427,846	291,695	0,006	-0,008
-426,832	800,000	0,038	-0,085
-425,817	-84,761	0,103	-0,023
-424,803	-33,303	-0,108	-0,043
-423,788	507,169	0,039	-0,067
-422,773	-116,228	0,103	-0,014
-421,759	198,419	0,046	-0,051
-420,744	150,427	0,074	-0,073
-419,730	100,156	-0,043	0,036
-418,715	-29,304	-0,057	-0,024
-417,701	565,845	0,050	-0,088
-416,686	-122,538	0,144	-0,017
-415,671	-200,000	-0,011	-0,092
-414,657	800,000	0,019	0,043
-413,642	-200,000	0,016	0,060
-412,628	-1,137	0,069	-0,036
-411,613	42,397	-0,066	-0,044
-410,598	-200,000	0,011	0,075
-409,584	-83,512	0,039	-0,009
-408,569	-156,462	0,131	-0,006
-407,555	-200,000	-0,011	0,078
-406,540	-11,958	-0,130	-0,062
-405,525	-27,604	0,035	-0,015
-404,511	114,795	-0,055	-0,049
-403,496	-15,898	0,057	-0,026
-402,482	-103,819	0,126	0,021
-401,467	55,318	-0,023	-0,016
-400,452	157,486	0,068	0,068
-399,438	-200,000	-0,045	0,249
-398,423	604,618	-0,049	0,089
-397,409	534,644	0,053	-0,092
-396,394	261,393	-0,076	-0,096
-395,379	-200,000	0,034	-0,163
-394,365	-200,000	-0,001	0,057
-393,350	-146,786	0,070	0,004
-392,336	-140,206	-0,038	0,003
-391,321	-60,839	-0,156	0,048
-390,306	-89,938	-0,057	-0,012
-389,292	800,000	0,015	0,034
-388,277	-57,780	0,082	0,026
-387,263	41,074	0,083	-0,055
-386,248	-66,952	0,122	-0,035
-385,233	-145,235	0,028	-0,002
-384,219	44,302	0,026	0,017
-383,204	-120,731	-0,042	0,005
-382,190	120,557	-0,083	-0,075
-381,175	-25,365	-0,128	-0,055
-380,160	-200,000	-0,003	-0,051
-379,146	-200,000	0,003	0,081
-378,131	-200,000	-0,007	0,157
-377,117	237,031	-0,108	-0,130
-376,102	-132,558	-0,080	0,007
-375,088	-84,129	-0,079	-0,018
-374,073	-200,000	0,009	-0,151
-373,058	-8,797	0,056	-0,027
-372,044	-200,000	-0,007	-0,054
-371,029	85,821	0,070	-0,056
-370,015	-151,050	-0,036	-0,002
-369,000	229,537	-0,037	-0,044
-367,985	-200,000	-0,014	-0,149
-366,971	-200,000	0,018	-0,064
-365,956	73,122	-0,037	-0,028
-364,942	-54,947	0,131	0,043
-363,927	-200,000	0,028	0,090
-362,912	-67,420	-0,025	-0,007
-361,898	800,000	0,020	0,048
-360,883	-101,163	-0,103	-0,018
-359,869	605,009	0,076	0,137
-358,854	27,284	0,114	0,070
-357,839	213,282	-0,077	0,089
-356,825	287,660	-0,045	0,059
-355,810	800,000	-0,030	-0,080
-354,796	800,000	0,063	-0,158
-353,781	622,370	-0,037	-0,068
-352,766	358,478	0,010	-0,015
-351,752	-200,000	-0,009	0,043
-350,737	6,828	0,174	0,094
-349,723	-200,000	0,062	0,245
-348,708	599,171	0,059	-0,106
-347,693	-200,000	0,024	-0,082
-346,679	-200,000	-0,002	0,016
-345,664	113,076	-0,082	0,072
-344,650	-200,000	0,013	-0,061
-343,635	-123,219	0,177	0,020
-342,620	497,755	0,024	0,041
-341,606	54,553	-0,055	0,038
-340,591	-200,000	0,013	-0,047
-339,577	123,691	-0,079	0,072
-338,562	-200,000	-0,010	-0,056
-337,548	-55,651	0,034	0,011
-336,533	-118,808	0,143	-0,018
-335,518	-200,000	0,026	-0,089
-334,504	-103,645	0,135	0,023
-333,489	-28,092	-0,041	-0,017
-332,475	59,188	-0,085	-0,060
-331,460	39,028	-0,068	-0,044
-330,445	-112,649	0,070	0,010
-329,431	-130,631	-0,078	-0,008
-328,416	768,540	0,049	0,097
-327,402	-120,041	-0,144	0,018
-326,387	91,292	0,134	0,109
-325,372	800,000	-0,055	-0,138
-324,358	-200,000	0,007	0,040
-323,343	78,683	0,087	-0,068
-322,329	116,605	-0,095	-0,084
-321,314	-92,212	-0,060	-0,012
-320,299	-200,000	-0,004	0,018
-319,285	-63,937	0,086	0,025
-318,270	523,756	-0,053	0,091
-317,256	-200,000	-0,031	-0,125
-316,241	800,000	-0,017	0,052
-315,226	265,583	0,083	0,105
-314,212	404,414	0,053	0,082
-313,197	-200,000	0,000	0,005
-312,183	-200,000	-0,001	-0,086
-311,168	-143,601	0,089	-0,006
-310,153	-6,096	0,051	-0,025
-309,139	222,434	0,063	0,074
-308,124	-200,000	0,013	-0,126
-307,110	606,358	0,036	0,065
-306,095	-200,000	0,000	-0,031
-305,080	-200,000	-0,000	-0,024
-304,066	-129,355	0,068	-0,007
-303,051	800,000	0,014	0,044
-302,037	142,347	-0,048	0,047
-301,022	64,503	-0,113	0,082
-300,008	53,389	0,064	0,044
-298,993	269,186	0,068	0,086
-297,978	-68,544	0,196	-0,055
-296,964	96,621	0,040	0,033
-295,949	-200,000	-0,016	-0,086
-294,935	70,843	0,064	-0,048
-293,920	779,050	-0,076	0,151
-292,905	8,479	0,022	-0,012
-291,891	384,337	0,024	0,035
-290,876	467,339	-0,043	0,070
-289,862	-50,837	-0,036	0,012
-288,847	467,183	-0,067	-0,110
-287,832	800,000	-0,008	-0,017
-286,818	800,000	-0,027	-0,060
-285,803	54,320	0,037	0,026
-284,789	800,000	-0,058	0,166
-283,774	800,000	-0,017	0,049
-282,759	195,483	-0,112	0,123
-281,745	318,968	-0,050	0,069
-280,730	800,000	0,003	-0,009
-279,716	-200,000	0,009	-0,083
-278,701	-141,855	0,080	0,006
-277,686	-66,305	-0,019	0,005
-276,672	-112,624	-0,207	0,029
-275,657	-200,000	0,007	-0,061
-274,643	30,806	-0,068	-0,042
-273,628	184,862	0,051	0,055
-272,613	-200,000	0,013	-0,044
-271,599	130,184	0,113	0,105
-270,584	-50,371	0,132	0,045
-269,570	-96,594	-0,080	0,015
-268,555	16,326	0,100	-0,057
-267,540	-39,703	0,042	-0,016
-266,526	26,104	0,071	-0,043
-265,511	-200,000	0,022	-0,074
-264,497	-66,159	0,110	0,031
-263,482	-200,000	-0,001	0,029
-262,467	-112,983	0,037	-0,005
-261,453	139,023	-0,089	0,084
-260,438	404,730	-0,144	-0,220
-259,424	-114,946	0,015	-0,002
-258,409	-38,009	-0,149	-0,057
-257,395	-68,232	0,043	-0,012
-256,380	387,255	-0,061	0,092
-255,365	-200,000	0,013	0,101
-254,351	-75,535	0,041	0,010
-253,336	-99,258	-0,088	0,016
-252,322	-122,950	-0,112	0,013
-251,307	-166,654	0,040	-0,001
-250,292	506,375	0,062	-0,104
-249,278	-127,465	0,081	-0,008
-248,263	-200,000	-0,009	-0,084
-247,249	-200,000	-0,066	0,000
-246,234	374,006	0,040	0,060
-245,219	-200,000	0,019	-0,061
-244,205	-200,000	-0,015	-0,099
-243,190	-43,953	-0,085	0,031
-242,176	303,775	0,088	0,119
-241,161	-200,000	-0,004	0,113
-240,146	141,602	0,060	-0,058
-239,132	432,982	0,010	-0,016
-238,117	-96,624	0,061	-0,012
-237,103	-103,420	0,095	0,016
-236,088	800,000	-0,079	-0,212
-235,073	-200,000	0,015	0,064
-234,059	-103,706	0,079	0,013
-233,044	-135,205	-0,114	0,010
-232,030	-153,709	-0,055	-0,003
-231,015	-140,464	-0,136	0,010
-230,000	304,104	-0,012	-0,016
-228,986	-27,129	-0,056	0,024
-227,971	-128,894	0,092	0,009
-226,957	-200,000	-0,023	-0,084
-225,942	-200,000	-0,036	-0,131
-224,927	-200,000	-0,002	-0,118
-223,913	-55,944	-0,091	-0,029
-222,898	788,817	0,029	-0,058
-221,884	-124,980	-0,095	0,010
-220,869	42,939	0,144	0,095
-219,855	425,476	-0,066	-0,103
-218,840	43,283	-0,041	-0,027
-217,825	-69,304	0,090	0,025
-216,811	170,585	-0,042	-0,044
-215,796	239,018	0,030	0,036
-214,782	-90,680	-0,143	-0,029
-213,767	261,290	0,075	-0,093
-212,752	4,459	0,095	-0,050
-211,738	-77,428	0,063	-0,016
-210,723	101,644	-0,074	0,062
-209,709	-200,000	0,004	0,071
-208,694	-114,076	0,075	-0,010
-207,679	-169,063	-0,099	0,003
-206,665	-85,746	0,190	0,042
-205,650	-200,000	-0,014	-0,109
-204,636	-200,000	0,007	0,098
-203,621	587,642	0,092	0,165
-202,606	-200,000	0,005	0,047
-201,592	-200,000	0,021	0,109
-200,577	800,000	0,019	-0,047
-199,563	200,359	-0,107	0,119
-198,548	355,331	0,128	0,184
-197,533	-96,555	0,100	0,019
-196,519	800,000	0,032	-0,083
-195,504	317,144	0,033	0,046
-194,490	-200,000	-0,002	-0,126
-193,475	46,060	-0,129	-0,086
-192,460	-68,567	0,081	-0,022
-191,446	-118,451	0,123	-0,016
-190,431	96,641	0,078	0,064
-189,417	800,000	-0,049	0,102
-188,402	278,596	-0,045	0,058
-187,387	-149,883	-0,183	-0,010
-186,373	-26,115	-0,134	-0,057
-185,358	-33,971	-0,029	-0,012
-184,344	328,861	0,043	-0,060
-183,329	800,000	-0,030	-0,062
-182,315	338,369	0,067	0,094
-181,300	70,963	-0,061	-0,045
-180,285	-165,552	-0,056	0,002
-179,271	-50,378	-0,251	-0,085
-178,256	-50,430	0,132	-0,045
-177,242	800,000	0,082	0,178
-176,227	63,687	-0,071	0,052
-175,212	399,052	0,081	0,122
-174,198	-46,858	0,107	0,038
-173,183	800,000	-0,025	-0,053
-172,169	-173,157	-0,044	-0,001
-171,154	267,876	0,064	-0,081
-170,139	-200,000	-0,012	-0,086
-169,125	-35,626	0,115	0,045
-168,110	-77,744	-0,096	-0,024
-167,096	229,870	0,098	-0,116
-166,081	-200,000	0,002	-0,035
-165,066	6,593	0,127	-0,068
-164,052	-200,000	0,015	-0,062
-163,037	71,005	0,137	-0,103
-162,023	-122,211	0,041	-0,005
-161,008	-200,000	-0,031	0,145
-159,993	232,074	0,044	-0,052
-158,979	-200,000	0,008	-0,065
-157,964	-200,000	-0,023	0,083
-156,950	-200,000	0,107	0,000
-155,935	-133,603	0,137	-0,012
-154,920	-90,798	-0,051	-0,010
-153,906	-200,000	-0,006	-0,030
-152,891	-200,000	0,037	0,183
-151,877	-26,653	-0,085	0,036
-150,862	-28,589	-0,112	-0,046
-149,847	285,946	0,028	-0,036
-148,833	-119,504	-0,100	0,012
-147,818	-20,972	0,118	-0,052
-146,804	-200,000	-0,015	0,104
-145,789	288,075	0,052	-0,068
-144,775	-12,429	0,065	-0,030
-143,760	-110,233	-0,130	-0,019
-142,745	-3,845	-0,065	0,033
-141,731	63,577	-0,114	-0,082
-140,716	-24,576	-0,073	0,031
-139,702	75,839	0,116	0,088
-138,687	226,309	0,087	0,102
-137,672	412,212	0,064	0,098
-136,658	57,880	-0,119	-0,083
-135,643	-66,971	0,042	-0,012
-134,629	-60,804	0,038	0,011
-133,614	-38,962	0,046	0,018
-132,599	-48,516	0,094	0,033
-131,585	62,872	-0,080	0,058
-130,570	-139,377	0,071	-0,005
-129,556	145,366	-0,123	0,118
-128,541	-200,000	0,023	-0,096
-127,526	0,973	-0,082	-0,042
-126,512	800,000	0,037	0,077
-125,497	-200,000	-0,005	-0,021
-124,483	-104,353	-0,025	-0,004
-123,468	-200,000	0,005	0,076
-122,453	-13,828	0,090	0,042
-121,439	-88,342	-0,146	0,031
-120,424	-200,000	-0,019	0,097
