DTS Sentinel unit serial number:	SN410029Multiplexer serial number:	ORYXHardware model number:	OX2-SRSoftware version number:	ORYX F/W v4,00 Oryx Data Collector v3.7.2.0data status	okinstallation	B5 Nyhavnadifferential loss correction	single-endedforward channel	channel 2reverse channel	N/Adate	2023/12/12time	19:17:13forward acquisition time	300,00reverse acquisition time	0,00gamma	499,1914k internal	0,3157k external	0,3157temperature offset calibration	1,0000default loss term (dB/km)	0,3820temperature slope calibration	1,0000multiplexer offset coefficient	1,0000multiplexer slope coefficient	1,0000fibre end	0,00T internal ref (°C)	15,50T ext. ref 1 (°C)	-1,12T ext. ref 2 (°C)	-1,44length (m)	temperature (°C)	Stokes	anti-Stokes-744,400	18,582	0,110	0,065
-743,385	-121,161	-0,373	-0,046
-742,371	-115,721	0,091	0,012
-741,356	-85,284	-0,276	0,063
-740,342	33,406	0,075	-0,048
-739,327	-125,608	-0,406	0,045
-738,312	-200,000	-0,009	-0,061
-737,298	-127,666	-0,241	-0,025
-736,283	487,792	0,057	-0,096
-735,269	-18,537	-0,193	-0,088
-734,254	216,779	0,039	0,046
-733,239	-20,286	-0,518	-0,234
-732,225	-39,075	0,276	-0,107
-731,210	-12,537	0,060	0,029
-730,196	-200,000	0,012	-0,088
-729,181	-123,808	0,057	-0,007
-728,167	-119,661	0,102	-0,013
-727,152	176,554	-0,066	-0,071
-726,137	178,896	-0,035	0,038
-725,123	-200,000	0,001	-0,106
-724,108	-200,000	-0,018	-0,127
-723,094	800,000	-0,010	-0,031
-722,079	800,000	0,030	-0,088
-721,064	127,910	-0,053	-0,050
-720,050	159,095	-0,022	-0,022
-719,035	-5,099	0,115	-0,058
-718,021	53,522	-0,019	-0,013
-717,006	200,629	0,078	-0,088
-715,991	-200,000	0,008	-0,102
-714,977	-84,493	-0,230	-0,053
-713,962	-112,074	-0,117	-0,017
-712,948	23,719	0,123	-0,074
-711,933	267,617	-0,039	0,051
-710,918	129,488	0,081	0,076
-709,904	88,778	-0,034	0,028
-708,889	88,006	0,047	-0,038
-707,875	47,706	-0,163	-0,112
-706,860	437,705	0,068	-0,109
-705,845	800,000	-0,023	-0,070
-704,831	-89,615	-0,081	-0,017
-703,816	-90,661	-0,111	0,024
-702,802	-200,000	0,006	-0,058
-701,787	-200,000	0,033	-0,201
-700,772	800,000	-0,060	-0,140
-699,758	-133,667	0,067	-0,006
-698,743	452,989	0,062	-0,102
-697,729	-94,706	0,049	-0,010
-696,714	676,626	-0,042	-0,080
-695,699	-9,807	-0,008	-0,004
-694,685	185,774	-0,151	-0,166
-693,670	480,810	-0,024	-0,040
-692,656	120,365	-0,070	-0,064
-691,641	134,653	-0,048	0,045
-690,627	-46,466	0,144	-0,052
-689,612	-60,869	0,045	-0,014
-688,597	-83,128	-0,081	-0,019
-687,583	800,000	-0,033	-0,083
-686,568	355,052	-0,124	-0,182
-685,554	-200,000	-0,014	-0,065
-684,539	304,868	-0,088	-0,121
-683,524	-47,248	0,080	-0,028
-682,510	800,000	-0,024	-0,052
-681,495	277,992	-0,095	-0,125
-680,481	800,000	-0,054	-0,170
-679,466	-200,000	-0,016	-0,140
-678,451	800,000	0,024	0,064
-677,437	-167,977	-0,055	-0,002
-676,422	86,611	0,120	0,097
-675,408	-200,000	-0,010	0,038
-674,393	-200,000	0,009	-0,063
-673,378	-200,000	0,009	-0,094
-672,364	299,021	0,077	-0,104
-671,349	155,430	-0,165	-0,168
-670,335	22,083	0,083	-0,050
-669,320	387,587	0,067	0,102
-668,305	-100,530	0,093	-0,017
-667,291	800,000	0,054	0,114
-666,276	-200,000	0,000	0,035
-665,262	-200,000	0,000	-0,173
-664,247	299,220	-0,024	-0,033
-663,232	-49,895	-0,099	-0,034
-662,218	-200,000	-0,023	-0,085
-661,203	-110,714	-0,026	0,004
-660,189	158,406	-0,107	0,109
-659,174	800,000	0,050	-0,103
-658,159	663,192	0,079	-0,150
-657,145	-16,924	-0,145	0,067
-656,130	491,829	-0,056	0,094
-655,116	-167,860	0,062	-0,002
-654,101	298,392	-0,047	-0,064
-653,086	-19,578	0,156	0,071
-652,072	800,000	-0,046	-0,142
-651,057	0,985	-0,091	-0,048
-650,043	800,000	0,023	-0,053
-649,028	119,662	-0,132	0,120
-648,014	117,146	0,062	0,056
-646,999	37,836	0,032	-0,021
-645,984	25,252	-0,101	0,061
-644,970	29,464	0,059	0,037
-643,955	-72,211	-0,152	-0,041
-642,941	-200,000	0,009	-0,116
-641,926	-200,000	-0,028	-0,094
-640,911	117,635	-0,083	-0,075
-639,897	-200,000	-0,025	0,130
-638,882	211,396	-0,035	0,041
-637,868	-135,196	0,027	-0,002
-636,853	-26,942	-0,095	0,040
-635,838	119,563	0,091	0,083
-634,824	800,000	0,041	-0,112
-633,809	-124,831	0,063	-0,007
-632,795	131,010	0,113	0,107
-631,780	-200,000	0,015	0,210
-630,765	800,000	0,037	0,079
-629,751	-200,000	0,014	-0,142
-628,736	125,502	-0,024	-0,022
-627,722	99,162	-0,036	0,030
-626,707	-38,881	-0,049	0,019
-625,692	210,897	0,128	0,148
-624,678	-69,882	0,172	0,048
-623,663	800,000	-0,044	-0,110
-622,649	800,000	-0,017	0,043
-621,634	316,218	-0,019	-0,026
-620,619	-98,997	-0,052	-0,010
-619,605	-55,596	0,119	-0,039
-618,590	-200,000	-0,004	0,132
-617,576	-200,000	0,009	-0,052
-616,561	210,381	-0,097	-0,112
-615,546	-200,000	0,044	-0,149
-614,532	-34,106	-0,074	0,030
-613,517	96,831	0,105	-0,088
-612,503	201,828	-0,114	0,130
-611,488	-200,000	0,001	0,010
-610,474	139,379	0,104	0,101
-609,459	410,913	-0,061	0,096
-608,444	378,096	-0,018	-0,028
-607,430	95,733	-0,104	-0,087
-606,415	263,421	0,041	-0,053
-605,401	424,648	0,021	0,034
-604,386	102,697	-0,033	0,028
-603,371	353,263	0,042	0,062
-602,357	-75,135	-0,194	-0,050
-601,342	800,000	-0,026	0,062
-600,328	-105,445	-0,122	0,020
-599,313	143,688	-0,067	-0,065
-598,298	51,795	-0,044	0,030
-597,284	-98,389	0,174	0,032
-596,269	800,000	-0,030	0,091
-595,255	410,474	-0,124	-0,194
-594,240	382,240	0,088	-0,133
-593,225	-98,649	-0,170	-0,031
-592,211	45,252	-0,067	-0,045
-591,196	-156,949	-0,063	-0,003
-590,182	-24,586	0,127	-0,055
-589,167	-200,000	-0,006	0,022
-588,152	-10,983	0,103	0,050
-587,138	-138,947	-0,077	0,006
-586,123	-200,000	-0,031	-0,226
-585,109	438,677	-0,006	0,010
-584,094	-102,349	0,071	-0,012
-583,079	800,000	-0,053	-0,135
-582,065	-200,000	-0,007	0,028
-581,050	159,761	0,100	0,103
-580,036	-200,000	0,002	-0,008
-579,021	396,042	-0,047	-0,072
-578,006	492,789	-0,036	0,061
-576,992	-127,506	-0,185	-0,019
-575,977	86,035	0,043	0,035
-574,963	-10,999	0,101	0,049
-573,948	-200,000	0,024	0,120
-572,934	99,755	0,054	-0,046
-571,919	133,463	-0,113	-0,107
-570,904	125,934	-0,141	-0,131
-569,890	506,296	0,062	-0,106
-568,875	37,432	0,102	0,066
-567,861	134,035	-0,092	0,088
-566,846	-112,287	0,106	0,015
-565,831	-75,108	-0,065	-0,017
-564,817	-200,000	0,001	-0,106
-563,802	90,441	-0,131	-0,107
-562,788	-200,000	-0,019	-0,064
-561,773	256,983	0,024	-0,031
-560,758	-46,769	0,064	-0,023
-559,744	800,000	-0,019	-0,053
-558,729	277,303	-0,050	0,065
-557,715	51,766	0,074	-0,052
-556,700	91,599	0,065	0,053
-555,685	188,770	-0,044	0,048
-554,671	127,822	-0,019	0,018
-553,656	800,000	-0,015	0,040
-552,642	-123,504	0,128	0,015
-551,627	0,232	-0,106	-0,055
-550,612	-31,128	-0,098	0,040
-549,598	497,312	-0,065	-0,111
-548,583	-56,139	-0,054	-0,018
-547,569	-200,000	-0,002	0,012
-546,554	282,344	-0,048	0,063
-545,539	-85,580	-0,085	0,019
-544,525	86,041	0,028	0,023
-543,510	800,000	-0,051	0,143
-542,496	85,662	-0,045	0,036
-541,481	2,623	0,079	-0,042
-540,466	6,031	0,108	-0,059
-539,452	193,090	0,033	0,037
-538,437	135,901	0,054	0,051
-537,423	-200,000	0,009	0,067
-536,408	800,000	-0,044	-0,104
-535,393	-93,830	-0,099	-0,020
-534,379	88,337	0,096	0,078
-533,364	-111,189	-0,176	-0,026
-532,350	427,522	0,016	0,026
-531,335	-200,000	-0,022	0,155
-530,321	32,061	0,035	0,022
-529,306	137,549	0,046	0,044
-528,291	200,514	-0,064	0,072
-527,277	800,000	-0,022	-0,057
-526,262	-45,492	-0,149	-0,054
-525,248	800,000	0,041	-0,095
-524,233	144,557	0,086	0,084
-523,218	-140,054	0,053	-0,004
-522,204	56,203	-0,058	-0,041
-521,189	565,896	0,010	0,017
-520,175	35,529	-0,059	-0,038
-519,160	800,000	-0,031	-0,081
-518,145	47,549	0,043	-0,029
-517,131	-200,000	-0,002	-0,108
-516,116	48,978	-0,124	-0,085
-515,102	-30,230	-0,074	-0,031
-514,087	334,276	-0,049	-0,070
-513,072	-159,095	0,086	-0,003
-512,058	215,856	0,054	-0,063
-511,043	234,992	-0,058	-0,070
-510,029	-174,637	0,097	0,002
-509,014	32,654	0,134	0,085
-507,999	-200,000	-0,013	-0,051
-506,985	-100,786	0,021	0,004
-505,970	-135,076	0,057	-0,005
-504,956	51,582	0,020	-0,014
-503,941	-200,000	-0,008	0,027
-502,926	-47,026	0,162	-0,057
-501,912	303,066	0,064	-0,086
-500,897	61,209	-0,008	-0,006
-499,883	-11,675	0,049	-0,023
-498,868	-126,043	-0,111	-0,012
-497,853	418,117	-0,022	-0,034
-496,839	-25,245	0,142	-0,061
-495,824	512,945	-0,067	0,115
-494,810	800,000	0,027	-0,054
-493,795	-175,740	-0,044	-0,001
-492,781	800,000	0,046	0,108
-491,766	144,197	-0,040	0,039
-490,751	105,452	-0,048	0,042
-489,737	-54,614	-0,053	-0,017
-488,722	207,042	0,089	0,102
-487,708	-200,000	0,033	0,143
-486,693	-137,976	0,070	-0,006
-485,678	30,404	-0,138	-0,086
-484,664	800,000	-0,077	-0,180
-483,649	-94,979	0,042	-0,008
-482,635	-39,107	-0,075	0,029
-481,620	-113,887	-0,037	-0,005
-480,605	-200,000	0,046	0,148
-479,591	-91,906	-0,102	-0,021
-478,576	-200,000	-0,069	-0,228
-477,562	208,583	0,043	-0,049
-476,547	-60,667	0,083	0,026
-475,532	-127,582	-0,147	-0,015
-474,518	-200,000	0,011	0,126
-473,503	800,000	0,013	-0,034
-472,489	-15,972	0,127	-0,059
-471,474	358,347	-0,009	-0,013
-470,459	9,448	-0,037	-0,020
-469,445	-39,585	-0,115	0,044
-468,430	-143,911	-0,093	-0,006
-467,416	-200,000	-0,004	0,094
-466,401	309,776	0,043	-0,058
-465,386	-200,000	-0,016	0,062
-464,372	792,783	-0,033	0,067
-463,357	-65,422	-0,095	-0,028
-462,343	269,888	-0,019	-0,025
-461,328	131,737	-0,042	-0,039
-460,313	259,561	-0,032	-0,040
-459,299	-200,000	0,017	-0,150
-458,284	577,910	0,016	0,029
-457,270	-200,000	0,004	0,024
-456,255	96,320	-0,134	-0,112
-455,241	220,133	0,058	-0,068
-454,226	-58,569	0,034	-0,011
-453,211	800,000	0,019	-0,039
-452,197	-140,106	-0,050	-0,004
-451,182	-84,521	0,034	0,008
-450,168	360,172	0,062	0,090
-449,153	45,423	0,068	-0,046
-448,138	61,077	0,045	-0,032
-447,124	-14,155	0,104	-0,049
-446,109	169,135	-0,124	-0,129
-445,095	356,569	-0,019	-0,028
-444,080	-200,000	0,017	0,093
-443,065	148,171	-0,050	0,049
-442,051	-200,000	-0,032	-0,115
-441,036	-132,612	-0,087	0,008
-440,022	51,898	-0,058	-0,040
-439,007	-200,000	-0,017	0,135
-437,992	29,104	0,077	0,047
-436,978	-141,610	-0,157	0,011
-435,963	-83,532	0,047	-0,011
-434,949	629,435	-0,085	0,158
-433,934	128,589	-0,083	0,077
-432,919	-102,733	0,041	0,007
-431,905	-200,000	-0,009	-0,037
-430,890	-200,000	0,009	-0,049
-429,876	-200,000	0,004	0,063
-428,861	128,712	0,097	0,090
-427,846	-200,000	-0,016	-0,137
-426,832	238,899	0,100	-0,122
-425,817	-67,942	-0,064	0,018
-424,803	-136,626	0,150	0,012
-423,788	800,000	0,041	-0,103
-422,773	-200,000	-0,008	-0,089
-421,759	-200,000	0,020	0,134
-420,744	-58,562	0,155	-0,049
-419,730	255,175	-0,060	-0,075
-418,715	19,733	-0,022	0,013
-417,701	8,633	-0,079	-0,043
-416,686	-61,331	0,049	-0,015
-415,671	-200,000	0,052	0,169
-414,657	-37,133	0,127	0,049
-413,642	45,971	0,009	-0,006
-412,628	800,000	0,023	-0,072
-411,613	219,608	-0,072	-0,084
-410,598	454,140	-0,087	-0,141
-409,584	220,029	-0,036	-0,042
-408,569	319,515	-0,041	0,057
-407,555	-200,000	0,002	-0,008
-406,540	-200,000	0,010	0,064
-405,525	-63,699	0,043	0,013
-404,511	22,405	-0,073	-0,043
-403,496	-200,000	-0,027	-0,104
-402,482	800,000	0,015	0,043
-401,467	774,958	-0,022	0,044
-400,452	502,917	0,040	-0,067
-399,438	-144,771	0,107	-0,007
-398,423	-106,165	-0,158	0,026
-397,409	-200,000	-0,013	-0,084
-396,394	143,612	0,102	-0,099
-395,379	-9,915	0,082	-0,040
-394,365	-200,000	0,010	0,036
-393,350	-188,125	-0,075	-0,001
-392,336	-54,028	-0,062	-0,020
-391,321	101,464	-0,005	0,004
-390,306	-200,000	-0,009	-0,065
-389,292	-200,000	-0,006	0,022
-388,277	-102,436	0,080	0,014
-387,263	69,592	0,071	0,053
-386,248	102,934	0,082	0,069
-385,233	-150,006	-0,074	-0,004
-384,219	800,000	0,042	0,093
-383,204	-200,000	-0,009	-0,051
-382,190	57,708	-0,075	0,053
-381,175	-166,991	0,083	-0,002
-380,160	-200,000	-0,011	-0,064
-379,146	-15,894	0,078	-0,036
-378,131	595,934	-0,026	0,047
-377,117	198,120	-0,108	0,121
-376,102	-200,000	-0,019	0,095
-375,088	800,000	0,026	0,061
-374,073	276,831	-0,086	0,111
-373,058	-129,434	-0,073	-0,007
-372,044	-126,426	0,219	0,023
-371,029	-200,000	0,003	0,018
-370,015	-200,000	0,000	-0,068
-369,000	-111,398	-0,065	0,009
-367,985	536,998	-0,024	0,041
-366,971	-178,365	-0,096	0,002
-365,956	99,728	-0,038	0,032
-364,942	-200,000	-0,002	0,016
-363,927	264,812	-0,050	0,063
-362,912	-29,798	0,149	0,062
-361,898	13,506	-0,022	0,012
-360,883	800,000	-0,023	-0,066
-359,869	-200,000	0,025	-0,130
-358,854	-200,000	-0,007	0,042
-357,839	-200,000	0,009	0,072
-356,825	126,485	-0,026	0,024
-355,810	8,747	-0,049	0,027
-354,796	-8,469	0,052	-0,025
-353,781	420,790	0,072	-0,112
-352,766	-117,918	-0,093	0,012
-351,752	-200,000	0,017	-0,122
-350,737	172,049	-0,042	0,044
-349,723	196,026	-0,026	-0,028
-348,708	800,000	0,052	-0,120
-347,693	-200,000	-0,017	-0,076
-346,679	177,961	0,116	-0,123
-345,664	619,568	0,005	0,009
-344,650	-200,000	-0,007	-0,161
-343,635	-112,292	-0,041	-0,006
-342,620	-200,000	-0,013	0,171
-341,606	187,475	0,089	0,097
-340,591	391,184	0,092	0,139
-339,577	-44,839	0,035	0,013
-338,562	-200,000	-0,004	-0,054
-337,548	-58,812	0,102	-0,032
-336,533	107,236	0,072	0,062
-335,518	-200,000	0,003	0,281
-334,504	-69,907	0,063	0,017
-333,489	800,000	0,093	-0,236
-332,475	-153,401	-0,105	-0,005
-331,460	159,818	-0,020	-0,021
-330,445	-106,807	-0,067	0,011
-329,431	-2,483	0,058	-0,029
-328,416	-54,612	-0,048	-0,016
-327,402	419,866	0,096	0,149
-326,387	288,868	0,090	0,119
-325,372	-200,000	0,010	-0,095
-324,358	314,910	-0,074	-0,101
-323,343	106,961	-0,065	-0,056
-322,329	165,921	-0,039	-0,040
-321,314	-175,652	0,157	-0,003
-320,299	-76,697	0,117	0,030
-319,285	800,000	-0,021	-0,052
-318,270	-21,387	0,038	-0,017
-317,256	-200,000	0,018	0,089
-316,241	58,198	0,050	-0,035
-315,226	235,098	0,039	-0,047
-314,212	-200,000	-0,026	0,093
-313,197	-141,850	0,085	0,006
-312,183	800,000	-0,010	-0,030
-311,168	233,370	-0,046	-0,054
-310,153	71,086	-0,041	-0,031
-309,139	-37,198	0,032	-0,012
-308,124	-70,279	0,093	0,025
-307,110	800,000	0,043	-0,089
-306,095	141,216	0,061	0,059
-305,080	-200,000	0,011	0,042
-304,066	-200,000	0,000	0,049
-303,051	670,922	-0,031	0,059
-302,037	-200,000	-0,002	-0,024
-301,022	-125,472	-0,157	-0,017
-300,008	-144,016	0,053	0,004
-298,993	0,817	0,075	0,039
-297,978	800,000	0,039	0,107
-296,964	465,814	0,012	-0,019
-295,949	18,897	-0,114	-0,066
-294,935	185,344	-0,052	-0,056
-293,920	-111,896	-0,080	-0,012
-292,905	-200,000	-0,010	0,054
-291,891	-200,000	-0,030	0,162
-290,876	343,347	0,041	-0,059
-289,862	-22,740	-0,170	-0,074
-288,847	-144,223	0,010	0,001
-287,832	12,263	0,033	-0,019
-286,818	23,236	0,034	0,020
-285,803	41,003	-0,023	-0,015
-284,789	-153,722	0,121	-0,006
-283,774	119,413	0,066	0,059
-282,759	-10,940	-0,136	-0,065
-281,745	135,942	0,108	0,102
-280,730	-200,000	-0,005	-0,096
-279,716	167,907	-0,045	-0,047
-278,701	577,763	-0,069	0,123
-277,686	-200,000	-0,001	0,030
-276,672	-200,000	-0,011	-0,106
-275,657	-109,217	-0,150	0,023
-274,643	76,519	-0,064	0,049
-273,628	2,207	0,212	-0,110
-272,613	-138,215	-0,036	0,003
-271,599	275,197	0,019	0,024
-270,584	-200,000	0,001	0,040
-269,570	-200,000	0,023	0,100
-268,555	634,688	0,031	0,057
-267,540	352,236	-0,092	-0,132
-266,526	800,000	-0,068	-0,159
-265,511	800,000	0,052	-0,112
-264,497	41,181	0,050	0,033
-263,482	304,307	0,121	0,163
-262,467	-13,087	0,014	-0,006
-261,453	-88,802	0,084	0,018
-260,438	-200,000	-0,016	0,059
-259,424	91,227	-0,091	-0,074
-258,409	84,972	-0,060	-0,048
-257,395	159,264	0,046	0,046
-256,380	75,892	0,050	0,038
-255,365	93,364	0,116	-0,095
-254,351	561,853	-0,011	0,019
-253,336	11,474	-0,109	-0,061
-252,322	-200,000	-0,031	-0,167
-251,307	-186,871	-0,107	0,001
-250,292	465,997	0,032	0,052
-249,278	18,218	-0,002	0,001
-248,263	-9,305	0,076	0,037
-247,249	82,059	0,090	0,070
-246,234	19,756	0,039	-0,023
-245,219	-200,000	-0,001	-0,121
-244,205	51,016	-0,089	-0,061
-243,190	-200,000	0,033	0,146
-242,176	-43,013	0,093	0,034
-241,161	702,015	-0,045	-0,087
-240,146	587,334	0,032	-0,057
-239,132	169,477	-0,033	0,035
-238,117	649,271	0,032	-0,059
-237,103	795,902	-0,058	-0,116
-236,088	-97,735	0,081	0,015
-235,073	-200,000	0,016	0,090
-234,059	85,556	-0,035	0,028
-233,044	76,228	0,050	-0,038
-232,030	0,366	-0,130	0,067
-231,015	-12,669	-0,046	-0,021
-230,000	174,958	0,027	0,028
-228,986	295,287	0,049	-0,065
-227,971	-119,318	0,179	0,022
-226,957	131,413	0,088	0,082
-225,942	-200,000	0,014	0,082
-224,927	102,296	-0,092	0,078
-223,913	-200,000	0,011	0,055
-222,898	72,763	0,107	-0,081
-221,884	388,161	-0,043	-0,065
-220,869	-46,152	0,132	-0,047
-219,855	112,786	-0,072	0,063
-218,840	153,517	-0,011	-0,011
-217,825	383,695	-0,075	0,112
-216,811	129,185	0,063	-0,058
-215,796	-131,841	-0,199	-0,019
-214,782	601,783	-0,053	0,095
-213,767	-88,587	0,050	0,011
-212,752	-49,554	0,133	-0,045
-211,738	-200,000	0,006	0,103
-210,723	9,253	0,045	0,024
-209,709	800,000	0,083	-0,184
-208,694	-5,521	0,105	-0,052
-207,679	800,000	-0,044	0,101
-206,665	800,000	0,023	0,049
-205,650	800,000	-0,039	0,115
-204,636	-200,000	-0,016	0,093
-203,621	-9,107	0,104	-0,050
-202,606	109,321	-0,024	0,020
-201,592	-58,502	-0,044	0,014
-200,577	800,000	-0,015	0,046
-199,563	800,000	0,024	0,067
-198,548	284,793	0,011	0,015
-197,533	-200,000	0,010	0,103
-196,519	-52,860	-0,107	0,035
-195,504	-144,197	0,057	0,004
-194,490	800,000	0,045	0,117
-193,475	800,000	-0,032	-0,073
-192,460	-118,537	-0,111	-0,014
-191,446	164,128	0,061	0,062
-190,431	-18,560	-0,049	-0,022
-189,417	800,000	-0,021	0,061
-188,402	-121,105	-0,091	-0,011
-187,387	-119,606	-0,197	-0,024
-186,373	268,536	-0,025	0,031
-185,358	-200,000	0,015	-0,145
-184,344	-128,338	0,246	0,025
-183,329	-179,332	0,082	-0,001
-182,315	190,053	0,120	0,131
-181,300	-75,278	-0,041	-0,011
-180,285	-135,986	-0,054	0,005
-179,271	-200,000	0,004	0,038
-178,256	424,860	-0,040	-0,062
-177,242	-105,600	0,115	-0,019
-176,227	75,340	-0,007	0,006
-175,212	-200,000	-0,017	0,127
-174,198	19,378	0,026	0,015
-173,183	-51,947	-0,055	0,018
-172,169	800,000	0,051	-0,107
-171,154	3,355	-0,032	0,017
-170,139	430,917	0,042	-0,066
-169,125	636,668	0,060	0,110
-168,110	90,905	0,083	0,067
-167,096	-149,256	-0,114	-0,006
-166,081	-76,351	0,043	0,011
-165,066	-131,468	-0,153	0,014
-164,052	35,098	0,067	0,042
-163,037	-151,682	0,106	0,006
-162,023	-200,000	-0,014	0,147
-161,008	800,000	-0,041	0,090
-159,993	-87,633	-0,023	0,005
-158,979	391,597	-0,079	-0,119
-157,964	105,706	0,106	0,090
-156,950	800,000	0,007	0,022
-155,935	613,281	0,051	-0,093
-154,920	800,000	0,054	0,119
-153,906	-50,915	-0,181	-0,061
-152,891	-133,716	0,087	-0,008
-151,877	800,000	0,036	0,091
-150,862	800,000	0,024	-0,062
-149,847	363,182	0,052	0,076
-148,833	-200,000	0,019	-0,063
-147,818	-200,000	0,035	0,111
-146,804	-134,043	-0,043	-0,004
-145,789	-19,393	0,061	-0,027
-144,775	-200,000	0,000	-0,116
-143,760	-25,606	-0,091	-0,039
-142,745	710,280	-0,046	-0,088
-141,731	-9,012	0,059	0,028
-140,716	376,327	-0,037	0,054
-139,702	95,722	0,146	0,120
-138,687	-68,586	0,009	0,003
-137,672	226,098	0,039	-0,045
-136,658	-10,697	-0,015	-0,007
-135,643	204,173	-0,096	-0,107
-134,629	-200,000	0,035	0,180
-133,614	800,000	0,061	0,163
-132,599	513,010	-0,057	0,096
-131,585	-42,388	-0,066	-0,024
-130,570	485,911	-0,070	-0,116
-129,556	493,983	-0,019	0,032
-128,541	-200,000	0,022	-0,071
-127,526	-123,345	0,080	-0,009
-126,512	-136,538	-0,130	-0,011
-125,497	-200,000	-0,020	0,086
-124,483	58,293	0,068	0,048
-123,468	368,699	-0,096	0,140
-122,453	35,912	-0,062	0,039
-121,439	-200,000	-0,012	-0,064
-120,424	249,236	-0,046	-0,057
