DTS Sentinel unit serial number:	SN410029Multiplexer serial number:	ORYXHardware model number:	OX2-SRSoftware version number:	ORYX F/W v4,00 Oryx Data Collector v3.7.2.0data status	okinstallation	B5 Nyhavnadifferential loss correction	single-endedforward channel	channel 2reverse channel	N/Adate	2023/12/12time	05:42:13forward acquisition time	300,00reverse acquisition time	0,00gamma	499,1914k internal	0,3157k external	0,3157temperature offset calibration	1,0000default loss term (dB/km)	0,3820temperature slope calibration	1,0000multiplexer offset coefficient	1,0000multiplexer slope coefficient	1,0000fibre end	0,00T internal ref (°C)	15,33T ext. ref 1 (°C)	-1,05T ext. ref 2 (°C)	-1,35length (m)	temperature (°C)	Stokes	anti-Stokes-744,400	-200,000	-0,010	-0,062
-743,385	-83,695	-0,170	0,040
-742,371	800,000	0,086	0,218
-741,356	-132,895	-0,250	0,023
-740,342	-148,295	0,112	0,007
-739,327	-190,350	-0,268	0,002
-738,312	-99,682	0,086	-0,016
-737,298	-87,043	-0,403	0,090
-736,283	-58,319	0,149	0,048
-735,269	-25,625	-0,160	0,069
-734,254	-200,000	0,002	0,038
-733,239	-156,468	-0,456	-0,021
-732,225	365,231	0,168	0,251
-731,210	-14,990	0,084	0,039
-730,196	-200,000	-0,034	-0,114
-729,181	-40,721	-0,045	0,017
-728,167	207,547	0,044	-0,051
-727,152	-18,776	0,008	-0,004
-726,137	238,304	0,035	-0,043
-725,123	-200,000	-0,003	-0,049
-724,108	423,697	0,034	0,053
-723,094	-110,864	0,092	-0,014
-722,079	8,070	-0,066	-0,036
-721,064	800,000	-0,032	0,084
-720,050	-49,784	0,088	-0,031
-719,035	-100,712	-0,101	0,018
-718,021	217,426	-0,102	-0,120
-717,006	800,000	-0,058	0,179
-715,991	339,877	-0,110	-0,158
-714,977	-58,963	-0,143	-0,045
-713,962	-70,798	-0,080	0,022
-712,948	689,610	0,038	0,074
-711,933	149,222	0,078	-0,078
-710,918	-200,000	0,014	0,064
-709,904	-57,968	-0,052	0,017
-708,889	-99,053	-0,110	-0,020
-707,875	800,000	-0,043	-0,096
-706,860	-109,088	-0,151	-0,023
-705,845	-200,000	-0,019	0,101
-704,831	69,191	-0,054	-0,041
-703,816	800,000	0,024	0,059
-702,802	209,067	-0,082	-0,094
-701,787	-73,529	0,068	-0,018
-700,772	277,453	-0,009	-0,012
-699,758	134,306	-0,065	0,062
-698,743	-5,901	0,092	0,046
-697,729	-124,273	-0,090	0,010
-696,714	-7,603	0,129	0,064
-695,699	25,860	-0,038	-0,023
-694,685	-200,000	0,008	-0,030
-693,670	505,262	-0,090	0,154
-692,656	-159,948	0,073	-0,003
-691,641	37,709	-0,125	0,081
-690,627	-15,383	-0,046	0,021
-689,612	-200,000	0,002	0,096
-688,597	-200,000	-0,023	0,107
-687,583	283,870	-0,111	-0,147
-686,568	305,498	-0,012	0,016
-685,554	-102,643	-0,096	-0,017
-684,539	-17,615	-0,057	0,026
-683,524	76,048	0,073	-0,057
-682,510	800,000	-0,049	-0,104
-681,495	-200,000	-0,015	-0,061
-680,481	-55,301	-0,139	-0,046
-679,466	800,000	-0,060	-0,154
-678,451	-40,103	0,049	0,019
-677,437	129,145	-0,094	-0,088
-676,422	733,453	-0,065	-0,129
-675,408	240,406	0,048	-0,059
-674,393	-104,784	0,217	0,036
-673,378	-122,337	-0,142	0,017
-672,364	800,000	0,036	-0,077
-671,349	-99,333	0,046	0,008
-670,335	201,488	0,097	0,110
-669,320	-200,000	-0,024	0,150
-668,305	800,000	-0,055	0,131
-667,291	61,018	0,088	0,064
-666,276	147,652	-0,036	-0,036
-665,262	-7,243	-0,133	-0,066
-664,247	0,021	-0,080	0,042
-663,232	298,818	-0,041	-0,056
-662,218	606,911	0,065	0,119
-661,203	-112,380	-0,078	0,011
-660,189	800,000	-0,023	-0,047
-659,174	-177,448	0,141	0,002
-658,159	-70,435	0,079	0,022
-657,145	800,000	0,021	-0,047
-656,130	-129,000	0,053	0,005
-655,116	-200,000	0,011	0,062
-654,101	8,521	0,082	0,045
-653,086	46,423	0,061	-0,041
-652,072	281,750	0,065	0,085
-651,057	53,275	-0,116	-0,082
-650,043	359,876	0,058	0,086
-649,028	116,237	-0,088	0,079
-648,014	-159,136	0,131	0,005
-646,999	800,000	-0,050	0,138
-645,984	-200,000	-0,013	-0,056
-644,970	12,793	-0,137	0,078
-643,955	800,000	-0,032	-0,095
-642,941	133,034	-0,106	-0,101
-641,926	42,581	0,210	-0,140
-640,911	7,833	-0,059	0,032
-639,897	390,582	0,065	0,099
-638,882	-101,780	-0,119	-0,021
-637,868	800,000	0,039	-0,112
-636,853	27,667	0,074	0,046
-635,838	-200,000	0,014	-0,148
-634,824	-200,000	-0,014	-0,141
-633,809	-200,000	-0,004	0,058
-632,795	510,467	-0,036	0,062
-631,780	-136,291	-0,166	-0,014
-630,765	-158,094	-0,112	0,005
-629,751	-65,117	0,134	-0,039
-628,736	-182,464	-0,213	0,003
-627,722	150,116	0,096	0,096
-626,707	19,858	0,138	0,081
-625,692	-39,985	-0,028	0,011
-624,678	237,238	-0,072	0,088
-623,663	-10,440	0,058	0,028
-622,649	-66,530	-0,120	0,035
-621,634	-200,000	-0,018	0,100
-620,619	19,419	-0,066	-0,039
-619,605	-200,000	-0,034	-0,148
-618,590	346,343	0,087	0,126
-617,576	-200,000	-0,010	0,114
-616,561	-200,000	-0,006	-0,101
-615,546	5,086	-0,101	-0,055
-614,532	-144,566	0,026	-0,002
-613,517	-200,000	0,025	-0,123
-612,503	215,118	-0,063	0,074
-611,488	-95,631	0,109	0,021
-610,474	-83,599	0,063	0,015
-609,459	2,875	-0,096	-0,051
-608,444	-33,264	-0,041	0,016
-607,430	-139,528	0,015	0,001
-606,415	-35,147	-0,136	0,054
-605,401	413,200	-0,028	0,044
-604,386	283,721	-0,070	0,093
-603,371	-200,000	-0,001	0,036
-602,357	617,048	0,033	-0,061
-601,342	800,000	-0,072	0,208
-600,328	-200,000	0,022	-0,098
-599,313	215,582	-0,047	-0,055
-598,298	25,874	0,015	0,009
-597,284	-42,736	0,058	-0,021
-596,269	60,650	-0,023	-0,017
-595,255	383,346	-0,072	-0,108
-594,240	-110,452	0,034	-0,005
-593,225	-70,093	-0,098	0,027
-592,211	800,000	-0,023	-0,059
-591,196	109,932	-0,062	-0,054
-590,182	-73,513	0,067	0,018
-589,167	-7,221	0,075	0,037
-588,152	733,811	-0,016	-0,032
-587,138	-87,318	-0,123	0,027
-586,123	800,000	0,086	-0,210
-585,109	-200,000	-0,022	-0,093
-584,094	-28,003	-0,017	0,007
-583,079	139,270	0,113	0,109
-582,065	800,000	-0,040	0,096
-581,050	-153,352	0,107	0,005
-580,036	-165,313	0,151	0,005
-579,021	158,098	-0,072	-0,073
-578,006	800,000	0,023	0,067
-576,992	257,317	-0,036	0,046
-575,977	-200,000	0,023	0,165
-574,963	-129,185	0,133	0,013
-573,948	47,374	0,140	0,096
-572,934	-200,000	0,000	-0,064
-571,919	800,000	-0,016	0,033
-570,904	-200,000	-0,006	-0,087
-569,890	-200,000	-0,009	-0,078
-568,875	-200,000	-0,008	0,087
-567,861	298,481	0,020	-0,027
-566,846	-200,000	-0,001	0,139
-565,831	138,724	-0,095	0,091
-564,817	-17,398	-0,132	0,060
-563,802	-200,000	0,012	-0,144
-562,788	-200,000	-0,007	0,076
-561,773	107,574	-0,050	0,043
-560,758	-78,027	0,030	0,008
-559,744	3,997	0,101	-0,054
-558,729	-107,015	-0,106	-0,017
-557,715	257,473	0,105	-0,133
-556,700	24,113	-0,093	-0,056
-555,685	-3,218	0,027	0,014
-554,671	123,498	0,066	-0,061
-553,656	28,524	0,042	0,026
-552,642	137,697	0,058	-0,055
-551,627	567,068	0,050	0,090
-550,612	725,985	-0,023	-0,045
-549,598	715,492	0,041	-0,079
-548,583	-200,000	0,004	-0,240
-547,569	183,438	-0,043	-0,046
-546,554	-27,175	0,071	0,030
-545,539	457,429	0,037	0,060
-544,525	80,414	0,049	0,038
-543,510	-47,770	-0,069	0,024
-542,496	-80,424	0,075	-0,018
-541,481	-200,000	0,017	-0,128
-540,466	800,000	-0,013	-0,032
-539,452	-5,938	0,084	-0,042
-538,437	245,216	0,069	-0,085
-537,423	-200,000	0,044	-0,147
-536,408	340,077	-0,064	-0,092
-535,393	-200,000	0,034	-0,136
-534,379	403,291	0,033	-0,050
-533,364	39,503	-0,134	-0,088
-532,350	14,152	-0,077	-0,044
-531,335	279,936	-0,059	-0,077
-530,321	-200,000	0,021	0,090
-529,306	-200,000	0,007	-0,101
-528,291	-62,700	-0,160	-0,048
-527,277	-88,365	-0,112	0,024
-526,262	-87,203	-0,163	0,036
-525,248	-38,153	-0,064	-0,025
-524,233	399,937	0,055	0,085
-523,218	349,587	0,058	0,083
-522,204	497,240	0,056	0,094
-521,189	17,995	-0,014	0,008
-520,175	152,255	0,063	-0,063
-519,160	-92,918	-0,076	0,015
-518,145	-88,146	0,111	0,024
-517,131	-20,868	-0,041	0,018
-516,116	-200,000	0,012	0,139
-515,102	-200,000	0,004	0,110
-514,087	-112,071	-0,054	-0,008
-513,072	800,000	-0,077	0,164
-512,058	-200,000	0,012	-0,043
-511,043	-56,331	0,033	0,011
-510,029	-185,001	0,168	0,002
-509,014	-11,255	-0,050	0,024
-507,999	164,602	0,062	-0,064
-506,985	800,000	-0,064	-0,176
-505,970	800,000	0,033	0,070
-504,956	362,665	-0,048	-0,070
-503,941	-200,000	-0,029	0,111
-502,926	-18,293	0,057	-0,026
-501,912	117,676	0,101	-0,091
-500,897	-87,695	-0,084	-0,018
-499,883	664,207	0,021	-0,039
-498,868	636,270	-0,026	0,049
-497,853	-200,000	-0,010	-0,049
-496,839	51,409	-0,080	0,056
-495,824	-29,885	-0,063	0,026
-494,810	640,043	-0,050	0,093
-493,795	-14,873	0,079	0,037
-492,781	-200,000	-0,013	-0,168
-491,766	670,028	0,042	-0,080
-490,751	800,000	-0,002	-0,005
-489,737	221,267	-0,082	-0,096
-488,722	-168,679	0,139	-0,004
-487,708	162,737	0,127	0,130
-486,693	114,606	0,077	-0,069
-485,678	3,279	0,097	0,051
-484,664	4,848	-0,106	-0,057
-483,649	167,176	0,119	0,123
-482,635	-200,000	0,026	-0,097
-481,620	577,535	-0,025	0,044
-480,605	-200,000	0,051	0,198
-479,591	800,000	-0,059	0,128
-478,576	673,361	0,010	-0,018
-477,562	-38,259	-0,029	-0,011
-476,547	-200,000	0,001	-0,102
-475,532	360,061	0,060	-0,089
-474,518	-95,838	-0,070	0,014
-473,503	-72,293	-0,157	-0,042
-472,489	7,472	0,086	-0,047
-471,474	-200,000	0,035	0,175
-470,459	-102,151	-0,094	-0,016
-469,445	193,146	0,047	-0,051
-468,430	-200,000	0,000	0,011
-467,416	800,000	-0,054	-0,146
-466,401	-122,202	0,068	-0,008
-465,386	84,220	0,117	0,093
-464,372	800,000	-0,047	-0,123
-463,357	656,290	-0,047	-0,089
-462,343	-11,741	-0,085	-0,041
-461,328	-43,905	-0,046	-0,017
-460,313	-88,219	0,036	-0,008
-459,299	426,520	0,062	0,097
-458,284	313,847	0,026	0,036
-457,270	316,346	-0,095	-0,131
-456,255	107,239	-0,025	-0,022
-455,241	721,452	0,116	0,225
-454,226	16,008	-0,131	0,075
-453,211	-95,568	0,085	0,016
-452,197	0,246	0,068	0,035
-451,182	-66,483	-0,020	0,006
-450,168	207,033	0,073	-0,083
-449,153	-126,240	-0,058	-0,006
-448,138	-200,000	-0,017	0,151
-447,124	635,607	-0,032	0,060
-446,109	800,000	0,026	0,076
-445,095	27,835	0,077	0,047
-444,080	242,072	-0,090	0,110
-443,065	277,466	0,017	-0,022
-442,051	800,000	-0,003	0,007
-441,036	-91,183	-0,113	-0,023
-440,022	239,986	-0,125	0,152
-439,007	800,000	0,021	-0,055
-437,992	200,031	0,049	0,055
-436,978	788,193	0,037	0,074
-435,963	-42,014	0,094	0,035
-434,949	-29,753	0,056	-0,023
-433,934	400,820	0,015	-0,023
-432,919	-95,388	-0,051	0,010
-431,905	283,190	-0,002	0,003
-430,890	800,000	-0,038	0,097
-429,876	49,205	0,188	0,129
-428,861	-72,022	-0,078	0,021
-427,846	332,547	0,079	0,111
-426,832	5,436	-0,229	-0,123
-425,817	75,080	-0,109	-0,084
-424,803	-200,000	0,019	0,069
-423,788	184,159	0,051	0,055
-422,773	800,000	-0,017	-0,049
-421,759	-118,805	0,194	-0,025
-420,744	624,907	0,059	0,108
-419,730	74,530	-0,082	-0,063
-418,715	179,560	0,019	-0,021
-417,701	-56,880	0,228	0,073
-416,686	163,175	-0,086	-0,088
-415,671	20,809	0,057	-0,033
-414,657	-200,000	-0,020	-0,127
-413,642	0,645	0,059	-0,031
-412,628	15,628	-0,131	-0,075
-411,613	-53,894	-0,044	-0,015
-410,598	60,343	-0,022	-0,016
-409,584	7,668	-0,140	-0,076
-408,569	800,000	0,016	-0,046
-407,555	478,937	-0,024	-0,040
-406,540	-153,481	-0,127	-0,006
-405,525	118,832	-0,135	-0,122
-404,511	696,885	-0,059	-0,113
-403,496	48,593	0,074	-0,050
-402,482	58,944	-0,064	-0,046
-401,467	294,393	0,034	0,046
-400,452	800,000	-0,037	0,076
-399,438	-200,000	-0,003	-0,038
-398,423	-179,386	-0,031	0,000
-397,409	673,011	0,076	-0,144
-396,394	-200,000	0,007	0,137
-395,379	288,791	-0,023	-0,031
-394,365	-119,697	-0,115	-0,014
-393,350	156,433	0,028	0,028
-392,336	-151,241	-0,140	0,008
-391,321	122,548	0,028	0,026
-390,306	-97,608	0,036	-0,007
-389,292	-200,000	-0,026	0,107
-388,277	-48,110	0,078	0,027
-387,263	-31,485	0,049	0,020
-386,248	-200,000	-0,005	0,054
-385,233	-39,208	-0,048	0,018
-384,219	-200,000	0,005	0,023
-383,204	133,062	-0,073	-0,069
-382,190	-181,092	-0,065	0,001
-381,175	800,000	0,024	-0,072
-380,160	12,477	0,060	0,033
-379,146	122,143	0,048	0,043
-378,131	-89,486	-0,089	-0,019
-377,117	55,450	-0,098	-0,069
-376,102	-200,000	0,005	0,015
-375,088	800,000	0,051	-0,119
-374,073	-200,000	0,011	-0,162
-373,058	129,006	-0,131	-0,122
-372,044	-139,340	0,210	0,016
-371,029	-200,000	-0,021	0,141
-370,015	-33,218	0,054	-0,022
-369,000	-200,000	-0,000	-0,069
-367,985	800,000	-0,035	-0,101
-366,971	-24,858	-0,084	0,036
-365,956	-143,308	-0,050	0,003
-364,942	-138,013	0,173	0,014
-363,927	99,400	0,076	0,064
-362,912	-101,536	-0,111	0,019
-361,898	-200,000	0,008	0,081
-360,883	-166,656	-0,146	-0,004
-359,869	171,632	-0,049	0,051
-358,854	-200,000	0,002	0,024
-357,839	-24,024	-0,176	0,076
-356,825	-200,000	0,010	0,054
-355,810	93,508	-0,069	0,056
-354,796	800,000	0,026	-0,057
-353,781	-101,812	-0,083	0,015
-352,766	-200,000	-0,005	-0,045
-351,752	45,507	0,084	0,056
-350,737	-48,757	0,052	0,018
-349,723	-200,000	0,004	0,025
-348,708	-200,000	-0,030	0,111
-347,693	56,290	-0,099	0,070
-346,679	240,282	-0,030	0,036
-345,664	-35,952	-0,045	-0,018
-344,650	800,000	-0,011	-0,030
-343,635	70,919	0,028	0,021
-342,620	-141,896	0,065	-0,005
-341,606	158,157	-0,059	-0,060
-340,591	486,249	0,046	-0,077
-339,577	800,000	-0,070	-0,181
-338,562	314,118	-0,052	0,071
-337,548	800,000	0,029	0,081
-336,533	-200,000	0,000	0,024
-335,518	31,749	0,122	-0,076
-334,504	494,012	-0,068	0,114
-333,489	206,082	-0,062	-0,070
-332,475	-200,000	0,007	-0,065
-331,460	675,302	-0,007	0,012
-330,445	-200,000	0,009	0,118
-329,431	337,507	0,065	0,092
-328,416	285,724	-0,024	-0,032
-327,402	-200,000	0,013	-0,078
-326,387	-200,000	0,002	0,032
-325,372	264,612	0,041	-0,052
-324,358	800,000	0,020	-0,054
-323,343	-97,037	0,091	-0,017
-322,329	-191,089	0,044	-0,000
-321,314	-185,288	0,094	0,001
-320,299	-200,000	0,001	0,095
-319,285	214,557	-0,044	0,051
-318,270	-38,465	0,022	-0,009
-317,256	488,334	-0,033	0,056
-316,241	431,624	-0,002	-0,004
-315,226	-200,000	-0,007	0,097
-314,212	-89,285	0,066	0,014
-313,197	616,179	0,031	0,056
-312,183	676,057	-0,088	0,167
-311,168	107,125	-0,055	0,048
-310,153	-121,992	-0,078	0,009
-309,139	-59,086	0,134	-0,042
-308,124	-83,589	-0,047	0,011
-307,110	-200,000	-0,003	0,026
-306,095	800,000	-0,029	0,069
-305,080	-200,000	0,032	-0,135
-304,066	7,158	-0,038	0,021
-303,051	-6,766	0,046	-0,023
-302,037	586,047	-0,017	-0,030
-301,022	148,135	0,055	0,054
-300,008	-31,008	0,195	-0,079
-298,993	95,485	-0,073	0,061
-297,978	800,000	-0,029	0,088
-296,964	3,551	0,037	0,020
-295,949	600,765	0,016	-0,028
-294,935	49,244	0,044	-0,030
-293,920	-77,446	0,112	0,028
-292,905	539,639	-0,071	-0,123
-291,891	-163,855	0,068	0,002
-290,876	-133,453	0,080	0,007
-289,862	35,133	0,185	-0,117
-288,847	-200,000	0,015	-0,158
-287,832	601,228	-0,015	0,027
-286,818	800,000	0,038	-0,107
-285,803	-102,136	0,048	-0,008
-284,789	70,022	0,036	-0,027
-283,774	-200,000	0,014	0,057
-282,759	269,315	-0,054	0,069
-281,745	-200,000	0,011	-0,147
-280,730	33,453	-0,017	0,011
-279,716	57,964	-0,077	0,055
-278,701	377,657	0,045	0,066
-277,686	-200,000	0,017	-0,083
-276,672	524,719	-0,042	0,072
-275,657	93,825	0,060	-0,049
-274,643	21,334	0,010	0,006
-273,628	176,325	-0,077	-0,081
-272,613	369,343	0,069	-0,101
-271,599	-200,000	-0,008	0,085
-270,584	800,000	-0,043	-0,113
-269,570	800,000	0,024	-0,076
-268,555	800,000	-0,044	0,095
-267,540	-115,097	0,033	-0,005
-266,526	150,504	0,040	-0,039
-265,511	-111,300	0,121	0,018
-264,497	55,613	0,031	0,021
-263,482	800,000	0,026	0,063
-262,467	94,555	0,023	-0,019
-261,453	800,000	0,003	0,006
-260,438	-3,312	-0,056	0,028
-259,424	-200,000	-0,006	-0,082
-258,409	800,000	-0,021	0,043
-257,395	38,249	-0,040	-0,026
-256,380	-200,000	0,047	0,212
-255,365	61,378	0,017	-0,012
-254,351	639,996	0,010	-0,018
-253,336	115,062	0,066	-0,059
-252,322	703,033	-0,058	-0,111
-251,307	-39,885	0,053	-0,020
-250,292	-200,000	-0,007	0,054
-249,278	95,349	0,124	0,102
-248,263	36,221	-0,102	0,065
-247,249	-51,586	0,022	0,007
-246,234	-39,404	0,056	-0,021
-245,219	800,000	0,034	-0,078
-244,205	-163,119	-0,062	0,002
-243,190	-111,622	0,161	0,023
-242,176	800,000	0,056	0,162
-241,161	-200,000	0,023	0,089
-240,146	542,149	-0,087	0,151
-239,132	-1,878	-0,070	0,036
-238,117	125,520	-0,053	-0,048
-237,103	535,480	-0,049	-0,084
-236,088	-105,893	-0,077	0,012
-235,073	-149,343	-0,084	0,005
-234,059	-20,544	0,134	-0,059
-233,044	223,372	0,039	0,045
-232,030	471,166	-0,004	-0,006
-231,015	-59,879	-0,024	-0,007
-230,000	539,697	-0,025	-0,043
-228,986	-47,825	-0,126	0,044
-227,971	-200,000	-0,001	0,075
-226,957	800,000	0,059	0,160
-225,942	-200,000	-0,010	-0,048
-224,927	715,420	-0,042	0,082
-223,913	-200,000	0,005	-0,071
-222,898	95,252	-0,145	-0,120
-221,884	-118,294	0,092	-0,012
-220,869	-200,000	0,025	0,103
-219,855	-200,000	-0,004	-0,040
-218,840	-165,500	0,095	0,003
-217,825	-200,000	0,015	0,134
-216,811	-200,000	0,014	-0,052
-215,796	-200,000	0,020	-0,079
-214,782	33,279	-0,108	0,067
-213,767	-200,000	-0,001	0,026
-212,752	800,000	0,041	-0,124
-211,738	35,705	0,075	0,048
-210,723	450,193	0,067	0,108
-209,709	-200,000	-0,023	-0,125
-208,694	34,107	0,063	-0,040
-207,679	-74,868	-0,067	-0,017
-206,665	-200,000	0,013	-0,061
-205,650	276,745	0,058	0,075
-204,636	-200,000	-0,007	0,069
-203,621	-200,000	0,000	-0,072
-202,606	-114,457	-0,046	0,006
-201,592	140,466	-0,104	-0,100
-200,577	-200,000	-0,004	-0,042
-199,563	800,000	0,029	0,070
-198,548	-29,581	0,198	0,081
-197,533	-104,216	0,072	0,012
-196,519	-34,189	-0,046	-0,018
-195,504	80,249	-0,046	-0,036
-194,490	19,732	-0,151	0,087
-193,475	85,421	0,118	0,093
-192,460	-200,000	0,053	0,177
-191,446	-124,829	0,043	-0,005
-190,431	-200,000	0,016	0,054
-189,417	-200,000	0,021	-0,077
-188,402	600,161	-0,022	0,039
-187,387	-18,732	-0,096	-0,043
-186,373	800,000	-0,083	-0,203
-185,358	308,463	-0,024	0,033
-184,344	-29,606	-0,017	0,007
-183,329	44,476	0,067	-0,045
-182,315	800,000	-0,046	-0,097
-181,300	800,000	-0,024	0,066
-180,285	-200,000	-0,034	-0,116
-179,271	29,902	0,058	-0,036
-178,256	-164,940	-0,089	-0,003
-177,242	800,000	0,030	0,082
-176,227	800,000	-0,027	0,064
-175,212	311,066	-0,038	-0,051
-174,198	-200,000	0,010	-0,117
-173,183	-200,000	-0,024	-0,123
-172,169	-15,680	-0,025	0,011
-171,154	368,477	-0,018	-0,026
-170,139	-8,025	0,103	0,050
-169,125	108,807	-0,105	0,090
-168,110	800,000	0,048	-0,097
-167,096	-200,000	0,028	0,123
-166,081	13,798	0,116	0,065
-165,066	800,000	-0,042	-0,108
-164,052	-13,300	0,024	-0,011
-163,037	800,000	0,046	0,107
-162,023	79,317	0,097	0,075
-161,008	621,243	-0,037	0,067
-159,993	387,061	0,059	0,088
-158,979	-18,367	-0,079	0,036
-157,964	-200,000	0,002	-0,157
-156,950	225,832	0,044	-0,052
-155,935	-71,563	0,117	-0,031
-154,920	-146,001	0,080	-0,005
-153,906	285,157	-0,093	-0,121
-152,891	179,941	0,006	0,006
-151,877	-77,481	-0,056	0,014
-150,862	462,738	0,025	-0,040
-149,847	496,221	-0,045	-0,074
-148,833	106,137	-0,055	0,047
-147,818	32,069	0,087	-0,054
-146,804	-141,761	-0,071	-0,005
-145,789	40,738	-0,068	-0,044
-144,775	272,946	-0,048	-0,062
-143,760	-149,050	-0,055	-0,003
-142,745	-178,966	-0,133	-0,002
-141,731	-17,831	-0,076	0,034
-140,716	-200,000	-0,002	-0,060
-139,702	35,549	-0,023	0,015
-138,687	675,815	0,013	0,024
-137,672	-116,396	-0,082	0,011
-136,658	800,000	-0,046	-0,091
-135,643	-200,000	-0,008	-0,082
-134,629	217,494	0,014	0,017
-133,614	55,268	0,031	0,021
-132,599	551,283	0,034	0,059
-131,585	-200,000	-0,023	0,130
-130,570	-200,000	-0,005	-0,042
-129,556	800,000	-0,040	-0,083
-128,541	800,000	-0,047	-0,104
-127,526	102,733	0,024	0,021
-126,512	280,259	0,048	-0,062
-125,497	-200,000	0,005	0,040
-124,483	-160,671	-0,093	0,004
-123,468	800,000	0,032	0,075
-122,453	52,764	0,065	-0,045
-121,439	21,599	-0,083	-0,049
-120,424	800,000	0,073	-0,149
-119,410	-27,997	-0,023	0,010
-118,395	-200,000	0,020	0,123
