DTS Sentinel unit serial number:	SN410029Multiplexer serial number:	ORYXHardware model number:	OX2-SRSoftware version number:	ORYX F/W v4,00 Oryx Data Collector v3.7.2.0data status	okinstallation	B5 Nyhavnadifferential loss correction	single-endedforward channel	channel 2reverse channel	N/Adate	2023/12/14time	05:32:13forward acquisition time	300,00reverse acquisition time	0,00gamma	499,1914k internal	0,3156k external	0,3156temperature offset calibration	1,0000default loss term (dB/km)	0,3820temperature slope calibration	1,0000multiplexer offset coefficient	1,0000multiplexer slope coefficient	1,0000fibre end	0,00T internal ref (°C)	7,75T ext. ref 1 (°C)	-8,70T ext. ref 2 (°C)	-8,81length (m)	temperature (°C)	Stokes	anti-Stokes-744,400	800,000	0,081	0,166
-743,385	-43,228	-0,189	-0,070
-742,371	-77,027	0,135	-0,034
-741,356	-200,000	-0,309	0,001
-740,342	-74,494	0,225	0,059
-739,327	-109,903	-0,468	-0,072
-738,312	12,409	0,150	0,085
-737,298	-161,411	-0,256	-0,010
-736,283	270,943	0,101	0,132
-735,269	-111,072	-0,319	-0,048
-734,254	-152,826	0,152	0,008
-733,239	-27,927	-0,678	-0,288
-732,225	-86,603	0,208	0,047
-731,210	101,261	-0,112	0,096
-730,196	118,075	-0,079	-0,072
-729,181	45,410	-0,066	-0,045
-728,167	-74,263	-0,046	-0,012
-727,152	216,408	-0,061	0,072
-726,137	-109,794	-0,111	-0,017
-725,123	800,000	-0,042	0,087
-724,108	-101,979	-0,175	-0,031
-723,094	-43,391	-0,158	0,059
-722,079	800,000	-0,094	-0,201
-721,064	621,562	-0,034	0,063
-720,050	266,776	-0,123	-0,158
-719,035	-200,000	-0,021	-0,119
-718,021	800,000	-0,068	-0,145
-717,006	-200,000	-0,015	-0,117
-715,991	-157,371	-0,154	0,007
-714,977	153,244	-0,135	-0,136
-713,962	-200,000	-0,008	-0,036
-712,948	62,923	0,143	0,106
-711,933	-200,000	0,015	0,100
-710,918	-200,000	0,008	-0,052
-709,904	-200,000	-0,008	-0,106
-708,889	-61,986	0,066	-0,020
-707,875	351,833	-0,083	-0,121
-706,860	-198,791	0,155	-0,001
-705,845	-31,985	-0,108	0,044
-704,831	411,297	0,098	-0,153
-703,816	800,000	-0,017	0,055
-702,802	-96,878	-0,071	0,014
-701,787	-85,588	-0,071	0,016
-700,772	-77,189	0,017	0,004
-699,758	-200,000	0,005	0,123
-698,743	206,711	0,023	-0,026
-697,729	-200,000	0,039	0,128
-696,714	-196,542	-0,015	0,000
-695,699	-200,000	-0,002	-0,024
-694,685	-5,425	-0,044	0,022
-693,670	-200,000	-0,008	-0,051
-692,656	339,966	-0,090	0,129
-691,641	161,173	-0,058	0,060
-690,627	800,000	-0,043	0,094
-689,612	527,858	-0,060	0,104
-688,597	-5,241	0,167	-0,084
-687,583	42,281	-0,135	-0,090
-686,568	32,929	0,100	-0,063
-685,554	-53,534	-0,022	-0,007
-684,539	403,152	0,067	0,103
-683,524	48,197	0,057	0,039
-682,510	-175,699	0,091	0,002
-681,495	765,410	-0,031	0,062
-680,481	-26,537	-0,094	0,040
-679,466	800,000	0,026	0,067
-678,451	-200,000	0,010	-0,071
-677,437	800,000	0,031	-0,096
-676,422	124,958	0,117	0,108
-675,408	800,000	-0,061	0,186
-674,393	15,071	0,094	0,054
-673,378	3,612	-0,129	0,069
-672,364	-94,565	-0,110	0,022
-671,349	-200,000	-0,019	0,131
-670,335	599,441	0,077	-0,142
-669,320	-200,000	-0,009	0,120
-668,305	-70,631	0,039	0,011
-667,291	96,558	0,036	0,031
-666,276	85,212	-0,014	-0,011
-665,262	231,446	-0,012	0,015
-664,247	456,542	-0,060	-0,098
-663,232	-7,098	-0,189	0,094
-662,218	-29,428	0,176	0,074
-661,203	582,951	-0,075	0,136
-660,189	-101,804	-0,093	0,016
-659,174	435,082	0,062	-0,100
-658,159	-176,203	-0,139	0,003
-657,145	-127,511	-0,083	0,009
-656,130	-200,000	0,026	0,094
-655,116	720,661	0,042	0,082
-654,101	-79,210	-0,107	0,026
-653,086	-136,852	-0,158	-0,013
-652,072	-200,000	-0,010	-0,105
-651,057	-21,337	-0,169	0,075
-650,043	63,562	-0,065	-0,048
-649,028	-200,000	0,011	0,067
-648,014	188,673	0,038	0,042
-646,999	355,027	-0,040	-0,059
-645,984	-200,000	0,000	-0,004
-644,970	-111,126	-0,110	0,016
-643,955	800,000	-0,023	-0,051
-642,941	-200,000	0,019	-0,203
-641,926	-11,012	0,016	-0,008
-640,911	-200,000	-0,010	0,071
-639,897	259,957	-0,066	0,083
-638,882	130,128	0,035	0,033
-637,868	-200,000	0,008	-0,075
-636,853	-200,000	-0,000	-0,083
-635,838	-200,000	0,025	-0,142
-634,824	-200,000	-0,013	0,063
-633,809	800,000	-0,054	0,113
-632,795	51,479	0,064	0,045
-631,780	-13,770	-0,129	-0,061
-630,765	-200,000	-0,014	-0,045
-629,751	-106,848	-0,028	0,005
-628,736	109,977	-0,069	-0,060
-627,722	-42,661	0,031	0,012
-626,707	800,000	-0,021	0,051
-625,692	-200,000	0,014	0,121
-624,678	-200,000	0,003	-0,009
-623,663	-122,226	-0,198	0,023
-622,649	800,000	-0,030	-0,074
-621,634	230,573	0,029	0,035
-620,619	800,000	0,067	0,173
-619,605	-200,000	-0,030	0,130
-618,590	800,000	-0,007	0,017
-617,576	-30,412	-0,066	0,027
-616,561	-115,115	-0,137	0,019
-615,546	800,000	0,039	-0,083
-614,532	-73,431	-0,111	-0,030
-613,517	167,941	-0,085	-0,088
-612,503	800,000	0,016	0,040
-611,488	-34,002	0,179	-0,072
-610,474	-50,482	-0,145	-0,050
-609,459	76,014	0,084	0,065
-608,444	-12,933	-0,078	-0,037
-607,430	-200,000	-0,034	0,130
-606,415	-200,000	-0,034	-0,159
-605,401	-200,000	0,004	0,051
-604,386	800,000	0,056	-0,131
-603,371	800,000	-0,046	0,120
-602,357	-200,000	0,006	-0,067
-601,342	-43,995	0,080	0,030
-600,328	192,770	-0,134	-0,148
-599,313	-106,283	-0,108	-0,018
-598,298	-8,257	-0,093	-0,046
-597,284	800,000	0,031	0,064
-596,269	96,778	-0,113	0,095
-595,255	-200,000	-0,011	-0,082
-594,240	-125,982	-0,158	0,017
-593,225	8,296	-0,074	-0,041
-592,211	-31,307	-0,144	-0,059
-591,196	-146,748	-0,032	0,002
-590,182	800,000	0,013	0,039
-589,167	70,489	-0,091	0,069
-588,152	-200,000	-0,021	0,100
-587,138	30,221	-0,035	-0,022
-586,123	294,137	-0,081	-0,109
-585,109	379,519	-0,066	-0,099
-584,094	129,050	0,082	-0,077
-583,079	151,490	0,099	0,099
-582,065	-200,000	0,020	0,133
-581,050	800,000	-0,063	0,163
-580,036	-107,174	-0,050	-0,008
-579,021	-154,776	-0,051	-0,002
-578,006	-23,149	-0,026	0,011
-576,992	318,268	0,100	0,139
-575,977	94,025	0,103	-0,085
-574,963	-200,000	0,010	-0,082
-573,948	-120,752	0,162	-0,020
-572,934	-46,185	0,069	0,025
-571,919	140,966	-0,046	0,044
-570,904	-200,000	0,007	0,059
-569,890	800,000	-0,035	-0,096
-568,875	-16,338	0,093	0,043
-567,861	223,501	0,081	0,096
-566,846	100,022	-0,020	-0,017
-565,831	-200,000	0,016	0,092
-564,817	-24,409	-0,173	0,075
-563,802	-120,625	-0,050	0,006
-562,788	-30,481	-0,082	0,034
-561,773	-46,756	0,087	0,031
-560,758	-114,999	-0,106	-0,015
-559,744	-83,523	-0,124	-0,029
-558,729	-200,000	0,003	-0,047
-557,715	-90,316	-0,093	-0,020
-556,700	281,490	-0,031	-0,041
-555,685	-200,000	0,013	0,081
-554,671	447,663	-0,060	0,097
-553,656	800,000	-0,035	0,092
-552,642	779,988	-0,013	-0,027
-551,627	287,319	0,090	-0,120
-550,612	138,101	0,057	0,055
-549,598	-200,000	0,027	0,093
-548,583	800,000	-0,051	-0,156
-547,569	-58,728	0,150	-0,047
-546,554	114,637	0,096	0,086
-545,539	631,071	0,045	0,083
-544,525	172,373	0,063	-0,066
-543,510	5,240	-0,049	0,026
-542,496	-82,079	0,053	-0,013
-541,481	-200,000	0,013	-0,085
-540,466	-200,000	0,019	0,089
-539,452	62,562	-0,062	0,045
-538,437	800,000	0,049	0,125
-537,423	800,000	-0,087	0,201
-536,408	232,925	-0,037	0,045
-535,393	-119,069	0,160	-0,020
-534,379	-200,000	0,003	0,010
-533,364	-63,662	-0,085	0,025
-532,350	-200,000	0,021	0,095
-531,335	800,000	0,034	-0,094
-530,321	-167,341	0,018	-0,001
-529,306	-200,000	0,052	0,170
-528,291	-134,866	0,149	-0,013
-527,277	106,977	0,048	0,042
-526,262	-200,000	0,003	0,072
-525,248	-26,034	0,217	0,093
-524,233	228,763	0,064	-0,076
-523,218	169,330	0,035	0,037
-522,204	800,000	-0,031	-0,069
-521,189	-170,171	-0,093	-0,002
-520,175	-200,000	0,000	-0,034
-519,160	-54,600	-0,121	-0,040
-518,145	-64,760	-0,049	0,015
-517,131	66,637	0,089	0,066
-516,116	-200,000	-0,004	0,088
-515,102	-45,190	-0,073	-0,026
-514,087	5,715	0,031	0,017
-513,072	308,007	-0,030	-0,040
-512,058	180,029	-0,064	-0,069
-511,043	145,670	0,147	0,144
-510,029	-107,610	0,056	-0,009
-509,014	-190,701	0,110	-0,001
-507,999	800,000	-0,024	-0,062
-506,985	-165,901	-0,052	-0,002
-505,970	27,140	-0,051	-0,031
-504,956	-62,737	0,112	0,034
-503,941	-100,190	0,136	0,024
-502,926	248,344	0,027	-0,033
-501,912	-74,384	-0,050	0,013
-500,897	-200,000	-0,025	-0,084
-499,883	73,802	-0,053	-0,041
-498,868	298,079	0,070	-0,094
-497,853	55,740	0,081	-0,057
-496,839	-118,229	-0,054	-0,007
-495,824	-163,239	0,078	-0,003
-494,810	199,616	-0,044	0,050
-493,795	800,000	-0,030	-0,095
-492,781	-73,565	0,209	-0,055
-491,766	-91,286	0,018	-0,004
-490,751	-84,895	-0,216	-0,049
-489,737	137,090	0,045	-0,043
-488,722	-200,000	-0,003	-0,041
-487,708	311,428	-0,034	0,047
-486,693	800,000	0,035	0,087
-485,678	-96,502	-0,065	-0,012
-484,664	-200,000	0,012	-0,043
-483,649	-1,436	0,049	0,025
-482,635	800,000	-0,021	-0,061
-481,620	-200,000	-0,011	0,059
-480,605	800,000	-0,038	0,094
-479,591	-20,525	0,095	-0,043
-478,576	212,867	0,015	0,018
-477,562	375,000	-0,048	0,072
-476,547	716,125	-0,049	0,095
-475,532	377,853	-0,020	0,030
-474,518	-200,000	0,012	-0,091
-473,503	-31,961	0,070	0,028
-472,489	-200,000	0,035	0,191
-471,474	209,070	0,042	0,048
-470,459	562,632	0,009	0,016
-469,445	-161,364	0,069	-0,003
-468,430	55,195	-0,096	0,068
-467,416	-200,000	0,000	-0,057
-466,401	-59,459	0,166	0,052
-465,386	-200,000	-0,019	0,104
-464,372	800,000	0,071	-0,192
-463,357	-83,287	0,030	-0,007
-462,343	800,000	-0,058	-0,125
-461,328	-76,271	0,075	-0,019
-460,313	-200,000	-0,023	-0,168
-459,299	16,059	-0,024	0,014
-458,284	-5,851	0,090	0,045
-457,270	-194,516	-0,090	-0,001
-456,255	800,000	-0,060	-0,123
-455,241	223,001	0,054	0,064
-454,226	800,000	-0,041	-0,118
-453,211	-89,852	0,036	-0,008
-452,197	-200,000	-0,005	-0,033
-451,182	239,819	0,098	0,119
-450,168	-43,530	-0,089	0,033
-449,153	-200,000	0,014	0,062
-448,138	74,220	-0,094	-0,072
-447,124	782,259	-0,057	0,115
-446,109	391,093	0,026	0,039
-445,095	-200,000	0,004	-0,093
-444,080	-127,353	-0,096	0,010
-443,065	-150,813	0,024	0,001
-442,051	519,732	0,049	-0,085
-441,036	-200,000	0,001	0,030
-440,022	-6,504	0,098	-0,048
-439,007	593,179	-0,038	0,069
-437,992	-200,000	0,012	0,045
-436,978	-127,456	0,083	-0,009
-435,963	-118,876	-0,034	0,004
-434,949	-200,000	0,015	-0,166
-433,934	-112,121	0,115	-0,017
-432,919	-200,000	-0,025	0,112
-431,905	-42,675	-0,067	0,025
-430,890	214,989	0,035	-0,040
-429,876	-200,000	0,001	-0,007
-428,861	-200,000	-0,014	0,107
-427,846	336,341	0,011	0,015
-426,832	74,947	0,085	-0,066
-425,817	-62,659	-0,062	-0,019
-424,803	221,057	0,052	-0,061
-423,788	49,840	0,089	-0,061
-422,773	-46,498	-0,136	0,048
-421,759	800,000	0,036	0,082
-420,744	-16,645	0,100	0,046
-419,730	-89,668	-0,048	0,010
-418,715	-200,000	0,026	-0,130
-417,701	440,280	0,095	0,152
-416,686	137,060	0,096	-0,092
-415,671	-200,000	-0,007	0,050
-414,657	327,111	-0,032	0,045
-413,642	-200,000	-0,005	0,135
-412,628	31,130	-0,042	0,026
-411,613	-200,000	0,011	-0,141
-410,598	-200,000	-0,026	-0,101
-409,584	-165,089	0,049	0,002
-408,569	452,751	-0,061	0,099
-407,555	199,115	0,068	-0,075
-406,540	-39,490	0,031	-0,012
-405,525	414,195	-0,067	-0,104
-404,511	800,000	-0,041	0,129
-403,496	800,000	0,033	0,081
-402,482	-52,667	0,097	-0,032
-401,467	-200,000	-0,000	0,036
-400,452	-200,000	0,022	-0,077
-399,438	-200,000	0,008	-0,032
-398,423	-97,019	0,071	-0,013
-397,409	525,023	-0,072	-0,123
-396,394	-74,552	-0,051	-0,013
-395,379	-52,163	-0,039	0,013
-394,365	19,113	0,038	0,022
-393,350	-52,651	0,013	0,004
-392,336	-113,945	-0,105	-0,015
-391,321	170,196	-0,018	0,019
-390,306	258,204	-0,091	-0,114
-389,292	-200,000	0,020	0,164
-388,277	-200,000	0,007	-0,077
-387,263	800,000	0,034	0,103
-386,248	93,441	-0,053	0,044
-385,233	18,537	-0,091	-0,053
-384,219	4,526	-0,008	-0,004
-383,204	78,398	-0,023	0,018
-382,190	8,851	-0,130	-0,071
-381,175	800,000	-0,021	-0,045
-380,160	612,009	0,020	0,037
-379,146	-37,219	0,054	-0,021
-378,131	-126,296	0,050	-0,005
-377,117	-70,249	0,109	0,030
-376,102	33,415	-0,115	0,072
-375,088	800,000	-0,044	0,122
-374,073	316,678	-0,062	-0,085
-373,058	-200,000	0,013	0,047
-372,044	467,527	0,051	0,084
-371,029	614,606	0,059	0,109
-370,015	11,879	0,095	0,053
-369,000	-38,306	-0,138	0,053
-367,985	-89,497	0,123	0,026
-366,971	-54,115	-0,042	0,014
-365,956	8,123	0,046	0,025
-364,942	137,010	0,048	0,046
-363,927	0,088	-0,122	-0,063
-362,912	-143,468	0,197	-0,013
-361,898	-200,000	-0,021	0,132
-360,883	302,638	-0,111	-0,150
-359,869	-121,725	0,206	-0,024
-358,854	371,678	-0,084	0,125
-357,839	800,000	-0,016	0,047
-356,825	-200,000	-0,028	-0,116
-355,810	365,398	0,057	-0,083
-354,796	-71,223	-0,142	0,038
-353,781	-200,000	-0,041	-0,157
-352,766	205,197	-0,103	-0,116
-351,752	-200,000	-0,031	0,155
-350,737	-200,000	0,003	0,021
-349,723	-162,162	0,087	-0,003
-348,708	221,872	-0,086	-0,101
-347,693	269,650	0,030	0,038
-346,679	603,640	-0,019	0,035
-345,664	800,000	-0,061	-0,131
-344,650	467,585	0,051	-0,083
-343,635	69,871	-0,029	-0,021
-342,620	800,000	-0,005	0,015
-341,606	493,303	-0,061	0,102
-340,591	-38,284	-0,140	-0,054
-339,577	65,881	-0,083	0,061
-338,562	193,114	-0,099	0,109
-337,548	272,857	0,087	-0,112
-336,533	626,488	0,055	0,101
-335,518	-200,000	0,014	0,051
-334,504	-82,717	-0,069	0,016
-333,489	-200,000	-0,016	-0,058
-332,475	80,360	0,082	-0,064
-331,460	-97,385	-0,177	-0,033
-330,445	-200,000	0,017	0,095
-329,431	391,612	0,082	0,124
-328,416	-65,192	0,012	-0,004
-327,402	-200,000	0,009	0,080
-326,387	392,583	0,062	0,094
-325,372	11,173	-0,114	0,063
-324,358	-200,000	-0,013	-0,061
-323,343	296,079	-0,085	-0,113
-322,329	-200,000	0,006	0,111
-321,314	356,298	0,071	0,103
-320,299	800,000	0,031	-0,079
-319,285	22,314	-0,028	0,016
-318,270	462,549	-0,024	-0,039
-317,256	-200,000	0,015	-0,096
-316,241	-200,000	-0,006	-0,118
-315,226	-200,000	0,024	0,087
-314,212	-200,000	-0,009	0,050
-313,197	15,983	0,074	0,042
-312,183	-35,461	-0,090	0,035
-311,168	-164,599	0,075	0,002
-310,153	44,964	0,083	-0,055
-309,139	800,000	-0,011	0,024
-308,124	636,254	-0,061	0,113
-307,110	392,524	-0,025	0,038
-306,095	800,000	-0,029	0,059
-305,080	180,792	-0,055	0,059
-304,066	-40,649	-0,103	0,039
-303,051	-108,005	-0,085	0,013
-302,037	-109,921	0,057	-0,009
-301,022	-200,000	-0,013	-0,134
-300,008	-92,430	0,131	0,026
-298,993	-200,000	-0,039	0,164
-297,978	331,287	0,039	-0,055
-296,964	-48,054	0,083	-0,029
-295,949	-30,058	0,046	-0,019
-294,935	-200,000	-0,012	-0,104
-293,920	10,071	-0,051	0,028
-292,905	-200,000	0,060	0,199
-291,891	306,300	0,088	0,119
-290,876	38,238	0,087	-0,056
-289,862	800,000	-0,019	-0,056
-288,847	-200,000	-0,001	0,073
-287,832	-41,668	-0,183	0,068
-286,818	109,934	0,113	-0,098
-285,803	-38,524	-0,114	0,044
-284,789	172,505	0,040	-0,042
-283,774	214,817	-0,005	-0,005
-282,759	-18,804	-0,072	0,033
-281,745	1,045	-0,036	-0,019
-280,730	-200,000	-0,020	-0,213
-279,716	-142,223	-0,092	0,007
-278,701	46,036	0,070	0,047
-277,686	118,572	0,095	0,085
-276,672	57,295	-0,042	0,030
-275,657	327,651	-0,078	0,109
-274,643	-200,000	0,012	-0,133
-273,628	76,365	0,020	0,015
-272,613	-200,000	-0,024	-0,128
-271,599	-200,000	-0,002	-0,058
-270,584	800,000	-0,035	-0,094
-269,570	-151,103	0,040	-0,002
-268,555	-200,000	-0,021	0,089
-267,540	70,831	-0,077	-0,058
-266,526	-200,000	0,000	-0,026
-265,511	16,535	0,057	-0,032
-264,497	292,364	0,088	-0,116
-263,482	-200,000	0,017	0,076
-262,467	25,711	0,098	0,059
-261,453	-2,613	0,130	-0,066
-260,438	-117,334	0,046	-0,006
-259,424	-200,000	-0,003	-0,079
-258,409	800,000	0,015	-0,039
-257,395	-200,000	-0,011	-0,083
-256,380	160,856	0,069	-0,069
-255,365	472,036	0,054	0,088
-254,351	-90,315	-0,068	0,014
-253,336	-96,123	-0,118	0,022
-252,322	-37,143	0,037	0,014
-251,307	-53,413	-0,150	-0,049
-250,292	210,769	0,049	-0,055
-249,278	-76,209	-0,029	-0,007
-248,263	124,389	0,030	0,027
-247,249	483,106	0,050	0,083
-246,234	-97,109	-0,058	0,011
-245,219	39,476	0,055	-0,035
-244,205	63,118	0,120	0,087
-243,190	-45,345	0,185	0,066
-242,176	-200,000	0,018	-0,092
-241,161	-76,481	0,145	-0,037
-240,146	-200,000	0,000	-0,135
-239,132	-82,925	-0,124	0,029
-238,117	800,000	-0,067	-0,157
-237,103	28,524	0,117	0,071
-236,088	-145,882	0,113	0,007
-235,073	133,160	-0,033	0,031
-234,059	141,750	0,049	-0,047
-233,044	800,000	-0,036	0,083
-232,030	10,103	-0,040	-0,022
-231,015	136,318	-0,076	0,072
-230,000	-131,737	-0,060	-0,006
-228,986	-200,000	-0,024	-0,155
-227,971	-23,798	0,105	0,045
-226,957	34,360	-0,043	0,027
-225,942	216,710	-0,029	-0,034
-224,927	-200,000	0,004	0,014
-223,913	622,748	-0,051	0,094
-222,898	-200,000	0,018	-0,142
-221,884	-14,715	-0,073	0,034
-220,869	75,394	0,073	-0,056
-219,855	800,000	-0,042	-0,122
-218,840	800,000	-0,029	-0,069
-217,825	208,033	0,059	0,066
-216,811	494,879	0,038	0,063
-215,796	-57,235	-0,087	0,027
-214,782	239,846	0,050	0,060
-213,767	-76,986	0,025	-0,006
-212,752	-49,631	0,142	-0,049
-211,738	-200,000	-0,035	-0,125
-210,723	25,127	-0,055	-0,033
-209,709	800,000	-0,062	-0,152
-208,694	-200,000	0,005	-0,021
-207,679	-200,000	-0,027	-0,143
-206,665	-200,000	0,053	-0,198
-205,650	-115,120	0,188	0,025
-204,636	66,349	-0,120	0,088
-203,621	218,699	0,034	0,039
-202,606	-170,565	0,058	0,001
-201,592	80,078	-0,096	0,075
-200,577	232,276	0,021	-0,025
-199,563	66,079	0,052	0,038
-198,548	297,889	0,068	-0,090
-197,533	-200,000	0,024	0,080
-196,519	-12,883	0,056	-0,026
-195,504	800,000	-0,030	-0,076
-194,490	-48,500	-0,091	-0,032
-193,475	175,369	-0,092	-0,096
-192,460	191,606	0,088	-0,096
-191,446	-200,000	-0,006	0,075
-190,431	-99,609	0,168	-0,030
-189,417	-71,278	-0,088	-0,024
-188,402	17,424	-0,026	-0,015
-187,387	-200,000	0,021	-0,129
-186,373	-200,000	0,007	-0,030
-185,358	-125,917	-0,245	0,026
-184,344	800,000	0,050	0,101
-183,329	-113,947	0,073	-0,010
-182,315	73,218	0,057	0,043
-181,300	78,173	0,007	0,005
-180,285	-39,564	-0,071	-0,027
-179,271	-40,042	0,082	0,031
-178,256	-12,068	-0,151	-0,071
-177,242	443,880	-0,057	-0,090
-176,227	489,602	-0,028	-0,046
-175,212	187,551	0,055	0,060
-174,198	-200,000	0,001	0,028
-173,183	-200,000	-0,016	-0,118
-172,169	-58,043	0,119	0,037
-171,154	-126,750	-0,055	0,006
-170,139	-127,415	0,232	-0,024
-169,125	-200,000	-0,005	0,092
-168,110	151,744	0,139	0,137
-167,096	-200,000	0,021	0,124
-166,081	-78,494	-0,039	0,010
-165,066	344,792	0,082	-0,117
-164,052	407,418	-0,025	-0,038
-163,037	-80,540	-0,139	-0,033
-162,023	79,384	0,082	0,063
-161,008	64,813	-0,095	-0,069
-159,993	-120,562	0,208	-0,025
-158,979	99,406	0,013	-0,011
-157,964	-88,026	-0,130	-0,028
-156,950	587,473	0,017	-0,030
-155,935	800,000	0,034	-0,103
-154,920	-122,757	-0,078	0,009
-153,906	-28,603	0,078	0,032
-152,891	-200,000	-0,023	-0,075
-151,877	-200,000	0,007	-0,025
-150,862	-31,149	0,106	-0,043
-149,847	-135,051	-0,175	-0,015
-148,833	221,632	-0,052	-0,060
-147,818	-53,762	0,195	0,064
-146,804	-200,000	0,007	0,049
-145,789	212,771	-0,061	0,069
-144,775	1,106	-0,056	0,029
-143,760	-64,597	-0,135	-0,039
-142,745	-27,462	0,101	0,042
-141,731	84,122	-0,064	0,051
-140,716	-57,631	-0,038	0,012
-139,702	-140,343	0,129	0,010
-138,687	29,097	-0,112	-0,068
-137,672	-90,596	0,043	0,009
-136,658	410,290	0,044	-0,068
-135,643	-200,000	-0,007	-0,120
-134,629	-200,000	-0,002	-0,025
-133,614	-46,842	0,079	0,028
-132,599	-39,544	0,122	0,046
-131,585	-102,547	-0,138	-0,024
-130,570	41,808	0,050	0,033
-129,556	9,482	0,051	0,028
-128,541	-9,345	-0,021	-0,010
-127,526	184,594	0,063	-0,068
-126,512	390,315	-0,031	0,047
-125,497	640,287	-0,032	0,059
-124,483	800,000	0,028	0,072
-123,468	-200,000	0,031	-0,120
-122,453	40,329	-0,156	-0,101
-121,439	73,426	-0,027	-0,021
-120,424	800,000	0,016	-0,045
-119,410	-65,791	0,056	0,016
