DTS Sentinel unit serial number:	SN410029Multiplexer serial number:	ORYXHardware model number:	OX2-SRSoftware version number:	ORYX F/W v4,00 Oryx Data Collector v3.7.2.0data status	okinstallation	B5 Nyhavnadifferential loss correction	single-endedforward channel	channel 2reverse channel	N/Adate	2023/12/12time	00:22:13forward acquisition time	300,00reverse acquisition time	0,00gamma	499,1914k internal	0,3156k external	0,3156temperature offset calibration	1,0000default loss term (dB/km)	0,3820temperature slope calibration	1,0000multiplexer offset coefficient	1,0000multiplexer slope coefficient	1,0000fibre end	0,00T internal ref (°C)	16,13T ext. ref 1 (°C)	-0,32T ext. ref 2 (°C)	-0,59length (m)	temperature (°C)	Stokes	anti-Stokes-744,400	-94,774	0,084	-0,017
-743,385	-124,649	-0,240	0,027
-742,371	-41,087	0,176	-0,067
-741,356	-129,368	-0,323	0,033
-740,342	-200,000	-0,015	0,200
-739,327	-56,392	-0,244	0,079
-738,312	-171,988	0,102	0,002
-737,298	-120,664	-0,306	0,038
-736,283	-106,696	0,222	0,036
-735,269	5,001	-0,206	0,111
-734,254	0,552	0,092	0,048
-733,239	-142,316	-0,472	-0,034
-732,225	528,734	0,049	0,086
-731,210	-76,648	0,070	0,018
-730,196	-200,000	0,005	-0,075
-729,181	-19,887	-0,141	0,064
-728,167	-176,349	0,011	-0,000
-727,152	482,330	0,036	0,061
-726,137	109,673	0,115	-0,101
-725,123	-200,000	-0,022	0,097
-724,108	-200,000	-0,017	-0,199
-723,094	800,000	-0,072	-0,151
-722,079	-200,000	-0,006	-0,090
-721,064	-19,190	0,057	0,026
-720,050	42,134	0,025	0,017
-719,035	-200,000	0,010	-0,146
-718,021	-69,089	-0,162	0,046
-717,006	-135,311	-0,107	-0,009
-715,991	-55,499	-0,100	0,033
-714,977	800,000	-0,056	-0,139
-713,962	-119,181	-0,080	-0,010
-712,948	506,872	0,054	-0,092
-711,933	40,955	-0,104	-0,069
-710,918	-152,613	0,053	0,003
-709,904	800,000	-0,035	-0,102
-708,889	83,006	-0,017	-0,013
-707,875	-200,000	-0,019	-0,071
-706,860	-200,000	0,003	0,032
-705,845	569,912	0,065	0,117
-704,831	184,522	0,073	-0,080
-703,816	-200,000	0,006	-0,100
-702,802	-200,000	-0,025	0,104
-701,787	433,810	-0,070	0,113
-700,772	225,359	-0,032	0,038
-699,758	366,807	-0,066	0,099
-698,743	104,130	0,090	0,078
-697,729	414,841	-0,024	0,037
-696,714	-97,916	0,087	0,016
-695,699	800,000	0,021	-0,060
-694,685	667,511	-0,043	-0,082
-693,670	800,000	-0,059	-0,149
-692,656	164,414	-0,087	0,090
-691,641	-150,978	-0,043	-0,002
-690,627	-83,236	0,144	0,034
-689,612	37,980	-0,051	-0,033
-688,597	-49,047	-0,172	-0,060
-687,583	-28,262	-0,119	-0,050
-686,568	-200,000	-0,006	-0,049
-685,554	800,000	0,032	-0,081
-684,539	-2,741	-0,057	0,029
-683,524	137,934	0,060	0,058
-682,510	62,993	-0,103	0,076
-681,495	497,348	-0,034	-0,057
-680,481	-200,000	-0,001	-0,228
-679,466	-86,042	0,031	-0,007
-678,451	-0,475	0,065	0,034
-677,437	800,000	-0,057	-0,116
-676,422	-173,052	-0,163	0,004
-675,408	-200,000	0,012	-0,059
-674,393	-134,571	-0,087	0,008
-673,378	322,078	0,043	-0,060
-672,364	-114,274	-0,247	0,035
-671,349	-106,904	0,090	0,014
-670,335	-187,568	-0,074	-0,001
-669,320	-200,000	0,003	0,193
-668,305	-200,000	-0,005	-0,061
-667,291	13,804	-0,055	0,031
-666,276	48,893	-0,077	0,053
-665,262	90,885	0,032	-0,026
-664,247	200,367	-0,045	0,051
-663,232	-130,001	0,085	0,008
-662,218	-82,052	0,055	0,013
-661,203	800,000	0,030	-0,078
-660,189	554,670	0,043	-0,076
-659,174	-200,000	0,041	0,145
-658,159	94,877	-0,087	-0,073
-657,145	90,508	-0,054	-0,045
-656,130	800,000	0,078	0,167
-655,116	-44,964	-0,045	0,016
-654,101	-84,990	-0,101	-0,023
-653,086	800,000	-0,075	0,156
-652,072	-89,183	-0,063	-0,014
-651,057	800,000	0,042	0,091
-650,043	-200,000	0,022	-0,087
-649,028	-33,746	0,021	0,008
-648,014	-200,000	0,001	-0,037
-646,999	-90,527	-0,065	-0,014
-645,984	-5,271	-0,061	-0,031
-644,970	17,508	0,036	0,021
-643,955	110,451	-0,126	-0,112
-642,941	413,702	-0,109	-0,170
-641,926	-60,450	-0,042	0,013
-640,911	17,730	-0,089	-0,052
-639,897	20,544	0,141	0,084
-638,882	-131,375	-0,020	-0,002
-637,868	-95,520	-0,094	-0,018
-636,853	-139,527	0,011	-0,001
-635,838	-200,000	-0,030	-0,175
-634,824	105,887	-0,043	-0,038
-633,809	-8,415	0,060	0,030
-632,795	800,000	-0,055	0,127
-631,780	-124,882	0,153	-0,017
-630,765	109,871	0,058	0,051
-629,751	27,240	-0,092	-0,057
-628,736	800,000	-0,047	-0,131
-627,722	9,519	-0,076	-0,042
-626,707	-138,595	-0,088	-0,007
-625,692	800,000	0,025	0,059
-624,678	38,040	0,009	-0,006
-623,663	-27,802	0,029	0,012
-622,649	32,897	0,070	0,045
-621,634	-200,000	-0,015	-0,105
-620,619	256,205	-0,028	-0,036
-619,605	-71,184	-0,046	0,013
-618,590	-200,000	-0,004	-0,035
-617,576	394,953	0,035	-0,053
-616,561	-200,000	-0,004	-0,021
-615,546	800,000	0,048	-0,141
-614,532	-146,225	-0,089	0,006
-613,517	163,807	-0,087	-0,090
-612,503	-0,926	-0,054	0,028
-611,488	109,724	0,064	-0,056
-610,474	-200,000	-0,033	0,155
-609,459	-200,000	-0,018	0,081
-608,444	-200,000	0,003	0,013
-607,430	18,278	-0,135	0,079
-606,415	-200,000	0,004	0,017
-605,401	-200,000	0,008	-0,050
-604,386	800,000	-0,034	0,077
-603,371	56,889	-0,023	0,016
-602,357	131,834	-0,080	-0,076
-601,342	800,000	0,055	0,149
-600,328	615,572	-0,059	-0,109
-599,313	-200,000	-0,008	-0,152
-598,298	-117,801	0,088	0,011
-597,284	-121,671	0,091	0,011
-596,269	84,810	0,086	0,069
-595,255	26,174	-0,092	0,056
-594,240	-200,000	0,006	-0,053
-593,225	-200,000	0,013	-0,174
-592,211	617,733	-0,081	-0,149
-591,196	145,151	-0,075	0,074
-590,182	723,318	-0,049	0,097
-589,167	143,870	-0,038	0,037
-588,152	159,022	0,093	-0,095
-587,138	227,936	-0,076	0,091
-586,123	800,000	0,008	-0,024
-585,109	283,171	-0,159	-0,210
-584,094	800,000	0,029	0,066
-583,079	800,000	-0,030	-0,085
-582,065	459,353	0,059	-0,096
-581,050	209,798	0,039	-0,045
-580,036	56,940	-0,039	-0,028
-579,021	-40,712	0,093	-0,035
-578,006	-200,000	0,040	-0,145
-576,992	800,000	0,050	-0,121
-575,977	-99,150	0,101	0,018
-574,963	-113,986	-0,113	0,016
-573,948	685,137	0,021	0,041
-572,934	133,930	-0,059	-0,056
-571,919	-200,000	0,002	0,109
-570,904	650,613	0,052	-0,099
-569,890	-200,000	0,036	-0,124
-568,875	-9,919	0,176	0,085
-567,861	156,205	0,039	-0,040
-566,846	-200,000	0,012	-0,049
-565,831	-130,169	0,091	0,009
-564,817	100,064	-0,148	-0,126
-563,802	151,480	-0,150	-0,150
-562,788	201,403	-0,070	-0,079
-561,773	-200,000	-0,012	0,048
-560,758	384,481	-0,056	-0,085
-559,744	800,000	0,034	0,099
-558,729	18,556	-0,060	0,035
-557,715	800,000	-0,017	-0,050
-556,700	-12,090	-0,192	-0,092
-555,685	122,386	-0,153	-0,140
-554,671	-58,988	0,080	-0,025
-553,656	-200,000	0,016	0,109
-552,642	-200,000	0,006	0,079
-551,627	-130,423	-0,099	-0,010
-550,612	73,724	-0,049	-0,038
-549,598	251,951	-0,082	0,103
-548,583	-56,088	-0,046	0,015
-547,569	-104,200	-0,083	-0,014
-546,554	416,041	0,091	0,143
-545,539	46,217	-0,090	-0,061
-544,525	381,481	0,047	-0,071
-543,510	56,888	-0,039	-0,028
-542,496	-200,000	-0,032	-0,148
-541,481	-200,000	-0,022	-0,103
-540,466	800,000	0,016	-0,033
-539,452	254,676	0,043	-0,054
-538,437	-83,141	0,087	0,020
-537,423	800,000	-0,039	0,093
-536,408	-200,000	-0,005	0,050
-535,393	-28,071	0,106	0,045
-534,379	-200,000	0,011	-0,081
-533,364	800,000	0,044	-0,123
-532,350	227,217	-0,068	0,082
-531,335	526,892	0,074	0,128
-530,321	158,366	-0,056	0,057
-529,306	-200,000	-0,001	-0,073
-528,291	-112,048	0,052	0,008
-527,277	332,934	-0,034	0,049
-526,262	-200,000	-0,001	0,007
-525,248	800,000	0,035	-0,079
-524,233	-79,553	0,163	0,040
-523,218	84,956	-0,066	0,053
-522,204	800,000	-0,009	-0,021
-521,189	25,205	-0,005	-0,003
-520,175	138,144	-0,124	-0,119
-519,160	-200,000	-0,001	-0,037
-518,145	-98,879	0,082	0,015
-517,131	-141,238	-0,063	-0,005
-516,116	264,279	-0,048	0,061
-515,102	27,484	-0,097	0,060
-514,087	-123,897	0,007	0,001
-513,072	800,000	-0,049	0,103
-512,058	-200,000	0,003	-0,088
-511,043	-200,000	-0,010	0,039
-510,029	-38,139	0,040	-0,015
-509,014	-200,000	0,034	0,117
-507,999	165,163	-0,046	0,048
-506,985	-200,000	-0,009	0,031
-505,970	-200,000	0,017	-0,061
-504,956	-39,085	-0,087	0,033
-503,941	-51,058	0,037	-0,013
-502,926	-200,000	0,030	0,157
-501,912	-82,842	0,153	0,036
-500,897	130,652	0,063	-0,059
-499,883	653,172	0,006	-0,012
-498,868	-200,000	0,009	-0,102
-497,853	-129,101	-0,164	-0,017
-496,839	-200,000	0,020	-0,098
-495,824	110,164	0,067	0,059
-494,810	283,343	-0,052	0,068
-493,795	800,000	-0,026	0,073
-492,781	-200,000	0,004	0,031
-491,766	-200,000	0,014	0,069
-490,751	800,000	0,023	0,049
-489,737	-89,597	0,067	-0,014
-488,722	0,843	0,074	0,039
-487,708	15,953	0,103	-0,059
-486,693	533,455	-0,086	-0,149
-485,678	194,150	-0,095	0,106
-484,664	-74,405	-0,080	-0,021
-483,649	-0,304	0,097	-0,050
-482,635	240,090	-0,086	0,105
-481,620	516,986	-0,069	-0,118
-480,605	143,639	-0,142	0,138
-479,591	195,464	0,060	0,067
-478,576	35,659	-0,140	-0,090
-477,562	-200,000	-0,035	-0,114
-476,547	-200,000	-0,007	-0,070
-475,532	-115,589	-0,059	0,008
-474,518	24,422	0,012	-0,007
-473,503	-10,377	0,054	-0,026
-472,489	-200,000	-0,050	-0,172
-471,474	608,534	-0,045	0,082
-470,459	356,398	-0,115	-0,168
-469,445	267,078	-0,142	-0,182
-468,430	-200,000	-0,004	0,018
-467,416	-200,000	0,002	0,012
-466,401	-200,000	-0,005	0,109
-465,386	800,000	0,012	0,033
-464,372	237,580	-0,009	0,010
-463,357	549,716	0,045	-0,079
-462,343	39,806	-0,012	0,008
-461,328	256,757	0,024	0,030
-460,313	-40,597	0,007	-0,003
-459,299	163,516	0,095	0,098
-458,284	-200,000	-0,002	0,043
-457,270	800,000	-0,068	0,141
-456,255	-200,000	-0,014	0,126
-455,241	-116,708	-0,083	-0,011
-454,226	-200,000	0,024	-0,104
-453,211	800,000	-0,013	0,043
-452,197	-181,173	-0,167	-0,002
-451,182	260,043	0,036	0,046
-450,168	-200,000	0,001	0,130
-449,153	-200,000	-0,005	0,163
-448,138	-98,865	-0,048	0,009
-447,124	-160,669	0,092	0,004
-446,109	-200,000	0,003	0,100
-445,095	111,760	0,083	0,073
-444,080	-165,045	0,102	0,003
-443,065	58,795	0,033	-0,024
-442,051	-91,662	-0,085	0,018
-441,036	-182,744	-0,105	0,001
-440,022	-200,000	-0,003	-0,022
-439,007	-71,857	0,061	-0,016
-437,992	-6,713	-0,052	-0,026
-436,978	351,514	0,079	0,115
-435,963	-173,443	0,140	-0,003
-434,949	-60,396	0,030	0,009
-433,934	59,234	-0,119	-0,085
-432,919	463,467	-0,019	0,032
-431,905	-200,000	-0,001	-0,054
-430,890	-30,484	-0,025	-0,010
-429,876	-171,909	0,126	0,003
-428,861	-122,186	0,161	0,019
-427,846	-67,724	-0,054	0,015
-426,832	356,732	0,047	0,069
-425,817	-52,561	-0,162	0,054
-424,803	-200,000	0,017	-0,100
-423,788	-200,000	-0,010	-0,116
-422,773	66,567	0,144	-0,106
-421,759	106,887	-0,115	-0,100
-420,744	202,997	-0,075	0,084
-419,730	-71,446	-0,051	0,014
-418,715	-17,598	0,083	0,038
-417,701	800,000	0,001	-0,003
-416,686	120,296	0,176	0,159
-415,671	-48,698	0,089	-0,031
-414,657	800,000	0,053	0,146
-413,642	303,029	0,020	0,028
-412,628	-9,688	-0,060	0,029
-411,613	800,000	-0,034	-0,095
-410,598	-152,440	0,161	-0,008
-409,584	-16,214	0,131	0,060
-408,569	-45,412	0,127	0,046
-407,555	-92,177	0,028	0,006
-406,540	14,474	0,067	-0,038
-405,525	800,000	0,019	-0,048
-404,511	-30,125	-0,057	-0,024
-403,496	609,671	-0,016	0,029
-402,482	175,209	-0,035	0,037
-401,467	326,797	0,034	0,048
-400,452	72,886	0,088	-0,067
-399,438	-200,000	0,001	0,051
-398,423	175,160	-0,133	0,141
-397,409	16,659	-0,072	-0,041
-396,394	49,007	0,044	-0,030
-395,379	152,519	-0,023	0,023
-394,365	611,141	0,062	0,113
-393,350	457,649	0,095	0,154
-392,336	71,067	0,060	0,045
-391,321	-200,000	0,008	0,058
-390,306	149,402	0,070	-0,069
-389,292	-195,444	0,059	-0,000
-388,277	-60,723	-0,104	0,032
-387,263	569,388	0,082	0,146
-386,248	619,597	0,027	0,050
-385,233	366,622	0,031	0,045
-384,219	-7,080	-0,082	-0,040
-383,204	-12,323	0,127	-0,060
-382,190	168,319	0,091	-0,094
-381,175	-9,815	0,109	0,052
-380,160	-200,000	0,001	-0,020
-379,146	352,144	0,044	0,064
-378,131	-200,000	-0,010	0,065
-377,117	800,000	-0,070	-0,157
-376,102	27,552	0,042	0,025
-375,088	81,888	-0,061	-0,048
-374,073	176,125	-0,071	0,075
-373,058	-42,258	0,093	0,034
-372,044	800,000	0,015	0,045
-371,029	-200,000	0,018	0,103
-370,015	-200,000	0,008	-0,060
-369,000	26,522	-0,062	-0,038
-367,985	510,883	0,029	0,050
-366,971	8,268	0,032	0,018
-365,956	-200,000	0,029	0,153
-364,942	91,287	0,098	-0,080
-363,927	204,112	0,089	0,100
-362,912	426,943	0,093	0,147
-361,898	593,955	-0,026	0,048
-360,883	-152,209	0,071	-0,004
-359,869	112,386	-0,112	-0,099
-358,854	800,000	0,043	0,090
-357,839	-77,942	0,058	-0,014
-356,825	-91,488	0,121	0,025
-355,810	-140,338	-0,219	0,016
-354,796	-109,812	0,095	0,014
-353,781	44,998	-0,082	-0,054
-352,766	800,000	0,020	-0,041
-351,752	-200,000	0,004	-0,105
-350,737	-89,619	0,092	0,019
-349,723	134,256	0,025	0,023
-348,708	800,000	-0,023	0,063
-347,693	-200,000	0,008	0,099
-346,679	800,000	0,062	-0,131
-345,664	-89,452	0,122	0,026
-344,650	109,107	-0,055	-0,048
-343,635	348,859	0,021	0,030
-342,620	655,378	0,018	-0,034
-341,606	-113,841	-0,042	-0,006
-340,591	-3,672	-0,073	0,037
-339,577	554,856	-0,027	-0,047
-338,562	-116,814	0,097	-0,013
-337,548	-200,000	0,030	0,113
-336,533	610,620	0,006	-0,011
-335,518	-200,000	0,005	0,110
-334,504	800,000	-0,036	0,107
-333,489	59,180	-0,128	0,091
-332,475	73,134	0,054	0,041
-331,460	800,000	0,028	-0,066
-330,445	471,123	0,039	-0,063
-329,431	-40,486	0,179	-0,067
-328,416	790,160	0,073	0,146
-327,402	-46,123	0,061	0,022
-326,387	274,215	-0,118	0,152
-325,372	316,131	0,033	0,046
-324,358	-32,678	-0,141	-0,057
-323,343	-200,000	0,015	0,085
-322,329	800,000	0,045	0,107
-321,314	165,317	-0,100	0,103
-320,299	34,139	0,027	0,017
-319,285	-200,000	-0,001	0,005
-318,270	-200,000	-0,007	-0,034
-317,256	22,543	-0,047	0,028
-316,241	-200,000	0,010	-0,066
-315,226	-80,888	0,088	0,021
-314,212	-85,353	0,165	0,037
-313,197	524,240	0,025	-0,042
-312,183	-19,543	0,033	-0,015
-311,168	800,000	-0,023	-0,058
-310,153	-147,380	-0,068	0,004
-309,139	-200,000	-0,006	0,024
-308,124	-200,000	0,027	-0,091
-307,110	179,021	0,057	0,061
-306,095	-200,000	-0,054	0,218
-305,080	-140,832	-0,049	-0,004
-304,066	193,430	0,016	0,017
-303,051	102,056	-0,126	-0,106
-302,037	-192,999	-0,036	0,000
-301,022	800,000	-0,023	0,052
-300,008	-200,000	-0,023	-0,089
-298,993	46,853	0,030	-0,020
-297,978	-74,331	0,081	0,021
-296,964	-133,944	0,160	-0,014
-295,949	18,991	-0,196	-0,113
-294,935	-200,000	-0,036	-0,167
-293,920	-49,056	0,101	0,035
-292,905	-110,464	0,103	-0,015
-291,891	27,033	0,072	-0,044
-290,876	-200,000	-0,004	0,031
-289,862	442,591	0,066	0,105
-288,847	-76,384	-0,094	-0,024
-287,832	9,652	0,104	0,057
-286,818	698,484	0,028	0,053
-285,803	-110,942	-0,037	-0,005
-284,789	-200,000	-0,014	0,101
-283,774	-45,975	-0,092	0,033
-282,759	272,840	-0,042	0,054
-281,745	-67,250	-0,053	0,015
-280,730	-56,683	0,156	0,050
-279,716	242,769	0,027	-0,032
-278,701	-79,484	0,018	0,004
-277,686	-200,000	-0,018	0,101
-276,672	-200,000	-0,023	0,088
-275,657	2,528	0,044	0,023
-274,643	800,000	-0,045	-0,091
-273,628	-85,648	0,124	0,028
-272,613	-200,000	-0,003	-0,081
-271,599	210,964	-0,038	0,044
-270,584	163,652	-0,111	0,113
-269,570	800,000	0,023	0,054
-268,555	-200,000	-0,014	0,076
-267,540	-17,502	-0,132	-0,060
-266,526	800,000	-0,009	-0,021
-265,511	-200,000	0,006	-0,035
-264,497	18,296	-0,053	0,030
-263,482	181,657	0,046	-0,049
-262,467	-17,824	-0,040	-0,018
-261,453	191,894	-0,045	0,049
-260,438	-42,873	-0,134	-0,049
-259,424	-200,000	-0,011	-0,073
-258,409	-200,000	0,033	-0,105
-257,395	62,678	-0,008	-0,006
-256,380	49,427	-0,011	-0,008
-255,365	265,657	-0,065	-0,083
-254,351	779,084	-0,055	-0,110
-253,336	-122,218	0,035	-0,004
-252,322	-200,000	0,017	0,077
-251,307	205,478	-0,060	-0,067
-250,292	96,349	-0,040	-0,033
-249,278	-92,486	-0,042	-0,008
-248,263	95,406	0,067	0,055
-247,249	248,802	-0,093	-0,114
-246,234	-3,801	0,108	-0,054
-245,219	-174,258	-0,268	-0,005
-244,205	289,060	0,026	0,034
-243,190	-107,137	0,072	0,011
-242,176	800,000	0,026	0,067
-241,161	800,000	0,129	0,295
-240,146	-68,246	0,113	0,032
-239,132	800,000	0,049	-0,110
-238,117	800,000	-0,017	-0,039
-237,103	53,621	0,063	-0,044
-236,088	-200,000	0,025	-0,105
-235,073	-200,000	0,004	0,045
-234,059	-200,000	0,017	0,123
-233,044	-29,388	0,058	0,024
-232,030	204,653	0,035	-0,039
-231,015	710,346	-0,096	-0,185
-230,000	-200,000	0,012	-0,175
-228,986	800,000	-0,045	-0,142
-227,971	-200,000	-0,001	-0,108
-226,957	-200,000	-0,002	0,063
-225,942	-94,287	0,059	-0,012
-224,927	97,410	0,022	-0,018
-223,913	259,800	-0,083	0,104
-222,898	-89,802	0,124	-0,026
-221,884	133,397	0,022	0,021
-220,869	170,073	-0,059	0,061
-219,855	199,112	0,131	-0,145
-218,840	682,137	0,028	-0,052
-217,825	-200,000	0,001	0,028
-216,811	-200,000	0,038	0,148
-215,796	-65,319	-0,048	0,014
-214,782	697,458	0,099	0,188
-213,767	500,692	0,044	0,073
-212,752	92,344	0,033	-0,027
-211,738	717,529	-0,033	-0,063
-210,723	52,623	-0,085	-0,059
-209,709	345,416	-0,116	-0,165
-208,694	800,000	-0,028	-0,079
-207,679	-200,000	0,016	0,133
-206,665	-167,660	-0,057	-0,002
-205,650	-114,506	0,079	0,011
-204,636	28,431	0,104	0,063
-203,621	-200,000	-0,018	0,091
-202,606	-101,308	0,076	-0,013
-201,592	-200,000	-0,012	-0,054
-200,577	-200,000	0,010	-0,295
-199,563	-39,597	0,033	-0,012
-198,548	800,000	-0,042	-0,105
-197,533	-169,253	0,159	0,004
-196,519	-96,741	-0,058	-0,011
-195,504	51,476	0,025	-0,017
-194,490	191,364	-0,028	-0,030
-193,475	-200,000	0,025	-0,082
-192,460	533,674	0,032	-0,054
-191,446	166,616	-0,147	-0,151
-190,431	-57,331	0,029	0,009
-189,417	25,471	0,085	0,051
-188,402	-36,277	0,050	-0,019
-187,387	138,934	0,035	0,033
-186,373	225,405	0,033	0,039
-185,358	-137,151	0,037	0,003
-184,344	1,762	-0,085	0,044
-183,329	15,296	-0,075	-0,042
-182,315	-199,489	-0,034	0,000
-181,300	-83,501	0,020	0,005
-180,285	-200,000	0,024	-0,133
-179,271	-160,914	-0,109	0,004
-178,256	-200,000	-0,023	0,095
-177,242	17,241	-0,018	0,010
-176,227	1,627	0,210	0,109
-175,212	-116,634	-0,047	-0,006
-174,198	-40,287	0,010	-0,004
-173,183	800,000	-0,019	0,060
-172,169	-17,908	0,050	0,022
-171,154	-151,297	-0,225	0,012
-170,139	-38,821	0,088	0,033
-169,125	800,000	-0,042	0,108
-168,110	-162,452	0,087	0,003
-167,096	60,328	-0,026	-0,018
-166,081	-34,762	0,165	0,065
-165,066	-12,765	-0,138	-0,065
-164,052	800,000	-0,071	-0,175
-163,037	800,000	-0,026	-0,080
-162,023	-200,000	-0,008	0,034
-161,008	-13,830	-0,020	0,009
-159,993	-5,440	0,060	0,030
-158,979	-155,520	-0,245	-0,011
-157,964	121,232	0,084	0,076
-156,950	146,889	-0,107	0,104
-155,935	-200,000	-0,001	-0,022
-154,920	800,000	0,023	0,057
-153,906	800,000	-0,024	-0,072
-152,891	25,721	0,084	0,050
-151,877	20,940	-0,077	0,045
-150,862	-6,161	-0,100	0,049
-149,847	-200,000	-0,025	-0,078
-148,833	38,664	0,087	-0,056
-147,818	-200,000	-0,004	0,034
-146,804	-12,143	0,073	0,035
-145,789	-200,000	-0,008	0,026
-144,775	-33,663	0,087	0,034
-143,760	346,392	-0,069	0,098
-142,745	18,286	-0,128	0,073
-141,731	-200,000	0,005	-0,043
-140,716	-99,903	-0,191	-0,034
-139,702	265,747	0,091	0,115
-138,687	-39,712	0,022	-0,008
-137,672	-46,848	-0,158	0,056
-136,658	800,000	-0,063	-0,135
-135,643	180,526	-0,053	-0,056
-134,629	264,052	0,019	0,024
-133,614	-200,000	0,030	0,132
-132,599	-29,128	0,023	0,009
-131,585	-50,074	0,149	0,050
-130,570	284,929	-0,036	-0,047
-129,556	-80,372	-0,133	0,032
-128,541	-3,823	-0,100	0,050
-127,526	6,719	-0,028	0,015
-126,512	726,721	-0,028	0,053
-125,497	-13,280	0,124	-0,058
-124,483	800,000	0,019	0,050
-123,468	219,879	-0,049	-0,057
-122,453	-116,894	-0,143	-0,019
-121,439	-8,235	-0,067	0,032
-120,424	-200,000	0,010	-0,045
-119,410	800,000	-0,015	0,039
-118,395	702,915	0,040	0,077
