DTS Sentinel unit serial number:	SN410029Multiplexer serial number:	ORYXHardware model number:	OX2-SRSoftware version number:	ORYX F/W v4,00 Oryx Data Collector v3.7.2.0data status	okinstallation	B5 Nyhavnadifferential loss correction	single-endedforward channel	channel 2reverse channel	N/Adate	2023/12/12time	22:17:13forward acquisition time	300,00reverse acquisition time	0,00gamma	499,1914k internal	0,3158k external	0,3158temperature offset calibration	1,0000default loss term (dB/km)	0,3820temperature slope calibration	1,0000multiplexer offset coefficient	1,0000multiplexer slope coefficient	1,0000fibre end	0,00T internal ref (°C)	14,68T ext. ref 1 (°C)	-1,89T ext. ref 2 (°C)	-2,19length (m)	temperature (°C)	Stokes	anti-Stokes-744,400	-200,000	0,037	0,144
-743,385	-27,265	-0,265	0,113
-742,371	-131,828	0,097	0,009
-741,356	-60,184	-0,135	0,042
-740,342	33,470	0,194	0,124
-739,327	-164,978	-0,397	0,013
-738,312	195,492	0,094	0,106
-737,298	-198,374	-0,304	0,001
-736,283	85,665	0,085	-0,069
-735,269	-0,642	-0,150	0,078
-734,254	9,289	0,076	0,042
-733,239	55,992	-0,366	-0,261
-732,225	-200,000	0,007	0,042
-731,210	800,000	-0,019	-0,048
-730,196	800,000	0,022	0,065
-729,181	-115,085	-0,027	0,004
-728,167	-99,272	-0,105	-0,019
-727,152	-6,800	-0,071	-0,035
-726,137	-33,741	-0,099	-0,040
-725,123	-200,000	0,019	-0,105
-724,108	23,222	0,084	-0,051
-723,094	-150,529	-0,155	-0,009
-722,079	-200,000	-0,032	-0,116
-721,064	168,715	-0,056	-0,059
-720,050	10,166	0,044	-0,025
-719,035	-200,000	-0,002	0,011
-718,021	-64,114	-0,095	-0,028
-717,006	800,000	-0,072	-0,178
-715,991	-200,000	-0,032	-0,112
-714,977	-200,000	-0,000	-0,129
-713,962	-48,221	-0,130	-0,046
-712,948	119,132	0,094	-0,086
-711,933	179,280	-0,023	0,025
-710,918	800,000	0,034	0,101
-709,904	116,303	-0,094	-0,085
-708,889	277,865	-0,085	-0,111
-707,875	-200,000	0,013	-0,110
-706,860	118,028	-0,067	0,061
-705,845	-81,559	-0,068	0,016
-704,831	205,187	-0,068	0,078
-703,816	18,081	-0,077	-0,045
-702,802	-200,000	0,017	-0,120
-701,787	452,901	-0,036	-0,058
-700,772	-200,000	-0,019	-0,077
-699,758	-100,869	0,100	0,018
-698,743	196,511	-0,099	-0,111
-697,729	430,243	-0,042	0,067
-696,714	-200,000	-0,032	0,131
-695,699	213,314	0,032	-0,037
-694,685	-200,000	0,003	-0,113
-693,670	-200,000	-0,011	-0,099
-692,656	20,035	0,086	-0,051
-691,641	-16,704	-0,161	-0,075
-690,627	-142,962	0,107	-0,007
-689,612	541,824	0,041	-0,072
-688,597	-200,000	-0,049	-0,212
-687,583	-200,000	-0,008	0,060
-686,568	58,759	-0,102	0,073
-685,554	-2,383	-0,146	-0,075
-684,539	-96,948	0,140	-0,027
-683,524	800,000	-0,021	-0,056
-682,510	621,992	-0,044	-0,082
-681,495	-200,000	-0,012	-0,064
-680,481	-59,885	-0,219	-0,068
-679,466	38,920	-0,053	0,035
-678,451	117,148	-0,041	-0,037
-677,437	586,654	-0,012	-0,022
-676,422	73,281	0,059	-0,045
-675,408	800,000	-0,028	0,080
-674,393	-155,553	0,122	0,006
-673,378	-12,909	-0,119	-0,057
-672,364	800,000	-0,062	-0,130
-671,349	-200,000	-0,003	0,083
-670,335	-143,642	-0,067	0,005
-669,320	207,473	-0,087	-0,100
-668,305	-200,000	-0,009	-0,049
-667,291	800,000	-0,039	0,102
-666,276	451,892	-0,082	-0,133
-665,262	59,264	-0,099	0,071
-664,247	-50,257	-0,060	-0,021
-663,232	119,497	-0,065	0,059
-662,218	800,000	0,033	0,091
-661,203	56,624	-0,023	0,017
-660,189	-52,221	-0,112	0,038
-659,174	37,615	0,080	-0,052
-658,159	410,760	-0,061	-0,096
-657,145	800,000	-0,027	0,063
-656,130	-36,194	0,042	0,017
-655,116	319,551	0,037	-0,051
-654,101	283,947	-0,026	0,035
-653,086	-200,000	0,011	-0,055
-652,072	-99,214	0,036	-0,007
-651,057	59,800	-0,109	-0,079
-650,043	56,646	-0,042	-0,030
-649,028	-114,651	-0,188	-0,026
-648,014	-200,000	0,001	-0,021
-646,999	-200,000	-0,022	-0,075
-645,984	266,047	-0,032	0,041
-644,970	43,120	0,063	-0,042
-643,955	-54,839	-0,172	-0,057
-642,941	-28,179	-0,071	-0,030
-641,926	-200,000	-0,006	0,023
-640,911	-200,000	0,008	-0,080
-639,897	39,019	-0,082	-0,054
-638,882	88,579	-0,012	0,010
-637,868	-54,490	-0,072	-0,024
-636,853	199,520	-0,065	0,073
-635,838	55,105	0,065	0,046
-634,824	-124,578	-0,079	-0,009
-633,809	362,863	-0,017	-0,025
-632,795	11,038	0,057	0,032
-631,780	-200,000	0,009	0,043
-630,765	233,562	-0,052	0,063
-629,751	22,703	0,108	-0,065
-628,736	331,902	-0,074	-0,105
-627,722	94,889	0,027	-0,022
-626,707	668,969	0,052	0,099
-625,692	-200,000	-0,023	-0,143
-624,678	51,631	0,031	-0,022
-623,663	-200,000	0,003	-0,072
-622,649	-200,000	0,017	0,093
-621,634	414,893	0,027	0,042
-620,619	131,949	0,052	-0,049
-619,605	127,380	-0,005	-0,005
-618,590	-51,009	0,042	-0,014
-617,576	109,220	0,087	-0,077
-616,561	800,000	-0,049	0,118
-615,546	-129,549	-0,045	0,004
-614,532	800,000	-0,076	-0,164
-613,517	-31,610	-0,125	0,051
-612,503	-200,000	0,039	-0,133
-611,488	-200,000	-0,018	-0,066
-610,474	75,667	0,129	0,100
-609,459	-25,199	-0,156	0,068
-608,444	-200,000	0,009	0,063
-607,430	-200,000	0,002	-0,008
-606,415	-115,875	0,096	-0,013
-605,401	517,185	-0,038	-0,066
-604,386	84,486	0,019	0,015
-603,371	-200,000	0,008	0,092
-602,357	280,487	-0,039	0,052
-601,342	-200,000	0,030	0,103
-600,328	192,922	-0,128	0,142
-599,313	-200,000	0,026	-0,120
-598,298	-200,000	0,007	0,030
-597,284	22,961	-0,024	-0,015
-596,269	-168,072	-0,144	0,004
-595,255	116,787	0,106	0,095
-594,240	265,698	-0,145	-0,185
-593,225	-200,000	0,003	0,025
-592,211	273,928	-0,031	-0,041
-591,196	-200,000	-0,003	-0,022
-590,182	372,011	0,067	0,100
-589,167	-66,445	0,057	0,016
-588,152	-200,000	0,000	0,054
-587,138	650,533	0,069	0,130
-586,123	7,883	0,052	-0,028
-585,109	141,487	0,061	-0,059
-584,094	-200,000	0,021	-0,130
-583,079	33,919	0,062	-0,039
-582,065	-200,000	0,001	-0,056
-581,050	320,703	-0,030	0,042
-580,036	-200,000	0,013	-0,060
-579,021	84,310	-0,019	0,015
-578,006	-97,710	-0,073	-0,014
-576,992	-200,000	0,027	-0,097
-575,977	-200,000	-0,002	-0,027
-574,963	-111,733	0,079	-0,012
-573,948	-200,000	0,000	0,062
-572,934	-107,584	0,051	0,008
-571,919	-139,322	-0,059	0,005
-570,904	-121,253	-0,096	-0,012
-569,890	800,000	0,014	0,033
-568,875	-200,000	0,016	0,171
-567,861	57,430	0,062	-0,044
-566,846	18,217	-0,042	-0,024
-565,831	139,336	0,042	0,040
-564,817	233,186	-0,090	-0,108
-563,802	-200,000	0,007	0,089
-562,788	-129,903	-0,052	0,005
-561,773	-70,953	0,015	-0,004
-560,758	-200,000	-0,024	0,193
-559,744	-200,000	0,005	-0,126
-558,729	302,243	0,032	0,043
-557,715	800,000	-0,032	0,073
-556,700	162,301	-0,047	0,048
-555,685	435,809	-0,127	-0,204
-554,671	-7,985	0,066	0,032
-553,656	-200,000	0,001	-0,020
-552,642	-200,000	0,014	0,125
-551,627	470,572	0,039	0,064
-550,612	-82,905	-0,075	0,018
-549,598	-134,813	0,092	-0,008
-548,583	23,821	-0,061	0,037
-547,569	-166,972	0,075	0,002
-546,554	-200,000	0,030	-0,136
-545,539	249,187	-0,029	0,036
-544,525	74,085	-0,015	-0,011
-543,510	-138,150	-0,106	0,008
-542,496	-167,386	-0,039	-0,001
-541,481	205,593	-0,062	0,071
-540,466	582,634	-0,062	0,111
-539,452	-140,831	0,175	-0,013
-538,437	-143,764	-0,118	0,008
-537,423	-115,446	0,060	0,008
-536,408	-101,385	0,075	0,013
-535,393	76,538	-0,085	-0,066
-534,379	-200,000	-0,002	0,076
-533,364	800,000	0,042	0,111
-532,350	-88,998	0,007	0,001
-531,335	243,991	0,045	0,056
-530,321	-200,000	-0,006	-0,031
-529,306	-200,000	-0,005	0,117
-528,291	31,368	0,180	-0,113
-527,277	-200,000	-0,014	-0,173
-526,262	386,203	0,042	0,063
-525,248	-200,000	-0,005	0,125
-524,233	-122,111	-0,013	0,002
-523,218	104,610	-0,009	0,007
-522,204	118,613	-0,066	0,059
-521,189	212,493	0,036	0,041
-520,175	138,035	-0,094	-0,090
-519,160	800,000	0,033	-0,099
-518,145	209,808	0,012	0,014
-517,131	-200,000	0,000	0,075
-516,116	-163,543	0,090	-0,003
-515,102	-34,403	-0,118	-0,047
-514,087	223,524	-0,049	-0,058
-513,072	25,248	0,031	0,019
-512,058	45,117	-0,131	0,088
-511,043	-97,216	0,145	0,027
-510,029	174,158	0,025	-0,027
-509,014	-38,008	0,122	0,047
-507,999	-80,990	0,054	0,013
-506,985	5,932	-0,112	-0,061
-505,970	-200,000	-0,017	0,130
-504,956	-79,941	0,073	0,018
-503,941	-29,064	0,088	-0,037
-502,926	-200,000	0,023	-0,090
-501,912	-200,000	0,002	-0,009
-500,897	800,000	0,049	0,151
-499,883	476,368	-0,010	-0,017
-498,868	549,920	0,026	-0,046
-497,853	-149,493	0,092	0,005
-496,839	311,340	0,017	-0,023
-495,824	360,590	0,078	0,114
-494,810	-200,000	-0,013	0,064
-493,795	-161,407	-0,101	0,004
-492,781	800,000	-0,043	-0,130
-491,766	800,000	-0,047	-0,121
-490,751	101,904	-0,063	0,054
-489,737	-113,846	0,113	-0,016
-488,722	-38,122	0,113	0,043
-487,708	-57,711	0,176	-0,056
-486,693	288,199	-0,073	0,096
-485,678	-102,739	0,074	-0,013
-484,664	-111,983	-0,110	0,016
-483,649	198,579	-0,047	0,053
-482,635	179,129	0,078	-0,083
-481,620	185,874	-0,025	-0,027
-480,605	800,000	-0,025	0,076
-479,591	-200,000	0,031	0,129
-478,576	-200,000	-0,011	-0,037
-477,562	-200,000	0,001	0,031
-476,547	787,869	-0,038	-0,077
-475,532	800,000	0,036	-0,094
-474,518	58,282	0,130	0,093
-473,503	800,000	-0,014	0,030
-472,489	-15,562	0,032	-0,015
-471,474	800,000	0,039	-0,099
-470,459	18,736	-0,050	0,029
-469,445	-76,219	-0,148	-0,038
-468,430	-200,000	-0,001	0,085
-467,416	299,037	-0,040	-0,054
-466,401	-53,578	0,090	-0,030
-465,386	721,803	-0,009	-0,018
-464,372	173,811	-0,068	0,071
-463,357	54,951	0,067	0,047
-462,343	-46,466	-0,096	-0,034
-461,328	-200,000	0,031	-0,104
-460,313	668,058	0,019	0,035
-459,299	66,978	-0,048	0,035
-458,284	148,954	0,136	0,134
-457,270	165,163	-0,034	0,035
-456,255	73,065	-0,038	-0,029
-455,241	133,314	-0,064	0,061
-454,226	-200,000	0,014	-0,118
-453,211	800,000	-0,037	-0,108
-452,197	-200,000	0,002	0,088
-451,182	281,605	-0,062	0,081
-450,168	-200,000	0,025	0,110
-449,153	255,942	-0,030	0,038
-448,138	591,467	0,043	-0,078
-447,124	-200,000	-0,006	0,023
-446,109	-200,000	-0,012	0,146
-445,095	-200,000	0,001	-0,129
-444,080	273,473	-0,070	0,091
-443,065	-200,000	0,015	0,049
-442,051	-131,733	0,167	-0,016
-441,036	-200,000	0,006	-0,040
-440,022	-38,478	-0,103	0,039
-439,007	800,000	-0,062	-0,141
-437,992	-56,970	0,093	-0,030
-436,978	-200,000	-0,022	0,113
-435,963	800,000	-0,038	-0,084
-434,949	110,030	0,106	0,093
-433,934	-118,724	-0,133	0,017
-432,919	75,138	0,160	0,122
-431,905	-23,702	0,081	-0,035
-430,890	-51,601	0,092	0,031
-429,876	603,219	0,065	0,119
-428,861	701,656	-0,070	-0,134
-427,846	183,576	-0,046	0,049
-426,832	5,302	0,034	0,018
-425,817	-200,000	-0,010	-0,043
-424,803	53,005	-0,054	0,038
-423,788	800,000	-0,038	0,115
-422,773	-2,454	0,115	0,059
-421,759	249,226	-0,046	-0,057
-420,744	303,561	-0,073	0,099
-419,730	800,000	0,039	-0,119
-418,715	-200,000	-0,007	-0,064
-417,701	-54,436	-0,085	-0,028
-416,686	-151,042	-0,043	0,002
-415,671	124,582	0,055	-0,050
-414,657	-37,214	0,108	0,042
-413,642	-80,072	0,141	-0,034
-412,628	304,559	0,028	0,038
-411,613	700,084	0,032	0,061
-410,598	800,000	0,033	-0,080
-409,584	-94,575	0,153	0,030
-408,569	-136,248	0,142	0,012
-407,555	800,000	0,012	0,031
-406,540	-52,027	0,100	0,034
-405,525	53,539	0,059	0,041
-404,511	-200,000	-0,012	0,078
-403,496	344,991	0,042	-0,061
-402,482	-131,350	0,043	0,004
-401,467	95,277	0,068	-0,057
-400,452	-69,008	-0,059	0,016
-399,438	103,146	-0,082	0,070
-398,423	-20,259	0,105	0,047
-397,409	488,488	-0,088	-0,147
-396,394	50,030	0,149	-0,102
-395,379	48,218	-0,073	-0,050
-394,365	36,872	-0,037	-0,023
-393,350	39,999	0,086	-0,056
-392,336	-96,054	-0,059	0,011
-391,321	800,000	0,064	-0,169
-390,306	-27,801	-0,223	-0,094
-389,292	124,817	0,059	-0,054
-388,277	-7,285	0,036	0,018
-387,263	-200,000	-0,006	0,052
-386,248	22,772	0,138	0,082
-385,233	406,969	-0,073	-0,113
-384,219	-122,102	-0,036	-0,004
-383,204	-69,203	-0,067	0,019
-382,190	-113,950	0,074	-0,010
-381,175	37,823	-0,083	0,053
-380,160	800,000	-0,019	-0,040
-379,146	-53,434	-0,079	0,026
-378,131	-86,504	-0,103	-0,023
-377,117	800,000	0,023	-0,051
-376,102	193,551	-0,043	-0,048
-375,088	204,875	-0,057	0,064
-374,073	800,000	0,022	-0,045
-373,058	-200,000	-0,000	-0,013
-372,044	-200,000	-0,000	0,042
-371,029	-200,000	0,008	0,078
-370,015	463,319	-0,056	0,091
-369,000	-112,926	-0,022	0,003
-367,985	-41,979	0,158	0,058
-366,971	-144,653	0,042	-0,003
-365,956	1,872	-0,071	0,037
-364,942	97,539	0,133	0,111
-363,927	-200,000	0,003	0,098
-362,912	-35,099	-0,082	-0,032
-361,898	61,067	-0,177	-0,127
-360,883	800,000	-0,016	-0,039
-359,869	-200,000	0,024	-0,082
-358,854	91,612	0,083	-0,068
-357,839	165,137	-0,068	-0,069
-356,825	-59,883	0,082	-0,025
-355,810	-6,551	-0,128	0,063
-354,796	231,743	-0,074	-0,088
-353,781	-11,753	-0,115	0,055
-352,766	698,955	-0,058	-0,111
-351,752	286,471	0,019	-0,025
-350,737	592,995	0,044	0,079
-349,723	42,881	-0,088	0,058
-348,708	-98,263	-0,096	0,018
-347,693	-200,000	0,060	-0,194
-346,679	57,322	-0,069	-0,049
-345,664	-200,000	-0,013	-0,076
-344,650	142,403	0,066	0,064
-343,635	-111,970	0,120	-0,017
-342,620	-99,059	0,223	0,041
-341,606	-115,950	0,028	0,004
-340,591	-60,039	-0,012	-0,004
-339,577	-138,224	0,065	0,005
-338,562	-7,920	-0,073	-0,036
-337,548	-127,088	0,176	-0,019
-336,533	225,588	0,071	0,084
-335,518	800,000	0,041	0,128
-334,504	283,343	-0,027	-0,036
-333,489	-200,000	0,023	-0,147
-332,475	67,494	0,029	-0,021
-331,460	-200,000	0,000	-0,055
-330,445	17,577	-0,034	0,019
-329,431	206,100	0,055	0,062
-328,416	384,930	-0,035	0,052
-327,402	-163,736	0,053	-0,002
-326,387	659,246	0,056	-0,105
-325,372	-49,507	0,074	-0,026
-324,358	-200,000	0,016	-0,104
-323,343	119,616	0,063	-0,057
-322,329	-200,000	-0,002	-0,107
-321,314	565,904	-0,093	0,164
-320,299	-104,022	0,118	-0,020
-319,285	-77,377	0,162	0,041
-318,270	-77,379	-0,109	0,027
-317,256	-123,714	0,116	-0,013
-316,241	393,683	0,037	0,056
-315,226	152,992	0,023	-0,023
-314,212	-54,384	0,080	-0,026
-313,197	-189,599	0,139	-0,001
-312,183	31,305	-0,060	-0,037
-311,168	-135,197	-0,077	-0,007
-310,153	800,000	0,002	-0,004
-309,139	-133,587	-0,083	-0,007
-308,124	20,580	0,087	0,051
-307,110	-200,000	0,019	0,088
-306,095	-200,000	-0,010	-0,153
-305,080	451,287	-0,076	-0,122
-304,066	-24,940	0,039	-0,017
-303,051	-200,000	0,015	-0,068
-302,037	-200,000	0,004	-0,249
-301,022	-200,000	0,002	0,024
-300,008	-166,044	0,094	0,003
-298,993	71,079	-0,023	-0,017
-297,978	573,221	0,027	-0,048
-296,964	636,762	-0,063	-0,116
-295,949	-62,415	-0,031	0,009
-294,935	-127,952	-0,128	-0,013
-293,920	-77,333	-0,064	-0,016
-292,905	-73,802	-0,075	-0,020
-291,891	110,055	0,048	0,042
-290,876	800,000	0,028	-0,068
-289,862	-200,000	-0,008	0,081
-288,847	-200,000	0,005	0,032
-287,832	-200,000	0,005	0,140
-286,818	-200,000	-0,003	-0,036
-285,803	-183,220	0,056	0,001
-284,789	-80,945	-0,036	0,008
-283,774	170,586	-0,051	0,053
-282,759	-126,167	0,072	0,008
-281,745	771,354	0,039	0,076
-280,730	3,912	-0,033	-0,018
-279,716	181,649	0,005	-0,006
-278,701	-200,000	0,000	-0,139
-277,686	-200,000	0,029	0,096
-276,672	-100,118	0,099	0,018
-275,657	3,867	-0,040	0,021
-274,643	547,889	0,011	-0,019
-273,628	378,262	-0,079	-0,117
-272,613	800,000	0,017	-0,041
-271,599	-168,175	0,064	0,002
-270,584	110,924	-0,057	0,050
-269,570	36,123	-0,068	0,043
-268,555	246,385	0,045	0,055
-267,540	20,142	-0,027	0,016
-266,526	-150,342	-0,040	-0,002
-265,511	-70,119	-0,165	0,045
-264,497	12,141	-0,095	-0,053
-263,482	203,915	-0,010	0,012
-262,467	82,449	-0,048	-0,038
-261,453	-61,364	-0,048	0,015
-260,438	-200,000	-0,001	0,017
-259,424	-200,000	-0,019	-0,069
-258,409	-127,143	-0,027	0,003
-257,395	-57,308	0,038	0,012
-256,380	250,099	0,039	0,048
-255,365	182,208	-0,047	-0,050
-254,351	800,000	-0,029	0,078
-253,336	211,526	0,016	-0,018
-252,322	-41,859	0,033	-0,012
-251,307	322,046	-0,032	0,044
-250,292	195,758	-0,068	0,075
-249,278	246,974	0,032	0,039
-248,263	-200,000	0,006	0,170
-247,249	7,302	-0,132	0,071
-246,234	-200,000	0,032	-0,109
-245,219	253,722	-0,094	-0,116
-244,205	339,060	-0,051	-0,072
-243,190	-182,323	-0,028	0,000
-242,176	800,000	0,028	-0,062
-241,161	-92,777	0,072	0,014
-240,146	121,150	0,055	0,049
-239,132	-110,957	-0,158	-0,023
-238,117	-38,315	-0,097	-0,037
-237,103	-200,000	-0,013	-0,044
-236,088	800,000	-0,051	0,107
-235,073	-200,000	-0,015	-0,049
-234,059	-200,000	-0,020	0,083
-233,044	800,000	0,026	0,057
-232,030	85,419	-0,096	-0,076
-231,015	-200,000	0,045	-0,193
-230,000	-200,000	-0,025	-0,092
-228,986	84,111	0,038	-0,030
-227,971	800,000	0,061	-0,183
-226,957	-98,364	0,135	-0,025
-225,942	-200,000	0,004	0,028
-224,927	-141,560	0,040	-0,003
-223,913	800,000	0,032	-0,078
-222,898	800,000	-0,021	0,062
-221,884	214,295	-0,050	0,057
-220,869	98,996	-0,072	0,060
-219,855	257,431	0,099	0,123
-218,840	-159,883	0,082	0,003
-217,825	-8,501	-0,042	0,020
-216,811	800,000	0,016	0,049
-215,796	204,307	-0,014	0,016
-214,782	-200,000	0,004	0,035
-213,767	800,000	0,029	-0,061
-212,752	398,346	-0,013	0,020
-211,738	92,762	-0,086	-0,070
-210,723	48,613	-0,104	0,070
-209,709	31,570	0,069	-0,042
-208,694	800,000	-0,021	0,064
-207,679	-200,000	0,007	0,072
-206,665	-114,642	0,041	0,006
-205,650	769,925	-0,109	0,215
-204,636	-27,811	-0,057	0,024
-203,621	-200,000	0,002	-0,007
-202,606	800,000	0,010	-0,032
-201,592	-40,783	-0,159	0,059
-200,577	131,282	-0,045	-0,041
-199,563	-200,000	0,009	0,084
-198,548	-116,991	0,128	-0,017
-197,533	128,484	-0,053	-0,049
-196,519	157,045	0,135	0,135
-195,504	-200,000	-0,134	-0,000
-194,490	6,594	-0,066	-0,035
-193,475	800,000	0,012	-0,029
-192,460	-17,773	-0,022	0,010
-191,446	45,336	0,124	0,082
-190,431	-200,000	0,010	0,137
-189,417	800,000	0,086	-0,176
-188,402	176,932	-0,053	-0,056
-187,387	45,065	-0,128	-0,085
-186,373	800,000	-0,062	-0,148
-185,358	-200,000	0,023	-0,126
-184,344	23,232	0,082	-0,048
-183,329	24,341	0,047	0,028
-182,315	-200,000	0,022	0,089
-181,300	-14,707	0,080	0,037
-180,285	359,194	-0,054	0,078
-179,271	-200,000	-0,019	-0,200
-178,256	-92,555	-0,076	-0,015
-177,242	-157,097	0,034	0,001
-176,227	247,221	-0,022	-0,027
-175,212	15,338	-0,065	0,037
-174,198	33,498	-0,068	0,043
-173,183	79,449	-0,099	0,077
-172,169	-200,000	-0,032	-0,119
-171,154	800,000	-0,039	0,094
-170,139	-85,592	-0,061	0,014
-169,125	-72,267	0,102	-0,027
-168,110	-14,834	0,090	0,042
-167,096	-200,000	-0,036	0,126
-166,081	-200,000	0,007	0,101
-165,066	407,783	0,068	-0,105
-164,052	381,745	-0,078	0,116
-163,037	-200,000	0,015	0,130
-162,023	-146,286	0,197	-0,012
-161,008	159,949	-0,127	0,128
-159,993	155,746	0,030	-0,029
-158,979	800,000	0,052	-0,150
-157,964	144,628	-0,056	-0,054
-156,950	-19,953	0,092	-0,041
-155,935	800,000	0,037	-0,073
-154,920	177,469	0,054	0,057
-153,906	-118,995	-0,118	-0,015
-152,891	9,045	-0,010	-0,006
-151,877	-67,539	-0,104	0,029
-150,862	-200,000	-0,028	0,159
-149,847	24,376	-0,079	-0,047
-148,833	800,000	0,022	0,066
-147,818	111,651	0,086	-0,074
-146,804	-91,925	0,143	0,029
-145,789	97,158	0,064	0,053
-144,775	321,327	0,071	0,097
-143,760	10,590	-0,095	0,052
-142,745	-50,458	0,090	0,031
-141,731	-200,000	-0,007	0,141
-140,716	-200,000	-0,011	-0,043
-139,702	57,885	-0,142	0,100
-138,687	-200,000	-0,001	0,078
-137,672	-82,647	0,113	-0,026
-136,658	-200,000	0,030	0,166
-135,643	-200,000	0,014	0,084
-134,629	351,869	0,072	-0,103
-133,614	-4,964	-0,114	-0,056
-132,599	258,586	0,069	-0,085
-131,585	-200,000	0,014	-0,066
-130,570	-200,000	0,000	-0,173
-129,556	-27,501	0,075	-0,031
-128,541	-55,045	0,048	-0,015
-127,526	-22,155	-0,043	-0,019
-126,512	-200,000	0,011	-0,162
-125,497	-0,447	-0,035	0,018
-124,483	82,227	-0,083	-0,064
-123,468	80,158	-0,076	0,059
-122,453	800,000	-0,039	0,107
-121,439	-200,000	0,014	0,075
-120,424	170,909	-0,063	0,065
-119,410	128,891	-0,029	-0,027
