DTS Sentinel unit serial number:	SN410029Multiplexer serial number:	ORYXHardware model number:	OX2-SRSoftware version number:	ORYX F/W v4,00 Oryx Data Collector v3.7.2.0data status	okinstallation	B5 Nyhavnadifferential loss correction	single-endedforward channel	channel 2reverse channel	N/Adate	2023/12/14time	18:47:13forward acquisition time	300,00reverse acquisition time	0,00gamma	499,1914k internal	0,3156k external	0,3156temperature offset calibration	1,0000default loss term (dB/km)	0,3820temperature slope calibration	1,0000multiplexer offset coefficient	1,0000multiplexer slope coefficient	1,0000fibre end	0,00T internal ref (°C)	8,61T ext. ref 1 (°C)	-6,42T ext. ref 2 (°C)	-6,48length (m)	temperature (°C)	Stokes	anti-Stokes-744,400	-66,115	0,096	0,028
-743,385	-75,018	-0,417	-0,109
-742,371	800,000	0,082	0,171
-741,356	-102,989	-0,252	0,044
-740,342	275,593	0,139	0,182
-739,327	-160,883	-0,381	0,015
-738,312	800,000	0,012	0,035
-737,298	-13,289	-0,354	-0,169
-736,283	540,083	0,169	0,299
-735,269	-94,812	-0,349	-0,069
-734,254	-57,353	0,181	0,058
-733,239	-58,894	-0,597	-0,189
-732,225	-93,976	0,265	0,053
-731,210	340,099	-0,095	0,136
-730,196	-156,595	-0,100	0,005
-729,181	271,431	0,096	-0,125
-728,167	-95,755	0,022	0,004
-727,152	-182,545	0,276	0,004
-726,137	2,796	-0,202	-0,108
-725,123	-167,460	0,014	0,000
-724,108	82,868	-0,044	0,036
-723,094	-200,000	-0,010	-0,184
-722,079	92,188	-0,086	0,071
-721,064	800,000	0,045	0,109
-720,050	-132,105	0,097	0,009
-719,035	-160,763	0,056	0,002
-718,021	-131,555	0,105	-0,010
-717,006	526,550	-0,090	-0,157
-715,991	-200,000	-0,047	-0,175
-714,977	-109,048	-0,137	-0,021
-713,962	-181,490	-0,205	0,003
-712,948	-35,445	0,056	-0,022
-711,933	418,025	0,038	-0,061
-710,918	-200,000	-0,026	-0,137
-709,904	-200,000	-0,051	-0,185
-708,889	95,667	-0,068	-0,057
-707,875	118,050	0,036	-0,033
-706,860	-150,361	-0,095	-0,005
-705,845	800,000	-0,030	-0,070
-704,831	-61,897	-0,075	0,023
-703,816	144,983	-0,067	0,066
-702,802	-200,000	0,001	-0,069
-701,787	-200,000	-0,013	-0,149
-700,772	-200,000	-0,017	-0,119
-699,758	-142,402	0,108	-0,008
-698,743	-87,320	0,055	-0,012
-697,729	-0,085	0,078	-0,041
-696,714	197,000	-0,031	0,035
-695,699	-200,000	0,003	-0,212
-694,685	800,000	-0,057	-0,122
-693,670	-200,000	-0,018	0,093
-692,656	-58,342	0,082	0,026
-691,641	-200,000	0,002	0,017
-690,627	-124,174	0,096	0,011
-689,612	-200,000	0,003	-0,093
-688,597	-200,000	0,016	-0,074
-687,583	-200,000	-0,022	-0,088
-686,568	101,434	0,008	0,007
-685,554	-31,493	0,065	0,027
-684,539	800,000	-0,014	0,032
-683,524	-117,910	0,148	0,019
-682,510	-66,084	0,137	-0,040
-681,495	800,000	-0,044	0,112
-680,481	-200,000	-0,034	-0,113
-679,466	512,251	-0,110	-0,189
-678,451	458,275	0,011	-0,018
-677,437	226,522	-0,077	-0,092
-676,422	192,988	-0,104	0,115
-675,408	-63,592	0,106	0,032
-674,393	725,881	-0,026	-0,051
-673,378	-200,000	-0,009	-0,078
-672,364	800,000	0,044	-0,129
-671,349	22,873	-0,034	0,021
-670,335	7,515	-0,073	0,040
-669,320	-200,000	0,011	0,047
-668,305	240,289	0,052	-0,064
-667,291	-17,073	0,127	-0,059
-666,276	356,560	0,103	-0,152
-665,262	159,747	-0,116	-0,118
-664,247	-200,000	0,009	-0,081
-663,232	-73,490	-0,098	-0,026
-662,218	-200,000	0,023	0,100
-661,203	-111,103	-0,101	0,015
-660,189	126,820	-0,031	0,029
-659,174	-200,000	0,002	0,014
-658,159	-192,289	-0,123	0,001
-657,145	-52,574	0,072	-0,024
-656,130	69,839	0,061	0,046
-655,116	206,910	0,076	0,088
-654,101	800,000	0,038	0,110
-653,086	-200,000	0,018	-0,069
-652,072	-41,408	-0,043	-0,016
-651,057	-200,000	0,024	-0,192
-650,043	-14,588	0,034	0,016
-649,028	-9,767	0,017	0,008
-648,014	-200,000	0,004	-0,067
-646,999	-142,706	-0,102	0,007
-645,984	148,337	-0,086	-0,085
-644,970	184,284	0,073	0,079
-643,955	273,708	-0,041	0,053
-642,941	-85,413	-0,172	-0,039
-641,926	-26,824	0,156	-0,067
-640,911	44,712	-0,131	-0,088
-639,897	-200,000	-0,003	0,070
-638,882	176,966	-0,052	0,056
-637,868	212,733	-0,084	0,098
-636,853	-119,117	-0,041	0,005
-635,838	241,364	-0,057	-0,070
-634,824	800,000	-0,011	-0,030
-633,809	-80,595	0,077	0,019
-632,795	-200,000	0,003	0,109
-631,780	-200,000	-0,004	0,071
-630,765	-36,806	0,062	0,024
-629,751	776,498	0,032	-0,065
-628,736	-200,000	-0,035	-0,114
-627,722	-72,822	-0,112	-0,030
-626,707	335,288	-0,060	0,085
-625,692	-200,000	-0,014	0,129
-624,678	-112,992	0,198	0,028
-623,663	-200,000	0,005	0,087
-622,649	53,084	0,082	0,058
-621,634	-200,000	0,012	-0,087
-620,619	800,000	0,048	-0,101
-619,605	330,576	0,045	0,063
-618,590	326,289	0,008	-0,011
-617,576	-200,000	-0,029	0,097
-616,561	-200,000	-0,004	0,148
-615,546	-200,000	-0,001	0,061
-614,532	800,000	-0,021	0,056
-613,517	398,657	0,022	0,034
-612,503	-189,016	0,142	-0,001
-611,488	73,700	0,095	0,073
-610,474	405,976	-0,079	0,123
-609,459	800,000	0,029	0,092
-608,444	800,000	0,015	0,041
-607,430	136,892	-0,160	-0,153
-606,415	225,068	-0,089	-0,106
-605,401	800,000	0,041	-0,117
-604,386	692,137	0,029	-0,056
-603,371	-200,000	-0,015	0,119
-602,357	-98,143	0,091	0,017
-601,342	-16,537	0,060	0,028
-600,328	-200,000	0,015	-0,057
-599,313	-42,660	-0,117	0,043
-598,298	114,418	-0,052	0,046
-597,284	177,081	0,056	-0,060
-596,269	-67,294	-0,227	-0,065
-595,255	31,742	0,101	-0,063
-594,240	178,091	-0,063	-0,068
-593,225	253,806	-0,049	0,062
-592,211	-200,000	-0,010	0,083
-591,196	800,000	-0,039	-0,106
-590,182	42,540	0,138	-0,092
-589,167	-34,624	-0,080	0,032
-588,152	5,239	0,018	0,010
-587,138	31,001	-0,108	0,068
-586,123	-200,000	-0,009	-0,158
-585,109	-200,000	-0,016	-0,101
-584,094	-112,544	-0,071	0,010
-583,079	749,359	0,027	-0,054
-582,065	107,425	0,112	0,097
-581,050	405,232	0,074	0,114
-580,036	-62,290	0,102	-0,031
-579,021	800,000	-0,038	0,117
-578,006	115,436	0,048	0,043
-576,992	420,703	0,065	-0,102
-575,977	800,000	0,027	0,079
-574,963	171,702	-0,072	0,076
-573,948	-200,000	0,029	0,159
-572,934	39,341	0,091	-0,060
-571,919	-200,000	0,041	-0,251
-570,904	606,823	-0,048	-0,089
-569,890	-81,038	-0,101	0,024
-568,875	-200,000	-0,043	0,157
-567,861	-14,135	0,004	0,002
-566,846	800,000	-0,058	0,158
-565,831	293,555	-0,063	0,084
-564,817	800,000	0,034	-0,084
-563,802	18,410	-0,035	0,021
-562,788	-1,392	-0,090	0,046
-561,773	-23,347	0,030	-0,013
-560,758	52,363	0,050	0,035
-559,744	110,073	0,032	0,028
-558,729	-200,000	0,018	-0,066
-557,715	-200,000	-0,015	0,071
-556,700	25,916	-0,075	-0,046
-555,685	800,000	0,022	-0,065
-554,671	-200,000	0,001	0,008
-553,656	-21,613	0,010	0,004
-552,642	-200,000	0,009	0,030
-551,627	513,786	-0,053	0,090
-550,612	-200,000	-0,007	0,086
-549,598	11,580	0,195	-0,109
-548,583	60,656	0,048	0,035
-547,569	-53,479	0,052	-0,017
-546,554	60,679	-0,082	-0,059
-545,539	-15,515	0,127	0,059
-544,525	-151,542	0,103	0,005
-543,510	800,000	0,034	-0,103
-542,496	-200,000	-0,011	0,035
-541,481	65,819	-0,049	0,036
-540,466	-200,000	-0,006	0,065
-539,452	-200,000	0,017	-0,150
-538,437	22,273	0,071	-0,042
-537,423	380,996	-0,049	-0,073
-536,408	-38,501	0,062	0,024
-535,393	394,958	-0,047	-0,072
-534,379	-200,000	0,022	0,160
-533,364	-200,000	-0,016	-0,057
-532,350	-200,000	0,017	0,069
-531,335	-24,862	-0,057	0,025
-530,321	800,000	-0,016	0,047
-529,306	-200,000	-0,017	0,058
-528,291	796,589	0,037	-0,074
-527,277	-51,605	0,058	-0,020
-526,262	478,431	0,024	0,040
-525,248	405,309	0,035	0,054
-524,233	-54,174	0,033	0,011
-523,218	119,161	-0,049	0,044
-522,204	575,986	-0,127	0,229
-521,189	-83,002	0,024	0,006
-520,175	-144,435	-0,164	0,011
-519,160	-200,000	-0,002	0,127
-518,145	59,088	0,076	0,055
-517,131	668,127	0,035	-0,066
-516,116	760,078	-0,032	0,063
-515,102	-76,982	0,136	-0,034
-514,087	800,000	0,020	-0,044
-513,072	-200,000	-0,022	0,081
-512,058	94,957	0,090	-0,074
-511,043	41,353	0,068	0,045
-510,029	-200,000	-0,006	0,097
-509,014	108,848	0,071	0,062
-507,999	-200,000	-0,004	0,077
-506,985	-200,000	-0,029	0,097
-505,970	-132,693	-0,097	0,009
-504,956	800,000	-0,018	-0,057
-503,941	-51,134	-0,050	0,017
-502,926	-148,469	0,036	0,002
-501,912	800,000	0,029	0,084
-500,897	-67,482	0,024	-0,007
-499,883	-200,000	0,040	-0,134
-498,868	-6,101	-0,051	0,025
-497,853	-100,329	-0,062	0,011
-496,839	-200,000	0,000	-0,026
-495,824	800,000	-0,051	-0,145
-494,810	-200,000	0,025	0,120
-493,795	-200,000	-0,004	0,130
-492,781	-200,000	-0,002	-0,042
-491,766	800,000	0,032	0,065
-490,751	-200,000	-0,034	-0,136
-489,737	-200,000	0,018	-0,156
-488,722	-128,082	-0,119	0,012
-487,708	-200,000	0,025	0,080
-486,693	3,199	-0,014	0,007
-485,678	800,000	-0,047	-0,140
-484,664	-200,000	0,023	-0,091
-483,649	238,044	-0,065	-0,078
-482,635	-172,698	-0,064	-0,001
-481,620	800,000	0,053	0,113
-480,605	-88,909	-0,034	-0,007
-479,591	32,769	-0,053	-0,034
-478,576	-71,520	-0,074	0,020
-477,562	-78,461	0,114	-0,028
-476,547	21,424	-0,023	0,014
-475,532	-70,307	0,156	-0,043
-474,518	28,521	0,036	-0,022
-473,503	-200,000	-0,017	-0,070
-472,489	418,765	0,027	-0,043
-471,474	-174,459	-0,041	0,001
-470,459	-94,202	-0,089	0,018
-469,445	-65,571	0,084	-0,024
-468,430	-200,000	-0,042	0,187
-467,416	-200,000	0,002	-0,037
-466,401	137,299	0,076	-0,073
-465,386	11,802	0,049	0,028
-464,372	96,187	0,095	0,079
-463,357	-200,000	0,004	-0,043
-462,343	800,000	-0,064	-0,160
-461,328	800,000	0,054	-0,122
-460,313	-200,000	0,041	-0,143
-459,299	-155,853	0,048	-0,002
-458,284	800,000	0,056	0,143
-457,270	-137,574	-0,099	-0,008
-456,255	2,042	-0,041	-0,022
-455,241	-20,445	0,108	-0,048
-454,226	-9,632	-0,129	0,062
-453,211	42,605	0,106	-0,070
-452,197	-96,234	-0,088	0,017
-451,182	21,668	0,064	-0,038
-450,168	226,357	-0,057	0,067
-449,153	800,000	-0,050	-0,107
-448,138	-2,746	-0,052	-0,027
-447,124	633,965	-0,043	0,081
-446,109	615,374	-0,029	0,054
-445,095	52,821	0,009	-0,006
-444,080	-46,051	0,157	0,056
-443,065	-51,107	0,066	-0,022
-442,051	-2,783	0,023	-0,011
-441,036	-200,000	-0,022	-0,111
-440,022	-109,529	-0,039	-0,006
-439,007	82,489	-0,036	-0,028
-437,992	619,948	0,041	0,076
-436,978	458,197	0,069	0,113
-435,963	-200,000	-0,013	0,068
-434,949	2,206	-0,195	-0,102
-433,934	-71,384	0,102	0,028
-432,919	-200,000	-0,020	0,117
-431,905	15,672	0,070	0,040
-430,890	330,194	0,080	-0,113
-429,876	214,916	0,070	0,081
-428,861	49,129	-0,065	-0,045
-427,846	55,702	-0,042	-0,030
-426,832	-28,858	-0,100	0,042
-425,817	74,512	0,071	-0,055
-424,803	7,038	0,090	0,049
-423,788	69,464	0,157	-0,117
-422,773	78,684	-0,076	0,059
-421,759	-54,459	0,201	0,066
-420,744	237,396	-0,086	-0,103
-419,730	-200,000	0,012	0,095
-418,715	-200,000	0,017	-0,127
-417,701	63,970	0,101	-0,074
-416,686	200,130	0,094	0,106
-415,671	800,000	0,034	0,095
-414,657	-200,000	0,007	0,039
-413,642	-200,000	0,017	-0,058
-412,628	-200,000	0,002	-0,033
-411,613	-5,385	-0,130	-0,065
-410,598	800,000	0,007	-0,022
-409,584	-118,460	-0,079	-0,010
-408,569	-124,942	-0,023	-0,003
-407,555	280,896	0,037	0,048
-406,540	-59,544	0,166	-0,052
-405,525	477,262	-0,027	-0,044
-404,511	-35,974	0,043	-0,017
-403,496	-200,000	-0,033	-0,141
-402,482	485,230	0,040	0,067
-401,467	-11,822	-0,068	0,032
-400,452	23,594	0,221	0,132
-399,438	112,250	-0,090	-0,079
-398,423	-200,000	-0,004	-0,200
-397,409	-68,483	-0,070	0,020
-396,394	800,000	-0,004	0,010
-395,379	-200,000	-0,002	0,219
-394,365	800,000	-0,034	0,093
-393,350	373,723	0,056	0,083
-392,336	-29,919	-0,110	0,046
-391,321	-47,659	0,032	-0,011
-390,306	800,000	0,047	-0,117
-389,292	357,370	0,034	0,050
-388,277	800,000	0,055	-0,149
-387,263	184,251	-0,047	0,051
-386,248	800,000	0,032	0,074
-385,233	421,020	-0,031	0,049
-384,219	-121,579	-0,054	-0,006
-383,204	81,671	-0,019	-0,015
-382,190	-200,000	0,032	0,000
-381,175	461,217	0,028	0,045
-380,160	800,000	0,035	0,101
-379,146	507,155	-0,056	0,095
-378,131	-115,700	-0,048	-0,007
-377,117	619,170	-0,015	-0,028
-376,102	-52,047	0,123	0,041
-375,088	800,000	0,020	0,048
-374,073	243,580	0,066	-0,081
-373,058	689,522	-0,047	0,090
-372,044	-200,000	-0,022	0,088
-371,029	-87,165	0,125	-0,027
-370,015	-200,000	-0,015	-0,080
-369,000	739,804	-0,044	-0,087
-367,985	92,608	-0,091	0,074
-366,971	113,396	-0,096	-0,084
-365,956	-65,070	0,006	-0,002
-364,942	211,079	-0,068	-0,078
-363,927	-135,504	-0,053	-0,005
-362,912	270,932	-0,075	0,097
-361,898	56,318	-0,165	0,117
-360,883	-65,422	-0,067	0,020
-359,869	800,000	-0,022	-0,060
-358,854	134,798	0,084	-0,080
-357,839	-177,613	0,136	0,002
-356,825	685,628	0,075	-0,143
-355,810	800,000	-0,043	-0,101
-354,796	172,727	-0,086	-0,090
-353,781	-200,000	0,006	0,031
-352,766	-124,767	0,103	-0,011
-351,752	800,000	0,030	-0,072
-350,737	-140,809	0,069	-0,005
-349,723	36,921	0,021	-0,013
-348,708	800,000	0,049	-0,110
-347,693	-200,000	-0,005	0,183
-346,679	96,846	-0,047	-0,039
-345,664	-70,223	-0,020	-0,006
-344,650	79,082	-0,061	-0,047
-343,635	287,822	-0,087	-0,114
-342,620	-52,964	-0,180	-0,060
-341,606	124,682	-0,040	0,036
-340,591	-200,000	0,016	-0,118
-339,577	800,000	0,023	0,063
-338,562	-15,338	-0,088	-0,041
-337,548	800,000	0,060	0,130
-336,533	-200,000	-0,003	-0,099
-335,518	205,875	0,074	0,083
-334,504	-126,459	0,109	-0,012
-333,489	-200,000	0,019	-0,103
-332,475	87,011	-0,040	0,032
-331,460	224,705	-0,036	0,042
-330,445	665,772	0,053	-0,100
-329,431	791,232	0,045	0,091
-328,416	-200,000	0,022	0,109
-327,402	422,796	0,064	0,100
-326,387	-86,543	0,086	0,019
-325,372	-107,535	-0,122	-0,019
-324,358	800,000	0,061	-0,149
-323,343	-200,000	-0,017	-0,098
-322,329	-92,376	0,079	0,016
-321,314	116,590	0,064	-0,057
-320,299	-127,290	0,092	0,010
-319,285	470,763	-0,048	-0,079
-318,270	111,732	-0,085	0,074
-317,256	94,950	-0,038	-0,032
-316,241	-67,882	-0,109	-0,031
-315,226	-132,085	-0,022	-0,002
-314,212	-200,000	0,013	0,068
-313,197	119,886	0,109	0,098
-312,183	800,000	0,023	-0,069
-311,168	134,025	0,026	-0,025
-310,153	77,958	0,064	-0,049
-309,139	-200,000	0,013	-0,043
-308,124	445,244	-0,034	-0,055
-307,110	206,350	0,071	-0,080
-306,095	-132,411	-0,123	-0,011
-305,080	-115,773	-0,015	-0,002
-304,066	101,167	-0,081	0,069
-303,051	141,040	0,011	0,010
-302,037	74,730	0,054	-0,041
-301,022	100,118	-0,156	-0,131
-300,008	726,972	-0,013	0,025
-298,993	266,136	-0,052	-0,066
-297,978	-200,000	0,058	0,000
-296,964	188,637	-0,028	0,031
-295,949	-4,274	-0,030	-0,015
-294,935	-80,750	-0,069	-0,016
-293,920	139,175	-0,086	0,082
-292,905	353,859	0,062	-0,089
-291,891	713,987	-0,058	0,112
-290,876	329,003	0,016	-0,023
-289,862	-139,211	0,094	-0,007
-288,847	-200,000	-0,001	-0,131
-287,832	109,856	-0,061	-0,053
-286,818	197,625	0,038	0,042
-285,803	197,127	0,030	0,033
-284,789	-200,000	-0,014	0,047
-283,774	313,877	-0,026	-0,036
-282,759	189,766	0,024	0,027
-281,745	-150,409	-0,233	-0,013
-280,730	2,588	0,085	-0,045
-279,716	-58,040	-0,129	-0,040
-278,701	-200,000	0,001	0,150
-277,686	100,174	-0,105	0,088
-276,672	-200,000	0,020	0,121
-275,657	800,000	-0,029	0,070
-274,643	58,585	-0,121	-0,086
-273,628	-81,819	-0,071	-0,017
-272,613	33,574	-0,040	0,025
-271,599	-200,000	-0,008	0,077
-270,584	-143,752	0,071	-0,005
-269,570	-30,963	0,046	-0,019
-268,555	184,042	0,035	0,038
-267,540	-64,877	0,052	-0,015
-266,526	64,860	-0,057	0,042
-265,511	-200,000	0,008	-0,068
-264,497	-200,000	0,002	-0,094
-263,482	-18,398	0,110	0,050
-262,467	157,418	-0,005	-0,005
-261,453	800,000	0,030	0,079
-260,438	-200,000	-0,000	-0,117
-259,424	800,000	-0,004	-0,011
-258,409	49,672	0,045	0,030
-257,395	659,528	-0,034	0,064
-256,380	800,000	-0,016	0,051
-255,365	-4,853	0,125	-0,062
-254,351	-200,000	-0,006	-0,062
-253,336	-96,856	0,110	-0,021
-252,322	209,845	-0,052	0,059
-251,307	56,460	0,095	0,066
-250,292	228,567	0,015	-0,017
-249,278	-200,000	0,012	0,048
-248,263	-106,978	0,042	-0,007
-247,249	-45,445	0,083	0,030
-246,234	-200,000	-0,033	0,110
-245,219	-4,483	-0,099	0,050
-244,205	53,102	-0,115	-0,080
-243,190	-200,000	-0,007	-0,070
-242,176	-50,345	0,116	-0,040
-241,161	43,434	0,131	-0,086
-240,146	215,913	-0,047	-0,054
-239,132	-200,000	-0,017	-0,106
-238,117	800,000	0,039	-0,115
-237,103	411,204	-0,032	-0,049
-236,088	-34,157	0,109	0,043
-235,073	225,065	0,087	-0,101
-234,059	-11,456	0,038	-0,018
-233,044	20,215	0,028	-0,017
-232,030	-40,166	-0,093	0,035
-231,015	-13,447	0,081	-0,038
-230,000	-126,591	0,102	0,011
-228,986	-200,000	-0,002	0,019
-227,971	800,000	-0,013	-0,032
-226,957	-76,652	0,151	-0,038
-225,942	-200,000	0,009	0,152
-224,927	244,458	-0,033	0,040
-223,913	21,277	-0,118	-0,069
-222,898	-44,045	0,050	0,018
-221,884	457,036	-0,026	-0,042
-220,869	-200,000	0,014	0,105
-219,855	-105,764	-0,057	0,009
-218,840	100,841	-0,043	-0,036
-217,825	410,832	0,030	-0,046
-216,811	-200,000	0,000	-0,057
-215,796	-99,748	-0,130	0,023
-214,782	35,333	-0,076	-0,048
-213,767	148,847	-0,061	-0,060
-212,752	12,600	-0,044	0,024
-211,738	800,000	-0,040	-0,089
-210,723	-59,447	-0,085	-0,026
-209,709	800,000	-0,024	0,060
-208,694	-200,000	0,009	0,094
-207,679	322,083	-0,082	-0,113
-206,665	171,283	-0,067	0,069
-205,650	-3,825	0,067	0,034
-204,636	-127,402	0,041	0,004
-203,621	-200,000	-0,006	0,124
-202,606	-200,000	0,001	0,028
-201,592	104,129	-0,073	0,062
-200,577	-200,000	-0,037	-0,159
-199,563	144,739	0,074	-0,071
-198,548	19,426	0,068	0,039
-197,533	800,000	-0,013	0,026
-196,519	2,961	0,116	0,061
-195,504	415,268	-0,054	0,084
-194,490	-74,635	-0,078	-0,020
-193,475	-199,351	0,067	-0,000
-192,460	307,927	0,069	0,093
-191,446	800,000	0,025	-0,060
-190,431	57,010	0,044	-0,031
-189,417	-198,295	0,126	0,001
-188,402	-200,000	0,013	-0,102
-187,387	10,707	-0,102	-0,056
-186,373	-80,807	0,123	0,029
-185,358	-152,075	-0,102	0,005
-184,344	30,213	0,067	0,041
-183,329	113,196	-0,059	-0,051
-182,315	48,297	-0,126	-0,085
-181,300	-31,541	-0,110	0,044
-180,285	169,026	-0,042	-0,043
-179,271	-72,517	-0,077	0,020
-178,256	140,501	-0,080	0,077
-177,242	-82,927	0,047	0,011
-176,227	-200,000	-0,007	0,026
-175,212	-32,668	0,169	0,067
-174,198	-200,000	0,005	0,100
-173,183	-84,547	0,084	-0,019
-172,169	379,079	-0,028	-0,041
-171,154	-200,000	0,008	-0,088
-170,139	800,000	0,044	-0,108
-169,125	-200,000	0,001	-0,165
-168,110	-200,000	0,002	0,052
-167,096	-83,509	0,065	-0,015
-166,081	564,232	-0,086	-0,150
-165,066	-87,524	-0,032	-0,007
-164,052	18,724	-0,063	-0,037
-163,037	-200,000	0,009	0,039
-162,023	8,116	-0,089	0,048
-161,008	101,258	-0,097	0,081
-159,993	-5,658	-0,046	0,022
-158,979	784,340	0,018	-0,036
-157,964	110,533	-0,097	-0,084
-156,950	800,000	-0,028	0,085
-155,935	800,000	0,027	0,068
-154,920	-200,000	0,013	0,053
-153,906	-200,000	-0,029	0,095
-152,891	290,691	0,077	-0,101
-151,877	449,962	-0,059	-0,094
-150,862	-20,973	0,125	-0,055
-149,847	-27,550	0,029	0,012
-148,833	-200,000	-0,002	0,087
-147,818	-200,000	-0,022	-0,098
-146,804	-2,449	0,012	-0,006
-145,789	800,000	-0,031	0,095
-144,775	-115,640	-0,033	-0,004
-143,760	492,548	0,057	0,095
-142,745	-29,053	-0,116	0,048
-141,731	-69,648	0,078	0,021
-140,716	380,319	-0,042	0,062
-139,702	372,944	0,030	0,045
-138,687	-134,865	-0,154	0,013
-137,672	350,185	-0,050	0,071
-136,658	491,367	0,035	0,059
-135,643	64,207	-0,104	-0,076
-134,629	246,164	0,045	0,055
-133,614	-200,000	0,000	0,111
-132,599	63,164	0,119	0,086
-131,585	-52,070	-0,070	0,023
-130,570	-19,025	0,017	0,008
-129,556	-32,482	-0,130	-0,052
-128,541	-62,793	-0,099	-0,029
-127,526	-42,915	0,092	-0,034
-126,512	-104,017	0,077	-0,013
-125,497	634,297	0,015	-0,027
-124,483	-200,000	-0,002	-0,028
-123,468	-77,805	-0,163	0,040
-122,453	189,087	0,169	-0,182
-121,439	-200,000	-0,001	0,080
-120,424	8,692	0,027	0,015
-119,410	12,478	0,162	-0,089
-118,395	-200,000	0,030	-0,168
