DTS Sentinel unit serial number:	SN410029Multiplexer serial number:	ORYXHardware model number:	OX2-SRSoftware version number:	ORYX F/W v4,00 Oryx Data Collector v3.7.2.0data status	okinstallation	B5 Nyhavnadifferential loss correction	single-endedforward channel	channel 2reverse channel	N/Adate	2023/12/12time	13:22:13forward acquisition time	300,00reverse acquisition time	0,00gamma	499,1914k internal	0,3158k external	0,3158temperature offset calibration	1,0000default loss term (dB/km)	0,3820temperature slope calibration	1,0000multiplexer offset coefficient	1,0000multiplexer slope coefficient	1,0000fibre end	0,00T internal ref (°C)	15,60T ext. ref 1 (°C)	-0,35T ext. ref 2 (°C)	-0,60length (m)	temperature (°C)	Stokes	anti-Stokes-744,400	-20,717	0,071	0,032
-743,385	-121,565	-0,427	0,052
-742,371	-10,067	-0,067	0,033
-741,356	-83,762	-0,247	0,058
-740,342	-85,085	0,189	0,043
-739,327	-173,429	-0,354	-0,008
-738,312	-200,000	-0,039	0,143
-737,298	-71,745	-0,229	0,062
-736,283	15,129	0,146	0,084
-735,269	-95,664	-0,245	0,048
-734,254	-200,000	0,030	0,103
-733,239	-136,023	-0,375	-0,032
-732,225	-133,296	0,025	-0,002
-731,210	29,236	-0,061	-0,038
-730,196	-8,891	0,082	-0,041
-729,181	800,000	-0,081	-0,191
-728,167	800,000	-0,030	0,070
-727,152	0,911	-0,084	-0,044
-726,137	72,681	-0,138	0,106
-725,123	18,910	-0,210	-0,123
-724,108	-63,667	-0,063	0,019
-723,094	17,702	-0,113	-0,066
-722,079	800,000	-0,048	-0,115
-721,064	-200,000	-0,020	0,111
-720,050	582,568	0,034	0,062
-719,035	800,000	-0,015	-0,036
-718,021	-200,000	-0,009	-0,052
-717,006	800,000	-0,036	-0,110
-715,991	-200,000	-0,001	0,065
-714,977	-25,357	-0,125	0,054
-713,962	-94,245	0,066	0,013
-712,948	800,000	0,027	0,073
-711,933	-200,000	0,016	0,072
-710,918	-7,115	-0,067	0,033
-709,904	800,000	-0,028	-0,061
-708,889	107,499	0,098	-0,086
-707,875	-25,240	-0,068	-0,030
-706,860	-37,980	-0,212	0,083
-705,845	-156,496	-0,091	-0,004
-704,831	-12,540	0,091	0,044
-703,816	-133,309	0,081	0,007
-702,802	159,073	0,073	-0,074
-701,787	800,000	0,026	0,055
-700,772	-92,089	-0,052	-0,011
-699,758	-103,110	0,101	0,017
-698,743	-67,952	0,084	0,024
-697,729	-62,238	0,088	0,027
-696,714	800,000	0,034	0,080
-695,699	-153,369	-0,062	-0,003
-694,685	-95,776	-0,127	-0,025
-693,670	305,169	-0,044	0,060
-692,656	487,210	0,060	0,102
-691,641	-154,341	-0,040	-0,002
-690,627	-42,371	0,013	-0,005
-689,612	-200,000	0,025	0,123
-688,597	-200,000	0,013	-0,048
-687,583	86,738	-0,184	-0,149
-686,568	-45,491	-0,195	-0,071
-685,554	-48,446	0,075	0,026
-684,539	-200,000	-0,029	-0,140
-683,524	270,579	-0,062	-0,080
-682,510	800,000	-0,021	-0,062
-681,495	-200,000	-0,028	-0,153
-680,481	295,034	0,098	-0,132
-679,466	6,756	-0,198	-0,108
-678,451	251,414	0,026	-0,033
-677,437	162,957	0,086	-0,089
-676,422	-200,000	0,015	0,071
-675,408	-131,941	-0,087	0,008
-674,393	-125,920	0,012	0,001
-673,378	-73,958	-0,131	-0,035
-672,364	-200,000	0,009	-0,095
-671,349	-130,431	-0,083	-0,008
-670,335	420,600	0,033	0,052
-669,320	140,644	-0,173	0,168
-668,305	-60,259	0,114	-0,035
-667,291	137,197	-0,089	0,086
-666,276	-51,570	-0,071	-0,024
-665,262	108,415	-0,048	0,042
-664,247	43,756	-0,033	-0,022
-663,232	-169,909	-0,071	0,002
-662,218	800,000	-0,040	0,108
-661,203	-159,608	-0,127	0,005
-660,189	-114,586	0,195	0,027
-659,174	-55,718	-0,059	0,019
-658,159	-107,311	0,090	0,014
-657,145	-200,000	-0,039	-0,131
-656,130	-118,507	-0,068	0,009
-655,116	444,343	-0,056	0,091
-654,101	-135,473	0,127	0,011
-653,086	-200,000	0,037	0,173
-652,072	-139,918	-0,183	-0,014
-651,057	-86,035	0,034	0,008
-650,043	0,762	-0,053	-0,028
-649,028	106,402	0,070	0,061
-648,014	-104,233	0,028	0,005
-646,999	-200,000	0,018	0,121
-645,984	-200,000	0,003	-0,131
-644,970	-95,113	0,065	-0,013
-643,955	429,655	-0,009	0,014
-642,941	149,033	-0,085	0,084
-641,926	253,216	-0,052	-0,065
-640,911	78,157	-0,082	0,065
-639,897	137,277	0,101	-0,097
-638,882	357,529	-0,054	-0,079
-637,868	-200,000	0,002	0,069
-636,853	800,000	-0,030	-0,089
-635,838	-2,590	-0,062	-0,032
-634,824	12,361	-0,106	-0,060
-633,809	-51,732	0,094	0,032
-632,795	-200,000	-0,007	0,030
-631,780	211,314	-0,076	0,088
-630,765	226,322	-0,065	-0,077
-629,751	5,930	-0,098	-0,053
-628,736	301,284	-0,091	0,124
-627,722	800,000	-0,067	0,168
-626,707	542,571	0,091	0,160
-625,692	-200,000	-0,022	0,128
-624,678	132,084	-0,066	-0,063
-623,663	800,000	-0,024	0,049
-622,649	151,322	-0,116	-0,116
-621,634	-200,000	-0,034	-0,143
-620,619	800,000	-0,006	-0,014
-619,605	-125,052	0,075	-0,008
-618,590	280,583	0,097	0,127
-617,576	484,685	-0,087	0,147
-616,561	4,534	-0,133	-0,072
-615,546	-66,225	0,114	-0,033
-614,532	-118,669	0,003	-0,000
-613,517	-200,000	-0,013	-0,106
-612,503	-0,665	0,093	-0,048
-611,488	312,514	-0,040	0,056
-610,474	-106,694	-0,085	-0,014
-609,459	148,347	0,042	0,042
-608,444	21,395	0,027	-0,016
-607,430	173,318	-0,053	0,056
-606,415	-60,194	-0,094	-0,029
-605,401	22,113	0,063	0,038
-604,386	792,233	-0,035	0,072
-603,371	-200,000	0,012	0,059
-602,357	208,901	-0,010	0,012
-601,342	576,844	0,029	-0,051
-600,328	-200,000	0,013	-0,070
-599,313	691,095	0,044	0,084
-598,298	800,000	0,041	0,098
-597,284	51,734	-0,075	0,053
-596,269	-200,000	0,009	0,051
-595,255	131,961	0,063	0,059
-594,240	308,146	-0,056	-0,077
-593,225	800,000	-0,049	-0,118
-592,211	110,727	-0,051	-0,045
-591,196	-109,160	0,173	-0,027
-590,182	-151,116	0,095	0,005
-589,167	31,435	-0,053	-0,033
-588,152	68,751	-0,091	0,068
-587,138	95,222	-0,052	-0,044
-586,123	641,077	0,031	-0,059
-585,109	-200,000	0,020	-0,068
-584,094	125,372	0,052	-0,048
-583,079	-103,618	0,102	0,017
-582,065	800,000	-0,068	-0,142
-581,050	511,987	0,070	-0,120
-580,036	-107,727	0,106	-0,017
-579,021	0,047	-0,165	-0,086
-578,006	-123,272	-0,059	-0,007
-576,992	-178,807	0,095	-0,002
-575,977	131,001	0,144	0,136
-574,963	485,652	0,035	-0,059
-573,948	193,883	-0,102	0,113
-572,934	800,000	0,023	0,054
-571,919	-200,000	-0,012	0,142
-570,904	179,339	-0,082	-0,088
-569,890	139,756	-0,046	0,044
-568,875	-200,000	-0,003	0,021
-567,861	21,174	0,174	0,103
-566,846	334,412	0,108	0,153
-565,831	-23,910	-0,204	-0,089
-564,817	800,000	0,051	0,106
-563,802	-88,748	0,062	-0,013
-562,788	800,000	-0,038	-0,115
-561,773	800,000	0,012	0,036
-560,758	-200,000	0,011	0,116
-559,744	-58,653	0,084	0,026
-558,729	143,134	0,024	-0,024
-557,715	-200,000	0,015	-0,166
-556,700	210,127	0,097	-0,112
-555,685	34,640	-0,175	-0,112
-554,671	-3,732	0,054	-0,027
-553,656	-141,581	-0,148	0,011
-552,642	273,314	0,040	-0,052
-551,627	-97,140	-0,253	0,048
-550,612	236,823	-0,033	0,040
-549,598	800,000	0,069	-0,147
-548,583	373,645	-0,076	-0,113
-547,569	800,000	0,051	0,141
-546,554	800,000	-0,063	0,144
-545,539	-95,143	-0,138	0,027
-544,525	-161,388	0,036	-0,001
-543,510	675,448	0,056	-0,107
-542,496	-145,709	-0,090	-0,006
-541,481	-200,000	0,022	-0,105
-540,466	181,165	0,074	0,080
-539,452	800,000	-0,013	0,028
-538,437	304,796	0,060	0,082
-537,423	38,601	0,066	-0,043
-536,408	800,000	-0,027	-0,065
-535,393	-7,535	-0,119	-0,059
-534,379	800,000	0,029	0,072
-533,364	800,000	0,005	-0,015
-532,350	8,241	0,117	-0,064
-531,335	-200,000	0,030	0,107
-530,321	-200,000	-0,010	0,090
-529,306	800,000	-0,036	-0,083
-528,291	-61,964	-0,084	-0,026
-527,277	-200,000	-0,008	-0,051
-526,262	800,000	0,043	0,112
-525,248	-73,420	-0,143	-0,038
-524,233	-200,000	-0,039	-0,156
-523,218	410,261	0,047	-0,074
-522,204	-187,272	0,074	0,001
-521,189	-200,000	-0,028	-0,115
-520,175	-200,000	0,009	-0,161
-519,160	-46,710	-0,124	-0,044
-518,145	-176,712	-0,008	-0,000
-517,131	-200,000	-0,007	-0,028
-516,116	-200,000	-0,013	0,114
-515,102	-22,023	-0,091	0,040
-514,087	800,000	0,074	-0,163
-513,072	-200,000	-0,004	-0,020
-512,058	346,868	-0,072	-0,104
-511,043	-200,000	-0,005	-0,075
-510,029	-131,466	-0,091	-0,009
-509,014	-177,404	-0,087	-0,002
-507,999	-200,000	0,006	-0,063
-506,985	-200,000	0,003	-0,077
-505,970	13,885	-0,033	-0,019
-504,956	-113,249	0,034	-0,005
-503,941	800,000	-0,047	0,139
-502,926	-44,795	-0,074	0,027
-501,912	178,833	0,071	0,076
-500,897	-102,399	0,123	-0,021
-499,883	183,775	0,051	-0,055
-498,868	800,000	-0,085	-0,184
-497,853	-110,555	-0,114	0,017
-496,839	92,323	-0,096	-0,079
-495,824	153,809	0,015	-0,015
-494,810	-200,000	0,019	0,080
-493,795	173,177	-0,103	0,108
-492,781	-200,000	-0,023	-0,081
-491,766	76,907	-0,062	-0,048
-490,751	-81,278	0,059	0,014
-489,737	21,846	-0,061	-0,036
-488,722	800,000	0,005	0,010
-487,708	-28,948	-0,043	0,018
-486,693	65,850	-0,068	0,050
-485,678	68,130	0,045	-0,034
-484,664	419,664	0,015	-0,024
-483,649	-200,000	-0,002	-0,088
-482,635	-77,684	-0,081	0,020
-481,620	-34,233	0,114	-0,045
-480,605	282,800	0,041	-0,053
-479,591	800,000	-0,023	-0,049
-478,576	202,739	0,024	0,027
-477,562	103,238	0,044	-0,038
-476,547	670,020	-0,048	0,091
-475,532	-24,292	-0,031	0,014
-474,518	158,188	0,081	0,082
-473,503	64,873	-0,101	0,075
-472,489	-14,973	0,071	0,033
-471,474	-140,014	-0,190	0,014
-470,459	53,497	-0,216	-0,151
-469,445	187,393	-0,054	0,059
-468,430	-66,140	0,035	-0,010
-467,416	104,856	0,024	0,020
-466,401	-189,934	0,079	0,001
-465,386	-200,000	0,006	-0,073
-464,372	303,240	0,066	-0,090
-463,357	-41,922	0,052	-0,019
-462,343	-73,265	-0,039	0,010
-461,328	492,920	0,034	0,057
-460,313	189,473	-0,049	-0,053
-459,299	-10,518	-0,093	0,045
-458,284	43,085	0,075	-0,050
-457,270	114,318	-0,064	-0,057
-456,255	-200,000	-0,011	0,049
-455,241	-109,411	-0,040	0,006
-454,226	-200,000	0,003	-0,015
-453,211	36,611	0,038	0,024
-452,197	553,295	0,022	0,039
-451,182	-168,443	0,105	0,003
-450,168	151,057	0,086	-0,085
-449,153	-103,396	-0,026	0,004
-448,138	-200,000	0,011	0,111
-447,124	685,546	0,027	-0,051
-446,109	61,528	0,091	-0,066
-445,095	-0,135	0,082	-0,042
-444,080	-102,612	0,080	0,014
-443,065	-58,586	-0,052	0,016
-442,051	360,169	0,047	0,069
-441,036	-0,177	-0,156	0,081
-440,022	56,502	0,011	0,008
-439,007	-43,228	0,015	0,005
-437,992	-50,562	0,128	0,044
-436,978	-200,000	0,016	0,059
-435,963	800,000	-0,046	0,120
-434,949	-200,000	0,004	0,019
-433,934	-28,865	-0,062	0,026
-432,919	536,093	0,076	-0,132
-431,905	-3,277	-0,067	0,034
-430,890	-200,000	-0,030	-0,120
-429,876	-200,000	-0,007	0,072
-428,861	-200,000	0,020	0,081
-427,846	213,615	-0,124	0,143
-426,832	-200,000	0,003	0,059
-425,817	523,964	-0,060	-0,104
-424,803	-16,159	0,089	-0,041
-423,788	353,286	0,007	0,010
-422,773	-9,193	0,036	0,018
-421,759	524,555	0,068	0,117
-420,744	87,816	-0,047	0,038
-419,730	-200,000	0,005	0,025
-418,715	-120,178	0,121	-0,015
-417,701	147,268	-0,059	0,058
-416,686	-200,000	0,011	0,175
-415,671	-184,552	0,086	-0,001
-414,657	800,000	0,072	0,194
-413,642	110,578	0,079	0,069
-412,628	120,002	-0,035	-0,031
-411,613	-26,866	0,042	-0,018
-410,598	-92,613	-0,057	0,012
-409,584	-200,000	0,001	-0,036
-408,569	-10,122	0,059	0,028
-407,555	-100,877	0,122	-0,022
-406,540	800,000	0,024	-0,069
-405,525	594,674	-0,048	-0,086
-404,511	-200,000	-0,028	-0,092
-403,496	-200,000	-0,013	-0,060
-402,482	-60,184	-0,076	0,023
-401,467	133,383	0,047	0,044
-400,452	-42,002	-0,044	0,016
-399,438	800,000	-0,040	0,092
-398,423	-200,000	-0,015	-0,057
-397,409	-200,000	-0,001	0,024
-396,394	-56,632	0,096	-0,031
-395,379	-200,000	-0,033	0,110
-394,365	353,480	0,050	0,072
-393,350	-200,000	-0,003	0,150
-392,336	800,000	0,010	-0,029
-391,321	431,816	-0,030	0,047
-390,306	-200,000	0,003	0,022
-389,292	101,108	-0,132	0,112
-388,277	-124,437	0,084	-0,009
-387,263	784,082	0,016	-0,032
-386,248	800,000	0,038	-0,108
-385,233	-200,000	-0,006	0,033
-384,219	800,000	-0,050	0,152
-383,204	-73,704	-0,125	-0,033
-382,190	-116,892	-0,014	0,002
-381,175	-200,000	0,002	0,012
-380,160	-200,000	-0,015	-0,071
-379,146	149,048	0,084	0,082
-378,131	638,616	-0,042	-0,078
-377,117	209,904	0,029	0,033
-376,102	-17,296	0,029	-0,013
-375,088	333,305	0,075	-0,106
-374,073	800,000	0,054	-0,160
-373,058	120,454	-0,026	0,024
-372,044	-200,000	0,000	0,100
-371,029	-114,129	0,148	0,021
-370,015	-200,000	-0,021	-0,071
-369,000	127,036	-0,084	0,077
-367,985	800,000	-0,019	0,047
-366,971	107,657	0,042	0,036
-365,956	71,704	-0,045	-0,034
-364,942	36,914	-0,064	0,041
-363,927	619,238	0,085	0,156
-362,912	86,210	-0,087	-0,070
-361,898	-200,000	-0,066	0,225
-360,883	-200,000	-0,009	-0,090
-359,869	-200,000	-0,022	-0,108
-358,854	551,743	0,053	0,093
-357,839	162,473	-0,038	0,038
-356,825	-96,228	0,143	-0,027
-355,810	746,731	0,041	-0,080
-354,796	-45,790	-0,130	-0,046
-353,781	406,311	0,068	0,104
-352,766	-96,006	0,081	0,016
-351,752	-38,410	-0,186	0,071
-350,737	-200,000	0,018	0,104
-349,723	800,000	0,007	-0,015
-348,708	-200,000	-0,016	0,196
-347,693	-139,065	-0,101	-0,008
-346,679	275,842	-0,004	-0,006
-345,664	-104,124	-0,061	0,010
-344,650	800,000	0,045	0,092
-343,635	-200,000	-0,005	-0,036
-342,620	-96,623	0,049	-0,009
-341,606	-52,257	-0,130	0,043
-340,591	120,083	-0,117	0,105
-339,577	-200,000	-0,020	0,088
-338,562	-75,720	-0,019	-0,005
-337,548	394,066	-0,019	0,029
-336,533	-200,000	-0,017	0,059
-335,518	-200,000	-0,011	0,044
-334,504	-126,191	-0,058	0,006
-333,489	-200,000	0,012	0,042
-332,475	89,995	0,061	-0,049
-331,460	-36,562	-0,022	0,008
-330,445	235,919	0,090	-0,109
-329,431	800,000	0,060	-0,123
-328,416	-37,170	0,059	0,023
-327,402	457,610	0,042	-0,069
-326,387	-94,147	0,093	0,018
-325,372	102,666	-0,037	-0,032
-324,358	507,123	0,071	-0,121
-323,343	33,097	0,147	-0,092
-322,329	462,505	-0,026	-0,043
-321,314	153,621	0,070	-0,069
-320,299	293,670	0,042	-0,056
-319,285	-200,000	0,025	0,178
-318,270	-146,480	0,102	0,006
-317,256	10,906	0,045	-0,025
-316,241	88,667	0,072	-0,058
-315,226	-200,000	-0,036	-0,178
-314,212	-94,450	0,073	-0,014
-313,197	-76,617	0,037	-0,009
-312,183	-200,000	-0,022	-0,105
-311,168	-137,112	-0,085	0,007
-310,153	173,247	0,025	-0,026
-309,139	215,840	0,168	0,194
-308,124	-82,848	-0,066	-0,015
-307,110	20,411	-0,036	-0,021
-306,095	117,541	0,118	0,105
-305,080	-200,000	-0,013	-0,088
-304,066	143,501	0,083	-0,080
-303,051	-200,000	0,004	-0,053
-302,037	59,130	0,030	0,021
-301,022	-4,200	0,007	0,003
-300,008	-200,000	0,019	0,149
-298,993	800,000	0,049	0,149
-297,978	-48,564	-0,021	-0,007
-296,964	-200,000	0,002	-0,118
-295,949	149,173	-0,093	-0,092
-294,935	-76,689	-0,074	0,019
-293,920	100,617	0,060	0,050
-292,905	-19,232	0,098	-0,044
-291,891	284,677	0,093	0,122
-290,876	-109,959	0,019	0,003
-289,862	160,567	0,044	-0,044
-288,847	247,226	0,124	-0,152
-287,832	-200,000	-0,011	-0,060
-286,818	-85,509	0,044	0,010
-285,803	-22,819	0,116	-0,051
-284,789	32,455	0,075	-0,047
-283,774	-135,701	0,050	0,004
-282,759	800,000	-0,004	0,013
-281,745	789,002	-0,019	0,038
-280,730	774,435	0,057	0,112
-279,716	800,000	0,021	-0,052
-278,701	800,000	0,082	0,172
-277,686	464,796	0,055	0,089
-276,672	798,729	0,017	-0,034
-275,657	291,612	-0,085	-0,112
-274,643	422,826	-0,068	-0,106
-273,628	-200,000	-0,005	-0,022
-272,613	800,000	-0,102	-0,209
-271,599	-77,347	0,073	0,018
-270,584	136,276	0,057	0,054
-269,570	-37,662	0,125	0,048
-268,555	-128,008	-0,048	-0,005
-267,540	-200,000	-0,011	0,114
-266,526	-106,907	0,069	-0,011
-265,511	-80,453	0,114	0,027
-264,497	800,000	-0,045	0,093
-263,482	-60,568	0,173	0,053
-262,467	-200,000	0,000	0,050
-261,453	800,000	0,047	-0,102
-260,438	100,765	-0,100	0,084
-259,424	245,922	-0,054	-0,065
-258,409	74,627	-0,040	-0,030
-257,395	13,198	0,115	0,064
-256,380	-19,249	-0,067	0,030
-255,365	-81,272	0,092	0,022
-254,351	-200,000	-0,004	-0,079
-253,336	56,848	-0,127	-0,089
-252,322	84,096	-0,075	-0,059
-251,307	171,046	0,022	-0,023
-250,292	-200,000	-0,035	0,121
-249,278	-200,000	-0,008	-0,029
-248,263	-200,000	0,001	-0,079
-247,249	-29,887	0,091	-0,037
-246,234	-68,049	0,090	-0,025
-245,219	452,603	-0,012	0,019
-244,205	-92,254	-0,163	0,033
-243,190	-43,556	0,118	-0,043
-242,176	-97,834	0,060	0,011
-241,161	160,741	-0,003	0,003
-240,146	652,443	0,030	-0,057
-239,132	-200,000	0,018	0,076
-238,117	800,000	0,017	0,041
-237,103	134,631	0,156	-0,147
-236,088	800,000	-0,029	-0,086
-235,073	-200,000	0,004	0,080
-234,059	97,454	-0,134	0,111
-233,044	-17,495	0,036	0,016
-232,030	198,249	0,026	0,028
-231,015	-76,217	0,093	0,023
-230,000	794,785	-0,031	-0,061
-228,986	-59,601	-0,131	0,040
-227,971	800,000	0,056	0,159
-226,957	-57,703	0,076	0,024
-225,942	459,308	-0,050	0,080
-224,927	151,091	0,041	-0,040
-223,913	249,910	0,004	0,005
-222,898	506,438	-0,097	0,163
-221,884	438,346	-0,048	-0,076
-220,869	-66,449	-0,075	-0,021
-219,855	149,765	-0,022	0,022
-218,840	-200,000	0,000	-0,106
-217,825	-105,606	-0,033	-0,005
-216,811	-126,611	-0,135	-0,014
-215,796	-125,064	0,066	-0,007
-214,782	186,244	0,028	-0,030
-213,767	-127,456	0,106	0,011
-212,752	-138,624	-0,039	-0,003
-211,738	-117,839	-0,112	0,014
-210,723	63,487	-0,072	-0,052
-209,709	-200,000	0,028	-0,106
-208,694	121,450	-0,061	0,055
-207,679	71,680	-0,105	-0,079
-206,665	27,975	0,079	0,048
-205,650	32,290	0,123	-0,076
-204,636	141,792	-0,070	0,067
-203,621	-37,987	0,151	0,058
-202,606	124,169	-0,015	-0,013
-201,592	165,801	-0,126	0,129
-200,577	38,550	-0,071	-0,046
-199,563	800,000	0,084	-0,168
-198,548	-200,000	-0,011	-0,115
-197,533	219,725	-0,105	-0,121
-196,519	127,921	0,055	0,050
-195,504	671,108	-0,071	0,133
-194,490	-122,619	-0,086	0,010
-193,475	796,147	-0,009	-0,019
-192,460	311,793	-0,097	-0,132
-191,446	-13,369	0,091	0,043
-190,431	800,000	-0,050	-0,141
-189,417	-200,000	-0,013	-0,122
-188,402	267,945	-0,087	-0,111
-187,387	-200,000	0,009	0,050
-186,373	-200,000	0,040	-0,138
-185,358	-200,000	-0,018	-0,081
-184,344	-200,000	0,012	0,053
-183,329	14,835	0,055	-0,031
-182,315	-200,000	0,012	0,078
-181,300	-97,349	-0,084	0,016
-180,285	76,231	-0,043	-0,033
-179,271	164,982	0,025	0,025
-178,256	115,823	-0,088	0,078
-177,242	249,429	0,106	0,130
-176,227	6,910	0,060	0,032
-175,212	-51,945	-0,071	0,024
-174,198	133,393	0,034	-0,032
-173,183	-74,847	0,127	0,033
-172,169	77,795	0,028	-0,022
-171,154	552,257	-0,096	-0,166
-170,139	103,184	0,064	0,054
-169,125	253,513	-0,140	0,173
-168,110	-105,576	0,081	-0,013
-167,096	-200,000	0,004	0,063
-166,081	426,170	-0,074	-0,115
-165,066	-200,000	0,054	-0,241
-164,052	179,183	-0,028	-0,030
-163,037	-200,000	-0,005	0,024
-162,023	391,376	-0,018	-0,028
-161,008	209,219	0,074	0,084
-159,993	7,439	0,075	0,040
-158,979	-54,959	-0,017	0,006
-157,964	800,000	-0,035	-0,100
-156,950	507,550	-0,054	0,090
-155,935	800,000	-0,047	0,105
-154,920	41,399	0,098	0,064
-153,906	800,000	-0,033	0,084
-152,891	800,000	-0,032	-0,097
-151,877	105,017	0,080	-0,068
-150,862	555,302	0,079	-0,137
-149,847	-200,000	-0,002	0,009
-148,833	-58,384	0,085	0,027
-147,818	20,039	0,160	-0,092
-146,804	478,662	0,037	0,060
-145,789	-200,000	-0,007	-0,062
-144,775	-36,276	0,116	0,045
-143,760	-200,000	-0,010	-0,092
-142,745	312,235	-0,097	-0,131
-141,731	-200,000	0,001	0,061
-140,716	227,258	-0,116	-0,136
-139,702	-88,827	0,125	-0,027
-138,687	91,321	0,064	-0,052
-137,672	-121,760	-0,083	-0,010
-136,658	800,000	-0,054	0,161
-135,643	800,000	0,004	0,009
-134,629	13,578	-0,050	-0,028
-133,614	800,000	0,042	0,094
-132,599	355,044	0,037	0,052
-131,585	-200,000	-0,002	0,076
-130,570	-200,000	0,006	-0,087
-129,556	-26,302	-0,227	-0,096
-128,541	800,000	0,006	0,018
-127,526	800,000	0,054	0,125
-126,512	-47,706	0,016	-0,005
-125,497	145,354	-0,059	0,057
-124,483	800,000	-0,044	0,088
-123,468	84,886	-0,050	-0,040
-122,453	158,995	0,026	-0,026
-121,439	250,609	0,030	-0,036
-120,424	-27,208	-0,066	0,028
-119,410	800,000	0,062	0,181
