DTS Sentinel unit serial number:	SN410029Multiplexer serial number:	ORYXHardware model number:	OX2-SRSoftware version number:	ORYX F/W v4,00 Oryx Data Collector v3.7.2.0data status	okinstallation	B5 Nyhavnadifferential loss correction	single-endedforward channel	channel 2reverse channel	N/Adate	2023/12/14time	02:07:13forward acquisition time	300,00reverse acquisition time	0,00gamma	499,1914k internal	0,3155k external	0,3155temperature offset calibration	1,0000default loss term (dB/km)	0,3820temperature slope calibration	1,0000multiplexer offset coefficient	1,0000multiplexer slope coefficient	1,0000fibre end	0,00T internal ref (°C)	8,62T ext. ref 1 (°C)	-7,61T ext. ref 2 (°C)	-7,65length (m)	temperature (°C)	Stokes	anti-Stokes-744,400	-35,657	0,163	0,065
-743,385	-148,912	-0,374	0,022
-742,371	103,810	0,178	0,155
-741,356	-6,049	-0,278	0,140
-740,342	-4,605	0,176	0,089
-739,327	-80,844	-0,515	-0,125
-738,312	-90,106	0,205	0,044
-737,298	-102,238	-0,331	-0,058
-736,283	127,328	0,142	0,133
-735,269	-122,827	-0,395	-0,047
-734,254	-167,624	0,175	-0,005
-733,239	-34,154	-0,595	-0,240
-732,225	179,324	0,161	0,173
-731,210	247,848	0,023	-0,029
-730,196	-69,498	-0,088	0,025
-729,181	200,987	0,071	-0,081
-728,167	-13,041	-0,132	-0,063
-727,152	34,915	0,116	0,075
-726,137	-72,792	-0,193	-0,052
-725,123	190,082	0,037	-0,041
-724,108	272,476	-0,078	-0,102
-723,094	-20,267	-0,037	0,017
-722,079	87,390	-0,126	-0,103
-721,064	402,469	0,047	0,073
-720,050	-200,000	-0,015	0,101
-719,035	47,712	-0,109	0,075
-718,021	800,000	-0,021	-0,062
-717,006	-50,702	0,069	-0,024
-715,991	-80,777	-0,143	-0,035
-714,977	64,394	-0,054	0,040
-713,962	64,679	-0,093	-0,069
-712,948	14,734	-0,095	-0,055
-711,933	-99,896	-0,061	0,011
-710,918	-200,000	0,007	-0,024
-709,904	800,000	0,019	0,058
-708,889	118,687	-0,011	-0,010
-707,875	85,471	-0,136	-0,110
-706,860	-200,000	0,023	0,106
-705,845	-49,361	-0,054	-0,019
-704,831	800,000	-0,077	0,231
-703,816	800,000	-0,016	-0,038
-702,802	428,145	0,078	-0,125
-701,787	-97,445	-0,035	-0,007
-700,772	-121,250	0,018	0,002
-699,758	-55,135	-0,051	0,017
-698,743	101,404	0,073	0,063
-697,729	800,000	0,041	0,099
-696,714	-108,856	-0,095	-0,015
-695,699	800,000	0,067	-0,169
-694,685	265,448	-0,037	-0,047
-693,670	-82,060	0,090	0,021
-692,656	189,838	-0,059	-0,065
-691,641	-200,000	0,001	-0,024
-690,627	-38,145	-0,096	-0,037
-689,612	-167,905	-0,185	-0,005
-688,597	-57,398	0,018	0,006
-687,583	-115,198	-0,034	0,005
-686,568	-39,115	0,071	-0,027
-685,554	22,816	-0,058	0,035
-684,539	800,000	0,019	0,049
-683,524	-200,000	0,009	0,087
-682,510	25,671	-0,059	0,036
-681,495	-165,087	-0,146	0,005
-680,481	-200,000	0,007	0,096
-679,466	-120,271	0,068	0,008
-678,451	-200,000	0,006	-0,069
-677,437	52,194	-0,124	-0,087
-676,422	415,358	-0,034	-0,054
-675,408	83,775	0,088	-0,071
-674,393	509,503	-0,032	-0,055
-673,378	-1,191	0,071	0,037
-672,364	-65,132	-0,164	-0,048
-671,349	-58,493	-0,113	-0,036
-670,335	-200,000	0,007	-0,093
-669,320	800,000	0,043	0,088
-668,305	-19,711	0,032	-0,015
-667,291	-7,168	0,095	0,047
-666,276	-53,694	-0,160	0,053
-665,262	-24,541	-0,040	0,018
-664,247	451,905	-0,041	-0,066
-663,232	-200,000	0,003	-0,024
-662,218	800,000	-0,063	0,157
-661,203	472,523	-0,036	0,060
-660,189	800,000	0,064	0,161
-659,174	-11,302	-0,040	0,019
-658,159	-107,037	0,093	-0,015
-657,145	133,842	-0,021	0,020
-656,130	-200,000	0,009	0,165
-655,116	-32,263	0,012	0,005
-654,101	-200,000	0,010	0,119
-653,086	800,000	0,057	0,171
-652,072	24,887	-0,031	0,019
-651,057	800,000	-0,040	-0,082
-650,043	194,421	0,013	-0,015
-649,028	765,435	0,039	-0,078
-648,014	-88,861	-0,124	-0,027
-646,999	-151,386	0,037	0,002
-645,984	760,400	0,050	0,101
-644,970	-200,000	-0,005	0,063
-643,955	58,972	0,036	0,026
-642,941	108,250	-0,144	-0,126
-641,926	-39,126	-0,150	-0,058
-640,911	-91,066	0,044	-0,009
-639,897	-200,000	-0,030	-0,137
-638,882	800,000	-0,091	-0,216
-637,868	68,203	0,095	-0,072
-636,853	717,456	-0,045	-0,088
-635,838	-38,340	-0,049	-0,019
-634,824	-142,846	0,016	0,001
-633,809	-200,000	-0,007	0,073
-632,795	161,258	-0,039	-0,040
-631,780	800,000	0,041	0,121
-630,765	-200,000	-0,015	0,052
-629,751	106,056	0,081	0,070
-628,736	-80,376	-0,108	0,026
-627,722	127,776	0,132	-0,123
-626,707	800,000	0,033	0,094
-625,692	-58,047	-0,211	0,067
-624,678	212,865	0,056	0,065
-623,663	22,175	0,035	-0,021
-622,649	-46,038	-0,087	-0,031
-621,634	332,166	0,051	-0,073
-620,619	-200,000	-0,020	-0,081
-619,605	51,584	-0,131	-0,092
-618,590	547,779	-0,029	-0,052
-617,576	53,452	-0,014	0,010
-616,561	800,000	-0,055	0,140
-615,546	-33,607	0,107	0,043
-614,532	165,238	-0,122	-0,126
-613,517	-200,000	-0,008	0,109
-612,503	25,511	-0,058	0,035
-611,488	89,147	0,088	0,072
-610,474	-44,110	-0,130	-0,048
-609,459	-200,000	-0,029	-0,100
-608,444	-200,000	0,011	-0,052
-607,430	800,000	-0,015	-0,039
-606,415	800,000	-0,058	-0,124
-605,401	439,265	-0,055	0,089
-604,386	17,306	-0,063	0,036
-603,371	-50,200	0,133	0,046
-602,357	239,971	-0,046	-0,056
-601,342	-200,000	-0,005	0,021
-600,328	421,034	-0,041	-0,065
-599,313	-32,057	0,033	0,014
-598,298	-30,762	0,118	0,049
-597,284	44,976	0,148	0,100
-596,269	-200,000	0,001	0,021
-595,255	-200,000	-0,015	-0,082
-594,240	542,875	0,039	-0,069
-593,225	-35,712	-0,062	-0,025
-592,211	800,000	-0,029	0,061
-591,196	284,085	-0,036	-0,047
-590,182	-200,000	0,026	0,087
-589,167	579,527	0,040	0,072
-588,152	290,790	-0,030	-0,040
-587,138	12,415	0,061	-0,034
-586,123	-79,263	-0,140	0,035
-585,109	-200,000	0,049	-0,290
-584,094	25,695	0,089	0,054
-583,079	-10,211	0,134	0,065
-582,065	127,735	0,047	-0,044
-581,050	209,214	0,040	-0,046
-580,036	800,000	-0,072	-0,206
-579,021	60,185	-0,110	-0,080
-578,006	-117,298	-0,069	-0,009
-576,992	78,753	-0,026	0,020
-575,977	684,581	-0,041	-0,079
-574,963	-200,000	0,002	-0,040
-573,948	59,269	-0,108	-0,078
-572,934	14,304	0,100	-0,057
-571,919	800,000	-0,037	-0,089
-570,904	238,550	0,042	0,051
-569,890	800,000	-0,043	-0,111
-568,875	-200,000	-0,026	0,102
-567,861	800,000	0,013	-0,026
-566,846	290,363	-0,025	0,033
-565,831	-200,000	-0,037	0,144
-564,817	208,183	-0,008	-0,009
-563,802	-200,000	-0,030	-0,118
-562,788	-21,960	-0,096	0,043
-561,773	-200,000	0,075	0,351
-560,758	-200,000	0,004	0,123
-559,744	-200,000	-0,010	0,033
-558,729	-200,000	0,008	0,146
-557,715	63,219	-0,103	-0,075
-556,700	-200,000	-0,002	-0,034
-555,685	-45,475	-0,120	0,043
-554,671	180,230	-0,041	0,044
-553,656	-200,000	-0,020	-0,132
-552,642	-200,000	0,001	-0,015
-551,627	-200,000	-0,011	-0,042
-550,612	800,000	0,018	0,048
-549,598	-200,000	-0,021	-0,149
-548,583	-41,435	-0,122	0,046
-547,569	-37,795	-0,051	-0,020
-546,554	800,000	-0,046	0,146
-545,539	-200,000	-0,014	0,151
-544,525	-200,000	0,012	0,101
-543,510	800,000	0,031	0,073
-542,496	-161,883	0,042	0,002
-541,481	162,027	-0,048	0,049
-540,466	20,909	0,107	-0,064
-539,452	-200,000	0,004	-0,112
-538,437	-107,678	-0,120	-0,019
-537,423	14,801	-0,022	0,013
-536,408	215,201	0,054	-0,063
-535,393	800,000	-0,033	-0,079
-534,379	-200,000	-0,004	-0,079
-533,364	-200,000	-0,008	0,114
-532,350	-200,000	-0,047	0,156
-531,335	-90,744	0,056	0,012
-530,321	-168,388	-0,005	0,000
-529,306	-17,544	0,125	-0,057
-528,291	26,250	0,035	-0,022
-527,277	-34,476	-0,068	-0,027
-526,262	18,145	-0,020	-0,012
-525,248	91,927	0,093	-0,076
-524,233	-184,295	0,081	-0,001
-523,218	159,149	-0,130	0,133
-522,204	153,352	-0,061	-0,062
-521,189	499,402	0,048	0,081
-520,175	104,831	-0,108	-0,093
-519,160	800,000	-0,030	0,093
-518,145	7,226	0,057	-0,031
-517,131	-105,661	-0,099	-0,016
-516,116	800,000	0,036	0,087
-515,102	94,647	0,067	0,055
-514,087	461,404	-0,054	-0,089
-513,072	-200,000	-0,015	-0,057
-512,058	-14,022	-0,117	0,055
-511,043	510,454	0,077	-0,131
-510,029	-80,685	0,092	-0,022
-509,014	-200,000	-0,019	0,145
-507,999	-200,000	-0,023	0,163
-506,985	125,739	-0,020	-0,018
-505,970	-48,832	-0,102	-0,036
-504,956	-153,640	0,057	0,003
-503,941	107,931	0,112	-0,098
-502,926	-112,509	0,107	0,015
-501,912	800,000	-0,046	0,100
-500,897	800,000	0,010	0,026
-499,883	336,117	0,038	-0,054
-498,868	800,000	0,037	-0,077
-497,853	800,000	0,022	0,047
-496,839	-129,404	-0,087	0,009
-495,824	-81,935	0,098	-0,023
-494,810	-200,000	0,016	-0,088
-493,795	286,356	0,046	0,061
-492,781	45,244	0,031	0,021
-491,766	-200,000	0,003	0,061
-490,751	31,977	0,043	-0,027
-489,737	-200,000	-0,004	-0,017
-488,722	800,000	0,023	-0,056
-487,708	-101,185	0,193	-0,034
-486,693	107,659	0,038	0,033
-485,678	800,000	-0,007	0,019
-484,664	65,804	-0,037	0,027
-483,649	129,144	-0,028	-0,027
-482,635	61,409	-0,076	0,055
-481,620	-9,612	0,146	-0,071
-480,605	31,590	-0,068	-0,043
-479,591	53,307	0,125	0,087
-478,576	381,574	-0,078	-0,118
-477,562	68,976	0,036	-0,027
-476,547	-82,247	-0,069	-0,016
-475,532	800,000	-0,035	0,100
-474,518	-3,218	-0,112	0,057
-473,503	800,000	0,058	-0,134
-472,489	-3,019	-0,076	0,038
-471,474	800,000	-0,018	0,040
-470,459	-150,582	-0,058	-0,003
-469,445	-200,000	0,008	-0,074
-468,430	8,681	0,114	-0,062
-467,416	800,000	0,062	0,147
-466,401	18,991	0,053	-0,031
-465,386	-7,005	0,036	0,018
-464,372	800,000	0,027	0,067
-463,357	119,404	-0,036	-0,032
-462,343	-200,000	-0,014	-0,104
-461,328	800,000	0,030	0,065
-460,313	-90,277	0,151	0,032
-459,299	-200,000	0,026	-0,099
-458,284	800,000	-0,015	-0,045
-457,270	-200,000	-0,057	-0,197
-456,255	466,727	-0,018	-0,030
-455,241	-200,000	-0,004	0,073
-454,226	-94,421	0,082	-0,016
-453,211	800,000	0,029	0,059
-452,197	-82,600	0,114	0,027
-451,182	86,597	-0,046	0,037
-450,168	115,800	-0,052	-0,047
-449,153	55,789	-0,134	0,094
-448,138	-0,805	0,088	-0,045
-447,124	231,325	-0,031	0,037
-446,109	25,427	-0,065	-0,039
-445,095	-110,982	0,181	-0,027
-444,080	128,985	0,023	0,022
-443,065	-61,608	-0,063	0,019
-442,051	-177,633	0,110	-0,002
-441,036	9,421	0,065	0,036
-440,022	-151,632	-0,042	-0,002
-439,007	800,000	-0,012	-0,037
-437,992	-100,925	-0,116	0,021
-436,978	-200,000	0,000	-0,001
-435,963	407,268	0,062	0,095
-434,949	182,131	-0,070	-0,076
-433,934	-149,544	-0,085	-0,005
-432,919	457,479	-0,033	0,054
-431,905	471,915	0,043	0,070
-430,890	108,427	0,075	-0,066
-429,876	253,509	0,007	-0,009
-428,861	-98,195	-0,065	0,012
-427,846	4,862	-0,145	0,077
-426,832	650,339	-0,041	-0,076
-425,817	-137,650	0,040	-0,003
-424,803	-10,733	-0,085	-0,041
-423,788	-75,211	-0,067	-0,017
-422,773	260,936	-0,068	0,086
-421,759	-158,627	-0,041	-0,002
-420,744	328,337	0,026	0,036
-419,730	800,000	0,050	-0,112
-418,715	489,029	-0,083	-0,139
-417,701	-200,000	-0,023	-0,139
-416,686	314,828	0,089	0,123
-415,671	364,484	0,027	0,039
-414,657	553,377	-0,021	-0,036
-413,642	413,628	-0,055	-0,086
-412,628	81,746	-0,222	-0,175
-411,613	-200,000	-0,001	-0,195
-410,598	-200,000	-0,019	-0,158
-409,584	446,907	0,053	0,085
-408,569	-200,000	0,043	0,165
-407,555	-198,642	0,099	-0,000
-406,540	-200,000	0,001	0,010
-405,525	-200,000	-0,022	0,149
-404,511	-5,507	-0,054	0,027
-403,496	800,000	0,032	-0,093
-402,482	-200,000	0,010	0,049
-401,467	193,938	0,101	0,112
-400,452	800,000	0,023	0,069
-399,438	800,000	-0,041	0,091
-398,423	800,000	0,048	0,116
-397,409	-55,924	-0,065	-0,021
-396,394	-200,000	-0,012	-0,040
-395,379	21,608	0,133	-0,078
-394,365	-200,000	0,015	-0,146
-393,350	-77,709	-0,022	0,006
-392,336	9,151	0,089	0,049
-391,321	142,579	-0,181	-0,175
-390,306	234,853	-0,056	-0,067
-389,292	-122,576	-0,166	0,019
-388,277	395,079	-0,034	0,051
-387,263	-72,601	0,104	0,028
-386,248	800,000	-0,066	-0,156
-385,233	-32,175	0,121	0,049
-384,219	-11,987	0,128	0,061
-383,204	143,414	-0,105	-0,102
-382,190	-200,000	-0,016	0,070
-381,175	-45,855	-0,149	0,053
-380,160	-78,430	0,238	-0,059
-379,146	-51,430	-0,199	-0,067
-378,131	-177,948	-0,046	0,001
-377,117	226,929	-0,089	0,105
-376,102	-200,000	0,017	-0,111
-375,088	-118,710	-0,110	0,014
-374,073	11,778	-0,105	0,059
-373,058	800,000	-0,033	-0,070
-372,044	-104,960	0,114	-0,019
-371,029	308,868	-0,027	0,037
-370,015	17,141	0,104	0,060
-369,000	-200,000	-0,070	-0,260
-367,985	-200,000	-0,012	-0,040
-366,971	54,791	0,093	-0,065
-365,956	44,672	0,072	0,048
-364,942	800,000	-0,046	0,125
-363,927	-126,794	0,079	-0,008
-362,912	130,052	-0,061	0,057
-361,898	468,492	0,013	0,022
-360,883	50,002	-0,158	0,108
-359,869	-65,277	0,136	0,040
-358,854	72,466	0,064	-0,049
-357,839	-135,434	-0,051	0,004
-356,825	463,703	0,123	0,201
-355,810	10,146	-0,060	-0,033
-354,796	-3,773	0,050	-0,025
-353,781	-15,407	-0,123	-0,057
-352,766	-120,128	0,107	0,013
-351,752	-200,000	0,015	-0,051
-350,737	151,562	0,070	0,069
-349,723	800,000	-0,008	0,024
-348,708	570,621	0,033	0,059
-347,693	274,905	-0,040	0,052
-346,679	-200,000	0,011	-0,158
-345,664	1,926	-0,091	0,048
-344,650	-160,915	-0,036	0,001
-343,635	-200,000	0,010	-0,129
-342,620	-23,012	0,155	-0,068
-341,606	800,000	-0,065	-0,131
-340,591	-121,264	0,073	-0,009
-339,577	134,117	-0,126	0,119
-338,562	-7,984	0,035	0,017
-337,548	800,000	-0,023	0,052
-336,533	-116,902	0,094	0,012
-335,518	477,047	-0,035	0,058
-334,504	-119,391	-0,090	0,011
-333,489	-200,000	0,021	-0,070
-332,475	-72,501	0,099	-0,026
-331,460	-200,000	-0,003	0,012
-330,445	-122,078	-0,094	-0,011
-329,431	-200,000	-0,024	0,166
-328,416	-167,272	-0,025	-0,001
-327,402	800,000	0,050	-0,108
-326,387	-7,627	0,083	0,041
-325,372	36,448	-0,197	-0,126
-324,358	-200,000	-0,033	-0,132
-323,343	247,717	-0,007	-0,009
-322,329	152,706	-0,032	0,032
-321,314	79,803	0,046	-0,036
-320,299	-84,635	0,140	0,032
-319,285	-26,256	-0,105	0,045
-318,270	-115,725	-0,022	0,003
-317,256	169,646	-0,039	0,041
-316,241	800,000	0,063	0,129
-315,226	407,307	0,052	0,080
-314,212	373,444	0,066	0,097
-313,197	115,943	0,050	0,045
-312,183	-200,000	0,006	-0,023
-311,168	-9,788	-0,067	0,032
-310,153	293,026	0,053	-0,070
-309,139	31,451	0,112	0,070
-308,124	283,473	-0,049	-0,064
-307,110	206,695	-0,093	0,105
-306,095	84,217	0,164	0,130
-305,080	110,310	-0,020	0,018
-304,066	143,431	-0,071	0,069
-303,051	-165,382	0,160	0,005
-302,037	150,107	0,041	-0,040
-301,022	-0,884	-0,104	0,053
-300,008	-200,000	-0,007	0,205
-298,993	-1,038	-0,095	-0,048
-297,978	44,078	0,038	-0,025
-296,964	150,194	0,083	-0,082
-295,949	202,043	0,040	-0,045
-294,935	38,645	-0,069	-0,044
-293,920	-200,000	-0,040	0,211
-292,905	509,371	0,077	0,130
-291,891	-200,000	-0,008	-0,033
-290,876	-200,000	0,011	-0,048
-289,862	111,246	-0,039	0,034
-288,847	-43,990	0,081	-0,029
-287,832	-172,768	-0,096	-0,002
-286,818	-55,851	0,141	-0,045
-285,803	-51,614	-0,115	-0,039
-284,789	-56,571	-0,112	0,036
-283,774	61,460	0,140	0,101
-282,759	688,642	0,038	0,073
-281,745	-48,358	0,068	-0,024
-280,730	600,469	0,091	-0,164
-279,716	-30,173	0,174	-0,071
-278,701	800,000	-0,036	0,080
-277,686	-44,405	0,137	0,049
-276,672	-33,839	0,112	0,045
-275,657	393,968	0,027	-0,041
-274,643	558,755	-0,045	0,079
-273,628	-200,000	-0,001	0,166
-272,613	-101,290	0,069	-0,012
-271,599	800,000	0,035	0,073
-270,584	-98,360	0,135	-0,025
-269,570	38,342	0,113	-0,073
-268,555	-114,121	-0,082	0,011
-267,540	124,154	-0,046	0,042
-266,526	-59,784	-0,150	0,046
-265,511	-200,000	0,006	0,059
-264,497	111,399	-0,041	0,036
-263,482	91,831	0,029	0,023
-262,467	-200,000	0,049	0,159
-261,453	646,927	0,010	0,018
-260,438	194,521	0,059	0,065
-259,424	19,002	0,060	0,035
-258,409	130,898	-0,053	-0,049
-257,395	800,000	-0,015	0,035
-256,380	-163,371	0,173	0,006
-255,365	-200,000	-0,005	0,124
-254,351	-200,000	0,029	-0,113
-253,336	44,419	-0,090	-0,060
-252,322	463,475	-0,078	0,126
-251,307	-200,000	0,028	-0,214
-250,292	-200,000	-0,012	-0,055
-249,278	221,086	-0,053	0,062
-248,263	39,643	0,092	-0,059
-247,249	800,000	0,024	0,053
-246,234	-200,000	-0,009	0,166
-245,219	536,558	-0,035	-0,061
-244,205	-27,665	-0,136	-0,057
-243,190	-94,686	0,153	-0,030
-242,176	542,333	0,010	0,017
-241,161	-94,093	0,101	0,020
-240,146	492,832	-0,052	-0,086
-239,132	-49,996	0,081	0,028
-238,117	-81,954	-0,117	0,028
-237,103	39,336	-0,106	-0,069
-236,088	800,000	-0,011	0,031
-235,073	800,000	0,026	-0,078
-234,059	800,000	0,035	0,090
-233,044	-200,000	0,001	-0,013
-232,030	74,681	0,084	-0,064
-231,015	-154,917	0,082	-0,004
-230,000	491,689	-0,026	0,042
-228,986	-200,000	0,041	-0,137
-227,971	-72,825	-0,115	0,030
-226,957	93,436	-0,077	0,063
-225,942	-26,925	0,168	-0,071
-224,927	-5,395	-0,056	-0,028
-223,913	85,655	-0,059	0,047
-222,898	-36,220	0,108	-0,042
-221,884	800,000	0,049	-0,122
-220,869	-200,000	0,015	0,188
-219,855	-178,011	0,031	-0,001
-218,840	-18,305	0,121	-0,054
-217,825	86,998	-0,082	0,065
-216,811	-26,275	0,105	-0,045
-215,796	-117,494	0,079	0,010
-214,782	-200,000	0,003	0,132
-213,767	-137,312	-0,050	-0,004
-212,752	-109,904	0,105	0,016
-211,738	800,000	0,035	-0,079
-210,723	-3,956	0,025	-0,012
-209,709	323,159	-0,078	-0,108
-208,694	239,423	0,059	-0,071
-207,679	271,886	-0,041	-0,052
-206,665	-18,858	-0,027	0,012
-205,650	-103,433	0,101	0,017
-204,636	217,620	0,048	-0,055
-203,621	-52,852	0,071	0,024
-202,606	-29,402	-0,043	0,018
-201,592	154,195	-0,024	-0,023
-200,577	800,000	-0,042	-0,085
-199,563	85,874	0,068	-0,054
-198,548	205,797	0,118	0,132
-197,533	327,864	-0,036	-0,051
-196,519	351,351	0,014	-0,020
-195,504	-200,000	-0,005	-0,124
-194,490	-86,957	-0,151	0,033
-193,475	-61,549	0,039	-0,012
-192,460	-74,778	-0,086	0,022
-191,446	-29,248	0,061	-0,025
-190,431	800,000	0,030	-0,063
-189,417	348,287	-0,023	-0,032
-188,402	41,422	0,134	0,088
-187,387	-53,829	-0,105	-0,034
-186,373	-115,232	-0,126	-0,017
-185,358	-200,000	0,029	-0,093
-184,344	333,678	-0,098	0,137
-183,329	800,000	0,025	0,066
-182,315	471,572	0,055	0,090
-181,300	171,116	-0,123	-0,127
-180,285	525,361	-0,024	0,041
-179,271	-137,387	-0,152	-0,012
-178,256	720,866	-0,044	0,084
-177,242	235,516	-0,098	0,117
-176,227	135,224	0,125	0,117
-175,212	716,279	-0,035	0,068
-174,198	-200,000	0,016	-0,065
-173,183	-200,000	-0,037	-0,124
-172,169	318,553	0,015	0,020
-171,154	-91,935	0,077	0,016
-170,139	-101,204	0,125	-0,022
-169,125	-17,383	0,113	-0,051
-168,110	-200,000	-0,015	0,143
-167,096	-41,881	-0,034	0,012
-166,081	35,256	-0,133	-0,084
-165,066	-46,106	-0,046	-0,016
-164,052	-6,413	0,065	0,032
-163,037	-200,000	-0,024	0,078
-162,023	-2,588	0,086	0,043
-161,008	-103,572	-0,116	0,019
-159,993	-89,041	0,018	0,004
-158,979	-200,000	0,006	-0,081
-157,964	800,000	-0,063	-0,167
-156,950	481,039	-0,032	-0,053
-155,935	492,059	0,084	0,140
-154,920	800,000	-0,061	-0,131
-153,906	524,789	0,023	0,040
-152,891	-200,000	-0,003	0,056
-151,877	156,934	0,119	-0,119
-150,862	775,853	-0,066	-0,130
-149,847	-24,651	-0,073	0,031
-148,833	74,492	-0,061	0,046
-147,818	-44,990	0,136	0,049
-146,804	147,074	0,122	0,118
-145,789	-31,562	-0,087	0,035
-144,775	-200,000	-0,016	0,135
-143,760	-7,883	-0,140	-0,068
-142,745	84,864	0,030	0,024
-141,731	-184,098	-0,096	0,001
-140,716	149,562	-0,086	0,084
-139,702	-200,000	0,002	0,028
-138,687	1,430	-0,019	0,010
-137,672	-200,000	-0,002	0,025
-136,658	-200,000	0,005	-0,033
-135,643	200,557	0,091	0,101
-134,629	43,026	0,073	0,048
-133,614	84,737	-0,086	0,068
-132,599	800,000	0,062	0,155
-131,585	-106,350	-0,046	0,007
-130,570	800,000	-0,027	-0,075
-129,556	-200,000	0,013	-0,115
-128,541	-17,800	0,053	0,024
-127,526	-165,320	-0,109	0,003
-126,512	-200,000	-0,016	0,052
-125,497	52,183	0,165	0,113
-124,483	575,420	-0,039	-0,070
-123,468	-72,722	0,108	0,028
-122,453	-53,213	-0,048	-0,016
-121,439	66,752	-0,088	-0,065
-120,424	-95,992	0,048	0,009
-119,410	50,504	0,038	0,026
-118,395	-200,000	0,006	-0,055
