DTS Sentinel unit serial number:	SN410029Multiplexer serial number:	ORYXHardware model number:	OX2-SRSoftware version number:	ORYX F/W v4,00 Oryx Data Collector v3.7.2.0data status	okinstallation	B5 Nyhavnadifferential loss correction	single-endedforward channel	channel 2reverse channel	N/Adate	2023/12/14time	17:42:13forward acquisition time	300,00reverse acquisition time	0,00gamma	499,1914k internal	0,3156k external	0,3156temperature offset calibration	1,0000default loss term (dB/km)	0,3820temperature slope calibration	1,0000multiplexer offset coefficient	1,0000multiplexer slope coefficient	1,0000fibre end	0,00T internal ref (°C)	8,30T ext. ref 1 (°C)	-7,14T ext. ref 2 (°C)	-7,21length (m)	temperature (°C)	Stokes	anti-Stokes-744,400	181,456	0,050	-0,055
-743,385	-74,988	-0,337	-0,088
-742,371	36,014	0,133	0,086
-741,356	-86,701	-0,291	-0,065
-740,342	162,437	0,103	0,107
-739,327	-162,869	-0,412	0,015
-738,312	121,361	0,071	0,065
-737,298	-50,231	-0,422	0,146
-736,283	800,000	0,065	0,163
-735,269	-71,096	-0,295	0,081
-734,254	136,732	0,104	0,100
-733,239	-40,679	-0,570	-0,217
-732,225	-91,275	0,302	0,063
-731,210	800,000	0,018	-0,042
-730,196	140,301	-0,073	0,071
-729,181	778,247	0,069	-0,140
-728,167	-200,000	0,008	-0,168
-727,152	-200,000	-0,027	0,135
-726,137	34,332	-0,136	-0,087
-725,123	-58,862	-0,114	-0,036
-724,108	800,000	-0,051	-0,164
-723,094	790,708	-0,062	-0,127
-722,079	-200,000	0,002	-0,010
-721,064	-200,000	0,007	-0,059
-720,050	528,126	-0,064	0,111
-719,035	130,512	0,097	0,091
-718,021	-200,000	0,015	0,064
-717,006	41,725	-0,126	-0,084
-715,991	113,303	-0,091	0,081
-714,977	-200,000	-0,054	-0,181
-713,962	-21,759	0,052	-0,023
-712,948	549,353	0,053	-0,094
-711,933	474,224	-0,026	0,043
-710,918	-181,026	-0,116	0,002
-709,904	443,080	0,065	-0,105
-708,889	-122,566	-0,143	0,017
-707,875	-142,576	-0,198	0,014
-706,860	46,539	0,087	-0,059
-705,845	29,146	-0,090	0,056
-704,831	-104,488	0,070	-0,012
-703,816	800,000	0,065	-0,139
-702,802	133,296	-0,132	0,126
-701,787	800,000	-0,037	-0,114
-700,772	-110,578	-0,056	-0,008
-699,758	-64,879	0,114	-0,034
-698,743	193,926	0,017	-0,019
-697,729	352,730	-0,055	-0,081
-696,714	276,501	-0,022	0,029
-695,699	-1,108	-0,084	0,043
-694,685	38,694	-0,095	0,062
-693,670	-200,000	0,006	-0,106
-692,656	-55,267	-0,108	0,036
-691,641	298,142	0,082	-0,111
-690,627	-100,694	0,062	-0,011
-689,612	-70,479	-0,111	0,031
-688,597	-21,900	-0,099	0,044
-687,583	800,000	-0,041	-0,113
-686,568	440,645	-0,043	-0,069
-685,554	800,000	-0,014	-0,035
-684,539	70,364	0,059	-0,045
-683,524	9,418	-0,153	-0,085
-682,510	63,772	-0,043	0,032
-681,495	-78,688	-0,057	0,014
-680,481	-139,867	-0,206	0,016
-679,466	-200,000	-0,016	-0,059
-678,451	-64,062	0,029	-0,009
-677,437	273,357	0,041	-0,053
-676,422	56,365	0,021	0,015
-675,408	-122,626	0,107	0,013
-674,393	96,669	-0,115	0,097
-673,378	-40,631	-0,077	-0,029
-672,364	5,867	-0,013	-0,007
-671,349	437,265	0,118	0,190
-670,335	129,335	-0,135	-0,127
-669,320	-133,263	0,081	-0,007
-668,305	-74,382	0,060	-0,016
-667,291	71,491	-0,052	0,040
-666,276	800,000	-0,036	-0,097
-665,262	119,844	-0,048	0,044
-664,247	-200,000	-0,001	0,003
-663,232	-63,174	0,064	-0,019
-662,218	91,884	-0,032	-0,026
-661,203	-73,845	-0,047	0,013
-660,189	96,874	0,054	-0,045
-659,174	800,000	-0,030	0,065
-658,159	-200,000	0,002	-0,022
-657,145	800,000	0,003	-0,007
-656,130	59,455	-0,039	-0,028
-655,116	220,720	0,139	0,164
-654,101	40,185	0,121	0,080
-653,086	1,844	-0,073	0,038
-652,072	800,000	-0,021	0,062
-651,057	-132,738	0,132	0,012
-650,043	287,752	-0,042	0,056
-649,028	48,002	0,059	-0,040
-648,014	382,704	0,029	-0,044
-646,999	-200,000	-0,008	0,044
-645,984	-139,216	0,088	0,007
-644,970	146,075	-0,060	-0,059
-643,955	-35,440	-0,090	-0,036
-642,941	-200,000	-0,005	-0,120
-641,926	800,000	0,014	0,038
-640,911	-200,000	0,001	0,019
-639,897	47,721	-0,025	-0,017
-638,882	-33,692	-0,071	-0,029
-637,868	72,825	0,094	-0,072
-636,853	-200,000	0,004	0,092
-635,838	237,947	-0,023	-0,028
-634,824	-200,000	-0,027	-0,175
-633,809	372,202	0,082	0,122
-632,795	237,384	-0,056	0,068
-631,780	-200,000	-0,016	0,064
-630,765	-29,682	-0,102	-0,043
-629,751	86,035	0,143	-0,115
-628,736	-83,318	-0,087	0,020
-627,722	800,000	-0,037	0,081
-626,707	800,000	0,024	0,052
-625,692	29,330	0,071	0,044
-624,678	-200,000	0,002	-0,019
-623,663	-67,405	-0,151	0,043
-622,649	111,386	0,081	-0,071
-621,634	-89,011	-0,160	0,034
-620,619	-41,832	-0,083	0,031
-619,605	363,838	0,013	0,019
-618,590	-200,000	-0,041	0,161
-617,576	-200,000	0,054	0,188
-616,561	37,101	0,075	-0,049
-615,546	-200,000	-0,038	-0,135
-614,532	800,000	0,027	-0,079
-613,517	-180,325	-0,054	-0,001
-612,503	102,390	0,090	0,077
-611,488	-200,000	-0,010	-0,101
-610,474	287,953	-0,026	0,034
-609,459	142,557	0,019	0,019
-608,444	196,414	0,098	-0,110
-607,430	-41,961	0,112	-0,042
-606,415	-200,000	0,005	-0,130
-605,401	-66,325	-0,059	0,017
-604,386	32,753	0,141	0,089
-603,371	-200,000	-0,027	0,127
-602,357	-182,113	-0,082	0,001
-601,342	186,472	-0,111	0,121
-600,328	52,550	0,085	-0,059
-599,313	80,168	0,043	-0,034
-598,298	-2,411	0,030	0,016
-597,284	800,000	-0,001	0,001
-596,269	-106,488	0,119	0,019
-595,255	800,000	-0,041	-0,102
-594,240	60,580	-0,072	0,052
-593,225	-200,000	0,013	-0,120
-592,211	-85,276	-0,129	-0,029
-591,196	22,893	0,025	0,015
-590,182	-28,119	-0,031	-0,013
-589,167	676,787	-0,067	0,129
-588,152	-200,000	0,007	0,057
-587,138	103,861	-0,094	-0,081
-586,123	177,954	0,054	-0,058
-585,109	800,000	0,027	-0,083
-584,094	-128,041	0,062	-0,006
-583,079	-200,000	-0,018	0,088
-582,065	-200,000	0,004	0,149
-581,050	-200,000	0,005	0,113
-580,036	33,029	0,054	-0,034
-579,021	800,000	-0,052	0,110
-578,006	-42,953	-0,095	-0,035
-576,992	-119,714	-0,135	-0,017
-575,977	800,000	0,061	-0,134
-574,963	-33,450	0,068	-0,027
-573,948	-104,508	-0,098	0,016
-572,934	628,286	-0,053	-0,098
-571,919	93,543	-0,016	-0,013
-570,904	-200,000	0,013	-0,060
-569,890	0,171	-0,154	0,080
-568,875	-109,794	0,073	-0,011
-567,861	-92,416	-0,152	-0,031
-566,846	184,408	-0,086	0,093
-565,831	-160,880	0,146	0,006
-564,817	88,688	-0,025	0,020
-563,802	12,725	-0,105	0,059
-562,788	452,612	0,040	-0,065
-561,773	226,782	0,028	0,033
-560,758	800,000	-0,009	0,027
-559,744	154,393	0,002	-0,002
-558,729	-69,215	-0,081	0,023
-557,715	-200,000	0,002	-0,122
-556,700	475,958	0,022	-0,037
-555,685	-52,515	-0,107	0,036
-554,671	800,000	0,036	0,079
-553,656	272,263	-0,104	0,135
-552,642	-200,000	0,004	0,212
-551,627	800,000	0,042	-0,124
-550,612	-200,000	-0,022	-0,171
-549,598	139,262	-0,030	0,029
-548,583	-200,000	-0,018	-0,077
-547,569	-200,000	-0,016	-0,088
-546,554	-200,000	0,012	-0,072
-545,539	-127,050	0,048	-0,005
-544,525	-200,000	-0,005	-0,130
-543,510	-42,160	-0,215	0,080
-542,496	-163,560	0,129	0,004
-541,481	-200,000	0,020	-0,103
-540,466	800,000	0,041	-0,120
-539,452	-107,950	0,045	-0,007
-538,437	-200,000	-0,008	0,206
-537,423	-17,164	0,140	0,065
-536,408	317,659	-0,103	0,142
-535,393	-99,814	0,066	0,012
-534,379	216,665	-0,076	0,089
-533,364	-200,000	0,000	0,022
-532,350	-200,000	-0,007	-0,136
-531,335	-73,512	-0,059	-0,016
-530,321	619,598	0,006	-0,011
-529,306	222,305	0,072	-0,085
-528,291	40,977	-0,169	-0,112
-527,277	-31,323	0,090	0,037
-526,262	-15,780	0,125	0,058
-525,248	49,835	0,053	-0,036
-524,233	169,806	0,132	0,138
-523,218	-200,000	0,016	0,127
-522,204	18,660	0,047	-0,028
-521,189	466,646	0,025	-0,042
-520,175	-200,000	0,008	-0,050
-519,160	-200,000	0,006	0,037
-518,145	-128,202	0,027	0,003
-517,131	-132,216	-0,052	0,005
-516,116	207,167	0,099	-0,113
-515,102	-28,925	-0,124	-0,052
-514,087	800,000	-0,005	0,013
-513,072	-16,622	0,070	-0,032
-512,058	-127,993	-0,013	-0,001
-511,043	420,710	-0,088	0,138
-510,029	-166,213	-0,091	0,003
-509,014	800,000	0,015	0,036
-507,999	285,640	0,112	0,147
-506,985	-4,049	0,111	-0,056
-505,970	362,587	-0,083	-0,123
-504,956	-200,000	0,001	-0,162
-503,941	-152,015	0,096	-0,005
-502,926	13,743	0,097	0,055
-501,912	707,249	0,041	0,080
-500,897	-23,503	-0,083	-0,036
-499,883	-200,000	-0,010	-0,038
-498,868	-200,000	0,009	-0,051
-497,853	-152,350	-0,087	0,004
-496,839	-200,000	0,002	-0,041
-495,824	210,391	0,059	-0,068
-494,810	800,000	-0,040	0,082
-493,795	-200,000	-0,004	-0,055
-492,781	-163,757	-0,115	-0,004
-491,766	263,189	-0,060	-0,077
-490,751	118,272	0,047	0,042
-489,737	39,881	-0,023	0,015
-488,722	-55,532	-0,052	0,017
-487,708	176,049	0,072	-0,076
-486,693	30,780	-0,014	-0,009
-485,678	151,742	-0,039	-0,039
-484,664	-200,000	0,000	-0,101
-483,649	-57,490	-0,089	0,028
-482,635	-103,169	0,054	0,009
-481,620	-28,988	0,152	0,063
-480,605	-110,191	0,108	-0,016
-479,591	-103,320	0,159	0,027
-478,576	-3,231	0,067	-0,034
-477,562	13,301	-0,048	-0,027
-476,547	8,856	-0,128	-0,070
-475,532	24,123	0,051	0,031
-474,518	800,000	0,054	0,123
-473,503	800,000	0,031	-0,089
-472,489	-200,000	0,035	0,122
-471,474	82,573	0,027	-0,021
-470,459	800,000	-0,035	-0,111
-469,445	366,577	-0,088	-0,129
-468,430	109,117	-0,057	-0,050
-467,416	429,448	0,037	-0,058
-466,401	399,948	0,050	0,076
-465,386	800,000	-0,020	0,054
-464,372	-200,000	-0,022	-0,119
-463,357	302,529	-0,041	0,056
-462,343	-101,744	-0,191	0,034
-461,328	107,253	0,017	0,014
-460,313	7,475	0,085	-0,046
-459,299	-200,000	-0,004	-0,047
-458,284	800,000	0,071	-0,147
-457,270	800,000	0,028	-0,086
-456,255	154,956	-0,105	-0,106
-455,241	46,369	-0,040	-0,027
-454,226	-52,589	0,119	0,040
-453,211	372,119	-0,053	-0,078
-452,197	89,620	0,090	0,073
-451,182	-200,000	0,006	-0,033
-450,168	800,000	-0,048	0,139
-449,153	-200,000	0,012	-0,175
-448,138	-1,044	-0,065	-0,034
-447,124	-88,537	-0,098	0,021
-446,109	-200,000	0,003	-0,076
-445,095	192,297	0,093	0,103
-444,080	-91,640	0,135	0,028
-443,065	-200,000	0,035	0,128
-442,051	800,000	0,014	0,036
-441,036	83,895	-0,127	-0,101
-440,022	-200,000	0,019	-0,108
-439,007	-200,000	-0,007	0,080
-437,992	259,555	0,045	-0,057
-436,978	-119,744	0,084	-0,010
-435,963	800,000	-0,006	0,017
-434,949	-60,506	-0,142	0,044
-433,934	-74,359	0,138	-0,036
-432,919	459,509	0,076	-0,123
-431,905	-69,234	-0,106	0,030
-430,890	800,000	0,038	0,102
-429,876	-200,000	0,000	0,096
-428,861	-200,000	-0,011	0,101
-427,846	-169,580	0,009	0,000
-426,832	-112,375	-0,048	0,007
-425,817	202,963	-0,103	-0,116
-424,803	-200,000	-0,012	-0,080
-423,788	40,826	0,142	0,093
-422,773	-47,448	0,112	-0,039
-421,759	800,000	0,037	0,102
-420,744	-79,487	-0,056	-0,014
-419,730	481,312	-0,057	-0,095
-418,715	152,205	0,067	0,066
-417,701	220,089	-0,043	0,051
-416,686	-89,583	0,162	0,034
-415,671	-200,000	0,005	0,046
-414,657	-56,355	0,056	-0,018
-413,642	-200,000	0,014	-0,107
-412,628	-200,000	0,004	-0,148
-411,613	-178,665	-0,117	-0,002
-410,598	648,717	0,044	0,083
-409,584	-180,129	0,020	-0,000
-408,569	-42,597	0,072	0,026
-407,555	-200,000	0,035	0,120
-406,540	-80,992	0,203	0,049
-405,525	800,000	0,012	-0,029
-404,511	-61,810	0,083	-0,025
-403,496	-200,000	-0,020	-0,085
-402,482	787,615	0,054	0,109
-401,467	-73,899	-0,051	-0,013
-400,452	-137,770	0,036	-0,003
-399,438	-200,000	-0,012	0,091
-398,423	-200,000	0,002	0,033
-397,409	-173,227	-0,053	-0,001
-396,394	781,189	-0,040	-0,080
-395,379	278,502	0,068	-0,088
-394,365	-136,358	-0,016	0,001
-393,350	-200,000	0,040	0,173
-392,336	36,093	-0,142	0,091
-391,321	36,026	0,053	0,034
-390,306	-200,000	-0,025	-0,083
-389,292	-200,000	-0,021	-0,134
-388,277	-13,071	0,045	-0,021
-387,263	-163,376	0,014	0,000
-386,248	800,000	0,065	0,208
-385,233	453,544	0,057	0,093
-384,219	800,000	0,027	-0,068
-383,204	263,381	-0,018	-0,023
-382,190	800,000	0,021	0,061
-381,175	126,145	0,062	-0,057
-380,160	-200,000	0,003	0,071
-379,146	-28,277	-0,050	-0,021
-378,131	203,353	-0,023	0,025
-377,117	-119,719	0,109	-0,014
-376,102	-95,016	0,079	-0,015
-375,088	244,110	-0,058	-0,071
-374,073	568,759	-0,030	0,054
-373,058	800,000	0,048	-0,148
-372,044	-86,160	0,110	0,025
-371,029	196,298	-0,089	-0,099
-370,015	-146,393	-0,051	0,003
-369,000	-11,936	0,035	-0,016
-367,985	-200,000	-0,021	-0,093
-366,971	468,965	-0,006	0,011
-365,956	-5,566	0,067	0,033
-364,942	-200,000	-0,010	0,085
-363,927	191,465	-0,079	0,087
-362,912	-200,000	0,022	0,084
-361,898	-64,118	-0,096	0,028
-360,883	-200,000	-0,004	0,084
-359,869	800,000	-0,037	-0,084
-358,854	-200,000	0,023	-0,149
-357,839	351,018	0,069	0,100
-356,825	0,695	0,068	-0,035
-355,810	-200,000	0,001	-0,039
-354,796	-82,006	0,167	-0,039
-353,781	-62,316	-0,066	-0,020
-352,766	-65,292	-0,165	0,048
-351,752	-200,000	0,095	0,000
-350,737	-63,608	-0,113	0,033
-349,723	-200,000	-0,005	0,114
-348,708	10,485	-0,079	-0,044
-347,693	104,162	0,107	-0,091
-346,679	174,787	0,028	0,030
-345,664	750,308	0,018	-0,036
-344,650	-79,870	-0,050	0,012
-343,635	-200,000	0,009	-0,094
-342,620	-200,000	-0,012	-0,058
-341,606	33,558	0,052	-0,033
-340,591	66,645	-0,084	-0,062
-339,577	800,000	-0,039	-0,100
-338,562	-79,276	-0,062	-0,015
-337,548	28,885	-0,098	0,060
-336,533	-5,042	-0,132	0,066
-335,518	-28,065	0,076	0,032
-334,504	800,000	0,047	0,110
-333,489	56,049	-0,056	0,039
-332,475	-51,373	-0,108	0,036
-331,460	-200,000	0,000	-0,084
-330,445	445,779	-0,036	-0,058
-329,431	-200,000	0,003	0,030
-328,416	-200,000	0,026	-0,160
-327,402	-200,000	0,007	0,096
-326,387	108,198	-0,001	-0,001
-325,372	523,932	-0,050	-0,086
-324,358	-103,886	0,110	0,018
-323,343	-200,000	-0,008	-0,040
-322,329	304,686	0,061	-0,082
-321,314	-200,000	0,029	-0,249
-320,299	540,283	-0,027	-0,047
-319,285	111,082	-0,032	-0,028
-318,270	85,055	0,156	-0,124
-317,256	27,946	-0,049	-0,030
-316,241	631,749	0,023	-0,043
-315,226	14,007	0,112	-0,063
-314,212	402,331	0,075	0,114
-313,197	800,000	0,049	-0,099
-312,183	56,636	-0,141	-0,099
-311,168	-200,000	0,008	-0,063
-310,153	471,948	-0,046	-0,075
-309,139	365,445	-0,064	0,094
-308,124	149,207	0,121	0,119
-307,110	800,000	0,040	0,097
-306,095	-200,000	-0,026	0,099
-305,080	29,304	0,135	-0,083
-304,066	-80,427	0,053	0,013
-303,051	800,000	-0,055	-0,123
-302,037	-151,672	-0,089	0,005
-301,022	-119,339	0,064	-0,008
-300,008	-174,754	0,055	0,001
-298,993	-141,416	0,138	-0,010
-297,978	559,958	-0,029	0,051
-296,964	-127,265	0,098	0,010
-295,949	-127,965	-0,085	-0,009
-294,935	313,166	-0,049	0,067
-293,920	217,307	0,116	0,135
-292,905	-200,000	0,033	0,112
-291,891	-200,000	0,017	0,073
-290,876	6,504	-0,070	0,038
-289,862	-200,000	-0,005	-0,085
-288,847	-144,258	-0,051	-0,003
-287,832	59,807	-0,033	-0,023
-286,818	412,126	-0,036	0,056
-285,803	-102,407	0,145	0,025
-284,789	63,561	0,073	0,053
-283,774	303,041	0,088	0,119
-282,759	-200,000	-0,007	-0,072
-281,745	-16,398	0,107	0,049
-280,730	441,202	-0,029	0,046
-279,716	-200,000	-0,014	-0,094
-278,701	-120,580	-0,056	0,007
-277,686	-115,813	0,069	0,009
-276,672	-166,720	0,101	-0,003
-275,657	-83,164	-0,070	0,016
-274,643	800,000	-0,045	-0,135
-273,628	204,305	-0,057	-0,064
-272,613	-200,000	0,013	0,102
-271,599	315,338	-0,060	-0,083
-270,584	-200,000	-0,013	0,097
-269,570	780,976	0,047	0,093
-268,555	-200,000	0,011	0,130
-267,540	-119,016	-0,131	-0,016
-266,526	581,836	-0,028	-0,049
-265,511	163,581	0,006	-0,006
-264,497	20,957	0,123	-0,072
-263,482	22,594	0,015	0,009
-262,467	-200,000	-0,044	0,195
-261,453	250,687	0,108	0,133
-260,438	-57,521	-0,100	-0,032
-259,424	-104,765	0,088	0,015
-258,409	-17,830	-0,114	0,052
-257,395	-200,000	-0,004	0,089
-256,380	-135,399	0,064	0,005
-255,365	-200,000	-0,007	0,027
-254,351	-72,967	0,148	-0,039
-253,336	-144,562	-0,115	0,008
-252,322	150,427	-0,106	0,104
-251,307	346,298	-0,018	-0,026
-250,292	-137,729	-0,015	0,001
-249,278	-200,000	0,005	0,064
-248,263	-200,000	0,035	0,117
-247,249	-200,000	-0,007	0,090
-246,234	-200,000	-0,006	-0,058
-245,219	196,656	-0,088	-0,097
-244,205	341,642	-0,080	-0,113
-243,190	-200,000	-0,002	0,131
-242,176	114,474	-0,030	0,026
-241,161	-15,723	0,048	0,022
-240,146	173,875	0,030	0,031
-239,132	800,000	-0,019	0,050
-238,117	800,000	0,037	-0,114
-237,103	26,036	-0,050	-0,030
-236,088	602,427	0,051	-0,092
-235,073	800,000	-0,019	0,048
-234,059	-200,000	0,018	0,204
-233,044	-200,000	0,008	0,156
-232,030	-200,000	-0,026	0,119
-231,015	-200,000	-0,012	-0,119
-230,000	73,489	-0,077	0,058
-228,986	-200,000	-0,005	0,089
-227,971	-88,039	-0,103	0,022
-226,957	-121,010	0,061	-0,007
-225,942	-174,551	-0,120	0,002
-224,927	-200,000	-0,005	0,059
-223,913	17,270	-0,156	-0,089
-222,898	-200,000	-0,007	-0,027
-221,884	89,180	0,107	0,086
-220,869	104,880	-0,137	0,117
-219,855	106,632	-0,088	0,076
-218,840	265,138	0,053	-0,067
-217,825	232,338	-0,063	-0,075
-216,811	-99,291	-0,083	0,015
-215,796	-200,000	-0,000	-0,136
-214,782	437,381	0,046	-0,072
-213,767	-200,000	-0,020	0,076
-212,752	-15,771	0,051	0,023
-211,738	-82,794	0,068	0,016
-210,723	4,962	-0,094	0,050
-209,709	-200,000	-0,017	-0,152
-208,694	3,527	-0,100	-0,052
-207,679	-104,925	0,083	0,014
-206,665	130,604	0,100	0,093
-205,650	-200,000	-0,023	0,084
-204,636	-200,000	-0,034	0,130
-203,621	-139,821	-0,174	0,013
-202,606	-200,000	0,028	-0,203
-201,592	-93,691	0,014	0,003
-200,577	800,000	0,016	-0,043
-199,563	108,803	-0,047	-0,040
-198,548	9,334	0,083	-0,045
-197,533	-200,000	0,007	0,035
-196,519	-200,000	0,006	0,077
-195,504	800,000	0,034	-0,085
-194,490	-145,384	0,098	0,006
-193,475	-64,551	-0,084	-0,024
-192,460	-12,138	0,089	-0,042
-191,446	-200,000	-0,015	-0,067
-190,431	85,172	-0,060	0,048
-189,417	65,956	-0,128	0,094
-188,402	-76,855	-0,074	-0,019
-187,387	353,987	-0,038	0,055
-186,373	703,901	-0,014	0,027
-185,358	-200,000	0,001	0,029
-184,344	-200,000	-0,064	0,223
-183,329	488,157	0,031	0,052
-182,315	800,000	-0,030	-0,063
-181,300	-148,905	-0,084	-0,005
-180,285	-78,366	-0,051	0,012
-179,271	1,163	-0,043	-0,022
-178,256	572,209	0,054	-0,095
-177,242	-106,381	0,050	-0,008
-176,227	100,407	0,041	0,035
-175,212	-46,622	0,112	-0,039
-174,198	188,744	-0,080	0,087
-173,183	288,342	-0,033	0,043
-172,169	226,109	-0,002	-0,002
-171,154	800,000	-0,053	-0,118
-170,139	212,116	-0,038	-0,043
-169,125	24,922	0,127	-0,076
-168,110	296,730	-0,073	0,097
-167,096	-200,000	-0,004	0,032
-166,081	-31,371	0,035	-0,014
-165,066	659,979	0,035	0,066
-164,052	-113,167	0,098	0,014
-163,037	91,444	-0,063	0,051
-162,023	-118,232	0,054	0,007
-161,008	212,266	-0,015	0,017
-159,993	-76,025	0,066	-0,017
-158,979	65,395	-0,164	-0,119
-157,964	652,062	0,018	-0,034
-156,950	-94,068	0,071	-0,014
-155,935	-200,000	0,013	-0,119
-154,920	-111,260	-0,121	-0,018
-153,906	-6,345	0,022	0,011
-152,891	-98,140	0,055	0,010
-151,877	-131,454	0,116	-0,011
-150,862	-200,000	-0,019	-0,132
-149,847	-149,968	-0,054	-0,003
-148,833	171,083	0,068	-0,070
-147,818	-64,946	0,097	0,028
-146,804	-200,000	-0,012	0,040
-145,789	-54,742	0,036	0,012
-144,775	23,369	-0,059	0,035
-143,760	56,923	-0,065	-0,046
-142,745	-167,684	-0,106	0,003
-141,731	800,000	0,012	0,027
-140,716	96,353	0,109	0,090
-139,702	-200,000	0,010	-0,106
-138,687	-147,635	-0,169	0,010
-137,672	-54,701	-0,169	0,055
-136,658	-156,018	0,047	-0,002
-135,643	136,285	0,021	-0,020
-134,629	800,000	0,007	0,016
-133,614	349,670	0,073	0,104
-132,599	174,642	-0,069	0,072
-131,585	80,358	-0,024	-0,018
-130,570	83,715	-0,016	0,012
-129,556	-134,398	0,045	0,004
-128,541	800,000	0,085	-0,195
-127,526	-72,064	-0,036	0,010
-126,512	-112,124	0,085	-0,012
-125,497	-163,369	-0,147	-0,005
-124,483	-200,000	0,038	0,160
-123,468	181,916	0,049	0,052
-122,453	294,005	-0,066	-0,087
-121,439	292,272	-0,100	-0,132
-120,424	-107,385	0,020	0,003
-119,410	-50,335	0,071	-0,024
