DTS Sentinel unit serial number:	SN410029Multiplexer serial number:	ORYXHardware model number:	OX2-SRSoftware version number:	ORYX F/W v4,00 Oryx Data Collector v3.7.2.0data status	okinstallation	B5 Nyhavnadifferential loss correction	single-endedforward channel	channel 2reverse channel	N/Adate	2023/12/12time	15:37:13forward acquisition time	300,00reverse acquisition time	0,00gamma	499,1914k internal	0,3156k external	0,3156temperature offset calibration	1,0000default loss term (dB/km)	0,3820temperature slope calibration	1,0000multiplexer offset coefficient	1,0000multiplexer slope coefficient	1,0000fibre end	0,00T internal ref (°C)	15,93T ext. ref 1 (°C)	-0,46T ext. ref 2 (°C)	-0,71length (m)	temperature (°C)	Stokes	anti-Stokes-744,400	54,073	0,045	0,032
-743,385	-4,901	-0,236	-0,120
-742,371	170,848	0,093	0,098
-741,356	46,239	-0,163	0,111
-740,342	33,888	0,133	0,085
-739,327	-134,088	-0,351	0,032
-738,312	23,282	-0,108	-0,065
-737,298	-115,332	-0,192	0,026
-736,283	376,124	0,057	-0,087
-735,269	-148,762	-0,258	0,015
-734,254	-109,168	0,106	-0,016
-733,239	-39,883	-0,474	-0,181
-732,225	-200,000	-0,012	0,050
-731,210	-106,370	-0,016	-0,003
-730,196	27,907	0,092	-0,057
-729,181	800,000	-0,026	0,074
-728,167	-5,662	-0,080	0,040
-727,152	-194,471	-0,030	-0,000
-726,137	-200,000	0,026	-0,164
-725,123	36,793	-0,062	-0,040
-724,108	-200,000	-0,034	-0,131
-723,094	-200,000	0,025	-0,179
-722,079	411,808	-0,083	-0,130
-721,064	543,238	-0,042	-0,074
-720,050	-96,844	-0,020	-0,004
-719,035	98,610	-0,067	-0,057
-718,021	-83,314	-0,078	-0,018
-717,006	800,000	0,034	-0,078
-715,991	43,671	-0,043	-0,029
-714,977	800,000	0,044	0,119
-713,962	17,655	-0,168	-0,098
-712,948	-200,000	-0,000	0,013
-711,933	83,729	0,030	0,024
-710,918	800,000	-0,036	-0,108
-709,904	-200,000	0,010	-0,047
-708,889	-200,000	-0,003	-0,169
-707,875	250,241	-0,162	-0,203
-706,860	-200,000	-0,045	0,166
-705,845	74,377	-0,094	0,073
-704,831	800,000	-0,011	-0,028
-703,816	66,735	0,019	-0,014
-702,802	-200,000	-0,003	0,087
-701,787	-141,083	-0,206	-0,015
-700,772	-200,000	-0,010	-0,110
-699,758	301,263	0,040	0,055
-698,743	-200,000	-0,029	-0,139
-697,729	353,121	-0,030	-0,044
-696,714	-137,670	0,142	-0,012
-695,699	-200,000	0,032	-0,118
-694,685	-200,000	-0,028	-0,127
-693,670	-200,000	0,009	-0,054
-692,656	-200,000	-0,041	-0,153
-691,641	772,556	0,050	0,100
-690,627	-45,717	0,100	0,036
-689,612	-200,000	0,034	-0,132
-688,597	-139,730	0,078	-0,006
-687,583	800,000	-0,039	-0,115
-686,568	-200,000	-0,003	-0,119
-685,554	-200,000	-0,012	-0,088
-684,539	399,795	-0,032	-0,050
-683,524	-200,000	0,028	-0,093
-682,510	222,600	-0,011	0,014
-681,495	361,740	-0,047	-0,070
-680,481	607,796	-0,051	-0,094
-679,466	-200,000	-0,013	-0,092
-678,451	357,609	-0,058	-0,085
-677,437	-95,843	-0,081	-0,016
-676,422	140,165	0,088	-0,085
-675,408	800,000	-0,059	0,159
-674,393	117,427	-0,054	-0,049
-673,378	97,010	0,101	-0,085
-672,364	270,351	-0,042	-0,054
-671,349	-76,639	-0,107	0,027
-670,335	-200,000	0,004	0,139
-669,320	274,219	-0,027	-0,035
-668,305	169,023	-0,096	0,101
-667,291	800,000	-0,031	0,065
-666,276	800,000	0,031	-0,086
-665,262	800,000	0,009	-0,019
-664,247	6,128	-0,075	-0,041
-663,232	-200,000	-0,021	-0,117
-662,218	-126,139	0,036	-0,004
-661,203	-200,000	0,014	-0,066
-660,189	800,000	0,028	0,085
-659,174	175,885	-0,025	-0,027
-658,159	-200,000	0,014	0,047
-657,145	242,910	-0,087	-0,108
-656,130	-200,000	0,013	-0,092
-655,116	689,588	-0,039	-0,076
-654,101	-127,260	0,053	0,006
-653,086	9,665	-0,178	-0,099
-652,072	800,000	0,034	-0,108
-651,057	-33,928	-0,095	-0,038
-650,043	-93,782	0,051	-0,010
-649,028	-200,000	-0,024	0,150
-648,014	-68,137	0,115	0,033
-646,999	17,608	-0,088	0,051
-645,984	-200,000	-0,011	0,081
-644,970	181,913	-0,106	-0,115
-643,955	-56,906	-0,149	-0,048
-642,941	-9,077	-0,186	0,091
-641,926	-2,134	0,049	-0,025
-640,911	-40,261	0,067	-0,025
-639,897	193,164	-0,028	0,031
-638,882	503,787	0,034	0,058
-637,868	800,000	-0,035	-0,096
-636,853	-180,716	-0,071	-0,001
-635,838	378,391	-0,046	-0,069
-634,824	-200,000	-0,013	-0,047
-633,809	-40,573	0,030	0,011
-632,795	-200,000	-0,008	-0,120
-631,780	800,000	0,039	-0,082
-630,765	423,525	0,058	0,091
-629,751	-117,265	-0,158	0,021
-628,736	410,943	-0,033	-0,052
-627,722	133,649	-0,098	-0,093
-626,707	800,000	-0,068	-0,147
-625,692	-182,288	-0,110	-0,001
-624,678	-200,000	-0,054	-0,179
-623,663	276,150	0,032	0,042
-622,649	22,682	-0,051	-0,031
-621,634	4,392	-0,119	-0,064
-620,619	-106,127	-0,068	0,011
-619,605	701,475	-0,093	-0,180
-618,590	299,104	0,111	-0,151
-617,576	-200,000	0,002	0,131
-616,561	-200,000	0,022	0,075
-615,546	800,000	0,073	-0,154
-614,532	-19,496	-0,065	-0,029
-613,517	28,170	0,081	-0,050
-612,503	800,000	-0,042	-0,125
-611,488	-150,559	-0,085	-0,005
-610,474	430,006	0,042	-0,066
-609,459	761,943	-0,062	0,124
-608,444	-61,959	-0,164	-0,050
-607,430	-82,902	0,100	0,023
-606,415	206,276	-0,223	-0,255
-605,401	25,560	0,071	-0,043
-604,386	-200,000	-0,015	-0,098
-603,371	25,024	0,123	0,074
-602,357	-72,215	-0,159	0,043
-601,342	-105,622	-0,147	0,024
-600,328	-140,712	-0,116	-0,009
-599,313	391,040	0,121	-0,184
-598,298	-200,000	-0,018	-0,061
-597,284	9,563	0,076	0,042
-596,269	-54,103	-0,058	-0,019
-595,255	-141,963	0,173	0,012
-594,240	-160,903	-0,044	0,002
-593,225	-200,000	0,003	-0,029
-592,211	-39,238	0,067	-0,026
-591,196	-134,681	0,036	-0,003
-590,182	800,000	0,016	0,033
-589,167	-131,835	0,105	0,010
-588,152	-41,489	-0,086	0,032
-587,138	800,000	0,026	-0,073
-586,123	96,420	-0,016	0,014
-585,109	-114,027	0,115	0,016
-584,094	352,123	0,016	-0,024
-583,079	800,000	0,013	0,041
-582,065	800,000	0,040	0,100
-581,050	800,000	-0,064	-0,178
-580,036	-200,000	-0,008	-0,034
-579,021	-22,269	-0,132	0,058
-578,006	-200,000	-0,006	-0,091
-576,992	32,582	-0,097	0,061
-575,977	-41,779	-0,077	0,029
-574,963	-19,692	-0,084	0,038
-573,948	800,000	0,030	0,087
-572,934	131,268	0,074	0,069
-571,919	-200,000	-0,003	0,042
-570,904	-54,998	0,043	0,014
-569,890	-200,000	0,005	-0,077
-568,875	-200,000	0,007	-0,076
-567,861	593,614	0,081	-0,147
-566,846	70,609	0,063	0,048
-565,831	-0,686	-0,105	-0,055
-564,817	57,887	0,118	-0,084
-563,802	-200,000	-0,007	-0,087
-562,788	-200,000	0,005	-0,058
-561,773	-200,000	-0,044	0,196
-560,758	36,332	-0,096	-0,062
-559,744	-53,480	0,069	0,023
-558,729	581,620	-0,084	0,152
-557,715	144,255	0,048	-0,047
-556,700	-4,876	-0,103	-0,052
-555,685	-7,637	-0,046	0,023
-554,671	-200,000	-0,004	0,095
-553,656	-200,000	0,050	0,171
-552,642	83,692	0,114	0,091
-551,627	637,125	-0,015	-0,028
-550,612	-18,063	-0,024	0,011
-549,598	314,541	-0,086	-0,118
-548,583	-200,000	0,005	-0,094
-547,569	-57,234	-0,049	-0,016
-546,554	16,971	0,033	-0,019
-545,539	-200,000	0,134	-0,000
-544,525	46,479	-0,109	0,074
-543,510	-18,045	-0,088	0,040
-542,496	117,820	0,031	-0,028
-541,481	1,729	-0,095	0,050
-540,466	-61,264	-0,101	-0,031
-539,452	96,472	0,115	0,097
-538,437	-200,000	0,031	0,139
-537,423	-59,488	0,034	-0,011
-536,408	800,000	-0,012	0,025
-535,393	800,000	-0,022	-0,047
-534,379	800,000	0,033	-0,074
-533,364	-141,289	0,197	-0,014
-532,350	-200,000	0,006	-0,030
-531,335	-200,000	0,007	0,053
-530,321	252,601	-0,081	-0,101
-529,306	-176,329	-0,037	0,001
-528,291	-200,000	0,006	-0,115
-527,277	-200,000	-0,030	-0,109
-526,262	537,269	0,028	-0,049
-525,248	45,682	0,049	-0,033
-524,233	800,000	-0,043	0,134
-523,218	-200,000	0,017	0,188
-522,204	800,000	0,063	0,147
-521,189	253,335	0,043	0,054
-520,175	-73,345	-0,255	-0,068
-519,160	-37,253	0,076	0,030
-518,145	-200,000	-0,021	-0,083
-517,131	144,245	-0,005	0,005
-516,116	-200,000	-0,002	0,049
-515,102	-200,000	-0,006	0,028
-514,087	544,154	-0,033	-0,057
-513,072	38,779	0,069	-0,045
-512,058	-200,000	0,004	-0,123
-511,043	-89,252	-0,089	0,019
-510,029	-2,867	0,051	0,026
-509,014	615,806	0,050	0,092
-507,999	3,783	-0,078	-0,042
-506,985	280,693	0,057	0,074
-505,970	-7,234	-0,107	-0,053
-504,956	-5,716	-0,022	-0,011
-503,941	14,578	-0,095	0,054
-502,926	-200,000	-0,008	-0,036
-501,912	-200,000	-0,018	0,080
-500,897	-118,033	0,107	0,014
-499,883	-147,647	-0,151	0,009
-498,868	-200,000	0,007	0,021
-497,853	-200,000	0,038	0,188
-496,839	261,545	-0,058	0,073
-495,824	494,079	0,043	-0,072
-494,810	800,000	0,009	-0,025
-493,795	-66,018	0,103	-0,030
-492,781	-92,173	0,094	-0,019
-491,766	50,657	0,054	-0,037
-490,751	187,613	-0,051	-0,055
-489,737	-12,848	0,090	0,043
-488,722	37,959	0,178	-0,115
-487,708	-200,000	-0,005	0,067
-486,693	64,310	0,132	0,097
-485,678	278,591	-0,067	0,087
-484,664	-46,576	-0,102	0,036
-483,649	-93,443	0,079	0,016
-482,635	800,000	0,040	0,112
-481,620	229,631	0,093	0,111
-480,605	-200,000	0,031	0,100
-479,591	-21,206	-0,110	0,049
-478,576	96,642	-0,059	-0,049
-477,562	306,569	-0,120	-0,164
-476,547	4,326	-0,087	-0,046
-475,532	-200,000	0,012	0,044
-474,518	800,000	0,013	0,029
-473,503	399,111	0,065	0,100
-472,489	79,726	-0,031	0,024
-471,474	457,665	0,013	0,022
-470,459	-45,757	-0,019	0,007
-469,445	746,344	0,057	0,112
-468,430	185,069	-0,009	0,010
-467,416	800,000	-0,031	0,087
-466,401	193,315	-0,033	0,036
-465,386	-200,000	-0,010	-0,086
-464,372	-2,045	0,076	0,039
-463,357	-30,051	0,077	0,032
-462,343	-25,761	-0,037	0,016
-461,328	550,281	-0,091	-0,160
-460,313	-35,550	0,087	-0,034
-459,299	190,318	-0,068	-0,074
-458,284	248,130	0,132	-0,163
-457,270	1,471	0,086	0,045
-456,255	-166,222	-0,080	0,002
-455,241	15,474	0,070	-0,040
-454,226	403,123	0,009	0,014
-453,211	800,000	0,027	-0,061
-452,197	-154,219	-0,160	-0,008
-451,182	-200,000	-0,020	0,080
-450,168	12,454	0,115	-0,064
-449,153	-200,000	-0,000	-0,064
-448,138	-136,521	-0,099	-0,008
-447,124	-200,000	-0,013	-0,045
-446,109	325,783	0,020	-0,028
-445,095	9,568	0,143	0,079
-444,080	-32,951	0,145	-0,058
-443,065	-66,917	0,046	0,013
-442,051	238,113	0,029	-0,035
-441,036	-200,000	-0,025	-0,093
-440,022	60,392	-0,107	-0,077
-439,007	155,740	0,045	0,045
-437,992	-200,000	-0,027	0,186
-436,978	96,594	-0,048	0,040
-435,963	-200,000	-0,029	0,103
-434,949	-179,387	-0,140	0,002
-433,934	-200,000	0,010	0,088
-432,919	-3,803	0,100	-0,051
-431,905	-25,197	0,039	-0,017
-430,890	-200,000	0,006	0,080
-429,876	-86,296	-0,060	-0,013
-428,861	12,323	0,059	-0,033
-427,846	52,692	-0,044	0,031
-426,832	108,077	0,034	-0,030
-425,817	-109,328	0,102	-0,016
-424,803	-200,000	0,004	0,079
-423,788	8,513	0,026	0,014
-422,773	-81,678	0,082	0,019
-421,759	147,494	-0,083	0,082
-420,744	-200,000	0,041	-0,144
-419,730	-200,000	0,006	-0,034
-418,715	800,000	-0,024	-0,063
-417,701	-200,000	-0,004	0,026
-416,686	204,223	0,064	0,072
-415,671	-200,000	-0,006	0,081
-414,657	85,135	0,065	-0,052
-413,642	-200,000	0,011	0,089
-412,628	800,000	-0,017	0,046
-411,613	137,410	-0,062	-0,059
-410,598	-36,884	-0,039	-0,015
-409,584	-113,570	0,025	-0,004
-408,569	30,082	0,199	0,123
-407,555	-76,657	0,095	-0,024
-406,540	-200,000	-0,004	-0,062
-405,525	156,225	0,065	0,066
-404,511	-117,281	0,058	-0,008
-403,496	-6,292	0,039	0,019
-402,482	-200,000	0,026	0,092
-401,467	11,913	0,052	0,029
-400,452	-79,110	0,050	0,012
-399,438	-200,000	0,041	0,188
-398,423	-90,350	-0,035	0,007
-397,409	800,000	0,044	-0,128
-396,394	28,198	0,056	-0,035
-395,379	-105,269	0,096	-0,016
-394,365	60,985	0,202	0,145
-393,350	-29,400	0,048	0,020
-392,336	246,439	0,062	0,076
-391,321	-200,000	-0,017	0,177
-390,306	-74,767	-0,106	-0,027
-389,292	166,980	-0,090	0,093
-388,277	-45,001	0,137	0,049
-387,263	800,000	-0,050	-0,147
-386,248	659,103	0,063	0,119
-385,233	-154,681	0,185	-0,009
-384,219	-200,000	-0,022	-0,086
-383,204	111,364	0,011	0,009
-382,190	-121,669	-0,148	-0,018
-381,175	800,000	0,026	-0,077
-380,160	148,881	0,127	0,125
-379,146	800,000	0,061	0,172
-378,131	-200,000	0,016	0,104
-377,117	576,857	-0,047	0,085
-376,102	123,067	-0,025	-0,023
-375,088	-200,000	0,097	0,000
-374,073	-200,000	-0,010	0,052
-373,058	-93,993	-0,099	-0,020
-372,044	-39,205	-0,046	-0,017
-371,029	800,000	-0,013	-0,028
-370,015	-105,799	-0,026	-0,004
-369,000	508,825	-0,039	0,065
-367,985	-111,258	-0,114	-0,017
-366,971	-23,386	0,082	-0,036
-365,956	-111,115	0,088	-0,013
-364,942	-82,382	0,053	0,012
-363,927	458,302	-0,037	0,060
-362,912	800,000	-0,020	0,041
-361,898	26,296	-0,142	-0,086
-360,883	-170,056	-0,075	-0,002
-359,869	800,000	0,060	-0,139
-358,854	-22,615	-0,088	-0,038
-357,839	-200,000	0,015	0,107
-356,825	-200,000	0,029	0,119
-355,810	150,303	0,041	0,040
-354,796	193,171	-0,017	-0,019
-353,781	0,606	-0,085	0,044
-352,766	223,282	-0,073	-0,086
-351,752	-117,904	-0,118	0,015
-350,737	-200,000	-0,002	0,054
-349,723	-200,000	-0,020	-0,110
-348,708	-200,000	0,004	-0,062
-347,693	626,074	-0,016	0,029
-346,679	800,000	-0,033	-0,076
-345,664	-115,586	0,060	0,008
-344,650	-118,508	0,125	-0,016
-343,635	-121,129	0,082	0,010
-342,620	222,931	0,078	0,091
-341,606	-200,000	0,001	0,034
-340,591	-200,000	-0,021	-0,089
-339,577	131,998	0,063	0,059
-338,562	-200,000	-0,024	-0,104
-337,548	800,000	-0,024	0,062
-336,533	-200,000	-0,003	0,093
-335,518	800,000	0,031	0,070
-334,504	-200,000	-0,020	0,154
-333,489	-126,443	-0,065	0,007
-332,475	123,518	0,045	0,041
-331,460	271,410	0,039	-0,050
-330,445	-26,974	-0,116	-0,049
-329,431	800,000	0,014	0,044
-328,416	431,344	0,048	0,075
-327,402	-106,660	0,181	0,029
-326,387	800,000	-0,028	0,079
-325,372	237,098	0,023	-0,028
-324,358	-200,000	-0,013	0,058
-323,343	-200,000	0,022	-0,079
-322,329	434,836	0,052	0,082
-321,314	-169,919	-0,044	0,001
-320,299	62,332	0,183	-0,132
-319,285	800,000	0,041	0,095
-318,270	-138,166	-0,069	-0,005
-317,256	373,057	-0,067	-0,099
-316,241	800,000	0,094	-0,204
-315,226	-200,000	-0,022	-0,085
-314,212	27,679	0,087	-0,053
-313,197	-76,152	0,033	-0,008
-312,183	-200,000	-0,023	0,106
-311,168	-22,812	0,075	0,033
-310,153	-119,089	0,044	-0,006
-309,139	92,695	-0,081	0,067
-308,124	-200,000	-0,006	-0,086
-307,110	800,000	0,029	-0,092
-306,095	361,731	-0,044	0,064
-305,080	-69,124	-0,100	0,028
-304,066	147,377	0,097	-0,095
-303,051	704,035	-0,020	0,039
-302,037	-32,505	-0,149	0,060
-301,022	-200,000	0,007	0,079
-300,008	800,000	-0,036	0,111
-298,993	754,833	-0,049	0,097
-297,978	-158,211	-0,100	0,004
-296,964	800,000	0,019	0,041
-295,949	-76,346	-0,157	0,040
-294,935	-200,000	-0,012	0,064
-293,920	800,000	0,066	0,140
-292,905	800,000	0,042	0,118
-291,891	159,786	-0,064	-0,065
-290,876	95,888	0,218	0,180
-289,862	-119,332	-0,084	0,010
-288,847	-200,000	0,019	-0,105
-287,832	107,229	0,059	-0,051
-286,818	-30,279	0,086	0,035
-285,803	800,000	-0,033	-0,086
-284,789	705,299	-0,085	0,164
-283,774	1,737	0,119	-0,062
-282,759	-200,000	0,025	-0,192
-281,745	800,000	-0,073	-0,183
-280,730	-115,821	-0,147	0,020
-279,716	227,633	0,053	-0,063
-278,701	-200,000	0,008	-0,050
-277,686	-200,000	0,012	0,113
-276,672	-53,081	0,053	-0,018
-275,657	42,639	0,024	0,016
-274,643	-144,006	0,097	0,007
-273,628	-200,000	-0,023	0,130
-272,613	396,869	-0,033	0,050
-271,599	23,008	0,033	-0,020
-270,584	-200,000	0,023	-0,083
-269,570	110,643	0,058	0,051
-268,555	-200,000	-0,015	-0,166
-267,540	651,664	0,071	-0,133
-266,526	-200,000	-0,052	-0,221
-265,511	-125,481	0,104	-0,011
-264,497	3,603	0,085	0,045
-263,482	149,717	0,118	0,116
-262,467	-200,000	0,001	0,004
-261,453	18,238	-0,111	0,064
-260,438	9,888	0,047	0,026
-259,424	800,000	-0,070	-0,143
-258,409	296,375	-0,076	-0,100
-257,395	-32,920	0,071	-0,029
-256,380	800,000	0,047	0,121
-255,365	86,850	0,114	-0,091
-254,351	-200,000	0,027	0,086
-253,336	116,415	0,110	0,098
-252,322	800,000	0,060	-0,127
-251,307	752,499	-0,052	-0,102
-250,292	106,871	-0,066	-0,057
-249,278	-11,250	0,079	0,037
-248,263	-35,550	0,046	0,018
-247,249	365,761	0,035	0,051
-246,234	-72,255	-0,070	0,019
-245,219	-200,000	-0,011	-0,087
-244,205	800,000	0,031	0,098
-243,190	-2,549	0,076	-0,038
-242,176	-109,779	-0,053	0,008
-241,161	30,250	0,054	-0,033
-240,146	436,117	0,050	0,079
-239,132	-125,445	0,179	-0,020
-238,117	413,277	-0,082	-0,126
-237,103	-93,334	0,044	0,009
-236,088	-200,000	-0,005	0,059
-235,073	-90,757	-0,084	0,017
-234,059	800,000	0,070	0,149
-233,044	-200,000	0,009	0,062
-232,030	-200,000	-0,019	-0,134
-231,015	-200,000	-0,030	0,103
-230,000	-32,814	-0,133	-0,053
-228,986	-36,437	-0,076	-0,029
-227,971	-200,000	-0,027	0,140
-226,957	-104,943	-0,036	0,006
-225,942	296,079	-0,068	0,090
-224,927	747,906	0,061	-0,120
-223,913	437,068	-0,060	-0,095
-222,898	80,681	0,031	0,024
-221,884	-84,456	0,067	0,015
-220,869	800,000	0,043	0,135
-219,855	33,387	-0,084	0,053
-218,840	-65,085	-0,077	0,022
-217,825	26,262	-0,029	0,018
-216,811	-108,430	-0,087	0,013
-215,796	745,685	0,024	-0,047
-214,782	-3,930	0,064	0,032
-213,767	48,295	-0,071	-0,048
-212,752	128,190	0,087	-0,080
-211,738	-200,000	0,024	-0,083
-210,723	-180,052	0,069	-0,001
-209,709	141,197	0,020	0,019
-208,694	169,273	0,040	0,042
-207,679	517,858	-0,053	0,089
-206,665	58,559	0,045	-0,032
-205,650	-116,317	-0,061	0,008
-204,636	-86,692	0,039	-0,008
-203,621	7,297	-0,097	0,052
-202,606	392,725	-0,058	0,087
-201,592	800,000	-0,028	0,057
-200,577	800,000	-0,030	-0,061
-199,563	-20,548	-0,149	0,066
-198,548	20,003	0,119	0,069
-197,533	-200,000	0,043	0,181
-196,519	93,670	-0,094	0,076
-195,504	77,700	-0,041	0,031
-194,490	-200,000	0,007	0,032
-193,475	-135,195	0,060	0,005
-192,460	-200,000	0,025	-0,113
-191,446	-25,973	-0,060	-0,025
-190,431	-200,000	-0,000	-0,002
-189,417	201,093	0,047	-0,053
-188,402	-200,000	-0,009	-0,029
-187,387	800,000	-0,035	-0,107
-186,373	-200,000	0,015	-0,141
-185,358	122,388	0,134	-0,121
-184,344	385,686	0,026	-0,039
-183,329	278,092	-0,114	-0,147
-182,315	99,937	-0,074	-0,062
-181,300	800,000	-0,085	-0,212
-180,285	-155,342	-0,149	-0,007
-179,271	395,551	0,092	-0,139
-178,256	78,706	0,035	-0,027
-177,242	-200,000	0,004	0,036
-176,227	-100,014	0,020	-0,004
-175,212	-179,137	-0,114	-0,002
-174,198	583,643	-0,085	-0,151
-173,183	800,000	0,058	-0,135
-172,169	800,000	-0,044	-0,118
-171,154	52,908	0,059	0,041
-170,139	-60,197	0,084	0,026
-169,125	375,129	0,051	0,076
-168,110	-102,656	0,015	0,003
-167,096	96,506	-0,059	0,049
-166,081	-162,052	-0,084	-0,003
-165,066	800,000	-0,033	-0,096
-164,052	-79,517	-0,170	-0,041
-163,037	-200,000	0,011	0,037
-162,023	-200,000	-0,002	0,030
-161,008	585,538	0,068	-0,122
-159,993	434,036	0,039	0,061
-158,979	138,302	-0,093	0,088
-157,964	-131,275	-0,165	0,016
-156,950	-200,000	-0,030	-0,129
-155,935	-200,000	-0,049	0,175
-154,920	11,011	0,026	0,014
-153,906	-67,226	-0,013	0,004
-152,891	-200,000	-0,014	-0,100
-151,877	-200,000	-0,006	-0,174
-150,862	580,159	0,097	-0,172
-149,847	800,000	0,008	-0,020
-148,833	75,994	-0,078	0,059
-147,818	-200,000	0,032	-0,113
-146,804	-200,000	0,003	0,094
-145,789	-88,036	-0,173	-0,037
-144,775	216,430	-0,088	-0,101
-143,760	-34,190	-0,202	-0,079
-142,745	-95,540	-0,032	0,006
-141,731	-126,067	0,019	0,002
-140,716	343,595	0,028	0,039
-139,702	-200,000	0,023	0,089
-138,687	53,720	0,108	-0,075
-137,672	800,000	0,039	0,095
-136,658	-200,000	0,003	0,033
-135,643	-200,000	0,026	-0,168
-134,629	-12,830	0,080	-0,037
-133,614	-200,000	-0,004	0,059
-132,599	699,268	0,066	0,126
-131,585	-200,000	-0,005	-0,056
-130,570	-200,000	-0,001	-0,079
-129,556	800,000	0,023	-0,051
-128,541	-200,000	-0,012	-0,075
-127,526	800,000	0,019	-0,045
-126,512	-118,689	-0,039	0,005
-125,497	450,729	0,060	-0,096
-124,483	-143,311	-0,007	0,000
-123,468	-200,000	0,026	0,085
-122,453	433,287	0,035	-0,055
-121,439	-200,000	0,026	-0,139
-120,424	-200,000	-0,031	-0,147
