DTS Sentinel unit serial number:	SN410029Multiplexer serial number:	ORYXHardware model number:	OX2-SRSoftware version number:	ORYX F/W v4,00 Oryx Data Collector v3.7.2.0data status	okinstallation	B5 Nyhavnadifferential loss correction	single-endedforward channel	channel 2reverse channel	N/Adate	2023/12/13time	05:27:13forward acquisition time	300,00reverse acquisition time	0,00gamma	499,1914k internal	0,3160k external	0,3160temperature offset calibration	1,0000default loss term (dB/km)	0,3820temperature slope calibration	1,0000multiplexer offset coefficient	1,0000multiplexer slope coefficient	1,0000fibre end	0,00T internal ref (°C)	13,87T ext. ref 1 (°C)	-2,58T ext. ref 2 (°C)	-2,90length (m)	temperature (°C)	Stokes	anti-Stokes-744,400	-120,067	0,089	0,011
-743,385	-114,561	-0,255	-0,036
-742,371	-101,763	0,073	-0,013
-741,356	-136,844	-0,327	0,027
-740,342	27,774	0,141	0,088
-739,327	-116,077	-0,166	-0,022
-738,312	251,721	0,037	0,047
-737,298	-195,199	-0,434	0,002
-736,283	-68,322	0,113	0,032
-735,269	-66,030	-0,265	0,077
-734,254	274,526	0,079	0,103
-733,239	-34,431	-0,476	-0,191
-732,225	-100,510	0,270	0,049
-731,210	211,835	-0,033	-0,039
-730,196	152,013	0,064	-0,064
-729,181	-71,965	-0,202	-0,055
-728,167	-200,000	-0,024	-0,107
-727,152	562,204	0,014	0,026
-726,137	185,709	0,052	0,057
-725,123	-200,000	0,017	-0,102
-724,108	-200,000	-0,021	-0,175
-723,094	14,074	-0,247	-0,141
-722,079	-154,783	-0,182	-0,009
-721,064	112,336	-0,094	-0,083
-720,050	-36,217	0,110	-0,044
-719,035	-33,593	-0,131	0,053
-718,021	30,831	0,041	-0,026
-717,006	-200,000	0,002	-0,125
-715,991	800,000	-0,016	-0,052
-714,977	800,000	-0,049	0,125
-713,962	-200,000	-0,003	0,048
-712,948	800,000	0,043	-0,124
-711,933	44,183	0,076	0,051
-710,918	-36,601	-0,128	0,050
-709,904	-200,000	0,023	0,084
-708,889	-115,953	-0,116	-0,016
-707,875	433,743	0,071	-0,114
-706,860	44,965	0,087	0,059
-705,845	62,355	-0,063	0,046
-704,831	800,000	-0,028	0,071
-703,816	436,971	0,103	-0,166
-702,802	84,233	-0,013	-0,011
-701,787	-73,292	-0,050	-0,013
-700,772	-200,000	-0,014	-0,066
-699,758	88,264	-0,020	0,016
-698,743	-200,000	0,024	-0,143
-697,729	800,000	0,012	0,033
-696,714	487,315	0,056	0,095
-695,699	-31,184	-0,164	-0,067
-694,685	66,283	-0,044	-0,033
-693,670	-90,941	-0,126	0,026
-692,656	8,247	0,074	0,041
-691,641	-200,000	-0,005	-0,032
-690,627	-200,000	0,002	0,165
-689,612	411,407	-0,042	-0,066
-688,597	800,000	0,035	-0,092
-687,583	7,889	-0,117	-0,064
-686,568	-90,974	0,026	-0,005
-685,554	15,700	-0,124	0,071
-684,539	4,646	0,221	0,119
-683,524	378,052	-0,052	0,078
-682,510	800,000	-0,034	-0,098
-681,495	-200,000	0,007	-0,042
-680,481	800,000	-0,013	-0,035
-679,466	23,158	-0,058	-0,035
-678,451	-180,421	-0,157	0,002
-677,437	800,000	0,031	0,086
-676,422	116,848	0,041	-0,037
-675,408	-133,332	-0,134	-0,012
-674,393	-106,207	0,053	0,009
-673,378	45,731	-0,059	0,040
-672,364	800,000	0,042	-0,101
-671,349	-200,000	-0,000	0,024
-670,335	39,851	0,066	-0,044
-669,320	-144,562	0,045	-0,003
-668,305	-200,000	-0,002	-0,017
-667,291	260,794	-0,102	-0,130
-666,276	-169,662	-0,047	-0,001
-665,262	333,177	-0,047	-0,067
-664,247	-200,000	-0,009	-0,095
-663,232	67,214	-0,103	0,077
-662,218	-108,790	0,039	-0,006
-661,203	-200,000	0,003	0,045
-660,189	173,896	-0,121	0,129
-659,174	49,784	0,060	-0,042
-658,159	13,798	-0,050	0,028
-657,145	486,171	-0,064	-0,107
-656,130	-85,124	0,051	0,012
-655,116	-152,420	0,191	-0,010
-654,101	-131,573	-0,157	-0,015
-653,086	68,916	0,025	0,019
-652,072	539,940	-0,071	-0,124
-651,057	480,369	0,071	-0,119
-650,043	-200,000	-0,013	-0,066
-649,028	-200,000	0,032	-0,118
-648,014	360,743	-0,041	-0,060
-646,999	-200,000	-0,001	0,032
-645,984	-159,373	-0,098	0,004
-644,970	-91,609	-0,040	0,008
-643,955	-200,000	-0,043	-0,154
-642,941	35,396	-0,095	-0,061
-641,926	-1,534	0,059	0,030
-640,911	4,398	0,111	-0,060
-639,897	70,047	0,023	0,018
-638,882	37,555	0,092	-0,060
-637,868	800,000	0,014	0,032
-636,853	-113,868	-0,123	0,017
-635,838	800,000	0,023	0,069
-634,824	166,745	-0,071	0,074
-633,809	-165,348	-0,049	-0,002
-632,795	109,701	-0,042	0,037
-631,780	800,000	-0,076	0,210
-630,765	-200,000	-0,011	0,071
-629,751	33,208	-0,024	-0,015
-628,736	-85,578	0,113	-0,025
-627,722	-97,638	0,074	-0,014
-626,707	-200,000	0,007	-0,086
-625,692	-19,551	-0,066	-0,030
-624,678	-200,000	0,011	0,078
-623,663	-200,000	-0,002	-0,058
-622,649	-7,442	0,032	-0,016
-621,634	-104,625	-0,160	-0,027
-620,619	-104,447	0,037	-0,006
-619,605	800,000	-0,016	0,040
-618,590	-143,189	0,043	-0,003
-617,576	800,000	0,031	0,091
-616,561	721,486	-0,023	0,046
-615,546	37,267	0,097	0,063
-614,532	-200,000	-0,002	-0,016
-613,517	39,817	-0,066	-0,043
-612,503	800,000	0,040	0,102
-611,488	-50,869	0,093	0,032
-610,474	512,456	0,099	0,170
-609,459	-200,000	0,006	0,046
-608,444	66,045	0,020	-0,015
-607,430	-53,742	-0,161	-0,054
-606,415	-156,125	-0,036	-0,002
-605,401	-33,758	0,038	0,015
-604,386	261,919	-0,043	-0,055
-603,371	-39,410	0,138	0,053
-602,357	232,330	0,070	0,084
-601,342	42,303	0,028	-0,019
-600,328	-8,831	0,047	-0,023
-599,313	-200,000	-0,027	-0,114
-598,298	800,000	0,038	-0,101
-597,284	-96,231	0,081	0,016
-596,269	557,391	0,035	0,062
-595,255	-94,590	-0,112	-0,022
-594,240	-200,000	0,098	0,000
-593,225	-200,000	-0,029	0,097
-592,211	-112,945	0,102	0,015
-591,196	800,000	-0,043	-0,101
-590,182	-40,810	0,082	0,031
-589,167	-200,000	-0,009	0,056
-588,152	-14,970	-0,041	0,019
-587,138	120,464	0,044	0,040
-586,123	-200,000	-0,011	-0,108
-585,109	613,396	-0,038	-0,070
-584,094	408,494	-0,027	0,042
-583,079	48,065	0,159	-0,109
-582,065	-102,768	0,053	-0,009
-581,050	-200,000	0,003	0,049
-580,036	232,848	0,033	0,040
-579,021	481,521	-0,021	-0,035
-578,006	-200,000	-0,025	-0,127
-576,992	-200,000	0,019	-0,139
-575,977	186,568	0,069	-0,075
-574,963	800,000	0,055	0,149
-573,948	-200,000	0,001	0,067
-572,934	800,000	0,021	0,063
-571,919	72,153	-0,052	0,040
-570,904	800,000	0,038	-0,106
-569,890	491,126	-0,063	0,106
-568,875	5,250	0,052	-0,028
-567,861	23,318	0,095	0,057
-566,846	325,375	0,089	0,125
-565,831	-32,760	-0,083	-0,034
-564,817	93,773	0,055	-0,046
-563,802	800,000	-0,028	-0,075
-562,788	-200,000	-0,015	-0,071
-561,773	97,278	0,077	-0,064
-560,758	165,245	0,045	0,047
-559,744	-86,529	0,086	0,019
-558,729	256,037	-0,060	0,076
-557,715	184,074	-0,084	0,091
-556,700	-200,000	-0,003	0,089
-555,685	-76,312	-0,071	-0,018
-554,671	200,778	-0,094	-0,106
-553,656	56,180	0,035	-0,025
-552,642	-200,000	0,025	-0,118
-551,627	202,283	-0,137	-0,155
-550,612	-200,000	0,021	-0,081
-549,598	568,194	-0,021	0,037
-548,583	-200,000	-0,003	-0,166
-547,569	11,680	0,142	0,079
-546,554	-200,000	-0,012	0,121
-545,539	-184,055	0,082	0,001
-544,525	90,077	0,117	-0,095
-543,510	84,535	-0,162	-0,129
-542,496	800,000	-0,015	-0,044
-541,481	-117,750	-0,188	-0,024
-540,466	-200,000	0,000	0,057
-539,452	-200,000	-0,008	-0,128
-538,437	-200,000	0,017	-0,123
-537,423	-60,983	0,221	0,068
-536,408	-85,232	0,106	-0,024
-535,393	-200,000	-0,015	-0,147
-534,379	423,054	-0,095	-0,149
-533,364	-200,000	0,001	-0,112
-532,350	570,120	-0,058	-0,104
-531,335	75,041	0,049	-0,037
-530,321	26,754	0,047	-0,028
-529,306	45,298	0,090	0,060
-528,291	93,812	0,070	-0,058
-527,277	4,161	-0,170	-0,090
-526,262	-200,000	-0,001	-0,079
-525,248	299,560	0,017	-0,023
-524,233	-200,000	-0,056	0,000
-523,218	19,180	-0,106	0,062
-522,204	482,789	-0,075	-0,125
-521,189	-83,413	0,120	0,028
-520,175	-200,000	0,012	0,098
-519,160	-200,000	-0,009	0,060
-518,145	800,000	-0,022	0,052
-517,131	736,050	0,092	0,182
-516,116	40,422	0,115	-0,075
-515,102	-200,000	0,000	-0,028
-514,087	284,223	-0,082	0,108
-513,072	104,683	-0,105	0,090
-512,058	-200,000	0,026	-0,196
-511,043	800,000	0,010	-0,028
-510,029	9,099	0,034	-0,019
-509,014	-95,064	0,030	-0,006
-507,999	-200,000	0,011	0,066
-506,985	98,597	-0,042	-0,036
-505,970	-77,894	-0,076	0,019
-504,956	-128,243	0,124	-0,013
-503,941	-149,978	-0,154	0,009
-502,926	-200,000	-0,002	-0,049
-501,912	84,715	0,132	-0,105
-500,897	594,052	0,014	-0,026
-499,883	-105,194	0,057	0,009
-498,868	-29,705	0,042	-0,018
-497,853	-200,000	-0,012	0,064
-496,839	228,190	0,077	-0,091
-495,824	-200,000	-0,007	0,024
-494,810	-200,000	0,012	0,141
-493,795	574,163	0,063	0,112
-492,781	-139,364	-0,140	-0,011
-491,766	-140,199	-0,088	0,007
-490,751	800,000	0,044	0,097
-489,737	111,729	-0,081	-0,072
-488,722	-200,000	0,023	0,095
-487,708	-21,509	0,114	-0,051
-486,693	191,048	0,027	-0,030
-485,678	800,000	-0,047	0,108
-484,664	-70,388	-0,111	-0,030
-483,649	-200,000	-0,018	0,106
-482,635	302,029	0,021	-0,028
-481,620	800,000	0,022	0,060
-480,605	0,170	0,030	0,015
-479,591	662,949	-0,034	0,064
-478,576	-104,428	-0,134	-0,022
-477,562	49,632	-0,045	-0,031
-476,547	-200,000	0,022	-0,134
-475,532	13,843	0,105	-0,060
-474,518	-4,165	-0,085	-0,043
-473,503	-12,950	0,037	-0,017
-472,489	800,000	0,018	0,040
-471,474	-200,000	-0,011	0,076
-470,459	141,178	-0,104	-0,100
-469,445	11,620	-0,041	-0,023
-468,430	162,475	0,027	-0,028
-467,416	-200,000	-0,006	-0,054
-466,401	800,000	0,054	-0,131
-465,386	-200,000	0,004	0,062
-464,372	16,957	0,044	0,025
-463,357	75,936	-0,036	-0,028
-462,343	800,000	-0,052	0,115
-461,328	432,751	0,026	-0,041
-460,313	-200,000	-0,015	0,054
-459,299	197,607	-0,059	0,065
-458,284	-41,753	0,145	0,054
-457,270	-200,000	0,009	-0,035
-456,255	-200,000	0,004	-0,081
-455,241	-153,449	-0,132	0,007
-454,226	-75,958	0,112	0,029
-453,211	800,000	-0,030	0,084
-452,197	-76,925	0,094	0,024
-451,182	-147,588	-0,135	-0,008
-450,168	-110,625	0,103	0,015
-449,153	115,730	-0,070	-0,063
-448,138	150,854	-0,150	-0,148
-447,124	-25,318	-0,018	-0,008
-446,109	-200,000	0,006	0,080
-445,095	-56,019	0,112	-0,036
-444,080	-137,101	-0,120	0,010
-443,065	59,723	0,075	0,054
-442,051	21,677	-0,121	-0,072
-441,036	92,891	-0,029	0,024
-440,022	-200,000	0,002	-0,022
-439,007	-20,427	0,016	-0,007
-437,992	-101,038	-0,129	0,023
-436,978	426,887	0,065	0,102
-435,963	-200,000	0,018	0,095
-434,949	-85,111	-0,047	-0,011
-433,934	-200,000	-0,001	-0,024
-432,919	800,000	-0,043	-0,134
-431,905	-200,000	0,013	-0,064
-430,890	-160,753	-0,044	-0,002
-429,876	196,477	0,042	0,047
-428,861	-145,320	0,044	-0,003
-427,846	-107,803	-0,052	-0,008
-426,832	77,276	0,119	-0,092
-425,817	431,077	0,046	0,073
-424,803	379,835	0,089	-0,134
-423,788	303,010	-0,046	-0,062
-422,773	2,076	-0,088	0,046
-421,759	459,321	0,039	0,063
-420,744	800,000	0,037	0,101
-419,730	-200,000	0,016	-0,142
-418,715	34,762	-0,142	0,090
-417,701	-22,127	-0,112	-0,049
-416,686	-200,000	0,006	0,056
-415,671	800,000	0,027	0,077
-414,657	307,311	-0,029	-0,039
-413,642	445,508	-0,058	-0,093
-412,628	208,964	-0,027	0,031
-411,613	157,549	-0,029	-0,029
-410,598	-200,000	-0,007	-0,024
-409,584	401,098	0,067	0,103
-408,569	-64,643	-0,024	0,007
-407,555	800,000	-0,009	-0,022
-406,540	278,013	0,097	0,126
-405,525	-200,000	0,034	-0,130
-404,511	800,000	-0,063	-0,165
-403,496	318,579	-0,063	-0,087
-402,482	117,286	-0,025	-0,022
-401,467	800,000	0,037	0,093
-400,452	221,668	-0,036	0,042
-399,438	800,000	-0,023	0,063
-398,423	11,408	-0,091	-0,050
-397,409	-130,759	-0,214	-0,021
-396,394	-110,513	0,040	0,006
-395,379	72,397	0,113	0,085
-394,365	-116,864	0,024	0,003
-393,350	-200,000	0,007	0,154
-392,336	800,000	0,054	-0,120
-391,321	-200,000	0,008	-0,079
-390,306	-200,000	0,004	-0,016
-389,292	-31,880	0,086	-0,035
-388,277	45,767	0,013	-0,009
-387,263	-91,558	0,169	0,035
-386,248	501,566	0,071	0,120
-385,233	800,000	-0,046	0,106
-384,219	73,168	0,069	0,053
-383,204	-200,000	-0,028	-0,157
-382,190	7,633	-0,096	-0,052
-381,175	239,214	-0,086	0,104
-380,160	24,663	0,071	-0,043
-379,146	-200,000	0,015	0,085
-378,131	-61,850	-0,110	0,033
-377,117	586,805	0,048	0,086
-376,102	-148,811	-0,164	0,009
-375,088	251,430	-0,069	-0,085
-374,073	-82,081	-0,064	-0,015
-373,058	106,944	0,037	0,032
-372,044	-200,000	-0,001	0,114
-371,029	-90,139	0,067	-0,014
-370,015	753,359	-0,036	0,071
-369,000	-6,254	0,105	0,052
-367,985	-200,000	0,022	-0,091
-366,971	283,165	-0,044	0,057
-365,956	-79,885	0,206	-0,050
-364,942	800,000	-0,030	-0,061
-363,927	-200,000	0,002	0,016
-362,912	71,726	0,086	-0,065
-361,898	292,333	-0,104	0,138
-360,883	126,021	-0,024	-0,022
-359,869	-200,000	0,024	-0,094
-358,854	-105,509	-0,094	0,015
-357,839	36,623	0,169	0,108
-356,825	-96,186	-0,119	0,023
-355,810	31,343	0,054	-0,034
-354,796	-200,000	0,002	-0,023
-353,781	-136,879	-0,065	-0,005
-352,766	313,967	-0,075	-0,103
-351,752	-191,357	0,096	-0,001
-350,737	65,827	0,062	-0,045
-349,723	136,756	-0,081	0,076
-348,708	171,955	0,067	0,070
-347,693	-122,121	0,076	0,009
-346,679	15,235	-0,066	-0,037
-345,664	-200,000	-0,001	-0,070
-344,650	223,995	0,040	0,048
-343,635	9,371	-0,048	0,026
-342,620	-200,000	-0,006	-0,101
-341,606	-184,595	0,120	0,001
-340,591	-88,443	-0,198	-0,042
-339,577	-200,000	0,003	0,014
-338,562	338,226	-0,069	0,098
-337,548	129,341	-0,142	0,131
-336,533	627,932	0,096	0,176
-335,518	-58,239	0,070	0,022
-334,504	10,223	0,059	0,032
-333,489	-200,000	-0,004	0,106
-332,475	800,000	-0,029	-0,075
-331,460	42,835	-0,116	0,076
-330,445	90,258	0,050	0,041
-329,431	800,000	0,028	0,074
-328,416	-200,000	-0,022	0,120
-327,402	207,866	0,080	0,091
-326,387	-200,000	-0,033	-0,129
-325,372	-40,632	-0,051	-0,019
-324,358	4,833	-0,090	-0,048
-323,343	240,385	-0,033	-0,040
-322,329	800,000	-0,023	0,071
-321,314	-13,791	-0,162	0,076
-320,299	-200,000	-0,003	0,112
-319,285	92,981	0,112	0,092
-318,270	-24,255	-0,103	-0,044
-317,256	-200,000	0,000	-0,006
-316,241	642,163	0,059	0,109
-315,226	203,823	-0,101	0,113
-314,212	-9,757	0,048	-0,023
-313,197	178,156	0,028	-0,030
-312,183	24,553	0,127	0,076
-311,168	-200,000	-0,022	-0,109
-310,153	23,306	0,050	-0,030
-309,139	-136,302	-0,113	-0,009
-308,124	28,384	0,048	0,029
-307,110	85,632	0,026	-0,021
-306,095	-139,762	-0,214	-0,016
-305,080	298,048	0,068	-0,090
-304,066	306,464	-0,109	-0,147
-303,051	-74,860	0,089	-0,023
-302,037	137,835	-0,053	-0,050
-301,022	-89,165	-0,014	0,003
-300,008	331,236	-0,086	-0,120
-298,993	443,780	0,037	0,058
-297,978	800,000	-0,031	0,068
-296,964	731,951	0,058	-0,112
-295,949	-200,000	-0,041	-0,133
-294,935	83,412	-0,056	-0,044
-293,920	144,988	0,121	-0,117
-292,905	800,000	-0,020	0,046
-291,891	-200,000	0,004	0,102
-290,876	-78,354	-0,069	-0,017
-289,862	215,311	-0,087	-0,100
-288,847	341,484	0,093	-0,133
-287,832	-200,000	0,040	-0,147
-286,818	-174,438	0,087	-0,002
-285,803	151,215	-0,051	0,050
-284,789	-200,000	-0,014	-0,084
-283,774	-22,422	-0,024	-0,010
-282,759	39,565	-0,103	-0,067
-281,745	330,024	-0,024	0,033
-280,730	526,983	0,044	0,076
-279,716	138,804	0,082	-0,078
-278,701	-107,833	-0,072	0,011
-277,686	472,237	-0,032	-0,053
-276,672	-200,000	-0,011	0,097
-275,657	-100,651	0,072	-0,013
-274,643	-200,000	0,029	-0,172
-273,628	-200,000	-0,011	0,104
-272,613	-1,598	-0,175	-0,089
-271,599	393,374	0,059	0,089
-270,584	-149,016	0,114	-0,007
-269,570	-71,451	-0,033	-0,009
-268,555	-200,000	-0,037	-0,130
-267,540	24,392	-0,114	-0,068
-266,526	35,724	-0,071	0,045
-265,511	522,257	-0,047	0,081
-264,497	264,070	0,023	0,029
-263,482	68,355	-0,073	-0,054
-262,467	-181,395	0,026	-0,000
-261,453	800,000	-0,022	0,068
-260,438	118,377	-0,094	0,084
-259,424	800,000	0,041	-0,117
-258,409	42,788	0,014	0,009
-257,395	439,513	-0,016	0,026
-256,380	743,684	0,049	0,095
-255,365	-116,909	0,039	-0,005
-254,351	124,442	0,063	-0,057
-253,336	-101,102	-0,097	-0,017
-252,322	-130,459	-0,078	-0,007
-251,307	-200,000	0,003	-0,052
-250,292	37,045	0,036	0,023
-249,278	15,471	0,027	-0,015
-248,263	-200,000	-0,015	0,094
-247,249	-98,423	0,070	-0,013
-246,234	-76,908	-0,158	-0,040
-245,219	800,000	-0,017	0,038
-244,205	-126,005	0,145	0,016
-243,190	239,251	0,052	0,063
-242,176	70,643	-0,108	0,081
-241,161	-77,711	0,044	-0,011
-240,146	72,960	-0,094	0,071
-239,132	-116,699	-0,067	-0,009
-238,117	-200,000	0,016	-0,063
-237,103	-200,000	-0,009	-0,172
-236,088	800,000	-0,013	-0,039
-235,073	-130,910	0,076	0,007
-234,059	-20,827	0,094	0,042
-233,044	-200,000	-0,001	0,020
-232,030	-109,737	0,198	0,030
-231,015	800,000	0,022	-0,054
-230,000	800,000	-0,037	-0,092
-228,986	96,032	0,045	-0,037
-227,971	335,457	0,017	0,024
-226,957	-200,000	0,007	0,142
-225,942	-200,000	-0,001	0,113
-224,927	800,000	0,025	0,072
-223,913	13,114	0,031	-0,018
-222,898	800,000	0,036	-0,086
-221,884	-200,000	-0,005	0,062
-220,869	800,000	0,075	-0,167
-219,855	-105,996	0,140	0,023
-218,840	-200,000	-0,034	0,225
-217,825	11,590	0,093	0,052
-216,811	-196,390	-0,044	-0,000
-215,796	-103,931	0,140	-0,023
-214,782	148,416	0,004	0,004
-213,767	510,363	-0,071	0,119
-212,752	-200,000	-0,003	0,073
-211,738	3,431	0,019	-0,010
-210,723	-200,000	-0,002	0,128
-209,709	-45,970	-0,160	-0,057
-208,694	110,349	-0,008	0,007
-207,679	800,000	-0,011	0,027
-206,665	-200,000	0,000	0,091
-205,650	191,506	-0,127	0,138
-204,636	-200,000	-0,029	0,156
-203,621	-171,029	-0,075	0,002
-202,606	-8,342	-0,046	-0,022
-201,592	218,292	-0,065	-0,075
-200,577	-200,000	0,007	-0,098
-199,563	581,150	0,045	-0,080
-198,548	-200,000	0,008	0,083
-197,533	31,245	0,076	0,047
-196,519	160,353	0,096	-0,097
-195,504	-83,788	-0,155	0,035
-194,490	-184,853	0,078	0,001
-193,475	-77,241	-0,233	-0,058
-192,460	-200,000	0,004	0,207
-191,446	438,388	0,072	-0,114
-190,431	800,000	-0,013	-0,028
-189,417	20,203	0,109	0,063
-188,402	554,310	0,036	-0,062
-187,387	-152,379	0,132	-0,007
-186,373	-200,000	0,004	0,153
-185,358	-117,340	0,012	0,002
-184,344	-36,488	0,121	0,047
-183,329	-2,315	0,062	-0,031
-182,315	-200,000	-0,052	-0,267
-181,300	-15,964	0,098	0,045
-180,285	-200,000	0,015	0,160
-179,271	258,306	0,018	-0,023
-178,256	-200,000	0,005	0,031
-177,242	-33,987	0,137	0,054
-176,227	-36,270	0,029	0,011
-175,212	122,000	-0,061	0,055
-174,198	-200,000	-0,000	0,058
-173,183	343,975	0,045	-0,064
-172,169	-102,189	-0,058	-0,010
-171,154	-200,000	0,004	-0,049
-170,139	159,756	-0,059	0,059
-169,125	-200,000	0,033	0,117
-168,110	-181,044	0,023	0,000
-167,096	-200,000	-0,001	0,063
-166,081	-200,000	-0,004	-0,067
-165,066	-200,000	-0,003	-0,169
-164,052	800,000	0,018	-0,046
-163,037	71,346	0,098	-0,073
-162,023	115,355	0,034	0,030
-161,008	-200,000	-0,015	-0,052
-159,993	-40,162	0,133	0,050
-158,979	-104,270	-0,098	0,016
-157,964	-106,362	-0,100	-0,016
-156,950	174,550	0,077	0,081
-155,935	-107,738	-0,020	0,003
-154,920	-77,242	-0,066	-0,016
-153,906	-86,798	-0,111	-0,024
-152,891	161,225	0,050	0,050
-151,877	82,298	0,033	0,026
-150,862	134,034	-0,012	-0,011
-149,847	240,959	-0,063	-0,075
-148,833	800,000	-0,047	0,114
-147,818	800,000	0,027	-0,081
-146,804	-143,949	0,074	0,005
-145,789	43,926	0,116	-0,076
-144,775	74,203	0,155	-0,117
-143,760	-200,000	0,017	-0,055
-142,745	-54,253	0,078	0,025
-141,731	349,648	-0,031	-0,044
-140,716	268,091	0,131	-0,166
-139,702	-200,000	0,027	0,126
-138,687	20,664	0,219	0,127
-137,672	-200,000	0,021	-0,098
-136,658	236,829	-0,041	-0,048
-135,643	800,000	0,017	-0,043
-134,629	571,131	-0,012	-0,021
-133,614	306,005	0,092	-0,123
-132,599	225,192	-0,043	0,051
-131,585	-200,000	0,011	0,065
-130,570	-200,000	-0,019	0,062
-129,556	305,319	0,042	-0,056
-128,541	120,939	0,084	-0,075
-127,526	-200,000	0,001	-0,120
-126,512	4,086	-0,095	-0,050
-125,497	800,000	-0,031	0,096
-124,483	800,000	-0,044	0,114
-123,468	-89,618	-0,061	-0,013
-122,453	-98,643	-0,115	-0,021
-121,439	-200,000	-0,011	-0,072
-120,424	-38,374	0,145	0,055
-119,410	-66,790	-0,036	0,010
