DTS Sentinel unit serial number:	SN410029Multiplexer serial number:	ORYXHardware model number:	OX2-SRSoftware version number:	ORYX F/W v4,00 Oryx Data Collector v3.7.2.0data status	okinstallation	B5 Nyhavnadifferential loss correction	single-endedforward channel	channel 2reverse channel	N/Adate	2023/12/14time	16:42:13forward acquisition time	300,00reverse acquisition time	0,00gamma	499,1914k internal	0,3157k external	0,3157temperature offset calibration	1,0000default loss term (dB/km)	0,3820temperature slope calibration	1,0000multiplexer offset coefficient	1,0000multiplexer slope coefficient	1,0000fibre end	0,00T internal ref (°C)	8,05T ext. ref 1 (°C)	-7,44T ext. ref 2 (°C)	-7,47length (m)	temperature (°C)	Stokes	anti-Stokes-744,400	800,000	0,036	-0,112
-743,385	-86,711	-0,377	-0,084
-742,371	184,592	0,179	0,196
-741,356	-105,392	-0,326	-0,054
-740,342	184,130	0,232	0,253
-739,327	-136,765	-0,327	-0,027
-738,312	25,018	0,069	0,042
-737,298	-21,434	-0,276	-0,124
-736,283	800,000	0,091	0,189
-735,269	-136,026	-0,322	-0,028
-734,254	-200,000	0,046	0,177
-733,239	-51,747	-0,569	-0,194
-732,225	251,002	0,124	0,156
-731,210	321,575	-0,068	0,096
-730,196	303,308	-0,005	-0,007
-729,181	-200,000	-0,022	-0,171
-728,167	261,323	0,000	-0,001
-727,152	-200,000	-0,004	-0,024
-726,137	323,159	-0,089	0,125
-725,123	-200,000	-0,001	-0,006
-724,108	90,891	-0,055	-0,045
-723,094	800,000	-0,072	-0,162
-722,079	290,800	0,027	0,036
-721,064	87,523	0,072	-0,058
-720,050	-82,440	0,065	0,015
-719,035	-134,360	0,007	-0,001
-718,021	800,000	-0,014	-0,039
-717,006	-137,543	-0,236	0,019
-715,991	-190,027	-0,012	0,000
-714,977	130,450	-0,011	-0,011
-713,962	410,960	0,018	0,029
-712,948	-200,000	-0,029	0,218
-711,933	-200,000	0,033	0,127
-710,918	-25,190	-0,036	0,015
-709,904	-152,133	-0,061	0,003
-708,889	305,627	0,042	-0,057
-707,875	-6,493	-0,129	-0,064
-706,860	-123,366	-0,097	-0,011
-705,845	754,597	-0,037	-0,075
-704,831	-90,967	-0,154	-0,032
-703,816	-133,242	-0,073	0,007
-702,802	487,535	-0,104	-0,176
-701,787	156,262	0,040	-0,041
-700,772	363,536	-0,018	-0,027
-699,758	6,247	-0,060	0,033
-698,743	-146,304	0,154	-0,010
-697,729	-112,580	-0,071	0,010
-696,714	-200,000	-0,004	0,088
-695,699	211,849	-0,021	-0,024
-694,685	-74,857	-0,153	-0,040
-693,670	94,611	-0,117	-0,098
-692,656	800,000	0,045	0,143
-691,641	726,530	0,019	-0,037
-690,627	-200,000	-0,014	0,069
-689,612	421,015	-0,020	-0,031
-688,597	-55,073	0,115	-0,038
-687,583	-40,664	-0,255	-0,097
-686,568	-200,000	0,014	-0,048
-685,554	284,579	0,069	-0,092
-684,539	-67,765	-0,062	-0,018
-683,524	14,800	0,095	0,055
-682,510	-54,991	-0,152	0,050
-681,495	219,367	-0,042	0,050
-680,481	-60,084	0,070	0,022
-679,466	800,000	-0,051	-0,144
-678,451	-200,000	0,027	-0,136
-677,437	-102,891	-0,159	-0,028
-676,422	-165,137	0,220	0,007
-675,408	800,000	0,045	0,115
-674,393	800,000	0,046	-0,144
-673,378	-54,660	-0,099	-0,033
-672,364	800,000	-0,049	-0,146
-671,349	217,037	0,063	-0,073
-670,335	526,946	0,043	0,075
-669,320	-200,000	-0,013	-0,055
-668,305	-168,255	-0,086	0,002
-667,291	800,000	-0,032	0,088
-666,276	-26,976	-0,073	-0,031
-665,262	22,479	-0,054	-0,033
-664,247	677,276	0,086	-0,164
-663,232	-120,638	0,041	-0,005
-662,218	102,450	0,167	-0,144
-661,203	-126,264	0,126	0,014
-660,189	505,831	-0,042	-0,072
-659,174	-150,232	-0,073	0,004
-658,159	-200,000	-0,054	-0,203
-657,145	-200,000	-0,022	-0,200
-656,130	6,487	0,116	-0,063
-655,116	-58,586	-0,053	0,017
-654,101	45,130	-0,058	-0,039
-653,086	116,702	-0,033	0,030
-652,072	-200,000	-0,018	-0,137
-651,057	-200,000	0,050	-0,182
-650,043	145,746	-0,069	0,068
-649,028	-200,000	-0,012	-0,044
-648,014	472,678	-0,075	-0,124
-646,999	-200,000	0,000	-0,022
-645,984	-200,000	-0,005	0,030
-644,970	-6,087	-0,165	0,082
-643,955	238,838	-0,036	0,044
-642,941	-170,596	0,109	-0,003
-641,926	-200,000	0,006	-0,051
-640,911	-29,507	0,102	-0,043
-639,897	-54,246	0,076	0,025
-638,882	555,416	-0,047	-0,083
-637,868	7,119	-0,094	0,052
-636,853	25,299	-0,105	-0,064
-635,838	-200,000	0,003	-0,055
-634,824	6,559	0,075	-0,041
-633,809	64,618	-0,107	-0,079
-632,795	800,000	0,072	0,190
-631,780	-83,764	-0,168	-0,039
-630,765	-122,762	0,059	0,007
-629,751	24,817	-0,025	-0,015
-628,736	72,637	-0,095	-0,073
-627,722	-200,000	0,003	0,103
-626,707	-200,000	0,009	0,053
-625,692	-64,450	-0,061	0,018
-624,678	23,714	-0,082	0,049
-623,663	-162,398	0,097	0,003
-622,649	-200,000	0,005	-0,018
-621,634	91,863	-0,082	0,068
-620,619	794,786	-0,046	0,093
-619,605	-64,510	0,103	0,031
-618,590	800,000	0,011	-0,026
-617,576	-200,000	0,022	0,072
-616,561	-200,000	-0,024	-0,114
-615,546	470,097	0,028	-0,047
-614,532	42,410	-0,138	-0,092
-613,517	709,771	-0,046	-0,089
-612,503	-188,042	0,189	-0,002
-611,488	-8,710	0,152	0,075
-610,474	-200,000	-0,002	0,027
-609,459	-101,795	0,052	-0,009
-608,444	382,800	0,034	-0,052
-607,430	800,000	-0,036	-0,090
-606,415	128,281	-0,062	-0,058
-605,401	193,559	0,035	-0,039
-604,386	4,379	0,043	0,023
-603,371	-59,921	0,046	-0,014
-602,357	-21,243	-0,050	-0,022
-601,342	278,467	-0,086	-0,113
-600,328	20,749	0,139	-0,082
-599,313	546,518	-0,059	-0,104
-598,298	121,165	-0,063	-0,058
-597,284	-59,481	0,159	-0,050
-596,269	169,889	0,086	0,090
-595,255	-47,346	-0,010	0,003
-594,240	89,846	0,041	-0,033
-593,225	265,207	-0,070	-0,089
-592,211	503,351	0,028	0,047
-591,196	100,698	0,071	-0,060
-590,182	-104,221	0,024	0,004
-589,167	6,881	0,094	0,051
-588,152	398,799	0,021	-0,032
-587,138	-70,197	-0,095	0,026
-586,123	-151,027	-0,139	-0,008
-585,109	76,596	-0,055	-0,043
-584,094	645,467	-0,023	0,044
-583,079	20,860	0,020	0,012
-582,065	800,000	0,022	0,044
-581,050	38,762	-0,065	-0,042
-580,036	517,517	0,058	-0,100
-579,021	190,213	-0,093	-0,102
-578,006	-19,327	0,086	0,039
-576,992	-81,895	-0,073	0,017
-575,977	-120,160	-0,116	-0,014
-574,963	-101,966	0,150	-0,026
-573,948	396,739	0,023	-0,036
-572,934	-56,285	0,040	-0,013
-571,919	-130,436	-0,061	0,006
-570,904	177,066	0,048	0,051
-569,890	-32,470	0,107	0,043
-568,875	-200,000	-0,008	0,044
-567,861	629,035	0,011	0,020
-566,846	708,070	0,016	0,032
-565,831	800,000	-0,009	-0,022
-564,817	-163,817	-0,129	0,004
-563,802	-109,760	-0,021	-0,003
-562,788	-107,346	-0,154	0,025
-561,773	46,825	0,127	-0,086
-560,758	-0,169	0,088	-0,046
-559,744	438,812	0,030	0,048
-558,729	-200,000	-0,027	-0,193
-557,715	122,833	-0,022	-0,020
-556,700	508,654	-0,060	-0,103
-555,685	-41,294	0,094	0,035
-554,671	265,507	-0,074	0,095
-553,656	193,652	0,031	-0,034
-552,642	125,843	0,122	0,113
-551,627	201,946	-0,057	0,065
-550,612	800,000	0,034	-0,085
-549,598	800,000	-0,070	-0,150
-548,583	800,000	0,036	-0,082
-547,569	-200,000	0,007	0,106
-546,554	219,625	0,116	-0,136
-545,539	-22,424	0,095	0,042
-544,525	-200,000	0,032	0,191
-543,510	21,080	-0,015	-0,009
-542,496	213,267	-0,088	0,102
-541,481	160,056	-0,080	-0,081
-540,466	10,036	-0,119	0,066
-539,452	-200,000	-0,024	0,187
-538,437	40,949	0,119	0,079
-537,423	34,575	-0,093	-0,059
-536,408	-163,597	-0,152	-0,005
-535,393	800,000	0,044	-0,089
-534,379	800,000	-0,035	-0,077
-533,364	350,953	0,103	0,149
-532,350	45,117	0,046	0,031
-531,335	119,752	0,052	0,047
-530,321	73,520	0,039	0,030
-529,306	-138,009	-0,128	-0,010
-528,291	129,385	-0,078	-0,073
-527,277	-11,700	-0,162	-0,077
-526,262	-133,428	-0,028	0,003
-525,248	-10,819	0,079	0,038
-524,233	134,738	0,069	-0,066
-523,218	-107,414	0,031	-0,005
-522,204	-200,000	-0,019	-0,102
-521,189	28,012	-0,099	0,061
-520,175	-200,000	0,007	0,039
-519,160	62,127	0,079	0,058
-518,145	-121,702	0,105	-0,013
-517,131	800,000	-0,039	-0,084
-516,116	106,986	0,066	0,058
-515,102	201,491	-0,049	0,055
-514,087	295,781	-0,041	-0,056
-513,072	-200,000	-0,019	-0,084
-512,058	-4,294	0,069	0,035
-511,043	400,528	0,094	0,145
-510,029	177,444	-0,068	0,073
-509,014	45,208	-0,177	0,119
-507,999	429,556	0,062	0,098
-506,985	800,000	0,041	-0,094
-505,970	-101,502	-0,087	0,015
-504,956	-66,472	-0,071	0,021
-503,941	543,766	-0,041	0,071
-502,926	-200,000	0,015	-0,060
-501,912	182,352	-0,018	-0,020
-500,897	-200,000	0,037	0,133
-499,883	56,214	-0,078	-0,055
-498,868	-110,731	-0,060	-0,009
-497,853	-200,000	-0,018	0,069
-496,839	-200,000	-0,006	-0,030
-495,824	332,977	0,030	0,042
-494,810	-140,473	0,101	-0,008
-493,795	-96,840	0,051	0,010
-492,781	-5,292	-0,163	-0,081
-491,766	443,405	0,033	-0,053
-490,751	-200,000	0,030	-0,146
-489,737	-94,764	-0,074	-0,015
-488,722	585,778	0,070	0,126
-487,708	100,508	0,034	-0,028
-486,693	-68,166	-0,096	-0,027
-485,678	112,482	0,058	-0,051
-484,664	-200,000	0,026	-0,223
-483,649	193,662	-0,020	0,022
-482,635	-121,606	-0,024	0,003
-481,620	-200,000	-0,020	-0,071
-480,605	800,000	0,023	-0,066
-479,591	372,673	0,075	-0,112
-478,576	-70,613	-0,115	0,032
-477,562	298,037	0,020	0,027
-476,547	-200,000	-0,005	0,058
-475,532	398,075	-0,066	0,101
-474,518	146,580	0,085	0,083
-473,503	-32,225	-0,100	0,041
-472,489	163,870	0,042	0,043
-471,474	-200,000	-0,041	0,149
-470,459	91,291	0,074	0,061
-469,445	71,020	-0,104	-0,079
-468,430	-38,498	-0,166	-0,064
-467,416	58,438	0,040	-0,028
-466,401	-32,404	0,102	0,041
-465,386	611,597	-0,017	0,031
-464,372	424,975	-0,093	-0,147
-463,357	-72,748	0,034	0,009
-462,343	153,366	-0,102	-0,102
-461,328	-200,000	0,022	0,080
-460,313	-125,209	-0,068	0,008
-459,299	-149,718	0,080	-0,005
-458,284	154,766	-0,116	0,116
-457,270	198,899	0,090	0,101
-456,255	-105,807	0,066	-0,011
-455,241	622,878	-0,069	-0,127
-454,226	-200,000	-0,013	-0,050
-453,211	153,017	0,071	-0,070
-452,197	87,086	-0,077	-0,062
-451,182	523,893	0,018	0,031
-450,168	-34,175	-0,067	-0,027
-449,153	-200,000	-0,013	0,044
-448,138	-200,000	0,023	-0,097
-447,124	449,841	-0,043	0,069
-446,109	800,000	-0,010	-0,026
-445,095	-33,976	0,065	-0,026
-444,080	140,371	0,103	0,099
-443,065	246,724	0,043	0,053
-442,051	-37,087	0,016	0,006
-441,036	-200,000	0,031	-0,109
-440,022	800,000	-0,044	-0,126
-439,007	115,540	0,060	-0,053
-437,992	-90,378	-0,087	0,018
-436,978	-23,331	0,075	-0,033
-435,963	63,163	0,043	-0,032
-434,949	-53,163	0,039	0,013
-433,934	109,406	-0,055	0,048
-432,919	430,027	-0,043	-0,069
-431,905	-140,114	-0,033	-0,002
-430,890	-114,130	0,075	0,010
-429,876	194,127	0,063	-0,069
-428,861	-200,000	0,012	-0,065
-427,846	-200,000	-0,051	-0,197
-426,832	-6,224	0,020	-0,010
-425,817	800,000	-0,018	0,040
-424,803	564,564	0,034	0,060
-423,788	-87,634	0,109	0,024
-422,773	-118,108	0,148	-0,019
-421,759	-34,382	0,045	0,018
-420,744	370,563	0,117	0,174
-419,730	-15,053	0,046	-0,021
-418,715	-78,128	-0,046	-0,011
-417,701	-200,000	-0,010	0,125
-416,686	468,629	0,140	-0,230
-415,671	11,846	0,041	0,023
-414,657	-200,000	-0,002	0,089
-413,642	-200,000	-0,006	0,127
-412,628	800,000	-0,048	-0,130
-411,613	800,000	-0,034	0,082
-410,598	0,285	-0,099	0,051
-409,584	-122,538	0,175	0,020
-408,569	-200,000	0,006	0,098
-407,555	800,000	-0,046	0,129
-406,540	229,575	0,018	0,022
-405,525	-136,787	-0,086	-0,007
-404,511	221,773	0,066	-0,077
-403,496	-52,026	0,122	-0,041
-402,482	-10,527	-0,153	0,073
-401,467	-58,746	0,040	-0,013
-400,452	71,148	0,058	0,044
-399,438	-200,000	-0,003	0,095
-398,423	208,346	-0,177	0,202
-397,409	-200,000	-0,033	-0,134
-396,394	-18,946	0,094	0,042
-395,379	-200,000	-0,008	0,058
-394,365	-34,513	-0,125	-0,049
-393,350	103,578	0,101	0,086
-392,336	-8,367	-0,125	-0,061
-391,321	53,180	-0,044	-0,031
-390,306	72,064	0,051	0,039
-389,292	-200,000	0,010	0,037
-388,277	83,279	-0,044	-0,035
-387,263	89,472	0,104	-0,084
-386,248	243,661	0,068	0,084
-385,233	76,351	-0,071	-0,054
-384,219	43,353	0,122	0,081
-383,204	-200,000	0,015	-0,068
-382,190	139,990	0,066	0,063
-381,175	-96,800	-0,066	0,012
-380,160	800,000	-0,042	0,125
-379,146	-200,000	-0,004	0,152
-378,131	288,292	-0,036	0,048
-377,117	-200,000	0,033	0,132
-376,102	-200,000	-0,009	-0,081
-375,088	-200,000	-0,032	-0,139
-374,073	800,000	0,029	-0,071
-373,058	-97,303	0,050	0,009
-372,044	-128,662	0,063	-0,006
-371,029	-56,655	-0,047	-0,015
-370,015	-200,000	0,013	0,065
-369,000	-200,000	0,028	-0,095
-367,985	800,000	-0,052	-0,138
-366,971	25,988	0,072	0,044
-365,956	363,670	0,038	0,055
-364,942	-27,276	0,056	0,023
-363,927	359,027	0,059	0,086
-362,912	-113,370	-0,105	-0,015
-361,898	36,447	0,093	-0,060
-360,883	-200,000	0,001	-0,026
-359,869	727,137	-0,083	-0,161
-358,854	615,023	-0,030	-0,055
-357,839	-0,320	0,068	-0,035
-356,825	-200,000	0,008	-0,112
-355,810	281,526	0,049	-0,063
-354,796	79,320	-0,104	-0,081
-353,781	800,000	0,012	0,036
-352,766	609,556	-0,027	-0,048
-351,752	187,792	-0,057	0,062
-350,737	186,899	-0,037	0,041
-349,723	-125,722	0,105	-0,011
-348,708	-200,000	-0,023	0,142
-347,693	-63,242	-0,148	-0,044
-346,679	22,954	0,059	-0,035
-345,664	33,871	-0,044	-0,028
-344,650	-200,000	0,019	0,165
-343,635	126,768	0,103	-0,095
-342,620	-162,151	0,196	0,007
-341,606	800,000	0,024	0,059
-340,591	800,000	0,032	-0,083
-339,577	800,000	-0,045	-0,129
-338,562	-200,000	-0,005	-0,079
-337,548	-200,000	-0,004	-0,013
-336,533	332,592	0,042	0,059
-335,518	800,000	0,032	0,066
-334,504	207,868	-0,026	-0,030
-333,489	800,000	0,008	-0,017
-332,475	-200,000	0,004	-0,044
-331,460	-200,000	-0,003	-0,103
-330,445	800,000	0,006	-0,014
-329,431	-68,481	-0,068	-0,019
-328,416	-40,141	-0,139	0,052
-327,402	220,259	-0,131	0,152
-326,387	-200,000	-0,013	-0,048
-325,372	226,633	-0,058	-0,069
-324,358	-176,979	0,061	-0,001
-323,343	-200,000	-0,002	-0,055
-322,329	62,828	-0,024	-0,018
-321,314	800,000	-0,028	0,084
-320,299	-58,836	0,052	0,016
-319,285	-25,582	-0,060	0,026
-318,270	800,000	-0,033	-0,068
-317,256	30,191	-0,095	-0,058
-316,241	-148,605	0,052	-0,003
-315,226	-7,951	0,050	-0,024
-314,212	100,106	0,205	0,172
-313,197	-200,000	0,027	0,095
-312,183	-53,904	-0,042	-0,014
-311,168	-200,000	0,007	-0,134
-310,153	106,675	0,058	-0,050
-309,139	-200,000	0,029	0,102
-308,124	-200,000	-0,021	0,103
-307,110	86,277	0,016	0,013
-306,095	-45,878	0,008	0,003
-305,080	-200,000	-0,004	0,025
-304,066	-200,000	0,044	-0,000
-303,051	-46,476	-0,089	0,032
-302,037	370,412	0,004	0,006
-301,022	44,795	-0,141	-0,094
-300,008	-1,155	0,103	-0,053
-298,993	269,203	-0,072	0,091
-297,978	-103,008	-0,074	0,013
-296,964	44,066	0,094	0,062
-295,949	59,730	-0,039	-0,028
-294,935	464,709	0,073	0,119
-293,920	56,857	-0,074	-0,052
-292,905	-148,066	0,243	0,014
-291,891	800,000	0,087	0,190
-290,876	-200,000	0,017	-0,058
-289,862	-165,133	0,031	-0,001
-288,847	763,288	-0,110	-0,216
-287,832	-200,000	0,028	-0,109
-286,818	800,000	0,034	0,097
-285,803	68,272	0,072	-0,053
-284,789	334,596	-0,077	0,109
-283,774	489,048	0,056	-0,093
-282,759	-23,326	-0,052	-0,023
-281,745	493,572	0,065	-0,109
-280,730	-176,008	0,053	0,001
-279,716	619,980	-0,052	-0,094
-278,701	-71,660	0,089	0,024
-277,686	800,000	0,030	-0,062
-276,672	474,913	-0,030	0,049
-275,657	113,699	0,067	-0,059
-274,643	46,628	-0,109	-0,073
-273,628	-200,000	-0,012	0,046
-272,613	-72,222	-0,043	0,011
-271,599	-40,175	-0,075	0,028
-270,584	-200,000	-0,032	0,152
-269,570	-53,469	0,085	0,028
-268,555	-71,514	0,052	0,014
-267,540	-23,868	-0,123	-0,053
-266,526	-25,855	-0,035	-0,015
-265,511	-200,000	0,006	0,040
-264,497	189,677	0,048	-0,052
-263,482	800,000	-0,042	0,127
-262,467	-147,037	-0,120	-0,007
-261,453	-200,000	0,011	0,080
-260,438	800,000	-0,065	0,136
-259,424	438,498	0,017	-0,027
-258,409	273,790	0,092	0,118
-257,395	800,000	-0,008	0,021
-256,380	-200,000	0,012	0,075
-255,365	-161,030	-0,165	0,006
-254,351	344,178	-0,027	-0,038
-253,336	-95,941	-0,097	0,018
-252,322	-55,374	0,067	-0,022
-251,307	-200,000	0,026	0,095
-250,292	21,317	-0,077	0,045
-249,278	63,369	-0,049	-0,036
-248,263	-82,394	0,040	-0,009
-247,249	800,000	0,047	-0,112
-246,234	-200,000	-0,029	-0,110
-245,219	561,515	-0,044	-0,078
-244,205	262,372	-0,075	0,094
-243,190	-6,267	0,094	0,046
-242,176	-92,997	0,070	0,014
-241,161	601,567	0,040	0,073
-240,146	459,129	0,038	-0,061
-239,132	-35,410	-0,112	0,044
-238,117	-108,951	-0,131	-0,020
-237,103	-114,951	0,015	0,002
-236,088	-200,000	-0,024	-0,124
-235,073	-140,165	-0,077	-0,006
-234,059	3,977	0,117	0,061
-233,044	-200,000	0,014	-0,072
-232,030	645,877	0,048	-0,089
-231,015	-200,000	-0,011	-0,094
-230,000	-200,000	0,003	0,080
-228,986	138,939	-0,076	0,072
-227,971	70,035	-0,161	-0,120
-226,957	242,867	0,054	-0,065
-225,942	521,053	-0,021	0,035
-224,927	800,000	-0,029	-0,073
-223,913	787,723	-0,068	-0,135
-222,898	138,774	0,017	0,016
-221,884	282,675	-0,028	-0,036
-220,869	-33,077	0,096	0,038
-219,855	800,000	0,066	-0,132
-218,840	96,811	-0,017	-0,014
-217,825	108,781	-0,070	0,060
-216,811	800,000	-0,029	-0,075
-215,796	-110,631	-0,083	0,012
-214,782	-146,261	0,090	-0,006
-213,767	-200,000	-0,004	0,023
-212,752	200,798	0,087	0,097
-211,738	-200,000	0,018	0,064
-210,723	449,479	0,080	0,128
-209,709	373,262	0,043	-0,063
-208,694	64,907	-0,019	0,014
-207,679	800,000	-0,043	-0,108
-206,665	18,850	-0,056	-0,032
-205,650	-200,000	0,017	0,185
-204,636	8,875	-0,052	-0,028
-203,621	-200,000	0,006	-0,026
-202,606	358,670	-0,086	0,124
-201,592	-87,724	0,169	0,037
-200,577	-132,917	-0,203	-0,018
-199,563	-200,000	-0,012	0,103
-198,548	267,912	0,046	-0,058
-197,533	486,612	-0,029	-0,048
-196,519	800,000	-0,034	-0,081
-195,504	55,090	0,043	0,030
-194,490	-24,117	-0,097	-0,042
-193,475	-83,919	0,125	-0,029
-192,460	-200,000	0,022	0,079
-191,446	-83,628	0,075	-0,017
-190,431	69,635	0,078	0,058
-189,417	-102,382	-0,126	-0,022
-188,402	337,133	0,064	-0,089
-187,387	599,546	-0,031	-0,056
-186,373	138,589	-0,103	0,098
-185,358	-200,000	0,047	0,167
-184,344	303,218	0,067	0,089
-183,329	188,004	-0,054	-0,058
-182,315	119,842	-0,017	-0,015
-181,300	800,000	0,036	0,091
-180,285	-159,451	-0,104	-0,004
-179,271	-59,890	0,079	0,024
-178,256	-200,000	0,041	0,145
-177,242	37,637	0,064	0,041
-176,227	66,437	0,238	0,174
-175,212	103,497	-0,014	0,012
-174,198	-200,000	-0,005	-0,070
-173,183	800,000	0,035	-0,095
-172,169	800,000	-0,016	0,037
-171,154	-10,590	-0,043	0,020
-170,139	800,000	-0,022	-0,060
-169,125	302,725	0,026	0,034
-168,110	601,776	-0,072	0,129
-167,096	800,000	0,039	0,103
-166,081	-17,666	0,011	0,005
-165,066	-139,728	0,033	-0,002
-164,052	-1,979	-0,073	0,037
-163,037	-200,000	-0,002	-0,055
-162,023	-200,000	0,024	0,153
-161,008	-200,000	-0,008	0,091
-159,993	48,309	-0,054	-0,037
-158,979	-200,000	-0,023	-0,145
-157,964	-200,000	0,022	-0,075
-156,950	-121,545	0,060	0,007
-155,935	-200,000	0,000	-0,012
-154,920	-57,233	0,053	0,017
-153,906	-146,873	0,158	-0,010
-152,891	-62,808	-0,125	0,037
-151,877	-120,397	-0,166	-0,020
-150,862	763,824	0,017	0,034
-149,847	138,947	-0,098	-0,093
-148,833	-16,385	-0,070	-0,032
-147,818	-200,000	0,046	-0,180
-146,804	565,193	0,065	0,114
-145,789	-73,848	-0,180	0,047
-144,775	-79,523	0,049	0,012
-143,760	-84,599	-0,056	0,013
-142,745	-200,000	0,015	0,136
-141,731	800,000	0,013	0,031
-140,716	295,341	0,027	-0,035
-139,702	800,000	0,053	0,107
-138,687	-181,903	-0,139	0,002
-137,672	-200,000	-0,021	0,144
-136,658	224,819	-0,075	0,088
-135,643	-200,000	0,027	-0,093
-134,629	-200,000	-0,002	-0,120
-133,614	56,743	0,023	-0,016
-132,599	-200,000	-0,027	0,119
-131,585	-81,524	0,105	-0,025
-130,570	-200,000	0,026	-0,124
-129,556	796,565	-0,034	0,067
-128,541	406,733	0,130	-0,198
-127,526	112,025	0,126	-0,109
-126,512	11,688	0,056	0,031
-125,497	-89,220	0,099	0,021
-124,483	188,456	-0,067	0,073
-123,468	205,781	-0,009	0,010
-122,453	-110,831	-0,068	-0,010
-121,439	706,980	-0,026	-0,050
-120,424	354,316	-0,068	-0,098
-119,410	-77,888	0,081	-0,020
