DTS Sentinel unit serial number:	SN410029Multiplexer serial number:	ORYXHardware model number:	OX2-SRSoftware version number:	ORYX F/W v4,00 Oryx Data Collector v3.7.2.0data status	okinstallation	B5 Nyhavnadifferential loss correction	single-endedforward channel	channel 2reverse channel	N/Adate	2023/12/11time	17:57:13forward acquisition time	300,00reverse acquisition time	0,00gamma	499,1914k internal	0,3162k external	0,3162temperature offset calibration	1,0000default loss term (dB/km)	0,3820temperature slope calibration	1,0000multiplexer offset coefficient	1,0000multiplexer slope coefficient	1,0000fibre end	0,00T internal ref (°C)	14,95T ext. ref 1 (°C)	-0,52T ext. ref 2 (°C)	-0,77length (m)	temperature (°C)	Stokes	anti-Stokes-744,400	-102,675	0,087	0,015
-743,385	-149,264	-0,386	0,022
-742,371	-200,000	-0,010	0,175
-741,356	-25,091	-0,327	0,142
-740,342	-98,627	0,193	-0,036
-739,327	-39,423	-0,423	0,163
-738,312	-95,440	0,080	-0,016
-737,298	-127,526	-0,304	0,032
-736,283	-72,638	0,126	-0,034
-735,269	-137,825	-0,241	-0,020
-734,254	57,623	0,077	-0,055
-733,239	-46,044	-0,516	-0,186
-732,225	-76,604	0,150	-0,038
-731,210	800,000	-0,017	-0,048
-730,196	-200,000	0,011	-0,061
-729,181	-200,000	-0,048	-0,181
-728,167	30,042	0,159	-0,100
-727,152	30,335	-0,106	0,066
-726,137	-67,597	-0,082	0,023
-725,123	346,122	0,069	-0,101
-724,108	25,679	-0,195	-0,119
-723,094	494,544	-0,131	-0,221
-722,079	-200,000	0,015	0,048
-721,064	166,029	-0,018	0,019
-720,050	361,977	-0,062	-0,092
-719,035	358,848	-0,062	-0,091
-718,021	-60,247	-0,091	-0,028
-717,006	106,489	-0,175	-0,152
-715,991	-200,000	-0,022	-0,148
-714,977	-144,079	-0,120	0,008
-713,962	-143,698	-0,076	0,005
-712,948	161,506	0,088	-0,090
-711,933	-106,909	-0,060	0,010
-710,918	98,658	-0,053	0,045
-709,904	-200,000	0,008	-0,168
-708,889	235,072	-0,103	0,125
-707,875	-67,019	0,008	-0,002
-706,860	87,904	0,045	-0,037
-705,845	-200,000	0,020	0,075
-704,831	-200,000	0,005	0,040
-703,816	-175,853	-0,103	0,002
-702,802	-145,921	0,045	-0,003
-701,787	54,512	-0,082	0,058
-700,772	800,000	0,019	-0,049
-699,758	-27,505	-0,085	-0,036
-698,743	-200,000	0,000	-0,032
-697,729	149,626	0,063	0,063
-696,714	-200,000	0,011	0,046
-695,699	198,306	-0,113	-0,127
-694,685	-200,000	-0,042	-0,149
-693,670	301,094	-0,027	-0,036
-692,656	800,000	0,042	-0,087
-691,641	251,859	-0,046	-0,057
-690,627	5,803	0,085	0,046
-689,612	106,744	-0,130	0,113
-688,597	800,000	0,036	0,101
-687,583	-200,000	0,004	0,041
-686,568	-136,262	-0,058	-0,005
-685,554	21,026	-0,074	-0,044
-684,539	-6,644	-0,111	0,055
-683,524	554,793	-0,040	0,070
-682,510	23,516	0,093	-0,056
-681,495	7,545	-0,047	-0,026
-680,481	51,962	-0,107	0,075
-679,466	-200,000	0,006	-0,023
-678,451	800,000	-0,046	-0,095
-677,437	-200,000	-0,008	-0,035
-676,422	192,190	0,043	-0,047
-675,408	149,848	-0,031	0,030
-674,393	9,310	0,029	0,016
-673,378	-88,189	-0,080	0,018
-672,364	800,000	-0,081	-0,170
-671,349	72,619	0,055	-0,042
-670,335	-24,531	-0,019	0,008
-669,320	67,915	-0,076	-0,057
-668,305	353,772	-0,053	-0,078
-667,291	409,846	0,067	-0,104
-666,276	-200,000	0,019	-0,177
-665,262	-118,048	-0,111	0,014
-664,247	-200,000	0,012	-0,164
-663,232	-200,000	0,012	0,160
-662,218	577,492	-0,065	0,117
-661,203	64,293	0,082	0,060
-660,189	103,253	-0,056	-0,048
-659,174	284,996	-0,016	0,021
-658,159	-200,000	0,024	-0,089
-657,145	-200,000	-0,017	-0,067
-656,130	268,237	-0,022	0,028
-655,116	-23,000	-0,072	0,032
-654,101	-23,385	-0,134	-0,059
-653,086	-174,714	-0,108	0,002
-652,072	-62,418	0,003	0,001
-651,057	-9,737	0,161	-0,078
-650,043	-181,953	-0,155	-0,002
-649,028	34,843	-0,016	0,010
-648,014	86,799	-0,065	0,052
-646,999	-167,076	-0,146	-0,004
-645,984	-71,391	-0,066	0,018
-644,970	-200,000	0,028	-0,097
-643,955	192,506	-0,078	-0,086
-642,941	265,634	-0,091	-0,117
-641,926	467,650	-0,041	-0,067
-640,911	-200,000	0,003	0,030
-639,897	26,892	-0,002	0,001
-638,882	71,832	-0,037	-0,028
-637,868	-181,714	-0,122	0,002
-636,853	270,516	-0,049	0,063
-635,838	-0,660	0,084	-0,044
-634,824	62,158	-0,094	-0,068
-633,809	-191,129	0,080	-0,001
-632,795	343,211	0,036	0,052
-631,780	-117,527	0,038	0,005
-630,765	102,902	-0,027	0,023
-629,751	-200,000	0,004	-0,021
-628,736	-200,000	0,010	-0,065
-627,722	-200,000	0,028	-0,153
-626,707	-200,000	0,005	-0,027
-625,692	-200,000	0,023	0,105
-624,678	-200,000	0,016	-0,072
-623,663	368,202	0,043	-0,064
-622,649	52,873	-0,052	-0,036
-621,634	97,139	-0,093	-0,078
-620,619	-4,057	0,166	-0,084
-619,605	157,464	0,051	-0,052
-618,590	153,041	-0,126	-0,126
-617,576	230,344	-0,044	0,052
-616,561	-81,521	0,039	0,009
-615,546	-200,000	-0,011	-0,150
-614,532	-0,815	-0,096	-0,050
-613,517	-200,000	0,001	0,007
-612,503	-170,339	0,037	-0,001
-611,488	5,978	0,063	0,034
-610,474	-46,533	0,031	0,011
-609,459	-86,462	-0,159	-0,035
-608,444	756,202	0,056	0,111
-607,430	800,000	-0,017	-0,051
-606,415	-87,582	0,068	0,015
-605,401	-200,000	0,010	-0,112
-604,386	-133,349	0,114	0,010
-603,371	523,166	-0,041	-0,072
-602,357	-70,959	-0,014	-0,004
-601,342	-76,054	0,086	0,022
-600,328	-200,000	0,015	0,061
-599,313	117,001	-0,061	0,055
-598,298	-200,000	0,005	0,023
-597,284	-200,000	0,027	0,154
-596,269	5,464	-0,025	-0,013
-595,255	-200,000	0,004	-0,101
-594,240	-200,000	-0,014	-0,079
-593,225	220,002	-0,070	-0,082
-592,211	649,139	-0,074	0,139
-591,196	615,948	0,070	0,130
-590,182	-113,598	0,174	0,025
-589,167	17,066	0,044	-0,026
-588,152	800,000	-0,027	-0,072
-587,138	800,000	-0,022	0,060
-586,123	47,210	-0,102	-0,069
-585,109	197,936	0,097	-0,108
-584,094	-78,207	-0,060	-0,015
-583,079	800,000	0,036	0,094
-582,065	-200,000	0,029	0,149
-581,050	67,917	-0,040	-0,030
-580,036	-200,000	-0,016	-0,069
-579,021	-95,941	0,087	0,017
-578,006	104,206	-0,032	-0,027
-576,992	-88,814	-0,082	0,018
-575,977	234,595	0,039	0,047
-574,963	-200,000	0,025	0,084
-573,948	84,218	0,095	0,076
-572,934	-200,000	-0,003	0,054
-571,919	-14,042	0,051	-0,024
-570,904	800,000	-0,022	-0,062
-569,890	-52,492	-0,111	0,037
-568,875	34,345	0,044	0,028
-567,861	18,632	-0,010	-0,006
-566,846	-7,264	0,144	0,071
-565,831	83,363	0,143	0,114
-564,817	-4,520	-0,088	0,044
-563,802	308,202	-0,073	-0,100
-562,788	-200,000	-0,038	0,147
-561,773	7,794	-0,072	0,039
-560,758	134,368	0,058	0,055
-559,744	800,000	-0,034	-0,086
-558,729	-200,000	-0,007	0,051
-557,715	-200,000	0,003	-0,139
-556,700	-24,958	0,095	-0,041
-555,685	-200,000	-0,018	-0,063
-554,671	-131,665	0,037	0,004
-553,656	112,634	0,093	-0,082
-552,642	-126,888	0,051	0,005
-551,627	661,095	0,005	-0,010
-550,612	46,345	0,084	-0,057
-549,598	-5,885	-0,137	-0,068
-548,583	93,137	-0,028	-0,023
-547,569	-123,604	-0,109	-0,012
-546,554	-39,058	0,068	-0,026
-545,539	-89,456	0,014	0,003
-544,525	-104,946	-0,082	-0,014
-543,510	213,883	0,088	-0,102
-542,496	85,313	-0,089	-0,071
-541,481	129,157	-0,110	-0,103
-540,466	44,057	0,070	-0,047
-539,452	45,291	-0,098	-0,066
-538,437	800,000	0,029	0,060
-537,423	-200,000	-0,004	0,092
-536,408	-172,721	0,041	0,001
-535,393	800,000	0,024	-0,065
-534,379	-200,000	0,004	0,075
-533,364	295,968	0,092	-0,123
-532,350	24,945	0,096	0,058
-531,335	-165,547	0,019	0,001
-530,321	164,025	-0,067	0,069
-529,306	646,293	-0,057	0,106
-528,291	374,026	0,031	-0,046
-527,277	-200,000	-0,007	-0,079
-526,262	512,403	-0,078	-0,133
-525,248	31,559	-0,058	-0,036
-524,233	109,762	0,119	0,104
-523,218	219,457	-0,047	-0,055
-522,204	51,063	0,082	0,057
-521,189	-173,891	-0,084	0,002
-520,175	-200,000	-0,011	0,039
-519,160	34,391	-0,074	0,047
-518,145	-83,026	0,122	0,028
-517,131	800,000	-0,032	0,093
-516,116	-200,000	0,005	0,132
-515,102	189,529	0,007	0,007
-514,087	-1,363	-0,079	0,041
-513,072	-59,251	-0,068	-0,021
-512,058	-44,745	-0,106	0,039
-511,043	228,566	-0,036	0,043
-510,029	-200,000	0,012	0,081
-509,014	-200,000	0,011	0,152
-507,999	-148,325	-0,069	-0,004
-506,985	115,926	0,072	0,064
-505,970	-93,400	0,070	0,014
-504,956	78,804	-0,100	-0,078
-503,941	-200,000	0,011	-0,127
-502,926	190,502	-0,053	0,058
-501,912	-67,670	0,046	0,013
-500,897	-200,000	-0,004	-0,098
-499,883	800,000	-0,064	-0,156
-498,868	-200,000	-0,007	-0,131
-497,853	-138,228	0,070	-0,006
-496,839	-42,557	-0,035	0,013
-495,824	-200,000	0,001	0,110
-494,810	-200,000	0,024	0,187
-493,795	800,000	-0,030	-0,076
-492,781	678,925	-0,034	-0,064
-491,766	-53,549	0,056	0,018
-490,751	568,459	0,077	-0,137
-489,737	-57,753	0,084	-0,027
-488,722	427,504	0,039	-0,062
-487,708	800,000	-0,046	0,141
-486,693	800,000	-0,037	0,090
-485,678	39,216	0,079	0,051
-484,664	50,229	-0,054	0,037
-483,649	-49,370	-0,104	0,036
-482,635	-200,000	0,001	0,023
-481,620	800,000	-0,032	-0,075
-480,605	54,244	-0,026	-0,018
-479,591	-11,887	0,116	0,055
-478,576	332,045	-0,085	0,119
-477,562	432,128	0,070	-0,111
-476,547	333,926	-0,104	-0,148
-475,532	58,753	-0,027	0,019
-474,518	-24,364	0,028	0,012
-473,503	-39,154	0,165	0,063
-472,489	-200,000	-0,003	-0,121
-471,474	15,060	0,029	-0,017
-470,459	755,811	0,013	-0,026
-469,445	232,625	0,037	-0,044
-468,430	318,962	0,048	-0,067
-467,416	-85,003	-0,040	-0,009
-466,401	-200,000	0,028	0,097
-465,386	800,000	0,050	0,103
-464,372	-200,000	-0,007	0,134
-463,357	31,224	0,066	-0,041
-462,343	88,079	0,032	0,026
-461,328	-74,604	0,111	0,029
-460,313	151,401	0,029	0,029
-459,299	-200,000	-0,008	0,198
-458,284	-35,534	0,065	0,026
-457,270	-200,000	0,013	-0,119
-456,255	-200,000	-0,047	-0,197
-455,241	-200,000	-0,039	-0,199
-454,226	150,371	-0,077	-0,076
-453,211	-30,832	0,068	-0,028
-452,197	-73,153	0,131	-0,035
-451,182	-200,000	-0,007	0,032
-450,168	-200,000	-0,019	0,093
-449,153	-37,175	-0,044	-0,017
-448,138	-29,803	-0,076	0,031
-447,124	800,000	-0,095	-0,216
-446,109	52,201	-0,090	-0,062
-445,095	133,488	-0,044	0,042
-444,080	-200,000	0,002	-0,048
-443,065	-200,000	-0,002	0,078
-442,051	-0,721	0,026	-0,013
-441,036	323,562	-0,066	-0,091
-440,022	-200,000	0,002	0,016
-439,007	52,056	0,038	-0,026
-437,992	-47,439	0,015	0,005
-436,978	-116,415	0,016	-0,002
-435,963	-93,544	0,092	0,018
-434,949	-200,000	-0,011	0,040
-433,934	147,683	-0,017	0,017
-432,919	800,000	0,074	-0,151
-431,905	175,936	0,055	0,058
-430,890	581,245	-0,054	0,096
-429,876	-91,973	0,120	0,025
-428,861	-55,573	0,187	0,061
-427,846	800,000	0,030	-0,080
-426,832	5,664	-0,091	0,049
-425,817	62,633	-0,013	0,010
-424,803	800,000	-0,019	-0,041
-423,788	778,928	0,112	0,224
-422,773	-197,396	0,011	0,000
-421,759	89,138	0,039	0,032
-420,744	12,366	-0,081	0,045
-419,730	800,000	-0,070	-0,145
-418,715	-200,000	-0,020	-0,146
-417,701	166,079	-0,123	-0,126
-416,686	-200,000	-0,023	-0,087
-415,671	-37,443	0,153	0,059
-414,657	519,520	-0,071	0,122
-413,642	-200,000	-0,022	0,124
-412,628	-200,000	0,007	-0,166
-411,613	126,398	-0,127	-0,116
-410,598	51,581	-0,091	0,063
-409,584	291,979	0,036	0,048
-408,569	409,117	-0,016	-0,025
-407,555	37,594	0,093	0,060
-406,540	116,812	0,037	0,033
-405,525	-122,805	-0,084	0,010
-404,511	800,000	0,052	-0,124
-403,496	800,000	-0,052	-0,126
-402,482	800,000	-0,028	0,087
-401,467	-126,366	0,081	0,009
-400,452	-97,695	0,100	0,019
-399,438	651,321	0,031	0,058
-398,423	14,555	0,028	-0,016
-397,409	-200,000	-0,011	-0,048
-396,394	-200,000	-0,003	0,018
-395,379	-44,223	-0,044	-0,016
-394,365	-200,000	0,016	-0,069
-393,350	-98,403	0,092	-0,017
-392,336	800,000	0,062	0,162
-391,321	-154,602	-0,051	0,002
-390,306	-104,619	-0,090	0,015
-389,292	-93,838	-0,004	-0,001
-388,277	77,779	-0,072	0,056
-387,263	640,923	-0,060	0,111
-386,248	-200,000	-0,017	-0,119
-385,233	800,000	0,031	0,089
-384,219	438,179	-0,060	-0,096
-383,204	463,703	0,043	0,070
-382,190	189,310	-0,114	0,124
-381,175	140,961	0,087	0,083
-380,160	-200,000	0,033	0,146
-379,146	-200,000	0,010	-0,065
-378,131	-200,000	0,008	0,057
-377,117	-159,548	-0,119	-0,005
-376,102	-200,000	0,002	0,022
-375,088	-200,000	-0,010	0,052
-374,073	-200,000	-0,005	0,083
-373,058	-137,986	-0,075	-0,006
-372,044	-131,078	-0,097	-0,009
-371,029	739,210	0,023	-0,046
-370,015	-95,383	-0,118	0,023
-369,000	29,569	0,039	-0,024
-367,985	-200,000	-0,008	-0,070
-366,971	-200,000	-0,030	-0,126
-365,956	142,403	0,021	-0,020
-364,942	-49,381	-0,099	0,034
-363,927	328,277	-0,051	0,071
-362,912	-2,500	0,154	0,078
-361,898	202,994	-0,102	-0,115
-360,883	-200,000	0,021	0,191
-359,869	-51,905	0,069	-0,023
-358,854	122,316	-0,116	-0,105
-357,839	4,173	-0,036	0,019
-356,825	88,485	0,013	-0,010
-355,810	-200,000	-0,007	0,083
-354,796	-200,000	0,023	0,123
-353,781	-200,000	-0,020	-0,082
-352,766	-0,967	-0,058	0,030
-351,752	136,293	0,088	-0,083
-350,737	-99,823	0,142	0,026
-349,723	-164,904	0,161	-0,005
-348,708	-200,000	0,019	-0,159
-347,693	181,476	0,014	-0,015
-346,679	-53,747	0,046	-0,015
-345,664	-91,623	-0,102	-0,021
-344,650	-80,082	-0,021	-0,005
-343,635	-76,034	0,023	0,006
-342,620	224,063	-0,033	0,039
-341,606	800,000	-0,041	0,119
-340,591	169,808	0,044	-0,046
-339,577	-95,166	-0,035	-0,007
-338,562	226,816	0,056	-0,066
-337,548	85,997	0,103	-0,082
-336,533	-200,000	-0,000	-0,094
-335,518	93,349	0,080	-0,065
-334,504	-200,000	-0,018	-0,086
-333,489	800,000	0,040	-0,100
-332,475	-200,000	0,005	0,101
-331,460	316,902	-0,027	0,037
-330,445	216,340	0,060	0,069
-329,431	256,120	-0,081	0,100
-328,416	-86,139	0,158	0,035
-327,402	59,376	0,065	0,047
-326,387	126,658	0,059	-0,054
-325,372	-61,149	-0,067	-0,020
-324,358	490,364	-0,043	0,071
-323,343	-200,000	0,001	0,062
-322,329	800,000	0,034	0,100
-321,314	-191,334	0,113	-0,001
-320,299	-200,000	-0,032	-0,130
-319,285	164,033	-0,047	0,048
-318,270	-92,844	0,021	-0,004
-317,256	-200,000	0,007	-0,038
-316,241	101,334	0,082	0,069
-315,226	-200,000	0,020	-0,069
-314,212	-93,407	0,064	-0,013
-313,197	-40,838	-0,166	0,062
-312,183	496,435	0,091	0,152
-311,168	-200,000	-0,001	-0,067
-310,153	-32,879	-0,108	-0,043
-309,139	-0,908	-0,028	0,014
-308,124	-200,000	-0,004	0,022
-307,110	-113,910	-0,031	0,004
-306,095	-104,224	-0,119	-0,020
-305,080	186,381	0,058	-0,062
-304,066	-81,583	0,025	-0,006
-303,051	478,854	-0,037	-0,061
-302,037	-52,704	0,035	0,012
-301,022	-200,000	-0,018	-0,085
-300,008	108,000	0,061	-0,053
-298,993	-102,390	0,053	0,009
-297,978	800,000	-0,071	-0,143
-296,964	-73,387	0,129	0,034
-295,949	208,591	-0,104	0,117
-294,935	-18,942	-0,095	-0,042
-293,920	800,000	-0,039	-0,125
-292,905	-200,000	0,032	-0,116
-291,891	38,937	-0,159	-0,102
-290,876	-164,837	-0,097	-0,003
-289,862	-20,285	0,044	-0,020
-288,847	-89,548	-0,214	-0,045
-287,832	800,000	-0,021	-0,047
-286,818	199,495	-0,054	0,060
-285,803	-200,000	0,031	0,105
-284,789	-200,000	0,007	0,029
-283,774	-200,000	-0,023	0,104
-282,759	-37,229	-0,170	-0,065
-281,745	452,626	0,107	0,172
-280,730	-200,000	-0,009	-0,054
-279,716	-200,000	0,008	0,077
-278,701	-89,955	-0,042	-0,009
-277,686	-105,257	0,077	-0,013
-276,672	-11,073	0,055	0,026
-275,657	800,000	0,025	-0,062
-274,643	45,171	0,085	-0,057
-273,628	800,000	0,022	-0,053
-272,613	284,230	0,070	-0,091
-271,599	-200,000	-0,005	-0,053
-270,584	120,600	0,103	0,092
-269,570	33,802	-0,046	0,029
-268,555	122,176	0,046	0,042
-267,540	-91,351	0,025	-0,005
-266,526	621,004	0,086	0,156
-265,511	-171,625	0,113	0,003
-264,497	-0,200	-0,098	-0,050
-263,482	-70,279	0,181	0,049
-262,467	-200,000	0,029	-0,109
-261,453	-200,000	0,002	0,098
-260,438	-78,092	-0,079	0,019
-259,424	541,295	-0,033	-0,057
-258,409	-95,402	-0,033	0,006
-257,395	49,929	0,074	0,051
-256,380	-83,082	-0,085	-0,020
-255,365	109,220	-0,027	0,023
-254,351	-129,043	-0,056	-0,006
-253,336	165,671	-0,028	0,029
-252,322	93,687	-0,094	-0,077
-251,307	298,740	0,054	0,072
-250,292	-50,901	0,064	0,021
-249,278	300,129	-0,055	0,073
-248,263	-35,407	0,201	0,079
-247,249	-88,054	-0,155	0,033
-246,234	800,000	-0,022	0,046
-245,219	-200,000	0,028	-0,169
-244,205	-112,572	-0,118	0,017
-243,190	-2,759	0,099	-0,050
-242,176	800,000	-0,068	-0,194
-241,161	-91,049	0,041	-0,008
-240,146	-186,167	-0,121	0,001
-239,132	800,000	-0,031	0,086
-238,117	-84,280	-0,133	-0,030
-237,103	34,544	0,072	-0,045
-236,088	-200,000	0,031	-0,134
-235,073	-82,347	0,121	-0,028
-234,059	185,251	-0,048	0,051
-233,044	355,986	0,034	0,049
-232,030	669,070	-0,051	0,096
-231,015	32,441	-0,112	0,070
-230,000	208,311	0,051	-0,057
-228,986	172,937	-0,114	0,119
-227,971	-127,956	-0,105	0,011
-226,957	-14,759	0,042	0,019
-225,942	35,392	0,104	0,066
-224,927	-153,941	0,066	-0,003
-223,913	-200,000	0,000	0,150
-222,898	54,510	0,108	-0,075
-221,884	6,156	0,108	0,058
-220,869	-105,476	-0,052	-0,008
-219,855	800,000	0,041	-0,092
-218,840	-103,653	0,060	0,010
-217,825	-200,000	0,006	0,140
-216,811	-23,056	-0,064	-0,027
-215,796	800,000	-0,043	0,113
-214,782	-200,000	-0,003	-0,060
-213,767	-62,111	0,044	0,013
-212,752	-124,674	0,062	-0,007
-211,738	70,631	0,106	-0,079
-210,723	800,000	-0,035	-0,091
-209,709	242,904	0,053	-0,064
-208,694	-21,192	-0,159	-0,070
-207,679	-24,669	-0,137	-0,059
-206,665	661,053	0,018	-0,034
-205,650	-200,000	-0,016	-0,075
-204,636	531,666	-0,032	0,054
-203,621	284,050	-0,060	0,078
-202,606	294,491	0,098	0,129
-201,592	0,543	-0,062	0,032
-200,577	-200,000	-0,013	0,099
-199,563	507,614	0,074	0,124
-198,548	-70,693	0,092	0,025
-197,533	164,021	-0,075	0,077
-196,519	238,736	0,057	0,069
-195,504	48,738	-0,046	-0,031
-194,490	-73,128	0,050	-0,013
-193,475	251,998	-0,013	-0,016
-192,460	-200,000	-0,031	0,110
-191,446	-124,349	0,106	-0,012
-190,431	-200,000	0,013	0,074
-189,417	269,749	-0,068	0,087
-188,402	-53,873	-0,096	0,031
-187,387	559,017	0,021	-0,037
-186,373	-19,936	0,066	-0,029
-185,358	-91,597	0,109	0,022
-184,344	225,075	-0,075	-0,088
-183,329	-200,000	-0,001	0,087
-182,315	772,639	-0,026	0,052
-181,300	-200,000	0,016	0,073
-180,285	-131,516	-0,030	-0,003
-179,271	41,357	0,082	-0,053
-178,256	106,347	-0,117	0,100
-177,242	575,020	0,032	0,057
-176,227	-145,019	0,056	0,004
-175,212	-124,242	0,053	-0,006
-174,198	89,145	-0,060	-0,048
-173,183	367,531	-0,069	-0,100
-172,169	194,167	0,040	-0,044
-171,154	196,488	0,074	-0,081
-170,139	26,774	0,007	-0,004
-169,125	770,798	-0,097	0,191
-168,110	-44,304	0,075	-0,027
-167,096	464,541	0,074	-0,119
-166,081	800,000	-0,040	0,097
-165,066	-116,782	0,100	0,013
-164,052	141,948	0,040	-0,038
-163,037	49,927	-0,134	-0,091
-162,023	35,638	0,037	0,023
-161,008	24,239	-0,026	-0,015
-159,993	580,080	-0,019	0,034
-158,979	-200,000	0,003	-0,009
-157,964	-22,648	0,079	0,034
-156,950	-127,903	0,073	0,008
-155,935	-153,346	-0,115	0,006
-154,920	-200,000	-0,011	0,128
-153,906	800,000	-0,012	-0,038
-152,891	118,882	-0,031	0,028
-151,877	331,649	-0,033	-0,047
-150,862	800,000	-0,034	-0,078
-149,847	800,000	-0,045	-0,111
-148,833	-58,232	-0,132	0,041
-147,818	169,484	-0,035	-0,036
-146,804	-128,397	-0,091	-0,009
-145,789	-165,947	0,142	-0,004
-144,775	23,278	-0,013	-0,008
-143,760	-106,823	-0,214	0,034
-142,745	156,252	0,014	0,014
-141,731	-123,702	0,060	0,007
-140,716	-200,000	0,006	-0,071
-139,702	-200,000	-0,029	0,130
-138,687	20,086	0,145	-0,084
-137,672	107,753	-0,077	0,066
-136,658	157,683	0,061	-0,060
-135,643	429,875	-0,021	0,032
-134,629	800,000	0,035	-0,076
-133,614	309,910	-0,087	0,117
-132,599	-89,200	-0,044	0,009
-131,585	178,636	0,046	0,048
-130,570	-200,000	0,020	-0,131
-129,556	-200,000	0,011	-0,101
-128,541	0,374	0,058	-0,030
-127,526	-200,000	0,001	0,039
-126,512	800,000	0,015	-0,031
-125,497	39,753	0,142	0,091
-124,483	-33,489	0,084	-0,033
-123,468	83,393	0,063	-0,050
-122,453	253,271	0,036	0,045
-121,439	535,995	-0,111	-0,190
-120,424	25,387	0,133	-0,079
-119,410	173,954	-0,033	0,034
