DTS Sentinel unit serial number:	SN410029Multiplexer serial number:	ORYXHardware model number:	OX2-SRSoftware version number:	ORYX F/W v4,00 Oryx Data Collector v3.7.2.0data status	okinstallation	B5 Nyhavnadifferential loss correction	single-endedforward channel	channel 2reverse channel	N/Adate	2023/12/13time	12:22:13forward acquisition time	300,00reverse acquisition time	0,00gamma	499,1914k internal	0,3161k external	0,3161temperature offset calibration	1,0000default loss term (dB/km)	0,3820temperature slope calibration	1,0000multiplexer offset coefficient	1,0000multiplexer slope coefficient	1,0000fibre end	0,00T internal ref (°C)	14,07T ext. ref 1 (°C)	-1,79T ext. ref 2 (°C)	-2,06length (m)	temperature (°C)	Stokes	anti-Stokes-744,400	-119,844	0,131	0,016
-743,385	-136,990	-0,309	0,026
-742,371	800,000	0,018	0,041
-741,356	-108,103	-0,402	-0,063
-740,342	-66,845	0,151	0,044
-739,327	144,931	-0,145	0,143
-738,312	-1,606	0,074	0,038
-737,298	-160,301	-0,276	0,011
-736,283	-10,950	0,226	0,109
-735,269	-135,183	-0,238	-0,021
-734,254	754,123	-0,041	0,081
-733,239	-48,873	-0,446	-0,156
-732,225	4,720	0,214	0,116
-731,210	-72,646	0,167	0,045
-730,196	108,771	0,069	-0,060
-729,181	130,982	-0,067	-0,064
-728,167	450,391	-0,083	-0,135
-727,152	67,132	0,118	-0,088
-726,137	-200,000	0,015	-0,055
-725,123	141,891	0,039	0,038
-724,108	210,013	-0,100	-0,115
-723,094	-110,988	-0,094	-0,014
-722,079	-200,000	0,018	-0,073
-721,064	187,836	0,084	-0,093
-720,050	221,853	0,064	0,076
-719,035	78,872	-0,061	-0,048
-718,021	800,000	-0,022	0,059
-717,006	-119,504	-0,067	0,008
-715,991	800,000	-0,047	-0,103
-714,977	-200,000	-0,019	-0,076
-713,962	-74,070	0,092	-0,024
-712,948	-200,000	-0,002	0,060
-711,933	-138,643	0,073	0,006
-710,918	-200,000	0,001	-0,005
-709,904	800,000	-0,051	-0,107
-708,889	-127,269	-0,170	-0,018
-707,875	3,000	-0,079	0,042
-706,860	-110,585	-0,214	0,032
-705,845	264,276	-0,044	-0,057
-704,831	60,691	-0,013	0,009
-703,816	246,857	-0,110	-0,137
-702,802	-200,000	0,010	-0,109
-701,787	800,000	0,036	-0,074
-700,772	-81,291	-0,058	0,014
-699,758	800,000	-0,035	0,076
-698,743	-45,837	0,110	0,040
-697,729	14,394	-0,052	-0,030
-696,714	-37,966	-0,097	-0,038
-695,699	-47,856	-0,065	0,023
-694,685	-148,644	-0,102	0,006
-693,670	245,585	-0,081	-0,101
-692,656	248,941	0,054	-0,068
-691,641	665,733	-0,052	-0,099
-690,627	-44,707	0,088	0,032
-689,612	1,588	-0,120	0,063
-688,597	-200,000	-0,029	-0,134
-687,583	800,000	0,049	-0,134
-686,568	-150,902	-0,043	0,002
-685,554	-200,000	-0,008	0,031
-684,539	-174,236	0,038	-0,001
-683,524	139,960	0,027	-0,026
-682,510	551,164	-0,015	-0,026
-681,495	-200,000	-0,005	0,028
-680,481	67,001	-0,050	0,037
-679,466	500,425	-0,033	-0,056
-678,451	-200,000	-0,032	-0,206
-677,437	371,932	-0,085	0,127
-676,422	-116,072	-0,024	0,003
-675,408	-200,000	-0,002	0,044
-674,393	800,000	-0,064	-0,178
-673,378	800,000	-0,029	-0,063
-672,364	62,123	-0,093	-0,068
-671,349	-15,210	-0,106	-0,050
-670,335	-200,000	0,011	0,089
-669,320	800,000	-0,034	0,073
-668,305	-200,000	-0,010	0,098
-667,291	331,782	-0,017	-0,025
-666,276	800,000	-0,032	-0,097
-665,262	614,585	-0,028	0,051
-664,247	-200,000	0,003	-0,015
-663,232	-200,000	-0,009	0,103
-662,218	-120,649	-0,022	-0,003
-661,203	-200,000	-0,002	0,116
-660,189	-61,344	-0,009	-0,003
-659,174	-19,194	-0,091	0,041
-658,159	92,779	-0,169	-0,140
-657,145	13,530	0,054	0,031
-656,130	-200,000	0,030	0,123
-655,116	107,520	0,023	-0,020
-654,101	-0,146	-0,084	-0,044
-653,086	-58,470	-0,053	-0,017
-652,072	800,000	-0,006	-0,012
-651,057	800,000	-0,074	-0,200
-650,043	-173,686	-0,124	0,003
-649,028	24,494	0,093	0,056
-648,014	-200,000	-0,071	-0,000
-646,999	14,952	-0,027	0,016
-645,984	308,936	0,027	-0,037
-644,970	-65,326	0,095	-0,028
-643,955	-145,656	-0,172	0,011
-642,941	681,059	0,005	-0,010
-641,926	204,510	0,100	0,114
-640,911	185,422	0,059	0,065
-639,897	49,402	-0,122	0,084
-638,882	-186,863	-0,019	0,000
-637,868	156,017	-0,045	0,046
-636,853	610,267	-0,077	-0,141
-635,838	233,173	-0,067	-0,081
-634,824	-96,120	-0,078	0,015
-633,809	181,452	-0,038	0,041
-632,795	-200,000	0,022	-0,110
-631,780	46,260	0,041	0,027
-630,765	45,401	-0,052	-0,035
-629,751	800,000	0,033	-0,073
-628,736	-200,000	0,005	0,101
-627,722	-30,438	-0,032	-0,013
-626,707	-103,910	0,221	-0,037
-625,692	-200,000	-0,023	0,149
-624,678	120,035	0,056	0,051
-623,663	-200,000	0,003	-0,037
-622,649	-134,987	0,105	0,009
-621,634	-21,960	-0,081	0,036
-620,619	-44,033	-0,136	0,050
-619,605	43,530	-0,075	-0,050
-618,590	-7,821	0,012	0,006
-617,576	-200,000	0,012	-0,042
-616,561	-84,857	-0,118	-0,027
-615,546	-200,000	0,016	-0,065
-614,532	-137,617	-0,109	0,009
-613,517	-200,000	-0,011	-0,043
-612,503	-94,254	0,051	0,010
-611,488	-1,864	0,120	-0,061
-610,474	800,000	-0,022	-0,060
-609,459	-132,547	0,078	-0,007
-608,444	28,963	-0,082	0,051
-607,430	-200,000	-0,021	-0,117
-606,415	12,250	-0,031	0,017
-605,401	-72,796	0,061	0,016
-604,386	474,058	-0,047	-0,077
-603,371	431,029	0,031	-0,049
-602,357	58,885	0,049	0,035
-601,342	437,824	0,055	-0,088
-600,328	-200,000	-0,013	0,089
-599,313	43,442	0,034	-0,023
-598,298	800,000	0,033	-0,102
-597,284	-156,354	0,085	0,004
-596,269	-32,119	-0,017	0,007
-595,255	5,059	0,054	-0,029
-594,240	313,857	-0,044	-0,061
-593,225	800,000	-0,057	-0,182
-592,211	-80,134	-0,025	-0,006
-591,196	800,000	-0,019	-0,045
-590,182	734,381	-0,034	-0,067
-589,167	53,747	0,111	0,078
-588,152	-117,147	-0,026	0,003
-587,138	-64,369	0,051	0,015
-586,123	-200,000	-0,010	-0,110
-585,109	-8,032	-0,103	-0,051
-584,094	-136,252	0,047	0,004
-583,079	161,583	0,045	0,046
-582,065	800,000	0,013	-0,036
-581,050	395,445	-0,013	0,019
-580,036	316,453	0,052	-0,072
-579,021	-200,000	0,001	-0,022
-578,006	175,507	-0,030	-0,032
-576,992	155,529	0,109	0,110
-575,977	-200,000	0,036	-0,143
-574,963	-114,169	0,183	0,026
-573,948	-158,026	0,178	0,008
-572,934	-200,000	-0,042	-0,137
-571,919	-41,393	0,164	-0,061
-570,904	-200,000	-0,003	-0,153
-569,890	-6,707	-0,061	-0,030
-568,875	-200,000	0,032	-0,136
-567,861	217,373	0,046	0,054
-566,846	-5,899	-0,148	0,074
-565,831	646,742	0,021	0,040
-564,817	800,000	0,018	0,037
-563,802	-200,000	0,020	-0,130
-562,788	682,393	-0,058	-0,112
-561,773	221,580	0,068	0,080
-560,758	800,000	0,022	0,056
-559,744	-74,882	-0,037	-0,010
-558,729	504,265	0,072	-0,123
-557,715	-200,000	0,006	-0,153
-556,700	-114,589	-0,033	0,005
-555,685	-200,000	0,008	0,054
-554,671	34,910	-0,077	-0,049
-553,656	-200,000	0,017	-0,139
-552,642	-177,299	0,071	0,001
-551,627	33,510	0,101	-0,064
-550,612	27,415	-0,185	0,113
-549,598	-87,386	-0,111	-0,024
-548,583	206,157	-0,025	-0,029
-547,569	-50,416	-0,036	-0,012
-546,554	-17,923	0,043	0,020
-545,539	77,851	-0,039	-0,031
-544,525	-200,000	0,013	0,081
-543,510	-17,691	-0,037	-0,017
-542,496	-200,000	0,009	-0,154
-541,481	800,000	0,004	-0,011
-540,466	-85,239	-0,134	-0,030
-539,452	-37,775	-0,064	-0,025
-538,437	415,124	0,028	0,044
-537,423	-38,102	-0,018	-0,007
-536,408	-9,415	0,138	0,067
-535,393	-200,000	-0,016	-0,108
-534,379	167,667	-0,090	-0,093
-533,364	51,856	-0,159	0,110
-532,350	115,601	0,081	-0,072
-531,335	11,092	-0,083	-0,046
-530,321	64,921	0,057	-0,042
-529,306	5,227	0,024	0,013
-528,291	800,000	-0,026	0,084
-527,277	-200,000	-0,003	-0,011
-526,262	-173,359	-0,202	0,004
-525,248	-104,614	-0,123	-0,021
-524,233	218,121	0,038	-0,044
-523,218	-200,000	0,015	-0,060
-522,204	198,982	-0,036	0,040
-521,189	-200,000	0,012	-0,151
-520,175	275,840	-0,031	-0,041
-519,160	279,540	-0,079	-0,103
-518,145	57,581	-0,109	0,078
-517,131	68,758	0,107	-0,080
-516,116	800,000	-0,029	0,059
-515,102	102,561	-0,017	-0,015
-514,087	-59,414	-0,167	0,052
-513,072	-67,437	-0,047	-0,013
-512,058	-200,000	0,004	-0,026
-511,043	800,000	0,021	-0,046
-510,029	358,983	-0,060	0,088
-509,014	102,359	0,046	-0,039
-507,999	800,000	-0,040	0,084
-506,985	-200,000	0,185	0,001
-505,970	0,947	-0,084	-0,044
-504,956	-200,000	0,014	0,066
-503,941	-200,000	-0,043	0,149
-502,926	800,000	0,005	-0,014
-501,912	-200,000	0,023	0,159
-500,897	257,335	-0,079	0,099
-499,883	645,214	0,066	-0,123
-498,868	27,111	-0,029	-0,017
-497,853	-200,000	0,015	-0,083
-496,839	128,845	0,042	0,039
-495,824	-200,000	-0,035	-0,162
-494,810	-112,868	-0,094	-0,013
-493,795	-200,000	0,015	0,102
-492,781	800,000	-0,044	-0,093
-491,766	-11,969	0,089	0,042
-490,751	-87,049	-0,073	0,016
-489,737	-69,583	0,022	-0,006
-488,722	-200,000	0,017	0,125
-487,708	43,578	0,140	0,093
-486,693	800,000	0,027	-0,066
-485,678	800,000	-0,023	-0,050
-484,664	-94,686	0,063	-0,012
-483,649	-8,874	-0,077	-0,038
-482,635	-170,919	0,052	0,001
-481,620	14,614	0,065	-0,037
-480,605	149,718	-0,068	0,067
-479,591	98,556	0,055	0,046
-478,576	14,204	-0,033	0,019
-477,562	-200,000	-0,021	-0,126
-476,547	800,000	-0,061	0,133
-475,532	800,000	-0,011	-0,030
-474,518	508,109	-0,028	-0,048
-473,503	-200,000	0,022	0,094
-472,489	37,749	0,069	0,045
-471,474	-60,732	0,030	0,009
-470,459	158,881	-0,097	0,098
-469,445	-200,000	-0,001	0,019
-468,430	800,000	0,028	-0,070
-467,416	128,930	-0,025	-0,023
-466,401	-200,000	0,000	0,159
-465,386	-200,000	-0,015	0,065
-464,372	-89,523	-0,064	-0,014
-463,357	484,781	-0,036	-0,061
-462,343	800,000	-0,031	-0,098
-461,328	-14,743	0,109	-0,051
-460,313	-66,391	0,106	-0,030
-459,299	55,961	-0,062	0,043
-458,284	-200,000	0,013	-0,109
-457,270	-200,000	-0,009	-0,125
-456,255	-137,558	0,141	0,011
-455,241	96,452	-0,051	-0,043
-454,226	-200,000	0,007	0,111
-453,211	-200,000	0,011	0,093
-452,197	-163,903	0,143	-0,005
-451,182	26,505	-0,020	0,012
-450,168	165,240	0,047	0,048
-449,153	-87,711	-0,015	0,003
-448,138	594,408	0,042	0,077
-447,124	-108,345	0,109	-0,017
-446,109	-102,461	-0,102	0,018
-445,095	66,964	-0,079	0,059
-444,080	-47,115	-0,056	-0,020
-443,065	43,545	-0,086	0,057
-442,051	89,696	0,079	-0,064
-441,036	-200,000	0,000	-0,047
-440,022	-200,000	-0,013	-0,110
-439,007	-65,310	0,111	0,032
-437,992	267,303	-0,024	0,031
-436,978	-200,000	0,014	0,111
-435,963	-200,000	-0,048	0,155
-434,949	800,000	0,043	0,098
-433,934	-91,323	-0,049	-0,010
-432,919	82,313	0,116	-0,092
-431,905	-142,329	-0,116	0,008
-430,890	-200,000	0,005	-0,026
-429,876	160,140	-0,093	0,094
-428,861	22,674	0,170	0,101
-427,846	-52,699	0,025	0,009
-426,832	800,000	-0,020	0,047
-425,817	-136,189	-0,094	-0,008
-424,803	300,834	0,080	-0,108
-423,788	425,148	0,091	0,143
-422,773	-7,740	0,114	0,056
-421,759	53,176	0,040	-0,028
-420,744	14,848	0,042	0,024
-419,730	-200,000	-0,032	-0,155
-418,715	-200,000	0,011	0,067
-417,701	-200,000	-0,034	-0,137
-416,686	800,000	-0,029	-0,064
-415,671	-60,588	0,182	0,056
-414,657	-72,775	0,082	-0,022
-413,642	800,000	0,037	0,077
-412,628	-105,726	0,079	-0,013
-411,613	410,876	-0,027	0,042
-410,598	260,668	0,101	-0,127
-409,584	-8,085	-0,134	0,065
-408,569	-200,000	0,054	0,187
-407,555	-200,000	0,024	0,090
-406,540	-9,551	-0,063	-0,030
-405,525	-68,695	0,042	0,012
-404,511	-200,000	0,006	0,091
-403,496	-107,001	0,143	-0,023
-402,482	800,000	0,043	0,132
-401,467	-173,265	-0,051	-0,001
-400,452	-200,000	-0,007	0,021
-399,438	-143,889	0,106	-0,007
-398,423	430,856	-0,069	0,109
-397,409	-58,947	-0,127	-0,040
-396,394	87,437	-0,083	-0,066
-395,379	64,080	-0,106	0,078
-394,365	-0,247	-0,067	0,035
-393,350	-200,000	0,002	-0,167
-392,336	800,000	0,051	0,136
-391,321	-200,000	0,040	-0,315
-390,306	559,004	-0,118	-0,208
-389,292	-71,555	0,102	0,028
-388,277	-120,247	-0,031	0,004
-387,263	-200,000	0,033	0,116
-386,248	-97,407	0,058	-0,011
-385,233	138,128	0,093	-0,088
-384,219	-50,286	-0,078	-0,027
-383,204	-82,448	-0,130	0,030
-382,190	800,000	0,009	0,025
-381,175	385,822	-0,046	-0,069
-380,160	-118,795	0,131	-0,017
-379,146	-145,231	-0,021	0,001
-378,131	79,605	0,134	0,105
-377,117	-1,146	0,059	0,030
-376,102	50,080	-0,032	0,022
-375,088	-200,000	0,011	-0,046
-374,073	-165,359	-0,085	0,003
-373,058	-42,732	0,087	-0,032
-372,044	-200,000	-0,021	0,072
-371,029	800,000	0,052	0,118
-370,015	-132,771	-0,122	0,011
-369,000	695,699	0,026	-0,050
-367,985	-200,000	-0,002	0,023
-366,971	-200,000	-0,033	0,116
-365,956	570,995	-0,037	0,065
-364,942	-108,404	0,166	0,026
-363,927	-200,000	-0,012	-0,045
-362,912	159,836	0,031	-0,031
-361,898	486,339	-0,019	0,031
-360,883	-162,555	-0,032	-0,001
-359,869	-200,000	0,003	0,137
-358,854	177,832	0,118	-0,125
-357,839	-200,000	-0,012	0,045
-356,825	-200,000	-0,047	0,155
-355,810	800,000	-0,055	0,165
-354,796	-200,000	0,003	0,107
-353,781	284,588	0,043	0,056
-352,766	747,726	-0,025	0,048
-351,752	-200,000	0,002	-0,048
-350,737	-200,000	-0,000	0,046
-349,723	256,402	0,013	0,016
-348,708	38,833	-0,067	0,043
-347,693	-62,051	0,114	0,034
-346,679	-124,107	-0,040	-0,004
-345,664	-200,000	-0,008	-0,060
-344,650	-200,000	0,017	0,110
-343,635	800,000	0,084	0,170
-342,620	-200,000	0,000	0,077
-341,606	-57,907	0,094	-0,030
-340,591	27,986	-0,018	-0,011
-339,577	-200,000	0,010	-0,036
-338,562	91,933	0,057	0,046
-337,548	-107,137	-0,100	0,016
-336,533	7,222	0,069	-0,037
-335,518	283,640	-0,073	0,096
-334,504	414,563	0,052	0,080
-333,489	22,278	-0,041	0,024
-332,475	-200,000	-0,020	0,076
-331,460	294,565	0,050	-0,066
-330,445	-200,000	-0,028	-0,150
-329,431	101,621	-0,090	-0,076
-328,416	-200,000	0,006	0,108
-327,402	182,873	0,069	0,074
-326,387	-32,015	-0,056	-0,022
-325,372	15,695	-0,085	0,048
-324,358	800,000	-0,033	0,104
-323,343	494,415	0,030	0,050
-322,329	-151,361	0,042	0,002
-321,314	34,970	0,038	0,024
-320,299	-82,382	-0,021	-0,005
-319,285	-200,000	-0,001	-0,139
-318,270	-108,952	-0,099	-0,015
-317,256	219,452	-0,074	-0,086
-316,241	43,466	0,082	-0,054
-315,226	160,035	0,089	0,090
-314,212	-200,000	0,051	0,181
-313,197	335,428	-0,060	0,084
-312,183	6,087	-0,044	0,024
-311,168	-200,000	0,001	0,044
-310,153	-158,565	-0,040	-0,002
-309,139	-200,000	0,020	-0,109
-308,124	323,074	0,049	0,067
-307,110	800,000	-0,002	-0,006
-306,095	106,195	-0,058	-0,050
-305,080	-200,000	0,028	0,102
-304,066	-18,298	0,069	-0,031
-303,051	445,131	0,007	0,012
-302,037	-200,000	-0,015	0,110
-301,022	275,722	-0,088	0,113
-300,008	-200,000	-0,024	0,093
-298,993	-200,000	0,004	0,058
-297,978	589,174	-0,018	-0,033
-296,964	800,000	0,031	0,085
-295,949	9,041	-0,107	-0,058
-294,935	256,033	0,059	0,073
-293,920	800,000	-0,043	-0,086
-292,905	800,000	0,031	0,085
-291,891	-200,000	-0,021	-0,104
-290,876	-200,000	0,040	-0,130
-289,862	124,365	-0,097	0,089
-288,847	497,243	-0,066	-0,111
-287,832	-43,714	-0,156	-0,057
-286,818	97,291	0,112	-0,093
-285,803	48,876	-0,053	0,036
-284,789	-9,575	-0,079	0,038
-283,774	-200,000	-0,011	-0,045
-282,759	800,000	0,023	0,050
-281,745	-58,905	-0,135	0,042
-280,730	-75,860	-0,030	-0,008
-279,716	197,010	0,075	0,083
-278,701	800,000	0,024	0,071
-277,686	37,203	0,035	0,022
-276,672	-79,206	0,106	0,026
-275,657	308,661	-0,030	-0,040
-274,643	-200,000	-0,011	-0,083
-273,628	800,000	-0,056	-0,114
-272,613	-29,137	0,107	-0,044
-271,599	609,516	-0,013	0,023
-270,584	800,000	0,013	-0,031
-269,570	294,587	-0,063	0,083
-268,555	328,245	-0,048	-0,067
-267,540	-200,000	-0,002	0,039
-266,526	24,818	0,065	-0,039
-265,511	800,000	0,040	-0,102
-264,497	800,000	0,014	0,029
-263,482	-86,859	0,078	-0,017
-262,467	-200,000	0,030	-0,119
-261,453	21,434	-0,150	-0,088
-260,438	225,269	0,151	-0,177
-259,424	-173,667	-0,183	0,004
-258,409	307,624	-0,023	0,032
-257,395	-200,000	0,007	0,083
-256,380	-200,000	-0,031	0,101
-255,365	-200,000	0,023	0,143
-254,351	46,462	0,036	-0,024
-253,336	-200,000	-0,014	-0,116
-252,322	800,000	-0,022	0,044
-251,307	-200,000	-0,033	0,133
-250,292	-200,000	-0,002	-0,048
-249,278	408,641	0,057	-0,087
-248,263	-110,568	0,162	0,024
-247,249	-6,736	-0,071	0,035
-246,234	59,944	0,045	-0,032
-245,219	152,557	-0,077	0,076
-244,205	800,000	0,039	-0,109
-243,190	-59,273	-0,040	-0,012
-242,176	-66,506	-0,074	-0,021
-241,161	-47,079	0,102	0,036
-240,146	800,000	-0,073	0,149
-239,132	-102,953	0,044	-0,007
-238,117	-124,602	0,047	0,005
-237,103	-174,677	-0,077	-0,002
-236,088	147,776	0,094	-0,092
-235,073	-71,083	0,066	0,018
-234,059	-150,232	-0,041	0,002
-233,044	236,341	0,088	0,106
-232,030	-200,000	0,001	-0,058
-231,015	-34,484	0,075	0,029
-230,000	-165,867	-0,069	-0,002
-228,986	435,650	-0,017	-0,028
-227,971	2,612	-0,071	-0,037
-226,957	34,458	0,084	-0,053
-225,942	267,480	-0,039	-0,049
-224,927	-151,531	-0,107	-0,006
-223,913	-200,000	-0,006	-0,071
-222,898	81,243	0,017	0,013
-221,884	489,707	0,032	-0,054
-220,869	-63,509	0,044	0,013
-219,855	-9,672	-0,068	0,033
-218,840	41,885	0,162	0,106
-217,825	-113,121	0,014	0,002
-216,811	75,894	0,087	-0,066
-215,796	800,000	0,063	-0,142
-214,782	545,583	-0,016	-0,027
-213,767	-66,706	0,135	-0,038
-212,752	-200,000	0,012	-0,045
-211,738	-8,812	-0,071	-0,034
-210,723	173,521	0,063	-0,066
-209,709	134,982	-0,108	0,102
-208,694	800,000	-0,019	-0,040
-207,679	-23,767	-0,063	-0,027
-206,665	-200,000	-0,049	-0,174
-205,650	29,833	0,064	0,039
-204,636	800,000	0,029	-0,059
-203,621	112,989	-0,019	0,016
-202,606	-200,000	0,017	-0,064
-201,592	21,329	-0,174	0,102
-200,577	14,930	0,102	-0,057
-199,563	-200,000	-0,001	-0,090
-198,548	800,000	-0,026	0,077
-197,533	-200,000	-0,004	-0,090
-196,519	362,192	0,082	0,118
-195,504	-86,423	-0,112	-0,025
-194,490	-200,000	0,012	0,093
-193,475	12,534	0,072	-0,040
-192,460	101,168	-0,115	0,096
-191,446	105,095	0,028	-0,024
-190,431	-81,534	0,142	-0,033
-189,417	800,000	0,027	-0,081
-188,402	96,576	-0,076	0,063
-187,387	-200,000	0,003	-0,095
-186,373	-200,000	-0,006	-0,071
-185,358	363,591	-0,031	-0,045
-184,344	336,075	-0,108	0,151
-183,329	-200,000	-0,013	0,084
-182,315	800,000	-0,036	-0,095
-181,300	248,780	-0,049	-0,060
-180,285	-111,786	-0,037	0,005
-179,271	-87,963	-0,073	0,016
-178,256	239,017	0,055	-0,066
-177,242	111,336	-0,043	0,037
-176,227	-65,598	0,038	0,011
-175,212	-200,000	0,009	0,149
-174,198	-200,000	-0,036	0,121
-173,183	-79,647	-0,027	-0,007
-172,169	-200,000	0,008	0,034
-171,154	64,389	-0,077	-0,056
-170,139	685,456	0,012	-0,023
-169,125	149,032	-0,069	-0,067
-168,110	-200,000	0,002	-0,014
-167,096	-82,403	0,104	0,024
-166,081	63,788	-0,052	-0,038
-165,066	487,896	0,038	0,063
-164,052	249,887	-0,021	0,025
-163,037	48,922	-0,075	-0,051
-162,023	-87,868	0,116	0,025
-161,008	298,873	-0,039	0,051
-159,993	-83,560	0,059	-0,013
-158,979	800,000	0,054	-0,120
-157,964	-38,306	0,034	-0,013
-156,950	800,000	-0,062	-0,191
-155,935	60,201	0,039	0,028
-154,920	516,510	-0,088	0,148
-153,906	-200,000	-0,006	0,133
-152,891	-200,000	-0,004	0,119
-151,877	800,000	-0,056	0,120
-150,862	23,803	0,087	-0,051
-149,847	-22,641	0,042	0,018
-148,833	800,000	0,035	0,080
-147,818	90,815	-0,025	0,020
-146,804	-200,000	0,008	0,066
-145,789	-97,455	0,085	-0,016
-144,775	-165,643	-0,122	0,004
-143,760	361,394	-0,046	0,066
-142,745	-70,963	0,080	-0,022
-141,731	2,073	0,053	-0,027
-140,716	-50,605	-0,082	-0,028
-139,702	800,000	-0,019	0,052
-138,687	615,546	0,069	-0,125
-137,672	325,244	-0,047	-0,064
-136,658	317,754	0,059	-0,080
-135,643	291,615	-0,052	-0,069
-134,629	77,824	0,071	0,055
-133,614	-200,000	0,019	0,099
-132,599	288,796	-0,042	0,054
-131,585	261,354	-0,022	0,028
-130,570	701,407	-0,047	0,089
-129,556	-200,000	-0,006	-0,045
-128,541	22,595	-0,085	-0,050
-127,526	134,171	0,095	-0,088
-126,512	-200,000	0,005	0,027
-125,497	800,000	0,049	0,126
-124,483	-79,881	0,039	-0,009
-123,468	-126,937	0,128	0,013
-122,453	-200,000	0,002	0,040
-121,439	-104,693	0,049	-0,008
-120,424	460,563	-0,030	-0,048
-119,410	-169,117	0,117	-0,003
