DTS Sentinel unit serial number:	SN410029Multiplexer serial number:	ORYXHardware model number:	OX2-SRSoftware version number:	ORYX F/W v4,00 Oryx Data Collector v3.7.2.0data status	okinstallation	B5 Nyhavnadifferential loss correction	single-endedforward channel	channel 2reverse channel	N/Adate	2023/12/14time	14:27:13forward acquisition time	300,00reverse acquisition time	0,00gamma	499,1914k internal	0,3157k external	0,3157temperature offset calibration	1,0000default loss term (dB/km)	0,3820temperature slope calibration	1,0000multiplexer offset coefficient	1,0000multiplexer slope coefficient	1,0000fibre end	0,00T internal ref (°C)	8,02T ext. ref 1 (°C)	-8,05T ext. ref 2 (°C)	-8,12length (m)	temperature (°C)	Stokes	anti-Stokes-744,400	172,103	0,183	0,194
-743,385	-35,770	-0,258	-0,102
-742,371	-11,471	0,182	0,088
-741,356	-132,640	-0,174	-0,016
-740,342	16,042	0,235	0,136
-739,327	-10,962	-0,331	-0,160
-738,312	7,142	0,075	0,041
-737,298	-76,920	-0,241	-0,062
-736,283	-30,570	0,160	0,067
-735,269	-64,463	-0,288	0,086
-734,254	473,222	0,113	0,189
-733,239	-96,628	-0,514	-0,099
-732,225	-94,196	0,226	0,045
-731,210	45,745	-0,060	0,041
-730,196	73,342	-0,092	-0,071
-729,181	800,000	0,043	-0,089
-728,167	800,000	0,045	0,106
-727,152	158,096	-0,127	0,130
-726,137	-55,970	-0,045	-0,015
-725,123	592,204	-0,033	-0,061
-724,108	800,000	-0,029	0,067
-723,094	800,000	-0,025	-0,068
-722,079	-21,857	-0,136	-0,061
-721,064	-67,757	0,077	-0,022
-720,050	-20,405	0,058	0,026
-719,035	83,964	-0,103	0,083
-718,021	-111,480	0,101	-0,015
-717,006	-123,300	-0,194	0,023
-715,991	760,859	0,042	-0,085
-714,977	-19,901	0,049	0,022
-713,962	-200,000	-0,054	-0,180
-712,948	-200,000	-0,056	-0,183
-711,933	530,271	-0,042	-0,073
-710,918	-191,343	-0,155	0,001
-709,904	-142,608	-0,025	-0,002
-708,889	61,029	-0,029	0,021
-707,875	336,973	0,061	-0,088
-706,860	800,000	-0,021	0,052
-705,845	466,942	-0,035	-0,058
-704,831	359,262	0,100	-0,148
-703,816	63,266	0,062	0,046
-702,802	800,000	0,013	-0,034
-701,787	249,343	-0,035	0,043
-700,772	6,076	-0,095	0,051
-699,758	-96,462	0,054	0,010
-698,743	-148,625	0,105	0,006
-697,729	-164,027	0,112	0,004
-696,714	400,390	-0,055	0,085
-695,699	28,929	-0,113	-0,070
-694,685	-36,601	-0,118	-0,046
-693,670	800,000	0,049	-0,107
-692,656	-200,000	-0,018	-0,074
-691,641	-151,898	-0,071	0,004
-690,627	-146,283	-0,062	-0,004
-689,612	-200,000	0,010	-0,095
-688,597	334,188	0,038	-0,055
-687,583	-124,674	-0,125	0,014
-686,568	63,529	0,045	-0,033
-685,554	88,609	0,082	-0,067
-684,539	800,000	-0,042	0,103
-683,524	-106,848	0,052	-0,008
-682,510	-71,861	-0,149	0,041
-681,495	174,883	0,022	0,024
-680,481	149,996	-0,156	-0,156
-679,466	274,869	-0,083	-0,108
-678,451	800,000	-0,085	-0,227
-677,437	-15,884	-0,033	-0,015
-676,422	-200,000	-0,015	-0,087
-675,408	-93,334	0,045	-0,009
-674,393	-28,994	0,036	-0,015
-673,378	70,075	-0,053	-0,041
-672,364	-200,000	0,006	0,041
-671,349	22,250	-0,036	-0,022
-670,335	118,591	0,074	0,068
-669,320	800,000	-0,066	0,145
-668,305	-7,126	0,112	0,056
-667,291	-63,379	-0,112	-0,034
-666,276	482,236	0,070	-0,117
-665,262	-200,000	-0,040	-0,197
-664,247	-23,498	-0,090	-0,040
-663,232	-200,000	-0,010	-0,142
-662,218	105,556	0,094	-0,082
-661,203	800,000	-0,050	0,135
-660,189	657,469	0,012	-0,023
-659,174	-102,277	-0,065	0,011
-658,159	208,966	-0,063	0,072
-657,145	-193,287	0,055	-0,000
-656,130	-71,980	0,043	-0,012
-655,116	800,000	-0,033	-0,091
-654,101	800,000	0,024	0,058
-653,086	5,427	0,029	-0,016
-652,072	159,312	-0,087	0,089
-651,057	-20,989	0,015	-0,007
-650,043	290,429	-0,043	0,057
-649,028	-142,083	-0,087	0,006
-648,014	-120,035	0,073	-0,009
-646,999	280,223	0,111	0,146
-645,984	-129,270	0,196	0,020
-644,970	9,043	-0,120	0,066
-643,955	-95,606	0,031	-0,006
-642,941	-17,988	-0,073	0,033
-641,926	277,481	-0,038	0,050
-640,911	-133,591	-0,071	0,006
-639,897	-117,269	0,162	-0,021
-638,882	-28,144	-0,184	-0,078
-637,868	-200,000	0,037	-0,132
-636,853	-96,928	-0,140	0,027
-635,838	138,585	-0,032	0,031
-634,824	-57,328	0,060	0,019
-633,809	-200,000	-0,043	-0,154
-632,795	-200,000	-0,028	0,114
-631,780	58,704	0,076	0,055
-630,765	155,869	-0,035	0,035
-629,751	800,000	0,030	-0,080
-628,736	-6,709	0,143	-0,071
-627,722	44,076	-0,101	-0,068
-626,707	-200,000	-0,022	0,088
-625,692	67,102	-0,072	0,054
-624,678	188,233	0,117	0,128
-623,663	4,029	-0,038	-0,021
-622,649	225,826	-0,055	0,066
-621,634	22,815	-0,172	0,103
-620,619	-72,232	-0,080	0,022
-619,605	3,705	0,037	-0,020
-618,590	-200,000	-0,006	0,086
-617,576	182,867	0,140	-0,152
-616,561	501,270	0,058	0,098
-615,546	404,248	0,056	-0,087
-614,532	800,000	-0,044	-0,110
-613,517	800,000	-0,074	-0,201
-612,503	284,418	0,055	0,072
-611,488	-7,998	0,107	0,053
-610,474	14,985	0,128	-0,074
-609,459	-200,000	-0,022	-0,081
-608,444	-200,000	0,025	-0,154
-607,430	11,078	0,071	-0,040
-606,415	-112,951	-0,175	0,025
-605,401	-6,641	-0,135	0,067
-604,386	-100,706	-0,081	0,015
-603,371	-22,389	0,082	0,036
-602,357	665,953	0,030	0,056
-601,342	-22,144	0,047	-0,021
-600,328	42,267	-0,070	-0,047
-599,313	800,000	-0,033	-0,077
-598,298	-67,341	0,035	0,010
-597,284	167,475	-0,016	0,017
-596,269	215,315	0,071	-0,083
-595,255	23,144	-0,029	-0,017
-594,240	-92,549	-0,066	0,013
-593,225	357,688	0,082	-0,120
-592,211	800,000	0,071	-0,215
-591,196	-86,780	-0,146	0,032
-590,182	-200,000	-0,000	0,054
-589,167	-200,000	-0,031	0,113
-588,152	402,982	0,078	0,120
-587,138	800,000	0,023	0,048
-586,123	65,073	-0,077	-0,057
-585,109	-200,000	-0,025	-0,102
-584,094	-100,168	-0,163	-0,030
-583,079	-31,681	0,116	0,048
-582,065	-200,000	-0,002	0,036
-581,050	-48,485	-0,057	0,020
-580,036	-200,000	-0,016	-0,090
-579,021	-200,000	-0,024	-0,123
-578,006	-200,000	0,003	-0,037
-576,992	-200,000	0,017	0,146
-575,977	541,241	0,067	0,117
-574,963	102,072	-0,059	0,051
-573,948	-145,490	-0,125	0,008
-572,934	284,640	-0,033	0,043
-571,919	-200,000	0,005	0,023
-570,904	79,048	-0,023	-0,018
-569,890	-81,313	-0,068	-0,016
-568,875	-16,285	0,053	-0,024
-567,861	800,000	0,017	-0,049
-566,846	-200,000	0,010	0,068
-565,831	193,137	-0,036	-0,040
-564,817	-26,321	-0,060	0,026
-563,802	-86,832	0,151	-0,033
-562,788	-200,000	-0,006	-0,057
-561,773	-37,669	-0,114	-0,044
-560,758	-66,399	0,173	0,050
-559,744	-58,165	0,015	0,005
-558,729	-46,634	-0,011	0,004
-557,715	3,809	-0,062	0,033
-556,700	76,084	-0,172	0,133
-555,685	719,050	0,025	0,049
-554,671	-199,236	-0,071	0,000
-553,656	-200,000	0,018	-0,059
-552,642	-109,721	0,017	-0,003
-551,627	-18,299	-0,034	0,016
-550,612	-200,000	-0,001	0,059
-549,598	225,703	-0,087	-0,103
-548,583	-200,000	0,022	-0,108
-547,569	-62,699	0,068	-0,021
-546,554	77,615	-0,103	0,080
-545,539	-200,000	-0,001	0,169
-544,525	-169,246	0,055	-0,001
-543,510	-147,032	-0,047	0,003
-542,496	13,027	-0,084	-0,047
-541,481	-200,000	0,028	-0,208
-540,466	689,917	0,043	-0,083
-539,452	-29,766	-0,061	-0,025
-538,437	-167,146	-0,072	0,002
-537,423	800,000	-0,040	-0,120
-536,408	216,039	-0,069	-0,080
-535,393	77,498	0,129	-0,101
-534,379	-31,542	0,073	-0,030
-533,364	-78,742	0,030	-0,007
-532,350	-141,843	0,041	0,003
-531,335	266,720	0,070	0,090
-530,321	71,576	-0,083	-0,063
-529,306	-200,000	0,002	-0,006
-528,291	86,108	-0,098	-0,078
-527,277	-52,140	0,120	-0,040
-526,262	287,552	-0,065	-0,086
-525,248	31,295	-0,044	-0,027
-524,233	26,822	0,122	0,074
-523,218	482,843	-0,114	-0,190
-522,204	800,000	-0,049	-0,102
-521,189	-200,000	-0,004	-0,080
-520,175	-200,000	0,037	-0,147
-519,160	-17,276	0,014	0,006
-518,145	530,734	0,031	-0,053
-517,131	-200,000	-0,015	-0,127
-516,116	800,000	-0,044	-0,129
-515,102	-200,000	-0,004	-0,076
-514,087	800,000	-0,018	-0,046
-513,072	77,088	0,164	-0,127
-512,058	800,000	-0,056	-0,120
-511,043	81,413	-0,085	0,067
-510,029	157,835	0,127	0,129
-509,014	277,385	0,108	0,141
-507,999	-200,000	0,015	-0,081
-506,985	800,000	-0,021	-0,048
-505,970	-90,115	0,096	-0,020
-504,956	-81,437	-0,132	0,032
-503,941	-95,201	-0,201	-0,039
-502,926	68,280	0,021	-0,016
-501,912	583,480	-0,029	0,052
-500,897	-200,000	0,013	0,092
-499,883	-48,648	-0,180	0,063
-498,868	800,000	0,034	0,074
-497,853	-200,000	0,014	-0,102
-496,839	-104,087	-0,078	0,013
-495,824	-53,577	0,041	0,014
-494,810	104,670	0,061	0,053
-493,795	800,000	0,021	0,061
-492,781	178,889	0,040	0,043
-491,766	-200,000	-0,022	-0,131
-490,751	17,273	-0,012	-0,007
-489,737	-73,302	-0,092	0,024
-488,722	349,889	0,029	0,043
-487,708	45,828	-0,056	0,038
-486,693	-15,996	0,143	-0,066
-485,678	-200,000	0,017	-0,112
-484,664	-200,000	0,014	0,072
-483,649	27,967	-0,101	0,062
-482,635	-73,413	-0,100	0,026
-481,620	-14,838	0,066	0,031
-480,605	327,111	-0,043	0,060
-479,591	-200,000	0,003	0,030
-478,576	-32,911	0,060	-0,024
-477,562	140,274	0,081	0,078
-476,547	362,220	-0,050	-0,073
-475,532	81,919	0,069	0,055
-474,518	-110,228	-0,061	0,009
-473,503	-15,199	0,071	0,033
-472,489	-85,255	-0,068	0,015
-471,474	26,056	-0,059	0,036
-470,459	27,993	-0,099	0,061
-469,445	-200,000	0,023	0,080
-468,430	32,664	-0,098	-0,062
-467,416	-117,906	-0,048	-0,006
-466,401	185,768	-0,023	-0,025
-465,386	-200,000	0,034	0,143
-464,372	231,669	0,079	0,095
-463,357	92,780	-0,123	-0,101
-462,343	-152,972	-0,091	0,005
-461,328	-16,769	0,133	-0,061
-460,313	443,563	0,052	-0,083
-459,299	134,299	0,114	-0,108
-458,284	92,714	0,026	-0,021
-457,270	800,000	-0,028	-0,070
-456,255	188,825	-0,091	-0,100
-455,241	0,268	-0,142	-0,074
-454,226	-81,361	0,049	0,012
-453,211	800,000	0,007	-0,018
-452,197	762,611	0,024	0,047
-451,182	-200,000	0,003	0,163
-450,168	20,631	-0,141	0,083
-449,153	-200,000	-0,021	0,105
-448,138	-200,000	0,023	-0,075
-447,124	-200,000	-0,006	0,060
-446,109	278,199	-0,033	0,043
-445,095	800,000	0,023	0,062
-444,080	31,673	0,088	0,055
-443,065	-200,000	0,002	-0,057
-442,051	-200,000	0,007	0,049
-441,036	231,630	-0,120	-0,143
-440,022	-200,000	0,007	0,023
-439,007	-11,580	0,071	-0,034
-437,992	287,377	0,035	0,046
-436,978	-200,000	-0,007	0,171
-435,963	-7,058	-0,018	-0,009
-434,949	-122,194	0,072	0,008
-433,934	800,000	0,050	-0,113
-432,919	-82,961	0,014	-0,003
-431,905	-126,718	-0,031	0,003
-430,890	208,518	0,065	-0,074
-429,876	-108,765	0,021	0,003
-428,861	-200,000	0,003	0,076
-427,846	349,505	-0,041	0,059
-426,832	-146,817	0,036	-0,002
-425,817	-119,370	0,030	0,004
-424,803	800,000	-0,050	-0,135
-423,788	-200,000	0,013	-0,054
-422,773	800,000	-0,017	0,041
-421,759	-200,000	-0,001	-0,032
-420,744	442,750	-0,081	0,130
-419,730	-200,000	-0,068	-0,000
-418,715	-200,000	-0,005	-0,044
-417,701	-18,749	-0,107	-0,048
-416,686	104,853	0,022	0,019
-415,671	384,375	0,081	-0,122
-414,657	-59,201	0,081	0,025
-413,642	415,363	0,061	-0,095
-412,628	800,000	-0,016	0,038
-411,613	426,089	-0,036	-0,056
-410,598	425,106	-0,038	0,060
-409,584	-101,612	-0,037	-0,006
-408,569	363,353	0,039	0,057
-407,555	-21,733	-0,166	-0,073
-406,540	125,630	-0,075	-0,069
-405,525	-200,000	0,004	0,164
-404,511	125,662	-0,045	0,041
-403,496	-59,493	0,015	-0,005
-402,482	-57,687	-0,090	0,029
-401,467	166,653	0,038	0,040
-400,452	300,126	0,114	0,154
-399,438	242,987	-0,010	-0,013
-398,423	139,642	-0,072	-0,069
-397,409	-200,000	-0,022	0,075
-396,394	-86,035	-0,202	-0,045
-395,379	127,062	-0,040	-0,037
-394,365	273,389	0,100	0,129
-393,350	-200,000	-0,003	-0,275
-392,336	-200,000	0,028	0,127
-391,321	-200,000	0,019	-0,062
-390,306	-93,410	-0,146	0,029
-389,292	800,000	0,037	0,101
-388,277	-200,000	0,010	-0,048
-387,263	117,449	0,081	-0,072
-386,248	-200,000	0,017	0,069
-385,233	99,260	0,100	0,084
-384,219	276,832	-0,067	-0,086
-383,204	800,000	-0,045	-0,111
-382,190	-126,863	0,145	-0,015
-381,175	-121,467	0,051	-0,006
-380,160	103,090	0,071	-0,060
-379,146	-200,000	0,009	-0,104
-378,131	310,460	-0,032	0,043
-377,117	56,911	0,096	0,068
-376,102	-200,000	0,004	-0,044
-375,088	198,038	0,063	-0,070
-374,073	70,430	-0,143	-0,107
-373,058	800,000	0,056	0,128
-372,044	-147,615	0,137	0,008
-371,029	-71,095	0,072	-0,019
-370,015	47,573	0,088	0,060
-369,000	800,000	-0,035	0,112
-367,985	269,387	0,045	-0,057
-366,971	-200,000	-0,024	-0,122
-365,956	-132,784	0,087	-0,008
-364,942	-200,000	0,038	0,135
-363,927	-200,000	0,006	0,067
-362,912	562,603	0,028	0,049
-361,898	168,896	-0,078	-0,080
-360,883	-50,873	-0,127	-0,043
-359,869	105,556	0,098	-0,084
-358,854	-200,000	0,027	0,101
-357,839	271,479	0,064	0,082
-356,825	487,511	0,020	0,034
-355,810	175,892	0,085	0,090
-354,796	495,647	-0,062	-0,104
-353,781	-200,000	0,048	-0,157
-352,766	-97,067	0,061	-0,012
-351,752	45,014	0,150	0,100
-350,737	-200,000	-0,018	0,085
-349,723	-200,000	0,020	0,076
-348,708	132,508	0,039	-0,037
-347,693	-75,322	-0,035	-0,009
-346,679	800,000	-0,020	-0,061
-345,664	800,000	-0,025	-0,051
-344,650	340,185	0,061	-0,086
-343,635	800,000	-0,028	0,082
-342,620	-127,548	-0,027	-0,003
-341,606	-105,988	0,010	-0,002
-340,591	-77,767	0,069	-0,017
-339,577	-200,000	0,016	0,139
-338,562	45,572	-0,097	0,065
-337,548	309,413	-0,071	-0,097
-336,533	-12,132	0,028	-0,013
-335,518	-200,000	-0,001	0,013
-334,504	-200,000	0,025	-0,153
-333,489	-200,000	-0,075	-0,291
-332,475	79,886	0,045	-0,035
-331,460	20,107	-0,059	-0,034
-330,445	-18,673	-0,068	0,031
-329,431	-200,000	-0,014	0,152
-328,416	32,062	0,044	-0,027
-327,402	80,429	0,115	0,090
-326,387	63,854	-0,081	0,059
-325,372	-52,449	0,076	-0,025
-324,358	2,672	-0,091	0,048
-323,343	-200,000	-0,002	0,024
-322,329	44,390	0,102	-0,068
-321,314	76,401	0,100	0,077
-320,299	-37,972	-0,065	-0,025
-319,285	-200,000	0,015	0,093
-318,270	-105,686	0,027	0,004
-317,256	-27,647	-0,057	0,024
-316,241	800,000	-0,040	-0,125
-315,226	-200,000	0,045	-0,158
-314,212	13,248	0,105	0,059
-313,197	443,322	0,049	0,079
-312,183	-16,404	0,064	0,029
-311,168	161,228	-0,079	-0,080
-310,153	-200,000	-0,004	-0,116
-309,139	-200,000	0,030	-0,196
-308,124	800,000	0,064	0,197
-307,110	294,739	-0,062	0,083
-306,095	-200,000	0,019	0,108
-305,080	-200,000	0,039	0,127
-304,066	-87,941	0,080	-0,017
-303,051	-13,380	-0,061	-0,029
-302,037	550,671	-0,082	-0,143
-301,022	800,000	-0,020	0,059
-300,008	-84,655	-0,102	-0,023
-298,993	53,810	0,123	0,086
-297,978	-200,000	0,017	-0,107
-296,964	-200,000	-0,001	0,009
-295,949	-101,320	-0,073	0,013
-294,935	800,000	0,036	-0,114
-293,920	-200,000	-0,002	-0,095
-292,905	-200,000	0,010	0,037
-291,891	81,208	0,037	-0,029
-290,876	800,000	-0,041	-0,084
-289,862	30,891	0,087	0,054
-288,847	-200,000	-0,000	-0,091
-287,832	-200,000	-0,007	-0,028
-286,818	-200,000	-0,005	-0,055
-285,803	-101,565	0,056	0,010
-284,789	800,000	-0,061	0,134
-283,774	112,344	0,161	0,141
-282,759	-176,751	-0,051	-0,001
-281,745	800,000	-0,010	0,023
-280,730	-16,069	-0,018	-0,008
-279,716	22,556	0,100	0,059
-278,701	-200,000	-0,009	-0,052
-277,686	800,000	0,041	0,085
-276,672	-131,095	0,106	0,010
-275,657	-200,000	-0,025	-0,122
-274,643	90,699	-0,078	-0,063
-273,628	800,000	-0,015	0,048
-272,613	-200,000	0,001	-0,052
-271,599	185,713	-0,058	0,062
-270,584	800,000	0,033	0,102
-269,570	-200,000	-0,009	0,079
-268,555	159,279	-0,064	0,065
-267,540	176,711	-0,073	-0,077
-266,526	800,000	-0,037	-0,093
-265,511	157,842	-0,094	0,094
-264,497	21,842	-0,075	0,044
-263,482	-131,911	-0,090	0,008
-262,467	800,000	-0,087	0,188
-261,453	800,000	-0,013	-0,027
-260,438	583,557	-0,064	-0,115
-259,424	-125,840	0,182	0,020
-258,409	58,081	-0,072	-0,051
-257,395	-11,713	0,131	0,062
-256,380	499,361	-0,061	-0,103
-255,365	-200,000	-0,009	0,080
-254,351	30,164	-0,118	0,073
-253,336	800,000	-0,058	-0,120
-252,322	-200,000	-0,028	-0,109
-251,307	-174,814	0,050	-0,001
-250,292	83,259	-0,064	-0,050
-249,278	-200,000	0,007	0,143
-248,263	800,000	0,091	0,192
-247,249	-200,000	0,005	-0,088
-246,234	-122,670	0,020	-0,002
-245,219	82,801	0,034	-0,027
-244,205	-200,000	0,001	0,010
-243,190	-102,566	-0,127	-0,022
-242,176	800,000	0,011	-0,025
-241,161	254,527	0,088	0,109
-240,146	553,790	0,006	0,010
-239,132	-160,062	-0,109	0,004
-238,117	-83,367	0,055	-0,013
-237,103	800,000	0,051	0,112
-236,088	-200,000	-0,009	0,224
-235,073	-75,395	0,161	0,041
-234,059	-86,320	0,064	0,014
-233,044	-96,818	-0,019	0,004
-232,030	129,001	0,031	-0,029
-231,015	152,311	0,043	-0,042
-230,000	89,403	-0,071	-0,057
-228,986	244,786	-0,050	0,061
-227,971	77,794	0,153	-0,118
-226,957	-200,000	0,009	0,102
-225,942	-39,810	-0,100	0,038
-224,927	-200,000	-0,006	-0,047
-223,913	-200,000	-0,035	-0,139
-222,898	-56,137	0,095	-0,030
-221,884	-86,399	0,153	-0,034
-220,869	370,852	-0,007	-0,010
-219,855	-80,135	0,030	-0,007
-218,840	800,000	-0,005	-0,016
-217,825	800,000	-0,042	0,116
-216,811	-56,512	-0,054	-0,017
-215,796	-111,286	0,092	-0,013
-214,782	221,033	-0,025	0,030
-213,767	-80,233	0,120	0,029
-212,752	12,351	0,034	-0,019
-211,738	5,697	0,053	0,028
-210,723	800,000	0,040	0,110
-209,709	-78,646	-0,133	0,033
-208,694	-141,170	0,081	-0,006
-207,679	-91,103	0,042	-0,009
-206,665	-200,000	-0,014	0,050
-205,650	247,302	0,105	0,128
-204,636	-159,964	-0,042	-0,002
-203,621	-200,000	-0,025	-0,093
-202,606	29,051	-0,068	0,042
-201,592	108,485	-0,086	-0,074
-200,577	800,000	0,033	-0,067
-199,563	-1,441	-0,071	0,036
-198,548	194,214	0,038	-0,042
-197,533	-123,581	-0,146	-0,017
-196,519	436,498	-0,114	0,180
-195,504	456,505	0,005	-0,008
-194,490	597,847	0,063	-0,113
-193,475	800,000	0,043	-0,086
-192,460	-132,440	0,079	-0,007
-191,446	570,845	0,079	0,140
-190,431	-58,874	0,122	-0,038
-189,417	-70,023	-0,009	0,003
-188,402	-31,773	0,042	-0,017
-187,387	421,353	-0,069	0,107
-186,373	800,000	0,021	-0,049
-185,358	151,717	0,050	-0,049
-184,344	-200,000	0,007	0,027
-183,329	-72,782	0,171	0,045
-182,315	-35,785	0,115	0,045
-181,300	-200,000	-0,024	-0,109
-180,285	-152,251	-0,134	0,007
-179,271	127,816	0,023	0,021
-178,256	-61,454	0,013	0,004
-177,242	-200,000	0,001	-0,053
-176,227	-200,000	-0,001	-0,003
-175,212	755,212	0,041	0,081
-174,198	-88,570	-0,116	-0,025
-173,183	31,470	-0,018	-0,011
-172,169	86,054	-0,036	-0,028
-171,154	562,706	0,052	0,090
-170,139	21,303	0,087	-0,051
-169,125	-200,000	-0,028	0,226
-168,110	-200,000	-0,013	0,093
-167,096	-200,000	0,013	0,103
-166,081	-43,838	-0,109	0,039
-165,066	800,000	0,035	-0,091
-164,052	449,415	0,044	-0,069
-163,037	-152,083	0,083	0,004
-162,023	123,588	-0,012	-0,011
-161,008	151,474	-0,125	0,123
-159,993	-200,000	-0,015	0,147
-158,979	800,000	0,029	-0,089
-157,964	-33,803	-0,031	-0,012
-156,950	-4,421	-0,093	-0,046
-155,935	-116,416	0,085	-0,011
-154,920	-200,000	0,037	0,130
-153,906	800,000	-0,031	0,084
-152,891	-200,000	0,021	0,091
-151,877	800,000	0,032	0,068
-150,862	800,000	-0,012	0,033
-149,847	800,000	0,019	0,052
-148,833	136,191	0,126	-0,118
-147,818	-42,673	0,068	0,025
-146,804	611,200	0,066	0,119
-145,789	-200,000	-0,020	0,083
-144,775	117,191	0,057	-0,050
-143,760	437,444	0,058	-0,091
-142,745	236,255	-0,069	-0,083
-141,731	399,209	0,072	0,108
-140,716	253,878	0,021	-0,025
-139,702	-200,000	-0,008	0,127
-138,687	119,983	-0,113	0,101
-137,672	4,919	0,165	-0,087
-136,658	-16,276	0,058	-0,026
-135,643	-112,687	-0,098	-0,014
-134,629	23,911	-0,091	0,054
-133,614	-200,000	-0,008	-0,045
-132,599	30,873	0,050	0,031
-131,585	-54,752	0,074	0,024
-130,570	-118,796	-0,128	-0,016
-129,556	629,501	-0,088	-0,160
-128,541	156,351	-0,009	-0,009
-127,526	-5,414	0,055	0,027
-126,512	-200,000	-0,015	0,088
-125,497	-200,000	0,010	0,040
-124,483	489,903	-0,033	-0,055
-123,468	130,330	-0,060	0,055
-122,453	800,000	-0,013	-0,027
-121,439	25,367	-0,119	-0,071
-120,424	800,000	0,029	0,068
-119,410	203,364	-0,038	-0,042
