DTS Sentinel unit serial number:	SN410029Multiplexer serial number:	ORYXHardware model number:	OX2-SRSoftware version number:	ORYX F/W v4,00 Oryx Data Collector v3.7.2.0data status	okinstallation	B5 Nyhavnadifferential loss correction	single-endedforward channel	channel 2reverse channel	N/Adate	2023/12/12time	13:52:13forward acquisition time	300,00reverse acquisition time	0,00gamma	499,1914k internal	0,3157k external	0,3157temperature offset calibration	1,0000default loss term (dB/km)	0,3820temperature slope calibration	1,0000multiplexer offset coefficient	1,0000multiplexer slope coefficient	1,0000fibre end	0,00T internal ref (°C)	15,74T ext. ref 1 (°C)	-0,30T ext. ref 2 (°C)	-0,52length (m)	temperature (°C)	Stokes	anti-Stokes-744,400	-35,426	0,073	0,029
-743,385	-88,285	-0,367	0,080
-742,371	683,189	0,040	0,077
-741,356	-192,897	-0,311	-0,002
-740,342	50,414	0,148	0,103
-739,327	-61,311	-0,300	0,092
-738,312	-83,155	0,190	-0,045
-737,298	-89,516	-0,257	0,055
-736,283	378,553	0,114	0,173
-735,269	-149,153	-0,345	0,020
-734,254	435,352	0,095	-0,153
-733,239	-73,640	-0,347	-0,093
-732,225	-62,989	0,221	0,067
-731,210	800,000	-0,023	0,057
-730,196	8,759	-0,048	-0,027
-729,181	800,000	-0,026	-0,061
-728,167	163,272	-0,074	-0,076
-727,152	-200,000	0,004	0,131
-726,137	-200,000	0,001	-0,054
-725,123	279,639	-0,117	-0,155
-724,108	-4,165	-0,032	-0,016
-723,094	-200,000	0,016	0,085
-722,079	705,451	-0,035	0,068
-721,064	-200,000	-0,034	-0,121
-720,050	3,171	-0,114	-0,061
-719,035	-200,000	-0,008	0,055
-718,021	51,724	0,049	0,034
-717,006	339,865	-0,068	-0,098
-715,991	-21,786	-0,088	-0,039
-714,977	-16,953	-0,102	-0,047
-713,962	-5,567	-0,032	-0,016
-712,948	800,000	0,011	-0,028
-711,933	-200,000	0,017	0,121
-710,918	-101,037	0,114	-0,020
-709,904	189,623	-0,103	-0,114
-708,889	-200,000	-0,001	-0,187
-707,875	678,259	-0,078	-0,150
-706,860	-45,031	-0,082	0,030
-705,845	705,950	0,043	-0,084
-704,831	-107,259	0,083	-0,013
-703,816	57,935	0,003	-0,002
-702,802	789,383	-0,088	0,178
-701,787	-200,000	-0,032	0,158
-700,772	800,000	0,025	-0,061
-699,758	365,895	-0,060	-0,089
-698,743	131,532	0,054	0,051
-697,729	107,226	-0,027	0,023
-696,714	-200,000	0,033	0,117
-695,699	535,901	-0,022	0,039
-694,685	-131,324	-0,121	-0,012
-693,670	-75,397	-0,015	0,004
-692,656	-108,404	0,156	-0,024
-691,641	-134,046	0,109	0,010
-690,627	599,365	-0,056	-0,102
-689,612	193,935	-0,034	-0,037
-688,597	-200,000	0,002	0,012
-687,583	-139,819	0,080	-0,006
-686,568	-200,000	0,013	0,090
-685,554	-106,928	-0,105	-0,017
-684,539	32,358	0,068	-0,043
-683,524	159,232	0,113	0,116
-682,510	565,496	0,079	0,141
-681,495	-100,673	0,046	-0,008
-680,481	111,846	-0,014	-0,012
-679,466	-200,000	0,022	-0,188
-678,451	-200,000	-0,002	-0,026
-677,437	-200,000	-0,012	-0,109
-676,422	-200,000	-0,008	-0,066
-675,408	202,976	0,066	0,075
-674,393	-117,594	-0,130	-0,017
-673,378	800,000	-0,059	-0,172
-672,364	546,631	-0,065	-0,115
-671,349	30,638	0,030	-0,019
-670,335	800,000	0,065	0,171
-669,320	-200,000	0,004	-0,022
-668,305	-101,122	-0,063	0,011
-667,291	-200,000	-0,018	0,093
-666,276	-200,000	-0,007	0,145
-665,262	279,823	-0,044	0,058
-664,247	-200,000	0,016	-0,093
-663,232	-77,332	-0,150	-0,038
-662,218	204,577	-0,076	0,087
-661,203	-200,000	0,008	0,045
-660,189	2,819	0,054	0,029
-659,174	71,784	-0,091	-0,070
-658,159	-111,716	-0,101	0,015
-657,145	273,950	0,073	-0,096
-656,130	-113,179	0,080	-0,012
-655,116	141,140	0,059	0,057
-654,101	-200,000	0,008	0,109
-653,086	148,895	-0,038	0,037
-652,072	10,266	-0,048	0,026
-651,057	800,000	-0,060	-0,162
-650,043	-200,000	0,032	0,177
-649,028	-21,391	0,018	-0,008
-648,014	69,296	-0,043	0,032
-646,999	600,778	-0,033	0,061
-645,984	88,553	-0,071	0,058
-644,970	-200,000	0,025	-0,140
-643,955	-200,000	0,015	-0,067
-642,941	-200,000	0,005	-0,059
-641,926	800,000	-0,047	0,116
-640,911	41,937	0,066	-0,044
-639,897	177,084	0,071	-0,076
-638,882	-200,000	-0,008	0,070
-637,868	800,000	-0,011	-0,031
-636,853	-11,208	-0,058	0,028
-635,838	800,000	-0,028	0,071
-634,824	-106,383	-0,122	0,020
-633,809	-51,990	0,055	0,019
-632,795	800,000	0,013	0,030
-631,780	259,755	-0,027	-0,034
-630,765	5,854	-0,079	-0,043
-629,751	-200,000	0,013	-0,093
-628,736	800,000	-0,077	-0,195
-627,722	800,000	0,009	0,020
-626,707	59,722	0,037	0,027
-625,692	-131,642	-0,047	0,004
-624,678	433,864	0,048	-0,076
-623,663	800,000	0,083	-0,218
-622,649	-33,371	-0,059	-0,024
-621,634	-45,104	-0,097	-0,035
-620,619	112,736	0,022	0,020
-619,605	248,313	0,059	0,073
-618,590	116,696	0,043	0,039
-617,576	742,406	-0,027	-0,054
-616,561	-47,566	-0,099	0,035
-615,546	-56,158	0,078	0,025
-614,532	-74,482	-0,080	-0,021
-613,517	27,344	-0,125	-0,077
-612,503	-200,000	0,003	-0,026
-611,488	65,909	0,159	-0,118
-610,474	-17,158	-0,087	-0,040
-609,459	18,843	-0,118	-0,069
-608,444	-200,000	-0,008	0,089
-607,430	64,444	-0,048	0,036
-606,415	101,586	-0,036	-0,031
-605,401	85,488	-0,082	0,066
-604,386	-82,179	0,133	0,032
-603,371	-200,000	0,014	0,060
-602,357	-200,000	-0,016	-0,073
-601,342	-54,036	-0,095	0,032
-600,328	-25,693	0,031	-0,013
-599,313	-133,583	0,040	-0,004
-598,298	187,619	-0,069	0,075
-597,284	-123,284	-0,067	-0,008
-596,269	24,106	-0,117	-0,070
-595,255	498,120	0,005	-0,008
-594,240	-134,772	0,058	0,005
-593,225	-31,490	0,027	0,011
-592,211	-25,353	0,092	0,040
-591,196	29,987	0,066	0,041
-590,182	-200,000	-0,002	-0,050
-589,167	580,688	0,014	-0,026
-588,152	800,000	0,050	0,157
-587,138	-48,175	-0,054	-0,019
-586,123	-200,000	-0,007	-0,031
-585,109	196,293	-0,101	-0,113
-584,094	-17,473	0,114	-0,052
-583,079	-25,231	-0,033	-0,014
-582,065	586,178	-0,042	-0,076
-581,050	-200,000	0,032	0,133
-580,036	21,757	-0,036	-0,022
-579,021	300,005	-0,076	0,103
-578,006	50,683	-0,024	-0,017
-576,992	-1,590	-0,072	0,037
-575,977	167,757	0,020	0,021
-574,963	280,760	-0,055	0,072
-573,948	482,556	0,087	0,146
-572,934	221,529	0,014	-0,017
-571,919	49,449	-0,052	-0,036
-570,904	-102,364	-0,122	-0,021
-569,890	-29,166	0,066	0,028
-568,875	69,693	-0,034	0,025
-567,861	800,000	0,065	0,167
-566,846	76,275	0,034	-0,026
-565,831	107,472	-0,079	-0,069
-564,817	-45,414	0,145	0,052
-563,802	-63,220	-0,276	-0,083
-562,788	-8,476	0,048	-0,023
-561,773	541,654	0,058	-0,102
-560,758	35,856	-0,092	0,059
-559,744	-164,266	-0,118	-0,004
-558,729	-10,072	-0,118	0,057
-557,715	751,766	-0,008	0,016
-556,700	800,000	0,038	-0,107
-555,685	800,000	-0,074	-0,181
-554,671	800,000	-0,013	0,041
-553,656	-151,153	0,118	0,006
-552,642	-147,782	0,060	0,004
-551,627	54,853	0,104	-0,073
-550,612	28,616	-0,093	-0,057
-549,598	-200,000	-0,001	0,076
-548,583	160,725	0,007	0,007
-547,569	-83,568	0,015	0,004
-546,554	800,000	0,020	0,056
-545,539	72,616	-0,075	0,057
-544,525	106,438	-0,041	0,035
-543,510	541,100	0,051	0,089
-542,496	47,165	0,033	0,023
-541,481	-200,000	-0,025	-0,083
-540,466	-200,000	-0,004	-0,040
-539,452	-74,043	-0,024	0,006
-538,437	57,106	-0,168	0,120
-537,423	-200,000	0,012	0,073
-536,408	800,000	-0,036	0,098
-535,393	-15,741	-0,143	-0,066
-534,379	-200,000	0,029	-0,139
-533,364	292,323	-0,074	0,099
-532,350	113,373	0,154	0,137
-531,335	800,000	-0,052	0,114
-530,321	79,933	-0,032	0,025
-529,306	11,197	-0,114	0,063
-528,291	185,074	-0,084	0,092
-527,277	36,498	-0,137	0,088
-526,262	800,000	0,040	0,086
-525,248	210,948	0,096	0,111
-524,233	-53,039	0,047	-0,016
-523,218	800,000	0,012	-0,037
-522,204	-134,355	-0,092	-0,008
-521,189	329,160	0,030	0,043
-520,175	-200,000	0,036	-0,145
-519,160	-200,000	-0,006	-0,103
-518,145	-200,000	0,007	0,069
-517,131	-123,599	0,068	0,008
-516,116	-200,000	-0,003	0,088
-515,102	159,700	-0,053	-0,054
-514,087	800,000	0,068	-0,196
-513,072	20,290	-0,113	-0,067
-512,058	105,651	-0,019	-0,016
-511,043	-37,967	-0,013	0,005
-510,029	-84,877	0,105	-0,024
-509,014	43,426	0,061	0,041
-507,999	-35,844	-0,128	0,050
-506,985	800,000	-0,042	-0,112
-505,970	-164,589	-0,059	-0,002
-504,956	71,711	0,114	0,086
-503,941	589,427	0,006	-0,011
-502,926	-53,725	0,104	0,034
-501,912	109,058	0,039	-0,034
-500,897	-200,000	0,011	-0,087
-499,883	-115,108	0,016	-0,002
-498,868	-1,748	-0,147	-0,075
-497,853	390,346	0,128	-0,195
-496,839	-3,859	-0,020	0,010
-495,824	800,000	0,027	0,067
-494,810	535,686	0,034	0,058
-493,795	5,525	0,069	0,037
-492,781	149,630	0,032	-0,032
-491,766	219,978	0,007	-0,008
-490,751	-34,178	0,137	0,055
-489,737	-79,038	-0,150	-0,037
-488,722	-198,420	0,106	0,000
-487,708	352,350	-0,068	0,099
-486,693	-22,066	0,097	0,043
-485,678	-60,147	0,090	-0,028
-484,664	-200,000	0,016	-0,154
-483,649	128,845	-0,098	-0,091
-482,635	206,423	-0,022	-0,025
-481,620	-166,143	-0,070	-0,002
-480,605	-105,656	0,040	-0,007
-479,591	50,021	-0,056	0,039
-478,576	-200,000	-0,007	-0,047
-477,562	-200,000	-0,017	-0,136
-476,547	-47,821	-0,085	-0,030
-475,532	800,000	0,080	-0,254
-474,518	-200,000	0,029	-0,189
-473,503	-43,048	-0,015	-0,006
-472,489	-200,000	-0,010	0,044
-471,474	-106,534	-0,099	-0,016
-470,459	-17,755	0,057	0,026
-469,445	570,905	0,066	-0,117
-468,430	80,374	-0,096	-0,076
-467,416	-174,474	0,171	0,003
-466,401	-200,000	0,016	-0,069
-465,386	-200,000	-0,029	0,115
-464,372	-5,178	-0,045	0,022
-463,357	137,172	0,013	0,012
-462,343	-200,000	0,010	0,034
-461,328	81,031	-0,087	0,068
-460,313	-131,957	0,038	-0,004
-459,299	-89,372	-0,038	0,008
-458,284	86,560	0,062	0,050
-457,270	41,505	0,013	-0,008
-456,255	31,029	-0,061	0,038
-455,241	-95,559	-0,111	-0,022
-454,226	182,743	0,049	-0,053
-453,211	19,155	0,088	-0,051
-452,197	10,492	0,082	-0,046
-451,182	105,653	0,104	0,089
-450,168	-55,224	0,152	0,050
-449,153	562,545	-0,036	-0,063
-448,138	-38,879	-0,114	-0,043
-447,124	-137,052	0,138	0,011
-446,109	-200,000	-0,006	0,033
-445,095	-55,529	0,033	0,011
-444,080	-200,000	0,018	0,163
-443,065	-107,081	0,090	0,014
-442,051	800,000	-0,039	0,116
-441,036	-22,789	0,087	0,038
-440,022	800,000	-0,027	-0,071
-439,007	-200,000	-0,023	-0,124
-437,992	255,436	0,047	-0,059
-436,978	-200,000	0,017	0,060
-435,963	66,379	-0,051	-0,038
-434,949	-200,000	-0,013	-0,082
-433,934	639,853	-0,023	-0,044
-432,919	-11,448	0,052	-0,025
-431,905	-200,000	-0,017	0,057
-430,890	128,653	0,021	-0,020
-429,876	-200,000	0,014	0,093
-428,861	800,000	0,040	0,101
-427,846	-200,000	0,011	0,089
-426,832	-107,957	-0,051	0,008
-425,817	308,782	-0,039	-0,053
-424,803	-200,000	-0,031	-0,113
-423,788	-85,040	-0,053	-0,012
-422,773	39,257	-0,143	0,093
-421,759	325,086	0,045	-0,063
-420,744	85,945	-0,061	-0,049
-419,730	12,372	-0,108	-0,060
-418,715	-2,108	0,038	0,019
-417,701	169,694	-0,079	-0,082
-416,686	-5,074	-0,064	-0,032
-415,671	-73,356	0,061	-0,016
-414,657	91,244	-0,041	-0,033
-413,642	73,559	0,060	0,046
-412,628	-200,000	0,025	-0,084
-411,613	175,209	-0,082	-0,086
-410,598	-44,231	0,067	0,024
-409,584	800,000	-0,018	0,040
-408,569	24,715	-0,048	-0,029
-407,555	800,000	0,063	0,145
-406,540	1,100	-0,146	0,076
-405,525	-200,000	0,027	-0,108
-404,511	-31,222	-0,075	0,031
-403,496	94,306	0,015	0,012
-402,482	532,769	0,046	-0,080
-401,467	-93,670	0,064	-0,013
-400,452	2,401	0,016	-0,008
-399,438	-200,000	0,018	0,060
-398,423	331,889	-0,033	-0,046
-397,409	-96,762	-0,114	0,022
-396,394	-200,000	0,019	-0,075
-395,379	-200,000	-0,024	-0,083
-394,365	-93,717	-0,046	0,009
-393,350	-85,246	0,078	0,018
-392,336	800,000	0,041	0,132
-391,321	-47,420	-0,111	-0,039
-390,306	29,982	-0,129	0,080
-389,292	47,872	0,010	-0,007
-388,277	-11,803	-0,078	0,037
-387,263	-200,000	0,002	-0,101
-386,248	67,266	-0,088	-0,065
-385,233	85,069	-0,067	-0,054
-384,219	-59,616	-0,099	0,031
-383,204	52,462	-0,029	-0,020
-382,190	-200,000	0,011	-0,050
-381,175	800,000	-0,088	-0,187
-380,160	-200,000	0,024	0,131
-379,146	458,057	0,076	0,124
-378,131	-161,229	0,139	-0,005
-377,117	319,579	-0,103	0,142
-376,102	177,030	-0,046	0,049
-375,088	542,749	0,049	0,086
-374,073	-200,000	-0,008	-0,057
-373,058	-39,806	-0,123	0,046
-372,044	-200,000	-0,018	0,062
-371,029	529,766	-0,097	0,167
-370,015	-179,662	0,058	0,001
-369,000	298,484	-0,056	-0,075
-367,985	31,424	-0,062	-0,039
-366,971	-200,000	0,015	-0,143
-365,956	-200,000	-0,021	0,092
-364,942	493,613	-0,045	0,075
-363,927	-161,400	0,156	0,006
-362,912	46,460	-0,082	0,055
-361,898	-86,133	-0,116	-0,026
-360,883	572,066	0,024	-0,043
-359,869	47,536	0,185	0,125
-358,854	194,119	-0,113	0,125
-357,839	-200,000	0,055	0,180
-356,825	585,958	0,069	0,124
-355,810	800,000	-0,045	0,130
-354,796	124,042	-0,101	-0,092
-353,781	800,000	0,013	-0,035
-352,766	67,020	0,087	-0,064
-351,752	-47,237	-0,142	0,050
-350,737	-72,900	0,111	0,029
-349,723	-59,102	0,078	0,024
-348,708	47,634	-0,049	-0,033
-347,693	800,000	-0,048	-0,151
-346,679	-75,587	-0,022	-0,006
-345,664	-200,000	0,007	-0,122
-344,650	10,896	0,092	0,051
-343,635	-18,946	0,015	-0,007
-342,620	-200,000	0,005	0,145
-341,606	-11,288	0,038	-0,018
-340,591	800,000	-0,010	0,028
-339,577	-200,000	0,009	-0,157
-338,562	58,739	0,128	-0,091
-337,548	-92,903	0,065	0,013
-336,533	-200,000	-0,012	0,110
-335,518	800,000	0,053	0,108
-334,504	800,000	-0,022	-0,061
-333,489	-200,000	-0,015	0,201
-332,475	-102,529	0,106	-0,018
-331,460	-200,000	0,002	0,030
-330,445	123,891	-0,012	0,011
-329,431	-200,000	0,032	0,156
-328,416	-200,000	0,049	0,205
-327,402	678,555	-0,078	0,147
-326,387	-200,000	-0,018	0,140
-325,372	-169,365	-0,208	0,005
-324,358	121,609	-0,119	-0,107
-323,343	-6,413	0,047	0,023
-322,329	121,029	0,067	-0,060
-321,314	-200,000	-0,036	0,123
-320,299	-200,000	-0,031	-0,114
-319,285	-55,914	0,155	-0,050
-318,270	-38,893	0,108	-0,041
-317,256	161,797	-0,128	0,130
-316,241	800,000	-0,048	-0,099
-315,226	13,035	0,056	-0,031
-314,212	318,606	-0,034	0,047
-313,197	240,894	-0,029	-0,035
-312,183	-200,000	-0,001	0,097
-311,168	-200,000	-0,003	-0,039
-310,153	-200,000	-0,003	-0,141
-309,139	141,846	0,083	0,079
-308,124	-57,069	0,078	-0,025
-307,110	403,618	-0,044	-0,067
-306,095	-200,000	0,039	0,134
-305,080	-140,173	-0,123	0,009
-304,066	65,510	0,025	-0,018
-303,051	-200,000	0,011	-0,199
-302,037	-200,000	0,015	-0,051
-301,022	-79,019	0,038	0,009
-300,008	781,112	-0,030	-0,060
-298,993	780,734	0,093	0,186
-297,978	-200,000	-0,004	0,088
-296,964	79,527	0,111	-0,087
-295,949	59,951	-0,140	-0,100
-294,935	-200,000	0,005	-0,076
-293,920	734,684	0,066	-0,129
-292,905	17,723	0,069	-0,040
-291,891	381,758	0,023	0,034
-290,876	-200,000	-0,004	0,100
-289,862	386,124	-0,035	-0,052
-288,847	-200,000	0,004	-0,030
-287,832	665,474	-0,040	-0,075
-286,818	697,478	0,021	0,041
-285,803	-200,000	-0,117	-0,000
-284,789	677,587	0,025	0,048
-283,774	800,000	0,048	0,126
-282,759	-200,000	0,002	0,030
-281,745	800,000	-0,057	-0,119
-280,730	800,000	0,053	-0,115
-279,716	-157,629	-0,127	-0,005
-278,701	14,220	-0,049	0,027
-277,686	-7,966	-0,081	0,040
-276,672	800,000	-0,011	-0,031
-275,657	673,840	0,064	-0,121
-274,643	215,849	0,016	0,018
-273,628	345,320	-0,067	-0,096
-272,613	-20,169	0,149	-0,066
-271,599	347,643	0,043	0,061
-270,584	-200,000	0,004	-0,086
-269,570	-38,165	0,058	0,022
-268,555	-42,746	-0,070	-0,026
-267,540	800,000	-0,035	-0,078
-266,526	115,262	-0,106	-0,093
-265,511	800,000	0,022	-0,059
-264,497	49,667	0,085	-0,058
-263,482	-86,206	0,081	-0,018
-262,467	605,783	0,064	0,116
-261,453	800,000	0,013	0,032
-260,438	194,984	0,052	0,058
-259,424	467,844	0,015	-0,025
-258,409	197,232	0,139	-0,154
-257,395	-200,000	0,005	0,163
-256,380	85,637	0,121	-0,096
-255,365	-200,000	-0,010	0,073
-254,351	147,424	-0,072	0,070
-253,336	-200,000	-0,002	-0,031
-252,322	-23,817	-0,055	0,024
-251,307	800,000	0,029	-0,083
-250,292	-83,640	0,043	-0,010
-249,278	345,319	0,106	0,150
-248,263	-200,000	0,033	0,156
-247,249	-92,411	-0,078	-0,016
-246,234	16,984	0,065	-0,037
-245,219	150,023	0,076	-0,074
-244,205	104,171	0,047	-0,040
-243,190	-200,000	-0,000	0,030
-242,176	-80,918	-0,017	0,004
-241,161	31,792	0,099	0,061
-240,146	-200,000	-0,022	0,127
-239,132	246,692	-0,059	0,072
-238,117	800,000	0,049	-0,106
-237,103	800,000	-0,033	0,084
-236,088	-200,000	-0,004	0,075
-235,073	65,545	0,108	-0,079
-234,059	-121,345	0,126	0,015
-233,044	-200,000	-0,011	-0,073
-232,030	-200,000	0,027	-0,143
-231,015	-200,000	0,026	-0,162
-230,000	-200,000	0,004	-0,083
-228,986	195,836	-0,069	-0,076
-227,971	800,000	0,024	0,049
-226,957	-107,914	0,101	0,016
-225,942	165,446	0,089	0,091
-224,927	41,272	0,067	-0,044
-223,913	-117,156	-0,092	0,012
-222,898	-130,257	0,126	0,012
-221,884	135,809	0,044	-0,042
-220,869	221,950	0,140	-0,163
-219,855	-72,071	-0,142	-0,038
-218,840	-200,000	0,022	0,124
-217,825	299,663	-0,021	-0,027
-216,811	800,000	-0,010	0,028
-215,796	137,046	0,026	-0,024
-214,782	224,508	0,122	-0,143
-213,767	-20,387	0,048	0,021
-212,752	-200,000	-0,013	0,088
-211,738	782,418	0,122	0,243
-210,723	-12,591	-0,030	-0,014
-209,709	196,564	0,052	-0,057
-208,694	-87,476	0,042	0,009
-207,679	-20,702	-0,021	-0,009
-206,665	-200,000	-0,018	0,146
-205,650	-200,000	0,030	-0,134
-204,636	719,267	-0,054	0,104
-203,621	337,031	-0,034	-0,048
-202,606	618,865	0,040	0,073
-201,592	-200,000	-0,005	-0,105
-200,577	683,778	0,074	-0,140
-199,563	287,438	0,097	-0,127
-198,548	800,000	0,036	-0,082
-197,533	32,087	0,075	0,046
-196,519	150,678	-0,058	0,057
-195,504	221,065	-0,104	0,120
-194,490	-200,000	0,017	-0,073
-193,475	-200,000	0,017	-0,121
-192,460	-138,591	0,202	-0,016
-191,446	80,520	0,112	0,087
-190,431	314,896	-0,074	0,101
-189,417	-44,376	0,051	0,018
-188,402	64,174	-0,109	0,079
-187,387	-200,000	0,014	-0,055
-186,373	-200,000	-0,000	-0,051
-185,358	-13,246	-0,053	-0,025
-184,344	-122,586	0,044	0,005
-183,329	206,970	-0,064	0,072
-182,315	-200,000	-0,010	0,068
-181,300	-200,000	-0,032	0,104
-180,285	287,332	-0,060	-0,079
-179,271	-77,299	0,171	0,043
-178,256	-200,000	0,015	0,060
-177,242	-200,000	0,012	-0,059
-176,227	800,000	0,034	0,106
-175,212	488,105	-0,074	-0,123
-174,198	148,477	0,047	-0,045
-173,183	725,590	-0,029	-0,057
-172,169	340,117	0,060	0,085
-171,154	6,213	-0,051	-0,027
-170,139	800,000	0,010	0,021
-169,125	162,970	0,127	-0,128
-168,110	87,030	0,079	0,063
-167,096	-190,015	0,018	0,000
-166,081	-147,337	0,084	0,005
-165,066	-124,436	-0,141	0,016
-164,052	-43,372	-0,047	0,017
-163,037	-30,125	-0,030	-0,012
-162,023	734,511	-0,059	0,114
-161,008	-200,000	-0,012	0,079
-159,993	-90,928	-0,134	0,028
-158,979	-20,736	-0,028	-0,012
-157,964	192,083	0,098	-0,107
-156,950	105,458	-0,048	-0,040
-155,935	800,000	0,038	0,115
-154,920	-200,000	-0,005	0,105
-153,906	-200,000	0,026	0,152
-152,891	58,227	-0,070	0,049
-151,877	86,202	-0,009	-0,007
-150,862	447,481	-0,046	-0,073
-149,847	37,960	0,058	0,037
-148,833	514,038	0,075	0,126
-147,818	800,000	-0,008	-0,017
-146,804	-200,000	0,042	0,186
-145,789	-58,864	0,115	-0,036
-144,775	490,782	0,028	-0,047
-143,760	-200,000	0,029	-0,107
-142,745	575,344	0,060	-0,107
-141,731	220,969	-0,062	-0,071
-140,716	190,556	0,015	-0,016
-139,702	-200,000	-0,008	0,077
-138,687	53,886	0,071	-0,049
-137,672	800,000	0,034	-0,086
-136,658	-3,385	0,097	-0,048
-135,643	-200,000	-0,007	-0,025
-134,629	800,000	0,050	-0,114
-133,614	-77,896	0,039	-0,010
-132,599	196,624	-0,032	-0,036
-131,585	-124,214	0,091	0,010
-130,570	42,127	-0,046	-0,030
-129,556	209,401	0,047	-0,053
-128,541	800,000	-0,005	0,013
-127,526	-19,135	0,030	-0,013
-126,512	-79,888	-0,019	0,004
-125,497	652,297	0,032	0,059
-124,483	-200,000	0,004	-0,038
-123,468	800,000	-0,026	0,067
-122,453	-77,664	-0,047	0,012
-121,439	-200,000	0,015	-0,053
-120,424	800,000	-0,058	0,129
-119,410	67,545	0,075	0,055
-118,395	-200,000	0,020	0,075
