DTS Sentinel unit serial number:	SN410029Multiplexer serial number:	ORYXHardware model number:	OX2-SRSoftware version number:	ORYX F/W v4,00 Oryx Data Collector v3.7.2.0data status	okinstallation	B5 Nyhavnadifferential loss correction	single-endedforward channel	channel 2reverse channel	N/Adate	2023/12/13time	16:02:13forward acquisition time	300,00reverse acquisition time	0,00gamma	499,1914k internal	0,3160k external	0,3160temperature offset calibration	1,0000default loss term (dB/km)	0,3820temperature slope calibration	1,0000multiplexer offset coefficient	1,0000multiplexer slope coefficient	1,0000fibre end	0,00T internal ref (°C)	14,90T ext. ref 1 (°C)	-1,59T ext. ref 2 (°C)	-1,87length (m)	temperature (°C)	Stokes	anti-Stokes-744,400	133,354	0,107	0,102
-743,385	-147,422	-0,185	-0,011
-742,371	-106,471	0,056	-0,009
-741,356	-196,111	-0,238	0,001
-740,342	-200,000	0,061	0,258
-739,327	-76,246	-0,269	0,069
-738,312	-48,801	0,140	0,049
-737,298	-133,342	-0,324	0,030
-736,283	643,704	0,042	0,080
-735,269	-11,944	-0,270	0,130
-734,254	800,000	0,039	0,098
-733,239	-80,986	-0,514	-0,124
-732,225	-84,705	0,175	-0,040
-731,210	77,250	-0,030	0,024
-730,196	81,217	0,089	-0,071
-729,181	-95,061	-0,110	0,022
-728,167	-200,000	-0,002	-0,025
-727,152	56,063	-0,115	-0,082
-726,137	-28,141	-0,063	-0,027
-725,123	-200,000	0,005	0,017
-724,108	34,747	-0,013	-0,008
-723,094	800,000	0,034	-0,095
-722,079	-92,052	0,074	-0,015
-721,064	357,487	0,062	-0,091
-720,050	-39,792	0,045	-0,017
-719,035	-200,000	0,001	0,065
-718,021	-73,909	-0,140	-0,037
-717,006	-200,000	0,021	-0,125
-715,991	-200,000	-0,010	-0,195
-714,977	-200,000	-0,005	0,086
-713,962	-200,000	-0,016	0,057
-712,948	800,000	-0,021	0,060
-711,933	-71,242	0,084	0,023
-710,918	-200,000	-0,009	0,197
-709,904	27,767	-0,130	-0,080
-708,889	800,000	-0,009	-0,026
-707,875	23,365	-0,153	-0,093
-706,860	-200,000	-0,010	-0,060
-705,845	59,294	0,098	0,071
-704,831	-200,000	0,020	0,067
-703,816	60,818	-0,043	-0,031
-702,802	800,000	0,057	-0,117
-701,787	-39,017	-0,055	-0,021
-700,772	-200,000	0,024	-0,121
-699,758	-102,737	0,057	0,010
-698,743	258,595	0,057	-0,072
-697,729	270,272	-0,034	0,044
-696,714	-70,769	-0,075	0,021
-695,699	67,374	0,063	0,047
-694,685	285,847	-0,015	-0,020
-693,670	-148,301	0,123	-0,007
-692,656	-57,905	0,078	-0,025
-691,641	-3,216	-0,074	0,038
-690,627	154,724	0,066	0,066
-689,612	56,927	0,012	0,009
-688,597	567,621	-0,018	-0,032
-687,583	-33,925	0,064	-0,026
-686,568	-19,559	-0,128	-0,058
-685,554	800,000	-0,006	0,015
-684,539	-178,867	0,100	0,002
-683,524	-200,000	-0,017	-0,073
-682,510	-10,574	-0,135	-0,065
-681,495	-150,181	-0,116	-0,006
-680,481	-37,718	-0,064	0,025
-679,466	-156,865	0,024	0,001
-678,451	77,734	-0,126	-0,099
-677,437	109,031	-0,091	-0,080
-676,422	-200,000	0,002	-0,024
-675,408	-24,215	0,151	0,066
-674,393	433,469	-0,074	0,119
-673,378	-11,312	0,105	-0,051
-672,364	-200,000	0,040	-0,000
-671,349	800,000	-0,040	0,095
-670,335	418,662	-0,044	-0,070
-669,320	554,630	0,026	-0,046
-668,305	39,626	0,097	-0,064
-667,291	-200,000	0,004	0,035
-666,276	-200,000	0,034	-0,115
-665,262	800,000	-0,055	-0,124
-664,247	501,263	0,039	-0,066
-663,232	738,014	0,039	-0,077
-662,218	245,878	0,118	-0,146
-661,203	800,000	0,033	0,098
-660,189	800,000	0,024	0,065
-659,174	-35,009	-0,075	-0,030
-658,159	-98,916	0,042	0,008
-657,145	800,000	0,028	-0,081
-656,130	-28,015	-0,102	-0,043
-655,116	522,378	-0,022	-0,038
-654,101	46,840	-0,106	0,072
-653,086	-200,000	-0,061	0,235
-652,072	-67,510	0,055	0,016
-651,057	104,911	-0,073	-0,063
-650,043	341,665	0,074	0,106
-649,028	213,301	-0,048	-0,056
-648,014	115,644	0,141	-0,126
-646,999	800,000	0,006	-0,016
-645,984	56,410	0,052	-0,037
-644,970	-200,000	-0,016	0,123
-643,955	-200,000	-0,016	0,103
-642,941	-200,000	0,023	-0,121
-641,926	-120,062	0,043	0,005
-640,911	800,000	-0,038	-0,119
-639,897	92,035	0,006	0,005
-638,882	-16,035	-0,110	-0,051
-637,868	456,974	-0,018	-0,029
-636,853	-9,490	0,083	-0,041
-635,838	76,519	-0,049	-0,038
-634,824	800,000	-0,049	-0,127
-633,809	289,521	-0,074	0,099
-632,795	-200,000	-0,032	0,173
-631,780	-200,000	-0,022	-0,132
-630,765	94,079	0,038	0,031
-629,751	-200,000	-0,016	0,112
-628,736	51,041	0,032	-0,022
-627,722	-200,000	0,027	-0,133
-626,707	23,356	0,111	0,067
-625,692	34,045	-0,116	-0,074
-624,678	106,484	-0,041	0,035
-623,663	207,141	-0,057	0,065
-622,649	-10,142	-0,085	0,041
-621,634	-121,965	-0,069	0,008
-620,619	456,417	0,025	-0,042
-619,605	-42,703	-0,058	-0,022
-618,590	-200,000	0,004	-0,015
-617,576	180,227	-0,078	-0,084
-616,561	40,762	-0,031	-0,021
-615,546	-86,775	0,069	0,015
-614,532	15,080	-0,118	0,068
-613,517	800,000	-0,029	-0,066
-612,503	-183,916	-0,098	-0,001
-611,488	-200,000	0,018	-0,096
-610,474	-32,517	-0,079	-0,032
-609,459	136,470	0,066	0,063
-608,444	-200,000	0,003	-0,034
-607,430	452,925	-0,079	-0,128
-606,415	458,503	0,090	-0,147
-605,401	-6,765	0,121	0,060
-604,386	-66,392	-0,115	-0,033
-603,371	20,471	0,041	0,024
-602,357	800,000	-0,056	-0,115
-601,342	-200,000	-0,013	0,168
-600,328	-200,000	-0,013	0,041
-599,313	-200,000	-0,003	0,032
-598,298	101,071	-0,066	-0,056
-597,284	800,000	0,061	0,142
-596,269	-162,454	-0,088	0,003
-595,255	79,170	0,057	0,044
-594,240	800,000	-0,036	-0,082
-593,225	-200,000	0,011	-0,134
-592,211	-200,000	-0,000	-0,053
-591,196	103,959	-0,035	0,030
-590,182	163,152	0,081	0,083
-589,167	14,315	0,077	0,044
-588,152	156,347	-0,121	0,122
-587,138	250,134	-0,038	-0,048
-586,123	259,111	0,066	-0,083
-585,109	-0,869	-0,078	-0,040
-584,094	-200,000	0,008	-0,038
-583,079	-200,000	0,016	-0,079
-582,065	33,688	0,111	0,070
-581,050	-200,000	0,004	0,154
-580,036	-200,000	0,012	0,063
-579,021	-28,193	-0,138	-0,058
-578,006	-200,000	0,044	-0,182
-576,992	61,724	-0,127	-0,093
-575,977	-128,222	-0,048	-0,005
-574,963	88,238	0,086	0,070
-573,948	54,860	0,021	0,015
-572,934	-121,101	0,091	-0,011
-571,919	-13,430	-0,076	0,036
-570,904	-74,372	-0,128	0,034
-569,890	-119,234	0,045	0,006
-568,875	297,639	0,037	0,050
-567,861	-0,803	0,127	0,066
-566,846	798,589	0,059	0,121
-565,831	-47,844	-0,035	-0,012
-564,817	55,457	-0,053	-0,037
-563,802	36,712	-0,171	-0,111
-562,788	-200,000	0,023	0,155
-561,773	-33,159	0,100	-0,040
-560,758	70,396	0,121	0,091
-559,744	713,791	-0,063	0,123
-558,729	-81,157	0,030	0,007
-557,715	149,036	-0,102	-0,101
-556,700	-125,476	-0,068	-0,007
-555,685	-25,232	0,074	-0,032
-554,671	-200,000	0,002	0,029
-553,656	-200,000	0,008	0,097
-552,642	800,000	0,042	0,106
-551,627	-47,767	0,130	-0,046
-550,612	-151,848	0,154	0,008
-549,598	-3,141	-0,167	-0,085
-548,583	11,623	-0,106	0,059
-547,569	-58,193	-0,091	-0,029
-546,554	-188,269	0,144	0,001
-545,539	35,258	0,093	0,059
-544,525	101,294	0,084	0,071
-543,510	-200,000	-0,004	0,072
-542,496	143,272	0,058	-0,057
-541,481	-200,000	0,011	-0,092
-540,466	-123,099	-0,084	0,010
-539,452	132,115	0,138	0,130
-538,437	293,105	0,053	0,070
-537,423	-31,868	-0,048	-0,020
-536,408	75,912	-0,057	-0,044
-535,393	-69,685	-0,163	-0,045
-534,379	-200,000	0,011	-0,085
-533,364	117,847	0,057	0,051
-532,350	800,000	0,043	-0,138
-531,335	-200,000	0,040	0,136
-530,321	800,000	0,021	-0,047
-529,306	800,000	0,021	0,065
-528,291	-5,053	-0,104	-0,052
-527,277	-13,429	0,020	0,010
-526,262	-47,792	0,122	0,043
-525,248	800,000	-0,015	-0,046
-524,233	800,000	0,086	0,193
-523,218	-184,422	0,037	-0,000
-522,204	-50,485	-0,032	0,011
-521,189	-58,567	-0,060	-0,019
-520,175	16,694	0,057	-0,033
-519,160	332,564	0,020	0,029
-518,145	-9,555	0,064	-0,031
-517,131	-200,000	0,018	0,076
-516,116	-53,752	-0,085	0,028
-515,102	-101,908	-0,033	0,006
-514,087	800,000	0,026	0,053
-513,072	800,000	-0,056	-0,116
-512,058	76,950	-0,030	0,023
-511,043	-56,400	0,060	0,019
-510,029	-200,000	-0,004	0,071
-509,014	-200,000	0,009	0,100
-507,999	-47,421	0,087	0,031
-506,985	800,000	0,033	0,082
-505,970	-108,743	-0,090	0,014
-504,956	-85,320	-0,115	0,026
-503,941	64,979	-0,085	-0,063
-502,926	73,745	0,047	0,036
-501,912	-21,702	-0,050	0,022
-500,897	90,313	0,082	-0,067
-499,883	-114,046	-0,182	-0,025
-498,868	-200,000	-0,002	0,013
-497,853	84,903	-0,046	-0,036
-496,839	321,136	0,170	-0,237
-495,824	-200,000	0,006	-0,070
-494,810	800,000	0,055	0,161
-493,795	-69,264	-0,043	0,012
-492,781	112,740	0,081	-0,072
-491,766	-106,301	-0,078	0,013
-490,751	-200,000	-0,005	0,164
-489,737	-200,000	-0,020	-0,082
-488,722	-200,000	-0,029	-0,097
-487,708	-89,349	-0,118	-0,025
-486,693	389,250	0,067	-0,102
-485,678	141,972	-0,046	-0,044
-484,664	648,350	-0,058	0,108
-483,649	312,777	-0,077	-0,106
-482,635	-40,492	0,134	-0,051
-481,620	-200,000	0,015	0,069
-480,605	49,999	0,130	-0,089
-479,591	491,055	-0,060	0,101
-478,576	-87,109	0,153	-0,034
-477,562	800,000	-0,016	-0,047
-476,547	12,478	-0,134	-0,075
-475,532	-115,158	-0,093	0,013
-474,518	367,152	-0,068	-0,101
-473,503	337,488	0,031	-0,044
-472,489	-200,000	0,005	-0,042
-471,474	-200,000	0,031	-0,119
-470,459	-136,310	-0,152	0,013
-469,445	5,446	-0,030	0,016
-468,430	-57,488	0,091	-0,029
-467,416	-43,344	0,146	-0,053
-466,401	-135,797	0,131	-0,011
-465,386	369,703	0,091	0,134
-464,372	-200,000	0,001	0,183
-463,357	112,990	0,058	-0,051
-462,343	-25,502	-0,067	0,029
-461,328	-200,000	-0,020	-0,070
-460,313	-29,937	0,165	-0,068
-459,299	31,346	0,092	0,057
-458,284	-200,000	0,006	-0,056
-457,270	435,259	-0,083	0,133
-456,255	-45,960	0,171	0,061
-455,241	-14,795	-0,069	0,032
-454,226	-200,000	-0,015	-0,102
-453,211	-200,000	-0,009	0,057
-452,197	202,554	-0,093	0,105
-451,182	-123,875	0,199	0,023
-450,168	800,000	-0,055	0,122
-449,153	-200,000	-0,024	0,095
-448,138	-200,000	-0,031	-0,118
-447,124	800,000	0,033	-0,102
-446,109	800,000	-0,042	-0,124
-445,095	-127,245	0,048	-0,005
-444,080	42,694	0,132	0,087
-443,065	-35,885	-0,114	0,045
-442,051	-44,453	0,109	-0,040
-441,036	207,647	-0,028	-0,032
-440,022	-100,083	-0,115	0,021
-439,007	-200,000	-0,018	-0,102
-437,992	-200,000	-0,015	0,073
-436,978	221,341	0,072	0,084
-435,963	800,000	-0,058	0,118
-434,949	171,004	0,040	0,042
-433,934	-200,000	-0,030	0,111
-432,919	-8,057	-0,193	0,094
-431,905	260,856	0,087	-0,109
-430,890	-200,000	-0,009	0,096
-429,876	115,747	0,035	-0,031
-428,861	-200,000	-0,018	0,116
-427,846	-107,726	0,008	0,001
-426,832	-200,000	-0,021	-0,141
-425,817	9,206	-0,121	-0,066
-424,803	127,351	-0,058	0,053
-423,788	-200,000	0,014	0,052
-422,773	-200,000	-0,022	0,113
-421,759	397,668	0,014	-0,021
-420,744	-173,752	0,082	-0,002
-419,730	-200,000	0,017	-0,074
-418,715	163,902	-0,057	-0,059
-417,701	-200,000	0,017	0,064
-416,686	-200,000	-0,001	0,043
-415,671	-40,270	0,048	-0,018
-414,657	-128,629	0,018	-0,002
-413,642	-81,306	-0,064	-0,015
-412,628	-200,000	-0,002	0,048
-411,613	10,311	-0,112	-0,062
-410,598	-33,700	-0,011	-0,004
-409,584	800,000	0,017	0,046
-408,569	-200,000	0,021	-0,110
-407,555	-200,000	-0,038	-0,184
-406,540	-58,717	-0,111	-0,035
-405,525	-200,000	-0,009	0,134
-404,511	87,720	-0,097	0,078
-403,496	800,000	-0,016	0,043
-402,482	800,000	0,041	-0,098
-401,467	-0,224	0,067	-0,035
-400,452	-40,186	0,134	0,051
-399,438	330,428	0,020	0,028
-398,423	209,579	0,172	-0,196
-397,409	23,641	-0,023	-0,014
-396,394	145,335	-0,044	-0,042
-395,379	-200,000	-0,011	-0,098
-394,365	109,090	-0,025	0,022
-393,350	-86,732	-0,098	-0,022
-392,336	110,552	0,064	0,056
-391,321	800,000	0,022	0,068
-390,306	-200,000	-0,014	-0,129
-389,292	-200,000	-0,004	-0,119
-388,277	-200,000	-0,005	-0,025
-387,263	-101,937	-0,097	-0,017
-386,248	-200,000	-0,001	-0,026
-385,233	-200,000	-0,010	-0,089
-384,219	-200,000	0,005	-0,034
-383,204	-200,000	-0,025	-0,187
-382,190	-200,000	0,021	-0,231
-381,175	72,107	-0,065	0,049
-380,160	-145,701	-0,127	-0,008
-379,146	-157,365	-0,053	0,002
-378,131	-64,732	0,071	0,021
-377,117	-200,000	0,001	-0,088
-376,102	158,755	0,064	-0,065
-375,088	-131,466	0,036	-0,003
-374,073	-200,000	-0,005	0,081
-373,058	76,449	0,033	0,025
-372,044	-200,000	0,005	-0,025
-371,029	-141,971	0,121	-0,009
-370,015	312,015	-0,040	-0,055
-369,000	51,091	0,051	-0,035
-367,985	-200,000	-0,004	-0,135
-366,971	-200,000	0,022	-0,096
-365,956	-200,000	0,006	0,025
-364,942	16,699	0,069	0,039
-363,927	296,078	-0,058	-0,077
-362,912	800,000	-0,053	0,115
-361,898	188,033	-0,090	0,098
-360,883	-68,087	-0,065	0,018
-359,869	87,224	0,069	0,056
-358,854	-200,000	0,011	0,086
-357,839	-136,604	-0,064	-0,005
-356,825	135,107	0,101	0,095
-355,810	-200,000	-0,014	-0,045
-354,796	-85,185	-0,109	-0,025
-353,781	-0,387	0,069	-0,035
-352,766	-51,620	-0,144	0,048
-351,752	-40,812	0,054	-0,020
-350,737	-200,000	0,006	0,136
-349,723	-200,000	-0,002	0,096
-348,708	90,801	0,064	0,052
-347,693	-40,063	-0,162	0,061
-346,679	10,862	-0,042	0,023
-345,664	-200,000	0,003	-0,027
-344,650	-61,864	0,036	-0,011
-343,635	-68,061	-0,029	0,008
-342,620	-200,000	0,017	0,091
-341,606	169,990	0,047	-0,049
-340,591	12,179	-0,089	0,050
-339,577	-114,685	0,069	-0,010
-338,562	-200,000	0,012	0,083
-337,548	800,000	0,024	0,053
-336,533	800,000	0,038	0,105
-335,518	-25,331	0,097	0,041
-334,504	-200,000	0,032	0,148
-333,489	800,000	0,025	0,065
-332,475	770,212	0,010	-0,019
-331,460	800,000	0,043	-0,090
-330,445	693,677	-0,074	0,141
-329,431	685,634	0,039	0,075
-328,416	-120,644	0,112	-0,014
-327,402	43,779	0,049	0,033
-326,387	392,009	0,058	-0,087
-325,372	-200,000	-0,001	0,082
-324,358	-97,837	-0,153	0,028
-323,343	-200,000	0,015	-0,095
-322,329	149,161	-0,077	-0,076
-321,314	11,192	0,096	0,053
-320,299	620,394	0,053	0,097
-319,285	-75,651	0,028	0,007
-318,270	71,884	0,089	-0,067
-317,256	-150,719	-0,022	-0,001
-316,241	58,051	0,047	-0,033
-315,226	800,000	-0,034	0,075
-314,212	16,622	0,129	-0,074
-313,197	800,000	0,073	0,207
-312,183	677,370	0,019	-0,037
-311,168	-200,000	-0,022	-0,169
-310,153	2,695	0,122	0,064
-309,139	301,328	-0,019	-0,026
-308,124	366,798	-0,084	0,123
-307,110	800,000	-0,061	0,174
-306,095	-40,306	0,173	-0,065
-305,080	800,000	0,033	0,102
-304,066	90,128	-0,058	0,047
-303,051	254,264	0,068	-0,085
-302,037	-200,000	0,019	-0,081
-301,022	-200,000	0,011	-0,321
-300,008	-152,185	0,096	0,005
-298,993	-157,644	0,115	0,005
-297,978	426,225	0,095	0,149
-296,964	-200,000	0,026	-0,126
-295,949	-148,704	0,101	0,006
-294,935	-144,248	-0,067	0,004
-293,920	206,624	-0,033	0,037
-292,905	137,235	0,046	-0,043
-291,891	-155,766	0,043	-0,002
-290,876	-200,000	-0,011	0,112
-289,862	-103,276	-0,050	0,008
-288,847	7,835	-0,040	-0,022
-287,832	35,745	0,147	-0,093
-286,818	-66,544	-0,046	-0,013
-285,803	-200,000	-0,036	0,154
-284,789	416,821	0,038	0,059
-283,774	-138,062	-0,242	0,019
-282,759	800,000	-0,032	-0,066
-281,745	27,258	0,017	0,011
-280,730	40,949	-0,126	-0,082
-279,716	367,151	0,124	-0,181
-278,701	105,099	0,171	0,146
-277,686	-3,407	0,066	0,033
-276,672	-200,000	-0,002	-0,029
-275,657	-21,946	0,081	-0,035
-274,643	-23,954	0,146	-0,063
-273,628	203,399	-0,061	-0,068
-272,613	-200,000	0,002	-0,027
-271,599	53,095	0,038	-0,027
-270,584	-109,721	-0,075	-0,011
-269,570	397,074	-0,039	-0,060
-268,555	128,444	0,090	0,083
-267,540	-77,826	0,037	-0,009
-266,526	228,237	-0,132	-0,155
-265,511	-148,358	-0,007	0,000
-264,497	800,000	0,034	0,076
-263,482	570,724	-0,006	0,011
-262,467	509,093	0,078	0,132
-261,453	-200,000	0,027	-0,138
-260,438	-200,000	-0,029	0,125
-259,424	800,000	0,018	-0,047
-258,409	138,817	0,031	-0,030
-257,395	-200,000	-0,002	0,062
-256,380	252,234	-0,076	0,094
-255,365	-200,000	0,005	0,056
-254,351	-39,846	-0,042	-0,016
-253,336	97,584	-0,064	-0,053
-252,322	-200,000	-0,012	-0,056
-251,307	-200,000	0,010	0,107
-250,292	141,389	0,051	-0,049
-249,278	183,790	0,082	-0,088
-248,263	18,433	0,070	-0,040
-247,249	208,039	-0,092	0,103
-246,234	-200,000	0,020	0,068
-245,219	-100,550	-0,183	-0,032
-244,205	198,054	-0,065	-0,071
-243,190	31,019	0,147	0,091
-242,176	168,802	0,048	-0,049
-241,161	-106,616	0,164	-0,026
-240,146	81,269	0,048	0,037
-239,132	-128,712	0,030	-0,003
-238,117	-133,838	-0,110	0,010
-237,103	68,498	-0,082	0,061
-236,088	-16,101	0,076	-0,035
-235,073	500,026	0,070	0,118
-234,059	380,147	0,062	0,093
-233,044	408,193	0,055	0,084
-232,030	-200,000	-0,006	-0,079
-231,015	-200,000	-0,009	-0,138
-230,000	-200,000	-0,013	-0,089
-228,986	92,535	-0,023	0,019
-227,971	-31,923	0,087	0,035
-226,957	800,000	-0,070	0,155
-225,942	169,581	0,086	0,088
-224,927	597,646	0,053	-0,095
-223,913	-200,000	-0,024	-0,219
-222,898	26,102	-0,032	-0,019
-221,884	-200,000	-0,016	0,083
-220,869	-164,081	-0,092	-0,003
-219,855	-131,239	-0,047	0,004
-218,840	469,447	0,033	0,054
-217,825	-1,712	-0,215	0,109
-216,811	16,477	-0,031	-0,018
-215,796	-16,007	0,119	-0,055
-214,782	33,034	-0,109	-0,068
-213,767	42,898	0,078	0,051
-212,752	43,552	-0,085	0,056
-211,738	113,730	0,049	0,043
-210,723	800,000	-0,024	0,064
-209,709	-33,001	-0,080	-0,032
-208,694	391,482	0,063	-0,095
-207,679	-7,280	-0,101	-0,049
-206,665	-168,078	0,094	-0,003
-205,650	800,000	0,059	-0,162
-204,636	32,118	-0,068	-0,042
-203,621	-123,462	-0,063	-0,007
-202,606	25,144	0,024	0,014
-201,592	-200,000	-0,018	-0,064
-200,577	26,839	-0,106	0,064
-199,563	-12,268	0,037	0,017
-198,548	542,649	0,067	0,115
-197,533	-200,000	0,035	0,156
-196,519	800,000	0,025	-0,075
-195,504	-66,529	-0,036	-0,010
-194,490	90,139	0,050	0,041
-193,475	299,934	-0,073	-0,098
-192,460	-200,000	0,022	-0,086
-191,446	-46,223	0,125	0,044
-190,431	-105,477	-0,132	0,021
-189,417	-200,000	0,010	-0,077
-188,402	-200,000	0,002	0,043
-187,387	221,332	-0,066	0,076
-186,373	-200,000	-0,005	-0,112
-185,358	-96,632	-0,141	-0,026
-184,344	303,663	-0,015	-0,020
-183,329	3,067	-0,049	-0,026
-182,315	-200,000	0,018	0,125
-181,300	-122,024	0,115	0,014
-180,285	652,230	-0,053	-0,098
-179,271	-31,738	-0,006	0,003
-178,256	-11,693	-0,149	-0,070
-177,242	-200,000	-0,022	0,207
-176,227	-200,000	0,003	0,036
-175,212	800,000	0,019	0,039
-174,198	51,290	-0,029	-0,020
-173,183	-200,000	-0,007	-0,028
-172,169	-82,565	-0,118	-0,027
-171,154	-74,824	0,091	-0,023
-170,139	362,899	-0,031	0,045
-169,125	158,780	-0,026	0,026
-168,110	48,595	0,004	0,003
-167,096	-130,162	0,060	0,006
-166,081	96,599	-0,059	-0,048
-165,066	-44,903	-0,121	-0,043
-164,052	385,784	-0,060	-0,089
-163,037	-200,000	0,005	-0,070
-162,023	-200,000	0,012	0,063
-161,008	-16,630	-0,037	0,017
-159,993	-200,000	0,007	-0,099
-158,979	-77,799	-0,157	-0,039
-157,964	-200,000	-0,030	-0,106
-156,950	326,299	-0,019	0,027
-155,935	-200,000	-0,001	0,173
-154,920	356,201	-0,077	-0,111
-153,906	659,248	0,075	0,139
-152,891	92,368	0,078	0,063
-151,877	-200,000	0,004	-0,099
-150,862	117,007	-0,063	-0,056
-149,847	739,348	-0,051	-0,099
-148,833	105,990	0,018	0,015
-147,818	131,882	-0,039	0,036
-146,804	138,252	-0,167	0,157
-145,789	-81,113	0,039	-0,009
-144,775	600,376	-0,012	-0,021
-143,760	-200,000	0,047	-0,192
-142,745	388,285	-0,045	-0,067
-141,731	800,000	0,029	-0,069
-140,716	83,329	0,110	-0,086
-139,702	-85,349	0,137	0,030
-138,687	-200,000	0,008	-0,042
-137,672	-13,227	-0,076	-0,035
-136,658	101,976	-0,039	0,033
-135,643	800,000	0,006	0,012
-134,629	-200,000	0,025	-0,099
-133,614	-80,261	-0,054	-0,013
-132,599	174,278	0,036	0,038
-131,585	226,660	0,058	0,068
-130,570	-200,000	0,004	-0,135
-129,556	-98,334	-0,042	-0,008
-128,541	800,000	0,047	-0,107
-127,526	800,000	-0,004	0,009
-126,512	-183,084	0,043	-0,001
-125,497	84,908	0,104	0,082
-124,483	4,740	-0,065	0,034
-123,468	-200,000	-0,017	0,063
-122,453	-126,211	-0,066	-0,007
-121,439	174,064	-0,050	-0,052
-120,424	330,083	-0,019	0,026
-119,410	-38,104	0,106	0,040
