DTS Sentinel unit serial number:	SN410029Multiplexer serial number:	ORYXHardware model number:	OX2-SRSoftware version number:	ORYX F/W v4,00 Oryx Data Collector v3.7.2.0data status	okinstallation	B5 Nyhavnadifferential loss correction	single-endedforward channel	channel 2reverse channel	N/Adate	2023/12/14time	19:12:13forward acquisition time	300,00reverse acquisition time	0,00gamma	499,1914k internal	0,3156k external	0,3156temperature offset calibration	1,0000default loss term (dB/km)	0,3820temperature slope calibration	1,0000multiplexer offset coefficient	1,0000multiplexer slope coefficient	1,0000fibre end	0,00T internal ref (°C)	8,79T ext. ref 1 (°C)	-5,88T ext. ref 2 (°C)	-5,94length (m)	temperature (°C)	Stokes	anti-Stokes-744,400	2,611	0,181	0,097
-743,385	50,125	-0,209	-0,145
-742,371	800,000	0,056	0,151
-741,356	-102,965	-0,327	-0,057
-740,342	177,034	0,148	0,159
-739,327	-150,659	-0,364	0,020
-738,312	51,353	0,182	0,127
-737,298	28,974	-0,250	-0,156
-736,283	359,904	0,089	0,131
-735,269	-105,316	-0,394	-0,065
-734,254	159,661	0,098	0,101
-733,239	-90,547	-0,582	-0,123
-732,225	-58,329	0,246	-0,079
-731,210	-200,000	0,014	0,052
-730,196	-30,691	0,045	0,019
-729,181	103,381	-0,063	0,054
-728,167	701,173	0,041	0,080
-727,152	-200,000	0,017	0,119
-726,137	567,224	-0,100	-0,180
-725,123	-23,663	0,052	0,023
-724,108	-89,196	-0,087	-0,019
-723,094	800,000	0,039	-0,114
-722,079	-8,846	-0,158	-0,078
-721,064	-200,000	0,007	0,102
-720,050	20,511	-0,039	0,023
-719,035	355,224	-0,093	0,137
-718,021	109,327	-0,130	-0,115
-717,006	-200,000	0,029	-0,156
-715,991	125,306	-0,064	-0,060
-714,977	800,000	0,050	-0,119
-713,962	27,225	-0,060	-0,037
-712,948	-80,872	0,051	0,012
-711,933	86,395	0,077	-0,063
-710,918	-200,000	-0,002	-0,039
-709,904	800,000	0,039	0,118
-708,889	574,708	-0,026	0,047
-707,875	-63,457	0,043	-0,013
-706,860	-140,653	0,035	-0,003
-705,845	800,000	0,048	-0,105
-704,831	800,000	-0,016	-0,041
-703,816	-127,245	0,197	-0,021
-702,802	800,000	-0,047	-0,138
-701,787	800,000	-0,068	-0,182
-700,772	248,689	0,016	0,020
-699,758	95,250	0,049	-0,041
-698,743	100,980	-0,111	0,095
-697,729	-52,751	0,104	0,035
-696,714	-100,354	-0,083	-0,015
-695,699	-200,000	0,009	-0,114
-694,685	-58,056	-0,176	0,056
-693,670	-25,153	-0,039	0,017
-692,656	197,739	0,088	0,099
-691,641	-28,918	0,097	-0,041
-690,627	139,726	-0,022	0,021
-689,612	-130,508	-0,067	-0,007
-688,597	4,429	-0,019	0,010
-687,583	19,818	-0,092	0,055
-686,568	-200,000	-0,002	-0,047
-685,554	1,695	0,124	0,066
-684,539	168,736	0,019	0,020
-683,524	800,000	-0,012	0,033
-682,510	-200,000	-0,001	-0,134
-681,495	-103,924	0,066	0,011
-680,481	-200,000	-0,025	0,111
-679,466	-144,145	-0,058	-0,004
-678,451	566,288	-0,053	-0,094
-677,437	800,000	0,021	0,057
-676,422	38,493	0,118	-0,077
-675,408	-96,245	0,046	0,009
-674,393	-91,053	-0,097	0,020
-673,378	-2,513	-0,117	-0,060
-672,364	-200,000	0,020	0,085
-671,349	-77,019	-0,179	-0,046
-670,335	301,733	-0,065	-0,088
-669,320	7,654	-0,105	0,058
-668,305	252,363	0,070	0,088
-667,291	256,796	-0,061	-0,078
-666,276	-200,000	0,006	-0,026
-665,262	6,845	-0,106	0,058
-664,247	87,738	0,048	-0,039
-663,232	-169,697	0,102	0,003
-662,218	-110,646	0,146	-0,022
-661,203	-200,000	0,002	-0,009
-660,189	-96,517	-0,088	-0,017
-659,174	800,000	-0,036	-0,076
-658,159	-183,421	-0,161	-0,002
-657,145	800,000	-0,025	0,066
-656,130	-0,366	0,017	-0,009
-655,116	800,000	0,041	0,101
-654,101	169,998	0,025	-0,026
-653,086	622,752	-0,040	0,073
-652,072	-94,909	0,068	0,013
-651,057	-200,000	-0,005	-0,098
-650,043	-200,000	0,002	-0,057
-649,028	37,491	-0,038	0,025
-648,014	-200,000	0,011	0,076
-646,999	-200,000	0,000	-0,008
-645,984	280,254	0,078	-0,102
-644,970	17,247	-0,014	-0,008
-643,955	-200,000	-0,041	-0,134
-642,941	-194,659	0,063	-0,000
-641,926	-200,000	-0,004	-0,036
-640,911	707,872	0,042	-0,082
-639,897	-16,466	0,131	-0,061
-638,882	-40,148	-0,067	0,025
-637,868	-59,310	0,040	0,013
-636,853	89,310	-0,095	0,077
-635,838	-42,867	-0,081	-0,030
-634,824	573,054	0,072	-0,129
-633,809	477,773	-0,021	-0,035
-632,795	292,722	-0,045	-0,061
-631,780	3,990	-0,050	-0,027
-630,765	-118,586	-0,031	0,004
-629,751	-10,014	0,053	-0,026
-628,736	7,155	-0,221	0,121
-627,722	-167,303	0,084	-0,002
-626,707	335,430	-0,070	0,100
-625,692	87,731	0,019	0,016
-624,678	-42,526	0,147	0,055
-623,663	-67,496	-0,173	0,049
-622,649	-200,000	-0,027	0,089
-621,634	268,314	-0,116	-0,149
-620,619	4,794	0,064	-0,034
-619,605	-189,063	0,071	-0,001
-618,590	-52,816	0,085	-0,029
-617,576	-133,942	-0,210	-0,019
-616,561	-99,961	0,047	-0,009
-615,546	271,339	-0,072	0,093
-614,532	-30,054	-0,033	-0,014
-613,517	-71,757	-0,042	-0,012
-612,503	-200,000	0,001	0,049
-611,488	-27,375	-0,035	-0,015
-610,474	198,381	0,037	0,042
-609,459	800,000	-0,020	0,053
-608,444	46,396	0,043	-0,029
-607,430	123,306	-0,074	-0,068
-606,415	-200,000	0,014	-0,102
-605,401	314,522	-0,045	-0,063
-604,386	-73,440	0,071	0,019
-603,371	-200,000	-0,001	0,011
-602,357	-32,047	-0,099	-0,040
-601,342	-110,461	0,169	-0,025
-600,328	-17,369	-0,079	-0,036
-599,313	299,249	-0,052	0,070
-598,298	310,628	-0,047	-0,065
-597,284	-4,674	-0,004	0,002
-596,269	68,372	0,092	-0,069
-595,255	116,831	-0,065	-0,058
-594,240	258,092	-0,071	-0,090
-593,225	178,720	-0,089	-0,096
-592,211	230,539	-0,056	0,067
-591,196	-133,151	0,126	-0,012
-590,182	90,918	-0,068	-0,056
-589,167	-109,970	0,053	0,008
-588,152	-118,774	-0,180	0,023
-587,138	-200,000	-0,010	-0,044
-586,123	-200,000	-0,019	-0,175
-585,109	779,179	-0,012	0,024
-584,094	-151,813	0,056	-0,003
-583,079	-200,000	-0,001	0,025
-582,065	-141,001	0,042	0,003
-581,050	397,341	-0,061	-0,094
-580,036	-200,000	-0,012	0,080
-579,021	800,000	-0,088	-0,186
-578,006	66,575	-0,070	-0,052
-576,992	-104,023	0,035	0,006
-575,977	48,891	0,089	0,061
-574,963	-200,000	0,029	0,145
-573,948	-31,072	0,047	-0,019
-572,934	800,000	-0,025	-0,066
-571,919	-143,646	-0,086	-0,006
-570,904	-23,946	-0,100	-0,044
-569,890	195,963	0,015	0,016
-568,875	-46,057	0,051	-0,018
-567,861	50,177	0,116	0,080
-566,846	800,000	-0,021	-0,055
-565,831	-117,496	-0,039	-0,005
-564,817	800,000	0,009	0,023
-563,802	-84,740	-0,042	-0,010
-562,788	112,809	0,039	0,034
-561,773	278,884	-0,031	0,040
-560,758	117,552	-0,130	0,117
-559,744	115,469	-0,083	0,074
-558,729	260,861	-0,019	-0,023
-557,715	-185,930	-0,109	0,001
-556,700	800,000	0,023	-0,057
-555,685	98,526	-0,088	-0,074
-554,671	-200,000	0,001	-0,028
-553,656	7,724	0,016	0,009
-552,642	143,654	-0,075	-0,073
-551,627	-68,680	-0,075	0,021
-550,612	15,531	-0,102	-0,058
-549,598	-200,000	0,007	-0,032
-548,583	282,486	-0,003	0,004
-547,569	16,362	0,018	0,010
-546,554	-41,537	0,100	-0,037
-545,539	-67,113	0,024	-0,007
-544,525	-71,616	-0,057	-0,015
-543,510	800,000	-0,032	0,099
-542,496	-200,000	-0,011	-0,082
-541,481	800,000	0,019	0,048
-540,466	-200,000	0,006	-0,050
-539,452	-23,728	-0,134	0,059
-538,437	800,000	0,007	0,015
-537,423	338,182	-0,036	-0,051
-536,408	-200,000	-0,008	-0,080
-535,393	800,000	0,079	-0,194
-534,379	-73,378	-0,190	-0,050
-533,364	800,000	-0,024	-0,059
-532,350	36,828	-0,019	-0,012
-531,335	-200,000	0,012	0,089
-530,321	224,461	-0,019	0,022
-529,306	-114,367	0,072	0,010
-528,291	303,577	-0,061	-0,082
-527,277	13,221	-0,130	0,073
-526,262	-200,000	-0,019	0,099
-525,248	-200,000	0,013	-0,047
-524,233	-200,000	0,024	0,115
-523,218	-135,606	-0,143	-0,012
-522,204	-200,000	-0,056	0,232
-521,189	-200,000	-0,013	0,054
-520,175	-200,000	0,000	-0,032
-519,160	274,919	0,042	-0,054
-518,145	-7,895	0,099	-0,049
-517,131	211,396	0,052	0,060
-516,116	93,094	-0,073	0,061
-515,102	-200,000	0,001	-0,047
-514,087	121,585	-0,064	-0,059
-513,072	-18,213	-0,074	-0,034
-512,058	800,000	0,054	0,121
-511,043	231,722	-0,100	-0,120
-510,029	6,078	0,105	-0,057
-509,014	800,000	0,042	-0,114
-507,999	800,000	-0,038	0,087
-506,985	203,293	0,063	-0,072
-505,970	-200,000	0,011	-0,079
-504,956	800,000	-0,041	-0,118
-503,941	11,673	0,070	0,039
-502,926	446,805	-0,049	-0,079
-501,912	-80,780	0,077	-0,019
-500,897	-92,326	-0,081	-0,017
-499,883	-18,391	0,074	-0,034
-498,868	-108,849	-0,163	-0,025
-497,853	126,356	0,047	-0,044
-496,839	800,000	-0,012	-0,038
-495,824	326,813	-0,030	0,043
-494,810	-200,000	0,030	-0,130
-493,795	-31,902	-0,045	0,018
-492,781	47,838	-0,192	-0,131
-491,766	181,530	0,124	-0,133
-490,751	282,758	-0,068	-0,089
-489,737	133,114	0,142	0,134
-488,722	800,000	-0,023	0,069
-487,708	334,048	-0,052	0,073
-486,693	129,710	0,110	-0,103
-485,678	123,764	-0,083	0,076
-484,664	-111,335	-0,087	0,013
-483,649	800,000	-0,052	-0,115
-482,635	800,000	0,021	-0,053
-481,620	182,072	0,067	0,072
-480,605	-55,155	0,016	-0,005
-479,591	-200,000	0,006	0,031
-478,576	508,670	0,020	0,035
-477,562	-15,902	-0,080	-0,037
-476,547	-72,723	-0,047	-0,013
-475,532	-102,872	-0,087	0,015
-474,518	-42,011	-0,181	-0,067
-473,503	48,982	0,063	0,043
-472,489	-139,224	0,132	0,010
-471,474	456,471	-0,109	0,177
-470,459	-200,000	-0,007	-0,172
-469,445	-200,000	-0,000	-0,072
-468,430	-56,950	-0,097	-0,031
-467,416	-70,046	0,185	-0,051
-466,401	-163,996	0,165	0,005
-465,386	-200,000	0,009	-0,107
-464,372	443,808	-0,019	-0,030
-463,357	155,474	0,021	-0,021
-462,343	-200,000	-0,028	-0,143
-461,328	-200,000	0,005	-0,086
-460,313	-24,423	0,074	0,032
-459,299	-174,656	0,115	-0,002
-458,284	-200,000	-0,034	-0,128
-457,270	255,605	-0,069	-0,086
-456,255	-200,000	-0,021	-0,166
-455,241	800,000	-0,023	0,068
-454,226	-200,000	-0,030	-0,175
-453,211	692,488	-0,071	-0,136
-452,197	800,000	-0,008	0,019
-451,182	-200,000	-0,002	0,160
-450,168	337,304	0,081	0,115
-449,153	137,434	0,043	0,041
-448,138	102,149	-0,054	-0,046
-447,124	230,537	-0,062	0,074
-446,109	532,014	0,025	-0,043
-445,095	228,271	0,059	-0,070
-444,080	800,000	0,018	0,050
-443,065	800,000	0,008	0,022
-442,051	-200,000	0,009	0,185
-441,036	-23,497	-0,165	-0,072
-440,022	-200,000	0,002	-0,043
-439,007	-200,000	-0,016	-0,066
-437,992	-102,724	0,108	-0,018
-436,978	-74,229	0,048	0,013
-435,963	-200,000	0,021	0,075
-434,949	-200,000	-0,037	-0,118
-433,934	-46,765	-0,102	-0,036
-432,919	347,334	0,106	-0,153
-431,905	59,307	0,054	0,039
-430,890	-200,000	-0,026	0,105
-429,876	-200,000	0,058	0,214
-428,861	386,876	0,113	0,170
-427,846	-129,812	-0,041	-0,004
-426,832	8,189	-0,141	-0,077
-425,817	-30,543	0,212	-0,087
-424,803	-200,000	-0,058	-0,000
-423,788	364,830	0,061	-0,090
-422,773	177,490	0,052	0,055
-421,759	-200,000	0,001	-0,031
-420,744	-200,000	0,024	-0,126
-419,730	-20,887	-0,124	-0,055
-418,715	65,870	0,057	-0,042
-417,701	-141,072	-0,011	-0,001
-416,686	28,600	0,012	-0,007
-415,671	800,000	-0,028	0,063
-414,657	192,453	0,069	0,075
-413,642	105,750	-0,055	-0,047
-412,628	-57,612	-0,122	-0,039
-411,613	6,393	-0,092	-0,049
-410,598	661,097	-0,048	-0,090
-409,584	800,000	0,070	0,167
-408,569	-137,308	0,084	-0,007
-407,555	-148,475	-0,188	-0,011
-406,540	-200,000	0,022	0,118
-405,525	-200,000	0,004	0,017
-404,511	73,025	-0,085	0,065
-403,496	253,499	0,129	-0,160
-402,482	-200,000	0,011	-0,186
-401,467	800,000	0,025	0,067
-400,452	-6,249	0,076	0,037
-399,438	429,692	-0,108	-0,171
-398,423	-200,000	-0,015	0,149
-397,409	-200,000	0,045	-0,170
-396,394	-200,000	0,002	-0,151
-395,379	-200,000	-0,008	-0,076
-394,365	45,516	0,086	-0,057
-393,350	-182,297	0,084	-0,001
-392,336	232,014	-0,065	0,078
-391,321	118,277	-0,058	0,052
-390,306	800,000	0,035	-0,081
-389,292	549,380	-0,036	-0,062
-388,277	237,154	0,098	-0,118
-387,263	-71,029	-0,046	0,012
-386,248	800,000	-0,023	-0,046
-385,233	52,346	-0,040	0,027
-384,219	0,497	0,012	0,006
-383,204	800,000	0,029	-0,062
-382,190	605,404	-0,052	-0,095
-381,175	800,000	0,032	0,069
-380,160	-200,000	0,002	0,036
-379,146	-200,000	0,001	0,050
-378,131	-200,000	-0,023	0,153
-377,117	-200,000	0,000	0,067
-376,102	-200,000	0,029	-0,126
-375,088	-200,000	0,005	0,072
-374,073	136,179	0,092	-0,087
-373,058	-97,676	0,055	0,010
-372,044	110,064	0,065	0,057
-371,029	-68,211	0,038	-0,011
-370,015	-200,000	0,004	-0,122
-369,000	-200,000	-0,012	0,171
-367,985	800,000	-0,091	-0,208
-366,971	792,755	-0,046	-0,093
-365,956	217,196	-0,025	-0,029
-364,942	800,000	-0,017	0,040
-363,927	399,960	0,087	0,133
-362,912	241,901	-0,035	-0,043
-361,898	111,984	0,119	0,104
-360,883	-200,000	-0,005	0,130
-359,869	-147,510	-0,071	-0,004
-358,854	-200,000	0,003	0,042
-357,839	-200,000	-0,019	0,233
-356,825	-38,001	-0,040	-0,015
-355,810	99,578	-0,032	-0,027
-354,796	800,000	-0,020	0,057
-353,781	-7,129	0,115	0,057
-352,766	-70,752	-0,036	0,010
-351,752	52,258	-0,035	-0,024
-350,737	-200,000	0,039	0,194
-349,723	-7,833	-0,055	0,027
-348,708	-200,000	0,039	0,144
-347,693	131,112	-0,075	-0,070
-346,679	-200,000	-0,028	0,097
-345,664	-65,521	0,165	-0,048
-344,650	-112,279	0,083	0,012
-343,635	-79,226	0,063	-0,015
-342,620	50,260	-0,143	-0,098
-341,606	125,225	-0,018	0,016
-340,591	187,695	0,009	0,009
-339,577	648,470	-0,051	-0,094
-338,562	380,338	-0,089	-0,133
-337,548	344,164	-0,107	0,153
-336,533	-47,974	0,100	0,035
-335,518	55,434	-0,061	0,043
-334,504	759,626	0,023	0,045
-333,489	-200,000	0,000	-0,055
-332,475	800,000	-0,034	0,089
-331,460	-69,935	0,064	0,018
-330,445	800,000	0,031	-0,071
-329,431	155,193	0,128	-0,128
-328,416	-99,462	0,120	-0,022
-327,402	178,571	0,068	0,073
-326,387	-200,000	0,001	0,064
-325,372	-200,000	0,010	-0,089
-324,358	-13,629	0,077	0,036
-323,343	800,000	0,028	0,087
-322,329	-200,000	-0,007	0,096
-321,314	16,754	0,086	0,049
-320,299	-74,041	0,078	0,020
-319,285	32,270	-0,085	-0,053
-318,270	-124,076	0,073	0,008
-317,256	-87,533	-0,101	0,022
-316,241	800,000	-0,028	0,057
-315,226	55,545	0,075	0,052
-314,212	546,388	0,052	0,090
-313,197	-200,000	-0,019	0,072
-312,183	82,475	0,137	0,108
-311,168	265,443	0,072	-0,091
-310,153	-200,000	-0,003	-0,078
-309,139	-99,090	0,056	-0,010
-308,124	-200,000	0,000	-0,033
-307,110	-200,000	-0,016	-0,105
-306,095	20,087	0,092	0,053
-305,080	583,052	0,004	-0,007
-304,066	87,264	-0,079	0,063
-303,051	-61,755	-0,051	0,015
-302,037	41,496	0,055	-0,036
-301,022	-45,091	0,019	-0,007
-300,008	-102,904	0,118	0,020
-298,993	151,476	0,062	-0,061
-297,978	-33,975	0,197	-0,078
-296,964	-102,478	-0,065	-0,011
-295,949	-200,000	-0,007	-0,063
-294,935	-73,399	0,046	0,012
-293,920	-30,638	0,099	0,040
-292,905	418,482	0,086	0,133
-291,891	-55,802	0,075	-0,024
-290,876	21,402	0,097	0,057
-289,862	-200,000	-0,004	-0,079
-288,847	269,970	-0,086	-0,110
-287,832	135,549	0,078	0,074
-286,818	-122,500	-0,073	-0,008
-285,803	-24,951	0,114	0,049
-284,789	-200,000	-0,004	0,197
-283,774	-149,928	-0,149	0,008
-282,759	753,257	0,032	0,063
-281,745	-200,000	0,007	-0,185
-280,730	540,625	-0,047	-0,081
-279,716	800,000	0,050	0,100
-278,701	800,000	0,048	0,123
-277,686	361,653	-0,111	-0,162
-276,672	92,445	0,060	0,049
-275,657	800,000	0,006	0,015
-274,643	-200,000	0,010	-0,031
-273,628	143,991	0,069	-0,067
-272,613	-200,000	-0,027	-0,139
-271,599	-86,733	0,158	0,035
-270,584	800,000	-0,066	0,135
-269,570	-80,377	-0,103	0,025
-268,555	204,663	0,051	-0,058
-267,540	-200,000	-0,017	0,064
-266,526	308,972	0,124	-0,169
-265,511	-119,182	0,094	-0,012
-264,497	-200,000	-0,029	0,109
-263,482	-128,822	-0,049	-0,005
-262,467	243,853	0,069	-0,084
-261,453	-33,647	-0,096	0,038
-260,438	227,374	0,079	-0,093
-259,424	-200,000	0,018	-0,179
-258,409	-196,578	-0,106	-0,000
-257,395	-106,088	0,084	0,014
-256,380	-200,000	-0,008	-0,027
-255,365	56,509	0,053	-0,037
-254,351	42,123	-0,062	0,041
-253,336	800,000	0,013	0,033
-252,322	476,344	0,038	0,063
-251,307	14,358	0,040	0,023
-250,292	800,000	0,016	-0,046
-249,278	-200,000	-0,012	0,182
-248,263	-108,656	-0,066	0,010
-247,249	800,000	0,049	0,107
-246,234	492,190	0,047	0,079
-245,219	180,331	0,025	-0,027
-244,205	30,703	-0,090	0,055
-243,190	-200,000	-0,001	-0,022
-242,176	-200,000	-0,005	0,144
-241,161	-200,000	0,008	-0,123
-240,146	372,041	0,044	0,065
-239,132	27,638	-0,155	0,094
-238,117	800,000	0,038	0,103
-237,103	144,303	0,041	0,040
-236,088	-200,000	-0,052	0,201
-235,073	10,806	-0,033	0,018
-234,059	56,090	-0,047	0,033
-233,044	-200,000	-0,004	0,143
-232,030	97,215	-0,094	0,078
-231,015	800,000	-0,021	-0,059
-230,000	-200,000	0,007	0,083
-228,986	800,000	-0,031	0,085
-227,971	-96,294	0,255	0,048
-226,957	-69,363	0,103	0,028
-225,942	16,122	0,077	0,044
-224,927	-200,000	0,011	0,049
-223,913	60,539	-0,015	0,011
-222,898	724,813	-0,011	0,021
-221,884	347,831	0,020	0,028
-220,869	26,781	0,016	0,010
-219,855	800,000	-0,004	0,013
-218,840	-103,958	0,128	-0,021
-217,825	324,077	-0,041	0,057
-216,811	-200,000	-0,003	0,062
-215,796	-200,000	-0,032	-0,197
-214,782	359,633	-0,096	-0,139
-213,767	-43,689	-0,062	-0,022
-212,752	95,573	-0,057	-0,047
-211,738	304,043	0,042	-0,056
-210,723	-50,978	-0,064	0,022
-209,709	-200,000	-0,005	0,074
-208,694	-63,633	0,043	0,013
-207,679	800,000	-0,034	0,086
-206,665	-111,988	-0,050	-0,007
-205,650	-200,000	0,004	0,050
-204,636	-200,000	-0,027	0,096
-203,621	117,275	-0,031	-0,027
-202,606	-200,000	0,011	-0,138
-201,592	3,087	-0,112	0,059
-200,577	50,933	0,122	0,083
-199,563	379,571	-0,065	0,097
-198,548	-200,000	-0,037	0,132
-197,533	-19,136	0,127	-0,057
-196,519	310,218	-0,064	-0,087
-195,504	116,394	-0,058	0,052
-194,490	-200,000	0,002	-0,114
-193,475	-150,549	-0,023	0,001
-192,460	-200,000	-0,009	0,144
-191,446	800,000	0,036	-0,099
-190,431	-36,729	0,082	0,032
-189,417	-200,000	0,015	-0,126
-188,402	800,000	-0,008	-0,018
-187,387	339,265	-0,029	0,041
-186,373	-200,000	0,015	-0,064
-185,358	329,767	-0,016	-0,022
-184,344	800,000	-0,021	0,057
-183,329	39,357	-0,086	0,055
-182,315	532,977	0,064	0,111
-181,300	51,203	-0,075	0,051
-180,285	465,421	0,044	0,071
-179,271	-102,762	0,145	-0,025
-178,256	-87,738	0,050	-0,011
-177,242	2,810	0,100	-0,052
-176,227	800,000	0,023	-0,046
-175,212	455,258	-0,074	0,119
-174,198	515,475	-0,051	-0,086
-173,183	-79,824	-0,141	-0,034
-172,169	800,000	0,037	0,112
-171,154	-200,000	-0,009	0,175
-170,139	-200,000	-0,030	0,150
-169,125	-15,025	-0,055	0,026
-168,110	-10,955	0,176	0,084
-167,096	-127,671	-0,147	-0,015
-166,081	63,441	0,067	0,048
-165,066	247,542	0,081	0,098
-164,052	185,886	0,064	-0,069
-163,037	-21,376	-0,099	-0,043
-162,023	-200,000	0,001	0,039
-161,008	800,000	0,063	0,145
-159,993	-200,000	0,018	0,075
-158,979	374,518	0,054	0,079
-157,964	-91,277	-0,130	0,027
-156,950	-80,742	0,071	0,017
-155,935	204,287	-0,034	0,038
-154,920	-63,761	0,184	-0,054
-153,906	800,000	0,049	0,125
-152,891	-27,634	0,119	-0,050
-151,877	314,718	-0,023	-0,032
-150,862	231,667	0,065	-0,077
-149,847	-169,890	0,105	0,003
-148,833	641,481	0,027	0,051
-147,818	-86,204	0,138	-0,030
-146,804	-88,212	0,065	0,014
-145,789	-200,000	-0,023	0,093
-144,775	53,839	0,126	-0,087
-143,760	73,426	-0,028	-0,021
-142,745	-35,097	-0,091	0,035
-141,731	-103,421	-0,043	0,007
-140,716	95,551	0,036	0,029
-139,702	-200,000	-0,008	-0,036
-138,687	-86,451	0,068	0,015
-137,672	800,000	0,054	-0,109
-136,658	-10,137	-0,109	-0,052
-135,643	48,089	-0,094	0,063
-134,629	170,621	-0,080	-0,083
-133,614	51,957	0,035	0,024
-132,599	-200,000	0,024	0,077
-131,585	800,000	-0,022	-0,063
-130,570	9,231	-0,079	0,043
-129,556	-200,000	-0,002	0,042
-128,541	800,000	-0,025	-0,054
-127,526	-200,000	-0,031	0,129
-126,512	-200,000	-0,030	0,101
-125,497	-114,290	0,052	-0,007
-124,483	-200,000	0,008	0,095
-123,468	-200,000	-0,027	0,111
-122,453	173,252	0,042	-0,043
-121,439	-172,014	0,107	0,002
-120,424	228,727	-0,073	-0,085
-119,410	-99,948	0,165	0,029
