DTS Sentinel unit serial number:	SN410029Multiplexer serial number:	ORYXHardware model number:	OX2-SRSoftware version number:	ORYX F/W v4,00 Oryx Data Collector v3.7.2.0data status	okinstallation	B5 Nyhavnadifferential loss correction	single-endedforward channel	channel 2reverse channel	N/Adate	2023/12/13time	08:42:13forward acquisition time	300,00reverse acquisition time	0,00gamma	499,1914k internal	0,3160k external	0,3160temperature offset calibration	1,0000default loss term (dB/km)	0,3820temperature slope calibration	1,0000multiplexer offset coefficient	1,0000multiplexer slope coefficient	1,0000fibre end	0,00T internal ref (°C)	13,65T ext. ref 1 (°C)	-2,67T ext. ref 2 (°C)	-2,96length (m)	temperature (°C)	Stokes	anti-Stokes-744,400	800,000	0,073	0,193
-743,385	-156,998	-0,166	0,007
-742,371	-54,708	0,026	0,008
-741,356	-120,659	-0,492	-0,061
-740,342	75,804	0,025	-0,019
-739,327	-139,493	-0,313	0,024
-738,312	580,250	0,080	-0,144
-737,298	-63,847	-0,381	-0,114
-736,283	-128,957	0,106	0,011
-735,269	-148,924	-0,325	-0,019
-734,254	39,813	0,064	0,042
-733,239	-59,628	-0,438	-0,137
-732,225	-104,563	0,203	0,034
-731,210	-148,317	-0,110	-0,007
-730,196	114,249	-0,094	-0,084
-729,181	118,124	-0,051	-0,047
-728,167	-200,000	-0,001	-0,054
-727,152	-200,000	0,022	-0,092
-726,137	-134,534	-0,078	0,007
-725,123	800,000	-0,018	0,055
-724,108	191,916	-0,098	-0,108
-723,094	480,496	-0,038	-0,063
-722,079	800,000	-0,006	-0,016
-721,064	-174,066	-0,078	0,002
-720,050	-200,000	-0,012	0,051
-719,035	145,862	-0,098	0,097
-718,021	-156,638	0,039	0,002
-717,006	-73,850	0,135	-0,036
-715,991	371,642	0,075	-0,112
-714,977	8,310	-0,189	-0,104
-713,962	800,000	-0,040	-0,089
-712,948	102,610	0,153	-0,131
-711,933	800,000	0,032	-0,102
-710,918	46,650	-0,042	0,029
-709,904	800,000	-0,036	-0,090
-708,889	-172,645	0,114	-0,003
-707,875	395,573	0,063	-0,097
-706,860	-200,000	0,003	0,011
-705,845	98,560	0,041	0,035
-704,831	-89,679	-0,009	-0,002
-703,816	-200,000	-0,020	-0,213
-702,802	517,247	-0,079	-0,137
-701,787	-92,442	-0,062	0,013
-700,772	800,000	0,029	-0,062
-699,758	601,552	-0,009	0,016
-698,743	-151,866	0,173	-0,009
-697,729	31,994	-0,050	0,032
-696,714	-200,000	-0,019	-0,107
-695,699	-200,000	-0,027	0,106
-694,685	800,000	0,075	-0,211
-693,670	-107,079	-0,082	-0,013
-692,656	258,193	0,031	-0,040
-691,641	17,834	0,076	-0,044
-690,627	8,312	0,068	0,037
-689,612	-101,470	0,045	-0,008
-688,597	800,000	0,027	-0,071
-687,583	-132,247	-0,059	-0,006
-686,568	-9,458	-0,130	-0,064
-685,554	800,000	-0,018	0,037
-684,539	-200,000	0,022	0,076
-683,524	211,872	-0,069	-0,080
-682,510	403,377	-0,057	-0,088
-681,495	-89,359	-0,040	-0,009
-680,481	800,000	-0,040	0,087
-679,466	-68,019	0,024	-0,007
-678,451	-144,545	-0,127	-0,009
-677,437	-93,704	-0,009	0,002
-676,422	278,340	0,066	0,087
-675,408	53,178	0,102	0,072
-674,393	496,042	0,049	-0,083
-673,378	-143,770	-0,043	0,003
-672,364	138,886	0,139	0,134
-671,349	800,000	-0,052	0,123
-670,335	62,919	0,096	-0,071
-669,320	-41,790	-0,173	-0,065
-668,305	356,437	0,012	0,018
-667,291	452,970	-0,076	-0,124
-666,276	760,548	-0,035	-0,070
-665,262	202,133	0,073	0,083
-664,247	-200,000	-0,008	0,039
-663,232	-141,733	0,102	0,007
-662,218	-200,000	0,014	0,087
-661,203	800,000	-0,023	0,062
-660,189	49,274	0,078	-0,054
-659,174	54,113	-0,068	-0,048
-658,159	352,433	0,066	-0,097
-657,145	-200,000	-0,042	-0,159
-656,130	298,620	0,077	-0,104
-655,116	-200,000	0,012	-0,079
-654,101	-9,915	-0,049	-0,024
-653,086	-200,000	0,013	-0,082
-652,072	-200,000	-0,005	-0,055
-651,057	-200,000	-0,019	-0,081
-650,043	57,844	-0,105	-0,076
-649,028	-74,705	-0,077	0,020
-648,014	-98,266	0,068	-0,013
-646,999	-200,000	-0,017	-0,104
-645,984	454,048	-0,012	-0,019
-644,970	592,885	-0,031	-0,057
-643,955	86,097	0,062	0,050
-642,941	282,294	0,071	-0,094
-641,926	-116,033	0,034	-0,005
-640,911	-86,533	-0,137	-0,031
-639,897	202,947	0,069	0,079
-638,882	-66,950	0,062	-0,018
-637,868	-200,000	-0,004	-0,121
-636,853	-200,000	0,002	-0,095
-635,838	-12,091	-0,072	0,034
-634,824	800,000	0,041	0,099
-633,809	39,139	0,115	-0,075
-632,795	-200,000	-0,013	-0,146
-631,780	-200,000	-0,008	0,034
-630,765	-200,000	-0,003	-0,027
-629,751	662,175	0,026	-0,050
-628,736	-200,000	-0,008	-0,166
-627,722	502,783	0,053	-0,091
-626,707	-200,000	-0,028	0,108
-625,692	383,612	-0,051	-0,078
-624,678	-200,000	-0,019	-0,164
-623,663	-187,062	0,123	0,001
-622,649	-133,910	0,012	-0,001
-621,634	273,701	-0,117	-0,152
-620,619	800,000	-0,037	0,116
-619,605	429,445	-0,043	0,068
-618,590	800,000	-0,043	-0,105
-617,576	-200,000	0,015	0,053
-616,561	-200,000	-0,004	0,019
-615,546	-94,588	-0,125	-0,025
-614,532	319,965	-0,047	0,065
-613,517	800,000	-0,019	0,053
-612,503	-110,449	0,103	-0,016
-611,488	-200,000	-0,003	-0,072
-610,474	-126,722	-0,004	-0,000
-609,459	-134,571	0,162	0,014
-608,444	386,226	-0,057	-0,087
-607,430	135,215	0,076	-0,073
-606,415	-141,453	-0,109	-0,008
-605,401	800,000	0,057	0,147
-604,386	29,868	0,089	-0,055
-603,371	44,526	0,069	-0,046
-602,357	262,031	0,045	0,057
-601,342	-5,797	-0,076	-0,038
-600,328	-200,000	0,012	-0,071
-599,313	800,000	-0,021	-0,048
-598,298	112,337	0,085	0,075
-597,284	-160,839	-0,065	-0,002
-596,269	15,722	0,114	-0,065
-595,255	322,249	0,065	0,091
-594,240	-200,000	-0,007	0,025
-593,225	-200,000	-0,025	-0,135
-592,211	573,198	0,038	-0,068
-591,196	155,890	0,083	-0,084
-590,182	-200,000	-0,004	-0,050
-589,167	11,889	0,154	0,086
-588,152	790,127	-0,029	0,058
-587,138	264,416	-0,017	-0,022
-586,123	-33,102	-0,096	-0,039
-585,109	793,572	-0,054	-0,110
-584,094	403,221	-0,020	-0,030
-583,079	-77,907	0,132	-0,033
-582,065	-200,000	-0,029	0,115
-581,050	20,034	-0,143	0,084
-580,036	386,470	-0,041	-0,063
-579,021	0,263	-0,034	-0,018
-578,006	761,373	0,015	-0,029
-576,992	800,000	-0,017	-0,036
-575,977	258,325	-0,048	-0,060
-574,963	-161,484	0,190	0,007
-573,948	-118,171	-0,090	0,012
-572,934	800,000	-0,017	0,036
-571,919	-81,192	-0,135	0,032
-570,904	800,000	0,026	0,082
-569,890	-200,000	-0,033	0,107
-568,875	174,502	0,009	0,010
-567,861	-160,435	0,041	-0,002
-566,846	-200,000	0,002	0,066
-565,831	-200,000	-0,037	-0,122
-564,817	-39,276	-0,060	0,023
-563,802	-4,505	0,043	0,022
-562,788	77,645	-0,073	-0,056
-561,773	-200,000	-0,007	0,080
-560,758	168,667	0,070	0,073
-559,744	146,063	0,078	0,077
-558,729	-41,453	-0,102	0,038
-557,715	200,886	-0,056	0,064
-556,700	-200,000	0,017	-0,071
-555,685	-147,000	-0,066	-0,004
-554,671	429,783	0,006	0,010
-553,656	77,590	0,017	0,013
-552,642	357,533	-0,125	-0,183
-551,627	317,778	0,122	0,169
-550,612	338,465	0,041	-0,058
-549,598	44,365	-0,036	-0,024
-548,583	13,585	0,050	-0,028
-547,569	167,270	-0,042	0,043
-546,554	-120,592	-0,071	0,009
-545,539	-31,233	-0,100	0,041
-544,525	800,000	-0,046	-0,106
-543,510	110,456	-0,164	-0,144
-542,496	39,785	-0,051	0,034
-541,481	-73,997	-0,184	-0,048
-540,466	36,074	-0,097	-0,062
-539,452	-200,000	0,000	-0,033
-538,437	-69,346	0,109	0,030
-537,423	-107,466	0,086	0,014
-536,408	800,000	-0,008	-0,023
-535,393	800,000	0,059	-0,158
-534,379	-112,251	0,094	-0,014
-533,364	-78,638	0,053	0,013
-532,350	-200,000	0,022	0,123
-531,335	137,101	-0,110	-0,105
-530,321	350,849	0,023	-0,034
-529,306	-30,318	-0,079	-0,032
-528,291	-95,198	-0,108	-0,021
-527,277	-42,436	0,151	-0,056
-526,262	67,461	-0,109	-0,081
-525,248	44,297	0,079	0,053
-524,233	-73,321	0,139	0,037
-523,218	-200,000	-0,006	0,061
-522,204	-42,491	0,035	0,013
-521,189	-56,804	-0,134	-0,043
-520,175	-124,458	0,025	-0,003
-519,160	218,273	0,072	-0,084
-518,145	-116,334	0,072	0,010
-517,131	91,120	-0,029	0,024
-516,116	-95,354	0,150	-0,029
-515,102	38,639	-0,071	-0,046
-514,087	-139,540	0,018	-0,001
-513,072	-109,394	-0,156	-0,024
-512,058	177,217	-0,071	-0,076
-511,043	252,139	0,077	0,095
-510,029	362,365	0,043	0,063
-509,014	535,318	0,025	-0,044
-507,999	17,222	0,029	0,017
-506,985	-200,000	0,035	-0,150
-505,970	-200,000	-0,027	0,175
-504,956	800,000	0,035	-0,101
-503,941	-200,000	0,011	-0,066
-502,926	186,041	0,026	0,028
-501,912	-80,410	0,084	-0,020
-500,897	-21,869	-0,048	0,021
-499,883	-101,998	-0,092	-0,016
-498,868	-106,776	-0,083	0,013
-497,853	-148,481	0,071	-0,004
-496,839	-200,000	-0,032	0,121
-495,824	-200,000	-0,065	-0,235
-494,810	800,000	0,034	-0,097
-493,795	43,178	-0,130	0,086
-492,781	-54,805	-0,195	-0,064
-491,766	773,886	0,029	0,058
-490,751	98,805	-0,032	0,027
-489,737	15,525	0,101	0,058
-488,722	-200,000	0,011	0,232
-487,708	-23,272	-0,039	-0,017
-486,693	331,914	-0,032	-0,045
-485,678	-200,000	-0,029	-0,155
-484,664	-67,865	-0,142	0,040
-483,649	-200,000	-0,035	-0,128
-482,635	336,336	0,038	0,054
-481,620	-200,000	0,007	-0,027
-480,605	361,728	0,076	0,112
-479,591	233,566	-0,043	0,052
-478,576	-61,417	-0,197	-0,060
-477,562	65,670	-0,076	0,056
-476,547	-196,084	-0,036	-0,000
-475,532	178,337	-0,086	-0,092
-474,518	-48,276	0,083	0,029
-473,503	74,518	0,132	-0,101
-472,489	-200,000	0,002	0,062
-471,474	-122,186	-0,049	0,006
-470,459	487,984	0,058	-0,097
-469,445	800,000	-0,022	0,058
-468,430	-200,000	0,005	-0,019
-467,416	-200,000	0,001	-0,116
-466,401	-60,674	0,043	0,013
-465,386	-200,000	-0,017	-0,093
-464,372	210,517	-0,071	0,081
-463,357	92,517	-0,070	-0,057
-462,343	-55,626	-0,127	-0,041
-461,328	150,614	-0,078	-0,078
-460,313	-23,784	0,164	0,071
-459,299	126,684	0,007	0,006
-458,284	-200,000	0,017	0,123
-457,270	-46,156	-0,016	0,006
-456,255	-105,230	0,132	-0,022
-455,241	-152,875	-0,089	-0,005
-454,226	-89,907	0,106	-0,022
-453,211	243,989	-0,091	0,112
-452,197	800,000	0,021	0,065
-451,182	300,449	0,115	0,155
-450,168	-200,000	-0,015	0,115
-449,153	492,739	0,035	-0,059
-448,138	-200,000	0,005	-0,131
-447,124	-87,054	-0,031	-0,007
-446,109	203,463	-0,051	0,057
-445,095	355,064	0,039	0,056
-444,080	-121,735	-0,128	0,015
-443,065	-200,000	-0,026	0,093
-442,051	83,990	0,114	-0,091
-441,036	574,747	-0,020	-0,036
-440,022	26,598	0,007	0,004
-439,007	71,286	0,172	0,130
-437,992	-104,092	-0,095	0,016
-436,978	-51,916	-0,052	0,017
-435,963	163,355	-0,095	0,097
-434,949	-132,469	-0,118	-0,011
-433,934	-200,000	0,026	-0,162
-432,919	-49,821	0,050	-0,017
-431,905	800,000	0,029	-0,080
-430,890	-200,000	0,000	0,169
-429,876	184,061	0,048	0,052
-428,861	-200,000	0,032	0,119
-427,846	-61,714	0,055	-0,017
-426,832	-200,000	0,007	-0,154
-425,817	800,000	-0,020	-0,052
-424,803	-80,784	-0,132	0,032
-423,788	-120,805	0,080	0,010
-422,773	-52,083	0,064	-0,021
-421,759	-200,000	0,016	0,053
-420,744	223,560	-0,015	-0,017
-419,730	-67,571	-0,049	-0,014
-418,715	-200,000	-0,011	0,038
-417,701	224,072	-0,057	0,068
-416,686	57,516	0,151	0,107
-415,671	168,429	0,055	0,057
-414,657	-47,689	0,046	-0,016
-413,642	-30,259	0,071	-0,029
-412,628	-144,365	-0,071	-0,005
-411,613	16,572	-0,094	-0,054
-410,598	689,228	0,015	0,028
-409,584	450,994	-0,041	-0,065
-408,569	-200,000	-0,024	0,081
-407,555	726,374	0,022	-0,043
-406,540	800,000	-0,053	0,152
-405,525	562,793	0,082	0,145
-404,511	-200,000	0,032	-0,116
-403,496	-200,000	0,021	-0,099
-402,482	-66,833	-0,044	0,013
-401,467	677,658	0,014	0,026
-400,452	658,403	0,049	-0,092
-399,438	-12,810	0,078	0,037
-398,423	-200,000	-0,006	-0,028
-397,409	301,885	0,043	0,058
-396,394	144,787	0,082	-0,079
-395,379	-200,000	0,046	-0,180
-394,365	245,506	-0,122	0,150
-393,350	608,182	0,062	0,112
-392,336	-27,410	-0,050	0,021
-391,321	-68,090	0,085	0,024
-390,306	-50,597	-0,059	0,020
-389,292	-200,000	0,002	-0,099
-388,277	-120,650	0,061	0,007
-387,263	85,449	0,072	0,057
-386,248	-200,000	0,004	0,058
-385,233	-200,000	0,000	0,166
-384,219	765,814	0,067	0,132
-383,204	202,489	-0,109	-0,123
-382,190	-168,210	-0,070	-0,002
-381,175	-23,854	-0,024	-0,010
-380,160	120,953	0,043	-0,039
-379,146	-99,519	0,159	-0,029
-378,131	-134,092	0,149	0,013
-377,117	-127,845	0,114	0,012
-376,102	-67,934	-0,076	0,021
-375,088	398,976	0,068	-0,104
-374,073	-126,829	0,111	0,012
-373,058	-200,000	-0,001	-0,056
-372,044	-200,000	0,023	-0,125
-371,029	800,000	0,028	0,067
-370,015	800,000	-0,080	-0,162
-369,000	-166,931	-0,064	0,002
-367,985	800,000	0,041	0,102
-366,971	-200,000	-0,010	-0,081
-365,956	-200,000	0,022	-0,076
-364,942	-200,000	-0,014	0,148
-363,927	33,876	0,080	0,051
-362,912	-157,648	0,121	-0,005
-361,898	206,120	0,057	-0,064
-360,883	111,317	-0,118	0,103
-359,869	-116,416	-0,066	-0,009
-358,854	-9,103	0,146	0,071
-357,839	-200,000	0,020	0,107
-356,825	-124,164	0,131	-0,015
-355,810	-51,803	-0,094	0,032
-354,796	-54,897	0,075	0,024
-353,781	-200,000	-0,043	0,168
-352,766	-200,000	0,010	0,068
-351,752	-200,000	-0,035	-0,170
-350,737	57,319	0,158	0,112
-349,723	173,510	0,057	0,060
-348,708	800,000	0,020	-0,055
-347,693	-168,252	0,150	0,004
-346,679	128,312	0,119	-0,110
-345,664	-24,875	-0,117	0,050
-344,650	800,000	0,039	0,106
-343,635	618,893	0,084	0,153
-342,620	800,000	0,030	0,087
-341,606	-128,625	-0,067	0,007
-340,591	-162,449	-0,145	0,005
-339,577	-200,000	0,000	0,028
-338,562	-200,000	-0,034	0,139
-337,548	511,292	-0,032	0,054
-336,533	734,605	0,008	-0,016
-335,518	-45,959	0,134	-0,048
-334,504	-200,000	-0,011	-0,081
-333,489	-200,000	0,013	-0,129
-332,475	621,241	0,028	-0,051
-331,460	587,570	-0,069	0,123
-330,445	750,390	0,015	-0,029
-329,431	29,565	0,129	-0,079
-328,416	-86,881	-0,058	-0,013
-327,402	-200,000	0,010	-0,138
-326,387	207,007	0,051	0,058
-325,372	-200,000	0,000	-0,017
-324,358	187,786	-0,138	-0,149
-323,343	91,855	0,088	-0,071
-322,329	20,207	0,065	-0,038
-321,314	273,033	0,102	0,131
-320,299	47,526	0,054	0,036
-319,285	800,000	-0,071	0,205
-318,270	-29,982	0,068	0,028
-317,256	-200,000	0,003	0,085
-316,241	149,090	-0,070	-0,069
-315,226	34,145	-0,112	-0,071
-314,212	800,000	0,020	-0,047
-313,197	800,000	-0,042	0,089
-312,183	-200,000	-0,013	0,050
-311,168	116,744	-0,045	0,040
-310,153	-75,990	-0,057	0,015
-309,139	53,043	0,078	-0,054
-308,124	-200,000	0,029	0,115
-307,110	-200,000	-0,006	0,021
-306,095	-163,393	-0,039	0,001
-305,080	-200,000	-0,009	0,072
-304,066	745,127	-0,049	-0,095
-303,051	-200,000	0,008	-0,198
-302,037	74,425	-0,112	0,085
-301,022	62,054	-0,140	0,101
-300,008	-174,773	0,139	-0,003
-298,993	-21,549	-0,089	-0,039
-297,978	-200,000	0,012	0,040
-296,964	226,039	0,027	-0,032
-295,949	800,000	0,054	0,160
-294,935	407,026	0,022	0,033
-293,920	66,104	0,061	0,045
-292,905	285,550	0,048	-0,063
-291,891	-200,000	-0,008	-0,026
-290,876	38,326	-0,081	0,052
-289,862	392,032	0,054	0,081
-288,847	561,857	-0,043	-0,076
-287,832	30,610	-0,014	0,009
-286,818	-42,939	0,034	0,012
-285,803	-21,002	0,143	0,063
-284,789	-134,052	0,054	0,005
-283,774	163,696	-0,088	-0,090
-282,759	-118,362	0,027	0,003
-281,745	-59,578	-0,073	0,022
-280,730	762,603	-0,066	-0,130
-279,716	-134,573	0,008	0,001
-278,701	774,395	0,016	-0,032
-277,686	84,920	0,040	-0,032
-276,672	-44,048	0,098	-0,035
-275,657	499,397	0,018	0,030
-274,643	-200,000	0,001	0,031
-273,628	-18,197	-0,100	-0,045
-272,613	-45,333	-0,106	0,038
-271,599	784,956	0,028	0,056
-270,584	-106,043	-0,041	0,007
-269,570	-200,000	0,034	-0,125
-268,555	-187,218	-0,058	0,001
-267,540	438,007	0,084	0,133
-266,526	-129,074	0,196	0,020
-265,511	-200,000	0,014	0,104
-264,497	-5,033	0,074	-0,037
-263,482	64,046	0,082	-0,060
-262,467	-98,639	-0,079	0,014
-261,453	-37,169	0,039	-0,015
-260,438	-23,022	0,103	0,045
-259,424	-200,000	-0,004	0,045
-258,409	104,229	-0,088	-0,075
-257,395	-28,465	-0,037	-0,016
-256,380	246,984	0,036	-0,044
-255,365	800,000	-0,073	0,185
-254,351	113,076	0,024	0,021
-253,336	-120,719	-0,031	-0,004
-252,322	193,026	-0,079	-0,086
-251,307	206,423	-0,098	-0,110
-250,292	-200,000	0,000	0,057
-249,278	800,000	0,086	0,183
-248,263	-13,196	-0,029	0,014
-247,249	-200,000	-0,018	0,136
-246,234	578,694	-0,032	0,057
-245,219	247,402	-0,067	0,082
-244,205	-122,064	0,050	0,006
-243,190	-140,344	0,095	0,007
-242,176	800,000	-0,033	0,087
-241,161	-200,000	-0,010	0,138
-240,146	83,364	-0,031	0,024
-239,132	45,735	0,071	-0,047
-238,117	-37,472	-0,146	-0,056
-237,103	-16,962	-0,047	-0,021
-236,088	-200,000	0,018	-0,090
-235,073	556,264	-0,081	-0,141
-234,059	463,169	-0,055	0,089
-233,044	-200,000	0,014	0,072
-232,030	71,239	-0,045	-0,034
-231,015	-100,293	-0,134	-0,024
-230,000	-115,946	-0,040	-0,005
-228,986	-38,040	-0,033	-0,012
-227,971	110,137	-0,047	0,041
-226,957	800,000	-0,053	-0,156
-225,942	92,956	0,061	0,050
-224,927	800,000	0,034	0,075
-223,913	-80,518	-0,080	0,019
-222,898	-97,493	-0,107	-0,020
-221,884	379,847	-0,079	-0,117
-220,869	800,000	0,086	-0,238
-219,855	800,000	-0,039	-0,090
-218,840	51,949	-0,113	-0,078
-217,825	52,722	-0,073	0,051
-216,811	-200,000	-0,004	-0,064
-215,796	2,196	-0,070	-0,037
-214,782	2,118	-0,064	0,034
-213,767	800,000	-0,041	0,093
-212,752	-169,239	0,073	-0,002
-211,738	800,000	-0,011	0,028
-210,723	-8,326	-0,135	-0,065
-209,709	800,000	0,012	-0,031
-208,694	-200,000	-0,032	0,123
-207,679	201,765	-0,041	-0,046
-206,665	-200,000	-0,013	0,221
-205,650	65,328	0,165	0,120
-204,636	212,157	0,022	0,025
-203,621	651,282	-0,007	0,013
-202,606	125,587	-0,052	0,047
-201,592	112,888	-0,077	-0,067
-200,577	555,843	0,052	-0,091
-199,563	-200,000	0,004	0,027
-198,548	46,020	0,045	0,030
-197,533	-200,000	0,027	0,090
-196,519	173,662	0,104	-0,108
-195,504	-25,563	-0,051	-0,022
-194,490	800,000	-0,019	-0,057
-193,475	-123,796	0,018	0,002
-192,460	-109,387	-0,067	-0,010
-191,446	-200,000	0,030	0,159
-190,431	-21,053	0,135	0,059
-189,417	183,624	-0,046	0,049
-188,402	-200,000	-0,003	-0,113
-187,387	-126,882	-0,079	0,008
-186,373	800,000	-0,007	0,020
-185,358	-200,000	0,007	0,080
-184,344	60,005	0,070	0,050
-183,329	-16,866	0,026	0,012
-182,315	53,372	-0,016	-0,011
-181,300	-200,000	0,017	0,081
-180,285	169,723	0,037	0,039
-179,271	-200,000	0,016	-0,099
-178,256	800,000	-0,057	-0,142
-177,242	-200,000	-0,004	-0,089
-176,227	800,000	0,023	-0,066
-175,212	-180,203	0,028	-0,000
-174,198	100,216	-0,094	-0,078
-173,183	153,824	-0,090	-0,089
-172,169	-188,215	0,105	-0,001
-171,154	800,000	0,058	0,144
-170,139	-106,705	0,041	0,007
-169,125	-132,275	0,128	0,012
-168,110	800,000	-0,080	0,212
-167,096	800,000	0,024	0,056
-166,081	232,325	0,043	-0,051
-165,066	-148,289	-0,139	0,008
-164,052	7,614	0,081	0,044
-163,037	-16,630	0,111	-0,051
-162,023	144,624	-0,063	0,061
-161,008	-103,454	-0,050	0,008
-159,993	-144,080	0,100	0,007
-158,979	-114,157	0,063	-0,009
-157,964	800,000	-0,031	-0,093
-156,950	-27,680	0,059	-0,025
-155,935	129,294	-0,064	0,059
-154,920	101,947	0,061	-0,051
-153,906	800,000	-0,056	-0,129
-152,891	86,626	-0,071	-0,056
-151,877	37,479	0,044	-0,028
-150,862	119,576	-0,080	-0,071
-149,847	-200,000	-0,007	-0,107
-148,833	-63,966	0,058	-0,017
-147,818	-200,000	0,041	0,145
-146,804	-200,000	0,021	0,163
-145,789	-129,584	-0,110	-0,011
-144,775	401,189	-0,022	-0,033
-143,760	404,405	-0,026	0,039
-142,745	-8,631	-0,058	-0,028
-141,731	-136,465	-0,098	-0,008
-140,716	-71,302	0,152	-0,041
-139,702	-54,275	0,020	-0,006
-138,687	153,431	0,098	0,096
-137,672	-4,681	0,106	-0,053
-136,658	157,244	-0,043	0,043
-135,643	56,339	-0,058	-0,040
-134,629	97,559	0,032	-0,026
-133,614	-86,634	-0,083	-0,018
-132,599	122,904	0,025	-0,023
-131,585	-193,374	0,101	-0,001
-130,570	-37,000	-0,111	0,043
-129,556	713,503	-0,079	-0,152
-128,541	-200,000	0,002	-0,114
-127,526	-68,954	0,055	-0,015
-126,512	-101,247	0,041	-0,007
-125,497	-200,000	0,010	0,096
-124,483	-200,000	-0,016	-0,168
-123,468	171,374	0,086	-0,089
-122,453	240,674	-0,120	-0,144
-121,439	19,884	0,036	-0,021
-120,424	-200,000	-0,017	-0,079
