DTS Sentinel unit serial number:	SN410029Multiplexer serial number:	ORYXHardware model number:	OX2-SRSoftware version number:	ORYX F/W v4,00 Oryx Data Collector v3.7.2.0data status	okinstallation	B5 Nyhavnadifferential loss correction	single-endedforward channel	channel 2reverse channel	N/Adate	2023/12/11time	22:42:13forward acquisition time	300,00reverse acquisition time	0,00gamma	499,1914k internal	0,3155k external	0,3155temperature offset calibration	1,0000default loss term (dB/km)	0,3820temperature slope calibration	1,0000multiplexer offset coefficient	1,0000multiplexer slope coefficient	1,0000fibre end	0,00T internal ref (°C)	16,31T ext. ref 1 (°C)	0,09T ext. ref 2 (°C)	-0,16length (m)	temperature (°C)	Stokes	anti-Stokes-744,400	-27,120	0,168	0,072
-743,385	-50,344	-0,274	0,095
-742,371	-18,925	0,077	0,035
-741,356	-124,867	-0,282	0,032
-740,342	675,168	-0,038	0,072
-739,327	-148,620	-0,292	-0,017
-738,312	-38,957	0,096	-0,037
-737,298	-200,000	-0,496	-0,001
-736,283	306,876	0,053	-0,073
-735,269	-147,545	-0,307	0,019
-734,254	52,844	0,040	-0,029
-733,239	-18,652	-0,561	-0,257
-732,225	29,977	0,180	0,113
-731,210	3,829	0,043	-0,023
-730,196	397,796	-0,082	-0,128
-729,181	800,000	-0,043	-0,124
-728,167	540,357	-0,021	0,036
-727,152	496,585	-0,073	0,124
-726,137	-200,000	-0,021	0,134
-725,123	800,000	0,059	-0,155
-724,108	620,600	-0,066	-0,123
-723,094	602,725	0,034	-0,062
-722,079	-15,524	-0,054	0,025
-721,064	800,000	-0,077	-0,187
-720,050	-36,440	-0,092	0,036
-719,035	-200,000	-0,000	-0,078
-718,021	456,020	-0,085	-0,140
-717,006	-37,078	-0,160	-0,063
-715,991	-200,000	-0,018	-0,170
-714,977	-88,851	0,046	-0,010
-713,962	-63,070	0,030	0,009
-712,948	800,000	0,020	-0,041
-711,933	535,120	0,044	-0,077
-710,918	800,000	-0,028	-0,068
-709,904	-200,000	0,030	0,144
-708,889	10,378	-0,102	0,057
-707,875	218,618	-0,044	0,052
-706,860	-61,088	-0,094	0,029
-705,845	-200,000	0,011	-0,073
-704,831	142,521	-0,063	0,061
-703,816	424,798	0,027	-0,043
-702,802	-92,365	0,068	-0,014
-701,787	-200,000	-0,021	-0,111
-700,772	73,820	-0,104	-0,080
-699,758	-200,000	-0,011	-0,116
-698,743	-200,000	0,011	0,036
-697,729	32,334	0,084	0,054
-696,714	800,000	-0,023	0,073
-695,699	-200,000	-0,007	-0,124
-694,685	-100,759	-0,104	0,019
-693,670	-82,480	0,156	-0,037
-692,656	800,000	0,018	0,051
-691,641	257,120	0,052	0,067
-690,627	22,260	0,153	0,092
-689,612	73,465	-0,055	0,042
-688,597	-49,718	0,089	-0,031
-687,583	46,990	-0,054	-0,037
-686,568	31,015	0,044	-0,028
-685,554	-200,000	0,026	-0,176
-684,539	-200,000	-0,012	-0,085
-683,524	-153,794	0,124	-0,006
-682,510	-16,842	-0,049	0,023
-681,495	800,000	-0,024	0,064
-680,481	769,043	-0,063	0,128
-679,466	-70,862	-0,110	0,030
-678,451	-200,000	-0,010	-0,036
-677,437	-200,000	-0,010	-0,057
-676,422	-200,000	-0,005	0,046
-675,408	45,090	-0,066	0,045
-674,393	88,459	0,041	0,033
-673,378	18,954	-0,134	-0,079
-672,364	-200,000	0,018	-0,127
-671,349	-40,546	-0,030	-0,011
-670,335	-23,094	0,099	-0,044
-669,320	-200,000	0,022	0,088
-668,305	-200,000	0,023	0,081
-667,291	-8,963	-0,109	-0,054
-666,276	-56,048	-0,086	-0,028
-665,262	21,354	-0,076	-0,045
-664,247	-108,971	0,028	0,004
-663,232	-40,301	-0,100	0,038
-662,218	230,889	0,071	-0,086
-661,203	413,175	-0,020	0,031
-660,189	2,595	0,047	0,025
-659,174	800,000	-0,026	-0,054
-658,159	800,000	-0,099	-0,231
-657,145	800,000	-0,047	-0,117
-656,130	64,552	0,003	0,002
-655,116	54,818	-0,105	0,074
-654,101	49,804	-0,077	0,053
-653,086	-128,612	0,035	-0,004
-652,072	25,929	0,111	0,068
-651,057	255,746	-0,096	-0,121
-650,043	295,835	-0,039	-0,052
-649,028	-4,078	0,038	0,019
-648,014	800,000	-0,011	0,026
-646,999	-5,976	0,059	-0,030
-645,984	-94,199	0,129	0,026
-644,970	800,000	-0,042	0,098
-643,955	-200,000	0,015	0,068
-642,941	-200,000	0,003	0,045
-641,926	-200,000	-0,007	-0,084
-640,911	-200,000	-0,002	-0,031
-639,897	-200,000	-0,021	-0,150
-638,882	-200,000	0,002	0,010
-637,868	15,714	-0,223	0,128
-636,853	800,000	-0,072	-0,153
-635,838	205,076	-0,058	-0,066
-634,824	61,379	0,036	-0,026
-633,809	121,259	-0,032	-0,029
-632,795	373,801	-0,054	0,081
-631,780	-47,038	-0,031	-0,011
-630,765	-39,769	0,079	0,030
-629,751	258,016	-0,058	-0,073
-628,736	154,078	0,082	-0,083
-627,722	92,483	-0,124	-0,103
-626,707	44,605	0,114	-0,077
-625,692	128,472	0,075	0,071
-624,678	95,869	-0,096	-0,080
-623,663	-112,478	-0,130	-0,019
-622,649	-105,285	-0,130	0,021
-621,634	-88,912	-0,174	0,037
-620,619	4,584	-0,135	-0,073
-619,605	-133,461	0,100	-0,009
-618,590	493,078	-0,062	0,105
-617,576	44,149	0,088	-0,059
-616,561	300,148	-0,029	-0,039
-615,546	-48,401	0,070	0,025
-614,532	800,000	0,064	-0,130
-613,517	105,707	0,091	-0,079
-612,503	800,000	0,023	-0,073
-611,488	-71,823	-0,034	-0,009
-610,474	-200,000	-0,015	0,112
-609,459	-200,000	0,020	-0,072
-608,444	4,546	-0,064	0,034
-607,430	413,016	-0,017	0,026
-606,415	-126,069	-0,046	-0,005
-605,401	41,362	-0,068	0,045
-604,386	-43,778	0,102	-0,037
-603,371	146,759	-0,117	0,115
-602,357	-200,000	0,007	0,116
-601,342	-170,042	-0,068	-0,002
-600,328	-12,380	-0,116	0,056
-599,313	128,959	0,032	0,030
-598,298	18,532	0,113	0,066
-597,284	72,375	-0,035	0,027
-596,269	259,412	-0,054	0,068
-595,255	144,995	0,063	-0,062
-594,240	-76,680	-0,140	0,036
-593,225	-17,991	0,087	-0,040
-592,211	-200,000	-0,001	-0,026
-591,196	-53,404	-0,065	-0,022
-590,182	-47,510	0,174	-0,062
-589,167	800,000	-0,033	-0,081
-588,152	-167,246	-0,048	-0,001
-587,138	-200,000	-0,001	-0,042
-586,123	7,854	-0,110	-0,060
-585,109	-103,730	-0,226	-0,038
-584,094	396,620	0,047	-0,072
-583,079	-200,000	-0,013	0,112
-582,065	800,000	0,090	0,202
-581,050	-17,161	0,030	-0,014
-580,036	-24,903	-0,025	-0,011
-579,021	11,655	0,051	-0,029
-578,006	-142,265	-0,095	0,007
-576,992	16,201	-0,169	-0,098
-575,977	-200,000	-0,007	0,060
-574,963	177,882	-0,086	0,092
-573,948	39,038	0,028	-0,018
-572,934	800,000	-0,078	-0,172
-571,919	737,328	-0,133	-0,263
-570,904	619,279	-0,020	0,036
-569,890	-97,566	-0,057	-0,011
-568,875	-167,058	0,066	0,002
-567,861	-73,857	0,168	-0,044
-566,846	82,776	-0,053	0,042
-565,831	-200,000	0,004	0,081
-564,817	-200,000	-0,030	-0,130
-563,802	411,792	-0,019	-0,029
-562,788	24,420	0,060	-0,036
-561,773	-180,676	0,073	-0,001
-560,758	-109,567	0,066	0,010
-559,744	-200,000	0,005	-0,087
-558,729	18,652	-0,047	-0,028
-557,715	-1,561	0,067	-0,034
-556,700	-200,000	-0,022	0,143
-555,685	800,000	0,077	-0,171
-554,671	-200,000	0,021	-0,142
-553,656	410,084	0,093	0,145
-552,642	800,000	0,049	0,135
-551,627	647,666	-0,049	0,092
-550,612	155,446	-0,085	-0,086
-549,598	283,415	-0,039	-0,052
-548,583	-13,077	-0,090	-0,043
-547,569	800,000	0,048	-0,104
-546,554	-200,000	-0,018	-0,148
-545,539	-121,538	0,048	0,006
-544,525	800,000	0,014	0,043
-543,510	-2,023	-0,080	0,041
-542,496	-125,532	-0,039	-0,004
-541,481	-200,000	-0,012	-0,071
-540,466	675,411	-0,031	-0,060
-539,452	-64,057	0,037	0,011
-538,437	577,686	0,057	-0,103
-537,423	800,000	0,017	-0,038
-536,408	688,498	0,039	0,075
-535,393	-200,000	-0,017	-0,125
-534,379	325,417	-0,086	0,121
-533,364	800,000	-0,035	0,079
-532,350	77,315	0,057	0,044
-531,335	209,074	-0,083	0,095
-530,321	114,873	0,099	-0,088
-529,306	551,761	0,040	-0,070
-528,291	1,301	-0,104	-0,054
-527,277	240,839	0,098	-0,120
-526,262	625,829	-0,028	-0,052
-525,248	18,027	0,046	0,027
-524,233	26,958	0,053	0,033
-523,218	-129,217	-0,023	0,002
-522,204	-151,890	-0,091	-0,005
-521,189	-117,585	-0,092	0,012
-520,175	157,379	-0,050	-0,051
-519,160	265,693	-0,032	0,041
-518,145	-56,494	-0,097	0,031
-517,131	-179,949	0,148	-0,002
-516,116	-22,373	-0,067	0,030
-515,102	561,822	0,030	-0,053
-514,087	-137,576	0,106	-0,009
-513,072	800,000	0,022	-0,069
-512,058	-200,000	-0,002	-0,115
-511,043	9,562	0,041	0,022
-510,029	-44,934	-0,090	0,033
-509,014	800,000	0,035	0,086
-507,999	-200,000	0,017	0,063
-506,985	-200,000	-0,010	-0,074
-505,970	-57,484	-0,157	-0,050
-504,956	-2,974	-0,074	0,038
-503,941	87,474	-0,139	0,113
-502,926	-70,474	-0,123	0,034
-501,912	-17,943	0,102	-0,047
-500,897	329,827	0,071	-0,100
-499,883	-200,000	-0,002	0,014
-498,868	60,287	-0,066	0,048
-497,853	37,427	0,042	0,027
-496,839	-172,922	-0,098	0,002
-495,824	363,868	0,071	0,105
-494,810	800,000	0,015	0,046
-493,795	-104,535	0,063	0,010
-492,781	-200,000	0,005	0,045
-491,766	-37,481	-0,121	-0,047
-490,751	32,002	-0,083	-0,052
-489,737	176,010	0,046	-0,049
-488,722	167,604	0,070	0,072
-487,708	308,192	0,036	0,049
-486,693	636,991	0,023	0,042
-485,678	-200,000	0,002	-0,174
-484,664	-81,538	-0,062	0,015
-483,649	259,486	0,031	0,039
-482,635	79,637	-0,028	-0,022
-481,620	-29,868	0,045	0,019
-480,605	-51,112	-0,035	0,012
-479,591	18,914	0,103	-0,060
-478,576	80,523	-0,067	-0,052
-477,562	-92,061	0,031	-0,006
-476,547	-200,000	-0,011	-0,110
-475,532	-20,472	0,112	0,050
-474,518	-200,000	-0,016	-0,167
-473,503	-81,657	0,113	0,027
-472,489	-130,616	0,068	0,007
-471,474	5,634	-0,099	0,053
-470,459	626,000	0,038	0,070
-469,445	-200,000	-0,047	-0,182
-468,430	454,725	0,036	-0,058
-467,416	-17,375	-0,049	0,022
-466,401	-45,220	0,051	-0,019
-465,386	-104,671	0,060	0,010
-464,372	-98,515	-0,098	-0,018
-463,357	123,937	-0,007	0,006
-462,343	-200,000	0,020	0,215
-461,328	115,796	-0,046	-0,041
-460,313	-200,000	0,022	-0,117
-459,299	105,261	0,102	-0,088
-458,284	518,158	0,056	0,096
-457,270	3,570	0,176	0,093
-456,255	-74,120	0,049	0,013
-455,241	-149,536	-0,199	0,011
-454,226	62,175	-0,041	-0,030
-453,211	-17,906	-0,036	0,016
-452,197	-2,060	0,097	0,049
-451,182	-115,066	0,068	-0,009
-450,168	121,119	-0,005	0,004
-449,153	-200,000	-0,002	0,024
-448,138	800,000	-0,042	-0,129
-447,124	200,286	-0,041	0,045
-446,109	-54,560	-0,079	-0,026
-445,095	59,252	0,008	-0,006
-444,080	320,501	-0,093	0,129
-443,065	-200,000	0,006	0,179
-442,051	800,000	-0,016	0,044
-441,036	-200,000	0,019	-0,090
-440,022	-186,361	-0,053	0,001
-439,007	26,854	0,080	-0,049
-437,992	178,729	0,015	0,016
-436,978	540,215	0,041	0,071
-435,963	253,043	0,054	-0,068
-434,949	800,000	0,045	0,121
-433,934	-200,000	0,008	-0,048
-432,919	-200,000	-0,015	0,134
-431,905	542,489	0,004	-0,006
-430,890	-101,894	0,197	0,034
-429,876	-200,000	-0,008	0,071
-428,861	-200,000	0,015	0,077
-427,846	-155,311	-0,074	-0,003
-426,832	-200,000	0,027	0,118
-425,817	6,308	0,088	-0,048
-424,803	296,157	-0,105	-0,141
-423,788	236,127	0,101	0,122
-422,773	115,372	0,153	0,136
-421,759	800,000	-0,008	0,021
-420,744	116,064	-0,085	-0,076
-419,730	-200,000	-0,024	0,097
-418,715	648,070	-0,027	0,051
-417,701	-51,532	-0,041	-0,014
-416,686	800,000	-0,043	-0,113
-415,671	-95,393	0,195	0,038
-414,657	319,381	0,071	-0,098
-413,642	800,000	-0,020	0,045
-412,628	-33,209	0,040	-0,016
-411,613	-200,000	0,009	-0,036
-410,598	-200,000	0,015	-0,092
-409,584	-11,815	0,131	-0,062
-408,569	237,653	0,063	-0,077
-407,555	-200,000	0,013	-0,114
-406,540	28,803	-0,034	-0,021
-405,525	-54,391	-0,134	0,044
-404,511	-68,774	0,069	-0,019
-403,496	-31,327	0,168	-0,069
-402,482	-61,264	-0,031	-0,010
-401,467	-200,000	0,021	-0,132
-400,452	-143,938	0,134	0,009
-399,438	-46,284	-0,136	-0,048
-398,423	126,848	-0,092	-0,085
-397,409	-200,000	-0,018	-0,062
-396,394	-200,000	0,004	0,020
-395,379	-14,670	0,058	0,027
-394,365	666,095	-0,027	-0,052
-393,350	109,736	0,079	0,069
-392,336	-14,418	0,071	0,033
-391,321	800,000	0,084	0,190
-390,306	-66,180	-0,130	-0,037
-389,292	800,000	0,009	-0,024
-388,277	800,000	0,051	0,127
-387,263	255,521	-0,030	-0,038
-386,248	111,788	0,066	0,058
-385,233	-200,000	-0,018	-0,080
-384,219	142,576	-0,046	-0,044
-383,204	502,584	-0,040	-0,068
-382,190	800,000	-0,034	-0,080
-381,175	5,580	0,074	-0,040
-380,160	1,067	0,103	-0,053
-379,146	48,838	-0,063	0,043
-378,131	-200,000	-0,004	0,115
-377,117	157,079	-0,115	0,116
-376,102	123,204	-0,085	-0,078
-375,088	-164,365	-0,152	0,005
-374,073	-134,878	0,184	0,016
-373,058	597,793	0,049	-0,088
-372,044	-200,000	-0,043	0,260
-371,029	109,772	-0,123	0,107
-370,015	-92,861	0,131	0,026
-369,000	-71,982	0,064	-0,017
-367,985	-32,334	-0,112	-0,045
-366,971	-200,000	-0,031	0,126
-365,956	12,427	0,092	0,051
-364,942	-111,832	-0,129	0,019
-363,927	295,133	0,082	0,109
-362,912	-66,558	-0,104	0,030
-361,898	-200,000	-0,006	0,036
-360,883	-20,182	-0,145	0,065
-359,869	268,940	0,036	0,046
-358,854	241,750	0,054	0,066
-357,839	252,549	0,082	0,102
-356,825	-122,995	0,040	-0,005
-355,810	251,323	-0,065	0,081
-354,796	118,439	-0,196	-0,176
-353,781	-200,000	0,014	0,132
-352,766	-47,442	0,079	0,028
-351,752	-155,169	0,049	-0,002
-350,737	-141,570	0,120	0,009
-349,723	219,550	0,021	-0,024
-348,708	401,986	-0,061	0,093
-347,693	-88,485	0,119	-0,026
-346,679	-200,000	0,014	-0,081
-345,664	800,000	-0,053	-0,167
-344,650	-200,000	0,007	0,068
-343,635	156,597	0,029	0,029
-342,620	227,052	0,045	0,053
-341,606	800,000	0,016	-0,036
-340,591	46,048	-0,168	-0,113
-339,577	-200,000	0,016	-0,054
-338,562	213,522	-0,024	-0,028
-337,548	468,068	0,090	-0,147
-336,533	-67,678	0,061	-0,017
-335,518	223,976	0,044	0,052
-334,504	76,902	-0,045	0,034
-333,489	-109,850	0,095	-0,014
-332,475	-17,156	-0,103	-0,047
-331,460	-35,748	-0,091	-0,035
-330,445	800,000	0,080	0,171
-329,431	-58,657	0,124	0,039
-328,416	-197,021	0,144	0,001
-327,402	-151,100	-0,048	0,003
-326,387	171,663	0,046	0,048
-325,372	31,884	0,086	-0,054
-324,358	72,494	-0,074	0,056
-323,343	104,640	0,034	0,029
-322,329	299,581	0,026	0,035
-321,314	-85,742	0,068	0,015
-320,299	196,653	0,076	0,084
-319,285	-113,132	0,024	-0,003
-318,270	317,364	-0,050	0,069
-317,256	286,116	0,025	0,033
-316,241	800,000	-0,036	0,102
-315,226	800,000	0,017	0,054
-314,212	409,931	-0,041	0,064
-313,197	241,388	0,054	0,066
-312,183	42,427	0,068	0,045
-311,168	198,209	-0,129	0,144
-310,153	-96,420	0,079	0,015
-309,139	800,000	-0,006	-0,019
-308,124	-122,702	0,095	0,011
-307,110	241,275	-0,009	-0,011
-306,095	634,778	0,006	0,011
-305,080	800,000	0,031	-0,065
-304,066	-168,467	-0,143	0,004
-303,051	-144,831	-0,020	-0,001
-302,037	26,527	0,099	-0,060
-301,022	-135,142	0,046	0,004
-300,008	-200,000	-0,002	0,145
-298,993	-200,000	-0,013	0,046
-297,978	-15,699	0,029	-0,013
-296,964	800,000	-0,015	-0,049
-295,949	800,000	-0,005	0,014
-294,935	255,490	0,092	-0,114
-293,920	189,011	0,115	-0,125
-292,905	-87,176	0,035	-0,008
-291,891	48,672	-0,065	-0,044
-290,876	-162,669	-0,037	-0,001
-289,862	-200,000	-0,016	-0,118
-288,847	73,209	0,081	0,062
-287,832	96,585	-0,064	-0,053
-286,818	-200,000	-0,023	-0,105
-285,803	60,259	0,042	0,030
-284,789	-64,246	0,066	0,019
-283,774	474,075	0,109	-0,178
-282,759	247,966	0,008	-0,010
-281,745	161,499	0,068	-0,069
-280,730	-134,362	-0,161	-0,014
-279,716	-199,430	0,238	0,001
-278,701	-200,000	0,006	-0,062
-277,686	257,333	0,066	-0,082
-276,672	800,000	0,051	0,106
-275,657	65,187	-0,068	0,049
-274,643	50,785	-0,075	-0,051
-273,628	240,438	-0,062	0,075
-272,613	3,251	-0,043	-0,022
-271,599	-160,527	0,102	0,004
-270,584	800,000	0,053	0,156
-269,570	168,414	-0,069	-0,071
-268,555	481,977	0,068	0,112
-267,540	1,069	0,148	-0,077
-266,526	-200,000	-0,002	-0,074
-265,511	-200,000	0,003	-0,068
-264,497	800,000	-0,031	-0,064
-263,482	213,798	-0,048	0,055
-262,467	43,241	0,076	0,050
-261,453	-200,000	-0,001	-0,126
-260,438	800,000	-0,064	0,132
-259,424	7,744	-0,082	0,045
-258,409	-8,292	-0,153	0,075
-257,395	567,491	-0,054	-0,095
-256,380	148,746	0,029	-0,029
-255,365	800,000	0,052	0,155
-254,351	-200,000	-0,010	0,045
-253,336	-36,623	0,100	0,039
-252,322	-169,461	-0,012	0,000
-251,307	217,550	0,019	-0,022
-250,292	-18,033	0,040	-0,018
-249,278	-200,000	0,005	0,095
-248,263	-17,401	0,068	0,031
-247,249	-6,954	-0,075	0,037
-246,234	-200,000	0,017	0,054
-245,219	-101,664	0,065	-0,011
-244,205	-200,000	0,022	0,084
-243,190	800,000	-0,019	-0,058
-242,176	-15,167	-0,210	0,097
-241,161	-15,220	-0,049	-0,023
-240,146	-200,000	0,028	-0,101
-239,132	-82,002	0,081	0,019
-238,117	45,918	0,041	-0,027
-237,103	-200,000	-0,007	0,059
-236,088	236,469	0,066	-0,079
-235,073	800,000	0,028	0,068
-234,059	222,059	0,122	0,142
-233,044	-97,495	-0,020	-0,004
-232,030	800,000	0,028	-0,071
-231,015	800,000	0,031	-0,065
-230,000	-17,734	-0,041	-0,018
-228,986	-74,697	-0,075	-0,019
-227,971	-22,907	-0,144	0,063
-226,957	124,487	0,118	0,107
-225,942	-200,000	0,006	-0,032
-224,927	77,358	-0,054	0,041
-223,913	-200,000	-0,001	-0,007
-222,898	-155,100	-0,237	0,011
-221,884	-73,028	0,063	0,017
-220,869	-200,000	0,010	0,036
-219,855	800,000	0,043	0,130
-218,840	800,000	0,060	0,148
-217,825	800,000	0,023	0,060
-216,811	-190,353	-0,069	-0,001
-215,796	-91,411	-0,058	-0,012
-214,782	160,902	0,106	-0,107
-213,767	-85,018	-0,091	0,021
-212,752	800,000	-0,021	-0,043
-211,738	-162,409	0,079	0,003
-210,723	37,588	-0,046	0,030
-209,709	-200,000	-0,022	0,079
-208,694	-64,787	-0,066	0,019
-207,679	800,000	0,029	-0,088
-206,665	13,088	-0,030	-0,017
-205,650	-200,000	-0,014	-0,130
-204,636	348,728	-0,042	0,061
-203,621	441,384	-0,042	0,066
-202,606	180,299	-0,039	-0,041
-201,592	-94,656	-0,190	-0,037
-200,577	800,000	0,012	0,027
-199,563	-110,271	0,065	-0,010
-198,548	-51,825	0,077	-0,026
-197,533	-200,000	0,017	0,103
-196,519	-200,000	-0,020	0,078
-195,504	597,734	-0,066	-0,119
-194,490	169,014	-0,027	-0,028
-193,475	70,883	0,048	-0,036
-192,460	-41,667	0,024	-0,009
-191,446	-19,687	-0,103	0,046
-190,431	-88,554	-0,062	-0,013
-189,417	800,000	0,037	0,089
-188,402	11,150	0,070	-0,039
-187,387	800,000	-0,038	0,076
-186,373	-62,651	-0,089	-0,026
-185,358	-110,280	0,096	0,014
-184,344	-89,502	0,040	-0,008
-183,329	-200,000	-0,002	-0,040
-182,315	-54,084	0,119	-0,039
-181,300	9,877	-0,074	0,041
-180,285	121,186	-0,098	-0,088
-179,271	800,000	-0,075	-0,175
-178,256	-200,000	-0,025	-0,086
-177,242	239,281	-0,051	-0,061
-176,227	-200,000	0,030	0,145
-175,212	-112,775	-0,086	-0,012
-174,198	20,597	0,077	-0,045
-173,183	87,709	-0,127	-0,102
-172,169	3,069	-0,030	-0,016
-171,154	134,855	0,043	-0,040
-170,139	-60,375	0,135	-0,041
-169,125	-3,071	-0,083	0,042
-168,110	800,000	0,038	0,089
-167,096	530,037	-0,020	0,035
-166,081	-181,406	0,062	-0,001
-165,066	-200,000	-0,017	-0,082
-164,052	-171,780	-0,023	-0,001
-163,037	66,349	-0,043	0,032
-162,023	-125,920	-0,058	0,006
-161,008	-200,000	0,022	-0,079
-159,993	800,000	-0,037	-0,080
-158,979	129,162	0,048	0,044
-157,964	-122,690	-0,080	-0,009
-156,950	233,546	0,059	-0,070
-155,935	22,761	-0,113	0,067
-154,920	-193,824	0,149	-0,001
-153,906	275,622	0,098	0,125
-152,891	-200,000	-0,015	0,078
-151,877	800,000	0,016	0,039
-150,862	444,096	0,047	-0,075
-149,847	800,000	-0,021	-0,054
-148,833	30,975	-0,032	-0,019
-147,818	-200,000	-0,012	-0,045
-146,804	-67,037	0,113	-0,032
-145,789	800,000	0,122	0,247
-144,775	116,424	-0,082	0,072
-143,760	-200,000	-0,010	-0,054
-142,745	-6,078	-0,053	-0,026
-141,731	-200,000	0,001	-0,148
-140,716	-21,273	-0,096	-0,042
-139,702	84,385	-0,119	-0,093
-138,687	740,674	0,039	0,075
-137,672	-200,000	-0,014	0,088
-136,658	538,635	-0,059	-0,102
-135,643	-36,110	-0,053	0,020
-134,629	23,622	0,010	-0,006
-133,614	192,625	-0,108	0,117
-132,599	-200,000	-0,018	0,108
-131,585	-200,000	0,020	0,156
-130,570	-200,000	-0,021	0,151
-129,556	513,957	0,043	-0,072
-128,541	-2,500	-0,058	-0,029
-127,526	-104,973	0,085	-0,014
-126,512	-117,550	0,224	-0,029
-125,497	800,000	0,031	-0,073
-124,483	-55,654	-0,060	-0,019
-123,468	-142,048	-0,102	-0,007
-122,453	-200,000	-0,001	0,040
-121,439	28,246	0,097	-0,059
-120,424	272,577	-0,074	-0,094
-119,410	-200,000	0,001	0,032
-118,395	800,000	-0,030	0,063
