DTS Sentinel unit serial number:	SN410029Multiplexer serial number:	ORYXHardware model number:	OX2-SRSoftware version number:	ORYX F/W v4,00 Oryx Data Collector v3.7.2.0data status	okinstallation	B5 Nyhavnadifferential loss correction	single-endedforward channel	channel 2reverse channel	N/Adate	2023/12/14time	05:57:13forward acquisition time	300,00reverse acquisition time	0,00gamma	499,1914k internal	0,3157k external	0,3157temperature offset calibration	1,0000default loss term (dB/km)	0,3820temperature slope calibration	1,0000multiplexer offset coefficient	1,0000multiplexer slope coefficient	1,0000fibre end	0,00T internal ref (°C)	7,63T ext. ref 1 (°C)	-8,80T ext. ref 2 (°C)	-8,89length (m)	temperature (°C)	Stokes	anti-Stokes-744,400	119,794	0,084	0,077
-743,385	-20,301	-0,392	-0,177
-742,371	-26,185	0,249	0,107
-741,356	-124,597	-0,435	0,049
-740,342	-200,000	0,060	0,214
-739,327	35,209	-0,286	-0,184
-738,312	225,004	0,159	0,191
-737,298	-134,649	-0,423	0,037
-736,283	22,155	0,172	0,103
-735,269	-90,274	-0,471	-0,100
-734,254	800,000	0,082	0,206
-733,239	-52,304	-0,569	-0,193
-732,225	-0,305	0,395	0,206
-731,210	-200,000	0,012	0,129
-730,196	-200,000	-0,012	0,113
-729,181	26,193	-0,136	-0,084
-728,167	-48,855	-0,032	-0,011
-727,152	52,729	-0,133	0,094
-726,137	-26,363	-0,095	-0,041
-725,123	37,485	0,014	-0,009
-724,108	800,000	-0,058	-0,132
-723,094	602,331	-0,047	-0,086
-722,079	-200,000	-0,002	0,135
-721,064	-200,000	-0,006	-0,118
-720,050	-200,000	-0,002	0,064
-719,035	-200,000	0,014	0,102
-718,021	406,946	-0,098	0,153
-717,006	-183,425	-0,130	0,002
-715,991	800,000	-0,013	-0,028
-714,977	-2,815	-0,112	0,058
-713,962	800,000	-0,025	-0,081
-712,948	-200,000	0,017	0,068
-711,933	-49,720	-0,044	0,015
-710,918	-111,854	-0,067	0,010
-709,904	413,076	-0,013	-0,021
-708,889	208,952	0,013	-0,015
-707,875	189,116	-0,063	-0,070
-706,860	800,000	-0,006	0,016
-705,845	18,808	-0,100	-0,059
-704,831	-200,000	-0,010	0,158
-703,816	384,862	0,039	-0,059
-702,802	-200,000	-0,001	0,012
-701,787	244,020	-0,051	-0,063
-700,772	262,702	0,075	-0,096
-699,758	-193,394	-0,124	-0,001
-698,743	-143,571	0,127	0,009
-697,729	65,768	-0,050	-0,037
-696,714	85,222	0,065	-0,053
-695,699	-200,000	0,001	-0,143
-694,685	800,000	-0,022	-0,049
-693,670	68,597	-0,202	-0,152
-692,656	232,150	0,051	-0,062
-691,641	800,000	0,032	0,084
-690,627	800,000	-0,035	-0,079
-689,612	-15,335	-0,093	-0,044
-688,597	-200,000	-0,006	0,032
-687,583	576,106	0,052	-0,094
-686,568	-28,699	-0,071	-0,030
-685,554	-200,000	-0,003	-0,061
-684,539	104,326	0,029	0,025
-683,524	-45,940	-0,101	-0,036
-682,510	-60,216	-0,044	-0,014
-681,495	-117,687	-0,045	-0,006
-680,481	44,082	-0,065	-0,044
-679,466	-200,000	0,026	-0,204
-678,451	162,704	0,090	0,093
-677,437	136,084	-0,059	0,056
-676,422	-200,000	-0,024	0,081
-675,408	7,107	0,020	-0,011
-674,393	-51,091	0,024	0,008
-673,378	-200,000	-0,007	-0,108
-672,364	170,576	-0,101	-0,106
-671,349	800,000	-0,085	-0,182
-670,335	632,695	0,049	-0,092
-669,320	109,252	-0,040	-0,035
-668,305	-200,000	0,003	0,067
-667,291	-200,000	0,010	-0,049
-666,276	-200,000	0,015	-0,217
-665,262	569,164	0,021	-0,037
-664,247	-200,000	-0,016	-0,063
-663,232	-52,205	-0,183	0,062
-662,218	163,108	0,063	0,065
-661,203	-137,133	0,039	-0,003
-660,189	800,000	0,007	-0,016
-659,174	-11,591	-0,066	-0,032
-658,159	377,892	-0,032	-0,048
-657,145	550,784	0,028	0,049
-656,130	-51,404	-0,049	0,017
-655,116	-200,000	0,006	-0,049
-654,101	800,000	-0,042	0,113
-653,086	-200,000	0,004	-0,065
-652,072	110,181	-0,038	-0,034
-651,057	78,364	-0,034	-0,027
-650,043	-200,000	0,016	-0,054
-649,028	77,643	-0,030	0,024
-648,014	87,039	-0,021	-0,017
-646,999	110,094	-0,022	0,020
-645,984	-142,582	-0,044	-0,003
-644,970	-33,723	-0,056	-0,023
-643,955	-97,684	0,103	0,019
-642,941	-200,000	0,016	-0,076
-641,926	-200,000	-0,016	-0,057
-640,911	-138,529	0,097	-0,008
-639,897	-200,000	0,011	0,074
-638,882	800,000	0,041	0,113
-637,868	78,436	-0,020	-0,016
-636,853	537,859	0,016	-0,028
-635,838	-200,000	0,006	-0,030
-634,824	-200,000	0,023	-0,136
-633,809	-185,209	0,030	-0,000
-632,795	-148,915	0,142	0,008
-631,780	250,496	0,019	0,024
-630,765	-200,000	-0,020	-0,081
-629,751	539,553	0,029	-0,051
-628,736	464,306	-0,018	-0,029
-627,722	800,000	-0,046	-0,104
-626,707	301,791	0,046	-0,063
-625,692	363,455	0,109	0,161
-624,678	106,558	0,040	0,035
-623,663	-200,000	-0,009	-0,069
-622,649	-200,000	-0,011	-0,066
-621,634	-181,581	-0,132	-0,002
-620,619	800,000	0,042	-0,106
-619,605	165,263	-0,073	-0,076
-618,590	-17,159	0,097	0,045
-617,576	-48,247	-0,090	-0,032
-616,561	-154,116	-0,073	-0,004
-615,546	156,604	-0,081	-0,082
-614,532	-200,000	0,018	-0,156
-613,517	271,887	-0,073	-0,095
-612,503	1,234	-0,130	0,068
-611,488	-91,569	0,088	0,018
-610,474	54,303	0,031	0,022
-609,459	-200,000	0,015	-0,059
-608,444	-200,000	-0,005	-0,042
-607,430	-4,159	-0,072	0,036
-606,415	128,099	-0,118	-0,111
-605,401	-114,359	0,085	0,012
-604,386	-200,000	0,044	-0,146
-603,371	800,000	-0,019	0,044
-602,357	-131,214	-0,036	0,003
-601,342	-15,455	-0,085	-0,040
-600,328	800,000	-0,025	0,060
-599,313	-200,000	0,022	0,123
-598,298	178,419	-0,091	0,098
-597,284	20,035	0,068	-0,040
-596,269	-84,220	0,165	-0,038
-595,255	-200,000	0,006	0,039
-594,240	-200,000	-0,017	-0,173
-593,225	-187,906	0,093	0,001
-592,211	164,087	-0,129	-0,133
-591,196	-41,178	0,116	-0,044
-590,182	50,908	0,062	-0,043
-589,167	514,065	0,038	0,065
-588,152	-39,456	0,045	0,017
-587,138	800,000	-0,024	0,072
-586,123	-200,000	0,007	-0,084
-585,109	26,034	-0,149	-0,091
-584,094	-147,707	0,112	0,007
-583,079	316,609	0,020	0,028
-582,065	-5,365	0,133	0,067
-581,050	242,982	-0,114	-0,140
-580,036	-103,325	-0,100	-0,017
-579,021	800,000	0,018	-0,049
-578,006	545,373	-0,044	0,077
-576,992	644,675	-0,023	-0,043
-575,977	-200,000	0,004	0,036
-574,963	-144,285	0,080	-0,005
-573,948	175,592	-0,037	0,039
-572,934	-71,080	0,071	0,019
-571,919	-200,000	-0,004	-0,025
-570,904	360,449	-0,094	-0,138
-569,890	-32,274	-0,117	-0,048
-568,875	-77,830	0,140	0,035
-567,861	116,397	-0,012	-0,010
-566,846	-200,000	-0,012	0,059
-565,831	11,661	0,099	0,056
-564,817	-87,540	0,021	-0,005
-563,802	-0,121	-0,119	-0,062
-562,788	800,000	-0,025	0,053
-561,773	738,109	0,072	0,142
-560,758	-200,000	0,007	-0,036
-559,744	413,497	0,053	0,083
-558,729	57,203	-0,057	-0,041
-557,715	-200,000	-0,009	-0,075
-556,700	10,205	-0,072	-0,040
-555,685	72,949	0,074	-0,057
-554,671	-200,000	0,021	-0,084
-553,656	800,000	-0,011	-0,031
-552,642	-107,232	-0,074	-0,012
-551,627	47,087	0,041	0,028
-550,612	386,649	-0,087	-0,131
-549,598	-147,690	-0,118	0,007
-548,583	-84,235	0,132	0,030
-547,569	-200,000	-0,021	0,123
-546,554	-49,039	0,062	-0,021
-545,539	-88,077	0,096	-0,021
-544,525	503,016	-0,071	0,120
-543,510	-200,000	-0,011	-0,056
-542,496	800,000	-0,031	-0,089
-541,481	423,849	-0,017	0,026
-540,466	563,951	0,060	-0,107
-539,452	800,000	0,011	0,026
-538,437	-19,086	-0,057	0,026
-537,423	29,540	-0,088	0,055
-536,408	800,000	-0,035	0,097
-535,393	-200,000	0,005	-0,024
-534,379	-71,364	-0,081	0,022
-533,364	-200,000	0,022	-0,096
-532,350	-173,561	0,091	-0,002
-531,335	-200,000	0,017	0,060
-530,321	79,060	0,067	0,052
-529,306	3,677	0,045	0,024
-528,291	-200,000	-0,009	-0,049
-527,277	159,523	0,090	-0,092
-526,262	800,000	-0,038	0,087
-525,248	265,559	-0,046	-0,059
-524,233	24,942	0,048	-0,029
-523,218	286,864	-0,035	0,047
-522,204	800,000	-0,012	-0,034
-521,189	680,588	-0,043	0,082
-520,175	319,860	-0,048	0,067
-519,160	800,000	0,027	-0,063
-518,145	193,549	-0,111	0,123
-517,131	-200,000	0,018	0,127
-516,116	-31,008	0,073	0,030
-515,102	6,730	-0,119	0,065
-514,087	88,114	-0,087	-0,071
-513,072	108,905	0,007	0,006
-512,058	-200,000	0,034	0,157
-511,043	-200,000	-0,010	0,091
-510,029	-78,703	0,037	-0,009
-509,014	399,346	0,035	0,054
-507,999	150,188	-0,035	-0,034
-506,985	59,094	-0,020	0,014
-505,970	-126,031	-0,160	-0,017
-504,956	800,000	-0,076	-0,174
-503,941	443,401	0,080	0,129
-502,926	388,384	0,056	0,086
-501,912	360,048	0,074	0,109
-500,897	-200,000	-0,004	-0,069
-499,883	800,000	-0,042	-0,099
-498,868	209,009	0,044	0,050
-497,853	-65,515	0,015	-0,004
-496,839	-13,560	0,068	0,032
-495,824	272,907	0,004	0,006
-494,810	214,791	-0,059	-0,068
-493,795	-145,566	-0,194	-0,013
-492,781	204,387	-0,031	0,035
-491,766	21,500	0,063	-0,037
-490,751	362,780	-0,078	-0,114
-489,737	29,030	-0,046	0,028
-488,722	43,359	0,046	0,031
-487,708	800,000	-0,038	0,079
-486,693	-96,049	-0,040	0,008
-485,678	800,000	-0,000	0,001
-484,664	28,504	0,036	0,022
-483,649	-200,000	-0,008	-0,069
-482,635	-103,734	0,077	-0,013
-481,620	-20,550	0,141	0,063
-480,605	-200,000	-0,006	0,093
-479,591	-200,000	-0,017	0,172
-478,576	343,774	-0,040	-0,057
-477,562	301,173	0,052	-0,070
-476,547	62,792	0,043	0,031
-475,532	-15,043	0,182	0,085
-474,518	-49,843	0,140	-0,048
-473,503	-42,839	-0,090	-0,033
-472,489	463,740	-0,058	-0,094
-471,474	-53,495	-0,122	0,040
-470,459	-200,000	0,012	0,107
-469,445	8,695	-0,057	-0,031
-468,430	94,775	-0,060	-0,050
-467,416	1,012	-0,052	-0,027
-466,401	-200,000	0,005	0,141
-465,386	129,494	0,127	0,118
-464,372	-109,034	-0,059	-0,009
-463,357	-200,000	-0,035	-0,144
-462,343	76,250	0,080	-0,062
-461,328	800,000	-0,003	0,007
-460,313	-54,085	-0,098	0,032
-459,299	-15,805	-0,033	-0,015
-458,284	-200,000	0,022	0,095
-457,270	-190,441	-0,140	0,001
-456,255	-200,000	-0,002	0,019
-455,241	500,256	-0,017	-0,029
-454,226	-93,498	-0,036	0,007
-453,211	637,468	0,040	0,075
-452,197	800,000	-0,040	-0,096
-451,182	-18,126	0,080	-0,036
-450,168	78,506	-0,077	-0,060
-449,153	96,662	-0,036	-0,030
-448,138	278,771	0,034	-0,044
-447,124	800,000	-0,074	-0,183
-446,109	397,245	0,034	-0,052
-445,095	107,062	0,115	0,099
-444,080	800,000	0,009	0,030
-443,065	324,566	-0,070	0,098
-442,051	50,207	-0,074	0,051
-441,036	-53,112	-0,113	-0,038
-440,022	175,241	0,046	-0,049
-439,007	-103,975	0,110	-0,018
-437,992	1,990	-0,144	0,075
-436,978	-200,000	-0,007	-0,029
-435,963	15,706	0,055	0,032
-434,949	-39,795	0,069	0,026
-433,934	-40,620	0,178	-0,067
-432,919	262,958	-0,082	0,105
-431,905	800,000	0,003	0,006
-430,890	-40,527	0,011	-0,004
-429,876	413,002	-0,044	0,069
-428,861	195,330	0,079	-0,087
-427,846	468,019	0,025	-0,041
-426,832	-31,117	0,103	-0,042
-425,817	-200,000	-0,062	-0,223
-424,803	412,125	0,023	-0,035
-423,788	497,698	0,103	-0,173
-422,773	800,000	0,044	0,107
-421,759	-200,000	-0,029	0,095
-420,744	-78,642	0,056	-0,014
-419,730	-19,334	-0,135	-0,061
-418,715	132,378	-0,064	-0,060
-417,701	800,000	0,059	0,125
-416,686	800,000	0,048	-0,108
-415,671	-200,000	-0,007	-0,087
-414,657	-200,000	-0,031	0,151
-413,642	128,323	-0,071	-0,066
-412,628	-34,839	0,110	0,044
-411,613	112,366	-0,022	-0,019
-410,598	403,009	-0,020	-0,031
-409,584	-92,852	0,072	0,014
-408,569	112,980	-0,025	-0,022
-407,555	-29,661	0,164	0,068
-406,540	18,859	-0,051	-0,029
-405,525	43,118	-0,095	0,063
-404,511	-200,000	-0,000	0,056
-403,496	800,000	0,025	-0,068
-402,482	-106,089	-0,163	-0,026
-401,467	211,049	-0,047	0,054
-400,452	628,608	0,075	0,138
-399,438	429,557	-0,020	-0,032
-398,423	-38,461	0,108	-0,041
-397,409	331,572	-0,097	-0,136
-396,394	84,452	-0,143	-0,114
-395,379	434,992	0,055	0,088
-394,365	497,738	-0,016	-0,027
-393,350	-114,994	0,040	-0,005
-392,336	-0,844	0,154	0,079
-391,321	-200,000	-0,019	-0,113
-390,306	-145,524	-0,042	-0,003
-389,292	214,308	0,059	-0,069
-388,277	800,000	0,024	0,072
-387,263	-160,207	0,076	-0,003
-386,248	465,102	0,117	0,192
-385,233	-200,000	0,007	0,108
-384,219	119,243	-0,054	-0,049
-383,204	-122,820	-0,072	-0,008
-382,190	-200,000	-0,011	-0,091
-381,175	-200,000	-0,009	0,074
-380,160	-16,776	0,134	0,062
-379,146	150,742	-0,042	0,041
-378,131	65,749	0,107	0,079
-377,117	-158,071	-0,078	-0,003
-376,102	558,852	-0,097	-0,172
-375,088	-200,000	0,007	-0,134
-374,073	-41,942	-0,065	0,024
-373,058	-35,160	0,142	-0,056
-372,044	-200,000	0,018	0,070
-371,029	-200,000	-0,008	0,050
-370,015	-173,097	0,059	0,001
-369,000	-81,738	-0,150	-0,036
-367,985	800,000	-0,036	-0,112
-366,971	11,186	-0,099	-0,055
-365,956	471,190	0,032	-0,052
-364,942	156,155	0,077	0,078
-363,927	800,000	-0,004	0,012
-362,912	157,924	-0,084	-0,085
-361,898	294,337	-0,018	-0,024
-360,883	138,854	0,078	-0,075
-359,869	132,949	0,121	0,114
-358,854	72,500	-0,076	-0,058
-357,839	351,734	0,044	-0,063
-356,825	-200,000	0,030	0,103
-355,810	-86,717	0,070	-0,015
-354,796	-200,000	0,012	-0,059
-353,781	319,297	0,033	0,045
-352,766	800,000	-0,069	-0,146
-351,752	-200,000	0,055	0,189
-350,737	133,355	0,021	0,020
-349,723	-200,000	-0,013	0,125
-348,708	32,676	0,058	-0,036
-347,693	96,197	-0,108	0,089
-346,679	44,002	-0,045	-0,030
-345,664	-11,576	-0,059	0,028
-344,650	-200,000	0,031	0,138
-343,635	-200,000	-0,001	-0,061
-342,620	11,576	0,114	-0,063
-341,606	-200,000	0,013	0,096
-340,591	-146,990	-0,083	0,005
-339,577	-200,000	-0,017	-0,076
-338,562	87,415	-0,113	-0,091
-337,548	-110,329	0,161	-0,024
-336,533	-94,247	-0,100	0,020
-335,518	219,615	0,076	0,089
-334,504	-200,000	0,015	0,102
-333,489	259,786	0,037	-0,047
-332,475	150,973	-0,061	-0,060
-331,460	408,613	-0,008	0,013
-330,445	730,267	-0,057	-0,111
-329,431	-34,429	0,112	-0,044
-328,416	-87,406	0,100	-0,022
-327,402	-117,900	0,107	0,014
-326,387	276,385	-0,003	-0,004
-325,372	-200,000	-0,001	0,007
-324,358	800,000	0,047	-0,129
-323,343	-112,275	-0,088	-0,013
-322,329	-200,000	-0,014	0,059
-321,314	9,635	0,025	-0,014
-320,299	-200,000	-0,017	0,091
-319,285	-200,000	-0,007	0,053
-318,270	-98,129	-0,076	-0,014
-317,256	-60,923	-0,136	-0,042
-316,241	69,387	-0,092	-0,069
-315,226	-109,330	0,006	-0,001
-314,212	800,000	-0,025	0,068
-313,197	-36,469	0,020	-0,008
-312,183	80,161	-0,145	0,113
-311,168	-31,073	0,092	-0,037
-310,153	101,042	-0,033	0,028
-309,139	-97,753	0,112	-0,021
-308,124	399,806	0,029	0,045
-307,110	-200,000	-0,010	-0,101
-306,095	426,769	0,057	0,089
-305,080	-149,425	0,084	0,005
-304,066	-63,223	-0,058	-0,017
-303,051	-200,000	-0,020	0,116
-302,037	-200,000	0,047	0,169
-301,022	24,716	-0,067	-0,040
-300,008	21,508	-0,055	0,032
-298,993	388,731	0,061	-0,092
-297,978	-63,199	0,064	0,019
-296,964	199,328	0,010	-0,011
-295,949	464,813	-0,023	0,037
-294,935	81,389	-0,201	-0,157
-293,920	-165,566	0,102	-0,003
-292,905	206,782	-0,047	0,054
-291,891	431,704	0,092	0,145
-290,876	220,270	0,026	0,030
-289,862	-83,783	-0,121	-0,028
-288,847	252,469	-0,048	-0,060
-287,832	607,680	0,059	-0,106
-286,818	-178,008	-0,224	0,004
-285,803	97,942	0,129	0,107
-284,789	197,206	-0,092	0,101
-283,774	-200,000	-0,031	0,111
-282,759	-200,000	-0,007	-0,060
-281,745	-185,253	-0,031	-0,000
-280,730	69,763	0,003	0,002
-279,716	-200,000	0,005	-0,028
-278,701	-113,339	-0,087	-0,012
-277,686	-76,922	-0,073	0,018
-276,672	-200,000	-0,005	-0,022
-275,657	-144,224	0,153	-0,010
-274,643	-2,736	-0,157	-0,079
-273,628	-200,000	0,012	-0,107
-272,613	11,109	0,044	-0,024
-271,599	-200,000	0,026	-0,131
-270,584	800,000	0,038	0,119
-269,570	800,000	0,014	0,040
-268,555	-200,000	-0,001	-0,048
-267,540	-14,875	0,035	-0,016
-266,526	-116,796	-0,067	-0,009
-265,511	-94,276	0,126	0,025
-264,497	800,000	-0,044	-0,122
-263,482	72,357	0,118	0,089
-262,467	672,244	-0,046	0,087
-261,453	-200,000	-0,015	-0,062
-260,438	77,108	-0,036	0,027
-259,424	228,152	0,018	0,021
-258,409	67,507	-0,022	0,016
-257,395	800,000	0,016	0,039
-256,380	-180,894	-0,015	0,000
-255,365	-200,000	0,010	0,045
-254,351	-124,855	0,228	-0,025
-253,336	-200,000	-0,023	-0,082
-252,322	451,921	-0,037	-0,059
-251,307	800,000	0,017	0,051
-250,292	800,000	-0,104	0,270
-249,278	-200,000	-0,005	0,058
-248,263	-106,323	0,102	0,016
-247,249	-200,000	0,020	0,094
-246,234	-21,283	0,053	-0,023
-245,219	37,827	-0,167	-0,107
-244,205	800,000	-0,035	-0,111
-243,190	800,000	-0,045	0,132
-242,176	-200,000	-0,022	0,120
-241,161	155,114	0,082	-0,081
-240,146	-200,000	-0,018	0,086
-239,132	-71,529	0,055	0,015
-238,117	-23,362	-0,156	-0,068
-237,103	11,809	0,029	-0,016
-236,088	-200,000	0,003	-0,025
-235,073	-200,000	-0,025	0,102
-234,059	-113,626	0,195	0,027
-233,044	-143,683	0,024	0,002
-232,030	-200,000	0,021	0,105
-231,015	-200,000	0,010	0,039
-230,000	53,684	0,073	-0,051
-228,986	-98,007	0,064	0,012
-227,971	-200,000	-0,018	-0,170
-226,957	-24,039	0,035	0,015
-225,942	-200,000	0,023	0,123
-224,927	31,189	-0,072	0,045
-223,913	800,000	-0,024	0,066
-222,898	-200,000	0,016	0,087
-221,884	-89,408	0,146	0,031
-220,869	-0,313	0,007	-0,004
-219,855	800,000	0,026	-0,061
-218,840	-93,101	-0,015	-0,003
-217,825	-57,573	0,059	-0,019
-216,811	11,248	-0,079	-0,044
-215,796	-200,000	0,017	0,071
-214,782	25,546	0,180	0,108
-213,767	220,724	-0,037	0,042
-212,752	663,630	0,060	0,113
-211,738	-200,000	0,015	0,131
-210,723	69,518	-0,024	0,018
-209,709	-200,000	0,020	-0,213
-208,694	-200,000	-0,007	0,038
-207,679	110,441	0,019	0,017
-206,665	425,183	0,013	0,020
-205,650	-6,710	-0,081	0,040
-204,636	105,311	0,048	-0,041
-203,621	-113,386	0,139	0,020
-202,606	292,523	-0,064	-0,084
-201,592	345,856	0,028	-0,040
-200,577	165,730	-0,076	0,078
-199,563	165,936	0,098	0,101
-198,548	185,461	0,020	-0,021
-197,533	526,534	-0,051	0,086
-196,519	-28,110	0,049	-0,020
-195,504	-16,392	-0,128	-0,059
-194,490	-200,000	0,016	-0,129
-193,475	735,629	0,013	0,025
-192,460	88,592	0,091	0,073
-191,446	-20,236	-0,086	0,038
-190,431	-200,000	-0,019	0,077
-189,417	-64,686	0,080	-0,023
-188,402	30,128	-0,100	-0,061
-187,387	-200,000	-0,014	-0,113
-186,373	22,197	0,104	0,061
-185,358	-200,000	0,001	0,014
-184,344	-33,710	-0,025	-0,010
-183,329	-77,799	-0,069	0,017
-182,315	50,760	0,114	0,078
-181,300	2,877	0,104	-0,055
-180,285	65,053	-0,045	-0,033
-179,271	800,000	-0,033	-0,085
-178,256	-178,350	0,078	0,001
-177,242	-32,892	-0,069	-0,027
-176,227	-200,000	-0,006	0,074
-175,212	-71,882	0,019	-0,005
-174,198	109,839	-0,009	0,008
-173,183	119,827	-0,067	0,060
-172,169	-1,135	-0,074	-0,037
-171,154	156,632	-0,049	-0,048
-170,139	-200,000	0,000	-0,045
-169,125	547,973	0,075	0,130
-168,110	-200,000	-0,013	0,165
-167,096	800,000	-0,016	0,049
-166,081	-24,756	-0,021	-0,009
-165,066	-78,457	-0,118	-0,029
-164,052	800,000	0,019	0,047
-163,037	606,355	0,062	-0,111
-162,023	-14,822	0,056	-0,026
-161,008	-84,856	-0,031	-0,007
-159,993	117,453	-0,054	0,048
-158,979	645,563	-0,039	-0,071
-157,964	-182,640	-0,086	-0,001
-156,950	42,087	-0,027	-0,017
-155,935	-124,771	-0,201	-0,022
-154,920	493,307	0,093	-0,154
-153,906	781,602	-0,016	0,031
-152,891	-49,473	0,029	-0,010
-151,877	-74,348	0,104	-0,027
-150,862	800,000	-0,035	-0,082
-149,847	253,320	-0,049	0,060
-148,833	-200,000	0,035	0,179
-147,818	-16,888	0,125	0,057
-146,804	-50,601	0,099	-0,033
-145,789	800,000	0,018	0,053
-144,775	3,341	0,110	-0,058
-143,760	-130,698	0,089	-0,009
-142,745	-200,000	-0,003	0,039
-141,731	800,000	0,018	-0,057
-140,716	204,891	0,101	0,113
-139,702	149,328	0,115	0,112
-138,687	327,172	0,086	0,119
-137,672	-130,521	-0,054	0,005
-136,658	800,000	-0,031	-0,065
-135,643	96,146	0,166	-0,136
-134,629	38,838	0,026	0,017
-133,614	800,000	-0,042	0,099
-132,599	-76,099	-0,026	0,006
-131,585	-130,161	0,028	-0,003
-130,570	-200,000	-0,013	-0,054
-129,556	-200,000	-0,019	-0,093
-128,541	32,495	-0,110	-0,068
-127,526	170,041	0,076	-0,078
-126,512	69,536	0,012	-0,009
-125,497	267,586	0,070	0,088
-124,483	45,458	0,136	-0,090
-123,468	24,410	0,154	0,092
-122,453	-117,945	-0,073	0,009
-121,439	-200,000	-0,032	-0,120
-120,424	-166,890	-0,048	0,001
