DTS Sentinel unit serial number:	SN410029Multiplexer serial number:	ORYXHardware model number:	OX2-SRSoftware version number:	ORYX F/W v4,00 Oryx Data Collector v3.7.2.0data status	okinstallation	B5 Nyhavnadifferential loss correction	single-endedforward channel	channel 2reverse channel	N/Adate	2023/12/14time	06:22:13forward acquisition time	300,00reverse acquisition time	0,00gamma	499,1914k internal	0,3158k external	0,3158temperature offset calibration	1,0000default loss term (dB/km)	0,3820temperature slope calibration	1,0000multiplexer offset coefficient	1,0000multiplexer slope coefficient	1,0000fibre end	0,00T internal ref (°C)	7,51T ext. ref 1 (°C)	-8,94T ext. ref 2 (°C)	-9,02length (m)	temperature (°C)	Stokes	anti-Stokes-744,400	-48,374	0,174	0,062
-743,385	-171,788	-0,467	0,011
-742,371	-108,406	0,203	0,032
-741,356	-112,681	-0,290	-0,042
-740,342	-57,927	0,234	0,075
-739,327	-92,226	-0,398	-0,082
-738,312	-200,000	0,018	0,080
-737,298	-102,769	-0,380	0,066
-736,283	691,044	0,163	0,317
-735,269	-58,691	-0,413	-0,131
-734,254	-200,000	0,041	0,190
-733,239	88,089	-0,518	-0,423
-732,225	74,547	0,203	0,157
-731,210	42,401	-0,059	0,040
-730,196	-200,000	-0,009	0,033
-729,181	-40,661	-0,036	-0,014
-728,167	158,513	-0,050	0,051
-727,152	169,049	-0,024	-0,025
-726,137	-164,418	-0,119	-0,004
-725,123	73,253	-0,028	0,022
-724,108	690,245	-0,016	0,030
-723,094	396,673	0,048	-0,074
-722,079	-84,470	0,084	0,019
-721,064	290,902	0,077	-0,103
-720,050	-12,609	0,070	-0,033
-719,035	530,651	-0,033	-0,057
-718,021	-50,794	0,059	0,020
-717,006	-72,468	0,053	-0,014
-715,991	-33,370	-0,020	0,008
-714,977	-69,601	0,153	0,043
-713,962	8,432	-0,059	-0,033
-712,948	80,042	-0,061	0,048
-711,933	40,246	-0,033	-0,022
-710,918	-59,711	0,057	-0,018
-709,904	207,971	-0,082	-0,095
-708,889	-85,361	0,030	-0,007
-707,875	275,837	0,103	-0,134
-706,860	-141,202	-0,066	0,005
-705,845	-47,121	-0,044	-0,016
-704,831	-28,545	0,116	-0,049
-703,816	286,753	0,070	-0,094
-702,802	-200,000	-0,018	-0,060
-701,787	-200,000	0,030	-0,164
-700,772	-200,000	0,004	0,050
-699,758	-134,660	-0,126	-0,011
-698,743	83,721	0,097	0,078
-697,729	200,863	0,064	-0,073
-696,714	-53,652	-0,083	-0,028
-695,699	-135,484	-0,096	-0,008
-694,685	257,431	-0,035	-0,044
-693,670	51,284	-0,070	-0,049
-692,656	510,147	0,046	0,080
-691,641	173,590	-0,004	-0,004
-690,627	800,000	-0,029	0,082
-689,612	45,604	0,019	0,013
-688,597	59,695	0,080	-0,058
-687,583	-24,144	-0,139	-0,061
-686,568	-97,343	-0,058	-0,011
-685,554	-47,864	0,113	-0,040
-684,539	21,985	0,064	-0,038
-683,524	-19,390	-0,121	-0,055
-682,510	-64,333	0,091	-0,027
-681,495	-200,000	0,005	-0,116
-680,481	189,757	-0,132	-0,146
-679,466	557,532	0,028	-0,050
-678,451	-200,000	-0,003	0,043
-677,437	47,643	0,062	-0,043
-676,422	9,913	0,029	-0,016
-675,408	10,141	-0,092	-0,051
-674,393	-200,000	-0,008	0,048
-673,378	-200,000	-0,000	-0,104
-672,364	-152,767	-0,075	-0,004
-671,349	-200,000	0,002	-0,064
-670,335	49,132	-0,031	0,021
-669,320	800,000	0,018	0,043
-668,305	563,744	-0,014	0,025
-667,291	-200,000	0,000	0,101
-666,276	-200,000	0,008	0,059
-665,262	-130,813	-0,202	-0,020
-664,247	-20,363	0,038	0,017
-663,232	85,117	-0,109	-0,087
-662,218	247,763	-0,061	0,076
-661,203	-200,000	0,004	-0,044
-660,189	86,193	0,084	0,068
-659,174	377,672	0,051	-0,076
-658,159	-116,557	0,102	-0,014
-657,145	68,294	-0,050	0,037
-656,130	800,000	0,036	0,111
-655,116	-200,000	-0,007	0,071
-654,101	-200,000	0,031	0,135
-653,086	-30,757	-0,135	-0,056
-652,072	116,251	0,020	0,018
-651,057	168,911	-0,061	-0,064
-650,043	-114,492	0,058	-0,008
-649,028	-16,302	-0,016	-0,007
-648,014	61,008	0,087	-0,063
-646,999	-6,941	0,089	-0,044
-645,984	434,510	0,013	-0,021
-644,970	70,951	-0,066	0,050
-643,955	106,831	0,071	-0,062
-642,941	-159,046	-0,098	-0,004
-641,926	-200,000	-0,007	-0,054
-640,911	800,000	0,021	-0,057
-639,897	-33,632	-0,052	0,021
-638,882	-16,740	0,040	-0,018
-637,868	-56,961	-0,064	-0,020
-636,853	208,449	0,054	-0,062
-635,838	124,007	-0,004	0,004
-634,824	-200,000	-0,017	-0,128
-633,809	-90,053	-0,125	0,026
-632,795	-36,070	-0,039	-0,015
-631,780	722,286	-0,039	-0,077
-630,765	-56,190	0,080	-0,026
-629,751	-76,540	-0,162	-0,041
-628,736	84,409	-0,103	0,082
-627,722	672,870	-0,057	0,110
-626,707	328,184	-0,059	-0,084
-625,692	-200,000	0,015	0,065
-624,678	-137,284	-0,176	-0,014
-623,663	-61,222	-0,143	0,044
-622,649	800,000	-0,040	-0,124
-621,634	-76,223	0,092	-0,024
-620,619	615,720	-0,057	-0,105
-619,605	134,219	0,072	0,068
-618,590	244,975	-0,059	-0,073
-617,576	289,106	0,055	0,074
-616,561	50,222	-0,155	-0,107
-615,546	41,064	-0,003	0,002
-614,532	291,557	-0,126	-0,168
-613,517	-32,312	0,057	-0,023
-612,503	79,669	0,037	0,029
-611,488	-35,941	-0,058	0,023
-610,474	32,326	0,112	-0,071
-609,459	54,900	0,079	0,056
-608,444	-22,100	-0,048	-0,021
-607,430	-68,800	-0,100	-0,028
-606,415	250,675	-0,056	0,069
-605,401	-94,558	0,071	-0,014
-604,386	660,744	0,023	0,044
-603,371	267,937	0,111	0,143
-602,357	-172,450	-0,053	-0,001
-601,342	-159,512	-0,053	-0,002
-600,328	800,000	0,030	0,073
-599,313	393,060	0,045	-0,069
-598,298	55,117	-0,042	-0,030
-597,284	-7,430	0,082	0,040
-596,269	120,483	0,033	0,030
-595,255	179,525	0,041	0,044
-594,240	-13,707	-0,128	0,061
-593,225	7,180	0,053	-0,029
-592,211	-98,706	0,162	0,030
-591,196	93,987	0,018	0,015
-590,182	-9,389	0,016	-0,008
-589,167	110,677	-0,083	0,073
-588,152	-3,209	0,086	-0,044
-587,138	177,401	-0,069	-0,074
-586,123	-200,000	0,024	-0,123
-585,109	-200,000	-0,009	-0,079
-584,094	-120,176	-0,128	0,016
-583,079	168,031	0,035	-0,036
-582,065	800,000	-0,021	-0,055
-581,050	2,913	-0,079	0,042
-580,036	-83,274	-0,053	0,012
-579,021	455,662	0,033	-0,053
-578,006	-79,388	-0,187	-0,046
-576,992	-125,177	0,048	-0,005
-575,977	782,648	0,032	0,065
-574,963	-200,000	0,012	0,088
-573,948	159,396	0,130	0,133
-572,934	151,982	-0,061	-0,061
-571,919	800,000	0,033	-0,107
-570,904	315,079	-0,073	-0,101
-569,890	-157,885	-0,054	-0,002
-568,875	-72,024	0,167	-0,045
-567,861	125,135	-0,015	-0,014
-566,846	-164,423	0,143	0,005
-565,831	-6,732	0,068	-0,034
-564,817	-200,000	-0,002	-0,031
-563,802	-51,225	0,063	0,022
-562,788	-200,000	0,006	-0,078
-561,773	63,108	-0,053	0,039
-560,758	-11,759	0,112	-0,054
-559,744	800,000	0,015	0,031
-558,729	-200,000	-0,015	0,104
-557,715	-200,000	0,008	-0,060
-556,700	203,719	-0,099	-0,113
-555,685	-200,000	-0,007	0,023
-554,671	94,125	-0,107	0,088
-553,656	335,212	0,085	0,121
-552,642	-200,000	0,027	0,111
-551,627	800,000	-0,044	-0,125
-550,612	16,999	-0,079	-0,046
-549,598	-71,272	-0,087	0,024
-548,583	-70,496	-0,036	-0,010
-547,569	800,000	0,011	-0,027
-546,554	-70,361	0,022	0,006
-545,539	-85,066	0,074	0,017
-544,525	-138,312	-0,037	0,003
-543,510	150,313	-0,119	0,118
-542,496	-200,000	0,013	-0,068
-541,481	800,000	-0,065	-0,167
-540,466	800,000	0,029	-0,087
-539,452	-40,045	0,188	-0,071
-538,437	192,637	0,066	0,073
-537,423	-200,000	0,011	0,092
-536,408	-200,000	-0,028	-0,108
-535,393	419,459	-0,034	-0,053
-534,379	-33,323	-0,233	-0,094
-533,364	137,316	0,047	-0,045
-532,350	800,000	-0,022	0,051
-531,335	-120,859	0,028	0,003
-530,321	-55,445	-0,041	0,013
-529,306	-33,993	0,051	0,020
-528,291	800,000	-0,049	-0,103
-527,277	124,339	0,009	-0,008
-526,262	-150,076	-0,082	0,005
-525,248	-180,136	0,206	0,003
-524,233	435,286	-0,087	0,140
-523,218	319,285	-0,023	-0,032
-522,204	-200,000	0,023	-0,100
-521,189	-200,000	-0,022	-0,088
-520,175	-197,470	-0,055	0,000
-519,160	800,000	-0,033	-0,085
-518,145	-42,167	-0,087	-0,032
-517,131	-50,153	0,053	-0,018
-516,116	800,000	-0,019	-0,058
-515,102	79,153	0,114	-0,089
-514,087	-76,969	-0,057	0,014
-513,072	-20,531	-0,078	0,035
-512,058	641,763	0,027	-0,051
-511,043	-200,000	-0,021	0,113
-510,029	29,257	0,030	-0,018
-509,014	800,000	-0,013	-0,032
-507,999	800,000	-0,037	0,112
-506,985	86,659	-0,091	-0,073
-505,970	-19,764	-0,158	-0,071
-504,956	164,733	0,121	-0,125
-503,941	476,322	0,069	0,114
-502,926	296,937	0,087	0,117
-501,912	106,646	-0,071	-0,061
-500,897	116,032	-0,051	-0,045
-499,883	70,768	-0,055	-0,042
-498,868	513,937	-0,028	-0,049
-497,853	201,878	-0,061	-0,069
-496,839	77,526	0,015	-0,012
-495,824	-31,350	0,109	0,045
-494,810	-61,673	0,053	0,016
-493,795	142,830	0,019	-0,018
-492,781	800,000	0,044	-0,089
-491,766	258,536	-0,099	-0,125
-490,751	357,221	-0,062	-0,091
-489,737	689,749	-0,033	-0,063
-488,722	-7,261	0,058	0,029
-487,708	-200,000	0,009	0,076
-486,693	179,077	0,048	0,052
-485,678	-18,012	-0,078	0,036
-484,664	-5,034	-0,053	0,027
-483,649	211,808	0,080	0,092
-482,635	800,000	0,033	-0,088
-481,620	-64,749	0,088	0,026
-480,605	-200,000	0,073	0,310
-479,591	800,000	-0,028	-0,064
-478,576	800,000	-0,029	-0,077
-477,562	49,536	-0,022	-0,015
-476,547	-200,000	-0,013	-0,069
-475,532	148,598	0,063	-0,062
-474,518	72,574	0,173	0,131
-473,503	-200,000	0,005	-0,089
-472,489	-200,000	-0,033	0,136
-471,474	230,250	0,096	0,115
-470,459	677,550	-0,022	-0,042
-469,445	47,944	-0,103	-0,070
-468,430	-200,000	0,032	0,190
-467,416	-200,000	0,034	0,154
-466,401	45,605	0,063	0,042
-465,386	476,745	0,030	-0,050
-464,372	-200,000	0,010	-0,041
-463,357	280,670	0,055	-0,072
-462,343	800,000	-0,051	-0,159
-461,328	-200,000	-0,004	0,021
-460,313	-0,928	-0,073	-0,038
-459,299	99,283	0,032	-0,027
-458,284	409,966	-0,081	0,125
-457,270	-56,556	-0,090	0,029
-456,255	-200,000	-0,014	0,065
-455,241	50,947	0,080	0,055
-454,226	351,384	0,031	-0,045
-453,211	800,000	0,025	-0,054
-452,197	336,965	0,050	0,071
-451,182	34,916	0,158	0,100
-450,168	-200,000	-0,007	0,089
-449,153	259,616	0,088	-0,111
-448,138	581,221	0,034	0,061
-447,124	-200,000	0,021	-0,110
-446,109	800,000	0,013	0,040
-445,095	254,293	0,043	0,053
-444,080	-67,272	0,087	-0,025
-443,065	800,000	0,040	0,092
-442,051	-194,778	-0,074	0,000
-441,036	260,487	-0,052	0,065
-440,022	12,962	-0,073	0,041
-439,007	-134,525	0,075	-0,007
-437,992	800,000	-0,007	-0,016
-436,978	19,574	-0,103	0,060
-435,963	-63,395	-0,142	-0,042
-434,949	94,990	0,139	-0,115
-433,934	-200,000	0,002	-0,104
-432,919	-70,702	0,032	0,009
-431,905	343,956	0,063	-0,090
-430,890	-155,128	-0,093	0,004
-429,876	169,676	-0,045	-0,047
-428,861	173,091	-0,041	0,043
-427,846	47,586	-0,071	0,048
-426,832	150,714	0,023	-0,023
-425,817	800,000	0,051	-0,110
-424,803	235,094	-0,022	-0,026
-423,788	213,594	-0,019	-0,022
-422,773	142,342	0,167	0,162
-421,759	-149,513	0,052	-0,003
-420,744	-82,197	0,123	0,029
-419,730	147,445	-0,088	-0,087
-418,715	-200,000	-0,025	-0,093
-417,701	36,492	0,093	-0,060
-416,686	61,161	-0,033	-0,024
-415,671	90,040	0,040	-0,032
-414,657	800,000	0,032	0,078
-413,642	199,729	0,078	-0,087
-412,628	-200,000	-0,005	0,039
-411,613	-200,000	0,021	-0,090
-410,598	486,028	0,035	-0,058
-409,584	-89,102	0,062	-0,013
-408,569	-46,999	-0,088	-0,031
-407,555	-200,000	-0,002	-0,010
-406,540	34,624	0,154	-0,097
-405,525	-32,676	-0,059	0,024
-404,511	24,339	-0,088	-0,053
-403,496	193,262	-0,064	-0,071
-402,482	-82,796	0,050	0,012
-401,467	28,000	0,169	-0,104
-400,452	-75,953	0,189	0,048
-399,438	800,000	0,021	-0,058
-398,423	800,000	-0,030	-0,069
-397,409	-77,591	-0,088	0,022
-396,394	-71,807	-0,162	-0,044
-395,379	-200,000	0,013	0,069
-394,365	-200,000	0,024	0,136
-393,350	68,954	0,008	0,006
-392,336	24,897	0,079	-0,047
-391,321	800,000	-0,045	0,128
-390,306	-171,712	-0,052	0,001
-389,292	-200,000	0,037	-0,179
-388,277	186,897	-0,037	-0,040
-387,263	168,251	0,044	0,046
-386,248	-146,365	0,072	-0,005
-385,233	-200,000	-0,017	0,101
-384,219	800,000	-0,029	0,078
-383,204	-200,000	-0,012	-0,079
-382,190	18,063	-0,040	0,023
-381,175	-6,498	0,014	-0,007
-380,160	9,433	0,136	0,074
-379,146	183,403	0,077	0,083
-378,131	-81,860	0,034	0,008
-377,117	-19,826	-0,084	-0,038
-376,102	-200,000	0,013	0,056
-375,088	-200,000	0,002	0,026
-374,073	86,878	0,086	-0,069
-373,058	-187,760	0,067	0,001
-372,044	-200,000	-0,023	0,090
-371,029	-25,486	-0,042	-0,018
-370,015	210,751	0,047	-0,053
-369,000	-200,000	0,026	-0,135
-367,985	-94,144	-0,185	-0,036
-366,971	-200,000	-0,011	0,063
-365,956	800,000	-0,063	0,135
-364,942	800,000	0,043	0,116
-363,927	-118,479	0,007	-0,001
-362,912	-200,000	0,004	-0,163
-361,898	-200,000	0,014	0,083
-360,883	182,573	-0,113	-0,121
-359,869	435,505	-0,072	-0,115
-358,854	256,310	0,057	0,071
-357,839	226,242	-0,026	0,031
-356,825	800,000	0,014	-0,034
-355,810	198,692	0,064	0,072
-354,796	-188,219	-0,082	0,001
-353,781	-200,000	-0,015	-0,051
-352,766	199,844	0,092	0,103
-351,752	800,000	0,059	0,129
-350,737	-200,000	0,011	0,078
-349,723	150,206	-0,045	0,044
-348,708	-200,000	-0,035	0,126
-347,693	312,004	0,038	-0,052
-346,679	-200,000	-0,008	-0,149
-345,664	-161,231	0,084	-0,003
-344,650	-128,795	0,104	0,010
-343,635	-181,422	-0,041	0,001
-342,620	12,946	0,106	0,059
-341,606	16,308	0,079	0,045
-340,591	302,396	0,072	0,097
-339,577	23,335	0,093	-0,055
-338,562	266,596	0,022	-0,027
-337,548	-40,986	0,033	-0,012
-336,533	-200,000	-0,003	0,101
-335,518	-45,563	0,061	-0,022
-334,504	417,773	0,051	-0,079
-333,489	-91,294	-0,042	0,009
-332,475	-39,937	-0,078	0,029
-331,460	800,000	0,033	-0,080
-330,445	373,624	-0,020	0,029
-329,431	-24,484	0,079	0,034
-328,416	-79,247	0,122	0,030
-327,402	800,000	-0,030	-0,074
-326,387	-194,682	-0,035	0,000
-325,372	-155,600	-0,120	-0,005
-324,358	235,933	-0,051	0,062
-323,343	-200,000	-0,007	-0,138
-322,329	30,564	-0,031	0,019
-321,314	393,908	0,025	0,039
-320,299	-100,700	0,082	0,015
-319,285	-76,710	-0,122	-0,031
-318,270	65,121	0,051	-0,037
-317,256	-50,517	0,064	0,022
-316,241	57,894	-0,073	-0,052
-315,226	-200,000	0,032	0,178
-314,212	800,000	-0,023	0,059
-313,197	663,273	-0,043	-0,081
-312,183	800,000	-0,017	0,046
-311,168	170,433	-0,087	0,090
-310,153	-189,279	-0,042	-0,000
-309,139	800,000	-0,009	0,027
-308,124	39,715	-0,067	-0,044
-307,110	452,373	0,098	0,157
-306,095	800,000	0,042	0,110
-305,080	-41,656	-0,102	0,038
-304,066	-59,852	-0,096	0,030
-303,051	800,000	-0,066	-0,149
-302,037	366,716	-0,031	-0,045
-301,022	-36,616	-0,051	0,020
-300,008	56,397	0,093	0,065
-298,993	-200,000	0,021	-0,082
-297,978	86,542	-0,065	0,052
-296,964	307,896	0,104	0,140
-295,949	-66,357	-0,024	0,007
-294,935	-200,000	0,027	0,248
-293,920	180,622	-0,063	-0,067
-292,905	323,954	0,012	0,016
-291,891	2,694	-0,011	0,006
-290,876	-200,000	-0,017	0,129
-289,862	-32,338	0,074	-0,030
-288,847	-200,000	0,011	-0,065
-287,832	19,049	-0,166	0,096
-286,818	-200,000	0,000	-0,016
-285,803	-200,000	-0,017	0,100
-284,789	-62,426	0,132	-0,040
-283,774	721,194	-0,065	0,126
-282,759	-101,440	-0,100	-0,017
-281,745	140,772	-0,018	0,017
-280,730	-6,718	0,026	0,013
-279,716	-68,602	-0,135	-0,037
-278,701	-200,000	0,004	0,040
-277,686	490,857	-0,068	0,113
-276,672	138,751	0,114	0,109
-275,657	-200,000	-0,011	-0,036
-274,643	166,383	-0,094	0,097
-273,628	-200,000	-0,015	-0,048
-272,613	-200,000	0,017	-0,113
-271,599	-166,433	0,036	0,001
-270,584	212,824	-0,044	-0,050
-269,570	-76,691	0,093	0,024
-268,555	-87,832	-0,099	-0,021
-267,540	-81,074	-0,074	-0,018
-266,526	240,784	-0,050	-0,060
-265,511	800,000	0,031	-0,089
-264,497	-30,567	0,145	-0,059
-263,482	100,250	0,156	0,131
-262,467	-200,000	0,010	0,244
-261,453	179,834	-0,099	0,105
-260,438	-12,354	-0,152	0,072
-259,424	800,000	-0,030	0,087
-258,409	-200,000	-0,012	-0,150
-257,395	-108,335	-0,056	0,009
-256,380	-58,107	0,067	0,021
-255,365	-67,090	0,029	0,008
-254,351	800,000	0,069	0,160
-253,336	800,000	0,028	0,087
-252,322	-200,000	-0,010	-0,081
-251,307	-200,000	-0,007	0,209
-250,292	-68,836	0,081	0,022
-249,278	69,695	0,121	0,090
-248,263	-84,058	0,053	-0,012
-247,249	-101,608	0,111	0,019
-246,234	-200,000	0,018	0,144
-245,219	800,000	-0,041	0,094
-244,205	-200,000	-0,004	-0,098
-243,190	800,000	-0,029	0,070
-242,176	414,045	0,061	0,094
-241,161	-141,762	-0,105	-0,007
-240,146	-55,730	-0,101	-0,032
-239,132	800,000	-0,025	-0,063
-238,117	-200,000	0,017	-0,132
-237,103	-56,279	0,128	0,041
-236,088	800,000	-0,045	0,103
-235,073	312,043	-0,098	0,133
-234,059	-200,000	-0,009	0,042
-233,044	97,442	-0,130	-0,108
-232,030	-200,000	0,009	-0,091
-231,015	-167,102	-0,070	0,002
-230,000	800,000	-0,055	-0,144
-228,986	-22,640	0,052	0,023
-227,971	117,082	-0,051	-0,046
-226,957	168,732	-0,086	-0,088
-225,942	361,847	0,048	0,070
-224,927	-200,000	-0,002	0,016
-223,913	85,796	-0,073	-0,058
-222,898	17,385	-0,087	-0,050
-221,884	-200,000	0,000	0,016
-220,869	339,720	0,008	-0,011
-219,855	-200,000	-0,026	0,140
-218,840	-45,951	0,127	0,045
-217,825	800,000	0,040	-0,124
-216,811	114,738	0,124	-0,109
-215,796	3,458	-0,102	-0,053
-214,782	33,920	0,033	0,021
-213,767	800,000	0,006	0,013
-212,752	-45,980	0,099	0,035
-211,738	-200,000	-0,009	-0,066
-210,723	800,000	0,015	0,032
-209,709	-200,000	-0,016	-0,073
-208,694	-33,083	-0,052	-0,021
-207,679	626,726	0,040	-0,073
-206,665	9,544	0,063	0,034
-205,650	-200,000	0,031	0,151
-204,636	158,235	0,097	0,097
-203,621	193,438	-0,097	0,106
-202,606	-200,000	-0,018	-0,091
-201,592	-192,205	-0,157	-0,001
-200,577	-182,381	0,134	-0,002
-199,563	-74,540	-0,063	0,016
-198,548	-40,060	0,137	-0,051
-197,533	-105,440	-0,222	-0,036
-196,519	-200,000	0,048	0,162
-195,504	28,617	-0,075	-0,046
-194,490	-127,175	-0,120	-0,013
-193,475	219,052	0,107	0,124
-192,460	-29,154	-0,099	0,041
-191,446	-80,011	0,094	-0,023
-190,431	800,000	0,069	0,138
-189,417	-102,835	-0,063	-0,011
-188,402	800,000	-0,040	-0,112
-187,387	220,397	-0,068	-0,079
-186,373	-200,000	-0,001	0,012
-185,358	-200,000	0,006	-0,024
-184,344	497,697	-0,030	0,050
-183,329	201,723	0,064	0,072
-182,315	174,192	-0,062	0,065
-181,300	-71,086	0,087	-0,024
-180,285	1,448	-0,066	0,034
-179,271	800,000	0,040	-0,093
-178,256	405,622	0,034	-0,051
-177,242	88,951	0,084	0,068
-176,227	-200,000	0,017	-0,116
-175,212	466,644	-0,035	-0,057
-174,198	-162,663	0,050	-0,002
-173,183	670,991	-0,039	-0,073
-172,169	39,027	0,071	-0,046
-171,154	-71,381	0,122	-0,033
-170,139	-154,693	0,043	0,002
-169,125	22,936	0,088	0,052
-168,110	-173,490	-0,052	-0,001
-167,096	129,332	-0,110	0,101
-166,081	135,786	-0,046	0,043
-165,066	800,000	0,036	-0,083
-164,052	6,949	-0,094	-0,050
-163,037	-200,000	-0,004	-0,043
-162,023	800,000	-0,034	-0,068
-161,008	800,000	-0,020	-0,054
-159,993	800,000	0,048	-0,095
-158,979	-9,435	0,084	0,040
-157,964	29,023	-0,043	0,026
-156,950	-20,957	-0,073	0,032
-155,935	-200,000	-0,002	0,039
-154,920	123,801	0,116	-0,105
-153,906	-74,909	0,062	-0,016
-152,891	-200,000	0,001	-0,033
-151,877	-117,341	-0,017	0,002
-150,862	-71,665	-0,059	-0,016
-149,847	-148,447	0,062	-0,004
-148,833	25,631	-0,131	0,078
-147,818	137,376	0,081	0,077
-146,804	-200,000	0,005	0,037
-145,789	800,000	0,033	0,074
-144,775	64,605	-0,069	0,050
-143,760	-97,861	0,029	0,005
-142,745	-200,000	0,019	0,119
-141,731	-200,000	-0,016	0,108
-140,716	163,246	0,114	0,115
-139,702	410,264	0,128	0,197
-138,687	-200,000	0,015	-0,122
-137,672	-200,000	-0,022	-0,091
-136,658	558,779	0,024	-0,041
-135,643	800,000	-0,048	-0,104
-134,629	192,855	0,052	-0,057
-133,614	-200,000	-0,016	0,061
-132,599	58,757	0,072	0,051
-131,585	-200,000	0,000	0,227
-130,570	234,180	0,050	0,059
-129,556	19,537	-0,129	-0,074
-128,541	-104,256	0,018	0,003
-127,526	-200,000	-0,024	0,081
-126,512	35,513	0,068	-0,043
-125,497	-23,252	0,109	-0,047
-124,483	444,156	0,058	-0,093
-123,468	-69,928	-0,039	-0,010
-122,453	96,931	-0,072	-0,059
-121,439	76,274	-0,053	-0,041
-120,424	175,584	0,016	0,016
-119,410	800,000	-0,013	0,033
-118,395	217,581	-0,088	-0,101
