DTS Sentinel unit serial number:	SN410029Multiplexer serial number:	ORYXHardware model number:	OX2-SRSoftware version number:	ORYX F/W v4,00 Oryx Data Collector v3.7.2.0data status	okinstallation	B5 Nyhavnadifferential loss correction	single-endedforward channel	channel 2reverse channel	N/Adate	2023/12/14time	07:52:13forward acquisition time	300,00reverse acquisition time	0,00gamma	499,1914k internal	0,3159k external	0,3159temperature offset calibration	1,0000default loss term (dB/km)	0,3820temperature slope calibration	1,0000multiplexer offset coefficient	1,0000multiplexer slope coefficient	1,0000fibre end	0,00T internal ref (°C)	7,07T ext. ref 1 (°C)	-9,25T ext. ref 2 (°C)	-9,32length (m)	temperature (°C)	Stokes	anti-Stokes-744,400	-31,925	0,140	-0,058
-743,385	-69,962	-0,420	-0,117
-742,371	17,748	0,227	0,133
-741,356	-54,683	-0,447	-0,148
-740,342	190,294	0,112	0,124
-739,327	-121,499	-0,463	-0,056
-738,312	-57,302	0,190	0,061
-737,298	-106,652	-0,557	-0,090
-736,283	458,196	0,130	0,213
-735,269	-81,511	-0,459	-0,110
-734,254	-118,441	0,272	0,035
-733,239	-33,567	-0,656	-0,266
-732,225	264,962	0,123	0,158
-731,210	12,059	0,067	0,038
-730,196	-200,000	0,004	-0,073
-729,181	31,482	-0,121	-0,077
-728,167	89,941	-0,049	-0,040
-727,152	-200,000	-0,003	-0,125
-726,137	139,554	-0,068	-0,066
-725,123	116,745	-0,031	-0,028
-724,108	800,000	0,037	-0,093
-723,094	-92,979	-0,168	0,034
-722,079	800,000	0,039	-0,088
-721,064	-88,465	0,093	0,020
-720,050	441,667	-0,036	0,059
-719,035	31,321	0,151	-0,095
-718,021	-200,000	-0,013	-0,066
-717,006	-53,379	-0,053	0,018
-715,991	-200,000	-0,000	-0,024
-714,977	-200,000	0,009	0,038
-713,962	363,272	-0,085	0,126
-712,948	355,057	-0,075	0,110
-711,933	-83,910	0,057	-0,013
-710,918	-163,362	-0,064	0,002
-709,904	412,380	0,022	-0,034
-708,889	-5,253	-0,098	0,050
-707,875	-200,000	0,002	-0,206
-706,860	49,782	-0,075	-0,052
-705,845	-111,848	0,120	0,018
-704,831	14,405	-0,031	-0,018
-703,816	154,921	-0,064	-0,065
-702,802	44,722	-0,028	-0,019
-701,787	-126,155	-0,087	-0,009
-700,772	800,000	0,052	-0,115
-699,758	-200,000	-0,013	-0,056
-698,743	94,547	0,037	-0,031
-697,729	1,217	-0,032	0,017
-696,714	671,814	-0,037	-0,071
-695,699	31,065	-0,097	-0,061
-694,685	359,679	-0,073	-0,108
-693,670	-200,000	-0,001	-0,008
-692,656	-125,011	-0,031	0,004
-691,641	-115,538	-0,036	0,005
-690,627	198,881	0,034	-0,038
-689,612	-62,415	0,064	-0,019
-688,597	225,377	0,037	-0,044
-687,583	168,683	-0,051	-0,054
-686,568	-200,000	0,011	-0,086
-685,554	192,055	-0,088	-0,097
-684,539	-55,721	0,062	0,020
-683,524	-65,430	0,025	0,007
-682,510	530,726	0,104	0,182
-681,495	-200,000	-0,012	-0,096
-680,481	73,549	0,009	-0,007
-679,466	-123,296	-0,116	0,013
-678,451	-200,000	0,014	0,100
-677,437	-91,377	-0,090	-0,019
-676,422	-177,968	0,155	-0,003
-675,408	-200,000	-0,020	0,080
-674,393	99,534	0,075	-0,064
-673,378	-200,000	-0,004	-0,024
-672,364	-16,152	-0,036	-0,017
-671,349	-13,816	-0,097	-0,046
-670,335	25,008	-0,068	-0,041
-669,320	-200,000	0,031	-0,140
-668,305	800,000	0,052	-0,107
-667,291	-200,000	-0,001	-0,025
-666,276	57,866	0,123	-0,089
-665,262	169,168	-0,106	-0,111
-664,247	270,192	-0,073	-0,094
-663,232	290,441	-0,025	-0,034
-662,218	-30,723	0,071	0,029
-661,203	32,513	-0,053	0,033
-660,189	-80,829	-0,039	0,009
-659,174	151,368	-0,040	-0,040
-658,159	-80,397	-0,104	0,025
-657,145	258,891	0,065	-0,082
-656,130	175,120	0,012	0,012
-655,116	-200,000	-0,000	-0,071
-654,101	65,248	0,033	-0,025
-653,086	2,080	0,040	-0,021
-652,072	-200,000	0,022	-0,093
-651,057	259,521	-0,016	-0,021
-650,043	-200,000	0,041	-0,141
-649,028	-200,000	0,007	-0,050
-648,014	-39,465	-0,076	0,029
-646,999	65,395	0,031	0,023
-645,984	-34,265	0,165	-0,066
-644,970	16,345	-0,119	-0,069
-643,955	276,901	-0,013	0,017
-642,941	-200,000	0,053	-0,180
-641,926	-120,308	-0,029	0,004
-640,911	-48,572	-0,100	-0,035
-639,897	-200,000	-0,023	0,112
-638,882	171,878	-0,056	0,059
-637,868	522,835	0,020	-0,035
-636,853	-200,000	0,017	-0,204
-635,838	800,000	0,037	-0,080
-634,824	-22,498	0,119	0,052
-633,809	-8,542	0,021	-0,010
-632,795	28,321	0,043	-0,027
-631,780	-77,525	0,111	0,028
-630,765	-199,214	0,092	0,000
-629,751	-79,140	-0,097	-0,024
-628,736	100,980	-0,166	-0,141
-627,722	95,623	-0,081	0,067
-626,707	445,123	0,070	-0,113
-625,692	-200,000	-0,022	0,176
-624,678	-200,000	0,007	-0,064
-623,663	-200,000	0,038	0,146
-622,649	639,090	0,040	-0,075
-621,634	-200,000	-0,025	-0,151
-620,619	761,883	0,059	0,117
-619,605	-200,000	-0,054	0,189
-618,590	800,000	-0,067	0,179
-617,576	-33,834	-0,128	0,052
-616,561	800,000	-0,029	0,066
-615,546	-48,944	0,131	-0,046
-614,532	800,000	0,042	-0,115
-613,517	-14,257	-0,179	-0,084
-612,503	-200,000	0,029	0,163
-611,488	-200,000	0,005	0,094
-610,474	-118,931	-0,030	-0,004
-609,459	122,477	0,076	-0,070
-608,444	-200,000	-0,011	-0,043
-607,430	800,000	-0,021	-0,065
-606,415	160,804	0,015	-0,015
-605,401	-21,037	-0,063	-0,028
-604,386	32,961	0,101	0,064
-603,371	-62,296	0,146	0,044
-602,357	-102,770	0,048	-0,008
-601,342	-200,000	-0,000	-0,178
-600,328	107,006	-0,124	-0,108
-599,313	100,254	0,093	-0,079
-598,298	800,000	-0,041	-0,109
-597,284	-52,948	0,175	-0,059
-596,269	-21,383	-0,072	-0,032
-595,255	-200,000	-0,019	-0,089
-594,240	259,078	-0,053	0,068
-593,225	571,460	0,028	0,051
-592,211	-21,268	-0,145	0,065
-591,196	-82,004	-0,055	0,013
-590,182	62,382	0,060	-0,043
-589,167	177,938	-0,079	0,085
-588,152	800,000	0,038	0,094
-587,138	-118,524	-0,048	-0,006
-586,123	800,000	-0,049	-0,115
-585,109	800,000	-0,042	0,127
-584,094	-24,688	-0,036	0,016
-583,079	345,363	0,043	-0,062
-582,065	31,081	0,140	0,088
-581,050	-64,129	-0,102	-0,030
-580,036	-102,592	-0,083	-0,014
-579,021	-63,524	-0,070	0,021
-578,006	-200,000	0,022	0,115
-576,992	800,000	-0,009	0,026
-575,977	-200,000	0,017	0,077
-574,963	131,744	0,086	0,081
-573,948	15,055	0,127	-0,073
-572,934	-200,000	0,005	-0,092
-571,919	417,798	-0,148	-0,233
-570,904	306,081	0,080	-0,109
-569,890	800,000	-0,031	-0,080
-568,875	4,555	0,089	-0,048
-567,861	-67,975	0,163	0,046
-566,846	-87,431	0,030	0,007
-565,831	-86,074	-0,030	0,007
-564,817	-46,453	-0,109	-0,039
-563,802	-200,000	-0,020	-0,067
-562,788	-200,000	-0,000	0,070
-561,773	156,570	-0,075	0,076
-560,758	-117,727	-0,113	-0,015
-559,744	-67,851	-0,050	0,014
-558,729	40,899	-0,111	0,073
-557,715	-200,000	-0,016	0,125
-556,700	-68,313	-0,055	-0,016
-555,685	-200,000	0,000	0,071
-554,671	-200,000	-0,027	0,119
-553,656	69,162	0,100	0,075
-552,642	80,190	0,044	-0,035
-551,627	-94,427	0,052	-0,010
-550,612	352,158	0,053	-0,077
-549,598	283,314	-0,071	-0,093
-548,583	481,899	-0,011	0,018
-547,569	800,000	-0,040	0,106
-546,554	-200,000	-0,001	-0,039
-545,539	22,158	0,086	0,051
-544,525	223,543	-0,054	0,063
-543,510	53,117	0,063	-0,044
-542,496	-16,691	-0,143	-0,066
-541,481	-173,582	0,059	-0,001
-540,466	800,000	0,039	0,088
-539,452	800,000	-0,008	0,021
-538,437	800,000	-0,032	0,069
-537,423	-177,360	-0,042	-0,001
-536,408	-84,905	-0,047	-0,011
-535,393	66,392	0,099	-0,074
-534,379	-200,000	-0,006	0,039
-533,364	-101,175	0,036	0,006
-532,350	299,947	-0,075	0,101
-531,335	89,239	0,115	-0,094
-530,321	-50,585	0,042	0,015
-529,306	482,267	-0,025	0,041
-528,291	-71,271	-0,170	-0,046
-527,277	800,000	0,004	0,009
-526,262	800,000	-0,045	-0,105
-525,248	115,166	-0,088	-0,078
-524,233	259,947	0,034	-0,043
-523,218	-65,509	-0,090	0,026
-522,204	369,397	0,027	-0,040
-521,189	633,004	-0,052	-0,096
-520,175	-200,000	-0,011	0,040
-519,160	-200,000	-0,008	-0,142
-518,145	12,534	-0,089	-0,050
-517,131	25,245	-0,071	0,043
-516,116	-100,332	-0,070	-0,013
-515,102	-98,377	-0,120	-0,022
-514,087	647,405	-0,061	0,114
-513,072	174,371	-0,041	0,043
-512,058	303,020	0,033	-0,045
-511,043	-156,965	0,106	0,005
-510,029	-200,000	0,002	-0,035
-509,014	-76,298	-0,022	0,006
-507,999	20,248	0,072	-0,042
-506,985	-67,930	-0,039	0,011
-505,970	240,924	0,113	-0,137
-504,956	189,715	-0,065	0,071
-503,941	180,810	-0,093	-0,100
-502,926	656,841	-0,032	0,060
-501,912	35,172	-0,027	0,018
-500,897	-122,631	-0,086	-0,010
-499,883	90,137	0,067	0,054
-498,868	30,211	-0,067	-0,042
-497,853	-136,703	-0,178	-0,015
-496,839	-178,982	0,257	0,004
-495,824	745,571	-0,027	0,053
-494,810	-200,000	0,007	0,077
-493,795	-200,000	0,001	0,041
-492,781	-149,093	-0,073	0,004
-491,766	372,045	0,065	0,097
-490,751	48,032	-0,164	0,111
-489,737	-200,000	0,008	0,131
-488,722	-200,000	0,027	-0,091
-487,708	-200,000	0,020	-0,069
-486,693	-200,000	-0,022	0,159
-485,678	-79,076	0,072	0,018
-484,664	95,771	-0,094	-0,078
-483,649	8,778	-0,126	-0,069
-482,635	-200,000	0,003	0,066
-481,620	-37,814	0,177	0,068
-480,605	208,541	-0,010	0,011
-479,591	-200,000	-0,027	0,087
-478,576	748,062	-0,052	0,102
-477,562	-200,000	0,018	-0,084
-476,547	102,490	-0,027	0,023
-475,532	346,604	0,046	-0,067
-474,518	668,887	-0,021	-0,040
-473,503	176,119	0,074	0,078
-472,489	-120,900	0,069	-0,008
-471,474	253,148	-0,113	0,141
-470,459	342,560	0,058	0,082
-469,445	-41,954	0,059	-0,022
-468,430	550,555	-0,078	0,137
-467,416	83,946	-0,026	0,021
-466,401	-100,325	0,155	-0,028
-465,386	788,820	-0,053	0,107
-464,372	-151,844	0,024	-0,001
-463,357	800,000	-0,011	-0,023
-462,343	-200,000	0,004	-0,114
-461,328	-200,000	0,003	0,016
-460,313	285,152	0,070	0,092
-459,299	-56,645	-0,146	0,047
-458,284	-122,867	0,081	-0,009
-457,270	-200,000	-0,010	0,041
-456,255	800,000	0,026	-0,083
-455,241	286,254	-0,075	-0,099
-454,226	800,000	-0,008	0,016
-453,211	-200,000	-0,052	0,236
-452,197	659,833	0,100	0,188
-451,182	224,915	-0,072	0,085
-450,168	-99,076	-0,138	-0,025
-449,153	265,887	0,110	-0,140
-448,138	65,461	0,150	-0,111
-447,124	304,186	-0,004	0,006
-446,109	697,325	0,059	0,114
-445,095	-35,835	0,057	0,022
-444,080	247,639	0,027	0,034
-443,065	315,200	-0,042	-0,058
-442,051	-200,000	0,019	-0,105
-441,036	-17,751	-0,096	-0,044
-440,022	17,468	-0,058	0,033
-439,007	-37,752	-0,141	0,054
-437,992	-136,398	-0,091	0,008
-436,978	-22,667	0,023	0,010
-435,963	337,239	0,048	0,069
-434,949	400,450	-0,004	0,007
-433,934	-200,000	0,008	-0,053
-432,919	-200,000	0,008	-0,169
-431,905	-200,000	-0,029	0,126
-430,890	102,923	0,110	0,094
-429,876	19,473	0,053	0,031
-428,861	275,535	0,032	-0,042
-427,846	-200,000	0,000	-0,025
-426,832	-100,907	-0,146	-0,026
-425,817	-200,000	0,002	0,122
-424,803	-159,021	0,119	0,005
-423,788	281,433	0,112	0,147
-422,773	133,795	0,060	-0,056
-421,759	-200,000	-0,037	0,180
-420,744	-163,362	-0,072	-0,002
-419,730	-85,664	-0,031	-0,007
-418,715	69,419	-0,145	-0,108
-417,701	800,000	-0,033	-0,071
-416,686	154,003	0,069	0,069
-415,671	-95,106	0,054	-0,010
-414,657	-156,228	-0,105	-0,005
-413,642	-47,260	-0,055	0,019
-412,628	-44,530	0,032	-0,012
-411,613	-54,321	-0,139	-0,046
-410,598	57,452	0,041	-0,029
-409,584	586,481	-0,028	0,051
-408,569	-200,000	0,011	0,126
-407,555	800,000	0,041	0,095
-406,540	189,258	-0,068	-0,074
-405,525	-21,657	0,013	-0,006
-404,511	-118,937	-0,098	0,012
-403,496	-62,551	-0,094	-0,028
-402,482	-200,000	-0,015	-0,141
-401,467	-144,214	0,109	0,007
-400,452	-137,617	0,097	0,008
-399,438	-200,000	-0,033	0,119
-398,423	27,670	-0,064	-0,039
-397,409	273,465	0,052	-0,066
-396,394	5,946	0,083	-0,045
-395,379	800,000	0,057	0,136
-394,365	-200,000	0,011	0,057
-393,350	-200,000	-0,012	-0,058
-392,336	-200,000	-0,016	0,060
-391,321	-47,751	-0,082	-0,029
-390,306	34,302	0,075	0,047
-389,292	29,162	-0,055	-0,034
-388,277	-27,413	0,045	0,019
-387,263	1,533	-0,058	0,030
-386,248	114,405	0,102	-0,090
-385,233	-200,000	-0,006	-0,051
-384,219	361,722	-0,038	0,056
-383,204	194,634	0,135	-0,149
-382,190	800,000	0,055	-0,130
-381,175	800,000	0,030	-0,079
-380,160	-200,000	-0,007	0,073
-379,146	800,000	-0,028	0,070
-378,131	-200,000	-0,001	0,019
-377,117	545,910	-0,018	0,032
-376,102	351,055	-0,027	0,039
-375,088	62,317	-0,107	-0,078
-374,073	-160,384	-0,125	0,005
-373,058	-136,621	0,120	0,010
-372,044	50,007	0,055	-0,037
-371,029	205,468	-0,034	0,038
-370,015	-121,510	0,107	0,013
-369,000	-5,231	-0,087	-0,043
-367,985	-200,000	0,018	-0,127
-366,971	169,880	-0,054	0,057
-365,956	330,210	-0,023	-0,032
-364,942	-178,485	-0,104	-0,002
-363,927	673,665	0,015	-0,027
-362,912	211,440	0,062	0,071
-361,898	-123,045	-0,077	0,009
-360,883	-200,000	0,006	0,043
-359,869	101,620	-0,069	-0,058
-358,854	586,385	-0,045	-0,080
-357,839	-23,579	0,071	-0,031
-356,825	-79,527	0,065	-0,016
-355,810	-127,609	-0,129	-0,013
-354,796	-130,904	-0,036	-0,003
-353,781	28,218	-0,078	-0,048
-352,766	-200,000	-0,005	-0,025
-351,752	-3,660	0,111	0,056
-350,737	-38,587	0,025	-0,010
-349,723	-127,847	0,176	-0,018
-348,708	-86,301	0,080	0,018
-347,693	800,000	0,050	0,116
-346,679	-113,161	-0,066	-0,009
-345,664	40,373	-0,042	0,028
-344,650	-132,589	0,074	-0,007
-343,635	-54,234	0,049	-0,016
-342,620	0,630	0,088	0,045
-341,606	-61,049	0,129	-0,039
-340,591	-200,000	0,003	0,028
-339,577	-200,000	-0,035	-0,177
-338,562	800,000	-0,034	-0,090
-337,548	-200,000	-0,042	0,194
-336,533	800,000	-0,020	-0,043
-335,518	-83,661	0,103	-0,024
-334,504	267,980	-0,051	-0,065
-333,489	-200,000	-0,019	0,112
-332,475	-55,854	0,031	0,010
-331,460	-34,103	-0,169	-0,067
-330,445	-171,888	-0,010	0,000
-329,431	-200,000	0,011	-0,103
-328,416	800,000	0,081	0,175
-327,402	-200,000	0,022	-0,079
-326,387	-31,710	-0,087	-0,035
-325,372	800,000	0,043	-0,094
-324,358	800,000	-0,027	-0,067
-323,343	170,032	0,072	0,074
-322,329	-105,211	0,079	-0,013
-321,314	580,268	0,022	-0,039
-320,299	229,047	0,049	0,057
-319,285	-200,000	-0,008	-0,045
-318,270	109,143	-0,051	0,045
-317,256	-3,254	-0,060	-0,030
-316,241	244,877	0,136	-0,166
-315,226	86,627	-0,039	-0,031
-314,212	218,643	0,102	0,118
-313,197	800,000	-0,017	0,054
-312,183	-26,713	0,079	-0,033
-311,168	800,000	-0,054	-0,121
-310,153	149,091	-0,100	-0,098
-309,139	-200,000	0,044	-0,177
-308,124	800,000	0,056	0,179
-307,110	104,252	-0,026	0,022
-306,095	122,831	0,045	-0,040
-305,080	795,696	0,033	-0,067
-304,066	138,177	0,078	0,075
-303,051	243,761	-0,017	-0,021
-302,037	13,672	-0,027	-0,015
-301,022	467,911	0,034	0,056
-300,008	-200,000	-0,025	0,103
-298,993	-139,965	-0,048	-0,004
-297,978	187,616	-0,023	0,025
-296,964	-200,000	0,000	0,070
-295,949	-121,427	-0,157	0,019
-294,935	284,471	0,048	-0,063
-293,920	-107,935	-0,136	0,021
-292,905	-81,558	0,103	0,024
-291,891	9,125	-0,058	-0,032
-290,876	-110,678	0,094	0,014
-289,862	41,698	-0,101	0,066
-288,847	-200,000	-0,012	-0,095
-287,832	-200,000	0,016	0,115
-286,818	38,736	0,192	-0,124
-285,803	800,000	0,053	-0,113
-284,789	230,962	0,074	0,088
-283,774	-200,000	0,013	0,051
-282,759	-200,000	0,006	-0,040
-281,745	325,723	-0,022	0,031
-280,730	800,000	-0,043	-0,115
-279,716	-102,443	-0,081	-0,014
-278,701	800,000	-0,046	-0,092
-277,686	478,504	0,060	0,099
-276,672	800,000	-0,024	0,066
-275,657	183,717	-0,062	0,066
-274,643	800,000	0,034	0,099
-273,628	-200,000	0,007	-0,090
-272,613	80,661	-0,126	-0,098
-271,599	800,000	0,033	0,076
-270,584	277,234	-0,041	0,053
-269,570	800,000	0,063	0,155
-268,555	800,000	0,010	-0,027
-267,540	-133,634	-0,040	-0,004
-266,526	172,049	-0,032	-0,034
-265,511	-27,033	0,072	0,030
-264,497	100,545	0,115	0,097
-263,482	-200,000	0,049	0,000
-262,467	-200,000	0,007	0,107
-261,453	-200,000	-0,018	-0,080
-260,438	-200,000	0,009	0,170
-259,424	-30,300	-0,161	-0,066
-258,409	800,000	0,040	-0,098
-257,395	-161,730	0,065	-0,002
-256,380	-200,000	0,041	-0,195
-255,365	239,839	0,072	0,086
-254,351	-200,000	-0,004	0,141
-253,336	-200,000	0,011	-0,142
-252,322	391,257	0,083	-0,124
-251,307	-200,000	-0,023	-0,079
-250,292	-57,417	0,056	-0,018
-249,278	-115,623	0,181	0,024
-248,263	-51,133	0,049	0,016
-247,249	-200,000	0,012	0,100
-246,234	800,000	-0,043	0,099
-245,219	25,809	-0,146	-0,088
-244,205	-200,000	-0,013	-0,086
-243,190	478,016	-0,053	0,087
-242,176	-93,205	0,055	0,011
-241,161	57,741	0,006	0,004
-240,146	-133,209	0,196	0,018
-239,132	563,928	0,013	-0,023
-238,117	161,634	0,046	-0,046
-237,103	-200,000	0,012	-0,047
-236,088	800,000	-0,025	0,065
-235,073	-36,344	0,048	-0,019
-234,059	-200,000	0,030	0,151
-233,044	6,398	0,036	0,019
-232,030	149,014	0,101	0,099
-231,015	103,027	0,037	-0,031
-230,000	-200,000	0,007	-0,095
-228,986	800,000	0,040	-0,101
-227,971	193,264	0,062	-0,068
-226,957	800,000	0,027	0,073
-225,942	498,654	0,042	0,070
-224,927	-200,000	0,047	-0,158
-223,913	800,000	-0,026	0,055
-222,898	228,746	-0,048	0,057
-221,884	800,000	-0,019	0,044
-220,869	-15,362	0,025	0,012
-219,855	146,602	0,088	0,085
-218,840	145,641	0,102	-0,099
-217,825	781,169	-0,054	0,107
-216,811	800,000	0,005	-0,010
-215,796	127,597	-0,088	-0,081
-214,782	86,634	0,003	0,002
-213,767	-200,000	0,001	0,071
-212,752	-200,000	0,016	0,064
-211,738	-41,586	-0,022	-0,008
-210,723	230,083	-0,007	-0,008
-209,709	-95,479	0,042	-0,008
-208,694	62,110	-0,039	-0,028
-207,679	696,234	-0,055	0,106
-206,665	349,546	-0,015	-0,022
-205,650	401,943	-0,100	0,152
-204,636	-125,997	0,043	-0,005
-203,621	-200,000	-0,008	-0,052
-202,606	800,000	0,015	-0,035
-201,592	738,312	0,019	-0,036
-200,577	-76,955	-0,152	-0,038
-199,563	62,085	0,053	-0,038
-198,548	800,000	0,057	-0,164
-197,533	290,464	-0,142	0,186
-196,519	-92,124	-0,088	-0,018
-195,504	-200,000	-0,077	0,000
-194,490	254,608	-0,078	-0,097
-193,475	-38,751	0,084	-0,032
-192,460	61,844	0,080	-0,057
-191,446	-20,735	0,151	-0,067
-190,431	81,086	0,026	-0,020
-189,417	-200,000	0,006	-0,114
-188,402	-200,000	-0,010	-0,074
-187,387	-200,000	0,006	-0,055
-186,373	55,391	0,076	-0,053
-185,358	800,000	-0,047	0,132
-184,344	-66,164	0,109	-0,031
-183,329	800,000	0,042	-0,092
-182,315	-59,297	0,110	-0,034
-181,300	114,411	-0,112	-0,098
-180,285	470,039	-0,062	-0,101
-179,271	-29,147	-0,198	0,081
-178,256	291,007	0,033	-0,044
-177,242	351,271	0,043	0,061
-176,227	-200,000	0,016	-0,141
-175,212	280,744	0,041	-0,054
-174,198	-200,000	-0,014	0,139
-173,183	58,949	-0,042	0,030
-172,169	800,000	-0,031	-0,095
-171,154	-200,000	-0,024	-0,105
-170,139	675,224	-0,024	0,045
-169,125	518,063	0,107	0,182
-168,110	84,638	0,017	0,014
-167,096	1,677	0,014	-0,007
-166,081	800,000	-0,020	-0,042
-165,066	35,105	-0,099	-0,062
-164,052	800,000	0,039	0,085
-163,037	-200,000	-0,003	0,040
-162,023	108,363	0,069	0,059
-161,008	-200,000	-0,004	0,045
-159,993	-104,608	-0,065	-0,011
-158,979	-66,977	0,099	-0,028
-157,964	-91,410	-0,144	-0,029
-156,950	-200,000	0,003	0,062
-155,935	410,707	-0,058	0,089
-154,920	800,000	-0,007	-0,021
-153,906	-200,000	0,008	-0,032
-152,891	-136,274	0,153	-0,013
-151,877	-200,000	-0,031	-0,148
-150,862	19,076	-0,113	-0,065
-149,847	-76,933	-0,120	-0,030
-148,833	32,348	0,149	-0,093
-147,818	13,064	0,032	-0,018
-146,804	18,481	-0,045	-0,026
-145,789	163,763	0,061	0,062
-144,775	172,076	-0,070	-0,072
-143,760	162,085	-0,095	-0,096
-142,745	35,284	0,088	-0,056
-141,731	-175,838	-0,027	-0,001
-140,716	-31,879	0,154	-0,062
-139,702	616,343	-0,047	0,085
-138,687	-48,704	-0,046	-0,016
-137,672	-38,627	-0,037	-0,014
-136,658	162,478	0,054	-0,054
-135,643	-92,957	-0,189	-0,038
-134,629	-49,497	0,100	-0,034
-133,614	-46,771	0,083	-0,029
-132,599	-200,000	0,031	0,125
-131,585	-200,000	0,020	0,163
-130,570	248,348	-0,023	0,028
-129,556	58,290	-0,041	-0,029
-128,541	-94,264	-0,061	0,012
-127,526	-23,327	0,033	0,014
-126,512	-200,000	0,014	-0,065
-125,497	27,387	-0,035	-0,021
-124,483	-200,000	-0,021	-0,107
-123,468	-200,000	-0,004	-0,127
-122,453	800,000	-0,015	-0,039
-121,439	-125,395	-0,045	0,005
-120,424	525,440	-0,065	-0,111
