DTS Sentinel unit serial number:	SN410029Multiplexer serial number:	ORYXHardware model number:	OX2-SRSoftware version number:	ORYX F/W v4,00 Oryx Data Collector v3.7.2.0data status	okinstallation	B5 Nyhavnadifferential loss correction	single-endedforward channel	channel 2reverse channel	N/Adate	2023/12/14time	06:17:13forward acquisition time	300,00reverse acquisition time	0,00gamma	499,1914k internal	0,3158k external	0,3158temperature offset calibration	1,0000default loss term (dB/km)	0,3820temperature slope calibration	1,0000multiplexer offset coefficient	1,0000multiplexer slope coefficient	1,0000fibre end	0,00T internal ref (°C)	7,54T ext. ref 1 (°C)	-8,88T ext. ref 2 (°C)	-8,99length (m)	temperature (°C)	Stokes	anti-Stokes-744,400	26,585	0,160	0,099
-743,385	-43,312	-0,368	-0,137
-742,371	53,059	0,264	0,186
-741,356	-119,350	-0,346	-0,044
-740,342	106,519	0,110	0,096
-739,327	-33,273	-0,369	-0,150
-738,312	-200,000	0,048	0,167
-737,298	-65,054	-0,348	-0,103
-736,283	-4,025	0,146	0,074
-735,269	-53,189	-0,378	-0,127
-734,254	307,898	0,133	0,184
-733,239	-21,233	-0,478	-0,214
-732,225	-5,313	0,186	0,094
-731,210	-200,000	0,008	0,033
-730,196	-200,000	0,007	-0,157
-729,181	800,000	-0,054	-0,132
-728,167	212,968	-0,068	0,079
-727,152	-46,464	-0,161	0,058
-726,137	-200,000	0,021	-0,126
-725,123	-200,000	0,025	-0,112
-724,108	275,285	0,049	-0,064
-723,094	-89,749	-0,086	0,018
-722,079	170,545	-0,037	-0,039
-721,064	284,929	0,074	0,098
-720,050	138,678	0,017	0,016
-719,035	246,307	0,067	-0,083
-718,021	217,670	-0,078	-0,092
-717,006	-109,442	-0,181	0,028
-715,991	-200,000	0,008	-0,059
-714,977	-32,975	-0,047	0,019
-713,962	800,000	-0,029	-0,059
-712,948	-200,000	0,005	-0,026
-711,933	143,360	-0,151	-0,148
-710,918	-151,640	0,051	-0,003
-709,904	5,686	-0,171	-0,093
-708,889	-69,653	-0,045	-0,013
-707,875	-87,229	-0,077	-0,017
-706,860	112,843	0,094	-0,084
-705,845	-143,759	-0,093	-0,006
-704,831	63,047	-0,029	-0,022
-703,816	-200,000	-0,021	0,106
-702,802	-200,000	0,017	0,176
-701,787	522,915	0,010	-0,017
-700,772	800,000	-0,044	-0,097
-699,758	251,365	-0,046	-0,057
-698,743	218,980	0,096	0,113
-697,729	-200,000	0,021	0,149
-696,714	98,116	-0,070	-0,059
-695,699	-7,451	-0,057	-0,029
-694,685	390,366	-0,060	0,093
-693,670	-68,420	0,079	-0,022
-692,656	800,000	0,042	0,115
-691,641	-200,000	0,018	-0,065
-690,627	800,000	-0,015	0,048
-689,612	800,000	0,054	0,130
-688,597	14,319	-0,158	-0,090
-687,583	-112,194	-0,018	0,003
-686,568	-91,154	-0,151	-0,032
-685,554	334,255	0,026	-0,037
-684,539	214,139	-0,077	0,090
-683,524	800,000	0,018	0,052
-682,510	52,939	-0,060	0,042
-681,495	800,000	0,023	0,052
-680,481	275,889	-0,039	0,052
-679,466	-12,566	-0,128	-0,061
-678,451	800,000	0,018	-0,051
-677,437	800,000	-0,020	0,060
-676,422	-9,771	-0,113	-0,055
-675,408	139,124	-0,047	0,046
-674,393	137,701	-0,054	0,052
-673,378	121,665	-0,019	0,017
-672,364	800,000	0,022	0,052
-671,349	-200,000	-0,021	-0,116
-670,335	188,091	0,018	0,020
-669,320	43,080	-0,091	0,061
-668,305	-200,000	0,026	0,180
-667,291	-106,257	0,084	-0,014
-666,276	123,129	-0,084	-0,078
-665,262	-102,469	-0,224	-0,039
-664,247	-200,000	-0,006	-0,022
-663,232	-200,000	0,027	0,161
-662,218	153,882	0,060	-0,060
-661,203	-21,262	-0,126	0,056
-660,189	800,000	-0,048	-0,128
-659,174	-134,602	-0,109	0,010
-658,159	-200,000	0,001	-0,119
-657,145	-87,080	0,090	0,020
-656,130	-81,661	-0,027	-0,006
-655,116	272,237	0,081	0,106
-654,101	319,186	0,045	-0,063
-653,086	-200,000	-0,003	0,108
-652,072	73,361	-0,105	-0,081
-651,057	-77,586	-0,044	0,011
-650,043	-200,000	-0,015	-0,077
-649,028	-116,697	0,119	-0,016
-648,014	128,523	0,122	0,114
-646,999	202,158	-0,069	-0,078
-645,984	800,000	0,056	0,138
-644,970	-200,000	0,015	-0,082
-643,955	443,054	0,011	-0,018
-642,941	-200,000	0,015	0,062
-641,926	-62,776	-0,092	0,028
-640,911	253,884	-0,046	0,057
-639,897	-200,000	0,001	0,031
-638,882	800,000	-0,055	0,129
-637,868	-200,000	0,001	-0,050
-636,853	-18,906	-0,077	-0,035
-635,838	-68,318	-0,096	-0,027
-634,824	142,373	0,020	-0,020
-633,809	37,179	0,135	0,087
-632,795	100,790	-0,089	0,076
-631,780	578,685	0,042	0,076
-630,765	182,531	0,058	0,063
-629,751	-200,000	0,033	-0,206
-628,736	20,759	-0,069	-0,041
-627,722	-25,479	-0,159	-0,069
-626,707	-146,885	0,047	-0,003
-625,692	-28,511	-0,093	0,039
-624,678	800,000	0,077	-0,160
-623,663	-66,345	0,162	-0,047
-622,649	-132,108	-0,136	-0,013
-621,634	800,000	-0,043	-0,112
-620,619	-200,000	-0,005	-0,083
-619,605	-200,000	-0,008	-0,053
-618,590	431,165	0,034	0,054
-617,576	-43,676	-0,069	-0,025
-616,561	121,013	-0,054	0,049
-615,546	-200,000	0,013	0,055
-614,532	-200,000	-0,009	-0,072
-613,517	51,827	0,116	0,081
-612,503	-200,000	0,000	-0,065
-611,488	-142,016	-0,110	0,008
-610,474	-87,553	0,191	0,042
-609,459	800,000	0,029	0,064
-608,444	-95,503	-0,085	0,017
-607,430	58,048	0,041	0,030
-606,415	44,872	0,175	-0,118
-605,401	-200,000	-0,025	-0,092
-604,386	-117,726	0,055	0,007
-603,371	-200,000	-0,021	0,075
-602,357	-200,000	-0,007	-0,054
-601,342	800,000	0,026	0,072
-600,328	-29,048	-0,089	-0,037
-599,313	-200,000	-0,014	-0,079
-598,298	-30,427	-0,072	-0,030
-597,284	800,000	0,071	0,191
-596,269	227,775	-0,011	0,014
-595,255	-69,889	-0,036	-0,010
-594,240	102,008	-0,157	-0,134
-593,225	-200,000	0,041	-0,196
-592,211	13,422	-0,100	-0,057
-591,196	-60,408	0,222	0,069
-590,182	94,489	-0,084	-0,070
-589,167	-103,404	0,120	-0,021
-588,152	-200,000	0,018	-0,106
-587,138	-86,058	-0,102	-0,023
-586,123	255,422	0,090	0,113
-585,109	606,369	-0,053	-0,096
-584,094	-200,000	0,021	-0,120
-583,079	-42,705	0,078	-0,029
-582,065	-200,000	-0,003	-0,027
-581,050	52,338	0,156	-0,109
-580,036	617,063	0,031	-0,056
-579,021	-43,580	-0,173	-0,064
-578,006	-90,002	0,020	-0,004
-576,992	-36,868	0,021	-0,008
-575,977	66,370	0,110	0,082
-574,963	108,795	0,063	0,055
-573,948	-200,000	0,012	0,094
-572,934	-200,000	-0,006	-0,083
-571,919	-200,000	0,045	-0,211
-570,904	136,928	0,064	-0,061
-569,890	-200,000	-0,010	-0,036
-568,875	597,840	0,041	-0,075
-567,861	54,168	0,064	-0,045
-566,846	361,906	-0,011	-0,017
-565,831	-124,166	-0,249	0,028
-564,817	-150,417	0,048	0,003
-563,802	-105,179	-0,113	-0,019
-562,788	361,885	-0,043	-0,063
-561,773	-200,000	0,008	-0,041
-560,758	-142,518	-0,069	-0,005
-559,744	-200,000	-0,030	-0,178
-558,729	651,708	-0,083	0,157
-557,715	60,379	-0,120	-0,087
-556,700	241,700	-0,073	-0,089
-555,685	607,965	-0,051	-0,093
-554,671	800,000	-0,024	0,051
-553,656	-200,000	-0,002	0,014
-552,642	-200,000	-0,047	0,172
-551,627	-200,000	-0,006	-0,116
-550,612	-200,000	0,013	-0,120
-549,598	-21,016	-0,121	-0,054
-548,583	-200,000	0,012	-0,081
-547,569	-42,646	-0,039	-0,014
-546,554	-200,000	-0,012	0,044
-545,539	365,895	-0,077	0,113
-544,525	-200,000	-0,002	-0,092
-543,510	-200,000	0,001	-0,062
-542,496	-83,993	-0,149	0,034
-541,481	-135,843	0,095	0,008
-540,466	236,241	-0,045	-0,054
-539,452	800,000	-0,027	-0,083
-538,437	-86,273	-0,068	0,015
-537,423	-101,228	0,070	-0,012
-536,408	36,768	-0,067	-0,043
-535,393	-200,000	-0,013	-0,135
-534,379	27,395	-0,113	-0,069
-533,364	337,012	0,056	0,080
-532,350	20,419	-0,110	0,065
-531,335	-15,799	0,086	-0,040
-530,321	-40,999	-0,097	-0,037
-529,306	800,000	-0,039	-0,103
-528,291	3,879	0,093	-0,049
-527,277	140,670	0,028	-0,027
-526,262	-200,000	-0,013	-0,055
-525,248	-200,000	-0,013	0,067
-524,233	-108,751	-0,060	0,009
-523,218	-200,000	-0,008	-0,031
-522,204	4,936	-0,062	0,033
-521,189	-200,000	-0,046	0,191
-520,175	-2,320	-0,100	0,051
-519,160	270,206	-0,028	0,037
-518,145	-99,983	0,071	-0,013
-517,131	-200,000	-0,020	-0,083
-516,116	-112,930	-0,084	0,012
-515,102	351,434	-0,054	-0,078
-514,087	387,556	-0,169	-0,256
-513,072	800,000	0,061	-0,156
-512,058	-200,000	0,014	-0,137
-511,043	183,782	-0,067	0,072
-510,029	800,000	0,106	0,265
-509,014	-200,000	-0,007	0,112
-507,999	-107,293	0,089	-0,014
-506,985	481,248	0,038	-0,063
-505,970	-200,000	0,034	-0,155
-504,956	800,000	0,045	0,121
-503,941	-200,000	0,013	0,216
-502,926	-157,996	-0,105	-0,004
-501,912	-145,182	-0,047	-0,003
-500,897	8,548	0,085	-0,046
-499,883	-200,000	-0,013	0,050
-498,868	602,347	-0,061	0,111
-497,853	-196,397	-0,171	0,001
-496,839	-109,720	0,098	0,015
-495,824	56,155	-0,015	-0,010
-494,810	800,000	0,051	0,121
-493,795	-9,874	-0,010	0,005
-492,781	-21,406	0,065	0,029
-491,766	-99,015	0,123	-0,023
-490,751	-200,000	-0,009	0,047
-489,737	165,137	0,084	0,087
-488,722	-82,895	0,099	0,023
-487,708	-149,085	-0,138	0,008
-486,693	-70,031	0,147	0,041
-485,678	200,982	-0,029	0,033
-484,664	-200,000	-0,003	-0,076
-483,649	25,891	-0,045	-0,027
-482,635	-45,646	0,069	0,025
-481,620	-139,115	-0,061	0,005
-480,605	-9,709	-0,033	0,016
-479,591	128,145	-0,010	0,009
-478,576	150,171	0,046	0,046
-477,562	-121,313	0,100	-0,012
-476,547	-82,104	-0,197	0,047
-475,532	115,858	0,040	0,035
-474,518	-28,089	0,081	-0,034
-473,503	-200,000	0,034	0,119
-472,489	-87,615	-0,129	-0,028
-471,474	190,305	0,048	-0,053
-470,459	-200,000	-0,041	0,154
-469,445	486,804	0,080	-0,133
-468,430	-200,000	-0,001	0,118
-467,416	-32,561	0,060	-0,024
-466,401	24,474	0,052	-0,031
-465,386	-120,080	-0,036	-0,004
-464,372	359,947	-0,046	0,067
-463,357	-21,864	-0,029	0,013
-462,343	-29,541	0,045	-0,019
-461,328	326,636	-0,033	-0,047
-460,313	-200,000	-0,001	-0,067
-459,299	-200,000	-0,010	0,092
-458,284	-51,752	0,080	-0,027
-457,270	269,100	0,039	-0,050
-456,255	-100,775	0,200	0,036
-455,241	140,332	-0,117	-0,113
-454,226	-104,447	-0,120	0,020
-453,211	-58,701	0,094	0,030
-452,197	-21,455	-0,062	0,027
-451,182	-200,000	-0,007	-0,031
-450,168	-76,519	0,062	0,016
-449,153	-200,000	-0,031	0,123
-448,138	109,850	0,129	-0,113
-447,124	-200,000	0,044	-0,161
-446,109	-71,429	-0,063	-0,017
-445,095	-61,864	0,172	0,052
-444,080	-200,000	0,007	-0,024
-443,065	382,493	0,046	-0,070
-442,051	-200,000	-0,008	0,028
-441,036	800,000	-0,030	-0,088
-440,022	98,149	-0,004	0,004
-439,007	24,112	-0,132	-0,079
-437,992	80,799	-0,055	0,044
-436,978	800,000	0,062	0,152
-435,963	-200,000	0,006	-0,108
-434,949	-140,798	-0,026	0,002
-433,934	-89,472	-0,127	-0,027
-432,919	-52,888	0,077	-0,026
-431,905	-200,000	-0,001	0,045
-430,890	-200,000	-0,030	0,111
-429,876	-139,788	0,137	0,010
-428,861	-200,000	0,010	0,076
-427,846	228,440	-0,030	-0,036
-426,832	800,000	0,021	-0,042
-425,817	-200,000	0,019	0,109
-424,803	800,000	0,043	-0,114
-423,788	-200,000	0,030	0,101
-422,773	-159,413	-0,113	0,004
-421,759	159,785	0,095	0,097
-420,744	-200,000	0,010	0,084
-419,730	-80,927	-0,032	-0,008
-418,715	28,432	0,030	0,018
-417,701	-200,000	0,013	-0,069
-416,686	365,734	0,015	-0,022
-415,671	24,669	-0,115	0,069
-414,657	575,080	0,065	0,115
-413,642	-200,000	-0,003	-0,089
-412,628	-200,000	0,031	-0,140
-411,613	800,000	0,080	-0,213
-410,598	-200,000	0,024	-0,141
-409,584	-200,000	0,014	-0,091
-408,569	357,162	0,069	0,101
-407,555	800,000	-0,025	0,079
-406,540	196,009	0,086	-0,095
-405,525	296,153	0,034	-0,045
-404,511	555,165	0,070	-0,123
-403,496	800,000	0,044	-0,111
-402,482	-114,670	-0,088	0,012
-401,467	-52,030	0,064	0,021
-400,452	684,084	0,061	-0,115
-399,438	94,570	-0,077	0,063
-398,423	-26,326	0,130	0,055
-397,409	5,796	-0,017	0,009
-396,394	-120,313	0,103	-0,013
-395,379	213,045	-0,105	0,120
-394,365	-169,828	0,107	-0,003
-393,350	800,000	-0,012	0,027
-392,336	626,669	0,047	-0,086
-391,321	-200,000	0,019	0,095
-390,306	800,000	-0,068	-0,216
-389,292	-200,000	-0,007	-0,136
-388,277	-33,516	0,176	0,070
-387,263	-32,771	0,092	-0,037
-386,248	-85,498	0,142	0,032
-385,233	301,542	0,025	-0,033
-384,219	265,406	0,043	0,054
-383,204	-104,487	-0,067	0,011
-382,190	-18,639	-0,127	0,057
-381,175	800,000	0,031	0,082
-380,160	-82,256	-0,117	0,027
-379,146	-200,000	-0,033	-0,108
-378,131	-130,896	0,185	-0,018
-377,117	4,150	-0,069	0,036
-376,102	-200,000	0,013	-0,146
-375,088	-200,000	0,013	-0,120
-374,073	499,946	-0,075	-0,127
-373,058	-97,047	-0,092	-0,017
-372,044	-18,317	0,067	0,030
-371,029	-42,597	-0,081	0,030
-370,015	436,258	0,091	0,144
-369,000	0,278	0,095	-0,049
-367,985	-200,000	-0,009	-0,094
-366,971	-200,000	0,007	-0,038
-365,956	195,817	0,095	0,105
-364,942	313,028	-0,017	0,024
-363,927	75,013	0,064	-0,049
-362,912	800,000	-0,027	0,069
-361,898	119,765	-0,038	-0,034
-360,883	-5,389	-0,089	-0,044
-359,869	152,211	-0,046	0,045
-358,854	69,068	0,024	-0,018
-357,839	-0,784	-0,051	0,026
-356,825	-147,203	0,061	-0,004
-355,810	256,631	-0,076	0,095
-354,796	-200,000	-0,012	0,099
-353,781	-88,361	0,041	-0,009
-352,766	105,731	0,021	0,018
-351,752	-73,306	0,177	0,047
-350,737	-112,375	0,147	0,021
-349,723	122,888	-0,152	0,138
-348,708	61,983	0,087	0,063
-347,693	71,497	-0,099	0,075
-346,679	-93,075	-0,087	-0,017
-345,664	800,000	-0,011	-0,023
-344,650	131,563	0,027	-0,025
-343,635	158,395	0,065	0,066
-342,620	-83,811	-0,177	-0,041
-341,606	534,934	-0,036	0,061
-340,591	-200,000	-0,001	0,149
-339,577	694,827	-0,044	0,085
-338,562	-101,935	0,068	0,012
-337,548	92,465	-0,039	-0,032
-336,533	-59,127	0,104	-0,032
-335,518	-135,604	0,100	0,008
-334,504	-200,000	-0,000	0,025
-333,489	48,862	-0,049	-0,033
-332,475	39,497	0,049	0,032
-331,460	483,416	-0,048	-0,080
-330,445	-200,000	0,028	0,100
-329,431	-71,990	-0,164	0,044
-328,416	-200,000	0,011	0,102
-327,402	1,693	0,057	-0,030
-326,387	536,115	-0,028	-0,048
-325,372	-12,377	-0,129	-0,061
-324,358	70,159	-0,059	0,044
-323,343	-200,000	0,007	-0,023
-322,329	-200,000	0,010	0,069
-321,314	245,559	0,043	0,053
-320,299	-200,000	-0,032	0,142
-319,285	430,517	-0,091	0,144
-318,270	-143,163	-0,079	-0,005
-317,256	-83,793	0,037	0,008
-316,241	-24,186	0,060	-0,026
-315,226	257,724	0,096	0,120
-314,212	-46,630	-0,175	0,062
-313,197	111,253	0,057	0,049
-312,183	800,000	-0,040	0,103
-311,168	-39,552	-0,078	-0,029
-310,153	800,000	-0,053	-0,107
-309,139	19,832	0,123	0,072
-308,124	-95,819	0,043	0,008
-307,110	-6,869	0,111	0,054
-306,095	-200,000	0,013	0,107
-305,080	-92,918	-0,067	-0,013
-304,066	182,940	0,087	-0,093
-303,051	644,696	-0,079	-0,146
-302,037	481,494	-0,115	-0,189
-301,022	213,898	0,076	0,088
-300,008	-184,500	0,096	-0,001
-298,993	64,794	0,017	-0,012
-297,978	-29,849	-0,061	-0,025
-296,964	800,000	0,048	0,145
-295,949	-117,163	0,051	-0,007
-294,935	185,237	0,056	0,060
-293,920	381,125	-0,086	0,129
-292,905	-200,000	0,010	-0,047
-291,891	-200,000	0,007	0,054
-290,876	366,226	0,011	-0,015
-289,862	-155,360	-0,147	0,007
-288,847	800,000	-0,013	-0,028
-287,832	300,586	-0,045	-0,060
-286,818	17,182	-0,012	-0,007
-285,803	8,739	0,126	0,068
-284,789	490,962	0,089	0,148
-283,774	800,000	0,031	0,092
-282,759	22,647	0,076	0,045
-281,745	476,367	-0,044	-0,072
-280,730	800,000	-0,055	-0,125
-279,716	-160,818	0,083	0,003
-278,701	-10,648	-0,068	-0,032
-277,686	128,895	-0,044	-0,040
-276,672	-200,000	-0,001	0,071
-275,657	97,108	0,099	0,082
-274,643	498,541	-0,095	-0,159
-273,628	-200,000	-0,005	-0,092
-272,613	-44,740	-0,240	0,086
-271,599	-163,676	0,033	-0,001
-270,584	99,911	0,066	0,056
-269,570	-101,051	0,116	-0,020
-268,555	-200,000	-0,012	-0,073
-267,540	75,181	0,105	0,080
-266,526	-200,000	0,006	-0,061
-265,511	-200,000	-0,018	-0,104
-264,497	-200,000	-0,026	0,124
-263,482	216,093	0,101	0,117
-262,467	-19,998	0,053	-0,023
-261,453	586,095	-0,048	0,086
-260,438	-200,000	0,030	-0,136
-259,424	-138,991	0,082	0,006
-258,409	-111,437	-0,087	-0,013
-257,395	-178,682	0,234	-0,004
-256,380	495,557	-0,028	0,046
-255,365	464,262	-0,056	-0,091
-254,351	15,304	0,069	0,039
-253,336	-200,000	-0,003	0,081
-252,322	-200,000	-0,005	0,029
-251,307	-50,968	-0,095	0,032
-250,292	-57,980	0,140	-0,044
-249,278	800,000	0,045	0,092
-248,263	707,324	0,059	0,113
-247,249	800,000	0,029	0,086
-246,234	16,791	-0,086	0,049
-245,219	-58,056	-0,054	-0,017
-244,205	-50,644	-0,041	-0,014
-243,190	800,000	-0,046	0,102
-242,176	58,587	0,056	0,040
-241,161	-126,342	0,071	-0,008
-240,146	263,606	0,038	0,048
-239,132	-55,454	-0,183	0,059
-238,117	800,000	0,046	-0,096
-237,103	-200,000	0,013	-0,090
-236,088	78,596	0,107	0,082
-235,073	800,000	0,038	0,094
-234,059	-156,340	0,065	0,003
-233,044	-29,152	-0,060	-0,025
-232,030	-200,000	-0,018	-0,103
-231,015	-73,903	-0,066	-0,017
-230,000	36,349	-0,076	-0,048
-228,986	-140,211	0,094	-0,007
-227,971	-57,935	0,079	0,025
-226,957	436,720	0,050	0,079
-225,942	-200,000	-0,034	-0,135
-224,927	-31,077	0,070	0,029
-223,913	122,061	-0,133	0,120
-222,898	-104,415	-0,115	-0,019
-221,884	-200,000	0,011	-0,064
-220,869	800,000	-0,033	0,071
-219,855	2,079	-0,048	-0,025
-218,840	-200,000	0,003	-0,065
-217,825	-200,000	0,015	0,057
-216,811	120,416	-0,103	-0,092
-215,796	373,798	-0,040	0,059
-214,782	66,159	0,110	0,080
-213,767	242,036	-0,096	0,117
-212,752	-57,398	0,081	-0,025
-211,738	177,171	-0,038	0,040
-210,723	396,873	-0,029	0,044
-209,709	800,000	0,030	-0,065
-208,694	105,341	-0,089	-0,076
-207,679	344,088	0,022	0,031
-206,665	-200,000	-0,013	0,096
-205,650	-43,979	-0,089	-0,032
-204,636	-61,599	0,156	-0,047
-203,621	-200,000	-0,027	0,121
-202,606	1,967	0,028	0,014
-201,592	800,000	0,018	0,058
-200,577	-200,000	-0,012	0,040
-199,563	-35,896	-0,054	-0,021
-198,548	-200,000	-0,000	0,109
-197,533	112,439	0,099	0,086
-196,519	800,000	-0,027	-0,055
-195,504	425,171	-0,075	-0,116
-194,490	800,000	-0,024	0,061
-193,475	156,339	-0,083	-0,083
-192,460	-40,511	-0,076	-0,028
-191,446	-67,051	0,031	-0,009
-190,431	-7,006	-0,150	-0,073
-189,417	-200,000	-0,020	0,087
-188,402	-103,365	-0,072	-0,012
-187,387	-189,427	-0,114	0,001
-186,373	-200,000	0,001	-0,028
-185,358	-33,194	-0,030	0,012
-184,344	438,440	-0,079	0,124
-183,329	-200,000	-0,027	0,127
-182,315	195,112	0,079	0,087
-181,300	-112,118	-0,109	0,016
-180,285	189,702	-0,102	-0,110
-179,271	251,946	0,054	-0,067
-178,256	800,000	-0,016	-0,045
-177,242	7,066	-0,132	-0,071
-176,227	242,580	0,072	0,087
-175,212	-4,839	0,036	-0,018
-174,198	-51,888	0,145	-0,048
-173,183	-200,000	-0,003	-0,056
-172,169	-200,000	0,001	0,006
-171,154	800,000	0,031	0,064
-170,139	-159,890	0,039	0,001
-169,125	705,601	0,021	0,040
-168,110	49,383	-0,053	0,036
-167,096	800,000	-0,063	-0,157
-166,081	-100,900	-0,098	-0,017
-165,066	800,000	0,045	0,106
-164,052	800,000	0,027	0,055
-163,037	-32,779	-0,076	0,030
-162,023	26,210	0,032	0,019
-161,008	-82,136	-0,112	-0,026
-159,993	419,844	0,052	-0,081
-158,979	-200,000	-0,040	-0,158
-157,964	-200,000	0,010	-0,049
-156,950	174,235	0,052	-0,054
-155,935	-100,574	0,138	-0,024
-154,920	800,000	0,092	0,192
-153,906	-181,911	0,098	-0,001
-152,891	-156,336	0,092	0,004
-151,877	101,671	-0,077	0,065
-150,862	-123,750	0,089	0,010
-149,847	141,710	-0,158	-0,151
-148,833	-39,753	0,058	0,022
-147,818	-200,000	0,014	0,044
-146,804	-107,561	0,036	0,006
-145,789	-200,000	0,026	0,141
-144,775	185,674	-0,078	-0,083
-143,760	58,148	-0,049	-0,035
-142,745	242,123	-0,016	-0,020
-141,731	-8,413	-0,124	0,060
-140,716	800,000	-0,032	0,076
-139,702	62,160	0,028	0,020
-138,687	-93,530	-0,108	0,021
-137,672	-200,000	0,009	0,212
-136,658	-30,072	0,115	-0,047
-135,643	-77,596	0,071	0,017
-134,629	-40,914	0,025	-0,009
-133,614	800,000	0,047	-0,101
-132,599	-200,000	-0,015	0,088
-131,585	270,560	-0,093	0,119
-130,570	177,902	-0,109	-0,115
-129,556	-200,000	0,002	-0,031
-128,541	-77,373	-0,128	0,032
-127,526	171,395	0,051	0,053
-126,512	11,680	0,079	0,044
-125,497	-200,000	0,013	0,153
-124,483	248,086	0,050	0,061
-123,468	270,470	-0,049	0,063
-122,453	56,910	0,051	-0,036
-121,439	51,563	-0,074	0,050
-120,424	800,000	0,053	-0,108
