DTS Sentinel unit serial number:	SN410029Multiplexer serial number:	ORYXHardware model number:	OX2-SRSoftware version number:	ORYX F/W v4,00 Oryx Data Collector v3.7.2.0data status	okinstallation	B5 Nyhavnadifferential loss correction	single-endedforward channel	channel 2reverse channel	N/Adate	2023/12/12time	17:17:13forward acquisition time	300,00reverse acquisition time	0,00gamma	499,1914k internal	0,3156k external	0,3156temperature offset calibration	1,0000default loss term (dB/km)	0,3820temperature slope calibration	1,0000multiplexer offset coefficient	1,0000multiplexer slope coefficient	1,0000fibre end	0,00T internal ref (°C)	15,74T ext. ref 1 (°C)	-0,83T ext. ref 2 (°C)	-1,16length (m)	temperature (°C)	Stokes	anti-Stokes-744,400	-200,000	-0,017	0,162
-743,385	-13,894	-0,287	0,136
-742,371	-42,054	0,093	-0,035
-741,356	-71,508	-0,249	0,068
-740,342	-200,000	-0,001	0,060
-739,327	-111,414	-0,123	-0,018
-738,312	-61,252	-0,082	-0,025
-737,298	-94,685	-0,315	0,063
-736,283	62,896	0,069	-0,051
-735,269	-77,455	-0,258	-0,066
-734,254	800,000	-0,023	-0,055
-733,239	-23,740	-0,507	-0,223
-732,225	-13,393	0,170	0,081
-731,210	-3,168	-0,053	-0,027
-730,196	793,347	-0,086	0,176
-729,181	105,641	-0,135	-0,118
-728,167	-121,076	0,060	0,007
-727,152	274,409	0,054	-0,071
-726,137	-42,747	-0,074	-0,028
-725,123	92,877	-0,023	0,019
-724,108	106,990	-0,070	-0,061
-723,094	-11,611	-0,076	0,037
-722,079	41,652	-0,090	-0,060
-721,064	212,718	0,069	-0,080
-720,050	-113,543	0,044	-0,006
-719,035	-200,000	-0,005	-0,172
-718,021	-85,394	-0,132	-0,030
-717,006	295,469	-0,041	0,055
-715,991	-143,072	-0,102	0,007
-714,977	-72,280	-0,117	0,032
-713,962	2,809	0,070	0,037
-712,948	148,575	-0,059	-0,059
-711,933	140,636	0,058	0,056
-710,918	-22,299	-0,207	0,092
-709,904	-75,957	-0,058	0,015
-708,889	384,815	-0,065	-0,099
-707,875	38,973	-0,032	-0,021
-706,860	-28,191	-0,083	-0,035
-705,845	5,197	-0,028	0,015
-704,831	-113,240	0,128	-0,018
-703,816	800,000	-0,024	-0,064
-702,802	126,359	-0,064	0,060
-701,787	540,202	-0,096	-0,169
-700,772	-21,929	-0,020	-0,009
-699,758	51,183	0,034	-0,024
-698,743	299,732	0,016	0,021
-697,729	12,512	0,047	0,027
-696,714	317,040	0,077	0,107
-695,699	262,414	-0,097	0,125
-694,685	-200,000	0,008	-0,183
-693,670	-200,000	0,038	-0,148
-692,656	712,749	0,026	-0,051
-691,641	12,024	-0,106	-0,060
-690,627	-61,730	0,013	-0,004
-689,612	-200,000	0,014	-0,200
-688,597	-200,000	0,006	0,034
-687,583	-51,003	-0,147	0,051
-686,568	-200,000	-0,032	-0,145
-685,554	-200,000	0,016	-0,113
-684,539	800,000	0,018	0,039
-683,524	29,458	0,064	0,040
-682,510	-50,879	-0,084	-0,029
-681,495	33,833	0,037	0,024
-680,481	-52,926	-0,190	0,064
-679,466	174,495	-0,080	-0,085
-678,451	-200,000	0,007	-0,027
-677,437	800,000	0,019	-0,041
-676,422	800,000	-0,008	0,021
-675,408	-47,372	-0,088	0,031
-674,393	-146,085	-0,033	0,002
-673,378	-91,871	-0,116	-0,024
-672,364	-162,171	-0,037	0,001
-671,349	-121,323	-0,076	0,009
-670,335	183,085	-0,031	0,033
-669,320	-128,412	-0,074	0,008
-668,305	-138,428	-0,026	-0,002
-667,291	-200,000	-0,012	-0,040
-666,276	634,274	-0,022	0,041
-665,262	175,429	0,043	0,046
-664,247	-20,174	0,060	-0,027
-663,232	-34,952	-0,061	0,024
-662,218	415,427	0,038	0,059
-661,203	-34,456	0,063	0,025
-660,189	-200,000	-0,002	0,159
-659,174	800,000	-0,020	-0,051
-658,159	53,747	-0,131	-0,092
-657,145	-127,668	-0,102	0,011
-656,130	-35,448	-0,049	0,019
-655,116	780,885	-0,044	0,089
-654,101	1,015	0,095	0,050
-653,086	540,948	-0,107	0,187
-652,072	-101,399	-0,101	0,018
-651,057	51,266	-0,096	-0,067
-650,043	-200,000	0,013	-0,218
-649,028	800,000	0,011	-0,031
-648,014	-32,816	0,072	-0,029
-646,999	55,156	0,140	-0,099
-645,984	-200,000	0,018	0,077
-644,970	-76,475	0,083	-0,021
-643,955	265,440	0,012	0,015
-642,941	800,000	0,091	-0,226
-641,926	125,127	-0,103	0,095
-640,911	-110,718	0,041	0,006
-639,897	114,643	-0,019	-0,017
-638,882	800,000	-0,066	0,137
-637,868	800,000	-0,029	-0,060
-636,853	-138,714	-0,016	-0,001
-635,838	-49,121	-0,096	-0,034
-634,824	-200,000	0,006	-0,125
-633,809	11,889	-0,119	-0,067
-632,795	-29,902	0,089	0,037
-631,780	3,122	0,055	-0,029
-630,765	124,201	-0,073	0,067
-629,751	-200,000	-0,005	-0,116
-628,736	-55,481	-0,170	-0,056
-627,722	16,244	0,094	0,054
-626,707	-99,800	0,056	0,010
-625,692	-109,893	0,135	-0,021
-624,678	-200,000	0,002	-0,086
-623,663	-200,000	0,018	0,062
-622,649	35,893	-0,121	-0,078
-621,634	-200,000	-0,043	-0,191
-620,619	22,441	-0,027	-0,016
-619,605	417,094	0,063	0,099
-618,590	293,270	0,018	-0,025
-617,576	-110,401	-0,032	-0,005
-616,561	-86,135	-0,112	-0,025
-615,546	89,953	0,054	-0,044
-614,532	541,624	-0,067	-0,118
-613,517	-135,748	0,071	-0,006
-612,503	543,975	-0,034	0,060
-611,488	61,031	-0,114	0,083
-610,474	800,000	0,037	0,096
-609,459	24,648	0,034	-0,021
-608,444	800,000	-0,016	0,038
-607,430	-147,110	0,050	-0,003
-606,415	81,829	-0,061	0,048
-605,401	121,348	0,057	-0,052
-604,386	-116,802	0,090	0,012
-603,371	135,727	0,023	0,022
-602,357	687,641	-0,033	0,063
-601,342	253,875	-0,069	0,086
-600,328	-96,475	-0,156	-0,030
-599,313	55,000	-0,025	0,018
-598,298	382,800	-0,028	-0,042
-597,284	69,657	-0,077	0,058
-596,269	-200,000	-0,007	0,036
-595,255	-200,000	-0,006	0,120
-594,240	-200,000	-0,001	-0,092
-593,225	157,892	-0,049	-0,050
-592,211	-11,101	-0,112	-0,054
-591,196	179,808	-0,068	0,074
-590,182	17,982	0,064	0,038
-589,167	98,380	0,096	0,081
-588,152	-72,861	-0,067	-0,018
-587,138	-100,210	0,063	-0,011
-586,123	500,128	-0,010	0,017
-585,109	800,000	0,036	-0,107
-584,094	-20,177	-0,075	0,034
-583,079	-84,501	0,106	0,024
-582,065	-131,190	-0,040	-0,004
-581,050	-200,000	0,045	0,150
-580,036	-142,996	-0,113	-0,008
-579,021	-105,190	-0,053	-0,009
-578,006	213,787	-0,059	-0,069
-576,992	-63,573	0,020	-0,006
-575,977	800,000	-0,025	0,057
-574,963	213,754	-0,068	0,079
-573,948	256,779	-0,009	0,011
-572,934	87,148	-0,070	0,057
-571,919	707,454	0,046	-0,089
-570,904	212,251	-0,081	0,094
-569,890	-116,123	0,018	-0,002
-568,875	-93,894	0,065	-0,013
-567,861	-200,000	0,000	0,003
-566,846	-14,425	0,171	0,081
-565,831	-63,567	0,022	-0,007
-564,817	31,814	-0,087	0,054
-563,802	355,065	-0,074	-0,108
-562,788	-200,000	0,000	0,012
-561,773	29,221	0,044	-0,027
-560,758	146,391	0,118	0,116
-559,744	-74,370	0,107	-0,028
-558,729	-200,000	0,017	-0,072
-557,715	39,324	-0,090	-0,059
-556,700	85,969	-0,085	0,069
-555,685	91,646	-0,092	0,076
-554,671	45,999	0,055	-0,037
-553,656	-127,319	0,214	0,023
-552,642	304,187	0,030	0,041
-551,627	-134,686	-0,056	-0,005
-550,612	236,709	-0,114	-0,138
-549,598	318,470	-0,032	0,044
-548,583	18,836	0,024	0,014
-547,569	14,554	0,062	-0,035
-546,554	4,778	-0,130	-0,070
-545,539	-200,000	-0,008	-0,097
-544,525	-72,321	-0,062	-0,017
-543,510	460,558	0,064	-0,104
-542,496	-200,000	0,011	-0,123
-541,481	93,741	-0,036	-0,030
-540,466	-200,000	0,006	0,064
-539,452	-200,000	-0,028	0,239
-538,437	187,142	0,032	0,035
-537,423	-200,000	0,010	-0,097
-536,408	-200,000	-0,014	0,068
-535,393	163,630	0,096	-0,098
-534,379	96,655	-0,080	0,067
-533,364	800,000	-0,032	-0,071
-532,350	-62,547	0,145	0,044
-531,335	16,312	0,048	0,028
-530,321	4,751	0,052	-0,028
-529,306	366,513	-0,024	0,036
-528,291	264,730	0,070	0,089
-527,277	132,279	-0,043	-0,040
-526,262	388,114	-0,036	0,054
-525,248	108,320	0,087	-0,076
-524,233	-200,000	0,000	-0,116
-523,218	158,183	-0,060	-0,060
-522,204	362,428	0,042	0,061
-521,189	800,000	0,014	-0,030
-520,175	19,202	-0,081	0,047
-519,160	50,307	-0,018	0,013
-518,145	-91,543	0,039	-0,008
-517,131	-55,068	-0,144	0,047
-516,116	215,290	0,062	0,072
-515,102	93,326	-0,033	0,027
-514,087	800,000	-0,015	-0,043
-513,072	589,154	0,048	-0,088
-512,058	-200,000	0,012	-0,053
-511,043	42,757	0,144	0,096
-510,029	122,525	0,061	-0,056
-509,014	160,796	-0,072	0,074
-507,999	-150,720	0,252	-0,014
-506,985	-200,000	0,018	-0,066
-505,970	800,000	-0,081	-0,207
-504,956	171,890	-0,134	-0,141
-503,941	-49,454	0,092	0,032
-502,926	-200,000	0,019	-0,115
-501,912	-200,000	-0,009	-0,065
-500,897	-200,000	-0,057	0,189
-499,883	-91,882	-0,058	-0,012
-498,868	429,906	0,043	-0,069
-497,853	-196,141	-0,141	-0,001
-496,839	398,207	-0,044	0,067
-495,824	357,624	-0,071	-0,104
-494,810	58,810	0,042	0,030
-493,795	800,000	0,041	-0,103
-492,781	289,835	0,018	-0,024
-491,766	-200,000	0,021	-0,132
-490,751	-200,000	-0,001	-0,083
-489,737	800,000	0,034	-0,070
-488,722	-200,000	-0,036	-0,119
-487,708	800,000	-0,019	0,056
-486,693	324,896	0,016	0,022
-485,678	-179,380	0,127	0,002
-484,664	346,993	-0,075	-0,108
-483,649	800,000	-0,057	-0,135
-482,635	-60,590	0,075	0,023
-481,620	-38,880	0,023	-0,009
-480,605	800,000	0,073	0,195
-479,591	800,000	0,038	0,111
-478,576	-57,266	0,023	0,007
-477,562	37,642	-0,143	-0,092
-476,547	-200,000	0,009	0,051
-475,532	-105,000	0,081	0,013
-474,518	-200,000	0,032	-0,119
-473,503	73,650	0,080	0,061
-472,489	214,524	0,023	0,027
-471,474	-81,415	-0,046	0,011
-470,459	-200,000	-0,000	-0,021
-469,445	99,515	-0,128	-0,108
-468,430	8,653	-0,098	0,054
-467,416	42,573	-0,030	-0,020
-466,401	-149,781	0,088	-0,005
-465,386	-47,095	-0,045	0,016
-464,372	-8,586	0,151	0,074
-463,357	732,884	0,008	-0,016
-462,343	111,397	-0,026	0,023
-461,328	269,835	0,081	-0,104
-460,313	-200,000	0,023	0,086
-459,299	118,726	-0,060	0,054
-458,284	800,000	0,058	0,123
-457,270	-57,917	-0,147	0,047
-456,255	-200,000	-0,002	0,044
-455,241	-200,000	-0,011	-0,210
-454,226	800,000	-0,057	-0,128
-453,211	800,000	0,043	-0,129
-452,197	-137,335	0,026	-0,002
-451,182	-200,000	0,017	0,073
-450,168	577,102	0,036	0,065
-449,153	-129,413	0,143	-0,014
-448,138	-0,421	-0,157	-0,081
-447,124	47,741	-0,118	-0,080
-446,109	-200,000	0,057	0,244
-445,095	29,117	0,041	-0,025
-444,080	800,000	0,100	0,227
-443,065	311,431	0,046	0,064
-442,051	-200,000	0,001	-0,004
-441,036	130,360	-0,066	-0,062
-440,022	-110,099	-0,035	0,005
-439,007	-200,000	0,036	0,128
-437,992	180,788	-0,017	0,018
-436,978	-77,261	0,047	0,012
-435,963	800,000	0,035	-0,079
-434,949	781,651	-0,049	0,098
-433,934	-26,439	-0,056	0,024
-432,919	121,145	0,076	0,069
-431,905	800,000	-0,010	-0,020
-430,890	800,000	-0,030	0,066
-429,876	800,000	0,038	-0,086
-428,861	644,268	0,018	-0,033
-427,846	-84,633	-0,066	0,015
-426,832	96,597	-0,039	-0,032
-425,817	-138,716	0,197	0,015
-424,803	80,948	0,082	0,064
-423,788	398,348	-0,047	-0,072
-422,773	-21,744	-0,103	-0,046
-421,759	202,217	-0,003	0,003
-420,744	192,450	-0,047	0,052
-419,730	634,671	0,038	-0,070
-418,715	133,140	0,086	0,081
-417,701	-200,000	0,052	-0,184
-416,686	111,875	0,041	-0,036
-415,671	99,922	-0,041	-0,034
-414,657	800,000	0,042	0,131
-413,642	-200,000	-0,006	0,125
-412,628	216,147	-0,069	-0,080
-411,613	800,000	0,028	0,059
-410,598	-167,956	-0,056	-0,002
-409,584	-32,545	0,093	0,037
-408,569	-200,000	0,019	0,075
-407,555	-129,195	-0,112	-0,011
-406,540	108,313	-0,054	-0,047
-405,525	59,900	0,094	-0,067
-404,511	414,294	-0,068	0,106
-403,496	-80,257	-0,127	0,031
-402,482	-200,000	0,005	-0,019
-401,467	507,925	0,063	0,106
-400,452	-85,094	0,071	0,016
-399,438	-200,000	0,031	0,102
-398,423	-19,806	0,024	0,011
-397,409	-200,000	-0,005	-0,046
-396,394	800,000	0,020	-0,048
-395,379	-73,753	0,030	0,008
-394,365	65,537	-0,070	0,052
-393,350	-200,000	0,026	-0,150
-392,336	29,631	0,115	0,071
-391,321	-200,000	-0,002	-0,110
-390,306	-115,788	-0,070	-0,009
-389,292	800,000	-0,042	0,092
-388,277	197,984	0,022	-0,025
-387,263	-96,081	0,123	0,024
-386,248	-61,376	-0,080	-0,024
-385,233	80,952	0,016	-0,012
-384,219	407,619	-0,056	0,086
-383,204	14,026	-0,217	0,122
-382,190	-103,737	0,078	-0,013
-381,175	800,000	0,028	-0,060
-380,160	-24,805	0,064	-0,027
-379,146	-141,298	0,124	-0,009
-378,131	-200,000	0,036	-0,119
-377,117	-15,039	0,092	0,043
-376,102	174,157	0,036	0,038
-375,088	-96,499	0,031	0,006
-374,073	-5,820	0,086	-0,043
-373,058	122,092	-0,015	-0,014
-372,044	-19,920	0,085	-0,038
-371,029	-139,604	0,115	0,009
-370,015	800,000	0,086	0,185
-369,000	800,000	0,035	0,077
-367,985	-200,000	-0,005	0,029
-366,971	-200,000	0,000	-0,071
-365,956	145,238	-0,041	-0,040
-364,942	119,065	0,069	0,062
-363,927	416,447	-0,070	0,108
-362,912	-92,364	0,079	-0,016
-361,898	389,204	-0,020	-0,030
-360,883	-200,000	-0,011	-0,069
-359,869	156,393	0,068	-0,068
-358,854	295,831	0,049	0,066
-357,839	318,009	0,071	0,098
-356,825	-200,000	0,017	0,110
-355,810	239,058	0,046	0,056
-354,796	-96,482	0,124	-0,024
-353,781	-45,550	0,016	-0,006
-352,766	-115,929	-0,046	-0,006
-351,752	84,443	0,064	-0,051
-350,737	71,055	0,059	0,044
-349,723	764,371	-0,036	0,072
-348,708	47,218	-0,089	0,060
-347,693	-200,000	0,020	0,153
-346,679	527,428	-0,047	-0,081
-345,664	800,000	-0,032	-0,068
-344,650	180,328	-0,014	0,014
-343,635	-143,443	-0,075	0,005
-342,620	-200,000	0,018	0,108
-341,606	-104,518	0,032	0,005
-340,591	-200,000	0,002	0,018
-339,577	800,000	0,027	-0,065
-338,562	82,901	0,106	-0,083
-337,548	-40,908	-0,057	0,021
-336,533	-17,546	0,074	-0,034
-335,518	-100,308	0,142	0,025
-334,504	438,221	0,082	0,131
-333,489	800,000	0,029	0,061
-332,475	800,000	-0,060	-0,133
-331,460	13,182	0,058	-0,032
-330,445	800,000	-0,060	0,160
-329,431	-200,000	-0,007	-0,030
-328,416	94,238	0,080	0,066
-327,402	150,017	-0,030	0,030
-326,387	-200,000	0,021	0,113
-325,372	444,634	-0,113	0,180
-324,358	-142,160	-0,039	-0,003
-323,343	493,697	-0,024	0,041
-322,329	24,357	0,031	0,018
-321,314	567,342	-0,009	-0,017
-320,299	-200,000	0,005	0,084
-319,285	130,810	-0,046	-0,043
-318,270	800,000	-0,038	-0,099
-317,256	272,096	0,063	-0,081
-316,241	318,403	-0,004	0,005
-315,226	-20,189	0,035	0,015
-314,212	-71,919	0,097	-0,026
-313,197	70,634	-0,082	0,061
-312,183	469,732	0,068	0,111
-311,168	-200,000	-0,035	-0,173
-310,153	-170,949	-0,133	-0,003
-309,139	494,867	-0,058	0,097
-308,124	184,123	-0,077	0,083
-307,110	382,310	0,028	0,041
-306,095	-74,251	-0,037	-0,010
-305,080	-49,713	-0,079	0,027
-304,066	524,810	-0,068	0,117
-303,051	-100,223	0,052	0,009
-302,037	-200,000	0,011	-0,050
-301,022	-200,000	-0,007	0,084
-300,008	672,876	0,039	0,074
-298,993	772,806	-0,061	0,121
-297,978	-87,354	0,160	-0,035
-296,964	89,064	-0,086	-0,069
-295,949	-52,692	-0,040	-0,013
-294,935	-66,028	-0,035	-0,010
-293,920	800,000	0,045	0,111
-292,905	-83,565	0,096	0,022
-291,891	234,921	0,092	0,110
-290,876	81,693	-0,048	0,038
-289,862	17,439	-0,118	-0,068
-288,847	226,001	0,026	0,030
-287,832	777,782	-0,024	0,048
-286,818	-93,019	0,048	0,010
-285,803	158,414	-0,057	-0,057
-284,789	-200,000	0,019	0,085
-283,774	98,154	0,043	-0,036
-282,759	-70,995	0,082	0,022
-281,745	-200,000	0,005	-0,053
-280,730	800,000	0,051	-0,109
-279,716	-150,801	-0,058	0,003
-278,701	756,423	0,049	-0,097
-277,686	-31,965	0,082	0,033
-276,672	800,000	-0,031	0,080
-275,657	294,300	0,059	0,078
-274,643	286,728	-0,085	-0,111
-273,628	-61,577	-0,110	-0,033
-272,613	-146,581	0,057	-0,004
-271,599	-200,000	0,014	0,063
-270,584	70,817	-0,114	-0,085
-269,570	26,481	0,071	-0,043
-268,555	-103,408	-0,091	-0,015
-267,540	-200,000	-0,012	-0,099
-266,526	-200,000	0,017	-0,087
-265,511	-200,000	-0,005	-0,023
-264,497	800,000	0,037	0,110
-263,482	-200,000	0,018	0,061
-262,467	-8,701	0,048	-0,023
-261,453	-200,000	-0,027	0,121
-260,438	-200,000	0,019	-0,080
-259,424	130,933	-0,027	0,025
-258,409	156,835	0,033	-0,033
-257,395	-10,724	-0,126	-0,060
-256,380	597,290	0,042	-0,076
-255,365	-106,891	0,042	-0,007
-254,351	280,629	0,027	-0,035
-253,336	-200,000	0,005	-0,135
-252,322	417,500	0,028	0,044
-251,307	19,187	0,041	-0,024
-250,292	133,065	-0,068	0,064
-249,278	360,717	0,151	0,219
-248,263	-98,437	0,045	0,008
-247,249	800,000	-0,037	0,110
-246,234	-15,901	-0,085	-0,039
-245,219	317,544	-0,052	0,071
-244,205	-200,000	-0,009	-0,076
-243,190	-96,654	0,209	0,040
-242,176	800,000	0,053	-0,160
-241,161	-88,954	-0,147	-0,031
-240,146	-94,911	0,021	-0,004
-239,132	-200,000	0,014	-0,077
-238,117	126,869	0,028	-0,026
-237,103	-38,437	-0,193	0,073
-236,088	-169,316	-0,143	-0,004
-235,073	276,855	0,013	-0,017
-234,059	-200,000	0,020	0,094
-233,044	-80,207	0,078	-0,019
-232,030	-149,633	-0,043	0,002
-231,015	800,000	-0,049	-0,101
-230,000	-94,716	-0,117	-0,023
-228,986	-200,000	0,044	-0,221
-227,971	295,283	-0,033	0,043
-226,957	-200,000	-0,010	0,043
-225,942	-200,000	0,007	0,070
-224,927	-19,218	-0,066	-0,029
-223,913	661,359	0,014	-0,027
-222,898	-200,000	0,012	0,047
-221,884	800,000	-0,046	0,106
-220,869	-140,312	-0,070	0,005
-219,855	600,830	-0,043	-0,077
-218,840	23,117	-0,025	-0,015
-217,825	285,832	0,070	-0,091
-216,811	-200,000	-0,039	-0,201
-215,796	478,922	-0,066	-0,109
-214,782	3,397	0,118	-0,062
-213,767	763,167	-0,029	0,058
-212,752	-29,953	0,021	-0,008
-211,738	407,580	0,012	0,019
-210,723	-200,000	0,011	0,040
-209,709	397,483	0,030	0,046
-208,694	800,000	-0,088	-0,181
-207,679	43,987	0,013	-0,008
-206,665	-200,000	-0,028	-0,113
-205,650	800,000	-0,064	0,147
-204,636	-200,000	-0,000	-0,027
-203,621	46,464	-0,120	0,080
-202,606	146,151	-0,038	-0,037
-201,592	63,397	0,088	-0,064
-200,577	20,354	0,059	0,034
-199,563	-200,000	-0,017	-0,132
-198,548	635,174	0,023	0,042
-197,533	-12,445	0,120	-0,057
-196,519	800,000	0,037	-0,112
-195,504	800,000	0,005	0,010
-194,490	-15,538	-0,072	0,033
-193,475	-200,000	-0,001	-0,029
-192,460	-72,167	0,058	-0,016
-191,446	335,371	-0,054	-0,075
-190,431	-32,846	0,079	-0,032
-189,417	56,656	-0,054	-0,038
-188,402	239,423	0,024	0,029
-187,387	-200,000	-0,006	-0,054
-186,373	800,000	0,028	-0,069
-185,358	800,000	-0,049	0,134
-184,344	-37,391	-0,167	-0,064
-183,329	-200,000	0,005	-0,073
-182,315	91,511	0,096	0,078
-181,300	-200,000	0,017	-0,141
-180,285	188,797	-0,051	-0,055
-179,271	6,295	-0,045	-0,024
-178,256	-7,548	-0,058	0,028
-177,242	-200,000	0,007	-0,047
-176,227	-200,000	-0,015	-0,094
-175,212	347,003	-0,080	-0,114
-174,198	20,747	-0,100	0,058
-173,183	-200,000	-0,021	0,114
-172,169	-91,241	-0,007	0,002
-171,154	800,000	-0,031	-0,080
-170,139	147,414	0,092	0,090
-169,125	148,355	0,024	0,023
-168,110	116,727	0,103	0,091
-167,096	-200,000	-0,030	0,103
-166,081	14,414	-0,065	0,036
-165,066	609,534	-0,083	0,150
-164,052	-63,067	0,024	-0,007
-163,037	-8,966	0,113	-0,054
-162,023	621,917	-0,109	0,199
-161,008	-155,050	0,087	-0,004
-159,993	234,792	-0,020	0,024
-158,979	494,305	-0,065	-0,108
-157,964	-62,511	-0,164	-0,049
-156,950	-70,632	-0,165	-0,045
-155,935	-24,785	-0,159	0,068
-154,920	61,638	0,124	0,089
-153,906	247,717	0,009	0,011
-152,891	531,922	-0,018	-0,031
-151,877	-200,000	0,000	-0,046
-150,862	-50,978	-0,161	0,054
-149,847	10,532	-0,140	0,077
-148,833	202,106	-0,077	0,086
-147,818	-200,000	-0,021	0,123
-146,804	332,445	-0,071	0,099
-145,789	-23,102	0,081	-0,035
-144,775	-72,782	0,114	-0,030
-143,760	-35,935	0,089	0,035
-142,745	-200,000	0,003	-0,086
-141,731	-200,000	0,004	0,023
-140,716	800,000	-0,016	-0,039
-139,702	-66,912	0,138	0,039
-138,687	-200,000	0,018	0,083
-137,672	48,038	-0,054	-0,036
-136,658	-200,000	-0,043	-0,158
-135,643	-200,000	0,001	-0,207
-134,629	-39,089	0,065	-0,025
-133,614	-200,000	-0,009	0,029
-132,599	-200,000	-0,020	-0,105
-131,585	800,000	0,029	0,064
-130,570	233,338	-0,039	0,046
-129,556	683,938	-0,043	-0,080
-128,541	-119,508	-0,121	0,015
-127,526	-136,317	0,087	0,007
-126,512	-24,674	0,153	0,065
-125,497	-200,000	0,027	-0,099
-124,483	262,321	0,034	-0,043
-123,468	-30,160	-0,046	0,019
-122,453	32,853	-0,084	-0,052
-121,439	8,137	-0,062	0,033
-120,424	-122,168	0,047	-0,005
-119,410	89,206	-0,082	0,066
-118,395	800,000	-0,076	0,155
