DTS Sentinel unit serial number:	SN410029Multiplexer serial number:	ORYXHardware model number:	OX2-SRSoftware version number:	ORYX F/W v4,00 Oryx Data Collector v3.7.2.0data status	okinstallation	B5 Nyhavnadifferential loss correction	single-endedforward channel	channel 2reverse channel	N/Adate	2023/12/13time	02:17:13forward acquisition time	300,00reverse acquisition time	0,00gamma	499,1914k internal	0,3159k external	0,3159temperature offset calibration	1,0000default loss term (dB/km)	0,3820temperature slope calibration	1,0000multiplexer offset coefficient	1,0000multiplexer slope coefficient	1,0000fibre end	0,00T internal ref (°C)	14,02T ext. ref 1 (°C)	-2,42T ext. ref 2 (°C)	-2,72length (m)	temperature (°C)	Stokes	anti-Stokes-744,400	21,504	-0,057	0,034
-743,385	-93,831	-0,202	-0,041
-742,371	-90,132	0,116	0,025
-741,356	-116,316	-0,509	0,069
-740,342	4,073	0,190	0,102
-739,327	-60,642	-0,274	-0,085
-738,312	800,000	-0,037	-0,082
-737,298	-55,582	-0,253	-0,083
-736,283	10,970	0,164	0,092
-735,269	-99,279	-0,194	-0,036
-734,254	-200,000	0,003	0,107
-733,239	-199,414	-0,505	-0,002
-732,225	-200,000	0,191	-0,000
-731,210	-179,266	-0,098	0,002
-730,196	122,867	0,105	0,097
-729,181	-2,853	-0,120	-0,061
-728,167	800,000	0,056	0,136
-727,152	800,000	-0,017	0,036
-726,137	800,000	-0,042	-0,135
-725,123	-200,000	0,032	-0,177
-724,108	-200,000	-0,005	-0,161
-723,094	175,446	-0,158	-0,169
-722,079	-200,000	0,029	-0,124
-721,064	-200,000	0,004	0,026
-720,050	-51,941	-0,040	0,014
-719,035	767,776	-0,061	0,123
-718,021	10,044	-0,082	-0,046
-717,006	800,000	0,062	-0,138
-715,991	-200,000	0,024	-0,177
-714,977	-200,000	-0,018	-0,130
-713,962	-147,153	-0,129	0,008
-712,948	-32,390	0,020	-0,008
-711,933	-200,000	-0,044	0,152
-710,918	-200,000	-0,035	0,125
-709,904	-39,624	0,095	-0,036
-708,889	-200,000	0,004	-0,047
-707,875	-200,000	0,018	0,067
-706,860	800,000	0,033	-0,076
-705,845	-42,546	0,061	-0,023
-704,831	173,115	-0,076	-0,080
-703,816	-200,000	0,009	0,199
-702,802	800,000	0,036	0,093
-701,787	27,526	-0,038	-0,024
-700,772	192,725	0,134	0,149
-699,758	-200,000	-0,003	-0,148
-698,743	800,000	0,065	0,142
-697,729	502,960	0,108	0,185
-696,714	248,769	-0,083	0,104
-695,699	800,000	-0,021	0,061
-694,685	89,205	0,023	0,019
-693,670	-65,196	0,075	-0,022
-692,656	-152,766	-0,068	0,004
-691,641	-200,000	0,034	0,141
-690,627	-150,028	0,093	0,005
-689,612	23,336	0,022	0,013
-688,597	25,484	-0,045	-0,028
-687,583	224,561	-0,062	-0,074
-686,568	-63,265	-0,015	0,005
-685,554	520,521	0,098	0,170
-684,539	727,745	0,011	-0,021
-683,524	38,081	0,097	0,063
-682,510	287,517	0,046	0,061
-681,495	186,253	0,049	0,054
-680,481	-35,372	0,028	-0,011
-679,466	-97,116	-0,141	-0,027
-678,451	800,000	0,027	-0,067
-677,437	462,855	0,083	0,137
-676,422	21,364	-0,013	-0,008
-675,408	314,973	0,068	0,095
-674,393	178,196	0,026	-0,028
-673,378	-129,095	0,056	0,006
-672,364	-65,040	-0,068	-0,020
-671,349	147,777	-0,051	-0,051
-670,335	-33,860	-0,084	0,034
-669,320	-200,000	0,031	0,128
-668,305	-60,571	-0,066	0,020
-667,291	160,557	-0,102	0,105
-666,276	-200,000	-0,004	-0,142
-665,262	-79,672	-0,104	-0,026
-664,247	339,390	-0,045	-0,065
-663,232	-76,638	-0,111	-0,029
-662,218	354,562	0,053	0,077
-661,203	-200,000	0,011	0,100
-660,189	282,006	0,074	-0,098
-659,174	-200,000	0,038	0,199
-658,159	-200,000	0,011	-0,119
-657,145	-200,000	0,001	-0,103
-656,130	89,194	-0,054	0,044
-655,116	-155,575	0,128	0,006
-654,101	-200,000	0,026	0,099
-653,086	417,030	-0,057	0,090
-652,072	87,766	-0,077	0,062
-651,057	-200,000	0,010	0,100
-650,043	-112,498	-0,051	-0,007
-649,028	-65,305	-0,064	0,019
-648,014	498,919	0,069	-0,117
-646,999	-174,028	-0,021	0,000
-645,984	45,313	0,032	0,021
-644,970	89,674	-0,144	-0,118
-643,955	469,189	0,026	-0,043
-642,941	363,613	-0,084	0,125
-641,926	114,662	-0,106	0,095
-640,911	24,735	-0,054	-0,032
-639,897	66,024	0,017	0,013
-638,882	-80,304	-0,071	-0,017
-637,868	-153,555	0,090	-0,004
-636,853	263,553	-0,026	-0,033
-635,838	-200,000	-0,035	-0,123
-634,824	-200,000	0,007	0,031
-633,809	261,565	0,045	0,058
-632,795	472,701	-0,125	0,207
-631,780	18,855	0,199	0,117
-630,765	113,989	-0,127	-0,114
-629,751	209,635	-0,016	0,018
-628,736	19,914	0,068	-0,040
-627,722	440,099	-0,027	-0,044
-626,707	-141,830	0,172	0,012
-625,692	510,665	0,079	0,136
-624,678	236,815	-0,020	-0,024
-623,663	313,785	-0,025	-0,034
-622,649	797,243	0,033	-0,066
-621,634	-200,000	0,005	-0,030
-620,619	-200,000	-0,026	-0,160
-619,605	429,666	-0,073	0,116
-618,590	-200,000	0,016	0,069
-617,576	62,249	-0,121	0,088
-616,561	87,465	-0,110	0,090
-615,546	800,000	0,013	-0,031
-614,532	-200,000	-0,001	0,100
-613,517	170,378	-0,054	0,057
-612,503	-36,283	0,044	0,017
-611,488	800,000	0,015	0,041
-610,474	-152,009	-0,105	0,006
-609,459	-37,480	-0,084	0,033
-608,444	-6,208	-0,053	0,026
-607,430	176,316	0,034	-0,036
-606,415	800,000	0,073	-0,168
-605,401	167,781	0,045	-0,046
-604,386	70,657	-0,033	0,025
-603,371	603,605	0,034	0,063
-602,357	115,761	0,110	0,099
-601,342	-93,824	0,058	0,012
-600,328	-200,000	-0,010	-0,150
-599,313	-172,163	-0,148	0,003
-598,298	-22,559	0,085	-0,038
-597,284	-113,696	-0,047	0,007
-596,269	240,109	0,074	-0,091
-595,255	800,000	0,041	0,114
-594,240	-52,922	-0,142	-0,048
-593,225	-200,000	-0,008	0,085
-592,211	146,773	-0,053	-0,052
-591,196	-200,000	-0,009	0,034
-590,182	538,220	0,047	-0,082
-589,167	800,000	-0,019	0,041
-588,152	-115,934	-0,109	-0,015
-587,138	-200,000	-0,040	-0,179
-586,123	-12,547	-0,110	-0,052
-585,109	-74,500	-0,112	0,029
-584,094	127,618	0,113	0,105
-583,079	115,612	0,114	-0,102
-582,065	-200,000	0,005	-0,077
-581,050	118,159	-0,031	-0,028
-580,036	154,840	-0,088	-0,089
-579,021	-200,000	-0,017	-0,066
-578,006	120,069	-0,037	0,033
-576,992	-200,000	0,017	-0,147
-575,977	212,417	-0,063	0,073
-574,963	-35,405	0,115	0,046
-573,948	-130,986	-0,123	0,012
-572,934	-88,377	-0,074	-0,016
-571,919	800,000	-0,081	-0,182
-570,904	-200,000	0,003	-0,076
-569,890	-200,000	0,030	-0,118
-568,875	-200,000	-0,005	-0,023
-567,861	601,546	0,018	0,032
-566,846	339,140	-0,076	-0,109
-565,831	800,000	-0,021	0,058
-564,817	-13,480	-0,113	0,053
-563,802	-59,312	-0,202	-0,063
-562,788	784,625	0,057	-0,116
-561,773	85,391	0,078	0,063
-560,758	800,000	0,031	0,091
-559,744	800,000	0,017	0,036
-558,729	328,767	-0,023	-0,033
-557,715	-141,279	-0,189	0,014
-556,700	-195,263	-0,112	0,001
-555,685	522,714	-0,025	-0,042
-554,671	800,000	-0,048	-0,130
-553,656	242,790	0,003	-0,004
-552,642	-200,000	-0,010	0,156
-551,627	104,795	-0,114	-0,098
-550,612	-200,000	-0,002	-0,057
-549,598	-200,000	0,037	-0,171
-548,583	328,441	-0,030	0,042
-547,569	6,388	-0,040	-0,022
-546,554	-55,930	-0,063	-0,021
-545,539	-0,196	0,083	0,043
-544,525	183,173	-0,093	0,101
-543,510	-139,098	-0,125	0,010
-542,496	-127,367	0,122	-0,013
-541,481	220,992	-0,074	-0,087
-540,466	274,806	-0,036	0,047
-539,452	800,000	0,006	-0,016
-538,437	-188,220	0,114	0,001
-537,423	-200,000	-0,039	0,133
-536,408	247,481	0,053	0,066
-535,393	-131,592	0,049	-0,005
-534,379	144,396	0,065	-0,063
-533,364	-19,234	0,073	-0,033
-532,350	-200,000	-0,008	0,065
-531,335	-200,000	0,007	0,117
-530,321	-177,273	-0,064	0,001
-529,306	-70,873	0,091	0,025
-528,291	-65,157	0,124	-0,036
-527,277	-200,000	-0,007	0,090
-526,262	-55,206	-0,052	-0,017
-525,248	-27,444	0,135	0,057
-524,233	346,325	-0,029	0,042
-523,218	437,736	0,064	-0,102
-522,204	-200,000	0,003	-0,129
-521,189	355,845	0,024	-0,035
-520,175	-200,000	-0,041	-0,158
-519,160	800,000	-0,042	-0,120
-518,145	233,940	-0,066	-0,080
-517,131	-200,000	0,001	0,032
-516,116	-67,512	0,070	-0,020
-515,102	563,475	0,048	0,086
-514,087	-200,000	-0,026	0,164
-513,072	-200,000	-0,002	-0,097
-512,058	-200,000	0,009	0,061
-511,043	484,693	0,041	-0,069
-510,029	-106,053	0,034	-0,006
-509,014	681,517	0,056	0,108
-507,999	-200,000	0,034	0,128
-506,985	-54,773	0,063	0,021
-505,970	-200,000	0,012	-0,048
-504,956	68,094	-0,126	0,094
-503,941	-119,244	-0,134	0,017
-502,926	-138,317	0,080	-0,006
-501,912	800,000	0,062	0,186
-500,897	-200,000	-0,016	0,163
-499,883	800,000	0,029	-0,076
-498,868	756,920	-0,004	-0,007
-497,853	-121,260	-0,064	-0,008
-496,839	530,861	0,066	0,114
-495,824	501,982	0,014	0,024
-494,810	168,426	0,041	0,043
-493,795	-17,471	-0,094	0,043
-492,781	17,293	-0,067	-0,038
-491,766	-200,000	0,011	-0,055
-490,751	-200,000	0,029	-0,176
-489,737	747,223	-0,057	-0,112
-488,722	800,000	-0,005	0,015
-487,708	492,824	0,063	-0,105
-486,693	-18,856	-0,066	0,030
-485,678	669,169	-0,107	0,204
-484,664	-200,000	-0,019	-0,125
-483,649	-200,000	-0,000	-0,043
-482,635	-43,064	-0,074	-0,027
-481,620	-98,759	-0,097	0,018
-480,605	316,804	0,026	0,036
-479,591	509,071	0,048	0,082
-478,576	-142,326	0,079	0,006
-477,562	311,002	-0,077	-0,105
-476,547	-79,020	-0,063	0,015
-475,532	-200,000	-0,018	-0,138
-474,518	333,274	0,009	-0,013
-473,503	739,056	0,022	-0,043
-472,489	-23,290	0,088	0,039
-471,474	189,663	0,047	-0,051
-470,459	-147,008	0,105	-0,006
-469,445	97,766	-0,049	0,041
-468,430	-140,343	0,147	0,011
-467,416	25,076	0,105	-0,064
-466,401	795,400	-0,035	0,070
-465,386	800,000	-0,025	-0,064
-464,372	-200,000	0,012	0,124
-463,357	-200,000	0,006	0,061
-462,343	800,000	0,062	-0,142
-461,328	-5,516	-0,141	-0,070
-460,313	-200,000	-0,003	0,129
-459,299	83,082	0,066	0,052
-458,284	800,000	0,054	0,139
-457,270	370,084	-0,083	0,123
-456,255	153,742	-0,034	-0,034
-455,241	800,000	-0,047	-0,105
-454,226	8,198	-0,055	0,030
-453,211	229,562	0,017	0,020
-452,197	-200,000	0,005	0,090
-451,182	-200,000	-0,016	0,152
-450,168	-92,753	0,093	-0,019
-449,153	800,000	0,048	0,128
-448,138	-93,676	-0,117	0,023
-447,124	-55,752	0,064	-0,021
-446,109	210,072	0,090	0,103
-445,095	800,000	0,012	0,039
-444,080	-29,868	0,060	-0,025
-443,065	-200,000	0,001	0,116
-442,051	800,000	0,056	-0,116
-441,036	108,533	-0,092	-0,080
-440,022	68,758	-0,128	-0,096
-439,007	248,672	0,012	-0,015
-437,992	279,327	0,091	0,118
-436,978	215,280	-0,077	0,089
-435,963	-200,000	-0,033	0,129
-434,949	-200,000	0,019	0,158
-433,934	-200,000	0,001	-0,035
-432,919	390,393	0,069	0,105
-431,905	435,012	0,039	-0,062
-430,890	125,936	0,042	0,039
-429,876	89,603	0,142	-0,115
-428,861	800,000	0,059	0,148
-427,846	-6,999	0,135	0,067
-426,832	-106,528	0,016	0,003
-425,817	283,726	0,066	0,087
-424,803	-44,988	-0,057	-0,021
-423,788	192,178	0,133	-0,146
-422,773	800,000	0,057	0,149
-421,759	211,889	-0,095	0,109
-420,744	-151,701	0,028	0,001
-419,730	160,458	0,103	0,105
-418,715	310,739	-0,072	-0,099
-417,701	-95,385	0,128	-0,025
-416,686	-90,369	0,058	-0,012
-415,671	237,416	0,043	-0,051
-414,657	-108,715	-0,117	0,018
-413,642	-167,183	-0,187	0,005
-412,628	415,489	-0,096	-0,149
-411,613	677,693	0,036	-0,069
-410,598	-78,218	-0,116	-0,029
-409,584	-91,418	0,099	-0,020
-408,569	790,649	0,027	-0,054
-407,555	-106,702	0,191	0,031
-406,540	98,915	-0,044	0,037
-405,525	321,350	-0,064	0,088
-404,511	800,000	-0,053	-0,118
-403,496	233,767	0,103	-0,123
-402,482	165,033	0,089	-0,092
-401,467	214,455	0,014	0,016
-400,452	-5,321	0,043	-0,021
-399,438	-200,000	0,001	-0,013
-398,423	-103,661	0,018	-0,003
-397,409	-12,283	-0,052	-0,025
-396,394	-117,478	0,089	0,012
-395,379	96,513	-0,026	-0,022
-394,365	-200,000	0,014	0,152
-393,350	291,045	0,126	0,167
-392,336	800,000	-0,031	-0,069
-391,321	800,000	0,051	-0,122
-390,306	-91,723	-0,207	0,042
-389,292	-64,196	0,124	-0,037
-388,277	270,841	0,029	0,037
-387,263	3,048	-0,114	-0,060
-386,248	161,068	0,132	0,134
-385,233	92,893	0,034	0,028
-384,219	-200,000	0,024	0,091
-383,204	156,585	-0,046	-0,047
-382,190	-42,116	-0,061	-0,023
-381,175	-200,000	0,022	0,103
-380,160	354,761	-0,024	-0,035
-379,146	-3,908	0,075	-0,038
-378,131	14,844	0,044	-0,025
-377,117	-73,957	0,089	0,023
-376,102	132,969	-0,096	0,090
-375,088	-89,392	-0,111	-0,024
-374,073	-200,000	0,001	-0,235
-373,058	72,944	0,067	0,051
-372,044	-28,171	0,165	0,069
-371,029	-169,049	-0,069	0,002
-370,015	800,000	0,040	0,103
-369,000	60,926	0,145	0,105
-367,985	141,759	-0,049	0,047
-366,971	-115,540	0,106	-0,014
-365,956	-21,692	0,095	-0,042
-364,942	-200,000	-0,013	0,085
-363,927	618,853	0,082	0,150
-362,912	121,531	-0,040	0,036
-361,898	800,000	-0,022	-0,047
-360,883	159,546	0,051	-0,051
-359,869	-36,267	-0,027	0,011
-358,854	410,215	0,026	0,040
-357,839	502,462	-0,042	-0,070
-356,825	-200,000	-0,014	0,054
-355,810	216,262	-0,058	0,068
-354,796	92,708	-0,055	-0,045
-353,781	64,619	-0,101	-0,074
-352,766	52,679	0,092	-0,063
-351,752	-66,651	0,157	0,045
-350,737	607,916	0,098	0,179
-349,723	257,329	0,063	-0,079
-348,708	180,992	-0,091	0,097
-347,693	-97,262	-0,155	0,029
-346,679	800,000	0,035	-0,095
-345,664	800,000	-0,036	-0,078
-344,650	73,290	0,087	-0,066
-343,635	-200,000	0,017	0,104
-342,620	40,453	0,040	0,026
-341,606	-42,919	0,018	0,007
-340,591	334,657	-0,103	0,145
-339,577	-123,066	-0,152	0,018
-338,562	141,492	0,101	-0,097
-337,548	-52,309	0,047	0,016
-336,533	-200,000	-0,004	-0,016
-335,518	-17,254	0,012	-0,005
-334,504	-194,676	0,157	0,001
-333,489	800,000	-0,031	0,070
-332,475	-75,458	-0,106	-0,027
-331,460	486,403	-0,064	-0,107
-330,445	-69,142	0,038	0,011
-329,431	-200,000	0,014	-0,141
-328,416	120,008	0,093	0,084
-327,402	478,807	0,005	0,009
-326,387	-76,433	-0,183	-0,046
-325,372	-173,692	0,115	0,002
-324,358	800,000	-0,054	-0,155
-323,343	-200,000	-0,008	-0,091
-322,329	117,851	-0,051	0,045
-321,314	615,725	0,049	0,089
-320,299	-200,000	-0,009	0,103
-319,285	-200,000	-0,005	-0,035
-318,270	81,719	-0,102	-0,080
-317,256	173,228	-0,052	0,055
-316,241	800,000	0,009	-0,028
-315,226	347,135	0,020	0,029
-314,212	391,136	-0,031	-0,047
-313,197	-200,000	-0,022	0,153
-312,183	-200,000	0,005	0,127
-311,168	-200,000	-0,005	0,023
-310,153	375,705	-0,051	-0,075
-309,139	432,299	-0,069	0,109
-308,124	7,028	0,027	0,015
-307,110	-61,871	-0,067	0,020
-306,095	40,524	0,146	0,095
-305,080	-200,000	0,049	0,000
-304,066	65,017	-0,102	-0,075
-303,051	77,409	-0,057	0,044
-302,037	307,510	-0,085	0,116
-301,022	-40,872	0,048	0,018
-300,008	-10,696	-0,015	0,007
-298,993	-37,861	0,105	-0,040
-297,978	232,656	-0,064	-0,076
-296,964	-25,933	0,163	-0,069
-295,949	201,350	-0,078	0,087
-294,935	800,000	-0,063	0,155
-293,920	-31,002	-0,134	-0,055
-292,905	156,582	-0,047	0,047
-291,891	625,515	-0,032	0,059
-290,876	-200,000	-0,001	-0,026
-289,862	800,000	-0,026	0,060
-288,847	33,979	-0,177	-0,111
-287,832	301,156	0,043	0,058
-286,818	-200,000	-0,022	-0,102
-285,803	800,000	0,033	-0,078
-284,789	42,490	0,144	0,095
-283,774	-40,903	0,085	0,032
-282,759	-157,148	-0,079	-0,003
-281,745	118,388	-0,061	0,054
-280,730	482,746	-0,057	-0,094
-279,716	800,000	0,020	0,057
-278,701	176,058	-0,082	-0,086
-277,686	-110,479	-0,148	0,022
-276,672	800,000	0,067	0,202
-275,657	111,229	0,139	-0,121
-274,643	-200,000	-0,003	-0,075
-273,628	108,754	-0,093	-0,080
-272,613	-175,588	-0,104	0,002
-271,599	-57,316	-0,034	0,011
-270,584	-76,762	-0,072	0,018
-269,570	-2,835	0,073	-0,037
-268,555	-120,075	0,015	-0,002
-267,540	-200,000	-0,028	-0,107
-266,526	85,046	0,125	-0,099
-265,511	669,117	-0,036	-0,067
-264,497	-200,000	-0,019	-0,073
-263,482	-33,041	0,081	-0,032
-262,467	-152,478	0,198	-0,010
-261,453	-200,000	0,015	0,086
-260,438	-200,000	0,028	-0,163
-259,424	800,000	0,071	-0,156
-258,409	310,973	-0,076	0,103
-257,395	-200,000	0,004	-0,164
-256,380	400,363	0,015	0,023
-255,365	-200,000	0,013	-0,047
-254,351	600,271	0,040	-0,072
-253,336	-3,065	-0,053	-0,027
-252,322	800,000	-0,022	0,051
-251,307	82,986	-0,020	-0,016
-250,292	190,341	0,113	-0,122
-249,278	12,372	0,068	0,038
-248,263	-51,409	0,038	-0,013
-247,249	-128,374	-0,101	0,010
-246,234	-200,000	0,007	-0,129
-245,219	269,061	-0,049	0,063
-244,205	357,382	0,031	0,044
-243,190	271,886	0,055	-0,070
-242,176	111,832	0,059	0,052
-241,161	207,566	0,048	0,054
-240,146	331,008	0,111	-0,156
-239,132	-73,595	-0,099	0,026
-238,117	800,000	-0,065	-0,170
-237,103	323,567	-0,110	-0,152
-236,088	46,271	0,089	0,060
-235,073	78,999	-0,081	0,063
-234,059	357,286	0,013	-0,019
-233,044	-200,000	-0,022	-0,114
-232,030	50,224	0,057	-0,039
-231,015	445,349	0,082	0,131
-230,000	-200,000	-0,000	0,028
-228,986	800,000	0,027	-0,072
-227,971	77,214	0,101	-0,078
-226,957	-125,705	-0,131	-0,014
-225,942	800,000	0,038	-0,088
-224,927	-153,675	-0,022	0,001
-223,913	205,680	-0,062	0,070
-222,898	800,000	-0,082	-0,176
-221,884	200,403	0,067	0,074
-220,869	-31,904	-0,073	0,029
-219,855	428,486	0,106	-0,165
-218,840	-5,504	0,023	0,011
-217,825	-36,106	0,043	0,017
-216,811	-113,782	-0,066	-0,009
-215,796	-200,000	-0,003	0,096
-214,782	800,000	-0,013	0,036
-213,767	800,000	0,035	0,074
-212,752	107,101	-0,040	0,035
-211,738	434,123	-0,087	0,137
-210,723	57,563	0,066	-0,047
-209,709	800,000	0,040	-0,107
-208,694	276,082	0,108	0,139
-207,679	170,997	-0,058	-0,060
-206,665	-200,000	0,019	0,064
-205,650	800,000	0,033	0,086
-204,636	-72,562	-0,031	0,008
-203,621	126,448	0,111	-0,102
-202,606	-87,840	-0,039	0,008
-201,592	210,414	-0,033	0,038
-200,577	-176,403	-0,059	0,001
-199,563	-43,087	0,114	0,041
-198,548	-25,050	-0,094	0,040
-197,533	-168,798	0,152	0,004
-196,519	104,513	0,091	-0,077
-195,504	144,376	0,033	0,032
-194,490	-200,000	-0,011	0,078
-193,475	235,402	-0,033	0,039
-192,460	28,284	0,074	0,045
-191,446	-200,000	0,016	0,165
-190,431	257,912	0,068	-0,085
-189,417	-200,000	0,001	-0,002
-188,402	39,563	0,121	0,078
-187,387	-200,000	0,005	0,043
-186,373	-150,558	-0,123	0,007
-185,358	489,382	-0,081	-0,133
-184,344	172,303	0,066	0,069
-183,329	-30,531	0,091	0,037
-182,315	-200,000	0,013	0,087
-181,300	-8,698	-0,082	-0,039
-180,285	-200,000	0,005	-0,025
-179,271	163,761	0,013	-0,013
-178,256	-200,000	0,013	-0,077
-177,242	206,931	-0,087	-0,097
-176,227	-200,000	0,013	0,050
-175,212	-172,770	-0,086	-0,002
-174,198	800,000	-0,052	0,164
-173,183	570,218	0,034	-0,060
-172,169	-200,000	0,001	-0,086
-171,154	21,537	-0,146	-0,086
-170,139	80,759	0,057	0,044
-169,125	-200,000	-0,024	-0,109
-168,110	-200,000	0,001	0,027
-167,096	97,704	0,060	0,050
-166,081	-72,149	0,062	0,016
-165,066	97,646	0,084	-0,070
-164,052	241,044	0,011	-0,013
-163,037	800,000	-0,007	0,019
-162,023	563,037	-0,056	0,099
-161,008	172,358	-0,015	0,016
-159,993	-200,000	0,008	-0,082
-158,979	-19,414	0,097	-0,043
-157,964	-200,000	-0,019	-0,085
-156,950	-3,118	-0,053	-0,026
-155,935	1,338	-0,112	0,058
-154,920	487,097	-0,014	0,023
-153,906	18,480	0,052	-0,030
-152,891	4,248	-0,073	-0,038
-151,877	800,000	-0,051	0,128
-150,862	32,483	0,071	0,044
-149,847	243,535	-0,110	-0,133
-148,833	269,291	-0,058	-0,073
-147,818	129,685	0,049	0,045
-146,804	-47,294	0,051	-0,018
-145,789	800,000	0,005	-0,017
-144,775	-200,000	-0,010	-0,102
-143,760	269,826	-0,076	-0,096
-142,745	-91,611	0,052	-0,011
-141,731	-50,723	0,104	-0,035
-140,716	800,000	0,022	-0,067
-139,702	-108,284	0,125	-0,019
-138,687	451,010	0,038	-0,060
-137,672	122,410	-0,091	-0,081
-136,658	-44,874	-0,133	0,047
-135,643	-42,703	-0,053	-0,019
-134,629	109,795	-0,035	0,030
-133,614	538,004	-0,020	0,034
-132,599	36,258	-0,096	0,061
-131,585	474,713	0,070	0,113
-130,570	-145,531	-0,103	0,007
-129,556	135,902	0,056	0,053
-128,541	-200,000	0,011	-0,093
-127,526	386,067	0,062	0,093
-126,512	-200,000	-0,024	0,076
-125,497	-85,602	0,165	0,037
-124,483	-53,930	-0,085	-0,028
-123,468	-200,000	-0,012	-0,067
-122,453	800,000	-0,018	0,041
-121,439	-112,409	0,024	-0,003
-120,424	-200,000	-0,026	-0,116
-119,410	-200,000	0,005	-0,022
-118,395	17,465	0,087	0,050
