DTS Sentinel unit serial number:	SN410029Multiplexer serial number:	ORYXHardware model number:	OX2-SRSoftware version number:	ORYX F/W v4,00 Oryx Data Collector v3.7.2.0data status	okinstallation	B5 Nyhavnadifferential loss correction	single-endedforward channel	channel 2reverse channel	N/Adate	2023/12/13time	14:02:13forward acquisition time	300,00reverse acquisition time	0,00gamma	499,1914k internal	0,3161k external	0,3161temperature offset calibration	1,0000default loss term (dB/km)	0,3820temperature slope calibration	1,0000multiplexer offset coefficient	1,0000multiplexer slope coefficient	1,0000fibre end	0,00T internal ref (°C)	14,86T ext. ref 1 (°C)	-1,14T ext. ref 2 (°C)	-1,42length (m)	temperature (°C)	Stokes	anti-Stokes-744,400	-53,673	0,265	-0,089
-743,385	-48,409	-0,301	0,106
-742,371	-67,557	0,030	-0,009
-741,356	-102,553	-0,351	0,061
-740,342	-73,256	0,153	0,041
-739,327	-163,630	-0,395	-0,013
-738,312	68,632	0,179	-0,135
-737,298	-93,584	-0,379	0,076
-736,283	-122,472	0,179	0,021
-735,269	-85,514	-0,301	0,068
-734,254	244,943	0,042	0,052
-733,239	-91,448	-0,424	-0,088
-732,225	-130,612	0,136	-0,013
-731,210	204,127	-0,073	0,083
-730,196	297,808	-0,046	-0,062
-729,181	-200,000	0,005	-0,025
-728,167	-200,000	-0,025	-0,103
-727,152	800,000	-0,010	0,022
-726,137	-200,000	0,009	-0,123
-725,123	800,000	0,032	-0,074
-724,108	-200,000	-0,028	-0,097
-723,094	89,467	-0,058	-0,047
-722,079	-109,876	-0,107	0,016
-721,064	-76,957	0,090	-0,023
-720,050	-3,108	-0,093	-0,048
-719,035	39,250	0,017	-0,011
-718,021	260,586	-0,054	0,069
-717,006	18,103	0,114	-0,067
-715,991	338,637	0,045	0,064
-714,977	-93,803	-0,119	-0,024
-713,962	800,000	-0,018	0,059
-712,948	5,073	0,071	-0,038
-711,933	449,530	-0,022	0,036
-710,918	-89,742	-0,134	0,029
-709,904	637,130	-0,060	-0,113
-708,889	-97,111	-0,136	-0,026
-707,875	623,190	-0,039	-0,072
-706,860	-200,000	-0,002	0,051
-705,845	281,775	-0,038	0,050
-704,831	483,210	-0,028	0,047
-703,816	266,196	-0,058	-0,074
-702,802	767,758	0,058	0,117
-701,787	-102,782	-0,191	-0,033
-700,772	-200,000	-0,003	-0,063
-699,758	-45,081	0,100	-0,036
-698,743	800,000	-0,032	0,099
-697,729	800,000	0,036	0,076
-696,714	800,000	0,026	0,064
-695,699	-200,000	0,029	-0,136
-694,685	-200,000	0,000	-0,025
-693,670	800,000	0,034	-0,079
-692,656	-132,667	0,042	-0,004
-691,641	423,957	0,063	-0,100
-690,627	-192,553	0,045	-0,000
-689,612	-14,863	-0,076	0,036
-688,597	-136,797	0,096	0,008
-687,583	125,235	-0,131	-0,122
-686,568	123,499	0,096	0,089
-685,554	-13,694	-0,076	-0,036
-684,539	-46,171	-0,040	0,014
-683,524	4,629	0,084	0,045
-682,510	279,789	-0,094	0,123
-681,495	800,000	-0,041	-0,118
-680,481	800,000	-0,008	0,017
-679,466	-8,407	-0,111	-0,055
-678,451	299,358	0,061	0,083
-677,437	-141,040	-0,111	0,008
-676,422	800,000	-0,023	0,069
-675,408	1,263	-0,146	0,077
-674,393	-74,813	-0,045	0,012
-673,378	-200,000	-0,021	-0,158
-672,364	-129,483	0,131	0,013
-671,349	327,913	0,033	-0,046
-670,335	800,000	-0,019	-0,054
-669,320	466,343	0,067	-0,111
-668,305	-170,007	-0,081	0,002
-667,291	-41,781	-0,077	-0,029
-666,276	276,271	0,013	0,018
-665,262	-200,000	-0,017	-0,170
-664,247	-77,696	-0,048	0,012
-663,232	-19,448	0,076	-0,035
-662,218	375,644	-0,061	0,091
-661,203	43,614	-0,107	-0,072
-660,189	29,808	-0,098	-0,061
-659,174	-200,000	-0,016	0,101
-658,159	-99,212	-0,012	0,002
-657,145	-131,461	0,111	-0,011
-656,130	-200,000	-0,007	-0,081
-655,116	800,000	0,058	-0,132
-654,101	55,389	-0,074	-0,052
-653,086	-117,916	0,100	0,013
-652,072	99,023	-0,044	0,038
-651,057	4,340	-0,145	-0,078
-650,043	-200,000	0,017	0,056
-649,028	61,534	-0,064	0,046
-648,014	-15,945	0,184	-0,085
-646,999	485,529	-0,086	0,145
-645,984	-53,874	0,117	-0,039
-644,970	121,958	0,037	0,034
-643,955	304,599	0,051	-0,070
-642,941	-70,595	-0,109	-0,030
-641,926	20,742	-0,110	-0,065
-640,911	-178,665	-0,119	0,002
-639,897	800,000	-0,040	-0,109
-638,882	-188,201	0,095	-0,001
-637,868	346,750	-0,101	0,146
-636,853	253,449	-0,012	0,014
-635,838	-61,733	-0,086	-0,026
-634,824	-11,535	-0,011	-0,005
-633,809	32,972	0,036	0,023
-632,795	800,000	-0,021	0,044
-631,780	34,031	-0,081	0,052
-630,765	-106,297	-0,114	-0,018
-629,751	76,322	-0,111	-0,086
-628,736	-10,229	-0,186	-0,090
-627,722	18,097	-0,166	0,097
-626,707	-93,749	0,068	0,014
-625,692	-115,722	0,028	-0,004
-624,678	-200,000	-0,011	0,045
-623,663	-30,981	-0,108	0,044
-622,649	-3,534	-0,106	-0,054
-621,634	-200,000	-0,021	-0,086
-620,619	-200,000	0,001	-0,039
-619,605	-120,649	-0,163	-0,020
-618,590	800,000	0,022	-0,059
-617,576	-84,717	0,178	0,041
-616,561	-97,884	-0,086	0,016
-615,546	115,375	0,065	0,058
-614,532	108,722	0,057	-0,050
-613,517	-15,146	-0,028	0,013
-612,503	-100,743	0,023	-0,004
-611,488	800,000	-0,033	-0,096
-610,474	266,706	0,007	-0,009
-609,459	-143,860	-0,103	0,007
-608,444	-76,151	-0,163	0,042
-607,430	303,471	0,081	-0,111
-606,415	-200,000	-0,034	-0,121
-605,401	57,623	0,050	-0,036
-604,386	800,000	-0,035	-0,102
-603,371	56,741	0,126	0,090
-602,357	800,000	-0,046	0,102
-601,342	800,000	-0,012	-0,036
-600,328	800,000	-0,035	-0,099
-599,313	-142,069	-0,053	0,004
-598,298	64,424	0,061	0,045
-597,284	-157,042	0,184	-0,008
-596,269	58,532	-0,100	0,072
-595,255	424,607	-0,019	-0,031
-594,240	16,573	0,031	0,018
-593,225	23,402	-0,093	-0,056
-592,211	-141,409	-0,018	0,001
-591,196	121,205	0,066	-0,060
-590,182	177,747	0,110	0,118
-589,167	-200,000	-0,038	0,148
-588,152	39,234	-0,050	-0,033
-587,138	-200,000	0,028	-0,090
-586,123	39,608	-0,155	-0,102
-585,109	270,221	0,139	-0,179
-584,094	-200,000	-0,005	-0,075
-583,079	9,977	0,088	0,049
-582,065	-200,000	-0,001	-0,051
-581,050	142,864	0,011	0,010
-580,036	-200,000	-0,007	0,124
-579,021	410,571	0,045	0,070
-578,006	393,605	0,153	0,235
-576,992	800,000	-0,018	-0,039
-575,977	-200,000	-0,022	0,158
-574,963	-122,332	0,189	0,022
-573,948	394,973	0,013	-0,020
-572,934	6,029	-0,082	0,044
-571,919	20,611	0,090	0,053
-570,904	-200,000	0,006	-0,081
-569,890	495,880	-0,080	-0,135
-568,875	53,981	0,068	0,048
-567,861	109,231	0,061	0,053
-566,846	800,000	0,012	0,032
-565,831	62,901	-0,103	-0,075
-564,817	800,000	-0,016	-0,038
-563,802	152,821	-0,064	0,064
-562,788	-200,000	0,022	-0,109
-561,773	24,903	0,092	-0,056
-560,758	461,901	-0,007	0,012
-559,744	91,080	0,072	-0,059
-558,729	-71,891	-0,084	0,023
-557,715	270,774	-0,054	-0,069
-556,700	11,065	-0,142	0,079
-555,685	-200,000	-0,032	0,161
-554,671	-200,000	-0,014	-0,067
-553,656	-200,000	0,025	-0,103
-552,642	-200,000	-0,010	0,057
-551,627	107,130	-0,040	-0,035
-550,612	-120,604	-0,170	-0,021
-549,598	262,314	0,089	-0,113
-548,583	69,979	-0,147	-0,111
-547,569	800,000	-0,052	-0,132
-546,554	307,396	-0,027	0,037
-545,539	60,912	0,121	0,087
-544,525	206,240	-0,084	-0,096
-543,510	421,212	-0,029	-0,046
-542,496	294,970	0,067	-0,090
-541,481	800,000	-0,089	-0,229
-540,466	-200,000	-0,025	-0,089
-539,452	134,371	0,069	0,065
-538,437	800,000	0,037	0,089
-537,423	209,937	-0,053	-0,060
-536,408	-88,618	-0,094	0,020
-535,393	481,040	-0,045	-0,075
-534,379	-153,758	-0,190	-0,009
-533,364	800,000	0,021	-0,058
-532,350	-29,789	0,118	0,049
-531,335	-116,284	0,049	0,007
-530,321	-8,553	0,099	0,049
-529,306	-200,000	0,022	-0,140
-528,291	591,567	0,066	0,119
-527,277	17,939	-0,071	-0,041
-526,262	-200,000	-0,022	-0,082
-525,248	95,413	-0,055	-0,045
-524,233	212,865	-0,033	0,038
-523,218	558,662	0,014	0,024
-522,204	593,953	0,018	-0,032
-521,189	797,695	0,022	-0,044
-520,175	-40,002	0,123	-0,047
-519,160	-200,000	0,014	-0,091
-518,145	111,652	-0,066	0,058
-517,131	-106,671	0,077	-0,012
-516,116	800,000	-0,024	-0,077
-515,102	-40,231	0,054	-0,020
-514,087	81,016	-0,063	0,050
-513,072	87,314	-0,124	-0,100
-512,058	-42,455	-0,055	0,020
-511,043	533,205	0,041	-0,072
-510,029	800,000	-0,018	0,052
-509,014	-115,208	0,027	0,004
-507,999	800,000	0,060	0,135
-506,985	-18,712	-0,048	-0,022
-505,970	-65,305	-0,056	-0,016
-504,956	473,499	-0,033	-0,054
-503,941	-200,000	-0,002	-0,089
-502,926	89,498	-0,058	0,047
-501,912	-63,608	0,039	-0,012
-500,897	72,257	0,063	0,048
-499,883	566,717	-0,043	0,076
-498,868	269,878	-0,096	-0,123
-497,853	100,515	0,083	-0,070
-496,839	-29,145	-0,083	-0,035
-495,824	800,000	-0,028	0,082
-494,810	800,000	-0,035	0,078
-493,795	-102,509	0,131	0,023
-492,781	658,288	-0,011	-0,021
-491,766	479,013	0,044	-0,073
-490,751	-38,429	0,053	0,020
-489,737	323,139	-0,086	0,120
-488,722	-75,303	0,136	-0,035
-487,708	68,635	0,069	0,051
-486,693	768,111	-0,075	0,150
-485,678	3,636	0,042	0,022
-484,664	-94,367	-0,061	0,012
-483,649	-86,989	-0,119	0,026
-482,635	69,677	0,062	-0,047
-481,620	102,932	0,083	-0,071
-480,605	223,596	0,057	0,067
-479,591	-162,183	0,141	-0,005
-478,576	-82,918	0,018	-0,004
-477,562	207,084	0,036	-0,041
-476,547	218,104	-0,130	-0,151
-475,532	-19,796	-0,152	-0,068
-474,518	-38,734	-0,014	0,005
-473,503	-200,000	-0,002	0,039
-472,489	800,000	-0,028	0,083
-471,474	52,007	0,082	0,056
-470,459	18,172	-0,160	0,093
-469,445	178,390	0,087	0,092
-468,430	410,469	-0,039	-0,061
-467,416	-19,053	0,152	-0,068
-466,401	800,000	-0,059	0,160
-465,386	-3,520	0,080	0,040
-464,372	-42,334	0,108	0,040
-463,357	-200,000	-0,170	0,000
-462,343	-200,000	-0,015	-0,117
-461,328	216,633	0,091	-0,105
-460,313	-200,000	-0,016	-0,063
-459,299	-5,246	0,130	-0,065
-458,284	-200,000	0,002	0,037
-457,270	67,652	-0,030	0,022
-456,255	-200,000	-0,011	0,052
-455,241	-200,000	-0,005	-0,027
-454,226	639,963	0,050	0,093
-453,211	-147,699	-0,159	-0,010
-452,197	384,615	-0,027	0,041
-451,182	-4,566	0,114	0,057
-450,168	-26,460	0,051	-0,022
-449,153	553,965	-0,030	0,053
-448,138	-48,397	-0,061	-0,021
-447,124	614,134	-0,064	-0,118
-446,109	-200,000	-0,005	0,106
-445,095	-105,052	0,035	-0,006
-444,080	22,731	-0,007	-0,004
-443,065	441,430	-0,063	0,100
-442,051	88,699	-0,104	0,084
-441,036	57,602	0,036	0,026
-440,022	800,000	0,012	0,028
-439,007	-131,981	-0,108	0,010
-437,992	-200,000	0,008	0,076
-436,978	800,000	0,027	-0,088
-435,963	327,764	0,056	-0,078
-434,949	37,134	-0,120	-0,077
-433,934	372,053	-0,020	-0,029
-432,919	-19,102	-0,054	-0,024
-431,905	-111,348	0,138	0,020
-430,890	2,860	0,107	0,056
-429,876	800,000	-0,023	0,061
-428,861	-200,000	0,008	-0,043
-427,846	171,008	-0,077	0,080
-426,832	31,022	-0,117	0,073
-425,817	115,892	-0,062	-0,055
-424,803	-200,000	0,001	0,101
-423,788	-6,168	0,134	0,066
-422,773	-100,761	-0,049	0,009
-421,759	765,944	-0,012	0,025
-420,744	710,654	0,048	0,093
-419,730	-200,000	0,009	0,134
-418,715	21,378	-0,041	-0,024
-417,701	-200,000	-0,012	0,060
-416,686	29,254	0,143	0,088
-415,671	-176,228	0,052	0,001
-414,657	266,655	0,041	-0,052
-413,642	259,367	0,054	-0,068
-412,628	-119,710	0,098	-0,012
-411,613	20,015	-0,076	-0,045
-410,598	-75,193	0,118	-0,030
-409,584	112,439	0,033	-0,029
-408,569	101,726	-0,047	0,040
-407,555	-200,000	0,010	0,040
-406,540	-200,000	-0,014	-0,071
-405,525	229,024	-0,101	0,120
-404,511	83,028	0,086	-0,068
-403,496	486,779	-0,079	-0,131
-402,482	-200,000	0,029	0,124
-401,467	322,143	0,030	-0,042
-400,452	-200,000	-0,025	0,104
-399,438	-19,250	0,047	-0,021
-398,423	-200,000	-0,023	-0,131
-397,409	144,327	-0,080	-0,078
-396,394	64,225	0,054	-0,039
-395,379	-135,145	0,128	-0,011
-394,365	-107,171	-0,120	-0,019
-393,350	-200,000	-0,029	0,135
-392,336	350,808	0,076	-0,109
-391,321	-200,000	0,009	0,094
-390,306	115,121	-0,057	-0,050
-389,292	-111,047	-0,283	-0,042
-388,277	800,000	0,016	-0,044
-387,263	-44,483	-0,053	-0,019
-386,248	-200,000	0,042	0,161
-385,233	-137,874	0,115	0,009
-384,219	136,042	0,075	-0,071
-383,204	6,612	-0,056	-0,030
-382,190	-200,000	0,045	-0,212
-381,175	-200,000	-0,002	-0,055
-380,160	-102,926	-0,107	-0,018
-379,146	-200,000	0,053	0,181
-378,131	229,449	-0,037	0,044
-377,117	-161,600	-0,157	0,006
-376,102	-19,073	-0,073	-0,033
-375,088	-92,533	0,021	0,004
-374,073	-200,000	-0,004	0,081
-373,058	-200,000	0,005	0,076
-372,044	29,440	0,018	-0,011
-371,029	-200,000	0,005	-0,086
-370,015	-42,663	0,107	-0,039
-369,000	13,919	-0,070	0,040
-367,985	800,000	-0,107	-0,273
-366,971	251,944	-0,048	-0,059
-365,956	18,147	0,138	0,080
-364,942	-23,893	0,034	0,015
-363,927	800,000	-0,031	0,063
-362,912	278,450	-0,043	0,055
-361,898	107,964	0,083	0,072
-360,883	38,881	-0,074	0,048
-359,869	-7,483	-0,069	-0,034
-358,854	136,025	-0,042	-0,039
-357,839	514,103	-0,032	0,055
-356,825	155,068	0,087	-0,087
-355,810	-200,000	-0,001	0,054
-354,796	-147,389	0,114	-0,007
-353,781	-101,155	-0,081	0,014
-352,766	59,813	0,011	-0,008
-351,752	761,189	0,053	0,105
-350,737	64,283	0,102	0,074
-349,723	98,929	-0,083	0,070
-348,708	-133,609	0,110	-0,010
-347,693	131,318	-0,040	0,037
-346,679	-163,974	-0,049	0,002
-345,664	-200,000	0,001	-0,083
-344,650	476,407	-0,033	0,054
-343,635	-108,926	0,114	-0,017
-342,620	151,438	-0,025	0,025
-341,606	-200,000	-0,003	0,089
-340,591	800,000	0,017	0,053
-339,577	-153,829	0,075	-0,004
-338,562	-200,000	0,006	-0,100
-337,548	-18,406	-0,039	0,018
-336,533	-91,580	-0,131	-0,027
-335,518	546,532	0,063	0,109
-334,504	-143,751	0,075	0,005
-333,489	97,729	-0,067	0,056
-332,475	-200,000	-0,034	-0,130
-331,460	590,398	-0,078	-0,140
-330,445	270,061	-0,013	0,017
-329,431	-71,683	-0,087	-0,023
-328,416	800,000	-0,051	0,137
-327,402	168,435	0,011	0,011
-326,387	-200,000	0,010	0,044
-325,372	-37,628	-0,139	-0,053
-324,358	800,000	0,023	0,066
-323,343	-200,000	0,001	0,115
-322,329	415,499	-0,048	0,074
-321,314	-200,000	0,033	0,132
-320,299	397,605	-0,031	-0,048
-319,285	-59,808	-0,080	-0,025
-318,270	77,689	-0,021	-0,016
-317,256	403,107	0,065	-0,100
-316,241	-151,354	0,087	-0,005
-315,226	800,000	0,061	0,158
-314,212	306,791	0,062	0,083
-313,197	203,019	0,010	-0,011
-312,183	-200,000	0,028	0,131
-311,168	-200,000	-0,010	0,185
-310,153	7,961	-0,128	-0,069
-309,139	-200,000	0,007	-0,073
-308,124	-200,000	-0,006	0,103
-307,110	117,546	0,069	0,061
-306,095	428,127	0,072	0,114
-305,080	406,935	0,033	0,050
-304,066	-26,542	0,091	-0,038
-303,051	46,202	-0,116	0,077
-302,037	800,000	0,037	-0,114
-301,022	-200,000	0,003	-0,043
-300,008	148,515	0,011	0,010
-298,993	-200,000	-0,004	-0,087
-297,978	50,078	0,060	0,041
-296,964	122,290	0,093	-0,084
-295,949	152,349	-0,074	0,073
-294,935	-106,374	-0,057	0,009
-293,920	-200,000	-0,016	0,077
-292,905	-7,546	0,028	-0,014
-291,891	4,124	0,089	0,047
-290,876	800,000	0,011	0,032
-289,862	-200,000	-0,015	-0,127
-288,847	109,649	-0,072	-0,062
-287,832	-200,000	0,024	-0,136
-286,818	-170,066	0,050	-0,001
-285,803	-146,539	-0,070	-0,004
-284,789	-59,394	0,032	0,010
-283,774	-124,777	-0,099	0,011
-282,759	104,436	0,081	0,069
-281,745	-200,000	-0,010	-0,070
-280,730	-155,049	-0,109	0,005
-279,716	800,000	0,022	0,047
-278,701	-200,000	0,007	0,038
-277,686	-100,218	-0,011	-0,002
-276,672	-44,010	-0,077	0,028
-275,657	-132,317	0,137	0,013
-274,643	-200,000	-0,010	-0,091
-273,628	-55,136	0,047	0,015
-272,613	709,182	0,089	-0,170
-271,599	-22,127	0,088	-0,038
-270,584	-200,000	-0,000	-0,066
-269,570	112,725	-0,065	0,057
-268,555	800,000	-0,015	-0,036
-267,540	238,924	0,010	0,013
-266,526	-110,134	-0,139	-0,021
-265,511	118,494	-0,025	0,022
-264,497	644,765	0,034	-0,063
-263,482	-16,262	0,133	0,061
-262,467	363,453	-0,056	0,082
-261,453	29,429	0,118	-0,072
-260,438	51,024	-0,031	-0,021
-259,424	-200,000	0,005	-0,098
-258,409	407,048	-0,038	0,058
-257,395	23,636	0,121	0,072
-256,380	-200,000	-0,027	0,091
-255,365	-200,000	-0,004	0,139
-254,351	755,243	0,031	0,061
-253,336	-200,000	0,017	-0,070
-252,322	-167,658	-0,068	-0,002
-251,307	-64,135	0,179	-0,052
-250,292	800,000	0,058	0,124
-249,278	464,031	0,065	-0,105
-248,263	-200,000	0,003	0,089
-247,249	-68,019	0,123	0,034
-246,234	-4,013	-0,097	-0,048
-245,219	537,625	0,034	-0,058
-244,205	60,300	-0,052	0,037
-243,190	-70,803	-0,032	-0,009
-242,176	156,400	-0,060	-0,060
-241,161	-108,586	0,077	0,012
-240,146	800,000	0,020	0,053
-239,132	284,256	-0,015	0,020
-238,117	206,465	0,086	0,097
-237,103	-15,707	-0,093	-0,042
-236,088	800,000	0,036	0,087
-235,073	-14,841	0,089	0,041
-234,059	-107,271	-0,085	0,013
-233,044	12,624	0,093	0,052
-232,030	800,000	0,013	0,031
-231,015	25,405	-0,200	-0,120
-230,000	-200,000	0,006	-0,083
-228,986	-200,000	0,001	-0,062
-227,971	655,648	-0,026	0,048
-226,957	-104,529	0,187	-0,031
-225,942	386,002	0,080	0,119
-224,927	24,459	-0,035	0,021
-223,913	549,597	0,085	-0,147
-222,898	13,102	-0,178	-0,099
-221,884	800,000	0,030	-0,087
-220,869	106,969	-0,096	-0,082
-219,855	-31,192	-0,088	-0,035
-218,840	800,000	0,037	0,101
-217,825	-9,752	-0,037	-0,018
-216,811	86,259	-0,032	-0,026
-215,796	-116,034	0,079	-0,011
-214,782	-106,444	0,123	0,020
-213,767	-200,000	0,012	-0,237
-212,752	13,036	-0,090	-0,050
-211,738	283,545	0,061	-0,079
-210,723	-117,729	-0,089	-0,011
-209,709	52,229	0,053	-0,036
-208,694	-200,000	-0,015	-0,147
-207,679	298,591	0,025	-0,034
-206,665	-200,000	-0,001	0,034
-205,650	800,000	0,023	-0,051
-204,636	167,418	0,118	0,121
-203,621	228,108	-0,088	0,103
-202,606	254,334	0,028	0,035
-201,592	408,845	-0,085	-0,130
-200,577	800,000	0,009	-0,023
-199,563	800,000	-0,063	-0,147
-198,548	72,571	0,065	-0,049
-197,533	-3,173	-0,070	0,035
-196,519	-107,731	0,139	-0,022
-195,504	-200,000	-0,004	-0,113
-194,490	61,642	0,057	-0,041
-193,475	242,530	0,037	-0,045
-192,460	800,000	0,024	-0,053
-191,446	-200,000	-0,019	0,110
-190,431	95,872	0,025	0,021
-189,417	-118,444	-0,070	0,009
-188,402	-39,130	0,093	0,035
-187,387	-200,000	-0,011	-0,095
-186,373	209,413	-0,053	-0,060
-185,358	-200,000	-0,007	0,051
-184,344	-200,000	0,008	0,080
-183,329	800,000	0,031	0,067
-182,315	-200,000	-0,001	0,052
-181,300	589,782	0,085	0,151
-180,285	78,955	-0,026	0,020
-179,271	-200,000	0,008	0,118
-178,256	800,000	0,031	0,097
-177,242	-36,115	0,053	0,021
-176,227	-200,000	-0,001	-0,031
-175,212	264,196	0,063	0,079
-174,198	-77,226	-0,048	-0,012
-173,183	-52,179	0,068	0,023
-172,169	169,306	0,066	0,068
-171,154	-200,000	-0,011	-0,129
-170,139	82,800	0,051	0,040
-169,125	-187,040	0,143	-0,001
-168,110	800,000	0,029	0,070
-167,096	-82,177	-0,038	0,009
-166,081	374,076	-0,048	0,070
-165,066	-57,193	-0,102	0,032
-164,052	800,000	-0,020	-0,054
-163,037	215,403	0,129	0,148
-162,023	-200,000	0,031	-0,111
-161,008	-200,000	0,005	0,077
-159,993	126,268	0,073	0,066
-158,979	36,290	-0,085	0,054
-157,964	-200,000	0,019	-0,065
-156,950	-100,131	-0,140	-0,025
-155,935	28,855	0,096	-0,058
-154,920	-174,464	0,090	-0,002
-153,906	-21,104	0,113	0,049
-152,891	-80,477	0,130	-0,031
-151,877	800,000	-0,079	-0,165
-150,862	24,998	-0,106	-0,063
-149,847	207,658	-0,023	0,025
-148,833	800,000	-0,047	0,148
-147,818	-157,796	-0,088	0,004
-146,804	-200,000	-0,012	0,098
-145,789	800,000	0,034	0,081
-144,775	-71,028	-0,055	-0,015
-143,760	101,350	0,147	-0,123
-142,745	73,548	-0,125	-0,094
-141,731	-109,225	0,039	0,006
-140,716	800,000	-0,020	-0,062
-139,702	-153,092	0,037	0,002
-138,687	83,246	-0,076	0,060
-137,672	-200,000	0,019	0,094
-136,658	-200,000	-0,035	-0,150
-135,643	-200,000	0,000	0,112
-134,629	-200,000	0,017	0,291
-133,614	66,739	0,152	0,111
-132,599	788,962	0,067	0,133
-131,585	-102,071	-0,058	-0,010
-130,570	98,502	0,078	-0,065
-129,556	-200,000	0,006	-0,095
-128,541	800,000	-0,045	0,105
-127,526	100,024	0,041	-0,034
-126,512	3,265	0,111	-0,058
-125,497	402,999	0,090	0,136
-124,483	647,925	-0,047	-0,086
-123,468	-200,000	0,007	-0,047
-122,453	-200,000	-0,018	-0,087
-121,439	109,757	-0,085	-0,073
-120,424	-57,227	-0,030	-0,009
-119,410	-200,000	0,011	0,036
