DTS Sentinel unit serial number:	SN410029Multiplexer serial number:	ORYXHardware model number:	OX2-SRSoftware version number:	ORYX F/W v4,00 Oryx Data Collector v3.7.2.0data status	okinstallation	B5 Nyhavnadifferential loss correction	single-endedforward channel	channel 2reverse channel	N/Adate	2023/12/12time	16:57:13forward acquisition time	300,00reverse acquisition time	0,00gamma	499,1914k internal	0,3156k external	0,3156temperature offset calibration	1,0000default loss term (dB/km)	0,3820temperature slope calibration	1,0000multiplexer offset coefficient	1,0000multiplexer slope coefficient	1,0000fibre end	0,00T internal ref (°C)	15,77T ext. ref 1 (°C)	-0,80T ext. ref 2 (°C)	-1,10length (m)	temperature (°C)	Stokes	anti-Stokes-744,400	-17,511	0,249	0,115
-743,385	-173,694	-0,195	0,004
-742,371	206,310	0,162	0,186
-741,356	7,777	-0,348	0,191
-740,342	265,000	0,108	0,139
-739,327	-13,264	-0,267	0,127
-738,312	50,208	-0,028	0,020
-737,298	-190,246	-0,357	-0,003
-736,283	-89,441	0,098	0,021
-735,269	77,103	-0,184	0,144
-734,254	-43,990	-0,048	-0,018
-733,239	-161,066	-0,459	-0,017
-732,225	-135,621	0,212	0,018
-731,210	-7,814	0,052	0,026
-730,196	-200,000	-0,030	-0,160
-729,181	-200,000	-0,004	-0,036
-728,167	-200,000	-0,022	0,085
-727,152	348,832	-0,097	0,142
-726,137	237,604	0,060	-0,073
-725,123	800,000	-0,079	-0,164
-724,108	-200,000	-0,000	-0,160
-723,094	-200,000	-0,017	-0,064
-722,079	-73,874	0,086	0,023
-721,064	238,167	-0,116	-0,142
-720,050	267,446	0,041	-0,053
-719,035	564,278	0,025	-0,045
-718,021	-200,000	-0,001	-0,020
-717,006	800,000	0,040	-0,084
-715,991	800,000	0,009	0,025
-714,977	100,112	-0,049	-0,042
-713,962	-168,828	-0,066	0,002
-712,948	520,908	-0,059	0,103
-711,933	800,000	-0,018	-0,037
-710,918	800,000	0,020	-0,042
-709,904	-200,000	-0,032	-0,131
-708,889	-200,000	0,004	0,075
-707,875	-200,000	-0,020	-0,113
-706,860	-200,000	-0,008	0,044
-705,845	-99,323	-0,077	0,014
-704,831	568,983	0,033	0,060
-703,816	-8,000	0,032	-0,016
-702,802	-200,000	-0,018	-0,067
-701,787	-200,000	-0,010	-0,071
-700,772	-200,000	0,019	0,065
-699,758	-200,000	0,015	0,069
-698,743	-200,000	-0,009	-0,047
-697,729	-152,232	0,079	0,004
-696,714	54,839	0,081	0,057
-695,699	221,879	-0,031	-0,037
-694,685	21,599	-0,126	0,075
-693,670	-200,000	-0,010	-0,084
-692,656	-200,000	0,003	0,075
-691,641	459,154	0,012	0,020
-690,627	-200,000	-0,004	0,014
-689,612	12,172	-0,030	0,017
-688,597	94,950	0,056	0,047
-687,583	71,263	0,089	-0,068
-686,568	-200,000	0,001	0,003
-685,554	-200,000	0,017	-0,143
-684,539	144,964	0,073	-0,072
-683,524	-12,102	0,130	-0,062
-682,510	800,000	0,053	0,129
-681,495	-200,000	-0,032	0,149
-680,481	17,789	-0,027	0,016
-679,466	138,630	-0,089	-0,086
-678,451	574,165	-0,082	-0,148
-677,437	-200,000	-0,004	0,059
-676,422	768,372	0,073	0,148
-675,408	-68,708	-0,092	-0,026
-674,393	-200,000	0,035	-0,114
-673,378	-200,000	0,028	-0,133
-672,364	100,923	0,088	-0,075
-671,349	66,293	-0,072	0,054
-670,335	-200,000	-0,014	-0,107
-669,320	50,641	0,013	0,009
-668,305	47,584	0,064	-0,044
-667,291	-14,497	0,090	-0,043
-666,276	-200,000	0,006	-0,088
-665,262	311,784	0,050	-0,070
-664,247	800,000	0,050	0,138
-663,232	-103,502	-0,111	-0,019
-662,218	59,931	0,034	0,025
-661,203	324,131	-0,045	0,064
-660,189	-200,000	-0,005	0,100
-659,174	-11,928	-0,060	-0,029
-658,159	-200,000	0,009	-0,133
-657,145	-200,000	-0,005	-0,057
-656,130	742,206	0,031	0,061
-655,116	-200,000	0,006	-0,022
-654,101	-200,000	-0,008	0,041
-653,086	800,000	-0,023	-0,054
-652,072	-36,633	-0,135	0,053
-651,057	-75,634	-0,082	0,021
-650,043	188,796	-0,140	-0,155
-649,028	-200,000	0,010	-0,052
-648,014	800,000	0,033	-0,095
-646,999	-49,747	-0,158	-0,055
-645,984	4,873	0,051	-0,028
-644,970	13,988	-0,101	0,057
-643,955	-200,000	-0,044	-0,179
-642,941	-200,000	-0,007	-0,031
-641,926	-200,000	-0,015	-0,085
-640,911	387,729	-0,018	0,027
-639,897	127,553	0,085	-0,079
-638,882	-200,000	0,024	0,148
-637,868	7,027	-0,054	0,030
-636,853	-200,000	-0,044	-0,195
-635,838	234,370	-0,040	-0,049
-634,824	-200,000	-0,027	-0,194
-633,809	-28,552	0,038	-0,016
-632,795	16,127	0,050	0,029
-631,780	230,851	-0,095	-0,114
-630,765	346,304	0,043	0,062
-629,751	-200,000	-0,020	-0,159
-628,736	-64,571	-0,108	-0,032
-627,722	800,000	-0,040	0,106
-626,707	-200,000	-0,004	-0,055
-625,692	69,970	-0,085	0,064
-624,678	39,381	0,047	0,031
-623,663	319,383	0,045	-0,063
-622,649	-18,928	-0,116	-0,053
-621,634	800,000	0,020	0,055
-620,619	-200,000	-0,011	-0,193
-619,605	657,790	-0,013	-0,025
-618,590	-153,368	0,102	0,005
-617,576	-200,000	-0,020	0,139
-616,561	191,321	0,029	-0,032
-615,546	800,000	0,015	0,031
-614,532	226,018	-0,009	0,011
-613,517	515,280	-0,049	0,084
-612,503	13,930	-0,033	-0,019
-611,488	-87,825	0,063	0,014
-610,474	-116,488	-0,116	-0,015
-609,459	-21,466	-0,127	0,057
-608,444	767,464	0,072	0,144
-607,430	800,000	-0,047	-0,097
-606,415	61,496	-0,112	-0,082
-605,401	-134,197	0,123	0,011
-604,386	64,048	-0,104	0,077
-603,371	261,767	0,086	0,109
-602,357	85,743	0,110	0,089
-601,342	800,000	0,036	0,078
-600,328	593,784	0,019	-0,035
-599,313	-200,000	-0,004	-0,050
-598,298	-81,360	-0,016	0,004
-597,284	469,398	0,038	0,063
-596,269	-200,000	-0,006	0,044
-595,255	-200,000	0,040	0,142
-594,240	333,793	-0,047	-0,066
-593,225	681,120	-0,046	-0,089
-592,211	-200,000	-0,002	0,122
-591,196	-66,455	-0,170	0,049
-590,182	-53,374	0,081	-0,027
-589,167	800,000	0,066	0,140
-588,152	-58,517	-0,121	0,038
-587,138	46,437	-0,043	-0,029
-586,123	68,931	0,060	-0,045
-585,109	44,201	-0,096	-0,064
-584,094	-96,707	-0,079	0,015
-583,079	-7,214	-0,048	-0,024
-582,065	294,724	0,050	0,068
-581,050	98,236	-0,125	0,105
-580,036	-200,000	0,002	-0,032
-579,021	-8,961	0,053	0,026
-578,006	800,000	0,013	-0,040
-576,992	115,493	-0,035	0,031
-575,977	24,078	0,087	0,053
-574,963	-200,000	0,022	0,117
-573,948	388,218	0,052	-0,078
-572,934	800,000	0,027	0,075
-571,919	-200,000	-0,016	-0,124
-570,904	-25,985	0,056	0,024
-569,890	5,190	0,114	-0,062
-568,875	-106,432	-0,068	-0,011
-567,861	-29,713	-0,032	-0,013
-566,846	-3,912	0,160	0,081
-565,831	-200,000	-0,001	0,012
-564,817	-114,039	0,033	0,005
-563,802	260,544	-0,078	-0,099
-562,788	-200,000	-0,009	-0,172
-561,773	130,354	0,117	0,110
-560,758	-200,000	0,022	-0,180
-559,744	-200,000	-0,031	-0,156
-558,729	-83,124	-0,139	0,033
-557,715	-200,000	-0,009	-0,081
-556,700	800,000	-0,074	-0,160
-555,685	180,778	-0,093	-0,100
-554,671	-35,020	-0,084	-0,033
-553,656	-18,377	0,066	0,030
-552,642	595,452	-0,053	0,096
-551,627	-95,694	-0,078	0,015
-550,612	22,971	0,088	0,053
-549,598	210,104	0,066	-0,076
-548,583	-0,379	-0,048	0,025
-547,569	-200,000	0,001	0,017
-546,554	71,747	0,075	0,057
-545,539	540,716	-0,076	0,133
-544,525	21,516	-0,052	-0,031
-543,510	111,011	0,090	0,079
-542,496	-115,382	-0,065	-0,009
-541,481	135,538	-0,060	-0,057
-540,466	-200,000	-0,021	0,140
-539,452	800,000	0,076	0,222
-538,437	800,000	0,036	0,110
-537,423	-200,000	0,011	0,065
-536,408	800,000	-0,067	-0,150
-535,393	451,453	-0,095	0,154
-534,379	800,000	0,038	0,105
-533,364	49,229	-0,086	0,059
-532,350	430,598	-0,034	0,053
-531,335	800,000	0,015	0,038
-530,321	363,565	0,074	0,109
-529,306	89,170	-0,120	-0,098
-528,291	35,117	0,047	-0,030
-527,277	275,363	0,063	0,082
-526,262	800,000	-0,055	-0,165
-525,248	-67,880	0,074	-0,021
-524,233	77,373	0,070	0,055
-523,218	38,677	0,027	0,018
-522,204	-200,000	-0,004	0,089
-521,189	800,000	0,037	-0,118
-520,175	-134,171	0,046	-0,004
-519,160	-113,370	0,060	0,009
-518,145	356,750	-0,064	0,093
-517,131	-82,372	0,029	0,007
-516,116	371,231	0,065	0,097
-515,102	216,422	-0,053	-0,062
-514,087	20,423	-0,036	0,021
-513,072	108,855	0,063	0,055
-512,058	-128,442	0,066	0,007
-511,043	452,156	-0,070	-0,113
-510,029	-200,000	-0,000	0,004
-509,014	-32,720	-0,086	0,035
-507,999	395,026	-0,029	0,044
-506,985	49,898	0,063	-0,043
-505,970	289,236	-0,073	-0,096
-504,956	200,304	0,018	-0,020
-503,941	-200,000	-0,018	0,093
-502,926	348,586	0,075	-0,109
-501,912	97,663	-0,027	0,022
-500,897	-200,000	-0,008	0,103
-499,883	-30,771	-0,148	0,061
-498,868	800,000	-0,042	-0,092
-497,853	-58,818	-0,077	-0,024
-496,839	-104,212	0,095	-0,016
-495,824	-200,000	0,008	-0,037
-494,810	-80,720	0,060	0,014
-493,795	157,409	-0,062	-0,063
-492,781	4,518	-0,060	-0,032
-491,766	-15,073	0,040	-0,019
-490,751	-61,825	0,065	-0,020
-489,737	102,896	0,044	0,038
-488,722	-72,540	-0,153	-0,041
-487,708	667,260	0,052	0,099
-486,693	133,864	0,077	0,073
-485,678	-200,000	0,015	-0,189
-484,664	335,540	0,106	-0,151
-483,649	-200,000	0,009	-0,135
-482,635	-17,871	-0,158	-0,072
-481,620	88,932	0,111	0,090
-480,605	800,000	0,027	-0,056
-479,591	-200,000	-0,038	0,130
-478,576	-120,256	0,108	0,013
-477,562	-200,000	0,000	0,026
-476,547	-57,113	-0,065	0,021
-475,532	-120,767	-0,027	0,003
-474,518	-176,847	-0,057	-0,001
-473,503	-200,000	0,008	0,084
-472,489	-77,887	-0,011	0,003
-471,474	-200,000	0,030	-0,113
-470,459	800,000	-0,076	-0,158
-469,445	-110,257	-0,061	0,009
-468,430	139,037	-0,047	-0,045
-467,416	-44,261	0,021	0,008
-466,401	492,375	0,032	0,054
-465,386	-88,451	-0,142	0,031
-464,372	420,499	0,073	-0,115
-463,357	-200,000	-0,011	0,044
-462,343	753,561	-0,053	0,106
-461,328	-200,000	0,008	-0,127
-460,313	48,744	0,155	-0,106
-459,299	289,855	-0,035	0,046
-458,284	65,261	0,033	-0,024
-457,270	-20,963	-0,140	-0,062
-456,255	-47,316	-0,094	-0,033
-455,241	40,397	-0,083	0,055
-454,226	147,606	-0,093	-0,091
-453,211	31,236	-0,079	-0,049
-452,197	800,000	0,011	-0,025
-451,182	800,000	0,023	0,056
-450,168	43,028	-0,085	-0,056
-449,153	-127,394	0,125	-0,013
-448,138	55,001	-0,070	-0,050
-447,124	-115,572	-0,084	0,011
-446,109	-200,000	-0,008	0,112
-445,095	-155,929	0,207	-0,009
-444,080	-56,027	0,054	-0,017
-443,065	1,767	-0,075	-0,039
-442,051	345,443	0,082	0,118
-441,036	18,080	-0,197	-0,114
-440,022	800,000	0,017	-0,052
-439,007	-200,000	-0,042	-0,137
-437,992	-64,387	0,071	-0,021
-436,978	241,209	0,070	0,085
-435,963	35,028	0,059	0,037
-434,949	-200,000	0,019	-0,150
-433,934	238,233	0,077	0,093
-432,919	800,000	-0,034	0,074
-431,905	800,000	-0,017	-0,044
-430,890	-200,000	0,015	-0,071
-429,876	25,861	-0,068	-0,041
-428,861	191,227	-0,137	0,151
-427,846	681,701	-0,020	-0,039
-426,832	-200,000	-0,037	-0,159
-425,817	-12,336	-0,144	0,068
-424,803	237,529	-0,076	-0,092
-423,788	587,095	0,026	0,046
-422,773	8,065	0,037	0,020
-421,759	236,872	0,044	-0,054
-420,744	-200,000	0,023	-0,142
-419,730	800,000	-0,044	-0,096
-418,715	800,000	0,063	-0,145
-417,701	-200,000	-0,012	-0,057
-416,686	224,026	0,160	0,188
-415,671	800,000	0,060	0,156
-414,657	-148,169	0,099	-0,006
-413,642	-128,790	-0,087	-0,009
-412,628	-80,897	-0,130	-0,031
-411,613	56,599	-0,068	-0,048
-410,598	-200,000	-0,015	-0,206
-409,584	800,000	0,046	-0,105
-408,569	800,000	0,034	-0,102
-407,555	800,000	0,019	0,040
-406,540	-200,000	-0,020	0,095
-405,525	42,846	0,084	-0,056
-404,511	84,546	-0,066	-0,053
-403,496	-200,000	0,007	-0,041
-402,482	-124,736	0,045	-0,005
-401,467	800,000	-0,092	0,188
-400,452	-200,000	0,021	0,114
-399,438	-200,000	-0,001	0,104
-398,423	-60,241	0,005	-0,001
-397,409	-200,000	-0,007	-0,124
-396,394	19,030	0,056	-0,033
-395,379	-200,000	-0,040	0,151
-394,365	-200,000	-0,012	0,041
-393,350	618,107	0,035	-0,064
-392,336	319,786	0,050	0,069
-391,321	352,426	0,035	-0,051
-390,306	100,022	-0,077	-0,065
-389,292	381,419	-0,058	0,087
-388,277	30,020	-0,112	-0,069
-387,263	217,829	0,088	0,102
-386,248	-92,680	0,138	-0,028
-385,233	537,168	0,021	-0,036
-384,219	145,933	-0,025	0,024
-383,204	-200,000	-0,005	-0,100
-382,190	-76,307	-0,095	-0,024
-381,175	-200,000	0,028	0,128
-380,160	217,953	0,018	0,020
-379,146	-2,861	-0,076	0,038
-378,131	70,021	-0,058	-0,043
-377,117	728,603	0,049	-0,096
-376,102	527,642	0,058	-0,101
-375,088	49,677	-0,106	0,072
-374,073	135,906	0,089	-0,084
-373,058	-71,862	-0,086	-0,023
-372,044	800,000	-0,051	0,109
-371,029	-94,829	-0,135	-0,026
-370,015	338,737	-0,013	-0,018
-369,000	-200,000	-0,001	-0,142
-367,985	-200,000	0,008	0,056
-366,971	223,504	0,052	-0,061
-365,956	800,000	-0,037	-0,109
-364,942	-95,736	-0,122	0,023
-363,927	-74,030	0,070	-0,018
-362,912	123,206	-0,118	0,107
-361,898	-126,569	-0,118	-0,013
-360,883	-43,226	0,144	-0,053
-359,869	-200,000	0,004	-0,079
-358,854	489,267	0,078	0,131
-357,839	31,793	-0,052	-0,033
-356,825	-13,744	-0,134	0,063
-355,810	63,531	0,038	-0,027
-354,796	-200,000	-0,012	0,133
-353,781	-109,433	0,021	0,003
-352,766	133,324	0,099	-0,093
-351,752	224,095	0,081	-0,095
-350,737	800,000	-0,022	-0,056
-349,723	715,056	-0,065	-0,125
-348,708	71,803	0,043	-0,032
-347,693	800,000	0,022	0,059
-346,679	-200,000	-0,060	-0,192
-345,664	208,187	0,042	-0,047
-344,650	-87,148	-0,132	0,029
-343,635	-119,895	0,048	-0,006
-342,620	44,458	0,069	0,046
-341,606	78,108	0,090	0,069
-340,591	53,041	0,110	-0,077
-339,577	-106,931	-0,071	-0,011
-338,562	64,080	-0,038	-0,028
-337,548	-200,000	0,013	-0,173
-336,533	350,860	0,043	0,061
-335,518	50,900	-0,152	0,104
-334,504	-101,572	0,117	-0,020
-333,489	144,456	-0,081	0,078
-332,475	268,984	-0,048	0,061
-331,460	-200,000	0,003	-0,103
-330,445	51,727	0,021	-0,015
-329,431	-200,000	-0,028	-0,118
-328,416	84,176	0,013	0,011
-327,402	5,186	0,167	0,089
-326,387	188,124	0,037	0,040
-325,372	800,000	-0,035	0,101
-324,358	83,441	-0,040	0,032
-323,343	-200,000	0,008	-0,108
-322,329	134,221	0,116	0,109
-321,314	87,746	0,040	0,032
-320,299	-101,532	0,100	0,018
-319,285	-79,873	0,058	-0,014
-318,270	159,288	-0,083	0,084
-317,256	-28,913	-0,107	0,044
-316,241	-74,420	-0,041	0,011
-315,226	-175,917	0,137	0,003
-314,212	-92,906	0,125	0,025
-313,197	163,597	-0,024	-0,024
-312,183	-30,028	-0,098	-0,040
-311,168	-200,000	0,004	0,052
-310,153	-3,489	0,056	-0,028
-309,139	800,000	-0,054	-0,152
-308,124	-124,989	0,110	-0,012
-307,110	126,369	0,069	0,063
-306,095	75,662	0,067	0,051
-305,080	124,224	0,057	0,052
-304,066	-200,000	-0,001	-0,024
-303,051	52,094	0,066	-0,045
-302,037	80,125	0,031	-0,024
-301,022	-41,564	0,108	-0,040
-300,008	-200,000	0,017	0,099
-298,993	199,957	0,062	-0,069
-297,978	724,624	-0,064	-0,125
-296,964	471,598	-0,041	-0,068
-295,949	492,201	-0,077	0,128
-294,935	-200,000	0,017	0,105
-293,920	98,025	0,071	0,059
-292,905	-83,527	0,153	-0,035
-291,891	126,822	-0,030	0,027
-290,876	800,000	-0,060	0,127
-289,862	-59,315	0,148	-0,046
-288,847	-200,000	0,011	-0,079
-287,832	-31,641	-0,033	0,013
-286,818	-200,000	0,014	0,188
-285,803	-200,000	-0,005	0,091
-284,789	347,157	0,068	0,097
-283,774	2,444	0,038	-0,020
-282,759	41,199	0,085	-0,055
-281,745	-91,824	0,137	0,028
-280,730	-200,000	-0,014	-0,075
-279,716	-200,000	-0,005	0,266
-278,701	22,663	0,090	-0,053
-277,686	-129,385	0,226	-0,022
-276,672	-121,795	0,159	0,019
-275,657	28,460	-0,103	0,063
-274,643	-80,126	0,015	0,004
-273,628	161,126	0,012	-0,013
-272,613	434,541	0,066	-0,105
-271,599	100,004	-0,029	0,024
-270,584	-200,000	0,024	-0,112
-269,570	-200,000	-0,011	0,075
-268,555	12,467	-0,117	0,065
-267,540	272,676	-0,087	0,112
-266,526	-48,826	0,188	-0,065
-265,511	67,879	-0,082	-0,061
-264,497	56,524	0,027	0,019
-263,482	-64,520	0,045	-0,013
-262,467	-200,000	0,001	0,144
-261,453	-200,000	-0,037	0,186
-260,438	140,141	0,047	-0,045
-259,424	-144,396	-0,218	0,014
-258,409	133,574	0,132	0,124
-257,395	800,000	0,030	0,084
-256,380	-200,000	0,000	-0,039
-255,365	800,000	0,024	0,075
-254,351	706,495	-0,096	0,185
-253,336	432,751	0,042	-0,067
-252,322	-200,000	-0,013	-0,049
-251,307	-200,000	0,007	-0,146
-250,292	-200,000	-0,004	0,108
-249,278	281,140	-0,068	-0,088
-248,263	53,705	-0,024	0,017
-247,249	-137,978	0,094	-0,008
-246,234	79,817	-0,101	-0,079
-245,219	800,000	-0,028	-0,063
-244,205	-200,000	0,006	0,068
-243,190	-153,323	0,167	-0,008
-242,176	-200,000	-0,038	0,188
-241,161	-200,000	-0,008	-0,088
-240,146	-167,879	0,105	-0,003
-239,132	-59,718	-0,127	-0,039
-238,117	129,952	0,088	0,081
-237,103	-200,000	-0,007	0,036
-236,088	512,776	0,039	0,065
-235,073	277,139	0,047	-0,061
-234,059	-200,000	0,013	0,114
-233,044	800,000	-0,053	0,111
-232,030	-200,000	0,020	0,073
-231,015	235,769	0,111	-0,133
-230,000	166,683	-0,119	-0,122
-228,986	424,244	0,039	0,062
-227,971	-200,000	-0,012	0,066
-226,957	-195,153	0,133	-0,001
-225,942	-116,600	0,061	0,008
-224,927	800,000	-0,021	-0,053
-223,913	-51,564	-0,137	-0,046
-222,898	44,966	-0,088	0,058
-221,884	76,685	-0,137	-0,105
-220,869	-113,563	0,203	0,028
-219,855	800,000	-0,033	0,074
-218,840	-58,163	0,059	0,019
-217,825	800,000	0,056	0,119
-216,811	67,712	-0,135	0,099
-215,796	-200,000	-0,002	-0,130
-214,782	-200,000	-0,005	0,030
-213,767	-83,088	0,063	-0,015
-212,752	140,811	-0,028	0,026
-211,738	-62,235	0,110	0,033
-210,723	324,488	0,125	0,173
-209,709	774,029	-0,042	-0,083
-208,694	-200,000	-0,015	-0,064
-207,679	-200,000	0,020	-0,176
-206,665	-200,000	-0,001	-0,022
-205,650	6,382	-0,023	-0,012
-204,636	800,000	-0,043	0,090
-203,621	-71,672	-0,019	0,005
-202,606	306,145	-0,038	0,052
-201,592	-200,000	-0,005	-0,070
-200,577	32,217	-0,103	-0,064
-199,563	718,995	0,057	-0,109
-198,548	50,931	-0,084	0,057
-197,533	156,335	0,062	0,062
-196,519	800,000	0,065	-0,186
-195,504	261,413	-0,040	-0,050
-194,490	-42,366	-0,105	0,038
-193,475	-200,000	-0,005	0,071
-192,460	107,660	0,017	0,015
-191,446	-200,000	0,009	0,091
-190,431	-200,000	0,001	0,142
-189,417	748,875	-0,005	0,009
-188,402	-32,650	-0,080	0,032
-187,387	-8,158	-0,046	-0,022
-186,373	-200,000	-0,001	0,099
-185,358	145,214	-0,084	-0,081
-184,344	190,301	0,087	0,094
-183,329	111,408	-0,086	0,075
-182,315	-138,470	-0,046	0,004
-181,300	573,790	-0,075	0,133
-180,285	800,000	0,036	-0,077
-179,271	189,978	0,056	-0,061
-178,256	76,633	-0,006	-0,004
-177,242	-117,995	0,136	-0,017
-176,227	800,000	-0,042	-0,085
-175,212	-200,000	0,038	0,121
-174,198	800,000	0,003	-0,008
-173,183	238,232	-0,046	0,055
-172,169	384,062	0,055	-0,081
-171,154	365,652	0,031	-0,046
-170,139	120,942	0,040	0,036
-169,125	148,534	0,033	0,032
-168,110	-200,000	0,009	0,030
-167,096	43,064	-0,106	0,070
-166,081	277,199	-0,017	-0,022
-165,066	-200,000	0,026	0,095
-164,052	455,776	-0,053	-0,085
-163,037	252,359	0,123	0,152
-162,023	-10,663	0,057	0,027
-161,008	28,916	0,110	0,067
-159,993	-45,141	0,071	-0,025
-158,979	62,071	-0,115	-0,082
-157,964	111,991	-0,032	0,028
-156,950	-7,220	-0,063	-0,031
-155,935	583,736	0,025	-0,045
-154,920	800,000	-0,027	-0,072
-153,906	-200,000	0,002	-0,069
-152,891	-97,710	0,060	-0,011
-151,877	104,720	0,034	-0,029
-150,862	106,212	-0,073	-0,062
-149,847	262,317	0,040	-0,051
-148,833	99,098	-0,050	0,042
-147,818	281,328	0,056	0,073
-146,804	-19,327	0,062	-0,028
-145,789	-48,281	0,063	-0,022
-144,775	52,955	-0,011	0,008
-143,760	-13,194	-0,040	-0,019
-142,745	518,049	-0,121	-0,204
-141,731	341,937	0,088	0,124
-140,716	800,000	0,047	0,134
-139,702	800,000	-0,020	0,044
-138,687	-56,007	-0,110	-0,035
-137,672	245,093	0,055	-0,067
-136,658	524,238	-0,054	-0,092
-135,643	89,320	-0,089	0,071
-134,629	180,836	0,060	-0,063
-133,614	115,782	0,038	-0,033
-132,599	250,963	0,094	0,116
-131,585	176,081	-0,105	0,110
-130,570	800,000	-0,022	-0,052
-129,556	-25,186	0,081	-0,034
-128,541	148,358	-0,050	0,048
-127,526	-120,559	0,096	-0,012
-126,512	-61,761	-0,085	-0,025
-125,497	222,208	0,018	0,021
-124,483	-130,032	-0,039	-0,004
-123,468	578,133	-0,050	-0,089
-122,453	-49,565	-0,109	-0,037
-121,439	374,486	0,057	-0,084
-120,424	-200,000	0,006	-0,113
-119,410	606,002	0,040	-0,072
-118,395	54,833	0,069	0,048
