DTS Sentinel unit serial number:	SN410029Multiplexer serial number:	ORYXHardware model number:	OX2-SRSoftware version number:	ORYX F/W v4,00 Oryx Data Collector v3.7.2.0data status	okinstallation	B5 Nyhavnadifferential loss correction	single-endedforward channel	channel 2reverse channel	N/Adate	2023/12/12time	04:17:13forward acquisition time	300,00reverse acquisition time	0,00gamma	499,1914k internal	0,3156k external	0,3156temperature offset calibration	1,0000default loss term (dB/km)	0,3820temperature slope calibration	1,0000multiplexer offset coefficient	1,0000multiplexer slope coefficient	1,0000fibre end	0,00T internal ref (°C)	15,54T ext. ref 1 (°C)	-0,84T ext. ref 2 (°C)	-1,11length (m)	temperature (°C)	Stokes	anti-Stokes-744,400	393,523	0,070	-0,108
-743,385	-145,899	-0,180	0,012
-742,371	-12,038	0,226	-0,109
-741,356	-119,312	-0,240	0,030
-740,342	-200,000	0,035	0,133
-739,327	-70,707	-0,193	-0,053
-738,312	-23,186	0,153	-0,068
-737,298	-49,549	-0,324	0,113
-736,283	26,952	0,100	-0,062
-735,269	-104,992	-0,320	0,054
-734,254	800,000	0,029	0,066
-733,239	-77,324	-0,496	-0,126
-732,225	-69,346	0,304	0,085
-731,210	98,889	-0,053	-0,045
-730,196	800,000	0,023	-0,051
-729,181	0,991	-0,070	0,037
-728,167	-94,910	-0,071	-0,014
-727,152	800,000	-0,033	-0,093
-726,137	-200,000	-0,021	0,169
-725,123	800,000	-0,019	-0,047
-724,108	800,000	0,041	-0,100
-723,094	535,105	-0,159	-0,279
-722,079	-12,560	0,057	-0,027
-721,064	-49,335	0,116	-0,041
-720,050	800,000	-0,026	-0,072
-719,035	3,015	0,166	0,089
-718,021	-200,000	0,013	-0,070
-717,006	-200,000	-0,006	-0,084
-715,991	-99,136	-0,048	-0,009
-714,977	-200,000	0,004	-0,092
-713,962	800,000	-0,028	-0,068
-712,948	-66,214	0,063	0,018
-711,933	288,109	-0,036	0,048
-710,918	800,000	-0,047	-0,118
-709,904	800,000	0,055	-0,138
-708,889	-200,000	0,028	-0,172
-707,875	-200,000	0,013	-0,057
-706,860	-76,677	0,128	-0,033
-705,845	-38,546	-0,080	0,031
-704,831	-54,946	-0,077	0,025
-703,816	-40,649	-0,134	-0,051
-702,802	398,979	-0,020	0,031
-701,787	56,109	-0,064	-0,046
-700,772	-200,000	0,027	-0,123
-699,758	-200,000	0,014	-0,127
-698,743	-100,887	-0,024	0,004
-697,729	-26,889	0,123	-0,053
-696,714	44,275	-0,176	-0,119
-695,699	-200,000	-0,004	-0,057
-694,685	32,932	-0,093	-0,059
-693,670	-130,350	-0,042	0,004
-692,656	134,370	-0,124	-0,118
-691,641	-93,861	-0,049	-0,010
-690,627	-143,963	0,209	0,014
-689,612	67,430	-0,108	-0,081
-688,597	-113,047	0,071	-0,010
-687,583	800,000	-0,025	0,060
-686,568	12,328	-0,122	-0,069
-685,554	-200,000	-0,009	-0,050
-684,539	456,910	-0,017	-0,027
-683,524	322,762	0,061	-0,085
-682,510	-68,792	-0,078	0,022
-681,495	-200,000	-0,000	0,049
-680,481	120,815	0,031	-0,029
-679,466	445,153	0,059	0,096
-678,451	387,768	0,039	0,060
-677,437	115,543	-0,018	0,016
-676,422	69,808	-0,093	-0,071
-675,408	-64,425	-0,057	-0,017
-674,393	-24,169	-0,153	-0,067
-673,378	-23,585	-0,021	0,009
-672,364	800,000	0,028	-0,090
-671,349	-40,880	-0,054	0,021
-670,335	158,816	0,132	-0,135
-669,320	-50,254	0,037	-0,013
-668,305	-200,000	0,018	0,106
-667,291	-200,000	-0,000	-0,098
-666,276	30,578	0,106	0,067
-665,262	800,000	-0,046	-0,106
-664,247	-66,752	-0,033	0,009
-663,232	-35,056	0,059	0,023
-662,218	-200,000	-0,016	0,093
-661,203	-71,461	-0,030	-0,008
-660,189	-200,000	-0,006	-0,038
-659,174	-200,000	-0,014	0,071
-658,159	65,729	0,099	-0,074
-657,145	61,119	0,098	-0,071
-656,130	206,263	0,037	0,042
-655,116	64,420	0,042	-0,031
-654,101	-154,074	0,135	0,007
-653,086	-99,598	0,037	0,007
-652,072	-200,000	-0,033	-0,120
-651,057	15,098	-0,171	-0,098
-650,043	571,080	0,016	-0,030
-649,028	-200,000	0,022	-0,107
-648,014	800,000	-0,058	-0,150
-646,999	171,607	-0,042	0,044
-645,984	46,775	-0,052	0,035
-644,970	22,156	-0,124	0,074
-643,955	137,417	-0,067	-0,064
-642,941	-200,000	-0,011	-0,105
-641,926	271,378	0,081	-0,105
-640,911	-200,000	0,047	0,158
-639,897	-200,000	0,002	-0,079
-638,882	353,975	0,043	-0,063
-637,868	76,055	0,117	0,091
-636,853	51,597	-0,069	0,048
-635,838	33,376	-0,153	-0,097
-634,824	165,274	-0,087	-0,090
-633,809	17,843	-0,182	-0,106
-632,795	800,000	0,053	-0,121
-631,780	524,801	0,058	0,101
-630,765	53,361	-0,061	0,043
-629,751	612,150	0,084	-0,154
-628,736	800,000	-0,034	-0,082
-627,722	100,492	0,041	-0,035
-626,707	-200,000	0,022	-0,097
-625,692	-200,000	0,004	0,029
-624,678	73,415	-0,114	-0,087
-623,663	255,872	-0,044	0,056
-622,649	27,843	-0,038	0,024
-621,634	142,094	0,078	-0,076
-620,619	-200,000	-0,032	-0,195
-619,605	150,255	-0,116	0,115
-618,590	800,000	0,009	-0,029
-617,576	800,000	-0,011	-0,034
-616,561	36,115	-0,151	0,097
-615,546	-200,000	-0,011	-0,082
-614,532	56,135	0,057	0,041
-613,517	-2,003	-0,069	-0,036
-612,503	65,683	-0,057	0,042
-611,488	28,572	0,096	0,060
-610,474	9,166	-0,080	-0,044
-609,459	197,772	0,032	-0,036
-608,444	-200,000	-0,021	-0,148
-607,430	164,452	0,059	-0,062
-606,415	161,375	-0,088	-0,091
-605,401	89,412	-0,094	-0,077
-604,386	-200,000	0,023	-0,092
-603,371	-88,728	-0,100	0,022
-602,357	800,000	0,025	0,069
-601,342	2,641	-0,144	-0,076
-600,328	-200,000	0,028	-0,146
-599,313	-200,000	-0,045	0,182
-598,298	-72,618	0,145	-0,039
-597,284	-162,300	0,073	0,003
-596,269	122,312	0,027	-0,024
-595,255	-45,767	-0,077	0,028
-594,240	-83,771	0,097	0,023
-593,225	-11,799	-0,037	0,018
-592,211	-47,587	-0,094	-0,033
-591,196	237,072	0,076	-0,092
-590,182	-35,545	0,159	-0,063
-589,167	56,790	0,127	0,090
-588,152	-123,112	-0,060	-0,007
-587,138	800,000	-0,018	0,056
-586,123	-45,837	-0,080	-0,029
-585,109	0,850	-0,057	0,030
-584,094	-76,495	0,069	-0,018
-583,079	800,000	-0,032	-0,085
-582,065	151,709	-0,071	0,071
-581,050	-66,247	-0,064	0,018
-580,036	465,355	-0,018	-0,030
-579,021	-70,035	0,103	0,029
-578,006	275,948	0,082	-0,107
-576,992	71,402	0,074	-0,056
-575,977	800,000	0,027	0,073
-574,963	24,847	0,105	0,064
-573,948	-132,680	0,078	-0,007
-572,934	141,096	-0,072	0,070
-571,919	-200,000	-0,029	0,112
-570,904	-5,188	-0,106	-0,053
-569,890	490,993	-0,043	0,072
-568,875	119,605	0,096	0,087
-567,861	-105,759	0,094	0,015
-566,846	738,676	-0,057	-0,112
-565,831	-181,253	0,125	0,002
-564,817	-200,000	-0,001	-0,032
-563,802	-21,718	-0,099	0,044
-562,788	-39,632	0,086	0,033
-561,773	-74,509	-0,109	0,029
-560,758	800,000	0,051	0,131
-559,744	17,777	0,138	0,080
-558,729	118,732	-0,074	0,067
-557,715	800,000	-0,039	-0,088
-556,700	800,000	-0,025	0,054
-555,685	800,000	-0,051	0,106
-554,671	-126,397	-0,063	0,007
-553,656	800,000	-0,030	0,094
-552,642	-200,000	0,055	0,189
-551,627	-46,275	0,103	0,037
-550,612	10,909	-0,041	0,023
-549,598	-135,202	-0,077	-0,007
-548,583	-107,344	0,172	-0,027
-547,569	44,331	-0,040	0,027
-546,554	-8,473	0,076	-0,037
-545,539	-200,000	-0,015	-0,069
-544,525	-136,463	-0,087	0,007
-543,510	-200,000	-0,000	0,011
-542,496	704,481	-0,038	-0,073
-541,481	-200,000	-0,005	-0,040
-540,466	338,835	-0,019	0,026
-539,452	-200,000	0,033	0,113
-538,437	-200,000	0,005	0,120
-537,423	-200,000	0,003	-0,105
-536,408	36,054	0,143	-0,092
-535,393	29,619	-0,052	-0,033
-534,379	87,201	-0,070	-0,056
-533,364	361,542	-0,046	-0,068
-532,350	-200,000	0,011	0,038
-531,335	800,000	0,042	-0,088
-530,321	800,000	0,051	0,163
-529,306	246,900	-0,106	0,131
-528,291	-200,000	0,006	0,060
-527,277	173,444	0,062	0,065
-526,262	-200,000	0,003	0,025
-525,248	527,430	0,044	-0,076
-524,233	-44,482	-0,032	-0,012
-523,218	-200,000	0,003	-0,056
-522,204	220,139	0,037	0,043
-521,189	800,000	-0,037	-0,102
-520,175	165,832	-0,028	-0,029
-519,160	-98,231	0,136	-0,025
-518,145	-200,000	0,019	-0,064
-517,131	-8,102	0,169	0,083
-516,116	602,406	0,034	0,063
-515,102	142,670	0,042	0,041
-514,087	208,314	0,178	0,203
-513,072	132,802	0,017	0,016
-512,058	-200,000	-0,014	-0,083
-511,043	-200,000	0,020	-0,068
-510,029	-70,709	-0,075	-0,020
-509,014	16,686	-0,041	0,024
-507,999	800,000	-0,065	0,171
-506,985	-15,642	-0,041	0,019
-505,970	800,000	-0,075	-0,194
-504,956	-30,333	0,080	-0,033
-503,941	222,319	-0,080	0,094
-502,926	-76,233	0,121	-0,031
-501,912	58,623	0,141	0,101
-500,897	-117,089	-0,052	-0,007
-499,883	469,149	0,071	-0,117
-498,868	-200,000	0,041	-0,203
-497,853	349,379	-0,108	-0,156
-496,839	-82,609	0,082	0,019
-495,824	31,290	0,073	-0,046
-494,810	328,075	0,072	0,101
-493,795	7,683	0,093	-0,051
-492,781	-200,000	-0,008	-0,057
-491,766	-106,707	-0,116	-0,019
-490,751	-200,000	0,019	0,121
-489,737	196,152	-0,037	-0,041
-488,722	5,096	-0,150	-0,081
-487,708	43,174	-0,073	-0,049
-486,693	89,181	-0,013	0,011
-485,678	-200,000	0,014	0,065
-484,664	-200,000	-0,002	-0,024
-483,649	800,000	-0,028	0,076
-482,635	-106,088	0,064	-0,010
-481,620	800,000	0,023	0,053
-480,605	-35,911	0,122	0,048
-479,591	-200,000	-0,014	0,123
-478,576	-34,790	0,100	-0,040
-477,562	19,196	-0,079	-0,046
-476,547	-15,887	0,096	-0,044
-475,532	59,553	0,054	-0,039
-474,518	534,171	0,010	0,017
-473,503	-117,778	0,179	0,023
-472,489	-200,000	-0,001	0,080
-471,474	126,143	-0,087	-0,080
-470,459	651,224	-0,047	-0,089
-469,445	253,621	0,012	0,015
-468,430	-121,818	0,114	-0,014
-467,416	277,027	-0,068	0,089
-466,401	-200,000	0,001	0,028
-465,386	51,600	-0,109	0,076
-464,372	-200,000	-0,007	0,022
-463,357	532,627	-0,046	-0,079
-462,343	4,723	0,126	-0,067
-461,328	-87,257	-0,148	-0,032
-460,313	-200,000	-0,029	0,134
-459,299	800,000	0,003	0,008
-458,284	800,000	-0,070	0,187
-457,270	2,789	-0,114	-0,060
-456,255	138,636	0,075	0,072
-455,241	800,000	-0,024	0,078
-454,226	-200,000	0,014	0,094
-453,211	-200,000	0,013	0,064
-452,197	315,041	0,070	-0,097
-451,182	97,639	-0,058	-0,048
-450,168	-21,544	0,100	0,044
-449,153	800,000	-0,033	-0,070
-448,138	-200,000	-0,013	0,073
-447,124	800,000	0,015	-0,033
-446,109	-24,780	0,046	0,020
-445,095	-52,753	0,045	0,015
-444,080	-92,336	-0,114	-0,023
-443,065	292,886	0,049	0,065
-442,051	734,209	-0,064	0,125
-441,036	18,662	0,132	-0,077
-440,022	-200,000	-0,022	0,140
-439,007	-200,000	-0,010	-0,113
-437,992	-200,000	-0,016	-0,142
-436,978	800,000	-0,034	-0,084
-435,963	-8,004	0,071	0,035
-434,949	3,212	0,042	-0,022
-433,934	-60,198	-0,064	0,020
-432,919	-200,000	-0,009	0,035
-431,905	61,196	0,053	-0,038
-430,890	-57,549	-0,087	0,028
-429,876	243,261	-0,037	0,045
-428,861	191,594	-0,077	0,085
-427,846	17,594	-0,037	-0,021
-426,832	-49,206	-0,115	0,040
-425,817	-200,000	-0,017	-0,126
-424,803	139,781	0,071	0,068
-423,788	-91,514	0,183	0,038
-422,773	564,776	0,080	0,142
-421,759	-200,000	0,015	-0,108
-420,744	800,000	0,030	0,066
-419,730	-200,000	-0,005	0,134
-418,715	800,000	-0,038	-0,101
-417,701	-200,000	0,020	0,089
-416,686	800,000	0,039	0,093
-415,671	-200,000	-0,015	-0,076
-414,657	123,817	0,024	0,022
-413,642	-44,326	-0,041	-0,015
-412,628	-79,123	-0,066	-0,016
-411,613	-109,498	-0,077	0,012
-410,598	800,000	-0,016	-0,049
-409,584	-159,227	-0,080	-0,003
-408,569	256,107	0,115	0,143
-407,555	-71,926	-0,113	0,030
-406,540	-200,000	-0,022	-0,075
-405,525	800,000	0,024	0,073
-404,511	359,407	-0,055	-0,080
-403,496	-200,000	0,003	-0,041
-402,482	800,000	0,029	0,070
-401,467	-200,000	-0,010	-0,068
-400,452	220,066	-0,018	0,021
-399,438	-13,284	-0,004	-0,002
-398,423	-200,000	-0,004	-0,048
-397,409	69,039	-0,012	-0,009
-396,394	-200,000	0,012	0,046
-395,379	-200,000	-0,006	0,142
-394,365	-146,824	-0,140	-0,009
-393,350	15,671	0,105	0,060
-392,336	-200,000	-0,003	-0,077
-391,321	401,229	-0,009	0,014
-390,306	-77,272	0,066	-0,017
-389,292	-152,622	0,156	-0,008
-388,277	-155,371	-0,052	0,002
-387,263	610,932	-0,043	0,079
-386,248	170,725	0,050	0,052
-385,233	-170,900	-0,108	0,003
-384,219	-85,126	0,094	0,021
-383,204	-200,000	0,036	-0,159
-382,190	-200,000	-0,010	-0,093
-381,175	127,058	0,109	-0,101
-380,160	391,607	0,075	0,114
-379,146	256,162	0,033	-0,041
-378,131	-135,547	0,074	-0,006
-377,117	-200,000	-0,001	-0,006
-376,102	-127,151	-0,060	0,006
-375,088	-200,000	-0,001	0,050
-374,073	-27,890	0,104	-0,044
-373,058	441,969	0,121	0,193
-372,044	-200,000	0,005	0,038
-371,029	-60,255	0,097	0,030
-370,015	181,517	-0,008	-0,009
-369,000	534,568	0,050	0,087
-367,985	101,227	-0,069	-0,059
-366,971	-149,964	-0,053	0,003
-365,956	800,000	-0,024	0,073
-364,942	20,885	0,066	0,039
-363,927	-200,000	0,122	0,000
-362,912	800,000	-0,017	-0,048
-361,898	383,279	-0,063	0,095
-360,883	-200,000	0,001	0,118
-359,869	545,910	0,053	-0,093
-358,854	95,630	-0,043	-0,036
-357,839	800,000	0,081	0,227
-356,825	338,321	0,050	0,071
-355,810	-124,600	0,044	-0,005
-354,796	363,855	-0,041	0,060
-353,781	379,539	0,029	0,044
-352,766	445,345	-0,128	-0,206
-351,752	800,000	0,017	-0,049
-350,737	-22,357	0,060	0,026
-349,723	289,416	-0,010	0,014
-348,708	-116,530	0,037	0,005
-347,693	-109,804	0,110	0,017
-346,679	-93,062	-0,152	-0,030
-345,664	-18,502	-0,064	0,029
-344,650	-38,519	0,058	-0,022
-343,635	383,941	-0,086	0,130
-342,620	79,064	0,045	-0,035
-341,606	800,000	-0,044	-0,090
-340,591	786,174	0,010	-0,020
-339,577	-200,000	0,000	0,022
-338,562	-112,515	-0,189	0,027
-337,548	-200,000	0,008	0,130
-336,533	83,486	0,105	0,083
-335,518	-122,238	0,105	-0,012
-334,504	75,337	-0,060	-0,046
-333,489	800,000	0,065	-0,178
-332,475	-80,259	-0,157	-0,038
-331,460	82,845	0,073	0,057
-330,445	-115,647	-0,050	0,007
-329,431	481,836	-0,021	0,035
-328,416	800,000	-0,048	0,113
-327,402	-17,756	0,201	0,091
-326,387	307,205	-0,052	-0,071
-325,372	-69,490	-0,072	0,020
-324,358	-43,535	-0,083	0,030
-323,343	-168,374	-0,157	-0,004
-322,329	-200,000	0,001	-0,040
-321,314	-40,453	-0,035	0,013
-320,299	-139,508	-0,046	0,003
-319,285	800,000	0,035	0,074
-318,270	-99,137	-0,030	0,005
-317,256	281,609	-0,044	0,057
-316,241	-165,321	-0,109	-0,003
-315,226	633,370	0,037	-0,069
-314,212	-123,897	-0,048	-0,005
-313,197	-130,366	-0,080	0,008
-312,183	-15,590	0,149	0,069
-311,168	6,866	-0,152	-0,082
-310,153	106,892	-0,020	0,018
-309,139	-96,023	-0,033	0,006
-308,124	-200,000	0,012	-0,069
-307,110	-200,000	0,011	-0,039
-306,095	-88,883	0,146	0,031
-305,080	11,389	0,067	0,037
-304,066	355,413	0,032	0,046
-303,051	223,494	0,148	-0,173
-302,037	207,890	0,054	-0,062
-301,022	-200,000	-0,004	0,105
-300,008	-78,919	0,053	0,013
-298,993	-200,000	-0,006	-0,086
-297,978	-176,098	-0,065	0,001
-296,964	-200,000	0,046	-0,179
-295,949	-200,000	-0,022	-0,130
-294,935	154,668	0,047	-0,047
-293,920	10,919	0,100	0,055
-292,905	-161,504	0,029	-0,001
-291,891	-200,000	0,007	0,065
-290,876	-153,466	-0,028	-0,001
-289,862	-38,217	-0,008	0,003
-288,847	11,986	-0,101	0,056
-287,832	2,686	0,097	0,051
-286,818	-200,000	-0,020	-0,116
-285,803	-200,000	0,010	-0,105
-284,789	-173,892	0,159	-0,003
-283,774	-10,611	-0,049	0,023
-282,759	-28,428	-0,050	-0,021
-281,745	800,000	-0,059	-0,124
-280,730	-96,685	0,069	-0,013
-279,716	-30,228	-0,049	-0,020
-278,701	-40,522	0,111	0,041
-277,686	94,691	0,055	-0,046
-276,672	800,000	0,047	0,100
-275,657	262,946	0,058	0,073
-274,643	800,000	0,030	-0,090
-273,628	-142,384	-0,190	-0,013
-272,613	-200,000	0,005	-0,022
-271,599	-200,000	0,012	0,038
-270,584	-14,216	-0,036	0,017
-269,570	-200,000	-0,018	-0,124
-268,555	71,526	-0,136	-0,102
-267,540	-24,087	0,141	-0,061
-266,526	800,000	-0,026	0,071
-265,511	-43,835	-0,028	0,010
-264,497	800,000	-0,039	0,102
-263,482	800,000	-0,058	0,118
-262,467	100,430	0,100	-0,084
-261,453	-51,127	-0,128	-0,043
-260,438	-200,000	-0,001	0,114
-259,424	55,276	0,082	-0,057
-258,409	196,551	-0,027	-0,030
-257,395	153,204	0,118	0,117
-256,380	205,484	0,061	0,069
-255,365	-191,279	0,140	0,001
-254,351	800,000	-0,024	0,049
-253,336	80,131	-0,057	-0,045
-252,322	-166,188	-0,188	0,006
-251,307	800,000	-0,027	-0,084
-250,292	221,706	0,011	-0,013
-249,278	756,456	0,060	0,118
-248,263	50,408	0,046	0,031
-247,249	-95,048	-0,114	-0,022
-246,234	254,581	0,037	0,046
-245,219	98,270	0,057	-0,048
-244,205	355,058	-0,068	-0,098
-243,190	235,354	-0,078	0,094
-242,176	50,521	0,059	0,040
-241,161	21,312	0,070	0,041
-240,146	-89,562	-0,101	0,021
-239,132	-118,061	-0,078	0,010
-238,117	28,991	-0,050	0,030
-237,103	-200,000	-0,007	0,103
-236,088	-49,826	-0,101	-0,035
-235,073	385,641	0,037	-0,056
-234,059	-38,789	0,189	0,072
-233,044	-200,000	-0,009	-0,064
-232,030	-200,000	-0,042	0,141
-231,015	285,874	-0,073	-0,096
-230,000	122,163	0,054	-0,049
-228,986	-133,904	-0,071	0,006
-227,971	150,926	0,041	0,040
-226,957	-6,752	-0,104	-0,051
-225,942	326,201	0,030	0,041
-224,927	-90,345	-0,051	-0,011
-223,913	-200,000	-0,001	-0,142
-222,898	-200,000	-0,004	-0,039
-221,884	800,000	0,051	-0,159
-220,869	485,480	-0,049	-0,081
-219,855	800,000	0,041	0,105
-218,840	129,817	-0,049	0,045
-217,825	-200,000	-0,035	-0,143
-216,811	800,000	0,015	-0,032
-215,796	800,000	0,037	0,110
-214,782	-45,886	-0,066	0,023
-213,767	-41,301	-0,021	0,008
-212,752	20,836	-0,066	0,039
-211,738	-49,539	-0,045	0,015
-210,723	653,760	-0,034	0,062
-209,709	775,473	0,023	-0,046
-208,694	133,891	-0,183	0,171
-207,679	-25,378	0,056	0,024
-206,665	-16,777	0,130	0,059
-205,650	90,506	-0,154	0,124
-204,636	800,000	-0,053	0,110
-203,621	374,100	0,074	0,109
-202,606	-27,723	-0,123	-0,051
-201,592	185,207	-0,114	-0,123
-200,577	800,000	-0,016	-0,048
-199,563	595,334	0,045	-0,080
-198,548	-21,457	-0,029	0,013
-197,533	92,829	0,024	-0,019
-196,519	-27,201	-0,120	0,050
-195,504	-87,122	-0,142	0,031
-194,490	505,276	0,062	0,104
-193,475	71,791	-0,042	-0,032
-192,460	349,649	-0,085	0,122
-191,446	643,780	-0,084	0,155
-190,431	55,238	0,077	0,053
-189,417	-12,204	0,081	0,038
-188,402	371,982	0,067	-0,099
-187,387	49,910	0,060	-0,041
-186,373	800,000	0,044	-0,123
-185,358	240,622	0,090	-0,108
-184,344	-200,000	-0,018	0,116
-183,329	-200,000	0,006	0,117
-182,315	-200,000	0,013	-0,067
-181,300	800,000	0,008	0,021
-180,285	-88,349	-0,109	-0,023
-179,271	-110,914	0,107	0,016
-178,256	-9,709	-0,136	0,065
-177,242	-16,917	0,074	-0,033
-176,227	-200,000	0,004	0,168
-175,212	-39,920	0,058	-0,022
-174,198	-97,050	0,168	-0,031
-173,183	-200,000	0,004	-0,122
-172,169	-200,000	0,014	-0,082
-171,154	800,000	-0,029	-0,073
-170,139	-200,000	0,005	-0,035
-169,125	800,000	-0,017	-0,049
-168,110	-161,351	-0,081	0,003
-167,096	534,109	-0,048	-0,083
-166,081	-8,037	-0,021	0,010
-165,066	101,191	0,021	-0,018
-164,052	544,384	0,060	-0,104
-163,037	439,185	-0,030	0,048
-162,023	57,590	0,134	-0,094
-161,008	800,000	0,059	-0,130
-159,993	498,671	0,042	0,070
-158,979	44,062	-0,102	-0,068
-157,964	304,255	0,058	-0,078
-156,950	800,000	-0,050	-0,136
-155,935	-110,860	0,046	0,007
-154,920	520,307	0,031	-0,052
-153,906	-157,242	0,060	-0,003
-152,891	800,000	-0,052	-0,139
-151,877	-118,927	0,148	-0,019
-150,862	-200,000	-0,013	0,063
-149,847	172,738	-0,020	-0,020
-148,833	163,279	0,050	-0,051
-147,818	-72,453	0,066	-0,017
-146,804	-200,000	-0,028	0,202
-145,789	-200,000	0,009	-0,059
-144,775	-190,298	-0,073	0,001
-143,760	-200,000	0,006	0,030
-142,745	109,366	0,056	0,048
-141,731	50,314	0,081	0,055
-140,716	800,000	0,051	-0,147
-139,702	32,969	0,018	-0,011
-138,687	493,935	-0,011	0,018
-137,672	-80,931	-0,062	-0,015
-136,658	-200,000	-0,039	-0,175
-135,643	478,714	-0,087	-0,143
-134,629	-40,095	0,092	0,034
-133,614	800,000	0,024	-0,070
-132,599	-100,340	-0,057	-0,010
-131,585	-167,770	-0,021	0,001
-130,570	-200,000	0,002	-0,108
-129,556	-200,000	0,004	-0,026
-128,541	668,693	-0,093	-0,173
-127,526	800,000	0,033	-0,067
-126,512	-64,100	-0,136	-0,040
-125,497	-118,216	0,186	0,024
-124,483	-0,426	-0,088	0,045
-123,468	-1,903	-0,090	-0,045
-122,453	362,030	0,042	-0,060
-121,439	-200,000	-0,052	0,000
-120,424	88,158	-0,041	0,033
-119,410	800,000	0,033	-0,086
