DTS Sentinel unit serial number:	SN410029Multiplexer serial number:	ORYXHardware model number:	OX2-SRSoftware version number:	ORYX F/W v4,00 Oryx Data Collector v3.7.2.0data status	okinstallation	B5 Nyhavnadifferential loss correction	single-endedforward channel	channel 2reverse channel	N/Adate	2023/12/11time	21:52:13forward acquisition time	300,00reverse acquisition time	0,00gamma	499,1914k internal	0,3156k external	0,3156temperature offset calibration	1,0000default loss term (dB/km)	0,3820temperature slope calibration	1,0000multiplexer offset coefficient	1,0000multiplexer slope coefficient	1,0000fibre end	0,00T internal ref (°C)	16,27T ext. ref 1 (°C)	0,17T ext. ref 2 (°C)	-0,06length (m)	temperature (°C)	Stokes	anti-Stokes-744,400	25,346	0,180	0,110
-743,385	-143,661	-0,255	0,018
-742,371	800,000	0,038	0,084
-741,356	-125,333	-0,282	0,031
-740,342	-200,000	-0,017	-0,090
-739,327	131,298	-0,150	0,142
-738,312	54,812	0,056	-0,039
-737,298	-74,479	-0,469	-0,124
-736,283	800,000	-0,056	0,163
-735,269	-123,627	-0,212	0,024
-734,254	564,765	0,093	0,167
-733,239	-109,502	-0,454	-0,070
-732,225	-30,854	0,135	-0,056
-731,210	-91,689	-0,040	-0,008
-730,196	-200,000	0,016	-0,060
-729,181	14,030	-0,059	0,034
-728,167	800,000	0,020	-0,045
-727,152	800,000	-0,060	-0,136
-726,137	42,181	0,063	-0,042
-725,123	381,676	-0,120	-0,182
-724,108	-47,462	0,003	-0,001
-723,094	-6,343	-0,175	-0,088
-722,079	277,405	-0,037	-0,049
-721,064	-20,285	-0,086	-0,039
-720,050	-86,939	0,032	-0,007
-719,035	-200,000	0,003	0,048
-718,021	-19,480	-0,040	0,018
-717,006	34,181	-0,110	-0,071
-715,991	39,871	-0,137	0,090
-714,977	-200,000	-0,034	-0,117
-713,962	-62,452	-0,116	0,035
-712,948	-124,309	-0,080	-0,009
-711,933	-200,000	0,031	-0,150
-710,918	2,050	0,015	0,008
-709,904	-39,842	-0,072	0,027
-708,889	-141,082	-0,091	-0,007
-707,875	432,400	0,032	-0,051
-706,860	173,270	-0,122	-0,130
-705,845	-200,000	0,001	0,012
-704,831	144,180	-0,063	-0,062
-703,816	15,369	0,085	-0,049
-702,802	42,163	-0,086	0,058
-701,787	-200,000	0,009	-0,129
-700,772	-88,784	-0,137	-0,030
-699,758	800,000	0,018	-0,040
-698,743	215,957	-0,055	0,064
-697,729	800,000	-0,006	0,018
-696,714	800,000	0,023	-0,060
-695,699	-200,000	0,003	-0,057
-694,685	-200,000	0,017	-0,092
-693,670	800,000	-0,047	-0,146
-692,656	22,648	0,080	0,048
-691,641	-200,000	0,003	0,174
-690,627	800,000	-0,041	0,087
-689,612	29,943	-0,051	-0,032
-688,597	-192,159	0,069	-0,000
-687,583	800,000	-0,036	-0,096
-686,568	800,000	-0,034	0,077
-685,554	-200,000	-0,001	0,029
-684,539	-200,000	0,021	-0,080
-683,524	-200,000	-0,004	0,059
-682,510	-26,449	-0,044	0,019
-681,495	176,474	-0,082	0,088
-680,481	800,000	0,010	-0,030
-679,466	-1,766	-0,107	-0,055
-678,451	-200,000	0,027	-0,108
-677,437	79,186	-0,029	0,023
-676,422	-69,757	0,120	0,034
-675,408	800,000	0,030	0,067
-674,393	-200,000	0,014	0,097
-673,378	176,336	-0,061	-0,066
-672,364	77,189	0,064	-0,050
-671,349	143,864	0,062	-0,060
-670,335	-14,545	0,131	0,062
-669,320	-128,552	-0,065	-0,007
-668,305	-111,505	0,143	-0,021
-667,291	-6,237	-0,031	-0,015
-666,276	-92,789	-0,048	-0,010
-665,262	-200,000	-0,007	-0,068
-664,247	56,296	-0,012	0,008
-663,232	-11,284	-0,148	-0,072
-662,218	-149,396	-0,027	-0,002
-661,203	800,000	0,061	0,192
-660,189	755,724	-0,054	0,107
-659,174	800,000	-0,047	-0,104
-658,159	214,927	-0,107	-0,124
-657,145	-200,000	0,004	-0,060
-656,130	-200,000	-0,033	-0,138
-655,116	274,790	-0,069	-0,089
-654,101	-9,626	-0,043	-0,021
-653,086	49,127	-0,069	-0,048
-652,072	-107,021	-0,063	0,010
-651,057	800,000	-0,014	0,042
-650,043	-169,263	-0,047	0,001
-649,028	-200,000	-0,000	0,024
-648,014	-200,000	0,045	0,155
-646,999	-200,000	0,009	-0,073
-645,984	-82,503	0,108	0,025
-644,970	-200,000	0,002	-0,131
-643,955	-200,000	-0,007	-0,055
-642,941	386,948	-0,006	-0,010
-641,926	800,000	0,017	-0,056
-640,911	52,884	0,099	0,069
-639,897	540,796	-0,080	0,141
-638,882	-200,000	0,013	0,060
-637,868	-6,035	-0,165	-0,083
-636,853	-200,000	0,011	-0,120
-635,838	36,592	-0,049	-0,031
-634,824	-200,000	-0,018	0,105
-633,809	-15,567	0,053	0,025
-632,795	-200,000	-0,001	0,100
-631,780	-58,588	-0,108	0,034
-630,765	-200,000	-0,001	0,155
-629,751	23,203	-0,186	-0,112
-628,736	-145,425	0,059	-0,004
-627,722	247,003	0,019	-0,023
-626,707	426,429	-0,076	-0,120
-625,692	-71,042	0,111	0,030
-624,678	-23,091	-0,088	-0,039
-623,663	-26,417	-0,022	-0,010
-622,649	324,281	-0,114	-0,160
-621,634	405,917	0,045	0,069
-620,619	-111,480	0,103	0,015
-619,605	414,493	0,022	-0,035
-618,590	800,000	0,011	0,024
-617,576	43,020	0,139	-0,093
-616,561	122,120	-0,129	0,118
-615,546	-101,606	-0,079	-0,014
-614,532	43,043	0,064	-0,043
-613,517	35,367	-0,033	-0,021
-612,503	-200,000	-0,017	0,071
-611,488	-60,154	-0,117	0,036
-610,474	385,135	-0,002	0,003
-609,459	33,563	0,185	-0,118
-608,444	-70,597	-0,091	0,025
-607,430	191,225	-0,084	-0,093
-606,415	-200,000	-0,006	-0,031
-605,401	-200,000	0,000	-0,036
-604,386	-200,000	-0,033	-0,172
-603,371	-16,082	0,105	0,049
-602,357	156,283	0,036	0,036
-601,342	-200,000	0,018	-0,117
-600,328	-200,000	-0,005	-0,081
-599,313	-200,000	0,038	-0,169
-598,298	19,241	0,086	0,050
-597,284	431,494	-0,034	0,054
-596,269	275,522	0,108	-0,141
-595,255	-107,795	0,180	-0,028
-594,240	102,772	-0,015	0,013
-593,225	-115,349	-0,108	-0,015
-592,211	86,631	-0,072	0,058
-591,196	120,782	-0,086	0,079
-590,182	-200,000	-0,008	0,064
-589,167	800,000	0,020	0,062
-588,152	316,965	-0,040	0,056
-587,138	-40,455	0,089	0,034
-586,123	702,731	-0,068	-0,131
-585,109	-146,224	-0,035	0,002
-584,094	-200,000	0,029	-0,188
-583,079	453,782	0,078	0,128
-582,065	113,983	-0,044	-0,039
-581,050	54,120	-0,013	0,009
-580,036	127,607	0,045	0,042
-579,021	-24,047	-0,157	-0,069
-578,006	103,472	0,111	-0,095
-576,992	459,018	0,097	0,159
-575,977	187,229	-0,080	0,088
-574,963	-16,314	-0,051	0,024
-573,948	800,000	0,059	0,184
-572,934	-61,082	0,130	0,040
-571,919	-143,551	-0,119	0,008
-570,904	17,459	-0,009	0,005
-569,890	-200,000	-0,011	-0,051
-568,875	-59,090	0,084	-0,026
-567,861	12,808	-0,158	0,089
-566,846	-119,753	0,094	-0,012
-565,831	27,695	-0,038	-0,023
-564,817	-34,915	-0,056	-0,022
-563,802	376,868	-0,065	-0,098
-562,788	272,651	0,133	-0,172
-561,773	-7,525	0,055	-0,027
-560,758	-200,000	-0,017	0,159
-559,744	366,117	0,111	0,164
-558,729	-98,835	0,196	-0,036
-557,715	-170,878	-0,125	0,003
-556,700	470,369	-0,075	0,124
-555,685	97,112	-0,046	0,039
-554,671	141,316	-0,017	-0,016
-553,656	-96,081	0,090	0,017
-552,642	16,996	0,112	0,065
-551,627	-123,014	-0,034	-0,004
-550,612	241,971	-0,037	-0,046
-549,598	636,258	-0,090	0,168
-548,583	-200,000	-0,013	-0,046
-547,569	654,233	0,039	-0,074
-546,554	255,336	-0,038	0,048
-545,539	415,659	-0,024	-0,038
-544,525	800,000	-0,027	0,074
-543,510	67,413	0,076	-0,057
-542,496	177,986	-0,080	-0,086
-541,481	94,501	-0,067	-0,056
-540,466	-39,300	0,042	0,016
-539,452	-5,027	0,071	0,036
-538,437	329,272	0,084	-0,119
-537,423	87,787	0,137	0,111
-536,408	-200,000	-0,008	0,043
-535,393	800,000	-0,094	-0,203
-534,379	26,430	0,093	0,057
-533,364	346,988	-0,057	-0,082
-532,350	-49,756	0,015	-0,005
-531,335	-200,000	0,021	0,091
-530,321	-15,877	0,097	0,045
-529,306	-80,102	-0,161	-0,039
-528,291	778,863	-0,034	-0,069
-527,277	162,654	0,029	0,030
-526,262	-200,000	-0,025	0,146
-525,248	432,904	-0,051	-0,081
-524,233	268,788	0,052	-0,067
-523,218	45,551	0,057	0,038
-522,204	-73,358	0,106	0,028
-521,189	-200,000	-0,005	-0,079
-520,175	309,708	-0,067	0,092
-519,160	-10,228	0,201	-0,097
-518,145	75,215	0,096	-0,074
-517,131	489,410	0,044	0,074
-516,116	-32,767	0,154	-0,062
-515,102	10,041	0,111	0,062
-514,087	-150,821	0,100	-0,005
-513,072	144,132	-0,055	-0,054
-512,058	-200,000	-0,002	-0,104
-511,043	-110,851	-0,042	0,006
-510,029	-68,476	0,050	0,014
-509,014	102,562	0,076	0,065
-507,999	53,250	-0,087	0,061
-506,985	320,417	0,087	0,121
-505,970	-200,000	0,015	-0,093
-504,956	-200,000	-0,020	-0,085
-503,941	264,882	0,093	0,119
-502,926	17,820	-0,084	0,049
-501,912	208,537	0,051	0,058
-500,897	79,781	0,087	-0,068
-499,883	800,000	-0,040	0,116
-498,868	-77,766	-0,049	-0,012
-497,853	-49,597	-0,117	0,040
-496,839	-171,935	-0,049	0,001
-495,824	-30,277	-0,041	0,017
-494,810	43,131	0,030	0,020
-493,795	-84,667	0,083	-0,019
-492,781	-99,990	-0,122	0,022
-491,766	-44,537	-0,081	0,030
-490,751	800,000	0,014	-0,036
-489,737	145,703	-0,060	0,059
-488,722	-200,000	-0,015	0,052
-487,708	800,000	0,039	0,105
-486,693	-134,541	-0,074	0,007
-485,678	16,314	-0,115	-0,066
-484,664	-200,000	0,003	-0,053
-483,649	52,232	-0,080	-0,056
-482,635	800,000	-0,051	0,134
-481,620	497,023	0,107	0,180
-480,605	800,000	-0,031	-0,068
-479,591	-125,494	0,112	-0,012
-478,576	438,949	0,037	-0,059
-477,562	-142,520	-0,151	0,011
-476,547	192,081	-0,017	-0,018
-475,532	77,519	-0,047	0,037
-474,518	-8,621	0,061	0,030
-473,503	800,000	-0,048	0,111
-472,489	-200,000	-0,006	0,027
-471,474	-200,000	0,007	-0,028
-470,459	63,231	-0,021	-0,016
-469,445	-144,407	-0,152	0,010
-468,430	406,998	-0,042	-0,066
-467,416	-37,060	0,054	0,021
-466,401	329,035	-0,054	-0,077
-465,386	49,289	-0,097	-0,067
-464,372	113,396	-0,064	-0,057
-463,357	18,671	0,021	0,012
-462,343	-39,895	0,062	-0,023
-461,328	-178,343	0,074	-0,001
-460,313	353,690	0,007	0,009
-459,299	139,288	0,017	-0,017
-458,284	49,873	0,084	0,058
-457,270	-107,133	-0,082	-0,013
-456,255	71,839	0,119	-0,090
-455,241	-11,160	-0,062	0,030
-454,226	-200,000	-0,008	-0,035
-453,211	691,923	0,075	0,145
-452,197	-171,372	-0,075	0,002
-451,182	800,000	0,043	0,100
-450,168	156,179	0,085	0,086
-449,153	635,360	0,026	0,048
-448,138	800,000	-0,037	0,101
-447,124	-200,000	-0,007	0,025
-446,109	197,076	-0,086	0,096
-445,095	31,195	0,147	-0,092
-444,080	127,296	0,050	-0,047
-443,065	116,423	-0,103	0,092
-442,051	33,071	0,089	-0,056
-441,036	-94,151	-0,127	0,025
-440,022	283,780	-0,057	-0,075
-439,007	-38,606	0,184	0,070
-437,992	202,911	0,028	0,032
-436,978	453,493	0,091	0,147
-435,963	238,856	-0,036	0,043
-434,949	-62,119	0,022	-0,007
-433,934	-158,308	0,019	0,001
-432,919	-72,456	-0,108	0,029
-431,905	-200,000	0,028	-0,092
-430,890	-200,000	-0,016	0,095
-429,876	-61,906	0,028	0,008
-428,861	-20,776	0,077	0,034
-427,846	650,230	0,035	0,066
-426,832	743,000	-0,041	-0,080
-425,817	-200,000	-0,033	-0,158
-424,803	-200,000	-0,020	-0,072
-423,788	131,767	0,076	0,071
-422,773	-123,111	0,132	0,015
-421,759	-200,000	0,014	0,077
-420,744	30,153	0,057	-0,035
-419,730	-126,375	-0,023	-0,002
-418,715	64,581	-0,082	-0,060
-417,701	-26,309	-0,078	-0,033
-416,686	23,494	-0,079	-0,047
-415,671	70,364	-0,038	-0,029
-414,657	-81,544	0,098	0,023
-413,642	551,084	-0,062	0,108
-412,628	-200,000	0,002	-0,059
-411,613	-158,974	0,092	0,004
-410,598	800,000	-0,044	-0,104
-409,584	5,068	-0,052	-0,028
-408,569	-200,000	0,051	0,216
-407,555	-127,098	0,060	0,006
-406,540	89,463	-0,019	-0,016
-405,525	-104,944	0,093	0,015
-404,511	-112,438	-0,133	0,019
-403,496	107,516	0,040	0,035
-402,482	27,085	-0,083	0,051
-401,467	800,000	0,037	-0,090
-400,452	151,379	0,057	-0,057
-399,438	-146,736	0,050	0,003
-398,423	800,000	0,038	0,112
-397,409	168,122	-0,090	0,094
-396,394	89,353	-0,047	-0,038
-395,379	370,871	0,037	0,055
-394,365	133,605	0,076	0,072
-393,350	-200,000	-0,013	0,042
-392,336	-161,826	-0,085	0,003
-391,321	-200,000	-0,020	0,138
-390,306	-79,659	-0,175	-0,043
-389,292	-200,000	0,005	-0,052
-388,277	182,667	-0,108	0,116
-387,263	-103,268	0,078	0,013
-386,248	-76,293	0,066	0,017
-385,233	-70,976	-0,104	0,028
-384,219	-200,000	-0,013	-0,093
-383,204	15,062	-0,079	-0,045
-382,190	-200,000	-0,005	0,048
-381,175	749,633	0,007	0,015
-380,160	-47,666	-0,086	-0,030
-379,146	-175,852	-0,122	-0,002
-378,131	-125,942	0,117	0,013
-377,117	-10,725	0,014	-0,007
-376,102	140,394	-0,077	0,074
-375,088	-200,000	0,006	0,065
-374,073	198,107	-0,079	0,088
-373,058	118,404	-0,041	-0,037
-372,044	130,134	0,098	-0,091
-371,029	-173,661	0,114	-0,002
-370,015	10,675	0,075	-0,042
-369,000	173,170	-0,156	-0,164
-367,985	79,583	-0,049	-0,038
-366,971	-137,314	-0,090	0,007
-365,956	800,000	0,022	-0,050
-364,942	-50,063	0,159	-0,054
-363,927	-34,200	-0,131	-0,052
-362,912	800,000	-0,028	-0,087
-361,898	275,672	-0,071	0,091
-360,883	-1,926	-0,117	0,060
-359,869	-122,257	-0,181	0,021
-358,854	-200,000	0,005	0,035
-357,839	800,000	0,024	-0,072
-356,825	-137,136	0,147	-0,012
-355,810	206,246	-0,059	-0,067
-354,796	0,857	-0,072	-0,038
-353,781	372,341	0,073	-0,108
-352,766	401,861	0,056	0,086
-351,752	-42,111	0,075	-0,028
-350,737	140,831	0,081	-0,078
-349,723	-79,372	0,082	-0,020
-348,708	-113,892	-0,025	-0,004
-347,693	-200,000	0,018	0,119
-346,679	-25,467	-0,125	-0,054
-345,664	42,588	-0,091	-0,060
-344,650	800,000	-0,025	-0,058
-343,635	-56,074	-0,185	0,060
-342,620	-200,000	-0,020	0,096
-341,606	294,982	-0,079	-0,105
-340,591	578,792	-0,140	-0,250
-339,577	800,000	-0,060	0,123
-338,562	-62,911	0,085	-0,025
-337,548	-102,391	0,040	-0,007
-336,533	93,385	-0,077	-0,063
-335,518	745,171	-0,085	-0,168
-334,504	407,368	-0,086	-0,133
-333,489	800,000	-0,073	-0,231
-332,475	-200,000	0,006	0,032
-331,460	-200,000	0,006	-0,062
-330,445	-200,000	-0,009	-0,040
-329,431	-200,000	0,022	0,105
-328,416	-200,000	-0,013	0,191
-327,402	125,116	0,116	0,106
-326,387	800,000	0,025	-0,061
-325,372	-200,000	-0,027	-0,101
-324,358	-200,000	0,002	-0,115
-323,343	-80,417	0,144	-0,034
-322,329	-43,160	0,066	-0,024
-321,314	139,542	0,096	0,091
-320,299	4,294	0,065	0,034
-319,285	-200,000	-0,011	-0,081
-318,270	-82,230	0,209	0,049
-317,256	-156,244	-0,129	0,006
-316,241	310,143	-0,038	0,052
-315,226	-141,138	-0,096	0,007
-314,212	145,675	0,074	0,072
-313,197	238,100	-0,061	-0,073
-312,183	66,788	0,135	0,100
-311,168	179,146	-0,148	-0,157
-310,153	203,960	0,085	-0,096
-309,139	-200,000	0,020	-0,177
-308,124	303,107	0,056	-0,075
-307,110	356,306	0,019	-0,027
-306,095	-118,343	0,148	-0,019
-305,080	-140,974	-0,115	-0,008
-304,066	677,510	-0,028	-0,054
-303,051	-75,764	0,050	-0,013
-302,037	614,423	0,049	0,089
-301,022	48,167	0,046	0,031
-300,008	46,446	-0,108	0,072
-298,993	-200,000	0,006	-0,079
-297,978	-90,550	0,104	-0,022
-296,964	-25,959	0,102	-0,043
-295,949	-100,169	-0,071	-0,013
-294,935	-10,567	-0,091	0,044
-293,920	-17,557	-0,146	0,066
-292,905	-200,000	0,014	-0,057
-291,891	-200,000	0,024	0,103
-290,876	174,085	0,042	0,044
-289,862	354,187	0,035	0,051
-288,847	-200,000	0,034	-0,121
-287,832	8,851	-0,090	-0,049
-286,818	663,579	-0,032	-0,060
-285,803	57,759	-0,039	0,027
-284,789	742,483	0,023	0,044
-283,774	-24,234	-0,124	-0,053
-282,759	402,909	-0,083	-0,127
-281,745	-84,373	0,012	0,003
-280,730	-104,263	-0,159	-0,027
-279,716	25,094	0,040	-0,024
-278,701	-124,336	0,171	-0,019
-277,686	-164,881	0,178	-0,006
-276,672	-67,542	0,053	0,015
-275,657	-200,000	-0,003	-0,015
-274,643	-2,324	-0,083	-0,042
-273,628	-200,000	-0,019	-0,066
-272,613	304,597	-0,076	0,102
-271,599	-200,000	0,030	0,155
-270,584	-2,708	0,077	-0,039
-269,570	507,148	0,048	0,081
-268,555	-170,270	-0,055	0,001
-267,540	53,240	-0,036	-0,025
-266,526	272,992	0,029	-0,038
-265,511	318,383	0,074	0,102
-264,497	-200,000	0,000	-0,016
-263,482	-57,678	-0,062	0,019
-262,467	318,483	0,007	0,010
-261,453	192,992	0,050	0,055
-260,438	-200,000	0,013	-0,164
-259,424	-88,035	-0,016	-0,004
-258,409	-22,251	-0,073	-0,032
-257,395	28,180	0,044	0,027
-256,380	-200,000	0,051	-0,191
-255,365	-53,235	-0,083	-0,027
-254,351	7,605	0,013	0,007
-253,336	130,309	0,044	0,041
-252,322	-49,728	0,030	-0,010
-251,307	155,244	-0,037	-0,037
-250,292	-200,000	0,012	0,093
-249,278	-64,182	0,042	-0,012
-248,263	-18,051	0,142	0,064
-247,249	13,624	0,107	0,060
-246,234	-158,713	-0,014	-0,001
-245,219	-55,248	0,045	-0,015
-244,205	-200,000	0,021	-0,072
-243,190	-49,870	0,094	-0,032
-242,176	800,000	0,023	-0,071
-241,161	16,820	0,126	0,072
-240,146	-123,902	0,076	0,009
-239,132	250,658	0,065	-0,081
-238,117	-184,494	0,013	-0,000
-237,103	-64,578	0,071	-0,021
-236,088	-8,341	-0,111	-0,054
-235,073	135,358	-0,008	0,007
-234,059	-30,415	0,099	0,041
-233,044	800,000	-0,012	-0,033
-232,030	-75,169	0,077	0,020
-231,015	-7,667	-0,132	-0,064
-230,000	523,305	0,015	-0,025
-228,986	-200,000	-0,019	0,073
-227,971	-54,400	0,077	0,025
-226,957	353,428	0,085	0,122
-225,942	12,837	0,123	0,069
-224,927	167,725	0,069	-0,071
-223,913	-101,378	-0,161	0,028
-222,898	14,253	-0,101	-0,057
-221,884	-115,646	0,119	-0,016
-220,869	265,458	0,055	-0,070
-219,855	55,250	-0,066	0,046
-218,840	182,833	-0,081	-0,086
-217,825	-200,000	-0,004	-0,124
-216,811	-119,364	-0,066	-0,008
-215,796	800,000	-0,003	0,006
-214,782	235,546	-0,037	-0,044
-213,767	-200,000	0,004	-0,039
-212,752	384,608	0,073	0,109
-211,738	-103,955	0,144	0,024
-210,723	19,012	-0,070	0,040
-209,709	160,944	0,009	0,009
-208,694	-200,000	0,022	-0,139
-207,679	-44,542	-0,116	0,042
-206,665	734,274	0,110	0,214
-205,650	-200,000	0,008	-0,070
-204,636	41,645	-0,122	0,080
-203,621	-165,956	0,081	0,002
-202,606	738,871	0,010	0,020
-201,592	-75,415	-0,052	-0,013
-200,577	396,243	-0,076	-0,114
-199,563	-148,180	0,211	0,012
-198,548	174,656	-0,011	0,012
-197,533	105,842	-0,034	0,029
-196,519	800,000	-0,025	-0,057
-195,504	194,730	-0,087	-0,096
-194,490	-78,468	0,042	0,010
-193,475	214,460	-0,112	0,128
-192,460	-200,000	-0,023	0,121
-191,446	-63,899	-0,087	0,025
-190,431	-200,000	-0,026	0,159
-189,417	26,586	0,115	0,070
-188,402	-57,308	0,153	-0,048
-187,387	-63,546	-0,112	0,033
-186,373	-200,000	-0,016	0,053
-185,358	-200,000	-0,039	-0,132
-184,344	234,048	0,057	-0,068
-183,329	182,477	-0,064	0,068
-182,315	-200,000	0,010	0,143
-181,300	334,142	-0,035	0,049
-180,285	-1,873	-0,075	-0,038
-179,271	800,000	-0,021	0,044
-178,256	61,472	0,130	0,093
-177,242	55,433	0,082	0,058
-176,227	-200,000	0,001	-0,060
-175,212	69,915	0,082	0,061
-174,198	-200,000	-0,015	-0,065
-173,183	-200,000	-0,006	0,097
-172,169	-102,052	-0,141	0,024
-171,154	-200,000	0,005	0,028
-170,139	195,136	0,053	0,058
-169,125	-82,737	-0,040	-0,009
-168,110	-162,742	0,064	0,002
-167,096	800,000	-0,009	0,027
-166,081	-183,305	-0,066	-0,001
-165,066	-107,581	0,080	-0,012
-164,052	-200,000	0,022	-0,092
-163,037	-146,046	-0,032	-0,002
-162,023	-158,929	-0,090	-0,004
-161,008	234,408	0,055	0,066
-159,993	-127,356	-0,157	-0,016
-158,979	-200,000	-0,003	-0,082
-157,964	-200,000	0,000	0,045
-156,950	114,312	-0,105	-0,092
-155,935	-155,357	-0,097	-0,004
-154,920	800,000	-0,051	0,107
-153,906	96,607	-0,019	-0,016
-152,891	800,000	-0,011	0,032
-151,877	-94,853	0,167	0,032
-150,862	800,000	-0,056	-0,125
-149,847	-200,000	0,023	0,159
-148,833	800,000	-0,032	-0,069
-147,818	800,000	0,026	0,066
-146,804	-91,929	0,124	0,025
-145,789	174,483	-0,039	0,041
-144,775	-200,000	-0,010	-0,159
-143,760	448,763	-0,065	-0,103
-142,745	-200,000	-0,004	-0,135
-141,731	-83,938	-0,116	0,026
-140,716	-119,433	0,090	0,011
-139,702	-71,223	0,096	-0,026
-138,687	74,818	0,094	0,071
-137,672	106,839	-0,119	0,102
-136,658	588,989	0,013	-0,023
-135,643	138,308	0,039	0,037
-134,629	-200,000	-0,016	-0,133
-133,614	-200,000	0,018	-0,120
-132,599	10,297	-0,132	-0,072
-131,585	-6,981	0,126	0,061
-130,570	-31,901	0,115	0,046
-129,556	-200,000	-0,013	0,082
-128,541	800,000	0,013	-0,028
-127,526	800,000	-0,064	0,139
-126,512	109,127	-0,033	0,029
-125,497	334,623	-0,024	0,033
-124,483	41,402	-0,102	0,066
-123,468	133,322	0,103	0,096
-122,453	61,496	0,009	-0,007
-121,439	800,000	-0,034	-0,083
-120,424	800,000	0,020	0,050
-119,410	345,430	0,063	0,089
