DTS Sentinel unit serial number:	SN410029Multiplexer serial number:	ORYXHardware model number:	OX2-SRSoftware version number:	ORYX F/W v4,00 Oryx Data Collector v3.7.2.0data status	okinstallation	B5 Nyhavnadifferential loss correction	single-endedforward channel	channel 2reverse channel	N/Adate	2023/12/12time	18:27:13forward acquisition time	300,00reverse acquisition time	0,00gamma	499,1914k internal	0,3157k external	0,3157temperature offset calibration	1,0000default loss term (dB/km)	0,3820temperature slope calibration	1,0000multiplexer offset coefficient	1,0000multiplexer slope coefficient	1,0000fibre end	0,00T internal ref (°C)	15,62T ext. ref 1 (°C)	-0,90T ext. ref 2 (°C)	-1,19length (m)	temperature (°C)	Stokes	anti-Stokes-744,400	50,367	0,122	-0,085
-743,385	-51,678	-0,344	-0,118
-742,371	-92,117	0,209	-0,043
-741,356	-173,113	-0,254	-0,006
-740,342	-200,000	0,015	0,149
-739,327	-92,939	-0,299	-0,061
-738,312	437,321	0,042	0,067
-737,298	18,499	-0,250	0,147
-736,283	41,644	0,078	-0,052
-735,269	-181,455	-0,254	-0,004
-734,254	-200,000	0,039	0,172
-733,239	-105,694	-0,482	-0,080
-732,225	35,255	0,140	0,090
-731,210	125,308	0,041	-0,039
-730,196	-46,768	0,010	-0,004
-729,181	767,732	0,015	0,029
-728,167	-200,000	-0,001	-0,009
-727,152	180,044	-0,057	-0,062
-726,137	-32,007	0,062	-0,026
-725,123	-47,638	-0,100	-0,036
-724,108	-200,000	-0,035	-0,210
-723,094	-200,000	0,044	-0,184
-722,079	800,000	0,034	-0,094
-721,064	262,773	0,020	0,026
-720,050	377,896	-0,033	0,050
-719,035	-72,674	-0,044	0,012
-718,021	-200,000	-0,026	-0,101
-717,006	23,973	-0,050	-0,030
-715,991	-41,286	-0,196	-0,074
-714,977	-200,000	0,009	-0,125
-713,962	-145,731	-0,083	0,005
-712,948	-200,000	-0,021	0,095
-711,933	447,011	0,051	-0,082
-710,918	223,457	0,054	-0,064
-709,904	193,457	-0,054	-0,060
-708,889	-38,872	-0,130	-0,050
-707,875	268,767	-0,060	-0,077
-706,860	-120,468	-0,145	-0,018
-705,845	-1,886	0,163	-0,084
-704,831	403,462	0,020	-0,031
-703,816	-52,678	-0,238	0,081
-702,802	-88,980	-0,082	0,018
-701,787	-124,594	-0,097	0,011
-700,772	156,753	-0,025	-0,025
-699,758	-200,000	-0,021	0,100
-698,743	-69,146	-0,103	0,029
-697,729	-83,227	0,122	0,029
-696,714	50,608	0,096	0,067
-695,699	15,354	-0,146	-0,084
-694,685	-200,000	0,037	-0,140
-693,670	-147,781	-0,133	0,008
-692,656	800,000	-0,037	0,089
-691,641	-20,948	0,046	0,021
-690,627	-200,000	0,006	0,079
-689,612	-93,651	-0,131	0,026
-688,597	45,677	0,045	-0,030
-687,583	87,846	0,054	0,044
-686,568	-200,000	0,049	-0,183
-685,554	-10,667	-0,091	-0,044
-684,539	472,247	0,029	0,048
-683,524	800,000	0,031	-0,073
-682,510	206,310	-0,136	0,156
-681,495	555,349	0,024	-0,043
-680,481	156,520	-0,059	0,060
-679,466	519,288	-0,030	-0,052
-678,451	203,450	-0,076	-0,087
-677,437	-118,152	0,132	0,017
-676,422	-200,000	0,004	-0,057
-675,408	-51,561	-0,041	-0,014
-674,393	32,254	-0,106	0,067
-673,378	582,000	0,059	-0,106
-672,364	63,893	-0,099	-0,073
-671,349	-200,000	0,011	0,101
-670,335	800,000	0,031	-0,066
-669,320	142,720	-0,031	-0,030
-668,305	49,555	0,079	0,055
-667,291	-142,503	-0,094	0,007
-666,276	800,000	0,031	0,076
-665,262	-76,765	-0,037	0,009
-664,247	510,171	-0,034	-0,059
-663,232	224,410	0,084	-0,100
-662,218	-94,384	0,100	0,020
-661,203	-200,000	-0,020	-0,096
-660,189	201,035	0,046	0,052
-659,174	115,063	0,025	0,022
-658,159	211,643	-0,012	0,014
-657,145	-200,000	0,013	0,048
-656,130	800,000	0,012	-0,028
-655,116	-197,867	0,146	0,001
-654,101	800,000	0,034	0,083
-653,086	-200,000	-0,001	-0,106
-652,072	-109,121	0,036	-0,006
-651,057	-200,000	-0,018	0,105
-650,043	-96,317	-0,119	-0,023
-649,028	-200,000	-0,002	-0,065
-648,014	-47,747	0,074	-0,026
-646,999	-102,498	0,193	0,034
-645,984	800,000	0,017	-0,039
-644,970	-87,212	-0,138	-0,031
-643,955	80,724	-0,028	0,022
-642,941	394,302	0,082	-0,125
-641,926	-151,520	0,020	0,001
-640,911	-200,000	-0,012	0,108
-639,897	-200,000	0,002	-0,102
-638,882	25,419	0,040	-0,024
-637,868	-12,989	0,025	-0,012
-636,853	-170,896	-0,128	-0,003
-635,838	800,000	0,059	-0,131
-634,824	-105,563	-0,050	0,008
-633,809	-183,710	-0,088	0,001
-632,795	140,323	0,083	0,081
-631,780	169,225	-0,075	0,079
-630,765	-200,000	-0,000	-0,070
-629,751	584,924	-0,030	-0,054
-628,736	-200,000	-0,012	-0,075
-627,722	-161,429	0,261	0,010
-626,707	182,979	-0,019	0,021
-625,692	-117,126	-0,105	0,014
-624,678	-117,944	0,061	-0,008
-623,663	53,179	-0,136	-0,095
-622,649	82,190	-0,030	0,024
-621,634	-89,121	-0,113	0,024
-620,619	-200,000	-0,020	-0,075
-619,605	47,083	-0,076	0,052
-618,590	-31,392	0,061	0,025
-617,576	-97,333	0,090	-0,017
-616,561	142,378	0,037	0,036
-615,546	-200,000	0,028	0,111
-614,532	-45,131	-0,085	-0,031
-613,517	-125,102	-0,079	0,009
-612,503	-45,944	-0,010	0,004
-611,488	742,433	0,012	0,024
-610,474	156,802	-0,129	0,131
-609,459	173,588	-0,076	-0,081
-608,444	-200,000	-0,058	-0,188
-607,430	488,420	-0,017	-0,029
-606,415	-111,328	0,103	-0,015
-605,401	679,837	-0,044	0,083
-604,386	18,398	0,071	0,042
-603,371	-200,000	0,004	0,110
-602,357	77,104	-0,054	0,042
-601,342	596,597	0,020	0,036
-600,328	800,000	0,042	0,115
-599,313	-161,826	-0,148	0,005
-598,298	764,398	-0,100	-0,199
-597,284	40,148	0,107	-0,071
-596,269	207,180	0,023	0,026
-595,255	27,749	-0,093	0,058
-594,240	-46,155	-0,063	-0,023
-593,225	800,000	-0,038	-0,094
-592,211	-191,779	-0,142	-0,001
-591,196	800,000	0,018	-0,043
-590,182	-9,349	0,119	0,058
-589,167	13,457	0,056	-0,032
-588,152	284,886	-0,084	0,111
-587,138	194,134	-0,009	0,010
-586,123	-5,464	-0,075	-0,038
-585,109	-200,000	-0,005	-0,146
-584,094	-200,000	-0,019	-0,102
-583,079	800,000	0,015	-0,038
-582,065	775,125	0,011	0,022
-581,050	-24,373	-0,091	0,039
-580,036	-69,118	0,056	0,016
-579,021	800,000	0,043	-0,131
-578,006	800,000	-0,029	-0,073
-576,992	672,015	0,029	0,056
-575,977	488,894	-0,007	-0,012
-574,963	-50,922	0,057	-0,020
-573,948	-120,276	0,096	-0,012
-572,934	-58,134	0,081	-0,026
-571,919	800,000	0,012	0,032
-570,904	-200,000	-0,007	-0,052
-569,890	-200,000	-0,011	-0,064
-568,875	-55,494	0,056	-0,018
-567,861	144,708	0,034	0,034
-566,846	512,477	0,093	0,159
-565,831	695,126	0,027	0,051
-564,817	-200,000	-0,000	0,051
-563,802	153,812	-0,029	0,029
-562,788	292,532	-0,009	-0,012
-561,773	8,130	0,008	0,004
-560,758	-20,852	0,050	0,022
-559,744	800,000	0,013	0,041
-558,729	206,865	0,086	0,099
-557,715	-76,602	-0,094	-0,024
-556,700	-200,000	0,014	-0,205
-555,685	-149,733	-0,037	-0,002
-554,671	800,000	0,008	0,021
-553,656	800,000	-0,052	-0,151
-552,642	-200,000	0,015	0,140
-551,627	129,549	-0,071	-0,066
-550,612	800,000	-0,033	0,105
-549,598	7,730	-0,058	-0,032
-548,583	141,712	0,094	0,091
-547,569	-40,909	-0,008	-0,003
-546,554	316,131	-0,056	0,078
-545,539	-110,559	0,176	0,026
-544,525	800,000	0,037	-0,105
-543,510	-155,196	-0,146	-0,007
-542,496	800,000	-0,040	0,081
-541,481	-200,000	0,005	0,022
-540,466	-200,000	0,004	0,058
-539,452	-184,822	0,074	0,001
-538,437	-200,000	0,018	-0,081
-537,423	687,201	0,060	0,115
-536,408	253,360	-0,053	0,067
-535,393	-200,000	0,000	0,126
-534,379	-48,300	-0,166	-0,058
-533,364	-200,000	0,029	0,105
-532,350	-15,482	0,132	-0,061
-531,335	359,133	0,056	-0,081
-530,321	103,552	-0,021	-0,018
-529,306	-50,424	0,113	-0,039
-528,291	-17,868	0,116	-0,053
-527,277	-200,000	0,021	-0,130
-526,262	-3,305	-0,099	-0,050
-525,248	139,048	-0,064	0,062
-524,233	-200,000	0,001	-0,043
-523,218	3,988	0,069	-0,037
-522,204	90,001	-0,049	-0,040
-521,189	-200,000	-0,025	0,110
-520,175	-118,698	0,059	0,008
-519,160	318,412	-0,042	0,058
-518,145	-15,411	0,141	-0,066
-517,131	-20,814	0,096	0,043
-516,116	800,000	0,027	0,074
-515,102	48,252	0,031	-0,021
-514,087	178,890	0,022	-0,023
-513,072	-100,115	0,045	0,008
-512,058	497,388	-0,088	-0,148
-511,043	-168,608	0,132	-0,004
-510,029	170,898	0,045	0,047
-509,014	-97,687	-0,069	0,013
-507,999	-200,000	0,001	-0,060
-506,985	800,000	0,024	0,058
-505,970	341,773	-0,066	0,094
-504,956	424,006	0,016	0,025
-503,941	515,097	0,036	-0,062
-502,926	800,000	-0,032	-0,083
-501,912	800,000	-0,035	0,084
-500,897	-56,195	-0,064	0,021
-499,883	-200,000	-0,009	0,062
-498,868	115,585	-0,230	-0,206
-497,853	264,939	-0,097	-0,124
-496,839	-200,000	-0,037	-0,130
-495,824	141,026	0,070	0,068
-494,810	37,812	0,044	-0,028
-493,795	-112,652	-0,073	-0,010
-492,781	188,320	0,022	-0,024
-491,766	800,000	0,027	0,086
-490,751	-97,409	-0,016	-0,003
-489,737	257,605	0,021	0,027
-488,722	-17,894	0,055	0,025
-487,708	67,629	0,055	0,041
-486,693	772,784	-0,022	-0,044
-485,678	800,000	-0,023	-0,069
-484,664	-200,000	-0,004	-0,057
-483,649	800,000	-0,034	-0,093
-482,635	-125,510	0,099	-0,011
-481,620	800,000	-0,082	-0,218
-480,605	800,000	0,026	0,074
-479,591	275,724	0,062	0,080
-478,576	-200,000	-0,003	0,030
-477,562	-200,000	0,001	0,052
-476,547	22,395	-0,075	0,045
-475,532	-39,181	0,017	-0,007
-474,518	52,828	0,021	-0,015
-473,503	-38,659	-0,035	-0,013
-472,489	285,049	0,055	0,072
-471,474	800,000	0,020	-0,044
-470,459	4,152	0,130	-0,069
-469,445	-106,893	0,020	0,003
-468,430	-78,060	-0,059	0,015
-467,416	-102,491	0,206	0,036
-466,401	-115,103	0,139	0,019
-465,386	84,262	-0,061	-0,048
-464,372	-200,000	0,037	0,123
-463,357	282,888	-0,075	-0,099
-462,343	220,930	-0,102	-0,119
-461,328	-114,221	-0,106	-0,015
-460,313	-200,000	0,011	-0,049
-459,299	-200,000	-0,013	0,054
-458,284	100,660	0,027	0,023
-457,270	35,888	-0,068	0,044
-456,255	57,565	-0,096	-0,069
-455,241	-51,905	0,076	-0,025
-454,226	-34,038	-0,051	-0,020
-453,211	-200,000	0,030	0,114
-452,197	800,000	0,008	0,023
-451,182	19,940	0,150	0,088
-450,168	-150,428	-0,073	-0,004
-449,153	120,753	0,016	0,015
-448,138	70,011	0,069	-0,052
-447,124	-200,000	0,032	-0,172
-446,109	59,367	-0,114	-0,081
-445,095	-75,698	0,163	-0,042
-444,080	168,538	0,086	0,090
-443,065	-200,000	-0,010	0,108
-442,051	-119,348	-0,052	-0,007
-441,036	64,148	-0,091	0,067
-440,022	573,868	-0,032	-0,056
-439,007	-200,000	-0,001	-0,019
-437,992	130,599	-0,122	0,114
-436,978	12,974	0,162	0,091
-435,963	-26,425	-0,064	0,027
-434,949	800,000	0,038	-0,122
-433,934	-9,860	-0,189	-0,091
-432,919	-200,000	0,021	-0,116
-431,905	-110,041	0,031	0,005
-430,890	400,194	-0,076	0,117
-429,876	81,631	-0,084	0,066
-428,861	605,295	-0,040	0,073
-427,846	-200,000	0,013	0,097
-426,832	-3,888	-0,031	-0,015
-425,817	-200,000	0,039	-0,163
-424,803	370,993	-0,029	-0,043
-423,788	800,000	-0,039	-0,082
-422,773	43,966	0,083	0,055
-421,759	-62,549	-0,090	0,027
-420,744	-95,567	-0,046	0,009
-419,730	-13,702	-0,048	0,022
-418,715	322,959	0,049	0,068
-417,701	77,438	0,061	0,047
-416,686	356,089	-0,055	0,081
-415,671	74,096	0,114	-0,087
-414,657	800,000	-0,028	0,075
-413,642	32,955	-0,104	-0,065
-412,628	-30,171	0,048	0,020
-411,613	165,022	-0,074	-0,076
-410,598	-200,000	-0,026	0,108
-409,584	-200,000	0,007	-0,087
-408,569	800,000	-0,025	-0,079
-407,555	800,000	0,072	0,159
-406,540	-62,654	0,094	-0,028
-405,525	800,000	-0,009	-0,018
-404,511	166,342	-0,054	-0,056
-403,496	290,893	-0,141	-0,187
-402,482	18,341	0,069	0,040
-401,467	-171,119	-0,086	-0,002
-400,452	96,827	0,038	-0,032
-399,438	336,416	0,046	0,066
-398,423	-200,000	0,006	-0,074
-397,409	105,003	-0,051	-0,044
-396,394	-27,098	0,100	0,042
-395,379	40,665	-0,012	0,008
-394,365	-61,123	0,173	0,053
-393,350	-105,430	0,037	-0,006
-392,336	-80,969	0,109	-0,026
-391,321	210,345	0,082	-0,094
-390,306	-200,000	0,003	-0,026
-389,292	-153,009	-0,057	0,003
-388,277	-200,000	0,010	0,044
-387,263	-92,127	0,137	0,028
-386,248	-105,752	0,127	-0,021
-385,233	60,638	0,140	0,101
-384,219	-77,941	-0,101	0,025
-383,204	148,478	0,041	0,040
-382,190	49,533	-0,064	0,044
-381,175	-200,000	0,034	-0,129
-380,160	-118,450	-0,009	0,001
-379,146	448,789	0,072	0,116
-378,131	17,621	0,052	-0,030
-377,117	11,993	-0,053	-0,029
-376,102	-73,951	-0,112	-0,029
-375,088	-200,000	-0,032	-0,137
-374,073	-14,051	-0,043	0,020
-373,058	357,491	0,049	0,071
-372,044	421,554	-0,005	0,008
-371,029	-120,721	0,062	-0,007
-370,015	-200,000	0,022	0,282
-369,000	-200,000	-0,041	-0,166
-367,985	-200,000	0,028	-0,108
-366,971	-82,390	0,044	-0,010
-365,956	-61,449	0,023	-0,007
-364,942	72,000	-0,047	0,036
-363,927	-56,426	0,085	0,027
-362,912	559,417	-0,069	-0,121
-361,898	-200,000	-0,045	-0,158
-360,883	171,284	0,051	0,053
-359,869	256,707	-0,080	0,100
-358,854	103,042	0,105	0,090
-357,839	137,913	0,059	-0,056
-356,825	-200,000	-0,011	0,112
-355,810	800,000	-0,020	-0,058
-354,796	38,131	-0,096	-0,062
-353,781	407,619	-0,016	-0,025
-352,766	-200,000	0,007	-0,029
-351,752	-200,000	0,007	0,137
-350,737	-85,809	0,167	-0,037
-349,723	-33,065	0,106	-0,042
-348,708	202,382	-0,020	0,023
-347,693	-36,961	0,041	0,016
-346,679	43,814	-0,059	0,039
-345,664	52,958	0,130	-0,090
-344,650	-200,000	0,018	0,074
-343,635	-11,870	0,118	-0,056
-342,620	-24,040	0,063	-0,027
-341,606	-200,000	-0,004	0,061
-340,591	-200,000	-0,051	0,188
-339,577	800,000	0,020	0,045
-338,562	-200,000	0,007	-0,057
-337,548	-98,721	0,104	-0,019
-336,533	82,604	-0,067	-0,053
-335,518	67,615	-0,083	0,062
-334,504	-200,000	0,033	0,222
-333,489	-200,000	-0,020	0,074
-332,475	-46,538	-0,087	0,031
-331,460	32,074	0,026	0,017
-330,445	800,000	0,028	-0,059
-329,431	116,574	-0,085	0,076
-328,416	399,206	0,049	0,074
-327,402	800,000	-0,022	0,047
-326,387	-79,440	-0,031	0,008
-325,372	216,627	-0,117	-0,135
-324,358	-140,533	-0,077	0,006
-323,343	-182,488	0,033	0,000
-322,329	350,579	0,050	0,072
-321,314	-200,000	0,016	0,162
-320,299	-91,390	-0,065	-0,013
-319,285	-176,125	0,047	-0,001
-318,270	-200,000	-0,031	0,132
-317,256	13,511	0,085	0,048
-316,241	-82,411	-0,036	-0,008
-315,226	-122,260	0,081	0,009
-314,212	88,369	0,060	-0,049
-313,197	212,415	0,022	-0,025
-312,183	42,960	-0,078	-0,052
-311,168	-7,954	0,052	0,025
-310,153	17,411	-0,137	-0,079
-309,139	537,181	-0,040	0,069
-308,124	454,595	-0,009	-0,015
-307,110	800,000	0,038	0,097
-306,095	-76,031	-0,101	-0,026
-305,080	-200,000	0,011	0,090
-304,066	800,000	0,038	0,110
-303,051	800,000	0,039	0,113
-302,037	-200,000	0,017	-0,097
-301,022	103,861	0,093	-0,079
-300,008	-200,000	0,027	0,141
-298,993	-97,714	-0,094	0,017
-297,978	277,597	0,058	0,075
-296,964	194,834	-0,090	-0,099
-295,949	81,099	0,030	0,024
-294,935	-48,506	-0,013	0,005
-293,920	-63,679	0,061	0,018
-292,905	800,000	0,034	0,070
-291,891	176,033	0,048	0,050
-290,876	248,884	-0,016	0,020
-289,862	142,463	0,016	0,016
-288,847	-200,000	-0,009	0,120
-287,832	-200,000	-0,009	-0,039
-286,818	-200,000	0,027	-0,157
-285,803	-125,720	-0,019	-0,002
-284,789	800,000	-0,077	-0,167
-283,774	-200,000	-0,003	0,097
-282,759	-125,197	0,020	-0,002
-281,745	129,182	-0,103	0,095
-280,730	-59,832	0,041	0,013
-279,716	-44,035	0,073	-0,027
-278,701	-14,684	-0,010	0,005
-277,686	800,000	-0,045	0,120
-276,672	-200,000	0,003	0,027
-275,657	6,532	0,110	0,059
-274,643	-200,000	-0,017	-0,081
-273,628	-126,613	-0,044	0,005
-272,613	800,000	-0,061	-0,177
-271,599	-102,550	0,134	-0,023
-270,584	-200,000	0,007	-0,104
-269,570	51,495	0,097	0,067
-268,555	-154,731	-0,011	0,001
-267,540	-91,239	0,077	-0,016
-266,526	397,736	0,024	-0,036
-265,511	40,023	-0,097	-0,063
-264,497	84,396	-0,015	0,012
-263,482	456,435	0,048	0,077
-262,467	800,000	0,047	0,114
-261,453	-200,000	0,007	0,105
-260,438	-65,717	-0,057	-0,016
-259,424	1,535	0,071	0,037
-258,409	396,745	0,043	-0,065
-257,395	-200,000	-0,047	0,152
-256,380	-200,000	-0,024	0,161
-255,365	-112,870	0,045	0,006
-254,351	-52,767	-0,081	-0,027
-253,336	-200,000	-0,004	-0,033
-252,322	-128,018	-0,073	0,007
-251,307	3,332	-0,017	-0,009
-250,292	800,000	0,014	-0,043
-249,278	-23,808	-0,154	0,067
-248,263	63,078	-0,057	-0,041
-247,249	248,466	0,048	0,059
-246,234	-188,881	-0,050	0,000
-245,219	-200,000	-0,001	0,021
-244,205	410,244	-0,069	0,107
-243,190	82,774	-0,063	0,049
-242,176	-22,308	0,020	-0,009
-241,161	145,561	0,114	0,111
-240,146	-200,000	0,007	-0,055
-239,132	-32,063	0,061	-0,025
-238,117	169,761	-0,063	0,065
-237,103	-200,000	-0,004	-0,099
-236,088	-200,000	0,008	0,071
-235,073	-200,000	0,012	-0,055
-234,059	205,442	0,063	0,071
-233,044	268,827	0,073	-0,093
-232,030	305,231	-0,058	0,078
-231,015	-50,404	-0,084	-0,028
-230,000	-79,583	-0,071	-0,017
-228,986	-200,000	0,010	0,127
-227,971	646,972	-0,076	0,141
-226,957	521,583	0,085	-0,144
-225,942	-200,000	-0,042	0,170
-224,927	-200,000	0,007	0,037
-223,913	91,155	-0,062	-0,050
-222,898	174,694	-0,097	-0,101
-221,884	800,000	0,018	0,050
-220,869	471,545	0,030	0,048
-219,855	49,563	0,097	0,066
-218,840	193,986	0,082	-0,090
-217,825	-168,169	0,032	-0,001
-216,811	800,000	-0,012	0,026
-215,796	114,514	-0,107	0,094
-214,782	146,522	-0,025	0,024
-213,767	-200,000	-0,019	-0,078
-212,752	-200,000	0,003	-0,048
-211,738	-91,261	-0,066	-0,014
-210,723	800,000	-0,076	0,215
-209,709	99,064	-0,062	-0,052
-208,694	44,164	0,081	-0,053
-207,679	520,815	-0,020	0,034
-206,665	-129,744	0,082	-0,008
-205,650	-135,068	-0,020	-0,002
-204,636	73,719	0,063	0,047
-203,621	152,095	-0,120	-0,118
-202,606	800,000	0,039	-0,123
-201,592	-200,000	-0,025	-0,202
-200,577	191,562	0,075	-0,082
-199,563	-20,521	-0,049	-0,022
-198,548	136,922	-0,085	-0,080
-197,533	-64,264	0,122	0,036
-196,519	-200,000	0,016	-0,055
-195,504	63,118	-0,063	-0,045
-194,490	800,000	-0,049	-0,107
-193,475	-92,663	-0,115	0,023
-192,460	190,357	0,120	-0,130
-191,446	0,043	0,065	-0,033
-190,431	-58,497	0,125	0,039
-189,417	554,357	0,022	-0,039
-188,402	-138,212	-0,159	-0,013
-187,387	15,944	-0,108	0,061
-186,373	-108,626	-0,138	-0,021
-185,358	-200,000	0,014	-0,057
-184,344	-200,000	-0,004	-0,034
-183,329	-137,081	-0,124	-0,010
-182,315	-200,000	-0,026	0,095
-181,300	-67,199	0,081	-0,023
-180,285	136,336	-0,054	-0,051
-179,271	800,000	-0,039	-0,121
-178,256	438,346	-0,033	-0,051
-177,242	159,602	0,068	-0,068
-176,227	-200,000	0,038	-0,155
-175,212	-200,000	-0,002	-0,106
-174,198	400,595	-0,035	0,054
-173,183	-120,632	-0,133	-0,016
-172,169	419,665	-0,050	0,078
-171,154	-200,000	0,005	0,051
-170,139	-200,000	-0,015	0,064
-169,125	41,188	-0,066	-0,043
-168,110	-192,230	-0,094	0,001
-167,096	-200,000	0,017	0,060
-166,081	-200,000	-0,052	0,174
-165,066	111,213	0,062	-0,054
-164,052	-200,000	0,011	-0,095
-163,037	199,597	-0,067	-0,074
-162,023	-109,849	0,102	0,015
-161,008	594,849	-0,023	-0,041
-159,993	362,264	0,069	-0,100
-158,979	129,339	-0,120	-0,110
-157,964	62,871	0,042	-0,030
-156,950	-200,000	0,001	-0,067
-155,935	-200,000	0,000	0,006
-154,920	441,082	0,067	0,105
-153,906	284,776	0,089	0,116
-152,891	800,000	0,033	0,088
-151,877	-83,389	-0,072	-0,017
-150,862	147,389	-0,085	-0,082
-149,847	-200,000	0,035	-0,118
-148,833	-200,000	-0,010	0,115
-147,818	486,084	0,044	0,073
-146,804	800,000	-0,052	0,127
-145,789	-200,000	0,037	0,122
-144,775	391,360	-0,084	0,127
-143,760	-200,000	0,009	0,065
-142,745	-131,900	0,085	0,008
-141,731	321,053	0,050	0,069
-140,716	176,772	0,111	0,117
-139,702	-72,561	-0,068	-0,018
-138,687	-88,825	-0,068	0,014
-137,672	800,000	-0,004	-0,011
-136,658	584,954	-0,070	-0,124
-135,643	-7,212	0,096	0,047
-134,629	-200,000	-0,022	-0,200
-133,614	-200,000	-0,004	0,067
-132,599	536,246	0,007	0,012
-131,585	78,436	0,058	0,045
-130,570	704,728	-0,039	0,074
-129,556	105,037	-0,012	-0,010
-128,541	-75,772	0,096	-0,024
-127,526	-79,137	-0,078	0,019
-126,512	-144,202	0,042	0,003
-125,497	-200,000	0,005	0,076
-124,483	604,036	-0,036	-0,065
-123,468	564,953	-0,106	0,186
-122,453	10,578	-0,114	0,062
-121,439	-123,779	-0,042	-0,005
-120,424	83,185	-0,053	0,042
-119,410	3,544	-0,016	0,009
