DTS Sentinel unit serial number:	SN410029Multiplexer serial number:	ORYXHardware model number:	OX2-SRSoftware version number:	ORYX F/W v4,00 Oryx Data Collector v3.7.2.0data status	okinstallation	B5 Nyhavnadifferential loss correction	single-endedforward channel	channel 2reverse channel	N/Adate	2023/12/14time	15:47:13forward acquisition time	300,00reverse acquisition time	0,00gamma	499,1914k internal	0,3157k external	0,3157temperature offset calibration	1,0000default loss term (dB/km)	0,3820temperature slope calibration	1,0000multiplexer offset coefficient	1,0000multiplexer slope coefficient	1,0000fibre end	0,00T internal ref (°C)	7,89T ext. ref 1 (°C)	-8,05T ext. ref 2 (°C)	-8,08length (m)	temperature (°C)	Stokes	anti-Stokes-744,400	-14,503	0,080	-0,038
-743,385	-66,051	-0,364	-0,106
-742,371	108,414	0,107	0,094
-741,356	-87,893	-0,410	-0,090
-740,342	-166,063	0,185	0,006
-739,327	-130,108	-0,469	-0,047
-738,312	-97,715	0,204	0,039
-737,298	28,729	-0,261	-0,163
-736,283	-49,410	0,065	-0,023
-735,269	-103,455	-0,453	-0,078
-734,254	-108,518	0,221	-0,035
-733,239	-46,530	-0,559	-0,201
-732,225	35,299	0,202	0,130
-731,210	171,837	-0,121	0,129
-730,196	800,000	0,019	-0,045
-729,181	800,000	-0,023	-0,056
-728,167	-200,000	-0,009	-0,075
-727,152	393,606	0,022	0,034
-726,137	-39,356	-0,149	0,057
-725,123	1,031	0,014	-0,008
-724,108	-16,365	0,034	0,016
-723,094	144,735	0,059	-0,058
-722,079	150,211	-0,166	-0,166
-721,064	133,378	0,027	0,026
-720,050	800,000	0,028	-0,070
-719,035	-20,455	-0,119	0,054
-718,021	-181,089	0,145	-0,002
-717,006	-99,798	-0,093	0,017
-715,991	699,901	0,064	-0,125
-714,977	-31,116	-0,176	-0,073
-713,962	-200,000	0,014	-0,054
-712,948	800,000	0,063	0,198
-711,933	800,000	0,046	-0,145
-710,918	-23,815	-0,080	-0,035
-709,904	-170,668	-0,057	-0,001
-708,889	214,440	-0,103	-0,120
-707,875	85,208	-0,111	-0,090
-706,860	-200,000	-0,000	-0,086
-705,845	-95,924	-0,017	-0,003
-704,831	-178,354	0,021	-0,000
-703,816	-3,629	0,103	0,053
-702,802	623,350	-0,052	-0,096
-701,787	444,169	-0,068	-0,111
-700,772	-40,301	-0,091	0,035
-699,758	14,698	0,094	-0,054
-698,743	-200,000	-0,001	0,071
-697,729	25,135	0,052	-0,032
-696,714	163,105	-0,093	0,097
-695,699	34,400	-0,147	-0,094
-694,685	-134,043	-0,145	-0,013
-693,670	360,149	0,044	-0,065
-692,656	-92,269	-0,125	0,026
-691,641	-130,765	0,110	-0,011
-690,627	-200,000	0,026	0,087
-689,612	-138,871	-0,130	-0,010
-688,597	230,819	0,036	-0,043
-687,583	-200,000	0,029	-0,140
-686,568	-200,000	0,004	0,055
-685,554	218,799	-0,096	0,113
-684,539	-24,851	-0,095	-0,041
-683,524	-18,477	-0,107	-0,049
-682,510	800,000	-0,036	-0,098
-681,495	-200,000	0,002	-0,060
-680,481	-200,000	-0,014	-0,052
-679,466	-89,334	-0,116	-0,025
-678,451	-200,000	-0,025	0,083
-677,437	-37,384	0,171	-0,067
-676,422	-94,335	-0,121	0,024
-675,408	-47,644	-0,092	-0,033
-674,393	172,092	-0,024	-0,025
-673,378	-71,546	-0,077	0,021
-672,364	-55,557	-0,058	-0,019
-671,349	800,000	0,036	-0,087
-670,335	-200,000	0,009	-0,075
-669,320	-185,331	0,086	0,001
-668,305	331,748	-0,056	0,080
-667,291	202,316	0,042	0,047
-666,276	-47,059	-0,108	0,039
-665,262	237,627	0,087	-0,106
-664,247	-6,271	0,065	0,033
-663,232	-46,309	0,094	-0,034
-662,218	-89,395	-0,116	0,025
-661,203	-94,355	-0,095	0,019
-660,189	-200,000	-0,007	-0,052
-659,174	-50,994	-0,168	-0,057
-658,159	10,032	-0,151	-0,084
-657,145	268,012	-0,093	-0,120
-656,130	-112,004	-0,121	0,018
-655,116	-75,768	-0,092	0,024
-654,101	-200,000	-0,013	0,133
-653,086	800,000	-0,055	0,125
-652,072	-200,000	0,021	-0,085
-651,057	13,441	-0,114	0,065
-650,043	134,709	-0,106	-0,101
-649,028	99,098	0,138	-0,117
-648,014	-49,086	-0,093	0,032
-646,999	15,192	-0,077	-0,044
-645,984	83,242	-0,152	-0,122
-644,970	89,838	-0,074	-0,061
-643,955	-200,000	0,008	-0,071
-642,941	-200,000	0,005	0,024
-641,926	142,083	-0,056	-0,055
-640,911	-200,000	-0,001	0,096
-639,897	-179,401	-0,107	0,002
-638,882	-80,144	-0,099	0,024
-637,868	158,200	0,050	-0,051
-636,853	-200,000	-0,002	-0,028
-635,838	72,412	-0,136	-0,104
-634,824	-1,575	-0,020	-0,010
-633,809	-103,782	-0,030	0,005
-632,795	11,205	-0,099	-0,055
-631,780	239,292	0,031	-0,038
-630,765	39,738	0,017	0,011
-629,751	-200,000	0,019	-0,093
-628,736	800,000	0,015	-0,035
-627,722	800,000	0,038	-0,106
-626,707	109,281	0,077	-0,068
-625,692	-47,592	0,103	-0,037
-624,678	-69,154	0,077	-0,022
-623,663	-68,999	-0,039	-0,011
-622,649	800,000	-0,027	0,076
-621,634	465,437	0,055	-0,091
-620,619	800,000	-0,105	-0,225
-619,605	-200,000	0,023	0,080
-618,590	533,008	0,031	-0,054
-617,576	21,713	-0,065	-0,039
-616,561	800,000	0,031	0,075
-615,546	199,693	-0,069	-0,077
-614,532	230,403	0,031	-0,037
-613,517	-8,876	-0,064	-0,031
-612,503	63,138	-0,108	-0,079
-611,488	-19,119	-0,060	0,027
-610,474	229,245	-0,041	0,049
-609,459	-200,000	0,011	0,128
-608,444	800,000	-0,032	-0,077
-607,430	549,453	-0,033	-0,058
-606,415	800,000	-0,045	0,118
-605,401	610,956	-0,028	-0,051
-604,386	800,000	-0,025	0,058
-603,371	255,237	0,122	0,154
-602,357	-92,539	0,081	0,017
-601,342	378,665	0,095	-0,144
-600,328	2,443	-0,133	-0,071
-599,313	-128,127	-0,059	-0,006
-598,298	-87,043	0,057	-0,013
-597,284	360,031	-0,048	0,070
-596,269	19,204	0,081	-0,047
-595,255	469,090	0,016	-0,026
-594,240	142,972	-0,056	0,055
-593,225	-92,521	0,132	0,027
-592,211	245,190	0,066	-0,082
-591,196	21,016	-0,043	0,026
-590,182	-200,000	0,016	0,099
-589,167	111,505	0,081	-0,072
-588,152	-107,455	-0,041	-0,007
-587,138	800,000	0,038	-0,082
-586,123	-111,679	-0,127	-0,019
-585,109	-19,129	-0,169	0,077
-584,094	-154,907	-0,066	-0,003
-583,079	140,595	-0,111	0,108
-582,065	-74,829	0,128	-0,033
-581,050	800,000	-0,013	0,043
-580,036	57,666	-0,035	0,025
-579,021	-122,104	0,077	0,009
-578,006	-200,000	0,017	0,098
-576,992	-200,000	-0,002	0,063
-575,977	553,759	-0,089	-0,157
-574,963	-24,152	0,067	0,029
-573,948	-200,000	0,020	0,155
-572,934	-200,000	-0,036	-0,147
-571,919	-129,062	-0,010	0,001
-570,904	800,000	-0,010	-0,028
-569,890	668,022	0,017	-0,033
-568,875	-200,000	0,002	-0,076
-567,861	-200,000	0,014	0,098
-566,846	-200,000	0,002	0,139
-565,831	-141,663	-0,076	0,005
-564,817	800,000	-0,036	0,085
-563,802	31,527	-0,113	-0,071
-562,788	-109,918	0,075	-0,011
-561,773	120,704	-0,043	-0,039
-560,758	-13,097	0,104	0,049
-559,744	230,315	-0,022	0,026
-558,729	-150,272	-0,090	-0,005
-557,715	-191,650	-0,042	0,000
-556,700	114,854	-0,093	-0,083
-555,685	-136,954	-0,146	-0,012
-554,671	-200,000	-0,011	-0,139
-553,656	206,478	0,063	-0,071
-552,642	32,188	0,125	0,078
-551,627	85,095	0,078	0,062
-550,612	694,469	0,049	0,094
-549,598	430,772	-0,033	-0,053
-548,583	-132,509	-0,122	0,011
-547,569	-44,061	-0,113	-0,041
-546,554	800,000	-0,004	0,010
-545,539	-70,838	0,052	0,014
-544,525	-200,000	0,017	0,069
-543,510	23,875	0,036	0,022
-542,496	711,103	0,060	-0,117
-541,481	-200,000	0,011	-0,092
-540,466	-14,748	0,059	0,028
-539,452	761,993	-0,080	0,159
-538,437	-200,000	-0,013	-0,105
-537,423	-65,000	0,156	0,046
-536,408	312,328	0,037	-0,050
-535,393	-110,964	0,087	0,013
-534,379	-92,822	-0,128	-0,026
-533,364	800,000	-0,023	0,049
-532,350	800,000	0,046	-0,119
-531,335	-200,000	0,018	0,060
-530,321	-200,000	-0,016	0,058
-529,306	52,498	-0,114	0,079
-528,291	-200,000	0,024	-0,122
-527,277	-200,000	0,015	-0,072
-526,262	15,909	-0,083	-0,048
-525,248	166,939	0,038	0,039
-524,233	140,823	0,046	-0,044
-523,218	800,000	0,058	0,146
-522,204	223,597	-0,051	-0,060
-521,189	337,807	-0,101	-0,144
-520,175	407,345	0,083	-0,128
-519,160	800,000	-0,066	-0,208
-518,145	-200,000	0,001	-0,093
-517,131	179,950	-0,046	-0,049
-516,116	-200,000	0,027	0,088
-515,102	-92,599	-0,042	0,009
-514,087	625,286	0,063	-0,116
-513,072	-200,000	0,018	0,123
-512,058	-200,000	-0,013	-0,049
-511,043	110,878	-0,062	0,055
-510,029	-10,614	0,148	-0,071
-509,014	115,189	-0,050	-0,045
-507,999	86,337	0,118	0,095
-506,985	800,000	-0,022	0,069
-505,970	-62,697	-0,064	0,019
-504,956	-142,273	-0,196	-0,014
-503,941	94,336	0,085	0,071
-502,926	185,355	0,028	0,031
-501,912	369,455	0,015	-0,022
-500,897	800,000	0,031	-0,077
-499,883	312,059	-0,065	0,090
-498,868	-200,000	0,004	0,024
-497,853	-169,815	-0,064	-0,002
-496,839	-41,798	-0,045	0,017
-495,824	800,000	-0,026	-0,058
-494,810	143,653	0,126	-0,123
-493,795	800,000	-0,012	0,035
-492,781	453,756	-0,059	-0,096
-491,766	-200,000	-0,012	-0,112
-490,751	-41,293	-0,084	-0,032
-489,737	-61,451	-0,016	-0,005
-488,722	449,640	-0,037	0,060
-487,708	-37,279	-0,043	-0,017
-486,693	14,432	0,152	0,086
-485,678	31,530	0,121	0,076
-484,664	-155,108	-0,041	0,002
-483,649	6,080	-0,045	0,024
-482,635	-118,739	0,169	-0,022
-481,620	-200,000	-0,010	-0,077
-480,605	-89,544	0,057	-0,012
-479,591	800,000	0,095	0,213
-478,576	-101,687	-0,123	-0,022
-477,562	-33,019	-0,076	0,031
-476,547	-200,000	-0,000	-0,021
-475,532	-5,350	-0,118	0,059
-474,518	536,019	0,047	0,082
-473,503	-11,032	0,101	0,048
-472,489	-34,287	0,154	0,061
-471,474	-150,141	0,051	-0,003
-470,459	-200,000	-0,080	-0,000
-469,445	-200,000	0,038	-0,129
-468,430	800,000	0,007	-0,015
-467,416	800,000	0,034	-0,109
-466,401	-200,000	-0,010	0,168
-465,386	-200,000	0,000	0,084
-464,372	35,373	-0,069	-0,044
-463,357	-153,678	-0,071	-0,003
-462,343	-72,292	-0,055	-0,015
-461,328	-100,925	-0,076	-0,013
-460,313	40,734	-0,041	0,027
-459,299	-53,733	0,035	0,012
-458,284	800,000	-0,034	-0,101
-457,270	79,574	-0,022	0,017
-456,255	800,000	0,047	-0,112
-455,241	-200,000	-0,015	-0,124
-454,226	-6,680	-0,079	-0,039
-453,211	11,187	0,121	-0,067
-452,197	800,000	-0,081	0,213
-451,182	97,201	-0,035	0,030
-450,168	-165,802	0,078	-0,002
-449,153	-111,469	0,014	-0,002
-448,138	348,684	0,063	-0,091
-447,124	-200,000	0,009	-0,079
-446,109	540,432	0,061	-0,107
-445,095	-6,977	0,120	0,059
-444,080	40,836	-0,055	0,036
-443,065	-200,000	-0,026	0,090
-442,051	434,164	-0,060	0,096
-441,036	156,049	0,056	-0,057
-440,022	508,632	-0,067	-0,113
-439,007	452,993	-0,039	0,064
-437,992	-53,817	-0,048	-0,016
-436,978	42,625	0,022	0,014
-435,963	373,770	-0,022	0,032
-434,949	800,000	-0,062	-0,144
-433,934	800,000	-0,045	0,133
-432,919	107,833	0,070	0,061
-431,905	787,352	-0,032	0,064
-430,890	136,103	0,043	-0,041
-429,876	15,784	-0,066	0,038
-428,861	-109,492	0,126	-0,019
-427,846	45,225	-0,034	-0,022
-426,832	-200,000	-0,016	-0,073
-425,817	369,366	-0,061	-0,090
-424,803	788,857	-0,065	0,130
-423,788	-200,000	-0,018	-0,076
-422,773	343,263	0,036	0,052
-421,759	800,000	0,064	-0,134
-420,744	800,000	0,013	0,039
-419,730	-200,000	-0,001	-0,028
-418,715	449,969	0,040	-0,065
-417,701	-200,000	-0,103	-0,000
-416,686	-102,492	-0,111	0,019
-415,671	-200,000	-0,013	-0,102
-414,657	-200,000	0,000	0,106
-413,642	-116,318	-0,138	0,018
-412,628	-2,403	0,063	0,032
-411,613	-200,000	0,000	-0,134
-410,598	800,000	-0,068	0,167
-409,584	-183,473	0,072	-0,001
-408,569	-125,460	-0,020	-0,002
-407,555	-200,000	-0,004	-0,070
-406,540	-200,000	-0,016	-0,110
-405,525	-9,600	-0,166	0,080
-404,511	-200,000	0,018	-0,159
-403,496	73,304	-0,137	-0,104
-402,482	178,229	0,056	-0,060
-401,467	-173,059	-0,053	0,001
-400,452	-200,000	0,020	0,088
-399,438	174,399	0,071	-0,075
-398,423	206,379	-0,078	0,089
-397,409	183,320	0,148	0,160
-396,394	673,571	-0,046	-0,088
-395,379	77,529	0,118	0,091
-394,365	-123,208	0,019	-0,002
-393,350	524,985	0,089	0,153
-392,336	-0,850	-0,048	0,024
-391,321	99,611	-0,028	0,023
-390,306	49,757	-0,029	0,020
-389,292	495,473	-0,053	0,089
-388,277	-11,618	0,059	0,028
-387,263	-37,895	0,042	-0,016
-386,248	-200,000	-0,022	0,071
-385,233	800,000	0,051	0,107
-384,219	119,686	0,077	-0,070
-383,204	763,594	-0,052	-0,102
-382,190	112,221	0,054	0,048
-381,175	1,413	-0,100	-0,052
-380,160	800,000	0,057	-0,121
-379,146	-200,000	-0,019	0,147
-378,131	328,315	-0,052	0,072
-377,117	16,984	-0,037	0,021
-376,102	-96,699	-0,058	0,011
-375,088	-200,000	0,045	-0,150
-374,073	-200,000	-0,014	0,087
-373,058	-200,000	0,029	0,121
-372,044	579,817	0,043	0,076
-371,029	-21,882	0,183	0,081
-370,015	84,935	0,085	-0,068
-369,000	16,512	-0,083	0,047
-367,985	-200,000	-0,009	0,058
-366,971	-200,000	-0,010	-0,131
-365,956	-60,336	-0,136	-0,042
-364,942	7,635	0,143	0,077
-363,927	298,238	0,034	0,046
-362,912	-200,000	0,001	0,147
-361,898	-200,000	0,007	-0,082
-360,883	-200,000	0,026	-0,165
-359,869	-200,000	0,023	-0,080
-358,854	438,918	0,019	0,031
-357,839	800,000	0,036	0,094
-356,825	44,085	0,027	0,018
-355,810	40,981	-0,068	0,044
-354,796	-29,986	0,096	-0,039
-353,781	-19,933	-0,018	0,008
-352,766	-104,987	0,038	-0,006
-351,752	218,790	-0,094	0,109
-350,737	800,000	0,034	0,106
-349,723	191,798	-0,168	0,185
-348,708	241,249	0,013	-0,016
-347,693	5,332	-0,061	-0,032
-346,679	378,237	-0,059	-0,088
-345,664	800,000	0,039	-0,122
-344,650	-99,596	0,097	0,018
-343,635	-200,000	0,001	-0,023
-342,620	59,054	0,047	-0,034
-341,606	800,000	-0,017	-0,046
-340,591	-31,239	0,060	-0,024
-339,577	-69,620	0,099	-0,027
-338,562	2,282	-0,035	0,018
-337,548	-103,074	0,095	0,016
-336,533	-4,372	0,059	0,030
-335,518	390,595	0,022	-0,034
-334,504	-2,767	0,116	0,059
-333,489	144,235	-0,049	-0,048
-332,475	800,000	0,004	0,012
-331,460	800,000	-0,037	-0,106
-330,445	404,481	0,059	0,090
-329,431	11,761	0,078	-0,043
-328,416	-200,000	-0,005	-0,096
-327,402	347,705	0,053	0,075
-326,387	-200,000	0,000	-0,019
-325,372	16,736	0,036	0,020
-324,358	-160,645	-0,105	0,004
-323,343	800,000	0,023	-0,058
-322,329	-34,998	-0,066	0,026
-321,314	-36,457	0,137	0,053
-320,299	0,973	0,068	-0,035
-319,285	-200,000	0,022	0,092
-318,270	323,524	-0,010	-0,014
-317,256	-200,000	0,010	0,106
-316,241	-70,645	0,045	-0,012
-315,226	-200,000	-0,006	-0,106
-314,212	-200,000	0,012	-0,079
-313,197	49,226	0,136	0,093
-312,183	-200,000	-0,021	-0,087
-311,168	33,324	0,187	-0,118
-310,153	-200,000	-0,004	-0,159
-309,139	42,597	0,036	-0,024
-308,124	-50,476	-0,117	-0,040
-307,110	800,000	-0,026	0,063
-306,095	-200,000	-0,004	0,122
-305,080	408,738	0,049	0,075
-304,066	-71,621	-0,093	0,025
-303,051	-111,607	0,031	0,005
-302,037	105,433	0,076	-0,065
-301,022	-41,911	-0,132	-0,049
-300,008	-114,411	0,110	-0,015
-298,993	800,000	0,030	0,080
-297,978	-64,918	-0,027	-0,008
-296,964	-200,000	-0,007	0,041
-295,949	-15,318	0,045	0,021
-294,935	-200,000	-0,002	0,019
-293,920	-34,417	0,077	0,030
-292,905	-125,730	0,051	0,005
-291,891	-200,000	-0,003	0,050
-290,876	-46,185	-0,045	0,016
-289,862	84,969	0,077	-0,061
-288,847	-200,000	0,001	-0,037
-287,832	624,112	0,047	-0,086
-286,818	25,732	0,094	0,057
-285,803	800,000	0,019	-0,052
-284,789	-123,243	0,256	-0,029
-283,774	256,590	-0,048	0,060
-282,759	323,289	-0,087	-0,120
-281,745	-130,446	-0,074	-0,007
-280,730	432,697	-0,088	-0,138
-279,716	-200,000	0,028	0,138
-278,701	-200,000	-0,003	0,085
-277,686	192,085	-0,018	0,019
-276,672	-200,000	0,012	0,124
-275,657	-30,633	-0,050	0,020
-274,643	530,771	0,060	-0,102
-273,628	-40,889	-0,143	0,053
-272,613	-200,000	-0,045	0,172
-271,599	-200,000	0,021	-0,086
-270,584	163,522	0,110	0,112
-269,570	310,913	0,048	0,065
-268,555	-149,662	-0,134	0,008
-267,540	65,781	0,059	-0,044
-266,526	96,171	-0,072	0,060
-265,511	-63,403	-0,056	0,016
-264,497	103,648	0,025	-0,021
-263,482	381,371	0,118	0,176
-262,467	-152,945	-0,085	0,004
-261,453	72,565	0,096	0,072
-260,438	540,585	-0,027	-0,048
-259,424	-185,525	0,093	-0,001
-258,409	800,000	-0,058	-0,144
-257,395	-126,576	0,090	-0,010
-256,380	261,978	-0,075	-0,095
-255,365	-122,488	0,153	-0,018
-254,351	800,000	-0,055	-0,125
-253,336	500,794	-0,031	-0,051
-252,322	-99,972	-0,047	0,008
-251,307	800,000	-0,039	-0,107
-250,292	-65,432	0,096	0,028
-249,278	27,525	0,059	-0,036
-248,263	-40,566	0,048	-0,018
-247,249	-200,000	0,032	0,158
-246,234	109,723	0,024	-0,021
-245,219	-200,000	-0,006	0,042
-244,205	-200,000	-0,008	-0,038
-243,190	-43,180	0,144	0,053
-242,176	-200,000	-0,028	0,140
-241,161	-200,000	-0,025	-0,128
-240,146	800,000	0,019	0,058
-239,132	729,882	0,043	-0,083
-238,117	-200,000	0,033	-0,135
-237,103	56,340	-0,085	-0,060
-236,088	800,000	-0,026	0,062
-235,073	-200,000	0,002	-0,029
-234,059	-16,372	-0,130	0,059
-233,044	268,399	0,042	-0,053
-232,030	46,248	-0,184	-0,123
-231,015	-173,427	0,143	-0,003
-230,000	238,349	-0,029	0,035
-228,986	299,055	0,029	-0,039
-227,971	-16,901	-0,078	0,035
-226,957	800,000	-0,057	0,181
-225,942	565,307	0,056	0,099
-224,927	511,200	-0,031	0,052
-223,913	183,096	-0,049	0,053
-222,898	-125,522	-0,143	-0,015
-221,884	800,000	0,042	0,090
-220,869	306,671	0,076	0,102
-219,855	800,000	-0,093	0,204
-218,840	-25,419	-0,038	0,016
-217,825	-200,000	0,034	0,146
-216,811	738,675	-0,043	-0,084
-215,796	-44,393	0,107	0,039
-214,782	-7,265	0,035	0,017
-213,767	-0,144	-0,140	0,072
-212,752	85,829	0,171	0,136
-211,738	61,403	0,032	-0,023
-210,723	800,000	-0,039	0,078
-209,709	-48,449	-0,030	-0,010
-208,694	3,744	-0,065	0,034
-207,679	456,461	-0,024	0,038
-206,665	57,709	-0,073	0,052
-205,650	-71,554	0,142	-0,038
-204,636	-200,000	0,003	0,078
-203,621	299,066	-0,104	-0,139
-202,606	147,851	-0,043	-0,042
-201,592	800,000	-0,021	0,054
-200,577	800,000	-0,054	-0,121
-199,563	-23,081	0,073	-0,032
-198,548	-118,814	0,146	-0,018
-197,533	-9,954	0,114	0,055
-196,519	-128,953	0,042	-0,004
-195,504	-5,876	-0,104	-0,051
-194,490	-100,184	0,081	-0,014
-193,475	-200,000	0,010	0,046
-192,460	-58,915	-0,105	0,033
-191,446	800,000	0,059	0,155
-190,431	184,996	0,024	-0,026
-189,417	-45,462	0,047	-0,017
-188,402	-200,000	-0,004	-0,046
-187,387	-200,000	-0,010	-0,059
-186,373	475,934	-0,028	0,045
-185,358	-200,000	-0,001	-0,012
-184,344	199,436	-0,075	-0,083
-183,329	403,478	0,057	-0,087
-182,315	800,000	-0,039	-0,078
-181,300	345,312	0,039	0,055
-180,285	-200,000	0,011	0,097
-179,271	576,026	0,048	0,085
-178,256	-79,622	0,067	0,016
-177,242	-66,303	0,109	-0,031
-176,227	189,461	-0,080	-0,086
-175,212	-200,000	-0,004	-0,110
-174,198	-200,000	-0,010	0,068
-173,183	-46,435	-0,170	0,060
-172,169	-200,000	0,005	-0,122
-171,154	800,000	-0,040	0,119
-170,139	116,116	0,079	0,070
-169,125	20,679	-0,062	-0,036
-168,110	39,807	0,056	0,036
-167,096	-200,000	-0,020	0,092
-166,081	-31,416	-0,065	-0,026
-165,066	78,126	0,112	0,086
-164,052	800,000	-0,028	0,078
-163,037	-108,001	-0,080	0,012
-162,023	34,160	0,046	-0,029
-161,008	800,000	0,059	0,133
-159,993	-200,000	0,001	0,123
-158,979	202,040	-0,110	-0,122
-157,964	-4,378	0,047	-0,023
-156,950	-40,512	-0,163	-0,061
-155,935	-84,630	0,132	0,030
-154,920	558,036	0,029	0,050
-153,906	129,426	0,063	-0,058
-152,891	321,200	-0,049	-0,067
-151,877	-8,386	0,103	-0,050
-150,862	86,519	-0,123	-0,098
-149,847	800,000	0,017	0,038
-148,833	800,000	0,047	0,131
-147,818	147,414	0,057	0,055
-146,804	-106,730	0,044	0,007
-145,789	800,000	0,025	-0,057
-144,775	79,062	-0,101	-0,078
-143,760	-97,234	0,046	0,009
-142,745	12,523	0,077	0,043
-141,731	-8,323	-0,120	-0,058
-140,716	134,389	0,109	0,102
-139,702	-200,000	-0,016	0,183
-138,687	-186,709	0,047	-0,000
-137,672	251,791	0,025	-0,031
-136,658	78,343	-0,118	-0,090
-135,643	-161,663	0,114	-0,004
-134,629	530,932	-0,028	-0,049
-133,614	800,000	-0,040	0,096
-132,599	328,033	0,062	0,086
-131,585	-200,000	-0,037	0,127
-130,570	-200,000	0,019	-0,130
-129,556	47,415	0,129	-0,086
-128,541	-200,000	-0,003	0,047
-127,526	800,000	0,021	0,059
-126,512	54,461	0,112	-0,077
-125,497	391,464	-0,035	-0,053
-124,483	-107,049	0,180	0,028
-123,468	2,983	0,054	0,028
-122,453	-81,674	-0,152	-0,036
-121,439	552,766	-0,018	0,031
-120,424	279,522	0,049	0,063
-119,410	-96,160	-0,078	0,015
