DTS Sentinel unit serial number:	SN410029Multiplexer serial number:	ORYXHardware model number:	OX2-SRSoftware version number:	ORYX F/W v4,00 Oryx Data Collector v3.7.2.0data status	okinstallation	B5 Nyhavnadifferential loss correction	single-endedforward channel	channel 2reverse channel	N/Adate	2023/12/12time	15:32:13forward acquisition time	300,00reverse acquisition time	0,00gamma	499,1914k internal	0,3157k external	0,3157temperature offset calibration	1,0000default loss term (dB/km)	0,3820temperature slope calibration	1,0000multiplexer offset coefficient	1,0000multiplexer slope coefficient	1,0000fibre end	0,00T internal ref (°C)	15,93T ext. ref 1 (°C)	-0,47T ext. ref 2 (°C)	-0,72length (m)	temperature (°C)	Stokes	anti-Stokes-744,400	161,065	0,065	0,067
-743,385	-80,816	-0,257	-0,063
-742,371	-39,912	0,155	0,059
-741,356	-17,640	-0,232	0,107
-740,342	23,846	0,137	0,083
-739,327	-157,389	-0,299	-0,013
-738,312	-200,000	0,020	-0,080
-737,298	-93,729	-0,259	0,052
-736,283	-200,000	0,016	-0,120
-735,269	-101,453	-0,302	-0,054
-734,254	5,500	0,059	-0,032
-733,239	19,590	-0,437	-0,259
-732,225	-27,582	0,149	0,063
-731,210	-181,026	0,036	-0,001
-730,196	624,697	0,040	-0,075
-729,181	-20,138	-0,051	-0,023
-728,167	-35,648	-0,092	-0,037
-727,152	800,000	0,063	0,158
-726,137	108,557	-0,193	-0,169
-725,123	88,598	-0,038	-0,031
-724,108	800,000	0,050	-0,126
-723,094	233,486	-0,076	-0,093
-722,079	-200,000	-0,022	-0,176
-721,064	163,430	-0,130	-0,135
-720,050	800,000	-0,022	0,054
-719,035	-107,287	-0,113	-0,018
-718,021	598,628	0,025	-0,046
-717,006	800,000	0,023	-0,055
-715,991	-200,000	0,011	-0,143
-714,977	800,000	-0,053	-0,114
-713,962	-200,000	-0,009	-0,159
-712,948	-200,000	0,013	-0,065
-711,933	-200,000	-0,027	-0,184
-710,918	402,697	-0,071	0,111
-709,904	566,363	-0,075	-0,135
-708,889	-200,000	-0,013	-0,043
-707,875	57,306	-0,102	0,073
-706,860	409,531	0,034	0,054
-705,845	-96,549	-0,072	0,014
-704,831	-200,000	-0,027	0,138
-703,816	398,800	-0,050	-0,077
-702,802	5,744	-0,075	0,041
-701,787	-200,000	0,047	-0,198
-700,772	-200,000	0,014	-0,082
-699,758	3,586	-0,100	0,054
-698,743	30,737	0,030	-0,019
-697,729	800,000	0,046	0,133
-696,714	158,712	-0,016	-0,017
-695,699	183,926	-0,037	-0,040
-694,685	35,276	-0,149	0,096
-693,670	800,000	0,013	0,027
-692,656	107,946	0,058	0,051
-691,641	800,000	0,016	0,038
-690,627	-67,280	0,187	-0,054
-689,612	137,775	0,072	-0,069
-688,597	-105,922	0,079	0,013
-687,583	238,515	-0,087	-0,106
-686,568	-200,000	0,008	-0,087
-685,554	345,693	-0,112	-0,162
-684,539	258,054	-0,084	-0,107
-683,524	-200,000	-0,005	-0,042
-682,510	800,000	-0,020	0,040
-681,495	237,631	0,074	-0,091
-680,481	-200,000	-0,007	-0,028
-679,466	-200,000	0,021	-0,222
-678,451	-54,683	-0,091	0,030
-677,437	128,730	-0,007	0,007
-676,422	655,493	0,052	0,098
-675,408	-29,461	-0,079	0,033
-674,393	60,494	0,024	-0,018
-673,378	-200,000	-0,004	-0,040
-672,364	92,248	-0,090	-0,074
-671,349	-200,000	0,024	-0,116
-670,335	52,528	0,047	-0,033
-669,320	18,336	-0,060	-0,035
-668,305	35,242	0,075	-0,048
-667,291	-64,928	0,067	-0,020
-666,276	-28,499	-0,124	-0,052
-665,262	-103,793	-0,112	-0,019
-664,247	-200,000	-0,022	0,080
-663,232	-200,000	-0,011	0,092
-662,218	-124,015	-0,093	0,011
-661,203	-200,000	0,003	-0,041
-660,189	57,929	-0,032	0,023
-659,174	800,000	-0,013	-0,027
-658,159	159,768	-0,051	-0,052
-657,145	203,372	-0,101	-0,115
-656,130	-200,000	0,018	-0,090
-655,116	-167,729	-0,126	-0,004
-654,101	-200,000	-0,020	-0,159
-653,086	-124,744	-0,114	0,013
-652,072	186,995	-0,024	0,027
-651,057	-86,116	-0,130	-0,029
-650,043	-200,000	0,005	-0,228
-649,028	47,558	0,117	-0,080
-648,014	800,000	0,078	0,181
-646,999	-200,000	-0,025	0,152
-645,984	194,540	-0,073	-0,082
-644,970	98,372	-0,044	-0,037
-643,955	360,865	0,028	0,042
-642,941	-89,210	-0,044	-0,010
-641,926	800,000	-0,059	-0,128
-640,911	-166,182	-0,021	0,001
-639,897	60,243	0,045	0,032
-638,882	-200,000	-0,008	0,048
-637,868	800,000	0,040	-0,109
-636,853	-200,000	0,064	-0,236
-635,838	-81,480	-0,116	0,028
-634,824	95,823	-0,057	-0,048
-633,809	0,066	0,050	-0,026
-632,795	-20,497	-0,045	-0,020
-631,780	-169,840	0,121	-0,003
-630,765	-200,000	0,028	-0,103
-629,751	600,183	-0,122	-0,223
-628,736	-125,087	-0,081	-0,009
-627,722	93,120	0,123	0,102
-626,707	30,211	-0,041	0,025
-625,692	-177,995	0,157	-0,003
-624,678	-200,000	0,001	0,080
-623,663	-12,180	0,019	0,009
-622,649	-77,750	-0,075	0,019
-621,634	484,342	0,044	-0,074
-620,619	-200,000	-0,021	0,068
-619,605	-200,000	0,002	0,086
-618,590	800,000	-0,036	0,109
-617,576	62,849	-0,056	0,041
-616,561	-12,245	-0,148	-0,071
-615,546	800,000	0,023	-0,059
-614,532	-200,000	0,006	-0,065
-613,517	-55,872	-0,121	-0,039
-612,503	-8,236	0,059	-0,029
-611,488	-200,000	-0,001	-0,052
-610,474	-200,000	0,047	0,154
-609,459	-200,000	0,041	0,174
-608,444	-7,186	0,110	-0,055
-607,430	103,316	-0,014	-0,012
-606,415	-129,325	-0,094	0,009
-605,401	-200,000	0,006	-0,071
-604,386	701,064	-0,039	0,075
-603,371	542,430	-0,057	0,101
-602,357	60,939	-0,135	-0,098
-601,342	-43,484	0,078	0,029
-600,328	800,000	-0,050	-0,148
-599,313	178,736	0,063	-0,067
-598,298	-136,815	-0,070	-0,006
-597,284	564,185	0,015	-0,027
-596,269	-200,000	0,019	0,101
-595,255	110,001	0,091	0,080
-594,240	-87,833	-0,029	0,006
-593,225	457,551	0,040	-0,066
-592,211	-77,570	-0,114	0,029
-591,196	800,000	0,040	-0,084
-590,182	-200,000	0,016	0,065
-589,167	-200,000	0,007	0,056
-588,152	501,678	-0,066	-0,112
-587,138	-88,735	0,103	0,022
-586,123	-200,000	-0,045	-0,168
-585,109	356,093	-0,069	-0,102
-584,094	399,608	0,029	-0,044
-583,079	39,580	-0,081	0,053
-582,065	-137,923	0,091	-0,007
-581,050	-200,000	0,010	0,059
-580,036	660,400	-0,037	0,069
-579,021	347,711	-0,050	-0,073
-578,006	11,038	0,036	-0,020
-576,992	45,577	-0,087	-0,059
-575,977	-137,131	-0,070	-0,006
-574,963	24,724	0,113	-0,068
-573,948	284,709	-0,147	-0,194
-572,934	33,175	0,037	0,024
-571,919	-57,913	-0,127	0,040
-570,904	-200,000	-0,000	-0,029
-569,890	-200,000	0,034	-0,218
-568,875	43,433	-0,102	0,068
-567,861	-200,000	0,003	0,082
-566,846	448,411	0,067	0,109
-565,831	800,000	-0,017	0,035
-564,817	800,000	0,021	-0,067
-563,802	800,000	0,015	0,036
-562,788	481,554	-0,075	0,125
-561,773	-19,057	0,046	-0,021
-560,758	147,498	0,045	0,045
-559,744	252,385	-0,053	-0,067
-558,729	-200,000	-0,008	-0,141
-557,715	387,715	-0,128	-0,195
-556,700	16,889	-0,142	-0,082
-555,685	155,925	-0,019	0,019
-554,671	139,700	-0,016	0,015
-553,656	115,987	0,061	0,055
-552,642	-13,704	-0,100	0,047
-551,627	149,966	0,115	0,114
-550,612	85,560	-0,034	-0,027
-549,598	605,418	-0,033	-0,061
-548,583	-33,484	-0,080	-0,032
-547,569	233,553	0,074	-0,089
-546,554	-200,000	0,012	0,062
-545,539	-200,000	-0,024	0,112
-544,525	22,568	-0,135	0,081
-543,510	-28,354	-0,075	-0,031
-542,496	800,000	0,010	0,030
-541,481	-200,000	-0,013	0,049
-540,466	362,507	0,019	0,028
-539,452	-200,000	0,013	0,054
-538,437	446,673	0,036	-0,058
-537,423	800,000	0,028	0,073
-536,408	-14,241	-0,043	0,020
-535,393	-75,009	-0,159	0,041
-534,379	800,000	-0,056	-0,167
-533,364	280,722	0,051	-0,067
-532,350	-200,000	0,011	0,045
-531,335	116,218	-0,057	0,051
-530,321	230,497	0,078	0,094
-529,306	-43,338	0,050	0,018
-528,291	281,444	-0,079	-0,103
-527,277	-200,000	-0,027	-0,204
-526,262	-162,687	0,034	0,001
-525,248	800,000	0,061	-0,174
-524,233	-200,000	-0,006	-0,055
-523,218	-200,000	0,003	0,067
-522,204	551,034	-0,059	-0,105
-521,189	92,821	0,054	0,045
-520,175	800,000	-0,029	-0,084
-519,160	800,000	-0,048	0,099
-518,145	5,800	-0,087	-0,047
-517,131	529,396	0,005	-0,010
-516,116	60,941	0,039	-0,029
-515,102	-200,000	-0,009	0,129
-514,087	-125,626	-0,041	-0,005
-513,072	-200,000	-0,020	-0,127
-512,058	-59,073	-0,092	0,029
-511,043	348,671	0,048	0,069
-510,029	276,580	0,034	-0,044
-509,014	247,428	-0,018	-0,023
-507,999	98,681	0,029	-0,024
-506,985	102,816	-0,061	-0,052
-505,970	358,598	0,011	-0,016
-504,956	-138,010	-0,137	-0,011
-503,941	126,784	0,036	-0,033
-502,926	-41,891	0,135	-0,050
-501,912	-161,346	0,075	-0,003
-500,897	249,253	0,098	0,121
-499,883	-200,000	-0,033	-0,144
-498,868	615,016	-0,023	-0,042
-497,853	-200,000	-0,004	0,037
-496,839	-42,446	-0,079	-0,029
-495,824	73,731	0,087	-0,066
-494,810	-200,000	0,000	-0,128
-493,795	-200,000	-0,002	-0,006
-492,781	-7,033	-0,071	-0,035
-491,766	1,959	-0,179	0,094
-490,751	-200,000	-0,023	0,091
-489,737	-200,000	-0,005	0,205
-488,722	-121,993	0,028	0,003
-487,708	-157,996	0,133	-0,006
-486,693	800,000	0,054	0,116
-485,678	460,112	-0,012	-0,019
-484,664	49,905	-0,057	0,040
-483,649	-6,429	-0,077	-0,038
-482,635	23,304	0,052	-0,031
-481,620	405,919	0,025	0,039
-480,605	176,083	-0,012	0,013
-479,591	-200,000	-0,071	0,000
-478,576	23,595	0,178	0,106
-477,562	-200,000	0,007	-0,061
-476,547	2,982	-0,061	-0,032
-475,532	800,000	0,040	-0,102
-474,518	-200,000	0,011	0,096
-473,503	183,826	0,019	0,021
-472,489	-200,000	0,027	0,156
-471,474	-164,159	0,290	-0,010
-470,459	-165,791	-0,098	0,003
-469,445	-8,343	-0,164	0,080
-468,430	-180,221	0,100	0,001
-467,416	-122,669	-0,032	0,004
-466,401	-200,000	-0,005	-0,030
-465,386	469,288	-0,017	0,028
-464,372	102,860	0,186	0,159
-463,357	-18,618	0,053	0,024
-462,343	-53,799	-0,110	-0,036
-461,328	-80,503	-0,030	0,007
-460,313	800,000	-0,010	-0,032
-459,299	169,354	0,106	0,110
-458,284	800,000	0,071	0,147
-457,270	232,268	-0,063	-0,076
-456,255	-200,000	0,012	-0,103
-455,241	-148,071	-0,150	-0,009
-454,226	-200,000	0,006	-0,075
-453,211	166,480	-0,011	-0,011
-452,197	800,000	-0,048	-0,109
-451,182	304,448	0,079	-0,107
-450,168	21,326	-0,075	0,044
-449,153	169,549	-0,050	0,052
-448,138	-200,000	0,049	-0,211
-447,124	449,135	-0,022	0,035
-446,109	-181,180	0,062	-0,001
-445,095	-81,656	0,032	0,008
-444,080	-3,289	0,024	0,012
-443,065	82,993	-0,198	-0,157
-442,051	800,000	-0,013	-0,031
-441,036	800,000	0,044	0,094
-440,022	-160,594	-0,087	0,003
-439,007	-200,000	-0,011	-0,105
-437,992	588,672	0,051	0,093
-436,978	-133,581	0,065	0,006
-435,963	-107,253	0,034	0,005
-434,949	1,191	0,107	0,056
-433,934	-30,589	-0,069	0,028
-432,919	262,995	0,040	0,050
-431,905	531,836	0,074	-0,127
-430,890	52,867	-0,115	0,080
-429,876	-200,000	-0,012	-0,131
-428,861	-68,607	0,062	0,018
-427,846	-18,403	0,073	-0,033
-426,832	-105,651	0,035	-0,006
-425,817	176,665	0,056	-0,060
-424,803	-200,000	-0,003	-0,034
-423,788	372,363	0,086	-0,128
-422,773	-121,722	-0,082	-0,010
-421,759	235,497	0,033	0,039
-420,744	83,760	0,070	-0,055
-419,730	-42,220	-0,065	-0,024
-418,715	-59,224	0,062	0,019
-417,701	-64,616	0,197	-0,058
-416,686	-200,000	0,025	0,096
-415,671	-200,000	-0,017	0,131
-414,657	52,403	0,085	0,059
-413,642	5,512	-0,134	0,072
-412,628	-147,132	-0,107	-0,007
-411,613	80,288	-0,060	0,047
-410,598	-173,871	0,056	-0,001
-409,584	146,308	0,039	0,038
-408,569	3,247	0,053	0,028
-407,555	679,742	-0,038	0,073
-406,540	-200,000	-0,006	-0,047
-405,525	450,521	0,035	-0,056
-404,511	-96,111	-0,138	0,026
-403,496	722,873	0,021	-0,042
-402,482	-133,013	-0,109	-0,010
-401,467	-60,312	0,090	-0,028
-400,452	8,866	0,058	-0,032
-399,438	61,974	0,127	0,092
-398,423	-151,567	-0,165	-0,009
-397,409	800,000	0,020	-0,064
-396,394	341,708	0,038	-0,055
-395,379	-200,000	-0,009	0,031
-394,365	118,008	0,151	0,135
-393,350	36,609	0,014	0,009
-392,336	-200,000	0,008	0,134
-391,321	-200,000	0,003	0,049
-390,306	9,674	-0,052	-0,029
-389,292	58,324	0,045	0,032
-388,277	-151,800	-0,161	0,008
-387,263	-200,000	0,016	-0,058
-386,248	211,409	0,037	0,042
-385,233	188,641	0,055	0,060
-384,219	300,799	0,032	0,043
-383,204	25,149	-0,026	0,015
-382,190	536,558	-0,073	-0,126
-381,175	-183,286	0,036	-0,000
-380,160	-29,645	0,042	-0,017
-379,146	7,665	-0,101	0,055
-378,131	-200,000	0,022	0,129
-377,117	-92,648	-0,212	0,043
-376,102	103,307	-0,149	-0,127
-375,088	17,502	0,123	0,071
-374,073	800,000	0,040	0,086
-373,058	800,000	0,027	0,080
-372,044	-20,540	-0,083	0,037
-371,029	-70,797	0,103	0,028
-370,015	800,000	0,062	0,183
-369,000	547,144	-0,122	-0,213
-367,985	800,000	0,033	-0,082
-366,971	-31,625	-0,068	-0,028
-365,956	164,499	0,023	0,024
-364,942	234,087	0,062	0,074
-363,927	800,000	0,016	-0,051
-362,912	-43,518	0,034	-0,012
-361,898	-135,706	-0,088	0,007
-360,883	114,344	0,055	0,049
-359,869	-152,971	0,092	-0,005
-358,854	-200,000	0,014	-0,087
-357,839	324,555	0,030	0,041
-356,825	307,364	-0,137	0,186
-355,810	-200,000	0,033	0,134
-354,796	-4,143	0,029	0,014
-353,781	-200,000	-0,008	-0,071
-352,766	-160,495	-0,066	-0,003
-351,752	-7,717	0,066	0,032
-350,737	-200,000	-0,000	-0,135
-349,723	-16,840	0,086	0,040
-348,708	229,684	0,024	0,029
-347,693	396,099	-0,033	-0,050
-346,679	-97,271	0,113	0,021
-345,664	-108,751	0,115	-0,018
-344,650	-200,000	-0,001	0,015
-343,635	74,501	0,084	0,064
-342,620	-20,743	0,133	0,059
-341,606	-200,000	-0,012	0,133
-340,591	301,341	-0,085	0,114
-339,577	800,000	-0,013	0,029
-338,562	60,847	-0,166	-0,120
-337,548	21,329	0,014	-0,008
-336,533	179,897	0,043	0,046
-335,518	800,000	-0,016	-0,038
-334,504	-5,404	-0,094	-0,047
-333,489	-121,385	0,101	0,012
-332,475	-200,000	-0,027	-0,087
-331,460	-200,000	0,013	0,143
-330,445	112,346	-0,078	-0,068
-329,431	215,651	0,060	-0,069
-328,416	-200,000	-0,008	0,039
-327,402	94,315	0,106	0,087
-326,387	-200,000	0,001	-0,037
-325,372	-200,000	-0,015	-0,097
-324,358	-200,000	-0,012	0,091
-323,343	800,000	-0,020	0,055
-322,329	-67,843	-0,053	-0,015
-321,314	-200,000	-0,057	0,235
-320,299	-27,548	0,044	0,019
-319,285	-154,072	-0,063	0,003
-318,270	2,052	0,096	-0,050
-317,256	-21,808	-0,184	-0,081
-316,241	-40,461	0,066	0,025
-315,226	-166,856	0,067	0,002
-314,212	-200,000	0,005	0,049
-313,197	118,311	-0,100	0,089
-312,183	-200,000	0,026	0,109
-311,168	181,372	-0,103	-0,110
-310,153	57,649	0,050	0,036
-309,139	-77,404	0,085	-0,021
-308,124	-77,489	-0,033	-0,008
-307,110	12,856	0,105	0,059
-306,095	-59,365	0,144	0,044
-305,080	2,848	0,089	0,047
-304,066	79,076	-0,058	-0,045
-303,051	84,682	-0,127	0,101
-302,037	-200,000	-0,025	-0,079
-301,022	15,066	0,142	0,081
-300,008	-157,371	-0,060	0,003
-298,993	-200,000	0,007	0,094
-297,978	-200,000	-0,009	0,051
-296,964	38,750	-0,092	0,059
-295,949	632,220	-0,024	0,044
-294,935	800,000	0,024	-0,050
-293,920	-47,031	-0,114	-0,040
-292,905	383,043	-0,021	0,031
-291,891	800,000	0,012	0,033
-290,876	122,881	0,148	0,134
-289,862	361,405	0,040	0,058
-288,847	-200,000	0,002	0,081
-287,832	304,313	-0,071	-0,095
-286,818	380,602	-0,106	-0,158
-285,803	-41,666	-0,034	-0,012
-284,789	-200,000	-0,021	0,109
-283,774	-163,731	-0,048	0,002
-282,759	12,676	0,113	-0,063
-281,745	-105,973	-0,052	-0,008
-280,730	277,919	0,057	-0,073
-279,716	157,568	0,070	-0,070
-278,701	126,716	0,053	0,049
-277,686	800,000	0,038	0,104
-276,672	-200,000	0,011	0,051
-275,657	88,818	0,053	0,043
-274,643	123,294	-0,016	-0,014
-273,628	800,000	0,018	-0,055
-272,613	625,512	-0,078	0,143
-271,599	-33,054	-0,031	-0,012
-270,584	-200,000	0,041	0,139
-269,570	-200,000	-0,013	0,044
-268,555	-200,000	0,013	-0,053
-267,540	-200,000	0,023	-0,154
-266,526	-200,000	0,020	-0,166
-265,511	-4,530	-0,059	-0,029
-264,497	147,245	0,042	-0,041
-263,482	-111,007	0,230	0,034
-262,467	408,217	-0,039	0,060
-261,453	-81,741	-0,135	0,032
-260,438	333,462	0,028	0,040
-259,424	19,704	0,076	-0,044
-258,409	-200,000	0,004	0,017
-257,395	-12,702	0,063	0,030
-256,380	-122,150	0,098	-0,011
-255,365	-200,000	-0,028	0,128
-254,351	312,099	-0,095	-0,129
-253,336	165,023	0,038	0,039
-252,322	-56,448	-0,096	0,031
-251,307	-94,177	-0,019	-0,004
-250,292	754,958	0,013	0,025
-249,278	122,870	-0,014	0,013
-248,263	187,735	-0,049	0,053
-247,249	289,030	-0,043	-0,057
-246,234	130,369	-0,027	0,025
-245,219	25,582	-0,068	0,041
-244,205	9,408	0,086	-0,047
-243,190	-123,661	-0,087	-0,010
-242,176	-65,013	0,128	0,037
-241,161	-200,000	-0,018	0,145
-240,146	-54,680	-0,072	-0,024
-239,132	168,135	0,044	-0,045
-238,117	-6,194	-0,069	0,034
-237,103	-200,000	0,021	-0,232
-236,088	160,977	-0,015	-0,015
-235,073	498,758	-0,079	0,133
-234,059	-200,000	0,017	0,075
-233,044	142,766	0,020	0,019
-232,030	800,000	0,023	-0,048
-231,015	1,624	0,037	0,019
-230,000	34,120	-0,112	-0,071
-228,986	125,427	-0,079	-0,072
-227,971	-200,000	-0,007	0,046
-226,957	77,942	0,144	0,111
-225,942	492,164	0,037	-0,061
-224,927	-152,978	-0,023	0,001
-223,913	-200,000	0,028	-0,157
-222,898	-101,580	-0,139	0,024
-221,884	-200,000	-0,019	-0,064
-220,869	19,437	0,114	0,066
-219,855	380,475	-0,050	-0,074
-218,840	-200,000	0,008	0,191
-217,825	-99,233	0,106	0,019
-216,811	339,222	-0,018	-0,026
-215,796	-24,007	-0,048	0,021
-214,782	-82,180	0,170	-0,040
-213,767	61,653	-0,045	0,032
-212,752	-36,929	0,084	0,032
-211,738	30,292	0,060	-0,037
-210,723	-200,000	0,008	0,042
-209,709	-124,355	-0,099	0,011
-208,694	-200,000	0,009	-0,081
-207,679	800,000	-0,014	-0,029
-206,665	-200,000	0,026	0,129
-205,650	64,769	-0,142	-0,104
-204,636	800,000	0,036	-0,094
-203,621	800,000	-0,051	-0,154
-202,606	-200,000	0,001	-0,124
-201,592	70,164	0,096	-0,072
-200,577	-28,075	-0,038	-0,016
-199,563	-98,674	0,148	0,027
-198,548	100,674	0,043	-0,036
-197,533	40,795	-0,068	0,044
-196,519	-200,000	-0,014	-0,047
-195,504	20,077	-0,055	0,032
-194,490	-200,000	0,001	-0,012
-193,475	-110,948	0,056	-0,008
-192,460	165,320	0,100	-0,102
-191,446	170,179	0,046	-0,047
-190,431	2,064	0,099	0,051
-189,417	92,377	0,136	0,110
-188,402	-200,000	0,034	-0,123
-187,387	-200,000	0,020	-0,180
-186,373	-200,000	-0,010	-0,132
-185,358	-132,111	-0,180	-0,017
-184,344	-57,476	0,234	0,074
-183,329	86,064	0,008	-0,006
-182,315	361,771	-0,033	-0,048
-181,300	-27,300	-0,112	0,047
-180,285	-121,317	0,075	-0,009
-179,271	50,205	0,083	-0,056
-178,256	-39,522	-0,098	0,037
-177,242	83,816	0,049	-0,039
-176,227	800,000	0,020	0,059
-175,212	-23,505	-0,052	-0,023
-174,198	152,856	0,033	0,032
-173,183	800,000	-0,028	0,067
-172,169	117,276	-0,056	0,050
-171,154	-200,000	0,002	-0,127
-170,139	616,875	0,092	0,166
-169,125	-200,000	0,029	0,121
-168,110	343,653	-0,126	0,178
-167,096	168,656	0,039	-0,040
-166,081	800,000	-0,028	-0,073
-165,066	16,611	-0,050	-0,028
-164,052	-200,000	0,040	-0,152
-163,037	161,392	-0,076	-0,077
-162,023	-179,516	0,029	-0,000
-161,008	800,000	0,049	-0,099
-159,993	102,026	-0,039	0,033
-158,979	800,000	0,013	-0,036
-157,964	104,512	-0,097	0,082
-156,950	-200,000	0,006	-0,105
-155,935	800,000	0,017	-0,050
-154,920	-9,654	0,087	0,041
-153,906	250,565	0,036	0,044
-152,891	9,442	-0,075	0,041
-151,877	-84,470	-0,062	-0,014
-150,862	111,514	-0,169	0,146
-149,847	-200,000	0,022	0,132
-148,833	800,000	0,028	0,059
-147,818	122,004	0,115	0,103
-146,804	144,054	-0,027	-0,026
-145,789	-200,000	0,014	0,073
-144,775	117,968	-0,064	-0,057
-143,760	259,329	-0,071	0,088
-142,745	-124,493	0,027	-0,003
-141,731	257,652	-0,104	0,130
-140,716	-200,000	-0,021	-0,121
-139,702	-33,064	-0,074	0,029
-138,687	-111,895	-0,069	-0,010
-137,672	-200,000	-0,004	-0,082
-136,658	155,922	0,096	-0,095
-135,643	84,151	0,064	0,051
-134,629	631,605	-0,067	0,123
-133,614	183,777	-0,039	0,041
-132,599	-44,239	0,068	-0,024
-131,585	-200,000	-0,008	-0,112
-130,570	-107,451	0,029	0,005
-129,556	-200,000	0,001	-0,037
-128,541	-65,698	0,049	-0,014
-127,526	87,506	-0,077	-0,061
-126,512	596,016	-0,027	0,048
-125,497	418,353	0,016	0,024
-124,483	-200,000	-0,005	-0,067
-123,468	-32,683	0,077	0,031
-122,453	6,988	-0,028	0,015
-121,439	-158,874	-0,081	-0,003
-120,424	-193,607	0,057	0,000
-119,410	317,866	0,035	0,047
-118,395	97,102	-0,016	0,013
