DTS Sentinel unit serial number:	SN410029Multiplexer serial number:	ORYXHardware model number:	OX2-SRSoftware version number:	ORYX F/W v4,00 Oryx Data Collector v3.7.2.0data status	okinstallation	B5 Nyhavnadifferential loss correction	single-endedforward channel	channel 2reverse channel	N/Adate	2023/12/11time	19:02:13forward acquisition time	300,00reverse acquisition time	0,00gamma	499,1914k internal	0,3160k external	0,3160temperature offset calibration	1,0000default loss term (dB/km)	0,3820temperature slope calibration	1,0000multiplexer offset coefficient	1,0000multiplexer slope coefficient	1,0000fibre end	0,00T internal ref (°C)	15,46T ext. ref 1 (°C)	-0,25T ext. ref 2 (°C)	-0,50length (m)	temperature (°C)	Stokes	anti-Stokes-744,400	-83,400	0,111	-0,026
-743,385	-125,824	-0,283	0,031
-742,371	215,268	0,100	0,117
-741,356	-95,041	-0,273	-0,054
-740,342	-166,928	0,153	0,005
-739,327	-137,895	-0,299	-0,024
-738,312	412,895	0,065	0,101
-737,298	-34,388	-0,406	-0,163
-736,283	-38,249	0,249	0,097
-735,269	-85,746	-0,318	-0,072
-734,254	-30,417	0,075	-0,031
-733,239	-59,622	-0,489	-0,153
-732,225	-3,503	0,138	-0,070
-731,210	-102,551	0,128	-0,022
-730,196	-200,000	0,031	0,116
-729,181	229,411	-0,063	0,075
-728,167	800,000	-0,051	-0,152
-727,152	275,750	-0,032	0,042
-726,137	55,929	-0,105	-0,075
-725,123	381,189	0,050	-0,076
-724,108	516,061	-0,073	-0,126
-723,094	53,967	-0,107	0,076
-722,079	62,378	0,130	-0,095
-721,064	-162,227	0,060	-0,002
-720,050	-129,877	-0,224	0,022
-719,035	-74,078	-0,055	-0,015
-718,021	538,601	-0,067	-0,118
-717,006	800,000	0,019	0,040
-715,991	-92,789	-0,185	-0,038
-714,977	47,198	0,039	0,026
-713,962	-200,000	-0,013	0,066
-712,948	-45,836	0,099	-0,036
-711,933	-153,077	0,044	0,002
-710,918	-2,190	-0,019	-0,010
-709,904	-200,000	-0,014	-0,085
-708,889	-64,719	-0,093	0,028
-707,875	-35,291	-0,079	0,032
-706,860	325,903	0,038	0,054
-705,845	-200,000	-0,020	0,076
-704,831	416,684	-0,051	0,080
-703,816	-46,836	0,043	-0,015
-702,802	273,510	0,060	0,079
-701,787	-173,943	-0,071	0,001
-700,772	25,401	-0,085	-0,052
-699,758	51,623	0,178	0,124
-698,743	-200,000	-0,021	-0,108
-697,729	10,322	0,052	-0,029
-696,714	529,261	0,035	0,062
-695,699	-40,735	-0,042	0,016
-694,685	-39,573	-0,107	-0,041
-693,670	3,600	-0,104	0,056
-692,656	-200,000	-0,013	-0,050
-691,641	324,933	0,079	-0,112
-690,627	-108,839	-0,047	0,007
-689,612	-200,000	0,019	-0,089
-688,597	-200,000	0,003	-0,032
-687,583	-160,515	-0,047	0,002
-686,568	119,758	-0,086	-0,078
-685,554	-200,000	-0,015	0,074
-684,539	800,000	-0,051	-0,120
-683,524	-39,340	-0,080	0,031
-682,510	-142,563	0,094	-0,007
-681,495	-42,679	-0,119	0,044
-680,481	-146,857	0,208	0,013
-679,466	800,000	-0,015	-0,041
-678,451	-107,296	0,075	-0,012
-677,437	-200,000	-0,034	0,153
-676,422	123,941	-0,038	0,035
-675,408	317,391	-0,066	0,092
-674,393	127,032	-0,046	-0,043
-673,378	-200,000	-0,012	-0,055
-672,364	333,839	-0,104	-0,148
-671,349	-84,321	-0,089	-0,021
-670,335	-147,994	-0,038	0,002
-669,320	-200,000	0,022	-0,127
-668,305	137,907	-0,067	0,064
-667,291	-174,974	-0,058	0,001
-666,276	5,624	-0,055	0,030
-665,262	150,100	-0,033	0,032
-664,247	-4,215	-0,042	-0,021
-663,232	-48,683	0,159	-0,056
-662,218	-200,000	0,024	0,089
-661,203	-200,000	-0,006	-0,163
-660,189	800,000	-0,057	0,162
-659,174	-36,281	-0,088	0,035
-658,159	782,937	-0,100	-0,202
-657,145	40,682	-0,133	-0,088
-656,130	194,164	0,094	0,104
-655,116	-38,416	-0,045	0,017
-654,101	-59,550	0,098	-0,031
-653,086	7,928	-0,070	-0,039
-652,072	580,253	-0,065	-0,117
-651,057	32,074	-0,058	-0,037
-650,043	51,940	0,148	-0,104
-649,028	-200,000	-0,002	-0,010
-648,014	152,951	0,048	-0,048
-646,999	-139,017	0,027	0,002
-645,984	-200,000	0,006	0,045
-644,970	-24,842	0,106	-0,046
-643,955	18,648	-0,097	-0,057
-642,941	47,250	-0,162	-0,110
-641,926	612,948	-0,035	0,064
-640,911	800,000	0,035	0,105
-639,897	94,925	-0,021	0,017
-638,882	800,000	0,012	0,036
-637,868	-200,000	-0,009	0,072
-636,853	-116,502	-0,116	-0,015
-635,838	800,000	-0,053	-0,113
-634,824	61,276	0,121	-0,088
-633,809	800,000	-0,016	-0,035
-632,795	738,158	0,044	-0,087
-631,780	-200,000	-0,001	-0,090
-630,765	-200,000	0,025	-0,094
-629,751	800,000	-0,028	0,085
-628,736	37,008	-0,068	-0,044
-627,722	439,623	-0,021	-0,034
-626,707	-41,231	0,111	-0,042
-625,692	800,000	-0,036	-0,076
-624,678	-200,000	-0,030	0,127
-623,663	-43,490	0,052	0,019
-622,649	250,872	-0,141	-0,176
-621,634	-200,000	-0,011	-0,054
-620,619	-200,000	-0,017	-0,071
-619,605	-88,608	0,096	-0,021
-618,590	413,972	0,023	-0,036
-617,576	-200,000	-0,000	-0,098
-616,561	328,932	-0,004	-0,006
-615,546	-200,000	0,005	-0,022
-614,532	117,993	-0,055	-0,050
-613,517	25,269	0,061	0,037
-612,503	-200,000	0,001	-0,106
-611,488	-12,940	0,109	0,052
-610,474	127,731	0,149	0,139
-609,459	-33,791	-0,055	0,022
-608,444	104,793	-0,084	0,072
-607,430	-200,000	0,010	-0,126
-606,415	168,828	-0,130	0,136
-605,401	382,060	0,098	0,147
-604,386	-200,000	0,135	-0,000
-603,371	461,365	0,042	0,069
-602,357	82,915	-0,088	0,070
-601,342	-200,000	0,020	0,086
-600,328	-63,879	-0,090	0,027
-599,313	-99,061	-0,128	-0,024
-598,298	-85,277	-0,048	-0,011
-597,284	-200,000	-0,021	-0,094
-596,269	-200,000	0,010	0,071
-595,255	741,748	0,079	0,156
-594,240	648,190	-0,039	-0,074
-593,225	-52,314	-0,111	-0,038
-592,211	378,966	-0,095	-0,143
-591,196	-200,000	0,022	0,138
-590,182	726,131	-0,047	-0,091
-589,167	258,770	0,010	-0,012
-588,152	-7,456	0,053	-0,026
-587,138	-151,842	-0,033	-0,002
-586,123	-125,674	-0,148	-0,016
-585,109	-9,077	0,074	0,036
-584,094	21,897	-0,186	0,111
-583,079	-55,687	0,167	-0,054
-582,065	-200,000	0,014	0,075
-581,050	624,098	0,038	0,071
-580,036	754,053	-0,039	-0,078
-579,021	39,367	-0,034	-0,022
-578,006	33,861	-0,094	-0,060
-576,992	-200,000	-0,023	-0,103
-575,977	-61,324	0,103	0,032
-574,963	90,261	-0,078	0,064
-573,948	-75,277	0,099	0,026
-572,934	225,169	-0,113	-0,134
-571,919	800,000	0,071	-0,196
-570,904	105,155	-0,124	-0,107
-569,890	-200,000	-0,004	0,062
-568,875	-175,669	0,062	-0,001
-567,861	174,767	0,052	0,055
-566,846	69,637	0,113	-0,085
-565,831	52,055	0,036	0,025
-564,817	375,642	-0,069	-0,104
-563,802	-80,139	-0,128	-0,031
-562,788	-200,000	-0,016	0,051
-561,773	-200,000	0,015	-0,069
-560,758	800,000	-0,059	0,158
-559,744	724,146	0,021	-0,042
-558,729	-38,489	0,070	0,027
-557,715	-200,000	0,027	0,112
-556,700	-200,000	-0,032	-0,154
-555,685	207,325	0,095	-0,109
-554,671	-72,721	0,113	0,030
-553,656	165,359	-0,073	0,075
-552,642	673,682	0,031	-0,060
-551,627	266,667	-0,014	-0,018
-550,612	800,000	0,018	0,038
-549,598	800,000	-0,020	0,052
-548,583	-68,071	-0,123	-0,035
-547,569	-169,524	-0,128	0,003
-546,554	800,000	-0,010	0,027
-545,539	86,329	0,057	0,046
-544,525	256,693	-0,062	0,078
-543,510	721,290	-0,048	0,094
-542,496	800,000	-0,051	-0,141
-541,481	800,000	-0,021	-0,067
-540,466	451,937	-0,008	0,013
-539,452	-200,000	-0,030	0,137
-538,437	36,006	-0,055	0,035
-537,423	-200,000	0,004	-0,031
-536,408	318,078	-0,090	0,124
-535,393	24,502	-0,042	0,026
-534,379	800,000	-0,044	-0,136
-533,364	-27,575	-0,052	-0,022
-532,350	440,210	0,050	0,081
-531,335	268,189	0,040	-0,051
-530,321	-154,723	0,016	0,001
-529,306	338,970	0,048	0,069
-528,291	800,000	-0,039	-0,087
-527,277	178,159	-0,015	0,016
-526,262	-91,182	0,083	-0,017
-525,248	-122,453	0,040	-0,005
-524,233	97,342	0,120	0,101
-523,218	800,000	0,045	0,112
-522,204	-200,000	0,008	0,043
-521,189	-47,188	-0,086	-0,031
-520,175	-149,767	0,057	0,003
-519,160	800,000	-0,008	0,025
-518,145	800,000	-0,025	0,072
-517,131	11,168	0,130	0,072
-516,116	68,322	0,087	0,065
-515,102	292,728	-0,021	0,028
-514,087	-22,585	0,063	0,028
-513,072	-200,000	0,011	-0,041
-512,058	-99,528	0,069	-0,013
-511,043	-156,485	-0,104	-0,005
-510,029	800,000	0,039	0,107
-509,014	196,413	0,091	0,101
-507,999	-200,000	0,007	0,039
-506,985	-86,666	-0,038	0,009
-505,970	-117,359	-0,103	-0,014
-504,956	-50,621	0,114	0,039
-503,941	-200,000	0,002	0,125
-502,926	614,854	0,018	0,032
-501,912	85,277	0,031	-0,025
-500,897	-200,000	0,007	0,062
-499,883	-89,636	0,063	0,013
-498,868	-200,000	-0,046	-0,152
-497,853	-3,142	-0,113	0,057
-496,839	-25,527	-0,051	-0,022
-495,824	-200,000	0,022	-0,170
-494,810	-69,176	-0,030	0,008
-493,795	80,195	-0,053	0,042
-492,781	-200,000	-0,016	-0,088
-491,766	46,835	-0,121	0,082
-490,751	8,812	0,097	-0,053
-489,737	800,000	-0,016	-0,043
-488,722	-81,745	-0,107	0,025
-487,708	355,922	-0,035	-0,051
-486,693	800,000	-0,010	-0,027
-485,678	166,145	-0,061	0,063
-484,664	59,580	-0,078	-0,056
-483,649	622,874	0,080	0,148
-482,635	181,081	0,069	-0,075
-481,620	161,804	-0,055	0,056
-480,605	-113,105	0,228	0,032
-479,591	-200,000	0,032	0,119
-478,576	-165,550	0,091	-0,003
-477,562	65,589	0,106	-0,078
-476,547	-200,000	0,004	-0,063
-475,532	800,000	-0,038	-0,111
-474,518	-6,540	0,106	-0,052
-473,503	800,000	-0,033	0,082
-472,489	-78,446	0,023	0,006
-471,474	209,114	-0,024	-0,027
-470,459	6,023	-0,004	0,002
-469,445	-200,000	0,020	-0,221
-468,430	800,000	-0,031	-0,069
-467,416	-154,994	-0,156	0,007
-466,401	259,993	-0,037	-0,047
-465,386	683,228	0,030	0,058
-464,372	-200,000	0,008	0,085
-463,357	800,000	-0,027	0,057
-462,343	9,347	-0,090	-0,049
-461,328	-200,000	0,038	-0,131
-460,313	160,684	0,126	-0,128
-459,299	190,642	-0,043	-0,047
-458,284	131,713	0,123	0,116
-457,270	208,927	-0,079	0,090
-456,255	308,376	0,011	0,016
-455,241	-120,133	-0,131	-0,016
-454,226	-94,880	-0,070	0,014
-453,211	-8,314	0,061	-0,030
-452,197	-113,105	0,049	-0,007
-451,182	800,000	0,039	-0,118
-450,168	800,000	-0,024	0,053
-449,153	31,812	0,037	0,023
-448,138	37,917	-0,105	-0,068
-447,124	122,978	0,087	-0,079
-446,109	-30,450	0,166	-0,068
-445,095	91,480	-0,102	-0,083
-444,080	229,302	0,048	0,057
-443,065	344,910	-0,032	0,046
-442,051	7,590	-0,085	-0,046
-441,036	546,349	-0,100	-0,174
-440,022	101,858	-0,049	0,042
-439,007	-102,018	0,074	0,013
-437,992	401,907	-0,020	0,030
-436,978	11,515	-0,080	0,045
-435,963	-8,849	0,066	-0,032
-434,949	-119,634	-0,102	-0,013
-433,934	-200,000	-0,004	0,018
-432,919	-100,436	-0,045	0,008
-431,905	-49,813	-0,089	-0,030
-430,890	800,000	0,021	0,043
-429,876	-76,415	0,121	-0,031
-428,861	-5,367	-0,051	-0,025
-427,846	9,993	-0,028	-0,015
-426,832	800,000	-0,065	-0,157
-425,817	180,751	0,099	-0,106
-424,803	-200,000	0,002	0,056
-423,788	-100,654	0,106	0,019
-422,773	-33,139	0,150	0,060
-421,759	-42,401	0,032	0,012
-420,744	50,166	-0,045	0,031
-419,730	157,565	0,035	0,036
-418,715	-200,000	-0,001	-0,124
-417,701	-70,210	0,095	0,026
-416,686	-200,000	0,001	-0,102
-415,671	-132,573	0,121	-0,011
-414,657	137,805	-0,073	0,070
-413,642	440,655	-0,078	0,125
-412,628	-12,281	-0,105	-0,050
-411,613	-200,000	-0,005	-0,094
-410,598	-61,677	-0,166	0,050
-409,584	800,000	0,029	-0,070
-408,569	-58,670	0,120	-0,037
-407,555	-200,000	-0,015	-0,065
-406,540	800,000	-0,035	0,078
-405,525	-200,000	0,006	0,020
-404,511	-200,000	-0,011	0,074
-403,496	-200,000	-0,027	0,103
-402,482	32,185	0,115	0,072
-401,467	-200,000	-0,017	-0,074
-400,452	51,102	-0,032	-0,022
-399,438	36,993	0,068	-0,044
-398,423	-200,000	0,028	-0,100
-397,409	-200,000	0,007	0,088
-396,394	62,936	-0,066	-0,048
-395,379	100,278	0,035	0,030
-394,365	-94,049	0,173	-0,034
-393,350	26,173	0,060	-0,036
-392,336	52,014	0,035	-0,024
-391,321	1,537	-0,114	0,060
-390,306	22,629	0,090	0,053
-389,292	101,011	-0,083	0,070
-388,277	-15,161	0,049	0,023
-387,263	-102,203	-0,074	-0,013
-386,248	-101,640	0,027	-0,005
-385,233	-200,000	-0,005	-0,100
-384,219	-200,000	0,042	0,150
-383,204	-135,381	-0,186	-0,016
-382,190	173,981	-0,097	0,102
-381,175	-200,000	-0,010	0,059
-380,160	-138,977	0,136	0,011
-379,146	-21,556	0,162	0,072
-378,131	13,302	0,029	0,016
-377,117	163,066	-0,108	0,111
-376,102	-134,695	-0,030	-0,003
-375,088	-65,241	0,071	0,021
-374,073	15,642	0,027	0,015
-373,058	-77,905	0,157	0,039
-372,044	70,685	0,156	-0,117
-371,029	-81,836	-0,089	0,021
-370,015	123,641	-0,120	0,109
-369,000	800,000	-0,047	-0,101
-367,985	59,502	0,048	-0,034
-366,971	-45,465	0,030	0,011
-365,956	329,790	-0,037	0,051
-364,942	-27,580	-0,032	-0,013
-363,927	26,848	-0,092	-0,056
-362,912	780,010	-0,029	-0,058
-361,898	-200,000	-0,002	0,167
-360,883	772,328	0,015	0,029
-359,869	-149,033	-0,124	0,007
-358,854	-8,271	0,134	-0,065
-357,839	484,944	-0,037	0,062
-356,825	571,548	-0,036	0,063
-355,810	221,207	0,041	-0,047
-354,796	22,421	-0,041	-0,024
-353,781	151,337	-0,054	-0,053
-352,766	177,423	-0,021	0,022
-351,752	308,471	0,037	0,050
-350,737	713,733	0,089	0,173
-349,723	-42,630	0,078	-0,029
-348,708	6,057	0,064	0,034
-347,693	24,979	-0,126	-0,076
-346,679	-46,984	-0,011	-0,004
-345,664	176,026	-0,066	0,070
-344,650	-200,000	0,000	-0,043
-343,635	308,667	-0,090	0,123
-342,620	-26,609	-0,094	0,040
-341,606	-75,658	-0,128	0,033
-340,591	280,776	0,120	0,156
-339,577	692,816	0,051	-0,097
-338,562	200,364	-0,079	0,089
-337,548	-200,000	0,035	0,153
-336,533	800,000	0,023	0,052
-335,518	74,621	-0,102	0,078
-334,504	-200,000	-0,008	0,158
-333,489	-58,291	0,070	0,022
-332,475	-112,041	-0,042	-0,006
-331,460	174,544	0,063	0,066
-330,445	-200,000	0,027	0,101
-329,431	-17,088	0,072	-0,033
-328,416	-200,000	0,001	-0,054
-327,402	168,876	0,062	-0,064
-326,387	346,604	0,034	-0,049
-325,372	-200,000	-0,039	-0,145
-324,358	184,932	-0,060	-0,065
-323,343	-85,298	-0,033	0,007
-322,329	-200,000	0,007	0,035
-321,314	-200,000	-0,007	0,159
-320,299	-200,000	-0,021	0,131
-319,285	126,434	0,028	0,025
-318,270	-151,355	0,124	0,007
-317,256	-200,000	0,025	-0,090
-316,241	-27,792	-0,044	0,018
-315,226	-123,748	0,012	-0,001
-314,212	-200,000	0,005	0,036
-313,197	-0,004	0,052	0,027
-312,183	-200,000	0,012	-0,082
-311,168	277,854	-0,080	-0,103
-310,153	47,947	-0,064	-0,043
-309,139	-86,380	0,123	-0,027
-308,124	113,900	0,040	-0,035
-307,110	164,195	-0,031	-0,032
-306,095	181,205	-0,094	0,100
-305,080	546,906	0,018	-0,031
-304,066	237,762	-0,093	-0,111
-303,051	773,456	-0,012	-0,023
-302,037	800,000	-0,023	-0,056
-301,022	800,000	-0,050	-0,114
-300,008	68,500	-0,112	0,083
-298,993	-200,000	-0,017	0,066
-297,978	-200,000	0,008	0,064
-296,964	800,000	0,042	-0,112
-295,949	-28,679	0,093	0,039
-294,935	-200,000	-0,001	-0,023
-293,920	139,488	-0,034	-0,032
-292,905	-31,588	0,048	0,020
-291,891	-117,896	0,073	-0,009
-290,876	-158,129	0,026	0,001
-289,862	-200,000	0,008	0,053
-288,847	800,000	0,026	-0,073
-287,832	158,033	-0,092	-0,092
-286,818	800,000	0,019	0,059
-285,803	109,996	0,096	0,084
-284,789	-25,256	-0,047	-0,020
-283,774	-165,596	-0,102	-0,003
-282,759	99,034	0,087	-0,073
-281,745	800,000	-0,044	-0,133
-280,730	-130,809	-0,070	0,007
-279,716	-200,000	0,003	-0,024
-278,701	328,400	0,110	0,153
-277,686	800,000	0,024	-0,058
-276,672	561,403	-0,023	-0,040
-275,657	225,233	0,113	-0,132
-274,643	-143,337	0,087	-0,006
-273,628	-14,274	-0,108	-0,050
-272,613	-200,000	-0,015	-0,072
-271,599	-200,000	-0,007	0,101
-270,584	-66,575	0,171	0,049
-269,570	-200,000	0,029	0,152
-268,555	338,911	-0,043	0,061
-267,540	-17,835	-0,060	-0,027
-266,526	-137,231	0,149	-0,012
-265,511	719,798	-0,024	-0,046
-264,497	-200,000	-0,003	-0,140
-263,482	-16,988	0,140	0,064
-262,467	-200,000	0,006	-0,027
-261,453	-63,345	-0,091	-0,027
-260,438	-200,000	-0,022	-0,214
-259,424	-200,000	-0,001	0,047
-258,409	800,000	0,017	0,043
-257,395	196,330	0,120	-0,133
-256,380	-41,434	0,099	0,037
-255,365	465,774	0,068	-0,111
-254,351	166,642	-0,068	-0,070
-253,336	15,511	0,026	-0,015
-252,322	47,346	-0,101	-0,068
-251,307	-84,214	-0,077	0,018
-250,292	-200,000	0,015	0,067
-249,278	-20,885	0,066	-0,029
-248,263	8,931	-0,104	0,057
-247,249	-200,000	0,009	0,091
-246,234	-20,739	-0,052	0,023
-245,219	-200,000	-0,007	0,062
-244,205	-200,000	-0,002	0,044
-243,190	328,558	0,106	-0,148
-242,176	366,799	-0,065	0,095
-241,161	18,249	0,046	-0,026
-240,146	28,020	-0,137	0,083
-239,132	-55,595	0,142	-0,046
-238,117	14,326	-0,180	-0,101
-237,103	146,805	-0,074	-0,072
-236,088	-200,000	-0,011	0,098
-235,073	64,128	-0,072	0,053
-234,059	-107,449	0,029	-0,005
-233,044	372,851	0,049	0,072
-232,030	735,291	-0,007	-0,014
-231,015	800,000	-0,041	-0,095
-230,000	-200,000	-0,005	-0,083
-228,986	-200,000	-0,013	0,059
-227,971	-200,000	0,011	0,041
-226,957	88,289	0,034	-0,027
-225,942	-200,000	0,011	0,038
-224,927	-32,262	-0,104	-0,042
-223,913	-1,943	-0,057	-0,029
-222,898	39,054	-0,106	-0,068
-221,884	-45,690	0,104	0,037
-220,869	-200,000	0,012	0,086
-219,855	-200,000	-0,029	0,117
-218,840	-4,873	-0,051	0,025
-217,825	87,745	-0,030	-0,024
-216,811	84,666	-0,039	0,031
-215,796	-200,000	0,007	0,055
-214,782	-200,000	-0,010	0,060
-213,767	800,000	-0,025	-0,075
-212,752	62,580	-0,016	0,012
-211,738	768,834	0,057	-0,113
-210,723	-200,000	-0,020	0,150
-209,709	-200,000	0,073	-0,232
-208,694	-200,000	-0,006	0,024
-207,679	800,000	-0,016	-0,044
-206,665	-200,000	-0,002	0,033
-205,650	517,030	0,121	0,205
-204,636	800,000	-0,009	0,024
-203,621	341,132	0,058	-0,082
-202,606	-130,015	0,073	-0,007
-201,592	52,588	-0,041	-0,029
-200,577	440,409	0,022	-0,035
-199,563	589,546	-0,037	0,065
-198,548	-104,121	0,176	-0,029
-197,533	-45,240	0,149	0,053
-196,519	800,000	0,058	0,146
-195,504	-154,442	-0,086	-0,004
-194,490	47,360	0,017	-0,011
-193,475	800,000	0,045	-0,121
-192,460	-200,000	-0,013	-0,067
-191,446	-16,268	0,144	0,066
-190,431	-200,000	0,016	0,103
-189,417	-81,020	0,171	0,040
-188,402	146,211	-0,134	-0,129
-187,387	-200,000	0,020	-0,181
-186,373	-200,000	-0,045	-0,304
-185,358	304,365	-0,032	-0,043
-184,344	377,715	-0,028	0,042
-183,329	-200,000	0,029	0,126
-182,315	-200,000	0,009	-0,048
-181,300	294,169	0,039	-0,052
-180,285	-200,000	-0,029	-0,172
-179,271	8,554	0,057	-0,031
-178,256	-200,000	0,023	0,107
-177,242	66,337	0,086	0,063
-176,227	394,859	0,007	0,011
-175,212	-4,832	0,088	-0,043
-174,198	800,000	-0,033	0,094
-173,183	234,418	-0,110	0,131
-172,169	-200,000	0,009	-0,059
-171,154	139,430	-0,063	-0,059
-170,139	-80,518	0,020	0,005
-169,125	156,124	-0,017	0,016
-168,110	-169,108	0,086	0,002
-167,096	49,099	0,083	0,056
-166,081	-200,000	0,008	-0,041
-165,066	128,354	-0,116	0,106
-164,052	-0,185	-0,060	0,031
-163,037	-128,071	0,053	-0,005
-162,023	588,186	-0,043	0,076
-161,008	337,709	-0,009	0,013
-159,993	396,722	-0,122	0,184
-158,979	-8,082	-0,062	-0,030
-157,964	800,000	-0,003	0,010
-156,950	-12,654	-0,087	-0,041
-155,935	4,975	0,051	0,027
-154,920	387,615	0,061	0,091
-153,906	-200,000	-0,008	-0,098
-152,891	-200,000	0,001	0,088
-151,877	677,346	-0,077	0,145
-150,862	-86,064	-0,086	-0,019
-149,847	800,000	-0,024	0,072
-148,833	-2,233	-0,130	-0,065
-147,818	-104,179	0,105	0,017
-146,804	104,527	-0,034	0,029
-145,789	138,828	0,036	-0,034
-144,775	-122,848	-0,099	0,011
-143,760	800,000	-0,075	-0,161
-142,745	705,754	-0,108	-0,205
-141,731	-94,164	0,120	0,024
-140,716	108,880	0,073	0,063
-139,702	800,000	-0,023	-0,055
-138,687	-200,000	-0,009	0,034
-137,672	167,028	-0,041	-0,042
-136,658	563,398	0,053	-0,094
-135,643	-200,000	-0,028	-0,105
-134,629	-200,000	-0,026	-0,119
-133,614	56,730	-0,047	-0,033
-132,599	-200,000	0,005	0,081
-131,585	-200,000	-0,002	-0,034
-130,570	-200,000	-0,012	0,083
-129,556	649,785	0,020	-0,036
-128,541	-200,000	-0,020	-0,174
-127,526	185,153	-0,060	0,064
-126,512	800,000	0,027	-0,065
-125,497	-53,509	0,155	0,051
-124,483	71,867	-0,025	0,019
-123,468	-129,067	0,027	0,003
-122,453	-200,000	0,002	0,018
-121,439	118,023	-0,041	-0,037
-120,424	62,676	0,015	-0,010
-119,410	40,699	0,035	-0,023
