DTS Sentinel unit serial number:	SN410029Multiplexer serial number:	ORYXHardware model number:	OX2-SRSoftware version number:	ORYX F/W v4,00 Oryx Data Collector v3.7.2.0data status	okinstallation	B5 Nyhavnadifferential loss correction	single-endedforward channel	channel 2reverse channel	N/Adate	2023/12/13time	17:27:13forward acquisition time	300,00reverse acquisition time	0,00gamma	499,1914k internal	0,3158k external	0,3158temperature offset calibration	1,0000default loss term (dB/km)	0,3820temperature slope calibration	1,0000multiplexer offset coefficient	1,0000multiplexer slope coefficient	1,0000fibre end	0,00T internal ref (°C)	13,81T ext. ref 1 (°C)	-3,60T ext. ref 2 (°C)	-3,70length (m)	temperature (°C)	Stokes	anti-Stokes-744,400	-120,238	0,104	-0,013
-743,385	-110,410	-0,303	-0,046
-742,371	570,468	0,055	0,099
-741,356	-105,459	-0,357	0,059
-740,342	87,192	0,159	0,129
-739,327	29,535	-0,196	0,122
-738,312	-75,703	0,072	0,019
-737,298	-91,683	-0,430	-0,089
-736,283	-147,157	0,294	-0,018
-735,269	45,850	-0,212	0,144
-734,254	457,451	0,100	0,164
-733,239	0,870	-0,555	-0,292
-732,225	-30,174	0,100	0,042
-731,210	-2,636	-0,079	-0,041
-730,196	471,631	-0,121	-0,202
-729,181	-200,000	-0,010	-0,060
-728,167	95,619	-0,043	0,036
-727,152	42,623	0,018	0,012
-726,137	18,855	-0,077	0,045
-725,123	-200,000	-0,031	-0,113
-724,108	143,781	-0,110	-0,108
-723,094	373,878	-0,057	-0,086
-722,079	-138,039	-0,072	0,006
-721,064	355,340	0,117	-0,171
-720,050	54,238	-0,021	-0,015
-719,035	500,065	-0,009	-0,016
-718,021	202,155	-0,031	0,036
-717,006	800,000	-0,039	-0,089
-715,991	800,000	-0,052	-0,131
-714,977	-124,173	-0,032	0,004
-713,962	-200,000	0,044	-0,155
-712,948	65,486	-0,105	-0,078
-711,933	800,000	0,020	0,043
-710,918	800,000	-0,009	0,025
-709,904	410,255	-0,119	-0,186
-708,889	-200,000	-0,006	0,081
-707,875	9,269	0,038	-0,021
-706,860	239,872	-0,015	0,019
-705,845	-145,144	-0,148	-0,010
-704,831	460,614	-0,071	0,116
-703,816	288,572	-0,024	-0,032
-702,802	-200,000	0,001	-0,096
-701,787	-109,152	-0,030	-0,005
-700,772	-200,000	0,004	0,174
-699,758	-200,000	-0,005	-0,045
-698,743	800,000	-0,020	0,042
-697,729	800,000	0,023	-0,056
-696,714	-184,097	-0,056	-0,001
-695,699	-38,119	-0,074	-0,029
-694,685	648,811	0,116	-0,219
-693,670	-22,162	-0,124	-0,055
-692,656	-39,978	0,022	-0,008
-691,641	-169,750	-0,122	-0,003
-690,627	55,811	0,095	-0,068
-689,612	4,331	-0,038	0,021
-688,597	-200,000	0,007	-0,079
-687,583	800,000	-0,048	-0,133
-686,568	800,000	0,028	-0,065
-685,554	35,963	0,139	-0,090
-684,539	349,586	-0,036	0,053
-683,524	800,000	0,048	0,140
-682,510	29,833	0,065	0,041
-681,495	-84,244	0,052	0,012
-680,481	-200,000	0,028	0,151
-679,466	-200,000	-0,023	-0,122
-678,451	-200,000	0,000	0,020
-677,437	-9,647	-0,117	0,057
-676,422	261,312	0,116	0,148
-675,408	-82,574	-0,055	-0,013
-674,393	800,000	0,036	-0,084
-673,378	-42,822	-0,139	-0,052
-672,364	-12,337	-0,059	0,028
-671,349	800,000	-0,062	-0,140
-670,335	161,732	0,156	-0,161
-669,320	4,374	-0,051	-0,028
-668,305	-0,708	0,035	0,018
-667,291	800,000	-0,034	0,082
-666,276	-140,455	-0,126	0,009
-665,262	-50,965	-0,198	-0,068
-664,247	-59,123	0,011	0,003
-663,232	37,026	0,059	0,038
-662,218	-156,601	0,048	0,002
-661,203	800,000	0,055	-0,124
-660,189	467,707	-0,047	0,078
-659,174	82,520	-0,072	0,057
-658,159	-200,000	0,008	-0,126
-657,145	-127,809	-0,054	0,006
-656,130	800,000	0,019	-0,062
-655,116	-200,000	0,005	0,046
-654,101	50,110	0,097	-0,067
-653,086	580,287	0,024	-0,044
-652,072	72,482	-0,149	-0,114
-651,057	-65,537	0,069	0,020
-650,043	21,755	-0,043	0,026
-649,028	175,826	-0,087	0,093
-648,014	-200,000	0,022	0,103
-646,999	206,776	-0,058	-0,067
-645,984	-200,000	0,014	-0,067
-644,970	-14,227	-0,084	0,040
-643,955	800,000	-0,029	-0,083
-642,941	800,000	-0,025	0,052
-641,926	-16,445	0,056	-0,026
-640,911	800,000	0,034	-0,071
-639,897	114,252	-0,039	-0,035
-638,882	-140,058	0,046	0,004
-637,868	622,892	0,085	0,157
-636,853	-51,324	-0,115	0,039
-635,838	38,501	-0,110	-0,072
-634,824	-200,000	-0,022	-0,078
-633,809	-200,000	-0,027	0,218
-632,795	800,000	0,029	-0,083
-631,780	-34,189	-0,098	0,039
-630,765	248,652	-0,069	-0,086
-629,751	-16,431	0,064	0,030
-628,736	-7,102	-0,096	-0,047
-627,722	150,599	0,040	-0,040
-626,707	-200,000	0,048	0,161
-625,692	250,755	-0,088	0,110
-624,678	62,710	-0,070	0,051
-623,663	191,780	0,010	-0,011
-622,649	225,801	0,032	-0,038
-621,634	-200,000	-0,001	-0,064
-620,619	800,000	0,047	-0,113
-619,605	-117,748	0,103	-0,013
-618,590	-30,241	0,138	0,057
-617,576	22,081	0,140	0,084
-616,561	800,000	0,025	-0,064
-615,546	800,000	0,063	0,133
-614,532	-2,174	-0,158	0,081
-613,517	-200,000	-0,008	0,030
-612,503	325,134	0,095	0,133
-611,488	-141,466	0,130	-0,010
-610,474	201,785	-0,012	-0,014
-609,459	129,679	0,069	-0,065
-608,444	791,100	-0,044	-0,088
-607,430	800,000	-0,038	-0,106
-606,415	487,907	0,051	0,085
-605,401	388,903	-0,096	0,147
-604,386	-200,000	-0,010	0,082
-603,371	800,000	0,060	0,149
-602,357	-200,000	-0,006	-0,036
-601,342	-200,000	-0,018	-0,074
-600,328	-97,004	-0,127	-0,024
-599,313	-18,044	-0,097	-0,044
-598,298	800,000	-0,026	0,076
-597,284	800,000	0,053	0,135
-596,269	-200,000	0,013	0,096
-595,255	188,401	0,058	-0,064
-594,240	-108,043	-0,066	0,010
-593,225	26,931	-0,051	0,031
-592,211	800,000	-0,079	-0,238
-591,196	146,713	-0,071	-0,070
-590,182	-200,000	0,003	0,048
-589,167	348,385	0,099	0,143
-588,152	-113,184	-0,074	-0,011
-587,138	86,986	-0,086	-0,070
-586,123	83,873	0,064	0,051
-585,109	-18,093	-0,133	0,061
-584,094	800,000	0,023	-0,064
-583,079	800,000	-0,037	-0,075
-582,065	-70,443	0,169	0,046
-581,050	-15,700	0,035	0,016
-580,036	24,132	0,018	0,011
-579,021	-76,394	-0,049	0,013
-578,006	220,454	-0,113	-0,133
-576,992	-200,000	-0,012	0,059
-575,977	-117,641	0,116	-0,015
-574,963	-122,127	0,113	0,013
-573,948	-140,590	-0,155	-0,012
-572,934	-82,457	0,079	-0,019
-571,919	67,771	-0,123	-0,092
-570,904	0,260	-0,036	0,019
-569,890	132,468	-0,053	-0,050
-568,875	-96,025	0,086	0,017
-567,861	-66,931	0,055	-0,016
-566,846	-119,587	0,094	0,012
-565,831	53,342	-0,136	-0,095
-564,817	-200,000	-0,013	-0,073
-563,802	-151,313	-0,099	-0,005
-562,788	-68,623	-0,025	0,007
-561,773	-200,000	0,032	-0,106
-560,758	-200,000	0,025	0,106
-559,744	36,587	-0,068	0,044
-558,729	222,240	0,076	-0,089
-557,715	-55,881	-0,083	0,027
-556,700	-53,327	0,091	-0,030
-555,685	69,258	-0,086	-0,065
-554,671	4,533	-0,065	-0,035
-553,656	44,623	0,102	-0,068
-552,642	-148,209	0,100	-0,006
-551,627	800,000	0,024	0,072
-550,612	239,945	-0,123	-0,151
-549,598	-200,000	0,014	-0,075
-548,583	-98,820	0,218	-0,040
-547,569	266,580	0,014	-0,018
-546,554	-200,000	0,009	0,135
-545,539	73,872	-0,079	0,060
-544,525	800,000	-0,048	0,104
-543,510	800,000	0,018	-0,038
-542,496	-200,000	0,001	-0,084
-541,481	251,539	-0,025	0,032
-540,466	-200,000	0,004	-0,115
-539,452	-101,083	0,138	0,025
-538,437	19,963	0,082	-0,048
-537,423	-99,654	0,091	-0,017
-536,408	-200,000	-0,010	-0,063
-535,393	24,084	-0,048	-0,029
-534,379	-161,065	0,041	-0,002
-533,364	800,000	-0,032	0,103
-532,350	244,918	0,065	-0,080
-531,335	800,000	0,008	-0,016
-530,321	-99,817	0,006	-0,001
-529,306	100,635	-0,055	-0,047
-528,291	70,445	-0,087	0,066
-527,277	232,077	-0,068	-0,082
-526,262	-29,257	-0,044	0,018
-525,248	-200,000	0,001	0,059
-524,233	-21,147	-0,141	-0,063
-523,218	347,769	0,069	0,099
-522,204	205,808	0,017	-0,020
-521,189	-200,000	0,041	-0,156
-520,175	-21,298	0,028	0,012
-519,160	90,524	-0,092	0,076
-518,145	354,147	-0,051	0,074
-517,131	219,452	-0,093	0,109
-516,116	-109,262	0,133	0,020
-515,102	800,000	-0,023	0,058
-514,087	237,753	0,089	-0,108
-513,072	-57,601	0,088	0,028
-512,058	-56,810	-0,080	0,026
-511,043	-189,199	-0,121	-0,001
-510,029	-43,300	-0,041	-0,015
-509,014	473,651	-0,014	0,023
-507,999	-52,967	0,067	0,022
-506,985	800,000	-0,018	0,036
-505,970	-200,000	-0,017	0,094
-504,956	-42,488	-0,055	-0,020
-503,941	194,478	0,062	-0,068
-502,926	-78,181	0,131	0,033
-501,912	401,410	-0,031	0,048
-500,897	-67,462	0,058	0,017
-499,883	48,233	0,005	-0,004
-498,868	-200,000	-0,004	-0,038
-497,853	79,246	-0,027	-0,021
-496,839	566,541	-0,016	0,028
-495,824	-107,459	0,061	-0,010
-494,810	800,000	0,039	0,096
-493,795	275,711	-0,002	0,003
-492,781	163,954	-0,072	0,074
-491,766	84,370	-0,137	-0,109
-490,751	-33,316	0,058	-0,023
-489,737	473,739	0,096	0,158
-488,722	-200,000	-0,016	0,181
-487,708	213,865	-0,035	0,040
-486,693	800,000	0,046	0,108
-485,678	120,890	0,110	-0,100
-484,664	800,000	0,013	-0,040
-483,649	123,208	-0,054	-0,049
-482,635	-112,348	0,026	-0,004
-481,620	1,774	0,079	0,042
-480,605	-200,000	0,025	0,137
-479,591	437,027	-0,034	0,054
-478,576	67,649	-0,013	0,009
-477,562	380,356	-0,071	-0,107
-476,547	800,000	0,001	0,003
-475,532	269,287	-0,024	-0,030
-474,518	118,364	0,080	0,072
-473,503	-93,025	-0,013	-0,003
-472,489	-27,862	-0,085	0,036
-471,474	-159,900	-0,223	0,009
-470,459	-200,000	-0,012	-0,040
-469,445	45,783	0,030	0,020
-468,430	30,132	0,050	0,031
-467,416	-68,245	0,081	-0,023
-466,401	168,431	-0,068	0,071
-465,386	-125,879	0,068	0,007
-464,372	231,239	-0,080	0,096
-463,357	13,695	-0,128	-0,072
-462,343	311,277	-0,053	-0,072
-461,328	323,901	0,012	-0,017
-460,313	266,982	0,091	0,116
-459,299	65,507	0,078	-0,058
-458,284	-200,000	-0,013	-0,089
-457,270	293,983	0,059	-0,079
-456,255	103,472	-0,084	-0,071
-455,241	-200,000	0,070	-0,273
-454,226	800,000	0,021	0,053
-453,211	229,359	0,033	-0,039
-452,197	-76,147	-0,054	0,014
-451,182	492,417	-0,030	0,050
-450,168	800,000	0,019	-0,059
-449,153	-200,000	-0,009	-0,129
-448,138	-200,000	-0,005	0,055
-447,124	-200,000	-0,027	-0,087
-446,109	576,245	0,070	-0,126
-445,095	23,574	-0,090	-0,054
-444,080	-200,000	-0,014	0,148
-443,065	-160,136	-0,114	0,004
-442,051	-36,552	-0,047	-0,019
-441,036	-200,000	-0,013	-0,119
-440,022	25,610	-0,106	0,064
-439,007	-123,698	0,061	-0,007
-437,992	800,000	0,038	0,082
-436,978	34,667	0,133	0,084
-435,963	800,000	-0,026	0,053
-434,949	-50,828	-0,124	-0,042
-433,934	265,429	-0,049	-0,062
-432,919	13,650	0,057	-0,032
-431,905	-20,542	0,004	-0,002
-430,890	247,535	0,025	0,031
-429,876	-38,907	0,070	-0,027
-428,861	248,073	-0,027	0,033
-427,846	-200,000	0,015	-0,050
-426,832	-97,795	-0,080	0,015
-425,817	-147,751	0,107	0,006
-424,803	286,136	0,028	-0,036
-423,788	47,881	-0,116	-0,079
-422,773	-89,445	0,058	-0,012
-421,759	2,906	0,102	-0,053
-420,744	-69,658	-0,116	-0,032
-419,730	52,566	-0,136	-0,094
-418,715	59,345	-0,067	-0,048
-417,701	-200,000	-0,021	-0,086
-416,686	800,000	-0,040	-0,089
-415,671	800,000	0,050	0,101
-414,657	-61,559	0,118	-0,036
-413,642	-200,000	-0,009	-0,159
-412,628	-200,000	0,003	0,033
-411,613	52,472	-0,085	-0,059
-410,598	253,081	-0,050	-0,062
-409,584	316,904	0,017	-0,023
-408,569	-44,217	-0,025	-0,009
-407,555	-84,680	0,110	0,025
-406,540	0,417	-0,064	-0,033
-405,525	94,437	0,026	0,021
-404,511	225,363	0,007	-0,009
-403,496	-200,000	0,034	-0,130
-402,482	-200,000	-0,023	-0,102
-401,467	214,181	-0,031	-0,036
-400,452	135,486	-0,022	0,021
-399,438	-54,801	0,139	0,045
-398,423	-200,000	-0,008	0,093
-397,409	77,711	-0,066	-0,051
-396,394	-86,258	0,075	0,017
-395,379	-200,000	0,015	0,194
-394,365	576,726	-0,007	-0,013
-393,350	87,559	0,098	0,079
-392,336	241,809	-0,080	-0,097
-391,321	-2,857	-0,064	0,032
-390,306	-200,000	0,020	-0,125
-389,292	74,183	-0,049	-0,038
-388,277	275,367	-0,098	-0,127
-387,263	3,561	0,032	0,017
-386,248	-200,000	-0,000	0,009
-385,233	-152,030	0,107	0,006
-384,219	605,472	0,102	-0,186
-383,204	9,239	-0,109	-0,060
-382,190	522,664	-0,025	0,043
-381,175	-200,000	0,018	-0,117
-380,160	-200,000	0,004	0,216
-379,146	-147,277	0,161	-0,010
-378,131	-200,000	0,041	0,161
-377,117	-133,585	-0,178	0,016
-376,102	800,000	-0,011	-0,024
-375,088	551,461	0,035	0,062
-374,073	-200,000	0,022	-0,111
-373,058	-154,504	0,119	-0,006
-372,044	-28,686	0,097	-0,040
-371,029	-200,000	0,004	0,040
-370,015	-27,732	-0,042	0,018
-369,000	226,225	-0,071	-0,083
-367,985	-107,889	-0,152	0,024
-366,971	-34,172	0,037	0,015
-365,956	800,000	0,055	0,157
-364,942	-200,000	-0,024	0,103
-363,927	-200,000	0,013	-0,055
-362,912	91,393	0,104	-0,085
-361,898	43,560	-0,109	0,072
-360,883	-49,316	-0,167	-0,058
-359,869	636,631	0,041	0,076
-358,854	-183,995	0,195	-0,002
-357,839	24,335	0,129	0,077
-356,825	-113,916	-0,053	0,007
-355,810	-33,031	0,064	-0,025
-354,796	-59,015	-0,047	-0,015
-353,781	-200,000	-0,017	0,059
-352,766	-11,025	0,101	-0,048
-351,752	228,045	0,053	-0,063
-350,737	-113,464	0,135	-0,019
-349,723	-45,455	0,083	0,030
-348,708	-93,473	-0,072	0,014
-347,693	-68,046	0,093	0,026
-346,679	-151,519	0,093	0,005
-345,664	-119,077	-0,066	-0,008
-344,650	15,715	0,036	-0,021
-343,635	93,765	0,229	0,188
-342,620	-200,000	0,015	-0,068
-341,606	133,628	0,035	-0,033
-340,591	-96,208	-0,130	0,025
-339,577	-144,806	-0,066	0,004
-338,562	-200,000	0,013	-0,142
-337,548	-200,000	0,033	0,113
-336,533	33,822	0,015	-0,010
-335,518	-38,473	0,079	0,030
-334,504	-90,320	-0,116	0,024
-333,489	217,659	0,031	-0,036
-332,475	800,000	0,042	0,087
-331,460	-90,791	-0,086	0,018
-330,445	-110,377	0,131	0,020
-329,431	-40,499	-0,037	0,014
-328,416	76,979	-0,129	0,099
-327,402	-128,427	0,154	-0,016
-326,387	-200,000	-0,018	0,120
-325,372	578,750	-0,063	0,113
-324,358	-200,000	-0,006	-0,019
-323,343	525,980	0,039	0,066
-322,329	-200,000	-0,001	-0,011
-321,314	282,600	0,128	0,167
-320,299	80,259	-0,079	0,061
-319,285	112,978	0,096	0,085
-318,270	-21,915	0,135	-0,059
-317,256	-200,000	-0,007	-0,096
-316,241	34,154	-0,119	0,075
-315,226	-51,926	0,128	0,043
-314,212	-114,587	0,092	0,013
-313,197	800,000	-0,024	0,070
-312,183	-87,842	-0,027	-0,006
-311,168	-78,098	-0,083	0,021
-310,153	500,975	-0,053	-0,089
-309,139	-200,000	-0,024	-0,114
-308,124	-23,607	-0,080	0,035
-307,110	-200,000	0,023	0,083
-306,095	244,828	0,055	0,068
-305,080	499,423	-0,062	0,104
-304,066	330,542	-0,031	-0,043
-303,051	800,000	0,019	0,039
-302,037	-52,837	-0,201	-0,067
-301,022	-200,000	-0,029	0,181
-300,008	440,705	-0,021	0,033
-298,993	-200,000	-0,020	0,114
-297,978	-56,911	0,059	-0,019
-296,964	204,948	0,033	0,037
-295,949	425,204	-0,036	-0,056
-294,935	45,645	-0,121	-0,081
-293,920	66,366	-0,060	-0,044
-292,905	112,183	0,068	0,059
-291,891	-59,607	0,125	0,039
-290,876	104,492	0,130	0,111
-289,862	289,439	0,030	0,039
-288,847	88,359	-0,066	-0,053
-287,832	-200,000	0,003	-0,077
-286,818	-200,000	0,020	0,187
-285,803	-35,203	0,145	0,057
-284,789	-70,538	-0,044	-0,012
-283,774	-43,128	0,066	0,024
-282,759	-0,046	-0,138	-0,071
-281,745	-200,000	-0,041	-0,145
-280,730	-33,298	-0,047	0,019
-279,716	112,137	0,088	-0,077
-278,701	-200,000	-0,030	-0,124
-277,686	-200,000	0,014	-0,142
-276,672	-5,999	0,226	0,112
-275,657	179,595	-0,101	0,107
-274,643	800,000	-0,022	0,066
-273,628	-78,842	0,027	0,007
-272,613	-179,276	0,091	-0,001
-271,599	-200,000	0,031	-0,169
-270,584	108,136	-0,093	0,080
-269,570	800,000	0,049	0,108
-268,555	247,605	0,092	0,112
-267,540	75,329	0,159	0,121
-266,526	439,729	-0,109	-0,173
-265,511	800,000	0,015	0,037
-264,497	-200,000	-0,003	0,030
-263,482	546,615	-0,059	0,103
-262,467	-200,000	0,029	0,142
-261,453	-162,088	0,068	0,002
-260,438	70,970	-0,141	-0,105
-259,424	-200,000	0,011	0,061
-258,409	-171,867	0,069	0,002
-257,395	-130,745	0,190	-0,018
-256,380	-200,000	0,027	0,136
-255,365	-93,822	0,087	0,017
-254,351	-200,000	0,011	-0,103
-253,336	203,857	0,042	-0,047
-252,322	-124,668	-0,095	-0,010
-251,307	800,000	0,010	-0,029
-250,292	-200,000	0,009	-0,069
-249,278	40,843	0,093	-0,061
-248,263	248,963	0,051	-0,063
-247,249	338,088	-0,050	0,071
-246,234	126,475	0,076	-0,070
-245,219	-142,688	-0,030	-0,002
-244,205	-200,000	-0,022	-0,113
-243,190	-97,801	0,044	-0,008
-242,176	-200,000	0,024	0,084
-241,161	54,327	-0,139	0,097
-240,146	-86,077	-0,099	-0,022
-239,132	-32,409	0,114	-0,046
-238,117	-200,000	0,005	-0,024
-237,103	44,603	0,144	0,095
-236,088	-200,000	-0,012	-0,063
-235,073	-17,373	0,063	0,028
-234,059	-113,272	0,093	-0,013
-233,044	-200,000	-0,004	0,046
-232,030	-130,900	-0,044	0,004
-231,015	102,924	-0,027	-0,023
-230,000	43,146	-0,078	-0,051
-228,986	-81,457	-0,061	-0,014
-227,971	-200,000	0,005	-0,015
-226,957	800,000	0,056	0,125
-225,942	-2,050	0,042	0,021
-224,927	-200,000	-0,010	-0,034
-223,913	-200,000	0,005	-0,068
-222,898	-25,904	-0,134	-0,057
-221,884	-200,000	0,005	-0,152
-220,869	800,000	0,043	0,120
-219,855	214,409	0,015	-0,017
-218,840	-98,788	-0,037	0,007
-217,825	571,461	-0,044	-0,078
-216,811	-200,000	-0,025	0,131
-215,796	205,279	0,024	-0,027
-214,782	252,852	-0,043	-0,053
-213,767	-9,553	0,022	0,011
-212,752	241,037	0,049	-0,060
-211,738	-200,000	-0,007	0,088
-210,723	-0,159	0,021	0,011
-209,709	-200,000	-0,015	-0,053
-208,694	-200,000	0,002	-0,101
-207,679	-122,406	0,079	0,009
-206,665	-200,000	0,001	0,092
-205,650	310,019	-0,094	0,128
-204,636	-35,814	-0,106	0,041
-203,621	153,077	-0,007	-0,006
-202,606	11,582	0,103	0,057
-201,592	143,470	-0,108	-0,104
-200,577	314,424	0,115	-0,157
-199,563	21,065	0,048	-0,028
-198,548	-31,175	-0,034	0,014
-197,533	212,914	0,041	-0,046
-196,519	76,181	-0,101	-0,077
-195,504	161,547	-0,073	0,074
-194,490	305,707	0,081	-0,110
-193,475	-162,233	-0,168	-0,006
-192,460	-83,505	0,014	0,003
-191,446	-200,000	0,012	0,047
-190,431	517,682	0,039	0,066
-189,417	-129,423	-0,040	0,004
-188,402	-122,006	0,077	-0,009
-187,387	-200,000	0,004	-0,073
-186,373	50,995	-0,030	0,021
-185,358	116,152	-0,133	-0,117
-184,344	-200,000	-0,012	-0,053
-183,329	800,000	-0,018	-0,045
-182,315	63,270	0,028	0,020
-181,300	-200,000	-0,003	0,055
-180,285	226,961	-0,025	-0,030
-179,271	800,000	-0,051	-0,130
-178,256	-200,000	-0,005	-0,054
-177,242	92,012	-0,062	0,051
-176,227	230,000	-0,073	0,086
-175,212	-200,000	-0,008	0,186
-174,198	-200,000	-0,083	0,000
-173,183	690,792	-0,040	0,075
-172,169	189,831	0,055	-0,059
-171,154	58,958	-0,014	0,010
-170,139	-109,001	0,046	-0,007
-169,125	-89,058	-0,114	0,024
-168,110	-135,988	0,117	0,010
-167,096	-64,975	-0,092	0,027
-166,081	-130,110	-0,158	-0,015
-165,066	800,000	-0,020	0,055
-164,052	65,338	-0,141	-0,103
-163,037	290,879	0,109	0,143
-162,023	-106,473	0,072	-0,011
-161,008	750,699	-0,055	-0,108
-159,993	-200,000	-0,002	0,090
-158,979	-24,059	-0,037	-0,016
-157,964	800,000	0,059	-0,132
-156,950	149,756	-0,130	-0,127
-155,935	344,975	0,048	-0,068
-154,920	-200,000	-0,021	-0,180
-153,906	148,218	0,043	-0,042
-152,891	-200,000	-0,003	0,044
-151,877	-80,244	0,156	0,037
-150,862	800,000	-0,021	0,043
-149,847	800,000	-0,036	-0,105
-148,833	4,385	-0,051	0,027
-147,818	-115,072	0,163	-0,022
-146,804	-138,284	0,127	-0,010
-145,789	269,180	-0,026	-0,033
-144,775	-30,470	-0,111	-0,045
-143,760	461,972	-0,015	-0,024
-142,745	-200,000	0,002	-0,037
-141,731	14,498	0,073	0,041
-140,716	-11,045	-0,096	-0,045
-139,702	-200,000	-0,034	-0,108
-138,687	-200,000	-0,000	0,070
-137,672	800,000	0,060	-0,144
-136,658	-50,050	-0,078	0,026
-135,643	560,471	-0,081	-0,142
-134,629	460,183	-0,009	-0,014
-133,614	-73,190	0,051	-0,013
-132,599	800,000	0,032	-0,065
-131,585	33,974	-0,042	0,026
-130,570	800,000	0,051	-0,104
-129,556	-126,806	-0,040	-0,004
-128,541	-83,849	0,082	-0,019
-127,526	-200,000	-0,028	0,102
-126,512	183,253	0,088	-0,093
-125,497	-53,082	0,047	-0,016
-124,483	150,417	0,096	-0,094
-123,468	61,024	0,084	0,060
-122,453	513,511	-0,029	0,049
-121,439	-200,000	-0,030	-0,147
-120,424	177,632	-0,033	0,034
-119,410	-117,853	-0,031	-0,004
