DTS Sentinel unit serial number:	SN410029Multiplexer serial number:	ORYXHardware model number:	OX2-SRSoftware version number:	ORYX F/W v4,00 Oryx Data Collector v3.7.2.0data status	okinstallation	B5 Nyhavnadifferential loss correction	single-endedforward channel	channel 2reverse channel	N/Adate	2023/12/12time	20:32:13forward acquisition time	300,00reverse acquisition time	0,00gamma	499,1914k internal	0,3157k external	0,3157temperature offset calibration	1,0000default loss term (dB/km)	0,3820temperature slope calibration	1,0000multiplexer offset coefficient	1,0000multiplexer slope coefficient	1,0000fibre end	0,00T internal ref (°C)	15,19T ext. ref 1 (°C)	-1,55T ext. ref 2 (°C)	-1,83length (m)	temperature (°C)	Stokes	anti-Stokes-744,400	17,243	0,097	-0,057
-743,385	-169,901	-0,250	0,006
-742,371	-165,296	0,034	0,001
-741,356	800,000	-0,086	0,211
-740,342	101,940	0,170	0,147
-739,327	-96,212	-0,265	-0,051
-738,312	-47,705	0,067	0,024
-737,298	-32,451	-0,231	-0,095
-736,283	393,694	0,055	0,085
-735,269	-75,530	-0,250	0,065
-734,254	-29,934	0,090	-0,037
-733,239	-139,269	-0,550	-0,043
-732,225	-128,279	0,157	0,016
-731,210	800,000	-0,012	0,030
-730,196	169,485	-0,019	0,020
-729,181	-39,532	0,041	-0,016
-728,167	642,766	-0,066	-0,124
-727,152	285,436	0,020	0,027
-726,137	-97,207	-0,019	-0,004
-725,123	-167,343	-0,163	0,005
-724,108	21,608	0,105	-0,063
-723,094	-131,960	-0,133	-0,013
-722,079	800,000	0,017	-0,036
-721,064	800,000	-0,071	-0,153
-720,050	94,922	-0,058	0,049
-719,035	-15,333	0,122	0,057
-718,021	800,000	0,022	0,046
-717,006	178,732	-0,084	-0,090
-715,991	108,888	-0,121	-0,106
-714,977	308,505	-0,033	-0,045
-713,962	233,395	-0,065	-0,079
-712,948	500,295	-0,057	-0,097
-711,933	-55,608	-0,086	-0,028
-710,918	1,659	0,117	-0,062
-709,904	507,006	-0,057	0,097
-708,889	-8,987	-0,078	-0,038
-707,875	-145,289	-0,097	-0,006
-706,860	-41,805	0,037	0,014
-705,845	-100,273	-0,219	0,040
-704,831	-73,095	0,225	0,060
-703,816	484,676	0,056	0,095
-702,802	-200,000	-0,038	-0,129
-701,787	-87,291	-0,100	-0,022
-700,772	-132,276	-0,221	-0,021
-699,758	517,626	-0,089	0,155
-698,743	-200,000	0,004	0,094
-697,729	-200,000	0,004	0,037
-696,714	800,000	0,020	-0,055
-695,699	169,532	0,067	0,071
-694,685	98,599	0,019	-0,016
-693,670	-68,898	-0,088	-0,025
-692,656	720,393	-0,038	0,074
-691,641	800,000	0,021	-0,058
-690,627	-12,224	0,086	0,041
-689,612	-76,661	-0,012	-0,003
-688,597	800,000	0,081	-0,207
-687,583	800,000	-0,069	-0,143
-686,568	-200,000	0,021	-0,105
-685,554	-12,706	0,053	0,025
-684,539	800,000	-0,012	0,039
-683,524	-200,000	0,015	-0,060
-682,510	399,457	-0,027	0,042
-681,495	132,052	-0,061	-0,058
-680,481	800,000	-0,027	-0,083
-679,466	58,677	0,101	-0,073
-678,451	-5,068	-0,149	-0,075
-677,437	800,000	0,036	0,079
-676,422	69,680	-0,037	0,028
-675,408	43,697	0,061	0,041
-674,393	-126,625	-0,073	-0,008
-673,378	403,513	-0,063	-0,098
-672,364	-28,316	-0,120	0,051
-671,349	302,251	-0,012	0,017
-670,335	-200,000	0,002	-0,055
-669,320	493,215	-0,090	0,152
-668,305	31,147	0,072	0,046
-667,291	-200,000	-0,003	0,023
-666,276	35,515	0,099	-0,064
-665,262	-150,329	0,060	0,003
-664,247	-134,658	-0,015	-0,001
-663,232	317,637	0,074	-0,103
-662,218	800,000	0,033	-0,068
-661,203	35,180	0,080	-0,051
-660,189	73,776	0,034	0,026
-659,174	800,000	0,003	0,009
-658,159	-103,509	-0,154	0,026
-657,145	-1,790	0,131	-0,067
-656,130	-68,422	0,218	-0,062
-655,116	335,536	0,014	0,020
-654,101	-80,284	0,021	0,005
-653,086	754,078	-0,028	-0,056
-652,072	97,081	-0,098	-0,082
-651,057	98,723	-0,085	-0,072
-650,043	-29,717	-0,189	-0,079
-649,028	-200,000	-0,003	0,036
-648,014	345,201	0,087	0,126
-646,999	177,596	0,090	-0,096
-645,984	391,562	0,046	0,071
-644,970	2,769	-0,081	-0,043
-643,955	706,422	0,080	-0,156
-642,941	-200,000	-0,025	-0,099
-641,926	734,551	-0,034	-0,067
-640,911	-80,723	0,133	-0,032
-639,897	177,964	-0,072	0,077
-638,882	800,000	0,045	-0,095
-637,868	728,044	-0,031	0,062
-636,853	-48,441	0,023	-0,008
-635,838	140,246	-0,049	0,048
-634,824	108,146	0,051	-0,044
-633,809	-96,707	0,086	0,017
-632,795	775,411	0,033	-0,067
-631,780	-50,295	-0,081	0,028
-630,765	-5,693	-0,161	0,081
-629,751	208,705	0,029	-0,033
-628,736	-200,000	0,005	-0,017
-627,722	-35,327	0,082	0,032
-626,707	22,108	-0,076	0,045
-625,692	22,884	-0,123	0,074
-624,678	-200,000	0,022	0,077
-623,663	571,268	0,074	0,132
-622,649	-200,000	0,006	-0,103
-621,634	-113,727	-0,041	-0,006
-620,619	-83,466	-0,008	-0,002
-619,605	82,733	-0,044	0,035
-618,590	-84,107	0,042	0,010
-617,576	162,522	-0,125	0,129
-616,561	-200,000	-0,002	0,038
-615,546	800,000	0,080	-0,164
-614,532	56,806	-0,030	-0,021
-613,517	-66,458	0,064	0,018
-612,503	56,910	0,101	0,072
-611,488	800,000	0,028	0,061
-610,474	-200,000	0,013	0,063
-609,459	-200,000	0,089	0,000
-608,444	40,215	-0,099	0,065
-607,430	-86,979	-0,056	-0,012
-606,415	-200,000	-0,002	-0,077
-605,401	-200,000	0,002	-0,120
-604,386	-200,000	0,009	-0,076
-603,371	304,285	-0,046	0,062
-602,357	-47,389	0,068	-0,024
-601,342	60,195	0,073	0,053
-600,328	800,000	-0,051	-0,107
-599,313	-7,296	0,017	0,008
-598,298	23,691	-0,078	-0,047
-597,284	-78,494	0,090	0,023
-596,269	800,000	-0,060	0,134
-595,255	26,291	0,111	0,068
-594,240	73,489	-0,089	0,068
-593,225	351,996	-0,060	0,087
-592,211	19,415	-0,025	-0,015
-591,196	-117,056	0,017	-0,002
-590,182	-54,555	-0,123	0,040
-589,167	-200,000	-0,019	0,071
-588,152	-60,706	0,058	0,018
-587,138	202,107	0,012	0,014
-586,123	-200,000	-0,014	0,063
-585,109	800,000	-0,023	-0,049
-584,094	55,402	-0,023	-0,017
-583,079	195,208	0,046	-0,052
-582,065	-200,000	-0,004	0,015
-581,050	-189,904	0,096	-0,001
-580,036	719,883	0,039	-0,077
-579,021	36,707	-0,061	0,040
-578,006	180,684	-0,084	-0,090
-576,992	-200,000	0,017	-0,078
-575,977	465,399	-0,034	-0,055
-574,963	-200,000	-0,013	0,060
-573,948	104,373	-0,071	0,061
-572,934	-200,000	-0,020	-0,073
-571,919	-132,855	0,045	-0,004
-570,904	404,416	-0,073	-0,113
-569,890	-200,000	-0,008	-0,060
-568,875	167,971	-0,064	-0,066
-567,861	-200,000	0,009	0,117
-566,846	538,261	-0,003	-0,006
-565,831	3,221	0,075	0,040
-564,817	175,638	0,106	0,112
-563,802	30,772	-0,137	0,086
-562,788	-32,322	-0,062	0,025
-561,773	198,759	0,043	-0,048
-560,758	-142,020	-0,111	0,008
-559,744	800,000	-0,053	-0,128
-558,729	-24,910	-0,184	-0,080
-557,715	181,201	-0,024	0,026
-556,700	-200,000	-0,033	-0,148
-555,685	-50,964	0,140	-0,048
-554,671	-42,288	-0,122	-0,045
-553,656	-86,418	0,126	-0,028
-552,642	-200,000	0,007	0,037
-551,627	367,645	-0,079	0,117
-550,612	-200,000	-0,013	0,074
-549,598	-162,872	-0,096	-0,003
-548,583	426,525	-0,061	0,097
-547,569	550,619	-0,012	0,020
-546,554	481,214	0,068	-0,114
-545,539	448,917	-0,073	0,117
-544,525	236,083	-0,026	-0,032
-543,510	-112,139	-0,082	-0,012
-542,496	374,447	-0,071	-0,106
-541,481	800,000	0,036	-0,101
-540,466	84,042	-0,155	-0,124
-539,452	195,972	0,035	-0,039
-538,437	-162,446	0,094	0,003
-537,423	-200,000	0,018	0,139
-536,408	-159,806	-0,161	0,006
-535,393	183,646	0,040	0,043
-534,379	-59,939	-0,091	-0,028
-533,364	-200,000	-0,006	-0,069
-532,350	-200,000	-0,010	0,062
-531,335	-46,425	0,090	-0,032
-530,321	-46,387	0,086	-0,031
-529,306	156,346	-0,101	0,102
-528,291	800,000	0,063	-0,180
-527,277	-200,000	-0,033	-0,133
-526,262	166,551	-0,010	-0,010
-525,248	800,000	-0,016	0,040
-524,233	-22,452	0,130	-0,057
-523,218	-185,168	0,096	0,001
-522,204	800,000	-0,031	-0,093
-521,189	121,624	-0,086	0,079
-520,175	-53,299	-0,179	-0,060
-519,160	-88,927	-0,086	0,018
-518,145	-200,000	-0,003	0,050
-517,131	-16,140	0,088	0,041
-516,116	-200,000	0,018	0,092
-515,102	6,995	0,105	-0,057
-514,087	-107,191	-0,118	0,019
-513,072	241,338	-0,045	0,055
-512,058	800,000	0,010	-0,022
-511,043	356,085	-0,009	-0,013
-510,029	-13,175	0,105	0,050
-509,014	-89,358	-0,139	-0,030
-507,999	184,590	-0,035	0,038
-506,985	160,895	-0,013	-0,013
-505,970	-200,000	-0,003	0,074
-504,956	-173,982	-0,036	-0,001
-503,941	-200,000	0,042	0,174
-502,926	-200,000	-0,002	-0,177
-501,912	219,554	0,041	0,048
-500,897	-65,475	0,072	-0,021
-499,883	640,426	-0,074	-0,138
-498,868	-12,083	0,029	0,014
-497,853	-21,607	-0,089	-0,039
-496,839	72,464	-0,054	-0,041
-495,824	79,381	0,135	-0,105
-494,810	428,434	-0,047	-0,075
-493,795	800,000	-0,002	-0,006
-492,781	-132,391	0,181	-0,017
-491,766	746,286	-0,065	-0,128
-490,751	-40,752	-0,052	-0,019
-489,737	76,496	-0,025	0,020
-488,722	800,000	-0,037	-0,083
-487,708	-142,566	-0,101	0,007
-486,693	-200,000	0,047	0,160
-485,678	88,054	-0,062	-0,050
-484,664	15,055	-0,010	-0,006
-483,649	48,524	0,087	0,060
-482,635	0,614	0,099	0,051
-481,620	800,000	0,034	0,082
-480,605	-102,236	0,134	-0,023
-479,591	148,370	0,049	0,048
-478,576	-98,180	0,076	0,014
-477,562	800,000	-0,050	0,106
-476,547	-200,000	0,011	0,066
-475,532	160,332	-0,101	-0,102
-474,518	62,862	0,023	-0,017
-473,503	-29,408	-0,069	0,028
-472,489	-72,444	0,065	-0,017
-471,474	-200,000	0,009	0,146
-470,459	293,592	-0,067	0,090
-469,445	-27,244	0,076	-0,032
-468,430	-0,761	-0,138	0,071
-467,416	102,226	0,112	0,095
-466,401	800,000	0,058	-0,145
-465,386	-172,324	0,015	-0,000
-464,372	-200,000	-0,005	-0,025
-463,357	800,000	-0,023	-0,056
-462,343	303,930	-0,061	0,083
-461,328	58,983	-0,022	-0,015
-460,313	736,513	-0,028	0,055
-459,299	-121,465	0,167	-0,020
-458,284	-77,247	-0,126	-0,032
-457,270	52,091	-0,161	-0,112
-456,255	670,103	0,061	0,117
-455,241	524,751	-0,049	-0,084
-454,226	-200,000	0,011	-0,101
-453,211	99,493	-0,025	0,021
-452,197	800,000	-0,077	0,229
-451,182	-200,000	0,010	0,057
-450,168	-10,564	0,151	-0,072
-449,153	-106,144	-0,108	0,017
-448,138	-126,866	0,028	-0,003
-447,124	-200,000	-0,009	-0,061
-446,109	800,000	-0,054	0,158
-445,095	800,000	-0,030	0,074
-444,080	458,980	0,069	0,112
-443,065	-169,987	-0,086	-0,002
-442,051	668,967	-0,071	0,134
-441,036	101,036	-0,106	-0,090
-440,022	-29,626	0,136	0,056
-439,007	-100,265	0,044	-0,008
-437,992	57,741	0,104	-0,074
-436,978	-200,000	0,027	0,087
-435,963	-19,318	0,042	-0,019
-434,949	-200,000	-0,036	-0,168
-433,934	-16,031	0,063	0,029
-432,919	96,932	0,074	0,062
-431,905	65,627	0,130	-0,096
-430,890	-111,195	0,062	0,009
-429,876	-9,028	-0,105	-0,051
-428,861	179,842	-0,024	-0,026
-427,846	-14,467	0,044	-0,021
-426,832	55,143	0,061	-0,043
-425,817	-33,876	-0,163	-0,065
-424,803	458,022	-0,028	-0,046
-423,788	-46,786	-0,038	0,013
-422,773	-59,446	0,077	-0,024
-421,759	131,245	0,101	-0,095
-420,744	626,867	0,021	-0,039
-419,730	164,605	-0,013	0,013
-418,715	-200,000	-0,023	-0,102
-417,701	800,000	-0,041	0,102
-416,686	-19,094	-0,035	0,016
-415,671	196,358	-0,010	0,011
-414,657	180,181	0,125	0,134
-413,642	-200,000	0,010	0,117
-412,628	800,000	0,034	-0,069
-411,613	-200,000	-0,001	0,080
-410,598	-146,421	0,062	-0,004
-409,584	-1,995	0,075	-0,038
-408,569	-77,010	0,181	-0,046
-407,555	325,242	-0,026	0,037
-406,540	54,181	-0,069	0,048
-405,525	-200,000	-0,018	-0,109
-404,511	-65,540	0,027	-0,008
-403,496	-200,000	-0,004	-0,013
-402,482	-155,693	0,073	-0,003
-401,467	321,348	-0,047	0,066
-400,452	-200,000	-0,002	-0,040
-399,438	-141,793	-0,105	-0,008
-398,423	78,410	-0,033	0,026
-397,409	-158,388	0,094	-0,004
-396,394	800,000	0,032	-0,078
-395,379	211,691	-0,057	-0,065
-394,365	-200,000	-0,033	-0,205
-393,350	29,199	-0,110	-0,068
-392,336	681,361	0,073	-0,139
-391,321	-162,178	-0,188	-0,007
-390,306	800,000	0,017	-0,052
-389,292	153,081	-0,017	0,017
-388,277	205,954	0,066	-0,075
-387,263	-38,058	0,086	0,033
-386,248	-200,000	-0,006	-0,064
-385,233	231,888	0,042	0,050
-384,219	-200,000	-0,000	-0,026
-383,204	800,000	-0,045	-0,142
-382,190	88,102	-0,072	-0,058
-381,175	295,122	-0,113	-0,151
-380,160	-98,433	0,103	-0,019
-379,146	-200,000	0,031	0,147
-378,131	181,115	0,097	0,104
-377,117	380,824	-0,083	0,124
-376,102	43,047	-0,024	-0,016
-375,088	219,692	-0,029	0,034
-374,073	297,436	0,092	0,123
-373,058	345,550	-0,023	0,033
-372,044	-200,000	-0,033	0,121
-371,029	-200,000	0,010	-0,125
-370,015	-200,000	-0,013	0,084
-369,000	800,000	-0,055	0,111
-367,985	-200,000	-0,008	0,102
-366,971	14,545	0,040	0,022
-365,956	318,969	0,037	0,051
-364,942	385,551	-0,030	0,046
-363,927	39,334	0,066	0,043
-362,912	718,242	0,021	-0,040
-361,898	662,168	0,014	0,026
-360,883	160,643	0,062	0,063
-359,869	542,696	-0,078	-0,136
-358,854	-200,000	-0,035	-0,169
-357,839	78,430	0,062	-0,048
-356,825	-73,536	0,120	-0,032
-355,810	-1,228	-0,051	0,026
-354,796	154,017	-0,049	-0,049
-353,781	45,912	0,063	-0,042
-352,766	693,759	-0,034	0,065
-351,752	-158,458	0,048	-0,002
-350,737	800,000	0,021	0,046
-349,723	683,890	0,081	0,154
-348,708	-200,000	-0,006	-0,045
-347,693	-41,395	-0,148	-0,055
-346,679	-200,000	-0,015	-0,075
-345,664	-200,000	0,036	-0,204
-344,650	-200,000	-0,029	0,157
-343,635	86,630	-0,024	-0,019
-342,620	-22,718	0,070	0,031
-341,606	-75,229	-0,088	-0,023
-340,591	375,176	-0,046	-0,068
-339,577	800,000	0,022	-0,062
-338,562	800,000	0,012	0,026
-337,548	-171,216	-0,062	0,001
-336,533	800,000	0,090	-0,186
-335,518	-21,707	0,091	0,040
-334,504	286,831	0,037	0,049
-333,489	197,603	-0,057	-0,064
-332,475	-66,330	-0,063	0,018
-331,460	-200,000	-0,006	-0,037
-330,445	-60,147	-0,074	0,023
-329,431	-34,094	0,073	0,029
-328,416	-121,017	0,145	-0,018
-327,402	-38,107	0,111	0,043
-326,387	52,522	-0,035	0,024
-325,372	-97,232	0,059	0,011
-324,358	-200,000	0,021	0,139
-323,343	-200,000	0,027	-0,146
-322,329	-101,303	-0,134	-0,024
-321,314	516,699	0,093	0,158
-320,299	800,000	0,039	0,081
-319,285	-200,000	-0,012	0,145
-318,270	800,000	-0,010	0,021
-317,256	15,495	0,033	-0,019
-316,241	45,034	-0,074	0,049
-315,226	125,425	-0,054	-0,050
-314,212	-126,899	-0,080	-0,008
-313,197	800,000	0,054	0,133
-312,183	588,681	-0,007	-0,012
-311,168	-148,699	-0,045	-0,003
-310,153	84,391	-0,060	0,047
-309,139	145,178	0,044	-0,043
-308,124	-200,000	0,001	-0,004
-307,110	800,000	0,066	0,187
-306,095	-73,777	0,069	-0,018
-305,080	-63,670	-0,093	0,028
-304,066	317,725	-0,060	-0,083
-303,051	-32,957	-0,219	-0,088
-302,037	-200,000	-0,002	-0,156
-301,022	-114,441	0,039	-0,005
-300,008	-200,000	0,003	0,059
-298,993	-140,239	0,049	0,004
-297,978	108,201	-0,048	-0,042
-296,964	283,521	-0,046	-0,060
-295,949	51,335	-0,028	-0,020
-294,935	-200,000	-0,000	0,163
-293,920	177,487	-0,025	0,027
-292,905	800,000	0,084	0,170
-291,891	-200,000	-0,043	0,270
-290,876	800,000	0,060	0,125
-289,862	-200,000	0,004	0,049
-288,847	249,432	-0,015	-0,018
-287,832	63,351	-0,028	0,020
-286,818	800,000	-0,050	-0,102
-285,803	60,404	0,040	-0,029
-284,789	164,713	0,070	0,071
-283,774	-200,000	0,004	0,037
-282,759	232,528	0,066	0,079
-281,745	-200,000	-0,005	-0,163
-280,730	323,344	-0,057	-0,079
-279,716	800,000	0,066	0,138
-278,701	-200,000	-0,002	-0,038
-277,686	61,527	0,053	-0,038
-276,672	289,336	-0,046	0,061
-275,657	577,291	0,026	-0,046
-274,643	-11,994	0,087	-0,041
-273,628	711,587	0,013	0,025
-272,613	-200,000	-0,041	0,151
-271,599	-82,950	0,081	0,019
-270,584	-200,000	0,002	0,134
-269,570	-14,348	-0,019	-0,009
-268,555	-135,895	0,021	-0,002
-267,540	20,189	-0,142	-0,083
-266,526	800,000	-0,036	-0,077
-265,511	265,511	0,053	-0,067
-264,497	800,000	-0,042	0,118
-263,482	-112,857	0,110	-0,016
-262,467	-200,000	0,000	0,008
-261,453	-200,000	-0,002	0,083
-260,438	56,994	-0,086	-0,060
-259,424	-131,105	-0,048	-0,005
-258,409	115,512	0,146	-0,129
-257,395	-200,000	0,036	-0,117
-256,380	-136,565	-0,049	-0,004
-255,365	-200,000	0,025	0,198
-254,351	616,886	0,071	0,130
-253,336	800,000	-0,023	-0,074
-252,322	800,000	-0,012	-0,032
-251,307	-59,841	0,197	-0,061
-250,292	357,138	0,053	0,077
-249,278	272,017	0,081	-0,103
-248,263	53,396	0,070	-0,049
-247,249	-200,000	0,027	-0,093
-246,234	104,743	0,138	0,117
-245,219	374,776	-0,055	-0,081
-244,205	43,014	-0,018	-0,012
-243,190	-200,000	-0,016	-0,097
-242,176	-83,445	-0,063	-0,014
-241,161	-200,000	0,003	0,015
-240,146	37,670	-0,078	0,050
-239,132	-200,000	0,020	-0,093
-238,117	452,617	0,027	0,044
-237,103	-200,000	0,016	-0,239
-236,088	800,000	0,050	0,102
-235,073	257,500	0,156	0,194
-234,059	-200,000	0,002	-0,115
-233,044	-200,000	0,035	0,116
-232,030	138,440	-0,106	0,101
-231,015	63,173	0,028	-0,020
-230,000	-200,000	0,004	-0,128
-228,986	-167,192	0,117	-0,003
-227,971	-200,000	-0,005	0,117
-226,957	-200,000	-0,019	0,073
-225,942	-200,000	0,014	0,072
-224,927	337,694	-0,022	0,031
-223,913	476,773	0,007	0,012
-222,898	275,001	0,073	0,093
-221,884	-104,842	0,071	0,012
-220,869	-200,000	0,031	0,199
-219,855	39,776	-0,076	0,049
-218,840	-200,000	0,008	0,056
-217,825	372,231	0,012	-0,017
-216,811	-200,000	-0,003	-0,024
-215,796	-200,000	0,015	-0,069
-214,782	15,337	0,022	-0,013
-213,767	-200,000	-0,026	-0,117
-212,752	800,000	-0,028	-0,067
-211,738	500,455	0,010	0,017
-210,723	404,804	-0,073	-0,111
-209,709	-49,858	-0,036	-0,012
-208,694	0,719	-0,125	0,064
-207,679	-51,400	0,067	0,022
-206,665	-105,481	-0,164	-0,027
-205,650	303,182	-0,024	-0,033
-204,636	68,556	-0,098	0,072
-203,621	-21,585	-0,052	-0,023
-202,606	50,691	0,066	0,045
-201,592	77,968	-0,051	-0,039
-200,577	-200,000	0,004	-0,057
-199,563	26,189	0,111	-0,067
-198,548	3,330	0,160	-0,084
-197,533	-200,000	0,007	-0,080
-196,519	292,681	0,050	0,066
-195,504	81,333	-0,062	-0,048
-194,490	536,707	0,034	-0,059
-193,475	111,196	-0,087	-0,076
-192,460	-200,000	0,004	-0,219
-191,446	-200,000	-0,002	0,021
-190,431	800,000	-0,025	0,070
-189,417	-200,000	-0,011	0,074
-188,402	-38,299	-0,030	-0,012
-187,387	30,229	-0,103	0,063
-186,373	-200,000	0,024	-0,104
-185,358	-200,000	-0,004	-0,015
-184,344	100,809	-0,108	0,091
-183,329	211,292	0,070	-0,080
-182,315	-23,871	-0,017	0,007
-181,300	-125,280	0,123	0,013
-180,285	-104,366	0,147	0,024
-179,271	293,976	-0,091	-0,121
-178,256	14,336	-0,027	0,015
-177,242	-41,364	0,100	0,037
-176,227	-20,553	0,091	0,040
-175,212	-200,000	0,009	0,032
-174,198	-25,199	-0,066	-0,028
-173,183	32,703	0,023	0,014
-172,169	-101,921	0,090	-0,015
-171,154	10,883	-0,087	-0,048
-170,139	399,177	-0,033	-0,050
-169,125	258,695	-0,023	0,028
-168,110	420,832	0,029	-0,045
-167,096	-163,633	-0,133	-0,004
-166,081	-77,025	0,079	0,020
-165,066	47,067	0,088	-0,059
-164,052	184,243	-0,098	-0,105
-163,037	-43,225	0,027	-0,010
-162,023	-200,000	0,010	-0,049
-161,008	-200,000	-0,003	-0,039
-159,993	205,005	-0,065	0,073
-158,979	388,795	-0,071	0,107
-157,964	25,057	-0,041	-0,025
-156,950	800,000	0,002	0,006
-155,935	-105,023	-0,028	0,005
-154,920	-108,595	-0,018	-0,003
-153,906	-13,773	0,161	0,075
-152,891	-16,171	-0,050	-0,023
-151,877	-200,000	0,029	0,000
-150,862	-76,405	0,138	0,035
-149,847	198,372	-0,100	-0,110
-148,833	800,000	0,037	-0,076
-147,818	-200,000	0,007	0,078
-146,804	800,000	-0,022	-0,058
-145,789	100,428	0,057	0,048
-144,775	337,179	-0,068	-0,095
-143,760	-60,679	0,080	-0,024
-142,745	202,968	-0,068	0,076
-141,731	222,623	0,031	-0,036
-140,716	800,000	-0,064	-0,180
-139,702	-122,614	0,047	0,005
-138,687	135,271	-0,078	0,074
-137,672	-56,998	-0,122	-0,038
-136,658	217,598	-0,093	-0,106
-135,643	304,920	-0,034	-0,045
-134,629	164,220	-0,021	0,021
-133,614	99,186	-0,069	0,058
-132,599	155,125	0,052	0,052
-131,585	181,816	-0,079	-0,083
-130,570	458,243	0,016	-0,025
-129,556	-200,000	0,006	-0,050
-128,541	41,215	0,040	0,026
-127,526	236,572	0,137	-0,163
-126,512	-51,337	0,081	-0,027
-125,497	582,023	0,052	0,092
-124,483	71,491	0,122	0,091
-123,468	-200,000	-0,025	-0,158
-122,453	800,000	-0,033	0,100
-121,439	800,000	0,034	-0,104
-120,424	198,097	0,046	-0,050
-119,410	2,016	-0,096	-0,049
