DTS Sentinel unit serial number:	SN410029Multiplexer serial number:	ORYXHardware model number:	OX2-SRSoftware version number:	ORYX F/W v4,00 Oryx Data Collector v3.7.2.0data status	okinstallation	B5 Nyhavnadifferential loss correction	single-endedforward channel	channel 2reverse channel	N/Adate	2023/12/12time	03:47:13forward acquisition time	300,00reverse acquisition time	0,00gamma	499,1914k internal	0,3156k external	0,3156temperature offset calibration	1,0000default loss term (dB/km)	0,3820temperature slope calibration	1,0000multiplexer offset coefficient	1,0000multiplexer slope coefficient	1,0000fibre end	0,00T internal ref (°C)	15,62T ext. ref 1 (°C)	-0,86T ext. ref 2 (°C)	-1,15length (m)	temperature (°C)	Stokes	anti-Stokes-744,400	-106,692	0,187	0,030
-743,385	-163,440	-0,264	0,009
-742,371	-200,000	0,036	0,146
-741,356	-116,316	-0,425	0,057
-740,342	186,079	0,093	-0,102
-739,327	-108,516	-0,208	0,033
-738,312	-200,000	-0,002	-0,082
-737,298	-200,000	-0,378	0,000
-736,283	254,222	0,041	0,052
-735,269	-96,931	-0,285	0,055
-734,254	148,437	0,083	0,083
-733,239	-37,570	-0,537	-0,210
-732,225	202,442	0,033	0,037
-731,210	800,000	-0,038	0,085
-730,196	127,056	-0,042	0,039
-729,181	800,000	0,060	-0,179
-728,167	66,462	-0,107	-0,080
-727,152	42,164	-0,086	0,057
-726,137	-49,786	-0,191	-0,066
-725,123	-200,000	-0,016	-0,079
-724,108	143,413	-0,060	-0,059
-723,094	755,769	0,043	-0,086
-722,079	119,672	0,084	-0,077
-721,064	-200,000	0,027	-0,118
-720,050	389,103	-0,067	0,102
-719,035	60,847	-0,162	-0,118
-718,021	800,000	0,050	0,119
-717,006	-200,000	-0,077	-0,000
-715,991	29,449	-0,144	-0,090
-714,977	-176,113	-0,154	0,003
-713,962	-200,000	-0,019	-0,068
-712,948	-200,000	-0,006	0,083
-711,933	-123,240	-0,107	-0,012
-710,918	235,096	0,019	-0,023
-709,904	208,521	-0,062	-0,072
-708,889	-200,000	-0,014	0,059
-707,875	-200,000	-0,045	-0,156
-706,860	752,507	-0,023	-0,046
-705,845	-200,000	-0,006	0,085
-704,831	-54,774	-0,135	0,045
-703,816	800,000	0,036	0,094
-702,802	42,815	-0,147	-0,099
-701,787	-200,000	0,006	0,030
-700,772	-124,390	-0,041	0,005
-699,758	-116,135	0,127	0,017
-698,743	-131,455	0,090	0,009
-697,729	588,876	-0,047	0,085
-696,714	172,758	0,014	0,015
-695,699	413,868	0,008	-0,013
-694,685	-64,787	-0,090	0,027
-693,670	-103,258	-0,056	-0,010
-692,656	-200,000	0,010	0,157
-691,641	307,959	-0,073	0,101
-690,627	69,550	0,076	0,057
-689,612	-200,000	0,009	0,056
-688,597	800,000	-0,041	0,104
-687,583	193,696	-0,100	-0,112
-686,568	800,000	0,046	0,097
-685,554	170,954	-0,054	0,057
-684,539	-200,000	-0,027	-0,122
-683,524	-60,127	0,045	0,014
-682,510	-79,120	-0,108	-0,027
-681,495	-16,299	0,035	-0,016
-680,481	-177,145	-0,024	-0,000
-679,466	800,000	0,015	-0,044
-678,451	800,000	0,053	-0,134
-677,437	-5,903	0,099	0,050
-676,422	-23,037	0,112	0,050
-675,408	19,818	0,086	0,051
-674,393	137,683	0,103	0,100
-673,378	-200,000	0,015	-0,068
-672,364	178,168	-0,053	-0,057
-671,349	800,000	0,029	-0,083
-670,335	-4,999	0,208	0,105
-669,320	-200,000	0,005	-0,079
-668,305	800,000	0,016	-0,040
-667,291	-194,247	0,092	0,001
-666,276	800,000	-0,054	0,135
-665,262	241,558	0,053	0,065
-664,247	-200,000	0,014	-0,143
-663,232	-200,000	0,028	0,220
-662,218	-200,000	-0,014	0,105
-661,203	-108,696	0,085	-0,013
-660,189	800,000	0,030	0,088
-659,174	66,474	-0,081	0,060
-658,159	-14,651	0,092	0,043
-657,145	-200,000	0,005	-0,104
-656,130	-48,713	0,090	-0,032
-655,116	-97,471	0,042	-0,008
-654,101	72,163	0,067	-0,052
-653,086	-200,000	0,005	-0,076
-652,072	-36,042	-0,083	-0,033
-651,057	218,901	0,025	-0,029
-650,043	526,883	-0,111	-0,193
-649,028	501,469	-0,029	0,049
-648,014	-40,155	-0,029	-0,011
-646,999	800,000	-0,037	0,115
-645,984	214,912	0,021	0,025
-644,970	-73,146	-0,127	0,034
-643,955	800,000	-0,071	-0,199
-642,941	-159,012	0,050	-0,002
-641,926	-200,000	-0,014	-0,078
-640,911	-200,000	-0,014	-0,065
-639,897	-200,000	-0,018	0,183
-638,882	800,000	0,074	0,171
-637,868	-21,768	-0,024	-0,011
-636,853	168,859	-0,089	-0,094
-635,838	218,969	0,019	-0,022
-634,824	39,940	-0,128	0,084
-633,809	800,000	-0,034	-0,075
-632,795	14,498	-0,098	0,056
-631,780	67,718	-0,029	-0,022
-630,765	519,424	-0,039	0,068
-629,751	800,000	-0,033	0,076
-628,736	2,553	-0,058	0,031
-627,722	-200,000	0,022	0,077
-626,707	800,000	0,057	0,140
-625,692	-40,504	0,068	-0,026
-624,678	-200,000	-0,012	-0,045
-623,663	-92,562	0,036	0,007
-622,649	800,000	-0,030	-0,079
-621,634	-200,000	-0,043	-0,188
-620,619	-68,139	-0,111	-0,032
-619,605	584,321	0,055	0,100
-618,590	-200,000	0,011	-0,094
-617,576	21,908	0,059	-0,035
-616,561	-200,000	0,003	-0,080
-615,546	-200,000	0,021	-0,070
-614,532	563,793	-0,024	-0,043
-613,517	247,067	-0,081	-0,101
-612,503	60,167	0,105	-0,076
-611,488	646,434	0,067	0,126
-610,474	147,207	0,098	0,097
-609,459	-159,680	-0,090	-0,004
-608,444	-101,082	-0,062	-0,011
-607,430	-34,992	-0,139	-0,055
-606,415	-101,008	-0,099	0,018
-605,401	-49,473	0,098	-0,034
-604,386	-115,612	0,120	-0,016
-603,371	264,580	0,013	0,017
-602,357	-200,000	0,006	-0,045
-601,342	189,599	-0,043	-0,047
-600,328	800,000	0,033	-0,086
-599,313	-86,744	-0,035	0,008
-598,298	-200,000	-0,022	0,073
-597,284	-133,022	0,042	0,004
-596,269	176,737	0,119	0,127
-595,255	70,900	-0,097	0,074
-594,240	99,575	-0,052	-0,044
-593,225	-67,695	-0,058	0,016
-592,211	199,705	0,064	-0,072
-591,196	-200,000	-0,020	-0,092
-590,182	-200,000	-0,002	0,224
-589,167	346,552	0,022	0,032
-588,152	225,640	0,030	0,036
-587,138	-200,000	0,015	0,099
-586,123	535,105	-0,091	-0,159
-585,109	-27,026	-0,058	-0,025
-584,094	-2,915	-0,036	-0,019
-583,079	-72,696	-0,062	-0,017
-582,065	-200,000	-0,027	0,167
-581,050	335,110	-0,051	0,072
-580,036	-200,000	0,012	0,056
-579,021	431,804	-0,028	-0,045
-578,006	718,380	-0,084	-0,163
-576,992	480,787	0,029	0,048
-575,977	113,484	-0,106	0,094
-574,963	-190,028	-0,176	0,001
-573,948	21,554	0,045	-0,027
-572,934	-69,280	0,049	-0,014
-571,919	-200,000	-0,010	-0,047
-570,904	-67,300	-0,057	0,016
-569,890	49,758	-0,092	-0,063
-568,875	-163,886	0,155	0,005
-567,861	-200,000	0,013	-0,082
-566,846	-42,905	0,109	-0,040
-565,831	163,185	0,108	0,111
-564,817	-59,651	-0,093	0,029
-563,802	800,000	-0,065	-0,160
-562,788	661,245	-0,015	0,028
-561,773	88,478	0,143	-0,116
-560,758	54,782	-0,102	-0,072
-559,744	-51,980	0,036	0,012
-558,729	459,652	0,045	0,074
-557,715	800,000	0,023	0,050
-556,700	-200,000	0,015	0,066
-555,685	71,680	0,018	-0,014
-554,671	-133,071	0,101	-0,009
-553,656	-60,220	0,080	-0,025
-552,642	183,932	0,053	0,057
-551,627	-200,000	0,006	0,037
-550,612	-27,913	-0,073	0,031
-549,598	-109,610	0,067	0,010
-548,583	-200,000	0,031	0,000
-547,569	800,000	-0,020	0,047
-546,554	174,041	0,126	0,133
-545,539	-200,000	0,012	0,049
-544,525	-200,000	0,008	0,178
-543,510	-99,403	-0,025	0,005
-542,496	800,000	0,032	-0,065
-541,481	44,460	-0,103	0,069
-540,466	342,580	-0,104	0,150
-539,452	182,228	-0,091	0,098
-538,437	-200,000	-0,012	-0,118
-537,423	317,404	0,059	-0,081
-536,408	800,000	-0,020	-0,041
-535,393	115,927	-0,078	0,070
-534,379	55,375	0,106	-0,075
-533,364	460,505	0,035	0,058
-532,350	-11,372	0,058	0,028
-531,335	35,089	-0,061	-0,039
-530,321	319,801	-0,059	0,082
-529,306	-126,089	-0,078	-0,008
-528,291	-107,520	-0,022	0,004
-527,277	87,544	-0,084	-0,068
-526,262	-77,762	0,093	-0,023
-525,248	-200,000	0,003	-0,097
-524,233	-200,000	0,024	0,116
-523,218	-74,372	-0,075	0,020
-522,204	666,501	0,056	0,106
-521,189	190,251	-0,024	-0,026
-520,175	-200,000	-0,007	-0,118
-519,160	800,000	-0,048	-0,144
-518,145	-200,000	0,002	-0,079
-517,131	-11,591	0,040	0,019
-516,116	513,608	0,034	-0,059
-515,102	41,490	-0,055	0,036
-514,087	76,004	-0,076	0,059
-513,072	-55,074	-0,118	0,039
-512,058	-200,000	-0,007	0,041
-511,043	-200,000	0,032	-0,132
-510,029	-65,519	0,091	0,027
-509,014	-15,196	0,071	-0,033
-507,999	93,758	-0,050	0,042
-506,985	-100,663	-0,106	-0,019
-505,970	769,076	0,056	0,112
-504,956	-200,000	-0,007	-0,036
-503,941	800,000	0,027	-0,081
-502,926	-99,862	-0,045	0,008
-501,912	523,616	0,082	-0,142
-500,897	142,877	0,068	0,066
-499,883	202,050	-0,029	0,032
-498,868	57,040	-0,094	-0,067
-497,853	-200,000	-0,002	-0,149
-496,839	123,286	0,082	-0,075
-495,824	800,000	-0,017	0,050
-494,810	-200,000	-0,015	-0,129
-493,795	-74,277	0,090	0,024
-492,781	800,000	-0,015	-0,039
-491,766	266,786	-0,072	-0,092
-490,751	-200,000	-0,014	-0,076
-489,737	-164,409	-0,106	-0,003
-488,722	-200,000	0,008	-0,050
-487,708	800,000	0,014	0,041
-486,693	800,000	-0,020	-0,050
-485,678	800,000	-0,025	0,061
-484,664	-134,774	-0,115	0,010
-483,649	218,939	0,111	-0,129
-482,635	-200,000	-0,018	-0,141
-481,620	-147,244	0,019	0,001
-480,605	-200,000	0,022	0,244
-479,591	12,773	0,061	-0,034
-478,576	214,270	0,050	-0,057
-477,562	317,073	0,044	0,061
-476,547	201,148	-0,047	-0,053
-475,532	214,440	0,080	-0,093
-474,518	133,712	0,098	0,092
-473,503	-141,582	0,022	0,002
-472,489	248,516	-0,024	0,030
-471,474	-80,553	0,166	0,040
-470,459	65,551	0,061	-0,045
-469,445	-53,465	-0,149	-0,049
-468,430	49,439	-0,139	-0,095
-467,416	105,588	0,101	-0,087
-466,401	-124,003	-0,082	0,009
-465,386	406,475	-0,038	0,058
-464,372	-200,000	-0,010	0,096
-463,357	800,000	-0,037	-0,091
-462,343	111,968	0,103	0,090
-461,328	646,924	-0,014	-0,026
-460,313	-159,143	-0,083	0,003
-459,299	-92,077	0,107	0,022
-458,284	97,839	-0,024	0,020
-457,270	-3,310	0,111	-0,056
-456,255	-200,000	-0,122	0,000
-455,241	521,988	-0,029	0,050
-454,226	800,000	-0,032	-0,096
-453,211	413,803	-0,078	0,121
-452,197	90,176	0,202	0,164
-451,182	87,348	-0,072	-0,058
-450,168	-60,481	-0,044	-0,014
-449,153	-121,730	-0,012	-0,001
-448,138	800,000	0,055	-0,130
-447,124	-62,821	-0,042	-0,013
-446,109	-36,623	-0,081	-0,031
-445,095	54,257	0,075	0,053
-444,080	720,808	-0,032	0,062
-443,065	171,848	-0,080	0,084
-442,051	800,000	0,032	0,084
-441,036	22,020	-0,105	-0,062
-440,022	800,000	-0,021	0,055
-439,007	-200,000	-0,001	0,022
-437,992	220,226	0,069	-0,080
-436,978	-200,000	0,018	-0,082
-435,963	-200,000	-0,031	-0,144
-434,949	-106,548	-0,052	0,008
-433,934	800,000	-0,026	0,083
-432,919	-137,797	-0,102	-0,008
-431,905	-80,700	0,101	0,024
-430,890	-103,666	0,131	-0,022
-429,876	-200,000	-0,005	-0,099
-428,861	7,250	0,179	0,097
-427,846	173,811	-0,051	0,053
-426,832	800,000	-0,038	-0,104
-425,817	16,183	0,056	0,032
-424,803	18,218	-0,076	-0,044
-423,788	269,260	0,048	0,062
-422,773	117,304	0,082	0,073
-421,759	656,029	0,038	-0,072
-420,744	-59,157	-0,051	-0,016
-419,730	-199,658	0,061	-0,000
-418,715	558,866	-0,057	-0,101
-417,701	-200,000	-0,002	0,008
-416,686	-52,801	0,013	0,004
-415,671	-84,037	-0,165	-0,038
-414,657	800,000	-0,017	0,046
-413,642	800,000	-0,026	0,071
-412,628	-184,800	-0,067	0,001
-411,613	-200,000	-0,029	-0,111
-410,598	-200,000	0,022	-0,135
-409,584	-15,690	-0,101	-0,047
-408,569	158,625	-0,083	-0,084
-407,555	123,107	0,116	-0,106
-406,540	58,948	0,069	-0,049
-405,525	3,676	-0,022	-0,012
-404,511	-178,173	-0,090	-0,002
-403,496	-125,760	-0,043	-0,005
-402,482	574,961	0,052	-0,092
-401,467	-200,000	-0,026	0,141
-400,452	-200,000	-0,022	0,082
-399,438	-126,888	-0,056	0,006
-398,423	-7,079	0,061	-0,030
-397,409	800,000	-0,021	0,054
-396,394	345,655	-0,054	-0,078
-395,379	-97,571	0,109	0,020
-394,365	247,609	0,110	0,136
-393,350	5,883	0,132	0,071
-392,336	15,238	0,064	0,037
-391,321	-53,778	0,097	0,032
-390,306	-32,311	-0,055	-0,022
-389,292	361,756	0,046	-0,067
-388,277	424,283	0,017	0,026
-387,263	733,923	-0,053	-0,103
-386,248	-200,000	0,001	-0,007
-385,233	800,000	-0,034	0,100
-384,219	-125,615	0,044	0,005
-383,204	-133,476	-0,030	-0,003
-382,190	220,478	0,067	-0,078
-381,175	-200,000	-0,038	-0,171
-380,160	633,200	-0,019	-0,035
-379,146	16,558	0,058	0,033
-378,131	-50,961	0,194	0,066
-377,117	23,781	-0,079	0,047
-376,102	423,490	-0,076	-0,119
-375,088	258,678	-0,026	-0,032
-374,073	59,664	-0,119	-0,085
-373,058	128,863	0,073	0,067
-372,044	385,305	0,062	0,093
-371,029	-200,000	-0,000	0,056
-370,015	711,357	-0,028	-0,054
-369,000	-141,411	0,033	-0,002
-367,985	-104,638	-0,050	-0,008
-366,971	-64,704	-0,127	-0,037
-365,956	489,971	0,060	0,101
-364,942	-182,500	0,091	0,001
-363,927	169,908	0,084	-0,088
-362,912	-31,534	-0,070	-0,028
-361,898	-200,000	-0,010	0,042
-360,883	212,094	0,069	-0,079
-359,869	800,000	-0,062	0,136
-358,854	146,553	0,045	0,044
-357,839	-84,059	0,052	0,012
-356,825	-7,551	0,036	0,018
-355,810	-200,000	0,007	0,081
-354,796	-14,227	-0,041	0,019
-353,781	485,133	0,037	-0,062
-352,766	-101,897	0,112	0,020
-351,752	44,512	-0,106	-0,071
-350,737	-99,457	0,154	0,028
-349,723	380,912	-0,078	0,117
-348,708	-200,000	-0,009	-0,176
-347,693	-118,641	-0,077	-0,010
-346,679	-82,844	0,078	-0,018
-345,664	307,607	0,013	0,017
-344,650	-102,696	-0,081	0,014
-343,635	111,452	0,071	0,062
-342,620	800,000	0,039	0,121
-341,606	341,963	-0,100	0,143
-340,591	-35,119	-0,142	0,056
-339,577	-84,090	-0,033	0,008
-338,562	-29,509	-0,057	0,023
-337,548	213,343	0,102	0,117
-336,533	-94,166	0,085	-0,017
-335,518	122,855	-0,085	-0,077
-334,504	-42,326	-0,104	-0,038
-333,489	-65,042	0,121	-0,035
-332,475	63,929	0,076	-0,055
-331,460	-13,908	-0,043	0,020
-330,445	-85,871	-0,143	0,032
-329,431	234,551	-0,079	-0,095
-328,416	-152,235	0,027	-0,001
-327,402	800,000	-0,023	0,057
-326,387	146,359	0,174	-0,170
-325,372	-159,627	-0,194	-0,008
-324,358	800,000	-0,022	0,064
-323,343	-200,000	-0,004	-0,047
-322,329	509,267	0,053	0,089
-321,314	677,381	0,015	0,029
-320,299	-139,318	0,141	-0,011
-319,285	184,706	-0,020	0,021
-318,270	-200,000	-0,022	-0,136
-317,256	718,277	0,047	-0,090
-316,241	483,721	-0,051	0,084
-315,226	-200,000	0,008	0,072
-314,212	-23,598	0,166	0,072
-313,197	-18,138	-0,057	-0,026
-312,183	-200,000	-0,003	-0,098
-311,168	216,349	0,082	0,095
-310,153	-200,000	0,013	-0,154
-309,139	696,214	-0,048	-0,091
-308,124	541,677	0,097	0,169
-307,110	91,096	-0,025	0,021
-306,095	-200,000	-0,003	-0,017
-305,080	41,079	0,055	-0,036
-304,066	-200,000	-0,018	0,077
-303,051	134,578	0,053	-0,050
-302,037	210,133	-0,056	0,064
-301,022	-200,000	-0,017	-0,115
-300,008	-200,000	0,033	-0,106
-298,993	-112,495	0,116	-0,017
-297,978	-90,618	-0,174	-0,036
-296,964	80,340	-0,119	0,093
-295,949	110,711	0,050	0,044
-294,935	-200,000	-0,039	-0,199
-293,920	-98,438	0,105	0,019
-292,905	111,710	-0,091	-0,079
-291,891	41,943	-0,118	-0,077
-290,876	233,014	0,053	-0,063
-289,862	-51,238	0,036	0,012
-288,847	582,248	-0,061	-0,109
-287,832	-200,000	-0,007	0,105
-286,818	-118,480	-0,043	0,005
-285,803	-32,949	0,134	0,054
-284,789	106,019	-0,065	-0,056
-283,774	-127,649	-0,063	-0,006
-282,759	423,056	-0,041	0,064
-281,745	-200,000	-0,008	0,104
-280,730	-82,738	-0,126	-0,029
-279,716	411,444	0,048	0,073
-278,701	64,102	-0,087	0,063
-277,686	-200,000	-0,014	0,124
-276,672	-97,567	0,085	-0,016
-275,657	542,857	-0,067	-0,117
-274,643	716,571	0,018	-0,035
-273,628	-200,000	0,027	0,100
-272,613	577,608	-0,050	0,089
-271,599	-200,000	-0,022	0,082
-270,584	800,000	0,063	0,173
-269,570	-200,000	-0,003	0,028
-268,555	379,668	0,039	0,058
-267,540	-200,000	-0,055	-0,258
-266,526	-200,000	0,002	-0,079
-265,511	117,404	-0,095	0,084
-264,497	-200,000	0,031	0,103
-263,482	-49,405	0,094	0,032
-262,467	-157,321	0,060	0,003
-261,453	33,982	-0,068	-0,043
-260,438	55,038	-0,124	0,087
-259,424	800,000	-0,031	-0,088
-258,409	800,000	-0,027	0,075
-257,395	360,399	0,055	-0,079
-256,380	180,459	0,127	-0,135
-255,365	171,744	0,081	0,084
-254,351	-200,000	0,001	-0,047
-253,336	-115,592	0,130	0,017
-252,322	286,159	0,039	0,050
-251,307	-146,373	0,123	-0,008
-250,292	800,000	0,017	0,047
-249,278	-150,640	0,079	0,004
-248,263	112,494	-0,160	0,140
-247,249	130,681	0,200	0,186
-246,234	178,244	-0,083	-0,088
-245,219	-23,237	-0,188	-0,081
-244,205	220,583	0,046	-0,054
-243,190	134,646	-0,039	-0,037
-242,176	97,503	-0,074	-0,061
-241,161	200,357	0,070	0,078
-240,146	-200,000	-0,004	0,089
-239,132	-8,655	-0,080	0,039
-238,117	-200,000	-0,010	-0,089
-237,103	-153,058	-0,114	0,006
-236,088	204,040	0,035	0,039
-235,073	-128,498	0,196	-0,020
-234,059	-36,659	0,022	0,009
-233,044	-200,000	-0,034	0,184
-232,030	400,853	0,060	-0,091
-231,015	82,829	0,047	-0,037
-230,000	-200,000	0,010	-0,174
-228,986	38,388	0,060	-0,038
-227,971	30,498	0,086	-0,053
-226,957	116,805	0,030	0,026
-225,942	203,228	-0,076	0,085
-224,927	-97,268	0,124	0,023
-223,913	-200,000	-0,013	-0,138
-222,898	-200,000	-0,014	-0,142
-221,884	800,000	0,017	-0,036
-220,869	-200,000	-0,015	-0,095
-219,855	-84,906	0,122	0,027
-218,840	-200,000	-0,020	0,081
-217,825	185,908	-0,031	0,034
-216,811	0,736	-0,118	-0,061
-215,796	-200,000	0,007	-0,045
-214,782	-130,630	0,100	0,010
-213,767	-115,752	-0,077	-0,010
-212,752	-200,000	0,006	-0,070
-211,738	42,197	0,101	0,066
-210,723	-200,000	-0,021	0,099
-209,709	-63,891	-0,118	0,035
-208,694	29,532	-0,098	-0,060
-207,679	-54,977	-0,129	-0,042
-206,665	-200,000	0,006	0,111
-205,650	-200,000	0,026	0,112
-204,636	-98,277	0,026	0,005
-203,621	0,874	0,206	0,106
-202,606	-200,000	0,013	-0,187
-201,592	72,273	-0,083	0,062
-200,577	19,879	-0,078	0,045
-199,563	-200,000	-0,012	0,054
-198,548	304,264	0,096	0,129
-197,533	-108,407	0,122	0,019
-196,519	800,000	0,050	-0,121
-195,504	800,000	0,045	0,138
-194,490	800,000	-0,028	-0,072
-193,475	-200,000	-0,024	0,077
-192,460	-147,947	-0,075	-0,004
-191,446	-39,502	-0,165	-0,062
-190,431	800,000	-0,035	0,094
-189,417	663,377	-0,052	0,097
-188,402	800,000	-0,082	0,174
-187,387	-117,116	-0,119	-0,015
-186,373	-200,000	0,009	-0,041
-185,358	461,167	0,042	0,067
-184,344	-161,537	0,184	0,007
-183,329	21,588	0,105	-0,062
-182,315	57,440	-0,072	0,051
-181,300	155,202	-0,099	0,098
-180,285	-200,000	-0,036	-0,128
-179,271	-34,307	0,046	-0,018
-178,256	460,700	0,021	0,034
-177,242	-22,105	0,124	0,054
-176,227	236,937	0,082	0,098
-175,212	800,000	0,025	0,052
-174,198	-84,556	0,086	0,019
-173,183	301,618	0,056	-0,075
-172,169	800,000	0,076	-0,159
-171,154	800,000	0,008	0,019
-170,139	105,407	-0,067	0,057
-169,125	800,000	0,037	0,113
-168,110	800,000	-0,028	-0,057
-167,096	800,000	-0,083	-0,188
-166,081	11,255	0,053	-0,029
-165,066	-200,000	-0,001	-0,079
-164,052	140,969	-0,026	0,025
-163,037	622,165	0,058	-0,105
-162,023	10,662	-0,047	-0,026
-161,008	-200,000	-0,016	-0,051
-159,993	201,535	0,053	0,059
-158,979	-200,000	-0,007	0,060
-157,964	364,910	-0,018	-0,025
-156,950	-129,519	0,092	-0,009
-155,935	-16,666	0,095	-0,043
-154,920	800,000	0,054	0,161
-153,906	465,616	-0,066	0,107
-152,891	-130,243	0,123	-0,012
-151,877	16,819	-0,117	0,067
-150,862	800,000	-0,026	0,056
-149,847	7,191	-0,077	0,041
-148,833	800,000	0,058	0,120
-147,818	80,702	-0,072	0,056
-146,804	-200,000	0,014	0,158
-145,789	-200,000	0,003	0,091
-144,775	-200,000	-0,005	0,093
-143,760	86,928	0,032	-0,025
-142,745	154,573	-0,045	-0,045
-141,731	-35,804	-0,041	-0,016
-140,716	125,194	-0,046	-0,042
-139,702	373,495	0,042	0,062
-138,687	800,000	0,010	0,022
-137,672	-200,000	-0,006	-0,121
-136,658	-200,000	-0,001	-0,153
-135,643	-200,000	-0,019	-0,129
-134,629	-200,000	0,005	-0,039
-133,614	-200,000	-0,037	0,134
-132,599	198,055	-0,093	-0,102
-131,585	349,761	-0,041	0,058
-130,570	268,600	0,033	0,042
-129,556	-1,341	-0,097	-0,049
-128,541	667,780	-0,017	-0,032
-127,526	-115,523	0,196	0,026
-126,512	-121,434	0,130	-0,015
-125,497	-85,629	0,186	0,041
-124,483	-116,300	-0,069	-0,009
-123,468	800,000	-0,033	0,073
-122,453	689,573	-0,006	0,012
-121,439	-88,762	0,185	-0,039
-120,424	800,000	0,048	0,134
