DTS Sentinel unit serial number:	SN410029Multiplexer serial number:	ORYXHardware model number:	OX2-SRSoftware version number:	ORYX F/W v4,00 Oryx Data Collector v3.7.2.0data status	okinstallation	B5 Nyhavnadifferential loss correction	single-endedforward channel	channel 2reverse channel	N/Adate	2023/12/11time	20:47:13forward acquisition time	300,00reverse acquisition time	0,00gamma	499,1914k internal	0,3157k external	0,3157temperature offset calibration	1,0000default loss term (dB/km)	0,3820temperature slope calibration	1,0000multiplexer offset coefficient	1,0000multiplexer slope coefficient	1,0000fibre end	0,00T internal ref (°C)	16,06T ext. ref 1 (°C)	0,20T ext. ref 2 (°C)	-0,04length (m)	temperature (°C)	Stokes	anti-Stokes-744,400	-100,729	0,121	0,022
-743,385	-71,877	-0,296	0,081
-742,371	-17,405	0,045	0,021
-741,356	125,624	-0,175	0,163
-740,342	-200,000	-0,012	0,071
-739,327	-66,674	-0,336	-0,098
-738,312	18,524	-0,055	0,033
-737,298	-65,285	-0,254	0,075
-736,283	30,335	0,077	-0,048
-735,269	-129,436	-0,246	0,025
-734,254	-147,220	0,184	-0,011
-733,239	-86,168	-0,474	-0,107
-732,225	-51,876	0,203	0,069
-731,210	-200,000	-0,001	-0,066
-730,196	-106,444	0,021	-0,003
-729,181	800,000	-0,045	0,101
-728,167	-85,286	-0,086	0,020
-727,152	52,134	0,087	-0,061
-726,137	-200,000	-0,001	-0,034
-725,123	800,000	-0,042	-0,113
-724,108	41,466	-0,097	-0,065
-723,094	-200,000	-0,041	-0,141
-722,079	-65,423	-0,078	-0,023
-721,064	146,591	0,058	-0,058
-720,050	-200,000	-0,015	-0,130
-719,035	189,190	0,107	-0,118
-718,021	-3,309	-0,067	0,034
-717,006	800,000	-0,018	-0,041
-715,991	249,858	-0,094	-0,118
-714,977	-200,000	-0,028	-0,099
-713,962	-200,000	-0,025	-0,140
-712,948	-75,770	0,057	0,015
-711,933	153,355	-0,091	-0,092
-710,918	-200,000	0,007	0,095
-709,904	-76,940	-0,255	-0,065
-708,889	80,240	0,051	-0,041
-707,875	800,000	-0,086	-0,238
-706,860	266,662	-0,087	0,113
-705,845	-200,000	0,019	0,124
-704,831	-189,050	0,059	0,001
-703,816	-200,000	0,010	-0,199
-702,802	-22,571	-0,137	-0,061
-701,787	-200,000	-0,009	-0,030
-700,772	-125,562	-0,032	0,004
-699,758	76,004	-0,058	0,045
-698,743	-122,847	-0,029	-0,003
-697,729	110,930	0,032	-0,028
-696,714	800,000	0,026	-0,072
-695,699	227,332	0,081	-0,097
-694,685	424,678	-0,065	0,103
-693,670	800,000	0,046	0,097
-692,656	15,469	-0,068	0,039
-691,641	800,000	0,037	-0,106
-690,627	-166,864	-0,158	-0,005
-689,612	-41,129	0,018	0,007
-688,597	-200,000	0,014	0,106
-687,583	800,000	0,025	-0,077
-686,568	343,357	-0,099	-0,143
-685,554	-141,580	-0,049	-0,004
-684,539	58,198	0,108	-0,078
-683,524	374,974	-0,062	0,093
-682,510	-200,000	0,018	-0,063
-681,495	27,087	-0,049	-0,030
-680,481	-19,352	-0,137	-0,062
-679,466	-130,948	-0,161	-0,016
-678,451	-68,314	-0,160	-0,045
-677,437	-200,000	-0,004	0,187
-676,422	650,940	-0,072	0,136
-675,408	-200,000	-0,014	0,061
-674,393	271,634	0,075	-0,098
-673,378	582,569	-0,034	-0,062
-672,364	176,791	0,018	-0,019
-671,349	-92,278	-0,067	0,014
-670,335	245,184	-0,088	0,109
-669,320	27,418	0,080	-0,050
-668,305	-78,479	0,117	0,029
-667,291	-32,917	-0,051	-0,021
-666,276	800,000	-0,035	0,079
-665,262	-66,363	-0,079	-0,023
-664,247	511,092	0,065	-0,111
-663,232	32,045	0,142	-0,090
-662,218	-94,955	0,112	-0,022
-661,203	-200,000	0,024	-0,130
-660,189	-39,231	-0,135	0,052
-659,174	-180,210	-0,003	0,000
-658,159	800,000	-0,027	0,070
-657,145	-86,022	-0,046	-0,010
-656,130	-138,839	-0,102	-0,008
-655,116	88,349	0,051	-0,041
-654,101	-71,696	0,152	-0,041
-653,086	219,144	0,002	-0,002
-652,072	-137,256	-0,076	-0,006
-651,057	-58,318	-0,108	0,034
-650,043	347,638	-0,037	0,053
-649,028	-200,000	-0,007	-0,023
-648,014	214,358	-0,048	-0,056
-646,999	-200,000	0,006	0,072
-645,984	63,933	0,080	0,059
-644,970	-200,000	0,018	-0,092
-643,955	377,955	-0,059	0,088
-642,941	225,819	-0,072	-0,086
-641,926	-71,063	-0,070	0,019
-640,911	448,471	0,032	0,051
-639,897	800,000	0,072	-0,193
-638,882	-36,934	-0,058	0,023
-637,868	-200,000	0,005	-0,118
-636,853	392,993	-0,031	-0,048
-635,838	303,669	-0,024	-0,033
-634,824	-200,000	-0,011	-0,265
-633,809	800,000	0,055	0,125
-632,795	-118,298	-0,062	0,008
-631,780	120,373	0,080	0,073
-630,765	-200,000	-0,007	-0,043
-629,751	140,720	-0,070	-0,068
-628,736	-170,450	-0,139	-0,003
-627,722	-128,011	0,093	-0,010
-626,707	800,000	-0,013	0,037
-625,692	-74,020	0,018	0,005
-624,678	-99,497	0,071	0,013
-623,663	-85,406	-0,140	-0,032
-622,649	378,655	0,067	-0,100
-621,634	-200,000	-0,015	-0,183
-620,619	71,155	-0,089	-0,068
-619,605	142,568	0,079	-0,077
-618,590	61,878	-0,096	0,070
-617,576	-67,771	0,027	-0,008
-616,561	800,000	0,010	0,024
-615,546	-35,753	0,062	-0,025
-614,532	589,298	-0,047	-0,086
-613,517	66,317	-0,054	-0,040
-612,503	112,242	0,049	0,043
-611,488	800,000	0,064	0,132
-610,474	125,790	0,065	0,061
-609,459	227,536	0,059	-0,071
-608,444	800,000	-0,055	-0,147
-607,430	-200,000	0,004	0,056
-606,415	-72,112	-0,106	-0,029
-605,401	-58,787	-0,178	-0,056
-604,386	19,105	0,049	0,029
-603,371	-93,840	0,037	0,007
-602,357	-200,000	0,000	0,013
-601,342	-87,257	0,062	0,014
-600,328	-200,000	-0,005	-0,209
-599,313	-166,441	0,026	-0,001
-598,298	-200,000	-0,005	-0,078
-597,284	-200,000	-0,001	0,011
-596,269	-104,700	0,093	-0,015
-595,255	-89,616	-0,116	-0,025
-594,240	-49,651	-0,063	0,022
-593,225	-200,000	0,003	-0,076
-592,211	-200,000	0,007	0,028
-591,196	-200,000	-0,010	-0,076
-590,182	11,765	-0,056	-0,032
-589,167	800,000	0,051	-0,114
-588,152	-103,597	-0,109	-0,019
-587,138	-32,700	-0,014	0,006
-586,123	349,371	0,078	-0,114
-585,109	362,576	0,097	-0,143
-584,094	800,000	-0,016	-0,038
-583,079	581,588	0,051	-0,091
-582,065	-100,469	-0,066	0,012
-581,050	800,000	0,035	0,086
-580,036	-200,000	0,022	-0,125
-579,021	-200,000	-0,003	-0,042
-578,006	-161,693	0,143	0,005
-576,992	569,249	-0,057	-0,102
-575,977	743,036	0,022	0,044
-574,963	35,153	0,047	-0,030
-573,948	-89,749	0,062	-0,013
-572,934	-78,003	-0,080	0,020
-571,919	-147,544	0,189	0,012
-570,904	419,371	0,041	0,064
-569,890	29,024	0,023	0,014
-568,875	315,439	0,027	-0,038
-567,861	140,084	-0,056	-0,054
-566,846	800,000	0,015	-0,031
-565,831	263,163	-0,083	-0,105
-564,817	-143,495	0,080	0,005
-563,802	162,668	-0,086	0,088
-562,788	-4,895	0,039	-0,020
-561,773	-200,000	-0,032	0,180
-560,758	97,609	-0,108	0,091
-559,744	800,000	-0,028	0,069
-558,729	-200,000	0,025	0,112
-557,715	-200,000	-0,042	0,161
-556,700	419,450	-0,085	-0,133
-555,685	-200,000	0,012	-0,050
-554,671	36,592	-0,049	0,032
-553,656	193,724	0,053	0,059
-552,642	-102,666	0,029	0,005
-551,627	327,142	0,046	-0,065
-550,612	-200,000	0,006	-0,096
-549,598	243,409	-0,001	0,001
-548,583	-49,422	0,189	0,066
-547,569	-200,000	-0,005	-0,076
-546,554	17,481	0,062	0,036
-545,539	800,000	0,015	-0,038
-544,525	-101,938	-0,093	-0,016
-543,510	-162,138	-0,139	-0,005
-542,496	800,000	0,018	-0,052
-541,481	254,310	0,014	-0,018
-540,466	800,000	-0,040	0,084
-539,452	11,292	0,066	-0,037
-538,437	561,845	-0,016	-0,029
-537,423	-200,000	-0,013	-0,141
-536,408	335,004	-0,030	0,043
-535,393	-200,000	0,012	-0,117
-534,379	-200,000	0,005	-0,096
-533,364	138,435	-0,078	-0,074
-532,350	-114,750	0,083	0,012
-531,335	258,012	0,044	0,056
-530,321	331,689	0,080	0,112
-529,306	450,143	-0,046	-0,075
-528,291	-200,000	-0,001	0,013
-527,277	800,000	-0,017	0,051
-526,262	-89,941	0,102	-0,022
-525,248	97,609	-0,134	-0,112
-524,233	-65,751	0,063	-0,018
-523,218	-200,000	-0,001	0,068
-522,204	443,607	0,029	0,047
-521,189	800,000	-0,038	-0,101
-520,175	230,293	-0,044	-0,052
-519,160	-23,406	0,085	-0,037
-518,145	63,279	0,004	-0,003
-517,131	800,000	0,009	0,021
-516,116	48,500	0,041	0,028
-515,102	-200,000	0,006	0,034
-514,087	29,001	-0,081	-0,050
-513,072	-200,000	-0,007	-0,121
-512,058	-200,000	-0,007	-0,051
-511,043	800,000	0,063	0,163
-510,029	800,000	0,054	0,122
-509,014	-146,558	-0,099	0,006
-507,999	40,721	-0,148	0,098
-506,985	627,424	-0,018	-0,034
-505,970	800,000	-0,037	-0,093
-504,956	-200,000	0,002	-0,035
-503,941	177,654	-0,050	0,053
-502,926	-200,000	-0,013	0,069
-501,912	800,000	0,033	0,073
-500,897	518,145	0,058	-0,099
-499,883	-20,939	-0,072	0,032
-498,868	-139,272	-0,193	0,015
-497,853	-62,005	-0,058	0,017
-496,839	-27,205	0,104	0,044
-495,824	154,113	0,056	0,056
-494,810	-200,000	0,025	0,131
-493,795	800,000	-0,047	-0,097
-492,781	-200,000	0,006	0,035
-491,766	-200,000	0,001	0,022
-490,751	128,645	-0,107	-0,099
-489,737	-147,846	-0,179	-0,011
-488,722	318,370	-0,030	-0,042
-487,708	173,253	0,069	0,073
-486,693	511,949	0,082	0,140
-485,678	-114,385	-0,158	0,022
-484,664	800,000	0,033	-0,084
-483,649	-200,000	-0,007	-0,040
-482,635	142,721	-0,063	0,062
-481,620	103,437	0,032	-0,027
-480,605	-200,000	0,028	0,098
-479,591	-81,849	-0,110	0,026
-478,576	148,794	-0,105	-0,104
-477,562	-90,330	-0,067	0,014
-476,547	-63,299	-0,074	-0,022
-475,532	86,796	0,058	-0,046
-474,518	-38,017	-0,032	0,012
-473,503	-200,000	0,014	-0,064
-472,489	-10,372	0,126	-0,061
-471,474	-36,964	-0,039	-0,015
-470,459	-92,805	0,088	-0,018
-469,445	129,366	-0,057	-0,053
-468,430	-93,400	-0,166	0,033
-467,416	29,634	0,080	0,050
-466,401	-39,336	0,072	0,027
-465,386	49,170	0,076	0,052
-464,372	60,589	0,098	0,071
-463,357	-126,590	-0,034	-0,004
-462,343	-83,748	-0,061	-0,014
-461,328	-56,680	0,097	-0,031
-460,313	110,627	0,098	0,086
-459,299	13,742	0,142	-0,080
-458,284	800,000	-0,039	0,084
-457,270	-33,466	-0,087	-0,035
-456,255	-10,370	0,040	0,019
-455,241	-102,251	-0,151	0,026
-454,226	-186,684	-0,125	0,001
-453,211	-12,170	0,101	0,048
-452,197	-5,007	0,058	0,029
-451,182	-64,190	-0,075	0,022
-450,168	-200,000	0,025	-0,172
-449,153	238,421	0,075	-0,091
-448,138	258,124	-0,083	-0,105
-447,124	151,301	0,115	0,115
-446,109	-12,989	0,136	0,064
-445,095	-200,000	-0,017	0,073
-444,080	-6,442	-0,047	-0,023
-443,065	800,000	-0,026	0,053
-442,051	800,000	0,040	-0,107
-441,036	-200,000	0,003	-0,034
-440,022	-200,000	0,006	-0,070
-439,007	-200,000	-0,013	-0,134
-437,992	382,589	0,051	0,076
-436,978	-200,000	0,002	-0,020
-435,963	677,161	-0,081	0,154
-434,949	232,635	0,117	0,141
-433,934	493,185	-0,082	-0,138
-432,919	800,000	0,036	-0,100
-431,905	-151,793	-0,110	0,006
-430,890	-200,000	0,015	0,187
-429,876	-32,331	-0,088	-0,036
-428,861	-97,887	0,176	-0,033
-427,846	183,512	-0,099	0,107
-426,832	105,486	-0,059	0,051
-425,817	800,000	-0,089	-0,232
-424,803	800,000	0,009	0,026
-423,788	800,000	0,059	-0,140
-422,773	800,000	0,073	-0,149
-421,759	-10,051	0,094	-0,045
-420,744	-64,490	-0,099	0,029
-419,730	-116,903	-0,119	-0,016
-418,715	-57,475	-0,072	0,023
-417,701	-66,068	0,095	0,027
-416,686	-200,000	-0,018	-0,075
-415,671	-115,800	-0,076	-0,010
-414,657	-200,000	-0,007	-0,070
-413,642	-78,629	0,057	0,014
-412,628	-24,278	0,042	0,018
-411,613	-200,000	-0,012	0,047
-410,598	-18,804	0,081	-0,037
-409,584	-14,446	-0,052	0,024
-408,569	504,452	0,044	0,074
-407,555	270,865	0,087	0,111
-406,540	800,000	0,019	-0,044
-405,525	800,000	-0,061	-0,157
-404,511	-200,000	-0,016	-0,082
-403,496	19,499	-0,083	-0,048
-402,482	-200,000	0,033	0,157
-401,467	-200,000	0,031	0,131
-400,452	172,473	0,088	0,093
-399,438	339,886	-0,062	0,088
-398,423	298,769	-0,093	-0,125
-397,409	-200,000	-0,006	-0,133
-396,394	800,000	-0,016	0,044
-395,379	694,527	0,020	-0,039
-394,365	-200,000	0,020	0,127
-393,350	232,935	-0,030	0,036
-392,336	-44,214	0,061	-0,022
-391,321	32,347	-0,046	0,029
-390,306	-81,920	-0,049	0,012
-389,292	568,027	0,017	0,030
-388,277	-81,202	-0,156	-0,037
-387,263	800,000	0,032	-0,088
-386,248	-200,000	0,000	0,027
-385,233	-200,000	0,019	0,076
-384,219	13,557	0,145	-0,082
-383,204	-200,000	-0,006	0,068
-382,190	-141,846	-0,071	-0,005
-381,175	234,016	-0,056	-0,067
-380,160	409,431	0,037	0,058
-379,146	800,000	0,023	0,068
-378,131	800,000	-0,061	0,124
-377,117	145,074	-0,066	-0,064
-376,102	67,030	-0,201	-0,149
-375,088	154,767	0,061	0,061
-374,073	-200,000	-0,002	-0,021
-373,058	-200,000	-0,009	0,031
-372,044	-49,470	0,105	-0,036
-371,029	209,059	0,029	0,033
-370,015	-118,549	0,044	-0,006
-369,000	-161,521	0,125	0,005
-367,985	-84,839	0,052	-0,012
-366,971	253,161	-0,096	-0,120
-365,956	-38,240	-0,060	-0,023
-364,942	202,194	-0,016	-0,018
-363,927	15,637	0,133	0,076
-362,912	144,308	-0,035	-0,034
-361,898	-46,648	0,062	0,022
-360,883	-63,247	-0,152	0,045
-359,869	-67,599	0,042	-0,012
-358,854	-49,252	0,040	0,014
-357,839	-200,000	-0,003	0,014
-356,825	151,805	0,061	0,061
-355,810	344,253	0,090	0,129
-354,796	800,000	0,027	-0,071
-353,781	-55,654	-0,086	-0,028
-352,766	-177,695	-0,116	-0,002
-351,752	-200,000	-0,003	0,116
-350,737	-112,663	0,051	0,007
-349,723	-11,921	0,040	0,019
-348,708	-200,000	0,001	0,099
-347,693	34,073	-0,010	-0,007
-346,679	-200,000	-0,003	0,094
-345,664	-200,000	0,001	-0,074
-344,650	800,000	0,025	-0,065
-343,635	110,434	0,106	-0,092
-342,620	169,375	-0,083	0,086
-341,606	612,912	-0,074	-0,134
-340,591	145,950	0,105	0,102
-339,577	-200,000	-0,023	0,077
-338,562	741,205	0,028	-0,054
-337,548	-109,281	0,095	-0,014
-336,533	322,607	0,124	0,172
-335,518	800,000	-0,032	0,089
-334,504	378,172	0,085	0,126
-333,489	-200,000	0,026	-0,090
-332,475	-140,843	-0,109	0,008
-331,460	800,000	0,029	-0,070
-330,445	283,717	0,042	0,055
-329,431	-190,642	0,032	-0,000
-328,416	230,438	-0,037	-0,044
-327,402	-200,000	0,009	0,088
-326,387	72,993	-0,034	0,026
-325,372	0,706	-0,037	0,019
-324,358	800,000	-0,013	0,028
-323,343	471,508	0,086	0,141
-322,329	12,399	0,121	0,068
-321,314	-59,393	0,110	-0,034
-320,299	-200,000	0,012	-0,114
-319,285	-200,000	-0,012	-0,110
-318,270	-41,588	-0,066	0,024
-317,256	-200,000	-0,010	0,130
-316,241	306,720	-0,044	-0,060
-315,226	800,000	0,029	-0,083
-314,212	-41,599	0,086	0,032
-313,197	387,684	0,039	0,058
-312,183	800,000	0,028	0,065
-311,168	-42,537	-0,111	-0,041
-310,153	413,482	-0,033	-0,051
-309,139	23,864	-0,065	0,039
-308,124	103,996	0,102	-0,087
-307,110	65,711	-0,027	0,020
-306,095	-200,000	-0,019	0,208
-305,080	800,000	0,030	0,090
-304,066	281,074	-0,106	0,137
-303,051	-200,000	-0,002	-0,013
-302,037	734,323	-0,059	-0,116
-301,022	577,798	0,058	0,104
-300,008	40,625	0,068	0,045
-298,993	175,891	-0,098	-0,103
-297,978	-200,000	-0,006	0,214
-296,964	-48,591	-0,059	-0,020
-295,949	367,836	0,066	-0,097
-294,935	-106,615	-0,172	0,028
-293,920	-122,341	-0,112	0,013
-292,905	301,774	0,088	0,118
-291,891	-118,129	0,082	0,010
-290,876	-200,000	0,004	0,110
-289,862	769,004	-0,043	0,085
-288,847	-200,000	0,033	0,125
-287,832	626,215	-0,021	0,039
-286,818	-105,637	-0,046	-0,007
-285,803	-44,572	0,103	-0,037
-284,789	-45,075	0,167	0,060
-283,774	-11,625	0,189	0,090
-282,759	-200,000	-0,014	-0,110
-281,745	-91,530	-0,092	-0,019
-280,730	123,725	-0,119	-0,108
-279,716	-200,000	-0,023	-0,102
-278,701	130,872	0,045	-0,041
-277,686	-200,000	0,004	0,106
-276,672	800,000	0,026	0,064
-275,657	153,537	0,156	0,155
-274,643	-70,583	-0,111	0,030
-273,628	-73,233	-0,036	0,009
-272,613	800,000	0,027	-0,083
-271,599	-49,691	0,129	-0,044
-270,584	-62,199	-0,136	0,041
-269,570	686,899	-0,003	-0,006
-268,555	27,324	-0,092	-0,056
-267,540	-31,221	-0,065	0,027
-266,526	525,377	0,035	-0,060
-265,511	800,000	-0,009	-0,028
-264,497	-200,000	-0,013	-0,061
-263,482	800,000	-0,033	-0,100
-262,467	98,535	-0,028	0,023
-261,453	481,366	0,037	-0,061
-260,438	441,724	-0,028	0,044
-259,424	206,022	-0,021	0,023
-258,409	-200,000	0,002	0,020
-257,395	-200,000	0,025	0,115
-256,380	376,431	0,035	-0,051
-255,365	20,430	-0,042	0,024
-254,351	-16,628	-0,004	-0,002
-253,336	386,432	-0,076	-0,113
-252,322	800,000	0,035	-0,099
-251,307	141,417	0,044	0,043
-250,292	5,584	-0,116	0,062
-249,278	-171,494	0,107	-0,003
-248,263	157,949	-0,081	0,081
-247,249	304,235	-0,026	0,036
-246,234	-26,830	-0,050	-0,021
-245,219	682,631	0,019	-0,036
-244,205	-200,000	-0,023	0,077
-243,190	278,889	0,070	-0,090
-242,176	183,966	0,066	0,070
-241,161	-30,766	0,095	0,039
-240,146	-102,785	-0,105	0,018
-239,132	205,442	-0,104	0,117
-238,117	-200,000	0,008	-0,168
-237,103	418,363	0,031	0,049
-236,088	96,623	-0,132	-0,109
-235,073	-50,039	0,108	0,037
-234,059	-200,000	0,020	0,081
-233,044	-200,000	0,041	0,214
-232,030	49,247	-0,136	0,092
-231,015	10,200	-0,081	0,044
-230,000	715,178	-0,006	0,012
-228,986	-101,971	0,109	0,019
-227,971	116,919	-0,101	-0,089
-226,957	-32,784	0,138	0,055
-225,942	-32,484	0,113	0,045
-224,927	-200,000	0,006	-0,040
-223,913	-17,318	-0,089	-0,040
-222,898	679,113	-0,124	-0,233
-221,884	-155,888	-0,078	0,004
-220,869	-200,000	-0,010	-0,103
-219,855	-150,372	0,068	-0,004
-218,840	-7,741	0,024	-0,012
-217,825	213,812	-0,028	0,032
-216,811	-75,874	0,092	0,023
-215,796	-49,934	-0,114	-0,039
-214,782	-200,000	-0,015	-0,092
-213,767	11,723	0,124	0,068
-212,752	102,480	-0,048	-0,041
-211,738	-4,756	0,031	0,015
-210,723	-2,019	-0,122	0,062
-209,709	-200,000	0,023	0,126
-208,694	248,196	-0,055	-0,068
-207,679	-52,022	0,137	0,046
-206,665	-200,000	-0,055	-0,196
-205,650	800,000	-0,071	0,147
-204,636	-200,000	0,034	0,135
-203,621	22,647	-0,004	-0,003
-202,606	-75,746	0,004	-0,001
-201,592	-200,000	-0,010	-0,037
-200,577	68,157	0,045	0,033
-199,563	-155,895	0,052	0,002
-198,548	-16,429	0,114	0,052
-197,533	-158,204	0,095	-0,004
-196,519	-12,605	0,082	0,038
-195,504	56,408	-0,115	-0,081
-194,490	390,931	-0,014	-0,020
-193,475	-78,942	-0,033	0,008
-192,460	-85,815	-0,132	-0,029
-191,446	-200,000	-0,016	0,241
-190,431	800,000	0,022	0,068
-189,417	184,950	0,066	-0,071
-188,402	-17,804	0,114	-0,051
-187,387	10,968	0,043	-0,024
-186,373	254,959	0,047	-0,058
-185,358	99,946	-0,070	-0,058
-184,344	114,082	0,041	-0,036
-183,329	-2,516	0,090	0,046
-182,315	800,000	-0,039	0,082
-181,300	258,495	-0,059	-0,074
-180,285	-92,491	0,118	0,024
-179,271	-200,000	-0,006	-0,212
-178,256	-200,000	-0,005	-0,084
-177,242	-28,306	-0,074	0,031
-176,227	-62,094	0,044	-0,013
-175,212	800,000	-0,043	0,122
-174,198	-138,007	-0,070	-0,006
-173,183	-73,935	-0,031	0,008
-172,169	-200,000	-0,003	0,017
-171,154	6,591	0,056	0,030
-170,139	57,973	0,062	0,044
-169,125	27,320	-0,039	-0,023
-168,110	-200,000	0,016	0,067
-167,096	61,963	0,061	-0,044
-166,081	-200,000	-0,004	0,128
-165,066	-117,411	0,138	0,018
-164,052	-112,387	-0,064	0,009
-163,037	-115,481	-0,116	0,016
-162,023	-200,000	0,033	0,128
-161,008	800,000	0,048	0,140
-159,993	94,011	0,085	0,070
-158,979	-18,086	-0,051	-0,023
-157,964	-200,000	-0,002	0,033
-156,950	800,000	0,051	-0,159
-155,935	-200,000	-0,005	-0,077
-154,920	74,344	0,082	0,062
-153,906	-54,379	0,094	0,030
-152,891	521,192	-0,022	-0,037
-151,877	-150,648	0,033	0,002
-150,862	800,000	0,023	0,070
-149,847	-90,013	-0,259	-0,054
-148,833	15,737	0,120	0,068
-147,818	-120,933	0,067	0,008
-146,804	773,633	-0,043	0,084
-145,789	-200,000	0,014	-0,080
-144,775	605,122	0,072	-0,130
-143,760	34,388	0,064	0,040
-142,745	146,261	0,131	0,127
-141,731	348,039	-0,012	-0,016
-140,716	213,226	0,105	0,119
-139,702	-200,000	-0,009	0,140
-138,687	-121,721	0,128	-0,015
-137,672	116,735	0,068	-0,060
-136,658	-9,570	-0,020	0,010
-135,643	800,000	-0,055	0,115
-134,629	-128,008	-0,109	-0,011
-133,614	800,000	0,031	0,067
-132,599	155,085	0,056	0,056
-131,585	409,028	0,079	0,120
-130,570	272,329	-0,047	-0,060
-129,556	201,185	-0,060	-0,066
-128,541	-34,101	-0,047	-0,019
-127,526	-80,505	-0,071	-0,017
-126,512	183,309	0,081	-0,087
-125,497	-200,000	-0,002	-0,045
-124,483	-20,375	0,145	0,064
-123,468	352,789	0,078	0,111
-122,453	37,920	-0,153	-0,098
-121,439	-32,025	0,031	-0,012
-120,424	11,857	-0,117	0,064
-119,410	212,614	-0,109	0,124
