DTS Sentinel unit serial number:	SN410029Multiplexer serial number:	ORYXHardware model number:	OX2-SRSoftware version number:	ORYX F/W v4,00 Oryx Data Collector v3.7.2.0data status	okinstallation	B5 Nyhavnadifferential loss correction	single-endedforward channel	channel 2reverse channel	N/Adate	2023/12/11time	15:27:13forward acquisition time	300,00reverse acquisition time	0,00gamma	499,1914k internal	0,3166k external	0,3166temperature offset calibration	1,0000default loss term (dB/km)	0,3820temperature slope calibration	1,0000multiplexer offset coefficient	1,0000multiplexer slope coefficient	1,0000fibre end	0,00T internal ref (°C)	13,33T ext. ref 1 (°C)	-1,87T ext. ref 2 (°C)	-1,92length (m)	temperature (°C)	Stokes	anti-Stokes-744,400	800,000	0,026	0,085
-743,385	-29,617	-0,295	0,123
-742,371	-200,000	0,040	0,148
-741,356	-180,905	-0,312	0,005
-740,342	-73,091	0,207	0,055
-739,327	-117,806	-0,304	0,040
-738,312	-84,169	0,062	0,014
-737,298	-41,485	-0,312	-0,117
-736,283	-122,450	-0,103	0,012
-735,269	-70,429	-0,268	0,074
-734,254	-38,032	0,069	0,027
-733,239	-29,158	-0,577	-0,242
-732,225	290,288	0,128	0,171
-731,210	125,333	-0,036	0,034
-730,196	-200,000	-0,020	-0,153
-729,181	-85,724	-0,121	-0,027
-728,167	-4,662	-0,040	-0,020
-727,152	-58,532	-0,020	0,006
-726,137	145,151	-0,046	-0,045
-725,123	-120,361	-0,008	-0,001
-724,108	-86,525	-0,045	-0,010
-723,094	-56,355	-0,052	0,017
-722,079	-142,446	-0,055	0,004
-721,064	369,129	0,062	0,093
-720,050	247,888	-0,031	0,039
-719,035	-11,863	0,130	0,062
-718,021	405,672	-0,010	-0,016
-717,006	365,556	-0,054	-0,081
-715,991	-30,524	-0,077	0,032
-714,977	213,211	-0,025	-0,029
-713,962	800,000	-0,045	-0,143
-712,948	46,885	0,175	0,119
-711,933	83,285	0,036	0,028
-710,918	350,045	0,042	0,060
-709,904	783,444	-0,016	0,033
-708,889	-200,000	-0,021	-0,111
-707,875	83,228	-0,072	-0,057
-706,860	90,454	-0,008	0,006
-705,845	-62,171	0,104	0,032
-704,831	-3,678	-0,109	-0,055
-703,816	3,541	-0,077	0,041
-702,802	-93,362	-0,032	0,006
-701,787	-200,000	0,000	0,099
-700,772	108,253	-0,118	0,103
-699,758	-88,153	0,071	0,016
-698,743	800,000	-0,059	0,132
-697,729	-26,732	0,083	0,036
-696,714	195,641	0,062	0,069
-695,699	-200,000	0,023	0,161
-694,685	-144,947	-0,122	0,008
-693,670	-70,822	-0,024	-0,007
-692,656	800,000	0,046	-0,118
-691,641	51,863	-0,061	-0,043
-690,627	-200,000	0,029	0,161
-689,612	-56,312	-0,090	-0,029
-688,597	209,788	0,132	-0,152
-687,583	-9,541	-0,161	-0,078
-686,568	-175,907	-0,072	0,001
-685,554	-129,363	-0,278	-0,028
-684,539	184,699	-0,083	0,091
-683,524	-64,230	0,119	-0,035
-682,510	-45,650	0,147	-0,053
-681,495	-9,454	0,049	-0,024
-680,481	-200,000	0,008	-0,070
-679,466	102,167	-0,053	0,045
-678,451	389,344	0,077	0,117
-677,437	734,986	0,046	-0,090
-676,422	224,101	0,021	-0,024
-675,408	113,829	-0,097	0,087
-674,393	18,000	-0,076	-0,044
-673,378	-195,637	0,062	-0,000
-672,364	268,058	-0,053	-0,068
-671,349	7,581	-0,082	-0,045
-670,335	58,346	-0,159	-0,115
-669,320	-200,000	-0,012	0,080
-668,305	-200,000	-0,035	0,116
-667,291	206,940	0,055	0,063
-666,276	800,000	-0,025	-0,066
-665,262	46,493	-0,091	-0,062
-664,247	-17,652	-0,082	0,038
-663,232	-149,843	0,161	-0,009
-662,218	-50,587	0,077	0,026
-661,203	-45,581	-0,123	0,044
-660,189	17,747	-0,036	-0,021
-659,174	-200,000	-0,010	0,083
-658,159	800,000	0,035	-0,104
-657,145	-102,262	0,071	0,012
-656,130	16,950	0,072	-0,041
-655,116	14,524	0,059	0,034
-654,101	-200,000	0,004	0,018
-653,086	-93,157	-0,138	-0,028
-652,072	98,766	-0,023	0,019
-651,057	-200,000	0,055	-0,238
-650,043	-25,327	-0,115	-0,050
-649,028	451,563	0,022	0,037
-648,014	800,000	-0,073	0,151
-646,999	-200,000	0,001	0,163
-645,984	109,345	-0,034	-0,030
-644,970	47,108	-0,027	0,018
-643,955	-152,760	0,067	0,003
-642,941	-200,000	-0,010	-0,140
-641,926	800,000	-0,027	0,065
-640,911	-200,000	-0,027	0,107
-639,897	-53,078	-0,090	-0,030
-638,882	231,513	0,056	-0,068
-637,868	-86,715	0,112	0,025
-636,853	72,276	0,102	-0,078
-635,838	585,995	0,019	-0,035
-634,824	-70,239	-0,027	0,007
-633,809	179,175	-0,022	-0,024
-632,795	263,216	0,053	0,068
-631,780	-200,000	0,029	0,154
-630,765	54,225	-0,021	0,015
-629,751	-200,000	-0,017	-0,110
-628,736	99,527	-0,088	0,075
-627,722	-100,526	0,146	0,026
-626,707	-111,524	-0,060	0,009
-625,692	800,000	-0,034	0,070
-624,678	-200,000	0,005	0,024
-623,663	51,952	-0,135	-0,094
-622,649	80,459	-0,109	-0,086
-621,634	36,597	0,069	0,044
-620,619	800,000	0,030	-0,083
-619,605	133,371	-0,023	0,022
-618,590	-200,000	0,012	-0,064
-617,576	234,520	0,069	-0,084
-616,561	439,356	0,069	0,110
-615,546	139,493	0,049	-0,047
-614,532	800,000	-0,045	-0,130
-613,517	395,306	-0,078	0,120
-612,503	-200,000	-0,005	0,047
-611,488	37,362	-0,050	0,033
-610,474	800,000	-0,039	0,082
-609,459	-52,796	-0,059	0,020
-608,444	-87,429	0,039	-0,009
-607,430	-22,656	-0,064	-0,028
-606,415	800,000	0,010	-0,031
-605,401	-79,972	0,098	-0,024
-604,386	-200,000	0,004	0,039
-603,371	98,411	0,067	-0,056
-602,357	277,289	0,070	-0,091
-601,342	2,375	-0,095	0,050
-600,328	-200,000	0,021	-0,245
-599,313	800,000	-0,051	-0,105
-598,298	121,164	0,045	0,041
-597,284	-55,851	0,242	0,079
-596,269	-86,240	-0,043	-0,010
-595,255	186,411	-0,095	-0,104
-594,240	13,966	-0,122	-0,069
-593,225	-60,971	-0,093	-0,028
-592,211	800,000	0,039	-0,085
-591,196	-40,312	0,036	0,014
-590,182	-200,000	-0,044	0,147
-589,167	380,419	0,024	-0,035
-588,152	134,122	0,109	-0,103
-587,138	-200,000	-0,004	-0,112
-586,123	-200,000	-0,010	-0,042
-585,109	252,201	0,037	-0,047
-584,094	-200,000	-0,005	0,075
-583,079	-200,000	-0,021	-0,105
-582,065	-84,425	0,049	0,011
-581,050	800,000	0,021	0,061
-580,036	28,820	-0,032	-0,020
-579,021	301,089	-0,087	0,117
-578,006	-20,980	0,073	0,033
-576,992	497,881	0,061	-0,103
-575,977	-200,000	-0,007	-0,027
-574,963	-181,424	0,084	0,001
-573,948	-11,957	-0,077	0,037
-572,934	97,004	-0,057	-0,048
-571,919	800,000	-0,049	-0,151
-570,904	175,750	-0,067	-0,072
-569,890	541,345	0,034	-0,059
-568,875	49,601	0,049	0,034
-567,861	63,024	-0,094	0,069
-566,846	17,719	-0,069	0,040
-565,831	531,114	-0,039	-0,068
-564,817	-200,000	-0,005	-0,065
-563,802	467,269	-0,046	0,075
-562,788	-200,000	0,005	0,062
-561,773	-170,063	0,085	-0,002
-560,758	291,114	0,030	0,040
-559,744	595,695	-0,069	-0,126
-558,729	-200,000	-0,008	0,051
-557,715	-139,582	-0,091	0,007
-556,700	107,127	-0,110	-0,095
-555,685	182,426	0,067	-0,072
-554,671	405,602	-0,073	0,113
-553,656	-200,000	-0,004	0,027
-552,642	-200,000	0,005	0,047
-551,627	-142,178	-0,129	0,009
-550,612	-70,187	-0,069	-0,019
-549,598	-200,000	-0,003	-0,137
-548,583	-68,357	0,084	-0,024
-547,569	-57,494	0,053	-0,017
-546,554	477,107	0,054	0,090
-545,539	71,118	0,027	-0,020
-544,525	142,604	-0,077	0,074
-543,510	-200,000	0,002	-0,018
-542,496	800,000	-0,040	-0,086
-541,481	-200,000	-0,017	-0,102
-540,466	94,716	0,036	0,030
-539,452	46,574	0,027	0,018
-538,437	386,035	0,034	-0,052
-537,423	-7,891	0,052	-0,025
-536,408	800,000	-0,065	0,138
-535,393	-82,708	0,051	0,012
-534,379	144,856	-0,047	0,045
-533,364	-158,634	-0,076	-0,003
-532,350	-200,000	0,018	-0,067
-531,335	-9,722	0,142	0,069
-530,321	-3,408	-0,110	-0,055
-529,306	-75,836	0,024	-0,006
-528,291	482,555	0,045	-0,074
-527,277	-200,000	0,012	-0,201
-526,262	101,113	-0,018	0,015
-525,248	-26,302	0,118	-0,050
-524,233	37,694	-0,102	0,066
-523,218	-89,687	0,080	-0,017
-522,204	101,640	0,049	0,042
-521,189	237,602	0,040	0,048
-520,175	-200,000	0,003	-0,010
-519,160	-200,000	-0,003	0,024
-518,145	235,610	0,018	0,022
-517,131	-163,776	0,097	0,003
-516,116	-200,000	-0,006	-0,120
-515,102	126,580	0,076	0,070
-514,087	800,000	-0,065	-0,192
-513,072	-200,000	-0,011	-0,050
-512,058	-46,239	-0,123	-0,044
-511,043	-105,488	0,115	0,019
-510,029	80,279	-0,123	0,096
-509,014	-200,000	0,031	-0,103
-507,999	-112,820	-0,174	0,025
-506,985	-134,196	-0,059	-0,005
-505,970	-9,596	-0,151	-0,073
-504,956	-95,057	-0,133	0,026
-503,941	16,488	0,061	-0,035
-502,926	23,646	0,066	-0,039
-501,912	-36,301	0,130	0,051
-500,897	29,481	0,112	-0,069
-499,883	800,000	-0,048	-0,114
-498,868	-200,000	0,022	-0,196
-497,853	-200,000	-0,008	0,042
-496,839	-121,950	-0,158	-0,019
-495,824	-87,169	0,105	-0,023
-494,810	-69,582	0,071	0,020
-493,795	261,804	-0,084	-0,106
-492,781	150,919	-0,115	-0,114
-491,766	-200,000	0,005	-0,068
-490,751	-155,196	-0,201	0,009
-489,737	67,311	-0,038	-0,028
-488,722	351,882	0,019	0,028
-487,708	-200,000	-0,011	0,162
-486,693	791,922	-0,021	-0,041
-485,678	106,848	0,145	-0,125
-484,664	419,487	-0,102	-0,159
-483,649	-200,000	0,035	-0,143
-482,635	-200,000	0,022	0,147
-481,620	90,283	-0,040	0,033
-480,605	57,193	-0,120	-0,085
-479,591	284,523	0,091	0,120
-478,576	-21,250	-0,073	0,032
-477,562	163,520	0,043	-0,044
-476,547	134,855	0,051	0,049
-475,532	-70,591	0,054	0,015
-474,518	194,250	0,024	0,026
-473,503	-200,000	-0,020	-0,096
-472,489	-200,000	0,014	0,089
-471,474	414,354	-0,055	0,086
-470,459	49,137	0,038	-0,026
-469,445	-200,000	-0,007	-0,208
-468,430	-200,000	-0,014	-0,110
-467,416	-137,117	0,111	-0,009
-466,401	614,826	-0,031	0,057
-465,386	401,983	-0,056	0,086
-464,372	-126,066	-0,073	-0,008
-463,357	112,285	-0,067	0,059
-462,343	-200,000	-0,016	-0,093
-461,328	-64,698	-0,123	0,036
-460,313	9,496	-0,056	-0,031
-459,299	788,383	0,034	-0,068
-458,284	-116,335	0,082	0,011
-457,270	370,108	-0,032	0,048
-456,255	-146,360	-0,017	0,001
-455,241	36,095	0,063	-0,040
-454,226	-49,980	0,049	-0,017
-453,211	800,000	0,009	0,020
-452,197	19,189	0,088	0,051
-451,182	-8,569	0,025	-0,012
-450,168	95,319	-0,043	0,035
-449,153	-200,000	0,008	0,041
-448,138	320,200	0,086	-0,118
-447,124	-200,000	-0,003	0,030
-446,109	-200,000	-0,009	0,034
-445,095	87,144	0,110	0,088
-444,080	1,102	0,150	0,078
-443,065	181,630	-0,083	0,089
-442,051	800,000	-0,026	-0,065
-441,036	-81,792	-0,089	0,021
-440,022	2,786	-0,085	0,045
-439,007	680,786	-0,020	-0,038
-437,992	-200,000	0,015	-0,162
-436,978	-200,000	-0,000	-0,015
-435,963	-200,000	0,000	-0,052
-434,949	80,818	-0,061	-0,048
-433,934	144,496	-0,062	-0,060
-432,919	-200,000	0,000	0,058
-431,905	-111,031	0,062	-0,009
-430,890	-200,000	-0,012	-0,043
-429,876	-200,000	0,029	-0,119
-428,861	-36,887	0,044	0,017
-427,846	94,215	-0,084	-0,069
-426,832	800,000	-0,053	-0,114
-425,817	-23,042	-0,197	-0,086
-424,803	800,000	0,057	-0,143
-423,788	-44,034	0,107	0,039
-422,773	293,484	-0,046	0,060
-421,759	113,061	-0,117	0,103
-420,744	2,077	-0,055	-0,029
-419,730	56,818	-0,090	-0,064
-418,715	86,349	0,126	-0,101
-417,701	-109,782	0,164	0,025
-416,686	-200,000	-0,004	0,108
-415,671	530,926	0,056	0,097
-414,657	99,742	0,036	-0,030
-413,642	287,308	-0,095	0,124
-412,628	27,560	-0,076	-0,046
-411,613	-200,000	-0,012	0,101
-410,598	137,861	0,107	-0,102
-409,584	-200,000	0,028	-0,093
-408,569	240,761	0,065	0,079
-407,555	-200,000	-0,017	-0,070
-406,540	-200,000	0,008	-0,079
-405,525	0,656	0,154	0,080
-404,511	-200,000	-0,007	0,100
-403,496	158,694	0,024	-0,025
-402,482	319,087	0,059	0,081
-401,467	132,315	0,109	0,102
-400,452	-58,385	0,022	-0,007
-399,438	6,702	-0,065	-0,035
-398,423	-11,252	0,103	-0,049
-397,409	150,767	-0,080	-0,079
-396,394	-61,852	0,073	0,022
-395,379	-200,000	-0,005	0,094
-394,365	-200,000	0,003	-0,037
-393,350	19,127	0,075	0,044
-392,336	136,929	-0,058	-0,055
-391,321	88,408	0,067	0,054
-390,306	-78,447	-0,112	0,028
-389,292	73,713	0,043	0,033
-388,277	59,181	0,096	0,068
-387,263	44,461	-0,081	-0,054
-386,248	93,281	0,062	0,051
-385,233	800,000	0,009	0,027
-384,219	155,032	-0,008	-0,008
-383,204	-183,871	0,181	0,002
-382,190	-156,496	-0,060	0,003
-381,175	66,118	0,063	0,046
-380,160	412,521	0,034	0,053
-379,146	-200,000	-0,018	-0,080
-378,131	800,000	-0,056	0,149
-377,117	388,409	-0,048	0,072
-376,102	170,717	0,048	-0,050
-375,088	-9,918	0,050	0,024
-374,073	-200,000	0,006	-0,081
-373,058	-200,000	-0,036	0,142
-372,044	18,433	0,101	0,058
-371,029	37,792	0,100	0,064
-370,015	35,379	-0,045	0,029
-369,000	390,328	-0,079	-0,120
-367,985	800,000	0,021	-0,066
-366,971	13,406	-0,031	0,018
-365,956	800,000	-0,026	-0,067
-364,942	-27,058	0,117	-0,049
-363,927	-200,000	0,003	-0,084
-362,912	21,016	-0,096	-0,056
-361,898	419,957	-0,058	-0,090
-360,883	53,346	0,025	-0,018
-359,869	70,225	-0,075	-0,056
-358,854	159,666	0,092	-0,093
-357,839	-33,239	0,119	-0,048
-356,825	-37,521	-0,090	0,034
-355,810	14,939	0,054	-0,030
-354,796	228,446	0,059	0,070
-353,781	-124,927	0,064	-0,007
-352,766	-200,000	-0,011	0,040
-351,752	-200,000	-0,018	-0,130
-350,737	507,362	0,012	-0,020
-349,723	-123,033	0,047	-0,005
-348,708	-51,336	0,020	-0,007
-347,693	242,720	0,090	-0,110
-346,679	144,979	0,021	-0,020
-345,664	-200,000	0,002	-0,137
-344,650	-200,000	0,002	-0,029
-343,635	184,345	0,055	0,059
-342,620	324,082	0,078	0,109
-341,606	55,006	-0,056	0,039
-340,591	-86,582	0,084	0,018
-339,577	-200,000	0,049	-0,175
-338,562	-36,572	-0,190	0,074
-337,548	800,000	-0,041	-0,094
-336,533	614,566	0,026	0,047
-335,518	-200,000	-0,045	0,153
-334,504	311,312	0,074	0,100
-333,489	-98,221	-0,074	-0,014
-332,475	199,513	0,066	0,073
-331,460	-65,708	0,044	0,013
-330,445	-117,483	-0,113	0,015
-329,431	-200,000	-0,021	0,129
-328,416	157,630	0,039	0,039
-327,402	-116,430	0,109	0,014
-326,387	800,000	0,022	-0,067
-325,372	-179,792	-0,044	-0,001
-324,358	11,168	-0,095	-0,052
-323,343	264,525	0,065	0,082
-322,329	800,000	0,046	0,109
-321,314	-200,000	0,021	0,114
-320,299	275,911	0,023	-0,030
-319,285	-45,740	-0,118	0,042
-318,270	-200,000	-0,011	0,037
-317,256	-33,573	-0,217	0,086
-316,241	-95,020	0,052	-0,010
-315,226	155,730	0,015	-0,015
-314,212	-93,213	0,108	0,022
-313,197	800,000	-0,063	0,130
-312,183	488,977	-0,113	-0,187
-311,168	-90,936	0,099	0,020
-310,153	473,842	-0,025	-0,042
-309,139	343,796	-0,071	0,101
-308,124	153,350	0,056	0,055
-307,110	104,355	0,039	-0,033
-306,095	706,482	0,043	0,083
-305,080	237,678	-0,016	0,019
-304,066	290,775	-0,041	-0,053
-303,051	-105,480	-0,188	-0,031
-302,037	-200,000	0,033	0,122
-301,022	800,000	-0,040	0,088
-300,008	-200,000	0,023	0,092
-298,993	-21,070	-0,099	0,043
-297,978	322,978	0,052	-0,072
-296,964	242,221	-0,042	-0,051
-295,949	53,443	-0,095	-0,065
-294,935	570,284	-0,062	0,109
-293,920	-39,165	-0,050	0,019
-292,905	-2,235	0,039	-0,019
-291,891	12,317	-0,059	-0,033
-290,876	-118,059	0,067	-0,009
-289,862	72,877	0,028	0,021
-288,847	587,412	-0,125	-0,223
-287,832	10,888	-0,104	0,057
-286,818	166,947	0,105	0,108
-285,803	-0,930	-0,068	0,035
-284,789	159,663	0,123	0,124
-283,774	137,375	-0,047	0,044
-282,759	800,000	-0,016	-0,037
-281,745	119,245	0,087	0,078
-280,730	500,938	-0,027	-0,045
-279,716	122,538	-0,044	0,040
-278,701	800,000	0,033	0,093
-277,686	-73,590	0,095	0,025
-276,672	-1,053	-0,042	-0,021
-275,657	212,436	-0,031	0,035
-274,643	-105,466	0,113	0,018
-273,628	-200,000	0,000	0,053
-272,613	-200,000	-0,032	-0,129
-271,599	-42,353	-0,049	-0,018
-270,584	800,000	-0,031	0,071
-269,570	11,053	0,040	-0,022
-268,555	-19,684	0,097	0,043
-267,540	180,738	0,051	-0,054
-266,526	-61,452	0,060	0,018
-265,511	17,510	0,018	0,010
-264,497	-22,815	-0,033	-0,014
-263,482	800,000	0,036	0,074
-262,467	606,995	-0,049	0,089
-261,453	-200,000	-0,026	0,105
-260,438	515,332	-0,017	0,028
-259,424	149,089	-0,064	-0,063
-258,409	-43,159	-0,034	-0,012
-257,395	149,494	-0,053	-0,052
-256,380	115,141	0,041	0,036
-255,365	336,368	-0,085	0,119
-254,351	-165,455	0,254	0,008
-253,336	-200,000	-0,011	-0,123
-252,322	800,000	0,025	0,051
-251,307	800,000	0,056	-0,146
-250,292	121,524	0,018	-0,016
-249,278	-200,000	-0,013	0,060
-248,263	-22,998	0,117	-0,051
-247,249	40,791	0,048	-0,031
-246,234	191,099	-0,066	-0,072
-245,219	732,824	-0,052	0,101
-244,205	-200,000	-0,002	0,082
-243,190	-81,588	0,033	0,008
-242,176	-125,073	0,071	0,008
-241,161	-95,698	-0,089	-0,017
-240,146	-81,441	0,122	0,029
-239,132	-200,000	-0,020	0,078
-238,117	365,113	-0,028	-0,041
-237,103	-200,000	0,023	0,124
-236,088	-143,927	0,134	0,009
-235,073	299,592	-0,011	-0,015
-234,059	162,504	-0,086	0,087
-233,044	800,000	-0,016	-0,036
-232,030	568,569	-0,060	-0,106
-231,015	138,949	-0,099	-0,094
-230,000	-200,000	-0,015	-0,091
-228,986	60,552	0,050	-0,035
-227,971	309,991	0,057	0,076
-226,957	-200,000	-0,036	0,167
-225,942	800,000	-0,032	-0,079
-224,927	-45,351	-0,026	0,009
-223,913	-51,405	0,137	-0,046
-222,898	169,594	-0,058	-0,059
-221,884	-200,000	-0,005	-0,113
-220,869	800,000	0,061	0,145
-219,855	25,469	0,086	-0,051
-218,840	-45,286	0,018	0,006
-217,825	-141,549	-0,146	0,010
-216,811	-200,000	-0,003	0,041
-215,796	-28,536	-0,040	0,016
-214,782	-200,000	-0,001	-0,042
-213,767	363,818	-0,070	-0,102
-212,752	-154,053	0,083	-0,004
-211,738	800,000	0,039	0,111
-210,723	-92,091	-0,071	-0,014
-209,709	-43,545	-0,067	-0,024
-208,694	-80,201	-0,065	0,015
-207,679	20,062	0,092	0,053
-206,665	-46,890	-0,048	-0,017
-205,650	46,381	-0,034	-0,023
-204,636	-200,000	0,005	0,059
-203,621	-200,000	-0,003	-0,084
-202,606	688,161	-0,046	-0,088
-201,592	800,000	-0,032	-0,076
-200,577	-26,920	0,084	-0,035
-199,563	-200,000	-0,001	-0,015
-198,548	-200,000	0,018	0,126
-197,533	-200,000	0,012	0,122
-196,519	800,000	0,027	0,071
-195,504	800,000	-0,025	-0,079
-194,490	285,130	-0,054	0,070
-193,475	408,000	-0,021	-0,032
-192,460	305,496	0,050	-0,067
-191,446	-23,597	-0,031	0,013
-190,431	800,000	-0,049	0,113
-189,417	133,511	-0,042	0,039
-188,402	-200,000	0,007	-0,064
-187,387	-200,000	0,018	0,097
-186,373	-200,000	-0,031	0,160
-185,358	111,004	-0,038	0,033
-184,344	-55,325	0,030	0,010
-183,329	255,242	0,091	0,112
-182,315	70,132	0,184	0,137
-181,300	800,000	-0,046	0,116
-180,285	90,394	-0,074	-0,060
-179,271	597,227	0,070	-0,125
-178,256	-200,000	0,032	-0,102
-177,242	-42,966	0,094	0,034
-176,227	235,369	-0,024	0,029
-175,212	-200,000	-0,042	0,169
-174,198	800,000	0,059	0,161
-173,183	142,442	-0,119	0,114
-172,169	45,034	-0,065	-0,043
-171,154	166,969	-0,050	-0,051
-170,139	800,000	-0,017	0,053
-169,125	-200,000	-0,026	0,176
-168,110	-200,000	-0,015	0,060
-167,096	-200,000	0,014	0,071
-166,081	800,000	-0,038	-0,087
-165,066	-83,867	0,105	0,024
-164,052	800,000	-0,002	0,006
-163,037	-16,477	-0,114	0,052
-162,023	351,269	0,059	-0,084
-161,008	450,807	0,063	0,100
-159,993	420,239	-0,059	-0,092
-158,979	-66,048	0,031	0,009
-157,964	-100,874	-0,121	-0,021
-156,950	800,000	0,096	-0,194
-155,935	362,481	0,043	0,062
-154,920	7,434	0,017	0,009
-153,906	-200,000	0,002	0,117
-152,891	45,239	0,094	-0,062
-151,877	-200,000	0,018	-0,169
-150,862	-19,013	0,043	0,019
-149,847	-200,000	-0,021	0,070
-148,833	-200,000	0,021	0,074
-147,818	800,000	-0,055	-0,134
-146,804	-62,736	0,089	-0,026
-145,789	-200,000	-0,013	0,055
-144,775	72,110	0,105	0,079
-143,760	100,193	-0,088	-0,074
-142,745	-200,000	0,024	-0,121
-141,731	24,952	0,057	-0,034
-140,716	800,000	0,032	-0,080
-139,702	-51,552	0,126	-0,042
-138,687	220,479	-0,017	-0,019
-137,672	-200,000	-0,024	-0,111
-136,658	-200,000	-0,001	0,005
-135,643	-200,000	-0,004	-0,015
-134,629	467,453	-0,055	-0,089
-133,614	226,133	-0,018	0,021
-132,599	378,102	0,039	-0,057
-131,585	-200,000	-0,030	0,194
-130,570	-88,210	0,047	0,010
-129,556	-200,000	0,029	-0,112
-128,541	265,873	-0,042	0,053
-127,526	-200,000	0,011	0,093
-126,512	-200,000	-0,032	-0,111
-125,497	188,002	-0,053	-0,057
-124,483	-100,367	-0,014	0,002
-123,468	-82,448	-0,026	0,006
-122,453	-144,861	-0,130	0,008
-121,439	412,713	0,033	-0,051
-120,424	-121,359	0,048	-0,006
-119,410	156,050	-0,098	0,097
-118,395	-8,477	-0,110	0,053
