DTS Sentinel unit serial number:	SN410029Multiplexer serial number:	ORYXHardware model number:	OX2-SRSoftware version number:	ORYX F/W v4,00 Oryx Data Collector v3.7.2.0data status	okinstallation	B5 Nyhavnadifferential loss correction	single-endedforward channel	channel 2reverse channel	N/Adate	2023/12/12time	05:32:13forward acquisition time	300,00reverse acquisition time	0,00gamma	499,1914k internal	0,3158k external	0,3158temperature offset calibration	1,0000default loss term (dB/km)	0,3820temperature slope calibration	1,0000multiplexer offset coefficient	1,0000multiplexer slope coefficient	1,0000fibre end	0,00T internal ref (°C)	15,37T ext. ref 1 (°C)	-1,04T ext. ref 2 (°C)	-1,31length (m)	temperature (°C)	Stokes	anti-Stokes-744,400	-200,000	0,010	0,036
-743,385	-121,368	-0,317	-0,038
-742,371	65,418	0,149	0,111
-741,356	-66,540	-0,203	0,059
-740,342	7,107	0,060	0,033
-739,327	-182,679	-0,277	0,004
-738,312	-162,193	0,170	-0,006
-737,298	-78,739	-0,260	-0,065
-736,283	-109,281	0,109	0,017
-735,269	-78,921	-0,346	-0,086
-734,254	-83,491	0,284	0,066
-733,239	-44,767	-0,452	-0,165
-732,225	-194,360	-0,017	0,000
-731,210	98,597	-0,049	-0,041
-730,196	-135,285	-0,062	0,005
-729,181	-200,000	0,002	-0,074
-728,167	-200,000	0,004	0,070
-727,152	73,577	-0,064	0,049
-726,137	637,517	0,022	-0,041
-725,123	800,000	0,030	-0,090
-724,108	-57,428	-0,201	-0,065
-723,094	800,000	-0,055	-0,121
-722,079	3,751	-0,051	0,027
-721,064	-62,078	-0,055	0,017
-720,050	8,263	-0,170	-0,094
-719,035	476,389	-0,038	-0,064
-718,021	76,882	-0,081	-0,063
-717,006	366,500	-0,042	-0,062
-715,991	132,341	-0,104	-0,099
-714,977	193,322	-0,106	-0,118
-713,962	42,384	-0,116	-0,077
-712,948	131,277	0,057	0,054
-711,933	-200,000	0,018	0,096
-710,918	250,166	-0,054	-0,067
-709,904	85,562	-0,063	0,051
-708,889	-48,005	-0,229	-0,081
-707,875	605,351	0,081	-0,150
-706,860	9,206	0,128	-0,071
-705,845	181,753	-0,067	0,073
-704,831	800,000	-0,021	0,048
-703,816	800,000	-0,002	0,006
-702,802	-86,999	0,132	-0,029
-701,787	-26,568	-0,010	0,004
-700,772	8,189	0,188	-0,104
-699,758	527,188	0,033	-0,058
-698,743	44,007	-0,107	0,072
-697,729	226,288	-0,104	0,124
-696,714	-200,000	-0,014	-0,166
-695,699	300,595	0,053	-0,072
-694,685	206,733	0,081	-0,093
-693,670	-200,000	-0,027	0,101
-692,656	-200,000	0,027	-0,089
-691,641	-114,016	-0,069	-0,010
-690,627	-132,844	0,110	0,010
-689,612	-200,000	-0,005	-0,083
-688,597	493,286	-0,136	-0,230
-687,583	244,735	-0,139	-0,172
-686,568	-51,664	0,101	-0,034
-685,554	-83,866	-0,094	0,022
-684,539	-100,917	-0,042	-0,008
-683,524	-75,718	0,099	-0,026
-682,510	-200,000	0,025	0,113
-681,495	-100,272	0,098	-0,018
-680,481	-200,000	0,011	-0,060
-679,466	47,476	-0,120	-0,082
-678,451	113,182	0,032	0,029
-677,437	208,982	-0,012	0,014
-676,422	-200,000	0,032	0,125
-675,408	177,282	0,072	0,077
-674,393	53,711	-0,103	-0,073
-673,378	300,405	-0,086	0,117
-672,364	774,782	-0,048	0,096
-671,349	-200,000	0,008	-0,066
-670,335	-32,057	-0,048	-0,020
-669,320	800,000	0,045	0,095
-668,305	32,559	-0,092	-0,058
-667,291	-167,561	0,060	0,002
-666,276	17,979	-0,043	-0,025
-665,262	331,448	-0,092	-0,131
-664,247	800,000	-0,052	0,127
-663,232	72,487	0,120	-0,092
-662,218	331,265	-0,049	-0,069
-661,203	87,056	-0,082	-0,066
-660,189	800,000	-0,061	-0,137
-659,174	-200,000	-0,019	-0,072
-658,159	-135,973	-0,078	-0,007
-657,145	480,051	0,014	0,024
-656,130	139,203	-0,071	-0,068
-655,116	158,618	-0,124	0,126
-654,101	12,824	-0,131	0,074
-653,086	-112,776	0,087	0,013
-652,072	-79,660	0,056	0,014
-651,057	-200,000	-0,001	-0,053
-650,043	-133,064	0,112	-0,010
-649,028	30,388	-0,037	0,023
-648,014	-200,000	0,001	0,011
-646,999	395,119	0,027	0,042
-645,984	172,937	-0,063	0,066
-644,970	180,173	0,048	-0,052
-643,955	223,357	-0,054	-0,064
-642,941	-200,000	0,035	-0,166
-641,926	428,774	0,033	0,053
-640,911	351,912	0,066	0,097
-639,897	779,558	0,042	0,084
-638,882	-106,182	-0,006	-0,001
-637,868	-10,947	-0,058	-0,028
-636,853	215,880	0,078	-0,091
-635,838	-200,000	-0,011	-0,080
-634,824	-200,000	-0,019	0,086
-633,809	164,959	-0,053	0,055
-632,795	292,285	0,080	0,108
-631,780	299,259	0,039	-0,052
-630,765	203,417	0,060	0,068
-629,751	-140,654	-0,171	-0,013
-628,736	89,734	-0,061	0,050
-627,722	-97,768	0,046	-0,009
-626,707	54,870	-0,146	-0,103
-625,692	-146,557	0,044	-0,003
-624,678	-102,682	-0,042	0,007
-623,663	37,150	-0,156	-0,101
-622,649	460,548	-0,028	-0,046
-621,634	595,832	0,076	0,138
-620,619	511,055	0,038	-0,065
-619,605	28,207	0,091	0,056
-618,590	302,863	-0,027	0,036
-617,576	-112,794	-0,161	0,023
-616,561	-82,504	-0,017	-0,004
-615,546	204,126	0,026	0,029
-614,532	76,241	-0,117	-0,090
-613,517	-149,803	0,083	0,005
-612,503	-64,222	0,048	0,014
-611,488	346,124	-0,087	0,126
-610,474	-200,000	-0,008	-0,098
-609,459	646,814	0,058	-0,109
-608,444	-135,975	-0,013	-0,001
-607,430	30,001	0,115	0,072
-606,415	800,000	0,037	-0,091
-605,401	-55,502	-0,009	-0,003
-604,386	354,545	-0,064	-0,094
-603,371	-164,882	-0,022	0,001
-602,357	195,463	-0,048	0,054
-601,342	253,018	0,030	-0,037
-600,328	-93,774	0,117	0,024
-599,313	-62,970	-0,083	-0,025
-598,298	3,259	0,127	-0,068
-597,284	-37,842	-0,023	-0,009
-596,269	28,852	0,045	0,028
-595,255	-53,306	0,160	-0,054
-594,240	69,390	-0,102	-0,077
-593,225	-103,689	0,074	-0,013
-592,211	-39,843	-0,071	-0,027
-591,196	174,343	-0,033	0,035
-590,182	-112,817	0,044	-0,006
-589,167	151,200	0,067	0,066
-588,152	-80,172	0,102	0,025
-587,138	277,551	0,015	-0,019
-586,123	-200,000	-0,043	-0,157
-585,109	-81,287	-0,030	-0,007
-584,094	226,060	-0,132	0,157
-583,079	-45,227	-0,108	0,039
-582,065	-200,000	0,024	-0,082
-581,050	84,176	0,118	0,095
-580,036	130,854	-0,124	-0,117
-579,021	-200,000	-0,014	-0,046
-578,006	-200,000	0,012	0,079
-576,992	-53,867	-0,071	0,024
-575,977	-37,472	-0,065	0,025
-574,963	134,385	-0,105	-0,100
-573,948	792,940	0,061	-0,123
-572,934	295,673	0,065	-0,088
-571,919	-136,910	-0,127	-0,010
-570,904	-200,000	0,002	-0,075
-569,890	-200,000	-0,040	-0,134
-568,875	107,011	0,088	-0,077
-567,861	344,276	-0,041	-0,059
-566,846	-86,818	0,110	-0,024
-565,831	-5,648	-0,090	-0,045
-564,817	615,441	-0,065	-0,119
-563,802	204,695	-0,014	0,016
-562,788	-200,000	-0,024	-0,116
-561,773	800,000	0,030	-0,089
-560,758	89,398	0,031	-0,025
-559,744	4,826	0,085	0,046
-558,729	800,000	0,050	-0,155
-557,715	800,000	0,096	-0,232
-556,700	232,143	0,095	-0,115
-555,685	193,677	0,043	-0,047
-554,671	-83,414	0,078	-0,018
-553,656	-79,922	-0,074	0,018
-552,642	606,407	-0,062	-0,113
-551,627	-200,000	0,021	-0,174
-550,612	50,133	0,032	-0,022
-549,598	-138,000	-0,047	0,004
-548,583	-24,166	-0,107	0,046
-547,569	-46,476	-0,076	-0,027
-546,554	-200,000	0,008	0,084
-545,539	253,090	0,081	0,102
-544,525	-146,085	0,106	0,007
-543,510	-40,984	-0,083	0,031
-542,496	167,775	0,073	0,076
-541,481	-143,767	-0,071	-0,005
-540,466	136,645	-0,060	-0,057
-539,452	-22,237	0,105	-0,047
-538,437	800,000	0,052	0,143
-537,423	800,000	-0,030	0,074
-536,408	223,268	0,116	-0,137
-535,393	-4,005	0,062	-0,032
-534,379	14,270	0,110	0,063
-533,364	-200,000	0,009	-0,119
-532,350	-200,000	0,020	-0,103
-531,335	-200,000	-0,042	0,213
-530,321	-70,702	-0,013	0,004
-529,306	-158,665	0,157	0,006
-528,291	800,000	-0,014	0,036
-527,277	-33,079	-0,060	-0,024
-526,262	800,000	-0,028	0,088
-525,248	285,812	-0,048	0,064
-524,233	553,999	0,040	0,071
-523,218	647,036	0,046	0,086
-522,204	-38,563	-0,146	0,056
-521,189	-135,804	-0,081	0,007
-520,175	-200,000	0,011	-0,053
-519,160	-136,767	-0,072	-0,006
-518,145	388,127	0,037	0,057
-517,131	101,654	0,073	0,062
-516,116	183,690	0,108	0,117
-515,102	293,875	0,016	-0,022
-514,087	1,710	-0,030	0,016
-513,072	-200,000	0,025	-0,091
-512,058	-200,000	-0,001	0,005
-511,043	-200,000	0,004	-0,036
-510,029	-90,642	0,074	-0,015
-509,014	-59,785	-0,063	0,020
-507,999	-113,482	-0,157	0,022
-506,985	-200,000	0,015	0,101
-505,970	-200,000	-0,017	-0,073
-504,956	-104,499	-0,052	0,009
-503,941	417,618	-0,013	-0,020
-502,926	-200,000	-0,016	-0,067
-501,912	-166,618	-0,136	-0,004
-500,897	800,000	0,071	0,159
-499,883	-123,018	-0,165	-0,019
-498,868	-22,039	-0,072	0,032
-497,853	-0,368	0,026	0,013
-496,839	-200,000	-0,010	0,092
-495,824	730,791	-0,025	0,048
-494,810	-67,870	0,054	-0,015
-493,795	-130,815	0,064	-0,006
-492,781	-200,000	0,014	-0,058
-491,766	-135,809	-0,062	0,005
-490,751	46,007	-0,054	0,036
-489,737	88,861	0,078	-0,063
-488,722	732,103	0,048	-0,094
-487,708	-200,000	-0,005	-0,063
-486,693	-187,197	-0,043	0,000
-485,678	-16,000	-0,026	-0,012
-484,664	107,225	-0,112	0,097
-483,649	-48,935	-0,023	-0,008
-482,635	-33,450	0,048	-0,019
-481,620	30,578	-0,069	-0,043
-480,605	800,000	0,036	-0,100
-479,591	-200,000	0,009	0,093
-478,576	-158,374	0,107	-0,004
-477,562	-27,712	-0,107	0,045
-476,547	159,885	-0,058	-0,059
-475,532	-59,199	0,209	-0,065
-474,518	41,693	0,056	0,037
-473,503	139,731	-0,041	0,040
-472,489	-200,000	-0,020	0,083
-471,474	800,000	0,042	0,095
-470,459	184,840	-0,073	0,079
-469,445	-185,184	-0,122	-0,001
-468,430	56,147	-0,126	-0,089
-467,416	196,473	0,105	0,117
-466,401	60,754	0,084	0,061
-465,386	-200,000	0,041	0,152
-464,372	-151,092	-0,066	0,004
-463,357	-4,997	-0,097	0,049
-462,343	800,000	0,023	-0,054
-461,328	36,536	-0,043	-0,027
-460,313	-200,000	0,004	0,172
-459,299	-1,222	-0,144	0,074
-458,284	541,467	0,034	-0,059
-457,270	165,775	0,069	0,071
-456,255	189,844	-0,087	0,096
-455,241	-22,091	-0,089	-0,039
-454,226	-0,098	0,022	-0,012
-453,211	87,540	0,048	0,038
-452,197	398,110	0,077	0,117
-451,182	556,815	-0,021	0,037
-450,168	-200,000	0,005	-0,106
-449,153	-96,027	0,081	-0,015
-448,138	-132,326	0,081	0,008
-447,124	121,687	-0,104	-0,094
-446,109	743,230	0,032	-0,062
-445,095	-168,127	-0,169	-0,005
-444,080	403,987	0,069	0,107
-443,065	-200,000	-0,017	0,059
-442,051	-200,000	0,020	-0,070
-441,036	-200,000	-0,032	-0,137
-440,022	40,403	-0,082	0,053
-439,007	42,256	0,124	-0,082
-437,992	284,998	0,071	0,093
-436,978	-47,294	0,059	-0,021
-435,963	723,094	-0,006	-0,011
-434,949	-200,000	0,012	-0,059
-433,934	270,088	0,135	-0,174
-432,919	-16,299	-0,063	0,029
-431,905	-22,603	-0,042	-0,018
-430,890	-142,616	0,032	-0,002
-429,876	15,373	0,027	-0,015
-428,861	-200,000	0,030	0,125
-427,846	170,746	0,082	0,086
-426,832	-40,195	-0,112	-0,042
-425,817	-36,641	-0,133	0,052
-424,803	-200,000	-0,053	-0,195
-423,788	156,347	0,054	0,055
-422,773	15,297	-0,078	-0,045
-421,759	342,623	0,028	-0,040
-420,744	800,000	0,062	-0,185
-419,730	-200,000	-0,010	-0,048
-418,715	223,769	0,035	-0,041
-417,701	103,687	-0,020	0,017
-416,686	-200,000	-0,014	0,111
-415,671	800,000	-0,014	0,032
-414,657	8,834	0,041	-0,023
-413,642	800,000	-0,047	0,125
-412,628	156,328	-0,028	0,028
-411,613	118,738	-0,036	0,033
-410,598	-200,000	-0,011	-0,055
-409,584	-111,842	0,051	-0,007
-408,569	67,866	-0,111	0,083
-407,555	-200,000	0,002	0,065
-406,540	-183,423	-0,031	-0,000
-405,525	-200,000	0,009	0,086
-404,511	-102,330	0,093	-0,016
-403,496	10,317	0,186	0,103
-402,482	-200,000	-0,012	-0,042
-401,467	-40,631	0,070	-0,026
-400,452	-200,000	-0,003	0,049
-399,438	44,898	0,101	-0,067
-398,423	248,590	-0,094	0,116
-397,409	-153,481	-0,052	0,003
-396,394	-128,304	-0,079	0,008
-395,379	-109,179	0,098	-0,015
-394,365	109,320	0,036	-0,031
-393,350	-83,324	0,103	0,024
-392,336	800,000	-0,035	0,072
-391,321	-35,286	-0,132	0,052
-390,306	-200,000	0,028	-0,192
-389,292	102,687	0,077	0,065
-388,277	-2,904	0,088	-0,045
-387,263	-59,603	0,146	0,045
-386,248	800,000	0,052	0,140
-385,233	68,612	-0,045	-0,033
-384,219	13,321	-0,025	-0,014
-383,204	354,507	-0,016	0,023
-382,190	155,065	-0,074	-0,074
-381,175	-200,000	-0,012	-0,104
-380,160	259,009	-0,079	-0,099
-379,146	-200,000	0,006	0,067
-378,131	316,245	0,102	0,140
-377,117	-145,760	-0,076	0,005
-376,102	158,542	-0,015	0,015
-375,088	-98,698	-0,134	0,025
-374,073	-41,661	-0,155	-0,057
-373,058	-200,000	-0,019	-0,071
-372,044	-82,694	0,045	-0,011
-371,029	40,675	0,050	-0,033
-370,015	606,130	0,066	0,120
-369,000	110,600	-0,050	0,044
-367,985	203,693	0,061	0,068
-366,971	333,569	-0,148	0,209
-365,956	-200,000	-0,003	0,113
-364,942	-117,488	0,044	-0,006
-363,927	800,000	0,034	0,093
-362,912	622,706	0,018	-0,033
-361,898	-165,971	-0,066	0,002
-360,883	82,783	-0,023	-0,018
-359,869	271,869	0,054	0,069
-358,854	800,000	-0,033	0,067
-357,839	14,046	0,113	0,064
-356,825	69,020	0,064	-0,048
-355,810	-114,694	0,138	0,019
-354,796	-200,000	0,004	0,071
-353,781	17,658	-0,122	0,070
-352,766	800,000	-0,006	0,015
-351,752	200,354	-0,063	-0,070
-350,737	118,288	-0,030	0,027
-349,723	-200,000	-0,010	0,090
-348,708	-200,000	-0,087	-0,000
-347,693	-144,801	-0,110	0,007
-346,679	288,556	-0,062	-0,081
-345,664	-200,000	0,001	-0,159
-344,650	-200,000	-0,004	-0,032
-343,635	-90,309	-0,030	0,006
-342,620	-90,328	0,146	0,031
-341,606	75,466	0,071	-0,054
-340,591	-164,187	-0,052	0,002
-339,577	52,964	0,067	0,047
-338,562	800,000	-0,022	-0,067
-337,548	169,324	-0,074	-0,077
-336,533	24,929	0,023	-0,014
-335,518	-20,965	0,172	0,076
-334,504	595,587	-0,026	0,047
-333,489	-21,484	-0,069	-0,031
-332,475	-200,000	0,007	-0,112
-331,460	218,335	0,108	0,126
-330,445	800,000	-0,014	0,031
-329,431	71,551	0,026	0,020
-328,416	-200,000	0,000	0,137
-327,402	-200,000	0,040	0,141
-326,387	247,862	-0,115	-0,141
-325,372	86,639	0,123	0,098
-324,358	26,018	-0,075	-0,045
-323,343	104,799	0,073	0,062
-322,329	-150,257	-0,094	-0,005
-321,314	81,866	0,099	0,078
-320,299	104,634	0,179	0,153
-319,285	800,000	-0,069	0,191
-318,270	-85,055	0,108	0,024
-317,256	582,098	-0,060	-0,108
-316,241	-80,899	0,103	0,025
-315,226	-200,000	-0,032	-0,107
-314,212	47,057	0,062	0,041
-313,197	-119,935	0,064	-0,008
-312,183	800,000	-0,074	-0,150
-311,168	85,126	0,027	-0,021
-310,153	151,575	-0,062	-0,061
-309,139	279,200	0,016	-0,021
-308,124	44,763	0,067	-0,044
-307,110	-49,228	0,094	-0,032
-306,095	800,000	0,054	-0,140
-305,080	72,076	-0,025	-0,019
-304,066	55,944	0,070	0,049
-303,051	81,614	-0,097	-0,076
-302,037	-200,000	-0,010	-0,079
-301,022	775,866	-0,044	-0,088
-300,008	-200,000	-0,013	-0,058
-298,993	800,000	0,039	0,119
-297,978	800,000	-0,037	-0,083
-296,964	251,324	-0,068	0,084
-295,949	466,077	-0,087	-0,142
-294,935	-99,884	-0,127	0,023
-293,920	-45,069	-0,040	0,014
-292,905	800,000	-0,029	-0,088
-291,891	-53,876	-0,075	-0,025
-290,876	180,600	0,075	0,080
-289,862	762,289	-0,047	0,093
-288,847	800,000	0,062	-0,149
-287,832	152,292	0,060	-0,059
-286,818	-200,000	0,007	-0,056
-285,803	-86,328	0,109	-0,024
-284,789	303,528	0,078	-0,105
-283,774	211,249	0,045	-0,052
-282,759	-183,912	0,086	-0,001
-281,745	85,114	-0,072	-0,057
-280,730	800,000	-0,022	-0,062
-279,716	61,113	0,069	0,050
-278,701	81,839	0,183	0,143
-277,686	323,914	0,040	0,056
-276,672	-129,029	-0,105	0,011
-275,657	288,404	-0,032	0,042
-274,643	-200,000	0,005	-0,051
-273,628	-200,000	-0,008	-0,061
-272,613	236,550	-0,035	0,042
-271,599	-200,000	0,010	0,154
-270,584	-200,000	-0,027	0,111
-269,570	80,873	-0,085	-0,066
-268,555	33,261	0,100	-0,063
-267,540	27,308	0,127	-0,077
-266,526	800,000	-0,053	-0,135
-265,511	-110,732	0,041	0,006
-264,497	-59,622	0,058	-0,018
-263,482	-79,966	0,208	0,050
-262,467	800,000	-0,026	0,053
-261,453	204,851	0,015	-0,017
-260,438	81,732	-0,155	0,121
-259,424	-200,000	0,005	-0,031
-258,409	-111,900	-0,124	-0,018
-257,395	79,172	-0,067	0,052
-256,380	-200,000	-0,013	0,117
-255,365	800,000	0,039	-0,097
-254,351	110,413	-0,100	-0,087
-253,336	-200,000	0,011	0,067
-252,322	46,674	-0,170	-0,114
-251,307	-200,000	0,005	-0,062
-250,292	-83,154	0,039	-0,009
-249,278	-200,000	-0,004	0,065
-248,263	-110,613	-0,105	0,016
-247,249	-14,781	0,117	0,054
-246,234	-76,504	-0,010	0,003
-245,219	-121,031	-0,050	0,006
-244,205	127,763	-0,088	-0,081
-243,190	52,136	0,014	0,010
-242,176	800,000	0,042	0,095
-241,161	-145,233	0,082	-0,005
-240,146	-78,884	0,032	0,008
-239,132	-200,000	-0,005	0,140
-238,117	-63,129	-0,131	-0,039
-237,103	151,639	0,044	-0,044
-236,088	-68,172	0,067	-0,019
-235,073	-200,000	0,001	0,090
-234,059	-72,674	0,199	-0,053
-233,044	-200,000	0,033	0,186
-232,030	-85,479	0,082	-0,018
-231,015	617,512	-0,040	0,073
-230,000	671,304	-0,063	-0,119
-228,986	-200,000	0,026	-0,152
-227,971	238,223	0,073	-0,088
-226,957	800,000	0,075	-0,188
-225,942	-33,317	0,107	0,043
-224,927	-45,011	-0,165	0,059
-223,913	-200,000	-0,002	-0,055
-222,898	-95,501	-0,039	-0,007
-221,884	-200,000	-0,028	-0,152
-220,869	-94,128	0,100	-0,020
-219,855	18,259	0,005	-0,003
-218,840	-200,000	-0,018	0,074
-217,825	-78,986	-0,128	-0,031
-216,811	308,649	-0,040	-0,054
-215,796	35,444	-0,030	0,019
-214,782	175,963	-0,060	-0,063
-213,767	210,715	-0,046	-0,052
-212,752	351,366	-0,026	-0,038
-211,738	-200,000	0,011	0,113
-210,723	155,048	0,089	0,088
-209,709	-16,436	0,043	0,019
-208,694	-200,000	0,010	-0,105
-207,679	-200,000	0,002	-0,145
-206,665	-63,215	-0,051	-0,015
-205,650	251,184	0,082	0,101
-204,636	-128,954	-0,108	0,011
-203,621	800,000	0,026	0,061
-202,606	226,546	0,043	0,050
-201,592	55,180	-0,075	-0,053
-200,577	-200,000	-0,002	-0,091
-199,563	187,562	-0,009	-0,009
-198,548	-200,000	0,002	-0,060
-197,533	-200,000	-0,005	0,076
-196,519	800,000	-0,008	0,020
-195,504	160,799	0,034	0,034
-194,490	-200,000	-0,006	0,040
-193,475	-200,000	-0,018	0,098
-192,460	800,000	0,025	-0,071
-191,446	-79,452	-0,004	-0,001
-190,431	-200,000	0,006	0,035
-189,417	-200,000	-0,007	0,026
-188,402	800,000	0,036	-0,085
-187,387	800,000	0,038	0,100
-186,373	53,710	0,051	-0,035
-185,358	800,000	-0,041	0,094
-184,344	-200,000	-0,014	0,056
-183,329	-200,000	-0,007	0,074
-182,315	76,098	-0,070	0,053
-181,300	122,787	0,090	-0,081
-180,285	800,000	-0,020	0,046
-179,271	279,559	-0,101	-0,131
-178,256	151,170	-0,048	0,047
-177,242	0,860	0,026	-0,013
-176,227	352,897	-0,065	-0,094
-175,212	90,695	0,083	0,067
-174,198	-200,000	0,017	0,057
-173,183	8,020	0,026	-0,014
-172,169	800,000	0,059	-0,147
-171,154	-200,000	0,003	-0,110
-170,139	241,336	-0,051	0,061
-169,125	-200,000	-0,003	0,048
-168,110	-200,000	-0,029	0,159
-167,096	-57,187	-0,016	-0,005
-166,081	-200,000	0,022	0,200
-165,066	-104,352	-0,004	-0,001
-164,052	-28,709	-0,148	0,061
-163,037	800,000	-0,023	0,072
-162,023	31,514	0,167	0,104
-161,008	-135,823	-0,083	-0,007
-159,993	141,432	-0,104	0,100
-158,979	-200,000	0,010	-0,102
-157,964	-116,864	-0,181	-0,024
-156,950	409,327	-0,041	-0,062
-155,935	-200,000	0,015	0,073
-154,920	-90,442	0,156	-0,032
-153,906	125,635	-0,073	-0,066
-152,891	-34,025	0,158	0,062
-151,877	23,115	-0,094	-0,056
-150,862	-60,625	-0,065	-0,020
-149,847	-99,535	0,056	-0,010
-148,833	-93,776	-0,097	-0,019
-147,818	-200,000	-0,015	-0,080
-146,804	-39,346	0,087	-0,033
-145,789	-200,000	0,006	0,149
-144,775	-137,268	-0,060	-0,005
-143,760	274,284	0,003	0,004
-142,745	800,000	-0,035	-0,079
-141,731	26,822	-0,019	-0,012
-140,716	-1,158	-0,146	-0,074
-139,702	800,000	-0,058	0,153
-138,687	351,886	0,021	0,030
-137,672	141,959	0,123	0,118
-136,658	51,035	-0,031	-0,021
-135,643	-189,441	-0,094	-0,001
-134,629	68,882	0,055	-0,041
-133,614	644,333	-0,087	0,160
-132,599	479,857	-0,071	-0,116
-131,585	-35,087	0,080	-0,031
-130,570	497,449	-0,033	0,054
-129,556	287,279	0,007	0,009
-128,541	800,000	-0,050	-0,134
-127,526	800,000	0,012	0,030
-126,512	-200,000	0,006	-0,139
-125,497	-35,082	0,120	0,047
-124,483	-99,486	0,036	0,006
-123,468	548,894	-0,051	0,089
-122,453	800,000	0,013	-0,029
-121,439	395,735	-0,030	-0,045
-120,424	105,252	0,007	-0,006
-119,410	-10,283	0,048	-0,023
