DTS Sentinel unit serial number:	SN410029Multiplexer serial number:	ORYXHardware model number:	OX2-SRSoftware version number:	ORYX F/W v4,00 Oryx Data Collector v3.7.2.0data status	okinstallation	B5 Nyhavnadifferential loss correction	single-endedforward channel	channel 2reverse channel	N/Adate	2023/12/14time	04:32:13forward acquisition time	300,00reverse acquisition time	0,00gamma	499,1914k internal	0,3157k external	0,3157temperature offset calibration	1,0000default loss term (dB/km)	0,3820temperature slope calibration	1,0000multiplexer offset coefficient	1,0000multiplexer slope coefficient	1,0000fibre end	0,00T internal ref (°C)	7,86T ext. ref 1 (°C)	-8,60T ext. ref 2 (°C)	-8,67length (m)	temperature (°C)	Stokes	anti-Stokes-744,400	137,960	0,042	0,041
-743,385	-181,171	-0,451	0,006
-742,371	-24,243	0,196	0,086
-741,356	-138,749	-0,192	0,015
-740,342	-67,714	0,067	0,019
-739,327	42,377	-0,287	-0,192
-738,312	97,602	0,136	0,115
-737,298	-77,842	-0,595	-0,150
-736,283	-165,414	0,281	0,009
-735,269	-16,282	-0,461	-0,215
-734,254	-148,660	0,138	0,008
-733,239	-25,667	-0,495	-0,214
-732,225	-116,352	0,240	0,032
-731,210	-200,000	0,003	0,128
-730,196	-200,000	0,008	0,069
-729,181	31,404	-0,092	0,058
-728,167	-40,196	-0,035	0,013
-727,152	95,699	-0,047	0,039
-726,137	800,000	-0,082	-0,195
-725,123	-18,479	0,050	-0,023
-724,108	68,848	0,080	-0,060
-723,094	-200,000	-0,019	-0,068
-722,079	130,185	0,141	-0,133
-721,064	6,651	-0,109	0,060
-720,050	-102,708	0,057	0,010
-719,035	-156,790	0,101	0,005
-718,021	37,303	-0,017	-0,011
-717,006	800,000	-0,054	-0,163
-715,991	-74,803	-0,119	0,031
-714,977	-200,000	-0,018	-0,060
-713,962	126,455	-0,039	0,037
-712,948	-40,971	-0,092	-0,035
-711,933	13,669	-0,062	0,035
-710,918	138,338	-0,044	-0,043
-709,904	-70,336	0,021	-0,006
-708,889	-200,000	-0,053	-0,218
-707,875	-200,000	-0,005	-0,133
-706,860	800,000	-0,023	-0,052
-705,845	-200,000	-0,028	-0,158
-704,831	203,271	-0,015	0,017
-703,816	50,120	0,014	-0,010
-702,802	800,000	-0,049	-0,102
-701,787	-112,094	-0,050	0,007
-700,772	-167,717	0,058	-0,002
-699,758	160,341	0,076	-0,078
-698,743	196,790	-0,030	-0,034
-697,729	-147,479	0,045	-0,003
-696,714	201,095	0,057	-0,065
-695,699	-200,000	0,029	-0,136
-694,685	689,656	-0,024	-0,047
-693,670	-200,000	-0,033	-0,195
-692,656	-146,225	-0,015	0,001
-691,641	-67,954	0,108	0,031
-690,627	800,000	-0,048	-0,154
-689,612	-9,005	0,070	0,035
-688,597	148,752	0,065	-0,065
-687,583	597,400	-0,101	-0,186
-686,568	-200,000	-0,012	-0,067
-685,554	-200,000	0,002	0,067
-684,539	-123,518	-0,119	-0,014
-683,524	-200,000	0,007	0,057
-682,510	23,970	-0,083	-0,050
-681,495	5,612	-0,072	-0,039
-680,481	-200,000	-0,022	0,077
-679,466	12,384	-0,035	-0,020
-678,451	-200,000	0,010	0,085
-677,437	101,385	-0,050	-0,043
-676,422	11,639	-0,105	-0,059
-675,408	142,266	0,018	0,018
-674,393	-106,831	-0,057	-0,009
-673,378	-200,000	-0,023	-0,082
-672,364	2,450	0,141	-0,075
-671,349	181,288	-0,045	-0,048
-670,335	-187,355	-0,103	-0,001
-669,320	-180,476	0,045	0,001
-668,305	389,636	0,034	0,052
-667,291	19,161	-0,070	-0,041
-666,276	2,249	0,015	0,008
-665,262	-128,266	-0,077	-0,008
-664,247	38,431	-0,099	-0,065
-663,232	-149,790	0,116	-0,007
-662,218	119,755	0,057	-0,052
-661,203	486,614	-0,106	-0,178
-660,189	800,000	0,037	0,094
-659,174	-52,867	-0,139	-0,047
-658,159	-200,000	-0,040	-0,174
-657,145	169,792	0,010	-0,010
-656,130	64,918	0,050	-0,037
-655,116	-140,959	0,119	-0,009
-654,101	800,000	0,053	0,123
-653,086	-108,062	0,097	0,015
-652,072	93,140	-0,071	0,059
-651,057	234,644	-0,080	-0,097
-650,043	53,945	-0,148	-0,104
-649,028	-200,000	-0,004	-0,044
-648,014	800,000	-0,052	-0,146
-646,999	-166,936	0,103	0,003
-645,984	59,193	0,044	-0,032
-644,970	-9,057	0,111	-0,054
-643,955	800,000	-0,058	-0,156
-642,941	-125,093	-0,108	0,012
-641,926	800,000	0,033	-0,103
-640,911	800,000	0,017	-0,044
-639,897	76,305	0,106	-0,082
-638,882	-2,594	-0,064	-0,033
-637,868	-200,000	0,002	-0,072
-636,853	-200,000	-0,007	-0,140
-635,838	-200,000	0,013	-0,098
-634,824	-200,000	0,035	-0,161
-633,809	-200,000	-0,006	-0,082
-632,795	800,000	-0,034	-0,093
-631,780	-68,318	-0,109	0,031
-630,765	-161,170	-0,140	-0,005
-629,751	337,464	-0,050	-0,072
-628,736	-59,985	-0,167	-0,052
-627,722	-200,000	0,033	0,108
-626,707	-200,000	-0,002	-0,010
-625,692	392,907	-0,078	0,119
-624,678	473,362	0,075	0,124
-623,663	-200,000	-0,048	0,171
-622,649	800,000	-0,037	-0,095
-621,634	-200,000	-0,009	-0,028
-620,619	-182,805	-0,094	0,001
-619,605	-24,188	0,080	-0,035
-618,590	312,097	-0,095	-0,131
-617,576	-136,672	0,060	-0,005
-616,561	-80,184	-0,126	0,031
-615,546	100,263	-0,045	0,038
-614,532	800,000	-0,012	-0,038
-613,517	14,564	0,110	-0,063
-612,503	-68,051	-0,076	-0,021
-611,488	175,817	0,027	0,029
-610,474	-23,892	0,114	0,050
-609,459	-192,260	-0,076	0,001
-608,444	124,297	-0,054	0,049
-607,430	800,000	-0,006	-0,014
-606,415	99,383	-0,119	-0,101
-605,401	155,179	0,046	-0,046
-604,386	-200,000	-0,005	0,135
-603,371	394,348	0,038	0,058
-602,357	-7,087	-0,125	0,062
-601,342	56,878	-0,054	-0,038
-600,328	156,721	0,028	-0,028
-599,313	116,376	0,072	-0,065
-598,298	3,241	0,044	0,024
-597,284	-178,751	0,107	-0,002
-596,269	-144,253	-0,107	-0,007
-595,255	800,000	-0,034	-0,073
-594,240	-8,445	-0,068	-0,033
-593,225	96,738	0,025	-0,021
-592,211	-56,536	-0,086	-0,028
-591,196	-200,000	0,005	-0,034
-590,182	-103,317	0,178	0,030
-589,167	-200,000	0,004	0,084
-588,152	283,277	-0,045	0,060
-587,138	-141,022	-0,202	-0,015
-586,123	-200,000	-0,001	-0,125
-585,109	-141,563	0,060	-0,004
-584,094	-200,000	-0,001	-0,064
-583,079	800,000	0,016	-0,035
-582,065	84,527	-0,064	0,052
-581,050	800,000	-0,011	-0,029
-580,036	81,907	0,087	0,069
-579,021	140,458	-0,034	0,033
-578,006	-200,000	0,017	-0,142
-576,992	-35,391	-0,109	-0,043
-575,977	-100,268	0,092	-0,017
-574,963	-200,000	-0,018	0,078
-573,948	26,769	0,083	-0,051
-572,934	-200,000	0,006	0,041
-571,919	83,742	-0,139	-0,111
-570,904	800,000	-0,037	-0,096
-569,890	-200,000	-0,020	-0,108
-568,875	-184,470	-0,058	-0,001
-567,861	800,000	0,039	0,100
-566,846	746,857	0,009	0,018
-565,831	256,290	0,133	0,167
-564,817	129,736	-0,064	-0,060
-563,802	164,995	0,061	-0,063
-562,788	173,411	-0,027	-0,029
-561,773	-68,070	-0,048	0,014
-560,758	-200,000	0,006	-0,034
-559,744	72,967	0,069	0,053
-558,729	404,674	0,057	0,088
-557,715	99,582	-0,104	-0,088
-556,700	160,538	0,020	-0,020
-555,685	800,000	-0,055	-0,126
-554,671	-127,564	0,061	-0,006
-553,656	800,000	0,029	-0,062
-552,642	-99,653	0,028	0,005
-551,627	62,674	-0,028	-0,021
-550,612	198,398	-0,109	-0,122
-549,598	185,014	-0,096	-0,104
-548,583	767,340	0,038	-0,076
-547,569	-24,357	0,054	0,024
-546,554	-200,000	0,011	0,040
-545,539	373,287	-0,027	-0,041
-544,525	-200,000	0,001	0,039
-543,510	-41,476	0,061	0,023
-542,496	547,744	0,050	-0,088
-541,481	-136,641	-0,132	0,011
-540,466	754,045	-0,038	-0,075
-539,452	-200,000	0,009	0,046
-538,437	-200,000	0,014	0,174
-537,423	-85,765	-0,083	0,019
-536,408	-78,805	0,077	0,019
-535,393	-93,892	-0,104	-0,021
-534,379	19,563	-0,114	0,067
-533,364	-33,077	-0,101	-0,041
-532,350	-34,714	0,205	-0,081
-531,335	-200,000	0,096	0,000
-530,321	-57,317	-0,037	-0,012
-529,306	-30,340	-0,009	-0,004
-528,291	-94,920	-0,057	0,011
-527,277	209,164	-0,059	-0,067
-526,262	107,438	-0,054	-0,047
-525,248	-200,000	-0,014	-0,076
-524,233	-106,280	0,045	0,007
-523,218	-200,000	0,003	0,024
-522,204	800,000	-0,047	-0,108
-521,189	361,934	-0,046	-0,067
-520,175	-200,000	0,010	-0,053
-519,160	-182,977	-0,027	0,000
-518,145	800,000	-0,027	-0,077
-517,131	-42,277	0,181	-0,067
-516,116	284,845	0,017	-0,023
-515,102	191,784	0,076	-0,084
-514,087	-200,000	0,008	-0,142
-513,072	450,824	-0,079	-0,128
-512,058	-49,038	-0,151	-0,052
-511,043	-98,803	0,129	-0,024
-510,029	-109,591	0,044	0,007
-509,014	218,998	0,030	0,035
-507,999	-200,000	-0,006	0,081
-506,985	-30,481	0,090	-0,037
-505,970	3,272	-0,127	-0,067
-504,956	-200,000	0,005	-0,175
-503,941	94,364	0,085	0,070
-502,926	176,194	-0,075	-0,080
-501,912	56,795	0,197	0,140
-500,897	111,183	0,008	0,007
-499,883	-200,000	-0,005	-0,040
-498,868	29,304	0,045	-0,028
-497,853	-78,550	-0,122	-0,030
-496,839	800,000	0,073	0,160
-495,824	28,231	0,046	-0,028
-494,810	-200,000	0,012	-0,058
-493,795	165,700	0,072	0,075
-492,781	-200,000	-0,024	-0,136
-491,766	-52,350	-0,048	-0,016
-490,751	800,000	-0,088	-0,185
-489,737	81,530	-0,039	0,031
-488,722	194,081	0,052	0,058
-487,708	526,734	0,088	0,152
-486,693	-200,000	-0,003	0,053
-485,678	-105,740	0,126	-0,021
-484,664	373,361	-0,019	-0,028
-483,649	141,776	-0,093	-0,090
-482,635	161,059	0,096	-0,098
-481,620	800,000	0,026	0,071
-480,605	800,000	0,011	-0,030
-479,591	-200,000	-0,006	0,078
-478,576	-200,000	0,013	-0,086
-477,562	-200,000	0,018	-0,210
-476,547	-11,033	-0,182	-0,087
-475,532	339,557	-0,090	0,128
-474,518	149,179	0,064	0,063
-473,503	152,103	0,052	-0,052
-472,489	1,273	0,106	0,055
-471,474	-173,394	-0,146	-0,003
-470,459	-200,000	-0,024	-0,090
-469,445	-77,472	0,081	-0,020
-468,430	-200,000	0,019	0,083
-467,416	197,327	0,038	0,043
-466,401	800,000	-0,013	0,037
-465,386	-200,000	0,024	0,087
-464,372	-200,000	0,007	0,052
-463,357	53,129	-0,139	0,097
-462,343	11,037	0,168	-0,093
-461,328	-13,322	-0,052	-0,025
-460,313	122,329	0,048	-0,044
-459,299	61,573	0,145	0,105
-458,284	143,966	-0,064	-0,062
-457,270	800,000	-0,041	0,122
-456,255	-200,000	-0,014	0,098
-455,241	143,266	-0,162	-0,157
-454,226	187,904	0,005	-0,006
-453,211	100,560	0,061	0,052
-452,197	-126,414	-0,129	-0,014
-451,182	-200,000	0,006	0,106
-450,168	-200,000	0,008	0,108
-449,153	800,000	-0,042	-0,087
-448,138	59,876	0,024	0,017
-447,124	17,268	-0,045	-0,026
-446,109	-200,000	0,002	-0,013
-445,095	123,046	-0,048	-0,044
-444,080	237,058	-0,032	-0,039
-443,065	295,266	-0,045	0,060
-442,051	78,640	0,093	0,072
-441,036	147,550	-0,047	-0,046
-440,022	-185,793	-0,063	0,001
-439,007	-24,386	-0,096	0,042
-437,992	-35,306	0,114	0,045
-436,978	-200,000	-0,012	0,184
-435,963	101,172	0,076	0,064
-434,949	-73,869	0,091	-0,024
-433,934	-200,000	0,014	-0,084
-432,919	-8,218	-0,132	-0,064
-431,905	655,691	-0,072	-0,136
-430,890	-34,154	-0,038	0,015
-429,876	-200,000	0,041	0,138
-428,861	117,873	-0,062	-0,055
-427,846	-200,000	0,002	-0,056
-426,832	-15,095	-0,218	-0,101
-425,817	800,000	0,052	-0,123
-424,803	211,707	0,108	-0,124
-423,788	-19,750	-0,054	0,024
-422,773	275,297	0,041	0,054
-421,759	-119,645	0,212	-0,026
-420,744	-139,927	-0,130	-0,010
-419,730	69,551	0,093	0,070
-418,715	800,000	-0,048	-0,115
-417,701	-181,351	0,071	0,001
-416,686	62,337	-0,073	0,053
-415,671	301,491	0,059	0,079
-414,657	800,000	-0,019	0,055
-413,642	-200,000	0,015	0,105
-412,628	432,516	0,022	-0,035
-411,613	530,724	-0,024	0,042
-410,598	800,000	-0,058	-0,165
-409,584	800,000	0,018	-0,051
-408,569	-200,000	0,046	0,154
-407,555	800,000	-0,058	0,118
-406,540	392,444	0,073	0,111
-405,525	11,742	-0,129	0,072
-404,511	1,222	0,089	-0,046
-403,496	-177,892	-0,037	-0,001
-402,482	-200,000	0,035	-0,133
-401,467	694,131	0,059	0,114
-400,452	800,000	-0,048	0,108
-399,438	-200,000	0,009	0,111
-398,423	-200,000	0,025	-0,124
-397,409	-200,000	0,015	-0,087
-396,394	-121,933	-0,065	-0,008
-395,379	217,223	0,025	0,029
-394,365	-200,000	0,019	0,118
-393,350	-45,953	0,065	0,023
-392,336	43,933	0,024	0,016
-391,321	-140,985	0,088	-0,006
-390,306	80,015	-0,115	-0,090
-389,292	-166,604	0,116	-0,003
-388,277	773,382	0,053	0,106
-387,263	34,701	-0,114	0,072
-386,248	18,950	0,065	0,038
-385,233	370,072	-0,048	0,071
-384,219	-200,000	0,012	0,068
-383,204	-143,655	-0,046	0,003
-382,190	-46,683	0,068	0,024
-381,175	44,001	0,078	-0,052
-380,160	800,000	-0,021	0,052
-379,146	6,372	-0,083	-0,045
-378,131	-200,000	-0,005	0,045
-377,117	213,253	-0,047	-0,055
-376,102	-68,668	0,175	-0,049
-375,088	249,273	-0,036	0,045
-374,073	354,950	-0,015	-0,022
-373,058	135,821	-0,017	0,016
-372,044	-123,791	0,167	0,019
-371,029	-200,000	-0,014	0,073
-370,015	-36,316	0,108	0,042
-369,000	800,000	-0,040	-0,113
-367,985	550,343	0,047	-0,082
-366,971	-50,587	0,131	0,045
-365,956	-200,000	0,010	0,046
-364,942	345,864	0,042	-0,060
-363,927	-46,238	0,069	0,024
-362,912	800,000	-0,016	-0,047
-361,898	-156,884	-0,128	0,006
-360,883	-200,000	-0,003	-0,130
-359,869	-81,884	0,126	0,030
-358,854	135,818	-0,076	-0,072
-357,839	-91,897	-0,082	0,017
-356,825	-200,000	0,000	-0,056
-355,810	11,448	0,136	-0,075
-354,796	-20,624	0,045	-0,020
-353,781	-3,156	0,117	-0,059
-352,766	-200,000	0,009	0,088
-351,752	146,992	0,066	-0,065
-350,737	-200,000	0,019	-0,061
-349,723	-134,658	-0,044	-0,004
-348,708	800,000	0,033	-0,086
-347,693	310,849	-0,098	0,134
-346,679	105,200	-0,075	-0,065
-345,664	-5,594	-0,033	0,016
-344,650	429,825	-0,029	0,045
-343,635	800,000	0,044	0,131
-342,620	-200,000	0,053	0,220
-341,606	-200,000	-0,018	0,105
-340,591	800,000	-0,046	0,127
-339,577	-124,288	-0,190	0,021
-338,562	800,000	0,049	0,127
-337,548	-200,000	-0,012	0,091
-336,533	402,151	0,094	0,144
-335,518	-48,889	0,254	0,088
-334,504	544,300	-0,016	-0,029
-333,489	-200,000	0,019	-0,079
-332,475	-108,451	-0,170	-0,026
-331,460	110,313	0,068	-0,059
-330,445	-67,941	0,077	0,022
-329,431	800,000	-0,056	-0,125
-328,416	110,043	0,082	0,071
-327,402	-200,000	0,014	0,055
-326,387	-125,685	0,052	-0,006
-325,372	-200,000	-0,003	-0,106
-324,358	167,726	-0,074	-0,076
-323,343	800,000	-0,054	-0,113
-322,329	-200,000	-0,021	-0,096
-321,314	-57,266	0,086	0,027
-320,299	57,090	-0,036	0,025
-319,285	800,000	-0,014	0,037
-318,270	-89,524	0,030	-0,006
-317,256	51,090	-0,048	-0,033
-316,241	769,194	-0,068	0,134
-315,226	-200,000	0,043	0,155
-314,212	106,863	-0,063	0,054
-313,197	241,300	0,025	0,030
-312,183	297,333	0,078	0,104
-311,168	-200,000	0,019	0,088
-310,153	-160,703	-0,038	0,001
-309,139	-137,498	-0,113	0,009
-308,124	49,607	0,103	-0,070
-307,110	800,000	-0,036	0,105
-306,095	800,000	-0,013	0,031
-305,080	-200,000	-0,006	0,031
-304,066	-86,412	-0,108	0,024
-303,051	-46,581	-0,060	0,021
-302,037	-167,152	-0,067	-0,002
-301,022	-102,357	-0,074	-0,013
-300,008	30,904	0,082	0,051
-298,993	-116,979	0,109	-0,014
-297,978	643,830	-0,081	0,150
-296,964	-200,000	0,001	0,040
-295,949	184,167	0,054	0,058
-294,935	-200,000	-0,005	-0,097
-293,920	-182,010	-0,082	0,001
-292,905	-125,946	0,110	0,012
-291,891	800,000	-0,027	0,072
-290,876	350,381	0,043	0,062
-289,862	521,380	-0,069	-0,118
-288,847	-200,000	0,038	0,165
-287,832	253,696	0,042	0,052
-286,818	800,000	-0,039	0,119
-285,803	-126,887	-0,137	-0,014
-284,789	520,632	0,136	0,232
-283,774	-200,000	-0,058	0,209
-282,759	-91,408	0,030	-0,006
-281,745	385,422	-0,101	0,152
-280,730	-106,168	0,039	0,006
-279,716	800,000	0,022	0,055
-278,701	800,000	-0,053	0,166
-277,686	622,828	0,040	-0,072
-276,672	-200,000	0,004	0,117
-275,657	-39,195	0,096	0,036
-274,643	137,914	-0,038	0,036
-273,628	-63,866	-0,029	0,008
-272,613	-72,509	-0,047	-0,012
-271,599	-200,000	-0,006	0,080
-270,584	-7,417	0,041	-0,020
-269,570	43,954	0,097	-0,064
-268,555	-157,075	-0,128	-0,006
-267,540	800,000	-0,035	0,092
-266,526	376,464	-0,094	-0,139
-265,511	-200,000	-0,000	-0,021
-264,497	-47,702	0,090	-0,032
-263,482	102,534	-0,134	0,113
-262,467	116,540	0,053	0,047
-261,453	-200,000	0,006	-0,024
-260,438	-200,000	0,025	-0,098
-259,424	-31,577	-0,045	0,018
-258,409	-200,000	-0,019	-0,121
-257,395	37,736	0,102	0,065
-256,380	-130,195	-0,040	0,004
-255,365	-200,000	0,013	0,102
-254,351	800,000	0,017	-0,047
-253,336	-200,000	0,065	-0,208
-252,322	54,605	-0,118	-0,082
-251,307	574,618	-0,037	-0,065
-250,292	-200,000	0,004	-0,039
-249,278	-110,563	0,056	0,008
-248,263	-128,727	0,120	-0,012
-247,249	-58,887	-0,048	0,015
-246,234	800,000	-0,029	-0,071
-245,219	324,776	-0,018	0,025
-244,205	120,249	-0,110	-0,099
-243,190	800,000	0,016	-0,036
-242,176	-19,605	0,095	-0,042
-241,161	-10,219	-0,125	0,060
-240,146	789,922	0,057	-0,114
-239,132	142,216	0,050	-0,048
-238,117	109,206	-0,020	-0,017
-237,103	98,077	0,058	-0,048
-236,088	602,649	-0,012	0,022
-235,073	-101,718	0,144	0,025
-234,059	-200,000	-0,013	0,095
-233,044	436,099	0,097	0,153
-232,030	-200,000	0,011	-0,092
-231,015	29,245	-0,168	-0,103
-230,000	71,025	-0,087	0,065
-228,986	800,000	0,026	-0,057
-227,971	109,889	0,113	-0,098
-226,957	-64,552	0,096	-0,028
-225,942	-174,858	0,066	-0,001
-224,927	-200,000	0,010	0,100
-223,913	294,387	0,024	0,031
-222,898	279,869	0,043	-0,056
-221,884	-103,212	-0,167	-0,028
-220,869	-10,071	0,129	0,062
-219,855	209,798	-0,060	0,068
-218,840	800,000	-0,043	0,095
-217,825	-200,000	-0,017	0,085
-216,811	443,200	0,056	0,089
-215,796	-154,879	-0,117	0,005
-214,782	113,589	0,101	0,089
-213,767	800,000	-0,028	0,087
-212,752	-31,439	-0,072	0,029
-211,738	-200,000	-0,003	0,021
-210,723	-149,995	0,070	-0,004
-209,709	-49,905	0,040	0,013
-208,694	-84,964	-0,149	-0,033
-207,679	116,905	0,038	-0,034
-206,665	800,000	0,040	0,081
-205,650	-9,798	0,107	-0,051
-204,636	-200,000	0,000	-0,005
-203,621	307,416	0,034	-0,046
-202,606	680,886	-0,058	0,109
-201,592	176,095	-0,039	0,041
-200,577	-200,000	-0,005	-0,108
-199,563	-200,000	-0,009	0,161
-198,548	610,310	0,058	0,105
-197,533	-200,000	-0,030	0,100
-196,519	-94,309	-0,129	-0,025
-195,504	442,715	0,105	0,167
-194,490	-70,097	-0,200	-0,055
-193,475	-200,000	0,003	-0,012
-192,460	-200,000	-0,003	-0,166
-191,446	200,449	0,138	-0,153
-190,431	-141,830	0,136	-0,010
-189,417	30,534	-0,146	0,090
-188,402	47,734	-0,030	-0,020
-187,387	192,854	0,018	-0,019
-186,373	-200,000	0,016	-0,089
-185,358	350,039	-0,019	-0,028
-184,344	800,000	-0,027	0,059
-183,329	101,553	-0,086	-0,073
-182,315	-53,177	0,157	0,052
-181,300	800,000	-0,050	0,123
-180,285	87,511	-0,110	-0,088
-179,271	-85,495	0,109	-0,024
-178,256	-200,000	-0,000	-0,062
-177,242	-94,565	0,116	-0,022
-176,227	54,821	0,113	0,079
-175,212	-40,563	-0,090	-0,034
-174,198	-123,095	0,173	0,020
-173,183	25,603	-0,053	0,032
-172,169	709,625	0,026	0,050
-171,154	-200,000	0,005	-0,087
-170,139	226,470	-0,050	-0,058
-169,125	800,000	0,029	-0,082
-168,110	123,945	0,046	0,041
-167,096	-142,933	-0,123	-0,008
-166,081	800,000	-0,060	0,127
-165,066	800,000	0,023	-0,065
-164,052	288,147	-0,066	-0,087
-163,037	-24,074	0,203	-0,087
-162,023	-200,000	0,010	0,095
-161,008	69,375	-0,077	0,057
-159,993	188,723	0,065	0,070
-158,979	-34,521	0,095	0,037
-157,964	128,780	-0,042	0,039
-156,950	800,000	-0,019	-0,046
-155,935	-200,000	0,028	0,148
-154,920	161,328	0,084	0,085
-153,906	173,602	0,065	-0,067
-152,891	4,970	-0,058	-0,030
-151,877	111,342	-0,046	-0,040
-150,862	83,384	-0,130	-0,102
-149,847	-121,188	0,075	0,009
-148,833	62,953	-0,066	-0,048
-147,818	6,777	-0,038	0,021
-146,804	800,000	0,056	-0,156
-145,789	-112,801	0,030	-0,004
-144,775	136,846	0,038	-0,036
-143,760	261,589	-0,134	-0,167
-142,745	59,849	-0,054	-0,038
-141,731	-132,433	0,148	0,014
-140,716	-33,747	0,092	-0,036
-139,702	-200,000	-0,030	0,113
-138,687	164,349	0,048	-0,049
-137,672	-26,358	-0,121	-0,051
-136,658	208,381	0,030	-0,034
-135,643	610,061	0,035	0,063
-134,629	-200,000	-0,024	-0,099
-133,614	-166,828	0,116	0,003
-132,599	-64,018	0,065	-0,019
-131,585	-200,000	0,013	-0,050
-130,570	-155,213	-0,117	0,005
-129,556	-200,000	-0,057	-0,202
-128,541	18,303	0,025	-0,014
-127,526	89,322	0,104	0,083
-126,512	-92,753	-0,079	0,016
-125,497	15,214	0,152	-0,085
-124,483	-153,243	-0,160	-0,008
-123,468	707,149	0,019	-0,036
-122,453	-35,338	0,080	-0,031
-121,439	-132,391	-0,051	0,005
-120,424	127,764	0,134	0,122
