DTS Sentinel unit serial number:	SN410029Multiplexer serial number:	ORYXHardware model number:	OX2-SRSoftware version number:	ORYX F/W v4,00 Oryx Data Collector v3.7.2.0data status	okinstallation	B5 Nyhavnadifferential loss correction	single-endedforward channel	channel 2reverse channel	N/Adate	2023/12/13time	21:42:13forward acquisition time	300,00reverse acquisition time	0,00gamma	499,1914k internal	0,3155k external	0,3155temperature offset calibration	1,0000default loss term (dB/km)	0,3820temperature slope calibration	1,0000multiplexer offset coefficient	1,0000multiplexer slope coefficient	1,0000fibre end	0,00T internal ref (°C)	9,83T ext. ref 1 (°C)	-6,97T ext. ref 2 (°C)	-7,00length (m)	temperature (°C)	Stokes	anti-Stokes-744,400	365,522	0,021	0,031
-743,385	-125,850	-0,315	0,035
-742,371	-35,079	0,250	0,100
-741,356	-54,199	-0,306	-0,102
-740,342	97,649	0,085	0,072
-739,327	-149,180	-0,362	-0,021
-738,312	800,000	0,061	0,198
-737,298	-99,319	-0,289	-0,053
-736,283	-96,049	0,061	-0,012
-735,269	-114,882	-0,415	0,058
-734,254	49,989	0,160	0,111
-733,239	-21,599	-0,611	-0,273
-732,225	-63,614	0,324	0,098
-731,210	-31,615	0,070	0,029
-730,196	-102,951	0,083	0,014
-729,181	44,428	-0,131	-0,089
-728,167	18,986	-0,053	-0,031
-727,152	156,968	-0,157	0,160
-726,137	-200,000	0,001	0,155
-725,123	160,348	0,007	-0,008
-724,108	398,581	-0,022	-0,034
-723,094	445,724	-0,113	-0,184
-722,079	367,592	-0,061	0,091
-721,064	122,270	0,051	-0,047
-720,050	-77,278	-0,110	-0,028
-719,035	-118,607	0,157	-0,020
-718,021	576,700	0,059	-0,107
-717,006	-142,454	-0,132	-0,009
-715,991	-200,000	-0,009	-0,069
-714,977	800,000	-0,020	0,043
-713,962	744,856	-0,075	-0,149
-712,948	183,778	-0,066	0,072
-711,933	60,876	-0,063	0,046
-710,918	48,257	-0,026	-0,018
-709,904	56,619	-0,055	-0,040
-708,889	3,888	-0,068	0,037
-707,875	-200,000	-0,019	-0,155
-706,860	-200,000	0,016	-0,138
-705,845	105,957	0,073	0,064
-704,831	189,215	-0,104	-0,115
-703,816	165,148	-0,082	0,086
-702,802	-200,000	-0,016	-0,174
-701,787	-81,910	-0,100	0,024
-700,772	-73,729	0,150	-0,040
-699,758	-60,014	-0,079	0,025
-698,743	-137,032	0,016	0,001
-697,729	13,572	-0,016	-0,009
-696,714	5,409	0,050	0,027
-695,699	-3,809	-0,020	0,010
-694,685	-200,000	-0,001	-0,079
-693,670	-115,304	0,093	-0,013
-692,656	800,000	0,041	-0,133
-691,641	145,607	0,095	0,094
-690,627	-63,384	0,062	0,019
-689,612	-200,000	0,036	-0,151
-688,597	800,000	0,014	-0,040
-687,583	-74,068	-0,117	-0,031
-686,568	800,000	0,042	-0,105
-685,554	-200,000	0,025	-0,136
-684,539	-135,922	-0,162	0,014
-683,524	94,164	0,127	0,106
-682,510	232,816	-0,062	0,075
-681,495	173,604	-0,093	-0,099
-680,481	-200,000	0,000	0,011
-679,466	-7,709	-0,104	-0,052
-678,451	12,257	0,019	-0,011
-677,437	800,000	0,030	-0,069
-676,422	-200,000	-0,007	0,105
-675,408	137,423	-0,054	0,052
-674,393	75,843	-0,085	0,066
-673,378	-200,000	-0,009	-0,034
-672,364	681,372	0,057	-0,111
-671,349	100,556	-0,086	-0,073
-670,335	-89,408	0,128	-0,027
-669,320	-137,304	0,018	0,002
-668,305	800,000	-0,010	0,026
-667,291	800,000	-0,012	-0,030
-666,276	-44,604	0,077	-0,028
-665,262	-67,823	-0,076	0,022
-664,247	-6,484	0,061	-0,031
-663,232	179,163	-0,031	-0,034
-662,218	-61,302	0,087	-0,027
-661,203	-89,686	0,053	0,011
-660,189	169,330	0,079	0,083
-659,174	213,168	-0,105	-0,123
-658,159	-200,000	-0,005	-0,101
-657,145	-68,276	-0,152	-0,043
-656,130	-31,396	0,014	0,006
-655,116	594,649	0,036	-0,066
-654,101	222,568	0,093	-0,110
-653,086	313,539	0,055	-0,076
-652,072	2,708	0,075	0,040
-651,057	126,974	-0,089	-0,083
-650,043	800,000	0,008	0,027
-649,028	800,000	-0,027	0,071
-648,014	-129,669	-0,070	-0,007
-646,999	206,993	-0,068	0,078
-645,984	205,948	0,066	0,075
-644,970	384,697	-0,029	-0,044
-643,955	-82,524	-0,158	-0,037
-642,941	-28,065	-0,107	-0,045
-641,926	65,193	-0,056	-0,042
-640,911	-200,000	0,004	0,014
-639,897	-122,618	-0,096	0,011
-638,882	77,737	-0,069	0,054
-637,868	-44,231	-0,036	-0,013
-636,853	101,379	0,024	-0,020
-635,838	800,000	0,038	0,119
-634,824	800,000	-0,057	-0,133
-633,809	-200,000	-0,001	-0,070
-632,795	800,000	-0,047	0,129
-631,780	641,830	0,051	-0,095
-630,765	131,530	-0,015	0,014
-629,751	-166,203	-0,041	0,001
-628,736	-200,000	0,023	-0,173
-627,722	46,730	0,051	-0,035
-626,707	-102,338	0,142	0,025
-625,692	800,000	-0,032	0,068
-624,678	172,171	0,031	-0,033
-623,663	351,397	-0,035	-0,052
-622,649	-188,627	-0,122	-0,001
-621,634	-38,544	0,054	-0,021
-620,619	800,000	0,030	0,064
-619,605	-64,547	0,111	-0,033
-618,590	162,033	0,057	-0,058
-617,576	106,852	0,033	-0,029
-616,561	118,751	-0,042	-0,038
-615,546	98,674	0,037	0,032
-614,532	-200,000	-0,043	-0,178
-613,517	39,158	-0,053	-0,035
-612,503	115,287	0,019	0,017
-611,488	-200,000	-0,004	-0,021
-610,474	-81,165	0,065	0,016
-609,459	42,281	0,062	-0,041
-608,444	-67,984	-0,109	-0,031
-607,430	490,440	-0,027	-0,045
-606,415	19,848	-0,090	-0,053
-605,401	622,066	0,024	-0,045
-604,386	-151,062	0,121	-0,007
-603,371	-85,054	-0,069	-0,016
-602,357	324,994	-0,061	0,086
-601,342	800,000	0,064	0,174
-600,328	-186,663	-0,086	0,001
-599,313	564,849	0,018	-0,032
-598,298	-47,788	-0,075	-0,027
-597,284	40,626	0,131	0,087
-596,269	135,993	0,046	-0,044
-595,255	800,000	-0,051	-0,126
-594,240	800,000	0,016	0,036
-593,225	-65,620	-0,141	-0,041
-592,211	-200,000	-0,019	-0,087
-591,196	800,000	-0,048	0,103
-590,182	-111,120	0,102	0,015
-589,167	800,000	0,063	0,177
-588,152	153,876	0,116	-0,117
-587,138	800,000	0,046	-0,104
-586,123	58,747	-0,006	0,004
-585,109	67,216	0,075	-0,056
-584,094	-200,000	-0,005	-0,042
-583,079	-132,420	0,092	0,009
-582,065	-67,991	-0,069	-0,020
-581,050	238,081	0,072	0,088
-580,036	-200,000	-0,019	-0,072
-579,021	784,506	-0,054	-0,109
-578,006	-200,000	0,011	-0,098
-576,992	0,692	-0,055	0,029
-575,977	132,820	0,068	-0,064
-574,963	-93,150	0,101	-0,020
-573,948	629,029	-0,022	-0,040
-572,934	106,999	-0,063	0,055
-571,919	669,741	0,022	0,041
-570,904	-69,739	-0,048	-0,013
-569,890	-134,959	-0,063	-0,006
-568,875	-56,370	0,048	0,015
-567,861	-27,662	-0,060	-0,025
-566,846	-200,000	0,006	0,089
-565,831	40,894	0,061	-0,040
-564,817	556,022	0,035	-0,062
-563,802	-87,208	-0,079	0,017
-562,788	-200,000	-0,008	-0,099
-561,773	-200,000	0,054	0,181
-560,758	96,202	-0,117	0,098
-559,744	-200,000	0,027	0,115
-558,729	311,859	0,084	-0,115
-557,715	-39,654	0,083	0,032
-556,700	13,184	-0,158	-0,089
-555,685	272,319	0,059	0,077
-554,671	-150,135	-0,223	0,012
-553,656	62,559	0,099	-0,072
-552,642	9,867	0,114	-0,063
-551,627	-45,132	0,076	0,027
-550,612	63,291	-0,107	-0,079
-549,598	-68,804	0,027	-0,008
-548,583	288,825	-0,069	-0,092
-547,569	494,514	0,016	-0,027
-546,554	-2,018	0,128	0,066
-545,539	158,640	-0,072	0,073
-544,525	-200,000	-0,011	-0,057
-543,510	-111,382	-0,106	-0,016
-542,496	763,742	0,019	-0,038
-541,481	-24,094	-0,089	-0,039
-540,466	290,005	0,067	-0,089
-539,452	800,000	-0,025	-0,076
-538,437	177,925	0,080	-0,086
-537,423	-200,000	-0,009	0,103
-536,408	546,669	0,072	0,126
-535,393	207,314	0,020	-0,023
-534,379	-200,000	0,037	-0,209
-533,364	-21,461	0,025	0,011
-532,350	-200,000	0,009	0,066
-531,335	800,000	0,047	-0,097
-530,321	-200,000	0,012	0,074
-529,306	144,763	-0,098	-0,096
-528,291	-200,000	0,030	-0,176
-527,277	-200,000	0,005	-0,157
-526,262	800,000	-0,024	0,068
-525,248	-89,940	0,108	0,023
-524,233	-84,012	0,073	-0,017
-523,218	494,678	0,040	-0,067
-522,204	11,259	-0,125	-0,070
-521,189	-147,229	-0,111	0,007
-520,175	800,000	0,045	-0,139
-519,160	800,000	-0,035	0,073
-518,145	800,000	-0,013	0,039
-517,131	800,000	-0,046	-0,129
-516,116	-200,000	0,027	0,200
-515,102	800,000	-0,008	0,024
-514,087	800,000	-0,051	0,151
-513,072	-200,000	-0,010	0,086
-512,058	-200,000	-0,027	-0,101
-511,043	496,466	0,047	0,080
-510,029	-111,560	0,172	0,025
-509,014	-200,000	0,003	-0,015
-507,999	37,917	-0,079	0,051
-506,985	-200,000	0,009	-0,249
-505,970	209,474	0,071	-0,082
-504,956	-200,000	0,012	-0,237
-503,941	800,000	-0,032	0,073
-502,926	800,000	-0,034	0,070
-501,912	-200,000	-0,014	0,085
-500,897	-125,040	-0,058	-0,006
-499,883	77,539	-0,049	-0,038
-498,868	159,007	-0,101	-0,103
-497,853	-121,269	-0,152	-0,018
-496,839	-98,753	-0,088	-0,016
-495,824	333,009	0,096	0,136
-494,810	35,111	0,122	0,078
-493,795	-150,789	-0,124	0,007
-492,781	-200,000	-0,011	0,162
-491,766	-200,000	-0,023	-0,100
-490,751	264,584	0,122	-0,156
-489,737	52,020	-0,108	0,075
-488,722	41,315	0,014	0,010
-487,708	-9,653	0,139	-0,068
-486,693	-200,000	-0,003	-0,051
-485,678	-200,000	-0,009	-0,126
-484,664	35,994	-0,149	-0,096
-483,649	29,509	-0,076	-0,047
-482,635	-200,000	-0,001	0,013
-481,620	-200,000	-0,011	0,070
-480,605	456,805	0,064	0,105
-479,591	307,694	0,064	0,087
-478,576	-16,403	-0,139	0,064
-477,562	-104,450	0,081	0,014
-476,547	213,028	0,027	-0,031
-475,532	165,330	-0,093	0,096
-474,518	-103,170	-0,016	0,003
-473,503	236,984	0,038	0,046
-472,489	118,105	0,027	0,025
-471,474	-55,021	-0,112	-0,037
-470,459	-81,953	-0,050	0,012
-469,445	100,569	0,042	0,036
-468,430	129,444	0,091	-0,085
-467,416	212,854	-0,027	0,032
-466,401	318,611	0,041	-0,056
-465,386	0,197	-0,027	0,014
-464,372	529,715	-0,042	0,072
-463,357	-200,000	0,028	-0,150
-462,343	-81,411	0,111	0,026
-461,328	800,000	-0,045	0,097
-460,313	800,000	-0,051	-0,128
-459,299	463,635	0,031	0,050
-458,284	24,328	0,064	0,039
-457,270	-200,000	0,012	-0,054
-456,255	14,277	-0,145	-0,082
-455,241	-200,000	0,012	-0,162
-454,226	-144,765	-0,095	-0,006
-453,211	135,320	-0,063	-0,060
-452,197	-29,908	0,186	-0,077
-451,182	-92,036	0,051	-0,011
-450,168	800,000	-0,012	0,032
-449,153	-124,974	0,198	0,022
-448,138	800,000	-0,057	-0,151
-447,124	800,000	0,008	-0,020
-446,109	800,000	0,034	0,071
-445,095	590,298	0,059	0,107
-444,080	534,104	0,053	0,091
-443,065	74,225	-0,131	0,101
-442,051	-11,262	-0,064	0,031
-441,036	309,062	0,057	-0,078
-440,022	-200,000	-0,038	-0,161
-439,007	40,722	-0,088	-0,058
-437,992	-157,126	0,129	0,006
-436,978	-37,675	-0,102	-0,040
-435,963	531,177	0,061	0,106
-434,949	-62,323	0,136	0,041
-433,934	25,905	-0,124	-0,075
-432,919	800,000	0,011	-0,024
-431,905	-200,000	-0,023	0,089
-430,890	-177,372	0,108	-0,002
-429,876	800,000	0,051	0,154
-428,861	-200,000	0,020	-0,165
-427,846	62,989	-0,180	-0,131
-426,832	-200,000	-0,012	-0,097
-425,817	-111,768	-0,101	-0,015
-424,803	-91,448	-0,132	0,027
-423,788	161,991	0,068	0,069
-422,773	-200,000	-0,004	-0,039
-421,759	-43,520	0,107	0,039
-420,744	800,000	0,046	-0,101
-419,730	-76,064	-0,134	-0,034
-418,715	218,995	0,053	0,061
-417,701	475,900	0,066	0,110
-416,686	-200,000	0,035	0,117
-415,671	-200,000	0,001	-0,010
-414,657	-58,381	-0,112	-0,035
-413,642	800,000	0,013	-0,040
-412,628	58,960	-0,044	0,031
-411,613	38,574	-0,057	0,037
-410,598	-173,481	-0,088	-0,002
-409,584	-16,005	0,073	0,034
-408,569	-200,000	-0,023	0,125
-407,555	800,000	-0,019	0,060
-406,540	-200,000	-0,021	0,096
-405,525	800,000	-0,038	0,122
-404,511	800,000	0,014	0,034
-403,496	-144,396	0,070	0,005
-402,482	-34,929	-0,073	0,029
-401,467	-200,000	0,002	0,019
-400,452	-17,337	0,037	-0,017
-399,438	-200,000	0,004	0,083
-398,423	409,333	0,041	0,064
-397,409	-28,438	-0,021	-0,009
-396,394	-110,155	-0,083	0,012
-395,379	800,000	-0,033	-0,071
-394,365	-200,000	-0,022	0,136
-393,350	44,203	-0,031	-0,021
-392,336	145,179	0,050	-0,049
-391,321	-21,925	-0,053	-0,023
-390,306	-200,000	-0,017	-0,073
-389,292	-200,000	-0,038	-0,128
-388,277	406,077	-0,029	0,044
-387,263	764,771	0,039	-0,078
-386,248	-200,000	0,003	0,057
-385,233	173,527	-0,069	-0,073
-384,219	66,736	0,058	0,043
-383,204	305,115	-0,039	0,053
-382,190	-4,523	-0,093	-0,046
-381,175	127,706	0,058	-0,054
-380,160	363,196	0,042	0,061
-379,146	-200,000	-0,026	-0,106
-378,131	800,000	-0,020	-0,041
-377,117	30,356	-0,183	0,114
-376,102	800,000	0,042	-0,128
-375,088	751,529	-0,052	-0,102
-374,073	-200,000	-0,001	-0,158
-373,058	76,243	0,029	0,022
-372,044	-200,000	-0,030	0,116
-371,029	-91,266	0,045	-0,009
-370,015	231,398	0,108	-0,128
-369,000	-12,434	-0,035	-0,017
-367,985	-73,756	-0,078	0,021
-366,971	102,595	0,093	0,079
-365,956	190,242	0,038	-0,042
-364,942	-155,528	0,117	0,005
-363,927	-200,000	0,000	-0,016
-362,912	21,190	0,129	0,076
-361,898	800,000	-0,029	-0,089
-360,883	219,018	-0,031	-0,036
-359,869	-71,965	-0,089	0,024
-358,854	66,183	-0,030	0,022
-357,839	-200,000	0,022	0,106
-356,825	800,000	-0,039	0,082
-355,810	7,653	-0,077	0,042
-354,796	666,537	-0,053	-0,100
-353,781	-87,564	0,127	-0,028
-352,766	-200,000	0,003	0,045
-351,752	480,004	0,030	0,050
-350,737	495,547	0,026	0,044
-349,723	-21,713	-0,079	0,035
-348,708	598,805	-0,049	0,089
-347,693	383,059	0,028	0,042
-346,679	54,040	-0,070	-0,049
-345,664	-200,000	0,002	0,029
-344,650	-200,000	0,021	0,141
-343,635	-21,086	0,069	0,031
-342,620	-200,000	0,029	0,129
-341,606	-137,112	0,048	-0,004
-340,591	-22,978	0,100	-0,044
-339,577	-200,000	0,005	-0,114
-338,562	23,512	-0,090	-0,054
-337,548	290,059	0,099	-0,131
-336,533	-200,000	-0,008	-0,044
-335,518	-65,128	0,084	-0,024
-334,504	467,364	0,068	0,112
-333,489	-30,593	-0,038	-0,015
-332,475	800,000	-0,027	-0,055
-331,460	-200,000	-0,008	-0,070
-330,445	-37,218	0,057	0,022
-329,431	-171,584	-0,030	0,001
-328,416	-97,317	0,039	-0,007
-327,402	-200,000	0,002	-0,124
-326,387	-200,000	-0,005	-0,047
-325,372	188,965	0,086	0,093
-324,358	-121,835	0,016	0,002
-323,343	335,755	0,030	0,042
-322,329	121,675	0,043	-0,039
-321,314	800,000	-0,032	0,071
-320,299	-200,000	0,029	0,102
-319,285	-200,000	-0,026	0,132
-318,270	69,178	0,137	0,102
-317,256	18,294	-0,097	-0,056
-316,241	266,672	-0,075	-0,095
-315,226	-40,636	0,030	-0,011
-314,212	-26,860	-0,107	0,045
-313,197	-48,571	0,040	0,014
-312,183	-9,283	0,097	0,047
-311,168	-183,578	0,129	-0,002
-310,153	211,715	-0,073	0,084
-309,139	9,447	0,070	0,038
-308,124	-92,938	0,103	-0,021
-307,110	333,051	0,046	-0,065
-306,095	-53,960	-0,127	0,042
-305,080	-200,000	-0,024	0,102
-304,066	-200,000	0,016	-0,093
-303,051	4,472	-0,070	-0,037
-302,037	217,811	0,044	0,051
-301,022	184,470	-0,060	-0,065
-300,008	3,908	0,060	-0,032
-298,993	-125,102	-0,030	-0,003
-297,978	-200,000	0,004	-0,037
-296,964	15,391	-0,112	-0,064
-295,949	-200,000	-0,041	0,142
-294,935	112,402	-0,051	0,045
-293,920	241,409	-0,035	0,042
-292,905	186,992	0,036	0,039
-291,891	53,427	0,075	-0,052
-290,876	417,458	-0,032	0,049
-289,862	299,705	0,050	-0,067
-288,847	800,000	-0,031	-0,091
-287,832	-20,322	-0,050	0,022
-286,818	-94,543	-0,088	0,017
-285,803	-200,000	-0,012	0,120
-284,789	124,585	0,025	0,022
-283,774	800,000	0,043	0,086
-282,759	27,366	0,076	0,046
-281,745	-23,773	-0,153	-0,066
-280,730	-200,000	0,007	0,059
-279,716	76,040	-0,139	0,106
-278,701	55,029	-0,044	0,031
-277,686	-114,174	-0,067	0,009
-276,672	88,198	0,064	0,051
-275,657	-33,369	0,195	-0,078
-274,643	119,635	-0,061	0,055
-273,628	-200,000	0,006	-0,024
-272,613	-36,532	0,191	-0,074
-271,599	800,000	-0,013	0,028
-270,584	98,177	-0,021	0,018
-269,570	48,581	0,118	0,080
-268,555	-33,389	-0,041	-0,016
-267,540	-138,642	-0,059	-0,005
-266,526	-22,925	-0,085	-0,037
-265,511	96,792	0,013	-0,011
-264,497	-129,383	-0,110	0,011
-263,482	800,000	-0,013	-0,028
-262,467	-200,000	0,054	0,181
-261,453	344,909	-0,047	0,068
-260,438	120,799	0,017	-0,016
-259,424	-200,000	-0,014	-0,154
-258,409	-159,093	-0,128	0,005
-257,395	-200,000	-0,002	0,037
-256,380	800,000	-0,048	0,109
-255,365	-200,000	-0,001	0,076
-254,351	-200,000	0,043	0,254
-253,336	135,856	0,060	0,056
-252,322	-132,677	-0,071	0,007
-251,307	242,237	-0,052	-0,064
-250,292	-104,004	0,119	-0,020
-249,278	-200,000	-0,015	0,106
-248,263	-200,000	-0,016	0,118
-247,249	26,112	0,030	0,018
-246,234	384,568	-0,132	0,198
-245,219	-200,000	0,033	0,140
-244,205	134,028	0,069	0,065
-243,190	291,066	-0,032	-0,043
-242,176	-49,246	0,059	0,020
-241,161	55,044	0,057	-0,040
-240,146	-200,000	-0,018	-0,073
-239,132	546,241	-0,048	-0,084
-238,117	66,426	0,072	-0,053
-237,103	18,253	-0,058	-0,033
-236,088	-63,587	0,053	0,015
-235,073	117,989	0,067	0,060
-234,059	800,000	-0,041	0,101
-233,044	-178,094	0,161	-0,003
-232,030	-52,577	-0,061	0,020
-231,015	269,253	-0,049	-0,063
-230,000	-138,861	-0,112	-0,009
-228,986	-26,521	0,103	-0,043
-227,971	-59,509	-0,087	-0,027
-226,957	-147,153	-0,084	0,005
-225,942	-13,550	0,195	-0,091
-224,927	449,717	-0,027	0,044
-223,913	-200,000	-0,041	-0,143
-222,898	-200,000	-0,003	-0,094
-221,884	800,000	-0,036	-0,098
-220,869	66,593	0,074	-0,054
-219,855	-78,794	0,033	-0,008
-218,840	103,248	0,081	0,069
-217,825	-49,475	-0,078	0,027
-216,811	800,000	-0,038	0,086
-215,796	-200,000	0,020	-0,076
-214,782	550,821	0,042	-0,073
-213,767	-200,000	0,005	-0,024
-212,752	-53,073	-0,100	-0,033
-211,738	23,510	0,093	0,055
-210,723	-200,000	-0,004	-0,061
-209,709	517,353	-0,060	-0,102
-208,694	686,444	-0,020	0,037
-207,679	-200,000	-0,030	-0,166
-206,665	-136,918	0,045	0,004
-205,650	182,505	-0,104	0,111
-204,636	-200,000	0,007	-0,067
-203,621	167,817	-0,065	0,067
-202,606	396,455	0,063	0,095
-201,592	360,218	0,050	-0,073
-200,577	-200,000	-0,004	-0,029
-199,563	47,145	0,101	0,068
-198,548	391,992	0,023	-0,034
-197,533	800,000	-0,008	-0,019
-196,519	-21,287	-0,101	0,044
-195,504	-53,695	0,086	0,028
-194,490	-1,219	0,066	-0,033
-193,475	-52,987	-0,035	0,012
-192,460	526,890	0,005	0,008
-191,446	-22,020	-0,079	-0,035
-190,431	-200,000	0,021	0,112
-189,417	68,199	0,065	0,048
-188,402	800,000	0,038	0,079
-187,387	-2,628	-0,038	-0,019
-186,373	119,074	-0,121	-0,108
-185,358	42,661	0,090	-0,059
-184,344	-41,057	0,086	-0,032
-183,329	800,000	-0,066	-0,134
-182,315	-37,149	0,034	0,013
-181,300	-200,000	0,027	-0,089
-180,285	-200,000	0,001	0,037
-179,271	720,392	-0,040	-0,077
-178,256	193,394	0,025	-0,027
-177,242	-35,926	-0,087	0,034
-176,227	112,648	0,152	0,133
-175,212	460,731	0,057	0,092
-174,198	-114,696	0,021	-0,003
-173,183	586,634	0,077	0,138
-172,169	202,704	0,059	-0,066
-171,154	-154,387	-0,060	-0,003
-170,139	-89,913	-0,101	0,021
-169,125	-200,000	0,031	0,103
-168,110	-61,537	-0,082	0,025
-167,096	-54,689	0,172	0,056
-166,081	-200,000	-0,017	0,113
-165,066	-200,000	-0,030	-0,143
-164,052	89,738	0,056	0,045
-163,037	347,329	0,062	0,088
-162,023	144,547	0,058	0,056
-161,008	-200,000	0,015	0,114
-159,993	69,872	0,028	0,021
-158,979	-200,000	0,014	-0,071
-157,964	53,566	-0,075	0,052
-156,950	-200,000	-0,010	0,037
-155,935	60,900	0,103	0,074
-154,920	-129,676	0,160	-0,016
-153,906	-10,604	0,054	0,026
-152,891	-200,000	0,006	-0,039
-151,877	-140,054	0,055	0,004
-150,862	19,538	-0,136	0,079
-149,847	592,048	0,036	-0,065
-148,833	143,236	0,040	-0,039
-147,818	800,000	-0,043	0,126
-146,804	654,378	0,038	0,070
-145,789	39,577	-0,063	-0,041
-144,775	-139,764	-0,082	-0,006
-143,760	-156,644	-0,160	-0,007
-142,745	-200,000	-0,042	-0,150
-141,731	-130,710	-0,037	0,004
-140,716	800,000	-0,040	0,120
-139,702	58,059	0,138	0,097
-138,687	213,998	-0,053	0,061
-137,672	3,958	-0,053	0,028
-136,658	800,000	-0,051	-0,120
-135,643	20,860	-0,132	-0,077
-134,629	224,912	-0,048	-0,056
-133,614	-200,000	-0,018	0,164
-132,599	-136,042	0,140	0,012
-131,585	62,599	-0,119	-0,085
-130,570	-77,856	-0,055	0,014
-129,556	48,992	0,083	-0,056
-128,541	91,687	0,024	0,019
-127,526	800,000	-0,038	-0,079
-126,512	-78,398	-0,052	-0,013
-125,497	266,485	-0,047	0,059
-124,483	800,000	-0,030	0,085
-123,468	-200,000	-0,017	0,116
-122,453	-200,000	0,084	0,000
-121,439	-200,000	-0,018	0,101
-120,424	162,488	0,030	0,030
-119,410	-7,402	0,078	0,038
-118,395	-146,731	0,064	-0,004
