DTS Sentinel unit serial number:	SN410029Multiplexer serial number:	ORYXHardware model number:	OX2-SRSoftware version number:	ORYX F/W v4,00 Oryx Data Collector v3.7.2.0data status	okinstallation	B5 Nyhavnadifferential loss correction	single-endedforward channel	channel 2reverse channel	N/Adate	2023/12/12time	06:37:13forward acquisition time	300,00reverse acquisition time	0,00gamma	499,1914k internal	0,3157k external	0,3157temperature offset calibration	1,0000default loss term (dB/km)	0,3820temperature slope calibration	1,0000multiplexer offset coefficient	1,0000multiplexer slope coefficient	1,0000fibre end	0,00T internal ref (°C)	15,22T ext. ref 1 (°C)	-1,11T ext. ref 2 (°C)	-1,42length (m)	temperature (°C)	Stokes	anti-Stokes-744,400	-146,587	0,262	0,017
-743,385	-130,516	-0,386	-0,038
-742,371	-200,000	-0,004	0,108
-741,356	90,046	-0,196	-0,161
-740,342	679,088	0,023	0,045
-739,327	41,955	-0,351	0,235
-738,312	-126,975	0,114	0,012
-737,298	-117,129	-0,349	-0,046
-736,283	367,832	-0,038	-0,057
-735,269	-98,786	-0,427	0,079
-734,254	-64,161	0,119	-0,036
-733,239	-85,821	-0,492	-0,112
-732,225	-34,211	0,215	0,087
-731,210	15,987	-0,071	-0,041
-730,196	754,410	-0,048	-0,097
-729,181	-200,000	-0,015	-0,163
-728,167	432,882	-0,040	-0,064
-727,152	9,267	-0,083	-0,046
-726,137	-200,000	0,004	-0,132
-725,123	555,731	-0,067	-0,120
-724,108	597,538	-0,056	-0,103
-723,094	17,956	0,017	-0,010
-722,079	34,028	-0,081	-0,052
-721,064	-48,215	-0,054	0,019
-720,050	512,725	0,035	0,060
-719,035	45,659	-0,066	-0,045
-718,021	-200,000	-0,043	0,147
-717,006	283,974	-0,078	-0,103
-715,991	-150,158	-0,109	-0,006
-714,977	-17,523	-0,139	-0,064
-713,962	762,737	-0,042	0,084
-712,948	800,000	-0,066	0,197
-711,933	141,944	-0,069	0,067
-710,918	-58,873	-0,043	-0,014
-709,904	-35,057	-0,301	-0,120
-708,889	-40,161	-0,088	0,034
-707,875	-112,152	-0,090	0,013
-706,860	250,324	-0,066	0,082
-705,845	-86,233	0,065	0,015
-704,831	-200,000	0,001	-0,005
-703,816	-200,000	-0,001	-0,092
-702,802	261,111	0,023	0,029
-701,787	384,671	0,038	-0,059
-700,772	-200,000	0,002	-0,162
-699,758	32,692	0,106	-0,067
-698,743	234,712	0,086	-0,104
-697,729	212,200	0,079	0,092
-696,714	-200,000	-0,007	0,122
-695,699	800,000	-0,015	0,032
-694,685	800,000	-0,039	0,114
-693,670	-179,370	0,104	0,002
-692,656	-200,000	-0,006	-0,030
-691,641	-200,000	-0,002	0,014
-690,627	41,954	-0,068	-0,045
-689,612	-200,000	0,015	0,120
-688,597	-108,734	0,050	0,008
-687,583	-49,224	-0,174	-0,061
-686,568	-200,000	-0,004	-0,046
-685,554	-27,192	-0,099	-0,042
-684,539	20,861	0,073	-0,044
-683,524	-200,000	-0,006	0,088
-682,510	-71,057	0,066	0,018
-681,495	9,802	-0,114	0,064
-680,481	663,077	-0,050	0,095
-679,466	341,188	-0,051	-0,073
-678,451	-21,388	-0,101	-0,045
-677,437	-200,000	0,004	0,036
-676,422	-200,000	0,008	-0,035
-675,408	800,000	-0,050	-0,116
-674,393	-133,108	-0,062	0,006
-673,378	86,248	-0,075	-0,061
-672,364	37,775	-0,145	-0,094
-671,349	800,000	-0,007	-0,020
-670,335	369,644	-0,052	-0,077
-669,320	682,645	0,069	0,134
-668,305	-200,000	0,003	-0,063
-667,291	398,383	0,048	-0,074
-666,276	80,200	-0,005	0,004
-665,262	-152,206	-0,036	0,002
-664,247	800,000	0,021	-0,057
-663,232	800,000	-0,024	0,059
-662,218	315,387	-0,089	0,123
-661,203	-200,000	-0,009	0,039
-660,189	220,098	0,025	0,029
-659,174	61,836	0,021	-0,016
-658,159	211,452	-0,139	-0,160
-657,145	800,000	0,044	0,097
-656,130	-101,168	0,010	-0,002
-655,116	149,056	0,025	-0,024
-654,101	97,285	0,063	-0,053
-653,086	361,878	-0,038	-0,056
-652,072	-127,049	-0,052	-0,006
-651,057	800,000	-0,028	0,082
-650,043	23,887	-0,041	-0,025
-649,028	-111,227	0,041	-0,006
-648,014	800,000	-0,010	-0,028
-646,999	16,723	0,035	-0,020
-645,984	-200,000	0,027	0,136
-644,970	-63,063	-0,040	-0,012
-643,955	141,020	0,103	-0,100
-642,941	-200,000	0,004	-0,097
-641,926	133,048	0,038	-0,036
-640,911	83,242	-0,135	0,108
-639,897	-12,064	0,087	-0,042
-638,882	30,884	0,116	0,073
-637,868	-81,074	-0,025	0,006
-636,853	-136,140	-0,022	0,002
-635,838	800,000	-0,029	0,067
-634,824	800,000	-0,018	0,056
-633,809	800,000	0,007	-0,017
-632,795	70,450	0,075	0,057
-631,780	-200,000	-0,008	0,129
-630,765	-101,145	-0,012	0,002
-629,751	249,973	-0,064	0,079
-628,736	800,000	-0,029	-0,079
-627,722	221,578	0,054	-0,063
-626,707	800,000	-0,057	-0,167
-625,692	800,000	0,049	0,118
-624,678	149,481	0,005	-0,005
-623,663	-113,556	0,083	0,012
-622,649	199,804	-0,075	0,084
-621,634	800,000	-0,050	-0,114
-620,619	275,713	0,084	-0,110
-619,605	800,000	0,010	-0,030
-618,590	-200,000	0,000	0,077
-617,576	-69,774	0,058	-0,016
-616,561	235,136	0,039	0,047
-615,546	-200,000	-0,015	0,109
-614,532	201,892	0,014	-0,016
-613,517	47,764	0,085	-0,058
-612,503	800,000	-0,048	-0,113
-611,488	296,692	-0,060	0,081
-610,474	-200,000	0,015	0,121
-609,459	238,827	0,051	0,062
-608,444	-200,000	0,001	-0,170
-607,430	800,000	0,027	-0,079
-606,415	-200,000	0,010	-0,087
-605,401	151,657	-0,010	-0,010
-604,386	-61,063	-0,027	0,008
-603,371	262,722	-0,049	0,063
-602,357	-173,790	-0,138	0,003
-601,342	-140,403	-0,130	0,010
-600,328	38,192	-0,113	-0,073
-599,313	123,597	-0,050	0,046
-598,298	111,364	0,125	-0,110
-597,284	-86,752	-0,065	0,014
-596,269	800,000	0,049	0,102
-595,255	-200,000	-0,008	0,081
-594,240	-25,298	-0,049	0,021
-593,225	425,376	0,016	-0,025
-592,211	800,000	0,024	-0,064
-591,196	-200,000	-0,011	-0,075
-590,182	-178,913	0,135	0,002
-589,167	-93,592	0,113	-0,023
-588,152	267,409	0,065	-0,084
-587,138	-24,355	-0,045	-0,019
-586,123	-200,000	0,022	0,076
-585,109	68,285	0,131	-0,098
-584,094	-200,000	-0,013	-0,064
-583,079	-200,000	0,042	0,204
-582,065	737,408	0,068	-0,133
-581,050	-21,683	0,051	0,023
-580,036	61,845	-0,109	0,080
-579,021	-200,000	-0,023	0,085
-578,006	-200,000	-0,001	0,085
-576,992	-41,412	-0,084	-0,032
-575,977	800,000	0,017	0,053
-574,963	2,053	-0,138	0,073
-573,948	800,000	-0,037	0,090
-572,934	17,584	0,058	0,034
-571,919	332,693	-0,044	-0,063
-570,904	-60,516	-0,060	-0,018
-569,890	282,604	-0,076	-0,100
-568,875	182,892	0,067	-0,073
-567,861	-200,000	0,006	-0,026
-566,846	-200,000	-0,014	0,133
-565,831	-200,000	-0,017	0,191
-564,817	548,741	-0,016	-0,027
-563,802	-200,000	-0,012	-0,147
-562,788	-200,000	-0,014	-0,101
-561,773	-200,000	-0,010	0,039
-560,758	85,313	-0,012	0,010
-559,744	87,072	0,033	0,027
-558,729	-200,000	0,021	-0,112
-557,715	-65,599	0,012	0,003
-556,700	220,662	0,035	-0,041
-555,685	-200,000	0,024	0,087
-554,671	800,000	0,015	0,044
-553,656	161,006	0,045	-0,046
-552,642	-200,000	0,024	0,111
-551,627	800,000	0,023	-0,061
-550,612	728,396	0,045	0,089
-549,598	-200,000	-0,027	-0,181
-548,583	-200,000	0,006	-0,078
-547,569	96,622	-0,014	0,012
-546,554	-200,000	-0,002	0,009
-545,539	-143,576	0,073	0,005
-544,525	-58,007	-0,036	-0,011
-543,510	-8,458	-0,116	0,057
-542,496	800,000	-0,032	-0,072
-541,481	-200,000	0,027	-0,135
-540,466	800,000	0,016	0,039
-539,452	-40,829	-0,022	0,008
-538,437	73,224	-0,049	0,037
-537,423	760,850	0,072	0,144
-536,408	70,382	-0,040	0,030
-535,393	751,407	0,012	0,024
-534,379	-200,000	0,046	-0,206
-533,364	-150,711	-0,113	0,006
-532,350	-200,000	-0,009	0,119
-531,335	-200,000	0,002	0,082
-530,321	800,000	-0,058	0,168
-529,306	52,754	0,035	0,025
-528,291	-114,179	0,089	-0,012
-527,277	800,000	-0,117	-0,298
-526,262	205,226	0,086	-0,098
-525,248	-200,000	-0,022	-0,094
-524,233	-140,059	0,106	0,008
-523,218	-200,000	0,000	0,076
-522,204	178,965	-0,066	0,071
-521,189	69,273	0,119	-0,089
-520,175	800,000	-0,011	-0,037
-519,160	-200,000	0,017	0,055
-518,145	-79,794	-0,075	0,018
-517,131	70,937	0,046	0,035
-516,116	-6,571	0,088	0,044
-515,102	-140,248	0,068	0,005
-514,087	120,919	0,072	0,066
-513,072	94,296	0,068	-0,057
-512,058	-113,816	-0,056	-0,008
-511,043	-87,835	0,077	0,017
-510,029	800,000	0,046	0,106
-509,014	800,000	-0,038	0,119
-507,999	177,371	-0,071	0,076
-506,985	800,000	0,031	-0,069
-505,970	-200,000	-0,024	-0,146
-504,956	-22,830	-0,038	0,017
-503,941	800,000	-0,018	-0,050
-502,926	-200,000	0,003	0,072
-501,912	494,380	0,091	0,153
-500,897	800,000	0,029	0,079
-499,883	337,859	0,049	-0,070
-498,868	-10,529	-0,088	-0,042
-497,853	-200,000	0,028	-0,173
-496,839	161,267	0,065	0,067
-495,824	-200,000	0,000	-0,035
-494,810	-110,970	0,075	-0,011
-493,795	-47,502	0,105	0,037
-492,781	37,470	-0,009	0,006
-491,766	-60,323	-0,110	0,034
-490,751	-200,000	0,006	0,065
-489,737	-59,209	-0,076	0,024
-488,722	251,742	0,082	0,102
-487,708	-70,198	0,083	0,023
-486,693	-136,546	-0,071	0,006
-485,678	120,966	-0,065	0,059
-484,664	197,508	-0,071	0,079
-483,649	800,000	-0,022	-0,051
-482,635	-200,000	-0,002	0,039
-481,620	-14,758	0,056	0,026
-480,605	-22,835	0,094	-0,041
-479,591	96,680	0,105	0,088
-478,576	-77,062	-0,164	-0,042
-477,562	-88,475	-0,102	0,022
-476,547	-200,000	-0,042	-0,148
-475,532	-60,487	0,040	0,012
-474,518	-200,000	-0,001	0,118
-473,503	669,988	0,036	0,069
-472,489	-200,000	-0,010	-0,055
-471,474	-152,107	0,115	-0,006
-470,459	278,896	-0,100	-0,131
-469,445	-200,000	-0,029	-0,117
-468,430	800,000	-0,042	0,104
-467,416	369,429	0,053	0,078
-466,401	195,788	-0,056	-0,063
-465,386	37,680	0,114	0,074
-464,372	-200,000	-0,031	0,151
-463,357	422,159	-0,089	0,140
-462,343	-200,000	-0,011	-0,043
-461,328	107,988	-0,039	0,034
-460,313	-200,000	-0,004	0,034
-459,299	-122,309	0,070	0,008
-458,284	-200,000	0,024	-0,082
-457,270	-200,000	0,002	-0,008
-456,255	101,549	-0,079	0,068
-455,241	114,807	-0,115	-0,102
-454,226	-200,000	-0,022	-0,074
-453,211	-150,257	-0,040	-0,002
-452,197	-200,000	-0,032	0,105
-451,182	173,236	0,069	0,072
-450,168	800,000	0,053	0,147
-449,153	-12,348	-0,129	-0,061
-448,138	226,038	-0,113	-0,133
-447,124	800,000	0,021	0,065
-446,109	-116,482	0,066	-0,009
-445,095	316,260	0,025	0,035
-444,080	-47,267	-0,089	0,031
-443,065	-95,971	0,034	-0,007
-442,051	13,035	-0,082	0,046
-441,036	10,473	0,034	0,019
-440,022	368,562	-0,040	-0,059
-439,007	19,208	-0,142	0,083
-437,992	550,515	0,066	0,116
-436,978	-81,591	0,083	0,020
-435,963	800,000	-0,052	-0,110
-434,949	257,695	-0,043	-0,054
-433,934	800,000	0,025	-0,064
-432,919	96,899	-0,038	0,032
-431,905	-56,278	-0,010	0,003
-430,890	800,000	0,018	-0,043
-429,876	-200,000	-0,004	0,064
-428,861	-200,000	0,001	-0,050
-427,846	21,256	-0,009	-0,005
-426,832	800,000	0,059	-0,124
-425,817	-80,275	-0,085	0,020
-424,803	277,428	0,033	0,042
-423,788	89,806	0,072	-0,058
-422,773	32,807	-0,025	-0,016
-421,759	-200,000	-0,003	0,011
-420,744	-82,344	-0,067	-0,016
-419,730	800,000	-0,025	-0,055
-418,715	689,695	0,011	-0,021
-417,701	-200,000	-0,022	0,093
-416,686	293,589	0,044	0,058
-415,671	308,377	-0,008	-0,011
-414,657	323,025	0,033	-0,045
-413,642	488,999	0,085	0,142
-412,628	-155,357	0,099	0,005
-411,613	800,000	-0,054	-0,166
-410,598	-200,000	-0,005	-0,081
-409,584	-0,509	0,185	0,095
-408,569	-108,900	0,066	0,010
-407,555	800,000	-0,045	0,109
-406,540	-200,000	0,009	-0,047
-405,525	-200,000	-0,027	-0,105
-404,511	147,954	0,107	-0,105
-403,496	-200,000	0,002	-0,012
-402,482	447,603	-0,011	0,018
-401,467	-200,000	-0,013	-0,060
-400,452	164,824	-0,106	0,109
-399,438	-53,886	0,084	-0,028
-398,423	-140,754	-0,072	-0,005
-397,409	-96,308	-0,175	0,034
-396,394	-74,205	-0,080	-0,021
-395,379	36,740	-0,136	-0,087
-394,365	-121,459	0,050	0,006
-393,350	-85,614	0,133	-0,030
-392,336	-105,142	-0,073	-0,012
-391,321	-97,254	-0,036	-0,007
-390,306	-28,841	-0,191	0,079
-389,292	208,142	-0,037	-0,042
-388,277	276,706	0,048	0,062
-387,263	-39,191	0,154	0,059
-386,248	-129,035	0,089	-0,009
-385,233	379,636	0,072	0,107
-384,219	-20,589	0,045	-0,020
-383,204	-119,435	-0,075	0,009
-382,190	800,000	-0,044	-0,105
-381,175	-200,000	-0,019	-0,143
-380,160	-128,925	0,174	-0,018
-379,146	231,883	0,090	0,107
-378,131	-108,022	0,086	0,013
-377,117	-63,965	-0,071	-0,021
-376,102	-1,894	-0,076	-0,039
-375,088	447,843	-0,045	-0,073
-374,073	381,247	0,023	0,034
-373,058	-200,000	0,006	0,022
-372,044	73,458	0,039	0,030
-371,029	-21,505	-0,120	0,053
-370,015	800,000	-0,041	0,097
-369,000	800,000	-0,020	-0,057
-367,985	14,714	0,041	0,023
-366,971	379,477	0,028	0,041
-365,956	41,340	-0,099	0,065
-364,942	7,492	0,040	-0,021
-363,927	-66,551	0,034	-0,010
-362,912	157,229	-0,043	0,043
-361,898	142,249	0,058	-0,056
-360,883	-200,000	-0,000	0,001
-359,869	212,823	-0,043	0,049
-358,854	-200,000	-0,018	-0,077
-357,839	116,719	0,089	0,080
-356,825	-200,000	0,005	-0,085
-355,810	158,103	0,014	0,014
-354,796	-200,000	0,015	0,167
-353,781	-28,630	0,044	-0,018
-352,766	404,321	0,029	0,044
-351,752	-17,567	-0,022	0,010
-350,737	82,479	0,158	0,124
-349,723	-200,000	0,010	0,050
-348,708	122,038	-0,030	-0,027
-347,693	-122,604	0,085	0,010
-346,679	-41,763	-0,121	0,045
-345,664	800,000	0,042	-0,126
-344,650	47,226	0,118	0,080
-343,635	-49,310	0,077	0,027
-342,620	-27,093	0,088	0,037
-341,606	-200,000	-0,008	-0,127
-340,591	25,933	-0,074	0,045
-339,577	594,363	-0,011	0,020
-338,562	428,903	0,028	-0,044
-337,548	-33,188	0,038	-0,015
-336,533	-82,402	0,155	0,036
-335,518	98,989	-0,075	-0,062
-334,504	-200,000	0,072	0,000
-333,489	11,854	-0,048	0,027
-332,475	701,580	-0,035	-0,068
-331,460	186,031	-0,070	-0,076
-330,445	-200,000	-0,004	-0,117
-329,431	1,103	-0,010	-0,005
-328,416	50,655	0,103	-0,071
-327,402	28,809	-0,087	0,053
-326,387	-26,063	0,043	-0,018
-325,372	103,216	-0,110	-0,093
-324,358	-78,072	0,052	0,013
-323,343	423,736	-0,063	-0,099
-322,329	99,239	0,050	0,042
-321,314	-42,580	-0,055	-0,020
-320,299	106,465	0,039	-0,033
-319,285	99,166	0,074	-0,062
-318,270	7,613	-0,117	-0,063
-317,256	800,000	0,063	-0,200
-316,241	13,044	-0,072	-0,040
-315,226	-200,000	-0,000	-0,014
-314,212	-32,961	-0,109	0,044
-313,197	-80,324	0,148	0,036
-312,183	376,969	-0,039	0,058
-311,168	595,579	0,031	-0,057
-310,153	-65,199	-0,074	0,021
-309,139	128,493	-0,088	-0,081
-308,124	-200,000	-0,002	0,063
-307,110	77,216	-0,061	0,047
-306,095	33,383	-0,074	-0,047
-305,080	-200,000	-0,001	0,042
-304,066	275,239	0,056	-0,072
-303,051	329,430	0,064	-0,089
-302,037	800,000	-0,016	0,049
-301,022	-106,595	0,111	-0,018
-300,008	420,959	-0,032	-0,050
-298,993	-200,000	0,008	0,114
-297,978	-105,559	-0,063	0,010
-296,964	-25,803	0,072	0,031
-295,949	195,221	-0,047	0,052
-294,935	800,000	-0,053	-0,116
-293,920	-94,347	0,117	-0,023
-292,905	-200,000	-0,015	0,078
-291,891	43,191	0,092	-0,061
-290,876	-0,557	0,089	-0,046
-289,862	-87,385	-0,075	0,016
-288,847	-136,401	-0,214	-0,018
-287,832	-81,933	-0,180	-0,042
-286,818	-200,000	0,005	-0,126
-285,803	-71,029	0,093	0,025
-284,789	-48,146	0,120	0,042
-283,774	-75,258	-0,115	-0,029
-282,759	-200,000	0,052	-0,186
-281,745	-148,362	0,038	-0,002
-280,730	-96,653	0,031	0,006
-279,716	-139,698	-0,074	0,006
-278,701	-67,371	0,068	-0,019
-277,686	-188,571	0,126	0,001
-276,672	116,255	0,072	-0,064
-275,657	472,329	-0,056	0,092
-274,643	-25,937	0,007	0,003
-273,628	223,015	-0,043	-0,050
-272,613	62,488	-0,125	-0,090
-271,599	-200,000	0,045	0,177
-270,584	300,169	0,042	-0,056
-269,570	800,000	0,058	-0,182
-268,555	52,226	-0,108	-0,075
-267,540	-200,000	0,002	-0,042
-266,526	0,238	0,075	-0,039
-265,511	-200,000	0,034	-0,123
-264,497	-85,508	-0,118	0,026
-263,482	-38,919	0,044	0,017
-262,467	800,000	-0,061	0,144
-261,453	800,000	-0,012	-0,033
-260,438	-181,655	0,083	0,001
-259,424	22,935	-0,171	0,101
-258,409	-200,000	-0,012	-0,046
-257,395	134,405	0,078	-0,073
-256,380	-99,917	0,111	-0,020
-255,365	-113,865	0,064	-0,009
-254,351	-101,555	-0,143	-0,025
-253,336	218,854	0,063	0,073
-252,322	-200,000	0,003	-0,064
-251,307	-200,000	0,008	0,098
-250,292	-200,000	0,008	0,039
-249,278	-122,636	-0,061	0,007
-248,263	-200,000	0,014	0,099
-247,249	-25,175	-0,153	-0,065
-246,234	800,000	-0,023	-0,054
-245,219	174,778	0,044	0,046
-244,205	-200,000	-0,004	0,105
-243,190	-200,000	-0,011	-0,047
-242,176	427,450	-0,052	0,081
-241,161	52,582	-0,053	0,037
-240,146	-14,391	-0,084	0,039
-239,132	42,087	0,068	-0,044
-238,117	800,000	0,037	0,088
-237,103	-45,998	-0,128	-0,045
-236,088	114,943	0,131	-0,115
-235,073	36,702	0,083	-0,053
-234,059	800,000	0,020	-0,053
-233,044	-200,000	-0,017	0,055
-232,030	-200,000	-0,008	-0,184
-231,015	800,000	-0,044	-0,134
-230,000	53,405	-0,174	0,120
-228,986	-86,245	0,133	-0,029
-227,971	-200,000	0,004	-0,014
-226,957	-19,817	0,090	-0,040
-225,942	58,966	0,113	0,081
-224,927	297,714	0,098	0,130
-223,913	294,124	-0,077	-0,101
-222,898	436,336	-0,088	-0,139
-221,884	-35,911	-0,068	-0,026
-220,869	-83,871	0,078	-0,018
-219,855	800,000	-0,038	-0,095
-218,840	800,000	-0,043	0,125
-217,825	800,000	-0,083	0,182
-216,811	607,097	-0,035	-0,063
-215,796	800,000	0,025	-0,073
-214,782	6,891	-0,035	-0,019
-213,767	-34,777	-0,097	-0,038
-212,752	-136,885	0,054	0,004
-211,738	295,793	-0,047	-0,062
-210,723	-82,588	0,109	-0,025
-209,709	-200,000	-0,014	0,068
-208,694	-200,000	0,060	-0,192
-207,679	167,458	-0,101	-0,103
-206,665	304,341	0,072	0,097
-205,650	-200,000	-0,004	-0,028
-204,636	-47,591	0,152	-0,053
-203,621	-200,000	-0,009	0,135
-202,606	34,950	-0,097	-0,061
-201,592	-200,000	0,014	-0,078
-200,577	114,152	-0,112	-0,098
-199,563	-115,381	-0,086	0,012
-198,548	61,241	0,108	0,077
-197,533	198,620	0,098	0,108
-196,519	-200,000	-0,007	0,045
-195,504	-25,325	-0,080	0,034
-194,490	542,278	0,038	0,065
-193,475	354,098	0,028	0,040
-192,460	-200,000	-0,003	0,019
-191,446	458,348	0,035	0,056
-190,431	233,064	0,054	0,064
-189,417	-121,101	0,082	0,010
-188,402	558,124	-0,032	0,055
-187,387	78,441	0,139	-0,107
-186,373	-200,000	0,033	0,156
-185,358	-96,166	-0,078	0,015
-184,344	800,000	-0,013	0,028
-183,329	70,978	0,052	0,039
-182,315	308,202	-0,057	0,077
-181,300	-118,917	-0,065	0,008
-180,285	-64,944	-0,089	-0,026
-179,271	85,847	-0,127	-0,101
-178,256	147,768	0,055	0,053
-177,242	403,952	-0,089	0,135
-176,227	1,717	0,047	-0,024
-175,212	103,386	-0,073	-0,062
-174,198	25,150	0,065	-0,039
-173,183	-93,215	-0,002	-0,000
-172,169	-200,000	-0,025	-0,092
-171,154	16,471	0,078	0,044
-170,139	292,290	0,089	0,118
-169,125	695,125	-0,075	-0,142
-168,110	390,455	0,092	0,138
-167,096	-132,404	-0,088	0,008
-166,081	-53,346	-0,054	0,018
-165,066	-10,032	0,109	-0,052
-164,052	520,809	0,032	-0,055
-163,037	-105,171	-0,140	-0,023
-162,023	146,626	0,065	0,063
-161,008	-200,000	0,015	0,065
-159,993	-155,914	-0,055	-0,002
-158,979	-135,358	-0,050	-0,004
-157,964	63,976	-0,124	-0,090
-156,950	-200,000	0,005	0,029
-155,935	103,504	0,022	-0,018
-154,920	83,979	-0,056	0,044
-153,906	-200,000	-0,015	0,177
-152,891	-200,000	-0,012	0,094
-151,877	-200,000	-0,014	0,055
-150,862	-200,000	0,005	-0,142
-149,847	-177,538	0,143	-0,002
-148,833	800,000	-0,010	-0,023
-147,818	450,536	-0,034	0,054
-146,804	800,000	0,011	0,033
-145,789	-122,687	-0,105	-0,012
-144,775	-200,000	-0,004	0,024
-143,760	-80,968	-0,139	0,033
-142,745	-37,988	-0,065	-0,025
-141,731	39,885	-0,136	0,088
-140,716	312,025	-0,061	0,083
-139,702	59,727	-0,052	-0,037
-138,687	-200,000	0,001	0,160
-137,672	124,882	-0,006	-0,005
-136,658	-65,522	0,234	-0,067
-135,643	-115,811	-0,076	0,010
-134,629	-38,516	0,074	-0,028
-133,614	70,702	0,111	0,082
-132,599	-200,000	-0,024	-0,080
-131,585	800,000	-0,009	-0,019
-130,570	-94,530	-0,117	0,023
-129,556	12,149	-0,109	0,060
-128,541	-200,000	0,008	-0,144
-127,526	-54,927	-0,139	0,045
-126,512	-200,000	-0,033	-0,124
-125,497	98,871	0,031	0,026
-124,483	-200,000	0,010	0,142
-123,468	800,000	0,052	-0,128
-122,453	800,000	0,043	-0,111
-121,439	-29,323	-0,028	0,011
-120,424	-41,388	-0,089	-0,033
-119,410	-200,000	0,161	0,000
