DTS Sentinel unit serial number:	SN410029Multiplexer serial number:	ORYXHardware model number:	OX2-SRSoftware version number:	ORYX F/W v4,00 Oryx Data Collector v3.7.2.0data status	okinstallation	B5 Nyhavnadifferential loss correction	single-endedforward channel	channel 2reverse channel	N/Adate	2023/12/14time	00:07:14forward acquisition time	300,00reverse acquisition time	0,00gamma	499,1914k internal	0,3155k external	0,3155temperature offset calibration	1,0000default loss term (dB/km)	0,3820temperature slope calibration	1,0000multiplexer offset coefficient	1,0000multiplexer slope coefficient	1,0000fibre end	0,00T internal ref (°C)	8,71T ext. ref 1 (°C)	-7,50T ext. ref 2 (°C)	-7,51length (m)	temperature (°C)	Stokes	anti-Stokes-744,400	-161,545	0,108	0,004
-743,385	-47,274	-0,288	-0,103
-742,371	166,600	0,209	0,219
-741,356	-165,004	-0,223	-0,007
-740,342	262,010	0,061	0,079
-739,327	-105,341	-0,411	-0,068
-738,312	66,485	0,036	-0,027
-737,298	43,332	-0,286	-0,192
-736,283	-177,710	0,205	0,004
-735,269	-200,000	-0,414	0,000
-734,254	-106,145	0,178	0,029
-733,239	-7,167	-0,556	-0,277
-732,225	26,042	0,134	0,082
-731,210	339,213	-0,025	0,036
-730,196	-200,000	-0,002	-0,068
-729,181	16,293	0,123	-0,071
-728,167	419,831	-0,004	0,006
-727,152	-76,176	-0,100	-0,026
-726,137	800,000	0,005	-0,010
-725,123	119,811	-0,167	-0,153
-724,108	-200,000	0,000	-0,248
-723,094	-139,385	-0,247	-0,019
-722,079	609,723	0,046	0,086
-721,064	-71,307	-0,072	0,020
-720,050	-114,731	0,127	-0,018
-719,035	-200,000	0,009	-0,037
-718,021	-108,772	-0,115	-0,018
-717,006	-122,036	-0,056	-0,007
-715,991	-200,000	0,007	-0,106
-714,977	-128,583	0,012	0,001
-713,962	-157,930	0,015	-0,001
-712,948	-48,389	-0,033	-0,012
-711,933	-111,763	-0,087	0,013
-710,918	800,000	0,034	-0,071
-709,904	66,399	-0,069	0,052
-708,889	-200,000	0,016	0,083
-707,875	79,777	-0,102	0,080
-706,860	295,547	-0,033	-0,045
-705,845	-200,000	0,034	0,119
-704,831	800,000	-0,046	-0,121
-703,816	-200,000	-0,008	-0,066
-702,802	-74,085	-0,127	0,034
-701,787	264,803	-0,086	-0,111
-700,772	800,000	0,084	-0,199
-699,758	800,000	-0,059	0,161
-698,743	800,000	0,027	0,056
-697,729	-153,891	-0,053	0,003
-696,714	-200,000	0,035	0,200
-695,699	-111,155	-0,140	-0,021
-694,685	61,131	-0,039	-0,029
-693,670	447,383	-0,022	-0,036
-692,656	21,438	0,034	0,020
-691,641	800,000	-0,067	0,173
-690,627	331,232	0,037	0,053
-689,612	47,537	-0,050	-0,034
-688,597	800,000	0,041	-0,104
-687,583	-71,404	-0,252	-0,069
-686,568	-200,000	0,014	-0,056
-685,554	-200,000	0,033	-0,236
-684,539	353,642	0,022	-0,032
-683,524	405,741	-0,119	0,186
-682,510	-68,441	-0,074	0,021
-681,495	-72,460	-0,050	0,014
-680,481	-48,794	-0,064	-0,023
-679,466	-200,000	-0,013	-0,128
-678,451	14,831	0,079	0,045
-677,437	-200,000	-0,029	-0,105
-676,422	198,679	0,060	0,067
-675,408	-65,708	-0,108	-0,032
-674,393	-70,721	0,018	-0,005
-673,378	-111,192	-0,183	0,027
-672,364	337,473	-0,129	-0,185
-671,349	-200,000	0,009	0,049
-670,335	-200,000	0,047	-0,159
-669,320	546,914	-0,049	-0,087
-668,305	295,878	0,085	0,115
-667,291	-200,000	-0,021	-0,165
-666,276	274,193	-0,137	-0,179
-665,262	-182,854	-0,043	0,001
-664,247	-200,000	0,008	0,038
-663,232	-5,211	-0,186	0,094
-662,218	140,772	0,145	0,141
-661,203	-88,204	-0,077	0,017
-660,189	-13,686	0,091	0,043
-659,174	800,000	-0,024	0,051
-658,159	-56,318	-0,055	-0,018
-657,145	8,066	0,086	-0,047
-656,130	-200,000	0,012	-0,120
-655,116	800,000	0,074	-0,213
-654,101	800,000	0,027	-0,080
-653,086	800,000	-0,037	-0,116
-652,072	-6,575	-0,088	0,044
-651,057	19,831	-0,095	-0,056
-650,043	-200,000	0,010	-0,053
-649,028	-200,000	0,006	0,075
-648,014	141,965	-0,131	-0,127
-646,999	800,000	-0,048	0,104
-645,984	-79,760	0,022	0,005
-644,970	-200,000	0,010	-0,137
-643,955	792,797	-0,042	-0,086
-642,941	281,607	-0,098	-0,130
-641,926	-200,000	-0,055	0,181
-640,911	800,000	0,014	-0,037
-639,897	-200,000	-0,003	0,076
-638,882	-107,240	0,044	0,007
-637,868	-82,456	-0,068	-0,016
-636,853	-70,651	-0,106	0,029
-635,838	144,226	0,063	0,062
-634,824	800,000	-0,014	0,030
-633,809	-200,000	-0,022	0,179
-632,795	339,670	-0,027	-0,039
-631,780	-56,459	0,089	0,029
-630,765	491,168	-0,024	0,041
-629,751	-154,945	-0,044	-0,002
-628,736	-200,000	0,016	-0,063
-627,722	800,000	0,044	-0,132
-626,707	-72,126	0,083	0,022
-625,692	672,514	-0,027	-0,051
-624,678	-143,053	0,122	-0,009
-623,663	56,697	-0,093	-0,067
-622,649	-67,237	0,037	0,011
-621,634	-200,000	-0,000	0,017
-620,619	283,323	0,139	-0,184
-619,605	800,000	-0,048	-0,114
-618,590	708,613	-0,010	-0,019
-617,576	277,066	0,068	0,089
-616,561	-60,121	-0,075	0,023
-615,546	364,686	0,038	0,057
-614,532	151,874	-0,108	-0,108
-613,517	82,234	-0,137	-0,109
-612,503	316,348	-0,022	-0,030
-611,488	318,807	0,072	0,101
-610,474	518,227	-0,098	0,169
-609,459	550,105	0,020	0,036
-608,444	699,961	-0,070	-0,136
-607,430	-200,000	-0,004	-0,069
-606,415	562,078	0,018	-0,032
-605,401	-200,000	-0,011	0,079
-604,386	-73,041	0,132	-0,035
-603,371	135,282	-0,135	0,129
-602,357	-144,396	-0,066	0,004
-601,342	-14,152	-0,020	-0,009
-600,328	244,399	-0,049	0,061
-599,313	769,748	0,020	-0,041
-598,298	-57,754	-0,040	0,013
-597,284	-200,000	-0,013	0,077
-596,269	-200,000	0,011	0,061
-595,255	800,000	0,064	-0,146
-594,240	-143,837	-0,125	0,009
-593,225	12,960	-0,020	-0,011
-592,211	11,359	0,052	-0,029
-591,196	-200,000	0,016	-0,060
-590,182	-200,000	-0,017	0,065
-589,167	-200,000	0,001	0,128
-588,152	-147,672	0,095	0,006
-587,138	216,283	0,050	-0,059
-586,123	-78,947	-0,174	0,043
-585,109	800,000	-0,015	0,045
-584,094	-34,791	-0,083	0,033
-583,079	-69,083	0,054	-0,015
-582,065	-129,069	0,131	0,013
-581,050	-200,000	-0,007	0,135
-580,036	-200,000	0,024	-0,106
-579,021	-200,000	-0,013	-0,150
-578,006	-200,000	0,010	0,050
-576,992	800,000	-0,084	-0,190
-575,977	169,032	0,056	0,059
-574,963	-71,326	-0,141	0,038
-573,948	-200,000	0,032	0,121
-572,934	-200,000	-0,013	0,046
-571,919	172,595	0,060	-0,063
-570,904	800,000	-0,021	-0,053
-569,890	-105,997	0,074	-0,012
-568,875	-200,000	0,012	0,123
-567,861	-200,000	-0,032	0,172
-566,846	375,143	0,050	0,076
-565,831	800,000	0,022	-0,053
-564,817	45,565	-0,194	-0,131
-563,802	-200,000	-0,012	-0,098
-562,788	80,320	-0,044	0,035
-561,773	-200,000	-0,002	0,055
-560,758	18,825	0,106	0,062
-559,744	-200,000	0,018	0,127
-558,729	4,739	-0,026	-0,014
-557,715	-200,000	-0,016	-0,055
-556,700	-200,000	-0,004	0,031
-555,685	-200,000	0,005	-0,067
-554,671	355,456	0,063	-0,092
-553,656	-90,252	-0,116	0,025
-552,642	11,835	-0,033	-0,019
-551,627	-79,908	-0,040	0,010
-550,612	800,000	0,043	-0,088
-549,598	126,080	0,069	-0,064
-548,583	800,000	-0,029	0,088
-547,569	800,000	-0,026	-0,072
-546,554	-128,192	-0,077	0,008
-545,539	-148,282	0,043	-0,003
-544,525	-200,000	-0,014	0,062
-543,510	70,571	0,119	0,090
-542,496	-200,000	0,018	0,100
-541,481	-200,000	0,027	0,126
-540,466	-131,282	0,150	-0,014
-539,452	19,366	-0,085	0,050
-538,437	800,000	0,050	-0,115
-537,423	-200,000	0,002	-0,103
-536,408	-200,000	-0,030	-0,182
-535,393	-10,173	-0,108	-0,052
-534,379	10,680	-0,140	-0,078
-533,364	137,143	-0,073	0,070
-532,350	-82,232	0,089	0,021
-531,335	258,226	-0,012	0,015
-530,321	-200,000	0,006	-0,188
-529,306	800,000	0,034	-0,081
-528,291	-200,000	-0,005	-0,039
-527,277	93,171	-0,048	-0,039
-526,262	-61,949	0,097	-0,029
-525,248	-200,000	-0,017	0,193
-524,233	800,000	0,044	0,098
-523,218	41,994	0,065	-0,043
-522,204	634,272	-0,033	0,061
-521,189	140,010	0,061	0,058
-520,175	-200,000	-0,003	-0,049
-519,160	800,000	-0,032	0,067
-518,145	41,894	-0,019	-0,013
-517,131	-189,936	0,123	0,001
-516,116	-144,433	0,006	-0,000
-515,102	800,000	0,020	0,051
-514,087	-111,757	0,047	-0,007
-513,072	238,105	-0,031	0,038
-512,058	120,456	-0,045	0,041
-511,043	225,280	0,037	0,044
-510,029	-71,740	0,027	0,007
-509,014	-200,000	0,014	0,072
-507,999	161,051	0,110	-0,112
-506,985	800,000	0,033	-0,090
-505,970	-110,032	-0,090	-0,014
-504,956	-14,162	0,060	0,028
-503,941	442,806	0,033	-0,053
-502,926	-147,920	0,038	-0,002
-501,912	-200,000	0,024	0,135
-500,897	85,692	-0,022	0,018
-499,883	800,000	0,044	0,102
-498,868	506,173	-0,047	-0,080
-497,853	-130,591	0,138	0,013
-496,839	-156,695	-0,189	-0,008
-495,824	800,000	0,049	0,123
-494,810	475,572	0,031	0,051
-493,795	-138,467	0,099	0,008
-492,781	800,000	-0,089	-0,223
-491,766	-200,000	0,011	-0,120
-490,751	-200,000	-0,020	-0,090
-489,737	231,904	-0,087	-0,105
-488,722	-200,000	0,010	-0,034
-487,708	-2,354	-0,079	-0,041
-486,693	-29,998	-0,021	0,009
-485,678	-200,000	-0,044	0,170
-484,664	-123,395	0,020	0,002
-483,649	2,581	-0,027	-0,014
-482,635	-79,062	0,107	-0,026
-481,620	800,000	-0,025	0,057
-480,605	-5,130	0,033	0,017
-479,591	-200,000	-0,019	-0,099
-478,576	688,948	-0,086	0,165
-477,562	306,372	-0,043	-0,058
-476,547	800,000	0,067	-0,164
-475,532	-102,681	-0,079	0,014
-474,518	599,924	0,044	-0,080
-473,503	800,000	0,021	-0,052
-472,489	211,818	-0,046	-0,053
-471,474	-101,166	0,092	0,016
-470,459	-44,783	0,033	0,012
-469,445	98,064	-0,031	0,026
-468,430	-200,000	0,008	-0,129
-467,416	-102,466	0,247	0,043
-466,401	546,372	0,064	0,113
-465,386	415,081	-0,019	0,030
-464,372	-200,000	-0,007	0,125
-463,357	-162,017	-0,073	0,003
-462,343	99,726	0,067	0,056
-461,328	-138,520	-0,141	-0,011
-460,313	361,952	-0,034	-0,050
-459,299	-200,000	-0,003	0,030
-458,284	-200,000	0,003	-0,066
-457,270	381,728	0,022	-0,033
-456,255	-200,000	0,002	-0,036
-455,241	139,956	-0,051	0,050
-454,226	800,000	0,064	-0,158
-453,211	-25,417	0,050	-0,022
-452,197	160,701	0,113	0,115
-451,182	800,000	0,025	-0,070
-450,168	158,222	-0,023	-0,023
-449,153	93,408	-0,127	-0,104
-448,138	198,192	0,098	-0,109
-447,124	9,564	-0,088	0,049
-446,109	44,139	-0,065	0,043
-445,095	-200,000	0,014	-0,067
-444,080	285,527	0,043	-0,057
-443,065	-20,760	-0,070	0,031
-442,051	603,648	0,026	-0,047
-441,036	800,000	0,025	-0,073
-440,022	604,137	-0,078	-0,142
-439,007	110,726	-0,036	0,032
-437,992	-200,000	0,001	0,042
-436,978	-200,000	-0,004	0,060
-435,963	-9,914	-0,029	0,014
-434,949	-200,000	0,007	0,111
-433,934	-79,452	-0,163	0,040
-432,919	10,949	-0,076	0,042
-431,905	42,214	-0,032	0,021
-430,890	800,000	0,013	-0,029
-429,876	268,797	0,067	0,086
-428,861	-200,000	-0,027	0,175
-427,846	-90,470	-0,046	-0,010
-426,832	-99,356	0,109	-0,020
-425,817	-200,000	-0,028	-0,189
-424,803	-67,131	0,058	0,017
-423,788	-200,000	0,002	-0,154
-422,773	380,584	-0,037	0,055
-421,759	-190,971	-0,148	0,001
-420,744	355,405	0,069	-0,100
-419,730	101,830	-0,070	-0,059
-418,715	-200,000	-0,011	-0,111
-417,701	-168,105	0,147	-0,004
-416,686	444,094	0,078	0,125
-415,671	22,836	-0,095	-0,057
-414,657	274,819	0,086	-0,112
-413,642	407,251	0,062	-0,096
-412,628	220,158	0,057	0,067
-411,613	800,000	-0,037	-0,099
-410,598	152,710	0,055	-0,055
-409,584	654,547	0,052	-0,097
-408,569	307,758	0,056	0,076
-407,555	6,542	0,028	0,015
-406,540	-200,000	0,006	-0,076
-405,525	224,653	-0,093	0,109
-404,511	-81,625	-0,135	0,032
-403,496	-178,170	-0,096	-0,002
-402,482	-110,175	0,064	-0,010
-401,467	-177,240	0,152	-0,003
-400,452	-200,000	-0,015	0,080
-399,438	-200,000	-0,025	0,097
-398,423	-78,759	-0,090	0,022
-397,409	-200,000	0,020	-0,067
-396,394	-53,816	-0,044	-0,015
-395,379	377,067	-0,050	-0,075
-394,365	196,115	0,096	0,106
-393,350	302,973	0,063	0,084
-392,336	-200,000	0,014	0,072
-391,321	-132,198	-0,064	-0,006
-390,306	-200,000	0,036	0,147
-389,292	-47,772	-0,067	0,023
-388,277	-9,367	0,115	0,056
-387,263	-40,388	0,107	-0,040
-386,248	800,000	0,022	-0,063
-385,233	6,539	0,078	-0,042
-384,219	18,973	0,051	0,030
-383,204	85,621	-0,011	-0,009
-382,190	-5,862	-0,036	-0,018
-381,175	213,097	0,101	0,116
-380,160	41,029	0,075	0,049
-379,146	-200,000	-0,015	0,104
-378,131	-200,000	0,008	0,033
-377,117	-98,068	0,122	-0,023
-376,102	-109,721	-0,005	0,001
-375,088	3,805	-0,028	-0,015
-374,073	15,229	-0,066	-0,037
-373,058	125,599	0,121	0,111
-372,044	89,845	-0,036	-0,029
-371,029	234,362	0,071	0,085
-370,015	-200,000	-0,000	0,118
-369,000	800,000	-0,031	0,089
-367,985	301,124	-0,027	-0,037
-366,971	86,330	0,054	-0,043
-365,956	155,880	-0,075	0,075
-364,942	-200,000	0,009	0,050
-363,927	233,017	0,081	0,097
-362,912	-200,000	-0,014	0,148
-361,898	147,879	-0,073	0,072
-360,883	-200,000	0,034	-0,139
-359,869	43,640	-0,058	-0,038
-358,854	-18,422	-0,049	-0,022
-357,839	279,210	0,046	-0,060
-356,825	16,876	0,112	-0,064
-355,810	-200,000	0,033	0,110
-354,796	-9,799	-0,041	-0,020
-353,781	31,465	-0,165	-0,103
-352,766	108,270	0,098	-0,085
-351,752	209,998	-0,050	-0,057
-350,737	726,729	0,041	-0,079
-349,723	136,854	0,054	-0,051
-348,708	-115,714	0,096	0,013
-347,693	-78,578	0,053	0,013
-346,679	119,336	0,043	0,038
-345,664	83,611	0,002	-0,001
-344,650	-29,880	-0,040	0,016
-343,635	-0,846	0,039	0,020
-342,620	800,000	0,030	0,092
-341,606	-200,000	-0,005	0,147
-340,591	704,762	-0,011	-0,021
-339,577	96,761	0,094	-0,078
-338,562	227,194	0,013	0,015
-337,548	800,000	-0,000	0,001
-336,533	-24,116	0,029	-0,012
-335,518	-130,186	-0,070	-0,007
-334,504	-200,000	-0,027	-0,156
-333,489	800,000	-0,027	-0,068
-332,475	-200,000	0,031	-0,114
-331,460	-200,000	0,006	-0,156
-330,445	-120,951	0,143	-0,017
-329,431	-200,000	-0,012	0,101
-328,416	800,000	0,035	-0,089
-327,402	103,606	0,161	-0,138
-326,387	-138,108	-0,060	0,005
-325,372	-41,064	-0,114	0,043
-324,358	-5,174	-0,077	-0,039
-323,343	-130,548	0,118	0,011
-322,329	-117,728	0,159	0,021
-321,314	31,598	-0,028	0,018
-320,299	219,489	0,021	0,025
-319,285	-120,305	0,058	0,007
-318,270	24,361	-0,141	0,085
-317,256	279,194	-0,036	-0,047
-316,241	-51,308	0,048	-0,016
-315,226	-200,000	-0,001	0,042
-314,212	171,358	-0,092	0,096
-313,197	-122,436	0,045	-0,005
-312,183	-47,721	0,110	0,038
-311,168	-68,697	0,175	-0,049
-310,153	-200,000	-0,013	0,050
-309,139	158,147	-0,095	0,096
-308,124	175,700	0,047	0,050
-307,110	229,765	-0,036	0,042
-306,095	-200,000	-0,006	0,176
-305,080	-200,000	0,001	-0,049
-304,066	-200,000	0,030	-0,161
-303,051	-70,915	-0,118	-0,032
-302,037	800,000	-0,029	-0,071
-301,022	97,984	0,169	0,141
-300,008	-65,616	0,040	0,012
-298,993	-200,000	0,031	0,161
-297,978	800,000	0,073	0,185
-296,964	-200,000	0,047	0,154
-295,949	-103,082	-0,121	-0,021
-294,935	594,417	0,067	-0,121
-293,920	-200,000	0,021	0,104
-292,905	-26,863	0,087	0,037
-291,891	-200,000	-0,001	-0,017
-290,876	800,000	0,024	0,056
-289,862	62,463	-0,125	0,091
-288,847	102,950	0,076	-0,064
-287,832	661,301	0,043	-0,081
-286,818	508,506	0,040	-0,067
-285,803	-6,949	0,090	0,044
-284,789	-56,741	0,027	0,009
-283,774	365,933	0,106	0,156
-282,759	800,000	-0,032	-0,082
-281,745	421,667	0,019	-0,030
-280,730	-58,252	-0,133	0,042
-279,716	-92,672	-0,108	0,022
-278,701	449,045	-0,035	0,057
-277,686	310,190	0,050	-0,067
-276,672	71,568	0,134	0,100
-275,657	-200,000	0,000	0,010
-274,643	-89,208	-0,056	-0,012
-273,628	-117,993	-0,111	0,014
-272,613	-130,017	-0,101	0,010
-271,599	322,417	0,098	0,135
-270,584	-6,686	0,090	0,044
-269,570	45,965	0,083	-0,055
-268,555	-20,472	0,076	0,034
-267,540	429,083	0,039	0,061
-266,526	800,000	-0,063	-0,135
-265,511	-200,000	0,011	0,059
-264,497	-27,261	0,023	-0,010
-263,482	800,000	-0,026	-0,068
-262,467	-70,944	-0,050	-0,014
-261,453	-166,905	-0,070	-0,002
-260,438	-1,702	-0,094	0,048
-259,424	-64,090	-0,029	0,008
-258,409	23,027	-0,087	-0,052
-257,395	-200,000	-0,006	0,031
-256,380	333,427	-0,008	-0,011
-255,365	289,574	0,019	-0,025
-254,351	-200,000	0,014	0,127
-253,336	-170,538	-0,056	-0,001
-252,322	800,000	0,072	-0,212
-251,307	-36,787	0,050	0,019
-250,292	-200,000	0,008	0,094
-249,278	-200,000	-0,014	-0,134
-248,263	216,880	0,053	0,061
-247,249	-200,000	0,012	-0,077
-246,234	95,141	-0,083	-0,068
-245,219	94,220	-0,157	-0,129
-244,205	6,111	-0,108	-0,058
-243,190	-22,654	-0,061	-0,026
-242,176	296,042	-0,029	-0,038
-241,161	145,925	0,054	0,053
-240,146	129,901	-0,106	0,098
-239,132	194,150	0,069	0,076
-238,117	-76,151	0,090	-0,023
-237,103	142,033	0,150	0,144
-236,088	-62,720	0,055	-0,016
-235,073	800,000	-0,014	0,042
-234,059	30,703	0,028	0,017
-233,044	29,063	0,080	0,049
-232,030	386,542	0,059	-0,089
-231,015	-12,660	-0,122	0,057
-230,000	367,465	0,067	-0,099
-228,986	-11,409	-0,137	-0,065
-227,971	-200,000	-0,012	0,057
-226,957	-108,201	-0,047	-0,007
-225,942	143,275	0,061	0,059
-224,927	-200,000	0,023	0,148
-223,913	-4,209	-0,127	0,063
-222,898	249,580	0,031	-0,038
-221,884	-72,686	0,077	-0,020
-220,869	-128,386	-0,081	-0,008
-219,855	540,760	0,082	-0,142
-218,840	800,000	-0,021	0,063
-217,825	40,455	0,088	-0,057
-216,811	-162,497	-0,118	0,004
-215,796	-7,990	-0,021	0,010
-214,782	97,467	-0,133	0,110
-213,767	27,849	-0,036	0,022
-212,752	-200,000	-0,013	0,064
-211,738	-200,000	0,021	-0,109
-210,723	610,378	0,038	-0,068
-209,709	162,208	-0,032	-0,032
-208,694	-200,000	-0,004	-0,166
-207,679	140,787	0,012	-0,012
-206,665	71,531	0,082	0,062
-205,650	-8,532	-0,015	0,007
-204,636	3,449	0,044	0,023
-203,621	-95,063	-0,131	0,025
-202,606	-45,960	-0,086	-0,030
-201,592	-30,110	-0,037	0,015
-200,577	800,000	0,036	-0,087
-199,563	148,309	0,138	0,135
-198,548	244,060	-0,090	0,110
-197,533	-26,931	-0,075	0,032
-196,519	370,608	-0,094	0,137
-195,504	800,000	0,011	-0,026
-194,490	58,105	0,047	-0,033
-193,475	74,067	-0,039	0,030
-192,460	-124,677	0,004	-0,000
-191,446	10,006	0,040	0,022
-190,431	-200,000	0,013	0,063
-189,417	800,000	0,037	0,088
-188,402	800,000	-0,069	-0,161
-187,387	-200,000	-0,011	-0,167
-186,373	145,115	-0,014	-0,013
-185,358	-200,000	0,038	-0,134
-184,344	3,219	-0,138	-0,072
-183,329	800,000	0,033	-0,095
-182,315	305,885	0,052	-0,070
-181,300	172,998	0,023	0,024
-180,285	800,000	-0,036	-0,094
-179,271	-17,020	-0,120	-0,054
-178,256	565,429	0,043	-0,075
-177,242	-50,912	-0,104	-0,035
-176,227	800,000	-0,036	0,104
-175,212	420,444	-0,057	0,089
-174,198	-200,000	-0,002	0,085
-173,183	-5,821	-0,110	0,054
-172,169	800,000	0,035	0,102
-171,154	120,431	0,069	-0,062
-170,139	104,896	-0,007	-0,006
-169,125	138,512	0,066	-0,062
-168,110	276,245	0,053	-0,068
-167,096	-200,000	0,015	-0,092
-166,081	-17,056	-0,092	0,042
-165,066	-146,769	-0,184	0,011
-164,052	-200,000	-0,001	0,041
-163,037	-200,000	-0,026	-0,092
-162,023	52,847	-0,056	-0,038
-161,008	91,039	0,144	0,116
-159,993	-26,199	0,038	-0,016
-158,979	800,000	-0,063	-0,139
-157,964	-74,459	-0,100	0,026
-156,950	579,834	-0,066	-0,117
-155,935	-93,528	-0,113	-0,022
-154,920	4,387	0,085	0,045
-153,906	173,537	0,058	0,061
-152,891	435,465	-0,038	0,059
-151,877	-200,000	-0,004	0,050
-150,862	-200,000	0,012	-0,126
-149,847	-100,719	-0,178	-0,031
-148,833	97,318	0,035	-0,029
-147,818	-200,000	-0,013	0,073
-146,804	-200,000	-0,016	0,089
-145,789	-200,000	0,055	-0,185
-144,775	51,829	-0,060	-0,041
-143,760	-200,000	0,002	-0,023
-142,745	435,188	-0,063	0,100
-141,731	125,363	0,035	-0,031
-140,716	-75,272	0,033	-0,008
-139,702	-76,441	-0,025	0,006
-138,687	41,345	-0,125	0,081
-137,672	-200,000	-0,007	0,123
-136,658	80,061	-0,092	0,071
-135,643	-200,000	0,007	-0,033
-134,629	124,466	-0,070	-0,064
-133,614	800,000	-0,048	-0,096
-132,599	-136,502	0,094	-0,008
-131,585	800,000	-0,013	-0,031
-130,570	103,035	0,086	0,072
-129,556	800,000	0,029	0,057
-128,541	-157,350	-0,130	-0,006
-127,526	-90,993	0,057	0,012
-126,512	-125,933	-0,195	-0,021
-125,497	-6,312	0,112	-0,055
-124,483	-35,123	-0,040	-0,015
-123,468	800,000	0,070	-0,183
-122,453	-47,986	0,060	0,021
-121,439	-94,512	-0,120	-0,023
-120,424	-200,000	0,007	0,135
-119,410	-200,000	0,029	0,125
