DTS Sentinel unit serial number:	SN410029Multiplexer serial number:	ORYXHardware model number:	OX2-SRSoftware version number:	ORYX F/W v4,00 Oryx Data Collector v3.7.2.0data status	okinstallation	B5 Nyhavnadifferential loss correction	single-endedforward channel	channel 2reverse channel	N/Adate	2023/12/13time	20:02:13forward acquisition time	300,00reverse acquisition time	0,00gamma	499,1914k internal	0,3159k external	0,3159temperature offset calibration	1,0000default loss term (dB/km)	0,3820temperature slope calibration	1,0000multiplexer offset coefficient	1,0000multiplexer slope coefficient	1,0000fibre end	0,00T internal ref (°C)	11,17T ext. ref 1 (°C)	-5,90T ext. ref 2 (°C)	-5,98length (m)	temperature (°C)	Stokes	anti-Stokes-744,400	-200,000	-0,026	0,129
-743,385	3,224	-0,235	-0,126
-742,371	46,195	0,215	0,147
-741,356	-133,198	-0,310	-0,029
-740,342	-19,584	0,088	-0,040
-739,327	-117,420	-0,290	-0,038
-738,312	330,796	0,027	0,038
-737,298	-173,553	-0,339	-0,007
-736,283	45,079	0,147	0,100
-735,269	-144,308	-0,371	-0,025
-734,254	453,266	0,089	0,145
-733,239	-36,125	-0,548	-0,217
-732,225	5,367	0,179	0,097
-731,210	-114,643	0,082	-0,011
-730,196	-168,325	-0,231	-0,006
-729,181	-78,611	-0,041	-0,010
-728,167	55,821	0,031	0,022
-727,152	189,034	-0,028	0,031
-726,137	800,000	-0,051	0,160
-725,123	-200,000	-0,004	0,030
-724,108	664,594	0,053	-0,101
-723,094	317,610	-0,117	-0,164
-722,079	-200,000	-0,015	-0,162
-721,064	-156,866	-0,073	0,003
-720,050	98,926	0,085	0,072
-719,035	123,938	0,058	0,054
-718,021	583,791	-0,060	0,108
-717,006	800,000	-0,046	-0,121
-715,991	800,000	-0,068	-0,143
-714,977	-148,122	-0,018	0,001
-713,962	-200,000	-0,006	0,070
-712,948	175,539	0,021	-0,023
-711,933	36,677	-0,044	0,029
-710,918	-31,937	-0,104	-0,043
-709,904	27,085	-0,100	0,062
-708,889	800,000	0,023	-0,064
-707,875	-200,000	-0,020	-0,158
-706,860	-72,155	0,158	0,043
-705,845	1,652	-0,098	0,052
-704,831	-83,368	0,095	0,022
-703,816	528,766	0,024	-0,041
-702,802	-54,014	-0,126	-0,042
-701,787	256,158	-0,026	0,033
-700,772	113,445	0,065	-0,058
-699,758	800,000	0,044	-0,115
-698,743	-63,837	-0,014	0,004
-697,729	800,000	-0,025	0,055
-696,714	800,000	0,036	0,080
-695,699	-56,461	0,140	-0,046
-694,685	67,435	0,023	0,017
-693,670	-200,000	0,001	-0,038
-692,656	-200,000	-0,010	0,053
-691,641	96,401	0,076	-0,064
-690,627	-121,035	0,068	0,008
-689,612	-86,360	0,039	0,009
-688,597	-6,919	0,072	0,036
-687,583	-101,370	-0,064	-0,011
-686,568	-73,438	0,021	-0,006
-685,554	688,649	0,017	0,032
-684,539	152,991	0,078	-0,079
-683,524	-14,076	-0,108	0,051
-682,510	-200,000	-0,038	0,127
-681,495	156,845	-0,103	-0,105
-680,481	276,829	-0,129	-0,169
-679,466	-200,000	0,043	-0,146
-678,451	75,749	-0,086	-0,066
-677,437	-83,002	-0,085	-0,020
-676,422	-19,001	0,068	-0,031
-675,408	-86,917	0,049	0,011
-674,393	-33,749	0,016	0,006
-673,378	112,433	-0,115	-0,102
-672,364	-200,000	0,021	-0,070
-671,349	-23,238	-0,111	0,049
-670,335	-16,002	0,061	0,028
-669,320	-200,000	-0,007	-0,069
-668,305	-111,407	-0,142	0,021
-667,291	-200,000	0,004	-0,081
-666,276	589,752	-0,057	-0,103
-665,262	161,823	-0,106	-0,109
-664,247	341,300	0,082	-0,118
-663,232	-200,000	0,009	-0,074
-662,218	-91,632	-0,042	0,009
-661,203	-200,000	-0,017	-0,101
-660,189	71,997	0,028	0,021
-659,174	272,369	0,102	-0,132
-658,159	55,576	-0,074	-0,052
-657,145	-79,525	-0,201	-0,049
-656,130	330,968	-0,038	-0,054
-655,116	-200,000	-0,004	0,035
-654,101	800,000	-0,026	0,068
-653,086	-200,000	-0,011	0,039
-652,072	800,000	-0,046	0,120
-651,057	72,682	-0,175	-0,134
-650,043	-119,614	0,026	-0,003
-649,028	800,000	0,024	0,077
-648,014	800,000	-0,048	0,147
-646,999	306,306	0,009	0,013
-645,984	800,000	0,011	0,033
-644,970	-122,567	0,053	0,006
-643,955	-92,013	-0,065	-0,013
-642,941	800,000	-0,014	-0,045
-641,926	-175,233	-0,017	-0,000
-640,911	-200,000	0,015	0,052
-639,897	-200,000	0,008	-0,040
-638,882	800,000	-0,037	0,107
-637,868	-200,000	0,000	-0,098
-636,853	231,643	-0,074	-0,089
-635,838	800,000	0,052	-0,125
-634,824	133,556	-0,064	-0,061
-633,809	-1,688	0,009	-0,005
-632,795	300,180	0,062	-0,084
-631,780	-200,000	-0,008	0,042
-630,765	147,561	-0,019	-0,019
-629,751	166,524	-0,044	-0,046
-628,736	-7,635	-0,098	-0,048
-627,722	-200,000	0,000	-0,067
-626,707	800,000	-0,114	-0,251
-625,692	-76,801	0,121	-0,031
-624,678	127,244	0,066	0,061
-623,663	408,203	-0,021	0,033
-622,649	19,204	-0,193	-0,113
-621,634	-87,228	-0,043	0,010
-620,619	-200,000	0,005	0,174
-619,605	683,478	0,019	-0,037
-618,590	783,834	-0,069	0,139
-617,576	-4,160	0,135	-0,069
-616,561	437,852	-0,050	0,080
-615,546	358,849	0,060	0,089
-614,532	-200,000	-0,002	-0,062
-613,517	601,949	0,043	0,079
-612,503	-115,805	-0,113	0,015
-611,488	-108,760	0,048	0,007
-610,474	301,946	0,042	-0,057
-609,459	-120,454	-0,073	0,009
-608,444	800,000	-0,049	-0,147
-607,430	-154,341	-0,154	-0,007
-606,415	154,809	-0,014	-0,014
-605,401	800,000	0,017	0,036
-604,386	59,839	-0,116	0,084
-603,371	-143,798	-0,011	0,001
-602,357	800,000	0,026	-0,066
-601,342	269,248	0,038	-0,048
-600,328	101,834	-0,067	-0,057
-599,313	157,936	-0,050	-0,051
-598,298	8,159	0,113	-0,062
-597,284	144,833	0,080	0,078
-596,269	-0,102	-0,074	0,038
-595,255	-110,441	0,087	-0,013
-594,240	228,524	0,031	0,037
-593,225	-200,000	0,016	-0,158
-592,211	86,673	-0,051	-0,041
-591,196	-8,766	0,061	0,030
-590,182	-200,000	0,030	-0,102
-589,167	390,212	-0,051	-0,078
-588,152	-200,000	0,012	0,049
-587,138	192,846	-0,070	0,078
-586,123	286,044	0,041	-0,054
-585,109	800,000	0,016	-0,036
-584,094	-94,675	0,019	0,004
-583,079	472,672	0,077	0,127
-582,065	4,588	0,067	-0,036
-581,050	54,993	-0,015	-0,010
-580,036	-108,546	0,031	0,005
-579,021	352,629	-0,104	-0,151
-578,006	-200,000	-0,011	-0,125
-576,992	147,814	0,057	-0,056
-575,977	-61,592	-0,031	-0,009
-574,963	-200,000	0,008	0,043
-573,948	55,463	0,045	0,032
-572,934	-132,703	-0,049	0,005
-571,919	-200,000	-0,035	-0,172
-570,904	800,000	-0,044	-0,132
-569,890	800,000	0,090	-0,202
-568,875	-171,627	-0,055	-0,001
-567,861	800,000	0,039	0,099
-566,846	-200,000	0,006	0,106
-565,831	-46,432	-0,107	0,038
-564,817	-17,301	-0,046	0,021
-563,802	230,187	0,024	0,029
-562,788	1,032	-0,069	-0,036
-561,773	-200,000	0,015	0,050
-560,758	-174,352	0,173	-0,004
-559,744	497,717	-0,032	0,054
-558,729	-200,000	0,012	-0,048
-557,715	-47,004	-0,087	-0,031
-556,700	-200,000	0,012	-0,085
-555,685	-40,581	0,064	-0,024
-554,671	240,956	-0,082	0,101
-553,656	148,917	0,041	-0,040
-552,642	206,660	0,027	-0,031
-551,627	210,741	0,076	0,088
-550,612	800,000	-0,089	-0,216
-549,598	800,000	0,078	-0,215
-548,583	157,226	0,013	-0,013
-547,569	-0,479	0,105	0,054
-546,554	22,143	0,084	-0,050
-545,539	-200,000	-0,001	0,027
-544,525	650,896	0,024	0,045
-543,510	-200,000	-0,009	0,047
-542,496	334,690	0,059	-0,084
-541,481	73,097	-0,089	-0,068
-540,466	519,944	-0,073	0,126
-539,452	-165,722	0,030	-0,001
-538,437	-88,713	0,163	0,035
-537,423	-55,854	0,058	0,019
-536,408	-7,703	-0,046	0,023
-535,393	44,766	-0,074	-0,049
-534,379	82,823	-0,020	-0,016
-533,364	454,930	0,072	-0,117
-532,350	579,268	-0,046	-0,082
-531,335	800,000	-0,021	-0,053
-530,321	86,149	0,117	0,094
-529,306	-119,312	-0,154	0,019
-528,291	-121,092	-0,076	0,009
-527,277	-200,000	0,007	-0,033
-526,262	-200,000	0,005	-0,100
-525,248	-187,468	-0,107	0,001
-524,233	73,841	0,045	0,035
-523,218	-200,000	-0,008	-0,066
-522,204	800,000	-0,043	0,121
-521,189	-53,726	-0,091	0,030
-520,175	233,553	-0,019	0,023
-519,160	39,323	0,088	0,057
-518,145	156,436	0,063	0,064
-517,131	70,050	-0,133	-0,100
-516,116	191,072	0,076	0,083
-515,102	800,000	0,032	-0,093
-514,087	-200,000	-0,002	-0,111
-513,072	67,640	-0,130	-0,097
-512,058	125,944	0,106	-0,098
-511,043	95,982	0,085	0,071
-510,029	-200,000	0,045	0,164
-509,014	-200,000	0,005	0,047
-507,999	613,871	-0,042	0,076
-506,985	-39,304	-0,039	0,015
-505,970	-200,000	-0,002	-0,099
-504,956	-200,000	-0,021	0,085
-503,941	255,819	0,090	-0,113
-502,926	800,000	-0,020	-0,050
-501,912	-200,000	-0,004	0,044
-500,897	800,000	-0,031	0,067
-499,883	699,140	-0,039	0,076
-498,868	186,981	-0,071	-0,078
-497,853	-89,951	0,009	-0,002
-496,839	31,060	-0,116	0,073
-495,824	-154,916	0,073	-0,003
-494,810	0,840	-0,026	0,014
-493,795	-199,999	0,033	-0,000
-492,781	-125,697	0,061	-0,007
-491,766	800,000	0,024	-0,068
-490,751	-93,788	-0,224	-0,045
-489,737	-79,384	0,130	0,032
-488,722	-92,559	0,096	0,019
-487,708	270,638	0,048	-0,062
-486,693	-200,000	0,001	0,046
-485,678	-89,267	-0,036	0,008
-484,664	519,801	0,091	-0,156
-483,649	-200,000	0,000	-0,096
-482,635	-200,000	0,009	0,040
-481,620	44,348	0,161	0,108
-480,605	-15,830	0,104	0,048
-479,591	-200,000	-0,003	0,053
-478,576	17,637	-0,074	0,043
-477,562	126,510	-0,046	0,042
-476,547	10,282	0,079	0,044
-475,532	142,918	0,067	-0,065
-474,518	-104,015	-0,120	0,020
-473,503	800,000	0,047	0,110
-472,489	-200,000	0,000	0,056
-471,474	-200,000	-0,001	-0,035
-470,459	800,000	0,029	-0,061
-469,445	800,000	-0,020	0,056
-468,430	460,724	-0,030	-0,049
-467,416	-7,473	0,029	-0,014
-466,401	492,829	0,059	0,099
-465,386	800,000	0,016	0,037
-464,372	800,000	0,062	-0,138
-463,357	800,000	0,020	-0,058
-462,343	2,841	-0,066	-0,035
-461,328	-105,605	-0,046	-0,008
-460,313	-166,379	-0,099	0,003
-459,299	-136,150	-0,082	0,007
-458,284	-200,000	-0,006	0,078
-457,270	-57,133	-0,032	0,010
-456,255	-200,000	0,028	-0,120
-455,241	120,215	-0,039	0,035
-454,226	-200,000	0,010	-0,080
-453,211	800,000	0,028	-0,073
-452,197	307,721	-0,042	0,058
-451,182	-200,000	-0,017	0,088
-450,168	176,446	0,049	0,052
-449,153	-39,781	0,172	-0,065
-448,138	-200,000	-0,010	-0,067
-447,124	-200,000	-0,030	-0,138
-446,109	-200,000	-0,005	-0,080
-445,095	484,138	-0,067	0,112
-444,080	-182,408	0,020	0,000
-443,065	-200,000	0,003	-0,034
-442,051	800,000	-0,029	0,082
-441,036	14,387	-0,082	-0,046
-440,022	721,114	0,021	0,041
-439,007	-200,000	0,004	0,068
-437,992	-200,000	-0,030	0,113
-436,978	108,267	-0,048	0,042
-435,963	-179,760	-0,038	0,001
-434,949	800,000	-0,040	0,110
-433,934	108,507	-0,094	-0,082
-432,919	259,463	0,039	-0,050
-431,905	-200,000	-0,009	0,042
-430,890	-200,000	0,008	-0,131
-429,876	-156,627	-0,033	0,001
-428,861	72,661	0,079	0,060
-427,846	-5,021	0,065	0,033
-426,832	800,000	0,027	-0,080
-425,817	376,848	-0,100	-0,149
-424,803	-182,281	-0,130	0,002
-423,788	383,852	-0,025	-0,038
-422,773	-82,272	0,188	0,044
-421,759	-65,267	-0,040	-0,012
-420,744	-125,153	0,093	0,010
-419,730	8,507	-0,054	-0,029
-418,715	125,447	-0,091	0,083
-417,701	-1,568	-0,137	-0,070
-416,686	-41,510	0,144	-0,053
-415,671	800,000	-0,046	0,146
-414,657	7,567	-0,167	-0,090
-413,642	274,413	0,091	0,118
-412,628	66,270	-0,029	-0,022
-411,613	-200,000	0,002	-0,128
-410,598	-200,000	0,004	0,025
-409,584	208,255	0,035	-0,040
-408,569	-120,132	-0,012	-0,002
-407,555	250,333	-0,066	-0,082
-406,540	800,000	-0,013	-0,038
-405,525	-200,000	-0,001	0,101
-404,511	211,827	0,085	-0,097
-403,496	-64,074	-0,125	-0,037
-402,482	50,841	-0,063	-0,044
-401,467	175,257	0,059	0,062
-400,452	-118,941	0,156	0,020
-399,438	463,471	-0,019	-0,031
-398,423	75,787	0,039	0,030
-397,409	44,514	-0,086	-0,057
-396,394	-111,065	-0,020	0,003
-395,379	-200,000	0,011	0,083
-394,365	186,208	-0,048	-0,052
-393,350	800,000	0,029	0,067
-392,336	72,396	0,018	-0,014
-391,321	-45,368	-0,061	0,022
-390,306	334,506	-0,044	-0,062
-389,292	64,015	0,088	0,064
-388,277	784,657	-0,066	-0,133
-387,263	-46,339	0,133	0,047
-386,248	162,622	0,101	0,103
-385,233	800,000	0,037	0,083
-384,219	-130,901	-0,017	0,002
-383,204	265,476	0,061	-0,077
-382,190	-200,000	-0,004	0,136
-381,175	-52,555	0,100	-0,033
-380,160	285,112	0,088	0,116
-379,146	46,765	0,052	0,035
-378,131	3,336	0,080	-0,042
-377,117	-200,000	-0,011	0,098
-376,102	-134,340	-0,046	-0,004
-375,088	-200,000	0,017	-0,140
-374,073	800,000	-0,031	0,093
-373,058	-27,638	0,169	-0,071
-372,044	-116,179	-0,109	-0,014
-371,029	218,041	-0,074	0,086
-370,015	233,577	0,093	-0,111
-369,000	-84,666	-0,093	0,021
-367,985	-49,997	-0,134	-0,046
-366,971	27,621	0,141	-0,086
-365,956	-72,571	0,035	0,009
-364,942	231,169	0,058	0,069
-363,927	481,352	0,049	-0,081
-362,912	-200,000	0,005	0,041
-361,898	-45,039	0,029	-0,010
-360,883	47,259	0,133	-0,090
-359,869	800,000	0,039	0,111
-358,854	255,948	0,094	0,117
-357,839	-200,000	0,016	0,095
-356,825	-42,290	-0,126	-0,046
-355,810	-200,000	-0,010	-0,057
-354,796	-3,420	-0,124	0,062
-353,781	-200,000	0,014	-0,070
-352,766	-73,777	0,101	0,026
-351,752	-108,733	-0,214	0,033
-350,737	-200,000	0,034	-0,153
-349,723	-97,644	0,056	0,010
-348,708	-200,000	0,005	0,198
-347,693	103,261	0,057	0,048
-346,679	85,719	-0,049	-0,039
-345,664	349,509	-0,092	-0,132
-344,650	-30,244	0,090	0,037
-343,635	173,769	-0,073	-0,076
-342,620	-104,411	0,137	0,023
-341,606	800,000	0,021	-0,055
-340,591	-131,829	-0,057	0,005
-339,577	436,835	-0,052	-0,082
-338,562	-125,926	-0,046	-0,005
-337,548	362,854	0,080	-0,117
-336,533	226,838	0,116	0,137
-335,518	-200,000	-0,011	0,042
-334,504	800,000	-0,043	0,100
-333,489	-59,438	0,099	0,031
-332,475	235,729	-0,051	-0,061
-331,460	-200,000	0,007	-0,128
-330,445	-200,000	0,015	0,101
-329,431	177,956	-0,063	0,067
-328,416	-200,000	0,034	0,122
-327,402	-200,000	-0,006	-0,037
-326,387	-128,728	0,094	-0,009
-325,372	-136,914	0,038	0,003
-324,358	800,000	-0,042	-0,099
-323,343	800,000	-0,029	0,059
-322,329	52,559	0,088	0,061
-321,314	30,944	-0,103	0,064
-320,299	-149,740	0,113	-0,006
-319,285	39,430	0,069	0,044
-318,270	-18,356	-0,065	0,029
-317,256	107,819	-0,033	-0,028
-316,241	73,547	0,020	-0,015
-315,226	-200,000	0,012	0,051
-314,212	-200,000	0,030	0,116
-313,197	800,000	-0,060	0,149
-312,183	-200,000	-0,010	0,032
-311,168	251,118	-0,040	0,049
-310,153	-200,000	-0,017	-0,063
-309,139	164,855	0,020	0,021
-308,124	-200,000	-0,008	0,035
-307,110	-200,000	0,003	0,032
-306,095	66,128	0,026	0,019
-305,080	150,484	-0,073	0,072
-304,066	544,078	-0,043	-0,075
-303,051	-200,000	0,027	-0,139
-302,037	-200,000	0,033	-0,154
-301,022	-107,154	0,145	-0,023
-300,008	-200,000	-0,018	-0,076
-298,993	321,799	0,028	-0,039
-297,978	-200,000	-0,006	0,034
-296,964	596,315	0,035	0,064
-295,949	88,229	-0,049	-0,040
-294,935	766,841	0,091	-0,180
-293,920	545,572	-0,034	-0,060
-292,905	303,161	-0,064	0,086
-291,891	-63,973	0,065	0,019
-290,876	-73,773	-0,026	-0,007
-289,862	195,965	0,011	0,013
-288,847	-29,089	-0,088	-0,036
-287,832	1,015	0,090	0,047
-286,818	-0,911	0,026	0,013
-285,803	-102,538	0,156	0,027
-284,789	226,393	0,102	-0,120
-283,774	-200,000	0,007	0,093
-282,759	-190,483	0,029	-0,000
-281,745	-200,000	0,003	0,066
-280,730	-56,154	-0,075	-0,024
-279,716	-200,000	0,019	-0,064
-278,701	178,695	-0,038	0,040
-277,686	-200,000	-0,021	0,149
-276,672	340,564	-0,098	-0,139
-275,657	-200,000	-0,000	-0,069
-274,643	-7,110	-0,117	-0,057
-273,628	578,761	-0,012	-0,021
-272,613	292,191	-0,046	-0,061
-271,599	-145,277	0,162	-0,010
-270,584	800,000	0,047	0,122
-269,570	-66,216	0,058	0,017
-268,555	800,000	-0,033	-0,095
-267,540	-52,367	0,022	0,007
-266,526	-30,739	0,037	0,015
-265,511	765,144	0,062	0,122
-264,497	-149,113	-0,102	-0,006
-263,482	-17,865	-0,057	0,026
-262,467	-200,000	-0,001	0,055
-261,453	-112,909	0,165	0,023
-260,438	-129,080	-0,055	-0,006
-259,424	-200,000	-0,010	0,081
-258,409	-97,245	-0,124	-0,023
-257,395	65,825	0,068	-0,050
-256,380	-200,000	-0,012	0,126
-255,365	728,616	0,062	0,120
-254,351	-1,644	-0,066	0,033
-253,336	-200,000	0,026	-0,088
-252,322	-42,842	0,100	0,037
-251,307	800,000	0,031	-0,089
-250,292	15,572	-0,057	-0,032
-249,278	-57,031	0,114	0,036
-248,263	-89,983	0,080	0,017
-247,249	-200,000	-0,011	0,083
-246,234	45,297	0,077	0,051
-245,219	800,000	0,019	-0,061
-244,205	-200,000	0,001	-0,034
-243,190	26,194	-0,044	0,026
-242,176	-200,000	0,009	0,145
-241,161	155,058	0,020	0,020
-240,146	-119,151	-0,120	0,015
-239,132	-117,696	0,020	-0,003
-238,117	58,008	0,051	0,036
-237,103	-19,806	-0,146	0,065
-236,088	212,053	-0,059	-0,067
-235,073	-77,442	0,070	0,017
-234,059	-19,967	-0,054	0,024
-233,044	-200,000	0,011	-0,053
-232,030	-8,996	-0,100	-0,048
-231,015	-16,952	-0,052	0,024
-230,000	334,031	-0,118	-0,165
-228,986	79,995	0,062	-0,048
-227,971	189,062	-0,047	0,051
-226,957	-83,615	0,045	-0,010
-225,942	800,000	0,011	-0,034
-224,927	132,938	0,040	-0,037
-223,913	-200,000	0,005	-0,071
-222,898	800,000	0,030	-0,083
-221,884	-58,352	-0,016	-0,005
-220,869	800,000	0,042	0,112
-219,855	67,249	0,076	-0,056
-218,840	92,508	0,053	0,043
-217,825	-16,328	0,091	0,042
-216,811	-127,379	0,049	-0,005
-215,796	-200,000	-0,004	-0,137
-214,782	0,238	-0,090	0,046
-213,767	800,000	-0,009	-0,022
-212,752	-104,479	0,036	-0,006
-211,738	-200,000	0,020	0,075
-210,723	152,009	-0,110	0,108
-209,709	-103,779	-0,127	0,021
-208,694	-149,880	-0,112	0,006
-207,679	-200,000	-0,006	-0,094
-206,665	-200,000	-0,033	-0,112
-205,650	-200,000	0,003	0,089
-204,636	-200,000	0,012	0,149
-203,621	208,158	0,075	0,085
-202,606	-109,749	-0,088	-0,013
-201,592	-200,000	0,019	0,062
-200,577	-23,506	-0,052	0,022
-199,563	800,000	-0,046	0,141
-198,548	101,438	0,009	-0,007
-197,533	532,145	-0,081	0,138
-196,519	-200,000	0,013	0,103
-195,504	-13,087	-0,028	-0,013
-194,490	-42,171	0,096	0,035
-193,475	-80,318	0,030	0,007
-192,460	347,058	-0,042	-0,060
-191,446	293,142	0,014	0,018
-190,431	301,651	0,106	0,142
-189,417	-200,000	0,027	0,277
-188,402	-168,662	0,082	0,002
-187,387	800,000	0,038	0,085
-186,373	-36,653	-0,105	-0,040
-185,358	-200,000	-0,004	0,039
-184,344	-28,685	0,049	0,020
-183,329	-200,000	0,013	0,092
-182,315	-58,017	-0,022	0,007
-181,300	-83,711	0,066	0,015
-180,285	-200,000	0,003	-0,040
-179,271	-70,330	0,112	-0,030
-178,256	-42,360	-0,126	0,046
-177,242	351,200	-0,049	0,070
-176,227	542,344	0,047	-0,082
-175,212	-200,000	0,018	0,180
-174,198	-113,235	-0,089	0,012
-173,183	42,333	-0,118	-0,077
-172,169	292,376	-0,028	0,036
-171,154	-135,541	-0,227	-0,019
-170,139	-200,000	0,008	-0,032
-169,125	30,554	-0,086	0,053
-168,110	122,583	-0,044	-0,039
-167,096	25,462	-0,030	-0,018
-166,081	54,499	0,058	0,041
-165,066	144,887	0,011	0,010
-164,052	259,612	0,012	0,015
-163,037	-82,084	0,156	-0,036
-162,023	-200,000	-0,021	-0,177
-161,008	-200,000	-0,011	0,041
-159,993	-200,000	-0,028	0,092
-158,979	800,000	-0,027	-0,071
-157,964	800,000	-0,033	-0,089
-156,950	-200,000	0,009	-0,067
-155,935	87,626	-0,054	0,043
-154,920	800,000	0,010	-0,021
-153,906	171,127	-0,026	-0,027
-152,891	79,281	-0,069	0,053
-151,877	-88,163	-0,055	0,012
-150,862	51,209	-0,031	-0,021
-149,847	53,186	-0,019	-0,013
-148,833	301,306	0,041	-0,055
-147,818	-200,000	-0,048	-0,153
-146,804	72,738	-0,047	0,035
-145,789	160,403	0,062	0,062
-144,775	-200,000	0,028	0,178
-143,760	800,000	0,064	-0,177
-142,745	72,329	-0,028	0,021
-141,731	-108,924	0,121	0,018
-140,716	-33,693	-0,033	0,013
-139,702	-81,776	0,107	-0,025
-138,687	89,044	-0,038	-0,030
-137,672	111,911	-0,047	-0,041
-136,658	-200,000	0,026	-0,178
-135,643	-103,426	-0,080	-0,013
-134,629	800,000	-0,037	0,100
-133,614	800,000	0,019	0,055
-132,599	-200,000	0,008	-0,125
-131,585	550,345	-0,057	0,099
-130,570	633,764	0,010	0,018
-129,556	205,238	-0,044	0,050
-128,541	-200,000	-0,013	-0,156
-127,526	237,847	-0,029	-0,034
-126,512	-200,000	0,009	0,121
-125,497	276,014	0,084	0,108
-124,483	-133,231	0,126	0,011
-123,468	-200,000	0,006	0,041
-122,453	800,000	-0,038	0,090
-121,439	17,250	-0,029	-0,017
-120,424	7,844	0,143	0,077
-119,410	185,825	-0,004	0,005
-118,395	-71,369	-0,183	-0,049
