DTS Sentinel unit serial number:	SN410029Multiplexer serial number:	ORYXHardware model number:	OX2-SRSoftware version number:	ORYX F/W v4,00 Oryx Data Collector v3.7.2.0data status	okinstallation	B5 Nyhavnadifferential loss correction	single-endedforward channel	channel 2reverse channel	N/Adate	2023/12/12time	03:12:13forward acquisition time	300,00reverse acquisition time	0,00gamma	499,1914k internal	0,3156k external	0,3156temperature offset calibration	1,0000default loss term (dB/km)	0,3820temperature slope calibration	1,0000multiplexer offset coefficient	1,0000multiplexer slope coefficient	1,0000fibre end	0,00T internal ref (°C)	15,72T ext. ref 1 (°C)	-0,69T ext. ref 2 (°C)	-0,98length (m)	temperature (°C)	Stokes	anti-Stokes-744,400	800,000	0,013	-0,040
-743,385	-148,905	-0,274	0,016
-742,371	13,551	0,149	0,085
-741,356	-194,331	-0,320	-0,002
-740,342	-200,000	-0,011	0,039
-739,327	-59,374	-0,331	0,104
-738,312	-57,895	0,118	-0,038
-737,298	-148,961	-0,400	0,023
-736,283	-200,000	-0,004	0,040
-735,269	-131,140	-0,255	0,025
-734,254	48,719	0,122	0,084
-733,239	-127,269	-0,446	-0,047
-732,225	12,362	0,213	0,121
-731,210	176,969	-0,044	0,048
-730,196	-200,000	0,003	-0,027
-729,181	36,505	-0,030	0,019
-728,167	7,729	-0,101	0,056
-727,152	-200,000	-0,005	-0,094
-726,137	247,602	-0,060	0,075
-725,123	574,470	-0,069	0,125
-724,108	332,534	-0,070	-0,100
-723,094	60,810	-0,166	-0,121
-722,079	786,284	-0,076	-0,154
-721,064	458,762	-0,102	-0,168
-720,050	-27,359	-0,078	-0,033
-719,035	-200,000	0,002	-0,159
-718,021	-91,294	-0,127	0,027
-717,006	323,003	-0,114	-0,160
-715,991	-20,827	-0,040	-0,018
-714,977	5,000	0,090	-0,049
-713,962	-200,000	-0,017	-0,141
-712,948	-200,000	-0,003	-0,034
-711,933	-200,000	-0,015	-0,114
-710,918	800,000	-0,009	-0,023
-709,904	8,549	-0,145	-0,080
-708,889	-200,000	-0,006	0,000
-707,875	-200,000	-0,030	-0,100
-706,860	-200,000	-0,004	0,127
-705,845	800,000	-0,027	-0,069
-704,831	529,217	0,055	-0,095
-703,816	13,842	-0,094	0,054
-702,802	380,324	-0,080	-0,121
-701,787	-121,315	-0,132	0,016
-700,772	1,093	-0,062	-0,033
-699,758	-186,919	-0,100	0,001
-698,743	800,000	0,025	0,072
-697,729	-92,368	0,220	-0,045
-696,714	-36,254	0,107	0,042
-695,699	-134,736	0,046	-0,004
-694,685	386,063	-0,082	-0,125
-693,670	64,025	0,052	-0,038
-692,656	-113,968	-0,053	-0,007
-691,641	800,000	-0,060	0,173
-690,627	800,000	-0,038	-0,088
-689,612	212,380	-0,041	-0,048
-688,597	-200,000	-0,003	-0,076
-687,583	800,000	0,010	0,032
-686,568	-91,110	0,060	-0,013
-685,554	800,000	0,040	-0,129
-684,539	800,000	0,046	0,127
-683,524	280,324	0,126	-0,166
-682,510	385,731	-0,037	-0,056
-681,495	-51,971	-0,111	0,038
-680,481	168,576	-0,135	-0,142
-679,466	372,462	-0,095	-0,143
-678,451	800,000	-0,019	-0,051
-677,437	39,352	0,090	-0,059
-676,422	-92,677	-0,044	0,009
-675,408	800,000	-0,031	0,088
-674,393	-30,754	-0,127	-0,053
-673,378	395,611	-0,062	-0,096
-672,364	74,313	-0,107	-0,082
-671,349	55,313	0,112	-0,080
-670,335	-39,681	-0,155	0,059
-669,320	511,436	0,023	0,040
-668,305	-200,000	0,054	0,191
-667,291	-65,009	0,080	-0,024
-666,276	110,871	-0,112	-0,099
-665,262	424,552	-0,096	-0,153
-664,247	264,662	-0,085	0,109
-663,232	4,201	-0,030	-0,016
-662,218	-63,379	-0,082	0,025
-661,203	-200,000	0,026	-0,112
-660,189	800,000	-0,068	0,158
-659,174	270,818	-0,092	-0,120
-658,159	-200,000	0,007	-0,115
-657,145	-200,000	0,017	-0,181
-656,130	800,000	0,026	-0,075
-655,116	-123,911	-0,062	0,007
-654,101	296,828	0,051	-0,070
-653,086	-200,000	-0,008	-0,048
-652,072	-42,810	-0,037	-0,014
-651,057	-40,911	0,028	0,010
-650,043	800,000	-0,019	-0,049
-649,028	-200,000	0,011	-0,155
-648,014	800,000	-0,009	0,027
-646,999	-200,000	0,001	0,043
-645,984	-50,916	-0,084	0,029
-644,970	49,249	-0,010	-0,007
-643,955	-200,000	0,037	-0,148
-642,941	-85,046	-0,148	-0,034
-641,926	-36,933	0,052	-0,020
-640,911	44,680	-0,086	-0,058
-639,897	49,808	0,035	-0,025
-638,882	-42,516	-0,083	0,031
-637,868	27,343	-0,078	-0,048
-636,853	10,021	-0,138	-0,077
-635,838	-200,000	-0,009	-0,115
-634,824	204,405	0,087	-0,099
-633,809	113,394	0,145	-0,130
-632,795	-78,586	0,107	-0,027
-631,780	800,000	-0,034	0,090
-630,765	-71,182	-0,098	-0,027
-629,751	-200,000	0,005	-0,059
-628,736	-121,866	0,063	0,008
-627,722	-172,453	0,085	0,002
-626,707	-161,439	-0,099	0,004
-625,692	-71,265	-0,026	0,007
-624,678	-70,992	-0,087	0,024
-623,663	800,000	0,008	-0,027
-622,649	-200,000	-0,026	0,150
-621,634	-200,000	0,004	0,052
-620,619	-95,175	-0,077	0,015
-619,605	590,483	0,043	0,079
-618,590	664,945	-0,035	-0,066
-617,576	406,094	-0,077	-0,119
-616,561	-200,000	0,022	-0,082
-615,546	-40,063	-0,123	0,047
-614,532	14,594	-0,107	-0,061
-613,517	-106,765	-0,092	-0,015
-612,503	-200,000	-0,001	0,011
-611,488	427,427	-0,033	-0,053
-610,474	51,870	-0,133	-0,093
-609,459	-42,351	-0,040	-0,015
-608,444	-135,642	-0,083	-0,007
-607,430	-200,000	-0,009	-0,098
-606,415	800,000	0,025	-0,065
-605,401	-200,000	0,016	0,058
-604,386	452,621	0,088	0,143
-603,371	-200,000	-0,009	-0,040
-602,357	52,372	0,107	0,075
-601,342	-200,000	0,009	-0,067
-600,328	182,545	-0,058	-0,063
-599,313	156,334	-0,056	-0,057
-598,298	221,149	-0,019	0,023
-597,284	389,627	-0,042	0,064
-596,269	29,964	-0,084	-0,052
-595,255	800,000	-0,046	-0,126
-594,240	-200,000	-0,009	-0,097
-593,225	-200,000	0,011	-0,126
-592,211	115,456	-0,105	-0,094
-591,196	-67,447	0,067	-0,019
-590,182	-98,244	0,011	0,002
-589,167	222,582	0,087	-0,103
-588,152	316,090	0,025	-0,035
-587,138	-200,000	0,035	-0,186
-586,123	800,000	0,090	-0,216
-585,109	-200,000	-0,021	-0,144
-584,094	54,545	-0,144	-0,102
-583,079	-200,000	0,012	-0,062
-582,065	800,000	0,026	-0,075
-581,050	-200,000	-0,007	-0,042
-580,036	-200,000	-0,002	-0,045
-579,021	349,255	-0,020	-0,029
-578,006	651,411	-0,025	0,047
-576,992	-111,533	0,042	0,006
-575,977	61,450	0,035	-0,026
-574,963	195,631	0,032	0,036
-573,948	324,412	-0,074	0,103
-572,934	-60,941	-0,020	0,006
-571,919	413,456	-0,060	-0,094
-570,904	-56,509	-0,093	0,030
-569,890	-50,916	-0,092	0,032
-568,875	-13,088	0,141	0,067
-567,861	154,744	-0,064	0,065
-566,846	78,145	-0,022	-0,017
-565,831	193,093	0,047	0,052
-564,817	438,411	-0,036	-0,058
-563,802	98,352	0,013	-0,011
-562,788	-75,290	-0,132	-0,034
-561,773	467,895	0,104	0,171
-560,758	-200,000	-0,023	-0,077
-559,744	-103,681	0,041	-0,007
-558,729	220,689	-0,026	-0,031
-557,715	103,469	0,117	-0,100
-556,700	-3,289	0,040	0,020
-555,685	-200,000	0,007	-0,054
-554,671	114,449	-0,062	0,056
-553,656	686,344	-0,052	-0,100
-552,642	174,825	0,052	0,055
-551,627	246,777	-0,066	-0,081
-550,612	-46,217	0,074	0,026
-549,598	377,395	-0,077	0,115
-548,583	-34,529	-0,172	-0,069
-547,569	-200,000	0,027	-0,170
-546,554	166,194	0,053	0,055
-545,539	-42,953	-0,192	0,071
-544,525	400,551	-0,066	0,102
-543,510	800,000	0,024	-0,067
-542,496	-200,000	-0,043	-0,170
-541,481	-200,000	-0,006	-0,062
-540,466	-200,000	-0,007	0,045
-539,452	-200,000	0,035	-0,195
-538,437	-200,000	-0,005	0,057
-537,423	22,321	0,073	0,044
-536,408	-200,000	-0,002	0,036
-535,393	72,180	-0,100	-0,076
-534,379	-58,127	-0,033	-0,010
-533,364	-200,000	-0,008	-0,055
-532,350	-200,000	-0,037	0,174
-531,335	800,000	-0,030	-0,077
-530,321	-19,675	0,157	0,071
-529,306	-200,000	-0,040	-0,134
-528,291	-9,626	-0,118	-0,058
-527,277	-200,000	0,011	-0,072
-526,262	29,594	-0,030	-0,019
-525,248	231,602	0,075	0,090
-524,233	-77,742	0,139	0,035
-523,218	166,243	0,109	0,113
-522,204	-32,303	0,074	-0,030
-521,189	33,566	-0,070	0,044
-520,175	800,000	-0,068	-0,141
-519,160	-102,536	0,099	0,017
-518,145	122,409	0,026	-0,023
-517,131	16,531	0,024	0,014
-516,116	-18,607	0,079	0,036
-515,102	-200,000	-0,010	-0,069
-514,087	-112,037	-0,103	0,015
-513,072	-179,431	-0,150	-0,002
-512,058	-200,000	-0,017	0,100
-511,043	-18,552	0,102	0,046
-510,029	800,000	-0,044	-0,136
-509,014	-200,000	0,019	-0,065
-507,999	-95,811	0,114	0,022
-506,985	-23,935	0,085	0,037
-505,970	553,873	0,024	-0,043
-504,956	-115,620	-0,119	-0,016
-503,941	95,787	0,080	-0,066
-502,926	-200,000	0,010	0,113
-501,912	17,082	0,079	0,045
-500,897	385,173	-0,037	-0,056
-499,883	66,451	-0,101	0,075
-498,868	29,142	-0,114	-0,070
-497,853	-200,000	-0,008	-0,069
-496,839	-200,000	0,012	0,097
-495,824	84,850	0,045	-0,036
-494,810	-200,000	0,003	-0,160
-493,795	800,000	0,027	0,086
-492,781	-31,331	0,039	-0,016
-491,766	-121,071	0,049	-0,006
-490,751	-200,000	0,003	-0,100
-489,737	-107,625	-0,173	0,027
-488,722	74,610	0,041	0,032
-487,708	668,759	-0,049	0,093
-486,693	-51,961	-0,076	0,026
-485,678	800,000	-0,056	0,156
-484,664	9,519	-0,138	0,076
-483,649	3,424	-0,051	-0,027
-482,635	368,126	0,048	0,071
-481,620	57,726	0,019	0,014
-480,605	174,239	0,133	0,140
-479,591	91,209	0,022	0,018
-478,576	199,084	0,042	0,048
-477,562	-65,615	-0,075	-0,022
-476,547	168,538	0,131	-0,137
-475,532	238,891	0,017	-0,021
-474,518	31,856	0,072	-0,045
-473,503	237,878	0,097	-0,118
-472,489	-200,000	-0,006	0,177
-471,474	800,000	-0,053	0,157
-470,459	4,101	0,029	-0,016
-469,445	-200,000	-0,001	-0,116
-468,430	201,285	-0,092	-0,104
-467,416	-127,656	0,153	0,016
-466,401	-41,715	-0,090	-0,034
-465,386	800,000	0,030	0,079
-464,372	-200,000	-0,013	-0,088
-463,357	-200,000	-0,015	0,053
-462,343	329,077	0,058	-0,081
-461,328	-200,000	0,001	-0,020
-460,313	-200,000	0,009	0,070
-459,299	-21,020	-0,098	-0,044
-458,284	-200,000	0,003	0,170
-457,270	-200,000	0,019	0,143
-456,255	-92,832	-0,114	0,023
-455,241	-40,218	-0,138	-0,052
-454,226	-200,000	-0,036	0,143
-453,211	-181,188	-0,075	0,001
-452,197	-100,545	0,120	0,021
-451,182	-137,126	-0,027	-0,002
-450,168	48,443	0,088	-0,060
-449,153	-200,000	0,001	0,041
-448,138	442,150	-0,082	0,131
-447,124	-200,000	-0,008	0,088
-446,109	149,198	0,007	0,007
-445,095	-200,000	0,010	-0,045
-444,080	800,000	-0,016	0,037
-443,065	75,417	0,054	0,041
-442,051	225,766	0,028	0,033
-441,036	800,000	-0,071	-0,147
-440,022	-200,000	0,003	-0,105
-439,007	800,000	0,031	-0,085
-437,992	115,733	0,123	-0,109
-436,978	-149,561	0,246	-0,014
-435,963	-56,344	-0,055	-0,018
-434,949	-57,163	-0,058	-0,018
-433,934	242,804	-0,020	-0,025
-432,919	6,112	-0,094	-0,050
-431,905	800,000	0,032	0,067
-430,890	115,426	-0,041	0,036
-429,876	590,568	-0,091	-0,165
-428,861	120,852	-0,048	-0,043
-427,846	22,166	0,014	-0,008
-426,832	28,863	0,058	0,036
-425,817	-200,000	-0,009	-0,062
-424,803	-200,000	0,033	-0,166
-423,788	438,897	0,041	-0,066
-422,773	-27,650	0,101	-0,042
-421,759	3,575	0,067	0,035
-420,744	-200,000	0,004	-0,098
-419,730	637,836	-0,084	-0,155
-418,715	54,659	-0,117	0,082
-417,701	55,012	0,125	-0,088
-416,686	800,000	0,044	-0,105
-415,671	-200,000	0,010	0,040
-414,657	-152,606	0,049	-0,002
-413,642	-200,000	0,020	-0,082
-412,628	21,651	0,081	-0,048
-411,613	38,043	-0,164	-0,106
-410,598	-90,250	0,058	-0,012
-409,584	-157,889	0,178	-0,008
-408,569	120,700	0,033	0,029
-407,555	17,600	0,060	-0,035
-406,540	-157,758	-0,158	-0,007
-405,525	-200,000	0,017	0,067
-404,511	-79,658	-0,034	0,008
-403,496	800,000	-0,061	-0,134
-402,482	-200,000	0,005	-0,183
-401,467	-75,759	0,172	0,044
-400,452	-116,488	0,053	0,007
-399,438	-200,000	0,001	-0,075
-398,423	-126,635	-0,055	-0,006
-397,409	-26,969	-0,053	-0,022
-396,394	786,802	-0,016	0,032
-395,379	800,000	0,038	-0,109
-394,365	-116,048	-0,084	0,011
-393,350	800,000	0,048	0,112
-392,336	-117,311	0,038	-0,005
-391,321	-26,662	0,081	0,034
-390,306	223,011	-0,054	-0,064
-389,292	-200,000	0,011	-0,065
-388,277	-98,262	0,073	-0,014
-387,263	-200,000	-0,005	0,087
-386,248	-200,000	-0,000	-0,044
-385,233	-98,153	0,146	-0,027
-384,219	137,090	0,154	0,146
-383,204	-182,621	0,040	-0,001
-382,190	45,439	-0,079	0,053
-381,175	-200,000	0,001	0,018
-380,160	-3,926	-0,084	0,042
-379,146	-106,556	0,097	0,016
-378,131	490,686	0,042	0,070
-377,117	83,252	-0,062	0,049
-376,102	800,000	0,040	-0,104
-375,088	39,043	-0,081	0,052
-374,073	21,460	0,023	-0,013
-373,058	491,957	0,068	0,113
-372,044	800,000	-0,067	0,149
-371,029	-200,000	-0,002	0,168
-370,015	-124,031	-0,046	-0,005
-369,000	-200,000	0,014	-0,133
-367,985	800,000	0,080	0,166
-366,971	800,000	0,024	0,070
-365,956	1,495	0,068	-0,036
-364,942	800,000	0,053	0,121
-363,927	-40,047	0,078	0,030
-362,912	-54,309	0,018	-0,006
-361,898	-200,000	0,003	-0,166
-360,883	-45,162	-0,043	0,015
-359,869	-113,822	0,079	0,011
-358,854	12,647	0,160	0,090
-357,839	29,413	0,087	0,053
-356,825	-115,725	0,255	0,034
-355,810	28,808	0,050	0,031
-354,796	-114,193	-0,039	0,005
-353,781	10,051	-0,107	0,059
-352,766	-200,000	-0,011	-0,036
-351,752	800,000	0,038	-0,087
-350,737	-28,305	0,085	-0,035
-349,723	-90,446	-0,144	0,030
-348,708	-200,000	-0,025	0,083
-347,693	800,000	0,027	0,059
-346,679	-200,000	-0,005	-0,038
-345,664	-200,000	-0,006	0,078
-344,650	-200,000	0,012	0,072
-343,635	-43,309	0,132	-0,048
-342,620	-75,683	-0,068	0,018
-341,606	-70,935	-0,033	-0,009
-340,591	386,886	0,049	-0,073
-339,577	-44,362	0,033	0,012
-338,562	103,082	-0,021	-0,018
-337,548	606,062	-0,030	0,054
-336,533	-58,665	0,078	-0,024
-335,518	755,767	0,069	0,136
-334,504	254,162	-0,040	-0,050
-333,489	-200,000	0,014	-0,052
-332,475	363,576	-0,052	0,076
-331,460	-45,406	-0,136	0,049
-330,445	800,000	0,025	0,071
-329,431	-62,091	0,033	0,010
-328,416	158,344	0,059	0,059
-327,402	-200,000	-0,023	0,184
-326,387	-77,742	0,082	-0,020
-325,372	-113,347	0,109	-0,015
-324,358	-74,716	-0,049	-0,013
-323,343	-162,717	0,072	-0,002
-322,329	800,000	0,034	0,090
-321,314	19,467	0,108	0,063
-320,299	295,075	-0,027	0,035
-319,285	87,308	-0,106	0,085
-318,270	-29,891	-0,113	-0,047
-317,256	120,634	-0,125	-0,113
-316,241	127,438	0,021	-0,019
-315,226	143,929	0,061	-0,059
-314,212	51,220	0,123	0,085
-313,197	-98,971	0,070	0,013
-312,183	-200,000	-0,034	-0,133
-311,168	-103,486	-0,067	-0,011
-310,153	-69,658	0,037	0,010
-309,139	-96,329	-0,159	-0,030
-308,124	137,544	0,056	-0,053
-307,110	206,375	0,067	0,076
-306,095	146,162	-0,082	-0,080
-305,080	352,416	-0,054	-0,079
-304,066	-53,718	0,074	-0,024
-303,051	9,936	-0,183	-0,101
-302,037	800,000	0,048	0,132
-301,022	44,052	0,074	-0,049
-300,008	-200,000	-0,008	-0,062
-298,993	-172,103	-0,038	-0,001
-297,978	103,781	0,058	-0,049
-296,964	-120,806	0,005	0,001
-295,949	-200,000	-0,019	-0,112
-294,935	57,988	-0,216	-0,153
-293,920	103,554	0,028	-0,024
-292,905	-37,056	-0,145	-0,056
-291,891	99,193	0,041	0,034
-290,876	-200,000	-0,014	0,061
-289,862	-77,452	-0,070	0,018
-288,847	800,000	0,059	-0,140
-287,832	108,970	0,074	-0,064
-286,818	-58,850	0,011	0,004
-285,803	-163,799	0,036	0,001
-284,789	-200,000	-0,010	0,171
-283,774	355,846	0,054	0,078
-282,759	139,036	0,107	0,102
-281,745	21,492	-0,083	0,049
-280,730	800,000	-0,020	0,051
-279,716	-200,000	0,017	-0,062
-278,701	-200,000	0,005	0,045
-277,686	-9,241	0,035	-0,017
-276,672	335,329	0,066	-0,093
-275,657	403,456	-0,033	0,050
-274,643	347,092	-0,064	-0,091
-273,628	-200,000	-0,001	0,122
-272,613	579,349	0,054	-0,097
-271,599	-154,577	0,027	-0,001
-270,584	-200,000	0,030	0,118
-269,570	800,000	0,051	-0,119
-268,555	384,747	0,083	0,124
-267,540	149,851	-0,025	-0,025
-266,526	-93,234	-0,028	-0,006
-265,511	-72,879	-0,081	0,021
-264,497	-156,931	0,132	-0,006
-263,482	294,538	0,046	0,061
-262,467	-200,000	0,013	0,044
-261,453	578,219	0,032	0,057
-260,438	-200,000	-0,028	0,108
-259,424	-2,194	0,114	0,058
-258,409	56,707	0,103	-0,072
-257,395	-200,000	0,004	-0,158
-256,380	800,000	-0,022	-0,063
-255,365	800,000	0,052	0,157
-254,351	3,302	-0,053	-0,028
-253,336	-200,000	-0,008	0,037
-252,322	64,882	-0,066	-0,048
-251,307	800,000	0,052	0,148
-250,292	-200,000	-0,002	0,210
-249,278	-200,000	0,009	0,034
-248,263	28,754	-0,063	0,038
-247,249	303,809	0,042	-0,056
-246,234	-43,829	0,106	-0,038
-245,219	-200,000	-0,032	0,115
-244,205	800,000	0,011	-0,024
-243,190	117,098	-0,076	-0,067
-242,176	27,340	-0,050	0,030
-241,161	-200,000	0,010	0,052
-240,146	-60,775	0,040	0,012
-239,132	800,000	-0,028	0,057
-238,117	-52,488	-0,083	-0,028
-237,103	106,623	-0,057	-0,049
-236,088	-6,866	0,020	0,010
-235,073	-200,000	-0,011	0,066
-234,059	-200,000	0,006	0,039
-233,044	-125,356	0,012	-0,001
-232,030	-200,000	-0,002	-0,030
-231,015	639,876	-0,033	-0,062
-230,000	-200,000	-0,003	-0,047
-228,986	398,818	0,024	0,036
-227,971	-200,000	0,009	0,031
-226,957	392,065	0,165	0,248
-225,942	357,924	-0,046	0,066
-224,927	6,744	-0,066	-0,036
-223,913	173,556	-0,016	0,016
-222,898	-200,000	-0,016	-0,068
-221,884	318,232	0,069	0,094
-220,869	137,648	0,044	0,042
-219,855	-200,000	0,006	-0,050
-218,840	-141,869	-0,069	-0,005
-217,825	88,769	0,089	0,072
-216,811	323,330	-0,086	0,119
-215,796	-60,957	0,069	0,021
-214,782	-200,000	-0,004	0,067
-213,767	-200,000	0,051	0,165
-212,752	-56,870	-0,039	0,012
-211,738	-107,791	0,247	0,038
-210,723	-46,817	-0,194	0,068
-209,709	333,445	-0,048	-0,067
-208,694	-200,000	-0,011	-0,100
-207,679	-47,402	-0,083	0,029
-206,665	-200,000	0,029	0,182
-205,650	357,953	-0,030	0,043
-204,636	-62,641	0,117	0,035
-203,621	697,408	-0,059	0,112
-202,606	-56,988	-0,051	-0,016
-201,592	339,252	-0,061	-0,086
-200,577	-65,142	-0,120	0,035
-199,563	800,000	-0,062	0,136
-198,548	800,000	-0,034	0,078
-197,533	-39,672	0,057	0,021
-196,519	130,940	0,051	0,048
-195,504	-200,000	0,021	-0,103
-194,490	-139,025	0,084	0,007
-193,475	-164,306	-0,066	0,002
-192,460	374,885	-0,049	0,072
-191,446	-200,000	-0,007	-0,105
-190,431	215,398	-0,026	0,030
-189,417	-141,861	0,067	-0,005
-188,402	-142,991	-0,112	0,008
-187,387	-72,024	0,109	0,029
-186,373	800,000	0,026	0,054
-185,358	-200,000	-0,021	0,136
-184,344	16,291	-0,032	-0,018
-183,329	235,894	-0,124	0,148
-182,315	227,272	-0,139	0,163
-181,300	800,000	0,011	-0,034
-180,285	-200,000	-0,043	-0,158
-179,271	-63,553	-0,065	0,019
-178,256	-45,202	0,095	-0,034
-177,242	-174,518	-0,063	0,001
-176,227	-83,834	0,037	-0,008
-175,212	-200,000	0,042	0,195
-174,198	55,713	-0,100	0,070
-173,183	-63,351	-0,092	-0,027
-172,169	27,612	0,105	-0,064
-171,154	171,701	0,060	0,062
-170,139	126,056	0,075	0,068
-169,125	191,578	-0,121	0,132
-168,110	301,628	-0,093	0,125
-167,096	156,576	0,051	0,051
-166,081	-181,960	-0,095	-0,001
-165,066	328,949	0,050	-0,069
-164,052	800,000	0,069	-0,139
-163,037	288,111	0,059	-0,078
-162,023	800,000	0,030	0,063
-161,008	79,472	0,079	0,061
-159,993	176,603	-0,036	0,038
-158,979	141,149	0,102	-0,097
-157,964	-85,560	-0,145	-0,032
-156,950	-200,000	-0,030	-0,112
-155,935	35,854	-0,072	0,046
-154,920	137,360	0,060	0,057
-153,906	64,181	0,146	0,106
-152,891	-200,000	0,007	-0,023
-151,877	17,243	-0,060	0,034
-150,862	800,000	0,013	0,029
-149,847	161,600	0,020	-0,020
-148,833	-78,711	-0,084	0,020
-147,818	-60,323	-0,102	0,031
-146,804	-121,086	-0,098	0,012
-145,789	-24,539	-0,100	0,043
-144,775	-6,164	-0,168	0,082
-143,760	-17,534	-0,127	-0,057
-142,745	-35,586	-0,045	0,017
-141,731	-63,925	0,023	-0,007
-140,716	-200,000	0,013	0,070
-139,702	-102,933	0,061	0,010
-138,687	708,167	-0,090	0,172
-137,672	-200,000	-0,012	0,083
-136,658	800,000	0,027	0,081
-135,643	800,000	0,038	0,079
-134,629	665,292	0,041	0,077
-133,614	-40,323	-0,094	-0,035
-132,599	241,790	0,061	0,074
-131,585	-106,994	0,092	-0,015
-130,570	-13,708	-0,111	-0,051
-129,556	-79,778	-0,225	-0,054
-128,541	-61,018	-0,092	-0,028
-127,526	331,833	0,058	-0,081
-126,512	-70,151	0,101	0,028
-125,497	467,176	0,070	0,113
-124,483	-200,000	-0,002	0,072
-123,468	150,844	-0,025	0,024
-122,453	-200,000	-0,008	0,091
-121,439	800,000	0,018	-0,049
-120,424	186,432	-0,042	0,045
-119,410	-200,000	0,031	0,208
