DTS Sentinel unit serial number:	SN410029Multiplexer serial number:	ORYXHardware model number:	OX2-SRSoftware version number:	ORYX F/W v4,00 Oryx Data Collector v3.7.2.0data status	okinstallation	B5 Nyhavnadifferential loss correction	single-endedforward channel	channel 2reverse channel	N/Adate	2023/12/12time	11:12:13forward acquisition time	300,00reverse acquisition time	0,00gamma	499,1914k internal	0,3158k external	0,3158temperature offset calibration	1,0000default loss term (dB/km)	0,3820temperature slope calibration	1,0000multiplexer offset coefficient	1,0000multiplexer slope coefficient	1,0000fibre end	0,00T internal ref (°C)	15,04T ext. ref 1 (°C)	-1,15T ext. ref 2 (°C)	-1,40length (m)	temperature (°C)	Stokes	anti-Stokes-744,400	233,305	0,030	0,036
-743,385	-115,033	-0,225	-0,031
-742,371	-173,432	0,162	-0,004
-741,356	-51,429	-0,373	0,128
-740,342	203,825	0,096	0,110
-739,327	-159,825	-0,331	-0,013
-738,312	100,947	0,075	-0,064
-737,298	-148,558	-0,399	-0,024
-736,283	-200,000	-0,021	0,223
-735,269	238,658	-0,168	0,207
-734,254	-51,543	0,066	0,023
-733,239	-30,028	-0,602	-0,251
-732,225	-49,833	0,106	-0,037
-731,210	210,982	0,088	0,102
-730,196	-200,000	0,014	-0,119
-729,181	800,000	0,035	0,078
-728,167	-200,000	-0,016	0,070
-727,152	-200,000	-0,059	-0,202
-726,137	138,109	-0,127	0,123
-725,123	-200,000	0,005	-0,097
-724,108	9,856	-0,188	-0,105
-723,094	-200,000	0,009	-0,171
-722,079	-200,000	-0,023	-0,081
-721,064	276,256	-0,036	0,047
-720,050	517,525	0,040	-0,069
-719,035	142,327	0,073	-0,072
-718,021	-200,000	-0,010	-0,035
-717,006	800,000	0,017	-0,038
-715,991	-200,000	-0,016	-0,075
-714,977	-200,000	-0,001	-0,069
-713,962	-200,000	-0,024	0,183
-712,948	-169,947	-0,043	0,001
-711,933	39,255	-0,114	0,075
-710,918	287,072	-0,079	-0,105
-709,904	-200,000	-0,003	-0,049
-708,889	42,043	-0,095	-0,064
-707,875	391,346	0,050	-0,076
-706,860	-33,746	0,107	0,043
-705,845	-39,330	0,121	0,047
-704,831	57,625	0,112	0,080
-703,816	-41,763	-0,109	-0,041
-702,802	-165,105	-0,078	0,003
-701,787	800,000	0,017	-0,045
-700,772	800,000	0,050	-0,119
-699,758	549,307	-0,045	-0,080
-698,743	104,671	-0,067	0,058
-697,729	-34,954	-0,086	0,034
-696,714	-48,926	0,043	0,015
-695,699	-200,000	-0,011	-0,058
-694,685	-200,000	0,007	-0,095
-693,670	-97,696	0,053	0,010
-692,656	135,000	0,066	-0,063
-691,641	626,653	0,035	0,065
-690,627	-116,243	0,087	0,012
-689,612	-200,000	-0,038	-0,158
-688,597	800,000	0,019	0,059
-687,583	800,000	0,012	0,026
-686,568	130,428	-0,036	0,034
-685,554	199,701	-0,061	0,069
-684,539	-77,259	0,089	0,023
-683,524	-145,509	-0,064	-0,004
-682,510	-57,559	-0,138	-0,044
-681,495	-59,164	-0,079	-0,025
-680,481	800,000	-0,064	0,134
-679,466	-177,963	0,011	-0,000
-678,451	-2,186	-0,042	0,022
-677,437	-103,992	-0,041	-0,007
-676,422	105,913	0,017	0,015
-675,408	-144,049	-0,139	0,009
-674,393	-200,000	-0,018	-0,063
-673,378	28,950	-0,083	0,052
-672,364	509,805	-0,086	-0,148
-671,349	65,047	-0,112	0,083
-670,335	94,400	-0,061	0,051
-669,320	-200,000	0,010	-0,072
-668,305	-39,352	-0,137	0,052
-667,291	176,641	-0,066	-0,071
-666,276	-153,595	-0,236	-0,012
-665,262	298,103	-0,084	-0,113
-664,247	-200,000	-0,003	0,064
-663,232	800,000	-0,037	-0,083
-662,218	-200,000	-0,002	0,065
-661,203	314,735	-0,118	0,164
-660,189	109,781	-0,124	0,110
-659,174	538,961	-0,029	-0,051
-658,159	-200,000	0,001	-0,035
-657,145	22,996	-0,076	0,046
-656,130	-200,000	-0,007	0,034
-655,116	-200,000	0,001	-0,080
-654,101	49,874	0,140	0,097
-653,086	-61,861	-0,113	0,034
-652,072	-149,655	0,061	0,003
-651,057	725,702	-0,062	-0,121
-650,043	118,700	-0,075	-0,068
-649,028	800,000	0,010	-0,023
-648,014	-100,341	0,029	0,005
-646,999	33,169	-0,148	0,094
-645,984	-110,900	-0,068	-0,010
-644,970	-44,576	-0,083	-0,030
-643,955	-91,237	-0,117	0,024
-642,941	-200,000	-0,012	-0,100
-641,926	-200,000	-0,028	-0,099
-640,911	-30,636	-0,042	-0,018
-639,897	143,295	0,031	0,031
-638,882	-200,000	-0,033	-0,127
-637,868	382,105	-0,060	0,091
-636,853	800,000	0,028	-0,073
-635,838	-200,000	0,008	-0,091
-634,824	64,428	-0,101	0,074
-633,809	-44,094	-0,062	-0,023
-632,795	800,000	0,047	-0,119
-631,780	-48,399	0,018	0,006
-630,765	26,425	0,079	0,049
-629,751	316,708	-0,056	0,078
-628,736	-200,000	-0,001	0,028
-627,722	-19,990	-0,172	-0,077
-626,707	-63,390	-0,182	-0,055
-625,692	-94,672	0,178	0,035
-624,678	-200,000	0,030	-0,106
-623,663	-176,707	0,066	0,001
-622,649	-200,000	0,018	-0,135
-621,634	800,000	-0,044	-0,115
-620,619	224,200	-0,061	-0,073
-619,605	68,221	-0,076	-0,057
-618,590	-21,847	0,076	0,034
-617,576	-121,674	-0,140	-0,017
-616,561	800,000	0,055	-0,127
-615,546	800,000	0,005	-0,013
-614,532	-200,000	0,005	-0,078
-613,517	-200,000	0,033	-0,108
-612,503	97,714	-0,078	0,066
-611,488	-51,466	0,127	0,043
-610,474	-165,704	0,034	-0,001
-609,459	-200,000	0,019	0,115
-608,444	800,000	-0,026	-0,082
-607,430	-131,826	-0,026	0,003
-606,415	-200,000	0,004	0,173
-605,401	306,860	-0,025	0,034
-604,386	146,794	0,113	0,111
-603,371	-69,784	-0,088	-0,025
-602,357	117,495	-0,061	-0,055
-601,342	14,991	0,071	-0,040
-600,328	45,006	-0,101	0,068
-599,313	-126,083	-0,078	-0,009
-598,298	-158,390	-0,009	0,000
-597,284	-162,914	0,024	-0,001
-596,269	-133,776	0,049	-0,004
-595,255	552,344	0,016	0,029
-594,240	-131,265	0,063	0,006
-593,225	75,584	-0,123	0,095
-592,211	4,975	-0,154	-0,083
-591,196	800,000	-0,026	-0,077
-590,182	-200,000	-0,011	-0,044
-589,167	576,571	-0,094	0,169
-588,152	-200,000	-0,012	0,062
-587,138	697,379	0,029	-0,056
-586,123	-103,508	-0,132	0,023
-585,109	-200,000	-0,004	-0,028
-584,094	332,853	0,059	0,083
-583,079	449,856	-0,046	0,075
-582,065	-200,000	0,019	0,072
-581,050	283,915	-0,013	-0,017
-580,036	800,000	0,027	0,069
-579,021	39,912	-0,180	0,118
-578,006	110,665	0,025	-0,022
-576,992	347,168	0,032	-0,046
-575,977	-200,000	-0,005	-0,042
-574,963	800,000	-0,037	-0,081
-573,948	-200,000	0,005	0,036
-572,934	-200,000	0,036	0,117
-571,919	-124,145	-0,142	-0,016
-570,904	-200,000	-0,028	-0,175
-569,890	-200,000	-0,014	0,126
-568,875	-24,611	-0,097	0,042
-567,861	-200,000	-0,034	0,193
-566,846	-70,427	0,101	-0,028
-565,831	192,517	-0,034	-0,038
-564,817	123,813	-0,063	0,058
-563,802	-143,437	-0,063	0,004
-562,788	-58,404	0,192	-0,061
-561,773	800,000	-0,015	-0,032
-560,758	184,253	0,036	-0,039
-559,744	-89,964	-0,090	0,019
-558,729	-22,611	0,078	0,035
-557,715	-24,973	-0,134	0,058
-556,700	81,212	0,068	-0,054
-555,685	800,000	-0,045	-0,117
-554,671	-49,455	-0,083	-0,029
-553,656	218,824	0,075	0,087
-552,642	-200,000	-0,012	0,042
-551,627	-136,520	-0,180	0,015
-550,612	117,746	-0,088	-0,079
-549,598	23,783	-0,116	0,070
-548,583	525,519	0,046	-0,080
-547,569	60,676	-0,108	-0,078
-546,554	-154,448	-0,123	-0,006
-545,539	-90,481	0,188	0,040
-544,525	14,138	-0,007	0,004
-543,510	800,000	-0,044	-0,102
-542,496	800,000	-0,025	0,078
-541,481	-96,258	-0,108	-0,021
-540,466	-8,284	0,064	0,031
-539,452	265,878	-0,063	-0,080
-538,437	-19,773	-0,063	-0,028
-537,423	800,000	-0,035	0,105
-536,408	-20,626	0,083	0,037
-535,393	541,425	0,042	-0,074
-534,379	-61,662	-0,056	0,017
-533,364	-125,495	0,062	-0,007
-532,350	-144,183	0,117	-0,008
-531,335	344,046	-0,038	-0,055
-530,321	800,000	0,032	0,085
-529,306	58,629	0,070	0,050
-528,291	500,827	0,106	-0,179
-527,277	-100,231	-0,156	0,028
-526,262	-80,666	-0,078	-0,019
-525,248	-200,000	0,027	-0,093
-524,233	-125,796	0,108	0,012
-523,218	800,000	-0,068	0,139
-522,204	-27,922	0,079	-0,033
-521,189	170,514	-0,088	-0,092
-520,175	-200,000	-0,007	-0,029
-519,160	70,107	0,080	0,061
-518,145	800,000	-0,051	0,107
-517,131	93,686	0,055	-0,045
-516,116	-200,000	-0,043	-0,139
-515,102	-200,000	0,039	-0,172
-514,087	-76,858	-0,064	0,016
-513,072	155,831	-0,037	-0,037
-512,058	0,378	0,043	-0,022
-511,043	-63,715	-0,069	0,021
-510,029	-127,812	0,068	-0,007
-509,014	174,599	0,089	0,094
-507,999	800,000	0,010	0,021
-506,985	800,000	-0,060	-0,125
-505,970	-200,000	-0,038	-0,134
-504,956	71,841	-0,055	0,042
-503,941	227,146	-0,034	0,040
-502,926	184,348	-0,062	-0,067
-501,912	-13,393	-0,042	-0,020
-500,897	533,431	-0,027	0,047
-499,883	-200,000	-0,026	0,107
-498,868	-200,000	-0,009	0,130
-497,853	-120,115	-0,172	-0,021
-496,839	455,022	0,053	-0,085
-495,824	86,554	0,098	0,079
-494,810	350,972	0,078	0,112
-493,795	-146,695	0,077	0,005
-492,781	-200,000	-0,010	0,064
-491,766	215,336	-0,063	0,073
-490,751	176,236	-0,023	0,025
-489,737	800,000	0,024	0,071
-488,722	60,520	0,097	0,070
-487,708	800,000	0,006	-0,020
-486,693	-200,000	-0,050	-0,185
-485,678	-200,000	-0,011	0,043
-484,664	525,155	0,045	-0,078
-483,649	63,328	-0,121	0,088
-482,635	-200,000	-0,027	0,088
-481,620	69,812	0,047	0,035
-480,605	800,000	-0,043	0,092
-479,591	121,925	-0,040	0,036
-478,576	70,616	-0,104	-0,078
-477,562	-200,000	0,030	-0,162
-476,547	12,338	-0,069	-0,039
-475,532	129,884	-0,025	-0,023
-474,518	96,588	-0,066	-0,055
-473,503	800,000	0,036	-0,112
-472,489	91,907	0,056	-0,046
-471,474	-20,648	-0,031	0,014
-470,459	-200,000	-0,010	0,148
-469,445	-200,000	0,038	0,141
-468,430	800,000	0,038	-0,091
-467,416	62,322	0,083	0,060
-466,401	-176,879	0,038	0,001
-465,386	191,425	0,102	0,112
-464,372	-169,902	0,092	-0,002
-463,357	-87,077	0,088	0,019
-462,343	31,406	0,108	-0,067
-461,328	130,367	-0,057	-0,053
-460,313	81,244	0,098	-0,077
-459,299	49,504	0,087	-0,060
-458,284	52,146	-0,078	0,054
-457,270	243,401	0,009	0,011
-456,255	-200,000	-0,009	-0,085
-455,241	699,054	0,037	-0,072
-454,226	-200,000	-0,002	-0,062
-453,211	337,953	-0,048	-0,068
-452,197	61,346	0,029	-0,021
-451,182	90,591	0,029	0,024
-450,168	-166,899	0,076	-0,002
-449,153	255,221	-0,081	0,101
-448,138	-200,000	0,001	0,070
-447,124	800,000	-0,011	-0,030
-446,109	90,448	0,051	-0,042
-445,095	730,375	0,067	0,132
-444,080	800,000	0,005	0,015
-443,065	800,000	0,038	-0,099
-442,051	202,833	-0,028	0,032
-441,036	-43,683	-0,093	0,034
-440,022	-121,232	0,085	0,010
-439,007	-104,262	0,116	0,019
-437,992	-200,000	0,009	-0,039
-436,978	558,444	0,068	0,121
-435,963	-130,477	0,046	0,004
-434,949	-200,000	-0,023	0,104
-433,934	719,605	-0,041	0,080
-432,919	-200,000	0,014	-0,060
-431,905	419,920	-0,127	-0,199
-430,890	90,602	-0,079	-0,064
-429,876	-200,000	-0,003	0,084
-428,861	-200,000	-0,024	0,102
-427,846	800,000	-0,046	-0,104
-426,832	-200,000	-0,001	-0,060
-425,817	43,422	0,097	-0,064
-424,803	800,000	-0,020	0,048
-423,788	-200,000	-0,004	-0,108
-422,773	-200,000	0,002	0,009
-421,759	-200,000	0,017	0,132
-420,744	800,000	-0,033	0,087
-419,730	-200,000	-0,042	-0,149
-418,715	-117,585	-0,140	-0,018
-417,701	-200,000	-0,007	0,053
-416,686	-200,000	0,015	0,093
-415,671	-85,986	0,026	0,006
-414,657	191,051	0,106	0,116
-413,642	-200,000	-0,006	0,148
-412,628	556,729	-0,067	-0,118
-411,613	247,367	-0,069	-0,085
-410,598	-23,190	0,139	-0,060
-409,584	800,000	0,022	0,051
-408,569	800,000	0,068	-0,166
-407,555	-85,430	0,179	-0,040
-406,540	-149,720	0,036	-0,002
-405,525	-93,137	-0,113	0,023
-404,511	-22,910	-0,180	0,079
-403,496	571,628	0,031	-0,055
-402,482	-63,099	-0,066	0,020
-401,467	421,480	-0,044	0,069
-400,452	-200,000	0,007	0,107
-399,438	65,765	-0,042	-0,031
-398,423	-200,000	-0,136	-0,000
-397,409	-17,833	-0,048	0,022
-396,394	366,092	0,032	-0,048
-395,379	-22,254	0,170	-0,074
-394,365	121,423	0,038	-0,034
-393,350	-200,000	0,025	-0,163
-392,336	-3,808	-0,038	0,019
-391,321	689,810	-0,056	0,107
-390,306	337,888	0,049	0,069
-389,292	-129,640	-0,046	0,005
-388,277	-79,412	-0,177	-0,043
-387,263	-126,306	0,102	-0,011
-386,248	387,014	-0,085	0,128
-385,233	800,000	0,049	0,146
-384,219	800,000	0,064	-0,160
-383,204	-53,967	-0,137	0,045
-382,190	-91,157	-0,113	-0,023
-381,175	-200,000	-0,019	0,081
-380,160	289,760	0,042	0,056
-379,146	800,000	-0,067	0,160
-378,131	11,068	-0,088	-0,049
-377,117	269,127	-0,052	-0,067
-376,102	800,000	0,030	-0,070
-375,088	-77,180	0,008	0,002
-374,073	111,712	0,073	-0,064
-373,058	362,145	0,086	-0,125
-372,044	800,000	-0,038	-0,090
-371,029	-200,000	-0,017	-0,095
-370,015	27,285	-0,049	-0,030
-369,000	338,439	0,065	-0,093
-367,985	148,197	-0,014	-0,014
-366,971	800,000	-0,015	0,037
-365,956	18,258	0,080	-0,046
-364,942	-66,251	0,065	0,019
-363,927	800,000	0,022	0,066
-362,912	-200,000	-0,018	-0,111
-361,898	-15,127	-0,076	-0,035
-360,883	52,300	0,034	-0,023
-359,869	255,060	-0,085	-0,106
-358,854	-200,000	-0,032	-0,125
-357,839	-200,000	-0,012	0,067
-356,825	-181,853	0,066	0,001
-355,810	-6,331	0,088	0,043
-354,796	409,853	0,031	0,048
-353,781	77,634	-0,045	0,034
-352,766	-131,796	0,094	0,009
-351,752	150,833	0,039	0,039
-350,737	61,969	-0,010	0,007
-349,723	7,344	0,079	-0,043
-348,708	-67,670	0,099	-0,028
-347,693	-121,338	-0,165	-0,020
-346,679	800,000	-0,010	0,023
-345,664	-166,812	0,128	-0,004
-344,650	18,008	-0,113	0,065
-343,635	10,693	0,066	-0,037
-342,620	389,993	-0,018	0,028
-341,606	-47,116	0,076	-0,027
-340,591	6,350	-0,053	-0,028
-339,577	800,000	0,059	-0,129
-338,562	-200,000	-0,093	-0,000
-337,548	366,054	0,032	0,048
-336,533	70,642	-0,051	0,038
-335,518	800,000	0,037	0,105
-334,504	-200,000	0,029	0,162
-333,489	-200,000	0,017	-0,109
-332,475	-144,180	0,040	-0,003
-331,460	800,000	0,038	-0,077
-330,445	-200,000	-0,021	0,123
-329,431	-126,123	-0,020	0,002
-328,416	-94,298	0,131	-0,026
-327,402	-164,025	-0,043	0,001
-326,387	424,260	-0,031	-0,049
-325,372	231,837	-0,025	-0,029
-324,358	-113,821	-0,079	0,011
-323,343	-200,000	-0,024	-0,115
-322,329	-140,818	0,073	-0,005
-321,314	585,148	-0,059	0,105
-320,299	-200,000	-0,020	0,162
-319,285	304,642	-0,046	-0,062
-318,270	187,845	0,035	0,038
-317,256	57,051	0,072	0,051
-316,241	-200,000	0,026	-0,089
-315,226	273,919	-0,051	-0,065
-314,212	-200,000	0,013	0,121
-313,197	-129,194	-0,006	0,001
-312,183	119,935	-0,075	-0,068
-311,168	18,572	0,057	-0,033
-310,153	22,976	0,010	-0,006
-309,139	173,786	-0,081	-0,085
-308,124	-200,000	-0,004	-0,012
-307,110	-200,000	0,024	0,126
-306,095	275,448	0,037	0,048
-305,080	-200,000	0,014	0,080
-304,066	-41,102	0,078	0,029
-303,051	-200,000	-0,028	-0,123
-302,037	-200,000	-0,014	-0,106
-301,022	571,334	-0,024	0,043
-300,008	-116,379	0,077	-0,010
-298,993	-140,094	0,089	-0,007
-297,978	96,212	0,087	-0,072
-296,964	10,538	-0,045	-0,025
-295,949	800,000	-0,044	-0,096
-294,935	16,739	-0,070	-0,040
-293,920	-7,055	-0,068	-0,034
-292,905	145,693	0,051	0,049
-291,891	-31,437	0,059	-0,024
-290,876	-95,383	0,027	-0,005
-289,862	-200,000	0,018	0,089
-288,847	-36,329	0,033	0,013
-287,832	-200,000	-0,036	-0,121
-286,818	60,192	-0,076	-0,055
-285,803	233,098	0,084	0,100
-284,789	800,000	0,040	0,094
-283,774	561,018	-0,033	-0,058
-282,759	-200,000	-0,015	0,085
-281,745	800,000	-0,033	0,068
-280,730	-82,124	-0,093	-0,022
-279,716	245,784	0,101	0,124
-278,701	-141,493	0,129	0,009
-277,686	800,000	-0,040	0,122
-276,672	800,000	-0,035	0,100
-275,657	686,763	0,031	-0,059
-274,643	-200,000	0,053	-0,175
-273,628	34,799	-0,092	-0,058
-272,613	-200,000	0,020	-0,110
-271,599	-11,509	0,140	0,067
-270,584	-139,311	0,031	0,002
-269,570	145,153	0,035	-0,034
-268,555	800,000	0,047	0,106
-267,540	605,785	0,028	-0,052
-266,526	22,521	-0,022	-0,013
-265,511	676,211	-0,042	0,080
-264,497	47,260	0,025	0,017
-263,482	-61,131	-0,078	0,024
-262,467	172,294	0,079	0,083
-261,453	-86,663	-0,109	-0,024
-260,438	25,949	0,055	-0,033
-259,424	-5,078	0,062	-0,031
-258,409	463,782	-0,031	0,051
-257,395	403,950	0,089	0,136
-256,380	-200,000	0,009	0,045
-255,365	301,478	0,067	0,090
-254,351	-200,000	0,004	0,017
-253,336	136,750	-0,052	-0,049
-252,322	-200,000	0,017	-0,174
-251,307	-200,000	0,001	-0,101
-250,292	-200,000	-0,022	0,204
-249,278	800,000	0,063	0,166
-248,263	-200,000	-0,003	-0,041
-247,249	281,278	-0,032	0,041
-246,234	280,510	-0,041	0,052
-245,219	121,495	-0,031	0,028
-244,205	122,758	-0,063	0,057
-243,190	-200,000	0,014	0,058
-242,176	126,670	0,093	-0,086
-241,161	-200,000	-0,001	0,030
-240,146	800,000	0,089	0,183
-239,132	11,531	-0,046	-0,026
-238,117	-114,609	0,066	0,009
-237,103	270,574	0,026	-0,034
-236,088	-200,000	-0,021	-0,111
-235,073	41,463	0,059	0,039
-234,059	-45,831	0,086	0,031
-233,044	-200,000	-0,091	0,000
-232,030	461,382	0,073	0,118
-231,015	-200,000	-0,004	-0,101
-230,000	602,993	-0,071	-0,127
-228,986	125,957	0,105	-0,096
-227,971	52,415	0,039	-0,027
-226,957	724,392	0,038	-0,073
-225,942	-59,690	-0,116	0,036
-224,927	316,027	0,050	-0,068
-223,913	75,832	0,102	0,078
-222,898	231,704	-0,048	-0,057
-221,884	-45,240	0,060	0,021
-220,869	800,000	-0,045	-0,092
-219,855	545,722	0,012	0,021
-218,840	226,335	-0,066	0,077
-217,825	-48,742	-0,092	-0,032
-216,811	-192,975	0,142	0,001
-215,796	800,000	0,064	-0,157
-214,782	57,286	-0,074	0,052
-213,767	150,427	0,060	0,059
-212,752	-48,951	0,081	0,028
-211,738	284,145	-0,054	0,070
-210,723	-200,000	-0,019	0,083
-209,709	693,865	0,069	0,131
-208,694	57,287	-0,048	-0,033
-207,679	122,558	-0,043	0,039
-206,665	-19,365	0,135	0,060
-205,650	-165,837	0,031	-0,001
-204,636	800,000	-0,026	0,056
-203,621	606,896	0,010	0,018
-202,606	-200,000	-0,014	0,060
-201,592	16,456	0,008	0,004
-200,577	-139,790	-0,068	-0,005
-199,563	-200,000	0,029	-0,104
-198,548	360,325	0,075	0,109
-197,533	-108,738	-0,035	0,005
-196,519	107,616	0,065	-0,056
-195,504	-26,479	-0,054	-0,023
-194,490	-50,003	0,074	0,025
-193,475	586,701	0,035	0,063
-192,460	-200,000	0,002	-0,016
-191,446	-4,157	0,061	0,030
-190,431	1,453	0,210	0,109
-189,417	134,667	0,105	0,098
-188,402	-79,456	-0,133	-0,032
-187,387	-200,000	0,019	0,107
-186,373	-200,000	0,017	0,188
-185,358	-200,000	0,030	-0,146
-184,344	-183,513	0,154	0,002
-183,329	-71,178	0,059	0,016
-182,315	295,781	0,048	-0,064
-181,300	-200,000	0,022	0,070
-180,285	415,987	0,075	-0,116
-179,271	436,126	-0,081	-0,128
-178,256	-1,682	0,068	0,034
-177,242	90,958	0,026	-0,021
-176,227	294,876	0,065	0,086
-175,212	-200,000	0,011	-0,056
-174,198	104,875	0,109	-0,092
-173,183	153,261	0,038	0,038
-172,169	20,751	-0,121	-0,070
-171,154	-200,000	-0,004	-0,080
-170,139	-186,693	-0,106	-0,001
-169,125	-142,648	-0,067	-0,005
-168,110	-200,000	-0,031	-0,102
-167,096	101,841	0,078	0,066
-166,081	-67,390	-0,012	-0,003
-165,066	-2,422	-0,037	-0,019
-164,052	602,759	0,010	0,019
-163,037	-38,575	-0,144	0,055
-162,023	-200,000	-0,019	-0,072
-161,008	-138,259	-0,049	-0,004
-159,993	-34,868	0,126	-0,049
-158,979	-200,000	0,019	-0,152
-157,964	-200,000	-0,017	0,092
-156,950	77,664	-0,081	0,062
-155,935	-200,000	-0,010	0,149
-154,920	188,471	0,062	-0,067
-153,906	158,906	0,094	0,094
-152,891	-60,320	0,124	-0,038
-151,877	90,328	-0,123	-0,099
-150,862	-200,000	-0,030	-0,142
-149,847	800,000	-0,035	-0,083
-148,833	-4,604	0,198	-0,098
-147,818	-64,176	0,054	-0,016
-146,804	800,000	-0,053	0,115
-145,789	380,337	0,043	0,064
-144,775	-200,000	0,011	0,044
-143,760	-200,000	-0,044	-0,170
-142,745	270,081	0,049	0,062
-141,731	-200,000	-0,025	0,119
-140,716	247,252	0,068	0,082
-139,702	-102,344	-0,015	0,003
-138,687	403,222	-0,049	-0,075
-137,672	-101,986	0,091	-0,016
-136,658	-93,964	-0,061	0,012
-135,643	-79,784	-0,056	0,014
-134,629	800,000	-0,024	0,060
-133,614	33,813	0,094	0,059
-132,599	48,772	0,033	-0,023
-131,585	78,520	0,029	-0,023
-130,570	-64,240	-0,113	-0,033
-129,556	354,636	0,057	0,082
-128,541	-82,466	-0,043	-0,010
-127,526	122,578	0,114	0,102
-126,512	-53,170	0,016	0,005
-125,497	402,049	-0,046	0,069
-124,483	-51,898	-0,058	-0,019
-123,468	-122,063	-0,074	0,009
-122,453	800,000	-0,051	-0,120
-121,439	-200,000	0,002	-0,088
-120,424	-200,000	-0,050	-0,177
