DTS Sentinel unit serial number:	SN410029Multiplexer serial number:	ORYXHardware model number:	OX2-SRSoftware version number:	ORYX F/W v4,00 Oryx Data Collector v3.7.2.0data status	okinstallation	B5 Nyhavnadifferential loss correction	single-endedforward channel	channel 2reverse channel	N/Adate	2023/12/11time	15:17:13forward acquisition time	300,00reverse acquisition time	0,00gamma	499,1914k internal	0,3166k external	0,3166temperature offset calibration	1,0000default loss term (dB/km)	0,3820temperature slope calibration	1,0000multiplexer offset coefficient	1,0000multiplexer slope coefficient	1,0000fibre end	0,00T internal ref (°C)	13,23T ext. ref 1 (°C)	-1,97T ext. ref 2 (°C)	-2,01length (m)	temperature (°C)	Stokes	anti-Stokes-744,400	121,434	0,058	-0,053
-743,385	-119,374	-0,261	0,033
-742,371	-146,823	0,085	0,005
-741,356	-164,376	-0,290	0,010
-740,342	0,741	0,180	0,094
-739,327	-110,086	-0,323	-0,049
-738,312	5,957	0,240	-0,130
-737,298	-72,370	-0,375	-0,101
-736,283	-71,819	0,124	0,034
-735,269	-143,731	-0,314	-0,022
-734,254	-90,772	0,032	-0,007
-733,239	-82,682	-0,492	-0,116
-732,225	-39,659	0,179	0,069
-731,210	800,000	-0,068	0,166
-730,196	109,965	0,039	-0,034
-729,181	31,077	-0,051	-0,032
-728,167	35,995	-0,039	-0,025
-727,152	-137,579	-0,026	0,002
-726,137	318,918	0,038	-0,053
-725,123	218,465	0,088	-0,103
-724,108	297,013	-0,155	-0,209
-723,094	22,440	-0,015	-0,009
-722,079	212,488	-0,158	-0,184
-721,064	697,630	-0,040	-0,078
-720,050	-200,000	0,006	-0,206
-719,035	131,171	-0,125	-0,118
-718,021	-85,167	-0,069	-0,016
-717,006	-88,561	-0,144	0,031
-715,991	-200,000	-0,005	-0,064
-714,977	-140,770	0,107	-0,008
-713,962	-159,051	-0,139	-0,006
-712,948	521,566	-0,030	-0,052
-711,933	244,631	-0,045	0,055
-710,918	800,000	-0,024	-0,074
-709,904	153,115	0,013	0,013
-708,889	617,948	0,025	-0,046
-707,875	800,000	0,013	-0,033
-706,860	346,451	-0,057	0,083
-705,845	282,030	-0,029	0,039
-704,831	273,932	-0,058	0,076
-703,816	778,316	-0,073	-0,148
-702,802	55,483	-0,005	0,004
-701,787	800,000	0,015	0,036
-700,772	-75,026	-0,073	0,019
-699,758	57,272	-0,027	-0,019
-698,743	-108,517	-0,040	0,006
-697,729	800,000	0,055	0,147
-696,714	163,444	0,121	0,125
-695,699	-77,967	-0,107	0,027
-694,685	36,004	-0,031	-0,020
-693,670	104,374	0,082	-0,071
-692,656	62,499	0,068	-0,050
-691,641	-200,000	0,005	-0,108
-690,627	-89,884	0,087	-0,018
-689,612	-19,522	0,038	-0,017
-688,597	325,153	0,078	-0,110
-687,583	-200,000	0,009	-0,143
-686,568	-54,475	-0,104	-0,034
-685,554	-4,766	-0,096	0,049
-684,539	-57,851	-0,161	0,051
-683,524	-200,000	-0,006	0,032
-682,510	-43,674	0,109	-0,040
-681,495	130,726	0,017	0,016
-680,481	523,239	-0,026	-0,045
-679,466	102,836	-0,075	0,065
-678,451	274,389	-0,064	-0,084
-677,437	-64,254	-0,084	-0,025
-676,422	-200,000	0,022	-0,083
-675,408	-23,311	-0,130	0,057
-674,393	228,757	-0,012	0,015
-673,378	-145,105	-0,139	0,009
-672,364	-200,000	-0,007	0,069
-671,349	-200,000	-0,021	-0,074
-670,335	-127,096	0,092	0,010
-669,320	191,974	-0,057	0,063
-668,305	-200,000	-0,019	-0,112
-667,291	800,000	0,024	0,071
-666,276	144,177	-0,106	-0,104
-665,262	305,266	-0,017	-0,023
-664,247	-200,000	-0,002	-0,048
-663,232	176,382	-0,041	0,044
-662,218	-115,825	0,151	-0,020
-661,203	800,000	-0,026	0,059
-660,189	83,957	-0,057	-0,046
-659,174	800,000	-0,033	0,078
-658,159	-200,000	0,005	-0,153
-657,145	800,000	-0,040	0,105
-656,130	800,000	-0,022	0,055
-655,116	232,386	-0,048	-0,057
-654,101	-200,000	-0,008	0,031
-653,086	220,601	-0,096	0,114
-652,072	291,670	0,046	0,062
-651,057	71,529	0,054	0,041
-650,043	800,000	0,029	-0,076
-649,028	537,558	-0,056	-0,097
-648,014	791,244	-0,062	-0,126
-646,999	175,903	0,009	0,010
-645,984	-180,345	0,092	0,001
-644,970	-37,360	-0,027	-0,011
-643,955	800,000	0,045	-0,107
-642,941	45,706	-0,171	-0,116
-641,926	91,938	0,070	-0,058
-640,911	-134,337	0,067	0,006
-639,897	-60,915	-0,159	0,049
-638,882	675,804	0,085	0,162
-637,868	131,279	0,066	0,062
-636,853	800,000	0,055	-0,129
-635,838	34,965	-0,159	-0,101
-634,824	-200,000	0,043	-0,164
-633,809	-200,000	0,019	0,077
-632,795	-175,127	0,068	-0,001
-631,780	-42,238	-0,071	0,027
-630,765	-43,093	-0,102	0,038
-629,751	-126,092	0,110	0,012
-628,736	-200,000	0,019	0,113
-627,722	800,000	-0,075	-0,200
-626,707	30,634	0,067	0,042
-625,692	-80,714	0,128	-0,031
-624,678	338,579	-0,031	0,044
-623,663	-165,667	-0,112	-0,003
-622,649	101,000	-0,079	-0,067
-621,634	800,000	-0,035	-0,090
-620,619	462,759	0,055	-0,090
-619,605	276,074	0,094	-0,122
-618,590	-90,781	0,090	0,019
-617,576	-200,000	0,023	-0,139
-616,561	-81,112	-0,128	-0,031
-615,546	-200,000	0,020	-0,099
-614,532	77,127	-0,072	0,056
-613,517	82,306	-0,093	-0,074
-612,503	-141,816	0,122	0,009
-611,488	167,919	0,096	0,100
-610,474	-13,749	0,050	-0,024
-609,459	6,434	-0,139	-0,075
-608,444	800,000	0,028	-0,063
-607,430	800,000	-0,030	-0,083
-606,415	-200,000	0,011	-0,072
-605,401	336,359	-0,075	-0,107
-604,386	800,000	-0,036	-0,075
-603,371	-200,000	-0,004	0,090
-602,357	240,793	-0,066	-0,081
-601,342	206,257	-0,013	0,014
-600,328	-27,077	-0,076	-0,032
-599,313	-200,000	-0,005	-0,035
-598,298	353,552	0,056	-0,082
-597,284	315,149	0,050	0,069
-596,269	36,637	0,208	0,134
-595,255	128,837	-0,114	0,107
-594,240	525,603	0,011	-0,019
-593,225	-47,128	-0,161	0,057
-592,211	-200,000	-0,033	-0,120
-591,196	-9,859	0,029	0,014
-590,182	306,597	0,049	0,067
-589,167	209,209	0,100	0,115
-588,152	-123,399	0,096	0,011
-587,138	-50,156	0,102	-0,035
-586,123	136,687	-0,085	-0,081
-585,109	422,909	-0,037	-0,059
-584,094	-200,000	0,004	-0,108
-583,079	-131,301	-0,064	0,006
-582,065	800,000	0,032	0,094
-581,050	800,000	-0,078	0,200
-580,036	-200,000	-0,012	0,074
-579,021	42,709	-0,054	-0,036
-578,006	-77,544	-0,082	-0,021
-576,992	-200,000	0,038	-0,226
-575,977	83,131	0,051	0,041
-574,963	368,746	-0,022	0,033
-573,948	-200,000	0,016	0,144
-572,934	800,000	-0,021	0,054
-571,919	-200,000	-0,010	-0,038
-570,904	-10,361	-0,203	-0,098
-569,890	342,739	0,057	0,081
-568,875	-33,954	0,045	-0,018
-567,861	-44,054	0,010	-0,004
-566,846	800,000	0,048	0,102
-565,831	800,000	-0,091	-0,185
-564,817	-93,696	0,010	0,002
-563,802	123,960	-0,121	-0,111
-562,788	116,900	0,081	-0,072
-561,773	-125,877	0,128	-0,014
-560,758	124,571	0,066	0,061
-559,744	283,857	-0,112	0,148
-558,729	-176,192	-0,134	-0,003
-557,715	193,683	-0,160	-0,177
-556,700	-200,000	-0,006	0,064
-555,685	-78,866	0,072	-0,018
-554,671	-81,032	-0,094	0,022
-553,656	-171,219	0,079	-0,002
-552,642	69,791	-0,095	0,072
-551,627	-125,013	-0,042	-0,005
-550,612	-102,365	-0,107	-0,019
-549,598	-155,859	-0,056	-0,003
-548,583	-128,790	-0,182	0,018
-547,569	800,000	0,026	-0,065
-546,554	15,427	0,146	-0,083
-545,539	-143,323	0,087	-0,006
-544,525	-164,667	-0,135	-0,004
-543,510	647,209	0,042	-0,079
-542,496	81,763	0,032	-0,026
-541,481	-52,573	-0,052	-0,018
-540,466	147,351	0,031	0,031
-539,452	-200,000	0,009	-0,030
-538,437	305,764	0,082	0,112
-537,423	800,000	-0,015	0,048
-536,408	111,640	0,034	-0,030
-535,393	-85,144	-0,101	-0,023
-534,379	202,698	-0,053	-0,060
-533,364	-109,869	-0,064	0,010
-532,350	165,828	0,078	-0,080
-531,335	454,189	-0,048	0,078
-530,321	800,000	-0,055	-0,154
-529,306	12,627	-0,045	0,026
-528,291	-200,000	0,000	0,048
-527,277	187,834	0,022	0,024
-526,262	137,619	0,082	-0,079
-525,248	237,904	0,053	0,064
-524,233	-200,000	0,044	0,150
-523,218	-200,000	-0,010	0,074
-522,204	-2,819	0,006	-0,003
-521,189	800,000	-0,048	-0,144
-520,175	-200,000	0,031	-0,126
-519,160	-168,010	-0,091	-0,003
-518,145	535,479	0,028	0,049
-517,131	146,299	0,068	0,067
-516,116	-200,000	0,001	0,077
-515,102	-158,301	0,092	0,004
-514,087	-120,037	0,092	-0,011
-513,072	-51,771	-0,079	0,027
-512,058	-71,762	0,051	0,014
-511,043	636,287	-0,075	-0,140
-510,029	-94,960	-0,041	-0,008
-509,014	800,000	-0,053	0,111
-507,999	-200,000	-0,006	0,038
-506,985	-59,824	-0,037	-0,012
-505,970	-200,000	-0,002	-0,057
-504,956	84,049	0,045	-0,036
-503,941	315,861	-0,048	0,066
-502,926	-161,004	0,096	0,004
-501,912	-106,218	0,153	0,025
-500,897	-200,000	0,013	-0,114
-499,883	-200,000	0,023	-0,133
-498,868	-62,333	-0,071	-0,021
-497,853	-6,519	0,021	-0,010
-496,839	434,491	0,095	0,150
-495,824	-46,685	0,063	0,022
-494,810	-146,060	0,081	-0,005
-493,795	800,000	0,041	0,092
-492,781	197,102	-0,073	-0,081
-491,766	327,069	-0,069	-0,096
-490,751	-56,907	-0,055	0,018
-489,737	-24,979	-0,113	0,048
-488,722	800,000	0,004	0,010
-487,708	-45,834	-0,010	-0,003
-486,693	248,965	0,046	-0,057
-485,678	-85,192	0,116	0,026
-484,664	26,419	-0,037	-0,022
-483,649	76,969	0,129	0,100
-482,635	82,264	-0,050	-0,040
-481,620	171,283	0,037	-0,039
-480,605	-75,673	0,103	0,026
-479,591	-94,106	-0,122	0,024
-478,576	-200,000	0,014	0,048
-477,562	-115,487	-0,074	0,010
-476,547	-39,210	-0,157	-0,060
-475,532	88,952	-0,049	-0,039
-474,518	-38,922	-0,014	0,005
-473,503	-109,944	0,123	-0,018
-472,489	-100,778	0,145	-0,026
-471,474	128,192	-0,070	-0,065
-470,459	96,960	0,026	0,021
-469,445	-200,000	0,010	-0,096
-468,430	800,000	0,041	0,119
-467,416	-200,000	-0,033	-0,118
-466,401	1,974	-0,073	0,038
-465,386	-200,000	0,013	-0,043
-464,372	42,116	0,018	-0,012
-463,357	280,764	-0,080	-0,105
-462,343	116,081	-0,022	0,019
-461,328	575,016	0,017	-0,030
-460,313	182,621	-0,040	0,043
-459,299	-120,526	-0,128	-0,016
-458,284	-200,000	-0,001	0,038
-457,270	-200,000	-0,035	0,146
-456,255	176,444	-0,087	0,091
-455,241	622,853	-0,042	-0,078
-454,226	-200,000	0,004	0,110
-453,211	-126,777	0,130	-0,014
-452,197	-110,669	0,075	-0,011
-451,182	-106,139	-0,029	0,005
-450,168	65,177	0,156	-0,115
-449,153	14,244	-0,022	0,013
-448,138	800,000	0,026	-0,058
-447,124	-6,809	0,089	0,044
-446,109	800,000	0,027	-0,086
-445,095	800,000	-0,057	0,158
-444,080	-118,721	0,091	-0,012
-443,065	800,000	-0,064	-0,132
-442,051	-109,147	0,079	-0,012
-441,036	-100,300	-0,127	0,023
-440,022	-68,032	0,034	-0,010
-439,007	348,285	0,071	0,103
-437,992	367,316	-0,063	-0,093
-436,978	-200,000	0,014	0,053
-435,963	-23,496	0,077	-0,033
-434,949	-200,000	-0,013	-0,089
-433,934	-200,000	0,014	-0,067
-432,919	-200,000	-0,047	-0,216
-431,905	800,000	0,028	-0,066
-430,890	164,390	0,048	0,049
-429,876	-161,076	0,189	0,007
-428,861	141,900	0,120	0,116
-427,846	608,752	-0,020	-0,036
-426,832	331,562	0,027	-0,038
-425,817	88,685	0,058	0,047
-424,803	-200,000	0,008	-0,148
-423,788	415,064	-0,038	0,060
-422,773	800,000	-0,037	0,116
-421,759	-123,712	0,176	0,020
-420,744	-135,641	0,037	-0,003
-419,730	-64,818	-0,056	-0,016
-418,715	-22,716	0,022	0,010
-417,701	-200,000	0,012	0,047
-416,686	800,000	-0,034	-0,106
-415,671	37,381	-0,067	0,043
-414,657	123,769	0,040	0,037
-413,642	-62,836	0,105	0,031
-412,628	45,314	-0,169	-0,113
-411,613	800,000	-0,036	-0,113
-410,598	-152,362	-0,170	0,009
-409,584	-43,789	0,144	0,052
-408,569	89,028	0,048	0,039
-407,555	15,698	0,126	0,072
-406,540	-200,000	-0,005	0,050
-405,525	117,040	0,074	0,066
-404,511	800,000	-0,020	-0,046
-403,496	71,916	0,036	0,027
-402,482	-200,000	0,000	0,116
-401,467	259,441	-0,054	0,068
-400,452	-200,000	-0,016	0,148
-399,438	-61,109	-0,162	-0,049
-398,423	-181,245	0,041	-0,001
-397,409	-200,000	0,001	-0,058
-396,394	218,301	-0,130	-0,151
-395,379	-200,000	0,001	0,014
-394,365	-45,339	0,172	0,061
-393,350	160,359	-0,080	0,081
-392,336	800,000	-0,019	-0,053
-391,321	-200,000	-0,006	0,079
-390,306	-0,708	-0,031	-0,016
-389,292	-53,493	-0,069	-0,023
-388,277	-200,000	0,016	-0,073
-387,263	30,321	0,093	-0,058
-386,248	-59,240	0,081	-0,025
-385,233	156,782	-0,059	-0,059
-384,219	-125,059	0,151	-0,017
-383,204	-96,021	-0,057	-0,011
-382,190	-200,000	-0,001	-0,052
-381,175	-200,000	-0,011	-0,084
-380,160	-104,509	0,054	0,009
-379,146	-200,000	0,043	0,140
-378,131	4,592	-0,086	-0,045
-377,117	-65,913	-0,070	0,020
-376,102	800,000	-0,059	-0,121
-375,088	800,000	-0,011	-0,036
-374,073	-65,700	0,110	0,032
-373,058	800,000	0,045	0,110
-372,044	70,988	0,134	0,101
-371,029	-187,378	0,200	-0,002
-370,015	-172,454	0,040	-0,001
-369,000	-1,773	-0,081	0,041
-367,985	17,889	-0,113	-0,065
-366,971	800,000	-0,077	-0,177
-365,956	484,990	-0,043	-0,071
-364,942	800,000	0,023	0,051
-363,927	187,281	0,042	0,046
-362,912	150,465	-0,054	0,053
-361,898	560,649	-0,037	0,066
-360,883	599,896	-0,024	0,043
-359,869	-200,000	-0,004	-0,038
-358,854	414,985	-0,104	0,161
-357,839	-54,952	0,023	0,007
-356,825	-200,000	-0,003	-0,052
-355,810	-99,916	0,187	0,034
-354,796	384,081	-0,067	0,100
-353,781	10,133	0,114	-0,062
-352,766	800,000	-0,012	-0,024
-351,752	-200,000	-0,002	-0,058
-350,737	800,000	-0,055	-0,119
-349,723	-42,125	0,094	-0,034
-348,708	34,459	0,043	-0,027
-347,693	-200,000	-0,003	0,041
-346,679	-200,000	-0,011	0,097
-345,664	461,299	-0,049	0,079
-344,650	195,947	0,059	-0,065
-343,635	-84,546	0,128	-0,029
-342,620	-200,000	-0,009	0,054
-341,606	213,531	-0,022	0,026
-340,591	464,341	0,039	-0,063
-339,577	-16,282	-0,066	0,030
-338,562	800,000	-0,036	-0,076
-337,548	81,219	-0,023	-0,018
-336,533	520,264	0,090	0,153
-335,518	118,640	0,031	-0,028
-334,504	-200,000	-0,052	0,000
-333,489	306,370	0,080	0,108
-332,475	534,093	0,021	0,035
-331,460	-95,697	-0,112	0,021
-330,445	53,461	0,159	0,110
-329,431	800,000	0,016	0,043
-328,416	-113,431	0,088	-0,012
-327,402	800,000	0,035	0,087
-326,387	-89,087	-0,153	0,033
-325,372	60,889	-0,028	0,020
-324,358	-50,530	-0,123	0,042
-323,343	217,146	-0,056	0,064
-322,329	-29,612	0,089	-0,037
-321,314	800,000	-0,029	0,086
-320,299	331,986	-0,065	0,091
-319,285	97,380	0,057	0,047
-318,270	-134,932	-0,123	0,011
-317,256	-84,730	0,085	0,019
-316,241	-75,304	0,078	-0,020
-315,226	71,225	0,079	0,059
-314,212	-200,000	-0,007	-0,051
-313,197	-200,000	-0,015	0,129
-312,183	-200,000	0,011	-0,084
-311,168	120,588	-0,081	-0,073
-310,153	-200,000	-0,023	-0,151
-309,139	-200,000	0,026	0,093
-308,124	-63,270	-0,113	0,034
-307,110	800,000	-0,021	0,046
-306,095	-26,395	-0,045	0,019
-305,080	-61,415	-0,043	0,013
-304,066	800,000	0,029	-0,078
-303,051	-37,599	-0,140	-0,054
-302,037	345,346	-0,076	0,109
-301,022	282,164	0,091	-0,119
-300,008	-200,000	-0,022	-0,078
-298,993	-177,498	-0,221	-0,004
-297,978	-200,000	0,017	0,067
-296,964	-38,618	0,045	0,017
-295,949	-143,800	-0,067	-0,004
-294,935	-104,322	0,128	-0,021
-293,920	-52,638	-0,020	0,007
-292,905	45,994	0,063	-0,042
-291,891	800,000	0,017	0,038
-290,876	699,500	-0,018	0,034
-289,862	28,037	0,024	0,014
-288,847	800,000	0,024	0,053
-287,832	-200,000	-0,025	-0,083
-286,818	-200,000	-0,007	-0,157
-285,803	-65,469	0,020	0,006
-284,789	614,238	0,072	-0,131
-283,774	800,000	-0,021	-0,066
-282,759	-200,000	-0,012	0,085
-281,745	497,490	0,052	0,088
-280,730	-200,000	-0,030	-0,127
-279,716	360,653	-0,090	0,131
-278,701	-162,119	0,062	-0,002
-277,686	46,036	-0,049	0,033
-276,672	-31,351	-0,018	-0,007
-275,657	87,405	-0,050	0,040
-274,643	-200,000	0,003	-0,073
-273,628	398,506	0,040	-0,061
-272,613	-200,000	0,000	-0,076
-271,599	-4,014	0,113	-0,057
-270,584	-200,000	0,028	0,105
-269,570	-200,000	-0,002	-0,133
-268,555	800,000	0,041	-0,092
-267,540	-113,385	-0,118	0,017
-266,526	800,000	-0,068	-0,174
-265,511	15,782	0,069	0,039
-264,497	-200,000	0,009	-0,081
-263,482	263,125	-0,083	0,104
-262,467	800,000	-0,040	0,116
-261,453	-9,871	0,097	0,047
-260,438	-67,625	0,048	0,014
-259,424	375,997	0,040	0,059
-258,409	238,334	-0,086	0,103
-257,395	163,376	-0,094	0,095
-256,380	0,840	0,103	0,053
-255,365	-200,000	0,020	0,068
-254,351	-200,000	0,011	-0,109
-253,336	-200,000	0,003	-0,032
-252,322	271,996	0,094	-0,120
-251,307	800,000	0,028	0,061
-250,292	205,115	-0,072	0,080
-249,278	800,000	-0,048	0,151
-248,263	162,097	-0,070	0,071
-247,249	483,209	-0,098	0,161
-246,234	53,627	-0,152	-0,105
-245,219	25,637	-0,035	-0,021
-244,205	-45,107	-0,056	-0,020
-243,190	-65,231	0,040	0,011
-242,176	-183,481	0,131	0,002
-241,161	-200,000	-0,018	-0,121
-240,146	-200,000	-0,003	0,052
-239,132	342,249	-0,031	-0,043
-238,117	149,893	-0,113	-0,111
-237,103	800,000	0,043	-0,096
-236,088	-200,000	-0,007	0,069
-235,073	167,329	0,025	0,025
-234,059	-200,000	0,004	-0,051
-233,044	-111,569	-0,058	0,008
-232,030	-200,000	0,038	0,146
-231,015	295,523	0,066	-0,088
-230,000	-115,252	-0,118	0,016
-228,986	568,156	-0,079	0,139
-227,971	-75,101	-0,059	-0,015
-226,957	86,745	0,100	0,080
-225,942	-200,000	-0,038	0,160
-224,927	112,750	-0,079	-0,069
-223,913	180,079	-0,045	-0,048
-222,898	34,056	0,126	0,079
-221,884	398,527	0,006	0,009
-220,869	-200,000	-0,007	0,103
-219,855	262,158	0,095	0,119
-218,840	800,000	0,036	0,074
-217,825	-200,000	-0,015	0,082
-216,811	800,000	0,090	0,186
-215,796	-105,660	0,093	-0,015
-214,782	110,404	-0,091	-0,079
-213,767	90,180	0,070	0,056
-212,752	-120,157	0,138	0,017
-211,738	265,610	0,051	-0,064
-210,723	-122,715	-0,049	0,006
-209,709	-77,942	0,042	-0,010
-208,694	-4,181	-0,107	-0,053
-207,679	346,847	-0,086	-0,122
-206,665	-5,088	0,148	0,073
-205,650	-200,000	-0,016	0,105
-204,636	-8,000	-0,081	0,039
-203,621	281,608	0,071	0,092
-202,606	118,371	-0,017	0,015
-201,592	61,919	0,103	-0,074
-200,577	33,934	-0,034	0,021
-199,563	19,996	-0,069	0,040
-198,548	29,915	0,126	0,077
-197,533	579,649	0,014	-0,025
-196,519	-200,000	0,010	-0,139
-195,504	-200,000	0,028	0,128
-194,490	-200,000	0,038	-0,126
-193,475	172,481	-0,106	-0,110
-192,460	-19,185	0,061	-0,027
-191,446	114,311	0,033	-0,029
-190,431	87,149	-0,101	0,080
-189,417	800,000	-0,027	0,070
-188,402	176,145	-0,083	-0,087
-187,387	96,214	0,076	-0,063
-186,373	111,929	-0,170	-0,148
-185,358	788,109	0,047	0,093
-184,344	-165,583	0,065	0,002
-183,329	257,954	0,049	0,061
-182,315	-58,487	0,046	0,014
-181,300	136,611	-0,074	0,070
-180,285	-155,097	-0,081	-0,004
-179,271	345,114	0,042	0,059
-178,256	800,000	-0,056	-0,121
-177,242	74,056	0,072	0,054
-176,227	711,547	-0,053	0,102
-175,212	11,111	0,060	-0,033
-174,198	90,364	0,035	-0,028
-173,183	-113,782	-0,110	-0,015
-172,169	783,933	-0,047	-0,094
-171,154	800,000	-0,037	-0,092
-170,139	-31,170	-0,016	-0,006
-169,125	222,770	0,084	0,098
-168,110	-49,120	0,073	0,025
-167,096	-200,000	-0,080	0,273
-166,081	-15,499	-0,130	-0,060
-165,066	800,000	-0,033	-0,072
-164,052	-200,000	-0,001	0,025
-163,037	165,590	-0,034	0,034
-162,023	6,872	0,146	-0,078
-161,008	330,708	-0,038	0,053
-159,993	-200,000	-0,016	0,072
-158,979	144,669	0,129	0,124
-157,964	-57,558	0,111	-0,035
-156,950	-200,000	0,020	0,157
-155,935	299,971	0,036	-0,048
-154,920	-16,050	0,127	0,058
-153,906	-32,468	-0,059	-0,023
-152,891	800,000	-0,019	0,054
-151,877	800,000	-0,024	0,060
-150,862	-96,089	-0,090	-0,017
-149,847	-43,797	0,110	-0,040
-148,833	-66,407	0,032	0,009
-147,818	139,300	-0,015	0,015
-146,804	-200,000	0,014	0,076
-145,789	800,000	0,014	-0,033
-144,775	800,000	-0,084	0,204
-143,760	167,216	0,015	-0,015
-142,745	533,315	-0,039	0,067
-141,731	429,664	0,068	-0,106
-140,716	134,912	0,055	-0,052
-139,702	-200,000	-0,002	0,028
-138,687	-76,877	0,087	-0,022
-137,672	1,617	0,067	0,034
-136,658	-200,000	0,002	-0,040
-135,643	4,626	-0,046	-0,024
-134,629	-87,474	0,032	-0,007
-133,614	-200,000	0,020	-0,150
-132,599	-101,565	-0,142	-0,025
-131,585	-200,000	0,006	0,034
-130,570	-47,562	0,074	0,026
-129,556	68,603	-0,041	0,030
-128,541	-2,949	-0,100	-0,050
-127,526	463,497	-0,038	0,061
-126,512	76,502	-0,042	0,032
-125,497	1,802	-0,123	-0,064
-124,483	252,835	-0,120	0,147
-123,468	-44,134	-0,144	0,052
-122,453	0,096	0,174	-0,089
-121,439	570,856	-0,064	0,112
-120,424	-175,204	-0,041	-0,001
-119,410	-200,000	0,013	-0,040
