DTS Sentinel unit serial number:	SN410029Multiplexer serial number:	ORYXHardware model number:	OX2-SRSoftware version number:	ORYX F/W v4,00 Oryx Data Collector v3.7.2.0data status	okinstallation	B5 Nyhavnadifferential loss correction	single-endedforward channel	channel 2reverse channel	N/Adate	2023/12/12time	00:12:13forward acquisition time	300,00reverse acquisition time	0,00gamma	499,1914k internal	0,3155k external	0,3155temperature offset calibration	1,0000default loss term (dB/km)	0,3820temperature slope calibration	1,0000multiplexer offset coefficient	1,0000multiplexer slope coefficient	1,0000fibre end	0,00T internal ref (°C)	16,15T ext. ref 1 (°C)	-0,25T ext. ref 2 (°C)	-0,53length (m)	temperature (°C)	Stokes	anti-Stokes-744,400	229,517	-0,006	0,007
-743,385	-150,210	-0,342	0,019
-742,371	-0,065	0,097	-0,051
-741,356	-53,814	-0,261	0,087
-740,342	150,488	0,117	0,117
-739,327	-71,011	-0,201	0,055
-738,312	223,903	0,061	0,073
-737,298	-78,241	-0,234	0,059
-736,283	-165,311	0,072	0,002
-735,269	29,813	-0,196	0,123
-734,254	451,978	0,080	0,131
-733,239	-74,899	-0,537	-0,141
-732,225	332,380	0,084	0,120
-731,210	800,000	-0,072	-0,194
-730,196	-83,807	0,056	-0,013
-729,181	-95,323	0,043	-0,009
-728,167	141,934	0,080	0,078
-727,152	603,408	-0,042	0,077
-726,137	-200,000	-0,016	0,081
-725,123	-90,372	-0,057	0,012
-724,108	27,089	0,075	-0,046
-723,094	96,019	-0,144	-0,121
-722,079	-200,000	-0,075	-0,251
-721,064	-15,044	0,034	-0,016
-720,050	-94,656	-0,060	0,012
-719,035	126,258	-0,124	0,116
-718,021	383,302	-0,030	-0,046
-717,006	800,000	0,035	-0,092
-715,991	357,354	-0,055	-0,081
-714,977	800,000	-0,041	-0,101
-713,962	-200,000	-0,001	0,073
-712,948	-200,000	-0,004	-0,072
-711,933	182,497	0,051	-0,055
-710,918	-53,031	-0,044	-0,015
-709,904	251,414	-0,028	-0,035
-708,889	-200,000	0,002	-0,122
-707,875	-28,147	-0,010	0,004
-706,860	68,822	0,101	-0,076
-705,845	645,780	0,036	0,068
-704,831	-123,989	-0,195	0,022
-703,816	-200,000	-0,004	0,051
-702,802	-200,000	-0,014	0,086
-701,787	-120,834	-0,086	-0,011
-700,772	800,000	-0,002	-0,008
-699,758	-200,000	-0,033	-0,147
-698,743	280,024	-0,017	0,022
-697,729	-142,843	0,057	0,004
-696,714	-200,000	-0,032	0,115
-695,699	130,502	0,011	-0,010
-694,685	-23,943	-0,078	-0,034
-693,670	-126,617	-0,070	0,008
-692,656	800,000	0,034	0,088
-691,641	384,077	0,030	-0,045
-690,627	148,912	-0,097	0,096
-689,612	-200,000	0,016	-0,188
-688,597	241,643	-0,134	0,165
-687,583	168,647	-0,061	-0,064
-686,568	-24,002	-0,103	-0,045
-685,554	57,645	-0,133	-0,096
-684,539	109,766	0,052	0,046
-683,524	17,858	0,115	0,067
-682,510	800,000	-0,024	0,055
-681,495	143,957	0,087	-0,085
-680,481	124,358	0,071	-0,065
-679,466	-99,415	-0,051	-0,009
-678,451	-200,000	0,003	0,035
-677,437	-200,000	-0,018	0,098
-676,422	-7,433	-0,142	0,070
-675,408	800,000	-0,052	-0,129
-674,393	82,466	-0,077	0,062
-673,378	121,716	0,086	-0,079
-672,364	-200,000	-0,004	0,088
-671,349	25,614	0,020	-0,012
-670,335	80,096	0,008	0,007
-669,320	-149,362	0,124	0,007
-668,305	29,270	-0,115	0,072
-667,291	-200,000	0,009	0,046
-666,276	-152,155	-0,029	-0,002
-665,262	19,661	-0,125	-0,074
-664,247	301,489	-0,076	-0,103
-663,232	-125,173	-0,015	-0,002
-662,218	19,513	-0,111	0,065
-661,203	-146,179	0,066	-0,004
-660,189	349,273	-0,040	0,058
-659,174	-200,000	0,001	-0,029
-658,159	-38,999	-0,045	-0,017
-657,145	61,905	-0,131	0,096
-656,130	140,142	0,078	0,075
-655,116	-112,105	0,164	0,024
-654,101	-4,771	-0,128	0,065
-653,086	-95,456	-0,024	0,005
-652,072	-200,000	0,015	0,069
-651,057	-101,740	-0,136	-0,024
-650,043	308,232	0,026	-0,036
-649,028	203,827	0,059	0,067
-648,014	75,120	0,097	0,075
-646,999	683,722	0,030	0,058
-645,984	-200,000	0,011	0,038
-644,970	-48,474	0,080	-0,028
-643,955	-106,491	-0,062	-0,010
-642,941	800,000	-0,076	-0,168
-641,926	400,488	0,047	0,073
-640,911	-200,000	-0,001	-0,021
-639,897	-143,160	-0,133	-0,009
-638,882	487,634	0,073	0,122
-637,868	800,000	0,030	-0,097
-636,853	800,000	-0,030	-0,077
-635,838	-52,572	0,067	0,023
-634,824	-110,890	-0,129	-0,019
-633,809	56,986	0,018	0,013
-632,795	146,652	-0,015	-0,015
-631,780	16,102	-0,022	0,013
-630,765	8,815	-0,048	-0,026
-629,751	-131,579	0,071	-0,007
-628,736	51,454	-0,125	-0,087
-627,722	-200,000	0,035	-0,225
-626,707	-75,763	0,041	-0,011
-625,692	800,000	-0,003	0,009
-624,678	290,013	0,046	0,062
-623,663	207,475	0,030	-0,035
-622,649	76,009	-0,158	-0,122
-621,634	-71,944	0,200	-0,054
-620,619	-77,373	-0,024	0,006
-619,605	765,900	0,043	0,085
-618,590	-200,000	0,030	0,108
-617,576	-200,000	0,008	0,040
-616,561	-105,797	-0,089	-0,015
-615,546	-174,981	-0,102	-0,002
-614,532	800,000	-0,040	-0,126
-613,517	-4,302	-0,056	-0,028
-612,503	-63,592	0,046	0,014
-611,488	30,538	0,125	0,078
-610,474	800,000	-0,012	0,034
-609,459	285,946	-0,061	0,080
-608,444	43,081	-0,023	0,016
-607,430	-200,000	-0,008	-0,031
-606,415	800,000	0,036	-0,097
-605,401	7,261	0,048	-0,026
-604,386	-91,973	-0,028	-0,006
-603,371	378,039	0,027	0,040
-602,357	98,363	-0,056	-0,048
-601,342	2,315	-0,138	-0,073
-600,328	100,397	0,069	-0,059
-599,313	237,495	0,046	-0,056
-598,298	-200,000	-0,009	0,219
-597,284	-200,000	0,028	0,110
-596,269	406,900	-0,023	-0,035
-595,255	110,013	-0,141	0,124
-594,240	-200,000	0,015	0,132
-593,225	-46,431	-0,137	-0,049
-592,211	800,000	-0,013	-0,040
-591,196	394,983	0,031	-0,047
-590,182	-200,000	0,013	0,215
-589,167	378,816	-0,054	0,081
-588,152	-7,673	-0,034	-0,017
-587,138	308,657	-0,080	0,109
-586,123	-137,272	0,069	0,006
-585,109	-84,603	0,014	-0,003
-584,094	-200,000	0,004	-0,014
-583,079	-6,240	0,121	-0,060
-582,065	800,000	0,016	-0,045
-581,050	-139,693	0,185	-0,014
-580,036	-200,000	0,002	0,101
-579,021	-200,000	-0,013	-0,091
-578,006	-95,602	-0,144	-0,028
-576,992	149,551	-0,040	0,040
-575,977	-200,000	0,032	0,112
-574,963	800,000	-0,006	0,016
-573,948	-200,000	0,031	0,217
-572,934	800,000	0,029	-0,092
-571,919	-200,000	0,005	0,058
-570,904	149,582	0,040	0,040
-569,890	60,845	-0,088	0,064
-568,875	163,397	-0,082	0,084
-567,861	-119,673	0,174	0,022
-566,846	177,122	0,057	-0,060
-565,831	-17,041	0,075	-0,035
-564,817	800,000	-0,049	-0,106
-563,802	800,000	0,055	-0,149
-562,788	800,000	0,036	-0,105
-561,773	-8,830	-0,035	-0,017
-560,758	85,114	0,091	0,073
-559,744	330,738	0,050	0,071
-558,729	-200,000	0,018	0,059
-557,715	-121,111	0,100	-0,012
-556,700	-200,000	0,001	-0,042
-555,685	800,000	-0,045	-0,118
-554,671	-200,000	0,008	-0,033
-553,656	-200,000	-0,039	0,148
-552,642	-148,582	0,134	-0,008
-551,627	-93,001	-0,106	-0,021
-550,612	-56,468	-0,025	0,008
-549,598	-66,129	0,058	0,017
-548,583	-66,162	-0,121	-0,035
-547,569	36,254	-0,031	-0,020
-546,554	800,000	-0,063	0,176
-545,539	-176,908	0,025	0,000
-544,525	45,168	0,068	0,046
-543,510	12,973	0,113	0,064
-542,496	-98,761	-0,191	0,035
-541,481	-200,000	-0,015	0,067
-540,466	-200,000	0,006	-0,058
-539,452	-65,237	0,134	0,039
-538,437	800,000	-0,028	0,085
-537,423	122,228	-0,110	0,101
-536,408	-25,356	0,101	0,044
-535,393	519,910	-0,028	-0,048
-534,379	-143,018	-0,074	0,005
-533,364	-153,561	0,035	0,002
-532,350	376,978	0,045	-0,068
-531,335	34,327	0,154	0,098
-530,321	800,000	0,040	0,091
-529,306	-200,000	-0,113	0,000
-528,291	-121,810	0,086	-0,010
-527,277	-114,597	-0,127	0,018
-526,262	405,842	0,020	-0,032
-525,248	-76,571	0,067	0,017
-524,233	-105,832	0,034	-0,005
-523,218	-200,000	0,028	-0,098
-522,204	-69,384	-0,083	-0,023
-521,189	5,489	-0,162	-0,087
-520,175	37,304	0,135	-0,087
-519,160	800,000	0,051	-0,160
-518,145	482,752	0,093	-0,156
-517,131	-104,254	0,031	0,005
-516,116	-200,000	-0,021	-0,081
-515,102	382,251	0,023	0,034
-514,087	3,318	-0,089	0,047
-513,072	-29,974	-0,039	-0,016
-512,058	-52,658	-0,054	-0,018
-511,043	373,362	0,031	0,046
-510,029	-200,000	-0,005	-0,073
-509,014	188,882	0,088	0,096
-507,999	314,063	-0,077	0,106
-506,985	-14,751	-0,066	-0,031
-505,970	-41,893	-0,173	-0,064
-504,956	221,470	0,021	0,024
-503,941	-200,000	0,022	0,115
-502,926	151,861	0,092	-0,091
-501,912	800,000	0,032	0,093
-500,897	-200,000	-0,017	-0,145
-499,883	104,317	0,122	-0,105
-498,868	800,000	-0,051	-0,124
-497,853	757,026	-0,017	-0,035
-496,839	-111,023	0,174	-0,026
-495,824	800,000	0,028	0,085
-494,810	-200,000	-0,005	0,116
-493,795	-200,000	-0,015	-0,071
-492,781	-200,000	-0,021	0,071
-491,766	268,841	0,042	-0,054
-490,751	43,243	-0,075	-0,050
-489,737	-200,000	0,005	-0,078
-488,722	162,331	0,097	-0,099
-487,708	50,873	0,049	0,034
-486,693	223,720	-0,038	-0,045
-485,678	-22,230	-0,090	0,040
-484,664	-200,000	-0,011	-0,089
-483,649	-105,610	0,097	0,016
-482,635	173,189	0,084	0,088
-481,620	-71,376	0,021	-0,006
-480,605	800,000	-0,030	0,061
-479,591	-200,000	0,011	0,048
-478,576	-94,131	-0,064	0,013
-477,562	-200,000	0,024	-0,115
-476,547	-169,189	-0,054	0,001
-475,532	-48,079	0,140	-0,049
-474,518	642,461	-0,029	0,054
-473,503	-200,000	0,042	0,197
-472,489	41,449	0,115	-0,076
-471,474	490,749	0,040	-0,067
-470,459	307,923	-0,022	-0,030
-469,445	66,813	0,173	-0,129
-468,430	-200,000	-0,045	-0,155
-467,416	-173,838	0,158	-0,003
-466,401	125,010	0,018	-0,017
-465,386	-13,600	-0,066	-0,031
-464,372	15,068	-0,016	-0,009
-463,357	-17,037	-0,049	0,022
-462,343	800,000	-0,039	-0,079
-461,328	-19,386	-0,120	-0,054
-460,313	-124,764	-0,054	0,006
-459,299	-200,000	-0,091	-0,000
-458,284	800,000	-0,045	0,093
-457,270	-155,840	-0,135	-0,006
-456,255	-44,600	0,107	0,039
-455,241	-200,000	0,016	-0,116
-454,226	-200,000	-0,027	-0,109
-453,211	150,905	-0,035	0,034
-452,197	218,535	0,011	0,013
-451,182	195,784	0,062	-0,069
-450,168	-200,000	-0,022	0,248
-449,153	-200,000	-0,027	-0,089
-448,138	295,405	0,071	0,095
-447,124	-200,000	-0,015	0,083
-446,109	293,882	-0,079	0,106
-445,095	-200,000	0,001	-0,023
-444,080	800,000	-0,035	-0,089
-443,065	800,000	0,071	0,152
-442,051	173,532	0,089	0,094
-441,036	-31,870	-0,125	-0,051
-440,022	487,968	0,031	0,052
-439,007	-63,874	0,073	0,022
-437,992	800,000	0,033	-0,106
-436,978	800,000	0,039	0,108
-435,963	800,000	-0,022	0,070
-434,949	-200,000	-0,005	-0,062
-433,934	-200,000	-0,006	-0,075
-432,919	-109,271	-0,009	-0,001
-431,905	-200,000	0,003	0,009
-430,890	-200,000	-0,017	-0,068
-429,876	800,000	-0,013	-0,037
-428,861	-200,000	-0,003	0,079
-427,846	24,184	-0,092	-0,055
-426,832	-77,633	-0,177	0,044
-425,817	-171,892	-0,135	0,003
-424,803	322,915	0,038	0,053
-423,788	-25,915	-0,019	-0,008
-422,773	-80,162	-0,100	0,024
-421,759	193,925	-0,080	0,088
-420,744	510,706	0,070	0,119
-419,730	-200,000	0,013	-0,117
-418,715	5,634	-0,054	-0,029
-417,701	-200,000	-0,012	-0,077
-416,686	-132,262	0,124	-0,012
-415,671	-200,000	-0,014	0,184
-414,657	89,766	0,033	-0,027
-413,642	78,248	0,019	0,015
-412,628	-119,220	-0,098	0,012
-411,613	21,748	-0,056	-0,033
-410,598	252,850	0,082	-0,102
-409,584	-77,052	0,027	0,007
-408,569	406,578	0,049	0,075
-407,555	46,779	0,048	0,032
-406,540	-200,000	0,034	0,115
-405,525	-164,105	0,039	-0,001
-404,511	197,002	-0,098	-0,109
-403,496	-26,421	-0,016	-0,007
-402,482	191,544	0,078	0,085
-401,467	235,990	0,053	0,064
-400,452	-200,000	-0,012	0,105
-399,438	800,000	0,039	0,122
-398,423	333,127	0,008	0,011
-397,409	274,158	0,079	-0,102
-396,394	140,358	-0,090	-0,087
-395,379	-102,831	0,077	0,013
-394,365	-0,527	0,064	0,033
-393,350	-149,173	-0,057	0,003
-392,336	525,239	0,028	0,048
-391,321	-200,000	0,001	-0,021
-390,306	-22,315	-0,191	-0,084
-389,292	800,000	0,027	-0,056
-388,277	-200,000	0,014	0,063
-387,263	800,000	-0,032	-0,072
-386,248	88,940	0,108	0,087
-385,233	-32,502	-0,051	0,020
-384,219	800,000	-0,034	0,093
-383,204	800,000	-0,030	-0,082
-382,190	-157,440	-0,103	-0,004
-381,175	-200,000	0,003	0,055
-380,160	96,764	0,009	0,007
-379,146	198,088	-0,087	-0,097
-378,131	-172,578	0,024	-0,001
-377,117	87,086	-0,039	-0,031
-376,102	37,683	0,099	0,064
-375,088	-200,000	0,002	0,013
-374,073	120,250	0,071	-0,064
-373,058	149,835	-0,054	-0,053
-372,044	172,452	-0,047	0,049
-371,029	-46,486	0,155	0,055
-370,015	296,640	0,074	0,099
-369,000	-53,717	-0,098	-0,032
-367,985	-200,000	-0,005	-0,092
-366,971	86,969	0,016	-0,013
-365,956	-200,000	-0,014	0,059
-364,942	-160,994	-0,086	-0,003
-363,927	-200,000	0,004	0,097
-362,912	800,000	-0,022	-0,054
-361,898	-90,641	-0,097	-0,020
-360,883	471,186	0,092	0,151
-359,869	485,646	0,046	-0,077
-358,854	415,149	-0,052	0,080
-357,839	-200,000	0,003	-0,029
-356,825	209,915	0,066	0,076
-355,810	116,113	0,080	-0,071
-354,796	114,616	0,018	-0,016
-353,781	15,361	-0,063	0,036
-352,766	-102,482	0,099	0,017
-351,752	-200,000	-0,026	-0,108
-350,737	-14,439	0,048	-0,023
-349,723	-116,633	0,038	-0,005
-348,708	239,959	-0,064	0,077
-347,693	17,925	0,067	-0,039
-346,679	626,534	-0,088	-0,162
-345,664	-200,000	0,031	-0,118
-344,650	-50,961	-0,054	0,018
-343,635	-149,563	-0,073	-0,004
-342,620	-200,000	0,007	0,034
-341,606	138,245	0,026	0,025
-340,591	-200,000	-0,000	-0,099
-339,577	-53,215	-0,141	-0,047
-338,562	134,903	-0,091	-0,086
-337,548	-200,000	-0,013	-0,110
-336,533	277,049	0,044	-0,057
-335,518	108,264	0,071	0,062
-334,504	253,345	0,032	-0,040
-333,489	-200,000	-0,002	-0,033
-332,475	296,358	-0,043	-0,057
-331,460	-107,996	0,167	-0,026
-330,445	-51,054	-0,114	0,038
-329,431	-200,000	0,021	-0,098
-328,416	-74,986	-0,056	0,014
-327,402	-147,735	0,086	-0,005
-326,387	800,000	-0,028	0,061
-325,372	-200,000	0,001	-0,098
-324,358	-38,817	0,084	-0,032
-323,343	800,000	-0,038	-0,088
-322,329	155,991	-0,021	-0,021
-321,314	-58,066	0,085	0,027
-320,299	-200,000	0,011	0,148
-319,285	-138,533	0,139	0,011
-318,270	-95,805	-0,138	-0,026
-317,256	-200,000	0,020	0,123
-316,241	179,172	-0,072	0,076
-315,226	-110,906	-0,143	0,021
-314,212	355,098	0,039	-0,057
-313,197	575,504	0,039	0,069
-312,183	689,582	0,057	-0,108
-311,168	238,434	-0,076	0,092
-310,153	-200,000	0,000	-0,121
-309,139	182,155	0,072	0,077
-308,124	-176,534	0,183	-0,003
-307,110	-112,260	0,030	0,004
-306,095	420,249	0,025	0,039
-305,080	139,946	-0,078	0,074
-304,066	-200,000	-0,008	0,034
-303,051	-30,150	0,057	-0,023
-302,037	765,278	-0,006	0,012
-301,022	-138,983	0,061	-0,005
-300,008	-200,000	0,010	-0,113
-298,993	-200,000	0,011	-0,054
-297,978	-200,000	0,005	-0,043
-296,964	-42,126	-0,148	-0,055
-295,949	-4,411	0,015	0,007
-294,935	38,856	-0,163	-0,105
-293,920	-200,000	0,003	-0,109
-292,905	-10,145	0,070	0,034
-291,891	-81,083	0,076	0,018
-290,876	-200,000	-0,024	0,079
-289,862	104,904	0,074	0,063
-288,847	-200,000	-0,012	-0,052
-287,832	-200,000	0,006	-0,144
-286,818	800,000	0,046	0,098
-285,803	598,429	-0,083	-0,150
-284,789	-200,000	-0,000	-0,002
-283,774	145,377	0,049	0,047
-282,759	117,720	0,068	-0,060
-281,745	380,703	-0,028	0,041
-280,730	397,937	-0,051	-0,078
-279,716	149,944	0,078	0,077
-278,701	106,810	-0,123	0,106
-277,686	201,293	0,064	0,072
-276,672	-60,047	-0,120	-0,037
-275,657	25,607	-0,048	-0,029
-274,643	-200,000	-0,037	-0,189
-273,628	16,107	-0,156	-0,089
-272,613	86,126	0,076	-0,060
-271,599	141,635	0,028	0,026
-270,584	-200,000	0,005	0,032
-269,570	-9,106	0,065	-0,031
-268,555	61,655	-0,147	0,106
-267,540	-16,092	-0,085	0,039
-266,526	-24,683	-0,070	0,030
-265,511	339,587	-0,019	-0,027
-264,497	94,943	0,045	-0,037
-263,482	15,948	0,086	0,049
-262,467	-91,115	-0,138	-0,029
-261,453	-200,000	-0,000	-0,087
-260,438	-200,000	-0,023	0,080
-259,424	22,137	0,111	-0,065
-258,409	161,885	-0,143	-0,145
-257,395	358,743	-0,021	0,031
-256,380	-69,862	0,061	-0,017
-255,365	142,031	-0,050	0,048
-254,351	-155,632	-0,045	0,002
-253,336	-200,000	-0,019	-0,095
-252,322	-35,002	-0,047	0,018
-251,307	-3,796	0,059	0,030
-250,292	5,289	-0,042	0,022
-249,278	-77,882	-0,078	-0,019
-248,263	184,160	0,050	0,054
-247,249	7,259	0,146	-0,079
-246,234	-144,114	-0,047	-0,003
-245,219	-200,000	-0,151	0,000
-244,205	193,003	-0,056	-0,062
-243,190	48,395	-0,027	0,018
-242,176	-44,967	0,139	0,050
-241,161	154,581	0,085	-0,085
-240,146	266,061	-0,021	-0,027
-239,132	-200,000	0,007	0,024
-238,117	-200,000	-0,131	0,000
-237,103	-139,130	-0,080	0,006
-236,088	499,542	0,051	-0,086
-235,073	800,000	-0,024	0,070
-234,059	-200,000	0,018	0,191
-233,044	-81,646	0,035	0,008
-232,030	229,274	0,010	-0,012
-231,015	37,522	-0,094	-0,060
-230,000	116,198	-0,087	0,077
-228,986	-110,011	0,143	-0,021
-227,971	-115,849	-0,119	-0,016
-226,957	-200,000	0,008	0,134
-225,942	66,663	0,091	0,067
-224,927	87,014	0,052	-0,041
-223,913	238,379	-0,100	-0,121
-222,898	-200,000	-0,012	-0,117
-221,884	-23,896	-0,035	0,015
-220,869	-200,000	-0,012	-0,047
-219,855	-44,194	0,110	0,040
-218,840	-4,086	0,041	-0,020
-217,825	-200,000	-0,024	0,089
-216,811	-200,000	-0,015	-0,068
-215,796	199,622	0,083	-0,092
-214,782	48,913	0,199	0,135
-213,767	153,306	0,091	-0,090
-212,752	168,579	0,059	0,061
-211,738	-194,331	0,018	-0,000
-210,723	800,000	-0,023	-0,052
-209,709	475,974	-0,038	0,063
-208,694	55,524	0,052	-0,036
-207,679	800,000	0,047	-0,133
-206,665	-33,926	0,101	-0,040
-205,650	214,817	0,041	0,047
-204,636	-22,464	0,100	0,044
-203,621	-39,623	-0,095	0,036
-202,606	-200,000	0,005	0,043
-201,592	-200,000	-0,004	-0,019
-200,577	336,535	0,048	0,067
-199,563	-186,057	-0,105	0,001
-198,548	-200,000	0,021	0,083
-197,533	800,000	0,064	0,152
-196,519	21,281	0,092	0,054
-195,504	9,075	-0,129	0,070
-194,490	40,144	-0,140	-0,091
-193,475	-200,000	0,014	-0,073
-192,460	146,882	0,017	-0,017
-191,446	141,538	-0,049	-0,047
-190,431	382,343	0,035	-0,052
-189,417	220,747	-0,089	-0,103
-188,402	-84,704	-0,070	0,016
-187,387	2,846	0,171	0,089
-186,373	-157,015	-0,080	0,003
-185,358	-39,192	-0,062	-0,024
-184,344	-43,133	0,162	0,059
-183,329	71,446	0,102	0,076
-182,315	-82,393	-0,046	0,011
-181,300	-124,670	-0,053	0,006
-180,285	-200,000	0,002	-0,135
-179,271	39,126	-0,167	-0,108
-178,256	-200,000	0,032	-0,130
-177,242	116,406	-0,010	-0,009
-176,227	95,591	-0,065	-0,054
-175,212	-128,730	0,139	0,014
-174,198	-59,899	-0,092	0,028
-173,183	800,000	0,007	0,017
-172,169	-38,269	0,040	-0,015
-171,154	800,000	0,070	-0,150
-170,139	-200,000	0,009	0,028
-169,125	-200,000	0,008	0,043
-168,110	183,514	-0,084	-0,089
-167,096	-200,000	0,010	0,084
-166,081	800,000	-0,039	0,111
-165,066	-56,250	0,031	0,010
-164,052	800,000	-0,066	0,176
-163,037	469,737	0,058	-0,094
-162,023	210,468	-0,031	0,035
-161,008	800,000	0,026	-0,081
-159,993	-200,000	-0,002	0,137
-158,979	26,077	-0,049	0,029
-157,964	-1,495	-0,099	0,050
-156,950	-115,011	0,013	-0,002
-155,935	532,735	-0,055	0,095
-154,920	800,000	0,037	0,110
-153,906	800,000	0,052	0,136
-152,891	-200,000	-0,035	0,165
-151,877	-200,000	0,016	0,106
-150,862	-32,956	0,086	0,034
-149,847	800,000	-0,032	0,087
-148,833	800,000	-0,074	-0,173
-147,818	800,000	0,004	0,012
-146,804	129,372	0,140	0,129
-145,789	-54,766	0,066	-0,021
-144,775	-24,368	-0,149	-0,064
-143,760	-200,000	0,008	-0,106
-142,745	414,422	-0,035	-0,053
-141,731	800,000	0,037	-0,094
-140,716	-200,000	0,020	0,000
-139,702	246,794	-0,038	-0,046
-138,687	122,450	0,030	0,027
-137,672	-200,000	-0,012	-0,049
-136,658	151,107	-0,154	0,151
-135,643	173,974	-0,047	-0,049
-134,629	202,256	0,043	-0,048
-133,614	800,000	-0,024	0,049
-132,599	800,000	-0,053	0,120
-131,585	-200,000	-0,016	0,086
-130,570	397,238	0,024	0,036
-129,556	-46,192	-0,078	0,028
-128,541	800,000	-0,075	-0,168
-127,526	-142,089	0,069	-0,005
-126,512	-200,000	-0,032	0,160
-125,497	-200,000	-0,006	0,067
-124,483	-106,190	-0,107	0,017
-123,468	800,000	-0,027	0,069
-122,453	-200,000	0,009	-0,074
-121,439	679,289	-0,041	0,078
-120,424	33,160	-0,083	0,052
-119,410	-200,000	-0,030	-0,102
