DTS Sentinel unit serial number:	SN410029Multiplexer serial number:	ORYXHardware model number:	OX2-SRSoftware version number:	ORYX F/W v4,00 Oryx Data Collector v3.7.2.0data status	okinstallation	B5 Nyhavnadifferential loss correction	single-endedforward channel	channel 2reverse channel	N/Adate	2023/12/13time	10:47:13forward acquisition time	300,00reverse acquisition time	0,00gamma	499,1914k internal	0,3160k external	0,3160temperature offset calibration	1,0000default loss term (dB/km)	0,3820temperature slope calibration	1,0000multiplexer offset coefficient	1,0000multiplexer slope coefficient	1,0000fibre end	0,00T internal ref (°C)	13,65T ext. ref 1 (°C)	-2,63T ext. ref 2 (°C)	-2,96length (m)	temperature (°C)	Stokes	anti-Stokes-744,400	800,000	0,057	-0,135
-743,385	20,659	-0,263	-0,156
-742,371	-91,793	0,098	0,020
-741,356	-118,245	-0,356	0,046
-740,342	-7,232	0,203	0,101
-739,327	-144,499	-0,391	-0,026
-738,312	-92,538	0,052	-0,011
-737,298	6,394	-0,356	-0,194
-736,283	77,257	0,200	0,156
-735,269	-60,084	-0,340	0,106
-734,254	-31,564	0,065	-0,027
-733,239	-46,870	-0,423	-0,152
-732,225	-65,591	0,166	0,049
-731,210	25,203	-0,110	-0,067
-730,196	-200,000	-0,007	-0,071
-729,181	796,096	-0,044	-0,089
-728,167	145,775	-0,126	-0,124
-727,152	23,017	0,098	-0,059
-726,137	-60,324	-0,057	-0,018
-725,123	-200,000	0,012	-0,125
-724,108	-200,000	-0,005	-0,047
-723,094	-113,960	-0,103	-0,015
-722,079	-200,000	-0,010	0,055
-721,064	-177,723	-0,142	0,002
-720,050	-106,161	-0,061	0,010
-719,035	-200,000	-0,024	0,088
-718,021	800,000	0,031	0,080
-717,006	-97,398	-0,084	-0,016
-715,991	90,636	-0,206	-0,170
-714,977	800,000	-0,017	-0,044
-713,962	1,294	-0,055	0,029
-712,948	-64,695	0,102	-0,030
-711,933	-108,659	-0,139	-0,022
-710,918	-200,000	-0,025	-0,156
-709,904	-86,875	-0,121	0,027
-708,889	-182,926	-0,194	-0,002
-707,875	-167,559	-0,111	0,003
-706,860	-29,852	0,106	-0,044
-705,845	-16,027	0,054	0,025
-704,831	-3,907	0,145	0,074
-703,816	-144,109	-0,063	0,004
-702,802	242,947	0,009	-0,011
-701,787	-15,585	0,134	-0,063
-700,772	382,814	-0,054	-0,083
-699,758	800,000	-0,021	0,053
-698,743	4,073	0,048	0,026
-697,729	71,397	0,078	-0,059
-696,714	158,455	-0,095	-0,097
-695,699	-64,657	-0,124	0,037
-694,685	45,826	-0,135	-0,092
-693,670	-200,000	0,005	-0,181
-692,656	800,000	-0,006	-0,018
-691,641	-200,000	0,005	-0,079
-690,627	-7,503	0,125	0,062
-689,612	-200,000	0,018	0,058
-688,597	800,000	-0,035	-0,104
-687,583	-200,000	-0,024	-0,099
-686,568	756,628	-0,044	-0,087
-685,554	-200,000	-0,003	0,082
-684,539	-67,419	-0,058	0,017
-683,524	20,584	0,104	0,062
-682,510	50,568	-0,039	0,027
-681,495	211,778	0,044	0,051
-680,481	471,576	-0,065	-0,107
-679,466	-200,000	0,011	0,055
-678,451	96,784	-0,046	-0,039
-677,437	445,127	-0,051	-0,083
-676,422	96,068	-0,081	0,068
-675,408	-200,000	0,011	0,061
-674,393	800,000	-0,022	0,059
-673,378	646,970	-0,039	0,073
-672,364	524,791	-0,049	-0,085
-671,349	-81,695	0,022	0,005
-670,335	-200,000	0,006	0,025
-669,320	-143,535	0,098	-0,007
-668,305	200,876	0,043	-0,049
-667,291	-10,293	-0,020	0,010
-666,276	800,000	-0,018	0,053
-665,262	-200,000	0,010	-0,110
-664,247	-200,000	-0,022	-0,134
-663,232	655,007	-0,031	0,058
-662,218	-55,986	0,131	-0,043
-661,203	401,713	0,040	-0,062
-660,189	72,056	-0,087	-0,066
-659,174	-56,181	0,038	-0,012
-658,159	218,332	-0,088	0,104
-657,145	-51,693	-0,104	0,035
-656,130	309,639	0,061	0,084
-655,116	-104,426	-0,118	-0,020
-654,101	800,000	0,007	-0,013
-653,086	-38,435	-0,071	0,027
-652,072	48,367	-0,072	0,050
-651,057	-200,000	0,008	-0,096
-650,043	263,130	0,025	0,031
-649,028	-92,077	-0,175	-0,036
-648,014	-200,000	0,008	0,101
-646,999	461,268	-0,079	0,130
-645,984	-200,000	-0,018	0,133
-644,970	249,179	0,104	-0,129
-643,955	-100,345	0,119	-0,021
-642,941	131,765	-0,089	-0,084
-641,926	186,541	0,044	0,048
-640,911	-163,456	0,046	-0,002
-639,897	130,423	0,052	0,049
-638,882	324,624	-0,053	0,075
-637,868	-200,000	-0,004	0,029
-636,853	-68,574	-0,079	-0,022
-635,838	483,465	-0,047	0,079
-634,824	-138,051	-0,066	0,005
-633,809	-79,441	0,108	-0,026
-632,795	-200,000	-0,014	0,106
-631,780	-200,000	-0,048	0,156
-630,765	35,377	-0,164	-0,106
-629,751	-200,000	0,014	-0,076
-628,736	-3,203	-0,090	-0,046
-627,722	-200,000	0,044	-0,152
-626,707	-67,601	0,145	0,041
-625,692	-28,812	-0,102	-0,043
-624,678	219,077	-0,074	0,087
-623,663	158,819	0,035	0,035
-622,649	159,741	0,073	0,074
-621,634	90,406	0,024	-0,020
-620,619	378,623	-0,046	-0,070
-619,605	460,418	-0,049	-0,080
-618,590	153,972	-0,076	0,077
-617,576	-200,000	0,007	0,111
-616,561	388,980	-0,010	0,015
-615,546	504,592	0,038	-0,065
-614,532	-25,977	-0,120	-0,051
-613,517	23,443	0,125	0,075
-612,503	345,544	0,019	0,027
-611,488	-90,336	0,122	0,026
-610,474	-200,000	0,004	-0,099
-609,459	-21,326	0,094	-0,042
-608,444	-103,437	-0,062	0,011
-607,430	-200,000	0,024	-0,232
-606,415	-200,000	-0,001	-0,124
-605,401	161,026	0,046	-0,047
-604,386	53,922	0,047	-0,033
-603,371	-61,618	0,055	-0,017
-602,357	57,902	-0,081	-0,058
-601,342	194,618	0,068	-0,076
-600,328	-200,000	-0,055	-0,182
-599,313	800,000	-0,039	-0,121
-598,298	45,292	-0,059	0,040
-597,284	492,635	-0,062	-0,104
-596,269	-200,000	-0,024	0,120
-595,255	371,910	-0,058	0,087
-594,240	8,241	0,018	-0,010
-593,225	800,000	-0,063	0,171
-592,211	800,000	-0,036	-0,081
-591,196	-13,609	-0,041	-0,020
-590,182	-21,311	0,159	-0,071
-589,167	800,000	-0,065	0,140
-588,152	23,098	-0,045	-0,027
-587,138	12,766	-0,119	0,067
-586,123	184,967	-0,031	0,034
-585,109	36,984	-0,108	0,070
-584,094	-200,000	0,019	0,063
-583,079	-9,966	0,031	-0,015
-582,065	4,640	0,067	-0,036
-581,050	-200,000	0,018	-0,071
-580,036	15,634	-0,091	-0,052
-579,021	-46,340	0,065	0,023
-578,006	-26,152	-0,045	-0,019
-576,992	-200,000	-0,032	0,158
-575,977	-135,389	0,107	0,009
-574,963	-5,815	0,076	0,038
-573,948	-99,179	0,018	-0,003
-572,934	-52,408	-0,161	-0,054
-571,919	-200,000	-0,001	0,115
-570,904	208,818	-0,081	0,093
-569,890	-53,614	-0,068	-0,023
-568,875	326,054	-0,077	0,108
-567,861	494,011	0,023	0,038
-566,846	644,740	0,047	0,088
-565,831	800,000	0,055	0,129
-564,817	800,000	-0,058	-0,119
-563,802	456,784	0,011	0,018
-562,788	800,000	-0,013	0,034
-561,773	-15,900	0,113	-0,052
-560,758	-200,000	-0,007	-0,037
-559,744	-172,378	0,041	-0,001
-558,729	-200,000	0,014	0,096
-557,715	-200,000	0,016	0,114
-556,700	614,315	0,074	0,136
-555,685	-200,000	0,019	-0,126
-554,671	2,472	0,149	-0,078
-553,656	-95,362	-0,068	-0,013
-552,642	-22,327	0,088	0,039
-551,627	-200,000	-0,003	-0,119
-550,612	-138,193	0,028	0,002
-549,598	17,484	-0,054	-0,031
-548,583	800,000	0,039	0,110
-547,569	-200,000	0,020	0,109
-546,554	800,000	-0,021	0,064
-545,539	247,408	-0,006	0,007
-544,525	800,000	0,008	0,024
-543,510	-45,294	-0,069	0,025
-542,496	88,129	0,086	0,070
-541,481	495,145	-0,036	-0,060
-540,466	800,000	-0,061	0,164
-539,452	-159,493	-0,150	0,006
-538,437	300,830	0,050	-0,068
-537,423	-62,289	0,099	0,030
-536,408	18,600	-0,097	-0,056
-535,393	160,477	0,110	0,112
-534,379	-200,000	0,005	-0,021
-533,364	-46,958	-0,149	-0,053
-532,350	-200,000	0,006	-0,127
-531,335	190,516	0,048	0,052
-530,321	-132,434	-0,038	0,004
-529,306	68,689	-0,026	0,019
-528,291	800,000	0,031	-0,090
-527,277	372,251	0,105	-0,157
-526,262	-200,000	0,006	0,030
-525,248	-62,054	0,132	-0,040
-524,233	-200,000	-0,003	0,105
-523,218	-170,241	-0,075	-0,002
-522,204	180,266	-0,055	-0,059
-521,189	-200,000	0,018	-0,064
-520,175	800,000	0,019	0,052
-519,160	-48,439	-0,027	-0,010
-518,145	143,571	0,075	-0,073
-517,131	-200,000	0,058	0,186
-516,116	-200,000	-0,020	0,082
-515,102	595,383	-0,017	-0,031
-514,087	-200,000	0,020	0,071
-513,072	96,378	-0,071	0,059
-512,058	800,000	-0,016	0,032
-511,043	69,732	0,034	-0,026
-510,029	36,619	0,086	-0,056
-509,014	-108,935	0,054	0,008
-507,999	-180,217	0,073	-0,001
-506,985	73,259	-0,082	0,063
-505,970	-200,000	-0,002	0,062
-504,956	349,083	0,032	-0,047
-503,941	-97,685	-0,056	0,010
-502,926	-48,223	0,034	-0,012
-501,912	-37,098	0,092	0,036
-500,897	227,856	0,043	-0,051
-499,883	-200,000	0,000	-0,079
-498,868	800,000	-0,042	-0,089
-497,853	-87,451	-0,101	0,022
-496,839	-200,000	-0,025	-0,121
-495,824	-19,803	0,158	-0,071
-494,810	-200,000	-0,002	-0,050
-493,795	800,000	0,030	0,088
-492,781	-163,295	-0,014	-0,000
-491,766	-200,000	-0,018	-0,078
-490,751	-34,923	-0,048	0,019
-489,737	-200,000	0,004	-0,041
-488,722	406,353	-0,037	-0,056
-487,708	74,484	0,077	0,059
-486,693	-68,477	0,089	0,025
-485,678	453,229	-0,046	0,075
-484,664	156,535	0,097	-0,098
-483,649	800,000	0,023	-0,069
-482,635	-200,000	0,002	-0,064
-481,620	351,276	-0,069	0,100
-480,605	233,088	0,086	0,104
-479,591	53,761	-0,016	-0,011
-478,576	80,256	-0,093	-0,073
-477,562	-200,000	0,031	-0,129
-476,547	314,242	-0,085	-0,117
-475,532	258,997	0,053	0,067
-474,518	-200,000	-0,025	0,106
-473,503	653,326	-0,044	-0,082
-472,489	152,490	0,091	0,090
-471,474	-77,613	-0,149	-0,037
-470,459	800,000	-0,024	0,053
-469,445	-70,046	-0,077	-0,021
-468,430	407,354	0,020	0,031
-467,416	-200,000	0,005	0,068
-466,401	28,645	-0,076	0,047
-465,386	72,631	0,078	0,059
-464,372	555,159	0,005	-0,009
-463,357	-200,000	0,001	-0,036
-462,343	-94,571	0,043	-0,008
-461,328	-108,015	0,079	0,012
-460,313	270,558	-0,041	-0,053
-459,299	-200,000	0,005	-0,072
-458,284	800,000	0,072	0,169
-457,270	64,426	-0,031	-0,023
-456,255	-5,856	0,067	0,034
-455,241	-89,698	-0,115	-0,024
-454,226	652,353	-0,051	-0,096
-453,211	63,833	0,071	0,052
-452,197	-200,000	-0,004	-0,042
-451,182	-200,000	-0,017	-0,085
-450,168	25,415	-0,075	0,045
-449,153	800,000	0,020	-0,047
-448,138	-79,915	-0,115	0,028
-447,124	-200,000	-0,018	-0,060
-446,109	404,520	-0,058	-0,090
-445,095	171,605	0,014	0,015
-444,080	-200,000	0,036	0,203
-443,065	1,825	0,064	-0,033
-442,051	79,860	0,038	-0,029
-441,036	480,736	-0,054	-0,089
-440,022	-61,953	-0,110	0,033
-439,007	207,458	0,026	-0,030
-437,992	-129,416	0,115	-0,012
-436,978	-200,000	0,006	0,019
-435,963	497,983	-0,067	0,113
-434,949	77,187	-0,086	-0,067
-433,934	389,891	0,043	-0,066
-432,919	-77,236	-0,078	-0,020
-431,905	-72,393	0,049	-0,013
-430,890	-2,685	0,025	-0,013
-429,876	800,000	0,013	0,027
-428,861	150,097	0,067	-0,067
-427,846	-91,940	-0,151	0,031
-426,832	-2,953	0,085	0,043
-425,817	-200,000	-0,072	-0,242
-424,803	800,000	-0,008	0,024
-423,788	51,468	0,023	0,016
-422,773	-200,000	0,010	0,074
-421,759	89,988	0,026	-0,021
-420,744	348,510	0,080	-0,116
-419,730	800,000	-0,025	-0,075
-418,715	-25,511	-0,131	-0,056
-417,701	-200,000	-0,019	-0,077
-416,686	-102,118	-0,136	-0,024
-415,671	-200,000	-0,014	0,108
-414,657	58,012	-0,137	0,097
-413,642	184,406	0,139	0,149
-412,628	114,920	0,070	0,062
-411,613	-119,432	0,089	0,011
-410,598	-200,000	0,004	-0,088
-409,584	92,081	-0,104	-0,085
-408,569	-200,000	0,003	0,086
-407,555	551,182	-0,091	0,159
-406,540	-31,492	-0,120	0,049
-405,525	437,980	-0,033	0,053
-404,511	-46,565	-0,125	0,044
-403,496	-74,621	0,057	-0,015
-402,482	220,504	0,072	-0,085
-401,467	105,340	-0,030	-0,026
-400,452	-200,000	-0,011	0,122
-399,438	96,621	-0,206	0,172
-398,423	-200,000	0,062	0,225
-397,409	-56,136	-0,116	-0,037
-396,394	-53,765	0,074	-0,024
-395,379	-37,616	0,023	0,009
-394,365	290,343	0,116	0,153
-393,350	15,014	0,129	-0,073
-392,336	23,712	-0,119	-0,071
-391,321	117,697	-0,081	0,072
-390,306	800,000	0,028	0,060
-389,292	223,021	-0,033	-0,038
-388,277	-200,000	0,017	-0,089
-387,263	482,453	0,058	-0,096
-386,248	-14,483	0,130	-0,060
-385,233	-200,000	-0,003	0,042
-384,219	-200,000	0,015	0,076
-383,204	-8,423	-0,162	-0,079
-382,190	-19,158	-0,117	-0,053
-381,175	-129,110	0,127	0,013
-380,160	800,000	-0,057	0,122
-379,146	-200,000	-0,011	0,040
-378,131	214,245	-0,173	0,199
-377,117	800,000	0,042	0,101
-376,102	-96,801	-0,221	0,042
-375,088	481,034	0,088	-0,145
-374,073	29,774	0,073	0,045
-373,058	-106,904	0,135	-0,022
-372,044	295,355	-0,031	-0,042
-371,029	800,000	-0,026	-0,061
-370,015	265,424	0,053	-0,067
-369,000	27,640	0,119	-0,073
-367,985	10,677	-0,121	-0,067
-366,971	-200,000	0,022	-0,102
-365,956	-200,000	0,016	-0,088
-364,942	-53,247	0,193	-0,064
-363,927	-200,000	-0,011	0,105
-362,912	127,348	0,146	0,135
-361,898	800,000	0,015	0,034
-360,883	-200,000	-0,011	-0,157
-359,869	46,557	-0,036	-0,024
-358,854	-73,684	-0,102	0,027
-357,839	288,829	0,064	0,084
-356,825	597,342	0,041	0,074
-355,810	-200,000	-0,004	0,016
-354,796	-200,000	-0,008	0,030
-353,781	-106,707	-0,045	-0,007
-352,766	-200,000	-0,012	-0,108
-351,752	800,000	0,013	-0,039
-350,737	-200,000	0,003	-0,075
-349,723	459,613	-0,078	-0,127
-348,708	-39,972	0,074	0,028
-347,693	27,199	0,071	-0,043
-346,679	17,534	-0,103	0,059
-345,664	-200,000	-0,022	-0,100
-344,650	-110,678	-0,019	0,003
-343,635	800,000	-0,008	0,025
-342,620	-200,000	-0,089	0,000
-341,606	-200,000	0,005	0,038
-340,591	-91,802	0,044	0,009
-339,577	800,000	0,063	-0,140
-338,562	35,166	-0,124	-0,079
-337,548	-200,000	0,004	-0,017
-336,533	-200,000	0,049	0,182
-335,518	-85,203	0,055	0,012
-334,504	-116,126	0,070	0,009
-333,489	193,254	-0,047	-0,052
-332,475	-128,563	0,119	-0,012
-331,460	-43,583	-0,103	0,038
-330,445	-200,000	-0,017	0,119
-329,431	404,794	-0,015	-0,024
-328,416	-109,505	0,031	0,005
-327,402	800,000	0,096	-0,200
-326,387	-200,000	0,012	-0,046
-325,372	-200,000	-0,021	0,103
-324,358	-80,525	-0,106	0,025
-323,343	800,000	0,031	-0,072
-322,329	70,496	-0,020	0,015
-321,314	124,301	0,150	0,137
-320,299	421,982	0,064	0,100
-319,285	-200,000	-0,008	-0,031
-318,270	-200,000	0,020	0,124
-317,256	343,052	-0,020	-0,029
-316,241	-200,000	-0,004	-0,067
-315,226	-200,000	0,002	0,063
-314,212	-142,951	0,115	-0,008
-313,197	365,565	-0,057	0,083
-312,183	45,700	-0,090	-0,060
-311,168	16,243	-0,106	0,060
-310,153	-200,000	0,021	0,076
-309,139	89,576	0,110	-0,089
-308,124	83,438	0,051	0,040
-307,110	-200,000	-0,012	0,075
-306,095	28,296	-0,129	-0,078
-305,080	337,968	-0,079	-0,112
-304,066	-77,675	-0,064	-0,016
-303,051	-58,400	-0,023	-0,007
-302,037	800,000	0,078	-0,166
-301,022	-52,811	-0,058	0,019
-300,008	95,166	0,068	-0,056
-298,993	496,168	0,074	0,124
-297,978	-10,597	-0,090	0,043
-296,964	348,225	-0,035	0,050
-295,949	273,847	-0,041	-0,052
-294,935	362,964	0,008	-0,011
-293,920	35,483	0,066	0,042
-292,905	800,000	-0,025	0,072
-291,891	137,452	0,153	0,145
-290,876	-40,018	0,163	0,061
-289,862	-41,825	0,145	-0,054
-288,847	-200,000	0,000	0,048
-287,832	127,224	-0,120	-0,110
-286,818	177,473	-0,052	-0,055
-285,803	-200,000	0,064	0,218
-284,789	800,000	0,043	0,117
-283,774	-148,933	0,133	-0,008
-282,759	222,699	-0,009	0,011
-281,745	-16,856	0,012	0,005
-280,730	630,756	0,069	-0,126
-279,716	290,742	-0,078	-0,103
-278,701	-200,000	0,002	0,013
-277,686	154,260	0,150	0,149
-276,672	382,274	0,024	-0,036
-275,657	-53,065	-0,103	0,034
-274,643	32,013	0,080	0,050
-273,628	-20,740	-0,120	0,053
-272,613	45,238	0,067	0,044
-271,599	354,013	-0,084	0,120
-270,584	-118,694	0,109	0,014
-269,570	223,716	0,090	-0,105
-268,555	20,946	-0,055	-0,032
-267,540	432,655	0,018	-0,029
-266,526	-200,000	0,004	-0,042
-265,511	800,000	-0,075	-0,193
-264,497	392,099	-0,024	-0,036
-263,482	-52,877	0,132	0,044
-262,467	-200,000	-0,007	0,195
-261,453	11,114	-0,007	0,004
-260,438	-121,406	-0,166	-0,020
-259,424	626,351	-0,030	-0,054
-258,409	-200,000	-0,006	-0,024
-257,395	103,781	0,067	0,057
-256,380	-200,000	0,008	-0,037
-255,365	-200,000	-0,027	0,091
-254,351	566,668	0,063	0,110
-253,336	-200,000	-0,015	-0,104
-252,322	-1,406	0,040	0,020
-251,307	325,013	-0,015	0,021
-250,292	170,950	0,033	0,034
-249,278	-200,000	-0,012	0,084
-248,263	389,677	0,041	0,061
-247,249	800,000	-0,010	0,029
-246,234	-200,000	0,009	0,031
-245,219	-200,000	0,002	-0,133
-244,205	-101,061	0,148	-0,026
-243,190	-200,000	-0,017	0,110
-242,176	-200,000	-0,007	-0,093
-241,161	85,595	0,069	0,055
-240,146	-200,000	-0,012	0,139
-239,132	-95,872	0,102	-0,019
-238,117	-200,000	0,024	-0,077
-237,103	-9,096	0,095	-0,046
-236,088	800,000	-0,017	-0,048
-235,073	-79,822	0,061	0,015
-234,059	557,942	-0,032	0,056
-233,044	-200,000	0,004	0,116
-232,030	213,864	-0,061	-0,069
-231,015	-200,000	-0,015	0,077
-230,000	129,183	-0,114	-0,105
-228,986	44,664	0,062	-0,041
-227,971	-167,753	0,058	-0,002
-226,957	-58,418	0,119	-0,037
-225,942	414,649	0,061	-0,094
-224,927	615,803	-0,049	0,090
-223,913	-200,000	0,016	-0,082
-222,898	7,800	-0,031	0,017
-221,884	-200,000	0,023	-0,121
-220,869	277,145	-0,030	-0,038
-219,855	-141,124	0,132	0,010
-218,840	-86,529	-0,072	0,016
-217,825	-104,847	-0,041	-0,007
-216,811	-125,645	0,077	-0,008
-215,796	21,756	-0,038	0,023
-214,782	32,937	-0,082	-0,051
-213,767	-31,203	0,073	-0,029
-212,752	-75,155	-0,146	0,037
-211,738	-57,895	0,062	-0,019
-210,723	-52,597	-0,053	0,017
-209,709	131,371	-0,042	-0,039
-208,694	6,993	-0,042	-0,022
-207,679	-35,298	-0,169	-0,066
-206,665	-3,748	0,069	0,034
-205,650	-78,202	0,151	0,037
-204,636	-200,000	-0,003	0,039
-203,621	-169,350	0,099	0,003
-202,606	-156,279	0,091	-0,004
-201,592	-60,865	-0,220	-0,067
-200,577	377,557	-0,093	-0,137
-199,563	3,589	0,150	-0,079
-198,548	7,830	0,068	0,037
-197,533	-200,000	0,001	0,072
-196,519	24,760	0,145	0,086
-195,504	-55,682	-0,080	-0,025
-194,490	-200,000	0,036	-0,135
-193,475	-85,110	-0,038	-0,009
-192,460	800,000	-0,020	-0,057
-191,446	-161,800	-0,141	0,005
-190,431	-37,161	0,077	0,029
-189,417	451,316	0,056	-0,089
-188,402	-118,481	-0,047	-0,006
-187,387	800,000	-0,060	-0,143
-186,373	-200,000	-0,001	-0,011
-185,358	-22,322	-0,086	-0,038
-184,344	-70,154	-0,081	0,022
-183,329	-59,951	0,140	0,043
-182,315	444,284	0,107	0,170
-181,300	-200,000	-0,014	0,119
-180,285	80,143	-0,106	-0,082
-179,271	800,000	-0,079	-0,199
-178,256	174,448	0,072	-0,076
-177,242	248,290	-0,031	0,038
-176,227	800,000	0,011	0,025
-175,212	800,000	0,020	0,057
-174,198	-85,695	0,016	0,004
-173,183	-200,000	0,003	-0,048
-172,169	170,919	-0,088	-0,091
-171,154	400,348	0,079	-0,120
-170,139	434,739	0,074	0,116
-169,125	-25,691	0,063	-0,027
-168,110	81,905	-0,014	-0,011
-167,096	-23,609	-0,054	-0,023
-166,081	-50,713	0,066	-0,022
-165,066	-47,546	-0,232	-0,081
-164,052	-200,000	-0,013	0,066
-163,037	95,597	-0,043	0,035
-162,023	-84,104	0,067	0,015
-161,008	102,634	-0,087	-0,073
-159,993	-153,413	-0,043	0,002
-158,979	176,751	-0,078	0,081
-157,964	128,174	-0,117	-0,107
-156,950	700,373	-0,042	-0,080
-155,935	319,439	0,033	0,045
-154,920	800,000	0,017	-0,043
-153,906	-110,894	0,039	0,006
-152,891	42,131	0,153	-0,100
-151,877	-135,391	-0,067	0,006
-150,862	-200,000	0,020	-0,080
-149,847	-200,000	-0,034	0,116
-148,833	-200,000	-0,009	-0,142
-147,818	-71,215	0,108	0,029
-146,804	188,117	0,038	0,041
-145,789	550,274	-0,017	-0,029
-144,775	-200,000	-0,048	0,226
-143,760	70,706	0,076	-0,057
-142,745	24,901	-0,069	0,041
-141,731	800,000	-0,039	0,118
-140,716	-131,173	0,121	-0,011
-139,702	-200,000	0,001	0,063
-138,687	311,124	0,048	-0,064
-137,672	-200,000	-0,008	-0,088
-136,658	230,260	0,099	0,117
-135,643	-43,458	-0,153	-0,055
-134,629	-78,372	0,172	0,042
-133,614	-129,626	-0,141	-0,014
-132,599	111,396	-0,056	0,049
-131,585	143,431	-0,020	-0,019
-130,570	-41,562	0,054	-0,020
-129,556	800,000	0,049	0,126
-128,541	122,860	0,032	-0,029
-127,526	-107,713	-0,092	-0,014
-126,512	63,984	0,060	-0,043
-125,497	114,046	-0,054	0,047
-124,483	31,928	-0,029	-0,018
-123,468	-143,168	0,069	-0,005
-122,453	45,868	-0,103	0,069
-121,439	-62,230	0,070	0,021
-120,424	-200,000	-0,000	-0,082
-119,410	-102,145	-0,070	-0,012
