DTS Sentinel unit serial number:	SN410029Multiplexer serial number:	ORYXHardware model number:	OX2-SRSoftware version number:	ORYX F/W v4,00 Oryx Data Collector v3.7.2.0data status	okinstallation	B5 Nyhavnadifferential loss correction	single-endedforward channel	channel 2reverse channel	N/Adate	2023/12/13time	20:27:13forward acquisition time	300,00reverse acquisition time	0,00gamma	499,1914k internal	0,3158k external	0,3158temperature offset calibration	1,0000default loss term (dB/km)	0,3820temperature slope calibration	1,0000multiplexer offset coefficient	1,0000multiplexer slope coefficient	1,0000fibre end	0,00T internal ref (°C)	10,79T ext. ref 1 (°C)	-6,24T ext. ref 2 (°C)	-6,32length (m)	temperature (°C)	Stokes	anti-Stokes-744,400	-94,024	0,092	-0,018
-743,385	-60,129	-0,350	0,109
-742,371	48,552	0,217	0,150
-741,356	-108,452	-0,337	0,053
-740,342	-163,836	0,188	0,006
-739,327	-55,032	-0,296	-0,098
-738,312	-141,035	0,172	-0,013
-737,298	-188,339	-0,463	-0,004
-736,283	-49,274	0,186	0,065
-735,269	-78,019	-0,385	-0,097
-734,254	233,595	0,064	0,077
-733,239	-81,760	-0,407	-0,098
-732,225	-46,054	0,169	0,061
-731,210	15,610	-0,070	0,040
-730,196	-200,000	-0,013	-0,054
-729,181	-150,723	-0,069	0,004
-728,167	-200,000	-0,033	-0,160
-727,152	-200,000	0,018	-0,165
-726,137	139,520	-0,130	-0,126
-725,123	-99,533	-0,052	-0,009
-724,108	-200,000	-0,025	-0,104
-723,094	-200,000	0,028	-0,122
-722,079	-200,000	0,034	-0,158
-721,064	-200,000	0,020	-0,172
-720,050	17,656	-0,001	0,001
-719,035	-200,000	-0,006	-0,080
-718,021	206,027	-0,137	-0,157
-717,006	34,401	-0,046	-0,030
-715,991	-200,000	-0,039	-0,183
-714,977	54,307	-0,064	-0,045
-713,962	766,859	-0,061	-0,122
-712,948	-22,408	-0,009	-0,004
-711,933	-146,956	-0,110	-0,007
-710,918	800,000	-0,024	-0,054
-709,904	37,864	-0,047	-0,031
-708,889	-92,381	-0,111	0,023
-707,875	292,190	-0,113	-0,152
-706,860	18,921	-0,037	-0,022
-705,845	800,000	-0,044	-0,135
-704,831	17,812	-0,075	0,044
-703,816	-200,000	-0,000	0,068
-702,802	-113,682	-0,170	-0,024
-701,787	-200,000	-0,020	-0,113
-700,772	800,000	-0,020	0,053
-699,758	571,704	-0,026	0,046
-698,743	800,000	-0,095	0,206
-697,729	36,838	0,162	0,105
-696,714	237,734	-0,065	0,080
-695,699	-66,686	-0,107	-0,031
-694,685	20,216	-0,191	0,113
-693,670	-200,000	0,016	-0,182
-692,656	800,000	-0,041	-0,103
-691,641	48,243	0,026	-0,018
-690,627	-72,713	0,111	-0,030
-689,612	800,000	0,079	-0,195
-688,597	-118,908	0,072	0,009
-687,583	214,445	-0,093	-0,109
-686,568	36,101	-0,078	0,051
-685,554	1,326	0,148	-0,078
-684,539	-52,963	0,074	-0,025
-683,524	194,285	0,043	0,048
-682,510	268,805	0,087	0,113
-681,495	744,061	0,016	0,031
-680,481	35,857	0,171	-0,110
-679,466	-168,502	-0,164	0,005
-678,451	14,786	-0,104	-0,060
-677,437	800,000	-0,056	-0,139
-676,422	208,784	-0,029	-0,034
-675,408	94,794	-0,089	-0,075
-674,393	-75,315	0,040	-0,010
-673,378	288,464	-0,071	-0,095
-672,364	564,791	-0,071	-0,127
-671,349	800,000	-0,011	-0,032
-670,335	63,335	0,069	0,051
-669,320	-146,802	0,097	0,006
-668,305	-200,000	0,005	-0,048
-667,291	192,132	-0,065	-0,072
-666,276	-40,795	-0,104	0,040
-665,262	290,758	0,071	-0,095
-664,247	-200,000	-0,003	-0,035
-663,232	98,461	-0,059	-0,050
-662,218	-153,069	-0,094	0,005
-661,203	-122,620	-0,052	0,006
-660,189	194,663	-0,060	0,067
-659,174	316,150	0,085	-0,119
-658,159	800,000	-0,036	0,104
-657,145	347,098	-0,048	-0,070
-656,130	-200,000	0,030	-0,115
-655,116	800,000	-0,038	-0,087
-654,101	-200,000	-0,017	0,062
-653,086	-139,439	-0,042	0,003
-652,072	-45,908	-0,077	-0,028
-651,057	-200,000	0,014	-0,195
-650,043	-22,923	-0,146	0,064
-649,028	800,000	0,008	0,017
-648,014	-91,404	-0,135	0,028
-646,999	-153,302	0,023	0,001
-645,984	83,870	-0,082	0,066
-644,970	-200,000	-0,003	-0,169
-643,955	-92,789	-0,056	-0,011
-642,941	-79,238	-0,087	0,021
-641,926	363,900	0,033	0,049
-640,911	-200,000	-0,024	0,113
-639,897	-200,000	0,033	-0,222
-638,882	-200,000	-0,030	-0,099
-637,868	390,820	-0,054	0,083
-636,853	-43,845	-0,072	-0,027
-635,838	296,065	0,068	0,091
-634,824	592,476	-0,043	0,079
-633,809	800,000	0,039	0,108
-632,795	-119,905	0,158	-0,020
-631,780	-33,642	-0,069	-0,028
-630,765	213,618	-0,061	0,070
-629,751	-110,630	0,070	-0,011
-628,736	-200,000	-0,030	-0,307
-627,722	-200,000	0,009	-0,035
-626,707	-53,904	-0,051	0,017
-625,692	-119,508	0,094	0,012
-624,678	-200,000	-0,003	0,103
-623,663	123,657	-0,058	-0,053
-622,649	-33,951	-0,063	0,025
-621,634	-26,525	-0,056	0,024
-620,619	800,000	-0,048	-0,099
-619,605	-117,804	0,113	0,015
-618,590	0,878	0,098	0,051
-617,576	435,878	0,055	0,087
-616,561	800,000	-0,015	0,044
-615,546	-57,961	0,078	-0,025
-614,532	397,249	-0,070	-0,107
-613,517	578,726	-0,063	-0,113
-612,503	-200,000	-0,015	-0,058
-611,488	74,013	0,030	0,023
-610,474	-200,000	0,003	0,153
-609,459	-200,000	0,001	0,126
-608,444	800,000	-0,033	0,068
-607,430	37,330	-0,053	0,035
-606,415	544,563	-0,091	-0,161
-605,401	163,583	-0,160	0,165
-604,386	0,346	0,078	0,040
-603,371	-200,000	0,026	0,146
-602,357	390,604	0,011	-0,017
-601,342	119,870	-0,075	0,068
-600,328	642,518	-0,037	-0,069
-599,313	0,794	-0,035	0,018
-598,298	-200,000	0,003	0,069
-597,284	153,945	-0,056	0,056
-596,269	228,077	0,104	0,124
-595,255	-109,213	0,119	0,018
-594,240	670,223	0,069	0,132
-593,225	800,000	-0,025	-0,062
-592,211	-200,000	0,041	-0,138
-591,196	-200,000	0,008	0,066
-590,182	77,247	-0,089	-0,069
-589,167	800,000	0,013	-0,034
-588,152	-132,890	-0,095	0,009
-587,138	608,022	0,021	0,039
-586,123	-200,000	0,025	0,150
-585,109	-154,557	-0,051	-0,002
-584,094	-166,807	-0,102	0,003
-583,079	-32,765	0,093	0,038
-582,065	800,000	0,032	0,081
-581,050	-200,000	0,005	-0,029
-580,036	800,000	0,028	-0,064
-579,021	-131,124	-0,088	-0,009
-578,006	503,919	-0,037	-0,064
-576,992	-26,032	-0,178	0,076
-575,977	-100,856	-0,028	-0,005
-574,963	32,429	0,077	0,049
-573,948	-21,928	-0,070	-0,031
-572,934	-200,000	-0,010	0,036
-571,919	800,000	-0,028	-0,083
-570,904	36,085	-0,145	-0,093
-569,890	-200,000	0,021	-0,096
-568,875	-167,694	0,020	0,001
-567,861	-97,978	0,130	0,024
-566,846	-200,000	0,002	0,035
-565,831	-68,844	-0,100	0,028
-564,817	800,000	-0,039	0,107
-563,802	800,000	0,034	-0,073
-562,788	-142,383	0,110	0,008
-561,773	-101,175	-0,058	0,010
-560,758	800,000	0,025	0,052
-559,744	-200,000	-0,009	0,095
-558,729	133,520	-0,043	0,041
-557,715	352,190	-0,059	-0,086
-556,700	163,275	-0,064	-0,066
-555,685	800,000	-0,023	-0,061
-554,671	-38,981	-0,004	-0,001
-553,656	-115,340	-0,024	0,003
-552,642	564,167	-0,054	0,096
-551,627	25,348	-0,150	0,091
-550,612	309,859	0,041	0,057
-549,598	-200,000	0,007	-0,056
-548,583	538,134	-0,026	0,045
-547,569	46,376	-0,048	-0,032
-546,554	-38,000	-0,099	0,038
-545,539	-64,843	-0,051	0,015
-544,525	132,613	-0,062	0,058
-543,510	-200,000	-0,001	-0,112
-542,496	9,142	-0,206	-0,114
-541,481	76,351	-0,031	0,024
-540,466	285,911	-0,044	0,058
-539,452	0,823	0,062	0,032
-538,437	6,868	0,070	0,038
-537,423	294,008	-0,035	0,047
-536,408	132,642	-0,030	-0,028
-535,393	800,000	0,047	-0,102
-534,379	800,000	-0,037	-0,091
-533,364	-200,000	-0,021	-0,178
-532,350	42,686	0,075	-0,050
-531,335	800,000	-0,018	-0,050
-530,321	74,226	0,072	0,055
-529,306	-200,000	0,006	-0,028
-528,291	-200,000	0,011	-0,041
-527,277	28,596	0,044	-0,027
-526,262	207,266	-0,029	-0,033
-525,248	0,198	0,167	-0,087
-524,233	-44,164	-0,083	-0,030
-523,218	652,583	-0,067	-0,126
-522,204	14,127	-0,102	0,058
-521,189	-200,000	0,000	0,069
-520,175	-4,609	-0,190	-0,096
-519,160	-77,040	0,029	-0,007
-518,145	800,000	-0,029	0,065
-517,131	-200,000	0,017	0,000
-516,116	-30,076	-0,023	0,010
-515,102	105,085	-0,052	0,045
-514,087	-34,834	0,121	-0,048
-513,072	544,265	0,009	-0,016
-512,058	-200,000	-0,017	-0,122
-511,043	-200,000	0,046	-0,183
-510,029	-140,011	0,172	-0,013
-509,014	-200,000	-0,020	0,081
-507,999	489,210	-0,059	-0,099
-506,985	-37,062	0,084	-0,033
-505,970	-200,000	0,005	-0,030
-504,956	788,997	-0,088	-0,177
-503,941	-147,905	0,224	0,013
-502,926	677,290	-0,082	0,157
-501,912	16,498	0,101	-0,058
-500,897	152,715	-0,067	0,067
-499,883	-200,000	-0,008	-0,042
-498,868	192,540	-0,058	0,064
-497,853	-29,861	-0,046	0,019
-496,839	800,000	-0,029	-0,064
-495,824	266,064	0,073	-0,093
-494,810	-200,000	0,004	0,042
-493,795	235,926	-0,019	-0,023
-492,781	79,051	0,095	-0,074
-491,766	-86,183	-0,050	-0,011
-490,751	113,159	0,113	0,100
-489,737	-19,536	0,026	-0,012
-488,722	-200,000	0,008	-0,169
-487,708	-27,179	0,111	0,047
-486,693	241,230	-0,035	0,042
-485,678	-46,902	0,100	-0,035
-484,664	-200,000	0,029	-0,141
-483,649	-200,000	-0,024	-0,093
-482,635	800,000	0,066	-0,136
-481,620	18,995	0,129	-0,075
-480,605	115,938	-0,011	0,010
-479,591	-28,006	-0,101	0,042
-478,576	-42,370	0,134	-0,050
-477,562	39,045	-0,077	-0,050
-476,547	-91,299	0,090	0,019
-475,532	800,000	-0,041	-0,111
-474,518	800,000	0,042	-0,099
-473,503	149,281	-0,072	0,072
-472,489	131,177	-0,020	0,019
-471,474	-138,054	0,165	0,013
-470,459	12,008	-0,146	0,081
-469,445	-59,086	0,038	0,012
-468,430	-200,000	-0,006	0,098
-467,416	800,000	-0,007	0,016
-466,401	800,000	-0,026	0,066
-465,386	800,000	0,098	0,216
-464,372	85,510	0,064	-0,051
-463,357	423,641	-0,111	-0,174
-462,343	677,244	-0,050	-0,095
-461,328	-31,783	-0,173	-0,071
-460,313	-200,000	-0,018	-0,116
-459,299	50,103	0,101	-0,070
-458,284	158,816	0,070	-0,071
-457,270	800,000	-0,055	0,129
-456,255	-157,472	-0,081	-0,003
-455,241	209,157	-0,050	0,058
-454,226	-169,321	0,021	-0,001
-453,211	56,594	-0,079	-0,056
-452,197	719,945	0,021	-0,041
-451,182	-76,978	0,064	-0,016
-450,168	465,460	-0,076	-0,124
-449,153	-120,213	0,108	0,013
-448,138	-60,534	0,064	-0,020
-447,124	781,013	0,047	0,095
-446,109	6,509	-0,074	0,040
-445,095	-200,000	0,034	0,165
-444,080	414,023	-0,018	0,028
-443,065	119,109	-0,068	0,061
-442,051	238,279	0,059	0,072
-441,036	122,230	0,124	-0,113
-440,022	-140,904	-0,122	-0,009
-439,007	66,134	-0,040	-0,029
-437,992	234,788	0,017	-0,020
-436,978	9,484	-0,086	0,047
-435,963	145,290	-0,126	-0,123
-434,949	224,497	-0,019	0,023
-433,934	-36,773	-0,115	-0,045
-432,919	-200,000	-0,020	-0,120
-431,905	-200,000	-0,003	-0,050
-430,890	76,520	0,097	-0,075
-429,876	-96,172	0,074	0,014
-428,861	800,000	0,027	-0,058
-427,846	399,193	-0,063	0,097
-426,832	15,006	-0,096	0,055
-425,817	39,098	0,084	-0,055
-424,803	-158,749	0,016	0,001
-423,788	-200,000	-0,019	-0,083
-422,773	-11,173	0,095	0,045
-421,759	-155,472	0,084	-0,004
-420,744	8,000	-0,076	-0,041
-419,730	351,397	-0,086	-0,124
-418,715	800,000	0,035	-0,083
-417,701	624,105	0,042	-0,078
-416,686	-62,013	0,162	0,049
-415,671	-166,435	0,048	-0,001
-414,657	39,114	-0,007	-0,005
-413,642	-165,600	-0,062	0,002
-412,628	800,000	-0,034	-0,083
-411,613	-200,000	-0,008	-0,098
-410,598	-8,053	-0,172	0,084
-409,584	-200,000	0,003	0,077
-408,569	-200,000	0,008	0,052
-407,555	800,000	-0,068	0,171
-406,540	-7,529	0,076	-0,037
-405,525	-200,000	0,011	-0,091
-404,511	59,304	0,138	-0,099
-403,496	800,000	-0,010	0,022
-402,482	37,529	0,088	-0,057
-401,467	7,107	0,126	-0,068
-400,452	-151,535	-0,090	0,005
-399,438	55,976	-0,103	0,073
-398,423	-34,037	0,208	-0,083
-397,409	89,066	0,098	-0,079
-396,394	-31,483	-0,118	-0,048
-395,379	-200,000	0,001	0,064
-394,365	800,000	-0,025	0,073
-393,350	-200,000	-0,012	-0,058
-392,336	-19,229	0,106	-0,048
-391,321	161,838	0,061	-0,063
-390,306	-58,743	-0,075	0,023
-389,292	-106,675	-0,209	-0,033
-388,277	-200,000	0,021	0,075
-387,263	-21,830	0,044	-0,020
-386,248	800,000	-0,023	0,053
-385,233	800,000	-0,026	-0,052
-384,219	61,030	-0,089	-0,064
-383,204	59,739	-0,060	-0,043
-382,190	-63,563	-0,038	-0,011
-381,175	170,837	-0,089	0,093
-380,160	-200,000	0,018	0,113
-379,146	520,004	0,091	0,155
-378,131	190,526	0,113	0,123
-377,117	-200,000	0,020	0,111
-376,102	-200,000	0,012	-0,065
-375,088	-200,000	0,003	-0,049
-374,073	-1,691	-0,081	-0,041
-373,058	-42,983	0,145	0,053
-372,044	-200,000	-0,001	0,078
-371,029	86,518	0,059	0,047
-370,015	707,729	-0,046	-0,090
-369,000	-200,000	0,004	-0,114
-367,985	-91,843	0,128	-0,026
-366,971	208,944	0,018	0,020
-365,956	-200,000	0,009	0,219
-364,942	76,742	0,057	0,044
-363,927	-200,000	-0,006	0,020
-362,912	-55,452	0,184	-0,060
-361,898	-121,717	-0,067	-0,008
-360,883	-200,000	-0,002	-0,058
-359,869	32,900	0,145	-0,091
-358,854	-143,338	0,082	0,006
-357,839	-200,000	-0,022	-0,098
-356,825	515,727	0,039	-0,066
-355,810	-200,000	-0,000	0,062
-354,796	-99,805	0,040	0,007
-353,781	-183,222	-0,041	-0,001
-352,766	537,739	0,025	0,044
-351,752	-142,472	0,165	0,012
-350,737	383,469	-0,036	-0,054
-349,723	609,089	0,004	0,007
-348,708	800,000	0,032	0,085
-347,693	2,977	-0,162	0,085
-346,679	119,820	0,067	-0,060
-345,664	-19,922	-0,091	-0,041
-344,650	237,514	-0,052	0,063
-343,635	8,507	0,123	0,067
-342,620	-14,193	0,055	0,026
-341,606	162,093	0,039	0,040
-340,591	800,000	0,029	0,084
-339,577	-84,445	0,139	-0,032
-338,562	-102,705	0,030	-0,005
-337,548	-200,000	-0,035	0,169
-336,533	-200,000	0,005	-0,028
-335,518	-147,956	-0,106	0,006
-334,504	-200,000	-0,007	0,122
-333,489	-26,544	-0,081	-0,034
-332,475	551,768	0,019	0,034
-331,460	52,335	-0,057	-0,039
-330,445	800,000	0,016	0,039
-329,431	-200,000	0,005	-0,022
-328,416	-200,000	0,033	0,171
-327,402	-200,000	-0,003	0,022
-326,387	8,095	-0,073	-0,039
-325,372	-200,000	-0,022	-0,080
-324,358	-96,489	0,034	0,006
-323,343	124,359	-0,105	-0,096
-322,329	-129,809	-0,049	0,005
-321,314	-200,000	-0,011	0,091
-320,299	557,228	0,019	-0,033
-319,285	-200,000	-0,001	-0,125
-318,270	-52,473	0,118	-0,039
-317,256	800,000	0,031	0,087
-316,241	6,387	0,063	-0,034
-315,226	-200,000	-0,023	-0,156
-314,212	-200,000	-0,003	-0,089
-313,197	-200,000	-0,023	0,087
-312,183	-27,800	0,088	-0,037
-311,168	5,811	-0,103	-0,055
-310,153	-101,952	-0,093	0,016
-309,139	-200,000	-0,010	-0,125
-308,124	-200,000	0,007	-0,100
-307,110	-200,000	0,019	0,067
-306,095	370,359	0,037	-0,055
-305,080	-111,903	-0,029	0,004
-304,066	269,673	0,047	0,060
-303,051	368,011	0,029	-0,043
-302,037	266,866	-0,059	0,075
-301,022	158,860	0,101	-0,102
-300,008	-127,717	0,065	0,007
-298,993	0,520	0,066	-0,034
-297,978	-200,000	-0,014	0,153
-296,964	-200,000	-0,009	-0,134
-295,949	237,787	0,063	-0,076
-294,935	-123,712	-0,088	0,010
-293,920	800,000	0,015	0,045
-292,905	-200,000	-0,018	-0,059
-291,891	132,404	-0,083	0,078
-290,876	324,537	-0,049	0,067
-289,862	-200,000	-0,002	-0,069
-288,847	82,559	-0,061	0,048
-287,832	-98,351	-0,129	-0,024
-286,818	-37,591	0,077	0,029
-285,803	-200,000	0,003	-0,020
-284,789	-53,440	0,098	0,032
-283,774	7,643	-0,017	0,009
-282,759	800,000	0,006	-0,013
-281,745	87,306	-0,056	-0,045
-280,730	67,289	0,064	0,048
-279,716	587,343	0,034	0,061
-278,701	284,314	-0,010	-0,013
-277,686	-200,000	-0,003	0,026
-276,672	800,000	-0,025	0,073
-275,657	-200,000	-0,020	0,173
-274,643	156,470	0,034	-0,034
-273,628	-200,000	0,021	-0,144
-272,613	-56,223	-0,089	-0,029
-271,599	32,772	-0,067	0,042
-270,584	800,000	0,008	0,021
-269,570	538,912	-0,034	0,059
-268,555	800,000	0,044	-0,115
-267,540	-117,092	0,088	0,012
-266,526	73,691	0,149	-0,113
-265,511	42,581	-0,015	0,010
-264,497	800,000	-0,030	0,094
-263,482	-162,433	0,050	-0,002
-262,467	752,646	0,059	-0,115
-261,453	-17,772	0,023	0,011
-260,438	-8,092	-0,064	-0,031
-259,424	583,802	0,048	-0,086
-258,409	-178,755	-0,065	-0,001
-257,395	-107,008	0,089	0,014
-256,380	-200,000	0,010	0,097
-255,365	-5,631	-0,112	0,055
-254,351	93,025	0,104	-0,085
-253,336	-144,826	-0,089	0,006
-252,322	-200,000	-0,028	-0,091
-251,307	11,491	-0,127	-0,070
-250,292	-200,000	-0,004	0,061
-249,278	484,411	0,086	0,142
-248,263	526,426	0,053	0,091
-247,249	133,862	-0,081	0,076
-246,234	244,108	0,007	-0,009
-245,219	66,359	-0,091	-0,067
-244,205	800,000	-0,056	0,113
-243,190	-200,000	0,061	0,200
-242,176	-200,000	0,005	-0,116
-241,161	227,898	-0,027	0,032
-240,146	-26,646	-0,049	0,020
-239,132	-13,806	-0,148	-0,069
-238,117	800,000	0,005	0,015
-237,103	-5,781	-0,044	-0,022
-236,088	-91,935	0,039	0,008
-235,073	-200,000	-0,015	0,077
-234,059	-200,000	-0,000	0,045
-233,044	-106,516	0,097	-0,015
-232,030	-157,379	0,074	0,003
-231,015	-200,000	0,008	0,055
-230,000	324,530	-0,078	-0,108
-228,986	353,008	-0,065	0,094
-227,971	-200,000	0,021	0,169
-226,957	0,221	0,064	0,033
-225,942	354,696	0,064	0,092
-224,927	503,624	-0,053	-0,088
-223,913	-16,104	-0,071	-0,032
-222,898	-7,835	0,077	-0,037
-221,884	800,000	-0,024	0,056
-220,869	-96,581	0,079	0,015
-219,855	800,000	0,029	-0,091
-218,840	-200,000	-0,024	-0,088
-217,825	56,605	-0,059	0,041
-216,811	800,000	-0,024	-0,069
-215,796	38,400	0,017	0,011
-214,782	54,627	-0,068	-0,047
-213,767	327,067	-0,080	0,111
-212,752	551,433	0,089	0,155
-211,738	-77,895	0,108	0,027
-210,723	800,000	0,027	0,082
-209,709	547,987	-0,028	-0,049
-208,694	106,305	0,032	-0,028
-207,679	-200,000	0,007	-0,033
-206,665	518,467	0,090	0,153
-205,650	-200,000	0,019	-0,084
-204,636	223,944	0,112	0,131
-203,621	-2,713	-0,121	0,061
-202,606	-200,000	0,001	0,144
-201,592	-200,000	-0,019	-0,105
-200,577	-85,369	-0,091	-0,020
-199,563	-80,620	0,100	-0,024
-198,548	-172,145	0,086	-0,002
-197,533	172,124	0,101	-0,105
-196,519	800,000	-0,025	0,079
-195,504	165,299	0,095	-0,097
-194,490	193,235	-0,058	-0,063
-193,475	-200,000	0,017	0,072
-192,460	-104,995	-0,058	0,009
-191,446	-12,119	-0,057	0,027
-190,431	51,606	0,101	0,069
-189,417	-98,952	0,053	-0,010
-188,402	-90,384	-0,169	0,035
-187,387	-200,000	-0,001	0,053
-186,373	39,018	0,061	0,039
-185,358	-200,000	-0,001	0,141
-184,344	120,133	0,038	0,034
-183,329	141,745	0,044	-0,042
-182,315	68,346	0,079	0,059
-181,300	292,643	-0,040	0,053
-180,285	-112,855	-0,095	0,013
-179,271	800,000	0,021	0,049
-178,256	-121,445	-0,069	0,008
-177,242	719,433	0,068	-0,131
-176,227	107,715	-0,033	-0,029
-175,212	-18,891	0,106	0,047
-174,198	117,234	0,078	-0,069
-173,183	697,113	0,022	-0,042
-172,169	190,574	0,067	0,073
-171,154	-51,995	-0,076	0,025
-170,139	-102,523	0,070	0,012
-169,125	499,022	0,044	0,073
-168,110	800,000	-0,033	0,073
-167,096	406,431	-0,058	-0,088
-166,081	220,330	0,125	0,145
-165,066	-162,925	-0,100	-0,003
-164,052	-55,656	0,019	-0,006
-163,037	-89,535	-0,011	0,002
-162,023	-200,000	-0,007	0,086
-161,008	800,000	-0,047	-0,116
-159,993	-163,589	-0,116	0,004
-158,979	-1,092	-0,056	-0,029
-157,964	800,000	-0,040	-0,117
-156,950	-60,117	0,099	0,030
-155,935	0,792	0,062	0,032
-154,920	-14,580	0,097	-0,045
-153,906	800,000	0,099	0,216
-152,891	67,407	-0,067	-0,049
-151,877	-200,000	0,027	-0,132
-150,862	-200,000	-0,015	-0,064
-149,847	-53,323	0,041	0,014
-148,833	79,937	0,137	-0,106
-147,818	-200,000	-0,004	-0,095
-146,804	3,907	0,095	-0,050
-145,789	190,605	0,100	0,108
-144,775	-88,859	-0,042	0,009
-143,760	-137,307	0,051	-0,004
-142,745	-168,484	0,007	-0,000
-141,731	-21,901	0,137	-0,060
-140,716	-200,000	0,002	-0,036
-139,702	-123,369	-0,054	-0,006
-138,687	624,738	0,025	0,045
-137,672	152,315	0,079	-0,078
-136,658	33,651	0,028	0,018
-135,643	-200,000	-0,020	-0,099
-134,629	166,604	0,030	-0,031
-133,614	-106,590	-0,110	0,017
-132,599	26,523	-0,115	0,069
-131,585	-200,000	-0,025	0,082
-130,570	-165,705	-0,038	-0,001
-129,556	-200,000	-0,099	-0,000
-128,541	51,414	-0,047	-0,032
-127,526	800,000	-0,023	-0,061
-126,512	9,797	-0,179	0,098
-125,497	-200,000	0,018	0,140
-124,483	-200,000	0,032	0,129
-123,468	-192,917	-0,088	-0,001
-122,453	-72,669	-0,126	-0,033
-121,439	94,534	0,135	-0,111
-120,424	743,194	-0,044	-0,085
-119,410	71,332	-0,037	0,028
