DTS Sentinel unit serial number:	SN410029Multiplexer serial number:	ORYXHardware model number:	OX2-SRSoftware version number:	ORYX F/W v4,00 Oryx Data Collector v3.7.2.0data status	okinstallation	B5 Nyhavnadifferential loss correction	single-endedforward channel	channel 2reverse channel	N/Adate	2023/12/14time	03:57:13forward acquisition time	300,00reverse acquisition time	0,00gamma	499,1914k internal	0,3156k external	0,3156temperature offset calibration	1,0000default loss term (dB/km)	0,3820temperature slope calibration	1,0000multiplexer offset coefficient	1,0000multiplexer slope coefficient	1,0000fibre end	0,00T internal ref (°C)	8,04T ext. ref 1 (°C)	-8,40T ext. ref 2 (°C)	-8,47length (m)	temperature (°C)	Stokes	anti-Stokes-744,400	-61,989	0,233	-0,071
-743,385	-50,016	-0,312	0,109
-742,371	354,170	0,102	0,150
-741,356	-61,287	-0,305	-0,094
-740,342	-49,830	0,160	0,056
-739,327	-126,099	-0,412	0,045
-738,312	37,468	0,177	0,115
-737,298	-91,930	-0,364	-0,075
-736,283	-118,349	0,157	0,020
-735,269	-159,504	-0,307	-0,012
-734,254	343,274	0,099	0,144
-733,239	18,224	-0,525	-0,308
-732,225	29,410	0,169	0,106
-731,210	20,510	-0,128	0,076
-730,196	12,305	0,051	0,029
-729,181	-200,000	0,005	-0,053
-728,167	-18,341	-0,088	0,040
-727,152	-122,632	0,163	-0,019
-726,137	-200,000	-0,008	-0,063
-725,123	178,331	-0,030	0,033
-724,108	-168,419	-0,180	-0,005
-723,094	123,179	-0,070	0,064
-722,079	0,662	-0,211	-0,111
-721,064	116,462	-0,069	-0,062
-720,050	-44,656	0,108	-0,039
-719,035	-69,201	-0,146	0,041
-718,021	-200,000	0,008	0,055
-717,006	-34,606	-0,059	0,024
-715,991	501,992	-0,076	0,129
-714,977	466,188	-0,012	0,020
-713,962	382,342	0,041	-0,062
-712,948	-200,000	-0,003	0,191
-711,933	330,019	0,032	0,046
-710,918	-53,589	0,035	-0,012
-709,904	-0,325	-0,057	0,030
-708,889	-72,032	-0,033	-0,009
-707,875	-200,000	-0,010	-0,058
-706,860	640,806	0,006	-0,012
-705,845	-200,000	-0,004	-0,065
-704,831	-90,304	-0,095	-0,020
-703,816	-108,947	0,099	0,015
-702,802	50,573	0,070	-0,049
-701,787	-59,702	-0,234	0,073
-700,772	-200,000	-0,024	-0,208
-699,758	310,001	0,032	0,044
-698,743	-200,000	-0,036	0,148
-697,729	-200,000	-0,006	0,027
-696,714	800,000	0,068	0,144
-695,699	55,961	-0,062	0,044
-694,685	-200,000	-0,003	0,040
-693,670	800,000	0,021	-0,062
-692,656	800,000	-0,018	-0,050
-691,641	-97,891	0,070	0,013
-690,627	278,769	0,077	-0,101
-689,612	-101,130	-0,078	-0,014
-688,597	-17,547	0,165	-0,076
-687,583	-94,141	-0,094	0,019
-686,568	-200,000	-0,015	0,050
-685,554	800,000	-0,009	-0,027
-684,539	-169,398	-0,043	0,001
-683,524	101,187	-0,104	-0,089
-682,510	800,000	-0,027	0,073
-681,495	-23,248	-0,094	-0,041
-680,481	-200,000	0,012	0,065
-679,466	800,000	-0,062	-0,184
-678,451	-185,280	-0,074	-0,001
-677,437	-200,000	-0,004	0,032
-676,422	309,012	0,063	-0,086
-675,408	281,488	-0,079	-0,105
-674,393	-200,000	-0,003	0,120
-673,378	-179,737	-0,085	-0,001
-672,364	13,577	-0,104	-0,059
-671,349	-1,242	-0,049	-0,025
-670,335	-161,226	0,071	-0,003
-669,320	-49,093	0,073	0,025
-668,305	-110,773	-0,054	-0,008
-667,291	5,752	0,050	0,027
-666,276	800,000	-0,037	-0,113
-665,262	95,048	0,029	0,024
-664,247	-44,159	-0,017	0,006
-663,232	-200,000	-0,009	-0,068
-662,218	-18,584	0,085	-0,039
-661,203	-122,919	0,134	0,016
-660,189	-118,427	-0,058	0,007
-659,174	-146,488	0,042	-0,003
-658,159	368,594	-0,117	-0,174
-657,145	140,960	0,056	-0,055
-656,130	800,000	0,039	0,089
-655,116	-125,850	-0,082	-0,009
-654,101	-52,222	0,158	0,053
-653,086	266,064	0,015	-0,020
-652,072	235,556	-0,052	0,064
-651,057	-91,251	-0,084	0,017
-650,043	-200,000	0,023	0,084
-649,028	800,000	-0,064	-0,148
-648,014	59,592	-0,094	0,068
-646,999	-200,000	-0,020	-0,095
-645,984	-78,388	0,017	-0,004
-644,970	-63,424	-0,090	0,027
-643,955	86,803	0,039	0,032
-642,941	-47,813	-0,097	-0,034
-641,926	424,346	0,044	0,069
-640,911	-195,716	-0,131	-0,001
-639,897	-39,434	-0,060	0,023
-638,882	-200,000	0,017	-0,062
-637,868	263,593	-0,063	-0,081
-636,853	-200,000	0,018	0,130
-635,838	-106,038	-0,087	0,014
-634,824	-37,162	0,036	0,014
-633,809	223,483	-0,016	-0,019
-632,795	437,338	0,026	-0,042
-631,780	512,441	0,029	0,050
-630,765	800,000	-0,072	0,177
-629,751	667,769	-0,052	-0,100
-628,736	800,000	0,022	0,058
-627,722	-34,493	-0,083	-0,033
-626,707	485,587	0,036	0,061
-625,692	55,910	0,020	0,014
-624,678	-60,922	0,067	-0,021
-623,663	-75,087	0,076	-0,020
-622,649	800,000	0,052	-0,135
-621,634	106,211	-0,126	0,110
-620,619	263,277	0,076	-0,098
-619,605	-63,697	0,074	-0,022
-618,590	-200,000	-0,008	0,042
-617,576	23,998	0,029	0,018
-616,561	800,000	0,021	0,054
-615,546	800,000	0,046	0,107
-614,532	-63,509	-0,100	-0,030
-613,517	800,000	0,079	-0,180
-612,503	800,000	-0,047	-0,098
-611,488	152,546	0,118	0,118
-610,474	800,000	0,033	0,068
-609,459	-52,490	-0,108	-0,036
-608,444	-200,000	-0,018	-0,148
-607,430	-17,324	0,128	-0,059
-606,415	117,764	-0,087	-0,079
-605,401	347,410	0,052	0,075
-604,386	300,620	0,041	0,056
-603,371	313,116	-0,066	0,092
-602,357	512,895	-0,032	0,055
-601,342	-200,000	-0,004	-0,090
-600,328	-41,047	0,068	-0,026
-599,313	-91,094	-0,132	-0,027
-598,298	35,010	-0,068	0,043
-597,284	-118,384	0,063	-0,008
-596,269	107,589	0,073	0,064
-595,255	119,727	0,046	0,042
-594,240	11,331	-0,039	0,022
-593,225	-200,000	0,004	-0,014
-592,211	-136,554	-0,101	-0,008
-591,196	-71,696	0,129	0,035
-590,182	-104,754	0,093	-0,016
-589,167	-200,000	-0,024	-0,229
-588,152	-111,899	0,103	-0,015
-587,138	-200,000	0,007	-0,070
-586,123	122,955	-0,095	0,088
-585,109	-200,000	-0,013	-0,142
-584,094	554,471	-0,127	-0,225
-583,079	-157,019	0,176	-0,008
-582,065	-200,000	0,021	0,176
-581,050	-200,000	-0,006	-0,030
-580,036	800,000	0,015	-0,047
-579,021	800,000	-0,029	-0,071
-578,006	97,828	0,068	-0,057
-576,992	144,179	-0,021	-0,020
-575,977	-200,000	-0,024	-0,084
-574,963	460,272	0,023	-0,038
-573,948	154,460	-0,064	-0,065
-572,934	-72,001	-0,096	-0,026
-571,919	-141,207	0,110	0,008
-570,904	-200,000	-0,013	0,046
-569,890	57,870	0,101	-0,072
-568,875	190,668	-0,071	0,079
-567,861	-147,114	0,022	0,001
-566,846	-55,205	0,084	0,028
-565,831	-200,000	-0,006	-0,031
-564,817	54,393	-0,071	-0,050
-563,802	800,000	-0,013	0,038
-562,788	446,649	-0,055	-0,089
-561,773	328,720	-0,035	-0,049
-560,758	237,666	0,079	0,096
-559,744	800,000	0,050	-0,112
-558,729	-200,000	-0,009	0,085
-557,715	-35,246	0,039	-0,016
-556,700	-122,125	-0,060	-0,007
-555,685	-200,000	-0,023	0,112
-554,671	-128,104	-0,086	-0,009
-553,656	332,350	-0,075	-0,106
-552,642	25,017	0,078	0,047
-551,627	334,914	-0,023	0,033
-550,612	-200,000	0,014	-0,049
-549,598	-200,000	0,002	-0,125
-548,583	-120,145	0,051	-0,006
-547,569	222,145	0,075	-0,089
-546,554	800,000	-0,040	0,099
-545,539	-200,000	-0,002	0,103
-544,525	-64,355	0,110	0,033
-543,510	520,307	-0,037	-0,064
-542,496	37,028	-0,166	0,108
-541,481	800,000	-0,036	-0,108
-540,466	-171,674	0,044	-0,001
-539,452	183,556	0,100	0,108
-538,437	396,049	-0,076	0,117
-537,423	800,000	-0,025	0,063
-536,408	-147,253	0,177	0,011
-535,393	800,000	-0,054	-0,140
-534,379	-82,912	0,050	0,012
-533,364	235,065	-0,054	-0,065
-532,350	95,847	-0,160	-0,133
-531,335	-200,000	0,065	0,217
-530,321	800,000	0,010	0,025
-529,306	800,000	-0,027	0,060
-528,291	-109,698	-0,039	-0,006
-527,277	-71,470	0,103	-0,028
-526,262	-200,000	-0,013	0,130
-525,248	373,086	-0,021	0,031
-524,233	-200,000	-0,002	0,094
-523,218	232,915	-0,112	0,135
-522,204	59,835	0,173	0,125
-521,189	10,145	-0,073	0,040
-520,175	-113,687	-0,068	-0,010
-519,160	-200,000	-0,009	0,124
-518,145	-200,000	-0,016	0,053
-517,131	-200,000	-0,024	0,094
-516,116	-200,000	-0,006	0,120
-515,102	525,582	-0,067	0,115
-514,087	-200,000	-0,055	0,181
-513,072	-151,227	0,114	0,006
-512,058	14,442	0,067	-0,038
-511,043	-22,201	-0,088	-0,039
-510,029	155,889	0,016	0,016
-509,014	173,786	0,160	0,169
-507,999	16,446	-0,218	0,126
-506,985	800,000	-0,026	0,057
-505,970	657,506	-0,061	-0,115
-504,956	106,444	-0,065	-0,057
-503,941	0,585	-0,060	-0,031
-502,926	800,000	0,028	-0,061
-501,912	-126,477	-0,012	-0,001
-500,897	-18,562	0,097	-0,044
-499,883	126,989	-0,105	-0,097
-498,868	-67,857	-0,012	-0,003
-497,853	16,410	-0,154	-0,089
-496,839	230,782	0,057	0,068
-495,824	-200,000	0,016	-0,102
-494,810	-12,370	0,160	-0,076
-493,795	-200,000	0,029	0,135
-492,781	-200,000	0,021	-0,132
-491,766	363,874	-0,074	-0,109
-490,751	-102,693	0,118	-0,020
-489,737	800,000	0,061	-0,187
-488,722	-47,444	0,067	-0,024
-487,708	-110,412	-0,088	-0,013
-486,693	17,207	0,094	-0,054
-485,678	-123,114	0,020	0,002
-484,664	-200,000	-0,010	-0,167
-483,649	-56,726	-0,062	-0,020
-482,635	800,000	0,010	-0,023
-481,620	338,281	0,030	0,043
-480,605	-141,985	0,115	-0,008
-479,591	4,831	-0,076	-0,041
-478,576	54,249	0,089	-0,062
-477,562	-200,000	-0,016	-0,059
-476,547	-28,911	0,047	0,020
-475,532	153,543	0,064	0,064
-474,518	-46,428	-0,033	0,012
-473,503	-116,282	0,038	-0,005
-472,489	-88,462	-0,004	-0,001
-471,474	-200,000	-0,027	0,112
-470,459	185,292	-0,056	0,060
-469,445	800,000	-0,062	-0,184
-468,430	-200,000	-0,025	-0,111
-467,416	-116,925	0,129	0,017
-466,401	654,251	-0,074	0,139
-465,386	278,390	0,081	0,105
-464,372	-53,130	-0,011	0,004
-463,357	800,000	0,041	0,084
-462,343	-200,000	0,029	-0,099
-461,328	-95,901	0,045	0,009
-460,313	-138,485	0,056	-0,004
-459,299	37,521	-0,078	-0,050
-458,284	117,894	0,143	0,128
-457,270	-200,000	0,017	0,156
-456,255	589,959	-0,036	-0,065
-455,241	-50,958	-0,157	0,054
-454,226	-200,000	-0,005	-0,015
-453,211	-200,000	0,005	0,138
-452,197	-200,000	-0,108	-0,000
-451,182	196,248	0,107	0,118
-450,168	-200,000	-0,008	0,090
-449,153	800,000	-0,023	0,056
-448,138	1,730	-0,058	-0,030
-447,124	-160,891	-0,179	-0,007
-446,109	-86,607	0,054	0,012
-445,095	-200,000	-0,004	-0,036
-444,080	757,504	0,062	0,124
-443,065	-103,389	0,113	0,019
-442,051	800,000	0,038	-0,099
-441,036	23,816	0,026	-0,015
-440,022	-29,950	-0,038	0,016
-439,007	-92,424	0,110	-0,022
-437,992	800,000	0,013	0,029
-436,978	800,000	-0,039	0,091
-435,963	295,654	0,073	0,098
-434,949	127,919	-0,102	-0,095
-433,934	-34,999	-0,127	-0,050
-432,919	-200,000	-0,049	-0,192
-431,905	800,000	-0,023	-0,049
-430,890	530,832	-0,025	-0,043
-429,876	-81,302	0,067	-0,016
-428,861	-3,871	0,009	0,004
-427,846	33,132	0,051	-0,032
-426,832	50,481	0,059	0,041
-425,817	15,114	-0,127	0,072
-424,803	0,749	0,051	0,026
-423,788	-200,000	-0,016	-0,148
-422,773	-20,040	0,051	0,023
-421,759	67,795	-0,060	0,045
-420,744	-200,000	-0,014	-0,077
-419,730	-70,208	-0,114	-0,031
-418,715	-27,002	0,094	-0,040
-417,701	286,614	-0,148	0,196
-416,686	-200,000	-0,012	-0,044
-415,671	241,028	0,092	-0,112
-414,657	-200,000	0,005	0,150
-413,642	-200,000	0,001	0,038
-412,628	-200,000	0,005	-0,036
-411,613	146,469	-0,110	-0,107
-410,598	27,660	0,061	0,037
-409,584	-200,000	-0,008	-0,038
-408,569	3,749	-0,125	-0,066
-407,555	43,299	0,101	0,067
-406,540	-1,982	-0,083	-0,042
-405,525	-200,000	0,006	-0,146
-404,511	-200,000	-0,043	-0,163
-403,496	441,576	0,035	-0,056
-402,482	92,987	0,070	-0,057
-401,467	101,227	0,072	0,061
-400,452	-26,798	-0,035	-0,015
-399,438	6,474	-0,068	0,037
-398,423	581,261	-0,038	-0,068
-397,409	695,908	0,096	-0,183
-396,394	8,791	-0,050	-0,027
-395,379	800,000	0,024	-0,061
-394,365	-200,000	0,014	0,132
-393,350	-200,000	0,019	0,090
-392,336	800,000	-0,009	-0,027
-391,321	-200,000	0,009	0,108
-390,306	33,401	-0,078	0,049
-389,292	-61,552	-0,228	0,069
-388,277	240,748	0,143	0,173
-387,263	400,115	-0,016	-0,024
-386,248	495,059	-0,016	0,026
-385,233	121,954	0,018	0,016
-384,219	521,214	0,082	0,141
-383,204	88,838	-0,099	0,080
-382,190	800,000	-0,026	0,063
-381,175	230,647	-0,132	-0,157
-380,160	-5,146	0,040	-0,020
-379,146	800,000	0,040	0,103
-378,131	-91,295	-0,145	-0,030
-377,117	275,217	0,041	0,054
-376,102	-200,000	-0,008	-0,085
-375,088	-200,000	0,017	-0,059
-374,073	800,000	0,026	-0,069
-373,058	182,310	0,071	0,076
-372,044	20,082	-0,057	-0,033
-371,029	-94,047	-0,062	0,012
-370,015	-81,080	0,030	0,007
-369,000	-18,281	-0,091	0,041
-367,985	-29,111	0,045	-0,019
-366,971	800,000	-0,027	0,070
-365,956	-200,000	-0,028	0,147
-364,942	83,290	0,094	-0,075
-363,927	800,000	0,029	-0,075
-362,912	-200,000	-0,008	-0,077
-361,898	5,696	0,021	-0,011
-360,883	238,723	-0,054	-0,065
-359,869	354,312	0,048	0,069
-358,854	-200,000	-0,002	-0,087
-357,839	-200,000	0,041	0,154
-356,825	-200,000	0,013	0,104
-355,810	384,045	-0,108	0,163
-354,796	800,000	-0,025	0,052
-353,781	-200,000	0,020	-0,131
-352,766	-103,421	-0,168	0,028
-351,752	220,248	0,064	0,074
-350,737	355,122	0,059	0,085
-349,723	439,253	0,033	-0,052
-348,708	-107,535	-0,079	0,012
-347,693	243,803	-0,134	0,163
-346,679	-200,000	0,026	-0,090
-345,664	-200,000	0,021	-0,124
-344,650	-62,118	-0,008	-0,003
-343,635	-200,000	-0,022	-0,090
-342,620	-73,202	0,127	0,034
-341,606	703,626	-0,027	-0,051
-340,591	-38,805	0,054	0,021
-339,577	800,000	-0,013	0,043
-338,562	148,750	-0,071	-0,070
-337,548	-118,007	-0,099	0,013
-336,533	-200,000	0,008	-0,053
-335,518	-58,216	0,167	0,053
-334,504	-200,000	-0,007	0,078
-333,489	-34,505	-0,082	0,033
-332,475	-27,141	0,112	0,047
-331,460	-3,381	0,072	-0,036
-330,445	637,737	0,035	0,065
-329,431	-200,000	0,010	0,111
-328,416	3,340	0,068	0,036
-327,402	800,000	0,030	0,092
-326,387	197,728	-0,059	0,066
-325,372	111,232	-0,097	0,084
-324,358	362,051	0,070	-0,102
-323,343	-41,101	-0,117	-0,044
-322,329	97,316	-0,163	-0,135
-321,314	800,000	0,039	-0,110
-320,299	-200,000	0,006	0,102
-319,285	669,766	0,045	-0,084
-318,270	-93,022	-0,118	0,024
-317,256	-14,351	0,122	-0,057
-316,241	800,000	-0,007	-0,022
-315,226	168,187	-0,047	0,049
-314,212	-58,428	0,230	0,072
-313,197	-200,000	0,003	-0,067
-312,183	-200,000	-0,033	0,177
-311,168	-158,026	0,043	-0,002
-310,153	197,408	-0,059	-0,065
-309,139	39,688	-0,105	-0,068
-308,124	-125,503	0,082	0,009
-307,110	-200,000	-0,001	0,089
-306,095	-167,569	0,094	0,003
-305,080	-200,000	0,024	-0,096
-304,066	45,907	-0,106	0,071
-303,051	-160,531	-0,004	0,000
-302,037	-200,000	0,029	-0,129
-301,022	-200,000	0,006	0,107
-300,008	800,000	-0,025	0,079
-298,993	-200,000	0,020	0,069
-297,978	-140,191	-0,165	0,012
-296,964	241,249	0,042	0,051
-295,949	800,000	-0,018	-0,038
-294,935	-200,000	0,011	0,059
-293,920	-151,093	0,086	0,005
-292,905	-124,660	-0,062	0,007
-291,891	0,058	0,131	0,067
-290,876	416,894	-0,099	-0,154
-289,862	180,187	-0,030	-0,032
-288,847	22,845	-0,057	0,034
-287,832	800,000	0,101	0,208
-286,818	335,758	0,013	0,018
-285,803	241,937	0,139	0,169
-284,789	-200,000	0,024	0,120
-283,774	417,074	-0,046	0,072
-282,759	800,000	0,026	0,068
-281,745	-177,835	-0,049	0,001
-280,730	22,404	0,077	-0,045
-279,716	-200,000	0,006	0,081
-278,701	-121,402	0,206	0,025
-277,686	480,139	0,027	0,044
-276,672	-200,000	-0,012	0,061
-275,657	-36,095	-0,163	0,064
-274,643	-22,514	0,092	0,040
-273,628	368,024	-0,088	-0,129
-272,613	10,054	-0,036	-0,020
-271,599	-200,000	0,018	0,073
-270,584	-83,030	0,144	-0,033
-269,570	-41,928	0,076	0,028
-268,555	-168,548	0,129	0,004
-267,540	-32,553	-0,206	-0,083
-266,526	-195,044	-0,049	0,000
-265,511	115,392	0,072	-0,064
-264,497	-104,546	0,060	-0,010
-263,482	-153,375	0,021	0,001
-262,467	22,220	-0,043	-0,025
-261,453	579,489	0,024	0,043
-260,438	79,428	-0,100	0,078
-259,424	441,968	0,001	-0,002
-258,409	-120,235	0,046	-0,006
-257,395	-2,966	-0,092	0,046
-256,380	-200,000	-0,027	-0,089
-255,365	-78,597	0,157	0,039
-254,351	19,339	0,035	-0,020
-253,336	241,027	-0,091	-0,111
-252,322	800,000	0,027	0,076
-251,307	754,440	-0,034	0,066
-250,292	121,655	-0,042	0,038
-249,278	-113,065	-0,050	0,007
-248,263	255,446	0,063	-0,078
-247,249	64,674	0,059	0,043
-246,234	-200,000	-0,027	-0,140
-245,219	-27,312	0,078	0,033
-244,205	-126,159	-0,058	0,006
-243,190	457,198	-0,022	-0,035
-242,176	-116,017	-0,062	0,008
-241,161	41,588	0,029	0,019
-240,146	-200,000	-0,006	0,024
-239,132	-200,000	-0,018	0,148
-238,117	630,957	-0,080	-0,147
-237,103	-42,919	-0,106	-0,039
-236,088	108,750	0,115	0,099
-235,073	-200,000	-0,010	-0,073
-234,059	254,865	0,011	-0,014
-233,044	63,830	0,080	0,058
-232,030	-11,848	-0,103	-0,049
-231,015	648,250	-0,032	-0,059
-230,000	800,000	-0,036	-0,088
-228,986	197,857	0,071	-0,078
-227,971	800,000	0,053	-0,135
-226,957	-98,892	0,125	-0,023
-225,942	214,555	-0,031	0,036
-224,927	125,867	0,063	-0,057
-223,913	264,560	0,082	-0,104
-222,898	122,986	-0,050	-0,045
-221,884	-200,000	-0,026	-0,084
-220,869	103,556	0,065	0,055
-219,855	-200,000	-0,005	-0,076
-218,840	-200,000	-0,013	-0,242
-217,825	800,000	0,056	-0,142
-216,811	38,888	-0,035	-0,022
-215,796	800,000	0,003	0,008
-214,782	68,387	0,100	-0,074
-213,767	378,106	0,029	-0,043
-212,752	-145,231	0,217	-0,014
-211,738	203,695	-0,093	-0,104
-210,723	800,000	0,020	0,048
-209,709	158,502	-0,117	0,117
-208,694	-19,929	-0,016	0,007
-207,679	-200,000	-0,023	-0,105
-206,665	73,645	0,035	-0,027
-205,650	-200,000	0,024	0,144
-204,636	-200,000	0,015	-0,075
-203,621	-41,519	0,070	0,026
-202,606	-94,027	-0,110	-0,022
-201,592	-83,458	0,059	-0,014
-200,577	782,912	-0,015	0,030
-199,563	-200,000	-0,017	-0,086
-198,548	-15,841	0,039	-0,018
-197,533	179,194	0,083	0,088
-196,519	-32,585	-0,179	-0,072
-195,504	114,364	0,129	-0,114
-194,490	6,028	-0,009	-0,005
-193,475	-119,483	0,052	-0,006
-192,460	-200,000	-0,029	0,092
-191,446	-200,000	0,010	0,122
-190,431	-70,782	-0,076	0,021
-189,417	21,131	-0,003	-0,002
-188,402	124,879	0,029	-0,026
-187,387	-200,000	0,019	-0,098
-186,373	800,000	-0,030	-0,064
-185,358	-198,697	0,067	0,000
-184,344	-75,335	0,060	0,015
-183,329	-200,000	0,032	-0,129
-182,315	192,788	0,119	0,130
-181,300	-200,000	-0,011	-0,075
-180,285	155,593	-0,038	-0,038
-179,271	-200,000	-0,024	-0,133
-178,256	-24,127	-0,111	-0,048
-177,242	75,051	0,060	0,045
-176,227	92,675	0,021	0,017
-175,212	485,326	-0,043	0,070
-174,198	800,000	-0,029	0,084
-173,183	-200,000	0,002	-0,106
-172,169	0,363	-0,049	-0,025
-171,154	-119,838	-0,061	-0,008
-170,139	-149,394	-0,065	0,004
-169,125	-101,070	0,045	-0,008
-168,110	113,834	-0,070	0,061
-167,096	59,286	0,115	0,082
-166,081	223,468	-0,042	-0,049
-165,066	-55,737	-0,080	0,026
-164,052	800,000	0,021	-0,057
-163,037	-133,211	-0,025	-0,002
-162,023	0,995	0,150	0,078
-161,008	149,230	0,040	0,039
-159,993	800,000	-0,029	-0,071
-158,979	-200,000	-0,007	-0,022
-157,964	-45,592	-0,003	0,001
-156,950	15,587	-0,121	-0,068
-155,935	657,630	0,042	-0,079
-154,920	663,648	0,034	0,064
-153,906	241,626	-0,042	0,051
-152,891	295,043	0,055	0,073
-151,877	-137,153	-0,072	0,006
-150,862	800,000	0,026	-0,058
-149,847	-131,233	-0,088	-0,008
-148,833	-116,497	-0,031	-0,004
-147,818	209,715	0,044	-0,050
-146,804	311,736	0,056	-0,076
-145,789	-29,116	-0,103	0,042
-144,775	800,000	-0,050	0,131
-143,760	-1,401	-0,050	0,025
-142,745	-117,427	-0,133	0,017
-141,731	-120,419	-0,094	0,011
-140,716	427,381	-0,018	-0,028
-139,702	-200,000	0,018	0,106
-138,687	800,000	-0,040	0,111
-137,672	-77,526	0,100	0,025
-136,658	21,711	-0,022	-0,013
-135,643	-21,721	-0,057	-0,025
-134,629	129,315	-0,076	0,070
-133,614	800,000	0,045	0,131
-132,599	433,490	-0,033	0,052
-131,585	-200,000	-0,033	0,153
-130,570	143,028	-0,093	-0,090
-129,556	-128,588	0,081	0,008
-128,541	17,657	-0,198	-0,113
-127,526	-168,342	0,045	-0,001
-126,512	-22,010	0,058	-0,025
-125,497	-57,726	0,136	-0,043
-124,483	108,048	-0,087	0,075
-123,468	-200,000	-0,002	0,016
-122,453	-200,000	0,005	0,103
-121,439	-160,981	-0,040	0,001
-120,424	-143,855	-0,115	0,008
