DTS Sentinel unit serial number:	SN410029Multiplexer serial number:	ORYXHardware model number:	OX2-SRSoftware version number:	ORYX F/W v4,00 Oryx Data Collector v3.7.2.0data status	okinstallation	B5 Nyhavnadifferential loss correction	single-endedforward channel	channel 2reverse channel	N/Adate	2023/12/14time	15:37:13forward acquisition time	300,00reverse acquisition time	0,00gamma	499,1914k internal	0,3157k external	0,3157temperature offset calibration	1,0000default loss term (dB/km)	0,3820temperature slope calibration	1,0000multiplexer offset coefficient	1,0000multiplexer slope coefficient	1,0000fibre end	0,00T internal ref (°C)	7,87T ext. ref 1 (°C)	-8,17T ext. ref 2 (°C)	-8,18length (m)	temperature (°C)	Stokes	anti-Stokes-744,400	-7,374	0,304	0,151
-743,385	11,446	-0,330	-0,186
-742,371	-8,076	0,032	0,016
-741,356	-56,142	-0,329	-0,107
-740,342	-190,778	0,235	0,002
-739,327	-120,764	-0,279	-0,034
-738,312	800,000	0,058	0,126
-737,298	-67,636	-0,327	-0,094
-736,283	141,337	0,219	0,214
-735,269	-118,274	-0,322	-0,042
-734,254	-123,635	-0,026	0,003
-733,239	-64,803	-0,559	-0,166
-732,225	51,771	0,167	0,117
-731,210	234,832	-0,115	0,140
-730,196	316,200	0,090	-0,125
-729,181	-76,461	-0,130	0,033
-728,167	366,626	0,078	-0,116
-727,152	-200,000	-0,018	0,063
-726,137	-89,278	-0,111	0,024
-725,123	711,874	0,006	-0,012
-724,108	-200,000	-0,007	-0,049
-723,094	800,000	0,036	0,107
-722,079	-139,055	0,086	-0,007
-721,064	101,451	-0,040	0,034
-720,050	800,000	0,046	-0,137
-719,035	-154,416	-0,049	-0,002
-718,021	-99,172	-0,116	0,021
-717,006	-144,958	-0,067	-0,004
-715,991	-113,311	-0,114	0,016
-714,977	-60,266	-0,111	0,035
-713,962	353,297	-0,062	-0,092
-712,948	-80,157	-0,085	-0,021
-711,933	2,855	-0,082	-0,044
-710,918	800,000	0,090	0,194
-709,904	138,625	-0,128	-0,124
-708,889	-52,589	-0,004	0,001
-707,875	-115,526	-0,162	-0,022
-706,860	195,553	0,052	-0,059
-705,845	99,272	0,159	0,135
-704,831	-115,546	-0,147	0,020
-703,816	-0,976	-0,083	0,043
-702,802	-84,219	0,069	0,016
-701,787	102,363	-0,116	-0,100
-700,772	-13,432	-0,111	-0,053
-699,758	-34,691	-0,072	0,029
-698,743	-200,000	-0,008	0,063
-697,729	800,000	0,020	-0,046
-696,714	41,152	0,081	-0,054
-695,699	-31,117	-0,074	-0,031
-694,685	800,000	-0,022	-0,046
-693,670	27,770	-0,090	-0,055
-692,656	144,853	-0,044	-0,043
-691,641	490,835	0,077	-0,130
-690,627	55,082	0,132	0,094
-689,612	-200,000	0,014	0,081
-688,597	-200,000	-0,012	0,060
-687,583	-166,101	0,090	0,003
-686,568	90,315	-0,081	0,067
-685,554	-170,549	-0,058	0,001
-684,539	27,707	0,008	0,005
-683,524	800,000	-0,058	0,158
-682,510	-200,000	-0,041	0,177
-681,495	335,460	-0,102	0,147
-680,481	800,000	0,029	0,076
-679,466	11,696	-0,208	-0,117
-678,451	230,040	-0,094	0,113
-677,437	23,400	0,019	-0,012
-676,422	800,000	0,018	0,052
-675,408	10,237	-0,089	0,049
-674,393	198,198	-0,049	-0,055
-673,378	800,000	-0,109	-0,242
-672,364	225,906	0,109	-0,130
-671,349	-138,325	-0,078	0,006
-670,335	-200,000	0,027	-0,130
-669,320	-154,092	-0,157	-0,008
-668,305	590,495	-0,048	0,088
-667,291	17,852	0,028	-0,017
-666,276	77,257	-0,105	-0,082
-665,262	-25,702	-0,049	0,021
-664,247	76,458	-0,084	-0,065
-663,232	169,687	-0,060	0,063
-662,218	145,568	-0,046	-0,046
-661,203	614,046	0,069	-0,127
-660,189	8,160	0,102	-0,056
-659,174	-8,906	-0,082	0,040
-658,159	-200,000	-0,007	0,045
-657,145	-200,000	-0,015	0,107
-656,130	308,618	-0,053	-0,073
-655,116	800,000	0,025	-0,065
-654,101	-200,000	0,001	-0,123
-653,086	800,000	0,017	-0,054
-652,072	418,516	0,062	-0,098
-651,057	-200,000	-0,014	-0,101
-650,043	-148,544	-0,110	-0,006
-649,028	-200,000	-0,027	-0,169
-648,014	67,991	-0,030	-0,023
-646,999	250,003	0,044	0,054
-645,984	-200,000	-0,033	-0,150
-644,970	53,571	0,051	0,036
-643,955	-21,819	-0,128	0,057
-642,941	-200,000	-0,021	-0,090
-641,926	436,095	0,045	0,072
-640,911	800,000	0,006	0,014
-639,897	800,000	0,021	0,055
-638,882	800,000	-0,031	0,083
-637,868	-62,259	0,122	-0,037
-636,853	-130,937	-0,095	-0,009
-635,838	-200,000	0,008	-0,042
-634,824	-108,700	0,154	0,024
-633,809	-20,351	-0,054	0,025
-632,795	-12,607	0,111	-0,053
-631,780	-27,237	0,043	-0,018
-630,765	30,243	-0,069	-0,043
-629,751	-200,000	0,015	-0,095
-628,736	238,787	-0,041	-0,050
-627,722	800,000	0,005	-0,014
-626,707	800,000	-0,049	0,144
-625,692	4,781	-0,018	-0,010
-624,678	120,785	-0,019	0,018
-623,663	800,000	-0,020	0,057
-622,649	185,965	-0,067	0,073
-621,634	99,228	-0,115	-0,098
-620,619	485,129	0,083	-0,139
-619,605	-200,000	-0,007	-0,066
-618,590	800,000	0,061	-0,130
-617,576	800,000	-0,019	0,054
-616,561	-200,000	-0,015	0,077
-615,546	-119,770	-0,157	0,020
-614,532	-67,403	-0,143	-0,041
-613,517	800,000	-0,047	-0,103
-612,503	-46,413	0,107	-0,038
-611,488	-200,000	-0,007	0,091
-610,474	800,000	0,039	-0,108
-609,459	316,445	-0,009	0,013
-608,444	-110,295	0,093	-0,014
-607,430	-43,615	-0,143	-0,053
-606,415	-200,000	0,002	0,060
-605,401	-196,101	-0,066	-0,000
-604,386	-200,000	0,007	0,140
-603,371	-82,219	0,145	-0,034
-602,357	-200,000	-0,004	0,102
-601,342	-94,979	0,048	0,010
-600,328	381,652	0,068	0,103
-599,313	-112,959	0,101	0,014
-598,298	-133,323	0,025	-0,002
-597,284	800,000	-0,022	0,063
-596,269	800,000	-0,022	0,058
-595,255	-10,867	-0,063	-0,030
-594,240	-109,694	0,095	-0,015
-593,225	-71,903	-0,139	0,038
-592,211	6,258	-0,056	0,030
-591,196	-150,604	0,151	0,008
-590,182	-101,618	-0,093	0,016
-589,167	52,974	0,051	0,036
-588,152	523,464	-0,013	0,023
-587,138	286,900	-0,044	0,059
-586,123	100,270	-0,103	-0,087
-585,109	33,000	-0,025	0,016
-584,094	115,553	-0,047	0,042
-583,079	-200,000	0,008	0,123
-582,065	-42,457	0,076	-0,028
-581,050	-46,893	0,100	-0,036
-580,036	332,195	-0,048	0,068
-579,021	800,000	0,020	0,052
-578,006	138,972	-0,085	-0,081
-576,992	-86,022	-0,073	0,016
-575,977	394,712	0,045	0,069
-574,963	36,593	0,074	0,048
-573,948	800,000	0,060	-0,150
-572,934	602,850	0,084	-0,154
-571,919	563,291	-0,022	0,039
-570,904	-81,528	-0,148	0,035
-569,890	62,998	-0,067	-0,049
-568,875	-16,203	0,055	-0,026
-567,861	-28,806	0,091	-0,038
-566,846	359,713	-0,137	0,202
-565,831	-200,000	-0,014	-0,045
-564,817	318,241	-0,062	-0,087
-563,802	313,257	-0,085	0,118
-562,788	-133,854	-0,142	-0,013
-561,773	98,839	-0,046	-0,039
-560,758	450,813	0,107	-0,174
-559,744	65,063	-0,064	-0,047
-558,729	-60,221	0,078	-0,024
-557,715	-200,000	-0,018	0,074
-556,700	-70,867	-0,182	0,050
-555,685	428,878	-0,081	-0,129
-554,671	-186,842	-0,163	0,002
-553,656	-200,000	-0,006	-0,087
-552,642	-200,000	-0,019	0,088
-551,627	86,805	0,136	-0,110
-550,612	-36,539	-0,034	-0,013
-549,598	15,909	-0,092	0,053
-548,583	-200,000	-0,009	0,174
-547,569	-19,323	0,104	0,047
-546,554	80,476	-0,024	0,019
-545,539	20,071	0,046	0,027
-544,525	-12,268	0,152	0,073
-543,510	800,000	0,037	-0,094
-542,496	455,388	-0,056	0,091
-541,481	-200,000	0,003	0,056
-540,466	-55,855	-0,081	-0,026
-539,452	293,373	0,059	-0,079
-538,437	-200,000	-0,040	0,187
-537,423	120,911	0,045	-0,041
-536,408	-200,000	-0,007	-0,139
-535,393	-200,000	0,015	-0,151
-534,379	-200,000	-0,007	0,094
-533,364	-50,499	-0,105	-0,036
-532,350	56,676	-0,077	0,055
-531,335	-106,806	0,071	-0,011
-530,321	-121,977	0,173	0,021
-529,306	171,778	-0,133	-0,140
-528,291	-109,281	0,034	0,005
-527,277	-36,856	-0,150	0,059
-526,262	-200,000	-0,010	0,057
-525,248	-158,768	0,099	-0,004
-524,233	-200,000	0,003	0,034
-523,218	800,000	-0,063	0,143
-522,204	-115,797	-0,131	0,018
-521,189	-200,000	-0,000	-0,064
-520,175	24,119	-0,095	0,057
-519,160	-55,344	0,169	-0,055
-518,145	-129,750	0,101	-0,010
-517,131	800,000	0,009	0,029
-516,116	136,543	-0,050	0,048
-515,102	-200,000	0,001	0,068
-514,087	13,728	-0,095	-0,054
-513,072	-148,025	-0,088	0,005
-512,058	115,008	0,056	-0,050
-511,043	-152,853	-0,067	0,003
-510,029	51,924	0,145	-0,101
-509,014	194,130	0,060	-0,067
-507,999	101,800	-0,052	-0,044
-506,985	-200,000	0,016	-0,061
-505,970	108,100	-0,158	-0,138
-504,956	-128,717	0,031	-0,003
-503,941	437,052	0,038	0,061
-502,926	472,300	0,055	0,091
-501,912	-200,000	0,012	-0,052
-500,897	-162,005	0,064	-0,002
-499,883	-200,000	0,016	-0,089
-498,868	182,841	-0,032	0,034
-497,853	-200,000	0,022	-0,094
-496,839	-85,809	-0,069	0,015
-495,824	243,605	0,052	0,064
-494,810	489,787	-0,141	0,236
-493,795	800,000	-0,024	0,057
-492,781	38,845	0,039	0,026
-491,766	267,368	-0,035	-0,045
-490,751	800,000	-0,024	-0,069
-489,737	-200,000	0,035	-0,117
-488,722	800,000	0,029	-0,089
-487,708	-43,165	-0,101	0,037
-486,693	-160,507	0,063	0,002
-485,678	800,000	0,017	0,051
-484,664	553,977	0,032	-0,056
-483,649	-131,394	0,049	-0,005
-482,635	116,898	0,057	0,051
-481,620	-106,722	0,184	-0,029
-480,605	-200,000	-0,002	0,113
-479,591	-20,236	-0,056	0,025
-478,576	800,000	-0,005	0,015
-477,562	72,389	-0,024	-0,019
-476,547	53,177	-0,200	-0,139
-475,532	-41,996	0,057	-0,021
-474,518	-5,080	-0,098	-0,049
-473,503	-71,796	0,011	0,003
-472,489	603,900	-0,097	0,177
-471,474	-112,645	-0,034	-0,005
-470,459	646,003	0,030	0,055
-469,445	-200,000	-0,004	-0,031
-468,430	108,428	0,075	-0,065
-467,416	-33,284	-0,035	0,014
-466,401	-21,237	0,051	-0,023
-465,386	800,000	0,063	0,179
-464,372	127,444	-0,054	-0,050
-463,357	800,000	0,024	-0,055
-462,343	347,064	-0,054	0,078
-461,328	-134,341	0,032	-0,003
-460,313	8,609	0,138	0,075
-459,299	800,000	0,038	-0,087
-458,284	-200,000	-0,010	0,047
-457,270	104,870	-0,099	-0,085
-456,255	200,096	-0,076	-0,085
-455,241	-58,050	0,014	0,004
-454,226	19,987	-0,021	-0,012
-453,211	120,300	-0,068	0,061
-452,197	4,822	0,091	-0,049
-451,182	-43,797	-0,113	0,041
-450,168	184,613	0,066	-0,071
-449,153	1,725	-0,118	-0,062
-448,138	-122,382	-0,102	0,012
-447,124	121,977	-0,097	-0,089
-446,109	73,508	0,059	-0,045
-445,095	8,272	0,065	0,035
-444,080	-62,044	-0,104	-0,032
-443,065	-200,000	-0,001	0,020
-442,051	-57,258	-0,038	-0,012
-441,036	-149,785	-0,171	-0,010
-440,022	674,080	-0,040	-0,075
-439,007	-40,100	-0,141	-0,053
-437,992	-200,000	-0,008	-0,060
-436,978	7,214	-0,051	0,027
-435,963	800,000	0,025	0,065
-434,949	-113,259	-0,031	-0,004
-433,934	-94,185	0,135	0,027
-432,919	717,869	-0,042	-0,081
-431,905	-75,818	-0,124	-0,032
-430,890	-109,600	0,127	0,019
-429,876	-200,000	0,000	-0,002
-428,861	-15,728	0,083	0,038
-427,846	17,172	-0,058	-0,033
-426,832	744,264	-0,068	-0,135
-425,817	-84,539	-0,103	-0,023
-424,803	552,356	0,045	-0,079
-423,788	-200,000	0,027	0,120
-422,773	-200,000	-0,028	-0,164
-421,759	637,514	0,041	0,075
-420,744	659,615	-0,004	-0,008
-419,730	600,315	0,031	-0,055
-418,715	23,152	-0,088	-0,053
-417,701	66,946	0,040	-0,029
-416,686	372,221	0,051	-0,075
-415,671	728,159	0,016	0,032
-414,657	-39,350	0,164	0,062
-413,642	-200,000	-0,006	-0,086
-412,628	173,455	0,136	-0,143
-411,613	-1,329	0,040	0,021
-410,598	-200,000	-0,065	-0,220
-409,584	-69,826	0,071	-0,020
-408,569	-64,636	0,026	0,008
-407,555	112,351	0,150	0,132
-406,540	-44,592	0,064	-0,023
-405,525	213,373	-0,083	-0,095
-404,511	-35,413	-0,119	-0,047
-403,496	-44,668	-0,063	-0,023
-402,482	235,069	-0,055	-0,066
-401,467	128,309	0,056	-0,052
-400,452	-43,435	0,016	0,006
-399,438	-37,915	-0,038	-0,015
-398,423	-92,735	0,014	0,003
-397,409	800,000	0,047	-0,121
-396,394	-41,239	-0,176	0,066
-395,379	-90,083	0,059	-0,012
-394,365	-200,000	-0,005	0,023
-393,350	50,176	0,062	0,042
-392,336	3,511	0,061	-0,032
-391,321	85,995	-0,017	0,013
-390,306	386,807	-0,044	-0,067
-389,292	-147,318	0,070	-0,004
-388,277	-144,860	-0,229	0,015
-387,263	-139,342	0,088	0,007
-386,248	75,692	-0,089	-0,068
-385,233	463,554	-0,040	0,065
-384,219	653,050	-0,068	0,127
-383,204	220,007	0,039	-0,045
-382,190	79,406	-0,138	-0,108
-381,175	-78,151	0,130	-0,032
-380,160	17,999	0,165	-0,095
-379,146	244,654	0,066	-0,081
-378,131	-200,000	-0,002	-0,066
-377,117	-10,746	-0,064	0,031
-376,102	199,605	0,112	-0,125
-375,088	15,096	-0,053	0,030
-374,073	-149,662	0,121	-0,007
-373,058	-200,000	-0,006	0,032
-372,044	6,890	0,034	0,019
-371,029	-125,465	-0,023	0,003
-370,015	-95,120	0,033	0,006
-369,000	800,000	-0,039	-0,090
-367,985	277,771	-0,077	-0,099
-366,971	-17,849	-0,062	0,028
-365,956	503,915	0,070	0,119
-364,942	-200,000	0,030	-0,098
-363,927	-175,788	0,080	-0,002
-362,912	636,386	-0,056	0,103
-361,898	19,936	0,011	-0,006
-360,883	-27,533	0,059	0,025
-359,869	-65,203	-0,074	-0,021
-358,854	-200,000	0,014	0,095
-357,839	800,000	0,026	0,060
-356,825	-200,000	-0,001	-0,062
-355,810	800,000	-0,022	-0,048
-354,796	-112,849	-0,062	-0,009
-353,781	-72,351	0,147	0,039
-352,766	800,000	-0,041	-0,099
-351,752	-84,154	0,190	-0,044
-350,737	79,324	0,043	-0,033
-349,723	105,937	0,091	0,078
-348,708	108,333	0,051	0,044
-347,693	800,000	0,037	0,074
-346,679	210,797	0,063	-0,071
-345,664	-60,093	-0,057	0,018
-344,650	83,686	-0,097	0,077
-343,635	-11,430	0,031	0,015
-342,620	-200,000	-0,004	-0,015
-341,606	-200,000	-0,053	0,195
-340,591	72,195	0,106	-0,080
-339,577	-200,000	-0,023	-0,079
-338,562	-75,241	-0,089	-0,023
-337,548	-200,000	-0,024	0,081
-336,533	-200,000	0,010	0,079
-335,518	800,000	-0,035	0,094
-334,504	58,124	-0,067	-0,047
-333,489	283,748	0,131	-0,171
-332,475	25,854	0,125	0,076
-331,460	800,000	0,016	-0,052
-330,445	-200,000	0,018	-0,080
-329,431	51,871	-0,030	0,021
-328,416	-200,000	-0,034	0,111
-327,402	251,577	0,062	0,076
-326,387	193,537	-0,068	0,075
-325,372	-200,000	0,002	-0,099
-324,358	39,071	-0,033	-0,022
-323,343	109,342	-0,054	-0,047
-322,329	-200,000	0,017	-0,061
-321,314	-200,000	0,021	0,104
-320,299	-53,601	-0,045	0,015
-319,285	6,914	-0,080	-0,043
-318,270	800,000	0,043	-0,104
-317,256	-200,000	0,008	-0,160
-316,241	800,000	-0,046	-0,098
-315,226	-91,827	0,146	-0,030
-314,212	-200,000	-0,019	0,149
-313,197	266,269	0,033	-0,041
-312,183	193,273	0,047	0,052
-311,168	800,000	-0,032	0,071
-310,153	-11,539	-0,153	-0,073
-309,139	800,000	0,010	-0,028
-308,124	-200,000	-0,024	0,187
-307,110	-70,276	0,256	0,070
-306,095	121,191	-0,003	-0,003
-305,080	-4,084	-0,143	0,071
-304,066	13,746	0,115	0,064
-303,051	-143,576	-0,080	-0,005
-302,037	-7,600	-0,070	0,034
-301,022	-146,997	0,048	-0,003
-300,008	-200,000	0,016	-0,083
-298,993	-9,918	-0,053	0,026
-297,978	-200,000	0,007	0,132
-296,964	-200,000	-0,003	-0,155
-295,949	267,430	0,102	0,129
-294,935	337,284	-0,102	-0,143
-293,920	-200,000	-0,006	0,103
-292,905	800,000	-0,093	0,259
-291,891	800,000	-0,009	0,019
-290,876	472,416	0,105	-0,172
-289,862	800,000	-0,015	-0,035
-288,847	-152,600	0,127	-0,006
-287,832	800,000	-0,048	-0,132
-286,818	800,000	-0,017	-0,048
-285,803	-105,055	-0,037	-0,006
-284,789	-200,000	-0,025	0,087
-283,774	-200,000	-0,007	0,054
-282,759	62,527	0,036	-0,026
-281,745	773,971	-0,042	-0,083
-280,730	11,677	-0,042	-0,023
-279,716	76,467	-0,104	-0,079
-278,701	524,990	-0,020	0,034
-277,686	-200,000	0,010	0,130
-276,672	-200,000	-0,002	-0,041
-275,657	55,281	-0,071	0,050
-274,643	397,530	0,090	-0,137
-273,628	23,296	-0,148	-0,088
-272,613	332,228	0,043	-0,060
-271,599	481,251	0,037	0,061
-270,584	-46,408	0,065	-0,023
-269,570	51,990	0,079	0,054
-268,555	-0,419	-0,042	-0,021
-267,540	505,436	0,040	-0,067
-266,526	-32,119	-0,116	0,047
-265,511	267,840	-0,085	0,108
-264,497	116,433	0,038	0,034
-263,482	386,165	0,062	0,093
-262,467	362,557	0,094	0,137
-261,453	35,580	-0,165	0,105
-260,438	800,000	0,056	0,120
-259,424	-41,524	0,121	-0,045
-258,409	-1,986	0,065	0,033
-257,395	800,000	-0,021	0,045
-256,380	800,000	0,038	0,093
-255,365	-200,000	-0,015	-0,055
-254,351	0,241	0,117	-0,060
-253,336	-115,019	0,066	-0,009
-252,322	-16,600	-0,087	0,040
-251,307	130,247	0,086	0,080
-250,292	800,000	-0,010	-0,029
-249,278	-200,000	0,017	-0,136
-248,263	531,816	0,026	-0,045
-247,249	594,686	0,063	-0,114
-246,234	800,000	0,033	-0,067
-245,219	800,000	0,041	0,099
-244,205	800,000	0,027	-0,070
-243,190	-91,567	-0,178	-0,036
-242,176	-200,000	0,028	0,176
-241,161	756,970	-0,086	0,169
-240,146	577,412	0,049	-0,087
-239,132	-200,000	-0,019	-0,136
-238,117	800,000	-0,032	-0,068
-237,103	-200,000	-0,002	-0,051
-236,088	64,304	-0,017	0,012
-235,073	51,026	0,101	0,069
-234,059	800,000	0,063	0,183
-233,044	-111,664	0,096	0,014
-232,030	-14,450	-0,142	-0,066
-231,015	800,000	-0,011	0,026
-230,000	-200,000	0,008	0,099
-228,986	-70,752	0,075	0,020
-227,971	-124,646	0,204	-0,023
-226,957	148,687	-0,022	0,021
-225,942	50,671	0,110	0,075
-224,927	18,997	-0,070	0,040
-223,913	46,677	-0,037	-0,025
-222,898	800,000	-0,063	-0,185
-221,884	189,213	0,038	0,041
-220,869	-200,000	-0,032	0,136
-219,855	-200,000	0,017	0,088
-218,840	800,000	0,033	-0,071
-217,825	87,285	0,022	0,018
-216,811	137,409	-0,081	-0,076
-215,796	-172,578	-0,136	0,003
-214,782	-65,149	-0,052	0,015
-213,767	800,000	0,037	0,085
-212,752	800,000	0,044	0,111
-211,738	-200,000	-0,011	0,047
-210,723	800,000	0,030	-0,078
-209,709	367,813	-0,040	-0,059
-208,694	-85,831	0,093	-0,021
-207,679	-200,000	0,008	0,139
-206,665	135,519	0,035	-0,033
-205,650	-160,160	0,034	0,001
-204,636	31,972	0,047	0,029
-203,621	76,149	-0,002	0,001
-202,606	-172,111	-0,220	0,005
-201,592	520,460	-0,090	-0,154
-200,577	-200,000	-0,027	0,135
-199,563	248,373	-0,049	0,059
-198,548	-200,000	-0,001	0,108
-197,533	-200,000	-0,035	0,120
-196,519	-200,000	0,006	-0,097
-195,504	-79,883	0,099	0,024
-194,490	-56,942	-0,049	0,015
-193,475	-3,279	0,065	-0,033
-192,460	-116,993	-0,076	-0,010
-191,446	800,000	-0,060	0,135
-190,431	286,046	-0,060	0,078
-189,417	-200,000	0,003	-0,109
-188,402	-200,000	0,021	-0,104
-187,387	623,685	-0,049	0,090
-186,373	-30,508	0,084	-0,034
-185,358	246,289	0,047	-0,057
-184,344	-56,698	0,123	0,039
-183,329	128,506	0,114	0,105
-182,315	-43,290	0,015	0,006
-181,300	-52,805	0,059	-0,019
-180,285	137,627	0,061	0,058
-179,271	364,635	-0,081	-0,118
-178,256	-176,228	-0,044	-0,001
-177,242	800,000	0,008	-0,023
-176,227	-200,000	-0,043	-0,172
-175,212	-200,000	-0,003	0,178
-174,198	-122,649	-0,116	0,013
-173,183	394,821	-0,032	0,049
-172,169	556,319	-0,079	-0,138
-171,154	800,000	0,061	-0,129
-170,139	-60,555	0,186	-0,057
-169,125	344,122	0,130	0,184
-168,110	-41,495	0,150	0,055
-167,096	163,016	-0,045	-0,046
-166,081	-59,828	0,053	-0,016
-165,066	31,019	-0,032	-0,020
-164,052	-200,000	-0,008	0,082
-163,037	-200,000	-0,019	0,142
-162,023	239,153	0,097	0,116
-161,008	-200,000	0,022	0,112
-159,993	165,035	0,027	0,027
-158,979	119,927	0,062	0,055
-157,964	373,411	0,023	0,034
-156,950	-17,482	0,010	-0,004
-155,935	-200,000	-0,007	0,039
-154,920	129,267	0,058	-0,053
-153,906	-6,545	0,084	0,041
-152,891	99,068	0,063	0,053
-151,877	58,907	0,106	0,075
-150,862	39,639	-0,058	0,037
-149,847	-7,794	0,160	0,077
-148,833	373,266	-0,073	0,107
-147,818	800,000	0,023	0,065
-146,804	197,694	0,170	0,187
-145,789	133,597	-0,074	-0,069
-144,775	-108,494	-0,113	0,017
-143,760	399,827	0,027	-0,041
-142,745	-56,715	0,082	-0,026
-141,731	4,481	0,116	0,061
-140,716	-10,080	-0,066	0,032
-139,702	800,000	-0,065	0,143
-138,687	247,184	-0,047	0,057
-137,672	-200,000	0,016	-0,073
-136,658	185,640	0,102	0,110
-135,643	-200,000	-0,005	0,048
-134,629	-58,188	-0,189	0,059
-133,614	506,335	0,061	0,102
-132,599	9,662	-0,061	-0,033
-131,585	800,000	-0,021	0,050
-130,570	800,000	0,051	0,137
-129,556	35,755	-0,085	0,054
-128,541	447,718	0,100	-0,159
-127,526	37,200	0,061	0,039
-126,512	-200,000	-0,011	-0,117
-125,497	33,503	0,073	-0,045
-124,483	488,161	-0,031	-0,052
-123,468	-80,198	-0,211	0,050
-122,453	-200,000	-0,034	-0,116
-121,439	-30,561	0,080	0,032
-120,424	165,589	0,061	0,062
-119,410	81,408	-0,013	0,010
-118,395	24,683	0,117	0,070
