DTS Sentinel unit serial number:	SN410029Multiplexer serial number:	ORYXHardware model number:	OX2-SRSoftware version number:	ORYX F/W v4,00 Oryx Data Collector v3.7.2.0data status	okinstallation	B5 Nyhavnadifferential loss correction	single-endedforward channel	channel 2reverse channel	N/Adate	2023/12/12time	01:02:13forward acquisition time	300,00reverse acquisition time	0,00gamma	499,1914k internal	0,3156k external	0,3156temperature offset calibration	1,0000default loss term (dB/km)	0,3820temperature slope calibration	1,0000multiplexer offset coefficient	1,0000multiplexer slope coefficient	1,0000fibre end	0,00T internal ref (°C)	16,00T ext. ref 1 (°C)	-0,42T ext. ref 2 (°C)	-0,72length (m)	temperature (°C)	Stokes	anti-Stokes-744,400	60,586	0,077	-0,056
-743,385	-62,413	-0,141	0,043
-742,371	-163,407	-0,026	0,001
-741,356	-160,542	-0,220	-0,009
-740,342	-50,086	0,239	0,083
-739,327	-139,755	-0,247	-0,019
-738,312	405,709	0,061	-0,095
-737,298	-95,519	-0,346	0,068
-736,283	-23,557	0,061	0,027
-735,269	-38,159	-0,244	0,095
-734,254	-93,311	0,094	0,019
-733,239	-18,448	-0,397	-0,182
-732,225	-75,924	0,188	0,049
-731,210	542,429	0,026	0,046
-730,196	-142,384	-0,105	0,007
-729,181	-108,834	0,101	0,016
-728,167	249,086	-0,034	-0,043
-727,152	-72,456	0,151	0,041
-726,137	-200,000	-0,004	-0,123
-725,123	40,597	-0,171	-0,113
-724,108	483,370	0,050	-0,083
-723,094	-200,000	-0,016	-0,207
-722,079	-52,564	-0,105	-0,035
-721,064	-39,084	-0,137	-0,053
-720,050	244,229	-0,043	-0,054
-719,035	-200,000	-0,022	0,108
-718,021	-200,000	-0,039	-0,137
-717,006	-35,354	-0,115	-0,046
-715,991	-29,787	0,063	0,026
-714,977	-23,544	-0,115	-0,051
-713,962	-44,396	0,066	-0,024
-712,948	-120,105	0,102	-0,013
-711,933	-200,000	0,010	-0,034
-710,918	38,407	-0,036	-0,023
-709,904	-200,000	-0,034	-0,128
-708,889	-75,369	-0,169	-0,044
-707,875	-22,443	-0,073	0,032
-706,860	-80,401	0,135	0,033
-705,845	37,602	-0,042	0,027
-704,831	-200,000	0,002	-0,053
-703,816	370,613	-0,043	-0,064
-702,802	-200,000	0,006	0,029
-701,787	-17,917	0,022	0,010
-700,772	-55,003	-0,164	-0,054
-699,758	-200,000	0,030	0,136
-698,743	140,614	-0,076	0,074
-697,729	800,000	0,030	0,067
-696,714	-21,366	0,059	0,026
-695,699	238,105	0,026	0,032
-694,685	-79,405	-0,155	-0,038
-693,670	164,734	0,088	-0,092
-692,656	383,435	-0,029	0,044
-691,641	-8,636	-0,110	-0,054
-690,627	-12,791	0,113	0,054
-689,612	38,150	-0,089	-0,058
-688,597	800,000	-0,034	-0,090
-687,583	-127,597	-0,130	0,014
-686,568	800,000	-0,076	-0,178
-685,554	185,658	-0,105	-0,115
-684,539	800,000	0,022	0,067
-683,524	266,700	0,059	-0,076
-682,510	-200,000	0,000	-0,074
-681,495	380,192	-0,053	-0,080
-680,481	800,000	-0,026	0,065
-679,466	76,704	-0,136	0,106
-678,451	-57,715	0,105	-0,034
-677,437	-20,708	0,066	0,030
-676,422	-132,239	0,104	0,010
-675,408	-55,600	-0,054	0,018
-674,393	800,000	-0,044	-0,134
-673,378	747,327	0,037	-0,073
-672,364	191,663	0,139	-0,154
-671,349	87,840	-0,128	0,104
-670,335	800,000	-0,020	0,048
-669,320	16,432	-0,068	-0,039
-668,305	800,000	-0,040	-0,096
-667,291	100,732	0,051	-0,043
-666,276	170,565	-0,070	0,073
-665,262	742,727	0,039	-0,077
-664,247	-58,208	-0,113	-0,036
-663,232	-97,156	-0,053	-0,010
-662,218	-200,000	0,028	0,137
-661,203	-145,123	-0,095	-0,006
-660,189	-200,000	-0,042	0,161
-659,174	767,502	0,082	-0,164
-658,159	-200,000	0,003	-0,034
-657,145	87,412	-0,114	0,093
-656,130	-200,000	0,014	0,060
-655,116	-62,640	-0,120	-0,036
-654,101	-78,970	0,070	-0,017
-653,086	-2,007	0,049	0,025
-652,072	-10,439	-0,073	-0,035
-651,057	-126,530	-0,123	0,013
-650,043	-200,000	-0,019	-0,142
-649,028	40,662	-0,137	-0,090
-648,014	112,863	0,050	0,044
-646,999	225,615	0,091	0,109
-645,984	200,915	0,016	0,018
-644,970	800,000	-0,048	0,152
-643,955	58,635	-0,083	-0,059
-642,941	800,000	-0,074	-0,233
-641,926	84,194	-0,068	-0,055
-640,911	800,000	-0,014	0,030
-639,897	-148,977	-0,049	0,003
-638,882	800,000	0,065	0,178
-637,868	-11,966	0,048	-0,023
-636,853	-200,000	-0,025	0,095
-635,838	-25,121	0,036	-0,016
-634,824	88,402	-0,110	-0,090
-633,809	-140,322	0,123	0,009
-632,795	258,260	-0,044	-0,056
-631,780	353,563	0,077	0,112
-630,765	-150,383	0,115	0,006
-629,751	611,208	-0,031	0,057
-628,736	265,268	-0,099	0,128
-627,722	-70,938	0,049	-0,013
-626,707	142,211	0,015	-0,015
-625,692	-200,000	-0,029	0,115
-624,678	53,619	0,193	0,136
-623,663	-200,000	0,014	-0,062
-622,649	-200,000	0,029	-0,152
-621,634	135,783	-0,090	-0,086
-620,619	-200,000	-0,008	-0,081
-619,605	-97,919	-0,020	0,004
-618,590	-200,000	0,005	-0,050
-617,576	62,328	0,103	-0,075
-616,561	-200,000	-0,017	-0,083
-615,546	0,612	-0,095	0,050
-614,532	-189,502	-0,147	0,001
-613,517	-162,650	-0,159	0,006
-612,503	2,457	0,053	-0,028
-611,488	184,817	-0,047	0,051
-610,474	-75,236	0,038	-0,010
-609,459	800,000	0,010	-0,029
-608,444	31,883	-0,059	-0,037
-607,430	589,211	0,026	-0,048
-606,415	-113,221	0,095	0,014
-605,401	-45,748	0,157	-0,057
-604,386	678,737	-0,046	0,088
-603,371	494,298	0,099	0,168
-602,357	-82,137	-0,093	0,022
-601,342	175,445	-0,090	0,096
-600,328	800,000	0,013	0,042
-599,313	800,000	0,058	-0,118
-598,298	-134,717	-0,191	-0,017
-597,284	66,388	-0,029	0,022
-596,269	-200,000	-0,005	-0,093
-595,255	33,272	-0,072	0,045
-594,240	-101,962	-0,179	-0,031
-593,225	2,439	-0,128	-0,068
-592,211	215,269	0,058	0,068
-591,196	800,000	0,043	-0,119
-590,182	7,407	0,072	-0,039
-589,167	800,000	-0,008	-0,019
-588,152	238,473	-0,075	0,091
-587,138	-66,174	0,021	0,006
-586,123	-75,954	-0,078	0,020
-585,109	11,766	-0,059	-0,033
-584,094	-37,332	-0,061	-0,024
-583,079	-200,000	0,008	0,074
-582,065	292,132	-0,072	0,096
-581,050	-200,000	0,007	0,025
-580,036	800,000	0,038	-0,082
-579,021	14,580	-0,078	0,044
-578,006	-78,428	-0,052	0,013
-576,992	-200,000	0,002	-0,129
-575,977	-62,607	0,101	0,030
-574,963	-92,925	0,063	-0,013
-573,948	-119,496	-0,131	0,016
-572,934	800,000	-0,048	-0,146
-571,919	199,120	-0,074	0,084
-570,904	-90,933	-0,049	-0,010
-569,890	-96,043	0,131	-0,025
-568,875	800,000	-0,033	0,092
-567,861	-116,072	-0,042	-0,006
-566,846	705,966	0,060	-0,116
-565,831	-67,295	-0,070	-0,020
-564,817	344,806	-0,073	0,105
-563,802	-28,700	0,059	-0,025
-562,788	-72,513	0,035	-0,009
-561,773	6,065	0,120	0,065
-560,758	-200,000	0,005	0,153
-559,744	-17,646	0,016	0,007
-558,729	46,140	0,117	0,079
-557,715	800,000	-0,025	-0,062
-556,700	-200,000	-0,029	-0,130
-555,685	197,624	0,070	-0,078
-554,671	25,288	-0,139	-0,084
-553,656	-44,867	0,154	-0,056
-552,642	-85,990	0,076	0,017
-551,627	800,000	0,028	0,072
-550,612	-77,399	-0,066	-0,017
-549,598	190,533	0,032	0,035
-548,583	800,000	-0,065	-0,139
-547,569	-31,420	-0,137	-0,056
-546,554	86,160	0,085	-0,068
-545,539	1,578	0,022	0,012
-544,525	-200,000	-0,002	0,031
-543,510	-79,831	0,108	-0,026
-542,496	78,938	-0,114	-0,089
-541,481	-200,000	-0,014	-0,059
-540,466	800,000	-0,009	0,022
-539,452	-131,819	0,134	-0,013
-538,437	800,000	0,028	-0,070
-537,423	28,483	-0,005	0,003
-536,408	54,681	-0,042	0,029
-535,393	-200,000	0,001	-0,109
-534,379	-45,178	-0,072	-0,026
-533,364	-107,155	-0,035	0,006
-532,350	122,045	-0,024	-0,022
-531,335	-76,360	0,084	-0,021
-530,321	-137,635	-0,195	0,016
-529,306	-50,506	-0,074	0,026
-528,291	123,763	-0,040	-0,037
-527,277	5,022	-0,027	-0,015
-526,262	255,368	0,034	0,042
-525,248	138,376	-0,061	0,058
-524,233	341,189	0,087	-0,124
-523,218	800,000	-0,036	0,094
-522,204	223,175	-0,082	0,096
-521,189	-99,276	-0,054	-0,010
-520,175	-81,746	-0,127	-0,030
-519,160	28,733	-0,084	-0,052
-518,145	259,910	0,048	-0,060
-517,131	-188,181	0,199	-0,002
-516,116	32,110	0,018	-0,012
-515,102	36,635	0,093	-0,060
-514,087	800,000	0,037	-0,114
-513,072	-200,000	-0,022	-0,149
-512,058	-89,962	-0,119	-0,025
-511,043	451,777	-0,043	-0,070
-510,029	125,300	0,056	0,052
-509,014	-146,737	0,083	-0,005
-507,999	-151,518	-0,077	-0,004
-506,985	83,628	-0,132	-0,105
-505,970	117,820	-0,067	0,060
-504,956	205,231	0,093	0,105
-503,941	-200,000	-0,003	0,055
-502,926	22,406	-0,057	0,034
-501,912	-200,000	0,013	-0,089
-500,897	-200,000	-0,029	-0,116
-499,883	-200,000	-0,001	-0,062
-498,868	-113,443	0,089	0,013
-497,853	-86,293	-0,163	-0,036
-496,839	-27,783	-0,076	-0,032
-495,824	-74,958	0,072	0,019
-494,810	-66,495	0,040	-0,012
-493,795	105,922	-0,109	0,094
-492,781	22,353	0,022	-0,013
-491,766	-88,097	-0,142	0,031
-490,751	187,636	-0,052	-0,057
-489,737	26,266	0,108	-0,066
-488,722	800,000	-0,058	0,176
-487,708	1,464	-0,053	-0,028
-486,693	-136,476	0,091	-0,008
-485,678	61,369	0,071	-0,052
-484,664	91,274	-0,045	0,037
-483,649	-120,185	-0,033	-0,004
-482,635	48,559	0,064	0,044
-481,620	-200,000	-0,005	0,032
-480,605	-78,016	-0,086	-0,021
-479,591	-32,199	0,116	0,047
-478,576	800,000	-0,060	0,130
-477,562	-139,451	0,136	0,010
-476,547	-44,102	0,139	-0,051
-475,532	-90,911	-0,013	0,003
-474,518	800,000	-0,064	-0,154
-473,503	-132,071	0,113	0,011
-472,489	776,590	0,063	0,126
-471,474	-109,180	0,058	0,009
-470,459	344,045	0,037	-0,053
-469,445	1,453	0,090	0,047
-468,430	800,000	0,028	0,069
-467,416	21,006	-0,074	0,043
-466,401	-56,215	0,133	0,043
-465,386	-31,902	0,219	0,089
-464,372	-200,000	-0,041	-0,170
-463,357	-200,000	0,006	0,030
-462,343	-123,286	-0,036	0,004
-461,328	800,000	0,035	0,089
-460,313	134,460	-0,057	0,054
-459,299	238,431	0,067	-0,082
-458,284	-3,710	-0,081	-0,041
-457,270	79,181	-0,071	-0,055
-456,255	-71,663	-0,048	0,013
-455,241	-200,000	-0,029	-0,099
-454,226	74,542	0,114	0,087
-453,211	-200,000	-0,002	0,040
-452,197	800,000	0,017	-0,048
-451,182	656,011	-0,060	0,112
-450,168	-56,423	0,150	0,048
-449,153	566,219	-0,014	0,025
-448,138	60,890	-0,062	0,045
-447,124	217,045	-0,063	-0,074
-446,109	-55,224	0,078	-0,025
-445,095	292,509	0,068	-0,090
-444,080	-200,000	-0,022	-0,071
-443,065	800,000	0,034	0,082
-442,051	800,000	0,035	-0,094
-441,036	-200,000	-0,023	-0,077
-440,022	-200,000	0,001	0,004
-439,007	-165,614	0,055	-0,002
-437,992	-25,799	0,101	0,043
-436,978	-200,000	0,014	0,177
-435,963	140,050	0,058	-0,055
-434,949	-14,065	-0,130	0,061
-433,934	2,910	-0,102	0,054
-432,919	-76,031	-0,060	0,015
-431,905	20,975	0,114	-0,067
-430,890	61,892	0,044	0,032
-429,876	-193,440	0,065	-0,000
-428,861	568,479	-0,059	0,105
-427,846	135,707	0,065	0,062
-426,832	-123,219	0,056	0,007
-425,817	800,000	0,038	-0,085
-424,803	-200,000	0,010	-0,156
-423,788	-112,399	0,110	0,016
-422,773	800,000	0,031	0,071
-421,759	800,000	-0,058	0,143
-420,744	800,000	0,038	0,094
-419,730	58,526	-0,054	-0,039
-418,715	-136,017	-0,095	0,008
-417,701	-200,000	-0,005	-0,088
-416,686	646,806	0,044	-0,083
-415,671	800,000	-0,030	0,062
-414,657	-200,000	0,029	0,103
-413,642	800,000	-0,022	-0,044
-412,628	-156,561	0,089	-0,004
-411,613	-77,570	-0,056	-0,014
-410,598	800,000	0,015	-0,034
-409,584	23,738	-0,123	0,074
-408,569	800,000	0,059	0,167
-407,555	57,533	0,076	0,054
-406,540	-82,139	0,125	-0,029
-405,525	101,045	-0,147	-0,125
-404,511	-200,000	0,000	-0,054
-403,496	-75,201	0,084	-0,022
-402,482	-188,926	0,098	-0,001
-401,467	-96,987	-0,081	-0,015
-400,452	800,000	0,051	0,134
-399,438	-200,000	-0,029	0,099
-398,423	18,895	0,065	0,038
-397,409	-200,000	-0,034	0,000
-396,394	411,754	0,027	0,042
-395,379	-200,000	-0,014	-0,113
-394,365	68,983	-0,069	0,051
-393,350	-200,000	0,014	0,068
-392,336	800,000	0,020	0,053
-391,321	-158,821	0,033	0,001
-390,306	-200,000	-0,130	0,000
-389,292	-200,000	0,017	0,102
-388,277	-200,000	-0,046	0,163
-387,263	80,961	0,069	-0,054
-386,248	80,769	0,076	0,059
-385,233	458,265	-0,035	0,057
-384,219	47,644	-0,030	0,020
-383,204	-200,000	-0,003	0,054
-382,190	800,000	0,031	-0,093
-381,175	302,891	-0,069	0,094
-380,160	800,000	0,017	-0,044
-379,146	-111,121	-0,029	0,004
-378,131	299,026	-0,047	-0,063
-377,117	-118,900	-0,088	0,011
-376,102	800,000	0,029	0,059
-375,088	-121,499	0,115	-0,014
-374,073	-200,000	0,023	-0,127
-373,058	800,000	0,010	0,026
-372,044	228,339	0,096	-0,113
-371,029	0,887	0,132	-0,069
-370,015	134,513	0,046	-0,043
-369,000	169,932	0,025	-0,026
-367,985	-200,000	-0,016	-0,139
-366,971	-158,376	0,109	-0,005
-365,956	800,000	-0,060	-0,173
-364,942	112,340	0,072	-0,063
-363,927	800,000	0,031	0,070
-362,912	518,953	0,018	-0,030
-361,898	-200,000	0,012	-0,064
-360,883	587,972	-0,047	-0,085
-359,869	800,000	0,012	0,026
-358,854	-200,000	0,010	0,039
-357,839	800,000	0,015	0,037
-356,825	-96,710	0,077	0,015
-355,810	165,224	-0,055	0,057
-354,796	-200,000	0,012	-0,062
-353,781	-123,143	-0,042	0,005
-352,766	-176,685	-0,052	-0,001
-351,752	408,159	-0,062	-0,095
-350,737	-200,000	0,016	0,127
-349,723	396,121	-0,042	0,064
-348,708	800,000	0,015	-0,047
-347,693	246,827	0,034	0,042
-346,679	25,394	0,070	0,042
-345,664	-200,000	0,006	-0,024
-344,650	800,000	0,039	-0,087
-343,635	161,312	0,027	-0,027
-342,620	-200,000	0,003	-0,011
-341,606	-200,000	0,007	0,041
-340,591	-200,000	-0,031	0,147
-339,577	306,067	0,096	-0,130
-338,562	747,228	-0,019	0,038
-337,548	172,547	-0,015	-0,016
-336,533	588,671	-0,040	0,073
-335,518	-200,000	0,013	-0,058
-334,504	-200,000	-0,028	0,151
-333,489	800,000	-0,042	-0,115
-332,475	800,000	0,037	-0,078
-331,460	300,260	0,053	0,071
-330,445	800,000	-0,054	-0,111
-329,431	-176,404	0,134	-0,002
-328,416	-14,327	0,077	-0,036
-327,402	800,000	-0,055	0,138
-326,387	-200,000	0,019	0,123
-325,372	-200,000	0,009	-0,182
-324,358	117,369	-0,106	0,094
-323,343	118,919	0,044	-0,039
-322,329	250,997	0,046	-0,057
-321,314	-200,000	0,024	-0,146
-320,299	-46,679	0,034	-0,012
-319,285	-79,346	-0,040	-0,010
-318,270	164,476	-0,048	0,049
-317,256	231,694	-0,044	-0,052
-316,241	176,349	-0,059	-0,062
-315,226	-200,000	0,000	0,080
-314,212	-200,000	0,007	-0,039
-313,197	800,000	-0,026	0,052
-312,183	-200,000	0,025	0,213
-311,168	-200,000	-0,006	0,047
-310,153	139,437	-0,109	0,104
-309,139	800,000	0,008	0,023
-308,124	-200,000	-0,028	-0,130
-307,110	-198,262	0,100	-0,000
-306,095	-126,496	0,086	0,009
-305,080	359,664	0,044	0,064
-304,066	-200,000	0,008	-0,054
-303,051	-200,000	0,005	-0,027
-302,037	-143,458	-0,087	-0,006
-301,022	800,000	-0,004	-0,012
-300,008	-200,000	0,011	-0,075
-298,993	-153,659	0,160	-0,008
-297,978	281,708	-0,036	-0,047
-296,964	-200,000	-0,001	-0,048
-295,949	-200,000	-0,032	0,140
-294,935	-200,000	0,002	0,033
-293,920	44,966	-0,054	0,036
-292,905	-200,000	0,011	0,154
-291,891	-200,000	0,013	0,057
-290,876	-32,389	0,049	-0,020
-289,862	90,230	-0,052	-0,042
-288,847	5,198	0,096	0,051
-287,832	111,661	-0,057	0,050
-286,818	-56,476	0,084	-0,027
-285,803	-140,042	0,086	-0,006
-284,789	35,542	0,044	-0,028
-283,774	81,617	-0,041	-0,032
-282,759	-169,992	-0,042	-0,001
-281,745	690,170	-0,015	0,029
-280,730	33,211	-0,119	0,075
-279,716	14,887	0,107	-0,060
-278,701	800,000	-0,024	0,065
-277,686	-172,426	0,080	-0,002
-276,672	-200,000	0,007	0,044
-275,657	142,266	-0,085	-0,081
-274,643	165,864	-0,054	0,056
-273,628	-20,121	-0,054	-0,024
-272,613	-200,000	0,010	-0,040
-271,599	-116,850	0,170	0,022
-270,584	-28,183	0,075	0,031
-269,570	275,504	-0,059	0,076
-268,555	-200,000	-0,017	0,101
-267,540	800,000	-0,047	-0,119
-266,526	-161,152	-0,093	-0,003
-265,511	54,603	0,111	0,077
-264,497	-200,000	-0,036	0,126
-263,482	102,833	0,061	-0,052
-262,467	800,000	0,060	0,128
-261,453	800,000	0,005	0,016
-260,438	220,015	-0,092	-0,107
-259,424	800,000	-0,041	0,092
-258,409	800,000	-0,057	0,156
-257,395	-200,000	0,001	0,004
-256,380	3,842	0,079	-0,042
-255,365	366,684	-0,025	0,037
-254,351	-200,000	-0,013	0,078
-253,336	197,138	-0,047	-0,052
-252,322	56,551	-0,116	-0,081
-251,307	-200,000	0,011	-0,093
-250,292	-0,245	-0,072	-0,037
-249,278	132,327	-0,079	-0,074
-248,263	-82,071	0,222	-0,052
-247,249	-200,000	-0,004	0,069
-246,234	-200,000	-0,022	-0,077
-245,219	0,418	-0,095	-0,049
-244,205	-48,095	-0,097	0,034
-243,190	66,054	0,076	-0,055
-242,176	-32,276	-0,035	-0,014
-241,161	-59,772	-0,053	-0,016
-240,146	800,000	0,057	0,133
-239,132	-200,000	-0,001	-0,093
-238,117	-3,872	-0,074	-0,037
-237,103	-75,760	0,049	-0,012
-236,088	-115,046	0,104	0,014
-235,073	-64,602	0,079	0,023
-234,059	-200,000	0,002	0,020
-233,044	-3,305	0,081	-0,041
-232,030	108,494	0,067	0,058
-231,015	204,964	0,055	-0,062
-230,000	36,944	-0,076	0,048
-228,986	-200,000	0,006	0,048
-227,971	-116,320	0,096	0,013
-226,957	-200,000	-0,004	0,068
-225,942	-39,010	-0,057	0,022
-224,927	630,152	0,017	0,032
-223,913	-200,000	0,006	-0,042
-222,898	800,000	-0,005	-0,013
-221,884	-79,833	-0,094	0,023
-220,869	14,625	-0,094	0,053
-219,855	-111,377	-0,064	0,009
-218,840	-200,000	0,001	-0,054
-217,825	169,107	0,091	-0,094
-216,811	-200,000	-0,001	-0,086
-215,796	800,000	-0,025	-0,057
-214,782	63,851	-0,155	-0,112
-213,767	289,833	0,033	0,043
-212,752	-9,140	0,091	-0,044
-211,738	165,935	0,033	-0,033
-210,723	800,000	0,023	0,057
-209,709	-200,000	0,016	-0,123
-208,694	-158,764	-0,121	0,005
-207,679	362,008	0,053	-0,077
-206,665	465,762	-0,107	0,173
-205,650	474,186	0,023	0,037
-204,636	800,000	0,037	0,094
-203,621	-200,000	0,011	-0,042
-202,606	-200,000	0,001	-0,110
-201,592	186,106	-0,066	0,071
-200,577	-13,439	-0,093	-0,043
-199,563	95,492	-0,078	0,064
-198,548	649,005	0,036	-0,066
-197,533	800,000	0,013	0,029
-196,519	114,282	0,126	0,111
-195,504	2,377	-0,079	-0,041
-194,490	800,000	0,015	0,032
-193,475	44,255	0,039	0,026
-192,460	-6,475	-0,017	0,008
-191,446	-169,995	0,042	-0,001
-190,431	-159,326	-0,187	-0,007
-189,417	-16,807	0,081	-0,037
-188,402	217,086	-0,091	-0,105
-187,387	-200,000	-0,030	0,239
-186,373	-111,358	-0,191	-0,028
-185,358	800,000	0,016	0,042
-184,344	568,196	0,045	0,079
-183,329	800,000	0,008	-0,025
-182,315	-71,623	0,120	0,032
-181,300	-200,000	-0,024	0,102
-180,285	-8,079	-0,172	0,083
-179,271	-200,000	0,023	-0,113
-178,256	-176,815	0,058	-0,001
-177,242	800,000	0,020	-0,058
-176,227	97,279	0,148	0,123
-175,212	-119,701	0,032	-0,004
-174,198	-152,952	0,031	0,002
-173,183	33,370	-0,094	-0,059
-172,169	117,507	0,035	0,031
-171,154	-20,179	-0,090	-0,040
-170,139	-25,282	0,041	0,018
-169,125	325,380	-0,063	0,087
-168,110	-200,000	-0,000	0,085
-167,096	107,487	-0,015	0,013
-166,081	-200,000	-0,005	-0,105
-165,066	-200,000	0,007	-0,137
-164,052	800,000	0,038	-0,100
-163,037	-200,000	0,001	0,005
-162,023	152,731	0,061	0,061
-161,008	-72,143	-0,048	-0,013
-159,993	-155,406	0,051	-0,002
-158,979	227,805	0,037	-0,043
-157,964	-23,582	0,025	0,011
-156,950	-200,000	-0,032	-0,103
-155,935	-200,000	0,011	0,057
-154,920	35,552	-0,057	0,036
-153,906	800,000	-0,044	-0,090
-152,891	800,000	0,020	-0,062
-151,877	446,073	0,074	-0,117
-150,862	17,301	-0,032	-0,018
-149,847	119,821	-0,045	0,040
-148,833	52,036	0,057	-0,039
-147,818	69,107	-0,132	-0,098
-146,804	-78,983	0,067	-0,016
-145,789	-66,607	0,055	-0,016
-144,775	-5,949	-0,048	-0,023
-143,760	656,930	0,022	-0,041
-142,745	-200,000	0,008	0,158
-141,731	800,000	0,030	-0,065
-140,716	-14,157	0,063	0,029
-139,702	-163,634	-0,076	0,003
-138,687	-200,000	-0,015	-0,087
-137,672	800,000	-0,003	-0,008
-136,658	78,513	0,057	0,044
-135,643	-154,435	-0,181	-0,009
-134,629	-34,294	0,037	0,015
-133,614	-200,000	0,007	0,042
-132,599	87,029	0,096	0,076
-131,585	-33,300	0,129	-0,051
-130,570	-133,824	-0,034	0,003
-129,556	-200,000	0,003	0,059
-128,541	234,950	-0,056	0,066
-127,526	134,508	-0,055	0,051
-126,512	75,641	-0,079	0,060
-125,497	83,752	0,060	0,047
-124,483	-8,182	-0,057	-0,028
-123,468	155,166	0,084	0,084
-122,453	-200,000	-0,015	0,000
-121,439	-23,342	0,023	0,010
-120,424	-31,707	-0,078	0,031
-119,410	-200,000	-0,021	0,118
-118,395	-84,694	0,123	-0,028
