DTS Sentinel unit serial number:	SN410029Multiplexer serial number:	ORYXHardware model number:	OX2-SRSoftware version number:	ORYX F/W v4,00 Oryx Data Collector v3.7.2.0data status	okinstallation	B5 Nyhavnadifferential loss correction	single-endedforward channel	channel 2reverse channel	N/Adate	2023/12/13time	18:47:13forward acquisition time	300,00reverse acquisition time	0,00gamma	499,1914k internal	0,3160k external	0,3160temperature offset calibration	1,0000default loss term (dB/km)	0,3820temperature slope calibration	1,0000multiplexer offset coefficient	1,0000multiplexer slope coefficient	1,0000fibre end	0,00T internal ref (°C)	12,40T ext. ref 1 (°C)	-4,78T ext. ref 2 (°C)	-4,83length (m)	temperature (°C)	Stokes	anti-Stokes-744,400	-63,642	0,224	0,067
-743,385	-61,550	-0,230	-0,071
-742,371	333,850	0,117	0,168
-741,356	-128,220	-0,298	0,031
-740,342	188,839	0,066	0,073
-739,327	-111,231	-0,334	-0,050
-738,312	-159,062	0,301	0,012
-737,298	-95,627	-0,357	-0,070
-736,283	-102,581	0,223	0,039
-735,269	-130,876	-0,326	-0,032
-734,254	654,973	0,025	0,047
-733,239	-10,111	-0,471	-0,230
-732,225	-85,182	0,322	0,074
-731,210	9,550	-0,016	0,009
-730,196	-26,580	-0,086	0,037
-729,181	-200,000	0,000	-0,083
-728,167	128,584	0,020	0,019
-727,152	-200,000	0,010	0,042
-726,137	-112,680	-0,107	0,015
-725,123	-2,299	0,027	-0,014
-724,108	-200,000	-0,012	-0,053
-723,094	33,429	-0,128	-0,082
-722,079	17,192	0,088	0,051
-721,064	-200,000	0,003	0,101
-720,050	512,141	0,021	0,036
-719,035	-200,000	-0,001	-0,068
-718,021	800,000	-0,037	-0,095
-717,006	431,926	-0,035	0,055
-715,991	-71,222	-0,079	0,022
-714,977	360,400	0,023	-0,034
-713,962	800,000	0,012	-0,036
-712,948	8,116	0,084	-0,046
-711,933	-200,000	-0,022	0,144
-710,918	5,814	-0,200	-0,108
-709,904	-200,000	-0,000	-0,226
-708,889	-8,172	-0,077	-0,038
-707,875	-172,639	-0,105	0,002
-706,860	-200,000	0,015	0,094
-705,845	113,343	0,112	-0,100
-704,831	-80,119	0,060	-0,015
-703,816	-24,185	0,042	-0,018
-702,802	-102,057	0,098	0,017
-701,787	88,783	0,059	-0,048
-700,772	-0,520	-0,135	-0,070
-699,758	-200,000	-0,011	-0,141
-698,743	54,679	0,034	0,024
-697,729	-200,000	-0,040	0,158
-696,714	16,262	0,058	0,034
-695,699	-38,741	-0,054	-0,021
-694,685	141,392	-0,026	-0,025
-693,670	-171,037	-0,106	-0,003
-692,656	-200,000	0,015	0,112
-691,641	-131,089	0,073	0,007
-690,627	-35,376	-0,043	-0,017
-689,612	235,033	0,113	0,138
-688,597	-96,869	-0,030	0,006
-687,583	75,641	0,157	-0,122
-686,568	393,584	-0,077	-0,118
-685,554	-88,648	0,132	-0,029
-684,539	-146,937	-0,023	-0,001
-683,524	507,351	-0,027	-0,047
-682,510	-1,528	0,023	0,012
-681,495	-86,571	-0,057	-0,013
-680,481	-80,119	-0,096	0,024
-679,466	209,030	-0,066	-0,076
-678,451	-200,000	-0,005	0,029
-677,437	210,226	-0,068	-0,078
-676,422	187,462	-0,029	0,032
-675,408	-4,692	-0,099	0,050
-674,393	800,000	0,016	-0,034
-673,378	-200,000	0,002	0,095
-672,364	63,180	-0,071	-0,052
-671,349	23,401	0,178	-0,107
-670,335	212,249	0,052	0,060
-669,320	-200,000	0,004	0,025
-668,305	-200,000	0,017	0,091
-667,291	-200,000	0,041	-0,154
-666,276	800,000	0,015	0,039
-665,262	800,000	-0,026	-0,081
-664,247	-200,000	-0,016	0,138
-663,232	128,417	-0,074	-0,069
-662,218	800,000	0,026	-0,064
-661,203	7,610	0,112	-0,061
-660,189	-200,000	-0,013	-0,142
-659,174	-29,108	0,085	-0,036
-658,159	-46,816	-0,055	-0,020
-657,145	-200,000	0,002	-0,156
-656,130	-43,262	-0,126	0,047
-655,116	-200,000	0,020	0,099
-654,101	71,632	-0,066	-0,051
-653,086	136,788	0,063	-0,060
-652,072	-128,204	-0,058	-0,006
-651,057	-200,000	-0,040	-0,244
-650,043	-69,559	0,050	-0,014
-649,028	-94,952	-0,024	-0,005
-648,014	70,279	0,066	-0,050
-646,999	-139,337	0,094	-0,007
-645,984	185,145	0,054	0,059
-644,970	-188,210	-0,024	0,000
-643,955	-76,288	-0,089	-0,023
-642,941	-87,781	-0,180	-0,039
-641,926	-200,000	0,032	-0,124
-640,911	-200,000	-0,020	0,094
-639,897	21,513	0,036	0,022
-638,882	-20,737	0,014	0,006
-637,868	548,683	-0,039	-0,068
-636,853	-100,254	-0,121	-0,022
-635,838	800,000	0,010	0,031
-634,824	479,039	0,070	-0,117
-633,809	22,906	-0,078	-0,047
-632,795	800,000	-0,038	0,107
-631,780	-65,306	-0,076	0,022
-630,765	-23,207	-0,021	-0,009
-629,751	-83,693	-0,102	0,024
-628,736	-38,855	-0,107	0,041
-627,722	-131,551	0,057	0,005
-626,707	48,909	-0,032	-0,022
-625,692	-3,641	0,020	0,010
-624,678	-167,186	0,063	-0,002
-623,663	129,001	-0,052	0,049
-622,649	800,000	0,022	-0,054
-621,634	-26,701	-0,181	-0,077
-620,619	153,624	0,007	-0,007
-619,605	-33,604	-0,064	-0,026
-618,590	81,149	0,068	-0,053
-617,576	204,415	-0,101	-0,115
-616,561	-27,119	-0,047	-0,020
-615,546	146,097	0,068	-0,066
-614,532	186,353	-0,079	-0,087
-613,517	30,567	-0,041	-0,026
-612,503	-72,645	0,165	0,044
-611,488	800,000	-0,038	-0,098
-610,474	5,901	0,093	-0,050
-609,459	-62,361	-0,070	-0,021
-608,444	-200,000	-0,001	-0,054
-607,430	703,286	-0,029	-0,056
-606,415	69,383	-0,015	-0,011
-605,401	248,004	0,048	0,060
-604,386	-56,388	-0,016	-0,005
-603,371	384,146	0,038	-0,057
-602,357	-95,329	0,076	0,015
-601,342	495,391	0,103	-0,174
-600,328	72,483	-0,099	-0,075
-599,313	33,688	-0,025	-0,016
-598,298	167,622	-0,089	-0,092
-597,284	182,261	0,070	0,076
-596,269	-40,431	0,048	-0,018
-595,255	-105,536	-0,141	-0,023
-594,240	-200,000	-0,000	-0,058
-593,225	698,546	-0,026	0,050
-592,211	100,387	-0,149	-0,127
-591,196	-200,000	0,025	-0,190
-590,182	5,944	0,035	-0,019
-589,167	800,000	-0,043	-0,089
-588,152	462,500	0,036	0,059
-587,138	-200,000	-0,012	0,061
-586,123	26,271	-0,111	-0,068
-585,109	177,013	0,099	-0,106
-584,094	-200,000	-0,012	-0,100
-583,079	-138,233	-0,091	-0,007
-582,065	-200,000	0,023	-0,085
-581,050	36,929	0,077	0,050
-580,036	108,432	0,078	-0,068
-579,021	93,573	0,081	-0,067
-578,006	-200,000	-0,007	-0,058
-576,992	8,784	-0,115	-0,063
-575,977	-200,000	-0,045	-0,172
-574,963	47,121	0,095	0,065
-573,948	-200,000	-0,009	-0,084
-572,934	426,437	0,029	0,046
-571,919	-141,114	-0,123	0,009
-570,904	-115,092	-0,153	0,021
-569,890	190,115	-0,074	-0,082
-568,875	281,170	0,066	0,086
-567,861	-200,000	0,020	-0,068
-566,846	102,318	-0,068	-0,058
-565,831	-200,000	-0,018	0,114
-564,817	101,815	-0,068	-0,058
-563,802	-200,000	0,001	-0,173
-562,788	62,806	-0,078	0,057
-561,773	-69,923	0,181	-0,050
-560,758	800,000	0,034	0,083
-559,744	121,103	-0,039	-0,036
-558,729	800,000	0,041	-0,103
-557,715	-200,000	-0,018	-0,101
-556,700	-200,000	-0,001	0,072
-555,685	-166,672	0,066	0,002
-554,671	535,777	0,017	0,029
-553,656	-200,000	0,014	0,074
-552,642	-71,849	0,089	0,024
-551,627	-42,972	-0,085	-0,031
-550,612	169,817	-0,023	0,025
-549,598	-200,000	-0,013	-0,192
-548,583	-73,526	0,106	-0,028
-547,569	-200,000	0,006	0,061
-546,554	125,240	0,039	-0,036
-545,539	129,185	0,053	-0,049
-544,525	-100,412	0,063	0,011
-543,510	-200,000	-0,017	-0,082
-542,496	-200,000	0,017	-0,133
-541,481	-22,221	-0,078	-0,034
-540,466	-200,000	-0,048	0,189
-539,452	669,215	0,059	0,111
-538,437	800,000	-0,031	0,097
-537,423	210,357	-0,014	0,016
-536,408	211,353	0,058	0,067
-535,393	349,714	-0,046	-0,067
-534,379	-91,035	0,089	-0,019
-533,364	539,832	0,058	-0,101
-532,350	-200,000	-0,014	-0,076
-531,335	-200,000	0,021	-0,078
-530,321	800,000	-0,011	0,029
-529,306	-181,476	-0,070	-0,001
-528,291	357,319	-0,052	-0,076
-527,277	101,971	0,074	0,063
-526,262	-128,233	-0,029	-0,003
-525,248	150,707	0,010	0,010
-524,233	-200,000	0,017	-0,068
-523,218	-200,000	0,029	-0,232
-522,204	159,386	-0,139	-0,141
-521,189	194,652	-0,020	0,023
-520,175	-102,552	-0,059	0,010
-519,160	-111,300	0,030	-0,004
-518,145	-117,575	0,203	-0,026
-517,131	200,581	-0,081	0,091
-516,116	11,288	-0,018	0,010
-515,102	407,065	0,032	0,049
-514,087	65,585	0,149	0,110
-513,072	78,796	0,119	0,093
-512,058	-174,673	-0,124	-0,003
-511,043	-7,046	0,147	-0,073
-510,029	182,571	0,124	0,133
-509,014	-200,000	0,005	0,065
-507,999	352,980	0,056	0,082
-506,985	-200,000	-0,003	-0,061
-505,970	176,333	-0,033	0,035
-504,956	-200,000	-0,005	-0,152
-503,941	23,795	0,130	-0,078
-502,926	220,898	0,073	-0,085
-501,912	106,942	-0,098	-0,085
-500,897	-123,587	0,025	-0,003
-499,883	471,881	0,006	-0,009
-498,868	800,000	-0,065	-0,204
-497,853	-200,000	0,031	-0,136
-496,839	800,000	0,024	-0,073
-495,824	-200,000	-0,006	0,155
-494,810	-200,000	-0,008	0,059
-493,795	-153,341	0,023	0,001
-492,781	-200,000	0,008	0,090
-491,766	-101,562	-0,124	-0,022
-490,751	247,782	0,047	-0,058
-489,737	-148,722	-0,077	0,004
-488,722	800,000	0,050	0,106
-487,708	-138,186	-0,044	0,004
-486,693	-31,971	0,079	-0,032
-485,678	17,463	0,043	0,025
-484,664	-200,000	-0,001	-0,144
-483,649	-200,000	0,001	0,028
-482,635	-1,285	0,025	-0,013
-481,620	-200,000	0,021	0,143
-480,605	-200,000	0,004	0,114
-479,591	-84,783	0,171	0,039
-478,576	-50,892	-0,003	-0,001
-477,562	10,716	0,026	0,014
-476,547	-189,356	0,013	-0,000
-475,532	800,000	-0,027	0,059
-474,518	-93,451	-0,173	0,035
-473,503	-102,837	0,092	-0,016
-472,489	170,006	0,033	-0,035
-471,474	152,076	-0,113	-0,112
-470,459	-33,362	0,029	0,012
-469,445	-37,506	-0,020	0,008
-468,430	60,259	0,060	-0,044
-467,416	800,000	0,034	0,076
-466,401	206,801	0,085	0,097
-465,386	178,824	0,020	0,021
-464,372	-200,000	0,039	-0,174
-463,357	-31,571	0,087	-0,035
-462,343	124,118	-0,086	-0,079
-461,328	-200,000	-0,019	-0,113
-460,313	128,702	0,019	0,018
-459,299	108,951	0,123	-0,107
-458,284	-109,366	0,112	0,017
-457,270	527,439	0,016	0,027
-456,255	800,000	0,016	0,050
-455,241	722,592	0,031	0,061
-454,226	-200,000	0,004	0,182
-453,211	591,820	0,068	-0,122
-452,197	-200,000	-0,013	0,066
-451,182	86,483	0,075	0,060
-450,168	172,746	0,027	0,028
-449,153	-200,000	0,003	0,036
-448,138	211,520	-0,052	-0,059
-447,124	-21,744	0,046	-0,020
-446,109	137,786	0,023	-0,022
-445,095	266,203	0,031	-0,039
-444,080	350,327	-0,059	0,086
-443,065	-92,974	0,119	-0,024
-442,051	39,780	-0,061	0,040
-441,036	-75,042	-0,114	-0,030
-440,022	-200,000	0,023	-0,108
-439,007	800,000	-0,058	0,126
-437,992	631,729	0,065	0,120
-436,978	-200,000	0,022	0,156
-435,963	800,000	-0,109	0,272
-434,949	-200,000	-0,002	-0,073
-433,934	800,000	0,028	0,058
-432,919	208,326	0,047	0,054
-431,905	423,314	-0,059	0,093
-430,890	8,810	0,180	0,098
-429,876	404,370	0,083	0,127
-428,861	21,188	0,041	-0,024
-427,846	-200,000	-0,001	0,061
-426,832	151,826	-0,047	-0,047
-425,817	-66,454	-0,115	-0,033
-424,803	164,390	-0,056	-0,057
-423,788	-200,000	-0,031	0,128
-422,773	-104,504	0,112	-0,019
-421,759	77,063	0,050	-0,038
-420,744	-200,000	0,025	-0,112
-419,730	800,000	-0,062	-0,169
-418,715	-200,000	0,013	0,061
-417,701	-50,645	0,095	0,032
-416,686	-200,000	-0,008	0,086
-415,671	800,000	0,073	0,155
-414,657	-200,000	-0,014	-0,073
-413,642	615,735	0,022	-0,040
-412,628	800,000	0,032	0,092
-411,613	800,000	-0,020	0,044
-410,598	132,681	-0,124	0,117
-409,584	800,000	0,056	0,121
-408,569	800,000	0,050	-0,124
-407,555	35,361	0,139	0,088
-406,540	98,796	-0,035	0,030
-405,525	136,888	0,066	0,063
-404,511	-200,000	-0,018	0,062
-403,496	308,940	-0,096	-0,131
-402,482	-35,333	-0,094	-0,037
-401,467	-200,000	-0,003	0,122
-400,452	-149,856	-0,129	0,007
-399,438	52,270	0,036	0,025
-398,423	483,040	-0,049	-0,081
-397,409	-173,981	0,093	-0,002
-396,394	-200,000	0,018	0,103
-395,379	-200,000	0,002	-0,052
-394,365	800,000	0,038	-0,086
-393,350	-62,151	0,085	0,025
-392,336	138,729	-0,182	0,173
-391,321	71,102	-0,066	0,049
-390,306	800,000	-0,090	-0,182
-389,292	800,000	0,057	-0,175
-388,277	800,000	0,010	-0,029
-387,263	-200,000	0,012	0,069
-386,248	47,835	0,092	-0,063
-385,233	800,000	0,021	0,047
-384,219	800,000	-0,045	0,093
-383,204	800,000	0,023	-0,068
-382,190	800,000	0,027	-0,063
-381,175	800,000	0,042	-0,112
-380,160	-11,323	0,193	0,092
-379,146	224,809	0,063	0,074
-378,131	-82,763	0,035	-0,008
-377,117	-116,049	-0,082	-0,011
-376,102	279,706	-0,041	-0,054
-375,088	-200,000	-0,005	-0,148
-374,073	-1,313	-0,033	0,017
-373,058	-200,000	-0,044	0,246
-372,044	-97,481	0,062	0,012
-371,029	263,161	0,054	0,068
-370,015	-51,084	0,142	-0,048
-369,000	-200,000	-0,018	-0,186
-367,985	269,261	0,044	0,056
-366,971	159,507	0,032	-0,033
-365,956	166,342	0,055	-0,057
-364,942	75,722	0,138	0,105
-363,927	-200,000	0,001	-0,074
-362,912	57,199	0,066	-0,047
-361,898	800,000	-0,031	0,095
-360,883	-47,703	0,082	-0,029
-359,869	-160,923	-0,097	0,004
-358,854	80,127	-0,041	-0,032
-357,839	99,724	-0,108	-0,090
-356,825	108,683	0,047	0,040
-355,810	33,913	-0,065	0,041
-354,796	-200,000	-0,019	-0,078
-353,781	-45,531	0,053	-0,019
-352,766	800,000	-0,026	-0,067
-351,752	800,000	0,017	0,046
-350,737	-200,000	-0,025	-0,086
-349,723	150,380	-0,105	0,103
-348,708	800,000	0,087	-0,177
-347,693	219,606	-0,104	-0,121
-346,679	-200,000	0,008	-0,057
-345,664	-31,237	-0,168	-0,068
-344,650	683,066	0,031	-0,058
-343,635	-44,176	-0,115	-0,042
-342,620	-72,097	0,089	-0,024
-341,606	482,646	-0,073	0,120
-340,591	795,813	-0,019	-0,039
-339,577	41,311	-0,019	0,012
-338,562	-200,000	-0,030	-0,160
-337,548	-144,069	-0,086	-0,006
-336,533	-67,890	0,117	-0,033
-335,518	-200,000	0,002	0,090
-334,504	-68,982	-0,007	-0,002
-333,489	800,000	-0,033	-0,076
-332,475	281,888	-0,061	-0,079
-331,460	-93,627	-0,068	-0,014
-330,445	715,501	-0,011	0,020
-329,431	800,000	-0,072	0,153
-328,416	-200,000	0,033	0,188
-327,402	800,000	0,020	0,056
-326,387	23,450	-0,101	-0,060
-325,372	-8,563	-0,095	0,046
-324,358	-93,232	-0,065	0,013
-323,343	-63,662	-0,086	-0,025
-322,329	-56,580	0,081	-0,026
-321,314	266,046	0,041	0,052
-320,299	-156,726	0,037	-0,002
-319,285	-28,379	-0,089	0,037
-318,270	0,169	-0,074	-0,038
-317,256	-14,219	0,062	0,029
-316,241	-64,821	0,067	-0,020
-315,226	375,821	-0,074	-0,109
-314,212	619,028	0,064	0,117
-313,197	-85,432	-0,069	0,016
-312,183	-117,869	0,071	-0,009
-311,168	51,678	-0,069	0,048
-310,153	-104,187	-0,143	0,024
-309,139	-200,000	0,011	0,065
-308,124	-124,053	-0,055	0,006
-307,110	-103,280	0,081	-0,014
-306,095	-200,000	-0,022	-0,072
-305,080	-60,941	0,134	0,041
-304,066	161,311	-0,102	0,103
-303,051	301,824	0,099	0,132
-302,037	-200,000	0,003	0,011
-301,022	9,689	0,087	-0,048
-300,008	270,265	0,071	0,091
-298,993	-68,558	-0,115	0,032
-297,978	28,762	-0,068	0,042
-296,964	484,911	-0,063	-0,104
-295,949	-200,000	-0,085	0,000
-294,935	200,773	-0,028	0,031
-293,920	7,662	-0,094	0,051
-292,905	90,927	-0,061	0,050
-291,891	313,911	-0,012	0,016
-290,876	800,000	0,033	-0,092
-289,862	142,104	0,062	-0,059
-288,847	-200,000	-0,012	-0,061
-287,832	434,680	0,028	0,045
-286,818	800,000	0,024	0,070
-285,803	153,909	-0,034	0,034
-284,789	-89,985	-0,101	0,021
-283,774	35,594	0,048	0,030
-282,759	-35,865	0,016	0,006
-281,745	-146,764	-0,026	-0,002
-280,730	-85,032	0,023	0,005
-279,716	-43,559	-0,077	-0,028
-278,701	453,963	0,026	0,042
-277,686	-60,704	0,067	0,021
-276,672	361,009	0,008	0,012
-275,657	-200,000	0,015	0,123
-274,643	-96,685	-0,140	0,026
-273,628	-200,000	0,010	0,045
-272,613	-51,174	-0,083	0,028
-271,599	215,506	0,051	-0,058
-270,584	158,635	0,028	0,028
-269,570	-200,000	-0,014	0,084
-268,555	194,782	0,088	0,096
-267,540	-72,308	-0,074	-0,020
-266,526	150,594	0,083	-0,081
-265,511	28,647	0,061	0,037
-264,497	-169,148	-0,048	0,001
-263,482	417,571	-0,104	0,162
-262,467	-169,306	0,213	-0,006
-261,453	181,576	-0,146	0,155
-260,438	330,876	-0,038	-0,053
-259,424	800,000	-0,045	-0,117
-258,409	-153,811	0,019	-0,001
-257,395	356,412	0,081	0,117
-256,380	1,953	0,068	0,035
-255,365	-200,000	0,002	0,090
-254,351	175,697	0,017	-0,018
-253,336	31,065	-0,122	0,075
-252,322	63,318	0,065	-0,047
-251,307	-167,905	0,050	-0,001
-250,292	214,653	-0,050	-0,057
-249,278	-200,000	0,014	0,125
-248,263	-2,885	-0,167	0,084
-247,249	800,000	-0,026	0,060
-246,234	-200,000	-0,009	-0,037
-245,219	-135,815	-0,014	-0,001
-244,205	-7,627	0,060	-0,029
-243,190	683,009	0,013	0,025
-242,176	417,026	-0,022	0,034
-241,161	-200,000	0,026	0,177
-240,146	181,722	-0,035	0,038
-239,132	-18,365	-0,106	-0,048
-238,117	-200,000	0,024	-0,094
-237,103	-200,000	-0,022	-0,107
-236,088	800,000	-0,008	-0,019
-235,073	-200,000	-0,017	0,071
-234,059	800,000	-0,029	-0,071
-233,044	553,043	0,006	0,010
-232,030	71,719	-0,032	0,024
-231,015	-129,547	-0,205	-0,020
-230,000	466,667	0,061	-0,099
-228,986	-133,229	0,077	0,007
-227,971	-200,000	-0,004	-0,042
-226,957	-68,988	-0,117	0,032
-225,942	-102,553	0,105	0,018
-224,927	-58,551	-0,053	0,016
-223,913	-200,000	0,025	-0,117
-222,898	-154,662	-0,046	-0,002
-221,884	-31,672	-0,082	-0,033
-220,869	2,172	0,025	-0,013
-219,855	-151,126	0,104	-0,006
-218,840	537,020	-0,049	-0,084
-217,825	-111,940	0,052	-0,007
-216,811	216,705	-0,090	-0,103
-215,796	-15,561	0,150	0,069
-214,782	242,584	-0,100	0,122
-213,767	229,446	0,079	-0,093
-212,752	172,137	0,021	0,021
-211,738	-200,000	-0,020	0,155
-210,723	-200,000	-0,015	-0,090
-209,709	-15,039	-0,125	0,058
-208,694	-11,545	-0,048	0,023
-207,679	-200,000	0,004	-0,041
-206,665	574,960	-0,023	-0,041
-205,650	-200,000	0,038	0,173
-204,636	-167,710	0,062	0,002
-203,621	483,354	-0,120	0,198
-202,606	-58,730	0,105	0,033
-201,592	-110,954	-0,039	-0,006
-200,577	-98,230	0,043	-0,008
-199,563	139,047	0,109	-0,104
-198,548	-200,000	-0,001	0,027
-197,533	376,460	0,024	-0,035
-196,519	-98,933	-0,095	0,017
-195,504	4,886	0,138	-0,073
-194,490	800,000	-0,026	-0,053
-193,475	-40,099	-0,116	-0,043
-192,460	736,419	-0,023	-0,046
-191,446	800,000	-0,051	0,142
-190,431	106,477	0,067	0,057
-189,417	62,784	0,012	0,009
-188,402	196,664	-0,099	0,109
-187,387	-143,049	0,073	-0,005
-186,373	-3,228	-0,044	-0,022
-185,358	-50,859	-0,095	-0,032
-184,344	-47,020	0,016	0,006
-183,329	-200,000	0,020	0,068
-182,315	-143,706	-0,095	0,006
-181,300	223,043	0,038	0,045
-180,285	-59,083	0,146	0,045
-179,271	800,000	-0,019	0,045
-178,256	-33,450	0,064	-0,025
-177,242	800,000	0,028	-0,078
-176,227	-200,000	0,005	0,159
-175,212	-200,000	0,016	0,103
-174,198	77,554	-0,040	0,031
-173,183	43,959	0,027	-0,018
-172,169	800,000	0,040	0,098
-171,154	478,680	0,071	-0,117
-170,139	498,521	0,042	0,070
-169,125	-118,734	0,156	-0,020
-168,110	-48,651	0,051	0,018
-167,096	-200,000	0,014	0,108
-166,081	291,694	0,028	-0,036
-165,066	174,825	0,089	-0,093
-164,052	558,550	0,034	0,059
-163,037	800,000	0,031	0,080
-162,023	487,957	-0,043	0,071
-161,008	613,797	0,034	-0,061
-159,993	-200,000	0,008	0,094
-158,979	106,962	-0,023	0,020
-157,964	132,986	-0,064	-0,059
-156,950	-200,000	0,011	-0,064
-155,935	-3,134	0,032	-0,016
-154,920	334,823	-0,025	-0,034
-153,906	-200,000	0,020	0,170
-152,891	417,987	-0,104	0,161
-151,877	-119,139	0,077	-0,010
-150,862	480,486	0,092	0,150
-149,847	350,091	0,031	-0,044
-148,833	347,952	0,037	0,052
-147,818	81,830	-0,108	0,084
-146,804	-103,894	-0,044	-0,007
-145,789	446,892	0,097	0,154
-144,775	305,227	0,084	-0,112
-143,760	-200,000	-0,011	-0,190
-142,745	800,000	0,044	0,096
-141,731	228,814	-0,065	0,076
-140,716	123,145	0,176	0,159
-139,702	-200,000	0,021	0,115
-138,687	-113,584	0,098	0,014
-137,672	-26,719	-0,145	0,061
-136,658	-135,065	-0,068	0,006
-135,643	91,627	-0,076	-0,062
-134,629	268,293	-0,017	-0,021
-133,614	-7,818	-0,132	0,064
-132,599	-146,901	0,076	0,005
-131,585	-79,893	-0,090	-0,021
-130,570	20,240	-0,025	-0,015
-129,556	800,000	0,026	0,054
-128,541	-100,804	-0,057	-0,010
-127,526	800,000	0,029	0,077
-126,512	456,099	-0,100	0,160
-125,497	-174,212	0,180	0,004
-124,483	-200,000	-0,033	0,190
-123,468	-200,000	-0,025	0,128
-122,453	758,880	0,049	-0,096
-121,439	29,008	-0,120	-0,073
-120,424	-31,792	0,068	-0,027
-119,410	-200,000	0,001	0,091
