DTS Sentinel unit serial number:	SN410029Multiplexer serial number:	ORYXHardware model number:	OX2-SRSoftware version number:	ORYX F/W v4,00 Oryx Data Collector v3.7.2.0data status	okinstallation	B5 Nyhavnadifferential loss correction	single-endedforward channel	channel 2reverse channel	N/Adate	2023/12/12time	04:22:13forward acquisition time	300,00reverse acquisition time	0,00gamma	499,1914k internal	0,3156k external	0,3156temperature offset calibration	1,0000default loss term (dB/km)	0,3820temperature slope calibration	1,0000multiplexer offset coefficient	1,0000multiplexer slope coefficient	1,0000fibre end	0,00T internal ref (°C)	15,51T ext. ref 1 (°C)	-0,88T ext. ref 2 (°C)	-1,17length (m)	temperature (°C)	Stokes	anti-Stokes-744,400	800,000	0,010	-0,031
-743,385	-101,505	-0,297	0,053
-742,371	44,076	0,180	0,122
-741,356	-63,613	-0,339	0,102
-740,342	-18,449	0,133	-0,061
-739,327	-154,387	-0,261	-0,013
-738,312	-21,170	0,083	0,037
-737,298	-108,668	-0,227	0,036
-736,283	221,446	0,092	0,109
-735,269	-49,842	-0,263	-0,092
-734,254	-200,000	0,029	-0,147
-733,239	9,578	-0,397	-0,221
-732,225	94,358	0,176	0,147
-731,210	-91,932	-0,079	-0,016
-730,196	-30,232	-0,032	-0,013
-729,181	-7,552	-0,036	0,018
-728,167	-200,000	-0,013	-0,090
-727,152	-86,457	-0,158	-0,035
-726,137	-8,477	-0,086	0,042
-725,123	-79,422	-0,039	-0,010
-724,108	-200,000	0,015	-0,070
-723,094	103,793	-0,129	-0,112
-722,079	216,041	0,047	-0,055
-721,064	6,798	-0,039	-0,021
-720,050	800,000	0,060	-0,123
-719,035	683,159	0,008	0,016
-718,021	-147,181	-0,154	0,010
-717,006	-41,464	0,056	0,021
-715,991	39,517	-0,127	-0,084
-714,977	251,899	-0,124	-0,156
-713,962	-123,320	-0,132	0,015
-712,948	-53,392	0,062	-0,021
-711,933	434,893	-0,124	0,199
-710,918	69,389	0,076	-0,058
-709,904	578,362	-0,008	0,015
-708,889	-78,771	-0,077	-0,019
-707,875	10,778	-0,097	-0,054
-706,860	-60,946	0,057	-0,018
-705,845	119,893	-0,060	0,055
-704,831	800,000	0,051	-0,132
-703,816	-78,581	-0,236	0,059
-702,802	91,968	0,062	-0,051
-701,787	800,000	0,054	-0,141
-700,772	-43,681	0,050	-0,018
-699,758	-200,000	0,003	-0,128
-698,743	-200,000	0,014	0,143
-697,729	800,000	0,052	0,143
-696,714	-84,222	0,080	0,019
-695,699	-41,577	-0,056	0,021
-694,685	-200,000	0,019	-0,169
-693,670	-46,252	-0,130	-0,047
-692,656	-179,214	0,174	-0,003
-691,641	673,589	-0,050	-0,097
-690,627	66,942	0,071	0,053
-689,612	-113,084	-0,197	0,028
-688,597	-11,856	-0,040	-0,019
-687,583	378,632	-0,088	-0,133
-686,568	693,335	0,055	-0,106
-685,554	245,352	0,043	-0,054
-684,539	41,878	0,045	-0,030
-683,524	435,047	0,133	0,213
-682,510	-200,000	-0,006	0,054
-681,495	-200,000	0,006	-0,078
-680,481	33,255	-0,006	-0,004
-679,466	-200,000	0,018	-0,115
-678,451	622,249	-0,056	-0,104
-677,437	-200,000	-0,005	0,057
-676,422	69,557	-0,095	0,072
-675,408	-200,000	0,006	0,120
-674,393	-200,000	-0,007	0,149
-673,378	-67,208	-0,173	0,050
-672,364	-96,309	-0,106	-0,020
-671,349	-200,000	-0,021	-0,085
-670,335	-200,000	0,012	-0,143
-669,320	800,000	-0,082	0,187
-668,305	-200,000	0,024	0,092
-667,291	-200,000	0,000	0,012
-666,276	102,139	0,030	-0,025
-665,262	-130,295	0,029	-0,003
-664,247	800,000	0,037	-0,115
-663,232	84,642	0,063	-0,050
-662,218	-46,033	-0,060	-0,022
-661,203	286,173	-0,038	-0,050
-660,189	-119,187	0,102	0,013
-659,174	-200,000	-0,025	-0,084
-658,159	-200,000	-0,003	-0,075
-657,145	-200,000	-0,003	0,038
-656,130	741,505	0,045	0,088
-655,116	205,299	0,073	0,083
-654,101	-72,288	-0,135	0,036
-653,086	800,000	-0,022	-0,059
-652,072	201,590	-0,142	-0,161
-651,057	-200,000	-0,009	-0,046
-650,043	-200,000	0,043	-0,162
-649,028	-200,000	-0,001	-0,125
-648,014	-95,715	-0,106	-0,021
-646,999	32,440	-0,034	0,022
-645,984	-200,000	0,050	0,282
-644,970	-200,000	0,005	-0,053
-643,955	47,539	-0,116	-0,079
-642,941	800,000	-0,024	-0,058
-641,926	-200,000	-0,007	0,027
-640,911	111,076	-0,051	0,045
-639,897	-55,596	0,154	-0,050
-638,882	72,147	0,116	-0,088
-637,868	65,990	-0,089	-0,067
-636,853	131,732	-0,070	0,066
-635,838	-200,000	-0,011	-0,107
-634,824	428,651	0,010	-0,016
-633,809	187,455	0,092	0,101
-632,795	-200,000	0,001	0,008
-631,780	800,000	0,023	-0,059
-630,765	257,601	0,019	0,024
-629,751	800,000	0,045	-0,140
-628,736	55,398	-0,113	-0,081
-627,722	-89,964	-0,128	0,027
-626,707	-170,867	0,037	0,001
-625,692	727,711	0,046	0,091
-624,678	140,611	0,128	-0,124
-623,663	-178,812	-0,216	-0,004
-622,649	-21,761	0,140	0,062
-621,634	-105,910	-0,139	0,023
-620,619	82,672	-0,094	-0,075
-619,605	192,726	-0,062	-0,069
-618,590	7,291	0,033	0,018
-617,576	800,000	-0,066	0,152
-616,561	235,150	-0,058	-0,070
-615,546	324,797	0,028	-0,039
-614,532	2,318	-0,080	-0,043
-613,517	244,765	-0,033	-0,041
-612,503	-200,000	-0,010	-0,218
-611,488	-157,028	-0,106	0,005
-610,474	800,000	0,023	0,055
-609,459	800,000	-0,015	0,036
-608,444	47,386	-0,073	0,050
-607,430	-77,531	-0,079	-0,020
-606,415	-93,660	-0,058	0,012
-605,401	20,464	-0,058	-0,034
-604,386	-200,000	-0,004	-0,038
-603,371	-200,000	0,002	-0,011
-602,357	-91,697	-0,130	0,027
-601,342	800,000	-0,027	-0,073
-600,328	-200,000	-0,010	-0,058
-599,313	346,162	-0,055	0,079
-598,298	-122,666	0,037	-0,004
-597,284	-10,958	0,061	-0,030
-596,269	751,567	0,048	0,096
-595,255	-200,000	0,023	0,119
-594,240	-91,209	-0,042	-0,009
-593,225	84,849	-0,113	0,091
-592,211	-200,000	0,013	-0,088
-591,196	-200,000	0,053	-0,244
-590,182	-54,256	0,078	-0,026
-589,167	-200,000	-0,011	0,064
-588,152	-91,713	-0,049	-0,010
-587,138	137,876	-0,056	0,054
-586,123	-103,026	-0,073	-0,012
-585,109	71,381	-0,057	0,044
-584,094	-29,827	-0,054	0,023
-583,079	112,629	-0,012	-0,011
-582,065	56,283	0,091	0,065
-581,050	-200,000	0,032	-0,233
-580,036	800,000	0,030	0,062
-579,021	-26,019	-0,114	-0,049
-578,006	75,419	-0,056	-0,043
-576,992	146,880	0,066	-0,065
-575,977	125,185	0,025	0,023
-574,963	800,000	-0,024	-0,059
-573,948	9,998	-0,022	0,012
-572,934	-200,000	-0,040	-0,150
-571,919	-72,892	0,055	-0,015
-570,904	800,000	-0,027	0,055
-569,890	-21,215	0,063	0,028
-568,875	-14,201	0,111	0,052
-567,861	197,001	0,025	0,028
-566,846	302,315	0,097	0,131
-565,831	-158,749	-0,111	0,005
-564,817	-9,368	-0,159	-0,078
-563,802	-200,000	-0,001	0,069
-562,788	-143,516	-0,033	0,002
-561,773	-18,898	-0,105	0,047
-560,758	529,488	-0,051	0,088
-559,744	14,941	0,093	0,053
-558,729	-86,155	-0,183	-0,041
-557,715	19,787	0,053	-0,031
-556,700	-6,695	-0,079	0,039
-555,685	42,668	-0,051	0,034
-554,671	-28,288	0,054	0,023
-553,656	111,487	-0,068	0,060
-552,642	3,796	0,048	-0,025
-551,627	-38,313	0,096	0,037
-550,612	134,917	-0,097	-0,092
-549,598	800,000	0,069	-0,157
-548,583	800,000	-0,031	-0,074
-547,569	-127,903	0,118	-0,012
-546,554	72,270	0,076	0,058
-545,539	311,809	-0,044	0,060
-544,525	-200,000	0,004	0,042
-543,510	458,436	-0,010	0,017
-542,496	-117,422	-0,081	-0,011
-541,481	-200,000	-0,010	-0,034
-540,466	130,209	0,053	-0,049
-539,452	64,351	-0,053	-0,039
-538,437	800,000	0,019	-0,053
-537,423	800,000	0,082	0,174
-536,408	-17,296	-0,024	0,011
-535,393	-114,009	-0,109	0,015
-534,379	-21,132	-0,120	-0,054
-533,364	-159,143	-0,066	-0,003
-532,350	315,768	0,065	0,090
-531,335	125,089	0,092	-0,085
-530,321	238,899	-0,077	0,094
-529,306	-22,566	-0,077	0,034
-528,291	343,354	-0,042	-0,060
-527,277	-58,586	-0,050	-0,016
-526,262	800,000	0,014	0,043
-525,248	-120,122	0,074	0,009
-524,233	-98,021	0,104	0,019
-523,218	336,436	0,053	0,076
-522,204	-15,752	-0,115	-0,053
-521,189	-33,347	0,095	0,038
-520,175	4,874	0,087	-0,047
-519,160	539,608	-0,088	-0,154
-518,145	-149,979	-0,036	-0,002
-517,131	800,000	0,035	-0,098
-516,116	-200,000	0,003	0,034
-515,102	-85,940	-0,072	0,016
-514,087	800,000	0,029	-0,075
-513,072	800,000	-0,055	-0,153
-512,058	-200,000	-0,020	0,101
-511,043	800,000	-0,024	0,068
-510,029	-1,062	0,079	0,041
-509,014	-129,641	0,034	0,003
-507,999	96,797	0,101	0,085
-506,985	95,384	-0,105	-0,088
-505,970	-124,883	-0,059	0,007
-504,956	157,880	0,142	-0,144
-503,941	77,314	0,080	0,062
-502,926	-10,074	0,137	0,066
-501,912	800,000	-0,043	-0,096
-500,897	514,278	0,060	-0,103
-499,883	-104,482	-0,119	-0,020
-498,868	124,225	0,034	-0,031
-497,853	-200,000	-0,010	-0,062
-496,839	-94,817	0,133	-0,026
-495,824	76,522	0,053	-0,041
-494,810	-200,000	0,020	0,075
-493,795	-200,000	0,030	-0,118
-492,781	460,373	-0,060	-0,099
-491,766	179,597	-0,054	-0,057
-490,751	295,830	0,069	0,092
-489,737	-200,000	0,007	-0,063
-488,722	629,803	-0,016	0,030
-487,708	-137,883	0,135	-0,011
-486,693	-200,000	0,010	-0,100
-485,678	-200,000	0,028	-0,135
-484,664	-200,000	-0,013	-0,057
-483,649	-46,228	0,014	0,005
-482,635	-59,620	-0,081	0,025
-481,620	25,944	0,173	-0,105
-480,605	229,601	0,054	-0,064
-479,591	-200,000	0,019	0,061
-478,576	27,512	-0,037	-0,022
-477,562	-23,989	-0,094	0,041
-476,547	158,507	-0,068	-0,069
-475,532	-131,203	-0,074	-0,007
-474,518	-200,000	0,052	0,191
-473,503	-200,000	0,015	0,177
-472,489	-141,845	0,025	-0,002
-471,474	-57,274	-0,029	-0,009
-470,459	79,414	-0,093	0,073
-469,445	193,198	-0,044	-0,049
-468,430	200,155	-0,034	0,038
-467,416	-86,066	0,053	-0,012
-466,401	209,545	0,081	0,093
-465,386	-162,464	-0,051	-0,002
-464,372	-47,145	0,198	-0,070
-463,357	-200,000	-0,026	0,114
-462,343	535,099	0,049	-0,086
-461,328	-1,786	0,170	-0,087
-460,313	-76,728	-0,086	0,022
-459,299	-98,982	0,213	0,039
-458,284	-21,999	0,106	0,047
-457,270	399,772	-0,062	0,095
-456,255	-81,279	0,025	0,006
-455,241	230,811	0,035	-0,042
-454,226	800,000	0,015	-0,042
-453,211	13,675	0,039	-0,022
-452,197	-143,652	0,069	0,005
-451,182	-66,030	0,073	-0,021
-450,168	800,000	-0,010	-0,022
-449,153	362,993	-0,009	-0,014
-448,138	-54,539	0,064	-0,021
-447,124	136,133	0,065	-0,062
-446,109	-41,888	0,155	-0,058
-445,095	-84,831	0,067	0,015
-444,080	-200,000	-0,009	0,031
-443,065	20,439	-0,119	-0,070
-442,051	-167,265	-0,111	-0,003
-441,036	-76,951	-0,055	0,014
-440,022	-125,909	-0,100	-0,011
-439,007	-200,000	0,000	0,073
-437,992	-148,648	0,034	-0,002
-436,978	575,128	0,073	0,130
-435,963	-200,000	0,000	0,073
-434,949	-50,090	-0,209	-0,072
-433,934	-67,854	0,116	-0,033
-432,919	80,350	-0,096	0,075
-431,905	-83,990	0,157	-0,036
-430,890	800,000	0,029	-0,073
-429,876	287,551	-0,055	0,073
-428,861	800,000	0,053	-0,157
-427,846	-190,399	-0,075	0,001
-426,832	175,975	-0,060	0,064
-425,817	-200,000	-0,048	-0,168
-424,803	-96,399	-0,081	0,015
-423,788	687,114	0,030	-0,058
-422,773	58,598	-0,021	0,015
-421,759	-119,773	0,078	0,010
-420,744	-200,000	-0,022	-0,078
-419,730	42,402	-0,036	0,024
-418,715	800,000	-0,020	0,043
-417,701	369,102	0,063	0,093
-416,686	28,387	0,174	-0,107
-415,671	234,907	-0,022	-0,027
-414,657	192,769	0,034	0,038
-413,642	-200,000	0,037	0,162
-412,628	-200,000	-0,000	-0,029
-411,613	-182,021	-0,043	0,001
-410,598	800,000	-0,010	0,025
-409,584	731,176	-0,071	0,139
-408,569	-89,331	0,048	-0,010
-407,555	-200,000	-0,013	0,079
-406,540	-200,000	0,017	-0,069
-405,525	-183,129	-0,072	0,001
-404,511	-200,000	0,010	-0,049
-403,496	7,423	-0,085	-0,046
-402,482	-41,884	0,096	-0,036
-401,467	732,941	0,037	0,072
-400,452	-91,711	-0,041	0,008
-399,438	800,000	-0,024	-0,061
-398,423	756,151	0,042	0,083
-397,409	548,563	-0,076	-0,132
-396,394	-200,000	-0,151	0,000
-395,379	-120,248	0,066	0,008
-394,365	179,658	0,050	0,053
-393,350	-76,128	0,084	0,021
-392,336	52,113	-0,083	-0,057
-391,321	-177,856	-0,072	0,001
-390,306	800,000	-0,054	0,120
-389,292	184,576	-0,029	0,032
-388,277	-200,000	-0,009	-0,097
-387,263	-52,939	0,086	-0,029
-386,248	40,330	0,137	0,090
-385,233	-200,000	0,011	-0,037
-384,219	-42,118	-0,094	-0,035
-383,204	-5,009	-0,036	-0,018
-382,190	800,000	-0,046	-0,138
-381,175	328,594	-0,083	0,116
-380,160	-200,000	-0,023	-0,113
-379,146	618,992	0,036	-0,067
-378,131	-176,165	-0,013	0,000
-377,117	280,299	-0,106	0,138
-376,102	-125,345	-0,088	-0,010
-375,088	110,609	-0,131	0,114
-374,073	561,233	0,029	0,051
-373,058	264,494	-0,044	0,056
-372,044	132,145	0,102	0,096
-371,029	66,650	0,159	0,117
-370,015	-80,853	-0,128	0,031
-369,000	91,636	-0,043	-0,035
-367,985	-200,000	-0,008	0,037
-366,971	207,882	0,100	-0,114
-365,956	106,602	0,067	0,058
-364,942	122,455	-0,052	-0,047
-363,927	43,331	-0,028	-0,019
-362,912	-80,772	-0,029	0,007
-361,898	-154,181	0,088	0,004
-360,883	-200,000	0,026	-0,126
-359,869	-84,833	-0,097	0,022
-358,854	-95,211	0,021	-0,004
-357,839	78,854	0,138	0,107
-356,825	477,739	0,070	-0,116
-355,810	402,838	-0,070	-0,108
-354,796	-66,433	-0,168	-0,048
-353,781	117,230	-0,050	0,044
-352,766	-52,666	-0,041	-0,014
-351,752	800,000	0,072	-0,151
-350,737	12,393	-0,058	-0,032
-349,723	202,219	-0,047	0,053
-348,708	-200,000	0,063	0,253
-347,693	-200,000	-0,012	0,050
-346,679	-123,323	-0,203	0,023
-345,664	92,202	0,101	-0,083
-344,650	762,102	-0,034	0,068
-343,635	-6,392	0,107	-0,053
-342,620	198,508	0,024	-0,026
-341,606	-6,222	-0,037	0,018
-340,591	-132,187	-0,030	-0,003
-339,577	800,000	0,004	-0,009
-338,562	-200,000	0,006	0,044
-337,548	146,374	0,112	-0,109
-336,533	-84,849	0,025	0,006
-335,518	269,312	0,069	0,089
-334,504	-200,000	-0,006	0,054
-333,489	147,370	-0,094	0,092
-332,475	21,759	-0,079	-0,047
-331,460	35,250	-0,041	-0,026
-330,445	252,253	-0,017	-0,022
-329,431	-200,000	0,002	-0,123
-328,416	-84,412	0,106	0,024
-327,402	800,000	0,063	0,183
-326,387	-13,310	-0,121	0,057
-325,372	-5,685	-0,049	0,024
-324,358	291,547	0,067	0,088
-323,343	214,492	-0,063	-0,073
-322,329	24,909	-0,020	0,012
-321,314	-85,962	-0,117	-0,026
-320,299	-53,504	0,078	-0,026
-319,285	-9,649	0,198	-0,095
-318,270	177,541	-0,105	-0,112
-317,256	800,000	0,036	0,085
-316,241	61,843	0,038	0,027
-315,226	800,000	-0,052	0,128
-314,212	800,000	-0,012	0,028
-313,197	-200,000	0,002	0,120
-312,183	28,705	-0,114	0,070
-311,168	-200,000	0,066	0,231
-310,153	-200,000	0,009	-0,039
-309,139	-2,581	-0,034	-0,017
-308,124	-67,252	-0,055	0,016
-307,110	-37,628	0,035	-0,013
-306,095	294,320	0,068	-0,090
-305,080	800,000	0,012	-0,035
-304,066	-200,000	-0,071	-0,240
-303,051	800,000	-0,068	0,172
-302,037	-200,000	-0,018	0,099
-301,022	-112,640	0,049	0,007
-300,008	388,824	-0,048	0,072
-298,993	-132,323	-0,021	-0,002
-297,978	-200,000	-0,005	-0,024
-296,964	-91,121	0,138	-0,028
-295,949	-51,161	-0,098	-0,033
-294,935	191,140	0,016	0,018
-293,920	308,868	0,023	-0,032
-292,905	800,000	0,019	-0,052
-291,891	-116,914	0,129	-0,017
-290,876	-200,000	0,014	0,066
-289,862	-200,000	0,005	-0,021
-288,847	800,000	-0,021	-0,047
-287,832	147,691	-0,034	-0,033
-286,818	-98,524	0,055	-0,010
-285,803	33,618	-0,056	0,035
-284,789	236,912	-0,017	0,021
-283,774	25,204	0,154	0,092
-282,759	41,370	0,019	-0,012
-281,745	8,399	-0,176	-0,095
-280,730	800,000	-0,107	-0,237
-279,716	0,402	-0,037	0,019
-278,701	-200,000	-0,023	0,097
-277,686	320,559	-0,086	0,118
-276,672	-106,164	0,131	-0,021
-275,657	-200,000	0,001	0,035
-274,643	-76,934	0,106	-0,027
-273,628	-131,321	-0,081	0,008
-272,613	352,729	0,080	0,115
-271,599	328,241	-0,034	0,048
-270,584	800,000	-0,050	0,117
-269,570	-52,804	0,160	0,053
-268,555	-200,000	-0,012	0,084
-267,540	-153,369	-0,104	-0,005
-266,526	67,540	-0,027	0,020
-265,511	800,000	0,033	0,067
-264,497	-78,787	0,041	-0,010
-263,482	219,425	0,050	0,058
-262,467	-54,318	0,107	-0,035
-261,453	-79,184	0,015	-0,004
-260,438	214,736	-0,048	0,055
-259,424	-200,000	-0,002	0,070
-258,409	-200,000	-0,048	-0,166
-257,395	-65,418	0,092	0,026
-256,380	68,022	0,089	0,066
-255,365	-200,000	0,002	0,006
-254,351	-18,746	-0,094	0,042
-253,336	-200,000	-0,016	-0,054
-252,322	-65,737	0,074	0,021
-251,307	-25,702	-0,135	0,057
-250,292	304,242	0,054	0,073
-249,278	133,029	0,059	0,055
-248,263	273,848	0,015	0,020
-247,249	11,940	0,020	-0,011
-246,234	-200,000	-0,025	0,206
-245,219	354,143	0,067	0,097
-244,205	-85,502	0,085	0,019
-243,190	-200,000	0,037	-0,163
-242,176	191,724	0,089	-0,097
-241,161	135,312	0,030	0,029
-240,146	-200,000	0,007	-0,109
-239,132	-200,000	0,014	-0,075
-238,117	139,879	0,028	0,027
-237,103	377,868	-0,092	0,137
-236,088	198,749	0,096	0,107
-235,073	194,251	-0,052	0,057
-234,059	343,036	-0,049	0,069
-233,044	39,962	0,103	0,067
-232,030	-200,000	0,013	0,088
-231,015	800,000	0,027	0,080
-230,000	-8,610	0,023	-0,011
-228,986	-81,636	0,087	0,020
-227,971	56,135	0,042	0,030
-226,957	725,310	0,117	-0,226
-225,942	765,265	0,037	-0,072
-224,927	-200,000	0,022	-0,208
-223,913	-200,000	-0,034	-0,179
-222,898	2,259	0,091	-0,047
-221,884	126,576	-0,015	-0,014
-220,869	-200,000	-0,008	0,143
-219,855	-78,104	0,072	-0,018
-218,840	72,269	0,084	0,063
-217,825	800,000	0,011	0,023
-216,811	352,979	0,050	-0,072
-215,796	-200,000	-0,011	0,036
-214,782	-200,000	0,019	-0,145
-213,767	-200,000	0,031	0,116
-212,752	-34,038	-0,046	-0,018
-211,738	-200,000	0,019	-0,134
-210,723	800,000	-0,019	0,044
-209,709	800,000	-0,045	-0,094
-208,694	-200,000	0,004	-0,121
-207,679	-48,285	-0,035	-0,012
-206,665	-200,000	-0,001	0,044
-205,650	-41,418	0,080	-0,030
-204,636	800,000	-0,027	0,063
-203,621	218,420	-0,003	0,003
-202,606	-42,101	-0,138	0,051
-201,592	117,534	0,045	-0,040
-200,577	-200,000	0,006	-0,113
-199,563	161,939	-0,125	-0,127
-198,548	-200,000	0,016	0,114
-197,533	800,000	0,023	0,049
-196,519	-124,965	0,096	0,011
-195,504	352,348	0,022	-0,032
-194,490	97,664	-0,080	0,066
-193,475	-154,300	-0,168	0,008
-192,460	-200,000	-0,013	-0,060
-191,446	-47,751	0,053	0,018
-190,431	232,322	0,101	0,120
-189,417	-27,304	-0,132	-0,055
-188,402	-81,168	0,023	0,006
-187,387	800,000	-0,033	0,094
-186,373	316,983	0,052	-0,071
-185,358	-200,000	-0,008	-0,028
-184,344	-156,399	0,072	0,003
-183,329	-164,288	0,129	-0,004
-182,315	-200,000	0,002	-0,046
-181,300	-26,900	0,017	0,007
-180,285	-143,269	-0,077	0,005
-179,271	-200,000	-0,015	0,129
-178,256	-15,907	0,022	0,010
-177,242	662,484	0,036	0,068
-176,227	-200,000	-0,016	0,136
-175,212	47,487	0,110	-0,074
-174,198	-196,492	-0,151	-0,001
-173,183	241,998	-0,063	0,076
-172,169	-6,222	-0,054	0,026
-171,154	507,280	0,034	-0,057
-170,139	56,590	0,061	0,043
-169,125	-11,961	0,035	0,016
-168,110	374,352	0,053	0,078
-167,096	114,312	-0,076	-0,067
-166,081	706,738	-0,035	-0,067
-165,066	800,000	-0,028	0,087
-164,052	454,550	-0,090	0,145
-163,037	193,146	0,103	0,112
-162,023	-96,070	-0,023	-0,004
-161,008	-200,000	-0,004	0,087
-159,993	72,044	0,108	-0,081
-158,979	345,684	0,121	-0,172
-157,964	129,879	-0,055	-0,050
-156,950	56,753	-0,104	0,073
-155,935	28,553	0,048	-0,029
-154,920	68,712	0,091	-0,067
-153,906	-200,000	-0,011	-0,086
-152,891	23,031	-0,092	-0,055
-151,877	549,325	-0,074	-0,128
-150,862	29,695	0,097	0,059
-149,847	800,000	-0,077	-0,170
-148,833	16,268	0,065	-0,037
-147,818	166,919	-0,123	0,126
-146,804	-44,231	0,059	0,021
-145,789	-200,000	0,000	-0,035
-144,775	-200,000	-0,007	-0,069
-143,760	381,770	-0,059	0,087
-142,745	-200,000	-0,020	-0,133
-141,731	-175,552	0,098	0,002
-140,716	-142,616	0,052	-0,004
-139,702	-37,862	0,054	0,021
-138,687	245,156	-0,018	-0,022
-137,672	-200,000	0,054	0,186
-136,658	169,522	0,103	-0,106
-135,643	-92,821	-0,118	0,023
-134,629	800,000	0,040	0,113
-133,614	800,000	0,042	0,110
-132,599	-48,132	0,088	-0,031
-131,585	-151,684	0,065	-0,003
-130,570	49,736	0,083	0,057
-129,556	800,000	-0,080	-0,220
-128,541	91,384	0,036	-0,029
-127,526	-84,879	0,096	-0,022
-126,512	-140,088	-0,025	0,002
-125,497	8,163	0,092	0,050
-124,483	-134,383	0,034	0,003
-123,468	-33,598	0,132	-0,052
-122,453	-200,000	-0,009	-0,044
-121,439	748,740	0,012	-0,023
-120,424	212,499	-0,058	-0,066
-119,410	223,473	-0,028	-0,033
-118,395	-200,000	-0,002	0,015
