DTS Sentinel unit serial number:	SN410029Multiplexer serial number:	ORYXHardware model number:	OX2-SRSoftware version number:	ORYX F/W v4,00 Oryx Data Collector v3.7.2.0data status	okinstallation	B5 Nyhavnadifferential loss correction	single-endedforward channel	channel 2reverse channel	N/Adate	2023/12/13time	08:17:13forward acquisition time	300,00reverse acquisition time	0,00gamma	499,1914k internal	0,3160k external	0,3160temperature offset calibration	1,0000default loss term (dB/km)	0,3820temperature slope calibration	1,0000multiplexer offset coefficient	1,0000multiplexer slope coefficient	1,0000fibre end	0,00T internal ref (°C)	13,62T ext. ref 1 (°C)	-2,76T ext. ref 2 (°C)	-3,07length (m)	temperature (°C)	Stokes	anti-Stokes-744,400	-200,000	0,006	0,076
-743,385	-85,656	-0,214	0,048
-742,371	30,293	0,269	0,169
-741,356	-102,744	-0,292	-0,051
-740,342	-154,555	0,070	-0,003
-739,327	-92,287	-0,336	0,069
-738,312	-200,000	0,156	0,000
-737,298	-159,944	-0,355	-0,014
-736,283	-103,716	0,065	0,011
-735,269	-39,780	-0,241	0,092
-734,254	-190,160	0,171	0,001
-733,239	-51,298	-0,525	-0,180
-732,225	21,522	0,143	0,086
-731,210	719,983	-0,033	0,066
-730,196	100,648	0,039	-0,034
-729,181	-200,000	0,004	-0,061
-728,167	-200,000	-0,023	0,082
-727,152	-200,000	0,002	0,042
-726,137	-200,000	-0,005	-0,143
-725,123	203,727	-0,079	-0,091
-724,108	324,681	-0,019	0,026
-723,094	-47,832	-0,025	0,009
-722,079	487,348	-0,117	-0,197
-721,064	18,872	0,045	-0,027
-720,050	-200,000	0,044	0,164
-719,035	-200,000	-0,021	-0,088
-718,021	-200,000	-0,012	-0,047
-717,006	316,935	-0,089	-0,124
-715,991	-192,389	-0,168	-0,001
-714,977	531,434	-0,051	-0,089
-713,962	-63,310	-0,037	0,011
-712,948	196,570	0,063	-0,071
-711,933	-102,730	-0,147	0,025
-710,918	-161,549	-0,067	0,002
-709,904	80,538	0,079	-0,063
-708,889	-167,170	-0,078	0,002
-707,875	444,190	-0,002	-0,003
-706,860	-200,000	-0,008	0,047
-705,845	-200,000	0,013	0,116
-704,831	114,416	-0,069	0,061
-703,816	85,435	-0,128	-0,103
-702,802	800,000	0,031	-0,093
-701,787	-96,645	-0,158	-0,030
-700,772	800,000	0,028	-0,075
-699,758	-168,664	-0,116	-0,003
-698,743	-82,149	-0,086	-0,020
-697,729	113,346	0,068	-0,061
-696,714	-165,992	0,014	-0,000
-695,699	-200,000	-0,001	-0,059
-694,685	800,000	0,032	-0,101
-693,670	149,823	0,038	-0,037
-692,656	-200,000	-0,020	0,096
-691,641	-176,745	-0,074	0,001
-690,627	-66,129	0,108	0,032
-689,612	83,828	0,019	0,016
-688,597	-62,589	-0,061	-0,019
-687,583	-49,468	-0,130	-0,045
-686,568	800,000	0,003	0,006
-685,554	800,000	0,043	0,121
-684,539	-165,214	-0,081	-0,003
-683,524	-200,000	-0,007	-0,069
-682,510	283,726	-0,041	0,055
-681,495	121,833	-0,089	-0,081
-680,481	278,257	0,047	-0,062
-679,466	-200,000	-0,010	-0,098
-678,451	-200,000	-0,003	0,184
-677,437	614,473	0,015	0,028
-676,422	-8,882	-0,030	-0,015
-675,408	-4,068	-0,073	-0,037
-674,393	-200,000	-0,013	0,117
-673,378	132,839	-0,081	-0,076
-672,364	800,000	-0,027	-0,059
-671,349	419,729	0,011	0,017
-670,335	-200,000	0,002	-0,027
-669,320	800,000	0,028	-0,079
-668,305	311,089	-0,019	-0,026
-667,291	6,665	-0,116	0,063
-666,276	253,745	0,084	-0,105
-665,262	-200,000	-0,003	-0,139
-664,247	-200,000	-0,025	-0,105
-663,232	362,965	0,047	0,069
-662,218	-75,640	0,087	-0,023
-661,203	446,703	-0,093	0,150
-660,189	-200,000	0,006	-0,069
-659,174	37,957	-0,015	-0,010
-658,159	22,872	-0,157	-0,094
-657,145	-94,627	0,125	-0,025
-656,130	-60,051	0,080	0,025
-655,116	8,132	-0,100	-0,055
-654,101	-200,000	0,005	0,098
-653,086	215,139	-0,052	-0,061
-652,072	-200,000	-0,001	-0,072
-651,057	185,501	-0,049	-0,054
-650,043	800,000	0,029	-0,072
-649,028	67,518	-0,050	-0,037
-648,014	222,666	-0,060	0,071
-646,999	95,724	0,092	0,077
-645,984	41,134	-0,101	0,067
-644,970	105,119	-0,036	0,031
-643,955	-72,020	-0,119	-0,032
-642,941	-44,251	0,113	0,041
-641,926	-200,000	0,019	-0,187
-640,911	87,349	-0,047	-0,038
-639,897	30,665	0,116	-0,072
-638,882	-78,413	0,040	-0,010
-637,868	-200,000	-0,004	0,114
-636,853	-200,000	0,007	0,029
-635,838	133,643	-0,052	0,049
-634,824	-30,527	0,057	-0,023
-633,809	-200,000	-0,013	0,049
-632,795	52,618	0,033	-0,023
-631,780	-200,000	-0,007	-0,029
-630,765	-39,064	-0,049	0,019
-629,751	220,222	-0,030	-0,035
-628,736	-200,000	-0,026	-0,116
-627,722	17,332	-0,016	0,009
-626,707	-38,416	0,032	0,012
-625,692	38,960	0,057	-0,037
-624,678	346,329	-0,058	0,085
-623,663	800,000	0,011	0,033
-622,649	-200,000	-0,004	0,070
-621,634	-93,435	-0,093	-0,019
-620,619	-56,622	-0,115	-0,037
-619,605	-40,720	0,082	-0,031
-618,590	204,775	-0,027	0,031
-617,576	-200,000	0,023	0,125
-616,561	748,168	-0,104	-0,207
-615,546	-35,182	0,031	-0,012
-614,532	-68,554	-0,110	-0,031
-613,517	149,013	-0,071	-0,070
-612,503	212,986	0,147	0,170
-611,488	-97,300	0,066	0,013
-610,474	-125,836	-0,044	-0,005
-609,459	549,906	0,013	0,023
-608,444	800,000	-0,055	-0,148
-607,430	444,771	0,041	0,066
-606,415	800,000	-0,006	-0,016
-605,401	-82,459	-0,048	0,011
-604,386	576,840	-0,069	-0,124
-603,371	195,862	-0,076	-0,085
-602,357	-200,000	0,025	-0,146
-601,342	-0,928	-0,047	-0,024
-600,328	-90,670	-0,060	-0,013
-599,313	157,061	-0,101	-0,102
-598,298	24,397	0,061	0,037
-597,284	11,989	0,103	0,058
-596,269	541,623	0,031	0,054
-595,255	18,809	-0,079	0,046
-594,240	-200,000	0,017	0,084
-593,225	-200,000	-0,027	-0,147
-592,211	757,180	-0,041	-0,081
-591,196	-55,127	-0,044	0,014
-590,182	-129,011	0,124	-0,013
-589,167	363,181	0,044	-0,064
-588,152	414,164	0,086	-0,134
-587,138	186,096	-0,098	0,107
-586,123	-200,000	-0,030	-0,150
-585,109	800,000	-0,043	-0,122
-584,094	25,760	-0,060	0,036
-583,079	256,890	0,020	0,025
-582,065	800,000	0,030	0,081
-581,050	-200,000	0,005	0,028
-580,036	356,700	0,013	0,019
-579,021	-117,858	-0,070	0,009
-578,006	495,635	0,074	-0,125
-576,992	-2,587	-0,030	0,015
-575,977	318,745	-0,032	0,045
-574,963	555,012	0,025	0,044
-573,948	275,693	0,082	0,106
-572,934	-63,230	0,064	-0,019
-571,919	-34,529	0,126	-0,050
-570,904	130,093	0,034	-0,032
-569,890	-200,000	0,002	0,007
-568,875	66,919	0,075	0,056
-567,861	-135,832	0,142	-0,012
-566,846	-200,000	-0,003	0,035
-565,831	-200,000	-0,017	-0,138
-564,817	24,873	-0,097	0,058
-563,802	97,198	-0,157	-0,131
-562,788	-78,322	-0,041	-0,010
-561,773	-55,816	0,072	-0,023
-560,758	182,743	0,055	0,060
-559,744	800,000	0,041	0,088
-558,729	-200,000	-0,001	-0,117
-557,715	90,538	-0,027	0,022
-556,700	-200,000	0,018	-0,271
-555,685	800,000	0,033	-0,072
-554,671	237,474	0,106	-0,128
-553,656	-54,755	0,026	0,009
-552,642	-200,000	-0,008	0,090
-551,627	39,151	0,055	0,036
-550,612	-52,388	-0,156	-0,053
-549,598	-29,645	-0,226	-0,094
-548,583	-119,003	0,143	0,018
-547,569	56,467	0,095	-0,068
-546,554	-79,199	0,077	-0,019
-545,539	-49,129	-0,085	0,030
-544,525	118,097	-0,047	0,042
-543,510	-141,639	-0,130	0,009
-542,496	-122,084	0,115	-0,014
-541,481	422,136	-0,068	-0,107
-540,466	800,000	-0,012	-0,033
-539,452	692,535	-0,017	-0,033
-538,437	-24,744	0,102	0,044
-537,423	-200,000	0,001	0,031
-536,408	194,800	-0,012	-0,013
-535,393	80,086	-0,066	0,052
-534,379	-176,783	-0,077	-0,001
-533,364	-200,000	0,033	0,211
-532,350	-52,530	0,048	0,016
-531,335	74,155	0,064	-0,049
-530,321	-200,000	0,005	-0,030
-529,306	800,000	-0,019	0,056
-528,291	376,823	0,010	-0,016
-527,277	203,923	-0,131	-0,149
-526,262	222,314	-0,048	-0,057
-525,248	-117,573	0,147	0,019
-524,233	-79,332	-0,102	0,025
-523,218	800,000	-0,008	0,019
-522,204	328,942	-0,041	0,057
-521,189	87,950	-0,030	0,024
-520,175	-34,348	0,043	0,017
-519,160	30,746	0,023	0,015
-518,145	229,400	0,094	0,112
-517,131	-87,653	0,055	0,012
-516,116	-198,842	0,084	0,000
-515,102	-72,980	-0,104	-0,028
-514,087	173,431	0,056	-0,059
-513,072	800,000	0,030	-0,070
-512,058	-142,228	-0,155	0,011
-511,043	641,218	-0,036	0,067
-510,029	200,473	0,061	0,069
-509,014	474,557	0,052	-0,086
-507,999	-200,000	-0,003	-0,065
-506,985	222,284	-0,067	-0,079
-505,970	424,798	-0,095	-0,150
-504,956	-75,734	-0,072	-0,019
-503,941	239,672	0,064	-0,077
-502,926	-12,373	-0,093	0,044
-501,912	51,318	-0,117	0,081
-500,897	-200,000	-0,000	0,073
-499,883	19,280	-0,080	-0,047
-498,868	-178,932	-0,131	0,002
-497,853	261,672	-0,045	-0,057
-496,839	-47,826	-0,112	-0,039
-495,824	37,068	-0,121	0,078
-494,810	800,000	-0,046	-0,138
-493,795	518,553	0,023	0,039
-492,781	-118,471	0,083	-0,011
-491,766	-200,000	0,007	0,070
-490,751	111,678	-0,050	0,044
-489,737	-77,632	-0,066	-0,017
-488,722	-34,653	0,074	0,029
-487,708	-200,000	0,023	0,107
-486,693	357,661	0,096	0,140
-485,678	295,126	-0,089	-0,120
-484,664	165,567	-0,073	-0,075
-483,649	328,699	0,029	-0,041
-482,635	583,674	-0,042	0,076
-481,620	-94,172	0,092	0,018
-480,605	-200,000	-0,009	0,063
-479,591	91,191	0,113	0,093
-478,576	298,202	-0,089	0,119
-477,562	683,287	-0,045	-0,086
-476,547	-200,000	-0,024	0,139
-475,532	614,467	0,059	0,109
-474,518	112,325	0,037	0,033
-473,503	749,487	0,039	0,076
-472,489	800,000	-0,034	0,074
-471,474	75,328	-0,064	-0,049
-470,459	800,000	-0,035	0,086
-469,445	800,000	0,018	-0,045
-468,430	800,000	0,023	0,061
-467,416	-200,000	0,003	-0,040
-466,401	-128,448	-0,087	-0,009
-465,386	-200,000	-0,007	0,024
-464,372	-103,814	-0,092	0,016
-463,357	-200,000	0,004	-0,042
-462,343	-200,000	0,015	-0,163
-461,328	437,263	-0,033	0,052
-460,313	-63,468	-0,105	-0,031
-459,299	-150,062	0,050	-0,003
-458,284	231,043	-0,020	0,024
-457,270	246,972	-0,008	0,010
-456,255	378,832	0,010	0,015
-455,241	11,157	0,095	-0,053
-454,226	34,456	-0,050	-0,032
-453,211	-89,650	0,062	-0,013
-452,197	-200,000	-0,007	-0,082
-451,182	25,705	0,114	0,069
-450,168	445,833	0,038	-0,060
-449,153	-200,000	-0,061	-0,000
-448,138	-166,611	-0,129	0,004
-447,124	-42,632	-0,141	-0,052
-446,109	315,460	0,049	0,068
-445,095	800,000	0,059	0,138
-444,080	123,788	-0,054	0,050
-443,065	-200,000	0,013	0,062
-442,051	-63,338	-0,116	-0,034
-441,036	-125,686	-0,116	-0,013
-440,022	-84,626	0,043	-0,010
-439,007	296,818	-0,042	0,056
-437,992	-1,718	0,058	0,030
-436,978	-38,009	-0,099	-0,038
-435,963	800,000	0,030	0,079
-434,949	-200,000	0,004	-0,061
-433,934	800,000	0,026	-0,079
-432,919	800,000	0,062	0,139
-431,905	-8,098	0,106	0,052
-430,890	32,082	-0,029	0,018
-429,876	-200,000	0,013	-0,078
-428,861	106,281	0,143	-0,124
-427,846	-12,953	0,100	-0,047
-426,832	267,752	-0,065	-0,083
-425,817	-200,000	-0,031	-0,104
-424,803	-200,000	0,010	0,104
-423,788	-5,334	0,043	-0,021
-422,773	-200,000	-0,000	0,038
-421,759	92,975	0,094	0,077
-420,744	-14,047	-0,119	0,056
-419,730	181,142	0,071	-0,076
-418,715	22,365	-0,093	-0,055
-417,701	-152,888	0,129	0,007
-416,686	4,899	0,071	-0,038
-415,671	-200,000	0,023	0,128
-414,657	153,481	0,029	-0,029
-413,642	74,492	-0,047	0,036
-412,628	166,379	-0,051	0,053
-411,613	800,000	0,028	-0,067
-410,598	31,791	-0,075	0,047
-409,584	-200,000	-0,022	0,080
-408,569	800,000	-0,024	-0,069
-407,555	-200,000	-0,013	-0,055
-406,540	-200,000	-0,022	0,098
-405,525	-200,000	0,028	0,118
-404,511	196,014	-0,096	-0,106
-403,496	-23,780	-0,066	0,029
-402,482	-19,547	-0,046	-0,021
-401,467	31,384	0,131	0,082
-400,452	10,447	0,100	-0,055
-399,438	-186,610	0,103	0,001
-398,423	-200,000	0,004	-0,126
-397,409	-20,409	-0,072	-0,032
-396,394	800,000	-0,032	-0,066
-395,379	535,077	0,065	-0,113
-394,365	-69,909	-0,047	0,013
-393,350	50,056	0,099	0,068
-392,336	39,336	0,026	0,017
-391,321	-200,000	0,019	-0,155
-390,306	345,464	0,057	0,082
-389,292	19,910	-0,114	-0,067
-388,277	-114,000	0,132	-0,018
-387,263	0,704	-0,048	0,025
-386,248	-78,968	0,149	0,037
-385,233	-5,023	0,185	0,092
-384,219	-200,000	-0,016	0,118
-383,204	21,541	-0,177	-0,105
-382,190	-48,202	-0,091	-0,032
-381,175	90,736	0,035	0,028
-380,160	688,524	-0,042	0,079
-379,146	305,184	0,046	-0,063
-378,131	179,165	-0,061	0,065
-377,117	-107,902	-0,037	-0,006
-376,102	269,566	-0,094	0,121
-375,088	-200,000	0,021	0,101
-374,073	-200,000	-0,022	0,078
-373,058	800,000	0,015	0,039
-372,044	226,052	-0,006	0,007
-371,029	-200,000	0,018	0,126
-370,015	340,601	0,064	0,090
-369,000	-174,959	-0,051	-0,001
-367,985	-200,000	0,000	-0,020
-366,971	142,115	0,029	-0,028
-365,956	128,010	-0,048	0,044
-364,942	-200,000	-0,000	0,110
-363,927	160,558	-0,038	-0,038
-362,912	134,434	0,088	0,083
-361,898	102,341	0,055	-0,047
-360,883	249,235	0,080	-0,099
-359,869	-39,446	-0,096	-0,036
-358,854	66,282	-0,072	-0,053
-357,839	190,988	0,099	0,108
-356,825	-9,279	-0,022	-0,011
-355,810	-18,766	-0,062	-0,028
-354,796	133,132	-0,037	-0,035
-353,781	-200,000	-0,004	0,020
-352,766	-141,494	0,116	0,008
-351,752	-200,000	0,031	-0,158
-350,737	-22,135	0,019	-0,008
-349,723	-200,000	0,041	0,159
-348,708	800,000	-0,033	-0,074
-347,693	184,408	-0,091	-0,098
-346,679	317,075	-0,009	0,012
-345,664	-26,565	-0,082	-0,035
-344,650	561,965	0,049	0,086
-343,635	9,908	0,055	0,030
-342,620	3,071	-0,112	-0,059
-341,606	86,187	-0,096	-0,077
-340,591	-200,000	0,003	-0,076
-339,577	-6,086	0,115	-0,057
-338,562	575,211	-0,045	0,080
-337,548	418,930	0,015	0,023
-336,533	97,260	0,038	-0,032
-335,518	-121,707	0,098	-0,012
-334,504	-39,069	-0,104	0,039
-333,489	-147,047	0,104	-0,006
-332,475	800,000	0,047	-0,121
-331,460	432,188	0,042	-0,066
-330,445	439,523	0,053	-0,084
-329,431	122,350	0,025	-0,023
-328,416	-200,000	-0,041	0,136
-327,402	-16,844	0,078	0,036
-326,387	586,588	0,007	0,012
-325,372	-200,000	-0,008	-0,066
-324,358	-200,000	-0,009	-0,103
-323,343	-79,031	0,078	0,019
-322,329	-67,124	0,097	0,027
-321,314	515,134	-0,032	0,054
-320,299	-200,000	-0,019	0,085
-319,285	88,443	0,075	0,060
-318,270	-11,208	-0,093	0,044
-317,256	-20,928	0,172	-0,076
-316,241	-39,153	-0,022	-0,008
-315,226	-111,408	0,106	0,016
-314,212	66,208	0,045	0,033
-313,197	-200,000	-0,000	0,023
-312,183	20,675	0,105	-0,061
-311,168	302,507	-0,073	-0,098
-310,153	147,323	-0,068	-0,066
-309,139	99,604	0,052	0,044
-308,124	733,828	0,075	0,146
-307,110	252,108	0,080	0,098
-306,095	-106,765	-0,080	-0,013
-305,080	45,080	0,048	0,032
-304,066	-200,000	-0,012	-0,123
-303,051	-142,483	-0,039	0,003
-302,037	-200,000	-0,017	0,124
-301,022	-73,104	-0,053	-0,014
-300,008	800,000	0,029	-0,062
-298,993	69,956	0,048	-0,036
-297,978	99,491	-0,061	0,051
-296,964	800,000	0,057	0,127
-295,949	25,533	-0,067	-0,041
-294,935	800,000	0,048	-0,101
-293,920	-121,769	0,025	0,003
-292,905	471,422	0,099	0,161
-291,891	-200,000	0,015	-0,107
-290,876	-200,000	-0,003	0,052
-289,862	-200,000	-0,018	0,145
-288,847	-89,238	-0,181	0,038
-287,832	-17,494	-0,020	0,009
-286,818	59,120	-0,067	-0,048
-285,803	-55,055	0,092	-0,030
-284,789	239,813	0,051	-0,062
-283,774	-140,081	-0,071	-0,005
-282,759	-98,085	-0,105	0,019
-281,745	172,802	-0,022	-0,023
-280,730	245,105	0,066	-0,080
-279,716	800,000	-0,015	-0,042
-278,701	-200,000	0,021	0,071
-277,686	387,157	0,026	-0,039
-276,672	-200,000	0,011	-0,067
-275,657	-63,948	0,045	-0,013
-274,643	510,453	0,078	-0,131
-273,628	-128,650	-0,070	0,007
-272,613	154,049	-0,121	-0,120
-271,599	-200,000	0,002	0,130
-270,584	-117,120	-0,112	-0,015
-269,570	-200,000	0,055	0,194
-268,555	157,111	0,022	0,022
-267,540	-200,000	-0,022	-0,118
-266,526	183,022	0,072	-0,077
-265,511	-200,000	0,039	-0,148
-264,497	175,651	-0,032	0,034
-263,482	786,596	0,081	0,162
-262,467	-200,000	-0,024	0,089
-261,453	-200,000	-0,001	0,163
-260,438	-85,672	-0,102	0,023
-259,424	-49,672	-0,167	0,057
-258,409	-200,000	-0,013	-0,059
-257,395	-77,890	0,040	-0,010
-256,380	-45,666	0,163	0,058
-255,365	-200,000	0,002	0,017
-254,351	800,000	-0,019	0,052
-253,336	-42,628	-0,014	0,005
-252,322	-89,544	0,105	-0,022
-251,307	-200,000	-0,023	0,073
-250,292	98,123	-0,119	0,099
-249,278	144,327	-0,097	0,093
-248,263	-200,000	0,002	0,065
-247,249	165,263	-0,103	-0,105
-246,234	506,690	-0,013	0,021
-245,219	800,000	-0,015	0,031
-244,205	-112,920	-0,240	0,034
-243,190	-181,714	0,116	0,002
-242,176	-125,125	0,148	0,016
-241,161	-172,980	0,062	0,001
-240,146	-91,049	-0,052	-0,011
-239,132	-127,850	-0,095	0,010
-238,117	800,000	0,030	-0,072
-237,103	-200,000	0,004	0,050
-236,088	-71,767	0,090	-0,024
-235,073	173,059	0,096	-0,100
-234,059	578,747	0,002	0,004
-233,044	-28,464	0,131	-0,054
-232,030	-182,688	0,135	-0,002
-231,015	-83,846	0,174	-0,040
-230,000	549,516	0,014	-0,024
-228,986	800,000	0,021	0,052
-227,971	-132,433	0,041	-0,004
-226,957	10,263	-0,082	0,045
-225,942	-200,000	-0,004	0,140
-224,927	-17,774	0,065	-0,029
-223,913	-168,653	-0,084	-0,002
-222,898	-137,221	-0,091	-0,007
-221,884	-54,741	-0,021	-0,007
-220,869	-200,000	0,003	0,032
-219,855	-168,888	0,090	0,002
-218,840	-67,750	-0,057	0,016
-217,825	-59,509	-0,094	0,029
-216,811	171,983	0,071	-0,074
-215,796	-149,346	-0,090	0,005
-214,782	800,000	-0,009	-0,025
-213,767	-200,000	0,005	0,023
-212,752	800,000	-0,045	0,140
-211,738	559,229	-0,024	0,042
-210,723	789,200	0,013	0,026
-209,709	-92,828	0,019	-0,004
-208,694	169,591	0,103	0,106
-207,679	322,349	-0,093	-0,128
-206,665	-152,331	0,138	-0,007
-205,650	-55,606	0,096	0,031
-204,636	425,208	0,016	0,025
-203,621	800,000	-0,043	0,097
-202,606	-200,000	0,026	-0,110
-201,592	-162,549	0,133	-0,005
-200,577	-200,000	0,019	-0,117
-199,563	800,000	-0,053	-0,135
-198,548	474,842	-0,044	0,071
-197,533	-200,000	0,012	0,073
-196,519	-139,660	-0,101	-0,008
-195,504	-8,371	0,090	-0,044
-194,490	-200,000	-0,021	0,098
-193,475	38,446	-0,055	-0,035
-192,460	-200,000	0,013	-0,115
-191,446	255,600	0,105	-0,130
-190,431	-58,298	0,098	0,031
-189,417	54,032	0,041	-0,028
-188,402	519,878	-0,038	0,064
-187,387	-200,000	-0,012	0,146
-186,373	-70,936	-0,070	-0,019
-185,358	337,370	-0,051	0,072
-184,344	-95,461	0,149	-0,029
-183,329	-200,000	-0,010	0,128
-182,315	800,000	0,042	0,109
-181,300	-113,782	0,156	-0,022
-180,285	200,638	-0,045	0,050
-179,271	-85,510	-0,131	0,029
-178,256	347,439	-0,088	0,126
-177,242	-53,120	-0,217	-0,071
-176,227	383,794	0,078	-0,116
-175,212	-200,000	0,005	0,097
-174,198	-200,000	-0,003	-0,024
-173,183	800,000	0,036	-0,086
-172,169	202,016	0,031	-0,034
-171,154	52,513	0,170	-0,117
-170,139	800,000	0,019	-0,044
-169,125	87,171	0,123	0,098
-168,110	38,924	-0,060	0,039
-167,096	-98,311	-0,154	0,028
-166,081	559,081	-0,068	0,119
-165,066	-118,664	-0,045	0,006
-164,052	594,321	-0,012	-0,021
-163,037	-6,019	0,093	-0,046
-162,023	578,285	-0,082	-0,146
-161,008	800,000	-0,045	-0,106
-159,993	97,703	0,112	-0,093
-158,979	82,772	0,021	-0,017
-157,964	2,693	-0,111	-0,058
-156,950	800,000	0,027	-0,079
-155,935	188,239	0,016	0,017
-154,920	7,831	-0,024	0,013
-153,906	-113,654	0,133	0,019
-152,891	-200,000	0,001	-0,042
-151,877	-65,008	0,076	0,022
-150,862	-68,296	-0,108	-0,030
-149,847	-200,000	-0,000	0,045
-148,833	-200,000	0,003	-0,138
-147,818	-146,375	0,192	-0,012
-146,804	-200,000	-0,001	0,111
-145,789	-125,927	-0,127	-0,014
-144,775	-200,000	-0,008	0,028
-143,760	180,819	-0,061	-0,064
-142,745	-200,000	0,017	-0,075
-141,731	120,692	-0,024	-0,021
-140,716	110,535	0,147	0,127
-139,702	-44,803	-0,108	0,039
-138,687	-76,334	0,041	0,010
-137,672	-180,994	-0,164	-0,002
-136,658	800,000	0,014	-0,038
-135,643	-50,134	-0,107	0,036
-134,629	-200,000	0,011	-0,040
-133,614	431,938	0,036	-0,056
-132,599	-122,566	0,114	-0,013
-131,585	191,932	0,101	0,110
-130,570	-53,683	-0,050	-0,016
-129,556	-92,457	0,128	-0,026
-128,541	800,000	-0,072	-0,204
-127,526	148,893	-0,117	-0,114
-126,512	-200,000	-0,005	0,069
-125,497	4,404	0,149	0,078
-124,483	4,921	0,026	0,014
-123,468	106,402	-0,023	0,019
-122,453	142,801	-0,059	0,057
-121,439	463,013	-0,059	0,094
-120,424	45,861	-0,108	0,071
-119,410	-156,243	-0,089	-0,004
