DTS Sentinel unit serial number:	SN410029Multiplexer serial number:	ORYXHardware model number:	OX2-SRSoftware version number:	ORYX F/W v4,00 Oryx Data Collector v3.7.2.0data status	okinstallation	B5 Nyhavnadifferential loss correction	single-endedforward channel	channel 2reverse channel	N/Adate	2023/12/11time	23:57:13forward acquisition time	300,00reverse acquisition time	0,00gamma	499,1914k internal	0,3156k external	0,3156temperature offset calibration	1,0000default loss term (dB/km)	0,3820temperature slope calibration	1,0000multiplexer offset coefficient	1,0000multiplexer slope coefficient	1,0000fibre end	0,00T internal ref (°C)	16,19T ext. ref 1 (°C)	-0,17T ext. ref 2 (°C)	-0,44length (m)	temperature (°C)	Stokes	anti-Stokes-744,400	800,000	-0,016	0,038
-743,385	-182,915	-0,131	0,002
-742,371	66,563	0,082	0,062
-741,356	-111,190	-0,250	0,037
-740,342	-25,218	0,052	0,023
-739,327	-90,902	-0,278	-0,059
-738,312	-200,000	-0,003	-0,015
-737,298	-43,360	-0,345	0,128
-736,283	-200,000	-0,012	0,053
-735,269	-68,626	-0,293	0,083
-734,254	-33,564	-0,119	-0,048
-733,239	-30,156	-0,505	-0,211
-732,225	-84,831	0,250	-0,057
-731,210	-100,002	0,055	-0,010
-730,196	-200,000	-0,004	0,029
-729,181	800,000	-0,026	0,069
-728,167	686,394	0,059	0,115
-727,152	60,400	-0,051	-0,037
-726,137	602,115	0,047	-0,086
-725,123	315,079	0,074	-0,104
-724,108	48,569	-0,095	-0,066
-723,094	227,151	-0,056	-0,067
-722,079	75,451	0,053	0,041
-721,064	-200,000	0,013	-0,104
-720,050	3,800	-0,074	-0,040
-719,035	-200,000	-0,011	-0,111
-718,021	-147,087	0,078	0,005
-717,006	132,401	-0,087	-0,083
-715,991	-1,126	-0,098	-0,051
-714,977	-109,183	0,104	-0,016
-713,962	800,000	-0,072	0,157
-712,948	-141,699	0,129	-0,009
-711,933	-65,193	-0,134	-0,040
-710,918	223,794	0,060	-0,072
-709,904	-200,000	0,013	-0,076
-708,889	165,761	-0,132	-0,138
-707,875	-122,908	-0,123	-0,014
-706,860	-13,276	0,156	-0,074
-705,845	594,588	0,035	-0,063
-704,831	800,000	0,019	-0,053
-703,816	184,355	-0,036	0,039
-702,802	-29,086	-0,047	-0,020
-701,787	-167,886	-0,096	-0,003
-700,772	-200,000	-0,039	-0,150
-699,758	27,461	0,061	-0,037
-698,743	-25,235	0,043	-0,018
-697,729	800,000	-0,026	0,053
-696,714	-2,666	0,052	-0,027
-695,699	100,187	0,059	-0,050
-694,685	18,265	-0,116	-0,068
-693,670	-48,147	-0,143	-0,050
-692,656	72,949	0,020	-0,015
-691,641	-44,384	-0,021	0,008
-690,627	275,105	0,081	-0,106
-689,612	-200,000	0,002	0,065
-688,597	68,706	0,087	0,065
-687,583	800,000	0,046	-0,137
-686,568	-121,242	-0,160	-0,019
-685,554	17,822	0,069	-0,041
-684,539	-14,950	0,055	0,026
-683,524	-68,096	-0,093	-0,026
-682,510	447,308	0,052	0,085
-681,495	-200,000	-0,037	0,161
-680,481	14,992	-0,156	-0,089
-679,466	598,533	-0,105	-0,192
-678,451	800,000	-0,032	-0,068
-677,437	201,732	0,117	-0,133
-676,422	800,000	-0,059	-0,123
-675,408	102,212	0,052	-0,045
-674,393	-200,000	-0,018	-0,151
-673,378	-156,594	-0,046	-0,002
-672,364	-49,720	-0,168	0,058
-671,349	423,664	-0,081	-0,129
-670,335	619,672	-0,042	0,079
-669,320	-168,676	-0,090	0,002
-668,305	294,925	-0,020	0,026
-667,291	12,021	0,082	-0,046
-666,276	-4,488	0,058	-0,029
-665,262	-91,846	-0,099	-0,020
-664,247	-200,000	-0,003	-0,078
-663,232	35,716	-0,085	0,055
-662,218	-87,466	0,045	-0,010
-661,203	268,249	-0,081	-0,104
-660,189	-200,000	0,011	-0,078
-659,174	-96,400	-0,054	-0,010
-658,159	-89,720	0,043	0,009
-657,145	524,988	-0,070	0,122
-656,130	620,299	-0,016	0,030
-655,116	111,772	0,099	0,088
-654,101	-200,000	0,024	0,155
-653,086	-200,000	0,004	0,072
-652,072	-93,709	0,042	0,008
-651,057	-95,216	-0,020	-0,004
-650,043	-200,000	0,012	-0,057
-649,028	-200,000	-0,000	-0,066
-648,014	131,865	0,065	-0,061
-646,999	300,676	-0,041	0,055
-645,984	450,859	-0,028	0,046
-644,970	800,000	-0,036	0,073
-643,955	305,489	-0,019	-0,026
-642,941	14,233	-0,119	0,068
-641,926	-97,778	0,058	-0,011
-640,911	346,787	0,019	0,028
-639,897	404,081	0,058	-0,089
-638,882	800,000	-0,031	-0,095
-637,868	-200,000	0,021	-0,114
-636,853	585,853	0,037	-0,068
-635,838	-68,684	0,036	-0,010
-634,824	-45,824	-0,121	-0,044
-633,809	800,000	-0,030	0,083
-632,795	800,000	0,023	0,060
-631,780	800,000	-0,030	0,071
-630,765	381,351	0,025	-0,038
-629,751	758,800	-0,068	-0,135
-628,736	-200,000	-0,002	0,012
-627,722	-200,000	-0,036	-0,156
-626,707	800,000	0,049	-0,107
-625,692	-141,112	0,080	0,006
-624,678	657,794	0,043	-0,082
-623,663	220,365	0,047	-0,056
-622,649	528,755	-0,088	-0,153
-621,634	800,000	-0,035	0,084
-620,619	800,000	0,048	-0,148
-619,605	6,807	0,064	-0,035
-618,590	233,055	-0,038	0,046
-617,576	5,660	-0,054	0,029
-616,561	-200,000	-0,014	0,111
-615,546	-9,361	0,047	-0,023
-614,532	-79,563	-0,072	0,018
-613,517	-116,478	-0,055	0,007
-612,503	7,001	-0,034	0,018
-611,488	-52,787	0,123	-0,041
-610,474	-200,000	-0,003	-0,043
-609,459	265,292	-0,125	-0,160
-608,444	-6,734	-0,151	-0,075
-607,430	51,734	-0,087	-0,060
-606,415	-200,000	0,007	-0,156
-605,401	291,842	-0,028	0,037
-604,386	-200,000	0,003	-0,050
-603,371	93,648	-0,060	0,050
-602,357	290,342	0,033	-0,044
-601,342	-200,000	-0,007	0,037
-600,328	9,803	-0,065	0,036
-599,313	-200,000	0,004	-0,091
-598,298	447,480	-0,054	-0,087
-597,284	-200,000	0,003	0,108
-596,269	153,067	0,037	-0,037
-595,255	-200,000	0,052	0,192
-594,240	141,405	-0,008	-0,007
-593,225	-200,000	0,014	-0,108
-592,211	-79,944	0,041	0,010
-591,196	14,815	-0,031	0,018
-590,182	702,539	-0,080	0,155
-589,167	-195,954	0,101	0,001
-588,152	-200,000	0,009	-0,100
-587,138	-7,369	0,108	0,053
-586,123	1,466	-0,112	-0,059
-585,109	47,544	-0,107	-0,073
-584,094	800,000	-0,059	-0,138
-583,079	800,000	-0,009	0,019
-582,065	358,656	-0,072	-0,105
-581,050	74,244	-0,045	-0,035
-580,036	-142,496	0,070	-0,005
-579,021	757,844	0,035	-0,071
-578,006	118,110	-0,038	0,035
-576,992	-1,082	0,129	0,067
-575,977	-200,000	0,022	-0,211
-574,963	477,559	0,059	-0,099
-573,948	-200,000	0,009	0,097
-572,934	-200,000	-0,007	0,096
-571,919	-21,727	-0,197	-0,087
-570,904	-200,000	0,001	0,065
-569,890	-29,798	-0,014	-0,006
-568,875	-84,351	-0,033	-0,007
-567,861	-152,792	-0,024	-0,001
-566,846	-200,000	-0,013	0,051
-565,831	-200,000	0,013	-0,085
-564,817	800,000	-0,088	-0,200
-563,802	-39,015	-0,065	0,025
-562,788	-200,000	-0,004	-0,037
-561,773	800,000	0,035	-0,101
-560,758	800,000	0,030	-0,088
-559,744	-26,682	0,186	0,080
-558,729	-109,609	0,072	0,011
-557,715	-22,279	0,050	0,022
-556,700	15,421	0,076	0,044
-555,685	-200,000	-0,014	0,096
-554,671	800,000	0,046	-0,120
-553,656	83,505	0,040	-0,032
-552,642	744,659	-0,043	0,086
-551,627	-144,459	0,023	-0,002
-550,612	-30,906	-0,056	0,023
-549,598	70,822	-0,143	-0,109
-548,583	-200,000	0,003	-0,045
-547,569	404,521	0,049	-0,075
-546,554	368,107	-0,036	-0,053
-545,539	417,524	0,050	0,078
-544,525	-200,000	-0,019	0,087
-543,510	-103,310	0,059	0,010
-542,496	6,779	0,062	-0,034
-541,481	-54,223	-0,098	-0,032
-540,466	-200,000	-0,013	0,073
-539,452	-200,000	0,003	0,021
-538,437	98,945	0,063	0,053
-537,423	-42,410	-0,049	-0,018
-536,408	580,632	-0,028	-0,051
-535,393	52,124	-0,023	-0,016
-534,379	-200,000	0,010	-0,043
-533,364	800,000	-0,046	-0,106
-532,350	-200,000	0,003	0,051
-531,335	348,493	0,054	0,078
-530,321	-143,126	0,192	-0,013
-529,306	-99,986	-0,076	-0,014
-528,291	302,998	-0,012	-0,016
-527,277	219,987	-0,042	-0,050
-526,262	25,711	-0,073	-0,044
-525,248	201,743	0,061	0,069
-524,233	-147,389	-0,069	0,004
-523,218	168,607	-0,035	-0,036
-522,204	273,117	0,080	0,103
-521,189	438,613	0,043	0,069
-520,175	418,744	0,048	-0,076
-519,160	212,631	0,035	0,040
-518,145	-5,925	-0,108	-0,054
-517,131	-200,000	-0,011	-0,048
-516,116	221,513	-0,055	0,065
-515,102	-200,000	-0,025	0,087
-514,087	-3,698	-0,105	-0,053
-513,072	800,000	-0,060	0,172
-512,058	76,629	-0,090	-0,069
-511,043	-74,962	-0,082	-0,021
-510,029	-99,392	-0,068	-0,012
-509,014	-94,441	-0,053	0,011
-507,999	-195,369	-0,055	0,000
-506,985	-200,000	-0,002	0,010
-505,970	-33,104	-0,120	0,048
-504,956	30,172	-0,072	-0,045
-503,941	-3,293	0,042	0,021
-502,926	197,924	-0,124	-0,139
-501,912	256,931	0,043	-0,055
-500,897	-111,972	0,150	-0,022
-499,883	-200,000	0,002	0,016
-498,868	198,297	-0,040	-0,045
-497,853	44,838	0,061	0,041
-496,839	251,579	0,063	-0,079
-495,824	-200,000	0,008	-0,055
-494,810	-200,000	0,000	0,076
-493,795	9,931	-0,076	0,042
-492,781	-81,028	-0,066	-0,016
-491,766	-200,000	-0,006	-0,114
-490,751	-62,592	-0,137	-0,041
-489,737	417,702	0,068	0,106
-488,722	-200,000	-0,010	0,045
-487,708	-59,217	0,071	0,022
-486,693	-200,000	-0,008	0,182
-485,678	-7,455	-0,081	0,040
-484,664	800,000	-0,070	0,167
-483,649	-200,000	0,004	-0,050
-482,635	129,523	0,069	-0,064
-481,620	800,000	0,006	-0,016
-480,605	-112,127	0,033	0,005
-479,591	-15,678	0,222	-0,103
-478,576	136,200	0,095	0,090
-477,562	-200,000	-0,021	-0,128
-476,547	591,279	-0,085	-0,154
-475,532	84,214	-0,042	0,034
-474,518	-133,631	0,069	-0,006
-473,503	-200,000	-0,008	-0,071
-472,489	-12,189	0,113	-0,054
-471,474	242,507	0,047	-0,057
-470,459	-106,303	0,189	0,031
-469,445	144,230	-0,079	0,077
-468,430	-200,000	-0,019	-0,065
-467,416	-200,000	-0,019	-0,086
-466,401	-16,176	0,109	0,050
-465,386	-200,000	0,023	0,147
-464,372	-200,000	-0,019	-0,098
-463,357	-200,000	0,013	-0,141
-462,343	-186,283	-0,117	-0,001
-461,328	-132,899	-0,164	-0,015
-460,313	800,000	0,027	0,070
-459,299	66,784	-0,113	0,084
-458,284	102,129	-0,090	0,077
-457,270	-90,265	0,057	-0,012
-456,255	-54,775	-0,060	0,020
-455,241	561,157	0,064	-0,114
-454,226	-200,000	-0,010	-0,062
-453,211	-200,000	-0,002	-0,123
-452,197	-147,899	0,092	-0,006
-451,182	-87,087	-0,073	0,016
-450,168	-70,653	-0,139	0,038
-449,153	-41,352	0,067	0,025
-448,138	471,156	-0,060	-0,099
-447,124	80,245	-0,065	0,051
-446,109	113,478	0,073	-0,065
-445,095	-59,880	0,136	0,042
-444,080	407,823	-0,041	-0,064
-443,065	319,122	-0,071	0,098
-442,051	191,076	-0,057	0,062
-441,036	-200,000	-0,017	0,108
-440,022	495,836	-0,044	-0,074
-439,007	-200,000	0,006	0,090
-437,992	355,292	-0,047	-0,068
-436,978	606,478	0,057	0,104
-435,963	216,232	-0,155	0,180
-434,949	-200,000	-0,018	-0,105
-433,934	213,534	-0,137	-0,158
-432,919	-28,537	-0,045	0,019
-431,905	475,172	-0,032	0,052
-430,890	-200,000	0,031	0,139
-429,876	106,508	0,075	0,064
-428,861	-200,000	-0,012	0,078
-427,846	-200,000	-0,018	0,084
-426,832	224,436	0,063	-0,074
-425,817	-200,000	0,001	0,013
-424,803	249,535	-0,053	-0,066
-423,788	-59,661	-0,092	-0,029
-422,773	-200,000	-0,001	-0,022
-421,759	31,650	0,105	0,065
-420,744	-41,561	-0,027	-0,010
-419,730	-200,000	-0,004	0,105
-418,715	89,571	-0,115	-0,093
-417,701	94,195	0,095	0,079
-416,686	6,943	0,050	0,027
-415,671	216,294	0,064	0,074
-414,657	800,000	0,007	0,016
-413,642	373,478	0,062	-0,092
-412,628	-117,187	0,124	-0,016
-411,613	-200,000	0,029	-0,102
-410,598	121,867	-0,052	0,047
-409,584	-78,019	0,064	0,016
-408,569	-200,000	-0,005	-0,032
-407,555	91,964	0,024	-0,020
-406,540	67,775	-0,033	-0,024
-405,525	329,652	-0,044	0,062
-404,511	-143,360	-0,148	-0,010
-403,496	237,876	0,108	-0,131
-402,482	-92,584	0,068	0,014
-401,467	-32,036	-0,047	0,019
-400,452	-31,353	-0,071	-0,029
-399,438	-200,000	0,023	0,081
-398,423	800,000	0,017	-0,045
-397,409	607,138	0,017	-0,030
-396,394	-120,279	-0,152	-0,019
-395,379	142,863	0,077	0,075
-394,365	-57,690	-0,107	-0,034
-393,350	471,804	0,023	0,038
-392,336	-5,599	0,083	0,041
-391,321	-200,000	0,007	-0,043
-390,306	-61,914	-0,154	-0,047
-389,292	-54,230	0,137	-0,045
-388,277	-200,000	-0,008	0,053
-387,263	489,799	-0,006	-0,009
-386,248	-23,350	0,117	0,051
-385,233	-68,425	-0,036	-0,010
-384,219	-87,595	-0,081	0,018
-383,204	-171,476	0,151	-0,004
-382,190	-200,000	0,012	0,103
-381,175	106,773	0,008	-0,007
-380,160	-13,600	0,129	0,060
-379,146	-110,000	0,189	0,028
-378,131	478,931	0,046	0,076
-377,117	327,953	0,081	-0,114
-376,102	73,475	-0,033	-0,025
-375,088	7,753	0,095	0,052
-374,073	-157,676	-0,178	-0,008
-373,058	491,234	0,029	-0,049
-372,044	-156,953	0,213	-0,009
-371,029	98,692	-0,115	0,097
-370,015	30,894	0,049	-0,030
-369,000	151,382	-0,068	-0,068
-367,985	401,457	-0,035	-0,053
-366,971	-200,000	0,029	-0,167
-365,956	-200,000	0,001	0,094
-364,942	216,323	0,036	0,042
-363,927	800,000	-0,040	0,124
-362,912	-0,836	-0,115	-0,059
-361,898	-200,000	-0,015	0,108
-360,883	800,000	-0,013	-0,032
-359,869	-200,000	0,001	-0,105
-358,854	-200,000	0,049	-0,208
-357,839	-84,078	0,183	0,042
-356,825	800,000	-0,099	0,203
-355,810	409,632	0,052	-0,080
-354,796	-74,157	-0,069	0,018
-353,781	78,262	0,065	0,050
-352,766	-15,978	0,062	-0,029
-351,752	6,473	0,132	-0,071
-350,737	-144,363	-0,022	0,001
-349,723	-116,289	0,214	0,028
-348,708	292,081	-0,072	0,095
-347,693	-200,000	-0,019	-0,133
-346,679	-81,353	0,066	-0,016
-345,664	-78,772	-0,057	0,014
-344,650	800,000	0,035	0,082
-343,635	-200,000	0,002	0,088
-342,620	-54,578	0,018	0,006
-341,606	456,540	-0,056	0,091
-340,591	168,935	-0,032	-0,033
-339,577	800,000	-0,060	-0,133
-338,562	-200,000	0,043	-0,146
-337,548	487,220	0,010	-0,016
-336,533	-98,548	0,051	-0,009
-335,518	-85,787	0,081	0,018
-334,504	8,608	0,235	0,128
-333,489	69,665	-0,025	0,018
-332,475	187,567	0,093	-0,101
-331,460	-200,000	-0,005	0,050
-330,445	-115,405	-0,035	-0,005
-329,431	-128,486	0,042	-0,004
-328,416	-91,146	0,102	-0,021
-327,402	-82,470	0,045	0,010
-326,387	-200,000	-0,001	0,026
-325,372	-108,486	-0,058	0,009
-324,358	402,663	-0,095	0,145
-323,343	-18,376	0,039	-0,018
-322,329	-200,000	-0,030	-0,132
-321,314	409,389	-0,026	0,040
-320,299	800,000	-0,040	0,106
-319,285	605,109	0,082	0,150
-318,270	126,152	0,035	-0,032
-317,256	800,000	0,020	-0,051
-316,241	-200,000	-0,004	-0,057
-315,226	167,962	-0,070	0,072
-314,212	84,293	0,058	0,046
-313,197	-63,851	0,048	-0,014
-312,183	800,000	-0,015	-0,033
-311,168	800,000	0,012	-0,033
-310,153	-200,000	0,023	-0,145
-309,139	-33,960	-0,035	0,014
-308,124	485,885	0,040	0,066
-307,110	782,931	0,024	-0,047
-306,095	800,000	0,054	0,145
-305,080	221,166	0,058	0,067
-304,066	-162,197	0,016	-0,001
-303,051	-200,000	-0,010	-0,060
-302,037	-162,537	-0,133	-0,005
-301,022	-200,000	-0,007	0,052
-300,008	800,000	-0,033	0,071
-298,993	-62,214	0,083	0,025
-297,978	-16,617	-0,133	0,061
-296,964	-115,445	0,031	-0,004
-295,949	-3,697	-0,014	0,007
-294,935	-200,000	-0,018	0,076
-293,920	-200,000	0,008	0,038
-292,905	-49,648	0,088	0,030
-291,891	-112,561	0,047	-0,007
-290,876	32,852	-0,121	0,076
-289,862	193,334	0,049	-0,054
-288,847	-103,546	-0,173	0,029
-287,832	-80,990	0,097	0,023
-286,818	92,402	-0,084	0,069
-285,803	-153,157	0,069	0,003
-284,789	43,812	0,051	0,034
-283,774	-200,000	-0,003	0,073
-282,759	242,256	-0,091	0,110
-281,745	800,000	0,075	-0,196
-280,730	-157,076	-0,110	-0,005
-279,716	-106,577	-0,089	-0,014
-278,701	745,327	-0,060	-0,117
-277,686	-12,226	0,075	-0,035
-276,672	323,638	0,051	0,070
-275,657	-18,624	0,110	0,050
-274,643	-87,813	0,108	0,023
-273,628	-23,239	-0,071	-0,031
-272,613	-200,000	0,010	-0,076
-271,599	-200,000	-0,001	0,108
-270,584	61,244	-0,088	0,063
-269,570	-200,000	0,008	0,041
-268,555	543,099	0,037	-0,063
-267,540	-154,224	-0,099	0,005
-266,526	-200,000	-0,015	-0,140
-265,511	-118,230	0,132	0,017
-264,497	24,202	0,064	-0,038
-263,482	395,532	0,074	-0,112
-262,467	220,186	0,040	-0,047
-261,453	9,091	0,168	0,092
-260,438	800,000	-0,054	-0,113
-259,424	67,644	0,026	0,020
-258,409	-135,044	-0,131	0,011
-257,395	108,043	-0,066	0,057
-256,380	-149,830	0,073	0,004
-255,365	453,805	0,051	-0,082
-254,351	-200,000	-0,012	-0,059
-253,336	39,388	-0,047	0,031
-252,322	-200,000	0,018	0,104
-251,307	-200,000	0,014	0,086
-250,292	800,000	0,004	0,009
-249,278	253,318	0,059	-0,073
-248,263	-200,000	0,000	0,014
-247,249	-141,108	-0,037	-0,003
-246,234	737,543	-0,090	0,175
-245,219	425,333	0,071	-0,111
-244,205	92,512	-0,021	-0,017
-243,190	-200,000	-0,018	0,083
-242,176	-200,000	0,001	0,085
-241,161	-200,000	-0,013	0,077
-240,146	-200,000	-0,018	0,102
-239,132	-200,000	0,017	0,065
-238,117	-102,696	-0,050	-0,009
-237,103	420,820	-0,018	0,027
-236,088	-30,938	-0,074	0,030
-235,073	794,285	0,059	0,118
-234,059	151,190	0,084	0,083
-233,044	149,371	-0,044	0,044
-232,030	11,403	0,076	0,042
-231,015	-200,000	-0,012	-0,143
-230,000	-200,000	0,020	0,070
-228,986	-68,049	0,174	0,049
-227,971	535,404	-0,017	-0,029
-226,957	800,000	0,049	0,110
-225,942	-23,912	-0,068	0,029
-224,927	256,075	0,085	0,106
-223,913	171,559	0,014	0,015
-222,898	800,000	0,028	0,070
-221,884	287,664	0,054	0,071
-220,869	-200,000	0,016	0,055
-219,855	-16,538	0,089	0,041
-218,840	-200,000	0,011	0,048
-217,825	504,484	-0,040	0,067
-216,811	184,640	-0,098	0,105
-215,796	-200,000	0,010	0,052
-214,782	-140,168	-0,188	-0,014
-213,767	-6,066	-0,151	-0,074
-212,752	-149,768	0,093	-0,005
-211,738	507,307	0,040	0,068
-210,723	-138,772	0,066	-0,005
-209,709	-200,000	0,033	-0,150
-208,694	-1,553	0,067	-0,034
-207,679	-54,557	-0,111	-0,036
-206,665	-200,000	-0,001	-0,134
-205,650	499,737	-0,007	0,012
-204,636	-127,043	-0,141	0,015
-203,621	800,000	0,043	-0,133
-202,606	-92,831	-0,077	-0,015
-201,592	-200,000	-0,001	-0,070
-200,577	345,727	-0,033	0,047
-199,563	208,965	0,017	0,020
-198,548	112,535	0,038	0,033
-197,533	-200,000	-0,008	0,124
-196,519	71,118	-0,105	0,079
-195,504	-54,891	-0,036	-0,012
-194,490	74,479	-0,045	-0,034
-193,475	-1,888	-0,052	0,026
-192,460	-119,403	0,149	0,018
-191,446	-200,000	-0,001	-0,038
-190,431	129,626	0,094	0,087
-189,417	-200,000	0,001	0,124
-188,402	516,116	-0,068	0,115
-187,387	800,000	-0,021	-0,045
-186,373	712,852	-0,008	0,015
-185,358	-10,962	-0,113	-0,054
-184,344	127,637	0,100	0,092
-183,329	-105,061	-0,049	-0,008
-182,315	468,897	0,049	0,080
-181,300	-59,075	-0,096	-0,030
-180,285	198,289	-0,011	-0,012
-179,271	-200,000	0,015	-0,097
-178,256	800,000	0,029	0,066
-177,242	-48,300	0,058	-0,020
-176,227	794,635	-0,035	-0,069
-175,212	-136,021	0,135	-0,011
-174,198	-200,000	0,011	0,035
-173,183	-200,000	0,011	-0,055
-172,169	-96,830	-0,129	-0,024
-171,154	388,464	-0,065	-0,097
-170,139	48,845	-0,099	-0,067
-169,125	-117,503	0,121	0,016
-168,110	-200,000	-0,003	0,023
-167,096	596,008	-0,020	0,036
-166,081	172,521	-0,047	-0,049
-165,066	-62,534	0,127	-0,038
-164,052	-70,954	-0,143	-0,039
-163,037	-5,443	0,081	-0,040
-162,023	800,000	0,049	0,143
-161,008	768,603	-0,029	-0,057
-159,993	46,613	-0,070	0,047
-158,979	25,160	0,018	-0,011
-157,964	-130,205	0,085	0,008
-156,950	58,009	0,089	0,063
-155,935	194,954	-0,033	-0,036
-154,920	-32,044	0,033	0,013
-153,906	-200,000	-0,001	0,025
-152,891	-95,927	-0,047	-0,009
-151,877	-200,000	-0,008	-0,034
-150,862	800,000	-0,021	-0,045
-149,847	-40,064	0,065	0,024
-148,833	87,886	0,085	0,068
-147,818	-200,000	-0,006	-0,071
-146,804	25,498	0,072	-0,043
-145,789	166,994	-0,030	0,031
-144,775	-200,000	0,017	-0,170
-143,760	800,000	0,041	-0,111
-142,745	-11,749	-0,058	0,028
-141,731	-138,713	-0,139	0,011
-140,716	147,126	-0,100	0,097
-139,702	428,431	-0,078	-0,121
-138,687	-78,302	0,073	-0,018
-137,672	313,852	-0,077	0,104
-136,658	-24,921	-0,105	-0,045
-135,643	-55,264	-0,133	-0,043
-134,629	199,487	0,078	-0,086
-133,614	87,028	0,136	0,108
-132,599	-134,718	0,042	-0,004
-131,585	-200,000	0,014	0,073
-130,570	800,000	0,033	-0,084
-129,556	800,000	-0,058	-0,157
-128,541	-45,553	-0,132	-0,047
-127,526	-28,087	-0,143	-0,059
-126,512	-200,000	-0,006	0,060
-125,497	-200,000	0,019	0,113
-124,483	187,907	0,015	-0,016
-123,468	-23,877	0,066	0,028
-122,453	698,544	-0,057	-0,108
-121,439	800,000	-0,032	-0,078
-120,424	423,844	-0,031	-0,048
