DTS Sentinel unit serial number:	SN410029Multiplexer serial number:	ORYXHardware model number:	OX2-SRSoftware version number:	ORYX F/W v4,00 Oryx Data Collector v3.7.2.0data status	okinstallation	B5 Nyhavnadifferential loss correction	single-endedforward channel	channel 2reverse channel	N/Adate	2023/12/12time	18:42:13forward acquisition time	300,00reverse acquisition time	0,00gamma	499,1914k internal	0,3157k external	0,3157temperature offset calibration	1,0000default loss term (dB/km)	0,3820temperature slope calibration	1,0000multiplexer offset coefficient	1,0000multiplexer slope coefficient	1,0000fibre end	0,00T internal ref (°C)	15,56T ext. ref 1 (°C)	-1,03T ext. ref 2 (°C)	-1,35length (m)	temperature (°C)	Stokes	anti-Stokes-744,400	22,125	0,140	0,084
-743,385	-83,510	-0,231	0,054
-742,371	-1,966	0,120	-0,062
-741,356	-162,880	-0,273	-0,010
-740,342	148,157	0,060	-0,060
-739,327	-134,856	-0,359	0,032
-738,312	-112,401	-0,018	-0,003
-737,298	-118,023	-0,225	0,029
-736,283	-153,452	0,137	-0,007
-735,269	-62,380	-0,304	0,093
-734,254	69,890	0,077	-0,059
-733,239	-49,113	-0,403	-0,141
-732,225	-93,519	0,188	-0,038
-731,210	162,969	0,029	0,030
-730,196	237,427	0,066	0,081
-729,181	-200,000	0,004	-0,099
-728,167	767,327	0,021	0,043
-727,152	-200,000	-0,009	-0,097
-726,137	800,000	-0,068	-0,153
-725,123	-133,321	0,093	0,009
-724,108	193,511	-0,094	-0,105
-723,094	-200,000	-0,012	-0,178
-722,079	800,000	0,022	-0,065
-721,064	19,214	-0,031	-0,018
-720,050	-92,830	-0,074	0,015
-719,035	-131,189	-0,166	-0,016
-718,021	163,352	0,050	0,052
-717,006	441,865	0,020	0,032
-715,991	-28,111	-0,172	-0,073
-714,977	-138,146	0,059	-0,005
-713,962	188,795	-0,077	-0,085
-712,948	73,896	0,051	0,039
-711,933	-200,000	-0,012	-0,218
-710,918	-41,295	0,039	-0,015
-709,904	-44,427	-0,023	-0,009
-708,889	-200,000	-0,017	-0,078
-707,875	-200,000	-0,040	-0,153
-706,860	-126,758	0,083	-0,009
-705,845	184,011	0,046	0,050
-704,831	-200,000	-0,019	0,236
-703,816	10,589	0,037	0,021
-702,802	70,630	0,096	-0,073
-701,787	-91,950	-0,168	-0,035
-700,772	494,955	0,084	-0,142
-699,758	800,000	0,016	-0,044
-698,743	-200,000	0,001	-0,071
-697,729	-113,166	-0,038	-0,005
-696,714	800,000	0,014	-0,029
-695,699	-64,035	-0,132	0,039
-694,685	85,715	0,039	0,032
-693,670	800,000	0,038	-0,099
-692,656	800,000	-0,055	-0,161
-691,641	-200,000	0,026	0,134
-690,627	-200,000	0,002	0,049
-689,612	-200,000	0,004	-0,064
-688,597	255,988	-0,062	0,079
-687,583	704,983	-0,011	-0,021
-686,568	-107,842	-0,051	0,008
-685,554	-96,470	0,027	-0,005
-684,539	-200,000	-0,011	0,075
-683,524	188,839	-0,097	0,107
-682,510	783,275	0,044	0,088
-681,495	579,963	-0,038	0,069
-680,481	6,184	-0,043	-0,024
-679,466	141,190	-0,070	-0,068
-678,451	-200,000	0,002	-0,012
-677,437	800,000	-0,023	0,048
-676,422	-170,982	0,040	0,001
-675,408	-199,933	-0,037	0,000
-674,393	92,752	-0,094	-0,078
-673,378	-200,000	-0,038	-0,138
-672,364	800,000	-0,025	-0,081
-671,349	800,000	-0,020	-0,061
-670,335	8,985	0,099	0,055
-669,320	-79,902	-0,039	0,010
-668,305	800,000	-0,010	0,030
-667,291	232,202	-0,055	0,067
-666,276	800,000	0,008	-0,017
-665,262	-200,000	-0,011	-0,077
-664,247	240,516	-0,065	-0,080
-663,232	-200,000	-0,024	-0,079
-662,218	-2,741	0,129	0,066
-661,203	256,690	-0,071	0,089
-660,189	-122,683	-0,091	0,011
-659,174	650,171	-0,056	-0,106
-658,159	56,438	-0,123	-0,088
-657,145	102,553	-0,017	-0,015
-656,130	-141,484	0,052	0,004
-655,116	-200,000	-0,001	-0,025
-654,101	520,288	-0,037	0,064
-653,086	-200,000	0,001	-0,026
-652,072	-200,000	-0,008	-0,033
-651,057	-67,126	-0,071	0,020
-650,043	-200,000	-0,004	-0,051
-649,028	133,018	0,096	0,091
-648,014	275,830	-0,041	0,053
-646,999	-97,371	-0,076	0,014
-645,984	-200,000	0,011	0,085
-644,970	-68,394	-0,097	0,027
-643,955	-67,960	-0,071	0,020
-642,941	-131,855	-0,075	0,007
-641,926	50,923	0,055	-0,039
-640,911	22,400	-0,036	-0,021
-639,897	800,000	0,035	-0,107
-638,882	309,223	0,063	-0,087
-637,868	210,294	-0,086	-0,099
-636,853	62,191	-0,230	-0,168
-635,838	288,344	0,038	0,050
-634,824	800,000	-0,042	-0,088
-633,809	53,346	-0,057	0,040
-632,795	800,000	0,038	-0,083
-631,780	4,014	-0,050	0,027
-630,765	44,150	0,127	-0,085
-629,751	800,000	-0,033	0,097
-628,736	-73,149	-0,046	-0,012
-627,722	-200,000	-0,017	-0,144
-626,707	-158,129	-0,081	-0,003
-625,692	14,760	0,090	0,052
-624,678	57,953	-0,055	-0,040
-623,663	800,000	-0,032	-0,078
-622,649	467,778	-0,070	-0,115
-621,634	800,000	-0,005	-0,012
-620,619	197,807	0,073	-0,082
-619,605	-137,476	0,077	0,006
-618,590	-92,016	0,131	0,027
-617,576	-24,850	-0,067	-0,029
-616,561	-5,394	0,032	-0,016
-615,546	-200,000	-0,021	0,075
-614,532	-200,000	-0,005	-0,050
-613,517	258,458	-0,059	-0,074
-612,503	800,000	-0,009	-0,024
-611,488	-117,820	-0,160	0,021
-610,474	101,760	0,043	0,037
-609,459	-96,251	-0,143	-0,028
-608,444	-66,938	0,117	-0,034
-607,430	414,822	-0,076	0,119
-606,415	-20,904	-0,111	-0,050
-605,401	-141,858	-0,167	0,012
-604,386	-141,687	0,010	-0,001
-603,371	800,000	-0,023	0,056
-602,357	12,093	-0,087	-0,049
-601,342	-200,000	0,069	0,000
-600,328	24,228	-0,141	-0,085
-599,313	-200,000	0,019	0,113
-598,298	339,673	0,048	0,069
-597,284	71,927	0,101	-0,077
-596,269	130,877	0,060	0,057
-595,255	-200,000	-0,004	0,086
-594,240	-65,082	-0,142	-0,042
-593,225	462,154	-0,013	-0,022
-592,211	-116,949	0,201	0,027
-591,196	-15,367	-0,074	0,034
-590,182	366,919	0,027	0,041
-589,167	-13,166	0,070	0,033
-588,152	-200,000	-0,025	0,098
-587,138	-2,739	-0,082	0,042
-586,123	-109,084	0,067	0,010
-585,109	-69,878	-0,209	-0,058
-584,094	800,000	0,043	0,128
-583,079	614,326	-0,023	0,042
-582,065	-200,000	0,000	0,036
-581,050	-200,000	-0,005	0,081
-580,036	119,263	-0,083	0,075
-579,021	332,060	-0,092	0,131
-578,006	-200,000	-0,037	-0,143
-576,992	116,851	-0,050	0,045
-575,977	9,704	0,043	0,024
-574,963	-200,000	-0,009	-0,031
-573,948	-200,000	-0,017	0,159
-572,934	-82,249	-0,039	0,009
-571,919	800,000	-0,049	-0,118
-570,904	-23,808	-0,198	-0,087
-569,890	-200,000	0,001	0,074
-568,875	-60,367	0,128	0,040
-567,861	32,618	-0,071	0,045
-566,846	19,500	-0,107	0,063
-565,831	218,323	-0,124	-0,146
-564,817	-31,205	-0,089	0,036
-563,802	-31,272	-0,079	0,032
-562,788	-200,000	-0,001	-0,134
-561,773	-200,000	0,027	-0,098
-560,758	655,251	-0,092	-0,174
-559,744	-122,510	0,053	-0,006
-558,729	-112,185	-0,087	-0,013
-557,715	84,878	-0,023	0,019
-556,700	800,000	-0,033	0,067
-555,685	-200,000	-0,035	0,118
-554,671	-169,900	-0,038	0,001
-553,656	-200,000	0,025	0,127
-552,642	-106,978	-0,087	0,014
-551,627	-200,000	0,040	0,131
-550,612	-200,000	0,000	-0,081
-549,598	800,000	-0,024	-0,062
-548,583	-109,786	-0,033	0,005
-547,569	-200,000	-0,025	0,085
-546,554	-8,195	-0,102	-0,050
-545,539	-200,000	-0,003	-0,038
-544,525	154,325	0,057	0,057
-543,510	104,701	0,019	-0,016
-542,496	800,000	-0,022	0,064
-541,481	85,196	-0,075	0,060
-540,466	86,598	-0,095	-0,077
-539,452	-40,718	0,032	0,012
-538,437	5,358	0,078	0,042
-537,423	-200,000	-0,020	-0,071
-536,408	796,946	0,021	-0,042
-535,393	192,696	-0,090	-0,100
-534,379	74,019	0,091	0,070
-533,364	119,064	-0,025	-0,023
-532,350	-56,695	0,084	-0,027
-531,335	-200,000	-0,011	0,046
-530,321	-29,109	0,184	0,077
-529,306	-200,000	0,015	-0,142
-528,291	-165,887	-0,158	-0,005
-527,277	393,495	-0,094	0,143
-526,262	-200,000	0,019	-0,098
-525,248	-200,000	0,038	0,204
-524,233	-200,000	0,023	0,133
-523,218	406,264	-0,045	0,069
-522,204	-2,435	-0,104	0,053
-521,189	380,467	0,039	-0,058
-520,175	-200,000	0,018	-0,132
-519,160	-56,282	0,128	0,041
-518,145	-200,000	-0,003	0,085
-517,131	800,000	0,047	0,134
-516,116	409,169	0,055	0,085
-515,102	430,532	0,031	0,049
-514,087	343,274	-0,093	-0,133
-513,072	48,755	-0,107	0,073
-512,058	443,143	-0,026	-0,041
-511,043	-200,000	-0,015	-0,177
-510,029	-72,588	0,112	0,030
-509,014	-124,564	0,033	-0,004
-507,999	223,739	0,046	0,054
-506,985	64,399	-0,131	-0,096
-505,970	385,883	-0,039	-0,058
-504,956	-200,000	-0,005	-0,024
-503,941	-200,000	-0,001	0,154
-502,926	-200,000	0,009	0,185
-501,912	-29,537	0,087	0,036
-500,897	-200,000	0,011	-0,144
-499,883	283,109	-0,120	-0,158
-498,868	255,848	-0,051	-0,064
-497,853	366,948	0,051	0,075
-496,839	-200,000	-0,011	0,070
-495,824	62,696	0,043	0,032
-494,810	-162,209	0,135	-0,005
-493,795	-119,260	0,111	-0,014
-492,781	800,000	-0,052	-0,112
-491,766	-106,650	-0,164	-0,026
-490,751	740,901	-0,025	-0,050
-489,737	800,000	0,042	-0,100
-488,722	-200,000	-0,014	-0,045
-487,708	-200,000	-0,026	0,105
-486,693	-146,895	-0,042	0,003
-485,678	-200,000	0,003	-0,124
-484,664	800,000	-0,073	-0,155
-483,649	-138,966	-0,141	-0,011
-482,635	-0,949	-0,042	0,022
-481,620	345,910	0,028	0,041
-480,605	-200,000	0,011	0,055
-479,591	-55,699	0,185	0,060
-478,576	-190,167	0,209	0,002
-477,562	-27,798	0,134	-0,057
-476,547	-200,000	-0,022	-0,080
-475,532	41,071	-0,083	0,054
-474,518	586,389	0,033	0,060
-473,503	-200,000	0,006	-0,136
-472,489	-5,808	-0,060	-0,030
-471,474	800,000	-0,042	-0,115
-470,459	800,000	-0,026	-0,080
-469,445	-200,000	-0,030	-0,160
-468,430	294,847	-0,085	0,113
-467,416	52,346	0,102	0,071
-466,401	-200,000	-0,008	-0,094
-465,386	-39,509	0,068	-0,026
-464,372	469,171	0,007	-0,012
-463,357	-20,634	0,146	-0,065
-462,343	-200,000	-0,003	0,120
-461,328	-47,881	-0,071	-0,025
-460,313	-125,351	0,073	-0,008
-459,299	77,124	0,115	0,089
-458,284	-200,000	-0,027	0,114
-457,270	102,674	-0,049	0,042
-456,255	547,931	0,022	0,038
-455,241	-34,991	-0,061	-0,024
-454,226	422,861	0,035	0,056
-453,211	133,754	-0,047	0,045
-452,197	-46,625	0,125	0,044
-451,182	-93,479	0,044	0,009
-450,168	-200,000	0,035	-0,224
-449,153	439,676	-0,081	-0,130
-448,138	81,786	-0,041	-0,032
-447,124	-23,478	-0,092	-0,040
-446,109	-141,219	0,114	0,008
-445,095	412,634	0,040	-0,063
-444,080	-200,000	0,036	-0,132
-443,065	-104,305	-0,132	0,022
-442,051	-59,471	-0,028	0,009
-441,036	-38,258	-0,081	-0,031
-440,022	800,000	-0,008	-0,016
-439,007	74,506	-0,152	0,117
-437,992	-90,411	0,106	-0,022
-436,978	800,000	0,012	-0,033
-435,963	-28,123	0,147	-0,062
-434,949	-200,000	0,006	-0,122
-433,934	43,365	0,087	-0,058
-432,919	800,000	-0,082	-0,209
-431,905	-33,342	-0,044	0,018
-430,890	-200,000	0,012	0,161
-429,876	-200,000	-0,002	0,230
-428,861	126,815	0,043	-0,040
-427,846	189,805	-0,137	0,150
-426,832	-200,000	-0,091	-0,000
-425,817	-200,000	0,006	-0,093
-424,803	-66,622	0,152	0,044
-423,788	800,000	-0,049	0,120
-422,773	-53,147	0,145	0,048
-421,759	98,439	-0,060	-0,051
-420,744	129,240	0,095	-0,088
-419,730	-167,575	-0,083	-0,002
-418,715	-200,000	-0,019	0,073
-417,701	364,126	0,063	-0,092
-416,686	347,159	0,064	0,092
-415,671	-77,693	-0,084	0,021
-414,657	63,708	0,098	-0,071
-413,642	-158,750	0,084	-0,003
-412,628	291,459	-0,063	-0,084
-411,613	-200,000	-0,011	0,061
-410,598	268,309	0,076	-0,097
-409,584	369,388	0,040	0,058
-408,569	379,409	0,088	0,132
-407,555	200,931	0,076	-0,085
-406,540	800,000	-0,010	0,028
-405,525	-139,813	-0,017	0,001
-404,511	-72,488	-0,116	-0,031
-403,496	333,239	-0,015	0,021
-402,482	25,790	0,066	0,040
-401,467	-200,000	-0,035	0,204
-400,452	-18,715	-0,099	0,045
-399,438	-150,181	0,128	-0,007
-398,423	-136,143	-0,166	-0,014
-397,409	800,000	-0,054	-0,159
-396,394	360,252	0,040	0,058
-395,379	92,204	0,085	-0,070
-394,365	-94,856	0,116	0,023
-393,350	130,542	0,053	0,049
-392,336	-200,000	-0,003	0,040
-391,321	800,000	-0,017	0,051
-390,306	-200,000	-0,005	-0,071
-389,292	-141,197	-0,213	0,016
-388,277	-51,449	-0,024	-0,008
-387,263	800,000	-0,025	0,050
-386,248	-7,695	0,046	-0,022
-385,233	280,408	-0,120	0,157
-384,219	-200,000	0,020	0,089
-383,204	128,506	-0,058	0,054
-382,190	-200,000	-0,020	-0,105
-381,175	-44,139	0,052	-0,019
-380,160	-200,000	-0,012	0,076
-379,146	69,572	0,141	0,105
-378,131	-128,027	0,133	-0,014
-377,117	-3,023	-0,044	-0,022
-376,102	364,839	0,066	0,096
-375,088	93,703	-0,090	-0,074
-374,073	187,250	0,114	-0,124
-373,058	800,000	0,046	0,116
-372,044	70,085	0,115	0,086
-371,029	-200,000	0,026	-0,102
-370,015	-62,552	-0,062	0,018
-369,000	108,334	0,016	-0,014
-367,985	-80,677	-0,059	0,014
-366,971	800,000	0,030	0,064
-365,956	115,270	0,048	0,043
-364,942	218,164	0,077	-0,090
-363,927	-34,381	0,059	-0,024
-362,912	-15,561	-0,057	-0,026
-361,898	-200,000	-0,011	0,042
-360,883	232,277	-0,028	0,033
-359,869	246,549	-0,042	0,051
-358,854	-31,569	-0,063	-0,026
-357,839	-89,472	-0,035	-0,007
-356,825	800,000	-0,025	-0,068
-355,810	371,115	0,017	0,026
-354,796	-72,811	0,091	-0,024
-353,781	-97,366	-0,040	-0,007
-352,766	-114,161	0,110	0,015
-351,752	-119,076	0,038	-0,005
-350,737	800,000	0,054	0,130
-349,723	-19,746	-0,085	0,038
-348,708	-200,000	0,018	-0,110
-347,693	82,879	-0,059	-0,046
-346,679	-5,224	-0,074	0,037
-345,664	-88,081	0,062	-0,013
-344,650	241,805	0,032	-0,039
-343,635	101,196	0,083	-0,070
-342,620	35,420	0,073	0,047
-341,606	74,132	0,125	0,095
-340,591	173,207	0,060	-0,063
-339,577	-131,460	-0,129	-0,012
-338,562	800,000	-0,018	-0,038
-337,548	-106,717	0,175	0,028
-336,533	134,684	-0,092	-0,087
-335,518	43,340	0,057	0,038
-334,504	411,220	0,055	0,084
-333,489	-45,991	0,031	-0,011
-332,475	173,370	0,030	0,031
-331,460	-68,192	0,058	-0,016
-330,445	386,001	-0,022	0,033
-329,431	-200,000	0,017	-0,062
-328,416	26,318	-0,024	-0,014
-327,402	800,000	-0,020	0,050
-326,387	800,000	0,013	-0,033
-325,372	154,303	0,017	-0,017
-324,358	800,000	-0,086	-0,230
-323,343	145,408	0,036	0,035
-322,329	-132,343	-0,125	0,012
-321,314	800,000	0,035	-0,076
-320,299	800,000	-0,054	0,153
-319,285	-100,330	-0,139	-0,025
-318,270	126,499	0,081	-0,075
-317,256	-200,000	0,005	0,023
-316,241	296,365	-0,052	0,069
-315,226	368,477	-0,014	0,020
-314,212	800,000	0,050	0,110
-313,197	-200,000	-0,002	-0,038
-312,183	553,720	0,054	0,095
-311,168	94,724	-0,069	-0,057
-310,153	-131,007	-0,055	0,005
-309,139	102,889	0,079	-0,067
-308,124	278,797	-0,048	0,062
-307,110	-78,122	0,021	-0,005
-306,095	-35,408	0,014	0,006
-305,080	800,000	0,037	-0,086
-304,066	-89,379	0,111	0,024
-303,051	-200,000	0,008	0,098
-302,037	-200,000	-0,007	-0,060
-301,022	-200,000	-0,019	-0,078
-300,008	723,560	0,045	0,087
-298,993	216,369	-0,035	0,041
-297,978	121,339	-0,068	0,062
-296,964	379,358	0,062	-0,092
-295,949	-6,254	-0,048	-0,024
-294,935	126,882	-0,033	-0,030
-293,920	800,000	0,054	0,118
-292,905	13,543	-0,063	-0,035
-291,891	-200,000	0,008	-0,101
-290,876	164,785	-0,048	-0,049
-289,862	648,355	0,027	0,051
-288,847	33,869	-0,051	-0,032
-287,832	233,374	-0,050	-0,060
-286,818	163,362	-0,080	-0,081
-285,803	-200,000	-0,007	-0,034
-284,789	-108,584	0,131	-0,020
-283,774	273,231	0,043	0,055
-282,759	800,000	-0,050	0,107
-281,745	160,009	0,053	0,054
-280,730	323,547	0,042	0,058
-279,716	597,756	-0,044	-0,080
-278,701	-200,000	-0,004	-0,053
-277,686	-22,544	0,134	0,059
-276,672	800,000	-0,036	-0,081
-275,657	7,274	0,107	0,057
-274,643	600,338	0,030	0,055
-273,628	540,187	0,101	-0,175
-272,613	218,225	0,061	-0,070
-271,599	141,207	0,050	-0,048
-270,584	302,639	0,103	0,138
-269,570	-136,379	-0,041	0,003
-268,555	-200,000	0,011	0,189
-267,540	-147,644	-0,158	-0,009
-266,526	-200,000	0,011	0,151
-265,511	800,000	-0,055	-0,150
-264,497	800,000	0,080	-0,180
-263,482	-200,000	-0,025	0,112
-262,467	561,332	-0,036	0,064
-261,453	-200,000	-0,012	0,057
-260,438	-200,000	-0,032	0,132
-259,424	229,312	-0,022	-0,026
-258,409	67,787	0,107	-0,079
-257,395	-59,473	0,080	0,025
-256,380	500,647	-0,063	0,106
-255,365	21,916	0,055	0,032
-254,351	750,506	0,104	0,204
-253,336	34,817	0,124	0,078
-252,322	-68,070	0,101	0,028
-251,307	-200,000	0,002	-0,059
-250,292	-14,849	0,120	-0,056
-249,278	800,000	-0,026	0,055
-248,263	-8,229	0,067	0,032
-247,249	19,500	-0,081	0,047
-246,234	-120,331	-0,058	0,007
-245,219	89,406	-0,115	-0,092
-244,205	-200,000	-0,020	-0,166
-243,190	-200,000	-0,004	-0,054
-242,176	-200,000	-0,003	0,075
-241,161	430,221	0,091	0,142
-240,146	-35,168	0,087	0,034
-239,132	430,053	-0,015	-0,023
-238,117	-12,174	0,049	-0,023
-237,103	800,000	-0,004	-0,010
-236,088	399,688	-0,048	-0,073
-235,073	-48,017	0,034	0,012
-234,059	-151,003	-0,026	0,001
-233,044	-200,000	-0,003	0,060
-232,030	-200,000	0,021	0,119
-231,015	-153,790	-0,098	0,005
-230,000	-200,000	-0,009	0,068
-228,986	-200,000	-0,000	-0,048
-227,971	-103,202	0,136	-0,023
-226,957	-60,129	0,105	-0,032
-225,942	800,000	0,012	0,026
-224,927	-200,000	0,004	0,071
-223,913	184,492	-0,135	-0,145
-222,898	-200,000	-0,032	0,126
-221,884	99,623	0,066	0,055
-220,869	-44,070	-0,099	0,036
-219,855	16,199	0,124	0,070
-218,840	718,221	0,069	-0,132
-217,825	-90,861	-0,054	-0,011
-216,811	-200,000	0,011	-0,132
-215,796	-200,000	-0,008	0,026
-214,782	-200,000	-0,019	0,153
-213,767	-200,000	0,018	-0,071
-212,752	364,140	0,023	0,033
-211,738	208,863	0,011	0,013
-210,723	-137,060	0,116	-0,009
-209,709	-63,482	-0,059	-0,017
-208,694	284,869	0,096	-0,125
-207,679	800,000	0,049	-0,104
-206,665	253,242	0,044	-0,054
-205,650	59,073	0,144	0,102
-204,636	-200,000	-0,012	0,058
-203,621	348,450	0,051	-0,073
-202,606	301,019	-0,058	-0,077
-201,592	42,418	0,027	0,018
-200,577	-56,724	0,049	0,016
-199,563	-200,000	0,002	-0,155
-198,548	-196,820	-0,065	-0,000
-197,533	-81,626	0,077	-0,018
-196,519	-30,796	-0,038	-0,016
-195,504	283,410	-0,026	0,033
-194,490	648,784	-0,044	-0,081
-193,475	-144,707	-0,097	-0,006
-192,460	-200,000	0,009	0,055
-191,446	105,891	0,037	0,032
-190,431	-200,000	-0,033	0,112
-189,417	-200,000	0,049	0,190
-188,402	16,521	-0,078	-0,045
-187,387	46,856	-0,104	-0,070
-186,373	-126,901	0,030	-0,003
-185,358	-16,446	0,058	0,026
-184,344	256,893	0,070	-0,087
-183,329	-43,068	0,079	-0,029
-182,315	32,791	0,023	0,014
-181,300	364,266	-0,090	-0,131
-180,285	-200,000	0,006	-0,096
-179,271	-200,000	0,001	-0,086
-178,256	-200,000	0,013	-0,043
-177,242	-200,000	0,004	0,028
-176,227	-27,528	0,177	0,074
-175,212	314,151	0,030	0,041
-174,198	-200,000	-0,005	-0,061
-173,183	-105,833	-0,076	-0,012
-172,169	-200,000	0,009	-0,128
-171,154	-200,000	0,039	-0,168
-170,139	597,466	0,024	-0,043
-169,125	-200,000	-0,031	0,160
-168,110	800,000	0,010	-0,032
-167,096	800,000	0,010	-0,022
-166,081	800,000	-0,024	0,066
-165,066	-200,000	-0,026	-0,129
-164,052	108,989	0,094	0,081
-163,037	106,462	-0,069	-0,059
-162,023	-128,640	-0,097	0,010
-161,008	159,308	0,051	0,051
-159,993	-200,000	-0,006	-0,026
-158,979	-138,268	-0,128	-0,010
-157,964	209,046	-0,041	-0,046
-156,950	-44,294	-0,031	-0,011
-155,935	-94,206	0,005	0,001
-154,920	53,625	0,138	0,096
-153,906	188,175	-0,060	0,064
-152,891	-2,763	0,008	-0,004
-151,877	344,994	0,051	-0,072
-150,862	65,777	0,108	-0,078
-149,847	-200,000	0,017	-0,066
-148,833	104,709	-0,039	0,033
-147,818	800,000	0,059	0,129
-146,804	62,138	-0,024	-0,017
-145,789	308,055	-0,058	-0,078
-144,775	-200,000	-0,009	0,247
-143,760	-98,259	0,093	0,017
-142,745	-14,468	-0,099	-0,046
-141,731	-27,245	0,096	-0,040
-140,716	19,398	0,159	0,092
-139,702	365,165	0,034	0,049
-138,687	-200,000	0,009	0,196
-137,672	-200,000	0,027	0,194
-136,658	-117,631	-0,034	-0,004
-135,643	664,600	-0,032	-0,059
-134,629	-110,691	0,130	-0,019
-133,614	-27,466	-0,039	0,016
-132,599	-25,771	0,076	-0,032
-131,585	190,561	0,042	-0,046
-130,570	-200,000	-0,018	-0,075
-129,556	-46,511	0,108	-0,038
-128,541	-52,480	0,204	0,067
-127,526	206,384	-0,097	-0,109
-126,512	-200,000	0,007	0,107
-125,497	29,820	0,092	0,056
-124,483	-53,475	0,118	-0,039
-123,468	-33,065	-0,105	-0,042
-122,453	119,346	-0,038	0,034
-121,439	603,822	0,015	-0,028
-120,424	-79,930	-0,124	-0,030
