DTS Sentinel unit serial number:	SN410029Multiplexer serial number:	ORYXHardware model number:	OX2-SRSoftware version number:	ORYX F/W v4,00 Oryx Data Collector v3.7.2.0data status	okinstallation	B5 Nyhavnadifferential loss correction	single-endedforward channel	channel 2reverse channel	N/Adate	2023/12/13time	04:32:13forward acquisition time	300,00reverse acquisition time	0,00gamma	499,1914k internal	0,3160k external	0,3160temperature offset calibration	1,0000default loss term (dB/km)	0,3820temperature slope calibration	1,0000multiplexer offset coefficient	1,0000multiplexer slope coefficient	1,0000fibre end	0,00T internal ref (°C)	13,93T ext. ref 1 (°C)	-2,45T ext. ref 2 (°C)	-2,76length (m)	temperature (°C)	Stokes	anti-Stokes-744,400	800,000	0,061	-0,133
-743,385	-111,029	-0,327	-0,049
-742,371	364,256	0,113	0,168
-741,356	-61,515	-0,187	0,057
-740,342	-200,000	-0,019	0,238
-739,327	-153,334	-0,263	0,013
-738,312	-200,000	-0,027	0,111
-737,298	-190,132	-0,227	0,002
-736,283	-121,923	0,066	0,008
-735,269	-122,707	-0,328	0,039
-734,254	800,000	0,049	0,117
-733,239	91,787	-0,431	-0,357
-732,225	-129,786	0,218	0,022
-731,210	40,057	0,073	0,048
-730,196	74,328	-0,106	-0,082
-729,181	83,341	0,014	-0,011
-728,167	438,367	0,066	-0,107
-727,152	508,708	0,029	-0,050
-726,137	-200,000	-0,007	-0,060
-725,123	-200,000	-0,046	-0,232
-724,108	95,442	0,034	-0,028
-723,094	-200,000	-0,046	-0,191
-722,079	588,927	-0,044	-0,081
-721,064	-200,000	-0,022	-0,129
-720,050	-200,000	-0,038	-0,125
-719,035	-104,110	0,098	-0,017
-718,021	279,401	-0,052	-0,068
-717,006	800,000	-0,023	-0,074
-715,991	-200,000	-0,008	-0,177
-714,977	741,176	-0,056	-0,111
-713,962	-4,837	-0,125	0,063
-712,948	-200,000	-0,029	0,120
-711,933	-13,093	-0,118	-0,056
-710,918	-8,884	-0,054	0,027
-709,904	-18,014	-0,159	-0,073
-708,889	-200,000	-0,032	0,108
-707,875	-58,034	-0,008	0,003
-706,860	-200,000	0,000	0,054
-705,845	800,000	-0,063	-0,191
-704,831	-200,000	0,004	0,125
-703,816	396,261	0,089	-0,137
-702,802	47,644	-0,116	-0,079
-701,787	222,111	0,101	-0,120
-700,772	380,895	-0,016	-0,024
-699,758	29,844	0,069	-0,043
-698,743	-122,787	0,139	0,016
-697,729	147,945	0,022	0,022
-696,714	-58,971	0,120	-0,038
-695,699	17,505	-0,040	-0,023
-694,685	-58,350	-0,172	-0,055
-693,670	99,245	-0,127	-0,108
-692,656	-200,000	0,000	-0,012
-691,641	99,781	0,067	0,057
-690,627	-42,332	-0,030	0,011
-689,612	-200,000	-0,028	0,220
-688,597	238,674	-0,067	0,082
-687,583	-68,935	-0,098	0,028
-686,568	-109,351	-0,074	-0,011
-685,554	-94,444	0,138	0,027
-684,539	-200,000	-0,024	-0,079
-683,524	-200,000	0,005	0,037
-682,510	51,447	-0,111	0,077
-681,495	39,575	0,127	-0,084
-680,481	-48,013	0,118	-0,042
-679,466	-5,007	-0,060	-0,030
-678,451	-123,458	0,050	-0,006
-677,437	800,000	-0,040	-0,108
-676,422	13,583	-0,036	-0,020
-675,408	125,962	-0,077	-0,071
-674,393	-93,408	-0,137	0,028
-673,378	-200,000	0,033	-0,183
-672,364	-140,687	0,145	-0,011
-671,349	203,098	-0,084	0,096
-670,335	-24,850	0,046	0,020
-669,320	21,859	-0,046	-0,027
-668,305	-147,468	0,063	0,004
-667,291	-200,000	-0,001	-0,069
-666,276	-200,000	0,020	-0,098
-665,262	-59,554	-0,093	-0,029
-664,247	298,516	-0,023	0,032
-663,232	20,901	-0,077	0,046
-662,218	-200,000	-0,001	0,020
-661,203	-94,728	-0,104	-0,021
-660,189	184,176	0,080	0,088
-659,174	-105,643	-0,063	0,010
-658,159	-56,307	-0,072	0,023
-657,145	-139,646	-0,134	0,010
-656,130	-6,543	-0,024	0,012
-655,116	115,687	0,022	0,020
-654,101	-44,577	0,033	-0,012
-653,086	18,343	-0,179	-0,105
-652,072	-200,000	0,021	-0,114
-651,057	418,864	-0,050	-0,078
-650,043	-50,803	-0,053	-0,018
-649,028	-200,000	-0,004	-0,090
-648,014	-149,310	0,136	0,008
-646,999	800,000	-0,028	0,058
-645,984	381,967	-0,069	0,104
-644,970	76,254	-0,062	-0,048
-643,955	-98,519	-0,155	-0,029
-642,941	-200,000	0,010	0,090
-641,926	-131,324	-0,084	-0,008
-640,911	-146,890	0,153	-0,010
-639,897	-67,642	0,057	-0,016
-638,882	490,081	-0,039	0,065
-637,868	-62,355	-0,041	0,012
-636,853	113,075	0,026	0,023
-635,838	86,071	-0,054	-0,043
-634,824	455,565	0,032	-0,052
-633,809	534,213	0,047	0,081
-632,795	379,358	0,049	-0,073
-631,780	33,315	-0,103	-0,065
-630,765	39,108	-0,056	-0,037
-629,751	-17,149	-0,137	-0,063
-628,736	800,000	-0,030	-0,071
-627,722	800,000	0,047	0,106
-626,707	-200,000	0,007	0,074
-625,692	-60,442	-0,047	0,015
-624,678	-200,000	-0,016	-0,164
-623,663	242,552	-0,102	-0,125
-622,649	-200,000	-0,017	-0,058
-621,634	-200,000	0,029	-0,191
-620,619	398,439	-0,068	-0,104
-619,605	174,489	-0,041	0,044
-618,590	68,076	0,056	0,042
-617,576	-200,000	-0,001	0,082
-616,561	-200,000	0,027	-0,140
-615,546	-60,964	-0,170	-0,052
-614,532	-200,000	0,026	0,112
-613,517	86,006	-0,146	0,118
-612,503	71,742	0,087	0,067
-611,488	272,165	0,114	-0,148
-610,474	-200,000	-0,034	-0,116
-609,459	-43,588	0,081	-0,030
-608,444	-132,763	-0,103	-0,010
-607,430	274,760	0,015	0,019
-606,415	486,597	0,034	-0,057
-605,401	-42,325	-0,050	0,019
-604,386	-56,215	-0,160	0,052
-603,371	-29,345	0,101	0,042
-602,357	-76,032	-0,120	0,031
-601,342	-34,338	0,056	0,023
-600,328	68,769	-0,104	-0,078
-599,313	800,000	0,060	-0,158
-598,298	-68,989	0,062	-0,018
-597,284	571,601	-0,069	0,123
-596,269	-200,000	-0,017	-0,069
-595,255	288,478	-0,044	0,058
-594,240	-90,468	-0,136	-0,029
-593,225	800,000	-0,024	-0,054
-592,211	36,102	-0,084	-0,054
-591,196	-200,000	0,035	-0,141
-590,182	-200,000	0,035	0,139
-589,167	-200,000	0,006	0,058
-588,152	534,262	0,001	0,001
-587,138	800,000	-0,068	-0,163
-586,123	530,757	-0,010	-0,018
-585,109	-200,000	0,022	-0,072
-584,094	53,775	0,042	0,030
-583,079	105,848	-0,125	-0,108
-582,065	-38,798	0,221	0,085
-581,050	-200,000	-0,004	0,098
-580,036	76,717	-0,051	0,040
-579,021	49,613	0,121	-0,084
-578,006	-14,550	0,067	0,032
-576,992	800,000	0,021	0,046
-575,977	478,913	-0,037	-0,061
-574,963	119,326	-0,170	-0,154
-573,948	-200,000	0,008	0,088
-572,934	-200,000	-0,039	0,000
-571,919	-200,000	0,019	-0,125
-570,904	-200,000	-0,022	0,073
-569,890	-200,000	-0,006	-0,062
-568,875	800,000	-0,052	0,143
-567,861	-149,905	-0,062	-0,003
-566,846	213,722	0,042	0,049
-565,831	-13,798	-0,132	0,062
-564,817	380,460	0,075	-0,112
-563,802	54,461	-0,063	-0,045
-562,788	-200,000	-0,002	-0,050
-561,773	-48,028	0,194	0,068
-560,758	-84,325	-0,022	0,005
-559,744	-13,164	0,047	-0,022
-558,729	191,865	0,045	0,049
-557,715	166,900	0,089	-0,093
-556,700	-41,627	-0,123	-0,046
-555,685	523,229	-0,100	-0,173
-554,671	-200,000	-0,001	0,025
-553,656	-73,207	-0,058	0,016
-552,642	-101,992	0,055	-0,010
-551,627	333,923	-0,035	0,049
-550,612	-65,331	-0,060	-0,018
-549,598	168,058	0,120	-0,125
-548,583	-200,000	0,007	-0,069
-547,569	-200,000	0,019	0,100
-546,554	-152,909	0,053	0,003
-545,539	-92,749	0,126	0,025
-544,525	-200,000	-0,000	0,049
-543,510	480,757	-0,035	0,059
-542,496	45,691	-0,025	-0,017
-541,481	-189,920	-0,037	0,000
-540,466	390,224	0,078	0,119
-539,452	-200,000	-0,009	0,030
-538,437	-200,000	0,150	0,000
-537,423	-200,000	0,005	0,043
-536,408	97,087	-0,101	-0,085
-535,393	-101,794	0,107	-0,019
-534,379	102,378	0,057	0,049
-533,364	281,564	-0,058	0,075
-532,350	341,595	0,073	0,105
-531,335	5,211	0,088	0,047
-530,321	153,149	-0,047	-0,047
-529,306	-200,000	-0,006	-0,039
-528,291	-183,771	-0,328	0,004
-527,277	800,000	0,026	0,069
-526,262	134,119	0,192	-0,182
-525,248	-192,070	0,076	0,001
-524,233	-26,960	-0,040	0,017
-523,218	-200,000	0,019	0,067
-522,204	-200,000	-0,003	0,136
-521,189	-200,000	0,024	0,144
-520,175	-153,130	0,130	0,007
-519,160	94,938	0,024	-0,020
-518,145	-15,490	-0,076	0,035
-517,131	7,937	0,067	-0,037
-516,116	800,000	-0,018	-0,042
-515,102	-200,000	0,005	-0,028
-514,087	63,651	0,114	-0,083
-513,072	800,000	-0,048	-0,125
-512,058	-180,599	0,142	-0,002
-511,043	-102,685	0,078	-0,014
-510,029	180,069	0,084	-0,090
-509,014	800,000	-0,022	0,069
-507,999	575,852	0,058	0,103
-506,985	472,246	0,034	-0,056
-505,970	37,417	0,144	-0,093
-504,956	149,411	0,045	0,044
-503,941	18,720	-0,109	-0,063
-502,926	-105,374	-0,027	-0,004
-501,912	-30,257	0,080	0,033
-500,897	421,344	-0,055	0,086
-499,883	-200,000	0,014	-0,087
-498,868	129,352	-0,063	-0,059
-497,853	-140,462	0,078	0,006
-496,839	171,398	0,054	-0,056
-495,824	416,781	0,058	0,090
-494,810	-200,000	0,007	-0,028
-493,795	560,130	0,080	0,142
-492,781	-1,891	-0,098	-0,050
-491,766	-153,573	-0,041	0,002
-490,751	-152,831	0,124	-0,006
-489,737	-200,000	0,011	-0,084
-488,722	-200,000	-0,002	-0,015
-487,708	800,000	-0,021	0,047
-486,693	-200,000	0,007	-0,054
-485,678	-4,593	-0,151	-0,076
-484,664	-200,000	-0,004	-0,120
-483,649	107,732	-0,079	0,069
-482,635	385,500	-0,033	-0,049
-481,620	800,000	0,035	0,073
-480,605	-200,000	0,022	0,097
-479,591	77,480	-0,053	-0,041
-478,576	302,922	-0,098	0,132
-477,562	-26,358	0,048	0,021
-476,547	-135,207	-0,024	-0,002
-475,532	95,752	0,034	0,028
-474,518	-54,022	-0,052	-0,017
-473,503	-105,617	0,088	-0,014
-472,489	-29,647	0,113	0,047
-471,474	800,000	0,037	0,119
-470,459	35,140	-0,082	-0,052
-469,445	281,212	-0,045	-0,059
-468,430	-200,000	0,018	-0,073
-467,416	678,595	0,036	0,069
-466,401	-5,873	-0,021	0,010
-465,386	45,600	0,043	0,029
-464,372	-5,780	0,080	-0,040
-463,357	-66,077	0,063	0,018
-462,343	28,838	0,066	-0,041
-461,328	800,000	0,028	0,079
-460,313	-33,185	0,101	-0,040
-459,299	-29,189	-0,057	0,024
-458,284	-200,000	-0,020	0,164
-457,270	299,654	-0,054	0,073
-456,255	-102,643	0,134	-0,023
-455,241	-200,000	0,004	0,087
-454,226	-160,459	0,051	-0,002
-453,211	-129,911	-0,096	-0,009
-452,197	48,604	-0,067	0,046
-451,182	22,314	-0,035	-0,021
-450,168	-66,052	0,045	0,013
-449,153	-200,000	-0,003	0,094
-448,138	-200,000	0,001	0,053
-447,124	800,000	-0,016	0,050
-446,109	-200,000	0,013	-0,080
-445,095	1,509	0,135	0,070
-444,080	800,000	0,013	0,041
-443,065	127,406	-0,014	-0,013
-442,051	-200,000	-0,019	0,136
-441,036	-110,462	-0,114	-0,017
-440,022	-200,000	0,016	-0,154
-439,007	250,641	0,062	0,077
-437,992	-200,000	-0,015	0,125
-436,978	-186,604	-0,029	0,000
-435,963	-200,000	-0,037	0,127
-434,949	-40,812	-0,055	-0,021
-433,934	568,753	-0,054	-0,095
-432,919	86,559	-0,116	0,093
-431,905	8,665	-0,095	-0,052
-430,890	-126,033	0,162	0,017
-429,876	301,151	0,106	0,143
-428,861	-91,118	-0,028	-0,006
-427,846	-88,421	-0,193	0,042
-426,832	29,720	-0,049	-0,030
-425,817	62,759	-0,187	-0,136
-424,803	-200,000	0,034	-0,226
-423,788	533,820	-0,038	0,066
-422,773	-147,327	0,119	0,007
-421,759	28,457	-0,013	-0,008
-420,744	655,295	-0,008	-0,015
-419,730	-199,509	0,023	0,000
-418,715	-59,942	-0,167	0,052
-417,701	-135,371	-0,025	0,002
-416,686	751,809	-0,073	-0,145
-415,671	-165,644	0,163	0,005
-414,657	-26,693	0,100	-0,042
-413,642	-200,000	-0,024	0,143
-412,628	41,353	-0,061	0,040
-411,613	200,200	0,092	-0,103
-410,598	196,767	-0,157	-0,175
-409,584	49,965	0,124	-0,085
-408,569	800,000	-0,022	-0,066
-407,555	-200,000	-0,001	0,007
-406,540	-200,000	0,010	0,117
-405,525	217,648	0,013	-0,015
-404,511	224,507	-0,118	-0,138
-403,496	5,132	0,099	-0,053
-402,482	269,200	-0,073	0,093
-401,467	485,066	0,053	0,087
-400,452	-112,058	0,083	0,012
-399,438	147,445	0,029	0,029
-398,423	59,718	-0,038	-0,027
-397,409	-21,505	-0,075	0,033
-396,394	219,907	-0,064	-0,075
-395,379	-200,000	0,025	0,120
-394,365	53,812	-0,031	-0,022
-393,350	800,000	-0,012	-0,031
-392,336	-47,691	0,144	-0,051
-391,321	-143,516	-0,079	0,005
-390,306	698,979	-0,086	-0,166
-389,292	800,000	-0,013	0,032
-388,277	127,556	0,074	0,069
-387,263	-10,104	0,084	0,040
-386,248	253,442	0,131	0,162
-385,233	43,313	0,085	-0,056
-384,219	71,227	0,034	0,025
-383,204	286,219	0,085	-0,112
-382,190	160,246	-0,072	-0,073
-381,175	-68,717	-0,089	-0,025
-380,160	253,684	-0,044	0,055
-379,146	321,332	0,036	0,050
-378,131	221,860	0,124	0,145
-377,117	155,766	0,069	-0,069
-376,102	100,868	-0,049	0,042
-375,088	800,000	0,025	0,072
-374,073	86,873	0,021	0,017
-373,058	-76,221	0,023	-0,006
-372,044	800,000	-0,027	0,070
-371,029	16,307	0,102	0,058
-370,015	-90,876	-0,027	-0,006
-369,000	-106,544	-0,168	-0,027
-367,985	423,576	0,023	-0,036
-366,971	278,161	0,038	0,049
-365,956	-95,079	0,089	-0,017
-364,942	6,985	0,082	0,044
-363,927	-27,789	-0,096	-0,040
-362,912	-112,050	0,091	0,013
-361,898	-30,938	0,131	0,054
-360,883	-200,000	-0,004	-0,134
-359,869	91,619	0,156	-0,127
-358,854	-200,000	0,004	0,084
-357,839	-169,986	-0,156	0,004
-356,825	133,311	0,073	0,068
-355,810	175,546	-0,094	-0,099
-354,796	24,496	-0,057	0,034
-353,781	-26,266	-0,135	-0,057
-352,766	-200,000	0,002	-0,039
-351,752	-146,948	-0,140	-0,009
-350,737	-56,827	-0,067	0,021
-349,723	417,173	-0,006	0,009
-348,708	121,964	-0,093	-0,084
-347,693	542,457	0,065	-0,113
-346,679	-200,000	-0,010	-0,037
-345,664	60,282	-0,013	-0,010
-344,650	424,482	-0,024	-0,038
-343,635	175,951	0,065	-0,069
-342,620	-13,864	0,047	0,022
-341,606	370,367	0,027	-0,040
-340,591	-59,392	0,037	0,011
-339,577	268,863	0,039	-0,050
-338,562	-67,909	-0,058	-0,016
-337,548	63,067	0,035	0,025
-336,533	-200,000	0,014	0,074
-335,518	-200,000	0,012	0,142
-334,504	401,329	-0,031	-0,047
-333,489	201,052	0,093	-0,103
-332,475	-119,721	-0,045	0,006
-331,460	-200,000	-0,011	0,110
-330,445	-200,000	0,005	-0,030
-329,431	-200,000	-0,012	-0,067
-328,416	-7,245	0,130	0,063
-327,402	541,745	-0,005	-0,009
-326,387	260,642	-0,025	0,032
-325,372	800,000	-0,028	0,085
-324,358	40,339	-0,058	0,037
-323,343	624,115	0,063	0,116
-322,329	-31,300	0,106	-0,043
-321,314	-200,000	-0,040	0,146
-320,299	800,000	-0,056	0,150
-319,285	16,190	-0,129	-0,073
-318,270	-34,703	0,037	0,015
-317,256	-138,457	-0,081	0,006
-316,241	19,728	0,118	-0,068
-315,226	301,575	-0,029	-0,039
-314,212	105,658	0,032	0,027
-313,197	-200,000	0,026	-0,106
-312,183	-200,000	-0,013	-0,059
-311,168	-60,697	0,091	-0,028
-310,153	800,000	-0,015	0,035
-309,139	-53,872	-0,071	0,023
-308,124	-43,348	0,074	-0,027
-307,110	7,696	0,180	0,097
-306,095	-41,103	0,031	0,011
-305,080	131,816	0,132	0,123
-304,066	-161,194	0,052	0,002
-303,051	-200,000	-0,012	-0,169
-302,037	-18,113	-0,036	-0,016
-301,022	-41,875	0,046	0,017
-300,008	-8,825	0,039	-0,019
-298,993	-73,032	-0,081	0,021
-297,978	288,675	0,017	-0,022
-296,964	86,695	0,050	0,040
-295,949	-200,000	-0,010	0,093
-294,935	-200,000	0,018	0,153
-293,920	800,000	-0,052	0,109
-292,905	-151,938	0,126	0,007
-291,891	-200,000	-0,007	0,167
-290,876	-200,000	-0,034	-0,138
-289,862	-200,000	-0,018	0,088
-288,847	396,978	-0,022	-0,034
-287,832	-200,000	-0,007	-0,062
-286,818	186,655	0,071	0,077
-285,803	55,592	-0,045	-0,031
-284,789	693,038	-0,032	0,060
-283,774	66,330	-0,118	0,087
-282,759	442,188	-0,079	0,125
-281,745	428,066	-0,074	0,116
-280,730	262,062	0,053	-0,067
-279,716	-200,000	-0,023	0,085
-278,701	800,000	0,043	0,092
-277,686	103,190	-0,014	0,012
-276,672	-200,000	0,014	0,058
-275,657	18,434	-0,039	0,022
-274,643	92,387	0,030	0,025
-273,628	73,137	-0,078	-0,059
-272,613	-200,000	0,005	-0,149
-271,599	800,000	0,015	-0,044
-270,584	800,000	-0,034	-0,106
-269,570	800,000	-0,054	0,122
-268,555	348,240	-0,006	0,009
-267,540	-200,000	0,001	0,009
-266,526	-116,851	-0,140	0,018
-265,511	-200,000	0,003	-0,061
-264,497	142,957	0,128	0,123
-263,482	800,000	0,034	0,084
-262,467	-200,000	-0,019	-0,096
-261,453	17,999	0,029	-0,017
-260,438	-200,000	-0,017	-0,143
-259,424	82,755	-0,017	0,013
-258,409	-200,000	0,021	-0,129
-257,395	-1,121	-0,079	-0,040
-256,380	-138,812	0,109	0,009
-255,365	-200,000	0,009	0,033
-254,351	49,922	-0,018	0,012
-253,336	73,227	-0,031	-0,023
-252,322	-200,000	0,008	-0,042
-251,307	800,000	0,025	-0,062
-250,292	190,153	0,069	0,075
-249,278	354,364	-0,057	0,082
-248,263	83,073	0,049	0,039
-247,249	158,911	-0,035	-0,035
-246,234	475,091	-0,026	-0,042
-245,219	1,208	-0,106	-0,055
-244,205	254,543	-0,092	-0,114
-243,190	246,744	0,030	0,037
-242,176	249,161	0,045	0,055
-241,161	385,863	-0,065	0,097
-240,146	45,329	0,075	-0,050
-239,132	-150,145	-0,143	0,008
-238,117	-60,190	0,053	-0,016
-237,103	-200,000	0,037	-0,172
-236,088	-200,000	-0,012	0,154
-235,073	281,117	-0,015	0,019
-234,059	54,838	-0,065	0,045
-233,044	-55,124	-0,120	0,039
-232,030	-95,474	-0,107	0,021
-231,015	77,037	-0,082	0,063
-230,000	-200,000	0,003	-0,066
-228,986	126,747	-0,032	0,029
-227,971	-200,000	-0,027	0,087
-226,957	-85,773	0,134	0,030
-225,942	-55,021	0,124	0,040
-224,927	800,000	0,039	0,085
-223,913	2,676	-0,080	-0,042
-222,898	-200,000	0,028	-0,093
-221,884	-61,550	0,052	0,016
-220,869	-200,000	0,017	-0,084
-219,855	-200,000	0,006	-0,134
-218,840	140,851	0,052	-0,050
-217,825	-200,000	0,010	-0,051
-216,811	-200,000	0,011	-0,093
-215,796	345,721	-0,056	-0,080
-214,782	611,603	-0,066	-0,120
-213,767	77,022	-0,072	0,055
-212,752	800,000	-0,031	-0,066
-211,738	5,633	0,153	0,081
-210,723	538,054	-0,034	0,058
-209,709	182,466	-0,183	-0,195
-208,694	198,799	-0,026	-0,029
-207,679	668,294	0,043	-0,081
-206,665	-1,432	0,089	-0,045
-205,650	11,231	0,073	0,040
-204,636	768,071	-0,004	-0,008
-203,621	-200,000	0,011	-0,044
-202,606	-200,000	-0,007	0,077
-201,592	-24,908	0,060	-0,025
-200,577	-21,398	-0,093	-0,041
-199,563	-200,000	0,007	0,096
-198,548	7,328	-0,042	-0,022
-197,533	155,886	-0,070	0,069
-196,519	281,584	0,111	-0,143
-195,504	-200,000	0,013	-0,046
-194,490	275,867	-0,036	-0,046
-193,475	-111,323	-0,060	-0,009
-192,460	-132,055	-0,070	-0,007
-191,446	117,393	0,144	0,128
-190,431	-200,000	-0,015	-0,066
-189,417	20,728	-0,029	0,017
-188,402	-200,000	0,020	0,083
-187,387	800,000	-0,034	-0,076
-186,373	-200,000	-0,008	-0,068
-185,358	-200,000	-0,032	0,211
-184,344	-200,000	0,007	-0,115
-183,329	-96,087	0,078	-0,015
-182,315	33,712	0,065	0,041
-181,300	38,186	-0,087	-0,056
-180,285	303,642	-0,117	-0,156
-179,271	194,005	-0,005	-0,005
-178,256	-11,459	0,041	-0,019
-177,242	734,304	0,015	-0,029
-176,227	-200,000	-0,027	0,140
-175,212	31,772	-0,104	0,064
-174,198	11,744	-0,101	0,056
-173,183	172,854	0,065	-0,068
-172,169	357,344	0,042	-0,060
-171,154	6,184	0,049	0,026
-170,139	800,000	-0,035	-0,073
-169,125	143,190	0,132	0,126
-168,110	800,000	-0,047	0,094
-167,096	-72,678	0,075	0,020
-166,081	376,247	-0,024	0,036
-165,066	128,585	-0,087	0,080
-164,052	-88,376	0,050	-0,011
-163,037	800,000	0,027	0,067
-162,023	348,090	0,028	-0,040
-161,008	-200,000	-0,091	0,000
-159,993	-200,000	-0,003	0,057
-158,979	280,635	0,046	-0,060
-157,964	-200,000	0,010	-0,095
-156,950	48,467	-0,102	0,069
-155,935	-83,703	0,051	0,012
-154,920	-105,751	0,099	0,016
-153,906	224,586	0,071	0,083
-152,891	318,499	-0,041	0,056
-151,877	150,468	0,102	0,100
-150,862	-7,296	-0,185	0,090
-149,847	-200,000	0,023	-0,210
-148,833	-23,247	0,032	-0,014
-147,818	253,340	0,054	0,067
-146,804	-123,537	0,130	-0,015
-145,789	-200,000	0,016	-0,144
-144,775	213,458	-0,093	-0,106
-143,760	138,800	-0,033	-0,031
-142,745	52,959	-0,046	0,032
-141,731	800,000	-0,056	0,173
-140,716	-200,000	-0,008	-0,105
-139,702	-200,000	-0,004	0,214
-138,687	-12,409	-0,030	0,014
-137,672	-85,601	0,022	-0,005
-136,658	86,080	-0,115	-0,091
-135,643	-20,740	-0,019	-0,008
-134,629	127,053	-0,100	-0,091
-133,614	-30,830	-0,057	-0,023
-132,599	381,804	-0,021	0,031
-131,585	380,334	-0,038	-0,057
-130,570	53,591	-0,016	0,011
-129,556	-200,000	0,019	-0,125
-128,541	165,748	0,023	0,023
-127,526	-24,836	-0,036	-0,015
-126,512	161,828	0,026	0,026
-125,497	-12,276	-0,091	-0,043
-124,483	-93,821	0,036	0,007
-123,468	255,992	0,075	-0,093
-122,453	70,181	0,047	-0,035
-121,439	263,552	0,158	0,198
-120,424	24,209	-0,137	-0,081
-119,410	-4,607	-0,042	0,021
