DTS Sentinel unit serial number:	SN410029Multiplexer serial number:	ORYXHardware model number:	OX2-SRSoftware version number:	ORYX F/W v4,00 Oryx Data Collector v3.7.2.0data status	okinstallation	B5 Nyhavnadifferential loss correction	single-endedforward channel	channel 2reverse channel	N/Adate	2023/12/13time	18:07:13forward acquisition time	300,00reverse acquisition time	0,00gamma	499,1914k internal	0,3159k external	0,3159temperature offset calibration	1,0000default loss term (dB/km)	0,3820temperature slope calibration	1,0000multiplexer offset coefficient	1,0000multiplexer slope coefficient	1,0000fibre end	0,00T internal ref (°C)	13,09T ext. ref 1 (°C)	-4,17T ext. ref 2 (°C)	-4,26length (m)	temperature (°C)	Stokes	anti-Stokes-744,400	-65,621	-0,034	-0,010
-743,385	-82,976	-0,395	-0,093
-742,371	-200,000	0,017	0,153
-741,356	-141,091	-0,308	-0,023
-740,342	-200,000	0,001	0,039
-739,327	-197,211	-0,190	0,001
-738,312	-136,295	0,136	-0,012
-737,298	-61,074	-0,212	-0,066
-736,283	-5,384	0,066	-0,034
-735,269	-131,762	-0,287	0,027
-734,254	153,399	0,031	0,031
-733,239	-40,968	-0,506	-0,192
-732,225	-166,460	0,116	0,004
-731,210	573,693	-0,073	0,132
-730,196	-200,000	-0,003	-0,155
-729,181	-16,415	-0,132	-0,062
-728,167	104,823	0,066	-0,057
-727,152	121,572	0,066	-0,060
-726,137	281,393	-0,016	-0,021
-725,123	100,011	-0,158	-0,135
-724,108	22,370	-0,152	0,091
-723,094	-22,848	-0,137	-0,061
-722,079	305,744	-0,043	0,059
-721,064	-200,000	0,020	0,082
-720,050	-200,000	-0,037	0,122
-719,035	11,735	-0,093	-0,053
-718,021	-79,838	-0,045	-0,011
-717,006	-40,599	-0,209	0,079
-715,991	89,766	-0,069	-0,056
-714,977	198,957	0,008	0,010
-713,962	-200,000	-0,047	0,183
-712,948	330,077	0,125	0,178
-711,933	47,027	0,057	0,039
-710,918	-55,692	-0,077	0,025
-709,904	-90,615	-0,135	-0,029
-708,889	107,427	-0,075	-0,065
-707,875	-200,000	0,009	-0,166
-706,860	400,386	0,043	0,066
-705,845	800,000	-0,014	0,034
-704,831	800,000	0,028	0,066
-703,816	800,000	-0,026	0,074
-702,802	28,553	0,024	-0,015
-701,787	157,446	-0,030	-0,031
-700,772	104,457	-0,048	0,042
-699,758	124,008	0,127	-0,118
-698,743	244,961	-0,031	-0,039
-697,729	-200,000	-0,038	0,159
-696,714	-200,000	-0,005	0,075
-695,699	249,569	-0,100	0,124
-694,685	-138,026	0,037	0,003
-693,670	-200,000	0,081	-0,268
-692,656	385,759	-0,067	-0,103
-691,641	800,000	0,014	0,039
-690,627	-200,000	-0,016	0,098
-689,612	178,808	-0,062	-0,066
-688,597	39,599	-0,134	0,088
-687,583	96,782	0,034	-0,029
-686,568	9,300	-0,037	-0,020
-685,554	173,784	-0,085	0,091
-684,539	-101,442	0,054	0,010
-683,524	57,793	-0,134	0,096
-682,510	800,000	-0,021	-0,047
-681,495	36,643	-0,134	-0,087
-680,481	411,813	0,016	0,025
-679,466	800,000	-0,024	-0,049
-678,451	-200,000	-0,048	-0,161
-677,437	800,000	-0,021	0,049
-676,422	800,000	0,014	-0,045
-675,408	-26,811	-0,129	0,055
-674,393	156,859	0,086	0,088
-673,378	5,255	-0,031	0,017
-672,364	-95,203	-0,030	-0,006
-671,349	-200,000	-0,004	-0,077
-670,335	9,090	-0,072	0,040
-669,320	-63,344	0,039	-0,012
-668,305	-200,000	0,008	0,084
-667,291	425,350	-0,107	0,170
-666,276	-200,000	0,012	-0,143
-665,262	-134,122	-0,153	-0,014
-664,247	185,554	0,083	-0,091
-663,232	-29,493	0,095	-0,040
-662,218	-200,000	-0,008	-0,080
-661,203	-145,861	-0,063	-0,004
-660,189	-39,408	0,100	0,038
-659,174	214,787	-0,108	-0,126
-658,159	-111,124	-0,038	0,006
-657,145	363,326	-0,053	-0,078
-656,130	260,157	0,051	0,065
-655,116	-104,369	0,116	-0,019
-654,101	462,351	-0,043	-0,071
-653,086	616,630	-0,043	0,080
-652,072	800,000	-0,037	-0,106
-651,057	800,000	-0,009	-0,027
-650,043	800,000	-0,029	-0,061
-649,028	4,003	-0,075	0,040
-648,014	156,505	0,045	-0,046
-646,999	276,255	-0,026	0,034
-645,984	82,854	-0,126	-0,100
-644,970	180,468	-0,060	-0,064
-643,955	800,000	-0,032	-0,085
-642,941	800,000	-0,022	-0,065
-641,926	-127,623	0,092	-0,010
-640,911	-132,236	-0,062	0,006
-639,897	-200,000	0,026	0,121
-638,882	116,645	0,084	0,076
-637,868	43,989	-0,014	-0,010
-636,853	17,775	-0,134	-0,078
-635,838	230,549	-0,070	-0,084
-634,824	641,743	0,054	0,101
-633,809	-141,365	0,147	-0,011
-632,795	56,378	0,012	-0,008
-631,780	-116,667	0,060	0,008
-630,765	800,000	-0,028	0,077
-629,751	128,098	-0,150	-0,140
-628,736	8,929	-0,132	-0,073
-627,722	-44,774	0,110	0,040
-626,707	258,523	-0,088	0,111
-625,692	35,806	-0,141	-0,091
-624,678	21,109	-0,066	0,039
-623,663	84,666	-0,050	0,040
-622,649	422,474	-0,073	-0,116
-621,634	-58,185	0,080	0,025
-620,619	-59,648	0,071	-0,022
-619,605	78,368	-0,098	-0,077
-618,590	525,824	0,031	-0,054
-617,576	367,586	-0,016	-0,023
-616,561	800,000	-0,017	0,038
-615,546	306,209	0,023	0,032
-614,532	352,555	-0,026	0,038
-613,517	246,694	-0,015	0,019
-612,503	414,926	0,082	0,128
-611,488	210,824	0,053	0,062
-610,474	480,706	-0,011	-0,019
-609,459	-109,960	-0,099	0,015
-608,444	184,810	0,025	0,027
-607,430	-200,000	0,017	-0,121
-606,415	-200,000	-0,001	0,007
-605,401	303,975	-0,066	0,090
-604,386	103,061	0,101	0,087
-603,371	800,000	0,040	0,102
-602,357	-119,777	-0,144	0,018
-601,342	-200,000	0,017	0,057
-600,328	-17,332	-0,078	-0,036
-599,313	211,214	-0,018	-0,021
-598,298	-53,038	0,079	0,027
-597,284	-84,805	-0,030	-0,007
-596,269	-29,942	0,057	-0,024
-595,255	-28,479	0,048	0,020
-594,240	25,331	-0,122	-0,074
-593,225	800,000	0,016	0,047
-592,211	-131,028	-0,078	0,008
-591,196	19,376	0,118	-0,070
-590,182	75,329	-0,144	-0,111
-589,167	-84,604	0,126	-0,029
-588,152	-200,000	0,011	0,095
-587,138	271,853	0,129	0,167
-586,123	-200,000	-0,039	0,153
-585,109	169,945	0,132	-0,139
-584,094	-51,150	-0,250	0,085
-583,079	-200,000	0,030	-0,145
-582,065	260,144	-0,038	-0,048
-581,050	800,000	0,011	-0,034
-580,036	800,000	-0,064	-0,136
-579,021	402,612	-0,058	-0,090
-578,006	-92,270	0,095	0,019
-576,992	-16,689	0,017	-0,008
-575,977	52,403	-0,114	0,080
-574,963	-57,756	-0,041	0,013
-573,948	-200,000	-0,010	0,106
-572,934	98,076	-0,095	-0,080
-571,919	-116,488	-0,164	0,022
-570,904	-183,446	-0,026	-0,000
-569,890	6,019	-0,175	-0,095
-568,875	180,194	-0,049	0,053
-567,861	-55,130	0,207	0,068
-566,846	-55,049	0,094	0,031
-565,831	-90,883	0,123	-0,026
-564,817	800,000	-0,028	-0,079
-563,802	405,175	0,083	-0,128
-562,788	-200,000	-0,003	-0,060
-561,773	16,831	0,055	-0,032
-560,758	139,698	-0,021	-0,021
-559,744	572,139	-0,042	0,075
-558,729	-200,000	0,018	0,149
-557,715	691,330	0,065	0,126
-556,700	122,940	0,055	0,051
-555,685	-49,717	0,085	-0,030
-554,671	6,503	0,032	0,017
-553,656	29,657	0,046	-0,029
-552,642	-200,000	-0,007	0,088
-551,627	-200,000	0,016	0,064
-550,612	-77,152	-0,128	-0,032
-549,598	-138,474	-0,082	-0,007
-548,583	-25,293	-0,031	-0,013
-547,569	-200,000	0,011	0,076
-546,554	-117,927	0,110	-0,014
-545,539	84,220	-0,020	0,016
-544,525	-200,000	0,012	0,044
-543,510	-154,349	0,133	0,006
-542,496	-200,000	0,021	-0,155
-541,481	-200,000	0,009	-0,055
-540,466	-18,730	-0,005	-0,002
-539,452	326,940	-0,025	-0,035
-538,437	-10,907	-0,029	-0,014
-537,423	467,919	0,077	0,126
-536,408	-127,710	-0,055	-0,006
-535,393	-200,000	-0,006	-0,095
-534,379	-99,131	0,029	0,005
-533,364	63,416	0,050	0,036
-532,350	-200,000	-0,013	-0,055
-531,335	-119,417	0,123	-0,015
-530,321	800,000	-0,034	0,105
-529,306	-200,000	-0,001	0,040
-528,291	-81,390	0,058	-0,014
-527,277	138,754	-0,094	-0,090
-526,262	-200,000	0,001	0,085
-525,248	-130,551	-0,079	0,008
-524,233	-200,000	0,048	0,160
-523,218	-200,000	0,000	0,006
-522,204	389,457	-0,046	-0,070
-521,189	-200,000	-0,025	-0,084
-520,175	-55,766	-0,246	0,080
-519,160	53,627	-0,117	0,082
-518,145	-147,085	0,186	0,011
-517,131	18,687	0,046	-0,027
-516,116	-95,354	0,016	0,003
-515,102	217,851	0,057	-0,067
-514,087	-11,112	-0,083	0,040
-513,072	800,000	0,042	-0,129
-512,058	411,583	-0,055	-0,086
-511,043	332,342	0,092	-0,130
-510,029	-104,649	0,066	-0,011
-509,014	749,520	-0,045	0,089
-507,999	-121,790	0,133	0,016
-506,985	-85,611	-0,136	-0,031
-505,970	-200,000	0,014	-0,057
-504,956	-53,645	0,116	0,038
-503,941	446,246	0,044	0,071
-502,926	-158,954	0,107	0,004
-501,912	-157,878	-0,099	-0,004
-500,897	-200,000	0,009	0,130
-499,883	-200,000	-0,022	-0,074
-498,868	-121,229	-0,021	-0,003
-497,853	52,992	-0,139	-0,097
-496,839	-76,551	0,100	-0,026
-495,824	800,000	0,044	0,095
-494,810	751,249	0,038	0,075
-493,795	-200,000	-0,003	0,103
-492,781	-200,000	0,019	-0,068
-491,766	-10,082	0,025	-0,012
-490,751	-200,000	-0,011	-0,181
-489,737	-200,000	-0,010	0,095
-488,722	423,304	0,035	0,055
-487,708	505,773	-0,047	0,080
-486,693	-200,000	0,008	0,057
-485,678	-200,000	0,006	-0,053
-484,664	-46,666	-0,160	-0,057
-483,649	177,596	0,115	0,122
-482,635	-113,650	-0,042	-0,006
-481,620	16,235	0,015	0,008
-480,605	60,669	0,106	-0,077
-479,591	657,328	0,081	0,153
-478,576	800,000	0,034	0,081
-477,562	-76,909	0,072	-0,018
-476,547	-93,423	-0,101	0,020
-475,532	-98,381	-0,102	-0,019
-474,518	-128,989	0,075	-0,008
-473,503	404,521	-0,023	-0,036
-472,489	-200,000	0,046	0,150
-471,474	78,937	-0,153	-0,119
-470,459	117,357	0,020	-0,018
-469,445	-126,655	-0,034	0,004
-468,430	196,842	-0,126	-0,140
-467,416	-200,000	-0,015	-0,081
-466,401	69,228	-0,036	-0,027
-465,386	800,000	0,021	-0,053
-464,372	184,217	-0,018	-0,019
-463,357	-100,972	0,038	0,007
-462,343	214,213	-0,118	-0,136
-461,328	-29,685	-0,023	-0,009
-460,313	800,000	0,044	-0,096
-459,299	15,826	0,040	0,023
-458,284	-36,621	0,120	-0,047
-457,270	800,000	0,048	0,144
-456,255	185,431	-0,091	0,099
-455,241	192,745	-0,160	0,176
-454,226	530,811	-0,022	-0,038
-453,211	-10,942	0,060	0,029
-452,197	86,351	0,117	0,094
-451,182	-200,000	-0,005	0,131
-450,168	-200,000	0,001	0,017
-449,153	-200,000	0,009	0,049
-448,138	-200,000	0,013	-0,163
-447,124	-200,000	-0,004	-0,013
-446,109	-33,963	-0,056	-0,022
-445,095	800,000	0,056	-0,114
-444,080	-20,879	0,095	0,042
-443,065	625,941	-0,083	0,152
-442,051	92,466	0,088	0,072
-441,036	132,468	-0,052	-0,048
-440,022	800,000	-0,044	0,107
-439,007	311,040	-0,061	0,083
-437,992	65,509	-0,050	0,037
-436,978	22,507	-0,038	-0,022
-435,963	20,757	-0,083	0,049
-434,949	-139,315	0,109	-0,008
-433,934	-49,526	-0,142	-0,049
-432,919	8,135	0,094	0,051
-431,905	787,106	0,071	-0,143
-430,890	-200,000	-0,016	0,072
-429,876	-66,931	-0,086	-0,025
-428,861	-4,197	0,072	0,036
-427,846	-200,000	0,028	0,126
-426,832	344,232	-0,018	0,026
-425,817	80,495	-0,066	-0,052
-424,803	-15,257	0,110	-0,051
-423,788	149,884	0,071	-0,070
-422,773	-57,304	0,210	0,067
-421,759	-200,000	0,002	0,041
-420,744	-200,000	-0,006	-0,052
-419,730	77,958	-0,044	-0,034
-418,715	-200,000	-0,003	0,012
-417,701	18,430	-0,157	0,091
-416,686	-102,602	-0,100	0,017
-415,671	800,000	-0,008	-0,023
-414,657	730,402	0,083	0,162
-413,642	65,801	0,099	0,073
-412,628	-29,924	-0,072	-0,030
-411,613	-200,000	0,006	0,027
-410,598	-200,000	0,008	0,089
-409,584	-114,625	-0,063	0,009
-408,569	-200,000	-0,041	0,134
-407,555	128,481	-0,114	0,106
-406,540	251,894	-0,034	-0,042
-405,525	30,855	0,020	-0,012
-404,511	88,882	0,042	-0,034
-403,496	800,000	0,021	-0,044
-402,482	-103,364	-0,129	-0,022
-401,467	71,549	0,064	-0,048
-400,452	123,563	0,138	-0,126
-399,438	555,591	-0,056	0,098
-398,423	178,848	-0,052	0,056
-397,409	800,000	-0,035	0,089
-396,394	168,326	-0,048	0,049
-395,379	-14,713	0,038	-0,018
-394,365	147,812	0,055	-0,054
-393,350	10,389	0,029	0,016
-392,336	327,540	-0,024	0,033
-391,321	-112,263	-0,177	0,026
-390,306	-9,392	0,095	0,046
-389,292	-200,000	-0,008	-0,130
-388,277	239,701	-0,027	-0,033
-387,263	-200,000	0,023	-0,106
-386,248	-16,177	-0,038	-0,017
-385,233	-21,495	0,093	-0,041
-384,219	-78,076	-0,047	0,012
-383,204	-6,765	-0,044	-0,022
-382,190	85,115	0,088	0,070
-381,175	-200,000	0,019	0,074
-380,160	-200,000	-0,005	0,076
-379,146	-200,000	-0,007	-0,027
-378,131	27,344	-0,054	-0,033
-377,117	-200,000	-0,025	0,111
-376,102	0,041	-0,051	-0,026
-375,088	461,970	-0,113	-0,183
-374,073	4,290	0,104	-0,055
-373,058	-200,000	-0,013	0,045
-372,044	-65,505	0,054	0,016
-371,029	794,120	0,022	0,044
-370,015	800,000	0,009	-0,019
-369,000	-200,000	-0,022	-0,093
-367,985	78,106	0,022	-0,017
-366,971	114,862	0,078	-0,069
-365,956	129,989	-0,067	-0,063
-364,942	-60,060	0,143	-0,044
-363,927	-115,335	-0,053	-0,007
-362,912	3,631	0,062	0,033
-361,898	-110,943	-0,111	-0,016
-360,883	185,463	0,035	0,038
-359,869	-200,000	0,013	0,059
-358,854	66,535	-0,026	-0,019
-357,839	6,216	-0,125	0,067
-356,825	-3,152	0,098	-0,050
-355,810	338,628	0,083	0,118
-354,796	-200,000	-0,012	-0,096
-353,781	800,000	0,038	-0,109
-352,766	800,000	0,026	-0,062
-351,752	-78,846	-0,054	-0,013
-350,737	513,585	0,081	0,137
-349,723	31,687	-0,119	-0,074
-348,708	800,000	-0,036	0,093
-347,693	17,441	0,133	-0,076
-346,679	-44,475	0,083	-0,030
-345,664	-90,331	-0,250	0,052
-344,650	175,635	0,080	0,085
-343,635	205,977	-0,090	0,101
-342,620	120,467	0,076	0,068
-341,606	-106,194	0,087	-0,014
-340,591	799,712	-0,040	0,081
-339,577	317,958	-0,099	0,137
-338,562	85,368	0,143	-0,114
-337,548	115,800	0,067	0,059
-336,533	-200,000	0,007	0,061
-335,518	26,704	0,022	0,014
-334,504	165,017	-0,071	0,073
-333,489	-200,000	-0,019	-0,071
-332,475	233,698	0,070	-0,084
-331,460	-200,000	0,008	-0,045
-330,445	-50,566	0,123	0,042
-329,431	-3,205	-0,099	-0,050
-328,416	-23,415	-0,096	-0,042
-327,402	-70,143	-0,082	-0,022
-326,387	-200,000	-0,019	-0,185
-325,372	-43,004	0,009	-0,003
-324,358	800,000	-0,027	0,055
-323,343	75,086	0,053	-0,040
-322,329	-200,000	0,013	-0,080
-321,314	453,483	-0,029	0,047
-320,299	586,544	0,047	0,084
-319,285	-106,992	0,011	0,002
-318,270	-200,000	0,000	-0,009
-317,256	-200,000	-0,009	-0,083
-316,241	-48,636	-0,111	0,039
-315,226	226,344	0,052	0,062
-314,212	-65,752	0,055	-0,016
-313,197	-200,000	0,030	0,127
-312,183	483,249	-0,062	0,102
-311,168	800,000	-0,060	-0,148
-310,153	800,000	-0,026	-0,065
-309,139	-200,000	-0,029	-0,119
-308,124	800,000	-0,034	-0,079
-307,110	124,523	-0,017	-0,016
-306,095	480,705	-0,093	0,154
-305,080	-112,873	-0,075	-0,011
-304,066	54,205	0,047	0,033
-303,051	398,767	0,003	0,004
-302,037	-3,436	-0,108	-0,054
-301,022	411,625	0,023	-0,035
-300,008	107,571	0,024	0,020
-298,993	143,029	0,080	0,077
-297,978	-34,673	0,042	0,017
-296,964	800,000	-0,019	-0,050
-295,949	-200,000	-0,016	-0,064
-294,935	393,934	-0,046	0,070
-293,920	46,728	0,073	0,049
-292,905	-200,000	0,015	-0,107
-291,891	60,676	0,146	0,105
-290,876	-126,510	0,078	0,008
-289,862	182,963	-0,130	-0,139
-288,847	-13,801	-0,125	0,058
-287,832	71,684	0,080	-0,060
-286,818	-180,835	-0,113	0,002
-285,803	-200,000	0,021	0,083
-284,789	-11,347	0,060	0,028
-283,774	108,086	0,104	0,090
-282,759	800,000	-0,019	0,058
-281,745	512,650	-0,020	-0,034
-280,730	-17,993	0,170	-0,077
-279,716	324,750	-0,028	-0,038
-278,701	-200,000	0,020	-0,106
-277,686	327,051	0,023	0,031
-276,672	41,223	-0,066	-0,043
-275,657	-65,977	0,052	0,015
-274,643	110,079	-0,072	-0,063
-273,628	-110,179	0,040	-0,006
-272,613	135,268	0,046	-0,043
-271,599	-200,000	0,013	0,050
-270,584	-25,342	0,110	0,047
-269,570	-95,077	-0,070	0,014
-268,555	-56,432	0,094	-0,030
-267,540	167,116	0,038	-0,039
-266,526	-57,578	0,060	-0,019
-265,511	-139,225	-0,081	0,006
-264,497	-200,000	0,033	-0,241
-263,482	-200,000	0,029	-0,231
-262,467	-43,559	0,124	0,045
-261,453	-43,547	-0,023	0,008
-260,438	-125,222	0,087	-0,010
-259,424	209,744	0,059	-0,068
-258,409	-36,905	0,194	-0,075
-257,395	291,429	-0,064	0,085
-256,380	800,000	-0,022	-0,047
-255,365	223,698	0,082	0,096
-254,351	174,772	-0,041	0,043
-253,336	37,169	-0,119	-0,076
-252,322	255,019	-0,031	0,039
-251,307	268,681	0,041	-0,052
-250,292	-169,581	-0,067	0,002
-249,278	-200,000	-0,003	-0,018
-248,263	-108,937	-0,136	-0,021
-247,249	-200,000	0,014	-0,090
-246,234	46,941	0,070	0,047
-245,219	6,148	-0,039	-0,021
-244,205	-200,000	0,012	-0,162
-243,190	122,609	0,068	0,061
-242,176	-109,957	0,081	0,012
-241,161	-200,000	-0,008	0,073
-240,146	-130,200	0,059	0,006
-239,132	-52,301	0,018	-0,006
-238,117	296,712	-0,060	0,080
-237,103	192,826	-0,063	-0,069
-236,088	-200,000	0,020	0,075
-235,073	-4,920	0,094	0,046
-234,059	-200,000	0,016	0,110
-233,044	-127,875	-0,084	0,009
-232,030	50,886	-0,028	0,019
-231,015	651,979	0,063	-0,117
-230,000	-200,000	0,003	-0,076
-228,986	-17,151	-0,089	0,040
-227,971	41,990	0,144	-0,094
-226,957	-200,000	0,006	0,163
-225,942	-114,334	-0,017	0,002
-224,927	188,614	0,013	0,014
-223,913	-200,000	0,016	0,052
-222,898	-200,000	-0,012	-0,145
-221,884	627,657	-0,050	-0,092
-220,869	-179,652	0,166	0,003
-219,855	800,000	-0,024	0,068
-218,840	800,000	-0,071	0,195
-217,825	180,947	0,084	0,089
-216,811	-200,000	0,011	-0,098
-215,796	-200,000	0,000	-0,063
-214,782	-200,000	-0,019	-0,205
-213,767	-111,951	-0,027	0,004
-212,752	-80,330	-0,051	-0,012
-211,738	-155,856	-0,105	0,005
-210,723	-200,000	0,015	0,055
-209,709	-50,778	-0,143	-0,048
-208,694	14,563	-0,076	-0,042
-207,679	38,090	-0,059	-0,038
-206,665	35,650	-0,162	-0,102
-205,650	-125,809	0,179	-0,019
-204,636	-99,266	-0,104	0,019
-203,621	100,971	-0,127	-0,107
-202,606	800,000	-0,037	0,095
-201,592	-10,090	-0,019	-0,009
-200,577	800,000	0,043	-0,096
-199,563	-35,710	-0,026	0,010
-198,548	-88,546	0,104	0,022
-197,533	-84,341	0,057	-0,013
-196,519	-200,000	0,007	0,061
-195,504	57,954	-0,131	0,092
-194,490	-65,502	-0,132	-0,038
-193,475	-3,532	-0,025	0,012
-192,460	696,150	0,059	0,112
-191,446	-200,000	0,012	0,123
-190,431	-28,412	0,125	-0,052
-189,417	800,000	0,011	-0,029
-188,402	-87,663	0,107	-0,023
-187,387	-200,000	-0,011	-0,088
-186,373	-200,000	0,009	-0,053
-185,358	185,948	-0,049	-0,052
-184,344	-200,000	-0,002	0,075
-183,329	154,753	0,025	-0,024
-182,315	-25,900	0,119	0,050
-181,300	164,946	0,064	-0,065
-180,285	-200,000	0,030	0,131
-179,271	-109,494	0,053	-0,008
-178,256	-179,349	-0,059	0,001
-177,242	-14,176	-0,025	-0,012
-176,227	-88,383	0,127	0,027
-175,212	72,842	0,032	0,024
-174,198	177,361	-0,033	0,034
-173,183	-200,000	0,004	-0,106
-172,169	800,000	-0,030	-0,079
-171,154	666,553	-0,049	0,092
-170,139	-200,000	-0,006	0,038
-169,125	800,000	0,047	0,115
-168,110	97,742	0,132	0,109
-167,096	-44,129	-0,044	-0,016
-166,081	40,972	-0,146	-0,095
-165,066	361,613	-0,025	-0,037
-164,052	800,000	-0,011	-0,024
-163,037	-115,553	0,100	0,013
-162,023	135,990	-0,074	0,069
-161,008	800,000	-0,027	-0,083
-159,993	70,517	0,067	0,050
-158,979	157,797	0,074	-0,074
-157,964	-7,883	0,141	-0,068
-156,950	187,272	-0,066	0,071
-155,935	800,000	0,076	-0,177
-154,920	17,908	-0,077	-0,044
-153,906	31,679	0,123	0,076
-152,891	202,595	0,013	0,015
-151,877	-200,000	-0,009	-0,148
-150,862	696,430	0,004	0,008
-149,847	170,991	0,051	0,053
-148,833	-200,000	-0,022	0,074
-147,818	-87,736	0,101	0,022
-146,804	139,726	0,065	0,062
-145,789	129,316	0,061	0,056
-144,775	213,937	0,039	-0,045
-143,760	613,849	-0,025	0,045
-142,745	-200,000	-0,005	-0,079
-141,731	-200,000	-0,006	-0,071
-140,716	776,720	-0,062	-0,122
-139,702	-200,000	-0,005	0,044
-138,687	-52,752	0,075	-0,025
-137,672	-79,933	-0,102	0,025
-136,658	224,026	-0,095	0,111
-135,643	-166,636	0,076	-0,002
-134,629	-52,019	0,148	0,049
-133,614	800,000	0,035	-0,074
-132,599	49,012	0,113	-0,076
-131,585	-119,495	0,033	0,004
-130,570	-177,585	-0,076	0,001
-129,556	-200,000	-0,013	0,063
-128,541	-200,000	-0,017	-0,118
-127,526	232,716	-0,008	-0,010
-126,512	606,862	0,047	0,084
-125,497	-200,000	0,010	0,074
-124,483	101,626	-0,064	-0,054
-123,468	-23,727	-0,120	0,051
-122,453	800,000	-0,026	-0,072
-121,439	-153,601	-0,209	0,010
-120,424	245,614	0,099	-0,120
-119,410	544,373	0,003	0,006
