DTS Sentinel unit serial number:	SN410029Multiplexer serial number:	ORYXHardware model number:	OX2-SRSoftware version number:	ORYX F/W v4,00 Oryx Data Collector v3.7.2.0data status	okinstallation	B5 Nyhavnadifferential loss correction	single-endedforward channel	channel 2reverse channel	N/Adate	2023/12/12time	00:32:13forward acquisition time	300,00reverse acquisition time	0,00gamma	499,1914k internal	0,3155k external	0,3155temperature offset calibration	1,0000default loss term (dB/km)	0,3820temperature slope calibration	1,0000multiplexer offset coefficient	1,0000multiplexer slope coefficient	1,0000fibre end	0,00T internal ref (°C)	16,09T ext. ref 1 (°C)	-0,31T ext. ref 2 (°C)	-0,61length (m)	temperature (°C)	Stokes	anti-Stokes-744,400	-143,364	0,046	-0,003
-743,385	-186,952	-0,274	0,003
-742,371	800,000	-0,008	0,018
-741,356	-72,314	-0,200	0,054
-740,342	-30,029	0,143	-0,060
-739,327	-63,444	-0,303	0,091
-738,312	-148,754	0,034	0,002
-737,298	-52,159	-0,295	0,100
-736,283	-46,220	0,043	0,016
-735,269	-55,270	-0,298	0,098
-734,254	-200,000	0,053	0,203
-733,239	-57,624	-0,373	-0,120
-732,225	44,654	0,184	0,124
-731,210	-200,000	0,037	0,172
-730,196	-200,000	0,014	0,080
-729,181	-28,305	0,072	-0,030
-728,167	226,963	0,062	-0,074
-727,152	664,688	0,022	-0,041
-726,137	24,904	-0,109	0,067
-725,123	-200,000	-0,016	0,141
-724,108	800,000	-0,023	0,065
-723,094	36,858	-0,159	-0,103
-722,079	173,926	-0,062	-0,066
-721,064	-90,765	0,064	-0,013
-720,050	-63,106	0,099	0,030
-719,035	162,499	0,021	0,021
-718,021	-200,000	0,001	-0,040
-717,006	229,843	0,047	-0,057
-715,991	107,070	0,056	-0,049
-714,977	107,437	-0,107	-0,094
-713,962	77,597	0,016	0,012
-712,948	183,656	0,061	-0,066
-711,933	129,811	0,074	0,070
-710,918	616,640	-0,035	0,065
-709,904	-69,152	-0,058	-0,016
-708,889	510,402	-0,035	-0,060
-707,875	201,161	0,041	-0,047
-706,860	-21,049	-0,107	0,048
-705,845	-144,339	0,041	-0,003
-704,831	428,944	0,087	0,138
-703,816	58,526	-0,091	0,066
-702,802	-156,339	0,120	0,005
-701,787	-200,000	-0,013	-0,101
-700,772	40,731	0,050	-0,033
-699,758	800,000	-0,049	-0,124
-698,743	-122,777	0,168	-0,020
-697,729	312,334	0,055	-0,076
-696,714	-200,000	-0,024	0,100
-695,699	-200,000	-0,003	-0,097
-694,685	619,163	-0,062	-0,116
-693,670	-137,099	0,050	-0,004
-692,656	-200,000	-0,001	0,029
-691,641	69,475	0,116	-0,088
-690,627	-68,345	-0,149	0,042
-689,612	483,771	-0,018	-0,030
-688,597	-94,402	-0,071	0,014
-687,583	391,279	-0,085	-0,131
-686,568	800,000	-0,014	-0,030
-685,554	-46,814	-0,117	0,042
-684,539	34,175	-0,089	0,057
-683,524	-139,960	-0,031	0,002
-682,510	-64,279	0,019	-0,006
-681,495	314,514	-0,067	0,093
-680,481	151,281	0,028	0,029
-679,466	147,461	0,071	0,071
-678,451	544,286	0,042	-0,074
-677,437	800,000	0,041	0,103
-676,422	-39,088	-0,057	0,022
-675,408	-74,668	-0,122	-0,032
-674,393	-200,000	0,008	-0,087
-673,378	235,466	-0,028	-0,034
-672,364	44,125	0,118	0,079
-671,349	-20,843	-0,083	0,038
-670,335	-113,843	0,236	-0,033
-669,320	-200,000	-0,010	0,075
-668,305	-200,000	-0,021	0,118
-667,291	-200,000	-0,024	-0,078
-666,276	-28,125	-0,087	0,037
-665,262	80,395	-0,048	0,038
-664,247	68,764	-0,123	0,093
-663,232	-28,997	-0,119	-0,050
-662,218	-200,000	-0,003	0,149
-661,203	-115,089	0,028	0,004
-660,189	800,000	-0,036	0,101
-659,174	182,375	-0,106	-0,115
-658,159	-200,000	0,017	-0,063
-657,145	-91,368	-0,125	-0,026
-656,130	581,405	0,057	-0,103
-655,116	167,524	-0,050	0,052
-654,101	292,578	0,107	-0,144
-653,086	14,671	-0,144	0,082
-652,072	163,213	-0,076	0,079
-651,057	-46,825	-0,044	-0,016
-650,043	151,566	-0,051	0,052
-649,028	-30,294	0,068	-0,028
-648,014	800,000	0,044	-0,122
-646,999	-200,000	-0,007	0,138
-645,984	-20,082	0,051	-0,023
-644,970	-41,552	-0,125	0,047
-643,955	-200,000	0,000	-0,124
-642,941	106,437	-0,044	-0,038
-641,926	-200,000	-0,007	-0,024
-640,911	800,000	-0,062	0,185
-639,897	800,000	-0,050	0,114
-638,882	-200,000	0,012	0,101
-637,868	-73,062	-0,042	0,011
-636,853	34,716	-0,022	-0,014
-635,838	-200,000	0,019	-0,085
-634,824	437,606	-0,018	-0,029
-633,809	634,673	-0,022	-0,041
-632,795	5,378	0,118	0,064
-631,780	-43,691	-0,117	-0,043
-630,765	-131,071	0,089	-0,009
-629,751	157,176	-0,080	-0,082
-628,736	800,000	0,005	-0,013
-627,722	-0,364	-0,048	-0,025
-626,707	24,206	-0,038	-0,023
-625,692	220,944	0,045	0,053
-624,678	82,650	-0,094	0,075
-623,663	-60,295	0,108	0,034
-622,649	-200,000	-0,007	0,095
-621,634	36,277	-0,037	-0,024
-620,619	800,000	0,048	-0,136
-619,605	30,678	0,085	-0,054
-618,590	800,000	0,013	-0,041
-617,576	55,076	-0,007	0,005
-616,561	-143,414	-0,141	0,010
-615,546	-84,836	0,100	-0,023
-614,532	42,918	-0,045	-0,030
-613,517	-200,000	-0,011	-0,037
-612,503	-3,765	0,044	-0,023
-611,488	-32,123	-0,048	0,019
-610,474	383,511	0,032	-0,048
-609,459	-4,257	0,050	-0,025
-608,444	-67,793	-0,034	-0,010
-607,430	-128,083	-0,147	0,015
-606,415	-200,000	0,012	0,060
-605,401	642,759	0,035	0,065
-604,386	-200,000	0,023	0,077
-603,371	-200,000	0,029	0,120
-602,357	-200,000	0,042	-0,139
-601,342	800,000	-0,011	-0,034
-600,328	-166,594	0,066	0,002
-599,313	-200,000	0,000	-0,049
-598,298	559,033	0,039	-0,069
-597,284	253,534	0,093	-0,116
-596,269	800,000	-0,008	-0,018
-595,255	-32,365	0,088	0,036
-594,240	800,000	0,051	-0,140
-593,225	16,833	0,017	-0,010
-592,211	612,502	0,067	-0,124
-591,196	800,000	0,017	-0,048
-590,182	-125,122	0,159	0,018
-589,167	-53,363	-0,024	0,008
-588,152	705,551	-0,036	-0,070
-587,138	-151,287	-0,163	0,009
-586,123	800,000	0,025	-0,055
-585,109	9,304	0,031	0,017
-584,094	513,510	-0,074	0,127
-583,079	-10,517	-0,029	0,014
-582,065	-84,553	0,113	-0,026
-581,050	-36,322	-0,081	-0,032
-580,036	80,119	0,051	-0,040
-579,021	-28,496	0,061	0,026
-578,006	-138,850	-0,299	-0,024
-576,992	-80,688	-0,175	-0,042
-575,977	-122,507	-0,103	-0,012
-574,963	-200,000	0,015	0,073
-573,948	75,948	-0,100	0,077
-572,934	279,415	0,022	-0,029
-571,919	31,080	0,029	-0,018
-570,904	232,726	0,037	-0,045
-569,890	800,000	-0,056	0,121
-568,875	110,372	-0,058	0,051
-567,861	-90,119	0,149	-0,031
-566,846	2,154	0,084	0,044
-565,831	-17,084	-0,074	-0,034
-564,817	-85,265	0,076	-0,017
-563,802	-34,307	-0,028	0,011
-562,788	800,000	-0,021	-0,049
-561,773	-51,548	-0,086	-0,029
-560,758	-92,875	0,066	0,013
-559,744	800,000	0,053	0,108
-558,729	179,812	0,035	-0,038
-557,715	400,250	-0,076	-0,117
-556,700	162,935	-0,044	0,045
-555,685	-200,000	0,005	-0,030
-554,671	124,742	0,049	0,045
-553,656	-77,021	0,205	-0,052
-552,642	-162,813	-0,132	-0,005
-551,627	18,345	-0,008	-0,005
-550,612	-33,901	0,054	-0,022
-549,598	-200,000	-0,007	-0,082
-548,583	-200,000	-0,007	-0,033
-547,569	-72,496	-0,028	-0,008
-546,554	800,000	0,036	-0,086
-545,539	325,927	0,026	0,037
-544,525	104,971	0,085	-0,074
-543,510	285,932	0,096	0,127
-542,496	241,468	-0,039	-0,048
-541,481	140,478	0,057	0,055
-540,466	-200,000	0,008	-0,089
-539,452	800,000	-0,034	0,072
-538,437	-200,000	-0,005	0,072
-537,423	268,408	0,082	0,105
-536,408	4,611	0,038	0,020
-535,393	-200,000	0,037	0,141
-534,379	-137,406	-0,142	-0,012
-533,364	-146,398	-0,117	0,007
-532,350	800,000	0,066	0,148
-531,335	-200,000	0,015	0,124
-530,321	-17,387	0,159	0,073
-529,306	50,983	-0,102	0,071
-528,291	-200,000	-0,007	-0,069
-527,277	221,071	-0,014	-0,017
-526,262	-200,000	-0,017	-0,056
-525,248	436,637	0,046	-0,074
-524,233	-178,106	0,085	0,001
-523,218	-187,917	0,160	-0,001
-522,204	445,633	-0,066	0,107
-521,189	-200,000	-0,023	-0,155
-520,175	114,512	0,054	0,048
-519,160	-17,926	-0,164	0,075
-518,145	-200,000	0,007	0,049
-517,131	-97,197	0,055	-0,010
-516,116	64,567	0,054	-0,039
-515,102	-84,978	0,036	-0,008
-514,087	550,803	-0,046	-0,081
-513,072	-141,476	0,078	0,006
-512,058	-40,177	0,186	0,071
-511,043	480,976	-0,071	-0,119
-510,029	226,011	-0,087	0,103
-509,014	-98,916	0,050	0,009
-507,999	579,142	0,038	0,069
-506,985	573,364	-0,028	0,050
-505,970	105,865	-0,043	-0,037
-504,956	800,000	-0,046	-0,114
-503,941	-53,609	-0,158	-0,052
-502,926	800,000	0,041	0,116
-501,912	-75,178	0,077	-0,020
-500,897	-200,000	-0,006	0,098
-499,883	32,845	-0,086	0,055
-498,868	-200,000	0,026	-0,141
-497,853	800,000	-0,034	-0,088
-496,839	524,059	-0,064	0,110
-495,824	205,448	0,073	-0,083
-494,810	-200,000	-0,031	-0,126
-493,795	-200,000	-0,004	0,041
-492,781	-5,957	-0,071	0,035
-491,766	-200,000	0,005	-0,182
-490,751	-200,000	0,005	-0,199
-489,737	192,041	0,098	0,108
-488,722	800,000	-0,052	0,122
-487,708	603,972	-0,078	0,143
-486,693	44,051	-0,091	0,061
-485,678	7,213	-0,046	0,025
-484,664	162,007	0,013	-0,013
-483,649	-118,820	-0,153	-0,019
-482,635	-200,000	-0,004	0,029
-481,620	-52,912	0,008	0,003
-480,605	-52,788	-0,078	-0,026
-479,591	-57,946	0,080	-0,025
-478,576	743,778	-0,057	0,113
-477,562	31,570	-0,154	-0,096
-476,547	-28,947	0,007	0,003
-475,532	713,170	0,051	0,100
-474,518	-119,297	0,094	0,012
-473,503	-200,000	-0,007	0,130
-472,489	800,000	-0,049	-0,113
-471,474	-88,896	-0,070	0,015
-470,459	222,306	-0,019	-0,023
-469,445	-200,000	-0,004	0,039
-468,430	-16,901	0,034	-0,016
-467,416	54,779	-0,053	-0,037
-466,401	-200,000	0,007	-0,112
-465,386	-200,000	-0,035	0,186
-464,372	-69,711	-0,020	0,006
-463,357	62,694	0,017	-0,012
-462,343	-113,827	0,081	-0,011
-461,328	212,695	0,013	0,015
-460,313	-98,547	0,065	-0,012
-459,299	-200,000	0,025	0,097
-458,284	800,000	0,019	0,055
-457,270	-74,649	0,047	0,012
-456,255	10,658	-0,052	0,029
-455,241	440,900	-0,041	-0,065
-454,226	-65,591	0,106	0,031
-453,211	585,474	-0,035	0,064
-452,197	-39,326	-0,071	0,027
-451,182	-200,000	0,017	-0,072
-450,168	-200,000	0,001	0,022
-449,153	456,934	0,067	0,110
-448,138	37,610	-0,185	-0,120
-447,124	-165,360	-0,095	-0,003
-446,109	13,706	0,138	-0,078
-445,095	-69,495	0,010	-0,003
-444,080	800,000	0,046	0,099
-443,065	82,535	-0,024	0,019
-442,051	236,490	-0,049	-0,060
-441,036	800,000	-0,051	-0,157
-440,022	800,000	-0,063	0,142
-439,007	800,000	-0,022	-0,067
-437,992	-200,000	-0,014	-0,130
-436,978	63,082	-0,073	-0,053
-435,963	-200,000	0,037	0,128
-434,949	-148,402	0,099	-0,006
-433,934	130,775	0,020	-0,019
-432,919	371,319	0,053	-0,079
-431,905	-156,104	0,025	0,001
-430,890	-102,993	0,158	-0,027
-429,876	-115,013	0,097	-0,013
-428,861	-58,191	-0,069	-0,022
-427,846	-200,000	-0,013	-0,041
-426,832	129,864	-0,026	0,024
-425,817	127,394	-0,007	-0,006
-424,803	-16,092	0,168	0,078
-423,788	800,000	0,039	-0,122
-422,773	800,000	0,013	0,039
-421,759	148,159	-0,043	-0,042
-420,744	164,402	-0,036	-0,037
-419,730	-84,258	0,047	0,011
-418,715	-200,000	0,003	-0,175
-417,701	393,933	-0,051	-0,078
-416,686	6,617	-0,078	-0,042
-415,671	800,000	0,018	-0,042
-414,657	800,000	-0,021	0,066
-413,642	-113,945	-0,052	-0,007
-412,628	530,352	0,035	-0,060
-411,613	238,263	-0,045	0,055
-410,598	-45,026	-0,097	0,035
-409,584	272,434	0,027	-0,035
-408,569	65,238	-0,085	0,062
-407,555	-200,000	-0,019	0,077
-406,540	319,648	0,052	-0,072
-405,525	-127,222	-0,127	-0,013
-404,511	209,621	0,057	-0,065
-403,496	-112,838	-0,117	-0,017
-402,482	125,503	0,069	-0,064
-401,467	6,241	0,109	-0,059
-400,452	-3,575	0,071	0,036
-399,438	-200,000	0,025	-0,087
-398,423	-44,799	-0,078	0,028
-397,409	800,000	0,027	-0,084
-396,394	-176,149	0,082	0,002
-395,379	293,084	0,089	0,118
-394,365	-200,000	0,028	0,098
-393,350	-200,000	0,008	0,036
-392,336	-150,091	0,118	-0,007
-391,321	-200,000	-0,008	-0,031
-390,306	800,000	-0,016	-0,037
-389,292	11,279	-0,040	0,022
-388,277	-200,000	0,000	0,081
-387,263	286,961	-0,043	0,057
-386,248	-125,990	0,256	-0,028
-385,233	567,738	-0,045	0,079
-384,219	17,194	0,091	0,052
-383,204	800,000	-0,032	-0,070
-382,190	152,043	-0,025	-0,024
-381,175	21,669	-0,086	-0,051
-380,160	737,457	0,035	0,068
-379,146	-57,401	-0,073	-0,023
-378,131	50,622	0,062	0,043
-377,117	43,190	-0,179	0,118
-376,102	-200,000	-0,027	-0,112
-375,088	-118,629	0,061	-0,008
-374,073	-73,326	0,066	-0,017
-373,058	161,327	-0,040	-0,040
-372,044	-200,000	0,021	-0,144
-371,029	515,411	0,026	0,045
-370,015	157,755	-0,060	-0,060
-369,000	102,891	-0,096	-0,082
-367,985	-200,000	0,032	-0,132
-366,971	800,000	-0,032	-0,072
-365,956	-169,198	0,032	-0,001
-364,942	-121,172	0,103	0,012
-363,927	800,000	-0,029	0,064
-362,912	86,776	0,027	0,022
-361,898	-200,000	-0,019	-0,083
-360,883	800,000	0,076	0,190
-359,869	-200,000	-0,016	0,122
-358,854	-200,000	-0,001	-0,044
-357,839	113,640	-0,063	-0,056
-356,825	-165,547	0,121	-0,004
-355,810	-29,955	-0,079	0,033
-354,796	-200,000	0,016	-0,169
-353,781	-58,986	-0,133	-0,041
-352,766	433,291	0,022	-0,035
-351,752	204,065	0,009	0,010
-350,737	1,924	0,033	0,017
-349,723	312,062	-0,005	-0,007
-348,708	-200,000	-0,003	0,204
-347,693	800,000	-0,032	-0,071
-346,679	800,000	-0,019	0,047
-345,664	204,511	-0,085	0,096
-344,650	800,000	-0,077	0,197
-343,635	151,149	-0,078	0,077
-342,620	223,617	0,072	0,084
-341,606	-200,000	0,000	-0,022
-340,591	506,204	-0,043	-0,073
-339,577	-200,000	-0,030	0,097
-338,562	-69,626	-0,089	-0,025
-337,548	485,579	-0,057	-0,094
-336,533	-21,616	-0,063	0,028
-335,518	-29,176	0,026	-0,011
-334,504	800,000	0,011	-0,027
-333,489	296,726	-0,058	-0,077
-332,475	260,531	-0,124	-0,156
-331,460	628,783	-0,042	-0,077
-330,445	565,262	0,048	0,085
-329,431	41,868	0,051	0,033
-328,416	-200,000	0,033	0,132
-327,402	800,000	0,009	-0,021
-326,387	-102,884	0,056	0,010
-325,372	-200,000	0,031	-0,120
-324,358	26,052	-0,128	-0,077
-323,343	-86,882	0,057	-0,012
-322,329	83,364	0,034	-0,027
-321,314	-71,194	0,095	-0,026
-320,299	23,926	0,112	0,067
-319,285	17,389	-0,127	0,073
-318,270	800,000	-0,010	0,024
-317,256	-56,967	-0,063	-0,020
-316,241	333,739	-0,050	0,071
-315,226	59,800	-0,097	0,069
-314,212	-165,809	0,119	-0,004
-313,197	800,000	-0,019	0,038
-312,183	-65,681	-0,203	0,059
-311,168	-21,354	0,076	-0,034
-310,153	513,479	0,014	-0,024
-309,139	-65,351	0,110	0,032
-308,124	258,710	0,070	0,088
-307,110	-200,000	0,016	0,082
-306,095	-200,000	0,012	0,153
-305,080	377,935	0,062	0,093
-304,066	-33,834	-0,083	0,033
-303,051	800,000	-0,063	-0,160
-302,037	126,651	0,118	-0,109
-301,022	-143,251	0,059	-0,004
-300,008	-31,392	-0,064	-0,026
-298,993	800,000	0,061	0,128
-297,978	-31,755	0,117	0,047
-296,964	-200,000	-0,009	-0,041
-295,949	-200,000	-0,006	-0,076
-294,935	-115,384	-0,051	0,007
-293,920	-50,789	0,089	0,030
-292,905	800,000	-0,042	0,087
-291,891	-111,048	0,037	0,005
-290,876	206,780	0,081	0,092
-289,862	-4,019	0,111	-0,056
-288,847	-200,000	-0,027	-0,107
-287,832	96,992	0,165	0,137
-286,818	800,000	-0,044	0,117
-285,803	-200,000	0,000	0,081
-284,789	152,633	0,062	0,062
-283,774	-200,000	0,032	0,108
-282,759	-39,231	-0,096	0,037
-281,745	-200,000	0,006	-0,159
-280,730	-112,973	0,079	0,011
-279,716	69,218	-0,050	0,037
-278,701	800,000	-0,044	0,091
-277,686	205,293	-0,079	0,089
-276,672	65,879	-0,097	0,071
-275,657	800,000	0,013	0,038
-274,643	5,477	-0,148	-0,079
-273,628	-16,622	-0,086	0,039
-272,613	-200,000	0,003	0,118
-271,599	-200,000	0,007	0,200
-270,584	-90,603	-0,049	0,010
-269,570	-200,000	-0,028	-0,092
-268,555	-169,414	0,040	-0,001
-267,540	358,550	-0,028	-0,040
-266,526	40,435	-0,029	0,019
-265,511	-43,884	-0,074	0,027
-264,497	-200,000	-0,017	-0,206
-263,482	800,000	0,042	-0,090
-262,467	-10,565	0,140	0,067
-261,453	-200,000	-0,018	-0,096
-260,438	188,144	0,080	0,087
-259,424	143,086	0,112	-0,108
-258,409	390,821	0,057	-0,086
-257,395	53,688	0,131	0,091
-256,380	51,497	-0,117	0,080
-255,365	-200,000	-0,027	0,193
-254,351	-84,238	0,053	-0,012
-253,336	-140,575	0,048	-0,004
-252,322	-25,351	-0,192	-0,082
-251,307	782,205	-0,026	0,051
-250,292	37,210	-0,049	0,031
-249,278	342,793	-0,042	-0,059
-248,263	-2,290	-0,037	-0,019
-247,249	-173,377	0,158	0,003
-246,234	-200,000	0,012	-0,119
-245,219	-200,000	-0,014	-0,075
-244,205	-93,166	0,132	0,026
-243,190	800,000	0,045	-0,101
-242,176	-200,000	-0,029	0,094
-241,161	-47,448	0,068	0,024
-240,146	96,070	0,052	-0,043
-239,132	141,179	-0,087	-0,084
-238,117	157,965	-0,031	0,031
-237,103	-200,000	-0,034	-0,151
-236,088	218,901	0,042	-0,048
-235,073	-99,807	0,093	-0,017
-234,059	364,550	0,045	0,065
-233,044	333,917	0,055	0,076
-232,030	38,492	-0,047	-0,031
-231,015	368,294	-0,048	0,070
-230,000	-200,000	0,033	-0,182
-228,986	800,000	-0,086	-0,208
-227,971	800,000	0,020	-0,042
-226,957	-9,210	-0,108	0,052
-225,942	55,889	0,121	0,085
-224,927	30,468	-0,028	0,018
-223,913	-166,138	-0,110	-0,003
-222,898	30,260	0,059	-0,036
-221,884	-36,049	-0,023	-0,009
-220,869	-170,304	0,092	0,002
-219,855	-30,362	0,117	-0,048
-218,840	97,441	-0,111	-0,092
-217,825	-200,000	-0,035	0,137
-216,811	-200,000	-0,001	0,090
-215,796	-200,000	0,004	-0,100
-214,782	67,175	-0,106	-0,078
-213,767	-200,000	-0,015	0,128
-212,752	32,084	0,089	0,056
-211,738	432,039	-0,039	0,062
-210,723	-41,406	-0,066	-0,025
-209,709	800,000	0,018	-0,044
-208,694	206,311	-0,105	-0,118
-207,679	-200,000	-0,028	0,142
-206,665	406,888	0,058	0,089
-205,650	-44,043	0,054	0,019
-204,636	-132,734	-0,099	-0,009
-203,621	155,133	0,045	0,045
-202,606	-200,000	0,007	-0,103
-201,592	96,736	-0,036	-0,030
-200,577	44,194	-0,078	-0,052
-199,563	36,544	0,035	0,022
-198,548	218,995	0,087	-0,101
-197,533	-200,000	-0,018	-0,188
-196,519	661,244	-0,045	0,085
-195,504	800,000	0,031	-0,088
-194,490	-200,000	0,036	-0,155
-193,475	-200,000	-0,008	-0,035
-192,460	-200,000	0,017	-0,107
-191,446	-120,425	-0,109	-0,013
-190,431	306,098	0,040	0,054
-189,417	-200,000	0,037	0,214
-188,402	-26,027	0,160	0,068
-187,387	-108,618	-0,108	0,017
-186,373	800,000	0,036	-0,099
-185,358	-10,930	0,039	-0,019
-184,344	800,000	0,058	0,175
-183,329	800,000	-0,044	0,092
-182,315	459,622	0,092	0,148
-181,300	-89,679	0,053	0,011
-180,285	800,000	-0,026	-0,054
-179,271	319,533	-0,038	-0,053
-178,256	260,053	-0,053	-0,066
-177,242	-46,712	0,034	0,012
-176,227	-200,000	0,007	0,126
-175,212	800,000	0,066	0,171
-174,198	175,945	-0,079	-0,083
-173,183	-63,604	-0,050	-0,015
-172,169	-200,000	-0,010	-0,098
-171,154	-51,509	-0,083	-0,028
-170,139	-46,753	0,109	-0,038
-169,125	355,529	-0,097	-0,140
-168,110	51,504	-0,040	-0,027
-167,096	16,459	-0,064	0,037
-166,081	16,175	-0,180	-0,102
-165,066	-200,000	0,025	-0,090
-164,052	800,000	0,041	0,099
-163,037	-9,342	0,020	-0,009
-162,023	-200,000	-0,013	-0,054
-161,008	-200,000	0,032	0,115
-159,993	57,201	0,055	0,039
-158,979	224,455	0,042	0,049
-157,964	-200,000	0,013	-0,102
-156,950	64,559	-0,079	-0,057
-155,935	-200,000	-0,012	-0,088
-154,920	-125,867	0,197	-0,021
-153,906	319,391	0,122	0,168
-152,891	-200,000	0,019	0,095
-151,877	800,000	0,019	0,045
-150,862	-54,346	-0,124	0,040
-149,847	-11,144	-0,083	0,039
-148,833	-40,982	0,035	-0,013
-147,818	-80,144	-0,198	0,047
-146,804	619,195	0,039	-0,070
-145,789	582,400	-0,057	0,101
-144,775	-200,000	0,007	0,098
-143,760	539,676	0,005	0,009
-142,745	-30,658	-0,084	0,034
-141,731	-103,437	0,124	0,021
-140,716	215,353	0,019	-0,021
-139,702	119,086	0,122	0,109
-138,687	133,973	0,024	-0,023
-137,672	-200,000	0,042	0,191
-136,658	240,594	-0,097	-0,117
-135,643	283,524	-0,029	-0,037
-134,629	800,000	0,051	0,111
-133,614	-200,000	-0,034	0,111
-132,599	-72,199	-0,062	0,016
-131,585	-200,000	-0,010	0,218
-130,570	800,000	0,007	0,020
-129,556	-200,000	-0,013	-0,114
-128,541	800,000	0,040	-0,086
-127,526	101,850	-0,118	-0,100
-126,512	146,822	0,101	0,098
-125,497	250,558	0,052	-0,063
-124,483	249,182	0,084	0,103
-123,468	-200,000	0,033	0,109
-122,453	111,304	-0,160	0,139
-121,439	49,486	-0,045	0,030
-120,424	173,218	-0,055	0,057
-119,410	391,228	-0,132	0,198
