DTS Sentinel unit serial number:	SN410029Multiplexer serial number:	ORYXHardware model number:	OX2-SRSoftware version number:	ORYX F/W v4,00 Oryx Data Collector v3.7.2.0data status	okinstallation	B5 Nyhavnadifferential loss correction	single-endedforward channel	channel 2reverse channel	N/Adate	2023/12/12time	01:12:13forward acquisition time	300,00reverse acquisition time	0,00gamma	499,1914k internal	0,3156k external	0,3156temperature offset calibration	1,0000default loss term (dB/km)	0,3820temperature slope calibration	1,0000multiplexer offset coefficient	1,0000multiplexer slope coefficient	1,0000fibre end	0,00T internal ref (°C)	15,97T ext. ref 1 (°C)	-0,46T ext. ref 2 (°C)	-0,75length (m)	temperature (°C)	Stokes	anti-Stokes-744,400	-200,000	0,017	0,076
-743,385	-62,585	-0,247	0,075
-742,371	-53,134	0,190	0,064
-741,356	-126,110	-0,289	-0,032
-740,342	-36,562	0,022	0,009
-739,327	-61,348	-0,272	0,084
-738,312	-174,537	0,212	0,004
-737,298	-105,716	-0,263	0,044
-736,283	12,079	0,151	-0,086
-735,269	3,113	-0,173	0,092
-734,254	-68,963	0,129	-0,036
-733,239	-199,235	-0,372	-0,001
-732,225	-119,213	0,113	-0,014
-731,210	-200,000	-0,009	0,097
-730,196	800,000	0,018	0,038
-729,181	207,025	0,056	-0,065
-728,167	193,980	-0,057	0,064
-727,152	-200,000	0,029	-0,149
-726,137	-200,000	0,041	-0,152
-725,123	31,109	-0,117	-0,074
-724,108	-200,000	0,018	-0,067
-723,094	-37,960	-0,129	-0,050
-722,079	-97,336	0,142	-0,027
-721,064	119,287	0,062	-0,056
-720,050	784,879	0,047	-0,096
-719,035	456,459	0,053	0,087
-718,021	800,000	-0,019	0,060
-717,006	800,000	-0,048	-0,149
-715,991	-200,000	-0,026	-0,165
-714,977	-200,000	-0,022	-0,080
-713,962	-169,748	-0,089	-0,002
-712,948	-200,000	0,010	0,115
-711,933	-94,188	-0,048	0,010
-710,918	800,000	-0,033	0,086
-709,904	223,913	-0,127	-0,151
-708,889	-200,000	-0,000	0,017
-707,875	-97,407	0,075	-0,014
-706,860	66,880	-0,061	-0,046
-705,845	82,443	-0,068	-0,054
-704,831	-200,000	-0,011	-0,123
-703,816	-200,000	0,002	-0,145
-702,802	95,046	0,066	-0,056
-701,787	-24,761	-0,096	-0,042
-700,772	-110,396	-0,092	-0,014
-699,758	292,066	-0,002	-0,002
-698,743	235,356	-0,017	-0,021
-697,729	800,000	0,025	-0,075
-696,714	-99,052	0,096	0,018
-695,699	83,744	-0,037	-0,030
-694,685	-200,000	0,002	0,071
-693,670	800,000	0,079	-0,201
-692,656	450,002	0,045	-0,073
-691,641	800,000	0,030	-0,091
-690,627	-116,191	0,014	-0,002
-689,612	800,000	0,024	0,054
-688,597	-200,000	-0,044	-0,166
-687,583	-200,000	0,043	-0,193
-686,568	-179,348	-0,115	0,002
-685,554	372,232	-0,069	-0,103
-684,539	301,284	-0,063	0,085
-683,524	306,110	0,079	-0,108
-682,510	-200,000	0,020	-0,168
-681,495	-200,000	-0,000	-0,067
-680,481	-87,176	-0,090	0,020
-679,466	594,787	0,044	-0,080
-678,451	263,476	-0,068	-0,087
-677,437	182,609	0,051	-0,055
-676,422	-200,000	-0,008	0,050
-675,408	-20,196	0,064	-0,029
-674,393	-200,000	-0,107	-0,000
-673,378	-40,617	-0,058	-0,022
-672,364	-200,000	-0,031	0,104
-671,349	-200,000	0,003	0,039
-670,335	-200,000	0,030	0,112
-669,320	-200,000	-0,000	-0,047
-668,305	-90,455	-0,057	-0,012
-667,291	39,917	-0,074	0,049
-666,276	800,000	0,029	-0,067
-665,262	259,328	0,047	-0,060
-664,247	674,670	0,053	-0,102
-663,232	-200,000	0,020	-0,085
-662,218	3,746	0,091	0,049
-661,203	-200,000	0,012	-0,165
-660,189	-74,570	0,034	0,009
-659,174	-200,000	0,034	-0,184
-658,159	283,810	-0,052	-0,069
-657,145	-200,000	0,010	-0,086
-656,130	323,547	-0,074	-0,103
-655,116	-200,000	-0,024	0,118
-654,101	-200,000	0,030	0,131
-653,086	97,148	-0,026	-0,022
-652,072	-51,427	-0,088	0,030
-651,057	427,255	-0,107	-0,170
-650,043	158,980	-0,124	-0,126
-649,028	-200,000	-0,004	0,059
-648,014	800,000	0,030	0,093
-646,999	37,962	-0,090	0,059
-645,984	-200,000	0,008	-0,147
-644,970	121,528	-0,041	-0,037
-643,955	800,000	-0,026	-0,071
-642,941	-15,225	-0,045	-0,021
-641,926	464,851	-0,015	-0,025
-640,911	119,139	-0,074	-0,067
-639,897	-200,000	-0,044	0,143
-638,882	-183,686	-0,076	-0,001
-637,868	547,336	-0,011	0,019
-636,853	-200,000	0,001	-0,065
-635,838	-16,364	-0,102	-0,047
-634,824	-200,000	-0,002	0,107
-633,809	63,760	-0,080	0,059
-632,795	-57,523	0,074	-0,024
-631,780	246,725	-0,038	-0,047
-630,765	83,979	-0,045	0,036
-629,751	77,051	-0,060	0,047
-628,736	115,964	-0,119	-0,107
-627,722	800,000	-0,067	-0,147
-626,707	-2,310	0,030	-0,016
-625,692	-65,244	0,078	0,023
-624,678	724,815	-0,022	-0,044
-623,663	-200,000	-0,000	-0,032
-622,649	-112,397	-0,049	-0,007
-621,634	-41,990	-0,116	-0,043
-620,619	422,869	0,026	-0,042
-619,605	-134,309	0,016	0,001
-618,590	-18,099	0,078	-0,035
-617,576	-200,000	0,035	0,134
-616,561	479,382	0,029	-0,048
-615,546	208,124	-0,067	-0,077
-614,532	103,243	-0,025	0,022
-613,517	-47,628	-0,113	-0,040
-612,503	-200,000	-0,001	0,056
-611,488	135,545	0,052	0,049
-610,474	156,198	0,064	0,065
-609,459	-66,501	0,101	-0,029
-608,444	-142,310	-0,048	-0,003
-607,430	54,300	-0,142	-0,100
-606,415	-2,029	-0,064	0,033
-605,401	-200,000	-0,010	0,087
-604,386	18,339	0,130	0,076
-603,371	187,953	-0,065	0,071
-602,357	-82,802	0,044	0,010
-601,342	89,172	-0,129	0,106
-600,328	191,351	0,060	-0,066
-599,313	-200,000	-0,017	-0,212
-598,298	800,000	-0,019	-0,048
-597,284	-200,000	0,011	-0,086
-596,269	-59,742	0,084	0,026
-595,255	135,381	-0,046	-0,044
-594,240	800,000	-0,043	-0,095
-593,225	288,104	-0,023	0,031
-592,211	-128,060	-0,138	0,014
-591,196	-200,000	0,029	-0,098
-590,182	-28,793	-0,054	0,023
-589,167	-99,819	-0,125	0,023
-588,152	293,021	-0,028	-0,037
-587,138	406,116	-0,078	-0,122
-586,123	132,839	-0,082	-0,078
-585,109	54,568	-0,062	0,044
-584,094	-72,084	-0,125	-0,034
-583,079	-200,000	0,015	-0,066
-582,065	27,238	-0,082	-0,050
-581,050	28,935	0,065	-0,040
-580,036	22,950	-0,115	-0,069
-579,021	-60,587	-0,096	0,030
-578,006	-29,351	-0,070	-0,029
-576,992	-200,000	0,020	0,121
-575,977	93,445	0,114	0,094
-574,963	-200,000	0,004	0,081
-573,948	-33,172	-0,055	0,022
-572,934	-55,567	0,165	0,054
-571,919	-200,000	0,009	0,090
-570,904	229,778	-0,072	0,087
-569,890	-34,917	0,144	-0,057
-568,875	576,825	0,051	-0,091
-567,861	58,111	0,065	0,047
-566,846	-143,301	0,137	-0,010
-565,831	37,851	-0,080	-0,052
-564,817	99,192	-0,039	0,033
-563,802	88,599	-0,102	-0,083
-562,788	53,875	-0,094	-0,066
-561,773	-53,174	0,036	-0,012
-560,758	141,037	0,036	-0,035
-559,744	337,286	-0,027	0,038
-558,729	-200,000	0,017	0,109
-557,715	-105,584	-0,046	-0,008
-556,700	95,926	-0,086	-0,072
-555,685	67,464	0,039	-0,029
-554,671	-200,000	-0,008	-0,061
-553,656	-200,000	-0,030	-0,134
-552,642	-200,000	0,017	-0,108
-551,627	-151,649	-0,115	0,006
-550,612	-200,000	0,006	0,046
-549,598	800,000	-0,053	-0,119
-548,583	800,000	-0,031	-0,079
-547,569	-200,000	-0,001	-0,002
-546,554	707,846	0,034	0,065
-545,539	138,136	0,085	0,081
-544,525	-52,774	-0,092	-0,031
-543,510	-53,963	-0,048	-0,016
-542,496	-200,000	0,010	0,093
-541,481	800,000	-0,014	-0,033
-540,466	-200,000	-0,017	-0,063
-539,452	50,994	-0,130	-0,090
-538,437	-39,836	0,192	0,073
-537,423	-200,000	0,013	0,077
-536,408	-200,000	-0,023	-0,086
-535,393	103,988	-0,063	-0,054
-534,379	-200,000	-0,016	-0,231
-533,364	221,806	-0,084	-0,099
-532,350	84,278	0,078	0,063
-531,335	-86,538	0,050	0,011
-530,321	-200,000	0,014	0,089
-529,306	94,989	-0,037	-0,030
-528,291	297,734	-0,055	0,074
-527,277	314,431	-0,107	-0,148
-526,262	-200,000	-0,020	-0,153
-525,248	-85,157	0,129	-0,029
-524,233	800,000	-0,015	-0,044
-523,218	-70,031	0,112	-0,031
-522,204	26,652	0,043	0,026
-521,189	126,179	0,082	-0,076
-520,175	45,418	-0,038	0,026
-519,160	367,337	0,070	-0,104
-518,145	91,876	-0,019	0,016
-517,131	-200,000	-0,018	0,058
-516,116	-200,000	-0,001	-0,052
-515,102	-20,388	-0,027	-0,012
-514,087	800,000	-0,047	0,132
-513,072	-35,326	0,127	-0,050
-512,058	-200,000	0,009	0,043
-511,043	321,068	-0,052	-0,072
-510,029	-168,183	0,187	-0,005
-509,014	-200,000	-0,004	-0,064
-507,999	382,690	-0,057	0,085
-506,985	771,003	0,005	0,011
-505,970	-180,650	-0,037	-0,001
-504,956	-200,000	-0,025	0,084
-503,941	-27,454	0,171	-0,072
-502,926	211,997	0,067	-0,077
-501,912	345,965	0,037	0,054
-500,897	22,388	-0,061	0,036
-499,883	-17,420	-0,016	0,008
-498,868	246,520	-0,028	-0,035
-497,853	152,472	-0,048	0,048
-496,839	16,436	-0,018	-0,011
-495,824	-180,088	0,058	-0,001
-494,810	238,936	0,118	0,143
-493,795	-78,824	0,185	0,046
-492,781	40,756	0,093	-0,061
-491,766	-200,000	-0,035	-0,221
-490,751	-79,263	0,053	-0,013
-489,737	-72,389	0,073	0,020
-488,722	-130,559	0,042	0,004
-487,708	800,000	-0,037	0,114
-486,693	34,363	-0,092	0,058
-485,678	800,000	-0,004	-0,011
-484,664	-38,578	-0,022	0,008
-483,649	-132,216	0,036	0,003
-482,635	-181,692	0,075	-0,001
-481,620	800,000	0,053	0,120
-480,605	-200,000	-0,007	0,147
-479,591	-147,237	0,058	0,004
-478,576	-148,523	-0,120	0,007
-477,562	-96,424	-0,074	0,014
-476,547	-27,745	-0,172	-0,072
-475,532	372,776	0,058	-0,087
-474,518	763,926	0,049	-0,098
-473,503	-119,981	0,114	0,014
-472,489	800,000	-0,004	0,009
-471,474	-36,892	-0,063	0,025
-470,459	30,115	0,120	-0,075
-469,445	-67,524	0,047	0,013
-468,430	366,686	0,056	-0,082
-467,416	65,283	0,094	-0,069
-466,401	-102,765	-0,034	0,006
-465,386	315,342	-0,071	-0,098
-464,372	-200,000	0,021	-0,127
-463,357	87,835	-0,111	0,090
-462,343	632,734	0,032	-0,058
-461,328	9,463	0,052	-0,029
-460,313	-141,057	0,169	0,012
-459,299	-107,617	-0,078	0,012
-458,284	-200,000	0,014	0,078
-457,270	-5,623	0,084	0,042
-456,255	-10,963	-0,020	0,010
-455,241	800,000	0,053	-0,112
-454,226	-156,869	-0,094	0,004
-453,211	-200,000	0,011	-0,081
-452,197	-91,856	0,048	0,010
-451,182	-200,000	0,011	0,117
-450,168	558,461	0,074	0,132
-449,153	1,467	0,049	0,025
-448,138	-90,457	0,177	0,037
-447,124	-160,970	-0,046	0,002
-446,109	137,506	-0,064	-0,061
-445,095	-200,000	-0,026	-0,112
-444,080	-200,000	-0,025	0,124
-443,065	272,593	-0,163	-0,211
-442,051	1,046	-0,061	-0,032
-441,036	-10,629	0,046	0,022
-440,022	-200,000	-0,028	-0,138
-439,007	26,566	-0,061	-0,037
-437,992	236,940	-0,089	0,108
-436,978	-63,547	0,159	0,047
-435,963	-200,000	0,008	0,034
-434,949	100,486	0,064	0,054
-433,934	-54,845	0,096	-0,031
-432,919	-74,014	-0,159	-0,042
-431,905	-17,085	0,042	-0,019
-430,890	-144,048	-0,078	0,005
-429,876	-136,356	0,190	0,016
-428,861	144,007	-0,034	0,033
-427,846	446,982	-0,043	0,069
-426,832	33,632	-0,090	0,057
-425,817	113,241	-0,137	0,121
-424,803	339,909	0,058	0,082
-423,788	-200,000	-0,027	0,128
-422,773	111,529	-0,082	0,072
-421,759	219,645	0,022	-0,025
-420,744	59,054	0,030	-0,022
-419,730	192,940	-0,065	0,071
-418,715	-17,371	-0,043	0,020
-417,701	41,843	-0,067	-0,044
-416,686	3,311	0,075	0,040
-415,671	-82,035	0,079	0,019
-414,657	-200,000	-0,011	0,116
-413,642	442,825	-0,034	0,055
-412,628	22,292	0,025	-0,015
-411,613	376,067	-0,070	-0,105
-410,598	469,650	0,073	-0,120
-409,584	800,000	-0,032	-0,096
-408,569	170,266	0,052	-0,055
-407,555	87,278	0,104	0,083
-406,540	-200,000	0,020	0,095
-405,525	-200,000	-0,020	0,083
-404,511	495,545	0,025	-0,042
-403,496	131,400	0,051	-0,047
-402,482	800,000	0,060	-0,173
-401,467	-115,292	-0,037	0,005
-400,452	149,722	0,085	-0,084
-399,438	-44,478	0,061	0,022
-398,423	-200,000	-0,012	-0,117
-397,409	100,879	-0,060	-0,051
-396,394	-200,000	0,026	-0,167
-395,379	32,282	0,016	-0,010
-394,365	-171,606	-0,046	-0,001
-393,350	375,628	0,066	0,098
-392,336	-200,000	0,048	0,255
-391,321	176,735	-0,062	0,066
-390,306	-124,595	-0,047	0,005
-389,292	1,988	0,218	-0,114
-388,277	684,065	0,088	0,167
-387,263	800,000	0,051	0,130
-386,248	166,933	0,097	0,100
-385,233	800,000	0,020	0,045
-384,219	800,000	0,009	-0,026
-383,204	-16,665	-0,066	0,030
-382,190	70,626	-0,020	-0,015
-381,175	800,000	-0,016	0,042
-380,160	-200,000	0,003	0,055
-379,146	-144,394	0,184	-0,012
-378,131	-167,380	0,147	-0,004
-377,117	-48,682	-0,122	-0,042
-376,102	271,568	-0,078	-0,101
-375,088	8,939	0,112	-0,061
-374,073	-83,671	-0,056	0,013
-373,058	-79,442	0,136	-0,033
-372,044	-64,011	0,160	-0,047
-371,029	87,988	0,027	-0,022
-370,015	-200,000	0,002	-0,060
-369,000	677,004	-0,061	0,115
-367,985	-76,147	-0,108	-0,027
-366,971	76,232	0,144	-0,111
-365,956	-64,513	0,103	-0,030
-364,942	267,511	0,058	-0,074
-363,927	-3,070	-0,074	-0,038
-362,912	-200,000	-0,029	0,092
-361,898	155,464	0,142	0,142
-360,883	201,130	0,072	-0,081
-359,869	-25,592	-0,070	0,030
-358,854	342,993	-0,108	0,154
-357,839	-200,000	-0,008	0,090
-356,825	687,262	0,064	0,123
-355,810	275,835	-0,035	-0,045
-354,796	-200,000	-0,010	-0,050
-353,781	-144,017	-0,045	0,003
-352,766	-27,604	-0,030	-0,013
-351,752	-200,000	-0,013	-0,044
-350,737	-92,392	0,101	0,020
-349,723	203,650	0,028	-0,032
-348,708	23,446	0,157	0,094
-347,693	800,000	-0,043	-0,091
-346,679	-200,000	0,029	-0,143
-345,664	-200,000	-0,027	-0,124
-344,650	154,088	-0,063	0,063
-343,635	-200,000	-0,029	0,097
-342,620	338,967	0,031	0,043
-341,606	-200,000	0,008	0,136
-340,591	-37,295	0,048	-0,018
-339,577	800,000	-0,051	-0,110
-338,562	562,298	-0,077	-0,135
-337,548	226,872	-0,016	-0,019
-336,533	76,930	-0,078	0,060
-335,518	-126,596	0,065	0,007
-334,504	-47,619	0,107	-0,038
-333,489	-166,303	-0,101	0,003
-332,475	509,943	-0,037	-0,062
-331,460	-200,000	0,006	0,129
-330,445	217,228	-0,084	-0,098
-329,431	405,286	0,018	0,028
-328,416	648,282	0,026	0,049
-327,402	38,431	-0,045	0,029
-326,387	-200,000	0,018	0,181
-325,372	389,641	-0,026	-0,039
-324,358	-200,000	0,025	-0,093
-323,343	800,000	-0,069	-0,161
-322,329	-200,000	-0,021	-0,076
-321,314	2,476	0,059	-0,031
-320,299	143,375	-0,067	-0,064
-319,285	-82,579	-0,081	0,019
-318,270	800,000	-0,019	0,052
-317,256	-143,363	-0,125	-0,009
-316,241	-200,000	0,001	-0,104
-315,226	-40,373	0,139	0,052
-314,212	-27,760	0,148	0,062
-313,197	629,156	0,053	0,098
-312,183	-200,000	-0,014	-0,058
-311,168	-200,000	-0,034	-0,133
-310,153	247,667	-0,058	-0,071
-309,139	118,672	0,048	-0,043
-308,124	-200,000	-0,058	0,191
-307,110	260,380	0,096	0,121
-306,095	-200,000	0,020	0,081
-305,080	-189,037	-0,128	-0,001
-304,066	-200,000	0,002	0,057
-303,051	-200,000	-0,029	-0,117
-302,037	45,798	-0,085	-0,057
-301,022	120,546	0,090	-0,081
-300,008	-200,000	-0,009	0,076
-298,993	-200,000	0,019	0,070
-297,978	391,267	0,059	0,088
-296,964	-108,650	0,124	-0,019
-295,949	-121,919	-0,045	-0,005
-294,935	-195,043	-0,079	0,000
-293,920	800,000	0,066	0,152
-292,905	36,330	-0,075	0,048
-291,891	-188,061	0,231	0,002
-290,876	800,000	-0,008	-0,023
-289,862	95,862	-0,064	0,053
-288,847	800,000	0,056	-0,116
-287,832	-19,544	-0,034	-0,015
-286,818	415,675	-0,055	-0,086
-285,803	495,463	0,073	0,122
-284,789	112,179	-0,065	0,057
-283,774	-90,176	-0,095	-0,020
-282,759	172,381	0,054	0,056
-281,745	-200,000	-0,017	0,116
-280,730	-29,727	-0,127	0,052
-279,716	1,726	-0,085	-0,044
-278,701	-15,275	0,060	0,028
-277,686	361,829	0,025	0,037
-276,672	224,747	-0,056	0,065
-275,657	296,613	0,051	0,068
-274,643	-68,373	-0,026	-0,007
-273,628	-200,000	-0,022	-0,177
-272,613	100,505	-0,052	-0,044
-271,599	-19,311	0,122	-0,054
-270,584	-52,970	-0,042	-0,014
-269,570	132,930	0,050	-0,047
-268,555	51,769	-0,045	0,031
-267,540	-109,691	-0,124	-0,019
-266,526	55,666	0,054	-0,038
-265,511	-14,219	0,107	-0,050
-264,497	204,531	0,055	-0,062
-263,482	292,177	-0,037	0,049
-262,467	-42,988	-0,089	0,032
-261,453	241,545	0,036	-0,044
-260,438	-119,489	-0,107	0,013
-259,424	247,350	-0,076	0,093
-258,409	-4,738	-0,079	-0,039
-257,395	800,000	-0,040	-0,082
-256,380	-43,582	0,169	0,061
-255,365	20,220	0,102	0,059
-254,351	87,902	0,061	-0,049
-253,336	-200,000	0,003	0,059
-252,322	10,236	0,122	0,067
-251,307	-200,000	-0,009	0,106
-250,292	262,868	0,087	-0,110
-249,278	132,127	-0,084	0,078
-248,263	7,409	-0,083	0,045
-247,249	-41,115	0,038	-0,014
-246,234	-200,000	-0,009	0,066
-245,219	-200,000	-0,004	-0,235
-244,205	16,174	-0,158	-0,090
-243,190	-52,245	0,020	-0,007
-242,176	-157,852	-0,074	0,003
-241,161	297,553	0,055	0,074
-240,146	295,382	0,018	-0,024
-239,132	-68,870	0,107	-0,030
-238,117	119,757	-0,080	-0,071
-237,103	218,421	-0,099	0,115
-236,088	147,097	0,128	0,124
-235,073	61,479	0,040	0,029
-234,059	141,420	0,146	0,140
-233,044	-140,394	-0,146	0,011
-232,030	222,020	0,041	-0,048
-231,015	642,224	0,046	-0,085
-230,000	-200,000	0,018	-0,083
-228,986	-200,000	0,028	0,140
-227,971	800,000	-0,033	0,086
-226,957	-3,559	-0,029	0,014
-225,942	800,000	-0,049	0,128
-224,927	462,886	0,022	0,036
-223,913	-139,836	0,047	0,004
-222,898	-200,000	-0,008	0,044
-221,884	-53,854	0,129	0,042
-220,869	800,000	0,025	0,067
-219,855	-200,000	-0,005	-0,136
-218,840	-200,000	0,046	0,176
-217,825	800,000	-0,070	0,171
-216,811	191,173	-0,129	-0,141
-215,796	-82,346	0,063	-0,015
-214,782	-57,367	-0,020	0,006
-213,767	62,681	0,068	0,049
-212,752	-200,000	-0,005	-0,054
-211,738	-200,000	-0,016	0,106
-210,723	164,265	0,085	-0,087
-209,709	-65,536	0,103	0,030
-208,694	-29,125	0,069	-0,028
-207,679	312,551	0,046	0,063
-206,665	292,833	0,012	0,016
-205,650	202,107	0,064	0,071
-204,636	228,560	0,044	0,052
-203,621	-39,504	-0,077	-0,029
-202,606	313,419	-0,055	0,075
-201,592	157,532	-0,082	-0,082
-200,577	41,307	-0,131	-0,085
-199,563	-33,633	0,124	0,049
-198,548	233,969	0,088	0,105
-197,533	-200,000	0,027	0,095
-196,519	-125,313	-0,068	0,007
-195,504	-37,969	0,137	0,052
-194,490	-104,972	-0,157	0,026
-193,475	41,379	0,084	-0,055
-192,460	260,027	0,028	-0,036
-191,446	-149,583	0,143	-0,008
-190,431	16,628	-0,113	0,064
-189,417	23,189	-0,058	0,034
-188,402	40,342	-0,112	-0,073
-187,387	47,231	-0,100	-0,067
-186,373	149,526	-0,083	-0,081
-185,358	-200,000	-0,015	0,126
-184,344	30,277	0,127	0,078
-183,329	203,887	-0,026	-0,029
-182,315	-200,000	-0,017	-0,057
-181,300	382,429	0,085	0,127
-180,285	-200,000	-0,021	-0,081
-179,271	-29,559	0,050	0,020
-178,256	800,000	-0,054	-0,122
-177,242	500,906	0,134	0,224
-176,227	525,062	-0,054	0,092
-175,212	800,000	-0,026	-0,073
-174,198	-200,000	-0,005	-0,035
-173,183	191,656	-0,064	0,070
-172,169	111,376	-0,041	-0,036
-171,154	-200,000	-0,020	-0,161
-170,139	119,687	0,127	0,114
-169,125	-5,373	0,107	0,053
-168,110	-200,000	0,011	0,133
-167,096	-200,000	0,015	-0,095
-166,081	-6,344	-0,090	-0,044
-165,066	407,661	-0,061	-0,093
-164,052	-200,000	0,020	0,127
-163,037	-104,872	-0,250	0,041
-162,023	703,672	0,035	-0,066
-161,008	800,000	0,038	0,113
-159,993	-200,000	0,004	-0,076
-158,979	-87,613	-0,059	0,013
-157,964	558,288	-0,018	0,031
-156,950	-200,000	-0,022	-0,087
-155,935	-200,000	0,007	-0,061
-154,920	35,612	-0,092	0,058
-153,906	336,384	0,022	0,031
-152,891	264,778	-0,108	-0,136
-151,877	-19,565	0,034	0,015
-150,862	198,662	-0,076	0,083
-149,847	166,398	0,072	0,073
-148,833	-96,153	-0,173	0,033
-147,818	800,000	0,006	-0,016
-146,804	200,099	0,056	0,062
-145,789	555,708	0,008	0,013
-144,775	-200,000	0,014	-0,120
-143,760	11,449	-0,145	-0,080
-142,745	-30,051	0,121	-0,049
-141,731	-12,854	0,091	0,042
-140,716	-200,000	0,030	0,121
-139,702	627,933	-0,016	-0,030
-138,687	-131,876	-0,162	0,015
-137,672	800,000	0,020	-0,043
-136,658	-75,001	-0,105	-0,027
-135,643	339,668	0,029	0,041
-134,629	568,385	-0,089	0,156
-133,614	70,034	-0,104	-0,077
-132,599	304,410	0,103	-0,139
-131,585	407,189	0,068	0,104
-130,570	-200,000	-0,008	-0,043
-129,556	-69,512	-0,083	0,023
-128,541	-200,000	0,008	-0,159
-127,526	21,341	0,076	-0,044
-126,512	261,401	0,062	0,078
-125,497	-200,000	-0,034	0,110
-124,483	-61,309	-0,064	0,019
-123,468	-97,433	-0,115	0,021
-122,453	69,674	0,111	-0,083
-121,439	154,315	-0,018	0,018
-120,424	800,000	0,066	-0,176
-119,410	-200,000	0,022	0,075
