DTS Sentinel unit serial number:	SN410029Multiplexer serial number:	ORYXHardware model number:	OX2-SRSoftware version number:	ORYX F/W v4,00 Oryx Data Collector v3.7.2.0data status	okinstallation	B5 Nyhavnadifferential loss correction	single-endedforward channel	channel 2reverse channel	N/Adate	2023/12/13time	14:17:13forward acquisition time	300,00reverse acquisition time	0,00gamma	499,1914k internal	0,3160k external	0,3160temperature offset calibration	1,0000default loss term (dB/km)	0,3820temperature slope calibration	1,0000multiplexer offset coefficient	1,0000multiplexer slope coefficient	1,0000fibre end	0,00T internal ref (°C)	14,92T ext. ref 1 (°C)	-1,17T ext. ref 2 (°C)	-1,46length (m)	temperature (°C)	Stokes	anti-Stokes-744,400	80,019	0,148	0,117
-743,385	-53,433	-0,250	0,084
-742,371	-159,113	0,147	-0,006
-741,356	-133,086	-0,355	0,033
-740,342	-82,362	0,123	0,029
-739,327	-98,230	-0,240	0,045
-738,312	-60,266	0,135	-0,042
-737,298	-9,003	-0,299	-0,147
-736,283	43,346	0,129	0,087
-735,269	-150,255	-0,295	-0,017
-734,254	-2,190	0,130	0,067
-733,239	-44,922	-0,546	-0,199
-732,225	75,181	0,190	0,148
-731,210	-200,000	0,001	0,114
-730,196	233,341	-0,083	-0,101
-729,181	71,770	-0,071	-0,054
-728,167	-200,000	0,001	0,050
-727,152	-24,394	-0,024	-0,010
-726,137	189,937	-0,105	-0,116
-725,123	3,234	-0,121	-0,064
-724,108	-200,000	-0,010	-0,183
-723,094	147,021	-0,129	-0,128
-722,079	534,013	-0,026	-0,045
-721,064	-200,000	-0,036	-0,198
-720,050	103,537	-0,055	-0,048
-719,035	-200,000	-0,011	-0,155
-718,021	-87,093	-0,094	0,021
-717,006	368,060	0,042	-0,062
-715,991	66,857	0,038	0,029
-714,977	298,271	-0,077	-0,104
-713,962	-101,562	0,075	-0,013
-712,948	800,000	0,025	-0,060
-711,933	-77,725	-0,057	0,014
-710,918	-200,000	-0,028	0,103
-709,904	65,927	0,125	-0,093
-708,889	-200,000	-0,052	-0,180
-707,875	140,634	-0,081	-0,079
-706,860	46,766	0,049	0,034
-705,845	-109,468	0,204	-0,031
-704,831	188,641	-0,055	0,060
-703,816	128,753	-0,090	-0,085
-702,802	-123,921	0,131	-0,015
-701,787	205,359	-0,076	-0,087
-700,772	-200,000	0,013	0,066
-699,758	-13,590	0,079	-0,038
-698,743	273,547	0,099	0,129
-697,729	-172,680	-0,055	0,001
-696,714	800,000	0,059	-0,164
-695,699	194,830	-0,056	-0,063
-694,685	-26,687	-0,118	-0,050
-693,670	800,000	-0,026	-0,080
-692,656	-99,939	-0,028	-0,005
-691,641	130,706	0,068	0,064
-690,627	800,000	-0,009	-0,025
-689,612	382,200	0,049	0,074
-688,597	584,440	-0,018	-0,033
-687,583	663,909	-0,083	-0,157
-686,568	47,277	-0,109	-0,075
-685,554	-31,698	0,024	0,010
-684,539	800,000	-0,012	0,033
-683,524	483,362	0,049	0,082
-682,510	-200,000	-0,029	0,117
-681,495	-25,795	-0,154	0,067
-680,481	203,865	0,065	-0,074
-679,466	11,369	0,053	0,030
-678,451	-140,510	-0,079	0,006
-677,437	290,181	0,071	-0,095
-676,422	275,030	0,138	0,180
-675,408	-200,000	0,002	0,019
-674,393	271,827	-0,033	-0,042
-673,378	-13,207	-0,115	0,055
-672,364	-108,621	-0,009	-0,001
-671,349	523,962	-0,036	0,062
-670,335	40,728	0,102	0,067
-669,320	-160,842	0,084	0,003
-668,305	-139,543	-0,080	-0,006
-667,291	-71,899	0,073	-0,020
-666,276	280,821	-0,083	-0,110
-665,262	193,502	0,045	0,050
-664,247	538,606	-0,066	0,116
-663,232	-200,000	0,015	0,059
-662,218	800,000	-0,069	0,166
-661,203	24,629	0,125	0,076
-660,189	-200,000	-0,012	0,122
-659,174	232,210	0,033	-0,040
-658,159	-49,354	-0,127	-0,044
-657,145	63,673	-0,027	0,020
-656,130	116,193	-0,035	0,031
-655,116	-200,000	-0,002	0,039
-654,101	-200,000	0,010	0,038
-653,086	800,000	-0,068	-0,150
-652,072	-131,551	0,213	0,020
-651,057	490,408	-0,076	-0,128
-650,043	-80,407	-0,047	0,012
-649,028	-54,599	0,100	0,033
-648,014	800,000	-0,022	-0,050
-646,999	-178,393	0,087	0,001
-645,984	-200,000	-0,008	0,055
-644,970	-200,000	0,011	-0,084
-643,955	-81,874	-0,012	0,003
-642,941	-200,000	0,007	-0,074
-641,926	800,000	-0,068	0,158
-640,911	-200,000	-0,006	0,133
-639,897	800,000	0,021	0,068
-638,882	-200,000	-0,019	0,098
-637,868	-200,000	0,012	-0,054
-636,853	208,958	0,037	0,042
-635,838	-79,361	-0,061	0,015
-634,824	-200,000	0,020	0,263
-633,809	313,721	0,008	0,011
-632,795	-182,847	0,113	-0,001
-631,780	-60,132	-0,088	-0,027
-630,765	487,470	-0,042	-0,071
-629,751	-136,151	-0,097	0,008
-628,736	418,423	-0,044	-0,069
-627,722	-31,148	-0,051	-0,021
-626,707	-78,566	0,088	0,022
-625,692	-30,241	0,091	-0,038
-624,678	236,563	0,060	0,073
-623,663	800,000	-0,025	-0,059
-622,649	-93,513	0,103	0,021
-621,634	486,188	-0,039	-0,065
-620,619	34,051	-0,174	-0,111
-619,605	51,162	0,011	-0,007
-618,590	-200,000	0,009	0,100
-617,576	20,308	-0,085	0,050
-616,561	-200,000	-0,033	0,139
-615,546	-200,000	-0,011	0,067
-614,532	-200,000	0,042	-0,184
-613,517	119,485	0,037	0,034
-612,503	-200,000	-0,005	-0,018
-611,488	-200,000	0,039	0,184
-610,474	-98,496	0,071	0,013
-609,459	-129,125	0,107	0,011
-608,444	-200,000	-0,025	-0,084
-607,430	-10,181	-0,191	-0,093
-606,415	800,000	-0,080	-0,239
-605,401	43,729	-0,126	0,084
-604,386	-181,518	0,035	-0,000
-603,371	-19,170	0,175	0,079
-602,357	237,726	-0,007	-0,009
-601,342	-122,476	0,043	-0,005
-600,328	-200,000	-0,019	-0,161
-599,313	396,730	-0,068	-0,104
-598,298	-197,524	0,208	0,001
-597,284	-7,523	0,157	0,077
-596,269	800,000	0,062	0,179
-595,255	-151,108	-0,044	0,002
-594,240	714,065	0,057	0,111
-593,225	272,012	-0,036	-0,046
-592,211	9,951	0,090	-0,050
-591,196	-88,612	-0,132	0,028
-590,182	-27,213	0,043	0,018
-589,167	-155,860	-0,075	0,003
-588,152	-59,550	0,051	0,016
-587,138	-200,000	-0,020	-0,119
-586,123	354,665	-0,100	-0,146
-585,109	268,296	0,069	-0,088
-584,094	-65,380	-0,166	-0,048
-583,079	264,386	0,080	-0,102
-582,065	-53,638	-0,098	0,033
-581,050	488,177	0,011	-0,019
-580,036	-200,000	0,000	0,019
-579,021	-69,092	-0,102	-0,029
-578,006	-177,651	-0,146	-0,003
-576,992	800,000	0,034	-0,084
-575,977	-200,000	0,020	-0,087
-574,963	161,017	0,131	0,134
-573,948	-200,000	0,029	-0,125
-572,934	265,844	-0,042	-0,053
-571,919	507,254	0,034	0,058
-570,904	-20,065	-0,057	0,026
-569,890	-200,000	-0,021	-0,087
-568,875	-98,002	0,113	-0,021
-567,861	95,486	-0,087	0,073
-566,846	118,816	0,113	0,102
-565,831	-200,000	-0,001	-0,032
-564,817	-70,362	-0,042	-0,011
-563,802	174,304	-0,116	0,123
-562,788	800,000	-0,029	0,076
-561,773	800,000	-0,007	-0,018
-560,758	-200,000	-0,003	0,012
-559,744	30,816	-0,126	0,079
-558,729	-200,000	0,008	0,157
-557,715	-64,049	-0,068	0,020
-556,700	-2,450	-0,126	-0,064
-555,685	46,385	-0,026	-0,017
-554,671	-71,100	0,055	-0,015
-553,656	-200,000	0,010	-0,051
-552,642	-38,910	0,136	-0,052
-551,627	-112,124	-0,066	-0,010
-550,612	101,891	-0,049	0,042
-549,598	-108,980	-0,203	0,031
-548,583	2,484	-0,049	0,026
-547,569	290,249	-0,094	-0,126
-546,554	-200,000	-0,068	-0,000
-545,539	514,009	-0,017	0,029
-544,525	800,000	-0,026	-0,067
-543,510	-18,737	0,087	-0,039
-542,496	-19,270	0,091	-0,041
-541,481	800,000	-0,015	0,043
-540,466	800,000	-0,043	-0,114
-539,452	-200,000	-0,004	-0,200
-538,437	-67,847	0,067	-0,019
-537,423	-200,000	-0,027	-0,115
-536,408	27,207	-0,026	-0,016
-535,393	26,567	0,072	-0,044
-534,379	306,022	0,028	-0,039
-533,364	-200,000	-0,009	0,065
-532,350	273,171	-0,021	-0,027
-531,335	455,006	-0,050	-0,081
-530,321	-200,000	0,025	0,117
-529,306	-115,490	0,166	-0,023
-528,291	52,688	0,176	-0,123
-527,277	52,730	-0,041	-0,028
-526,262	235,595	-0,079	-0,095
-525,248	800,000	-0,012	0,033
-524,233	-200,000	-0,008	0,102
-523,218	800,000	-0,041	0,102
-522,204	800,000	0,040	0,096
-521,189	800,000	-0,039	-0,105
-520,175	-200,000	-0,011	-0,113
-519,160	-30,007	0,161	-0,067
-518,145	-200,000	0,008	0,134
-517,131	64,780	-0,094	0,069
-516,116	-57,507	-0,050	0,016
-515,102	54,817	0,106	0,075
-514,087	615,429	-0,045	0,083
-513,072	-200,000	0,036	-0,120
-512,058	-200,000	-0,024	-0,109
-511,043	-104,454	0,171	-0,029
-510,029	141,674	0,066	0,063
-509,014	90,212	-0,075	0,061
-507,999	59,919	0,027	0,019
-506,985	114,267	-0,107	0,095
-505,970	206,135	-0,079	-0,090
-504,956	151,033	0,111	-0,110
-503,941	16,708	0,016	0,009
-502,926	-158,584	0,082	-0,003
-501,912	-200,000	0,010	-0,073
-500,897	454,424	-0,044	0,072
-499,883	-173,540	-0,044	0,001
-498,868	800,000	0,037	-0,099
-497,853	365,057	-0,036	0,053
-496,839	-8,833	0,053	-0,026
-495,824	-58,440	0,098	0,031
-494,810	223,646	0,013	-0,016
-493,795	458,712	0,079	0,129
-492,781	284,391	-0,073	0,096
-491,766	-82,727	-0,139	-0,033
-490,751	800,000	-0,023	-0,051
-489,737	-200,000	0,009	0,054
-488,722	-200,000	-0,021	-0,086
-487,708	-200,000	-0,000	0,189
-486,693	-200,000	0,022	0,153
-485,678	800,000	0,023	-0,047
-484,664	800,000	0,040	-0,082
-483,649	235,198	0,088	-0,106
-482,635	-141,949	-0,035	0,003
-481,620	-200,000	0,002	0,128
-480,605	290,645	-0,061	0,081
-479,591	-200,000	-0,008	0,076
-478,576	142,026	-0,132	-0,128
-477,562	-200,000	-0,003	-0,149
-476,547	461,004	-0,031	-0,051
-475,532	88,578	-0,054	-0,044
-474,518	-200,000	-0,024	0,154
-473,503	-121,959	0,066	0,008
-472,489	97,191	-0,046	0,039
-471,474	-169,309	0,132	-0,003
-470,459	-134,379	-0,057	-0,005
-469,445	800,000	-0,013	-0,028
-468,430	-165,022	0,042	0,001
-467,416	56,618	-0,058	0,041
-466,401	-200,000	0,023	0,085
-465,386	-79,692	-0,065	0,016
-464,372	800,000	-0,021	0,046
-463,357	-200,000	-0,017	-0,101
-462,343	-120,925	0,060	-0,007
-461,328	38,649	-0,166	-0,108
-460,313	-200,000	-0,023	0,077
-459,299	765,343	-0,088	0,174
-458,284	544,701	-0,029	0,051
-457,270	301,638	-0,055	0,075
-456,255	-200,000	-0,011	-0,079
-455,241	-85,015	0,035	0,008
-454,226	-27,849	0,031	-0,013
-453,211	163,560	0,088	-0,090
-452,197	-70,402	-0,114	0,031
-451,182	-14,933	-0,161	0,075
-450,168	396,330	0,091	0,138
-449,153	-1,479	-0,119	0,061
-448,138	-31,477	0,066	-0,027
-447,124	-50,747	-0,093	0,032
-446,109	116,966	-0,047	-0,042
-445,095	354,120	-0,072	-0,104
-444,080	100,834	0,042	0,036
-443,065	-200,000	0,025	-0,100
-442,051	-116,336	-0,029	-0,004
-441,036	-200,000	0,050	-0,209
-440,022	106,921	-0,054	-0,047
-439,007	-45,595	0,072	-0,026
-437,992	155,704	0,034	0,034
-436,978	632,411	0,009	0,017
-435,963	65,319	0,076	0,056
-434,949	-200,000	0,001	0,065
-433,934	143,578	0,036	0,034
-432,919	-200,000	0,031	-0,127
-431,905	20,611	0,061	-0,036
-430,890	86,285	0,061	-0,049
-429,876	248,627	0,072	0,089
-428,861	222,985	0,090	0,105
-427,846	102,326	-0,135	-0,115
-426,832	800,000	-0,081	-0,175
-425,817	-87,692	-0,139	-0,030
-424,803	-34,685	0,097	0,038
-423,788	-137,144	0,101	-0,008
-422,773	124,052	-0,066	-0,060
-421,759	-98,898	0,083	0,015
-420,744	800,000	0,010	0,031
-419,730	20,228	-0,057	0,033
-418,715	-110,424	-0,024	0,004
-417,701	55,902	-0,065	0,046
-416,686	-200,000	-0,029	0,110
-415,671	181,820	-0,102	0,109
-414,657	-102,966	-0,019	0,003
-413,642	-42,602	0,051	0,019
-412,628	429,122	-0,052	0,082
-411,613	49,202	-0,039	0,027
-410,598	273,912	-0,117	0,151
-409,584	217,770	0,056	0,065
-408,569	80,609	0,090	-0,071
-407,555	-200,000	0,007	0,095
-406,540	800,000	0,037	0,084
-405,525	-63,840	-0,074	0,022
-404,511	-200,000	-0,006	-0,110
-403,496	112,985	-0,058	-0,051
-402,482	-15,816	0,044	-0,020
-401,467	-72,355	0,113	-0,030
-400,452	-100,994	-0,147	0,026
-399,438	-43,712	0,069	0,025
-398,423	86,907	-0,088	0,070
-397,409	-58,354	0,106	0,033
-396,394	69,544	-0,097	-0,073
-395,379	-46,611	0,009	0,003
-394,365	-58,956	0,128	0,040
-393,350	-200,000	-0,024	0,082
-392,336	675,853	-0,024	0,045
-391,321	101,819	-0,074	0,063
-390,306	-106,674	-0,057	0,009
-389,292	-193,348	-0,079	-0,000
-388,277	762,569	0,025	0,049
-387,263	800,000	-0,017	0,038
-386,248	-119,867	-0,072	0,009
-385,233	53,274	0,059	-0,041
-384,219	258,817	-0,058	0,073
-383,204	40,468	0,048	-0,031
-382,190	-61,600	0,084	0,025
-381,175	800,000	0,026	-0,065
-380,160	42,911	-0,051	0,034
-379,146	-200,000	0,007	0,172
-378,131	-200,000	-0,009	-0,069
-377,117	179,697	-0,016	0,018
-376,102	334,727	0,025	0,035
-375,088	23,034	0,037	0,022
-374,073	800,000	0,058	-0,120
-373,058	-200,000	0,010	-0,052
-372,044	800,000	-0,074	0,214
-371,029	215,821	-0,028	0,032
-370,015	-200,000	-0,006	0,056
-369,000	-167,007	-0,091	-0,003
-367,985	-73,726	0,008	0,002
-366,971	718,115	0,071	-0,137
-365,956	-200,000	0,009	0,063
-364,942	-200,000	-0,045	0,156
-363,927	800,000	-0,039	-0,093
-362,912	80,497	0,041	0,032
-361,898	-200,000	-0,012	-0,066
-360,883	-73,803	-0,069	0,018
-359,869	79,791	0,059	0,046
-358,854	-200,000	-0,002	0,126
-357,839	-200,000	0,013	0,130
-356,825	91,051	-0,142	0,115
-355,810	-200,000	-0,050	0,188
-354,796	114,841	0,051	-0,046
-353,781	91,978	0,091	-0,074
-352,766	-97,552	-0,111	-0,021
-351,752	746,471	-0,034	-0,067
-350,737	-200,000	-0,010	0,071
-349,723	16,182	0,099	-0,057
-348,708	152,538	0,124	0,123
-347,693	800,000	0,041	-0,121
-346,679	-200,000	0,034	0,114
-345,664	238,693	0,069	-0,084
-344,650	-169,514	-0,144	0,004
-343,635	-200,000	0,015	0,057
-342,620	-5,650	0,005	0,003
-341,606	-200,000	-0,008	-0,062
-340,591	-110,227	-0,182	0,027
-339,577	101,925	-0,044	-0,037
-338,562	-200,000	0,013	-0,043
-337,548	-200,000	0,015	-0,159
-336,533	207,804	0,099	0,112
-335,518	-52,440	-0,041	-0,014
-334,504	-200,000	-0,014	0,059
-333,489	800,000	-0,020	0,045
-332,475	188,572	0,112	-0,122
-331,460	96,403	-0,058	-0,048
-330,445	88,302	-0,066	0,053
-329,431	-200,000	-0,015	-0,049
-328,416	-138,396	0,139	0,011
-327,402	337,229	-0,025	-0,035
-326,387	-200,000	0,017	0,074
-325,372	62,417	-0,123	-0,089
-324,358	168,836	-0,104	-0,108
-323,343	-14,218	0,099	-0,046
-322,329	699,663	0,014	0,028
-321,314	206,720	0,030	0,034
-320,299	331,615	-0,055	-0,076
-319,285	23,024	0,089	-0,053
-318,270	406,434	-0,024	-0,037
-317,256	-46,682	-0,099	0,035
-316,241	34,707	0,025	-0,016
-315,226	-200,000	-0,023	0,138
-314,212	-8,290	0,103	-0,050
-313,197	176,197	-0,058	0,061
-312,183	124,538	0,052	-0,048
-311,168	-200,000	-0,018	-0,076
-310,153	556,262	0,064	0,113
-309,139	-200,000	0,009	-0,051
-308,124	-200,000	0,010	-0,046
-307,110	-23,312	-0,153	0,066
-306,095	196,906	0,102	0,113
-305,080	800,000	-0,084	-0,215
-304,066	-200,000	0,004	-0,033
-303,051	143,097	-0,116	-0,112
-302,037	263,312	-0,051	-0,064
-301,022	-83,610	0,066	-0,015
-300,008	800,000	-0,012	0,035
-298,993	480,666	-0,019	-0,031
-297,978	336,331	-0,027	0,038
-296,964	-158,591	0,110	0,005
-295,949	-85,250	-0,141	-0,032
-294,935	104,949	0,040	-0,034
-293,920	-200,000	0,000	-0,018
-292,905	-73,655	0,062	-0,016
-291,891	394,538	0,086	0,130
-290,876	466,971	0,051	0,084
-289,862	407,840	-0,071	-0,109
-288,847	471,117	-0,088	0,144
-287,832	-200,000	-0,011	-0,058
-286,818	-93,058	0,092	-0,018
-285,803	186,423	0,062	0,067
-284,789	95,315	0,105	-0,086
-283,774	-58,639	-0,168	-0,052
-282,759	-200,000	0,001	-0,079
-281,745	-161,808	-0,115	0,004
-280,730	-3,769	-0,101	0,050
-279,716	57,710	0,022	-0,016
-278,701	-200,000	0,008	0,060
-277,686	565,192	-0,050	0,087
-276,672	21,051	-0,110	0,065
-275,657	-34,843	0,117	-0,046
-274,643	50,026	0,086	0,059
-273,628	20,429	0,047	0,027
-272,613	-179,990	0,087	-0,001
-271,599	800,000	0,024	0,049
-270,584	800,000	0,011	0,035
-269,570	-50,663	0,157	-0,053
-268,555	-118,287	0,024	-0,003
-267,540	-200,000	0,013	-0,164
-266,526	-200,000	-0,032	-0,104
-265,511	-200,000	-0,020	-0,123
-264,497	21,687	0,103	-0,060
-263,482	-200,000	0,012	-0,049
-262,467	-107,303	-0,188	0,030
-261,453	800,000	0,012	0,035
-260,438	-131,783	-0,058	0,005
-259,424	214,174	-0,041	-0,047
-258,409	-200,000	-0,008	-0,043
-257,395	205,997	-0,057	-0,065
-256,380	-200,000	-0,010	-0,055
-255,365	800,000	-0,086	0,180
-254,351	-200,000	-0,001	-0,029
-253,336	800,000	-0,017	-0,043
-252,322	-77,862	-0,079	0,020
-251,307	-37,168	-0,019	0,008
-250,292	800,000	0,021	-0,048
-249,278	645,000	0,021	0,040
-248,263	86,484	-0,126	-0,100
-247,249	-200,000	0,001	-0,090
-246,234	222,931	0,041	-0,048
-245,219	196,107	-0,103	-0,113
-244,205	146,272	0,028	0,027
-243,190	188,461	-0,062	0,067
-242,176	392,275	0,111	0,167
-241,161	-200,000	0,041	0,141
-240,146	-33,288	0,088	-0,035
-239,132	-58,233	0,125	0,039
-238,117	-47,580	-0,080	-0,028
-237,103	-110,575	-0,124	-0,018
-236,088	-200,000	0,023	-0,166
-235,073	800,000	0,057	-0,179
-234,059	-200,000	-0,021	-0,151
-233,044	-91,074	-0,110	-0,023
-232,030	-20,886	-0,134	-0,059
-231,015	-97,682	-0,025	0,005
-230,000	-200,000	0,010	0,141
-228,986	-200,000	0,013	-0,054
-227,971	-200,000	0,022	-0,071
-226,957	439,326	0,034	0,054
-225,942	139,895	0,096	0,091
-224,927	-200,000	-0,002	-0,072
-223,913	-200,000	0,053	-0,172
-222,898	410,415	-0,071	-0,108
-221,884	-161,242	0,165	-0,006
-220,869	169,078	0,067	-0,069
-219,855	20,952	-0,085	0,049
-218,840	175,796	-0,054	0,056
-217,825	36,199	-0,063	0,040
-216,811	148,173	-0,051	-0,050
-215,796	16,725	0,053	-0,030
-214,782	800,000	0,022	-0,048
-213,767	800,000	-0,050	0,101
-212,752	800,000	-0,016	-0,036
-211,738	-136,001	0,153	0,013
-210,723	-60,162	0,043	0,013
-209,709	-135,265	-0,072	-0,006
-208,694	-138,648	-0,095	0,007
-207,679	-200,000	-0,030	-0,226
-206,665	48,164	0,134	0,090
-205,650	800,000	-0,045	0,105
-204,636	-109,949	0,213	0,032
-203,621	-61,701	0,071	-0,021
-202,606	-55,610	-0,024	0,008
-201,592	618,662	-0,045	0,083
-200,577	-200,000	0,024	-0,102
-199,563	143,943	0,119	0,114
-198,548	-200,000	0,044	0,153
-197,533	-23,688	0,033	0,014
-196,519	-11,248	0,159	0,075
-195,504	-200,000	-0,025	0,203
-194,490	800,000	0,028	-0,057
-193,475	-200,000	-0,018	0,084
-192,460	673,283	-0,067	0,126
-191,446	-112,624	-0,029	0,004
-190,431	800,000	0,040	-0,121
-189,417	-123,536	0,121	0,014
-188,402	800,000	0,037	-0,105
-187,387	800,000	0,037	-0,115
-186,373	-200,000	-0,051	-0,252
-185,358	428,290	0,028	-0,044
-184,344	-200,000	0,021	0,107
-183,329	255,810	0,077	-0,096
-182,315	-74,175	-0,110	0,029
-181,300	406,017	-0,014	0,021
-180,285	402,872	0,055	-0,084
-179,271	-83,246	0,182	0,042
-178,256	160,704	0,114	-0,115
-177,242	-132,765	0,108	-0,010
-176,227	-73,471	-0,079	-0,021
-175,212	-102,985	0,149	-0,025
-174,198	28,752	0,129	0,078
-173,183	-31,786	0,059	-0,024
-172,169	63,436	-0,020	-0,014
-171,154	65,090	0,035	-0,026
-170,139	19,486	0,094	0,054
-169,125	149,909	0,070	0,069
-168,110	193,149	-0,077	-0,083
-167,096	241,470	0,077	0,093
-166,081	329,527	0,098	0,137
-165,066	-106,763	-0,097	0,015
-164,052	-200,000	0,014	-0,098
-163,037	-119,223	-0,028	0,003
-162,023	46,247	0,093	0,062
-161,008	3,497	0,135	0,071
-159,993	-49,693	-0,060	-0,020
-158,979	-37,739	-0,066	-0,025
-157,964	-200,000	0,031	-0,106
-156,950	800,000	-0,018	-0,041
-155,935	-127,943	-0,077	0,008
-154,920	-200,000	-0,008	0,134
-153,906	-107,164	-0,027	-0,004
-152,891	800,000	0,051	0,130
-151,877	316,611	-0,039	0,053
-150,862	-98,866	-0,111	0,020
-149,847	280,245	0,097	0,125
-148,833	175,734	0,022	0,023
-147,818	46,607	0,083	0,056
-146,804	800,000	0,034	0,089
-145,789	-200,000	0,012	0,073
-144,775	246,163	0,068	0,083
-143,760	-93,585	-0,076	0,015
-142,745	800,000	-0,047	-0,115
-141,731	800,000	0,050	-0,127
-140,716	-67,498	-0,124	-0,035
-139,702	-64,455	0,070	-0,020
-138,687	800,000	-0,058	0,170
-137,672	358,418	-0,060	0,087
-136,658	800,000	-0,050	-0,100
-135,643	76,412	-0,024	-0,018
-134,629	-78,605	-0,118	0,029
-133,614	-36,219	-0,017	0,007
-132,599	18,790	0,023	0,013
-131,585	75,410	-0,118	0,089
-130,570	-200,000	0,007	0,158
-129,556	-107,771	0,027	0,004
-128,541	-200,000	-0,012	0,135
-127,526	-100,958	-0,102	0,018
-126,512	203,139	-0,068	-0,076
-125,497	18,211	-0,087	0,050
-124,483	193,809	0,055	0,060
-123,468	-200,000	0,004	0,071
-122,453	26,089	-0,101	-0,060
-121,439	-0,216	-0,097	-0,049
-120,424	-200,000	-0,009	0,041
-119,410	-184,498	0,166	-0,002
