DTS Sentinel unit serial number:	SN410029Multiplexer serial number:	ORYXHardware model number:	OX2-SRSoftware version number:	ORYX F/W v4,00 Oryx Data Collector v3.7.2.0data status	okinstallation	B5 Nyhavnadifferential loss correction	single-endedforward channel	channel 2reverse channel	N/Adate	2023/12/14time	12:27:13forward acquisition time	300,00reverse acquisition time	0,00gamma	499,1914k internal	0,3158k external	0,3158temperature offset calibration	1,0000default loss term (dB/km)	0,3820temperature slope calibration	1,0000multiplexer offset coefficient	1,0000multiplexer slope coefficient	1,0000fibre end	0,00T internal ref (°C)	7,81T ext. ref 1 (°C)	-7,64T ext. ref 2 (°C)	-7,73length (m)	temperature (°C)	Stokes	anti-Stokes-744,400	42,624	0,066	0,044
-743,385	-40,573	-0,427	-0,163
-742,371	-116,036	0,227	0,031
-741,356	-95,025	-0,346	-0,068
-740,342	221,324	0,140	0,167
-739,327	5,895	-0,495	-0,269
-738,312	-12,732	0,230	0,110
-737,298	24,450	-0,235	-0,143
-736,283	-91,601	0,168	0,035
-735,269	-162,133	-0,341	-0,012
-734,254	-200,000	-0,014	0,084
-733,239	-21,361	-0,644	-0,288
-732,225	20,595	0,230	0,137
-731,210	-200,000	0,050	0,178
-730,196	800,000	-0,032	-0,067
-729,181	-114,908	-0,091	-0,013
-728,167	-200,000	0,005	0,057
-727,152	157,194	-0,053	-0,054
-726,137	-200,000	0,011	-0,161
-725,123	-126,907	-0,132	-0,014
-724,108	-200,000	0,008	-0,107
-723,094	366,463	-0,025	-0,038
-722,079	-28,176	-0,223	-0,094
-721,064	-126,484	0,073	-0,008
-720,050	-200,000	-0,020	0,097
-719,035	-19,549	0,075	-0,034
-718,021	-200,000	0,004	0,026
-717,006	29,438	-0,081	-0,050
-715,991	252,800	-0,167	-0,210
-714,977	59,454	-0,168	-0,122
-713,962	95,448	0,069	0,058
-712,948	76,172	0,146	0,114
-711,933	79,252	-0,113	-0,089
-710,918	22,436	-0,059	0,035
-709,904	-174,863	-0,155	0,003
-708,889	-200,000	-0,010	-0,048
-707,875	800,000	-0,052	-0,115
-706,860	590,100	-0,032	-0,059
-705,845	-200,000	0,004	-0,042
-704,831	2,157	0,071	0,038
-703,816	-118,208	0,059	0,008
-702,802	-17,447	0,105	-0,048
-701,787	137,844	-0,112	0,109
-700,772	167,094	-0,061	-0,063
-699,758	591,512	0,036	-0,066
-698,743	215,655	0,035	0,041
-697,729	-200,000	-0,033	0,123
-696,714	-96,179	0,083	0,016
-695,699	-109,887	-0,127	-0,019
-694,685	97,608	-0,025	-0,021
-693,670	493,262	-0,051	0,087
-692,656	-132,422	-0,162	0,015
-691,641	-29,069	0,018	-0,007
-690,627	128,445	0,058	-0,054
-689,612	-200,000	0,000	0,097
-688,597	-72,109	0,059	-0,016
-687,583	86,205	-0,116	-0,094
-686,568	102,562	0,034	0,029
-685,554	800,000	-0,067	-0,177
-684,539	-200,000	0,000	-0,001
-683,524	1,734	-0,063	0,033
-682,510	-85,707	-0,004	0,001
-681,495	235,354	-0,052	-0,064
-680,481	-94,232	-0,043	-0,009
-679,466	-200,000	0,001	0,012
-678,451	-107,758	-0,183	-0,029
-677,437	319,717	-0,075	0,105
-676,422	107,078	0,071	0,062
-675,408	675,752	-0,025	-0,048
-674,393	310,746	-0,049	0,068
-673,378	476,180	-0,111	-0,185
-672,364	-200,000	0,008	0,043
-671,349	-133,447	-0,188	-0,017
-670,335	-95,733	0,077	0,015
-669,320	498,813	-0,047	-0,079
-668,305	-116,569	0,159	-0,021
-667,291	642,488	-0,064	0,121
-666,276	-130,143	-0,064	0,006
-665,262	-50,202	0,032	0,011
-664,247	-97,093	-0,009	-0,002
-663,232	-200,000	-0,026	-0,087
-662,218	800,000	0,018	0,041
-661,203	614,026	-0,055	0,102
-660,189	-102,489	-0,067	0,012
-659,174	81,837	0,010	0,008
-658,159	800,000	-0,028	-0,081
-657,145	128,677	-0,087	-0,081
-656,130	800,000	-0,002	0,003
-655,116	-200,000	-0,036	0,205
-654,101	-1,486	-0,043	-0,022
-653,086	123,745	-0,039	-0,036
-652,072	800,000	0,039	-0,102
-651,057	38,389	-0,099	-0,065
-650,043	235,001	-0,094	-0,114
-649,028	-53,257	0,066	0,022
-648,014	-200,000	0,003	0,026
-646,999	-200,000	0,003	0,077
-645,984	-200,000	-0,000	0,155
-644,970	-15,974	-0,131	0,061
-643,955	-51,353	0,055	-0,019
-642,941	-109,912	-0,061	0,009
-641,926	1,613	0,130	-0,069
-640,911	-200,000	0,014	-0,120
-639,897	-200,000	-0,007	-0,172
-638,882	-118,740	-0,153	0,020
-637,868	-117,230	0,054	0,007
-636,853	-178,339	-0,090	-0,002
-635,838	186,928	0,090	-0,099
-634,824	800,000	0,105	-0,227
-633,809	-200,000	-0,012	-0,139
-632,795	-32,854	-0,047	-0,019
-631,780	-200,000	-0,008	0,032
-630,765	-166,770	-0,186	0,006
-629,751	-40,378	0,030	-0,011
-628,736	-133,725	0,042	0,004
-627,722	-200,000	0,013	-0,059
-626,707	626,063	-0,055	0,101
-625,692	74,964	-0,016	0,012
-624,678	-136,165	0,101	-0,009
-623,663	94,531	-0,105	-0,087
-622,649	-120,838	0,013	0,002
-621,634	-79,659	-0,082	-0,020
-620,619	-200,000	0,007	-0,117
-619,605	-100,474	0,101	-0,018
-618,590	7,243	-0,049	-0,027
-617,576	-200,000	-0,018	0,061
-616,561	39,944	-0,103	-0,068
-615,546	-105,167	-0,119	0,020
-614,532	739,141	-0,014	-0,028
-613,517	-113,219	-0,017	-0,002
-612,503	-200,000	-0,035	0,163
-611,488	197,033	-0,015	0,017
-610,474	-200,000	0,007	-0,070
-609,459	51,365	0,005	0,004
-608,444	-200,000	0,028	-0,185
-607,430	-200,000	0,036	-0,191
-606,415	-123,640	-0,095	-0,011
-605,401	800,000	0,065	-0,145
-604,386	-9,978	0,061	-0,030
-603,371	-200,000	0,007	0,046
-602,357	-42,256	0,105	0,039
-601,342	800,000	-0,029	0,083
-600,328	-200,000	0,000	-0,129
-599,313	-200,000	-0,019	-0,135
-598,298	420,957	-0,057	0,089
-597,284	110,527	-0,016	-0,014
-596,269	137,146	0,079	0,075
-595,255	-71,170	-0,022	-0,006
-594,240	800,000	0,103	-0,222
-593,225	415,823	-0,116	-0,182
-592,211	800,000	0,036	-0,111
-591,196	270,364	0,089	0,114
-590,182	-18,877	-0,040	-0,018
-589,167	25,921	0,143	-0,087
-588,152	-181,848	-0,118	-0,002
-587,138	-200,000	-0,002	0,016
-586,123	-133,061	0,055	-0,005
-585,109	-63,788	-0,075	-0,022
-584,094	211,994	0,090	-0,104
-583,079	800,000	0,027	-0,077
-582,065	-85,147	-0,199	0,045
-581,050	424,156	0,031	0,049
-580,036	38,735	0,109	-0,071
-579,021	-157,064	-0,021	-0,001
-578,006	-8,496	0,079	0,039
-576,992	800,000	0,036	-0,083
-575,977	608,084	0,058	0,106
-574,963	46,730	-0,080	0,054
-573,948	2,170	-0,104	-0,055
-572,934	-200,000	-0,026	0,172
-571,919	-175,366	0,077	0,002
-570,904	173,966	-0,089	0,095
-569,890	436,524	-0,026	0,042
-568,875	-200,000	0,022	-0,071
-567,861	378,927	0,043	0,065
-566,846	800,000	0,061	0,152
-565,831	-95,455	0,055	-0,011
-564,817	-200,000	-0,027	-0,129
-563,802	11,034	-0,010	-0,006
-562,788	16,989	0,100	0,058
-561,773	389,998	-0,054	0,082
-560,758	317,757	-0,062	0,087
-559,744	407,690	0,007	-0,011
-558,729	49,479	-0,070	-0,048
-557,715	-200,000	-0,002	-0,044
-556,700	13,142	0,084	0,047
-555,685	3,670	-0,080	-0,043
-554,671	-200,000	0,002	0,056
-553,656	20,519	0,079	-0,047
-552,642	-200,000	0,009	0,114
-551,627	20,022	-0,084	0,050
-550,612	84,288	0,075	0,060
-549,598	120,430	-0,094	0,086
-548,583	-103,940	0,160	-0,027
-547,569	-41,648	-0,115	0,043
-546,554	-35,592	-0,056	-0,022
-545,539	-200,000	-0,001	-0,016
-544,525	-87,818	0,116	0,025
-543,510	-200,000	-0,030	-0,160
-542,496	68,425	0,130	-0,097
-541,481	98,366	-0,074	0,062
-540,466	-200,000	0,002	0,097
-539,452	-150,786	-0,046	0,002
-538,437	-200,000	0,034	-0,173
-537,423	-107,163	0,063	0,010
-536,408	188,184	0,020	0,022
-535,393	-200,000	0,023	0,146
-534,379	-136,323	-0,069	0,006
-533,364	800,000	-0,024	0,067
-532,350	545,509	0,021	-0,037
-531,335	32,131	-0,128	0,080
-530,321	-200,000	-0,056	-0,207
-529,306	66,629	-0,097	-0,072
-528,291	46,995	0,131	0,089
-527,277	-200,000	0,004	-0,134
-526,262	-200,000	-0,002	-0,100
-525,248	800,000	0,026	-0,080
-524,233	-61,048	-0,056	0,017
-523,218	-46,760	0,035	-0,012
-522,204	-93,611	-0,064	0,013
-521,189	203,988	0,033	-0,037
-520,175	120,911	-0,084	0,076
-519,160	110,862	0,046	-0,040
-518,145	448,933	-0,031	0,050
-517,131	437,112	-0,009	0,014
-516,116	-95,160	-0,152	-0,030
-515,102	800,000	0,032	0,084
-514,087	-141,483	0,054	-0,004
-513,072	-36,470	-0,107	0,042
-512,058	54,760	-0,029	0,020
-511,043	-41,088	-0,040	-0,015
-510,029	-122,480	-0,113	0,013
-509,014	-66,680	0,045	0,013
-507,999	800,000	0,024	-0,051
-506,985	-91,208	0,014	-0,003
-505,970	-200,000	-0,007	-0,050
-504,956	-200,000	-0,008	-0,069
-503,941	-20,784	0,098	-0,044
-502,926	-84,396	0,177	-0,040
-501,912	90,165	0,037	0,030
-500,897	800,000	0,028	-0,089
-499,883	162,605	0,044	0,045
-498,868	118,818	-0,115	-0,104
-497,853	15,865	0,031	-0,018
-496,839	-118,889	0,081	-0,010
-495,824	106,232	0,095	-0,083
-494,810	-31,387	0,045	-0,018
-493,795	-200,000	-0,005	-0,019
-492,781	316,691	0,069	-0,095
-491,766	800,000	-0,012	-0,032
-490,751	-11,498	-0,139	-0,067
-489,737	800,000	-0,015	0,044
-488,722	-32,440	-0,072	-0,029
-487,708	-200,000	0,014	0,061
-486,693	98,980	0,078	-0,066
-485,678	-135,870	-0,113	-0,010
-484,664	-126,174	0,111	-0,012
-483,649	-141,321	-0,049	0,004
-482,635	336,750	-0,016	0,023
-481,620	-19,789	-0,140	-0,063
-480,605	188,386	0,104	0,114
-479,591	48,739	-0,110	0,075
-478,576	116,322	0,127	0,113
-477,562	15,271	-0,069	0,039
-476,547	800,000	-0,083	-0,169
-475,532	-200,000	-0,007	-0,089
-474,518	-89,563	0,128	0,027
-473,503	6,814	-0,120	-0,065
-472,489	231,645	-0,036	0,043
-471,474	800,000	-0,005	0,015
-470,459	-200,000	0,002	0,077
-469,445	191,529	0,065	0,072
-468,430	-94,308	-0,129	0,025
-467,416	-69,594	0,028	-0,008
-466,401	-135,198	-0,195	0,017
-465,386	-63,728	0,041	0,012
-464,372	181,129	0,031	0,033
-463,357	81,489	0,114	-0,090
-462,343	-200,000	0,005	-0,052
-461,328	39,332	0,063	-0,041
-460,313	-200,000	0,010	-0,101
-459,299	56,252	0,061	-0,043
-458,284	-200,000	0,005	0,092
-457,270	-103,085	0,089	-0,015
-456,255	-200,000	-0,051	0,186
-455,241	-200,000	-0,020	0,074
-454,226	84,255	-0,086	-0,068
-453,211	-65,930	-0,085	-0,025
-452,197	55,274	0,181	-0,127
-451,182	107,550	0,085	0,074
-450,168	-200,000	0,004	-0,019
-449,153	-47,646	-0,174	-0,061
-448,138	121,438	0,014	0,013
-447,124	-200,000	-0,003	0,046
-446,109	-200,000	0,024	0,103
-445,095	-200,000	0,014	0,090
-444,080	-164,580	0,147	0,005
-443,065	-11,902	-0,067	0,032
-442,051	-200,000	-0,013	0,135
-441,036	-58,866	-0,015	-0,005
-440,022	-200,000	-0,013	-0,100
-439,007	403,440	0,022	0,034
-437,992	11,020	-0,136	-0,075
-436,978	-72,048	0,118	-0,032
-435,963	559,352	0,018	0,032
-434,949	37,693	0,082	-0,053
-433,934	120,979	-0,084	0,076
-432,919	-62,138	-0,095	-0,029
-431,905	-82,507	-0,141	-0,033
-430,890	800,000	-0,010	-0,022
-429,876	223,766	-0,043	0,051
-428,861	44,824	0,148	-0,099
-427,846	-200,000	0,024	-0,091
-426,832	-74,204	-0,215	-0,056
-425,817	-200,000	-0,001	-0,012
-424,803	397,328	0,048	-0,073
-423,788	-200,000	0,001	0,051
-422,773	-101,434	0,097	-0,017
-421,759	118,557	0,053	-0,048
-420,744	800,000	0,042	0,120
-419,730	-32,334	-0,182	-0,074
-418,715	541,754	0,012	-0,020
-417,701	-117,838	0,130	0,017
-416,686	-200,000	0,037	0,237
-415,671	-180,860	0,105	-0,002
-414,657	330,180	0,042	0,059
-413,642	-82,243	-0,125	0,029
-412,628	316,810	0,053	-0,073
-411,613	25,969	0,107	-0,065
-410,598	-200,000	0,053	-0,222
-409,584	570,016	-0,021	-0,038
-408,569	167,294	0,080	0,083
-407,555	89,897	0,027	-0,022
-406,540	121,090	0,048	0,043
-405,525	-9,899	-0,069	0,033
-404,511	-51,901	0,064	-0,022
-403,496	-200,000	-0,173	-0,000
-402,482	62,988	-0,043	0,031
-401,467	-200,000	0,007	0,195
-400,452	377,343	-0,081	-0,120
-399,438	-200,000	-0,014	-0,063
-398,423	-83,652	0,129	0,030
-397,409	461,928	-0,067	0,109
-396,394	-132,591	-0,091	0,008
-395,379	-98,600	0,067	0,012
-394,365	78,698	0,047	-0,036
-393,350	441,164	0,078	0,125
-392,336	-200,000	0,037	0,226
-391,321	-144,831	0,155	0,010
-390,306	-200,000	0,017	-0,093
-389,292	-200,000	0,027	0,117
-388,277	6,601	-0,064	-0,035
-387,263	-20,236	-0,077	0,034
-386,248	134,773	0,159	-0,151
-385,233	800,000	0,029	-0,081
-384,219	-200,000	0,008	-0,071
-383,204	39,615	-0,094	-0,061
-382,190	199,321	0,098	-0,110
-381,175	-15,033	-0,048	-0,022
-380,160	-124,169	0,128	0,014
-379,146	241,241	0,056	0,069
-378,131	192,414	0,052	0,057
-377,117	25,162	-0,038	0,023
-376,102	-104,602	0,011	0,002
-375,088	800,000	0,027	0,060
-374,073	103,549	0,080	0,069
-373,058	510,874	-0,023	0,039
-372,044	-200,000	-0,001	0,049
-371,029	-80,593	0,087	0,021
-370,015	-200,000	0,029	0,108
-369,000	71,587	-0,045	0,034
-367,985	-9,837	-0,171	-0,082
-366,971	-149,956	0,163	0,009
-365,956	106,291	-0,075	0,065
-364,942	208,571	-0,018	0,021
-363,927	-200,000	0,040	-0,154
-362,912	146,533	0,064	-0,063
-361,898	-87,637	-0,086	0,019
-360,883	-3,256	0,095	-0,048
-359,869	185,507	0,028	-0,030
-358,854	140,390	-0,050	0,048
-357,839	402,895	0,127	0,194
-356,825	800,000	-0,053	0,110
-355,810	112,710	0,082	0,072
-354,796	800,000	-0,007	-0,019
-353,781	-200,000	0,019	-0,064
-352,766	101,688	0,067	0,057
-351,752	-146,021	-0,098	-0,006
-350,737	228,610	0,038	-0,045
-349,723	-200,000	0,037	0,214
-348,708	191,858	-0,054	0,060
-347,693	-24,902	0,048	-0,021
-346,679	-87,026	-0,070	-0,015
-345,664	-200,000	0,017	-0,083
-344,650	-160,524	0,105	-0,004
-343,635	-136,529	0,116	0,010
-342,620	287,647	0,041	0,054
-341,606	438,534	-0,095	0,152
-340,591	-84,362	0,146	-0,033
-339,577	-145,388	-0,162	0,010
-338,562	-200,000	0,004	0,106
-337,548	-94,873	-0,055	-0,011
-336,533	-46,259	-0,028	-0,010
-335,518	385,973	0,040	0,061
-334,504	125,357	0,059	-0,054
-333,489	-200,000	-0,017	0,098
-332,475	6,318	-0,125	0,067
-331,460	-200,000	0,037	0,169
-330,445	70,448	0,036	0,027
-329,431	142,483	0,067	0,065
-328,416	769,179	0,061	0,121
-327,402	49,065	0,094	-0,064
-326,387	-31,113	0,098	-0,040
-325,372	390,632	-0,114	0,173
-324,358	-200,000	-0,014	-0,141
-323,343	-20,317	-0,127	0,056
-322,329	126,446	0,062	0,057
-321,314	-54,479	0,031	0,010
-320,299	599,309	0,052	-0,093
-319,285	-87,543	0,113	0,025
-318,270	-112,631	-0,062	-0,009
-317,256	-200,000	0,002	-0,068
-316,241	800,000	-0,023	-0,058
-315,226	-200,000	0,011	-0,264
-314,212	-82,815	-0,162	0,038
-313,197	443,776	0,010	-0,015
-312,183	73,022	-0,032	-0,025
-311,168	44,929	-0,096	-0,064
-310,153	144,828	-0,077	0,075
-309,139	502,558	-0,047	-0,078
-308,124	-35,273	-0,049	-0,019
-307,110	176,228	0,079	0,083
-306,095	-129,207	0,030	0,003
-305,080	164,487	0,078	-0,080
-304,066	646,387	0,041	-0,076
-303,051	-200,000	-0,016	-0,122
-302,037	117,016	0,030	-0,026
-301,022	800,000	-0,058	0,142
-300,008	128,261	-0,029	0,027
-298,993	800,000	-0,032	0,076
-297,978	-61,749	-0,032	0,010
-296,964	532,563	-0,014	0,024
-295,949	-200,000	-0,015	-0,073
-294,935	800,000	-0,050	0,139
-293,920	-155,071	-0,058	-0,003
-292,905	338,809	0,027	-0,038
-291,891	-200,000	-0,003	0,065
-290,876	63,525	0,114	0,083
-289,862	-65,571	-0,098	-0,028
-288,847	-200,000	-0,031	-0,243
-287,832	-11,971	0,078	0,037
-286,818	-63,955	-0,019	-0,005
-285,803	54,086	-0,011	-0,008
-284,789	60,330	0,064	-0,046
-283,774	-97,583	-0,119	-0,022
-282,759	-100,636	0,072	0,013
-281,745	-81,741	-0,142	-0,033
-280,730	-200,000	-0,002	-0,094
-279,716	-151,472	0,076	0,004
-278,701	800,000	0,040	0,081
-277,686	-104,190	0,052	-0,009
-276,672	418,401	-0,051	0,080
-275,657	-166,500	0,062	-0,002
-274,643	800,000	0,040	-0,082
-273,628	800,000	0,025	-0,063
-272,613	224,275	0,055	-0,065
-271,599	-108,657	0,073	0,011
-270,584	81,964	-0,023	0,018
-269,570	-31,959	-0,159	0,064
-268,555	78,758	-0,114	0,088
-267,540	296,738	-0,102	-0,136
-266,526	-200,000	-0,033	-0,139
-265,511	-200,000	0,000	-0,026
-264,497	534,754	0,008	0,013
-263,482	-76,513	-0,027	0,007
-262,467	-22,045	0,086	0,038
-261,453	-8,199	-0,081	0,039
-260,438	-58,688	-0,032	-0,010
-259,424	-17,723	0,009	-0,004
-258,409	-200,000	0,028	-0,158
-257,395	172,202	0,021	-0,021
-256,380	262,941	-0,055	0,069
-255,365	9,056	0,056	-0,030
-254,351	-4,456	0,089	-0,045
-253,336	-126,835	0,064	0,007
-252,322	29,642	-0,051	-0,031
-251,307	800,000	-0,021	-0,051
-250,292	-200,000	0,022	-0,088
-249,278	-136,294	0,094	0,008
-248,263	-200,000	-0,023	0,087
-247,249	176,769	-0,050	0,052
-246,234	-10,936	-0,075	-0,036
-245,219	47,711	-0,048	0,033
-244,205	-55,237	0,100	0,032
-243,190	-200,000	-0,004	0,079
-242,176	99,924	-0,054	0,045
-241,161	-77,978	0,119	0,029
-240,146	63,664	-0,074	0,054
-239,132	-200,000	0,023	0,083
-238,117	297,817	-0,039	0,052
-237,103	-200,000	-0,006	0,020
-236,088	124,318	-0,037	-0,034
-235,073	312,612	0,049	-0,067
-234,059	71,587	0,046	-0,034
-233,044	79,156	-0,037	0,029
-232,030	-102,749	0,010	-0,002
-231,015	800,000	-0,026	-0,072
-230,000	-200,000	0,019	-0,107
-228,986	-52,586	0,070	0,023
-227,971	-98,094	0,036	-0,007
-226,957	139,276	-0,017	0,016
-225,942	48,631	0,006	-0,004
-224,927	-200,000	-0,015	0,081
-223,913	125,085	-0,097	-0,088
-222,898	-200,000	0,011	-0,039
-221,884	777,734	0,044	0,087
-220,869	315,841	-0,028	0,038
-219,855	234,972	0,066	0,079
-218,840	229,916	-0,020	0,023
-217,825	-112,972	0,039	0,006
-216,811	-200,000	-0,027	-0,107
-215,796	-52,315	-0,105	-0,035
-214,782	793,595	0,042	-0,084
-213,767	207,779	-0,076	0,085
-212,752	-67,909	0,120	0,033
-211,738	-200,000	-0,004	0,129
-210,723	800,000	-0,034	0,080
-209,709	49,156	-0,166	0,113
-208,694	52,022	0,089	-0,061
-207,679	-200,000	0,016	-0,166
-206,665	105,486	-0,018	0,016
-205,650	-113,224	0,066	0,009
-204,636	-200,000	0,020	0,116
-203,621	398,143	0,045	0,068
-202,606	-15,302	-0,034	-0,015
-201,592	800,000	-0,010	0,028
-200,577	-200,000	-0,004	-0,042
-199,563	212,459	-0,065	-0,074
-198,548	800,000	0,039	-0,090
-197,533	-97,480	-0,076	0,014
-196,519	-25,951	-0,069	0,029
-195,504	150,022	-0,044	0,043
-194,490	473,146	-0,052	-0,084
-193,475	-200,000	0,009	-0,113
-192,460	-21,606	-0,056	-0,025
-191,446	-159,162	-0,099	0,004
-190,431	-56,504	0,087	0,028
-189,417	488,077	-0,035	0,058
-188,402	-91,689	0,067	-0,014
-187,387	800,000	-0,034	0,070
-186,373	741,034	0,049	0,095
-185,358	150,968	0,015	-0,015
-184,344	402,437	0,053	0,081
-183,329	738,848	-0,055	0,107
-182,315	-200,000	-0,024	-0,081
-181,300	754,497	-0,030	0,059
-180,285	-141,214	-0,161	-0,012
-179,271	530,526	-0,031	-0,053
-178,256	-200,000	-0,023	-0,131
-177,242	4,924	0,090	-0,048
-176,227	-104,424	0,109	0,018
-175,212	207,457	0,092	0,104
-174,198	-137,754	0,102	0,008
-173,183	-73,873	-0,206	-0,054
-172,169	1,917	-0,082	-0,043
-171,154	281,618	-0,027	0,035
-170,139	-79,765	0,038	0,009
-169,125	140,819	-0,070	0,067
-168,110	3,494	0,080	0,042
-167,096	-98,214	-0,110	0,020
-166,081	800,000	0,018	0,058
-165,066	-147,082	-0,088	0,005
-164,052	377,960	0,072	0,107
-163,037	-80,239	-0,083	0,020
-162,023	174,102	0,092	0,096
-161,008	-78,873	-0,115	0,028
-159,993	-40,494	0,063	0,023
-158,979	706,200	-0,037	0,070
-157,964	3,321	0,066	0,034
-156,950	-200,000	-0,003	-0,027
-155,935	-119,542	0,087	-0,011
-154,920	292,387	0,083	0,109
-153,906	-200,000	-0,029	0,142
-152,891	14,269	-0,015	-0,008
-151,877	-200,000	0,014	0,066
-150,862	-200,000	-0,016	0,115
-149,847	-200,000	0,011	0,149
-148,833	-22,410	0,112	0,049
-147,818	800,000	-0,010	0,025
-146,804	-200,000	-0,002	0,130
-145,789	-200,000	0,001	0,065
-144,775	-200,000	-0,014	-0,078
-143,760	494,452	-0,023	-0,038
-142,745	-149,181	-0,100	-0,006
-141,731	-200,000	-0,003	0,058
-140,716	0,684	0,031	0,016
-139,702	5,241	0,035	-0,018
-138,687	47,843	-0,093	-0,062
-137,672	222,412	-0,058	-0,067
-136,658	-200,000	0,032	-0,104
-135,643	-107,822	-0,065	-0,010
-134,629	-13,785	0,031	-0,015
-133,614	-35,798	0,045	0,017
-132,599	-49,838	0,051	0,017
-131,585	308,448	-0,032	-0,043
-130,570	42,027	-0,045	0,030
-129,556	74,445	-0,075	-0,056
-128,541	800,000	-0,042	-0,102
-127,526	-115,224	-0,040	-0,005
-126,512	-200,000	0,015	0,051
-125,497	529,384	0,050	0,086
-124,483	-61,240	0,152	0,046
-123,468	800,000	0,014	0,038
-122,453	-138,622	0,159	-0,012
-121,439	11,665	-0,050	-0,028
-120,424	562,984	0,066	-0,116
-119,410	85,837	0,122	0,096
