DTS Sentinel unit serial number:	SN410029Multiplexer serial number:	ORYXHardware model number:	OX2-SRSoftware version number:	ORYX F/W v4,00 Oryx Data Collector v3.7.2.0data status	okinstallation	B5 Nyhavnadifferential loss correction	single-endedforward channel	channel 2reverse channel	N/Adate	2023/12/14time	14:17:13forward acquisition time	300,00reverse acquisition time	0,00gamma	499,1914k internal	0,3156k external	0,3156temperature offset calibration	1,0000default loss term (dB/km)	0,3820temperature slope calibration	1,0000multiplexer offset coefficient	1,0000multiplexer slope coefficient	1,0000fibre end	0,00T internal ref (°C)	8,04T ext. ref 1 (°C)	-8,02T ext. ref 2 (°C)	-8,08length (m)	temperature (°C)	Stokes	anti-Stokes-744,400	-116,117	0,088	-0,012
-743,385	-4,516	-0,429	-0,218
-742,371	130,090	0,108	0,102
-741,356	-163,407	-0,367	-0,013
-740,342	-103,604	0,109	0,019
-739,327	-95,822	-0,323	0,063
-738,312	800,000	0,055	0,162
-737,298	-101,311	-0,421	-0,075
-736,283	-9,358	0,160	0,079
-735,269	-79,214	-0,443	0,110
-734,254	-200,000	0,012	0,238
-733,239	12,476	-0,524	-0,297
-732,225	-94,017	0,204	0,041
-731,210	15,369	0,092	0,053
-730,196	143,583	0,042	0,041
-729,181	-35,079	-0,032	-0,013
-728,167	-18,463	-0,112	-0,051
-727,152	800,000	-0,052	-0,110
-726,137	27,444	-0,100	-0,062
-725,123	800,000	0,018	0,059
-724,108	34,859	-0,180	-0,116
-723,094	184,812	-0,106	-0,116
-722,079	-200,000	-0,003	0,068
-721,064	-185,425	-0,067	0,001
-720,050	623,027	-0,076	-0,143
-719,035	411,518	-0,045	0,071
-718,021	-200,000	-0,016	0,096
-717,006	-24,269	-0,062	-0,027
-715,991	3,110	-0,115	-0,062
-714,977	187,486	-0,090	0,099
-713,962	-200,000	0,008	-0,039
-712,948	800,000	0,044	0,118
-711,933	-200,000	-0,012	-0,123
-710,918	-82,001	-0,020	-0,005
-709,904	82,046	0,114	0,091
-708,889	233,260	-0,064	0,077
-707,875	33,196	-0,159	-0,101
-706,860	-27,627	0,082	-0,035
-705,845	170,506	0,045	-0,047
-704,831	489,017	-0,038	-0,065
-703,816	189,519	-0,056	-0,062
-702,802	-164,849	-0,146	0,005
-701,787	186,667	-0,130	-0,143
-700,772	-53,651	-0,079	-0,026
-699,758	-200,000	0,015	-0,112
-698,743	480,461	-0,056	-0,094
-697,729	89,965	0,027	0,022
-696,714	-104,710	0,099	-0,017
-695,699	272,903	0,074	0,096
-694,685	800,000	-0,034	0,078
-693,670	12,242	-0,091	-0,051
-692,656	77,043	0,051	-0,040
-691,641	610,583	0,037	-0,069
-690,627	-120,157	-0,032	-0,004
-689,612	800,000	-0,015	-0,031
-688,597	-26,990	-0,138	-0,059
-687,583	-200,000	-0,015	-0,177
-686,568	-200,000	0,009	-0,046
-685,554	-200,000	-0,013	-0,073
-684,539	-200,000	0,022	-0,077
-683,524	214,318	0,110	-0,128
-682,510	166,028	-0,053	-0,056
-681,495	-140,914	0,039	-0,003
-680,481	645,302	-0,033	-0,063
-679,466	-152,494	-0,075	-0,004
-678,451	-200,000	-0,044	-0,177
-677,437	127,180	-0,122	-0,114
-676,422	371,817	0,028	-0,042
-675,408	800,000	-0,037	-0,117
-674,393	-200,000	-0,003	-0,035
-673,378	-141,713	0,065	-0,005
-672,364	800,000	-0,025	-0,053
-671,349	800,000	-0,044	-0,125
-670,335	123,449	-0,089	-0,082
-669,320	-200,000	0,023	-0,184
-668,305	293,267	-0,123	-0,165
-667,291	53,925	-0,050	0,035
-666,276	101,211	-0,060	-0,051
-665,262	150,641	-0,070	-0,070
-664,247	-200,000	0,028	-0,167
-663,232	216,863	-0,073	0,085
-662,218	-1,139	0,116	0,060
-661,203	-104,524	-0,112	-0,019
-660,189	-200,000	-0,012	0,104
-659,174	800,000	-0,067	-0,142
-658,159	800,000	0,066	0,138
-657,145	-93,511	-0,128	-0,026
-656,130	275,418	0,022	-0,029
-655,116	257,676	0,095	0,121
-654,101	272,857	0,043	0,056
-653,086	-200,000	0,008	0,049
-652,072	-200,000	0,006	-0,130
-651,057	205,492	-0,058	-0,066
-650,043	-44,778	0,147	-0,054
-649,028	26,674	-0,072	-0,044
-648,014	366,249	0,023	0,035
-646,999	-200,000	-0,008	-0,079
-645,984	255,646	-0,104	-0,132
-644,970	-159,419	-0,059	0,002
-643,955	163,837	-0,027	0,028
-642,941	99,452	-0,151	0,128
-641,926	399,801	0,030	-0,046
-640,911	25,783	0,079	0,048
-639,897	677,268	-0,051	0,098
-638,882	-31,551	0,017	0,007
-637,868	-94,187	0,056	-0,011
-636,853	-8,084	-0,122	-0,060
-635,838	481,394	-0,058	-0,096
-634,824	-82,560	-0,064	-0,015
-633,809	3,048	0,134	-0,071
-632,795	58,024	0,066	-0,047
-631,780	-200,000	-0,018	-0,086
-630,765	-200,000	0,012	-0,044
-629,751	-200,000	-0,014	-0,070
-628,736	343,510	0,039	0,057
-627,722	417,976	0,038	0,059
-626,707	-200,000	0,027	-0,097
-625,692	258,420	-0,055	0,069
-624,678	-200,000	0,014	-0,110
-623,663	65,683	0,077	0,057
-622,649	-110,071	-0,077	0,012
-621,634	-200,000	-0,029	-0,102
-620,619	33,732	-0,157	-0,100
-619,605	56,126	0,091	-0,065
-618,590	800,000	-0,022	0,049
-617,576	-31,693	0,126	0,052
-616,561	-200,000	0,026	0,160
-615,546	800,000	-0,044	0,104
-614,532	154,908	-0,111	-0,113
-613,517	-200,000	0,030	-0,099
-612,503	800,000	-0,048	0,152
-611,488	313,926	-0,020	0,027
-610,474	508,235	-0,033	-0,057
-609,459	586,259	0,027	-0,049
-608,444	-145,153	0,094	0,006
-607,430	-84,330	-0,199	0,046
-606,415	-200,000	-0,021	-0,129
-605,401	487,260	0,039	-0,065
-604,386	-200,000	0,022	0,077
-603,371	-200,000	0,010	0,197
-602,357	154,218	-0,046	0,046
-601,342	269,425	0,016	-0,020
-600,328	800,000	0,020	-0,045
-599,313	-200,000	0,019	-0,108
-598,298	800,000	-0,040	-0,113
-597,284	-200,000	-0,018	0,169
-596,269	-116,561	-0,035	-0,005
-595,255	-9,596	-0,045	-0,022
-594,240	259,494	0,015	0,018
-593,225	-127,131	-0,100	-0,011
-592,211	-200,000	0,010	-0,060
-591,196	-50,192	0,162	0,056
-590,182	-45,737	-0,037	0,014
-589,167	33,944	-0,106	0,067
-588,152	162,971	-0,014	0,015
-587,138	474,989	0,011	0,019
-586,123	-188,002	-0,083	0,001
-585,109	-200,000	0,001	0,093
-584,094	-118,762	0,119	0,015
-583,079	299,550	0,020	0,026
-582,065	137,740	0,059	0,057
-581,050	-60,504	-0,072	0,022
-580,036	-200,000	0,001	0,057
-579,021	-91,958	0,023	-0,005
-578,006	-163,333	-0,056	-0,002
-576,992	-200,000	-0,005	0,042
-575,977	170,316	-0,126	-0,132
-574,963	-90,174	0,105	-0,022
-573,948	800,000	-0,035	0,111
-572,934	-200,000	0,011	0,050
-571,919	-180,173	-0,244	0,004
-570,904	-200,000	-0,006	-0,034
-569,890	800,000	0,060	-0,147
-568,875	800,000	-0,033	0,092
-567,861	-43,585	-0,083	-0,030
-566,846	-77,254	0,055	-0,014
-565,831	49,756	-0,049	-0,034
-564,817	-105,047	-0,102	-0,017
-563,802	145,702	0,047	0,046
-562,788	101,580	-0,088	-0,075
-561,773	-200,000	-0,022	-0,107
-560,758	131,536	0,063	0,059
-559,744	776,881	-0,030	-0,060
-558,729	800,000	0,020	-0,043
-557,715	-200,000	0,036	-0,119
-556,700	353,290	0,063	-0,092
-555,685	337,605	-0,041	-0,059
-554,671	42,322	0,020	0,013
-553,656	-173,258	-0,090	0,002
-552,642	800,000	0,054	-0,136
-551,627	-58,287	-0,102	-0,032
-550,612	-80,766	-0,146	0,035
-549,598	113,191	-0,051	-0,045
-548,583	-142,315	-0,037	-0,003
-547,569	-200,000	-0,023	-0,076
-546,554	-141,369	0,121	0,009
-545,539	800,000	-0,040	-0,100
-544,525	800,000	-0,037	-0,084
-543,510	82,900	-0,071	-0,057
-542,496	-200,000	0,018	0,110
-541,481	-127,875	-0,100	-0,010
-540,466	800,000	0,060	-0,183
-539,452	-200,000	-0,005	-0,043
-538,437	75,614	-0,114	-0,088
-537,423	155,188	-0,135	0,136
-536,408	-200,000	0,017	0,111
-535,393	-161,435	0,070	0,003
-534,379	800,000	-0,058	-0,124
-533,364	366,897	-0,045	0,067
-532,350	100,540	-0,063	0,054
-531,335	248,164	-0,094	0,116
-530,321	-15,616	0,094	-0,044
-529,306	-26,423	-0,094	0,040
-528,291	-200,000	0,005	0,068
-527,277	172,859	-0,097	-0,102
-526,262	-57,778	0,020	0,006
-525,248	67,396	0,097	-0,072
-524,233	-115,909	0,120	-0,016
-523,218	-200,000	-0,025	-0,098
-522,204	800,000	0,062	-0,171
-521,189	-200,000	0,047	-0,185
-520,175	800,000	0,016	-0,034
-519,160	-140,116	-0,122	-0,009
-518,145	-148,925	0,123	-0,007
-517,131	800,000	-0,036	-0,112
-516,116	-35,911	-0,052	0,020
-515,102	-104,747	-0,206	0,034
-514,087	149,313	-0,098	-0,097
-513,072	117,970	0,012	-0,011
-512,058	-200,000	-0,010	-0,032
-511,043	170,851	-0,060	0,063
-510,029	800,000	-0,021	0,054
-509,014	450,221	-0,057	0,093
-507,999	-42,519	-0,053	-0,020
-506,985	800,000	-0,020	0,060
-505,970	628,306	-0,074	0,137
-504,956	472,339	-0,046	0,075
-503,941	-200,000	-0,005	-0,020
-502,926	-200,000	-0,002	0,024
-501,912	405,458	-0,084	0,129
-500,897	800,000	0,035	0,105
-499,883	103,411	-0,123	0,106
-498,868	132,324	-0,043	-0,040
-497,853	-31,962	-0,081	-0,033
-496,839	800,000	0,033	0,076
-495,824	-80,948	0,069	-0,017
-494,810	-185,171	0,116	-0,001
-493,795	-200,000	0,013	0,052
-492,781	-200,000	0,007	-0,037
-491,766	800,000	0,024	-0,053
-490,751	800,000	-0,032	0,067
-489,737	74,742	0,076	-0,058
-488,722	-127,068	0,070	0,007
-487,708	-200,000	0,044	0,163
-486,693	-200,000	0,001	0,145
-485,678	800,000	-0,014	0,043
-484,664	-38,409	-0,045	0,017
-483,649	68,750	-0,051	-0,038
-482,635	-200,000	-0,007	0,058
-481,620	-200,000	0,005	0,062
-480,605	-121,886	0,044	-0,005
-479,591	-15,436	-0,039	0,018
-478,576	-44,849	-0,178	-0,064
-477,562	84,104	-0,053	-0,042
-476,547	-200,000	0,025	-0,148
-475,532	-200,000	0,008	-0,032
-474,518	-8,292	0,080	0,039
-473,503	-200,000	0,005	0,167
-472,489	-200,000	0,017	0,127
-471,474	52,003	-0,054	-0,038
-470,459	-78,043	0,023	0,006
-469,445	196,166	-0,062	-0,069
-468,430	557,536	-0,082	-0,145
-467,416	382,824	-0,075	0,112
-466,401	-100,505	0,100	-0,018
-465,386	-176,106	-0,047	-0,001
-464,372	-200,000	-0,018	0,168
-463,357	102,393	-0,079	0,067
-462,343	40,155	0,069	-0,045
-461,328	-200,000	0,070	-0,262
-460,313	511,938	0,054	0,092
-459,299	-43,173	0,110	0,040
-458,284	-200,000	-0,031	0,160
-457,270	398,966	-0,017	-0,026
-456,255	29,539	0,005	-0,003
-455,241	225,694	-0,073	0,087
-454,226	-61,660	0,053	-0,016
-453,211	406,473	0,074	-0,114
-452,197	377,224	-0,043	-0,065
-451,182	800,000	-0,041	0,126
-450,168	-200,000	-0,009	0,048
-449,153	8,986	-0,052	-0,029
-448,138	-200,000	-0,001	-0,096
-447,124	-11,059	-0,059	-0,028
-446,109	-200,000	-0,033	-0,113
-445,095	-127,023	0,042	0,004
-444,080	-9,428	-0,079	-0,039
-443,065	502,609	0,055	0,092
-442,051	-200,000	0,009	0,050
-441,036	-49,757	-0,072	0,025
-440,022	673,265	-0,030	-0,057
-439,007	5,241	-0,111	-0,060
-437,992	206,440	0,104	0,118
-436,978	-185,150	-0,070	-0,001
-435,963	-90,999	-0,086	-0,018
-434,949	-99,344	0,215	0,039
-433,934	441,721	0,011	0,018
-432,919	-52,119	0,010	-0,003
-431,905	-200,000	0,005	0,029
-430,890	800,000	-0,009	0,021
-429,876	-200,000	-0,050	0,167
-428,861	-200,000	0,003	0,028
-427,846	63,813	0,088	0,064
-426,832	137,661	0,038	0,036
-425,817	576,525	0,078	-0,140
-424,803	-200,000	-0,009	-0,070
-423,788	-98,294	0,104	-0,019
-422,773	-200,000	-0,026	0,090
-421,759	-200,000	-0,026	0,142
-420,744	197,822	0,045	0,051
-419,730	-50,943	-0,038	0,013
-418,715	198,332	0,030	0,033
-417,701	186,457	0,075	-0,081
-416,686	-70,745	0,035	-0,010
-415,671	61,494	0,091	-0,066
-414,657	11,277	0,077	0,043
-413,642	-200,000	-0,039	0,126
-412,628	-200,000	0,013	-0,101
-411,613	207,690	0,102	-0,116
-410,598	562,293	0,017	-0,031
-409,584	-200,000	0,002	0,132
-408,569	99,721	0,057	0,048
-407,555	800,000	-0,032	-0,093
-406,540	-29,485	-0,096	0,040
-405,525	361,412	-0,038	0,056
-404,511	19,683	-0,094	-0,055
-403,496	48,016	0,101	-0,068
-402,482	-167,685	0,085	-0,002
-401,467	-200,000	0,003	0,009
-400,452	63,524	0,071	-0,051
-399,438	800,000	-0,047	-0,145
-398,423	-51,694	0,164	-0,055
-397,409	-88,390	-0,045	0,010
-396,394	-0,899	0,027	0,014
-395,379	-200,000	-0,023	-0,114
-394,365	-200,000	-0,015	-0,143
-393,350	-23,759	0,091	0,039
-392,336	23,941	-0,107	-0,064
-391,321	350,031	0,053	-0,076
-390,306	-62,118	-0,103	0,031
-389,292	800,000	-0,021	-0,046
-388,277	-200,000	0,005	0,104
-387,263	-200,000	0,010	0,182
-386,248	-144,709	0,033	-0,002
-385,233	55,725	0,024	-0,017
-384,219	17,965	0,038	-0,022
-383,204	-200,000	0,002	-0,077
-382,190	527,678	0,018	-0,031
-381,175	-115,635	0,156	-0,021
-380,160	-176,691	-0,082	0,001
-379,146	123,360	0,061	-0,056
-378,131	-200,000	-0,021	0,110
-377,117	170,589	-0,135	-0,141
-376,102	229,995	0,100	-0,119
-375,088	-200,000	0,010	0,106
-374,073	30,256	-0,058	-0,036
-373,058	-200,000	-0,006	0,072
-372,044	59,938	-0,075	0,054
-371,029	-57,311	-0,091	0,029
-370,015	33,161	0,073	-0,046
-369,000	-8,148	-0,037	-0,018
-367,985	576,040	0,064	-0,115
-366,971	800,000	-0,027	0,070
-365,956	362,717	0,064	0,093
-364,942	103,313	0,066	0,056
-363,927	-200,000	0,012	-0,050
-362,912	354,391	-0,064	0,092
-361,898	63,427	-0,244	-0,178
-360,883	-200,000	-0,030	-0,192
-359,869	-66,010	0,132	-0,038
-358,854	-86,785	-0,020	0,004
-357,839	153,506	0,075	0,074
-356,825	-147,185	0,177	0,011
-355,810	800,000	-0,027	0,056
-354,796	-54,271	-0,103	0,034
-353,781	800,000	-0,016	-0,043
-352,766	-200,000	0,009	-0,112
-351,752	424,381	-0,053	0,082
-350,737	-60,801	-0,019	-0,006
-349,723	800,000	-0,047	0,138
-348,708	-133,787	0,041	-0,004
-347,693	458,453	-0,047	0,075
-346,679	-121,325	-0,056	-0,007
-345,664	-200,000	0,007	-0,058
-344,650	45,933	0,087	-0,059
-343,635	34,858	0,082	-0,052
-342,620	-162,396	0,064	-0,002
-341,606	45,762	0,049	0,033
-340,591	91,356	-0,006	-0,005
-339,577	252,459	-0,081	-0,100
-338,562	-200,000	-0,021	-0,140
-337,548	41,307	-0,117	0,077
-336,533	142,642	0,113	0,109
-335,518	-44,082	-0,158	0,057
-334,504	55,290	-0,025	-0,017
-333,489	153,414	0,155	0,154
-332,475	169,491	-0,078	0,081
-331,460	-28,813	-0,052	-0,021
-330,445	26,376	0,048	0,029
-329,431	114,114	-0,027	-0,024
-328,416	-113,287	0,165	-0,023
-327,402	234,748	0,049	0,059
-326,387	16,442	0,082	-0,047
-325,372	800,000	0,082	-0,187
-324,358	800,000	0,031	-0,097
-323,343	-200,000	-0,009	-0,036
-322,329	116,460	-0,044	-0,039
-321,314	171,491	0,125	0,130
-320,299	45,789	0,067	0,045
-319,285	112,327	-0,027	-0,024
-318,270	800,000	0,025	0,063
-317,256	800,000	0,068	-0,203
-316,241	558,316	-0,066	-0,116
-315,226	-120,759	-0,093	-0,011
-314,212	-93,963	0,168	-0,033
-313,197	192,453	0,047	-0,051
-312,183	800,000	0,028	0,079
-311,168	-200,000	0,040	-0,166
-310,153	-140,853	0,150	0,011
-309,139	683,255	-0,041	-0,078
-308,124	76,350	-0,067	-0,051
-307,110	-56,559	0,063	0,020
-306,095	40,677	-0,026	-0,017
-305,080	409,084	0,054	0,083
-304,066	-80,809	-0,133	0,032
-303,051	-2,936	-0,052	0,026
-302,037	139,874	0,125	-0,119
-301,022	336,366	0,024	-0,034
-300,008	115,578	0,090	0,080
-298,993	-200,000	-0,019	0,090
-297,978	115,076	0,054	-0,048
-296,964	56,168	-0,041	0,029
-295,949	-200,000	-0,010	-0,038
-294,935	21,596	-0,099	-0,058
-293,920	-200,000	0,005	-0,069
-292,905	189,488	0,053	0,058
-291,891	112,878	0,052	0,046
-290,876	4,470	0,168	0,089
-289,862	-160,078	-0,081	0,003
-288,847	-186,860	0,042	0,000
-287,832	147,470	0,072	0,070
-286,818	-42,480	0,055	-0,020
-285,803	379,286	0,051	-0,075
-284,789	109,006	0,141	0,122
-283,774	205,761	0,037	-0,042
-282,759	-200,000	0,016	0,112
-281,745	-71,162	-0,164	0,044
-280,730	420,525	0,078	-0,122
-279,716	-200,000	0,026	0,168
-278,701	-41,021	0,092	0,034
-277,686	-26,023	0,120	0,051
-276,672	800,000	-0,037	0,103
-275,657	123,347	0,035	-0,032
-274,643	394,106	-0,024	-0,037
-273,628	4,588	0,115	-0,061
-272,613	-200,000	0,011	-0,190
-271,599	800,000	-0,042	0,122
-270,584	-104,759	0,166	0,027
-269,570	-200,000	0,042	0,136
-268,555	-132,024	-0,043	-0,004
-267,540	-200,000	0,004	-0,026
-266,526	-1,421	0,027	-0,014
-265,511	-200,000	-0,003	-0,118
-264,497	800,000	0,017	0,044
-263,482	-133,629	0,149	0,013
-262,467	324,320	0,072	0,100
-261,453	121,625	0,048	0,044
-260,438	-200,000	-0,027	-0,095
-259,424	-200,000	0,012	-0,047
-258,409	-200,000	-0,015	-0,094
-257,395	-200,000	-0,000	-0,022
-256,380	134,710	0,035	-0,033
-255,365	27,923	0,069	-0,042
-254,351	212,230	-0,083	-0,095
-253,336	-16,462	-0,043	-0,020
-252,322	-45,158	-0,210	0,075
-251,307	-93,311	0,120	-0,024
-250,292	98,055	-0,061	0,051
-249,278	-27,837	0,019	0,008
-248,263	-151,336	-0,024	0,001
-247,249	-83,913	-0,114	-0,026
-246,234	9,723	0,036	-0,020
-245,219	-200,000	0,016	-0,073
-244,205	-200,000	-0,012	-0,084
-243,190	-200,000	0,014	0,072
-242,176	800,000	-0,014	-0,033
-241,161	-120,124	-0,057	0,007
-240,146	-200,000	0,006	0,101
-239,132	800,000	0,036	0,094
-238,117	-21,586	0,103	-0,045
-237,103	-28,271	0,032	0,014
-236,088	255,257	0,053	-0,066
-235,073	-61,131	-0,076	0,023
-234,059	-121,695	0,078	-0,009
-233,044	800,000	0,050	0,151
-232,030	-200,000	0,014	0,103
-231,015	-200,000	0,008	-0,202
-230,000	61,563	-0,014	-0,010
-228,986	326,224	0,042	0,058
-227,971	-200,000	0,029	-0,159
-226,957	-200,000	-0,017	0,104
-225,942	109,370	0,074	0,064
-224,927	166,458	0,124	-0,128
-223,913	-200,000	-0,007	-0,025
-222,898	-10,954	0,026	0,012
-221,884	5,290	-0,132	0,070
-220,869	119,371	-0,113	0,101
-219,855	-69,594	0,055	-0,015
-218,840	-200,000	0,009	0,172
-217,825	-200,000	-0,004	-0,069
-216,811	34,592	-0,147	0,093
-215,796	-200,000	0,022	0,097
-214,782	734,434	-0,050	-0,098
-213,767	581,937	0,064	-0,114
-212,752	-122,579	0,018	0,002
-211,738	-200,000	-0,039	0,137
-210,723	-200,000	-0,017	0,151
-209,709	-51,133	-0,189	-0,064
-208,694	232,405	-0,102	-0,121
-207,679	-38,475	0,053	0,020
-206,665	-200,000	0,015	0,111
-205,650	800,000	-0,042	0,120
-204,636	-200,000	0,000	0,090
-203,621	506,437	-0,048	0,080
-202,606	-200,000	0,017	0,176
-201,592	-42,293	0,074	-0,027
-200,577	-101,985	0,059	-0,010
-199,563	6,382	-0,148	-0,079
-198,548	34,680	-0,013	-0,008
-197,533	800,000	-0,016	-0,048
-196,519	385,001	0,015	-0,023
-195,504	-42,328	-0,092	0,034
-194,490	108,652	0,088	-0,076
-193,475	800,000	-0,037	-0,116
-192,460	-43,801	0,007	0,002
-191,446	14,160	0,123	0,069
-190,431	-80,166	0,060	0,014
-189,417	-42,852	-0,144	0,052
-188,402	-57,305	0,123	-0,039
-187,387	38,161	-0,023	-0,015
-186,373	800,000	0,018	0,043
-185,358	-81,767	0,074	0,017
-184,344	389,543	0,031	-0,046
-183,329	-200,000	0,014	0,131
-182,315	-24,726	0,032	0,014
-181,300	800,000	0,011	-0,027
-180,285	103,110	-0,053	0,045
-179,271	-133,512	0,072	0,006
-178,256	800,000	0,009	-0,025
-177,242	205,586	-0,061	0,069
-176,227	32,203	0,146	0,091
-175,212	-200,000	0,004	0,048
-174,198	448,972	0,023	-0,036
-173,183	-200,000	-0,008	-0,108
-172,169	-200,000	-0,017	0,057
-171,154	-56,081	0,097	0,031
-170,139	86,875	0,027	0,021
-169,125	800,000	0,043	-0,091
-168,110	-136,554	0,025	0,002
-167,096	-200,000	0,004	0,078
-166,081	-200,000	-0,012	0,045
-165,066	-172,932	-0,130	-0,003
-164,052	93,687	-0,071	0,058
-163,037	800,000	0,022	-0,066
-162,023	-170,725	0,110	-0,003
-161,008	-30,346	-0,049	0,020
-159,993	71,030	0,068	-0,051
-158,979	-200,000	0,009	0,058
-157,964	539,363	-0,071	0,122
-156,950	720,886	-0,046	0,089
-155,935	273,998	0,046	-0,059
-154,920	0,590	-0,076	-0,039
-153,906	-14,346	0,054	0,025
-152,891	8,227	-0,013	0,007
-151,877	800,000	-0,051	0,136
-150,862	150,295	-0,033	0,032
-149,847	-43,901	-0,050	-0,018
-148,833	-200,000	-0,013	0,061
-147,818	-200,000	-0,003	0,049
-146,804	800,000	-0,038	-0,088
-145,789	117,413	0,063	0,056
-144,775	589,815	-0,050	0,090
-143,760	-200,000	-0,005	0,096
-142,745	284,625	-0,045	-0,059
-141,731	385,677	0,036	-0,053
-140,716	-73,704	0,192	0,050
-139,702	631,677	0,021	-0,039
-138,687	-200,000	-0,009	-0,110
-137,672	-200,000	-0,009	-0,054
-136,658	69,592	-0,038	0,028
-135,643	208,644	0,076	-0,085
-134,629	800,000	-0,045	-0,095
-133,614	236,711	0,023	0,028
-132,599	86,287	0,050	0,040
-131,585	800,000	0,021	-0,043
-130,570	-50,845	-0,057	0,019
-129,556	800,000	0,026	-0,075
-128,541	-200,000	-0,022	-0,111
-127,526	-200,000	-0,017	-0,096
-126,512	800,000	-0,048	-0,131
-125,497	800,000	0,063	0,145
-124,483	-200,000	-0,009	-0,062
-123,468	492,149	0,081	-0,133
-122,453	-200,000	0,008	0,059
-121,439	313,356	0,028	-0,037
-120,424	768,733	0,044	0,086
