DTS Sentinel unit serial number:	SN410029Multiplexer serial number:	ORYXHardware model number:	OX2-SRSoftware version number:	ORYX F/W v4,00 Oryx Data Collector v3.7.2.0data status	okinstallation	B5 Nyhavnadifferential loss correction	single-endedforward channel	channel 2reverse channel	N/Adate	2023/12/13time	08:32:14forward acquisition time	300,00reverse acquisition time	0,00gamma	499,1914k internal	0,3160k external	0,3160temperature offset calibration	1,0000default loss term (dB/km)	0,3820temperature slope calibration	1,0000multiplexer offset coefficient	1,0000multiplexer slope coefficient	1,0000fibre end	0,00T internal ref (°C)	13,64T ext. ref 1 (°C)	-2,70T ext. ref 2 (°C)	-3,00length (m)	temperature (°C)	Stokes	anti-Stokes-744,400	-127,329	0,186	-0,020
-743,385	-162,750	-0,283	-0,010
-742,371	-200,000	-0,034	0,150
-741,356	-16,307	-0,240	0,112
-740,342	-91,631	0,155	0,032
-739,327	-97,384	-0,248	0,047
-738,312	-22,521	0,179	0,080
-737,298	-157,507	-0,278	-0,012
-736,283	-46,746	0,183	0,066
-735,269	-171,181	-0,341	-0,008
-734,254	-102,221	0,113	0,020
-733,239	-7,208	-0,478	-0,238
-732,225	-30,080	0,242	0,101
-731,210	780,210	-0,064	0,129
-730,196	51,040	0,066	-0,046
-729,181	215,115	-0,101	-0,118
-728,167	-200,000	0,030	-0,135
-727,152	481,030	0,048	0,081
-726,137	800,000	-0,073	-0,172
-725,123	271,130	-0,021	0,028
-724,108	-157,696	-0,182	-0,008
-723,094	215,555	0,039	-0,046
-722,079	142,681	-0,059	-0,058
-721,064	-165,642	0,097	0,003
-720,050	-56,513	-0,054	-0,017
-719,035	800,000	0,037	0,110
-718,021	-200,000	-0,018	-0,134
-717,006	-53,386	-0,201	-0,067
-715,991	-144,542	-0,150	-0,010
-714,977	-200,000	0,011	-0,105
-713,962	-167,673	-0,058	0,002
-712,948	-200,000	0,013	0,100
-711,933	800,000	0,032	0,067
-710,918	800,000	-0,048	-0,113
-709,904	800,000	-0,034	-0,077
-708,889	6,865	-0,078	-0,042
-707,875	92,776	0,030	-0,025
-706,860	236,171	-0,075	-0,092
-705,845	-22,396	0,078	0,035
-704,831	632,634	0,041	0,077
-703,816	-131,634	0,129	-0,012
-702,802	100,281	-0,029	-0,025
-701,787	-55,209	-0,080	-0,026
-700,772	800,000	-0,035	0,092
-699,758	-39,100	0,112	-0,043
-698,743	400,938	0,006	-0,010
-697,729	800,000	-0,026	0,058
-696,714	800,000	-0,033	0,082
-695,699	800,000	-0,039	0,125
-694,685	-74,361	-0,028	-0,007
-693,670	-179,496	-0,129	-0,002
-692,656	87,036	-0,058	0,047
-691,641	-56,334	0,119	0,039
-690,627	-13,652	0,080	0,038
-689,612	16,462	0,105	-0,061
-688,597	-120,438	-0,075	0,009
-687,583	-200,000	-0,007	-0,166
-686,568	-93,566	-0,063	0,013
-685,554	-37,972	-0,119	0,046
-684,539	402,650	0,025	0,039
-683,524	-44,027	-0,091	0,033
-682,510	219,124	-0,047	0,055
-681,495	800,000	-0,051	-0,157
-680,481	127,842	-0,109	-0,102
-679,466	354,071	0,058	-0,084
-678,451	-168,575	-0,090	-0,002
-677,437	52,147	0,089	-0,062
-676,422	-160,618	0,037	0,001
-675,408	800,000	0,013	0,038
-674,393	800,000	-0,024	0,059
-673,378	-132,247	0,047	0,004
-672,364	36,825	-0,119	-0,077
-671,349	-200,000	-0,022	-0,110
-670,335	-200,000	0,005	0,134
-669,320	593,459	-0,071	0,130
-668,305	251,037	0,080	0,100
-667,291	-200,000	0,007	0,058
-666,276	41,545	-0,070	-0,047
-665,262	-109,353	-0,064	-0,010
-664,247	-200,000	-0,019	0,099
-663,232	48,400	-0,146	0,100
-662,218	73,772	0,068	-0,053
-661,203	-200,000	0,033	0,119
-660,189	-103,274	-0,095	0,016
-659,174	-101,988	-0,024	-0,004
-658,159	800,000	0,018	-0,043
-657,145	-37,128	-0,093	-0,036
-656,130	494,479	-0,063	0,106
-655,116	-200,000	-0,019	0,085
-654,101	537,210	-0,035	0,062
-653,086	11,152	0,063	-0,035
-652,072	-200,000	0,008	0,091
-651,057	-200,000	-0,074	0,000
-650,043	125,671	0,080	-0,074
-649,028	794,747	0,069	0,140
-648,014	-105,507	-0,088	-0,015
-646,999	-200,000	0,020	-0,189
-645,984	88,210	-0,011	-0,009
-644,970	-105,357	-0,131	0,022
-643,955	7,047	-0,074	-0,040
-642,941	28,789	-0,168	-0,104
-641,926	-61,292	-0,042	0,013
-640,911	-200,000	-0,003	0,010
-639,897	800,000	0,013	-0,031
-638,882	303,290	0,037	-0,050
-637,868	11,399	-0,058	0,033
-636,853	800,000	-0,039	0,105
-635,838	-172,010	-0,038	0,001
-634,824	-200,000	0,014	-0,050
-633,809	181,476	-0,045	0,048
-632,795	-200,000	0,015	0,128
-631,780	-134,545	0,094	0,008
-630,765	-111,672	-0,101	0,015
-629,751	20,446	0,083	-0,049
-628,736	32,893	-0,026	-0,017
-627,722	14,740	-0,021	0,012
-626,707	-70,299	0,093	0,026
-625,692	800,000	-0,027	0,087
-624,678	-200,000	0,006	-0,123
-623,663	270,307	0,026	-0,033
-622,649	360,403	0,030	-0,045
-621,634	-52,833	0,067	0,022
-620,619	800,000	-0,037	-0,094
-619,605	-200,000	0,008	0,075
-618,590	-79,883	0,057	0,014
-617,576	-21,105	-0,065	0,029
-616,561	159,547	-0,026	-0,027
-615,546	-200,000	0,004	0,050
-614,532	-200,000	-0,016	0,078
-613,517	53,800	-0,094	-0,066
-612,503	-200,000	0,024	-0,084
-611,488	800,000	0,095	-0,226
-610,474	-200,000	0,009	-0,069
-609,459	268,013	-0,010	-0,013
-608,444	-99,134	-0,059	0,011
-607,430	24,571	-0,143	-0,086
-606,415	229,196	-0,037	-0,045
-605,401	-13,632	0,080	-0,038
-604,386	218,699	0,112	-0,132
-603,371	130,556	-0,091	-0,086
-602,357	327,228	0,047	-0,066
-601,342	800,000	0,049	-0,108
-600,328	509,437	-0,040	-0,068
-599,313	-200,000	-0,014	-0,152
-598,298	-136,658	0,066	-0,005
-597,284	-82,417	0,081	-0,019
-596,269	90,688	-0,045	0,037
-595,255	-200,000	-0,006	0,080
-594,240	-200,000	-0,043	-0,250
-593,225	403,351	-0,020	0,032
-592,211	-158,670	-0,037	0,002
-591,196	-200,000	0,024	-0,089
-590,182	-200,000	-0,012	0,091
-589,167	4,425	0,068	0,036
-588,152	168,839	-0,102	0,107
-587,138	327,465	0,016	-0,023
-586,123	-163,368	-0,048	0,002
-585,109	-200,000	-0,001	0,049
-584,094	436,359	-0,011	-0,018
-583,079	134,374	0,055	0,052
-582,065	-14,191	0,032	-0,015
-581,050	116,178	0,071	-0,064
-580,036	-159,519	-0,043	-0,002
-579,021	-66,591	-0,133	0,038
-578,006	336,594	0,078	-0,112
-576,992	335,393	-0,034	-0,048
-575,977	69,963	-0,025	0,019
-574,963	-200,000	-0,025	-0,097
-573,948	-107,473	-0,106	0,017
-572,934	167,502	-0,111	-0,115
-571,919	-200,000	-0,023	-0,075
-570,904	-200,000	-0,000	-0,093
-569,890	242,958	0,045	0,056
-568,875	519,285	0,036	-0,061
-567,861	-200,000	0,012	-0,047
-566,846	-200,000	-0,039	0,134
-565,831	800,000	-0,020	-0,052
-564,817	238,978	-0,101	-0,123
-563,802	333,936	0,033	0,047
-562,788	-200,000	0,006	-0,143
-561,773	41,215	-0,086	-0,057
-560,758	-95,523	0,042	0,008
-559,744	305,565	0,076	-0,104
-558,729	-63,037	0,113	0,034
-557,715	-127,344	0,091	0,010
-556,700	-100,792	0,047	0,008
-555,685	103,621	-0,047	-0,040
-554,671	800,000	-0,049	-0,111
-553,656	161,307	-0,042	-0,043
-552,642	26,208	0,122	0,074
-551,627	-200,000	-0,005	0,062
-550,612	800,000	-0,042	0,099
-549,598	-131,553	-0,128	-0,012
-548,583	-173,322	0,115	0,003
-547,569	482,737	-0,057	0,095
-546,554	-112,203	0,090	0,013
-545,539	523,304	-0,016	0,028
-544,525	-200,000	-0,029	-0,108
-543,510	311,469	-0,027	-0,037
-542,496	-99,953	-0,115	-0,021
-541,481	483,420	-0,049	-0,082
-540,466	-165,325	-0,069	0,002
-539,452	-200,000	-0,032	-0,113
-538,437	-31,663	0,115	0,047
-537,423	172,383	0,062	0,065
-536,408	603,465	-0,053	0,097
-535,393	90,926	-0,052	0,043
-534,379	-7,662	0,065	-0,032
-533,364	-94,133	-0,177	-0,035
-532,350	-75,879	-0,078	0,020
-531,335	153,648	0,029	-0,029
-530,321	-200,000	0,004	0,086
-529,306	-146,015	-0,094	0,006
-528,291	116,563	-0,022	-0,020
-527,277	-20,354	0,043	0,019
-526,262	-71,167	-0,042	-0,012
-525,248	69,980	0,084	0,063
-524,233	26,066	-0,032	-0,019
-523,218	174,883	-0,103	0,109
-522,204	78,179	-0,061	-0,048
-521,189	-52,012	-0,054	0,018
-520,175	-105,624	-0,055	0,009
-519,160	-67,705	-0,127	-0,036
-518,145	-166,782	0,072	-0,002
-517,131	-64,579	0,090	0,027
-516,116	-200,000	-0,003	0,110
-515,102	800,000	-0,029	-0,084
-514,087	258,668	-0,072	-0,091
-513,072	-200,000	-0,008	-0,035
-512,058	800,000	-0,038	0,078
-511,043	800,000	-0,017	0,049
-510,029	800,000	0,029	-0,074
-509,014	495,531	-0,057	0,095
-507,999	-118,437	0,193	0,025
-506,985	83,101	-0,058	-0,046
-505,970	-78,303	-0,042	0,010
-504,956	625,609	-0,055	0,102
-503,941	-200,000	0,013	0,059
-502,926	-200,000	0,024	0,123
-501,912	40,923	0,071	0,047
-500,897	800,000	0,041	0,086
-499,883	800,000	0,018	-0,049
-498,868	412,152	-0,064	-0,100
-497,853	-200,000	0,013	-0,061
-496,839	81,819	0,072	0,057
-495,824	-64,588	0,136	-0,040
-494,810	-94,031	-0,053	-0,011
-493,795	14,211	-0,102	-0,058
-492,781	-60,773	-0,142	0,044
-491,766	-127,710	-0,129	-0,013
-490,751	520,089	-0,026	-0,045
-489,737	800,000	-0,030	0,066
-488,722	800,000	-0,031	0,095
-487,708	150,663	-0,062	0,061
-486,693	76,311	0,073	0,056
-485,678	-149,715	0,063	-0,004
-484,664	213,596	-0,058	-0,067
-483,649	800,000	-0,034	0,101
-482,635	-99,491	0,028	-0,005
-481,620	-161,254	0,024	0,001
-480,605	-200,000	0,011	0,107
-479,591	-200,000	0,011	0,133
-478,576	-168,969	-0,122	0,003
-477,562	-55,718	-0,036	0,012
-476,547	102,986	-0,038	-0,033
-475,532	800,000	0,048	-0,102
-474,518	7,354	0,102	-0,055
-473,503	-200,000	0,030	-0,105
-472,489	506,093	0,025	-0,043
-471,474	-200,000	0,001	0,006
-470,459	-98,312	-0,109	0,020
-469,445	-200,000	0,004	-0,084
-468,430	90,011	-0,063	0,051
-467,416	76,013	0,115	-0,088
-466,401	-200,000	0,013	0,104
-465,386	-19,434	-0,067	-0,030
-464,372	800,000	0,062	-0,162
-463,357	-200,000	-0,010	-0,033
-462,343	-92,156	-0,173	-0,035
-461,328	257,949	0,064	0,080
-460,313	647,041	-0,015	-0,027
-459,299	198,980	0,088	0,098
-458,284	800,000	0,040	0,082
-457,270	-200,000	-0,008	0,117
-456,255	477,757	0,012	0,020
-455,241	241,872	-0,052	0,063
-454,226	-81,650	0,109	-0,026
-453,211	800,000	0,059	-0,164
-452,197	2,348	0,075	0,039
-451,182	150,379	-0,074	-0,073
-450,168	-80,695	0,154	-0,037
-449,153	-29,585	-0,095	-0,039
-448,138	-148,286	0,119	0,007
-447,124	800,000	-0,026	0,084
-446,109	800,000	-0,013	-0,037
-445,095	-167,947	0,073	-0,002
-444,080	339,859	-0,046	0,065
-443,065	103,513	0,086	-0,074
-442,051	-74,234	-0,024	0,006
-441,036	239,724	-0,078	0,094
-440,022	-90,714	0,085	0,018
-439,007	800,000	-0,022	0,049
-437,992	-156,470	0,034	0,002
-436,978	-200,000	-0,008	-0,031
-435,963	-36,558	0,135	-0,053
-434,949	-116,947	-0,076	0,010
-433,934	293,189	-0,096	-0,127
-432,919	-36,305	0,022	0,009
-431,905	27,941	0,086	-0,053
-430,890	-59,335	0,098	0,030
-429,876	-127,876	0,086	-0,009
-428,861	-9,073	0,100	-0,049
-427,846	-73,171	-0,070	0,019
-426,832	-133,653	0,043	-0,004
-425,817	-110,125	-0,128	-0,019
-424,803	-103,722	-0,101	-0,017
-423,788	-17,098	0,065	0,030
-422,773	631,898	-0,022	-0,040
-421,759	233,504	0,075	0,090
-420,744	-145,900	-0,120	-0,008
-419,730	0,150	0,134	-0,069
-418,715	800,000	-0,033	0,067
-417,701	800,000	-0,043	0,088
-416,686	-196,057	0,136	0,001
-415,671	800,000	0,054	0,137
-414,657	201,481	-0,071	0,080
-413,642	-33,986	-0,075	0,030
-412,628	178,779	-0,127	0,135
-411,613	98,066	0,015	-0,013
-410,598	-53,440	-0,176	0,058
-409,584	800,000	0,030	0,074
-408,569	-200,000	-0,010	-0,169
-407,555	-141,168	0,094	-0,007
-406,540	-120,489	-0,082	0,010
-405,525	-200,000	-0,018	-0,154
-404,511	209,179	0,026	-0,030
-403,496	126,422	-0,115	-0,106
-402,482	-151,866	0,185	-0,010
-401,467	-200,000	-0,008	0,098
-400,452	800,000	-0,058	0,125
-399,438	41,281	-0,091	-0,060
-398,423	5,374	0,070	-0,037
-397,409	-87,026	-0,142	-0,031
-396,394	-200,000	0,012	-0,046
-395,379	110,283	-0,045	-0,039
-394,365	-200,000	0,013	0,092
-393,350	-17,565	0,134	0,061
-392,336	800,000	-0,005	0,012
-391,321	-82,614	0,097	-0,023
-390,306	-200,000	0,020	0,141
-389,292	174,846	0,039	0,041
-388,277	336,670	0,010	0,015
-387,263	-113,368	0,213	-0,030
-386,248	263,758	0,017	-0,022
-385,233	-200,000	0,015	0,110
-384,219	-200,000	-0,027	0,120
-383,204	84,681	0,102	-0,081
-382,190	-200,000	0,016	-0,107
-381,175	800,000	0,049	-0,144
-380,160	-164,410	-0,079	-0,003
-379,146	440,985	-0,061	-0,098
-378,131	223,276	0,025	-0,029
-377,117	106,721	-0,117	0,101
-376,102	-200,000	-0,031	-0,101
-375,088	4,317	-0,064	-0,034
-374,073	-200,000	-0,006	0,081
-373,058	489,328	0,058	-0,097
-372,044	-14,323	0,156	-0,073
-371,029	-104,922	0,101	0,017
-370,015	8,985	0,040	-0,022
-369,000	301,700	0,013	0,018
-367,985	102,621	-0,096	-0,082
-366,971	200,493	-0,041	-0,045
-365,956	-43,457	-0,066	0,024
-364,942	170,378	0,029	0,031
-363,927	243,327	-0,016	0,019
-362,912	-200,000	-0,006	0,083
-361,898	800,000	-0,036	-0,105
-360,883	30,669	-0,180	-0,112
-359,869	-200,000	0,007	-0,101
-358,854	340,943	-0,037	0,053
-357,839	325,140	0,024	0,033
-356,825	89,605	0,027	-0,022
-355,810	-200,000	0,012	0,042
-354,796	787,327	-0,069	-0,138
-353,781	-200,000	-0,003	0,053
-352,766	-200,000	-0,004	-0,131
-351,752	604,033	-0,046	-0,083
-350,737	-70,626	0,089	-0,024
-349,723	-117,935	0,091	-0,012
-348,708	-200,000	-0,002	0,093
-347,693	95,140	0,040	0,033
-346,679	307,155	-0,027	0,037
-345,664	201,908	0,050	-0,056
-344,650	-200,000	0,007	0,108
-343,635	719,412	-0,026	-0,050
-342,620	-64,638	0,049	-0,014
-341,606	163,705	0,047	0,048
-340,591	80,657	-0,066	-0,051
-339,577	-31,659	0,046	-0,019
-338,562	-200,000	0,003	-0,045
-337,548	34,136	-0,053	-0,033
-336,533	800,000	-0,010	0,023
-335,518	99,926	0,117	0,098
-334,504	362,547	0,052	0,075
-333,489	36,081	-0,021	-0,014
-332,475	341,998	-0,027	-0,039
-331,460	-97,699	-0,062	-0,012
-330,445	781,370	-0,042	-0,084
-329,431	-129,099	0,198	-0,020
-328,416	-81,415	0,206	0,049
-327,402	391,788	0,069	0,105
-326,387	332,703	-0,053	-0,074
-325,372	-200,000	0,023	-0,089
-324,358	-200,000	-0,024	-0,123
-323,343	176,750	0,083	0,088
-322,329	-200,000	-0,004	-0,111
-321,314	-84,459	0,047	0,011
-320,299	200,170	-0,111	0,124
-319,285	-200,000	0,001	-0,089
-318,270	-200,000	-0,000	-0,053
-317,256	-200,000	-0,017	-0,058
-316,241	12,703	0,048	0,027
-315,226	-200,000	0,012	0,093
-314,212	-123,277	0,105	0,012
-313,197	1,249	0,042	0,022
-312,183	680,242	-0,049	-0,092
-311,168	-52,934	-0,070	-0,023
-310,153	-200,000	0,002	-0,095
-309,139	55,783	0,023	0,016
-308,124	800,000	0,061	0,180
-307,110	-200,000	0,004	0,029
-306,095	323,479	0,065	0,090
-305,080	-57,809	0,010	0,003
-304,066	-105,689	-0,066	0,011
-303,051	384,562	0,039	-0,058
-302,037	-200,000	-0,010	-0,047
-301,022	800,000	-0,008	-0,020
-300,008	-13,979	0,125	0,058
-298,993	-200,000	0,020	0,110
-297,978	151,931	0,116	0,114
-296,964	696,261	-0,026	0,050
-295,949	-97,855	0,087	0,016
-294,935	-200,000	0,005	0,059
-293,920	172,989	0,023	-0,024
-292,905	532,100	0,017	-0,030
-291,891	-200,000	-0,002	0,016
-290,876	-107,649	0,109	-0,017
-289,862	159,237	-0,069	0,069
-288,847	134,262	-0,033	0,031
-287,832	21,272	0,152	-0,089
-286,818	-72,968	-0,104	0,028
-285,803	15,677	-0,011	0,006
-284,789	558,370	-0,057	0,100
-283,774	395,409	0,017	-0,026
-282,759	-200,000	-0,005	-0,088
-281,745	8,642	-0,088	-0,048
-280,730	-42,802	-0,154	0,056
-279,716	164,306	-0,098	0,100
-278,701	-200,000	0,011	-0,072
-277,686	-200,000	0,005	0,129
-276,672	-85,240	0,037	-0,008
-275,657	-134,539	0,049	-0,004
-274,643	-74,185	-0,066	-0,017
-273,628	-116,377	0,081	0,011
-272,613	-200,000	0,004	0,104
-271,599	-61,941	0,064	-0,019
-270,584	800,000	0,068	0,143
-269,570	189,259	0,051	0,055
-268,555	303,813	-0,127	0,170
-267,540	-200,000	0,015	-0,139
-266,526	350,712	-0,064	-0,091
-265,511	137,544	0,055	0,052
-264,497	138,091	-0,063	-0,060
-263,482	-20,875	0,085	-0,038
-262,467	-58,671	0,014	-0,004
-261,453	-112,797	-0,169	-0,024
-260,438	-107,873	-0,026	0,004
-259,424	-88,223	-0,042	-0,009
-258,409	293,427	0,110	-0,146
-257,395	150,617	0,097	-0,095
-256,380	0,282	0,200	0,103
-255,365	-2,996	0,098	-0,049
-254,351	-154,622	0,087	0,004
-253,336	479,677	0,028	-0,046
-252,322	241,973	0,049	-0,059
-251,307	-90,827	0,174	0,036
-250,292	43,209	-0,025	-0,016
-249,278	800,000	-0,027	0,075
-248,263	100,349	0,075	0,063
-247,249	689,180	0,068	0,129
-246,234	-14,941	-0,050	0,023
-245,219	203,978	-0,009	0,010
-244,205	224,383	-0,105	-0,123
-243,190	-47,870	0,098	0,034
-242,176	12,490	0,025	0,014
-241,161	56,458	-0,038	0,026
-240,146	-162,687	-0,037	-0,001
-239,132	-90,416	-0,129	0,027
-238,117	-111,888	-0,048	-0,007
-237,103	-101,594	-0,112	-0,019
-236,088	222,038	-0,052	0,060
-235,073	800,000	0,066	-0,160
-234,059	148,162	0,070	-0,068
-233,044	310,959	0,050	0,068
-232,030	68,429	-0,038	-0,028
-231,015	-200,000	0,003	0,093
-230,000	110,376	-0,128	-0,111
-228,986	605,248	-0,038	0,069
-227,971	15,339	-0,174	0,098
-226,957	-1,814	-0,117	0,059
-225,942	298,649	0,029	-0,039
-224,927	102,714	0,041	0,035
-223,913	127,989	-0,082	-0,075
-222,898	131,370	0,079	-0,073
-221,884	-41,789	-0,061	-0,022
-220,869	-200,000	0,030	0,146
-219,855	-200,000	-0,020	0,159
-218,840	18,013	-0,040	0,023
-217,825	361,486	0,080	-0,116
-216,811	-200,000	-0,004	-0,141
-215,796	-178,125	-0,040	0,001
-214,782	-115,649	-0,079	0,011
-213,767	92,201	0,138	0,112
-212,752	-200,000	-0,020	0,111
-211,738	64,153	-0,056	0,040
-210,723	438,997	-0,037	0,059
-209,709	-82,914	-0,033	0,008
-208,694	25,609	-0,144	-0,086
-207,679	670,699	0,076	-0,142
-206,665	178,511	0,085	0,089
-205,650	-168,268	-0,110	-0,003
-204,636	-125,359	0,106	-0,012
-203,621	-200,000	-0,012	-0,081
-202,606	128,004	0,148	0,136
-201,592	-200,000	0,013	0,047
-200,577	-100,020	-0,144	0,026
-199,563	578,867	0,079	0,139
-198,548	91,580	-0,016	0,013
-197,533	646,996	-0,002	-0,003
-196,519	81,980	0,044	0,034
-195,504	133,111	0,047	0,044
-194,490	800,000	-0,045	-0,098
-193,475	190,077	-0,106	-0,114
-192,460	800,000	-0,020	-0,045
-191,446	-17,122	-0,055	0,025
-190,431	-200,000	0,022	0,141
-189,417	-8,471	0,114	-0,055
-188,402	-200,000	0,013	-0,111
-187,387	-130,394	0,002	0,000
-186,373	-65,770	-0,084	-0,024
-185,358	87,860	0,082	-0,065
-184,344	251,297	-0,036	-0,045
-183,329	-9,181	0,056	0,027
-182,315	334,262	-0,025	0,035
-181,300	-66,750	0,049	-0,014
-180,285	-66,247	-0,063	-0,018
-179,271	800,000	-0,019	-0,043
-178,256	-60,799	-0,111	-0,034
-177,242	668,487	-0,057	0,107
-176,227	68,969	0,123	0,091
-175,212	102,105	0,066	0,055
-174,198	58,327	0,140	0,099
-173,183	196,154	-0,076	-0,083
-172,169	-97,752	-0,076	0,014
-171,154	800,000	-0,048	0,116
-170,139	800,000	-0,066	0,148
-169,125	800,000	0,052	0,105
-168,110	5,179	-0,096	0,051
-167,096	125,000	0,098	-0,089
-166,081	540,408	0,030	0,052
-165,066	-129,470	-0,101	0,010
-164,052	-200,000	0,019	0,111
-163,037	800,000	0,015	-0,040
-162,023	-200,000	0,003	0,027
-161,008	-200,000	-0,006	0,050
-159,993	98,434	-0,028	0,023
-158,979	800,000	-0,037	0,107
-157,964	33,082	0,071	-0,044
-156,950	-200,000	-0,000	0,067
-155,935	-70,573	0,033	-0,009
-154,920	800,000	0,040	0,099
-153,906	-22,376	0,198	-0,086
-152,891	-200,000	0,062	0,202
-151,877	-200,000	0,008	0,141
-150,862	-200,000	-0,008	-0,125
-149,847	507,522	0,031	-0,051
-148,833	207,348	0,028	0,031
-147,818	-32,797	-0,078	-0,031
-146,804	800,000	0,053	-0,129
-145,789	-27,054	-0,049	-0,020
-144,775	137,373	0,127	-0,119
-143,760	-140,409	0,040	0,003
-142,745	-37,197	-0,136	0,052
-141,731	800,000	-0,041	0,114
-140,716	29,758	0,113	0,069
-139,702	-200,000	0,023	0,118
-138,687	-200,000	0,006	0,101
-137,672	240,199	-0,095	0,114
-136,658	-170,938	-0,023	0,001
-135,643	-122,509	-0,055	0,006
-134,629	32,844	0,025	-0,016
-133,614	336,999	0,042	0,059
-132,599	-137,936	0,193	0,015
-131,585	-200,000	-0,033	0,125
-130,570	-200,000	-0,031	-0,101
-129,556	-200,000	-0,003	-0,042
-128,541	-39,013	-0,131	-0,049
-127,526	542,560	0,074	0,128
-126,512	800,000	0,025	0,068
-125,497	141,347	0,169	0,161
-124,483	800,000	-0,057	-0,157
-123,468	-200,000	-0,016	0,131
-122,453	800,000	-0,015	-0,047
-121,439	655,094	-0,023	0,043
-120,424	-104,089	-0,197	0,033
-119,410	-200,000	0,008	-0,053
