DTS Sentinel unit serial number:	SN410029Multiplexer serial number:	ORYXHardware model number:	OX2-SRSoftware version number:	ORYX F/W v4,00 Oryx Data Collector v3.7.2.0data status	okinstallation	B5 Nyhavnadifferential loss correction	single-endedforward channel	channel 2reverse channel	N/Adate	2023/12/13time	11:12:13forward acquisition time	300,00reverse acquisition time	0,00gamma	499,1914k internal	0,3161k external	0,3161temperature offset calibration	1,0000default loss term (dB/km)	0,3820temperature slope calibration	1,0000multiplexer offset coefficient	1,0000multiplexer slope coefficient	1,0000fibre end	0,00T internal ref (°C)	13,72T ext. ref 1 (°C)	-2,40T ext. ref 2 (°C)	-2,71length (m)	temperature (°C)	Stokes	anti-Stokes-744,400	-160,472	0,003	-0,000
-743,385	-167,328	-0,332	0,010
-742,371	141,452	0,128	0,125
-741,356	-149,501	-0,326	0,019
-740,342	108,280	0,116	0,102
-739,327	-62,440	-0,346	0,105
-738,312	-38,239	0,103	0,040
-737,298	-15,457	-0,337	-0,158
-736,283	-68,038	0,048	0,014
-735,269	17,421	-0,251	0,146
-734,254	-29,838	-0,110	0,046
-733,239	-46,589	-0,494	-0,178
-732,225	77,342	0,129	0,101
-731,210	492,014	0,066	-0,112
-730,196	800,000	0,010	0,027
-729,181	72,387	0,015	0,011
-728,167	94,375	0,077	0,064
-727,152	-200,000	0,041	-0,172
-726,137	-34,412	-0,087	-0,035
-725,123	110,742	-0,057	0,051
-724,108	-176,648	-0,093	0,002
-723,094	-32,701	-0,142	-0,058
-722,079	-93,529	-0,105	-0,021
-721,064	-110,512	0,090	-0,014
-720,050	85,996	-0,100	0,081
-719,035	-200,000	0,004	0,019
-718,021	-47,545	-0,023	0,008
-717,006	-133,649	-0,185	-0,017
-715,991	-200,000	-0,023	-0,185
-714,977	-200,000	-0,006	0,146
-713,962	-142,416	0,061	-0,004
-712,948	131,316	0,124	-0,117
-711,933	99,619	-0,060	-0,051
-710,918	-200,000	-0,023	0,144
-709,904	-24,871	0,113	-0,049
-708,889	800,000	-0,027	-0,072
-707,875	8,442	-0,162	-0,089
-706,860	-200,000	0,036	0,174
-705,845	-200,000	-0,003	-0,012
-704,831	149,916	0,077	0,077
-703,816	-200,000	0,020	0,077
-702,802	138,388	0,067	0,065
-701,787	-120,109	-0,115	-0,014
-700,772	31,195	-0,030	-0,019
-699,758	-88,504	-0,080	-0,017
-698,743	-200,000	-0,016	0,070
-697,729	-15,204	0,049	0,023
-696,714	800,000	-0,028	-0,072
-695,699	-22,198	0,097	-0,043
-694,685	-200,000	0,002	-0,176
-693,670	114,183	-0,076	-0,068
-692,656	800,000	-0,074	-0,206
-691,641	58,388	-0,040	0,029
-690,627	-17,867	0,091	-0,042
-689,612	-158,439	0,075	0,003
-688,597	-200,000	-0,044	-0,159
-687,583	800,000	-0,028	-0,084
-686,568	-200,000	-0,020	-0,074
-685,554	-200,000	-0,003	-0,057
-684,539	267,394	-0,067	-0,087
-683,524	-4,751	-0,016	0,008
-682,510	800,000	-0,007	-0,017
-681,495	800,000	-0,059	0,139
-680,481	-92,024	-0,099	0,020
-679,466	185,974	-0,026	-0,029
-678,451	57,849	0,052	-0,037
-677,437	30,458	0,077	-0,049
-676,422	800,000	0,025	0,064
-675,408	-200,000	-0,010	0,038
-674,393	-117,823	0,079	-0,010
-673,378	93,481	0,075	-0,062
-672,364	-66,420	-0,132	0,038
-671,349	10,008	-0,119	-0,066
-670,335	78,779	0,112	0,088
-669,320	-169,608	0,121	-0,003
-668,305	-2,299	-0,165	-0,085
-667,291	-112,351	0,073	0,011
-666,276	72,743	-0,029	-0,022
-665,262	409,143	-0,068	-0,107
-664,247	800,000	0,051	-0,106
-663,232	-200,000	-0,022	-0,206
-662,218	64,268	0,063	0,046
-661,203	113,318	-0,068	0,060
-660,189	60,185	0,043	0,031
-659,174	-72,304	-0,071	-0,019
-658,159	-200,000	0,018	-0,155
-657,145	-200,000	-0,007	-0,202
-656,130	23,040	0,035	0,021
-655,116	594,567	-0,037	-0,068
-654,101	-200,000	0,023	-0,075
-653,086	291,258	-0,027	-0,037
-652,072	432,078	-0,030	-0,048
-651,057	61,307	0,159	-0,116
-650,043	-200,000	-0,006	-0,083
-649,028	49,118	0,180	-0,124
-648,014	800,000	-0,027	-0,081
-646,999	800,000	0,063	-0,136
-645,984	467,608	-0,020	-0,034
-644,970	800,000	0,050	0,138
-643,955	-19,046	-0,176	-0,080
-642,941	-200,000	-0,042	-0,165
-641,926	-46,376	-0,091	-0,033
-640,911	-90,622	0,119	0,025
-639,897	412,514	-0,089	-0,139
-638,882	-200,000	0,015	-0,106
-637,868	-74,159	-0,048	-0,013
-636,853	120,184	0,049	0,045
-635,838	632,626	0,065	-0,121
-634,824	-36,131	0,101	0,040
-633,809	-15,596	0,062	0,029
-632,795	-200,000	-0,002	0,024
-631,780	275,132	-0,089	-0,116
-630,765	-75,084	0,090	-0,023
-629,751	-200,000	0,053	-0,183
-628,736	-48,127	0,011	-0,004
-627,722	410,288	-0,040	-0,062
-626,707	800,000	-0,025	-0,077
-625,692	713,299	0,023	0,046
-624,678	-137,053	-0,083	-0,007
-623,663	-200,000	-0,187	-0,000
-622,649	156,037	0,087	-0,088
-621,634	43,871	0,148	-0,099
-620,619	218,934	-0,098	-0,115
-619,605	-200,000	-0,003	0,039
-618,590	800,000	0,040	0,102
-617,576	-81,038	0,082	0,020
-616,561	102,585	-0,060	0,051
-615,546	24,812	-0,010	-0,006
-614,532	800,000	-0,015	-0,035
-613,517	115,508	0,029	-0,026
-612,503	-154,978	-0,096	-0,005
-611,488	-200,000	0,008	0,038
-610,474	-32,265	-0,085	0,035
-609,459	54,163	0,059	0,042
-608,444	-106,081	0,117	0,019
-607,430	203,972	0,097	-0,110
-606,415	213,627	-0,045	-0,052
-605,401	144,303	0,037	0,037
-604,386	800,000	0,041	-0,088
-603,371	-73,162	-0,045	0,012
-602,357	181,437	-0,022	0,023
-601,342	-200,000	-0,018	-0,082
-600,328	-137,867	-0,099	-0,008
-599,313	288,865	-0,036	0,048
-598,298	800,000	0,017	-0,040
-597,284	-78,727	-0,005	0,001
-596,269	-200,000	-0,040	0,142
-595,255	800,000	0,041	0,131
-594,240	105,324	-0,085	-0,073
-593,225	800,000	-0,022	-0,052
-592,211	-150,562	-0,057	-0,003
-591,196	800,000	-0,040	0,086
-590,182	41,228	0,073	-0,048
-589,167	661,755	0,093	-0,176
-588,152	391,043	0,034	0,051
-587,138	-30,076	-0,050	-0,021
-586,123	383,896	-0,076	-0,114
-585,109	9,666	0,060	-0,033
-584,094	13,369	0,108	-0,061
-583,079	413,747	-0,029	0,045
-582,065	20,399	-0,093	-0,055
-581,050	800,000	-0,042	-0,094
-580,036	-150,650	0,071	0,004
-579,021	-24,842	-0,054	0,023
-578,006	531,350	-0,044	-0,077
-576,992	-114,686	-0,098	0,014
-575,977	0,251	0,074	0,038
-574,963	-4,755	0,076	-0,038
-573,948	95,521	-0,066	-0,055
-572,934	70,036	-0,082	-0,062
-571,919	454,843	-0,029	-0,047
-570,904	77,080	0,058	-0,045
-569,890	64,500	-0,086	-0,063
-568,875	151,405	0,082	0,082
-567,861	197,379	0,074	-0,082
-566,846	-7,692	0,013	-0,006
-565,831	-200,000	-0,005	0,030
-564,817	-60,860	-0,097	0,030
-563,802	80,608	-0,059	-0,046
-562,788	-3,022	0,036	0,019
-561,773	-200,000	0,001	-0,007
-560,758	142,866	-0,089	0,087
-559,744	24,463	0,097	-0,059
-558,729	109,180	-0,020	0,017
-557,715	-96,415	-0,016	-0,003
-556,700	800,000	-0,033	-0,075
-555,685	800,000	-0,033	-0,093
-554,671	-191,800	-0,164	-0,001
-553,656	-88,459	-0,033	-0,007
-552,642	-34,447	0,070	-0,028
-551,627	89,739	-0,015	-0,012
-550,612	110,455	-0,035	-0,031
-549,598	-62,494	-0,059	0,018
-548,583	57,544	0,123	0,088
-547,569	-200,000	0,016	0,093
-546,554	261,094	0,039	-0,049
-545,539	800,000	-0,021	0,062
-544,525	493,650	0,021	0,036
-543,510	772,419	0,012	0,025
-542,496	-101,991	-0,017	0,003
-541,481	146,441	0,075	-0,074
-540,466	100,129	-0,102	-0,086
-539,452	-19,023	0,023	0,010
-538,437	-133,937	0,096	-0,009
-537,423	-200,000	-0,016	-0,125
-536,408	-200,000	-0,020	-0,092
-535,393	-51,165	-0,139	0,047
-534,379	-26,257	0,155	0,066
-533,364	310,757	0,036	0,049
-532,350	-200,000	0,027	-0,177
-531,335	-110,388	0,083	-0,012
-530,321	636,044	0,048	-0,090
-529,306	-138,174	-0,048	-0,004
-528,291	-200,000	-0,006	-0,069
-527,277	-128,699	0,167	0,017
-526,262	-200,000	-0,021	0,115
-525,248	-200,000	0,005	-0,062
-524,233	800,000	0,050	0,103
-523,218	-53,916	-0,010	-0,003
-522,204	273,598	0,092	0,119
-521,189	54,590	-0,089	-0,063
-520,175	-78,044	-0,087	0,022
-519,160	674,608	0,031	0,059
-518,145	301,317	0,059	0,080
-517,131	800,000	0,025	-0,067
-516,116	-200,000	-0,008	0,109
-515,102	155,385	0,040	0,040
-514,087	-130,340	-0,166	-0,016
-513,072	10,591	0,048	-0,026
-512,058	-99,188	0,014	-0,003
-511,043	207,034	0,097	0,110
-510,029	800,000	-0,043	0,107
-509,014	-147,146	0,157	-0,010
-507,999	-200,000	0,016	0,189
-506,985	269,547	-0,053	0,068
-505,970	-200,000	-0,000	-0,084
-504,956	-121,803	0,124	-0,015
-503,941	30,999	-0,031	0,019
-502,926	-63,718	0,052	-0,015
-501,912	-200,000	-0,030	0,109
-500,897	-4,593	0,064	-0,032
-499,883	-134,504	0,138	0,012
-498,868	16,252	0,113	-0,065
-497,853	11,372	-0,025	0,014
-496,839	800,000	0,059	0,134
-495,824	101,425	0,017	-0,015
-494,810	49,690	-0,113	0,078
-493,795	514,659	0,106	0,181
-492,781	-200,000	0,014	0,067
-491,766	341,287	0,048	-0,069
-490,751	800,000	0,035	-0,081
-489,737	21,180	0,009	-0,005
-488,722	57,985	0,064	-0,046
-487,708	-147,060	0,094	-0,006
-486,693	-200,000	-0,007	0,027
-485,678	-200,000	-0,017	0,130
-484,664	-70,055	0,079	-0,022
-483,649	-147,238	-0,068	0,004
-482,635	113,186	0,034	0,030
-481,620	18,523	-0,130	-0,076
-480,605	69,964	0,077	0,058
-479,591	-102,360	0,058	0,010
-478,576	188,361	-0,091	0,099
-477,562	-200,000	-0,003	0,031
-476,547	-39,142	0,086	-0,033
-475,532	55,311	-0,067	0,047
-474,518	402,759	0,044	-0,068
-473,503	-200,000	-0,005	0,024
-472,489	10,454	0,069	-0,038
-471,474	529,590	0,031	-0,053
-470,459	239,171	-0,091	0,111
-469,445	-200,000	0,010	-0,039
-468,430	-24,037	-0,055	-0,024
-467,416	800,000	-0,054	-0,133
-466,401	-23,620	0,090	0,039
-465,386	69,299	-0,102	0,077
-464,372	144,815	-0,068	-0,066
-463,357	800,000	-0,046	-0,115
-462,343	-200,000	0,021	-0,105
-461,328	-105,597	0,105	-0,017
-460,313	67,720	-0,051	-0,038
-459,299	780,565	0,023	0,046
-458,284	583,070	-0,043	0,077
-457,270	-200,000	-0,028	-0,116
-456,255	461,605	-0,015	-0,025
-455,241	4,055	0,071	-0,038
-454,226	-200,000	-0,013	0,094
-453,211	71,032	0,058	-0,043
-452,197	-48,165	0,088	0,031
-451,182	-200,000	-0,029	0,125
-450,168	53,499	-0,070	0,049
-449,153	-101,791	-0,081	0,014
-448,138	-200,000	0,027	-0,114
-447,124	-80,039	-0,026	0,006
-446,109	-115,891	0,104	0,014
-445,095	65,560	-0,051	-0,038
-444,080	800,000	0,011	0,021
-443,065	113,400	0,106	-0,094
-442,051	-88,824	-0,063	-0,014
-441,036	-163,713	0,018	-0,001
-440,022	-23,718	-0,105	-0,046
-439,007	183,750	0,026	0,028
-437,992	-93,814	0,081	-0,016
-436,978	800,000	0,046	0,142
-435,963	-8,522	0,076	0,037
-434,949	800,000	-0,012	0,034
-433,934	800,000	-0,040	-0,086
-432,919	-71,187	0,107	-0,029
-431,905	-29,675	-0,093	0,038
-430,890	205,493	0,073	0,083
-429,876	-200,000	-0,017	0,064
-428,861	800,000	0,039	0,120
-427,846	-113,070	-0,061	-0,009
-426,832	-105,541	0,074	0,012
-425,817	-200,000	0,010	-0,067
-424,803	-200,000	0,023	-0,082
-423,788	-71,983	0,055	0,015
-422,773	800,000	0,067	0,157
-421,759	-200,000	-0,021	-0,072
-420,744	800,000	0,020	0,044
-419,730	-86,275	-0,080	0,018
-418,715	-200,000	-0,004	-0,099
-417,701	-7,067	0,081	0,040
-416,686	-23,090	0,078	-0,034
-415,671	156,587	-0,081	0,081
-414,657	284,266	0,068	-0,089
-413,642	41,859	0,073	-0,048
-412,628	343,806	-0,006	0,009
-411,613	-200,000	0,005	-0,098
-410,598	-200,000	-0,038	-0,183
-409,584	800,000	-0,026	-0,056
-408,569	325,133	-0,092	-0,129
-407,555	-82,276	0,258	0,061
-406,540	5,550	0,086	0,046
-405,525	-200,000	-0,020	-0,120
-404,511	800,000	-0,014	0,029
-403,496	-137,056	0,062	0,005
-402,482	-200,000	-0,001	-0,157
-401,467	11,746	0,105	0,059
-400,452	-200,000	0,001	0,165
-399,438	427,591	0,013	0,020
-398,423	59,751	0,080	0,057
-397,409	-200,000	-0,008	-0,091
-396,394	-40,253	0,065	-0,025
-395,379	-200,000	0,005	0,084
-394,365	423,965	0,112	0,175
-393,350	353,976	0,113	0,164
-392,336	800,000	-0,034	0,074
-391,321	3,035	-0,199	-0,105
-390,306	406,694	-0,073	-0,112
-389,292	9,476	-0,103	-0,056
-388,277	800,000	-0,022	-0,067
-387,263	148,687	0,046	-0,046
-386,248	-75,966	0,207	0,053
-385,233	407,298	0,069	0,107
-384,219	-37,152	-0,086	0,033
-383,204	146,057	-0,077	-0,075
-382,190	738,287	0,049	0,097
-381,175	33,299	-0,043	-0,027
-380,160	147,224	0,070	-0,069
-379,146	142,303	-0,043	0,042
-378,131	271,656	-0,087	-0,112
-377,117	800,000	-0,050	0,117
-376,102	355,257	-0,036	-0,052
-375,088	786,575	0,116	-0,232
-374,073	498,180	0,018	0,030
-373,058	453,093	0,071	0,115
-372,044	-37,091	0,083	-0,032
-371,029	-200,000	-0,005	-0,035
-370,015	-33,255	0,117	0,047
-369,000	160,941	-0,070	0,071
-367,985	337,926	-0,047	-0,066
-366,971	130,336	0,089	0,083
-365,956	-200,000	0,002	0,088
-364,942	-86,157	-0,054	-0,012
-363,927	91,286	-0,149	-0,122
-362,912	0,265	-0,081	-0,042
-361,898	800,000	0,052	0,120
-360,883	362,079	0,032	0,047
-359,869	594,774	-0,031	0,056
-358,854	122,428	-0,107	-0,097
-357,839	479,336	0,026	-0,043
-356,825	-177,750	-0,070	-0,001
-355,810	-136,246	0,086	0,007
-354,796	-73,895	-0,221	-0,058
-353,781	-48,876	-0,173	0,060
-352,766	-99,611	-0,152	-0,027
-351,752	337,252	0,059	0,084
-350,737	-126,861	-0,032	0,003
-349,723	-200,000	0,019	0,134
-348,708	-160,153	-0,173	0,007
-347,693	-200,000	0,000	0,031
-346,679	177,689	-0,029	0,031
-345,664	-48,815	0,054	-0,019
-344,650	-78,343	-0,024	0,006
-343,635	-200,000	0,002	0,009
-342,620	-102,059	0,155	0,027
-341,606	473,993	0,051	-0,084
-340,591	-67,497	0,131	-0,037
-339,577	495,811	0,049	-0,082
-338,562	139,171	0,051	-0,048
-337,548	669,983	-0,046	0,087
-336,533	800,000	-0,027	0,084
-335,518	-200,000	-0,010	0,071
-334,504	800,000	-0,055	0,151
-333,489	-200,000	-0,001	-0,105
-332,475	-200,000	-0,012	-0,041
-331,460	-200,000	0,020	-0,107
-330,445	-36,720	-0,047	-0,018
-329,431	-200,000	0,036	0,138
-328,416	362,850	-0,099	0,144
-327,402	340,945	0,045	0,065
-326,387	-17,516	-0,070	-0,032
-325,372	-28,007	-0,046	-0,019
-324,358	800,000	-0,017	-0,050
-323,343	114,847	0,067	-0,059
-322,329	-81,130	-0,045	-0,011
-321,314	104,412	0,037	-0,031
-320,299	180,159	-0,023	0,025
-319,285	-1,237	0,108	-0,055
-318,270	-37,956	-0,091	-0,035
-317,256	25,743	-0,061	-0,037
-316,241	-50,136	0,129	-0,044
-315,226	-76,433	-0,078	-0,020
-314,212	168,412	0,013	0,014
-313,197	-200,000	-0,018	0,096
-312,183	36,713	0,056	0,036
-311,168	534,575	-0,024	-0,041
-310,153	-142,538	-0,092	0,006
-309,139	304,449	-0,092	-0,123
-308,124	-200,000	0,025	0,083
-307,110	282,557	-0,020	-0,026
-306,095	312,403	-0,048	-0,066
-305,080	-200,000	0,054	-0,216
-304,066	-200,000	0,016	-0,137
-303,051	-98,452	0,022	0,004
-302,037	-200,000	-0,002	0,031
-301,022	800,000	-0,028	0,088
-300,008	175,283	0,033	-0,035
-298,993	800,000	0,017	0,048
-297,978	-200,000	-0,019	0,073
-296,964	206,336	-0,072	0,081
-295,949	371,674	-0,045	-0,067
-294,935	259,483	-0,030	-0,037
-293,920	800,000	-0,031	-0,097
-292,905	-115,554	0,158	0,021
-291,891	-200,000	-0,006	0,047
-290,876	-200,000	-0,027	-0,117
-289,862	-128,288	-0,049	0,005
-288,847	800,000	0,034	0,086
-287,832	-159,063	0,135	-0,005
-286,818	-104,695	0,111	0,018
-285,803	-200,000	0,024	0,179
-284,789	-120,531	-0,032	0,004
-283,774	66,767	0,022	0,017
-282,759	800,000	-0,018	0,056
-281,745	800,000	-0,024	-0,068
-280,730	772,643	-0,021	-0,041
-279,716	9,088	-0,018	-0,010
-278,701	435,350	-0,039	-0,062
-277,686	786,292	-0,076	0,151
-276,672	534,189	0,069	0,119
-275,657	800,000	0,038	0,090
-274,643	64,276	-0,110	0,080
-273,628	381,954	0,048	0,072
-272,613	193,676	-0,020	0,021
-271,599	-160,582	-0,085	0,003
-270,584	244,661	-0,111	0,135
-269,570	249,613	0,054	0,066
-268,555	84,190	-0,181	0,143
-267,540	800,000	-0,017	0,052
-266,526	800,000	-0,093	-0,214
-265,511	4,125	-0,122	-0,064
-264,497	-200,000	0,007	0,084
-263,482	-200,000	-0,012	0,082
-262,467	-0,232	-0,100	-0,051
-261,453	18,933	-0,071	0,041
-260,438	-200,000	-0,001	0,018
-259,424	445,447	-0,053	-0,084
-258,409	11,958	-0,216	0,119
-257,395	-17,739	0,074	-0,033
-256,380	580,914	0,036	-0,064
-255,365	-92,833	0,121	0,024
-254,351	528,908	0,024	0,041
-253,336	33,490	-0,081	-0,051
-252,322	83,340	-0,023	-0,018
-251,307	-95,767	-0,079	0,015
-250,292	294,689	0,040	-0,053
-249,278	-117,307	0,051	-0,007
-248,263	-200,000	-0,010	-0,110
-247,249	18,019	0,099	0,057
-246,234	800,000	-0,054	0,163
-245,219	-200,000	-0,015	-0,086
-244,205	-38,763	-0,120	-0,046
-243,190	7,659	-0,094	-0,051
-242,176	0,678	0,068	-0,035
-241,161	-200,000	-0,010	0,056
-240,146	-200,000	-0,012	0,122
-239,132	204,697	-0,029	0,032
-238,117	451,863	0,018	-0,029
-237,103	249,463	-0,106	0,130
-236,088	571,119	-0,022	0,039
-235,073	-200,000	-0,010	-0,032
-234,059	234,178	-0,070	-0,083
-233,044	-200,000	0,006	0,066
-232,030	-200,000	-0,003	-0,092
-231,015	-95,000	-0,122	0,024
-230,000	686,352	-0,006	0,011
-228,986	800,000	0,030	0,069
-227,971	-200,000	0,019	0,067
-226,957	277,536	-0,085	0,109
-225,942	800,000	0,040	0,090
-224,927	151,957	-0,045	0,045
-223,913	195,060	-0,095	-0,104
-222,898	800,000	-0,031	-0,086
-221,884	134,873	0,063	-0,059
-220,869	-117,883	-0,115	-0,015
-219,855	-200,000	0,016	0,127
-218,840	616,147	-0,029	-0,052
-217,825	800,000	0,036	0,090
-216,811	119,985	-0,034	0,031
-215,796	58,926	0,042	-0,030
-214,782	800,000	0,029	-0,058
-213,767	-26,442	0,049	0,021
-212,752	-75,856	0,011	0,003
-211,738	80,886	0,063	0,049
-210,723	141,606	-0,049	-0,047
-209,709	663,535	0,029	0,055
-208,694	-78,852	-0,106	0,026
-207,679	-200,000	-0,018	-0,085
-206,665	-40,946	-0,100	-0,037
-205,650	-200,000	-0,011	0,052
-204,636	390,658	0,058	0,088
-203,621	-26,526	-0,186	0,078
-202,606	-200,000	-0,027	0,200
-201,592	-41,179	0,051	0,019
-200,577	3,486	0,086	0,045
-199,563	800,000	-0,025	0,076
-198,548	-200,000	-0,006	0,059
-197,533	-7,633	0,026	-0,012
-196,519	34,210	-0,059	-0,037
-195,504	-200,000	-0,020	-0,070
-194,490	800,000	-0,032	0,066
-193,475	-70,738	-0,075	-0,020
-192,460	-200,000	0,008	0,027
-191,446	-200,000	0,015	-0,058
-190,431	134,521	0,015	0,014
-189,417	64,824	0,071	0,051
-188,402	320,988	-0,021	0,029
-187,387	303,408	-0,056	-0,075
-186,373	-54,350	0,079	-0,026
-185,358	800,000	0,026	0,063
-184,344	-24,326	-0,114	0,049
-183,329	357,853	-0,022	-0,031
-182,315	800,000	0,035	-0,096
-181,300	594,644	-0,018	0,032
-180,285	114,053	0,169	-0,148
-179,271	-200,000	0,011	0,042
-178,256	117,355	0,032	0,028
-177,242	-78,187	-0,114	-0,028
-176,227	-63,016	0,123	0,036
-175,212	-146,989	-0,084	-0,005
-174,198	62,682	0,045	0,032
-173,183	-24,745	0,081	0,034
-172,169	-9,648	0,038	0,018
-171,154	179,809	0,040	-0,042
-170,139	101,473	0,009	-0,008
-169,125	47,507	0,115	-0,077
-168,110	-200,000	-0,022	0,123
-167,096	-200,000	0,002	-0,063
-166,081	57,749	-0,078	-0,055
-165,066	185,320	0,019	-0,021
-164,052	513,669	-0,052	-0,088
-163,037	800,000	0,051	0,107
-162,023	653,044	0,079	0,147
-161,008	102,989	-0,064	-0,054
-159,993	8,328	0,032	-0,017
-158,979	669,261	0,052	-0,098
-157,964	-200,000	0,013	-0,075
-156,950	-147,992	-0,120	0,007
-155,935	399,224	0,056	0,085
-154,920	12,165	0,027	0,015
-153,906	-128,850	0,245	-0,025
-152,891	-200,000	-0,019	0,104
-151,877	74,166	0,094	-0,071
-150,862	182,521	-0,096	-0,102
-149,847	-125,903	0,135	0,014
-148,833	800,000	0,063	-0,184
-147,818	-200,000	0,003	-0,020
-146,804	21,841	-0,161	0,094
-145,789	-44,646	0,040	0,014
-144,775	-200,000	0,014	-0,065
-143,760	-200,000	0,008	-0,026
-142,745	-200,000	0,007	-0,042
-141,731	-119,131	0,075	0,009
-140,716	127,775	0,055	0,050
-139,702	226,743	-0,009	0,011
-138,687	-137,342	0,084	0,007
-137,672	174,162	0,019	0,020
-136,658	435,658	-0,054	0,085
-135,643	-200,000	0,001	-0,024
-134,629	-35,893	-0,072	0,028
-133,614	-46,056	0,018	-0,006
-132,599	116,685	-0,080	-0,071
-131,585	-145,987	0,121	-0,008
-130,570	-200,000	0,003	0,016
-129,556	-200,000	-0,035	-0,152
-128,541	800,000	-0,032	0,094
-127,526	-200,000	0,004	-0,066
-126,512	800,000	-0,027	-0,083
-125,497	27,697	0,066	-0,040
-124,483	-57,132	0,080	-0,025
-123,468	-200,000	0,022	0,202
-122,453	54,410	-0,071	-0,049
-121,439	800,000	0,023	0,066
-120,424	250,407	-0,038	0,046
-119,410	244,439	-0,009	0,011
-118,395	135,883	0,077	-0,072
