DTS Sentinel unit serial number:	SN410029Multiplexer serial number:	ORYXHardware model number:	OX2-SRSoftware version number:	ORYX F/W v4,00 Oryx Data Collector v3.7.2.0data status	okinstallation	B5 Nyhavnadifferential loss correction	single-endedforward channel	channel 2reverse channel	N/Adate	2023/12/14time	11:32:13forward acquisition time	300,00reverse acquisition time	0,00gamma	499,1914k internal	0,3159k external	0,3159temperature offset calibration	1,0000default loss term (dB/km)	0,3820temperature slope calibration	1,0000multiplexer offset coefficient	1,0000multiplexer slope coefficient	1,0000fibre end	0,00T internal ref (°C)	7,43T ext. ref 1 (°C)	-7,98T ext. ref 2 (°C)	-8,01length (m)	temperature (°C)	Stokes	anti-Stokes-744,400	-200,000	0,037	0,166
-743,385	-52,785	-0,363	-0,122
-742,371	155,527	0,118	0,120
-741,356	-127,938	-0,341	-0,036
-740,342	21,352	0,268	0,160
-739,327	-20,159	-0,413	-0,187
-738,312	-180,541	0,110	0,002
-737,298	-19,277	-0,300	-0,136
-736,283	-105,824	0,232	-0,038
-735,269	-171,090	-0,355	-0,009
-734,254	-39,793	0,167	0,064
-733,239	-47,903	-0,529	-0,187
-732,225	38,722	0,187	0,123
-731,210	149,872	0,074	-0,074
-730,196	-200,000	0,029	-0,155
-729,181	159,232	-0,015	0,015
-728,167	545,630	-0,034	-0,060
-727,152	-10,947	0,039	-0,019
-726,137	27,701	-0,061	-0,038
-725,123	-200,000	-0,005	0,063
-724,108	-200,000	0,006	-0,054
-723,094	118,038	-0,099	-0,090
-722,079	-77,471	-0,127	-0,032
-721,064	-67,267	-0,043	0,012
-720,050	-200,000	0,026	-0,108
-719,035	600,021	-0,032	0,059
-718,021	775,321	-0,024	-0,049
-717,006	-197,787	-0,082	-0,000
-715,991	800,000	-0,019	-0,057
-714,977	427,878	-0,040	-0,063
-713,962	-34,378	0,064	-0,026
-712,948	-200,000	0,034	-0,178
-711,933	281,651	0,045	0,059
-710,918	-154,118	0,126	-0,006
-709,904	-200,000	0,010	-0,172
-708,889	5,476	-0,152	-0,082
-707,875	86,687	-0,117	-0,095
-706,860	-200,000	0,012	-0,043
-705,845	-200,000	-0,005	-0,024
-704,831	-71,473	0,118	0,032
-703,816	-63,268	-0,135	0,041
-702,802	485,166	-0,068	0,114
-701,787	56,303	-0,016	0,011
-700,772	251,226	-0,131	-0,165
-699,758	-200,000	0,006	-0,028
-698,743	464,968	0,047	0,077
-697,729	-21,749	-0,106	-0,047
-696,714	800,000	0,059	0,155
-695,699	172,467	-0,106	-0,112
-694,685	-126,060	0,137	-0,015
-693,670	92,495	0,041	-0,034
-692,656	-139,981	-0,163	0,012
-691,641	800,000	-0,041	-0,087
-690,627	-200,000	0,006	-0,117
-689,612	140,853	0,106	0,103
-688,597	129,741	-0,046	0,044
-687,583	-65,650	-0,021	-0,006
-686,568	299,877	-0,110	0,149
-685,554	98,932	-0,105	-0,089
-684,539	232,104	-0,079	-0,095
-683,524	527,898	-0,024	0,042
-682,510	-63,897	0,051	0,015
-681,495	-65,526	-0,074	0,022
-680,481	70,495	0,066	-0,050
-679,466	-200,000	0,010	-0,134
-678,451	800,000	0,008	-0,025
-677,437	-200,000	0,030	0,131
-676,422	496,297	0,038	0,065
-675,408	-200,000	-0,005	0,031
-674,393	-62,874	-0,139	0,042
-673,378	207,584	-0,016	-0,018
-672,364	-179,954	-0,182	0,003
-671,349	67,849	-0,060	-0,045
-670,335	-127,302	0,149	-0,016
-669,320	85,293	-0,066	0,053
-668,305	800,000	-0,027	0,072
-667,291	-200,000	-0,002	-0,044
-666,276	-37,874	-0,043	-0,017
-665,262	23,433	-0,098	-0,059
-664,247	-111,234	-0,066	-0,010
-663,232	-200,000	0,011	-0,135
-662,218	22,202	0,229	-0,137
-661,203	-200,000	0,058	0,190
-660,189	-200,000	0,012	0,062
-659,174	-43,240	-0,104	-0,039
-658,159	17,347	-0,080	0,047
-657,145	-200,000	-0,001	-0,182
-656,130	-200,000	0,021	0,083
-655,116	214,555	0,012	-0,013
-654,101	-64,072	-0,086	-0,026
-653,086	-200,000	0,006	0,025
-652,072	-200,000	0,008	0,042
-651,057	372,412	-0,046	0,069
-650,043	800,000	0,064	-0,181
-649,028	-84,058	-0,122	-0,028
-648,014	201,355	0,103	0,117
-646,999	683,362	-0,039	-0,075
-645,984	366,061	-0,008	0,012
-644,970	16,215	-0,080	0,046
-643,955	-200,000	0,005	0,019
-642,941	-200,000	0,023	0,116
-641,926	682,540	-0,049	-0,094
-640,911	253,161	0,098	0,123
-639,897	-32,991	-0,112	0,045
-638,882	-67,287	0,163	-0,047
-637,868	-38,814	-0,110	-0,042
-636,853	77,206	0,044	0,034
-635,838	460,040	-0,067	-0,110
-634,824	18,650	0,042	-0,025
-633,809	800,000	-0,022	0,047
-632,795	283,572	-0,083	0,109
-631,780	-25,541	0,058	0,025
-630,765	-90,159	-0,064	0,014
-629,751	800,000	-0,037	0,094
-628,736	-49,788	-0,045	0,015
-627,722	36,211	0,071	-0,046
-626,707	124,181	-0,012	-0,011
-625,692	-129,245	0,128	0,013
-624,678	511,738	-0,050	0,085
-623,663	-200,000	0,004	-0,022
-622,649	-200,000	0,002	-0,112
-621,634	-69,701	-0,139	-0,039
-620,619	-200,000	0,028	0,091
-619,605	-200,000	-0,004	-0,158
-618,590	579,101	-0,028	0,050
-617,576	380,192	0,082	0,123
-616,561	-200,000	-0,017	0,110
-615,546	-200,000	0,007	-0,093
-614,532	-200,000	0,017	-0,060
-613,517	-104,640	0,074	-0,012
-612,503	237,544	0,034	0,041
-611,488	115,695	-0,055	0,049
-610,474	800,000	0,037	-0,117
-609,459	-80,501	-0,070	-0,017
-608,444	800,000	-0,032	-0,066
-607,430	800,000	0,023	-0,063
-606,415	102,272	-0,037	0,032
-605,401	267,290	-0,095	0,121
-604,386	-200,000	0,018	0,134
-603,371	-200,000	0,068	0,235
-602,357	-135,086	0,041	-0,004
-601,342	151,942	-0,040	-0,040
-600,328	-27,153	-0,121	-0,052
-599,313	275,904	0,031	-0,041
-598,298	71,384	0,041	-0,032
-597,284	219,858	0,123	0,144
-596,269	245,698	-0,114	0,141
-595,255	-200,000	0,012	0,094
-594,240	-200,000	-0,008	-0,048
-593,225	-200,000	-0,016	0,128
-592,211	171,331	-0,050	-0,053
-591,196	32,569	-0,027	-0,017
-590,182	-200,000	0,008	-0,040
-589,167	-200,000	0,024	0,084
-588,152	800,000	0,052	-0,135
-587,138	-73,650	-0,085	0,022
-586,123	103,459	0,039	-0,034
-585,109	189,422	-0,088	-0,097
-584,094	49,668	-0,043	0,030
-583,079	-120,335	-0,113	-0,014
-582,065	43,643	0,072	-0,048
-581,050	101,407	-0,033	0,028
-580,036	109,537	-0,055	0,048
-579,021	607,048	0,026	0,048
-578,006	-200,000	-0,024	-0,122
-576,992	-106,532	-0,020	-0,003
-575,977	-200,000	0,005	0,027
-574,963	-200,000	0,024	0,110
-573,948	800,000	-0,012	-0,033
-572,934	-135,111	-0,106	-0,009
-571,919	800,000	-0,021	-0,065
-570,904	202,429	0,054	-0,061
-569,890	161,182	-0,145	0,149
-568,875	-85,195	0,166	-0,038
-567,861	-200,000	0,026	-0,162
-566,846	106,009	-0,084	0,073
-565,831	-56,894	-0,049	0,016
-564,817	156,903	0,058	-0,059
-563,802	2,244	-0,131	0,069
-562,788	386,358	0,066	0,101
-561,773	-8,604	-0,029	0,014
-560,758	273,119	0,072	0,093
-559,744	627,762	-0,100	0,185
-558,729	-200,000	0,048	0,169
-557,715	-110,529	-0,103	-0,015
-556,700	199,428	-0,135	0,152
-555,685	-200,000	0,014	0,097
-554,671	166,862	0,088	-0,091
-553,656	800,000	0,040	0,124
-552,642	-200,000	0,020	0,088
-551,627	-200,000	0,002	0,012
-550,612	-183,951	-0,074	-0,001
-549,598	800,000	0,040	-0,083
-548,583	-200,000	0,003	-0,009
-547,569	-57,655	0,088	-0,028
-546,554	-200,000	-0,001	0,025
-545,539	3,856	0,045	0,024
-544,525	-200,000	0,000	0,044
-543,510	349,596	0,052	0,075
-542,496	-200,000	-0,006	-0,151
-541,481	83,065	-0,088	-0,070
-540,466	-84,062	0,115	0,027
-539,452	23,903	-0,049	0,030
-538,437	-73,514	0,121	0,032
-537,423	-200,000	0,013	-0,103
-536,408	800,000	0,017	-0,047
-535,393	271,943	-0,110	0,143
-534,379	-13,086	-0,067	0,032
-533,364	-200,000	0,035	-0,179
-532,350	-200,000	0,021	0,087
-531,335	-200,000	0,023	0,121
-530,321	-113,878	-0,055	-0,008
-529,306	-188,738	-0,088	0,001
-528,291	-51,869	-0,034	-0,012
-527,277	-30,618	0,006	-0,002
-526,262	529,173	-0,038	-0,066
-525,248	592,988	-0,071	-0,128
-524,233	-56,474	0,086	0,028
-523,218	235,421	0,073	0,089
-522,204	800,000	-0,034	-0,109
-521,189	-119,761	-0,125	-0,016
-520,175	-200,000	0,008	-0,073
-519,160	15,616	-0,127	-0,072
-518,145	800,000	0,093	-0,238
-517,131	-200,000	0,026	0,140
-516,116	-200,000	-0,022	-0,095
-515,102	71,518	-0,115	0,087
-514,087	-200,000	-0,021	-0,099
-513,072	788,634	-0,054	0,108
-512,058	-90,473	0,066	-0,014
-511,043	-200,000	0,021	0,124
-510,029	-100,430	0,020	0,004
-509,014	-167,867	0,042	-0,001
-507,999	800,000	0,025	0,071
-506,985	-36,163	0,106	0,042
-505,970	-200,000	-0,010	-0,116
-504,956	13,307	-0,058	-0,033
-503,941	-34,391	0,218	-0,087
-502,926	34,841	-0,016	-0,010
-501,912	-19,280	0,033	0,015
-500,897	488,338	-0,032	-0,053
-499,883	103,085	0,043	-0,037
-498,868	-81,733	-0,108	-0,026
-497,853	-200,000	-0,010	0,089
-496,839	-117,348	0,054	-0,007
-495,824	-66,193	-0,057	0,017
-494,810	-200,000	-0,015	0,099
-493,795	800,000	-0,022	0,047
-492,781	-157,418	0,048	0,002
-491,766	666,236	0,046	-0,087
-490,751	407,666	-0,066	-0,103
-489,737	-200,000	-0,001	-0,055
-488,722	-200,000	-0,003	-0,078
-487,708	-82,708	0,087	0,020
-486,693	422,128	0,059	-0,092
-485,678	40,364	0,041	-0,027
-484,664	81,953	-0,056	0,044
-483,649	42,105	-0,120	0,079
-482,635	-107,814	-0,018	0,003
-481,620	54,177	-0,097	-0,068
-480,605	-107,640	0,113	0,018
-479,591	-118,493	-0,064	-0,008
-478,576	-127,587	0,100	0,010
-477,562	-0,865	-0,085	-0,044
-476,547	800,000	0,033	-0,095
-475,532	800,000	-0,044	-0,126
-474,518	800,000	0,028	-0,067
-473,503	-200,000	0,039	0,179
-472,489	-200,000	0,001	0,027
-471,474	800,000	0,063	0,190
-470,459	-171,159	-0,117	0,003
-469,445	800,000	-0,034	0,109
-468,430	800,000	-0,036	-0,094
-467,416	-57,930	0,052	0,017
-466,401	-118,930	0,171	0,022
-465,386	648,464	0,023	0,042
-464,372	-101,382	-0,036	-0,006
-463,357	262,503	0,052	0,066
-462,343	-200,000	-0,012	0,108
-461,328	800,000	0,044	0,114
-460,313	-200,000	-0,000	0,050
-459,299	800,000	0,022	0,044
-458,284	300,879	-0,064	0,086
-457,270	-200,000	-0,029	0,154
-456,255	-67,057	0,067	-0,019
-455,241	642,448	0,047	-0,087
-454,226	-200,000	-0,029	-0,124
-453,211	-111,242	0,179	0,026
-452,197	31,385	-0,068	0,042
-451,182	460,138	-0,102	0,166
-450,168	-34,687	-0,050	-0,020
-449,153	-6,150	-0,050	0,025
-448,138	-154,932	-0,046	0,002
-447,124	800,000	-0,057	-0,131
-446,109	-43,043	-0,088	-0,032
-445,095	65,942	-0,066	-0,049
-444,080	800,000	0,024	0,073
-443,065	-200,000	-0,021	-0,098
-442,051	128,236	0,066	-0,061
-441,036	123,651	-0,072	0,066
-440,022	-125,871	0,102	0,011
-439,007	-72,330	0,008	0,002
-437,992	267,271	0,083	0,107
-436,978	287,673	-0,017	-0,023
-435,963	328,287	0,090	0,126
-434,949	152,496	-0,120	0,119
-433,934	-200,000	0,011	-0,074
-432,919	-200,000	0,004	0,123
-431,905	-141,839	0,102	0,007
-430,890	-125,388	0,097	0,011
-429,876	-3,234	-0,089	0,045
-428,861	-200,000	-0,020	0,068
-427,846	-14,409	-0,078	0,036
-426,832	-35,330	-0,103	0,040
-425,817	-185,253	-0,079	0,001
-424,803	378,264	-0,027	-0,040
-423,788	432,089	0,044	0,070
-422,773	34,919	0,070	0,044
-421,759	23,275	-0,077	-0,046
-420,744	-200,000	0,128	0,000
-419,730	-117,470	-0,104	-0,014
-418,715	44,335	-0,047	-0,032
-417,701	344,637	-0,057	-0,081
-416,686	-118,786	0,197	0,025
-415,671	598,882	-0,043	0,078
-414,657	-132,092	-0,056	-0,005
-413,642	-30,842	0,086	-0,035
-412,628	51,682	-0,096	-0,066
-411,613	-158,089	0,116	-0,005
-410,598	313,006	0,081	-0,111
-409,584	-200,000	-0,001	-0,101
-408,569	701,654	0,050	0,096
-407,555	800,000	-0,023	0,056
-406,540	-200,000	-0,013	0,123
-405,525	150,027	-0,089	0,088
-404,511	800,000	-0,051	-0,156
-403,496	800,000	-0,006	0,017
-402,482	132,032	0,028	-0,026
-401,467	6,076	0,120	-0,064
-400,452	-127,326	0,034	-0,004
-399,438	-200,000	0,004	0,037
-398,423	-200,000	0,034	-0,118
-397,409	-200,000	-0,034	-0,161
-396,394	10,846	-0,127	0,070
-395,379	-104,303	0,160	0,027
-394,365	234,074	0,042	0,051
-393,350	-52,137	0,080	-0,027
-392,336	10,388	-0,031	0,017
-391,321	-62,620	-0,139	-0,042
-390,306	570,378	-0,084	-0,149
-389,292	89,515	-0,032	0,026
-388,277	-6,843	0,115	0,057
-387,263	-164,160	0,082	0,003
-386,248	-200,000	0,004	0,071
-385,233	-17,991	0,071	-0,032
-384,219	800,000	0,003	0,006
-383,204	-200,000	0,013	-0,067
-382,190	-200,000	0,010	-0,068
-381,175	45,585	-0,035	-0,023
-380,160	-92,823	0,088	-0,018
-379,146	-21,325	-0,133	0,059
-378,131	-59,297	-0,028	-0,009
-377,117	200,234	0,070	0,078
-376,102	137,952	0,071	-0,068
-375,088	-60,778	-0,080	0,025
-374,073	-200,000	0,040	-0,149
-373,058	117,204	0,040	0,036
-372,044	169,709	0,122	0,127
-371,029	-200,000	-0,011	0,092
-370,015	-164,585	-0,156	0,005
-369,000	-200,000	-0,003	0,110
-367,985	373,141	-0,103	-0,153
-366,971	-200,000	-0,013	-0,088
-365,956	-35,895	0,116	-0,045
-364,942	800,000	0,031	0,089
-363,927	-200,000	-0,010	0,155
-362,912	-5,948	0,054	0,027
-361,898	-16,432	-0,057	-0,026
-360,883	-200,000	-0,030	-0,122
-359,869	-47,819	-0,058	-0,020
-358,854	298,842	0,021	0,028
-357,839	356,044	-0,021	0,030
-356,825	243,134	0,099	0,121
-355,810	11,489	-0,083	-0,046
-354,796	-105,123	-0,039	-0,006
-353,781	800,000	0,037	-0,097
-352,766	-200,000	0,020	-0,179
-351,752	-127,707	0,158	-0,016
-350,737	800,000	0,025	0,069
-349,723	-37,980	0,135	0,052
-348,708	800,000	-0,055	0,137
-347,693	-49,317	0,046	-0,016
-346,679	47,440	0,137	-0,092
-345,664	-56,853	-0,080	-0,025
-344,650	-200,000	-0,017	-0,077
-343,635	800,000	-0,018	0,036
-342,620	-200,000	0,030	0,182
-341,606	-200,000	0,014	0,058
-340,591	800,000	-0,051	-0,124
-339,577	611,205	0,091	-0,165
-338,562	280,058	-0,074	0,097
-337,548	91,737	-0,057	0,047
-336,533	87,372	0,128	0,102
-335,518	-7,372	-0,107	-0,052
-334,504	55,995	0,058	-0,041
-333,489	-200,000	0,013	0,063
-332,475	19,465	-0,061	0,035
-331,460	800,000	0,026	-0,056
-330,445	592,146	0,064	-0,115
-329,431	256,120	0,022	0,027
-328,416	-200,000	-0,006	0,125
-327,402	269,567	0,068	0,086
-326,387	66,651	-0,022	-0,016
-325,372	138,926	0,080	-0,076
-324,358	-200,000	0,000	-0,081
-323,343	418,567	0,048	0,075
-322,329	-200,000	-0,039	0,152
-321,314	34,629	-0,112	0,071
-320,299	80,079	0,069	0,054
-319,285	279,535	-0,015	0,019
-318,270	-125,883	-0,144	-0,016
-317,256	-200,000	0,045	-0,145
-316,241	800,000	-0,051	-0,143
-315,226	-200,000	0,004	-0,072
-314,212	-159,615	0,104	0,004
-313,197	286,634	0,087	0,115
-312,183	-200,000	0,024	0,106
-311,168	191,535	-0,063	-0,069
-310,153	-99,309	0,129	-0,023
-309,139	-20,277	-0,066	-0,029
-308,124	800,000	0,016	0,049
-307,110	-2,282	0,114	-0,058
-306,095	758,447	0,058	0,115
-305,080	129,337	0,108	0,100
-304,066	-100,119	-0,045	-0,008
-303,051	-185,244	-0,052	-0,001
-302,037	-200,000	-0,007	-0,043
-301,022	-76,451	0,031	0,008
-300,008	-200,000	0,036	0,147
-298,993	236,251	0,031	0,038
-297,978	800,000	0,011	-0,036
-296,964	800,000	-0,034	0,089
-295,949	595,510	0,034	-0,062
-294,935	-50,934	-0,118	0,040
-293,920	-75,485	-0,058	0,015
-292,905	-200,000	-0,022	0,073
-291,891	-200,000	0,015	-0,164
-290,876	800,000	-0,022	0,045
-289,862	51,324	0,121	-0,083
-288,847	-200,000	-0,001	-0,065
-287,832	-50,997	0,040	0,013
-286,818	202,418	-0,102	0,114
-285,803	94,783	0,147	-0,121
-284,789	800,000	0,052	0,135
-283,774	541,321	-0,090	-0,156
-282,759	306,689	-0,012	0,017
-281,745	323,880	-0,023	0,032
-280,730	342,744	-0,077	-0,110
-279,716	-200,000	-0,022	-0,080
-278,701	800,000	-0,003	0,006
-277,686	46,990	0,109	0,073
-276,672	60,796	-0,106	0,076
-275,657	5,605	-0,045	0,024
-274,643	9,248	0,092	0,050
-273,628	93,447	-0,110	-0,090
-272,613	476,108	0,042	-0,068
-271,599	-13,287	0,161	0,075
-270,584	54,636	0,037	0,026
-269,570	-200,000	0,002	-0,014
-268,555	-44,168	-0,042	-0,015
-267,540	-200,000	0,006	-0,033
-266,526	-200,000	-0,029	-0,112
-265,511	-200,000	-0,008	-0,156
-264,497	110,058	-0,061	-0,053
-263,482	-200,000	0,014	0,195
-262,467	283,264	0,021	0,028
-261,453	-200,000	-0,006	-0,143
-260,438	84,094	-0,108	-0,085
-259,424	167,199	-0,079	0,081
-258,409	209,826	-0,016	-0,018
-257,395	800,000	-0,012	0,038
-256,380	-100,710	0,085	-0,015
-255,365	-200,000	0,032	0,129
-254,351	-200,000	-0,003	0,039
-253,336	-13,199	0,163	-0,076
-252,322	-200,000	-0,008	-0,043
-251,307	400,908	0,023	0,036
-250,292	574,763	0,043	-0,076
-249,278	-28,010	0,232	-0,097
-248,263	800,000	0,047	0,104
-247,249	10,385	-0,055	-0,030
-246,234	92,350	0,101	0,082
-245,219	800,000	0,073	-0,147
-244,205	37,636	-0,076	-0,049
-243,190	693,501	0,029	-0,055
-242,176	-171,046	0,100	-0,002
-241,161	195,942	0,074	0,081
-240,146	-109,521	0,069	0,010
-239,132	-90,335	0,096	0,020
-238,117	800,000	-0,023	-0,067
-237,103	282,263	0,057	-0,074
-236,088	299,634	0,029	-0,039
-235,073	-61,886	0,004	0,001
-234,059	649,707	0,062	0,116
-233,044	36,619	-0,100	0,063
-232,030	800,000	0,074	-0,154
-231,015	-200,000	-0,012	-0,085
-230,000	-119,373	-0,175	0,022
-228,986	800,000	0,069	-0,161
-227,971	-140,361	0,045	-0,003
-226,957	225,736	-0,032	0,037
-225,942	-200,000	0,036	-0,133
-224,927	-125,859	0,076	0,008
-223,913	21,184	0,048	0,028
-222,898	88,911	-0,184	-0,148
-221,884	288,488	0,083	-0,109
-220,869	-118,369	0,097	0,012
-219,855	162,257	-0,079	0,080
-218,840	-9,170	0,069	0,033
-217,825	412,753	0,084	0,129
-216,811	-200,000	0,000	0,168
-215,796	564,353	-0,048	0,085
-214,782	-200,000	0,008	0,035
-213,767	800,000	0,059	-0,121
-212,752	-200,000	-0,001	-0,129
-211,738	133,098	-0,059	0,055
-210,723	785,937	0,102	0,203
-209,709	-25,428	0,037	0,016
-208,694	800,000	-0,030	-0,079
-207,679	149,407	-0,058	-0,057
-206,665	-200,000	-0,001	-0,041
-205,650	177,808	0,063	0,066
-204,636	12,642	-0,033	0,019
-203,621	-108,437	0,023	-0,003
-202,606	146,253	-0,114	-0,111
-201,592	-101,622	-0,124	0,022
-200,577	-65,787	-0,105	-0,030
-199,563	-200,000	-0,021	0,146
-198,548	-176,978	0,159	0,003
-197,533	430,662	-0,036	-0,056
-196,519	-79,298	-0,146	0,035
-195,504	66,913	-0,204	-0,150
-194,490	185,215	-0,051	-0,055
-193,475	-127,968	0,117	0,012
-192,460	589,717	0,037	-0,065
-191,446	-51,580	-0,193	0,065
-190,431	645,862	-0,026	0,048
-189,417	-122,857	-0,158	0,018
-188,402	800,000	-0,007	-0,020
-187,387	610,078	-0,082	-0,148
-186,373	215,592	0,025	0,029
-185,358	-94,807	-0,114	-0,022
-184,344	-200,000	-0,016	-0,062
-183,329	-104,506	-0,007	-0,001
-182,315	-62,466	-0,125	-0,037
-181,300	-100,665	0,079	0,014
-180,285	-51,368	0,058	0,019
-179,271	66,914	-0,055	-0,040
-178,256	111,097	0,051	0,044
-177,242	-153,088	0,073	0,004
-176,227	800,000	-0,036	0,079
-175,212	-39,763	0,022	0,008
-174,198	208,983	0,059	0,067
-173,183	-200,000	0,002	-0,109
-172,169	800,000	-0,053	-0,141
-171,154	-200,000	0,045	-0,189
-170,139	-93,511	0,080	0,016
-169,125	-200,000	0,009	-0,036
-168,110	-26,422	-0,085	0,036
-167,096	-64,305	0,026	0,008
-166,081	122,306	-0,088	-0,079
-165,066	408,095	-0,073	-0,111
-164,052	-200,000	-0,008	-0,105
-163,037	358,899	0,046	-0,066
-162,023	37,061	0,084	0,054
-161,008	82,642	-0,082	-0,064
-159,993	-44,003	-0,129	-0,047
-158,979	444,366	-0,073	-0,115
-157,964	-200,000	0,000	-0,140
-156,950	-48,334	-0,100	0,034
-155,935	-200,000	-0,006	-0,059
-154,920	98,052	0,100	-0,083
-153,906	204,829	0,054	0,061
-152,891	69,142	-0,054	-0,040
-151,877	-156,324	0,098	0,004
-150,862	-66,773	-0,123	0,035
-149,847	-200,000	-0,002	0,132
-148,833	432,180	-0,031	0,048
-147,818	-200,000	-0,027	-0,166
-146,804	-18,512	0,022	0,010
-145,789	114,173	-0,038	-0,033
-144,775	-23,531	0,190	-0,082
-143,760	165,492	-0,071	-0,072
-142,745	-138,923	-0,006	-0,000
-141,731	47,013	0,049	-0,032
-140,716	6,274	0,023	0,012
-139,702	-146,188	0,179	0,011
-138,687	800,000	-0,053	0,143
-137,672	-50,899	-0,067	0,023
-136,658	-152,540	0,108	0,005
-135,643	749,597	-0,036	-0,070
-134,629	515,403	0,037	-0,063
-133,614	-23,592	0,192	0,082
-132,599	314,468	-0,041	-0,056
-131,585	-200,000	-0,023	-0,106
-130,570	-25,478	-0,108	-0,046
-129,556	-15,597	-0,184	0,084
-128,541	463,839	-0,055	0,089
-127,526	-200,000	-0,011	0,086
-126,512	-200,000	0,024	0,085
-125,497	-200,000	-0,028	0,147
-124,483	-156,476	0,053	0,002
-123,468	-200,000	0,008	-0,097
-122,453	237,937	-0,110	-0,131
-121,439	800,000	-0,022	-0,066
-120,424	142,732	-0,073	0,070
