DTS Sentinel unit serial number:	SN410029Multiplexer serial number:	ORYXHardware model number:	OX2-SRSoftware version number:	ORYX F/W v4,00 Oryx Data Collector v3.7.2.0data status	okinstallation	B5 Nyhavnadifferential loss correction	single-endedforward channel	channel 2reverse channel	N/Adate	2023/12/12time	21:47:13forward acquisition time	300,00reverse acquisition time	0,00gamma	499,1914k internal	0,3158k external	0,3158temperature offset calibration	1,0000default loss term (dB/km)	0,3820temperature slope calibration	1,0000multiplexer offset coefficient	1,0000multiplexer slope coefficient	1,0000fibre end	0,00T internal ref (°C)	14,81T ext. ref 1 (°C)	-1,77T ext. ref 2 (°C)	-2,08length (m)	temperature (°C)	Stokes	anti-Stokes-744,400	-150,208	0,097	0,005
-743,385	112,040	-0,253	0,226
-742,371	-25,199	0,118	0,051
-741,356	-97,516	-0,265	0,050
-740,342	800,000	0,066	0,157
-739,327	-18,377	-0,288	0,132
-738,312	-200,000	-0,005	-0,049
-737,298	-87,741	-0,324	-0,071
-736,283	-86,461	-0,092	-0,021
-735,269	-121,259	-0,244	-0,030
-734,254	-112,419	0,079	0,012
-733,239	-52,750	-0,381	-0,129
-732,225	-4,142	0,160	0,081
-731,210	366,484	0,033	0,049
-730,196	138,779	-0,042	-0,041
-729,181	-83,719	-0,058	-0,014
-728,167	-200,000	-0,009	-0,044
-727,152	-91,167	-0,017	0,004
-726,137	-200,000	-0,026	-0,115
-725,123	-41,194	-0,269	-0,102
-724,108	112,380	-0,063	-0,056
-723,094	230,369	-0,107	-0,130
-722,079	655,812	0,020	-0,038
-721,064	-22,780	-0,100	-0,044
-720,050	276,413	0,041	-0,054
-719,035	-158,438	-0,224	-0,009
-718,021	800,000	-0,056	-0,166
-717,006	309,726	-0,040	-0,055
-715,991	-18,611	-0,120	-0,055
-714,977	800,000	-0,037	-0,087
-713,962	-138,942	-0,061	0,005
-712,948	63,886	0,045	0,033
-711,933	-85,786	-0,037	0,008
-710,918	800,000	-0,053	0,111
-709,904	-8,157	-0,097	0,048
-708,889	-85,788	-0,129	0,029
-707,875	-136,541	-0,115	-0,010
-706,860	719,712	0,040	0,079
-705,845	720,984	0,030	0,059
-704,831	-142,856	0,161	0,011
-703,816	41,088	-0,075	-0,050
-702,802	-162,441	-0,184	-0,007
-701,787	800,000	0,031	-0,071
-700,772	-31,743	0,088	-0,036
-699,758	800,000	-0,045	-0,113
-698,743	-120,860	0,144	0,018
-697,729	-200,000	0,009	-0,054
-696,714	-44,621	0,090	0,033
-695,699	263,944	0,010	0,012
-694,685	264,801	-0,094	0,121
-693,670	451,254	-0,041	0,067
-692,656	800,000	-0,022	-0,068
-691,641	5,090	-0,062	-0,034
-690,627	344,152	0,060	0,086
-689,612	-200,000	0,038	0,156
-688,597	-106,649	-0,227	-0,037
-687,583	523,497	0,036	0,062
-686,568	293,402	0,090	-0,122
-685,554	9,502	-0,104	-0,058
-684,539	-83,806	-0,139	-0,032
-683,524	-200,000	-0,020	0,075
-682,510	-200,000	0,002	0,010
-681,495	57,566	-0,131	-0,094
-680,481	-200,000	0,010	-0,055
-679,466	-51,061	-0,131	0,045
-678,451	800,000	-0,051	-0,125
-677,437	-200,000	0,018	0,097
-676,422	325,290	0,019	-0,027
-675,408	697,416	0,077	0,150
-674,393	-51,047	-0,039	0,013
-673,378	425,763	-0,045	-0,071
-672,364	311,538	-0,098	-0,136
-671,349	604,792	-0,027	0,049
-670,335	800,000	0,020	-0,045
-669,320	213,078	0,035	-0,041
-668,305	-118,788	0,121	-0,015
-667,291	-86,509	-0,064	0,014
-666,276	-200,000	0,021	-0,108
-665,262	800,000	0,028	-0,090
-664,247	168,119	-0,073	-0,077
-663,232	-200,000	-0,010	-0,050
-662,218	59,552	0,128	-0,093
-661,203	671,187	0,021	-0,041
-660,189	-54,628	-0,123	-0,041
-659,174	261,746	-0,113	0,145
-658,159	450,558	-0,021	-0,034
-657,145	-99,571	-0,114	-0,021
-656,130	516,047	0,039	-0,067
-655,116	-200,000	0,051	0,197
-654,101	-99,824	-0,142	0,026
-653,086	152,191	-0,068	0,068
-652,072	147,267	0,088	-0,087
-651,057	516,518	-0,052	-0,090
-650,043	82,283	0,026	0,021
-649,028	49,164	-0,108	-0,075
-648,014	-26,669	0,119	-0,051
-646,999	396,924	0,007	0,011
-645,984	73,539	0,109	-0,083
-644,970	800,000	0,016	0,042
-643,955	-200,000	0,000	0,085
-642,941	-18,111	-0,070	0,032
-641,926	-39,013	0,086	0,033
-640,911	169,693	0,046	0,048
-639,897	-121,895	0,013	0,002
-638,882	-24,547	-0,060	0,026
-637,868	-56,509	0,084	-0,027
-636,853	-76,323	-0,170	0,044
-635,838	-14,036	-0,078	-0,037
-634,824	751,255	0,064	-0,127
-633,809	88,666	-0,030	0,025
-632,795	-29,223	-0,105	0,044
-631,780	113,215	-0,059	-0,053
-630,765	-32,462	0,107	-0,044
-629,751	483,489	0,048	0,081
-628,736	-3,000	-0,097	-0,050
-627,722	60,908	0,045	-0,033
-626,707	133,923	-0,070	0,067
-625,692	-200,000	0,007	-0,047
-624,678	-56,529	0,098	-0,032
-623,663	175,034	-0,059	0,063
-622,649	43,562	-0,077	-0,052
-621,634	88,372	-0,165	-0,134
-620,619	456,507	-0,053	-0,086
-619,605	800,000	-0,066	0,175
-618,590	-49,654	0,051	0,018
-617,576	358,794	-0,039	-0,057
-616,561	6,100	-0,100	-0,054
-615,546	-200,000	-0,011	0,106
-614,532	361,350	0,109	-0,161
-613,517	48,319	-0,055	-0,038
-612,503	800,000	-0,070	0,150
-611,488	214,049	0,105	-0,122
-610,474	-200,000	-0,027	0,102
-609,459	255,011	-0,070	0,088
-608,444	329,350	0,107	-0,152
-607,430	-166,558	-0,134	-0,004
-606,415	-111,907	-0,165	0,024
-605,401	-121,863	0,123	0,015
-604,386	-200,000	-0,030	0,112
-603,371	155,615	0,054	-0,055
-602,357	305,202	0,007	0,010
-601,342	-100,462	-0,055	-0,010
-600,328	228,274	-0,061	-0,073
-599,313	569,964	0,038	-0,069
-598,298	34,294	0,103	-0,066
-597,284	800,000	0,061	0,160
-596,269	151,134	-0,056	0,056
-595,255	52,681	0,056	0,039
-594,240	800,000	-0,047	-0,097
-593,225	-74,906	0,029	-0,007
-592,211	-90,385	-0,097	-0,020
-591,196	800,000	-0,029	-0,071
-590,182	-67,264	0,078	0,022
-589,167	486,963	0,027	-0,045
-588,152	-77,495	0,048	0,012
-587,138	-200,000	0,018	0,069
-586,123	136,958	0,045	0,043
-585,109	-200,000	0,011	-0,044
-584,094	-16,580	0,072	-0,033
-583,079	-36,721	0,122	-0,048
-582,065	-118,431	0,180	0,023
-581,050	-49,321	0,147	0,051
-580,036	-72,285	-0,070	0,019
-579,021	348,037	0,035	-0,050
-578,006	-102,694	-0,166	-0,029
-576,992	-33,310	-0,076	0,031
-575,977	-113,822	-0,055	-0,008
-574,963	-200,000	-0,004	0,030
-573,948	21,641	0,020	0,012
-572,934	212,826	0,024	-0,028
-571,919	682,497	-0,064	0,123
-570,904	-200,000	-0,001	-0,171
-569,890	-200,000	-0,006	-0,074
-568,875	75,671	0,046	-0,036
-567,861	364,996	-0,027	0,040
-566,846	-30,068	-0,022	0,009
-565,831	800,000	0,045	-0,132
-564,817	-35,084	0,052	0,021
-563,802	6,067	-0,103	-0,056
-562,788	-200,000	-0,055	-0,207
-561,773	75,554	0,039	0,030
-560,758	-95,597	-0,025	0,005
-559,744	89,117	-0,064	0,052
-558,729	-200,000	-0,001	-0,117
-557,715	-2,635	-0,116	0,059
-556,700	389,882	-0,050	-0,077
-555,685	49,304	-0,129	0,089
-554,671	116,252	0,068	0,061
-553,656	800,000	0,030	-0,087
-552,642	179,740	-0,038	-0,041
-551,627	111,559	-0,096	0,085
-550,612	-147,252	0,025	-0,002
-549,598	57,446	-0,139	-0,099
-548,583	800,000	0,082	-0,189
-547,569	-200,000	-0,050	-0,238
-546,554	269,001	0,087	-0,112
-545,539	800,000	0,019	0,046
-544,525	-182,248	-0,089	0,001
-543,510	800,000	0,076	-0,205
-542,496	800,000	0,034	-0,095
-541,481	-154,991	-0,113	0,005
-540,466	209,276	-0,034	-0,039
-539,452	-146,079	0,223	-0,014
-538,437	-200,000	0,004	-0,018
-537,423	-29,177	0,114	-0,048
-536,408	-200,000	-0,017	-0,064
-535,393	-99,146	0,073	-0,013
-534,379	153,691	-0,073	0,073
-533,364	59,060	-0,039	-0,028
-532,350	597,461	0,070	-0,127
-531,335	232,785	-0,037	0,044
-530,321	800,000	0,087	0,186
-529,306	-7,424	-0,015	-0,007
-528,291	113,410	-0,041	0,036
-527,277	173,433	0,049	0,052
-526,262	-48,572	-0,150	0,052
-525,248	-200,000	0,013	-0,094
-524,233	687,842	0,068	0,131
-523,218	-109,040	0,034	0,005
-522,204	240,360	-0,052	-0,064
-521,189	504,802	0,024	0,040
-520,175	-129,997	-0,184	0,018
-519,160	-200,000	0,013	0,128
-518,145	22,656	-0,110	-0,066
-517,131	97,584	0,056	0,047
-516,116	158,682	0,023	-0,023
-515,102	77,029	0,064	0,050
-514,087	-33,831	-0,065	-0,026
-513,072	735,170	0,046	-0,090
-512,058	-200,000	0,007	0,090
-511,043	-70,075	0,083	-0,023
-510,029	94,214	0,106	0,088
-509,014	-200,000	0,015	-0,083
-507,999	800,000	0,009	0,023
-506,985	-17,015	-0,029	-0,013
-505,970	111,515	-0,069	-0,061
-504,956	251,265	0,059	0,074
-503,941	-12,969	-0,007	0,003
-502,926	-101,445	0,137	0,024
-501,912	130,877	-0,042	0,039
-500,897	-65,099	-0,167	-0,049
-499,883	-38,181	-0,051	-0,020
-498,868	156,987	-0,063	0,064
-497,853	800,000	0,008	-0,019
-496,839	339,638	0,023	-0,033
-495,824	263,724	0,112	0,142
-494,810	3,893	-0,021	-0,011
-493,795	-42,885	-0,059	-0,022
-492,781	800,000	-0,042	-0,102
-491,766	46,479	0,033	-0,022
-490,751	-200,000	-0,013	0,099
-489,737	800,000	-0,019	0,039
-488,722	305,057	0,033	0,044
-487,708	312,574	-0,030	-0,042
-486,693	-13,158	-0,095	0,045
-485,678	-200,000	-0,005	0,076
-484,664	92,949	-0,041	0,033
-483,649	10,706	0,152	-0,084
-482,635	800,000	-0,036	0,092
-481,620	-17,736	-0,021	-0,010
-480,605	-200,000	0,040	0,158
-479,591	-189,595	-0,054	-0,000
-478,576	-101,536	-0,075	-0,013
-477,562	-200,000	0,041	0,137
-476,547	251,810	-0,034	-0,042
-475,532	-200,000	0,041	-0,143
-474,518	-66,740	0,056	-0,016
-473,503	-200,000	0,098	-0,000
-472,489	-97,334	0,154	-0,029
-471,474	-38,679	0,128	0,049
-470,459	800,000	0,011	0,025
-469,445	-23,001	-0,049	-0,021
-468,430	367,748	-0,035	-0,051
-467,416	-26,932	0,064	-0,027
-466,401	-200,000	0,023	0,108
-465,386	393,788	0,060	-0,091
-464,372	351,075	0,048	0,069
-463,357	726,622	-0,022	-0,043
-462,343	-200,000	0,008	-0,065
-461,328	74,744	-0,058	0,045
-460,313	364,844	-0,051	-0,075
-459,299	409,230	0,093	-0,145
-458,284	-200,000	0,009	-0,029
-457,270	93,998	-0,132	0,109
-456,255	800,000	-0,050	0,134
-455,241	2,077	-0,142	-0,074
-454,226	399,520	0,065	-0,099
-453,211	48,191	0,096	-0,066
-452,197	347,014	0,022	0,032
-451,182	554,427	-0,037	0,065
-450,168	48,752	0,079	-0,054
-449,153	95,222	-0,018	-0,015
-448,138	-56,975	0,069	-0,022
-447,124	520,827	-0,079	0,135
-446,109	-200,000	-0,004	-0,046
-445,095	-200,000	-0,004	0,054
-444,080	-200,000	-0,013	0,079
-443,065	-200,000	0,003	0,054
-442,051	300,329	-0,026	0,036
-441,036	-200,000	-0,014	-0,066
-440,022	441,727	0,048	0,077
-439,007	172,604	0,033	-0,035
-437,992	287,819	0,057	0,076
-436,978	-123,655	0,077	-0,009
-435,963	-41,002	-0,063	0,024
-434,949	4,279	-0,109	0,058
-433,934	346,263	-0,100	-0,143
-432,919	-49,207	-0,138	-0,048
-431,905	-200,000	0,002	0,050
-430,890	800,000	-0,037	0,109
-429,876	-109,954	0,047	-0,007
-428,861	-200,000	-0,025	0,144
-427,846	-72,400	-0,040	-0,011
-426,832	131,101	-0,025	-0,024
-425,817	-200,000	0,016	-0,061
-424,803	-115,222	-0,072	0,010
-423,788	-200,000	0,003	-0,093
-422,773	86,071	0,100	0,080
-421,759	195,260	0,117	0,130
-420,744	800,000	0,030	0,090
-419,730	446,743	0,037	-0,059
-418,715	54,459	-0,048	-0,034
-417,701	-154,260	-0,095	0,005
-416,686	-47,659	-0,077	-0,027
-415,671	248,772	0,045	0,056
-414,657	-200,000	0,020	-0,102
-413,642	-72,463	0,057	0,015
-412,628	-53,357	-0,132	0,044
-411,613	-89,021	-0,018	0,004
-410,598	-200,000	-0,021	-0,107
-409,584	-200,000	-0,011	0,129
-408,569	11,495	0,122	-0,068
-407,555	-108,714	0,080	-0,012
-406,540	-10,359	0,052	-0,025
-405,525	15,800	-0,077	-0,044
-404,511	47,486	-0,123	-0,084
-403,496	-132,303	0,089	-0,008
-402,482	31,347	-0,020	-0,013
-401,467	-77,813	0,089	0,022
-400,452	234,952	-0,075	0,090
-399,438	-200,000	0,007	0,150
-398,423	800,000	-0,043	0,097
-397,409	-34,964	0,143	-0,056
-396,394	-3,529	-0,193	-0,097
-395,379	303,394	0,034	0,045
-394,365	549,649	0,062	0,108
-393,350	-84,944	0,009	-0,002
-392,336	-104,266	0,075	-0,013
-391,321	-77,059	-0,087	0,022
-390,306	61,518	0,035	-0,025
-389,292	-48,917	-0,145	0,050
-388,277	286,353	0,022	-0,029
-387,263	24,348	0,084	-0,051
-386,248	-200,000	-0,026	0,150
-385,233	339,196	0,050	0,071
-384,219	81,679	-0,080	-0,063
-383,204	-200,000	0,011	-0,056
-382,190	-200,000	0,002	-0,097
-381,175	13,553	0,106	-0,060
-380,160	-107,495	0,044	0,007
-379,146	735,441	0,050	0,097
-378,131	410,433	-0,031	0,048
-377,117	204,530	0,082	-0,093
-376,102	-200,000	-0,003	-0,085
-375,088	136,916	0,105	-0,100
-374,073	-74,406	-0,025	0,006
-373,058	151,475	0,085	0,084
-372,044	-114,325	0,040	0,005
-371,029	-200,000	0,024	0,104
-370,015	-59,211	-0,079	-0,025
-369,000	27,985	-0,002	-0,001
-367,985	412,976	-0,049	0,076
-366,971	274,860	0,105	-0,136
-365,956	-200,000	0,001	0,055
-364,942	-200,000	0,001	0,044
-363,927	51,224	0,102	0,070
-362,912	99,522	-0,098	0,082
-361,898	-24,809	-0,084	0,036
-360,883	95,416	-0,063	0,052
-359,869	-200,000	-0,004	-0,083
-358,854	-133,587	0,022	0,002
-357,839	-200,000	0,034	-0,138
-356,825	304,066	0,023	-0,031
-355,810	-200,000	0,015	-0,050
-354,796	800,000	-0,040	0,113
-353,781	-19,711	-0,049	0,022
-352,766	-200,000	-0,030	0,113
-351,752	158,310	0,069	0,070
-350,737	8,630	0,049	0,027
-349,723	-200,000	-0,004	0,017
-348,708	-200,000	-0,004	-0,039
-347,693	7,273	0,056	0,030
-346,679	241,321	-0,062	-0,076
-345,664	719,683	-0,016	-0,032
-344,650	-18,776	-0,099	0,045
-343,635	-200,000	-0,015	-0,155
-342,620	188,250	0,059	-0,064
-341,606	195,522	-0,079	0,088
-340,591	-200,000	0,015	0,080
-339,577	83,617	0,060	0,047
-338,562	56,725	0,094	0,066
-337,548	66,853	0,032	-0,023
-336,533	-200,000	-0,023	-0,078
-335,518	43,965	0,108	0,072
-334,504	-155,962	-0,040	0,002
-333,489	-200,000	-0,000	-0,043
-332,475	-200,000	0,009	-0,121
-331,460	141,301	-0,080	-0,076
-330,445	151,753	-0,053	-0,052
-329,431	-200,000	0,029	0,113
-328,416	80,230	-0,058	-0,045
-327,402	93,635	-0,126	0,104
-326,387	-200,000	0,003	-0,113
-325,372	255,737	-0,088	-0,109
-324,358	37,017	-0,084	-0,054
-323,343	800,000	0,032	-0,082
-322,329	-62,069	0,101	0,031
-321,314	-200,000	0,016	0,101
-320,299	229,658	-0,058	0,069
-319,285	176,739	-0,056	0,059
-318,270	284,041	0,049	-0,064
-317,256	-80,129	0,125	-0,030
-316,241	226,617	-0,014	-0,017
-315,226	-84,499	0,101	0,023
-314,212	-200,000	-0,007	0,063
-313,197	97,897	0,089	0,074
-312,183	-200,000	0,006	0,083
-311,168	800,000	-0,043	-0,086
-310,153	800,000	-0,047	0,106
-309,139	14,855	0,059	0,034
-308,124	497,516	-0,014	-0,023
-307,110	-87,913	0,188	-0,041
-306,095	29,476	-0,015	-0,009
-305,080	170,747	0,023	-0,024
-304,066	281,351	-0,049	-0,063
-303,051	367,222	-0,040	-0,059
-302,037	41,360	-0,073	-0,048
-301,022	-200,000	0,016	0,138
-300,008	-200,000	0,022	0,101
-298,993	206,397	0,068	0,076
-297,978	-200,000	0,018	0,057
-296,964	-43,359	-0,085	0,031
-295,949	69,529	-0,082	-0,061
-294,935	83,675	-0,048	-0,038
-293,920	800,000	-0,030	-0,079
-292,905	800,000	0,043	0,107
-291,891	125,391	0,065	0,059
-290,876	-200,000	0,037	0,132
-289,862	633,991	0,042	0,077
-288,847	-141,102	-0,233	-0,017
-287,832	113,449	-0,063	0,055
-286,818	107,158	0,099	0,085
-285,803	-200,000	-0,004	-0,067
-284,789	149,009	0,064	0,063
-283,774	-200,000	-0,001	0,062
-282,759	-123,348	-0,091	0,010
-281,745	-200,000	0,004	0,026
-280,730	-31,431	0,084	-0,034
-279,716	-200,000	-0,007	-0,037
-278,701	342,128	0,138	0,195
-277,686	-83,510	0,103	0,024
-276,672	-200,000	-0,011	0,123
-275,657	317,483	-0,069	-0,095
-274,643	-62,438	0,074	-0,022
-273,628	-162,807	0,073	-0,003
-272,613	-127,875	0,043	0,004
-271,599	-120,918	0,060	0,007
-270,584	-200,000	-0,007	0,115
-269,570	-12,900	0,172	-0,081
-268,555	-7,940	-0,061	0,030
-267,540	543,654	0,023	-0,040
-266,526	-200,000	-0,036	-0,134
-265,511	-200,000	-0,015	-0,145
-264,497	-107,208	0,073	-0,012
-263,482	-52,759	0,143	0,047
-262,467	-94,786	0,068	-0,013
-261,453	-44,038	-0,056	0,020
-260,438	-200,000	-0,015	-0,157
-259,424	385,711	-0,055	0,083
-258,409	-43,163	-0,094	-0,034
-257,395	-31,773	-0,066	0,027
-256,380	-91,837	0,078	-0,016
-255,365	-200,000	-0,006	0,031
-254,351	33,600	-0,061	-0,039
-253,336	80,908	0,081	0,063
-252,322	525,216	0,011	-0,019
-251,307	205,024	-0,042	-0,048
-250,292	392,344	-0,055	0,083
-249,278	145,556	0,111	0,108
-248,263	-200,000	0,025	0,111
-247,249	335,960	0,047	-0,066
-246,234	-200,000	-0,014	-0,122
-245,219	531,758	0,016	-0,028
-244,205	-200,000	0,005	0,025
-243,190	-88,148	-0,112	-0,024
-242,176	-117,856	0,069	0,009
-241,161	58,003	0,074	0,053
-240,146	356,371	-0,122	0,176
-239,132	137,963	-0,043	0,041
-238,117	-200,000	-0,003	-0,093
-237,103	-112,636	0,066	0,009
-236,088	97,019	-0,080	0,066
-235,073	800,000	0,033	-0,076
-234,059	372,222	-0,040	0,059
-233,044	-127,771	-0,202	0,021
-232,030	-200,000	-0,005	-0,065
-231,015	800,000	-0,035	-0,097
-230,000	-35,879	-0,088	-0,034
-228,986	235,904	-0,019	-0,022
-227,971	207,109	0,076	0,086
-226,957	181,279	-0,066	-0,070
-225,942	173,168	0,036	-0,038
-224,927	381,569	-0,060	-0,089
-223,913	-48,979	-0,099	0,034
-222,898	-200,000	0,008	-0,081
-221,884	-200,000	-0,044	-0,144
-220,869	224,645	0,071	-0,083
-219,855	-70,502	0,186	0,051
-218,840	-179,938	0,184	0,003
-217,825	-200,000	-0,002	-0,041
-216,811	468,502	0,095	-0,154
-215,796	-200,000	-0,007	-0,080
-214,782	800,000	0,059	-0,143
-213,767	-133,652	-0,193	-0,017
-212,752	-126,924	0,060	0,006
-211,738	219,570	0,018	-0,021
-210,723	87,184	0,042	0,034
-209,709	-1,854	-0,112	-0,056
-208,694	370,018	-0,009	0,014
-207,679	-200,000	0,021	0,117
-206,665	-55,265	-0,079	0,025
-205,650	-200,000	-0,005	0,109
-204,636	-200,000	-0,001	0,084
-203,621	-200,000	0,034	0,208
-202,606	444,221	0,047	0,075
-201,592	-200,000	0,010	0,035
-200,577	-44,046	0,026	0,009
-199,563	-103,999	0,075	-0,012
-198,548	-200,000	0,056	0,198
-197,533	-28,374	-0,129	-0,053
-196,519	-37,935	-0,085	-0,032
-195,504	438,043	0,069	-0,110
-194,490	800,000	-0,044	-0,127
-193,475	800,000	0,025	-0,073
-192,460	-200,000	0,022	-0,085
-191,446	-69,905	0,069	-0,019
-190,431	57,845	0,101	0,071
-189,417	23,677	0,056	-0,033
-188,402	481,824	-0,056	-0,093
-187,387	-94,659	-0,151	-0,029
-186,373	89,339	-0,075	-0,060
-185,358	800,000	0,048	-0,119
-184,344	131,813	0,042	0,039
-183,329	-4,103	0,164	0,082
-182,315	-125,001	-0,235	0,026
-181,300	-200,000	-0,011	0,065
-180,285	406,507	0,028	0,042
-179,271	-4,289	-0,068	0,034
-178,256	-131,721	0,049	-0,005
-177,242	35,789	0,085	0,054
-176,227	800,000	-0,026	-0,053
-175,212	-55,905	0,016	0,005
-174,198	-200,000	-0,043	0,161
-173,183	-84,523	0,138	-0,031
-172,169	88,096	-0,022	0,018
-171,154	598,978	0,035	-0,063
-170,139	-92,583	0,025	0,005
-169,125	259,097	-0,042	0,052
-168,110	-200,000	0,003	-0,015
-167,096	-200,000	0,013	0,129
-166,081	-200,000	0,004	-0,088
-165,066	800,000	0,023	-0,060
-164,052	406,904	-0,085	0,130
-163,037	-125,863	-0,072	-0,008
-162,023	198,031	0,130	0,144
-161,008	-200,000	0,009	-0,031
-159,993	30,106	-0,032	0,020
-158,979	800,000	0,026	-0,059
-157,964	-109,876	-0,083	-0,012
-156,950	101,128	0,105	-0,088
-155,935	-130,451	-0,114	0,011
-154,920	-142,398	-0,147	-0,010
-153,906	-7,337	-0,089	0,043
-152,891	-77,141	-0,049	0,012
-151,877	-200,000	0,012	0,084
-150,862	116,899	0,128	0,113
-149,847	-63,868	0,081	-0,024
-148,833	800,000	-0,006	0,015
-147,818	-98,333	0,112	0,020
-146,804	-5,697	0,106	0,052
-145,789	26,182	0,129	0,077
-144,775	-200,000	0,015	0,058
-143,760	509,671	0,035	-0,059
-142,745	-200,000	-0,019	0,081
-141,731	-145,529	-0,041	-0,003
-140,716	-148,204	0,089	-0,005
-139,702	-200,000	0,002	0,009
-138,687	-200,000	-0,018	0,069
-137,672	-123,885	0,103	0,012
-136,658	-200,000	0,003	0,016
-135,643	93,272	-0,052	0,042
-134,629	-200,000	-0,018	-0,062
-133,614	-200,000	0,015	0,089
-132,599	-87,008	0,075	0,016
-131,585	-2,525	0,108	0,054
-130,570	520,168	0,061	0,103
-129,556	-127,558	-0,036	0,004
-128,541	431,461	-0,086	-0,135
-127,526	-197,382	0,084	-0,000
-126,512	-200,000	0,033	-0,119
-125,497	52,956	0,101	-0,070
-124,483	-200,000	0,013	-0,079
-123,468	-200,000	0,018	-0,094
-122,453	800,000	0,029	-0,086
-121,439	-162,820	-0,067	-0,002
-120,424	800,000	-0,026	-0,062
-119,410	-31,688	0,128	0,052
