DTS Sentinel unit serial number:	SN410029Multiplexer serial number:	ORYXHardware model number:	OX2-SRSoftware version number:	ORYX F/W v4,00 Oryx Data Collector v3.7.2.0data status	okinstallation	B5 Nyhavnadifferential loss correction	single-endedforward channel	channel 2reverse channel	N/Adate	2023/12/12time	08:52:13forward acquisition time	300,00reverse acquisition time	0,00gamma	499,1914k internal	0,3158k external	0,3158temperature offset calibration	1,0000default loss term (dB/km)	0,3820temperature slope calibration	1,0000multiplexer offset coefficient	1,0000multiplexer slope coefficient	1,0000fibre end	0,00T internal ref (°C)	15,06T ext. ref 1 (°C)	-1,32T ext. ref 2 (°C)	-1,62length (m)	temperature (°C)	Stokes	anti-Stokes-744,400	-110,594	0,081	-0,012
-743,385	-146,814	-0,169	0,011
-742,371	79,718	0,157	0,124
-741,356	98,299	-0,159	0,135
-740,342	369,541	0,027	0,040
-739,327	-165,911	-0,247	0,008
-738,312	-200,000	-0,028	0,103
-737,298	-175,405	-0,335	-0,007
-736,283	-118,201	0,156	-0,020
-735,269	-176,630	-0,286	0,005
-734,254	-114,317	0,046	0,006
-733,239	-121,099	-0,465	-0,057
-732,225	-44,444	0,229	-0,084
-731,210	-35,762	-0,010	-0,004
-730,196	-71,203	0,064	-0,018
-729,181	-200,000	-0,009	-0,062
-728,167	800,000	0,032	0,090
-727,152	800,000	0,046	0,123
-726,137	-136,229	-0,127	-0,011
-725,123	71,879	-0,033	0,026
-724,108	202,039	-0,009	0,011
-723,094	-200,000	-0,039	-0,133
-722,079	-2,463	-0,046	-0,024
-721,064	3,592	-0,102	0,055
-720,050	800,000	-0,047	-0,097
-719,035	45,405	0,071	0,048
-718,021	800,000	0,022	-0,051
-717,006	371,908	-0,015	-0,023
-715,991	235,983	-0,086	-0,105
-714,977	800,000	-0,039	-0,114
-713,962	-57,253	0,128	-0,041
-712,948	25,827	-0,035	0,022
-711,933	522,669	-0,065	-0,113
-710,918	-200,000	0,008	-0,128
-709,904	-125,323	-0,042	-0,005
-708,889	142,802	-0,075	0,073
-707,875	-46,074	-0,014	0,005
-706,860	-157,714	0,143	-0,006
-705,845	91,148	0,100	-0,083
-704,831	-169,397	-0,062	-0,002
-703,816	-200,000	-0,000	-0,008
-702,802	-200,000	-0,004	-0,041
-701,787	-116,366	-0,043	0,006
-700,772	-200,000	-0,027	-0,187
-699,758	-125,323	-0,037	0,004
-698,743	-200,000	0,000	-0,016
-697,729	800,000	0,026	0,070
-696,714	-73,781	0,191	0,051
-695,699	7,230	-0,108	0,059
-694,685	-200,000	-0,026	-0,097
-693,670	360,611	-0,086	-0,128
-692,656	-200,000	0,007	-0,041
-691,641	-80,482	0,064	-0,016
-690,627	-149,992	0,119	-0,007
-689,612	318,477	-0,045	0,063
-688,597	327,174	0,025	0,036
-687,583	-200,000	0,007	-0,129
-686,568	-200,000	-0,021	-0,191
-685,554	743,644	-0,025	-0,051
-684,539	-51,340	0,094	-0,032
-683,524	800,000	0,011	-0,036
-682,510	78,817	0,042	0,033
-681,495	-200,000	-0,051	-0,232
-680,481	39,477	0,035	-0,023
-679,466	-200,000	-0,001	-0,034
-678,451	800,000	-0,031	0,072
-677,437	-74,129	-0,022	0,006
-676,422	-200,000	-0,008	-0,048
-675,408	-200,000	-0,043	-0,147
-674,393	-113,799	-0,075	0,011
-673,378	431,325	-0,092	-0,147
-672,364	-200,000	0,025	-0,169
-671,349	63,365	-0,069	-0,051
-670,335	-98,363	-0,032	-0,006
-669,320	-14,979	0,090	0,042
-668,305	-200,000	-0,008	0,091
-667,291	43,176	-0,055	-0,037
-666,276	45,772	-0,131	-0,089
-665,262	-200,000	-0,022	0,073
-664,247	119,335	-0,060	-0,055
-663,232	338,214	-0,106	0,152
-662,218	764,959	0,019	-0,037
-661,203	-60,002	0,044	-0,014
-660,189	-200,000	0,017	-0,131
-659,174	94,634	-0,089	-0,075
-658,159	26,377	-0,102	-0,062
-657,145	-142,981	-0,054	-0,004
-656,130	-106,816	0,056	-0,009
-655,116	550,721	-0,071	-0,125
-654,101	800,000	-0,011	0,035
-653,086	181,093	-0,071	-0,077
-652,072	513,262	-0,043	-0,073
-651,057	38,715	-0,117	0,077
-650,043	52,915	-0,083	-0,058
-649,028	347,533	-0,021	-0,031
-648,014	-120,816	0,147	-0,018
-646,999	-133,110	-0,059	-0,005
-645,984	-29,963	-0,100	0,042
-644,970	95,634	0,038	0,032
-643,955	10,422	-0,078	0,043
-642,941	800,000	-0,045	0,098
-641,926	84,876	0,069	0,056
-640,911	376,855	-0,047	-0,070
-639,897	-200,000	0,009	0,031
-638,882	-200,000	-0,017	0,063
-637,868	-153,983	-0,096	0,005
-636,853	800,000	-0,038	-0,079
-635,838	800,000	-0,058	-0,165
-634,824	61,137	0,101	-0,073
-633,809	-116,744	-0,065	0,009
-632,795	-200,000	-0,010	-0,169
-631,780	-18,849	-0,121	-0,055
-630,765	134,199	0,073	-0,070
-629,751	-35,271	-0,119	-0,047
-628,736	67,614	0,068	-0,051
-627,722	116,707	0,094	0,085
-626,707	-64,693	-0,140	-0,041
-625,692	-200,000	-0,059	0,200
-624,678	-200,000	0,008	0,125
-623,663	540,927	0,032	0,056
-622,649	-200,000	-0,008	0,067
-621,634	-64,455	-0,037	0,011
-620,619	-92,135	0,123	-0,025
-619,605	60,071	-0,054	-0,039
-618,590	-80,417	-0,137	0,033
-617,576	335,317	-0,051	0,072
-616,561	-200,000	0,008	0,039
-615,546	260,788	0,055	0,069
-614,532	243,007	-0,066	-0,081
-613,517	16,710	0,046	-0,027
-612,503	49,607	0,079	0,054
-611,488	3,946	0,047	0,025
-610,474	-200,000	0,024	-0,149
-609,459	800,000	0,013	-0,029
-608,444	-154,480	-0,018	0,001
-607,430	-200,000	-0,018	-0,217
-606,415	78,793	-0,106	-0,083
-605,401	329,790	-0,072	0,103
-604,386	-200,000	0,000	0,080
-603,371	800,000	0,011	-0,027
-602,357	36,046	-0,135	-0,087
-601,342	711,780	-0,069	0,135
-600,328	-87,415	-0,065	0,014
-599,313	-200,000	-0,025	-0,132
-598,298	11,692	-0,135	-0,076
-597,284	-200,000	0,007	0,072
-596,269	88,817	0,055	-0,045
-595,255	147,171	0,028	-0,028
-594,240	800,000	-0,010	-0,029
-593,225	-180,566	-0,155	-0,002
-592,211	21,262	0,045	0,027
-591,196	-168,614	-0,040	-0,001
-590,182	191,629	-0,051	-0,056
-589,167	40,379	-0,037	-0,024
-588,152	736,494	-0,014	0,028
-587,138	42,919	0,094	-0,063
-586,123	-105,908	0,069	-0,011
-585,109	800,000	-0,050	-0,133
-584,094	228,666	-0,053	-0,063
-583,079	-132,450	-0,036	0,003
-582,065	-5,944	-0,072	-0,036
-581,050	83,174	-0,110	-0,088
-580,036	161,398	0,156	0,159
-579,021	-200,000	0,010	-0,062
-578,006	-200,000	-0,001	0,053
-576,992	-200,000	-0,014	0,123
-575,977	800,000	0,028	0,069
-574,963	73,114	0,007	-0,005
-573,948	-200,000	-0,012	-0,049
-572,934	112,231	0,109	-0,096
-571,919	123,575	-0,075	0,068
-570,904	-200,000	0,043	-0,159
-569,890	294,796	0,047	0,064
-568,875	-200,000	0,023	-0,074
-567,861	-200,000	-0,003	0,162
-566,846	71,242	0,065	0,049
-565,831	-91,278	-0,203	-0,042
-564,817	-200,000	0,003	-0,106
-563,802	73,926	-0,084	-0,064
-562,788	800,000	0,020	0,051
-561,773	-200,000	0,017	0,080
-560,758	-200,000	0,003	0,097
-559,744	-110,646	0,056	0,008
-558,729	363,686	-0,020	-0,030
-557,715	-6,289	-0,090	-0,045
-556,700	-69,026	-0,109	0,031
-555,685	-200,000	-0,013	0,060
-554,671	1,239	0,171	-0,090
-553,656	800,000	0,039	-0,105
-552,642	120,173	0,058	-0,053
-551,627	-200,000	-0,012	0,060
-550,612	221,179	-0,042	-0,049
-549,598	-200,000	-0,017	-0,077
-548,583	52,047	-0,100	0,070
-547,569	-200,000	-0,023	0,094
-546,554	-86,656	0,133	0,030
-545,539	-150,634	0,091	0,005
-544,525	43,913	0,023	0,015
-543,510	-200,000	0,017	-0,056
-542,496	234,966	0,009	0,011
-541,481	-109,488	0,136	-0,021
-540,466	-130,941	0,136	0,013
-539,452	-200,000	0,002	0,071
-538,437	-200,000	-0,022	-0,101
-537,423	135,716	0,071	0,068
-536,408	1,687	-0,109	-0,057
-535,393	-200,000	-0,013	-0,070
-534,379	-200,000	0,011	-0,105
-533,364	25,088	-0,163	0,099
-532,350	216,771	0,078	0,091
-531,335	-200,000	0,016	0,169
-530,321	-191,087	-0,031	-0,000
-529,306	-164,640	-0,059	-0,002
-528,291	-200,000	-0,018	-0,105
-527,277	-80,863	0,138	0,033
-526,262	-200,000	-0,014	0,059
-525,248	8,378	0,032	0,018
-524,233	150,991	0,034	0,034
-523,218	-81,546	-0,078	0,019
-522,204	90,403	0,062	0,051
-521,189	-96,626	-0,076	0,014
-520,175	24,742	0,033	-0,020
-519,160	-102,555	-0,046	0,008
-518,145	26,497	-0,031	0,019
-517,131	800,000	-0,021	0,063
-516,116	98,083	-0,079	0,066
-515,102	800,000	0,054	-0,111
-514,087	134,827	0,069	-0,065
-513,072	2,215	-0,080	-0,042
-512,058	141,857	-0,036	-0,035
-511,043	68,606	0,060	0,045
-510,029	-200,000	0,009	-0,028
-509,014	237,224	-0,035	-0,043
-507,999	413,613	-0,098	-0,152
-506,985	-129,717	-0,083	0,008
-505,970	-200,000	-0,016	-0,101
-504,956	-200,000	-0,002	0,049
-503,941	-75,756	0,041	0,011
-502,926	329,935	0,062	0,087
-501,912	463,922	0,050	0,083
-500,897	92,829	-0,009	0,007
-499,883	236,948	-0,072	-0,087
-498,868	643,707	0,039	0,073
-497,853	-200,000	-0,032	-0,139
-496,839	-38,031	-0,060	0,023
-495,824	-200,000	-0,013	0,093
-494,810	508,104	-0,032	0,054
-493,795	464,811	0,034	0,055
-492,781	5,835	0,019	0,010
-491,766	-200,000	0,013	-0,068
-490,751	36,553	-0,037	-0,024
-489,737	416,298	-0,036	0,056
-488,722	800,000	-0,031	0,070
-487,708	800,000	0,059	-0,120
-486,693	101,022	-0,054	0,046
-485,678	-200,000	0,005	-0,159
-484,664	-82,531	0,030	0,007
-483,649	184,240	0,023	0,025
-482,635	-68,737	0,047	0,013
-481,620	408,475	0,053	0,082
-480,605	-67,719	0,051	-0,014
-479,591	-46,479	-0,072	-0,026
-478,576	449,534	0,041	-0,066
-477,562	-200,000	0,018	0,112
-476,547	-200,000	0,007	-0,059
-475,532	-1,339	-0,024	-0,012
-474,518	-52,930	0,121	-0,040
-473,503	800,000	0,010	0,027
-472,489	-94,815	-0,142	0,028
-471,474	358,130	0,044	0,064
-470,459	250,244	0,031	0,038
-469,445	41,154	-0,128	0,084
-468,430	-71,833	-0,025	0,007
-467,416	481,738	0,114	0,189
-466,401	-200,000	-0,031	0,147
-465,386	114,526	0,079	-0,070
-464,372	800,000	0,039	-0,082
-463,357	35,292	-0,062	0,040
-462,343	194,993	-0,163	-0,180
-461,328	529,382	0,048	-0,082
-460,313	31,112	0,043	-0,027
-459,299	-83,313	-0,054	0,013
-458,284	631,069	0,073	-0,136
-457,270	338,059	-0,043	-0,061
-456,255	-56,729	0,009	-0,003
-455,241	137,591	0,072	-0,069
-454,226	800,000	0,027	-0,066
-453,211	704,740	-0,085	-0,164
-452,197	539,275	-0,062	-0,109
-451,182	-135,419	-0,058	0,005
-450,168	57,129	0,079	0,056
-449,153	-57,969	-0,080	0,025
-448,138	-200,000	-0,023	-0,080
-447,124	291,153	-0,032	-0,043
-446,109	-200,000	0,012	0,065
-445,095	205,756	0,004	-0,005
-444,080	-133,270	0,095	-0,009
-443,065	-103,695	0,107	-0,018
-442,051	172,920	-0,074	-0,077
-441,036	333,340	-0,076	-0,107
-440,022	187,011	-0,118	0,128
-439,007	31,454	-0,088	-0,055
-437,992	800,000	-0,012	-0,029
-436,978	472,423	-0,048	0,078
-435,963	286,061	0,042	0,056
-434,949	-200,000	-0,008	0,054
-433,934	63,130	-0,082	0,060
-432,919	-52,738	-0,114	-0,038
-431,905	-200,000	0,030	0,106
-430,890	800,000	0,046	-0,117
-429,876	77,626	-0,125	-0,097
-428,861	56,427	0,116	0,082
-427,846	711,774	-0,036	-0,069
-426,832	258,586	-0,019	0,024
-425,817	-200,000	0,029	0,156
-424,803	-200,000	-0,007	0,116
-423,788	537,614	0,036	0,063
-422,773	-200,000	0,003	0,142
-421,759	135,696	0,025	-0,023
-420,744	-95,220	0,122	-0,024
-419,730	800,000	-0,048	-0,102
-418,715	-50,428	0,055	-0,019
-417,701	-47,726	0,118	0,041
-416,686	84,062	0,049	-0,039
-415,671	301,122	0,015	0,021
-414,657	240,113	-0,047	0,057
-413,642	-200,000	0,029	-0,122
-412,628	12,792	-0,060	-0,034
-411,613	-200,000	-0,022	-0,130
-410,598	53,743	-0,052	-0,036
-409,584	800,000	-0,020	0,058
-408,569	197,833	0,042	0,047
-407,555	32,010	-0,098	-0,061
-406,540	800,000	0,027	0,067
-405,525	612,810	-0,038	-0,069
-404,511	37,962	-0,158	-0,102
-403,496	277,594	0,031	-0,040
-402,482	0,383	0,075	-0,039
-401,467	-96,121	-0,026	-0,005
-400,452	800,000	-0,066	0,181
-399,438	255,059	0,036	0,045
-398,423	-9,605	0,051	0,024
-397,409	-40,408	-0,104	0,039
-396,394	68,383	0,060	-0,044
-395,379	111,997	-0,055	0,049
-394,365	-200,000	0,008	0,129
-393,350	-34,487	0,113	-0,045
-392,336	-200,000	0,003	0,018
-391,321	79,719	-0,039	-0,030
-390,306	428,070	0,070	-0,110
-389,292	136,688	-0,075	0,071
-388,277	-72,277	0,026	-0,007
-387,263	335,149	0,076	-0,107
-386,248	-200,000	0,007	0,161
-385,233	170,826	0,097	0,102
-384,219	290,373	-0,034	0,045
-383,204	-6,323	0,038	-0,019
-382,190	-150,745	0,045	0,002
-381,175	-138,950	-0,110	0,009
-380,160	-200,000	0,008	0,100
-379,146	66,022	0,070	0,052
-378,131	-200,000	0,044	0,148
-377,117	800,000	-0,037	-0,105
-376,102	41,164	-0,040	-0,026
-375,088	260,087	-0,055	-0,069
-374,073	-200,000	0,005	0,132
-373,058	-62,232	0,027	0,008
-372,044	100,640	-0,020	0,017
-371,029	-200,000	-0,005	-0,016
-370,015	716,299	0,085	-0,166
-369,000	411,375	0,073	-0,113
-367,985	-101,677	-0,095	-0,017
-366,971	-200,000	0,027	-0,097
-365,956	800,000	0,084	0,172
-364,942	482,734	0,037	-0,061
-363,927	283,944	-0,034	0,045
-362,912	-189,805	-0,070	0,001
-361,898	800,000	-0,025	-0,064
-360,883	-169,182	0,042	0,001
-359,869	81,556	0,131	-0,103
-358,854	800,000	-0,004	-0,011
-357,839	-200,000	0,007	0,048
-356,825	-200,000	-0,025	0,089
-355,810	-71,464	0,121	-0,033
-354,796	12,047	0,005	0,003
-353,781	-200,000	0,012	-0,111
-352,766	8,323	0,027	0,014
-351,752	627,462	-0,050	-0,093
-350,737	-200,000	-0,007	0,089
-349,723	-97,542	0,153	-0,029
-348,708	-9,446	0,060	0,029
-347,693	45,699	-0,090	0,061
-346,679	4,024	0,024	-0,013
-345,664	271,441	0,029	-0,037
-344,650	49,715	0,112	0,077
-343,635	-200,000	0,021	0,130
-342,620	-200,000	0,010	0,146
-341,606	-4,641	0,020	-0,010
-340,591	-200,000	-0,031	-0,120
-339,577	330,790	0,050	0,070
-338,562	-151,145	-0,148	0,008
-337,548	484,780	0,081	0,134
-336,533	438,805	0,069	0,110
-335,518	553,338	0,090	-0,157
-334,504	549,963	-0,078	0,136
-333,489	676,605	0,024	-0,046
-332,475	-200,000	0,003	-0,014
-331,460	-95,028	-0,131	-0,025
-330,445	800,000	0,045	-0,103
-329,431	168,137	-0,069	0,072
-328,416	137,427	-0,030	0,029
-327,402	323,875	0,056	0,078
-326,387	-200,000	-0,008	0,045
-325,372	800,000	-0,018	0,044
-324,358	-79,820	-0,074	0,018
-323,343	198,414	-0,133	-0,148
-322,329	161,963	0,014	-0,014
-321,314	67,455	0,095	0,070
-320,299	121,108	0,085	0,076
-319,285	-70,220	-0,051	-0,014
-318,270	110,533	-0,032	-0,028
-317,256	800,000	-0,048	-0,145
-316,241	-19,934	0,119	0,053
-315,226	79,470	-0,041	0,032
-314,212	-42,977	0,124	0,045
-313,197	275,221	0,069	0,089
-312,183	-200,000	-0,012	-0,171
-311,168	-200,000	-0,004	0,029
-310,153	204,851	-0,098	-0,110
-309,139	29,769	0,007	-0,004
-308,124	800,000	-0,007	-0,016
-307,110	58,260	-0,066	-0,047
-306,095	25,295	-0,026	-0,016
-305,080	773,319	-0,031	0,061
-304,066	-200,000	-0,007	-0,054
-303,051	641,091	0,024	0,045
-302,037	-200,000	0,035	-0,125
-301,022	-200,000	-0,017	-0,061
-300,008	800,000	-0,051	0,108
-298,993	140,508	0,047	0,045
-297,978	55,355	0,093	-0,065
-296,964	427,118	0,042	0,066
-295,949	-200,000	-0,023	0,082
-294,935	478,214	0,042	0,069
-293,920	-200,000	0,019	-0,102
-292,905	403,338	-0,043	-0,065
-291,891	-200,000	-0,015	-0,058
-290,876	23,376	0,019	0,011
-289,862	6,074	-0,037	-0,020
-288,847	-200,000	-0,019	-0,073
-287,832	164,896	-0,086	-0,088
-286,818	-22,533	0,093	0,041
-285,803	-129,380	0,042	-0,004
-284,789	-200,000	-0,009	-0,072
-283,774	-200,000	0,029	0,144
-282,759	186,449	-0,050	-0,054
-281,745	800,000	-0,024	-0,065
-280,730	800,000	-0,005	-0,013
-279,716	-38,351	0,149	-0,057
-278,701	-90,224	0,024	0,005
-277,686	-31,575	0,175	0,071
-276,672	-79,823	0,091	-0,022
-275,657	64,232	0,131	-0,096
-274,643	-29,393	-0,031	0,013
-273,628	257,343	0,058	-0,072
-272,613	-112,212	0,045	0,006
-271,599	-200,000	-0,023	0,198
-270,584	-17,408	0,028	0,013
-269,570	-121,482	-0,083	0,010
-268,555	-200,000	-0,004	0,083
-267,540	-200,000	-0,006	0,042
-266,526	-124,653	-0,083	-0,009
-265,511	800,000	-0,027	0,056
-264,497	203,353	-0,089	0,100
-263,482	10,309	-0,060	-0,033
-262,467	-129,438	0,101	0,010
-261,453	382,973	-0,048	0,072
-260,438	-200,000	0,024	0,076
-259,424	-200,000	-0,005	0,116
-258,409	-200,000	0,008	-0,081
-257,395	-200,000	-0,010	0,047
-256,380	-58,521	0,120	-0,037
-255,365	-200,000	0,016	0,094
-254,351	721,555	-0,013	0,025
-253,336	800,000	0,012	0,033
-252,322	-68,344	-0,030	0,008
-251,307	201,778	0,114	-0,127
-250,292	85,842	0,096	0,076
-249,278	192,399	0,166	0,182
-248,263	-200,000	0,007	-0,120
-247,249	1,946	-0,019	-0,010
-246,234	-83,864	-0,088	-0,020
-245,219	-200,000	-0,049	-0,202
-244,205	323,147	-0,105	-0,145
-243,190	310,353	0,036	-0,049
-242,176	-135,324	-0,114	-0,010
-241,161	-17,011	0,063	-0,029
-240,146	237,662	0,058	0,069
-239,132	776,989	-0,006	-0,012
-238,117	-9,693	0,027	-0,013
-237,103	-13,495	0,117	-0,054
-236,088	172,538	0,012	-0,013
-235,073	-200,000	-0,027	0,106
-234,059	-200,000	0,000	0,182
-233,044	-114,671	0,139	0,019
-232,030	94,971	0,041	0,034
-231,015	10,848	0,076	0,042
-230,000	-200,000	-0,015	-0,051
-228,986	51,259	0,078	0,054
-227,971	-200,000	-0,050	0,194
-226,957	800,000	-0,065	0,178
-225,942	126,764	-0,058	0,053
-224,927	800,000	0,036	-0,107
-223,913	743,681	-0,084	0,163
-222,898	321,827	-0,027	-0,038
-221,884	731,287	0,071	0,138
-220,869	35,802	-0,046	0,029
-219,855	-126,005	0,021	0,002
-218,840	-135,861	0,047	-0,004
-217,825	800,000	-0,075	-0,179
-216,811	170,328	0,017	0,018
-215,796	545,439	-0,021	-0,037
-214,782	-137,658	-0,052	-0,004
-213,767	-200,000	0,011	0,178
-212,752	800,000	0,008	-0,023
-211,738	-200,000	0,014	0,159
-210,723	-63,261	-0,077	0,023
-209,709	800,000	-0,054	-0,159
-208,694	-200,000	-0,012	-0,163
-207,679	219,885	-0,158	-0,182
-206,665	166,171	-0,142	-0,145
-205,650	140,084	0,081	0,077
-204,636	146,153	0,054	0,052
-203,621	800,000	0,037	0,076
-202,606	-70,776	0,068	0,018
-201,592	364,484	0,088	0,129
-200,577	-128,091	0,124	0,013
-199,563	-46,380	-0,116	0,041
-198,548	800,000	-0,125	0,279
-197,533	52,868	0,105	-0,072
-196,519	-200,000	0,002	-0,029
-195,504	-200,000	0,009	-0,050
-194,490	131,174	-0,080	0,074
-193,475	378,428	-0,073	-0,108
-192,460	52,052	0,051	-0,035
-191,446	465,343	0,021	0,034
-190,431	40,360	-0,107	-0,070
-189,417	-55,170	-0,056	0,018
-188,402	-200,000	-0,020	-0,126
-187,387	388,701	-0,088	-0,132
-186,373	-59,631	-0,067	-0,020
-185,358	-155,116	0,061	-0,003
-184,344	151,607	0,038	-0,037
-183,329	-40,675	-0,089	-0,033
-182,315	60,599	0,083	0,059
-181,300	163,665	-0,040	-0,040
-180,285	-80,112	-0,141	-0,034
-179,271	-200,000	0,027	-0,125
-178,256	89,513	0,115	0,093
-177,242	11,998	0,128	-0,071
-176,227	-200,000	-0,023	-0,085
-175,212	-116,049	0,095	0,013
-174,198	800,000	-0,014	-0,035
-173,183	800,000	-0,052	-0,119
-172,169	-200,000	0,026	-0,102
-171,154	263,549	-0,072	0,090
-170,139	107,195	0,113	0,097
-169,125	236,886	0,022	0,026
-168,110	281,514	0,037	0,047
-167,096	-200,000	0,005	-0,035
-166,081	186,539	-0,104	0,112
-165,066	100,451	-0,063	0,053
-164,052	159,486	0,062	-0,062
-163,037	-200,000	0,003	-0,023
-162,023	-119,025	0,130	-0,016
-161,008	-84,200	0,080	-0,018
-159,993	6,365	-0,134	0,072
-158,979	125,131	-0,059	-0,054
-157,964	800,000	0,030	-0,085
-156,950	-200,000	0,004	-0,028
-155,935	14,565	0,115	0,065
-154,920	119,953	0,099	0,088
-153,906	87,093	-0,102	-0,081
-152,891	-103,546	0,166	0,028
-151,877	-200,000	-0,001	-0,012
-150,862	123,672	-0,069	-0,062
-149,847	-200,000	-0,009	-0,077
-148,833	-10,996	-0,115	-0,055
-147,818	800,000	0,026	0,076
-146,804	14,287	0,054	0,030
-145,789	-40,809	0,114	0,042
-144,775	-200,000	-0,026	-0,119
-143,760	-92,842	-0,148	0,029
-142,745	800,000	-0,017	0,036
-141,731	800,000	0,036	0,094
-140,716	441,184	0,042	-0,066
-139,702	79,830	-0,104	0,080
-138,687	-64,237	-0,146	0,043
-137,672	-200,000	-0,022	-0,093
-136,658	800,000	-0,046	0,102
-135,643	-107,823	-0,076	-0,012
-134,629	-200,000	-0,009	0,040
-133,614	10,259	0,027	-0,015
-132,599	800,000	0,006	-0,017
-131,585	-200,000	-0,040	0,136
-130,570	-200,000	0,028	-0,155
-129,556	-200,000	-0,024	-0,133
-128,541	202,165	0,024	0,027
-127,526	800,000	-0,034	-0,108
-126,512	14,907	0,107	-0,060
-125,497	17,900	0,046	0,027
-124,483	-141,264	0,026	-0,002
-123,468	-200,000	0,008	0,045
-122,453	73,460	-0,141	-0,106
-121,439	216,214	-0,083	-0,095
-120,424	-126,489	-0,138	-0,015
-119,410	89,568	0,085	0,068
