DTS Sentinel unit serial number:	SN410029Multiplexer serial number:	ORYXHardware model number:	OX2-SRSoftware version number:	ORYX F/W v4,00 Oryx Data Collector v3.7.2.0data status	okinstallation	B5 Nyhavnadifferential loss correction	single-endedforward channel	channel 2reverse channel	N/Adate	2023/12/13time	15:42:13forward acquisition time	300,00reverse acquisition time	0,00gamma	499,1914k internal	0,3160k external	0,3160temperature offset calibration	1,0000default loss term (dB/km)	0,3820temperature slope calibration	1,0000multiplexer offset coefficient	1,0000multiplexer slope coefficient	1,0000fibre end	0,00T internal ref (°C)	14,94T ext. ref 1 (°C)	-1,47T ext. ref 2 (°C)	-1,77length (m)	temperature (°C)	Stokes	anti-Stokes-744,400	-200,000	-0,011	-0,153
-743,385	-164,180	-0,275	-0,009
-742,371	-20,093	0,198	0,089
-741,356	-68,324	-0,353	0,100
-740,342	800,000	0,034	0,100
-739,327	-33,835	-0,215	-0,087
-738,312	-66,630	0,064	-0,019
-737,298	-112,535	-0,314	0,046
-736,283	72,595	0,084	0,065
-735,269	-108,261	-0,318	-0,050
-734,254	-200,000	0,033	0,130
-733,239	-109,089	-0,434	-0,067
-732,225	-16,805	0,072	-0,033
-731,210	321,820	-0,120	0,169
-730,196	-200,000	0,009	-0,162
-729,181	-38,488	-0,206	0,080
-728,167	-39,993	-0,053	-0,020
-727,152	16,452	-0,152	0,088
-726,137	800,000	0,052	-0,151
-725,123	155,036	-0,068	-0,069
-724,108	800,000	0,060	-0,162
-723,094	-70,817	-0,127	-0,035
-722,079	-200,000	0,015	0,099
-721,064	800,000	-0,012	0,024
-720,050	-200,000	-0,020	-0,109
-719,035	-118,818	0,036	0,005
-718,021	180,051	-0,074	0,080
-717,006	800,000	-0,029	-0,089
-715,991	317,188	-0,040	-0,055
-714,977	20,965	-0,165	-0,098
-713,962	-200,000	0,031	-0,186
-712,948	-147,071	0,075	0,005
-711,933	30,268	0,076	0,047
-710,918	-200,000	0,004	-0,018
-709,904	-200,000	0,012	-0,129
-708,889	-25,061	-0,065	-0,028
-707,875	-142,667	-0,266	-0,019
-706,860	-200,000	0,009	-0,167
-705,845	572,608	-0,012	-0,022
-704,831	45,236	-0,101	0,068
-703,816	-127,384	-0,044	0,005
-702,802	464,256	-0,005	0,008
-701,787	175,311	-0,139	-0,149
-700,772	89,728	-0,104	-0,085
-699,758	120,186	0,135	-0,123
-698,743	352,873	0,075	-0,110
-697,729	-20,490	0,166	-0,075
-696,714	128,654	-0,096	0,090
-695,699	57,811	-0,050	-0,036
-694,685	-200,000	0,030	-0,168
-693,670	-74,848	0,059	0,016
-692,656	-42,305	-0,100	0,037
-691,641	-140,283	0,051	0,004
-690,627	-60,332	-0,087	0,027
-689,612	800,000	-0,020	0,064
-688,597	125,194	0,029	-0,027
-687,583	-103,346	-0,096	0,016
-686,568	427,640	0,065	-0,103
-685,554	-92,593	-0,063	0,013
-684,539	-123,661	-0,069	-0,008
-683,524	200,693	0,041	-0,047
-682,510	800,000	0,010	0,026
-681,495	-108,750	0,069	0,011
-680,481	-200,000	-0,044	-0,197
-679,466	540,445	0,047	-0,083
-678,451	800,000	0,031	0,082
-677,437	447,535	0,070	0,114
-676,422	31,266	-0,085	-0,053
-675,408	-200,000	0,000	-0,068
-674,393	-0,908	-0,078	0,041
-673,378	-200,000	-0,001	-0,086
-672,364	-96,848	-0,124	0,024
-671,349	-200,000	0,022	-0,140
-670,335	800,000	0,024	0,062
-669,320	-200,000	-0,007	0,030
-668,305	-67,208	-0,021	0,006
-667,291	362,439	-0,033	-0,048
-666,276	28,856	0,108	-0,067
-665,262	411,766	0,069	-0,108
-664,247	-183,039	0,092	-0,001
-663,232	800,000	0,020	-0,042
-662,218	128,664	0,082	-0,077
-661,203	36,034	0,098	0,063
-660,189	-22,061	0,014	-0,006
-659,174	-77,483	-0,121	-0,031
-658,159	-200,000	0,023	-0,101
-657,145	71,705	-0,120	-0,092
-656,130	4,829	0,095	-0,051
-655,116	-156,478	-0,109	0,005
-654,101	323,960	0,054	-0,077
-653,086	478,780	0,061	-0,102
-652,072	131,642	-0,141	-0,133
-651,057	800,000	-0,024	-0,049
-650,043	-43,095	-0,119	0,044
-649,028	-46,620	0,122	-0,044
-648,014	-80,970	-0,025	-0,006
-646,999	265,071	0,100	-0,128
-645,984	105,490	-0,081	0,070
-644,970	245,049	-0,072	-0,089
-643,955	-95,128	-0,044	0,009
-642,941	-200,000	-0,022	-0,145
-641,926	-76,952	0,054	-0,014
-640,911	-20,540	0,098	0,044
-639,897	-64,713	-0,116	-0,034
-638,882	-52,195	-0,140	-0,047
-637,868	11,847	0,123	0,069
-636,853	80,331	-0,144	-0,114
-635,838	-200,000	-0,000	-0,072
-634,824	-112,475	-0,165	-0,024
-633,809	245,016	0,073	0,090
-632,795	-200,000	-0,050	0,165
-631,780	93,284	-0,039	-0,032
-630,765	-135,039	-0,194	0,017
-629,751	-44,823	-0,067	-0,024
-628,736	800,000	0,024	-0,051
-627,722	-76,533	-0,101	0,026
-626,707	-135,699	0,042	-0,004
-625,692	53,354	0,096	0,068
-624,678	-40,099	-0,064	0,024
-623,663	-132,145	-0,103	-0,010
-622,649	800,000	-0,012	-0,034
-621,634	-41,327	0,065	-0,024
-620,619	-13,583	0,094	0,045
-619,605	800,000	-0,061	0,159
-618,590	-189,229	0,097	0,001
-617,576	-60,663	-0,025	-0,008
-616,561	515,649	-0,085	-0,146
-615,546	800,000	0,017	-0,041
-614,532	43,679	-0,067	-0,045
-613,517	-200,000	0,018	-0,119
-612,503	82,955	-0,080	-0,064
-611,488	-29,157	0,220	0,092
-610,474	10,539	-0,227	0,126
-609,459	109,164	-0,162	0,142
-608,444	-200,000	0,003	-0,071
-607,430	-200,000	-0,011	-0,060
-606,415	283,525	-0,058	0,077
-605,401	800,000	0,030	-0,083
-604,386	-28,681	0,109	-0,046
-603,371	-200,000	-0,003	0,079
-602,357	-200,000	0,015	0,088
-601,342	800,000	-0,038	-0,081
-600,328	-200,000	0,004	0,035
-599,313	50,047	-0,116	-0,080
-598,298	419,485	-0,091	-0,143
-597,284	73,032	0,092	0,070
-596,269	150,951	-0,078	0,078
-595,255	281,398	0,026	0,034
-594,240	42,708	0,040	-0,026
-593,225	335,868	0,044	0,063
-592,211	-200,000	0,024	-0,244
-591,196	800,000	-0,015	0,037
-590,182	115,928	0,025	0,022
-589,167	800,000	0,007	0,018
-588,152	800,000	-0,071	0,146
-587,138	-91,740	-0,120	0,025
-586,123	-128,141	-0,129	0,013
-585,109	-56,967	-0,166	-0,053
-584,094	171,919	0,044	0,046
-583,079	138,963	0,121	-0,116
-582,065	51,920	0,055	0,038
-581,050	-69,669	0,132	0,037
-580,036	54,346	-0,030	-0,021
-579,021	232,302	0,067	0,080
-578,006	-104,610	-0,097	-0,016
-576,992	-200,000	0,005	0,027
-575,977	-200,000	0,034	0,181
-574,963	-71,173	0,066	0,018
-573,948	800,000	-0,022	-0,066
-572,934	800,000	0,033	0,089
-571,919	800,000	0,069	-0,142
-570,904	-18,777	-0,177	-0,080
-569,890	273,217	-0,089	-0,115
-568,875	-128,104	0,069	-0,007
-567,861	-200,000	-0,004	0,047
-566,846	-54,158	0,145	0,048
-565,831	800,000	0,068	0,157
-564,817	391,574	0,049	-0,075
-563,802	-154,610	-0,035	0,002
-562,788	82,731	-0,136	0,108
-561,773	-145,710	0,182	-0,012
-560,758	-118,481	0,023	-0,003
-559,744	800,000	0,032	0,090
-558,729	247,963	0,077	-0,096
-557,715	-200,000	-0,017	-0,086
-556,700	252,159	-0,036	0,045
-555,685	747,467	-0,029	-0,057
-554,671	147,566	0,109	0,107
-553,656	-200,000	-0,012	-0,115
-552,642	133,568	0,046	-0,043
-551,627	83,978	-0,103	0,082
-550,612	-168,222	0,085	-0,002
-549,598	-54,583	-0,078	-0,026
-548,583	-200,000	-0,011	-0,040
-547,569	-200,000	-0,001	0,022
-546,554	-186,311	-0,156	-0,002
-545,539	77,561	0,118	0,092
-544,525	-200,000	-0,003	0,083
-543,510	-200,000	0,006	0,033
-542,496	800,000	0,023	0,047
-541,481	800,000	-0,020	0,043
-540,466	-200,000	0,001	0,083
-539,452	35,154	0,019	0,012
-538,437	-79,391	0,129	0,032
-537,423	-154,566	-0,021	-0,001
-536,408	-200,000	0,016	-0,085
-535,393	-200,000	0,000	-0,040
-534,379	800,000	-0,060	0,135
-533,364	680,277	-0,053	-0,101
-532,350	-200,000	0,069	-0,248
-531,335	-200,000	0,021	0,114
-530,321	209,993	-0,071	-0,082
-529,306	344,593	-0,030	0,043
-528,291	-200,000	-0,013	-0,042
-527,277	334,201	-0,017	0,025
-526,262	-38,304	-0,101	0,039
-525,248	175,118	-0,009	0,009
-524,233	-136,144	0,074	-0,006
-523,218	-103,821	-0,055	0,009
-522,204	-111,090	-0,062	-0,009
-521,189	532,385	-0,029	0,051
-520,175	-200,000	-0,021	-0,071
-519,160	-200,000	0,034	-0,217
-518,145	-200,000	0,001	-0,084
-517,131	800,000	0,037	-0,097
-516,116	-200,000	-0,020	-0,095
-515,102	28,117	0,085	-0,053
-514,087	-92,832	-0,169	0,034
-513,072	48,709	0,028	-0,019
-512,058	143,574	0,027	-0,026
-511,043	-71,279	0,041	-0,011
-510,029	-138,997	0,050	0,004
-509,014	305,121	0,064	0,086
-507,999	800,000	0,034	0,086
-506,985	-169,079	-0,043	0,001
-505,970	-157,248	-0,121	-0,005
-504,956	301,302	0,027	-0,037
-503,941	-195,906	0,089	0,000
-502,926	83,744	-0,104	0,083
-501,912	-40,227	-0,073	0,027
-500,897	-154,483	-0,040	0,002
-499,883	37,491	0,071	0,046
-498,868	-20,070	-0,027	0,012
-497,853	-81,490	-0,084	0,020
-496,839	-200,000	0,010	0,039
-495,824	800,000	0,005	0,012
-494,810	5,186	0,099	0,053
-493,795	120,167	-0,053	-0,048
-492,781	5,586	-0,029	0,016
-491,766	-200,000	0,020	0,110
-490,751	-200,000	0,001	-0,042
-489,737	406,494	0,018	0,027
-488,722	62,449	0,075	0,055
-487,708	-200,000	-0,020	-0,227
-486,693	-79,895	0,018	-0,004
-485,678	800,000	-0,009	0,025
-484,664	173,352	-0,144	-0,152
-483,649	-57,212	0,038	-0,012
-482,635	-200,000	-0,003	0,106
-481,620	511,793	0,021	-0,036
-480,605	-74,353	0,121	0,032
-479,591	9,609	0,041	0,023
-478,576	29,894	0,154	0,095
-477,562	-200,000	-0,007	-0,218
-476,547	-160,759	-0,095	-0,004
-475,532	163,819	0,097	-0,100
-474,518	-200,000	0,011	0,084
-473,503	-156,577	0,093	0,004
-472,489	-41,417	0,164	0,061
-471,474	295,127	-0,090	0,120
-470,459	-129,029	-0,203	0,020
-469,445	-166,006	-0,205	-0,006
-468,430	-200,000	-0,004	-0,039
-467,416	170,235	-0,060	-0,063
-466,401	-92,636	-0,036	-0,007
-465,386	221,897	0,108	0,127
-464,372	-139,602	0,170	0,013
-463,357	145,390	-0,085	-0,083
-462,343	17,162	0,051	-0,030
-461,328	-23,420	-0,060	-0,026
-460,313	-35,309	0,116	-0,046
-459,299	-198,990	-0,052	-0,000
-458,284	106,766	-0,045	-0,039
-457,270	-200,000	-0,022	-0,197
-456,255	99,686	0,102	-0,086
-455,241	800,000	-0,030	-0,063
-454,226	-44,108	-0,218	-0,079
-453,211	680,764	0,092	0,174
-452,197	223,253	-0,062	0,073
-451,182	-183,698	0,091	0,001
-450,168	-200,000	0,002	0,022
-449,153	-101,720	-0,091	-0,016
-448,138	-200,000	0,013	-0,105
-447,124	12,417	-0,070	-0,039
-446,109	79,236	0,059	-0,046
-445,095	-200,000	-0,013	-0,081
-444,080	325,687	0,046	-0,064
-443,065	77,094	-0,063	0,049
-442,051	800,000	-0,071	-0,168
-441,036	52,721	-0,123	-0,086
-440,022	-38,119	-0,085	-0,033
-439,007	-103,221	0,115	-0,020
-437,992	800,000	0,058	0,118
-436,978	-200,000	-0,018	0,152
-435,963	27,927	0,059	0,036
-434,949	-200,000	0,002	0,014
-433,934	266,864	0,022	-0,028
-432,919	-132,058	-0,095	0,009
-431,905	242,003	-0,030	-0,036
-430,890	-101,185	0,130	-0,023
-429,876	51,577	0,068	0,047
-428,861	14,900	-0,057	0,032
-427,846	-124,284	-0,183	-0,021
-426,832	84,367	-0,074	0,059
-425,817	-137,311	-0,027	-0,002
-424,803	-200,000	-0,008	-0,083
-423,788	800,000	0,028	0,059
-422,773	76,670	0,054	-0,041
-421,759	56,161	0,090	0,064
-420,744	353,410	0,011	0,015
-419,730	-48,552	-0,100	0,035
-418,715	550,589	0,073	-0,128
-417,701	800,000	-0,016	-0,034
-416,686	139,879	-0,114	0,110
-415,671	398,675	-0,014	-0,021
-414,657	127,433	-0,055	-0,051
-413,642	-46,026	-0,087	-0,031
-412,628	-200,000	0,020	0,080
-411,613	113,149	-0,061	-0,054
-410,598	-128,644	-0,152	-0,015
-409,584	-29,772	-0,171	0,071
-408,569	-200,000	0,001	0,147
-407,555	800,000	-0,027	0,059
-406,540	196,458	0,019	0,021
-405,525	-72,407	-0,113	0,030
-404,511	-114,799	-0,010	-0,001
-403,496	-200,000	-0,005	0,040
-402,482	-200,000	-0,004	-0,053
-401,467	-200,000	0,006	0,035
-400,452	30,128	0,060	0,037
-399,438	198,125	-0,035	-0,039
-398,423	-200,000	-0,016	-0,094
-397,409	-43,891	0,091	0,033
-396,394	-200,000	0,016	-0,231
-395,379	528,092	0,031	0,054
-394,365	288,839	0,107	0,141
-393,350	35,642	0,042	0,027
-392,336	262,078	-0,032	0,041
-391,321	180,033	-0,048	-0,051
-390,306	-200,000	-0,030	-0,123
-389,292	109,440	-0,187	0,163
-388,277	-118,821	-0,100	0,013
-387,263	373,376	-0,027	-0,040
-386,248	159,089	0,067	0,068
-385,233	-200,000	-0,033	0,136
-384,219	14,341	-0,050	0,029
-383,204	800,000	0,024	-0,072
-382,190	800,000	0,018	0,038
-381,175	800,000	0,038	0,113
-380,160	789,968	-0,016	-0,033
-379,146	-175,146	-0,025	0,000
-378,131	-81,759	0,107	0,025
-377,117	-107,516	0,074	0,012
-376,102	-17,502	-0,048	0,022
-375,088	800,000	-0,033	0,071
-374,073	-44,584	0,112	0,040
-373,058	-200,000	0,001	0,085
-372,044	751,393	-0,024	0,048
-371,029	-120,201	0,094	-0,011
-370,015	-200,000	-0,006	0,089
-369,000	45,669	-0,134	-0,089
-367,985	228,575	-0,082	-0,097
-366,971	38,170	-0,082	-0,053
-365,956	363,302	0,063	0,092
-364,942	-113,889	0,033	0,005
-363,927	-47,520	0,130	0,046
-362,912	800,000	-0,046	0,124
-361,898	109,407	-0,121	0,105
-360,883	755,300	0,022	0,043
-359,869	800,000	-0,006	-0,016
-358,854	-200,000	0,011	0,085
-357,839	800,000	0,080	0,188
-356,825	-200,000	0,007	0,030
-355,810	157,997	0,060	0,060
-354,796	-95,326	-0,056	0,011
-353,781	-200,000	0,005	-0,048
-352,766	-200,000	0,022	-0,091
-351,752	-107,415	0,138	0,022
-350,737	188,791	0,033	-0,035
-349,723	220,723	-0,013	-0,015
-348,708	300,303	0,119	0,159
-347,693	81,631	0,031	-0,025
-346,679	-170,077	-0,105	0,003
-345,664	124,219	0,029	-0,026
-344,650	6,841	0,070	0,038
-343,635	226,297	0,037	0,043
-342,620	-17,260	0,191	0,087
-341,606	131,851	-0,090	0,084
-340,591	-200,000	0,014	-0,048
-339,577	540,987	-0,037	-0,064
-338,562	506,260	0,048	-0,081
-337,548	800,000	-0,017	-0,045
-336,533	-200,000	-0,015	0,176
-335,518	126,100	0,084	-0,077
-334,504	39,398	0,064	-0,042
-333,489	14,816	-0,092	-0,052
-332,475	-45,156	0,116	-0,042
-331,460	-200,000	0,032	0,166
-330,445	-200,000	-0,039	-0,146
-329,431	-9,688	0,049	0,024
-328,416	-200,000	0,005	0,125
-327,402	379,417	0,021	0,031
-326,387	-17,905	0,182	-0,082
-325,372	2,452	0,075	0,039
-324,358	800,000	-0,002	-0,007
-323,343	268,399	-0,037	-0,047
-322,329	203,558	0,055	0,062
-321,314	800,000	-0,046	0,093
-320,299	-200,000	0,022	-0,123
-319,285	300,039	0,022	-0,029
-318,270	38,154	-0,098	-0,063
-317,256	-200,000	-0,003	-0,029
-316,241	-73,285	-0,177	-0,047
-315,226	186,806	0,090	-0,097
-314,212	59,122	-0,074	0,052
-313,197	-200,000	0,000	0,060
-312,183	-128,146	-0,027	0,003
-311,168	-28,546	0,020	-0,008
-310,153	-200,000	-0,019	-0,097
-309,139	800,000	0,074	-0,161
-308,124	800,000	-0,010	-0,033
-307,110	85,872	-0,041	0,033
-306,095	-165,535	-0,019	0,001
-305,080	-126,783	-0,031	-0,003
-304,066	-163,390	0,171	0,006
-303,051	-8,853	-0,024	0,011
-302,037	-36,058	-0,010	0,004
-301,022	93,356	0,019	0,016
-300,008	-5,112	0,061	0,031
-298,993	70,510	0,077	0,058
-297,978	800,000	-0,047	0,138
-296,964	427,145	0,015	0,024
-295,949	800,000	-0,081	-0,187
-294,935	-2,754	-0,085	-0,043
-293,920	-151,765	0,104	-0,005
-292,905	-200,000	0,010	-0,047
-291,891	220,218	0,066	0,077
-290,876	175,177	-0,016	-0,017
-289,862	86,994	-0,043	0,035
-288,847	266,826	-0,065	0,083
-287,832	-200,000	0,006	0,059
-286,818	3,722	0,071	-0,038
-285,803	213,994	-0,067	-0,076
-284,789	15,111	0,034	-0,019
-283,774	-200,000	0,005	0,080
-282,759	300,126	0,040	0,053
-281,745	591,684	0,072	-0,128
-280,730	-119,379	-0,123	0,015
-279,716	168,252	0,081	-0,084
-278,701	800,000	0,010	-0,023
-277,686	144,846	0,089	-0,086
-276,672	-105,911	0,053	-0,009
-275,657	160,513	0,005	0,005
-274,643	800,000	-0,033	-0,071
-273,628	-7,002	0,082	0,040
-272,613	-200,000	0,004	0,058
-271,599	237,741	0,034	0,041
-270,584	355,382	-0,031	0,044
-269,570	800,000	-0,033	0,077
-268,555	348,695	0,076	-0,108
-267,540	-9,686	-0,143	0,069
-266,526	-138,524	0,044	-0,003
-265,511	-120,664	0,009	0,001
-264,497	84,189	-0,058	-0,046
-263,482	162,552	0,046	0,047
-262,467	-200,000	0,000	0,087
-261,453	-123,920	0,150	0,017
-260,438	297,766	-0,090	-0,120
-259,424	-20,734	0,096	-0,042
-258,409	-200,000	-0,001	-0,134
-257,395	6,802	0,019	0,010
-256,380	605,432	0,027	0,050
-255,365	-161,351	0,122	0,004
-254,351	-111,436	0,073	-0,011
-253,336	800,000	-0,057	-0,131
-252,322	539,969	-0,035	-0,060
-251,307	-200,000	0,005	0,053
-250,292	-167,190	0,129	0,004
-249,278	285,040	0,029	0,037
-248,263	-166,564	0,029	-0,001
-247,249	316,716	-0,035	-0,048
-246,234	-200,000	-0,002	-0,100
-245,219	-200,000	-0,003	0,016
-244,205	257,704	0,095	-0,118
-243,190	-164,397	0,122	0,004
-242,176	-22,290	0,132	-0,058
-241,161	105,928	-0,106	-0,091
-240,146	800,000	-0,022	0,057
-239,132	800,000	-0,065	0,180
-238,117	629,520	-0,020	0,037
-237,103	685,298	-0,042	-0,080
-236,088	84,590	0,026	-0,020
-235,073	141,379	0,066	0,063
-234,059	125,350	-0,060	0,055
-233,044	-200,000	0,013	0,068
-232,030	-200,000	0,005	0,028
-231,015	-96,813	-0,059	0,011
-230,000	-200,000	-0,002	-0,007
-228,986	-118,462	-0,133	0,017
-227,971	395,044	0,036	0,054
-226,957	-200,000	-0,003	0,176
-225,942	-200,000	-0,013	0,191
-224,927	378,548	0,007	-0,011
-223,913	195,686	-0,041	-0,045
-222,898	134,017	-0,053	-0,049
-221,884	9,297	-0,043	-0,023
-220,869	-200,000	-0,011	-0,046
-219,855	-133,720	-0,020	-0,002
-218,840	-65,872	0,104	0,030
-217,825	800,000	0,051	-0,154
-216,811	-200,000	0,019	0,087
-215,796	540,047	0,029	0,049
-214,782	-161,147	0,092	0,003
-213,767	128,942	-0,019	-0,017
-212,752	800,000	0,036	-0,085
-211,738	204,533	-0,095	-0,107
-210,723	-26,330	-0,109	-0,046
-209,709	-158,243	-0,208	-0,009
-208,694	-125,296	-0,021	-0,002
-207,679	-122,471	0,106	-0,012
-206,665	509,837	-0,038	0,065
-205,650	-68,293	0,109	0,030
-204,636	-63,082	0,094	-0,028
-203,621	91,789	-0,033	0,027
-202,606	682,263	-0,022	0,041
-201,592	-200,000	-0,011	0,093
-200,577	136,757	0,070	0,066
-199,563	-200,000	0,014	0,047
-198,548	729,492	0,028	-0,054
-197,533	800,000	-0,040	0,106
-196,519	267,523	-0,021	0,027
-195,504	464,726	0,072	-0,116
-194,490	800,000	-0,006	0,016
-193,475	142,010	-0,086	-0,083
-192,460	2,279	0,043	-0,022
-191,446	201,366	-0,059	0,065
-190,431	-200,000	0,007	0,107
-189,417	201,061	-0,050	0,056
-188,402	239,216	0,003	0,004
-187,387	148,399	-0,022	0,022
-186,373	-45,143	-0,114	-0,041
-185,358	54,022	0,060	-0,042
-184,344	184,621	0,181	-0,193
-183,329	53,429	0,059	-0,041
-182,315	-42,389	-0,030	0,011
-181,300	-200,000	-0,004	0,016
-180,285	-200,000	-0,010	0,073
-179,271	193,046	-0,075	0,081
-178,256	1,769	0,122	0,063
-177,242	-37,930	-0,067	-0,026
-176,227	36,801	0,125	0,079
-175,212	321,394	0,027	0,037
-174,198	313,808	0,071	-0,097
-173,183	800,000	0,038	-0,105
-172,169	82,691	-0,026	0,021
-171,154	643,808	0,007	0,013
-170,139	72,871	-0,051	-0,038
-169,125	-85,065	0,080	-0,018
-168,110	-98,172	0,072	0,013
-167,096	61,927	0,097	0,070
-166,081	-200,000	-0,039	-0,128
-165,066	101,227	-0,049	-0,041
-164,052	-200,000	-0,002	-0,115
-163,037	-200,000	0,004	-0,052
-162,023	191,600	0,069	0,075
-161,008	-200,000	-0,019	0,079
-159,993	-66,967	0,141	-0,040
-158,979	800,000	-0,016	0,044
-157,964	287,359	-0,031	-0,040
-156,950	103,079	-0,043	-0,036
-155,935	800,000	-0,069	-0,202
-154,920	800,000	0,004	0,009
-153,906	800,000	-0,029	0,087
-152,891	-18,272	0,056	-0,025
-151,877	-200,000	-0,030	-0,114
-150,862	-162,005	0,110	0,004
-149,847	14,813	0,039	-0,022
-148,833	-200,000	0,001	-0,014
-147,818	-7,162	0,101	-0,049
-146,804	490,437	-0,081	0,134
-145,789	-78,455	-0,054	0,013
-144,775	-139,073	0,121	0,009
-143,760	-120,692	-0,058	0,007
-142,745	313,782	0,044	-0,060
-141,731	800,000	-0,050	-0,129
-140,716	569,149	0,049	-0,087
-139,702	214,166	0,076	0,086
-138,687	110,308	-0,093	-0,080
-137,672	800,000	-0,048	-0,141
-136,658	-23,030	0,048	0,021
-135,643	-14,253	-0,177	-0,082
-134,629	-200,000	0,010	-0,087
-133,614	34,603	0,082	-0,052
-132,599	176,425	-0,048	0,050
-131,585	-64,171	0,135	-0,039
-130,570	91,441	-0,087	-0,071
-129,556	70,695	0,125	-0,093
-128,541	-200,000	-0,034	0,139
-127,526	-61,650	0,089	-0,027
-126,512	149,951	0,043	-0,042
-125,497	212,666	0,102	0,116
-124,483	-200,000	-0,001	0,132
-123,468	84,637	0,076	0,060
-122,453	156,735	-0,085	-0,085
-121,439	-200,000	0,030	-0,124
-120,424	32,449	-0,102	-0,063
-119,410	-44,120	0,061	-0,022
