DTS Sentinel unit serial number:	SN410029Multiplexer serial number:	ORYXHardware model number:	OX2-SRSoftware version number:	ORYX F/W v4,00 Oryx Data Collector v3.7.2.0data status	okinstallation	B5 Nyhavnadifferential loss correction	single-endedforward channel	channel 2reverse channel	N/Adate	2023/12/14time	18:42:13forward acquisition time	300,00reverse acquisition time	0,00gamma	499,1914k internal	0,3156k external	0,3156temperature offset calibration	1,0000default loss term (dB/km)	0,3820temperature slope calibration	1,0000multiplexer offset coefficient	1,0000multiplexer slope coefficient	1,0000fibre end	0,00T internal ref (°C)	8,57T ext. ref 1 (°C)	-6,55T ext. ref 2 (°C)	-6,60length (m)	temperature (°C)	Stokes	anti-Stokes-744,400	-133,877	0,131	-0,012
-743,385	-103,126	-0,374	0,065
-742,371	-33,487	0,241	0,098
-741,356	-200,000	-0,421	0,000
-740,342	691,495	-0,077	0,149
-739,327	-84,898	-0,227	-0,052
-738,312	-200,000	0,102	0,000
-737,298	-73,715	-0,386	-0,103
-736,283	-156,824	0,061	-0,003
-735,269	-63,893	-0,394	-0,118
-734,254	35,065	0,166	0,107
-733,239	-37,249	-0,471	-0,185
-732,225	-3,821	0,216	0,110
-731,210	76,653	0,031	0,024
-730,196	59,287	-0,099	-0,071
-729,181	-34,286	-0,058	-0,024
-728,167	782,278	0,025	-0,051
-727,152	-161,389	-0,093	0,003
-726,137	-149,278	-0,284	0,016
-725,123	127,011	0,097	-0,091
-724,108	-125,566	-0,093	-0,010
-723,094	-6,877	-0,090	-0,045
-722,079	800,000	0,037	0,075
-721,064	-118,892	-0,085	-0,011
-720,050	-122,702	-0,141	0,017
-719,035	575,232	0,058	0,105
-718,021	-146,849	-0,067	-0,004
-717,006	158,524	-0,186	-0,191
-715,991	64,133	-0,154	-0,114
-714,977	624,804	0,038	-0,072
-713,962	-67,418	-0,026	0,007
-712,948	-200,000	0,008	-0,045
-711,933	-19,144	-0,032	0,014
-710,918	223,284	-0,033	0,039
-709,904	-160,831	-0,119	0,005
-708,889	-156,432	-0,098	0,004
-707,875	-73,874	-0,146	0,039
-706,860	240,877	-0,076	-0,094
-705,845	800,000	0,063	-0,160
-704,831	-95,193	-0,052	-0,010
-703,816	40,552	-0,099	0,066
-702,802	-136,186	0,033	0,003
-701,787	87,620	-0,123	-0,100
-700,772	45,054	-0,033	-0,022
-699,758	397,690	0,010	-0,016
-698,743	78,605	-0,012	0,009
-697,729	-200,000	-0,026	-0,090
-696,714	783,476	0,065	-0,132
-695,699	-200,000	0,007	-0,034
-694,685	21,261	-0,161	-0,096
-693,670	-115,094	-0,054	-0,007
-692,656	-200,000	-0,026	0,126
-691,641	200,006	0,080	-0,091
-690,627	-26,713	0,055	0,024
-689,612	203,293	-0,039	0,044
-688,597	67,316	0,098	-0,074
-687,583	134,921	-0,044	-0,042
-686,568	-200,000	0,015	-0,100
-685,554	-200,000	-0,004	0,013
-684,539	800,000	-0,056	-0,172
-683,524	177,493	-0,034	0,036
-682,510	-200,000	0,027	-0,159
-681,495	164,688	-0,094	-0,098
-680,481	238,237	-0,069	0,084
-679,466	-36,491	-0,102	-0,040
-678,451	-200,000	0,020	0,095
-677,437	314,250	-0,086	0,119
-676,422	17,406	0,040	0,023
-675,408	-200,000	-0,020	-0,140
-674,393	-99,407	0,048	0,009
-673,378	-24,601	-0,117	-0,051
-672,364	-49,206	0,040	-0,014
-671,349	-200,000	0,012	0,044
-670,335	119,238	0,076	0,069
-669,320	-200,000	0,004	0,161
-668,305	-34,737	-0,031	0,012
-667,291	800,000	0,031	-0,065
-666,276	-200,000	-0,003	0,009
-665,262	118,204	-0,145	-0,131
-664,247	338,428	0,021	0,030
-663,232	-200,000	0,006	-0,021
-662,218	-200,000	-0,017	-0,116
-661,203	-200,000	0,004	0,046
-660,189	44,062	-0,011	0,007
-659,174	-179,351	-0,021	-0,000
-658,159	344,553	0,007	0,010
-657,145	21,352	-0,121	-0,072
-656,130	-111,621	0,095	-0,014
-655,116	152,960	-0,076	-0,077
-654,101	561,671	-0,082	-0,146
-653,086	161,742	-0,022	-0,023
-652,072	-200,000	0,001	-0,071
-651,057	-132,884	-0,182	-0,017
-650,043	-200,000	-0,032	-0,172
-649,028	-200,000	0,015	-0,144
-648,014	-200,000	-0,005	0,075
-646,999	-200,000	0,002	-0,048
-645,984	-200,000	0,025	-0,089
-644,970	-150,394	-0,017	0,001
-643,955	244,142	0,030	-0,038
-642,941	35,597	-0,092	-0,059
-641,926	380,604	0,050	-0,076
-640,911	800,000	-0,038	-0,083
-639,897	67,227	0,058	-0,044
-638,882	-200,000	0,008	0,109
-637,868	-121,082	-0,134	-0,016
-636,853	800,000	-0,067	-0,149
-635,838	-200,000	0,046	-0,155
-634,824	21,762	-0,078	-0,047
-633,809	311,775	-0,083	-0,115
-632,795	84,923	0,041	-0,033
-631,780	-71,253	-0,103	0,028
-630,765	800,000	-0,053	0,113
-629,751	23,201	-0,133	-0,080
-628,736	73,848	0,025	0,020
-627,722	-60,322	0,050	-0,016
-626,707	72,372	-0,122	0,094
-625,692	494,440	0,055	-0,092
-624,678	800,000	-0,011	-0,028
-623,663	626,393	0,077	0,144
-622,649	215,011	-0,032	0,037
-621,634	-159,049	-0,154	0,006
-620,619	800,000	0,013	-0,030
-619,605	-165,787	0,142	-0,004
-618,590	131,857	-0,096	0,091
-617,576	649,366	0,018	0,034
-616,561	-200,000	-0,009	-0,097
-615,546	99,124	0,122	-0,104
-614,532	58,290	0,120	0,086
-613,517	-200,000	-0,004	-0,113
-612,503	-200,000	0,019	0,116
-611,488	144,669	-0,021	0,021
-610,474	-68,225	-0,067	-0,019
-609,459	800,000	-0,071	0,208
-608,444	-106,182	0,068	-0,011
-607,430	-15,041	0,094	0,044
-606,415	5,857	-0,056	-0,031
-605,401	800,000	0,038	0,082
-604,386	24,448	0,121	0,073
-603,371	720,345	-0,039	0,077
-602,357	-200,000	0,015	-0,053
-601,342	116,879	0,135	-0,122
-600,328	-200,000	0,020	-0,214
-599,313	-158,299	-0,088	0,004
-598,298	-200,000	-0,005	-0,051
-597,284	800,000	0,042	-0,113
-596,269	11,103	0,053	0,029
-595,255	362,286	0,036	-0,053
-594,240	8,475	0,005	-0,003
-593,225	214,054	-0,063	-0,073
-592,211	-56,848	0,027	0,009
-591,196	-181,756	-0,014	-0,000
-590,182	-48,332	-0,192	0,067
-589,167	800,000	-0,059	0,131
-588,152	800,000	0,016	-0,036
-587,138	800,000	-0,036	-0,092
-586,123	37,533	-0,220	-0,143
-585,109	800,000	-0,035	-0,078
-584,094	800,000	-0,026	0,080
-583,079	183,668	0,041	0,044
-582,065	-52,995	0,112	-0,037
-581,050	-104,166	0,061	0,010
-580,036	224,682	0,060	-0,071
-579,021	800,000	0,045	-0,145
-578,006	150,888	-0,147	-0,147
-576,992	-82,327	0,056	-0,013
-575,977	303,132	-0,097	0,132
-574,963	800,000	0,057	0,116
-573,948	-200,000	-0,010	0,033
-572,934	-53,758	0,164	-0,054
-571,919	-31,052	0,084	-0,034
-570,904	99,269	0,007	0,006
-569,890	800,000	-0,047	-0,102
-568,875	-200,000	0,001	0,039
-567,861	-17,171	-0,039	-0,018
-566,846	402,601	-0,039	0,060
-565,831	25,483	0,084	0,051
-564,817	-118,702	0,062	0,008
-563,802	550,253	0,025	-0,044
-562,788	800,000	-0,044	0,108
-561,773	5,398	-0,103	-0,056
-560,758	800,000	-0,037	-0,107
-559,744	-200,000	-0,009	0,076
-558,729	370,755	0,032	0,047
-557,715	116,337	0,037	0,033
-556,700	150,111	-0,087	0,087
-555,685	800,000	-0,040	-0,104
-554,671	-125,632	0,106	-0,012
-553,656	324,375	-0,038	0,053
-552,642	92,342	0,097	0,080
-551,627	-17,608	-0,101	-0,046
-550,612	-56,912	-0,058	-0,019
-549,598	-200,000	-0,032	-0,123
-548,583	-107,291	0,080	-0,013
-547,569	-127,832	0,022	-0,002
-546,554	49,693	0,082	0,057
-545,539	-70,134	0,168	0,046
-544,525	72,613	-0,029	-0,022
-543,510	53,447	-0,114	-0,080
-542,496	-200,000	-0,032	-0,122
-541,481	289,269	0,059	0,079
-540,466	19,408	0,111	0,065
-539,452	-174,993	-0,152	-0,003
-538,437	364,960	0,017	0,026
-537,423	800,000	0,035	-0,072
-536,408	204,097	0,049	0,055
-535,393	394,702	-0,078	-0,120
-534,379	395,615	0,036	-0,055
-533,364	800,000	-0,067	-0,155
-532,350	800,000	0,045	-0,130
-531,335	84,999	0,069	0,055
-530,321	508,809	-0,019	-0,033
-529,306	488,584	0,050	0,084
-528,291	-200,000	0,006	-0,026
-527,277	800,000	-0,020	-0,062
-526,262	560,618	0,063	-0,112
-525,248	-51,197	0,146	-0,050
-524,233	53,123	0,086	0,060
-523,218	-100,250	-0,061	0,011
-522,204	-48,660	0,113	0,039
-521,189	800,000	0,064	-0,159
-520,175	-200,000	-0,007	-0,067
-519,160	-200,000	0,029	-0,197
-518,145	-48,333	0,103	-0,036
-517,131	800,000	-0,036	0,094
-516,116	42,016	-0,018	0,012
-515,102	-38,042	-0,036	0,014
-514,087	-200,000	0,005	0,083
-513,072	70,972	-0,011	-0,008
-512,058	-200,000	0,003	-0,141
-511,043	-98,163	-0,029	-0,005
-510,029	-3,495	0,050	-0,026
-509,014	-195,713	-0,125	0,001
-507,999	106,761	0,136	-0,118
-506,985	-70,433	-0,013	-0,004
-505,970	-132,950	-0,123	0,011
-504,956	-108,721	0,021	0,003
-503,941	-65,833	-0,009	0,003
-502,926	182,360	0,037	-0,040
-501,912	800,000	-0,091	0,195
-500,897	800,000	0,006	0,012
-499,883	115,903	-0,024	-0,021
-498,868	208,999	0,126	0,144
-497,853	-14,675	-0,109	-0,051
-496,839	-73,244	0,024	0,006
-495,824	800,000	0,024	0,068
-494,810	800,000	-0,033	-0,074
-493,795	-200,000	-0,009	-0,061
-492,781	87,079	-0,033	0,027
-491,766	-29,401	-0,059	0,025
-490,751	225,519	-0,039	-0,046
-489,737	-130,647	0,093	-0,009
-488,722	-200,000	-0,001	0,223
-487,708	-200,000	-0,010	-0,062
-486,693	159,637	-0,044	-0,045
-485,678	174,229	0,102	-0,108
-484,664	-200,000	0,005	-0,017
-483,649	19,057	0,072	-0,042
-482,635	-37,156	-0,144	-0,056
-481,620	-200,000	-0,001	0,002
-480,605	-120,880	0,185	0,022
-479,591	75,958	-0,166	-0,128
-478,576	-200,000	0,018	0,077
-477,562	95,129	-0,159	-0,132
-476,547	-72,725	0,160	0,043
-475,532	-121,863	0,062	-0,007
-474,518	-200,000	0,008	-0,047
-473,503	78,931	0,030	0,023
-472,489	800,000	-0,034	-0,075
-471,474	53,604	-0,039	0,028
-470,459	-110,694	0,076	-0,011
-469,445	-200,000	0,000	0,001
-468,430	54,793	0,017	0,012
-467,416	59,541	0,044	0,031
-466,401	600,468	0,033	-0,059
-465,386	260,135	-0,007	0,009
-464,372	372,091	0,066	0,098
-463,357	14,883	0,026	0,015
-462,343	-200,000	-0,026	-0,148
-461,328	800,000	0,024	-0,059
-460,313	582,746	0,101	0,182
-459,299	471,143	-0,055	0,091
-458,284	800,000	0,041	-0,098
-457,270	178,749	-0,118	0,126
-456,255	-200,000	-0,016	-0,077
-455,241	-72,233	-0,129	-0,035
-454,226	-91,628	-0,110	0,023
-453,211	31,287	-0,103	0,064
-452,197	489,010	0,080	0,134
-451,182	-200,000	0,031	-0,112
-450,168	-25,086	-0,040	-0,017
-449,153	160,602	0,058	0,059
-448,138	-73,100	-0,119	-0,032
-447,124	218,068	-0,044	-0,051
-446,109	-200,000	-0,032	-0,139
-445,095	477,357	0,037	-0,061
-444,080	545,118	-0,034	0,059
-443,065	-28,770	0,016	0,006
-442,051	112,734	-0,039	-0,034
-441,036	-200,000	-0,004	0,076
-440,022	-200,000	-0,013	-0,051
-439,007	800,000	-0,077	-0,163
-437,992	198,574	-0,044	-0,050
-436,978	-142,011	0,092	-0,007
-435,963	-200,000	0,033	0,124
-434,949	-21,293	-0,084	-0,037
-433,934	-200,000	-0,001	-0,041
-432,919	252,745	0,058	-0,072
-431,905	-119,673	0,043	-0,005
-430,890	76,835	0,061	-0,047
-429,876	241,959	-0,014	-0,017
-428,861	-200,000	-0,015	-0,069
-427,846	283,529	-0,015	0,019
-426,832	800,000	-0,027	-0,065
-425,817	654,109	0,055	-0,103
-424,803	-44,641	0,131	-0,047
-423,788	322,026	0,020	-0,028
-422,773	151,022	-0,039	-0,038
-421,759	78,795	-0,069	0,054
-420,744	118,415	-0,106	0,096
-419,730	58,018	0,037	-0,026
-418,715	-200,000	-0,003	0,053
-417,701	-61,557	-0,044	0,013
-416,686	-200,000	-0,044	0,218
-415,671	800,000	0,070	0,146
-414,657	104,738	0,034	0,029
-413,642	292,641	0,026	0,035
-412,628	-97,096	0,140	0,026
-411,613	29,700	-0,068	-0,042
-410,598	-200,000	-0,005	0,062
-409,584	-200,000	-0,006	-0,103
-408,569	617,637	0,063	0,115
-407,555	264,651	0,019	-0,024
-406,540	-200,000	-0,012	-0,056
-405,525	-4,735	-0,029	-0,014
-404,511	-200,000	0,009	-0,035
-403,496	-135,610	0,061	0,005
-402,482	-200,000	0,007	0,045
-401,467	-200,000	-0,009	-0,079
-400,452	-200,000	-0,008	0,037
-399,438	-200,000	0,031	0,162
-398,423	55,861	0,082	0,058
-397,409	800,000	-0,002	-0,006
-396,394	57,794	0,059	0,042
-395,379	246,299	0,079	0,097
-394,365	479,495	-0,085	0,140
-393,350	-200,000	0,023	0,134
-392,336	73,014	-0,015	0,011
-391,321	-200,000	0,009	-0,037
-390,306	43,933	-0,100	-0,067
-389,292	136,740	-0,115	0,110
-388,277	-65,504	0,082	0,024
-387,263	800,000	0,021	0,043
-386,248	93,330	0,093	0,076
-385,233	-36,903	0,145	0,056
-384,219	104,251	-0,057	-0,049
-383,204	659,970	0,024	-0,045
-382,190	-45,802	0,140	-0,050
-381,175	-2,364	-0,021	-0,011
-380,160	-193,051	0,031	-0,000
-379,146	292,326	0,063	0,084
-378,131	-200,000	-0,010	0,102
-377,117	610,857	0,045	0,082
-376,102	-200,000	-0,005	-0,041
-375,088	-200,000	-0,021	-0,127
-374,073	-58,417	0,066	0,021
-373,058	122,699	0,140	-0,127
-372,044	-200,000	0,001	0,021
-371,029	-200,000	-0,019	0,090
-370,015	800,000	-0,044	0,119
-369,000	192,441	-0,078	-0,086
-367,985	194,391	-0,094	-0,104
-366,971	800,000	-0,025	0,066
-365,956	146,548	0,044	-0,043
-364,942	527,739	0,019	-0,033
-363,927	-11,020	-0,070	0,033
-362,912	-75,053	0,038	0,010
-361,898	-200,000	-0,008	-0,085
-360,883	87,264	0,070	-0,056
-359,869	333,991	-0,005	-0,007
-358,854	76,787	0,056	-0,043
-357,839	-200,000	-0,005	-0,076
-356,825	32,389	0,125	-0,078
-355,810	42,582	-0,089	0,059
-354,796	-126,817	0,045	-0,005
-353,781	800,000	0,026	-0,062
-352,766	177,763	0,059	0,062
-351,752	504,514	-0,040	-0,068
-350,737	285,031	0,021	-0,027
-349,723	187,741	0,171	0,186
-348,708	-115,064	-0,051	0,007
-347,693	341,576	0,056	-0,080
-346,679	290,945	-0,057	-0,075
-345,664	-71,664	-0,080	0,022
-344,650	-200,000	0,018	-0,092
-343,635	-184,204	0,127	-0,001
-342,620	800,000	0,035	-0,113
-341,606	94,181	0,017	0,014
-340,591	94,446	0,055	-0,045
-339,577	146,053	-0,068	-0,067
-338,562	-200,000	-0,032	-0,155
-337,548	-200,000	-0,034	-0,146
-336,533	118,283	-0,046	0,042
-335,518	114,733	0,070	0,062
-334,504	420,627	-0,071	0,111
-333,489	437,833	-0,035	-0,055
-332,475	-100,483	-0,053	-0,010
-331,460	-200,000	-0,006	-0,187
-330,445	-200,000	0,009	0,075
-329,431	-35,387	-0,028	-0,011
-328,416	759,815	0,029	-0,058
-327,402	727,915	-0,055	0,108
-326,387	35,612	-0,115	-0,073
-325,372	-16,188	0,079	-0,036
-324,358	800,000	-0,020	-0,059
-323,343	-39,053	0,030	0,012
-322,329	222,744	-0,074	-0,087
-321,314	800,000	-0,025	0,072
-320,299	800,000	0,033	0,070
-319,285	-37,100	0,092	-0,036
-318,270	800,000	0,050	-0,142
-317,256	-111,504	-0,160	-0,023
-316,241	190,696	0,083	0,091
-315,226	676,306	-0,020	0,037
-314,212	800,000	-0,031	0,066
-313,197	-200,000	-0,020	0,161
-312,183	173,362	0,030	-0,031
-311,168	-135,467	-0,096	-0,008
-310,153	-200,000	-0,021	-0,246
-309,139	-94,969	0,125	0,024
-308,124	-200,000	0,026	0,120
-307,110	167,258	-0,029	0,030
-306,095	43,519	0,088	0,058
-305,080	-93,793	-0,140	0,028
-304,066	800,000	0,085	0,217
-303,051	125,617	-0,038	-0,035
-302,037	-200,000	0,012	0,089
-301,022	-111,562	-0,119	0,017
-300,008	66,114	0,030	0,022
-298,993	121,006	0,096	0,087
-297,978	541,834	-0,109	0,190
-296,964	-114,806	-0,113	-0,015
-295,949	800,000	-0,045	-0,133
-294,935	699,853	-0,055	0,105
-293,920	713,761	0,024	0,046
-292,905	-126,979	-0,023	-0,002
-291,891	-200,000	-0,026	-0,145
-290,876	-200,000	0,002	-0,136
-289,862	800,000	-0,012	0,037
-288,847	443,118	-0,116	-0,185
-287,832	10,200	0,083	-0,045
-286,818	-200,000	0,019	-0,145
-285,803	10,533	0,077	-0,042
-284,789	800,000	0,051	-0,137
-283,774	270,099	0,061	0,078
-282,759	-59,775	-0,173	-0,053
-281,745	-200,000	-0,021	0,112
-280,730	-200,000	0,002	0,049
-279,716	261,384	0,011	0,014
-278,701	-167,073	0,055	-0,002
-277,686	-200,000	0,034	0,117
-276,672	-147,514	-0,115	0,007
-275,657	217,496	-0,068	0,078
-274,643	-10,330	-0,062	0,030
-273,628	-200,000	0,007	-0,043
-272,613	365,645	0,034	-0,050
-271,599	164,694	0,028	-0,029
-270,584	-200,000	0,047	0,157
-269,570	-200,000	-0,008	0,099
-268,555	-200,000	0,004	-0,084
-267,540	-200,000	0,002	0,038
-266,526	-78,304	-0,053	-0,013
-265,511	51,909	-0,040	0,028
-264,497	-17,792	0,092	-0,042
-263,482	-30,788	0,112	0,046
-262,467	-200,000	-0,002	0,097
-261,453	-48,648	-0,058	-0,020
-260,438	478,059	0,028	-0,047
-259,424	-21,139	0,076	0,034
-258,409	42,114	-0,031	-0,021
-257,395	-139,771	0,110	0,008
-256,380	-200,000	-0,021	0,077
-255,365	104,930	0,072	0,062
-254,351	800,000	-0,030	0,087
-253,336	-158,437	-0,160	-0,007
-252,322	-200,000	0,011	-0,048
-251,307	-200,000	-0,036	-0,126
-250,292	-58,632	0,085	0,026
-249,278	194,377	0,058	0,064
-248,263	-0,410	0,066	0,034
-247,249	524,143	-0,034	-0,058
-246,234	-200,000	0,023	0,122
-245,219	134,252	-0,103	-0,096
-244,205	78,750	0,041	0,032
-243,190	43,888	0,095	0,063
-242,176	49,993	-0,024	-0,016
-241,161	280,194	-0,003	0,004
-240,146	-51,658	-0,066	0,022
-239,132	-200,000	0,026	0,101
-238,117	800,000	-0,022	0,046
-237,103	-106,366	0,030	-0,005
-236,088	451,917	-0,059	-0,095
-235,073	-200,000	0,012	-0,054
-234,059	48,025	0,088	-0,060
-233,044	-200,000	0,028	0,122
-232,030	101,248	-0,058	0,049
-231,015	800,000	-0,057	-0,176
-230,000	421,894	0,097	-0,151
-228,986	-31,381	-0,142	-0,057
-227,971	-200,000	0,017	0,085
-226,957	549,745	0,029	0,051
-225,942	-89,860	0,088	-0,018
-224,927	179,764	-0,088	0,093
-223,913	-78,827	0,012	0,003
-222,898	367,637	-0,109	-0,159
-221,884	67,228	0,010	-0,008
-220,869	-200,000	-0,011	0,081
-219,855	64,932	-0,065	-0,047
-218,840	255,940	-0,081	0,101
-217,825	15,196	0,102	0,058
-216,811	-200,000	0,045	0,195
-215,796	188,845	-0,064	-0,069
-214,782	-200,000	0,002	-0,033
-213,767	71,379	0,062	0,046
-212,752	180,854	0,086	0,091
-211,738	-200,000	-0,034	0,142
-210,723	362,849	0,025	-0,036
-209,709	290,035	-0,087	-0,115
-208,694	-86,176	-0,124	0,027
-207,679	800,000	-0,073	0,197
-206,665	800,000	-0,020	-0,055
-205,650	-35,436	-0,107	0,042
-204,636	453,852	0,039	0,063
-203,621	-200,000	0,019	-0,081
-202,606	800,000	-0,019	-0,039
-201,592	-65,502	0,070	0,020
-200,577	800,000	0,035	0,085
-199,563	800,000	0,025	0,060
-198,548	289,950	0,112	0,147
-197,533	800,000	0,041	0,114
-196,519	2,796	-0,121	0,063
-195,504	183,086	0,069	0,073
-194,490	800,000	0,046	0,111
-193,475	-41,807	-0,083	0,030
-192,460	-37,774	-0,127	0,049
-191,446	800,000	-0,031	-0,083
-190,431	50,587	0,037	-0,025
-189,417	-200,000	0,000	0,044
-188,402	102,693	0,026	-0,022
-187,387	-200,000	-0,007	-0,068
-186,373	-94,614	-0,201	-0,039
-185,358	-41,262	0,102	0,038
-184,344	47,188	0,065	0,044
-183,329	-110,487	-0,110	0,016
-182,315	-200,000	0,006	0,043
-181,300	-11,174	-0,092	0,044
-180,285	-200,000	-0,011	0,118
-179,271	26,279	-0,106	0,064
-178,256	79,094	0,015	0,011
-177,242	-200,000	0,005	0,075
-176,227	-175,117	0,089	-0,002
-175,212	-39,436	0,050	0,019
-174,198	800,000	-0,035	0,099
-173,183	49,094	-0,028	0,019
-172,169	195,340	0,028	-0,030
-171,154	109,783	-0,041	-0,035
-170,139	-128,445	0,021	0,002
-169,125	-6,940	0,050	0,024
-168,110	-200,000	0,028	0,103
-167,096	81,715	-0,041	0,032
-166,081	-200,000	0,017	-0,065
-165,066	377,722	-0,067	0,099
-164,052	-200,000	0,000	-0,035
-163,037	-200,000	0,007	0,087
-162,023	-76,102	0,078	-0,020
-161,008	-150,117	-0,027	-0,001
-159,993	-116,821	0,117	-0,015
-158,979	-28,197	-0,094	0,039
-157,964	-200,000	-0,013	-0,088
-156,950	164,996	0,057	0,059
-155,935	800,000	-0,016	0,048
-154,920	-185,074	0,077	-0,001
-153,906	117,464	-0,070	0,063
-152,891	-53,483	-0,192	0,063
-151,877	3,240	0,070	0,037
-150,862	-191,407	-0,109	0,001
-149,847	-53,569	0,130	0,043
-148,833	-54,081	-0,051	-0,017
-147,818	-61,542	0,111	0,033
-146,804	126,206	0,057	-0,052
-145,789	-94,179	0,100	0,020
-144,775	-200,000	-0,001	-0,088
-143,760	-10,132	-0,152	0,072
-142,745	-200,000	-0,011	0,162
-141,731	-115,980	0,059	0,008
-140,716	-35,240	-0,146	-0,057
-139,702	291,634	0,062	-0,082
-138,687	-200,000	0,010	0,034
-137,672	-18,160	0,046	-0,021
-136,658	165,427	0,062	0,063
-135,643	19,171	-0,160	-0,092
-134,629	618,534	-0,035	0,063
-133,614	-200,000	-0,049	-0,176
-132,599	-66,899	-0,051	-0,015
-131,585	136,391	0,062	0,058
-130,570	-181,739	-0,105	0,001
-129,556	-200,000	-0,005	-0,065
-128,541	-200,000	-0,029	-0,097
-127,526	-200,000	-0,047	-0,154
-126,512	372,981	0,043	-0,063
-125,497	256,521	-0,043	0,053
-124,483	-118,928	0,262	0,033
-123,468	67,481	0,044	-0,032
-122,453	-102,446	-0,103	0,018
-121,439	-177,168	-0,050	-0,001
-120,424	327,372	-0,019	-0,026
-119,410	439,322	0,009	-0,014
