DTS Sentinel unit serial number:	SN410029Multiplexer serial number:	ORYXHardware model number:	OX2-SRSoftware version number:	ORYX F/W v4,00 Oryx Data Collector v3.7.2.0data status	okinstallation	B5 Nyhavnadifferential loss correction	single-endedforward channel	channel 2reverse channel	N/Adate	2023/12/13time	06:37:13forward acquisition time	300,00reverse acquisition time	0,00gamma	499,1914k internal	0,3160k external	0,3160temperature offset calibration	1,0000default loss term (dB/km)	0,3820temperature slope calibration	1,0000multiplexer offset coefficient	1,0000multiplexer slope coefficient	1,0000fibre end	0,00T internal ref (°C)	13,75T ext. ref 1 (°C)	-2,72T ext. ref 2 (°C)	-3,02length (m)	temperature (°C)	Stokes	anti-Stokes-744,400	113,260	0,092	-0,082
-743,385	-131,708	-0,230	0,022
-742,371	61,712	0,180	0,132
-741,356	-89,758	-0,321	-0,069
-740,342	-105,179	0,164	-0,027
-739,327	-122,805	-0,228	0,027
-738,312	9,982	0,120	0,067
-737,298	-195,595	-0,319	0,002
-736,283	58,486	0,085	-0,061
-735,269	-187,446	-0,173	0,002
-734,254	800,000	-0,033	0,093
-733,239	-52,677	-0,461	-0,156
-732,225	-4,681	0,138	0,070
-731,210	-127,305	0,068	0,007
-730,196	181,699	-0,026	-0,028
-729,181	-43,525	-0,102	-0,038
-728,167	-127,950	0,193	-0,020
-727,152	-6,462	-0,055	-0,027
-726,137	12,299	0,043	-0,024
-725,123	791,378	-0,091	-0,185
-724,108	-31,682	-0,171	-0,070
-723,094	-123,943	-0,022	-0,003
-722,079	319,880	-0,063	-0,089
-721,064	-14,098	-0,046	-0,022
-720,050	228,013	0,089	0,107
-719,035	800,000	0,022	0,050
-718,021	-200,000	0,001	0,048
-717,006	-200,000	0,003	-0,076
-715,991	480,576	0,056	-0,093
-714,977	-200,000	0,026	-0,181
-713,962	-200,000	-0,019	-0,118
-712,948	-200,000	0,006	-0,077
-711,933	593,548	0,037	0,068
-710,918	57,835	-0,075	-0,054
-709,904	150,094	0,065	0,065
-708,889	-90,249	-0,091	-0,019
-707,875	-8,617	0,095	-0,047
-706,860	-93,303	0,045	0,009
-705,845	-200,000	0,016	0,133
-704,831	176,860	-0,041	0,044
-703,816	-128,094	-0,122	0,013
-702,802	-200,000	0,014	0,094
-701,787	-5,411	-0,199	-0,100
-700,772	800,000	-0,038	-0,089
-699,758	-103,338	0,042	0,007
-698,743	52,857	-0,040	0,028
-697,729	42,124	-0,059	0,039
-696,714	-68,613	0,098	0,028
-695,699	800,000	0,060	-0,139
-694,685	-120,251	0,067	0,008
-693,670	21,745	0,107	-0,064
-692,656	-200,000	0,010	-0,100
-691,641	27,856	0,109	0,068
-690,627	117,332	-0,071	0,064
-689,612	-167,882	0,184	0,005
-688,597	50,928	-0,083	0,058
-687,583	-123,026	0,053	0,006
-686,568	800,000	-0,049	-0,105
-685,554	231,831	-0,119	-0,144
-684,539	-200,000	0,007	-0,024
-683,524	330,368	-0,020	0,028
-682,510	-200,000	0,016	0,122
-681,495	96,878	0,039	-0,033
-680,481	-155,529	-0,173	-0,008
-679,466	-147,292	-0,150	0,009
-678,451	711,400	-0,034	-0,067
-677,437	-59,192	0,074	0,023
-676,422	-200,000	-0,020	-0,085
-675,408	-32,677	0,063	0,026
-674,393	33,329	-0,146	0,093
-673,378	-110,867	0,060	-0,009
-672,364	-149,787	-0,145	0,008
-671,349	-115,736	-0,054	0,007
-670,335	106,905	-0,034	0,030
-669,320	-143,675	0,101	0,007
-668,305	-200,000	-0,006	0,026
-667,291	-200,000	0,004	0,045
-666,276	581,235	-0,078	-0,141
-665,262	77,640	-0,146	0,114
-664,247	141,931	-0,107	0,105
-663,232	-200,000	-0,006	0,082
-662,218	135,091	0,040	0,038
-661,203	-130,789	-0,027	0,003
-660,189	-121,549	0,057	-0,007
-659,174	-200,000	0,011	-0,042
-658,159	276,870	-0,102	-0,134
-657,145	129,152	-0,052	-0,049
-656,130	-107,900	-0,097	-0,015
-655,116	170,798	-0,047	0,050
-654,101	800,000	0,039	0,118
-653,086	-37,275	0,026	-0,010
-652,072	-200,000	0,000	-0,122
-651,057	258,221	-0,030	-0,038
-650,043	189,826	0,037	-0,041
-649,028	263,195	-0,083	0,105
-648,014	800,000	0,032	0,071
-646,999	-200,000	-0,010	0,035
-645,984	-40,676	-0,027	0,010
-644,970	392,422	-0,053	-0,081
-643,955	104,446	-0,046	-0,039
-642,941	31,944	0,026	0,017
-641,926	4,265	0,051	0,027
-640,911	290,033	0,052	0,069
-639,897	184,573	0,031	-0,034
-638,882	66,605	-0,094	0,070
-637,868	-107,285	0,173	-0,028
-636,853	-49,192	-0,175	0,061
-635,838	440,944	0,056	-0,089
-634,824	-200,000	-0,008	0,091
-633,809	-25,441	-0,042	0,018
-632,795	800,000	0,003	-0,010
-631,780	-200,000	-0,002	0,238
-630,765	582,416	-0,094	-0,170
-629,751	119,950	-0,163	-0,148
-628,736	577,710	-0,006	-0,010
-627,722	-59,941	-0,152	-0,047
-626,707	-200,000	0,007	0,112
-625,692	87,877	-0,007	0,005
-624,678	-157,547	0,121	0,005
-623,663	370,415	-0,034	-0,051
-622,649	-200,000	-0,010	-0,054
-621,634	-200,000	0,021	-0,112
-620,619	800,000	0,027	-0,057
-619,605	197,485	-0,049	0,055
-618,590	496,863	-0,062	-0,104
-617,576	800,000	-0,009	0,025
-616,561	-200,000	-0,002	0,024
-615,546	-200,000	-0,001	-0,133
-614,532	374,099	-0,113	-0,169
-613,517	567,748	-0,027	0,048
-612,503	155,808	-0,056	-0,057
-611,488	124,096	0,091	0,084
-610,474	800,000	0,011	0,028
-609,459	136,754	-0,060	0,057
-608,444	800,000	-0,024	-0,074
-607,430	-200,000	0,031	-0,105
-606,415	-200,000	-0,007	-0,176
-605,401	591,780	0,041	-0,075
-604,386	800,000	-0,028	0,085
-603,371	800,000	-0,033	0,083
-602,357	-189,227	-0,094	0,001
-601,342	-50,652	0,023	0,008
-600,328	222,321	-0,136	-0,161
-599,313	136,770	0,014	0,013
-598,298	-200,000	-0,007	-0,036
-597,284	-200,000	0,008	0,103
-596,269	-200,000	-0,008	-0,051
-595,255	800,000	-0,017	0,047
-594,240	273,484	-0,056	0,072
-593,225	10,891	0,140	-0,078
-592,211	591,822	-0,033	0,060
-591,196	-58,247	0,061	0,019
-590,182	-31,659	-0,102	-0,042
-589,167	12,728	0,157	0,089
-588,152	79,479	-0,050	0,039
-587,138	-13,364	-0,028	-0,013
-586,123	336,978	-0,058	-0,083
-585,109	-190,731	-0,048	0,000
-584,094	27,010	-0,130	-0,080
-583,079	25,503	0,068	-0,041
-582,065	-38,307	-0,109	0,042
-581,050	-200,000	-0,068	0,260
-580,036	347,879	0,063	0,092
-579,021	-65,681	-0,078	-0,023
-578,006	-200,000	0,014	-0,121
-576,992	-172,495	-0,084	-0,002
-575,977	-136,772	-0,052	0,004
-574,963	-128,853	0,120	-0,012
-573,948	565,248	0,012	0,022
-572,934	-85,179	-0,104	0,024
-571,919	96,311	0,037	-0,031
-570,904	-200,000	-0,155	0,000
-569,890	-200,000	0,027	0,108
-568,875	-200,000	0,006	0,074
-567,861	8,961	0,085	-0,047
-566,846	-200,000	-0,010	0,118
-565,831	114,316	-0,024	0,022
-564,817	-200,000	-0,001	-0,152
-563,802	147,463	-0,036	0,035
-562,788	87,693	-0,054	-0,044
-561,773	-179,119	0,083	0,001
-560,758	72,724	0,059	0,045
-559,744	-81,270	0,063	-0,015
-558,729	4,059	-0,099	-0,053
-557,715	219,371	-0,065	0,077
-556,700	-70,510	-0,182	-0,050
-555,685	-200,000	0,011	0,046
-554,671	800,000	-0,046	0,110
-553,656	158,029	0,079	-0,080
-552,642	6,874	0,093	0,050
-551,627	-47,463	0,048	-0,017
-550,612	-144,861	-0,089	0,006
-549,598	800,000	-0,053	-0,154
-548,583	-36,567	0,136	-0,053
-547,569	248,471	-0,079	0,098
-546,554	499,902	0,047	0,079
-545,539	-11,718	0,163	-0,078
-544,525	-200,000	-0,007	-0,121
-543,510	731,775	-0,079	-0,156
-542,496	800,000	0,033	-0,103
-541,481	-7,444	0,058	0,028
-540,466	-200,000	0,035	0,158
-539,452	-200,000	0,034	-0,151
-538,437	-31,419	0,136	0,056
-537,423	47,814	-0,022	-0,015
-536,408	-28,827	-0,071	0,030
-535,393	-56,669	0,067	-0,022
-534,379	-38,734	0,099	0,038
-533,364	-200,000	0,004	0,097
-532,350	-200,000	-0,032	-0,112
-531,335	444,424	-0,013	0,021
-530,321	341,934	-0,021	-0,030
-529,306	-200,000	0,020	-0,118
-528,291	77,462	0,141	-0,110
-527,277	255,725	0,076	-0,096
-526,262	-113,856	-0,194	-0,027
-525,248	-200,000	0,007	-0,073
-524,233	212,946	-0,097	0,112
-523,218	800,000	0,011	-0,034
-522,204	-174,406	0,097	0,002
-521,189	126,856	-0,036	0,033
-520,175	247,155	0,027	-0,033
-519,160	-200,000	0,016	0,068
-518,145	54,036	0,123	0,086
-517,131	268,275	0,060	0,077
-516,116	56,240	0,080	-0,057
-515,102	-200,000	-0,018	-0,101
-514,087	-200,000	0,046	0,000
-513,072	328,607	0,018	-0,026
-512,058	800,000	-0,046	-0,112
-511,043	272,422	0,120	0,154
-510,029	107,742	0,086	0,075
-509,014	800,000	-0,054	0,137
-507,999	-126,476	-0,066	0,007
-506,985	131,891	-0,064	0,060
-505,970	-200,000	0,010	-0,096
-504,956	85,804	-0,169	-0,136
-503,941	-121,491	-0,039	0,005
-502,926	-36,563	0,109	-0,042
-501,912	-4,116	0,127	-0,064
-500,897	776,336	0,014	0,027
-499,883	-150,397	0,091	-0,005
-498,868	-200,000	0,028	-0,148
-497,853	-200,000	-0,009	-0,080
-496,839	327,530	-0,091	0,127
-495,824	-118,515	-0,082	0,010
-494,810	800,000	-0,021	0,043
-493,795	451,495	0,024	-0,038
-492,781	445,503	0,068	-0,110
-491,766	800,000	-0,008	0,016
-490,751	-40,278	-0,126	-0,048
-489,737	109,523	0,049	-0,043
-488,722	-11,719	0,042	-0,020
-487,708	656,248	0,069	0,130
-486,693	-200,000	-0,025	0,099
-485,678	-83,197	-0,193	-0,045
-484,664	134,111	-0,034	-0,032
-483,649	800,000	0,010	0,027
-482,635	169,733	0,037	-0,038
-481,620	-47,876	-0,154	0,054
-480,605	221,935	0,105	0,123
-479,591	-200,000	-0,006	-0,052
-478,576	-110,425	-0,095	-0,014
-477,562	-200,000	0,009	-0,055
-476,547	111,308	-0,081	0,071
-475,532	-134,392	0,016	0,001
-474,518	-200,000	-0,002	-0,090
-473,503	-106,121	0,085	0,014
-472,489	-114,325	-0,087	-0,012
-471,474	800,000	-0,054	0,167
-470,459	646,174	0,028	0,052
-469,445	121,168	-0,110	-0,100
-468,430	73,093	0,044	0,034
-467,416	800,000	-0,010	-0,026
-466,401	-182,329	-0,052	0,001
-465,386	-54,174	0,161	-0,053
-464,372	-63,879	0,080	-0,024
-463,357	-39,898	-0,065	0,025
-462,343	800,000	0,052	-0,134
-461,328	155,257	0,052	-0,052
-460,313	107,559	0,174	-0,151
-459,299	-58,247	-0,049	0,016
-458,284	-78,732	0,099	0,024
-457,270	-200,000	-0,018	0,110
-456,255	84,687	-0,065	0,052
-455,241	-153,632	-0,095	0,005
-454,226	-128,182	0,069	-0,007
-453,211	543,672	0,065	-0,113
-452,197	800,000	0,023	0,056
-451,182	-200,000	-0,012	0,090
-450,168	-200,000	-0,001	0,088
-449,153	701,959	0,032	-0,061
-448,138	-26,915	-0,125	-0,053
-447,124	800,000	-0,020	0,043
-446,109	-106,306	0,113	0,018
-445,095	-200,000	-0,003	0,015
-444,080	165,706	-0,127	0,131
-443,065	152,049	-0,082	0,081
-442,051	287,099	-0,025	0,033
-441,036	-87,785	0,025	-0,005
-440,022	-5,225	-0,127	-0,063
-439,007	800,000	0,024	-0,068
-437,992	-200,000	0,009	0,113
-436,978	648,676	-0,096	0,180
-435,963	-200,000	-0,028	0,091
-434,949	-200,000	-0,003	0,064
-433,934	-155,086	-0,137	0,006
-432,919	800,000	0,048	-0,115
-431,905	-200,000	0,001	0,035
-430,890	800,000	0,018	0,057
-429,876	-5,923	-0,120	0,060
-428,861	800,000	0,054	0,129
-427,846	-200,000	-0,008	0,051
-426,832	-200,000	-0,001	-0,027
-425,817	68,289	-0,072	-0,054
-424,803	800,000	-0,048	-0,109
-423,788	800,000	0,024	0,054
-422,773	-11,456	-0,066	0,031
-421,759	800,000	0,055	0,118
-420,744	439,998	-0,019	-0,031
-419,730	9,515	-0,117	-0,065
-418,715	-200,000	0,008	-0,077
-417,701	-200,000	0,025	-0,100
-416,686	800,000	-0,026	0,069
-415,671	-96,121	-0,107	0,021
-414,657	17,084	0,142	0,082
-413,642	-96,945	-0,038	0,007
-412,628	-200,000	-0,003	-0,119
-411,613	116,819	0,078	-0,070
-410,598	-33,062	-0,014	-0,005
-409,584	-86,007	-0,102	-0,023
-408,569	314,716	0,067	0,093
-407,555	-200,000	-0,017	0,077
-406,540	800,000	0,062	-0,177
-405,525	-59,442	-0,082	0,026
-404,511	-92,447	-0,121	0,024
-403,496	160,615	-0,039	-0,040
-402,482	45,707	-0,076	-0,051
-401,467	578,370	0,059	0,106
-400,452	800,000	0,027	0,060
-399,438	-200,000	-0,005	0,062
-398,423	-99,485	-0,189	-0,034
-397,409	-12,167	0,061	-0,029
-396,394	-48,259	0,048	0,017
-395,379	111,247	-0,060	0,052
-394,365	286,630	-0,042	0,056
-393,350	1,681	0,038	-0,020
-392,336	-8,293	-0,133	0,065
-391,321	-61,132	-0,120	-0,037
-390,306	-200,000	-0,004	0,026
-389,292	-99,668	-0,082	0,015
-388,277	2,322	0,117	0,061
-387,263	800,000	0,029	0,061
-386,248	-200,000	0,026	0,099
-385,233	-200,000	0,026	0,157
-384,219	-131,810	0,096	-0,009
-383,204	-200,000	0,010	-0,062
-382,190	-200,000	-0,001	-0,101
-381,175	81,970	0,049	-0,038
-380,160	-200,000	-0,010	0,135
-379,146	-200,000	0,003	-0,025
-378,131	138,404	0,015	-0,014
-377,117	-69,627	0,047	0,013
-376,102	-54,826	-0,069	-0,022
-375,088	-124,803	-0,088	0,010
-374,073	-46,927	-0,040	-0,014
-373,058	-200,000	-0,014	0,071
-372,044	58,149	0,104	0,074
-371,029	-10,417	-0,075	0,036
-370,015	-22,661	0,018	0,008
-369,000	15,156	-0,064	-0,036
-367,985	158,249	-0,104	-0,105
-366,971	-200,000	-0,005	-0,063
-365,956	730,165	0,058	0,114
-364,942	800,000	-0,007	0,018
-363,927	800,000	-0,008	0,022
-362,912	-50,708	-0,011	0,004
-361,898	332,783	-0,048	-0,068
-360,883	401,662	-0,036	0,055
-359,869	85,428	-0,038	-0,030
-358,854	86,356	0,044	0,036
-357,839	-200,000	-0,015	0,110
-356,825	215,770	0,115	0,133
-355,810	-84,732	-0,055	0,012
-354,796	-200,000	0,007	0,058
-353,781	-200,000	-0,028	-0,127
-352,766	-69,998	0,160	-0,044
-351,752	-200,000	-0,026	-0,086
-350,737	257,426	-0,052	-0,066
-349,723	-200,000	0,007	-0,049
-348,708	116,603	-0,078	0,070
-347,693	195,551	-0,043	-0,048
-346,679	-106,530	0,115	-0,018
-345,664	-200,000	-0,017	-0,119
-344,650	410,053	-0,035	-0,054
-343,635	125,502	-0,087	0,079
-342,620	-107,178	-0,032	-0,005
-341,606	48,966	0,059	-0,040
-340,591	-159,033	0,065	0,003
-339,577	298,934	-0,035	-0,047
-338,562	800,000	0,044	-0,137
-337,548	-141,583	0,207	0,015
-336,533	-38,022	0,117	0,045
-335,518	271,358	-0,091	0,117
-334,504	800,000	0,068	0,144
-333,489	-200,000	-0,003	0,026
-332,475	800,000	-0,050	-0,133
-331,460	-66,260	-0,059	0,017
-330,445	251,167	0,103	0,127
-329,431	-13,793	0,169	0,079
-328,416	-35,079	0,056	-0,022
-327,402	800,000	0,050	0,111
-326,387	327,938	-0,061	0,086
-325,372	157,926	-0,094	-0,094
-324,358	317,918	0,074	0,101
-323,343	19,890	-0,083	-0,048
-322,329	-16,397	0,080	-0,037
-321,314	-4,866	0,117	-0,058
-320,299	-200,000	0,005	-0,019
-319,285	-200,000	0,009	-0,054
-318,270	-200,000	0,001	0,027
-317,256	-8,587	-0,078	-0,038
-316,241	-31,245	0,030	0,012
-315,226	195,910	-0,040	-0,044
-314,212	800,000	0,061	-0,122
-313,197	800,000	0,056	-0,129
-312,183	-46,439	-0,065	0,023
-311,168	37,413	0,035	-0,023
-310,153	-200,000	-0,032	-0,150
-309,139	-111,167	0,152	-0,022
-308,124	108,391	0,121	-0,105
-307,110	-200,000	0,009	0,067
-306,095	-200,000	-0,009	0,069
-305,080	800,000	0,014	0,043
-304,066	-164,633	0,058	0,002
-303,051	-200,000	-0,037	0,160
-302,037	329,044	0,092	0,129
-301,022	-200,000	-0,007	0,083
-300,008	800,000	0,075	0,155
-298,993	19,471	0,082	0,048
-297,978	-172,645	-0,079	0,002
-296,964	194,842	0,073	0,080
-295,949	800,000	-0,017	-0,047
-294,935	-200,000	-0,028	-0,090
-293,920	30,437	0,118	0,073
-292,905	-200,000	0,017	0,155
-291,891	-76,935	0,045	-0,011
-290,876	21,178	-0,028	-0,017
-289,862	-64,976	-0,086	-0,025
-288,847	800,000	0,032	-0,087
-287,832	96,076	-0,061	0,050
-286,818	-112,222	-0,090	0,013
-285,803	243,229	0,034	-0,042
-284,789	421,750	0,056	-0,088
-283,774	-200,000	0,028	0,102
-282,759	58,657	-0,051	-0,036
-281,745	207,353	-0,082	-0,092
-280,730	-200,000	0,016	-0,108
-279,716	103,675	0,108	-0,092
-278,701	-8,823	-0,080	-0,039
-277,686	-200,000	-0,018	0,130
-276,672	-160,582	0,053	-0,002
-275,657	9,739	0,123	-0,067
-274,643	52,267	0,084	-0,058
-273,628	-200,000	0,012	-0,193
-272,613	800,000	0,026	0,060
-271,599	53,877	-0,053	-0,037
-270,584	-200,000	0,018	0,087
-269,570	-200,000	-0,014	0,092
-268,555	700,172	-0,039	0,074
-267,540	800,000	0,037	0,087
-266,526	800,000	0,014	-0,040
-265,511	-200,000	0,034	-0,108
-264,497	800,000	0,007	-0,016
-263,482	87,975	0,071	-0,057
-262,467	-112,135	0,104	-0,015
-261,453	189,729	0,055	0,059
-260,438	-200,000	-0,002	-0,031
-259,424	49,093	0,016	0,011
-258,409	-200,000	-0,000	-0,078
-257,395	-103,611	0,136	-0,023
-256,380	-200,000	0,006	-0,089
-255,365	-169,431	0,160	0,004
-254,351	97,490	-0,068	-0,056
-253,336	384,022	-0,083	-0,124
-252,322	507,252	-0,116	-0,195
-251,307	19,761	0,091	-0,053
-250,292	-63,248	0,078	-0,023
-249,278	192,600	0,095	0,104
-248,263	-138,966	-0,060	-0,005
-247,249	-64,795	0,164	0,048
-246,234	426,147	0,044	-0,069
-245,219	-200,000	0,001	-0,051
-244,205	-200,000	-0,004	0,078
-243,190	-200,000	0,005	-0,060
-242,176	800,000	0,049	0,125
-241,161	-171,949	-0,048	0,001
-240,146	800,000	0,021	0,050
-239,132	800,000	0,042	0,102
-238,117	126,270	-0,032	0,029
-237,103	-10,092	-0,108	-0,052
-236,088	-159,455	-0,064	0,003
-235,073	-78,318	0,106	0,026
-234,059	15,427	-0,028	-0,016
-233,044	-27,983	-0,171	-0,071
-232,030	-52,970	0,009	0,003
-231,015	-27,359	-0,057	0,024
-230,000	-200,000	-0,014	0,104
-228,986	-59,495	0,092	-0,028
-227,971	-70,967	0,075	-0,020
-226,957	-122,803	0,122	0,014
-225,942	369,201	-0,044	0,065
-224,927	41,398	0,111	0,072
-223,913	-200,000	-0,006	-0,072
-222,898	-200,000	-0,010	-0,062
-221,884	-122,582	-0,071	-0,008
-220,869	-200,000	-0,005	0,064
-219,855	-83,720	-0,094	-0,021
-218,840	60,261	0,095	-0,067
-217,825	-200,000	-0,006	-0,078
-216,811	-30,172	-0,184	0,075
-215,796	-30,819	0,123	0,050
-214,782	-2,543	-0,093	-0,047
-213,767	250,972	-0,071	0,088
-212,752	-117,819	0,128	0,016
-211,738	66,693	0,038	0,028
-210,723	581,581	0,033	0,058
-209,709	147,116	-0,005	-0,005
-208,694	800,000	0,013	0,036
-207,679	2,350	0,095	0,050
-206,665	-69,175	-0,093	0,026
-205,650	31,064	0,030	-0,019
-204,636	622,417	-0,012	-0,022
-203,621	154,902	-0,065	0,065
-202,606	800,000	-0,033	-0,081
-201,592	800,000	0,012	0,027
-200,577	-160,456	-0,137	0,005
-199,563	40,462	0,088	0,057
-198,548	40,860	-0,009	0,006
-197,533	76,787	0,111	0,085
-196,519	800,000	-0,038	0,080
-195,504	101,896	0,063	-0,053
-194,490	-77,956	0,115	0,028
-193,475	241,666	-0,055	-0,066
-192,460	41,716	0,037	0,024
-191,446	-200,000	0,005	0,087
-190,431	26,868	0,157	0,095
-189,417	81,896	-0,123	-0,096
-188,402	18,071	-0,093	-0,053
-187,387	-8,449	0,059	-0,029
-186,373	-200,000	-0,016	0,090
-185,358	391,548	0,079	0,118
-184,344	-200,000	-0,026	0,109
-183,329	-91,963	0,161	0,033
-182,315	-65,873	0,122	-0,035
-181,300	-200,000	-0,070	0,000
-180,285	-200,000	-0,015	-0,053
-179,271	-52,515	-0,117	0,039
-178,256	26,445	-0,023	-0,014
-177,242	-10,971	-0,108	-0,051
-176,227	258,742	-0,009	0,011
-175,212	-38,347	0,096	-0,037
-174,198	-121,842	-0,108	-0,013
-173,183	800,000	0,007	0,018
-172,169	-144,028	-0,128	-0,008
-171,154	68,468	-0,102	-0,075
-170,139	101,949	-0,042	0,035
-169,125	60,850	0,091	0,065
-168,110	-51,871	0,013	0,004
-167,096	228,214	-0,024	0,028
-166,081	800,000	0,066	-0,135
-165,066	-139,585	-0,051	-0,004
-164,052	-200,000	-0,036	-0,156
-163,037	-193,551	-0,065	-0,000
-162,023	117,387	0,088	0,078
-161,008	172,890	0,033	-0,034
-159,993	490,853	-0,041	0,068
-158,979	194,557	0,067	-0,073
-157,964	-171,699	0,120	-0,003
-156,950	800,000	-0,063	-0,140
-155,935	429,206	-0,038	-0,059
-154,920	-200,000	0,001	-0,024
-153,906	10,773	0,066	-0,036
-152,891	800,000	0,031	-0,087
-151,877	177,405	-0,055	0,058
-150,862	-42,043	-0,092	-0,034
-149,847	39,956	-0,013	-0,009
-148,833	-200,000	-0,003	-0,039
-147,818	225,058	0,010	-0,011
-146,804	142,139	0,083	0,080
-145,789	800,000	0,011	0,032
-144,775	160,373	-0,104	-0,105
-143,760	800,000	0,032	-0,070
-142,745	-109,525	-0,088	0,013
-141,731	-38,369	0,045	-0,017
-140,716	259,444	-0,057	0,071
-139,702	-125,183	0,123	0,013
-138,687	18,149	-0,123	0,070
-137,672	653,176	0,090	0,166
-136,658	-117,174	-0,081	-0,011
-135,643	800,000	-0,066	-0,178
-134,629	-200,000	-0,008	-0,137
-133,614	236,559	0,059	0,070
-132,599	800,000	-0,052	0,122
-131,585	10,486	-0,082	-0,045
-130,570	-200,000	-0,007	0,108
-129,556	-14,413	-0,075	-0,035
-128,541	259,410	0,142	0,176
-127,526	-40,508	0,113	0,042
-126,512	-200,000	-0,009	0,050
-125,497	-200,000	0,001	0,024
-124,483	-200,000	0,035	-0,143
-123,468	-200,000	0,007	0,085
-122,453	2,164	-0,046	-0,024
-121,439	76,554	-0,093	0,071
-120,424	-37,171	0,073	0,028
-119,410	736,298	-0,094	0,182
