DTS Sentinel unit serial number:	SN410029Multiplexer serial number:	ORYXHardware model number:	OX2-SRSoftware version number:	ORYX F/W v4,00 Oryx Data Collector v3.7.2.0data status	okinstallation	B5 Nyhavnadifferential loss correction	single-endedforward channel	channel 2reverse channel	N/Adate	2023/12/12time	20:47:13forward acquisition time	300,00reverse acquisition time	0,00gamma	499,1914k internal	0,3157k external	0,3157temperature offset calibration	1,0000default loss term (dB/km)	0,3820temperature slope calibration	1,0000multiplexer offset coefficient	1,0000multiplexer slope coefficient	1,0000fibre end	0,00T internal ref (°C)	15,12T ext. ref 1 (°C)	-1,63T ext. ref 2 (°C)	-1,93length (m)	temperature (°C)	Stokes	anti-Stokes-744,400	-156,774	0,161	0,007
-743,385	-118,510	-0,331	0,043
-742,371	122,879	0,048	0,044
-741,356	-68,641	-0,338	0,096
-740,342	-106,990	0,236	0,038
-739,327	-143,588	-0,377	0,026
-738,312	-108,045	0,057	-0,009
-737,298	-129,869	-0,355	-0,035
-736,283	-200,000	-0,006	-0,036
-735,269	91,329	-0,151	0,125
-734,254	18,630	-0,033	0,019
-733,239	15,097	-0,395	-0,227
-732,225	11,756	0,133	0,075
-731,210	197,164	0,079	0,089
-730,196	-200,000	0,000	-0,035
-729,181	26,318	-0,041	-0,025
-728,167	433,000	0,045	-0,072
-727,152	349,731	-0,016	-0,023
-726,137	-200,000	-0,017	-0,085
-725,123	-200,000	-0,026	-0,126
-724,108	-200,000	0,003	-0,050
-723,094	-194,242	-0,106	-0,001
-722,079	636,700	-0,102	-0,191
-721,064	19,723	-0,091	-0,054
-720,050	-200,000	-0,041	0,191
-719,035	-48,746	-0,103	0,036
-718,021	-91,587	-0,086	0,018
-717,006	-200,000	-0,037	-0,160
-715,991	612,315	-0,019	-0,035
-714,977	-71,344	-0,130	0,036
-713,962	-152,437	-0,103	0,005
-712,948	585,487	0,029	-0,052
-711,933	-171,705	0,016	0,000
-710,918	-19,454	-0,012	-0,005
-709,904	800,000	-0,033	0,093
-708,889	-19,109	0,060	-0,027
-707,875	183,340	-0,131	-0,142
-706,860	-200,000	0,026	-0,099
-705,845	-200,000	0,001	-0,020
-704,831	380,984	0,065	0,099
-703,816	-141,810	-0,134	-0,010
-702,802	-9,560	0,051	-0,025
-701,787	-200,000	-0,044	-0,150
-700,772	800,000	0,017	0,046
-699,758	76,748	-0,032	-0,025
-698,743	-153,081	-0,141	0,007
-697,729	-134,175	0,071	0,006
-696,714	800,000	0,033	0,105
-695,699	219,920	-0,071	0,084
-694,685	95,428	0,002	0,002
-693,670	-200,000	-0,058	-0,208
-692,656	-200,000	0,008	0,138
-691,641	-200,000	-0,020	0,128
-690,627	-100,413	0,121	-0,022
-689,612	-143,647	-0,084	-0,006
-688,597	0,007	-0,132	-0,069
-687,583	191,828	-0,081	-0,090
-686,568	-75,086	-0,130	-0,034
-685,554	-68,547	-0,137	0,039
-684,539	-200,000	0,004	-0,030
-683,524	39,004	0,099	-0,065
-682,510	-200,000	-0,094	-0,000
-681,495	-200,000	-0,006	-0,080
-680,481	-51,401	-0,052	0,018
-679,466	-55,385	-0,089	-0,029
-678,451	36,993	-0,060	0,039
-677,437	-73,708	0,133	0,035
-676,422	-75,361	0,138	-0,036
-675,408	-200,000	0,011	-0,067
-674,393	800,000	0,072	-0,233
-673,378	-30,447	-0,109	0,045
-672,364	-77,252	-0,099	-0,025
-671,349	800,000	-0,020	-0,048
-670,335	-88,143	0,143	-0,031
-669,320	-200,000	0,014	0,158
-668,305	800,000	0,053	-0,109
-667,291	-89,941	-0,056	0,012
-666,276	41,949	0,092	0,061
-665,262	800,000	-0,040	-0,099
-664,247	100,464	0,018	-0,015
-663,232	-200,000	0,008	0,115
-662,218	-63,410	0,094	0,028
-661,203	190,308	-0,056	0,062
-660,189	-200,000	0,007	-0,110
-659,174	310,626	-0,043	-0,059
-658,159	71,299	-0,059	-0,045
-657,145	162,339	0,038	-0,039
-656,130	-86,481	0,128	0,029
-655,116	-42,929	0,118	-0,044
-654,101	-200,000	0,004	-0,068
-653,086	-200,000	-0,018	0,104
-652,072	-200,000	-0,030	-0,127
-651,057	47,211	0,021	-0,014
-650,043	114,891	-0,054	-0,048
-649,028	210,409	-0,045	-0,052
-648,014	645,787	-0,018	0,034
-646,999	-200,000	0,018	0,085
-645,984	800,000	0,018	0,052
-644,970	-68,674	-0,034	-0,010
-643,955	223,770	-0,068	-0,080
-642,941	52,643	0,112	-0,078
-641,926	-89,458	0,194	-0,042
-640,911	460,660	-0,095	0,155
-639,897	312,103	-0,031	0,043
-638,882	80,437	0,080	-0,063
-637,868	-200,000	-0,034	-0,151
-636,853	-40,295	-0,106	0,040
-635,838	287,852	0,032	0,043
-634,824	-12,090	0,112	0,054
-633,809	-200,000	0,033	0,117
-632,795	42,709	0,122	0,081
-631,780	-200,000	-0,024	0,101
-630,765	-55,921	-0,093	-0,030
-629,751	595,874	0,022	-0,040
-628,736	152,427	-0,074	-0,074
-627,722	-82,999	0,019	0,004
-626,707	-2,649	0,075	0,038
-625,692	-200,000	0,003	0,143
-624,678	-77,713	0,062	0,016
-623,663	-114,034	-0,079	-0,011
-622,649	203,439	-0,047	-0,054
-621,634	97,014	-0,122	-0,103
-620,619	-200,000	0,007	-0,054
-619,605	800,000	-0,017	-0,043
-618,590	264,235	0,053	-0,068
-617,576	-200,000	-0,020	0,257
-616,561	487,377	-0,063	0,105
-615,546	800,000	-0,029	-0,059
-614,532	-200,000	-0,039	-0,150
-613,517	-200,000	-0,012	-0,064
-612,503	800,000	-0,017	0,050
-611,488	-84,907	0,156	0,036
-610,474	-200,000	-0,005	-0,051
-609,459	800,000	-0,025	-0,057
-608,444	-200,000	-0,024	-0,086
-607,430	493,115	-0,074	-0,125
-606,415	800,000	-0,044	-0,115
-605,401	212,999	-0,081	-0,094
-604,386	-42,625	0,151	-0,056
-603,371	-200,000	0,013	-0,163
-602,357	-32,495	-0,138	-0,056
-601,342	94,357	-0,081	0,067
-600,328	-200,000	-0,004	0,094
-599,313	-200,000	0,051	-0,188
-598,298	800,000	-0,043	-0,107
-597,284	71,221	0,202	-0,153
-596,269	-51,422	-0,068	0,023
-595,255	-95,012	-0,041	-0,008
-594,240	800,000	-0,026	-0,067
-593,225	-183,302	0,115	0,001
-592,211	-59,258	-0,071	-0,022
-591,196	-83,208	-0,092	0,021
-590,182	-73,558	0,085	-0,023
-589,167	32,464	-0,017	-0,011
-588,152	53,780	-0,096	0,067
-587,138	222,968	0,091	0,107
-586,123	25,687	-0,051	-0,031
-585,109	-187,294	-0,137	0,001
-584,094	-180,675	-0,033	-0,000
-583,079	93,213	-0,041	-0,034
-582,065	-12,386	-0,118	0,057
-581,050	-29,067	-0,162	-0,068
-580,036	-200,000	-0,025	0,131
-579,021	-13,984	-0,060	-0,028
-578,006	-127,647	-0,034	-0,004
-576,992	-194,965	-0,093	-0,001
-575,977	641,684	0,042	0,078
-574,963	-200,000	-0,000	0,034
-573,948	-168,457	0,214	-0,006
-572,934	381,010	0,032	-0,049
-571,919	-147,006	0,034	-0,002
-570,904	-58,735	-0,026	-0,008
-569,890	130,261	-0,065	0,061
-568,875	109,620	0,068	0,060
-567,861	24,001	0,098	-0,059
-566,846	102,058	-0,118	-0,101
-565,831	-88,677	-0,126	-0,027
-564,817	-200,000	0,023	-0,081
-563,802	-200,000	-0,029	-0,177
-562,788	-200,000	0,003	-0,039
-561,773	-59,504	-0,110	-0,034
-560,758	-200,000	-0,007	0,055
-559,744	73,698	0,111	-0,085
-558,729	-154,730	-0,133	-0,006
-557,715	-89,687	-0,027	0,006
-556,700	3,690	-0,037	0,020
-555,685	-58,453	0,071	0,022
-554,671	449,945	-0,079	0,127
-553,656	319,058	-0,058	-0,080
-552,642	245,887	0,118	-0,146
-551,627	800,000	0,021	-0,049
-550,612	-16,731	-0,068	0,031
-549,598	189,885	-0,109	-0,119
-548,583	800,000	0,008	-0,021
-547,569	527,088	0,083	0,144
-546,554	-200,000	0,006	0,118
-545,539	189,883	0,033	0,036
-544,525	414,599	0,065	0,102
-543,510	800,000	0,058	0,162
-542,496	800,000	0,021	-0,047
-541,481	155,296	-0,044	-0,044
-540,466	800,000	0,031	0,095
-539,452	64,667	-0,034	0,025
-538,437	162,849	0,063	-0,064
-537,423	800,000	-0,012	-0,033
-536,408	214,420	-0,045	-0,052
-535,393	127,993	0,084	-0,078
-534,379	-107,799	-0,074	0,012
-533,364	372,789	-0,074	-0,110
-532,350	-99,423	-0,049	-0,009
-531,335	-105,358	-0,053	0,009
-530,321	-43,736	0,138	0,051
-529,306	-166,858	-0,086	-0,003
-528,291	404,525	-0,028	-0,043
-527,277	220,746	0,056	-0,065
-526,262	-136,389	-0,052	-0,004
-525,248	-19,776	-0,099	-0,045
-524,233	-16,884	-0,080	-0,037
-523,218	65,260	0,054	0,040
-522,204	800,000	0,014	0,039
-521,189	451,837	-0,055	-0,088
-520,175	800,000	0,049	-0,143
-519,160	-148,090	0,195	0,012
-518,145	-200,000	-0,004	0,031
-517,131	322,342	-0,024	-0,034
-516,116	59,901	-0,035	-0,026
-515,102	314,177	-0,072	0,099
-514,087	-200,000	0,023	0,080
-513,072	466,041	0,018	-0,029
-512,058	-117,188	-0,098	-0,013
-511,043	-200,000	-0,003	0,020
-510,029	25,762	0,029	-0,018
-509,014	283,214	0,066	0,087
-507,999	-8,420	0,087	0,043
-506,985	800,000	-0,025	-0,075
-505,970	-200,000	0,023	-0,087
-504,956	-200,000	0,011	0,129
-503,941	-200,000	0,039	-0,146
-502,926	-200,000	0,003	-0,049
-501,912	-13,965	-0,068	0,032
-500,897	-200,000	-0,022	0,079
-499,883	242,429	-0,124	0,152
-498,868	692,687	-0,086	-0,166
-497,853	-44,911	-0,145	0,053
-496,839	-31,232	0,094	-0,038
-495,824	-200,000	0,007	0,055
-494,810	-200,000	0,001	-0,134
-493,795	146,349	0,024	0,024
-492,781	-23,228	-0,061	-0,027
-491,766	-43,380	0,137	0,050
-490,751	800,000	-0,038	0,083
-489,737	37,062	-0,122	-0,078
-488,722	274,138	0,097	0,126
-487,708	164,164	0,050	0,052
-486,693	-100,346	-0,022	0,004
-485,678	93,416	0,023	-0,019
-484,664	-200,000	-0,028	-0,097
-483,649	-89,196	0,131	0,028
-482,635	-200,000	-0,025	-0,167
-481,620	-98,333	-0,031	0,006
-480,605	64,233	0,104	-0,076
-479,591	96,964	-0,079	-0,066
-478,576	-21,560	-0,047	0,021
-477,562	-200,000	0,009	0,155
-476,547	572,066	-0,014	0,026
-475,532	348,993	-0,031	-0,044
-474,518	-200,000	0,027	-0,086
-473,503	800,000	-0,059	0,137
-472,489	149,360	0,046	-0,046
-471,474	555,575	0,047	-0,083
-470,459	203,622	0,077	-0,087
-469,445	800,000	-0,035	-0,073
-468,430	-65,522	0,096	-0,028
-467,416	-73,718	-0,053	-0,014
-466,401	-93,683	0,043	0,009
-465,386	800,000	0,030	-0,069
-464,372	800,000	-0,012	-0,026
-463,357	800,000	-0,068	-0,197
-462,343	27,672	-0,106	-0,065
-461,328	134,939	-0,152	-0,144
-460,313	-117,039	0,151	-0,020
-459,299	193,953	0,053	-0,059
-458,284	-200,000	-0,007	0,051
-457,270	-163,641	0,042	0,001
-456,255	-11,202	-0,146	0,070
-455,241	188,832	-0,036	0,039
-454,226	-82,240	-0,124	-0,029
-453,211	235,535	-0,044	-0,053
-452,197	241,526	0,136	-0,166
-451,182	28,383	-0,072	0,044
-450,168	-200,000	0,017	-0,144
-449,153	-200,000	-0,003	0,095
-448,138	-49,718	0,073	-0,025
-447,124	-91,642	-0,099	0,020
-446,109	285,863	0,065	-0,086
-445,095	-200,000	0,026	0,086
-444,080	158,057	0,019	0,020
-443,065	-106,212	-0,077	-0,012
-442,051	-200,000	-0,011	-0,056
-441,036	131,899	-0,047	0,044
-440,022	157,144	0,051	-0,052
-439,007	173,627	0,030	0,032
-437,992	-146,020	0,108	-0,007
-436,978	317,696	0,058	-0,081
-435,963	-85,725	-0,045	0,010
-434,949	-200,000	-0,011	0,076
-433,934	800,000	-0,032	-0,083
-432,919	248,376	-0,036	0,044
-431,905	554,264	0,083	0,146
-430,890	-136,976	0,178	-0,015
-429,876	-75,908	-0,084	0,021
-428,861	800,000	-0,019	-0,054
-427,846	124,184	0,079	-0,072
-426,832	240,976	-0,013	0,016
-425,817	-66,279	-0,256	0,074
-424,803	440,393	0,060	0,095
-423,788	-60,810	0,059	-0,018
-422,773	800,000	0,046	0,116
-421,759	217,996	-0,037	0,043
-420,744	-165,737	0,059	-0,002
-419,730	-200,000	-0,021	-0,081
-418,715	5,555	0,037	0,020
-417,701	800,000	0,029	-0,078
-416,686	123,667	0,050	0,046
-415,671	-200,000	0,004	0,065
-414,657	-121,951	-0,040	-0,005
-413,642	-1,375	0,127	0,065
-412,628	-31,975	0,078	0,032
-411,613	-82,847	0,054	0,013
-410,598	310,725	0,089	-0,122
-409,584	91,265	-0,065	0,053
-408,569	800,000	0,078	0,158
-407,555	380,539	0,029	0,043
-406,540	-113,244	0,146	0,021
-405,525	-200,000	0,005	0,087
-404,511	238,882	0,063	0,076
-403,496	149,946	-0,085	-0,084
-402,482	637,572	-0,019	0,034
-401,467	-200,000	-0,004	0,120
-400,452	-200,000	0,018	0,065
-399,438	759,000	-0,019	-0,038
-398,423	660,881	-0,022	-0,042
-397,409	-135,211	-0,108	-0,009
-396,394	-139,821	0,099	-0,008
-395,379	-200,000	-0,000	-0,054
-394,365	188,713	0,027	-0,029
-393,350	239,525	0,107	0,129
-392,336	330,645	0,060	-0,085
-391,321	-83,973	-0,081	-0,019
-390,306	-200,000	0,027	0,088
-389,292	-157,072	-0,066	0,003
-388,277	113,292	0,089	0,079
-387,263	800,000	0,030	0,070
-386,248	157,765	0,063	0,064
-385,233	-200,000	-0,002	0,090
-384,219	416,835	0,023	0,036
-383,204	262,019	-0,078	0,098
-382,190	-82,591	-0,127	-0,030
-381,175	-97,144	-0,068	-0,013
-380,160	281,986	-0,065	-0,085
-379,146	42,636	0,021	0,014
-378,131	31,359	0,068	-0,043
-377,117	800,000	-0,067	0,142
-376,102	-60,061	-0,080	0,025
-375,088	-126,556	0,029	0,003
-374,073	-200,000	-0,005	0,065
-373,058	-148,954	0,145	-0,008
-372,044	-2,369	0,034	0,017
-371,029	800,000	0,064	0,173
-370,015	-200,000	-0,006	-0,077
-369,000	210,786	0,089	0,101
-367,985	-200,000	0,015	-0,075
-366,971	239,429	0,065	-0,079
-365,956	-200,000	0,003	0,074
-364,942	800,000	-0,016	0,035
-363,927	-21,852	0,065	-0,029
-362,912	126,560	0,047	0,043
-361,898	127,191	-0,065	0,060
-360,883	-18,514	0,066	0,030
-359,869	55,813	0,032	0,023
-358,854	-200,000	0,011	0,047
-357,839	800,000	0,042	0,101
-356,825	762,641	0,086	0,169
-355,810	-200,000	-0,031	-0,114
-354,796	45,626	-0,075	0,050
-353,781	-200,000	0,011	0,100
-352,766	-61,504	-0,067	-0,020
-351,752	-67,243	0,018	-0,005
-350,737	-200,000	0,015	0,101
-349,723	-71,369	-0,030	0,008
-348,708	800,000	0,059	-0,121
-347,693	429,959	0,021	0,033
-346,679	760,142	0,055	-0,108
-345,664	11,313	-0,063	-0,035
-344,650	-200,000	-0,001	-0,013
-343,635	196,212	0,121	-0,134
-342,620	142,627	0,067	-0,065
-341,606	166,689	0,006	0,006
-340,591	-64,917	-0,076	-0,022
-339,577	-200,000	-0,019	-0,119
-338,562	800,000	-0,054	-0,146
-337,548	800,000	-0,037	-0,100
-336,533	-200,000	-0,003	0,079
-335,518	246,439	0,019	-0,024
-334,504	121,151	-0,059	0,053
-333,489	763,637	0,045	-0,089
-332,475	-200,000	-0,032	-0,140
-331,460	-35,558	-0,070	0,028
-330,445	-89,727	0,111	0,023
-329,431	-200,000	0,061	0,000
-328,416	28,524	0,044	0,027
-327,402	97,784	0,022	0,018
-326,387	-118,216	-0,196	0,025
-325,372	31,457	-0,094	0,059
-324,358	434,959	-0,085	-0,134
-323,343	519,667	-0,044	-0,075
-322,329	69,334	0,076	-0,056
-321,314	469,638	-0,056	0,092
-320,299	-200,000	-0,017	0,073
-319,285	-200,000	0,009	-0,030
-318,270	235,698	-0,066	-0,079
-317,256	800,000	-0,032	0,079
-316,241	-200,000	0,005	0,034
-315,226	-200,000	-0,013	0,094
-314,212	168,532	-0,089	0,092
-313,197	800,000	0,016	-0,048
-312,183	800,000	-0,021	0,061
-311,168	-66,746	-0,139	0,040
-310,153	800,000	-0,025	-0,052
-309,139	125,106	-0,151	-0,138
-308,124	-134,288	0,042	-0,004
-307,110	125,248	0,126	0,115
-306,095	491,955	0,021	0,035
-305,080	394,044	-0,031	0,047
-304,066	83,659	0,040	0,031
-303,051	800,000	0,044	-0,117
-302,037	-63,237	0,090	-0,027
-301,022	558,277	-0,076	-0,133
-300,008	800,000	-0,034	-0,080
-298,993	-200,000	-0,003	0,191
-297,978	14,076	-0,084	0,047
-296,964	-200,000	-0,001	0,035
-295,949	-161,681	-0,061	-0,002
-294,935	-200,000	0,002	-0,137
-293,920	800,000	0,021	-0,045
-292,905	-150,644	-0,042	0,002
-291,891	800,000	-0,013	0,029
-290,876	-160,125	0,083	-0,003
-289,862	-119,983	-0,067	0,008
-288,847	-200,000	0,004	-0,108
-287,832	-133,715	-0,072	-0,006
-286,818	621,232	0,058	-0,105
-285,803	-139,923	0,162	0,012
-284,789	-200,000	0,005	0,085
-283,774	605,526	0,110	0,200
-282,759	-200,000	0,017	-0,204
-281,745	-200,000	-0,019	0,061
-280,730	800,000	0,035	-0,105
-279,716	75,900	0,023	0,017
-278,701	240,920	0,075	0,090
-277,686	776,384	0,020	0,041
-276,672	-105,241	0,034	0,006
-275,657	207,028	0,055	0,062
-274,643	94,285	0,039	-0,032
-273,628	-200,000	0,040	0,153
-272,613	372,423	-0,017	0,024
-271,599	74,955	0,100	-0,076
-270,584	-138,552	-0,149	0,012
-269,570	-200,000	-0,013	0,051
-268,555	-189,159	-0,016	0,000
-267,540	800,000	0,047	-0,111
-266,526	122,000	-0,094	-0,085
-265,511	-200,000	0,002	0,136
-264,497	136,799	-0,041	-0,039
-263,482	-200,000	-0,014	-0,054
-262,467	235,752	0,075	-0,090
-261,453	-44,127	-0,085	-0,031
-260,438	-77,094	-0,232	-0,058
-259,424	-200,000	-0,006	0,088
-258,409	-200,000	-0,027	-0,124
-257,395	24,773	0,107	-0,064
-256,380	-106,728	0,146	-0,023
-255,365	35,569	0,067	-0,042
-254,351	-56,035	0,083	0,027
-253,336	-32,195	0,014	-0,006
-252,322	-200,000	0,000	0,059
-251,307	57,344	-0,149	0,105
-250,292	126,021	0,113	0,103
-249,278	-200,000	-0,012	-0,049
-248,263	-200,000	-0,012	-0,091
-247,249	-41,861	0,129	-0,047
-246,234	287,284	0,063	0,083
-245,219	800,000	0,041	-0,130
-244,205	-97,959	0,105	-0,019
-243,190	-200,000	-0,003	-0,049
-242,176	-68,427	0,078	0,022
-241,161	304,542	-0,077	0,103
-240,146	-23,094	0,157	-0,068
-239,132	-131,392	0,031	-0,003
-238,117	-134,726	-0,056	0,005
-237,103	19,485	0,016	-0,009
-236,088	1,500	0,061	0,032
-235,073	107,080	0,025	0,022
-234,059	262,954	-0,074	0,093
-233,044	123,326	0,079	0,072
-232,030	291,846	0,028	-0,037
-231,015	10,055	-0,091	0,050
-230,000	800,000	0,011	0,029
-228,986	281,908	0,031	-0,040
-227,971	800,000	0,063	0,137
-226,957	24,149	0,058	0,035
-225,942	-16,304	0,051	0,023
-224,927	460,115	-0,063	0,101
-223,913	55,431	-0,130	0,091
-222,898	-97,531	0,071	0,013
-221,884	-12,074	0,126	0,060
-220,869	188,137	-0,049	-0,053
-219,855	800,000	0,026	0,068
-218,840	800,000	-0,011	-0,026
-217,825	800,000	0,045	0,143
-216,811	263,278	-0,044	-0,056
-215,796	-63,092	0,144	-0,043
-214,782	-108,412	-0,063	-0,010
-213,767	800,000	-0,026	-0,078
-212,752	376,222	0,058	0,086
-211,738	-200,000	0,049	0,170
-210,723	84,879	0,043	0,034
-209,709	185,778	-0,106	-0,114
-208,694	222,727	-0,073	-0,085
-207,679	-200,000	0,005	-0,032
-206,665	179,223	0,064	0,068
-205,650	345,632	0,056	0,080
-204,636	175,847	-0,091	0,095
-203,621	-200,000	-0,039	0,156
-202,606	161,566	-0,118	0,119
-201,592	246,059	0,148	0,180
-200,577	103,886	0,031	-0,027
-199,563	-29,523	-0,099	-0,040
-198,548	174,004	-0,084	-0,088
-197,533	535,481	-0,041	-0,070
-196,519	13,708	-0,157	-0,088
-195,504	800,000	-0,052	-0,161
-194,490	659,532	-0,037	-0,070
-193,475	-77,659	-0,082	0,020
-192,460	70,632	0,055	-0,041
-191,446	245,384	-0,036	0,044
-190,431	-79,928	0,027	-0,007
-189,417	139,791	0,070	-0,067
-188,402	-200,000	0,001	-0,078
-187,387	800,000	0,016	-0,050
-186,373	-200,000	-0,011	-0,066
-185,358	-65,483	-0,044	0,013
-184,344	-84,540	0,157	-0,035
-183,329	394,233	-0,038	0,058
-182,315	800,000	0,027	0,067
-181,300	102,616	-0,039	-0,033
-180,285	-200,000	0,013	-0,084
-179,271	453,697	0,067	0,108
-178,256	-200,000	0,011	0,051
-177,242	209,140	0,090	0,102
-176,227	800,000	0,022	-0,061
-175,212	55,382	0,063	-0,044
-174,198	208,260	-0,104	0,117
-173,183	449,240	-0,103	-0,165
-172,169	274,655	0,016	-0,020
-171,154	-200,000	-0,000	0,078
-170,139	-11,035	0,034	0,016
-169,125	-200,000	0,011	0,051
-168,110	-200,000	0,012	-0,052
-167,096	621,253	-0,020	-0,036
-166,081	-102,942	-0,054	-0,009
-165,066	-71,941	-0,121	0,032
-164,052	374,605	-0,064	0,095
-163,037	154,368	0,047	0,047
-162,023	269,373	0,147	0,186
-161,008	-4,266	-0,055	-0,028
-159,993	104,076	0,030	0,026
-158,979	313,526	0,080	-0,109
-157,964	196,929	-0,060	0,066
-156,950	800,000	-0,010	-0,025
-155,935	-200,000	-0,001	-0,018
-154,920	-148,627	-0,129	0,007
-153,906	-200,000	-0,055	0,190
-152,891	-200,000	0,011	0,183
-151,877	-17,692	-0,098	0,044
-150,862	66,368	-0,142	-0,104
-149,847	-200,000	-0,015	-0,101
-148,833	84,836	-0,098	0,077
-147,818	4,932	-0,106	0,056
-146,804	-129,733	0,188	-0,018
-145,789	22,388	-0,092	-0,054
-144,775	-141,625	0,052	0,004
-143,760	800,000	-0,045	-0,103
-142,745	241,826	-0,042	-0,051
-141,731	373,596	0,038	-0,056
-140,716	18,262	0,091	0,052
-139,702	-145,438	0,008	0,000
-138,687	-200,000	0,026	0,150
-137,672	-200,000	0,028	0,117
-136,658	800,000	0,021	-0,051
-135,643	-200,000	0,045	-0,175
-134,629	-200,000	-0,011	0,131
-133,614	508,496	0,018	0,031
-132,599	371,383	-0,029	-0,043
-131,585	-15,117	0,013	-0,006
-130,570	800,000	-0,095	0,225
-129,556	-45,717	-0,052	-0,019
-128,541	-200,000	0,027	-0,092
-127,526	800,000	0,032	-0,091
-126,512	-200,000	0,012	-0,111
-125,497	332,547	-0,046	0,063
-124,483	-200,000	-0,020	0,086
-123,468	145,240	-0,036	0,034
-122,453	-200,000	0,033	-0,144
-121,439	800,000	-0,006	0,013
-120,424	-91,049	0,124	-0,025
