DTS Sentinel unit serial number:	SN410029Multiplexer serial number:	ORYXHardware model number:	OX2-SRSoftware version number:	ORYX F/W v4,00 Oryx Data Collector v3.7.2.0data status	okinstallation	B5 Nyhavnadifferential loss correction	single-endedforward channel	channel 2reverse channel	N/Adate	2023/12/14time	15:32:13forward acquisition time	300,00reverse acquisition time	0,00gamma	499,1914k internal	0,3157k external	0,3157temperature offset calibration	1,0000default loss term (dB/km)	0,3820temperature slope calibration	1,0000multiplexer offset coefficient	1,0000multiplexer slope coefficient	1,0000fibre end	0,00T internal ref (°C)	7,88T ext. ref 1 (°C)	-8,22T ext. ref 2 (°C)	-8,25length (m)	temperature (°C)	Stokes	anti-Stokes-744,400	104,060	0,053	0,046
-743,385	-74,592	-0,454	-0,120
-742,371	102,579	0,106	-0,092
-741,356	-116,056	-0,468	-0,064
-740,342	346,816	0,103	0,150
-739,327	-70,589	-0,389	-0,108
-738,312	-13,537	0,244	0,116
-737,298	-129,869	-0,291	-0,029
-736,283	-63,334	0,279	-0,084
-735,269	-92,958	-0,200	0,041
-734,254	780,591	0,108	0,220
-733,239	-34,093	-0,545	-0,220
-732,225	33,198	0,183	0,117
-731,210	-44,384	0,086	0,032
-730,196	558,907	0,022	-0,039
-729,181	-45,865	-0,127	-0,046
-728,167	800,000	-0,026	-0,054
-727,152	-200,000	-0,005	-0,046
-726,137	85,067	-0,217	-0,175
-725,123	800,000	0,026	0,074
-724,108	800,000	-0,100	-0,210
-723,094	95,413	-0,043	-0,036
-722,079	93,216	0,059	-0,049
-721,064	104,648	-0,088	-0,076
-720,050	-91,594	-0,055	-0,011
-719,035	420,381	-0,031	-0,049
-718,021	691,919	0,011	0,021
-717,006	-92,295	-0,078	-0,016
-715,991	95,132	0,073	-0,061
-714,977	800,000	0,030	0,067
-713,962	-27,159	0,011	0,005
-712,948	451,163	-0,063	-0,102
-711,933	10,499	0,041	0,023
-710,918	-165,022	-0,023	0,001
-709,904	40,525	-0,206	-0,136
-708,889	-200,000	-0,004	0,084
-707,875	641,491	-0,012	-0,023
-706,860	800,000	0,038	0,093
-705,845	-200,000	-0,021	0,105
-704,831	-200,000	-0,011	-0,069
-703,816	-200,000	-0,004	-0,026
-702,802	246,793	0,051	0,063
-701,787	20,578	-0,034	0,020
-700,772	-80,545	-0,043	0,011
-699,758	153,324	0,075	0,076
-698,743	800,000	-0,041	0,084
-697,729	-200,000	-0,027	0,102
-696,714	800,000	0,064	0,141
-695,699	-35,755	-0,076	0,030
-694,685	48,635	-0,151	-0,104
-693,670	24,238	0,102	-0,062
-692,656	37,193	0,083	-0,054
-691,641	-80,620	0,122	0,030
-690,627	-37,269	0,103	0,040
-689,612	-97,782	-0,117	0,022
-688,597	-28,877	-0,049	-0,021
-687,583	-200,000	0,016	-0,088
-686,568	-200,000	0,001	-0,056
-685,554	-24,615	0,060	-0,026
-684,539	-111,307	0,046	0,007
-683,524	-135,375	0,170	-0,015
-682,510	800,000	-0,023	0,050
-681,495	-200,000	-0,031	-0,160
-680,481	-51,388	0,026	-0,009
-679,466	-141,455	-0,081	-0,006
-678,451	497,195	0,010	0,017
-677,437	-9,959	0,032	0,016
-676,422	-200,000	0,004	-0,014
-675,408	800,000	0,011	0,029
-674,393	800,000	-0,060	0,133
-673,378	-6,085	0,031	0,015
-672,364	16,425	0,015	0,009
-671,349	-200,000	0,006	0,027
-670,335	68,697	0,070	-0,053
-669,320	-200,000	-0,004	0,045
-668,305	216,132	-0,036	0,042
-667,291	-152,308	-0,110	-0,006
-666,276	100,995	0,044	-0,038
-665,262	-125,211	-0,170	-0,019
-664,247	226,455	-0,048	0,057
-663,232	-144,833	-0,075	-0,005
-662,218	647,797	0,039	0,074
-661,203	-75,356	-0,037	-0,010
-660,189	100,425	-0,083	0,071
-659,174	800,000	0,020	0,062
-658,159	-200,000	-0,001	-0,039
-657,145	-144,717	0,072	-0,005
-656,130	-88,358	0,074	0,016
-655,116	313,779	-0,056	-0,078
-654,101	-200,000	0,018	-0,098
-653,086	-200,000	-0,003	0,160
-652,072	-200,000	-0,016	-0,095
-651,057	-200,000	0,024	-0,096
-650,043	244,402	-0,107	-0,133
-649,028	213,001	-0,099	0,115
-648,014	641,550	-0,032	-0,060
-646,999	658,910	-0,036	-0,069
-645,984	-107,602	0,109	-0,017
-644,970	-48,865	0,030	0,011
-643,955	-139,656	-0,035	-0,003
-642,941	396,452	0,101	0,155
-641,926	800,000	-0,049	-0,105
-640,911	-200,000	0,012	-0,106
-639,897	271,477	-0,034	0,044
-638,882	-106,052	0,078	0,013
-637,868	-31,912	-0,083	0,034
-636,853	-80,524	-0,143	0,035
-635,838	-27,923	0,106	0,045
-634,824	800,000	0,025	0,082
-633,809	151,293	-0,024	0,024
-632,795	31,300	-0,009	-0,006
-631,780	-181,969	0,165	0,002
-630,765	-28,301	-0,215	0,091
-629,751	683,680	-0,029	-0,056
-628,736	-108,525	-0,295	-0,046
-627,722	800,000	0,046	-0,127
-626,707	256,990	0,006	-0,007
-625,692	800,000	-0,065	0,163
-624,678	186,376	-0,091	-0,100
-623,663	408,941	-0,066	-0,103
-622,649	-192,019	-0,146	-0,001
-621,634	255,777	-0,094	-0,119
-620,619	-118,149	-0,077	0,010
-619,605	442,083	0,028	-0,045
-618,590	96,401	-0,066	0,056
-617,576	-200,000	0,045	-0,151
-616,561	800,000	-0,037	-0,097
-615,546	304,600	-0,033	0,045
-614,532	-16,751	-0,107	0,050
-613,517	-108,423	-0,032	0,005
-612,503	-108,740	0,142	0,022
-611,488	800,000	-0,027	-0,074
-610,474	-106,039	0,048	-0,008
-609,459	-200,000	-0,023	0,113
-608,444	453,199	-0,086	-0,140
-607,430	-200,000	0,001	-0,011
-606,415	-124,873	-0,106	-0,012
-605,401	-200,000	-0,005	-0,040
-604,386	20,317	0,147	-0,087
-603,371	-149,295	-0,151	-0,009
-602,357	201,298	-0,079	-0,090
-601,342	74,767	-0,062	-0,048
-600,328	132,886	0,099	-0,094
-599,313	-200,000	0,011	0,068
-598,298	220,641	-0,126	0,149
-597,284	246,464	0,019	0,024
-596,269	215,455	-0,049	0,057
-595,255	98,810	-0,141	-0,120
-594,240	-200,000	-0,002	-0,081
-593,225	-145,027	-0,054	0,004
-592,211	639,629	-0,069	-0,130
-591,196	800,000	0,009	-0,022
-590,182	531,481	0,056	-0,097
-589,167	-17,916	0,063	-0,029
-588,152	-106,375	-0,041	0,007
-587,138	-112,978	-0,073	-0,010
-586,123	86,477	-0,064	0,052
-585,109	-49,143	-0,085	0,029
-584,094	105,557	-0,101	-0,087
-583,079	-93,919	0,167	0,033
-582,065	-200,000	-0,003	0,038
-581,050	800,000	-0,040	-0,116
-580,036	290,068	0,083	-0,111
-579,021	-25,177	-0,049	0,021
-578,006	-200,000	0,006	0,073
-576,992	-42,226	0,134	-0,050
-575,977	223,577	0,035	0,042
-574,963	-188,482	0,119	0,001
-573,948	467,345	-0,073	-0,120
-572,934	-66,348	-0,045	-0,013
-571,919	89,634	0,009	0,007
-570,904	14,755	-0,112	-0,064
-569,890	-50,613	-0,112	-0,038
-568,875	247,025	0,108	0,134
-567,861	-12,417	-0,095	0,045
-566,846	-159,507	0,059	0,002
-565,831	-59,205	0,084	0,026
-564,817	54,463	0,043	-0,030
-563,802	12,130	-0,192	-0,108
-562,788	-142,076	0,038	-0,003
-561,773	76,944	-0,018	-0,014
-560,758	81,356	0,085	-0,067
-559,744	-25,958	0,093	0,040
-558,729	472,089	-0,042	-0,070
-557,715	322,159	-0,115	-0,161
-556,700	726,835	0,064	-0,125
-555,685	539,090	0,051	0,089
-554,671	-96,600	0,055	-0,010
-553,656	214,495	0,089	0,103
-552,642	-75,160	0,142	0,037
-551,627	15,436	-0,135	-0,077
-550,612	-200,000	0,009	-0,033
-549,598	800,000	-0,053	-0,123
-548,583	-120,633	-0,102	0,013
-547,569	-132,333	-0,068	-0,006
-546,554	-200,000	0,027	0,136
-545,539	122,012	-0,145	-0,132
-544,525	-46,123	-0,063	0,022
-543,510	-200,000	-0,199	0,001
-542,496	49,878	-0,040	0,028
-541,481	-16,095	-0,038	-0,017
-540,466	-21,026	0,062	0,028
-539,452	800,000	-0,029	-0,089
-538,437	-20,417	-0,012	-0,005
-537,423	-200,000	-0,032	0,124
-536,408	-200,000	0,014	0,079
-535,393	269,313	-0,017	0,022
-534,379	639,512	-0,034	-0,064
-533,364	-96,985	-0,061	-0,012
-532,350	-200,000	0,001	0,045
-531,335	187,460	0,079	0,086
-530,321	-67,878	-0,023	0,006
-529,306	-50,885	-0,119	0,041
-528,291	31,031	-0,114	-0,071
-527,277	800,000	-0,026	-0,084
-526,262	-30,329	0,099	0,041
-525,248	800,000	-0,042	0,085
-524,233	118,853	0,015	0,014
-523,218	-200,000	0,084	-0,000
-522,204	78,523	0,037	-0,029
-521,189	-128,012	-0,099	0,010
-520,175	103,624	-0,050	0,043
-519,160	-79,849	-0,065	0,016
-518,145	800,000	0,029	-0,084
-517,131	-200,000	-0,054	-0,213
-516,116	-123,317	0,055	-0,006
-515,102	-7,448	-0,137	-0,067
-514,087	-200,000	0,006	-0,201
-513,072	-83,489	0,193	-0,045
-512,058	-54,445	-0,021	0,007
-511,043	307,954	-0,078	0,106
-510,029	800,000	-0,037	0,102
-509,014	-143,340	-0,062	-0,004
-507,999	198,671	-0,036	-0,041
-506,985	292,976	-0,019	-0,025
-505,970	1,663	-0,065	-0,034
-504,956	285,501	0,118	-0,156
-503,941	800,000	0,061	-0,129
-502,926	800,000	0,037	-0,093
-501,912	-24,333	0,064	-0,028
-500,897	800,000	0,065	-0,134
-499,883	-10,475	-0,113	0,054
-498,868	-29,895	-0,068	0,028
-497,853	-46,584	-0,170	-0,060
-496,839	-28,838	0,046	-0,019
-495,824	176,246	0,050	0,053
-494,810	394,543	0,036	0,055
-493,795	-200,000	-0,008	0,083
-492,781	77,838	-0,112	0,087
-491,766	-49,309	-0,113	-0,039
-490,751	-200,000	0,003	0,054
-489,737	526,920	0,041	0,072
-488,722	-41,160	0,121	0,046
-487,708	506,066	0,075	0,128
-486,693	14,735	-0,116	-0,066
-485,678	194,718	-0,089	-0,099
-484,664	71,710	0,161	-0,122
-483,649	78,033	0,086	0,067
-482,635	800,000	-0,022	0,069
-481,620	-44,367	-0,122	-0,044
-480,605	-0,696	0,073	0,038
-479,591	190,001	-0,042	0,047
-478,576	-102,860	-0,021	0,004
-477,562	-71,044	0,121	-0,033
-476,547	-199,099	0,133	0,001
-475,532	-121,740	0,074	0,009
-474,518	-200,000	0,001	0,119
-473,503	374,259	0,134	0,200
-472,489	-35,602	0,033	0,013
-471,474	-72,561	0,054	0,014
-470,459	800,000	-0,026	0,058
-469,445	-143,335	-0,115	-0,008
-468,430	800,000	0,052	-0,107
-467,416	-73,859	-0,092	-0,024
-466,401	355,225	0,096	-0,139
-465,386	-200,000	-0,001	-0,065
-464,372	800,000	0,033	0,104
-463,357	-200,000	0,000	-0,063
-462,343	-200,000	-0,017	-0,075
-461,328	-55,937	0,072	-0,023
-460,313	379,052	-0,076	-0,114
-459,299	-173,775	0,154	-0,003
-458,284	-200,000	0,004	-0,018
-457,270	-50,185	-0,159	0,055
-456,255	29,023	0,125	-0,077
-455,241	-200,000	0,003	0,083
-454,226	-15,191	0,127	0,059
-453,211	-200,000	-0,001	-0,026
-452,197	83,459	0,098	0,077
-451,182	-200,000	-0,010	0,102
-450,168	349,961	-0,086	-0,124
-449,153	190,406	0,040	-0,044
-448,138	-118,275	-0,149	-0,019
-447,124	-200,000	0,000	0,039
-446,109	33,749	0,111	0,070
-445,095	43,828	-0,012	0,008
-444,080	-86,640	0,147	0,032
-443,065	131,472	-0,053	0,050
-442,051	308,031	-0,075	-0,102
-441,036	142,473	-0,060	-0,058
-440,022	-63,450	-0,128	0,038
-439,007	800,000	-0,033	0,068
-437,992	800,000	0,010	0,030
-436,978	170,724	-0,073	-0,076
-435,963	277,569	0,093	-0,122
-434,949	-9,112	-0,089	-0,043
-433,934	-152,819	-0,016	-0,001
-432,919	231,174	-0,032	-0,039
-431,905	138,167	0,050	-0,048
-430,890	-143,742	0,124	0,008
-429,876	30,932	0,064	0,040
-428,861	318,046	0,063	0,086
-427,846	-68,677	0,084	-0,024
-426,832	481,658	0,031	-0,051
-425,817	-200,000	0,008	-0,064
-424,803	800,000	0,014	-0,031
-423,788	-200,000	-0,003	-0,062
-422,773	283,927	0,021	-0,028
-421,759	-200,000	0,011	-0,144
-420,744	252,194	0,018	-0,022
-419,730	552,670	0,038	-0,067
-418,715	-200,000	0,014	0,108
-417,701	-156,340	0,102	-0,005
-416,686	-48,636	0,109	-0,038
-415,671	-106,210	0,092	0,015
-414,657	131,885	0,059	0,056
-413,642	521,160	0,027	0,046
-412,628	800,000	0,049	0,133
-411,613	513,392	-0,047	0,079
-410,598	365,824	0,054	-0,079
-409,584	126,245	0,094	-0,086
-408,569	-33,801	0,044	-0,018
-407,555	-12,348	0,032	-0,015
-406,540	-200,000	0,053	-0,174
-405,525	-118,429	0,025	-0,003
-404,511	193,284	-0,053	0,058
-403,496	-3,700	-0,113	0,057
-402,482	800,000	-0,033	0,076
-401,467	-59,838	0,045	0,014
-400,452	115,613	-0,032	0,029
-399,438	-184,315	-0,077	-0,001
-398,423	800,000	0,039	-0,109
-397,409	-0,794	0,136	-0,070
-396,394	18,603	0,114	0,066
-395,379	-200,000	-0,006	0,058
-394,365	58,468	-0,036	0,025
-393,350	136,744	0,096	0,091
-392,336	130,488	-0,040	0,037
-391,321	-77,040	0,097	0,024
-390,306	256,810	-0,082	0,102
-389,292	-93,656	0,032	0,006
-388,277	-57,614	-0,020	0,006
-387,263	3,191	-0,079	0,042
-386,248	-137,534	0,050	0,004
-385,233	274,618	0,055	0,071
-384,219	-25,222	-0,099	-0,042
-383,204	-52,378	0,059	0,020
-382,190	222,688	-0,038	-0,045
-381,175	-200,000	-0,039	0,226
-380,160	-135,813	0,035	0,003
-379,146	-143,866	-0,155	0,010
-378,131	-86,038	-0,081	0,018
-377,117	348,189	0,116	0,166
-376,102	287,795	0,061	0,080
-375,088	-3,734	-0,125	-0,063
-374,073	282,843	-0,082	-0,108
-373,058	32,202	-0,110	0,069
-372,044	244,440	0,074	-0,091
-371,029	-200,000	0,034	0,147
-370,015	-200,000	0,005	0,068
-369,000	-200,000	0,021	-0,099
-367,985	-20,240	0,104	-0,047
-366,971	204,788	-0,116	-0,131
-365,956	31,938	0,095	0,059
-364,942	182,135	0,101	0,108
-363,927	-127,602	0,106	-0,011
-362,912	157,444	0,031	0,031
-361,898	-136,373	-0,111	0,009
-360,883	109,538	-0,063	-0,055
-359,869	530,574	0,049	0,084
-358,854	67,775	0,131	0,097
-357,839	31,235	0,028	0,017
-356,825	800,000	0,027	0,059
-355,810	474,413	0,038	0,062
-354,796	-200,000	0,015	0,050
-353,781	515,006	-0,065	-0,111
-352,766	-200,000	0,020	-0,083
-351,752	668,763	0,048	-0,091
-350,737	314,755	0,117	-0,160
-349,723	190,349	-0,036	0,040
-348,708	-59,571	0,064	0,020
-347,693	206,995	0,088	-0,100
-346,679	238,834	0,062	-0,075
-345,664	479,319	-0,027	0,044
-344,650	-10,218	0,132	0,063
-343,635	-200,000	-0,009	-0,078
-342,620	800,000	0,013	0,039
-341,606	-200,000	0,022	0,070
-340,591	57,553	-0,119	0,085
-339,577	-96,970	-0,146	-0,028
-338,562	39,522	0,020	-0,013
-337,548	408,504	0,019	-0,030
-336,533	38,727	-0,101	-0,066
-335,518	-43,852	0,069	0,025
-334,504	-42,893	0,063	-0,023
-333,489	-200,000	-0,004	0,093
-332,475	-72,894	-0,116	-0,031
-331,460	800,000	0,048	0,124
-330,445	50,144	-0,068	0,046
-329,431	-7,057	-0,073	-0,036
-328,416	-200,000	0,026	0,110
-327,402	-38,931	0,077	-0,029
-326,387	-81,353	0,045	0,011
-325,372	-200,000	0,008	-0,034
-324,358	38,893	0,070	-0,046
-323,343	-95,637	0,058	-0,011
-322,329	-68,922	-0,153	0,043
-321,314	74,967	-0,072	0,055
-320,299	-200,000	-0,012	0,061
-319,285	800,000	0,017	-0,049
-318,270	-200,000	0,009	0,156
-317,256	-200,000	0,001	-0,065
-316,241	-126,163	0,125	-0,013
-315,226	393,426	0,067	-0,101
-314,212	-200,000	0,009	0,055
-313,197	-70,076	0,040	-0,011
-312,183	-35,456	0,085	0,033
-311,168	-102,141	-0,067	0,012
-310,153	800,000	0,026	-0,075
-309,139	-84,118	-0,019	0,004
-308,124	81,766	-0,057	0,045
-307,110	310,469	-0,006	0,008
-306,095	435,525	-0,025	0,039
-305,080	726,489	0,067	0,131
-304,066	-200,000	-0,003	0,011
-303,051	38,104	0,071	0,046
-302,037	73,036	0,031	-0,023
-301,022	800,000	0,038	0,117
-300,008	800,000	-0,014	0,041
-298,993	800,000	-0,041	-0,086
-297,978	152,158	0,074	0,073
-296,964	-90,963	-0,108	-0,022
-295,949	-200,000	0,006	0,039
-294,935	17,917	0,013	0,008
-293,920	800,000	-0,020	-0,059
-292,905	-55,028	0,048	0,016
-291,891	274,464	0,074	0,096
-290,876	665,074	0,123	0,231
-289,862	-200,000	0,000	0,095
-288,847	800,000	0,063	-0,144
-287,832	645,565	-0,071	-0,131
-286,818	-143,986	0,124	0,008
-285,803	-177,778	0,021	-0,000
-284,789	-200,000	0,013	0,098
-283,774	-200,000	-0,022	0,096
-282,759	516,558	-0,031	0,053
-281,745	-93,748	-0,070	0,014
-280,730	347,061	-0,092	0,132
-279,716	-16,102	0,042	-0,019
-278,701	7,225	-0,018	0,010
-277,686	46,419	-0,015	-0,010
-276,672	-177,155	0,017	0,000
-275,657	-200,000	0,026	0,187
-274,643	83,425	0,108	-0,085
-273,628	-200,000	-0,003	-0,045
-272,613	800,000	0,032	-0,076
-271,599	-33,852	0,037	0,015
-270,584	8,001	0,137	-0,074
-269,570	80,715	-0,138	0,107
-268,555	-200,000	-0,010	0,075
-267,540	-146,884	-0,100	0,006
-266,526	23,782	-0,139	0,082
-265,511	-200,000	-0,020	-0,085
-264,497	-200,000	0,024	0,092
-263,482	403,074	0,092	0,141
-262,467	-200,000	-0,005	0,063
-261,453	-200,000	-0,011	-0,195
-260,438	62,098	-0,058	0,042
-259,424	221,787	-0,017	-0,020
-258,409	763,958	0,045	0,089
-257,395	-34,238	0,033	-0,013
-256,380	123,304	0,045	0,040
-255,365	800,000	-0,018	0,044
-254,351	14,029	-0,215	-0,121
-253,336	-200,000	0,021	-0,089
-252,322	-200,000	0,012	-0,104
-251,307	-50,264	-0,099	-0,034
-250,292	-200,000	0,024	-0,214
-249,278	800,000	-0,055	-0,159
-248,263	-80,168	0,076	0,018
-247,249	290,474	-0,057	-0,075
-246,234	-200,000	0,002	-0,074
-245,219	800,000	-0,008	-0,016
-244,205	-200,000	-0,035	0,000
-243,190	50,462	-0,017	0,012
-242,176	-200,000	0,005	0,016
-241,161	-83,560	0,193	0,044
-240,146	78,944	0,041	-0,032
-239,132	-200,000	0,002	-0,147
-238,117	-200,000	0,011	0,050
-237,103	41,376	-0,079	0,052
-236,088	166,715	0,064	0,066
-235,073	-200,000	0,038	0,158
-234,059	-200,000	-0,010	0,101
-233,044	175,333	0,075	0,079
-232,030	640,522	0,060	0,110
-231,015	-139,737	0,159	-0,012
-230,000	-200,000	0,004	-0,064
-228,986	27,224	-0,064	0,039
-227,971	73,609	0,091	0,069
-226,957	800,000	0,041	-0,091
-225,942	-57,544	0,151	0,048
-224,927	800,000	-0,032	0,064
-223,913	800,000	-0,056	-0,171
-222,898	-117,270	0,062	-0,008
-221,884	-74,807	-0,079	-0,020
-220,869	141,650	0,069	0,066
-219,855	-200,000	-0,014	0,104
-218,840	-200,000	0,045	0,190
-217,825	131,615	0,120	0,111
-216,811	-127,614	0,031	-0,003
-215,796	48,272	0,035	-0,024
-214,782	-42,328	-0,136	0,050
-213,767	163,785	-0,058	-0,059
-212,752	274,029	0,056	0,072
-211,738	-154,495	0,127	0,006
-210,723	124,495	-0,041	0,037
-209,709	-66,991	-0,086	-0,024
-208,694	-200,000	0,006	-0,067
-207,679	632,800	0,052	0,096
-206,665	-71,120	0,030	0,008
-205,650	-112,591	-0,152	0,022
-204,636	217,442	0,166	0,191
-203,621	-200,000	-0,001	0,071
-202,606	-79,581	0,070	0,017
-201,592	-49,885	0,045	-0,015
-200,577	-200,000	0,018	-0,084
-199,563	-117,118	-0,031	0,004
-198,548	-200,000	0,052	0,267
-197,533	61,539	-0,121	-0,087
-196,519	59,643	0,114	-0,081
-195,504	-200,000	-0,022	-0,164
-194,490	-200,000	-0,030	-0,146
-193,475	190,125	-0,063	-0,068
-192,460	-200,000	0,013	0,058
-191,446	357,476	-0,097	0,140
-190,431	-118,035	-0,065	0,008
-189,417	800,000	0,117	0,242
-188,402	800,000	0,059	-0,129
-187,387	-200,000	0,002	0,072
-186,373	-200,000	0,022	-0,095
-185,358	337,019	-0,102	0,144
-184,344	800,000	0,037	0,115
-183,329	-200,000	-0,033	0,131
-182,315	469,753	-0,024	-0,040
-181,300	-200,000	0,033	-0,125
-180,285	515,240	-0,037	-0,063
-179,271	-134,254	0,048	0,004
-178,256	-200,000	-0,015	-0,087
-177,242	800,000	0,071	0,169
-176,227	-176,557	0,123	0,002
-175,212	-79,314	-0,213	0,052
-174,198	268,071	0,042	-0,053
-173,183	-29,168	-0,109	-0,045
-172,169	-54,949	-0,054	0,017
-171,154	-200,000	0,003	-0,070
-170,139	586,212	0,045	0,080
-169,125	-200,000	-0,020	-0,108
-168,110	800,000	-0,042	0,109
-167,096	207,564	-0,051	-0,057
-166,081	-200,000	-0,017	-0,083
-165,066	-200,000	0,002	-0,079
-164,052	-200,000	-0,003	0,015
-163,037	153,486	-0,014	-0,014
-162,023	-200,000	0,009	0,051
-161,008	72,634	-0,108	-0,081
-159,993	247,972	0,075	-0,091
-158,979	-42,144	-0,174	-0,064
-157,964	800,000	0,031	0,078
-156,950	334,166	-0,046	-0,065
-155,935	800,000	0,042	-0,118
-154,920	-48,235	-0,068	0,024
-153,906	263,846	0,056	0,071
-152,891	-200,000	0,010	-0,128
-151,877	91,345	-0,024	-0,020
-150,862	-200,000	-0,028	-0,138
-149,847	-50,441	0,142	0,048
-148,833	67,249	0,102	-0,075
-147,818	-36,757	-0,125	-0,048
-146,804	67,928	0,155	0,114
-145,789	800,000	0,017	0,039
-144,775	285,391	-0,087	0,114
-143,760	-200,000	0,021	-0,111
-142,745	-200,000	-0,007	-0,034
-141,731	-90,143	-0,064	-0,013
-140,716	133,713	0,060	0,056
-139,702	-200,000	-0,007	0,098
-138,687	-200,000	-0,013	0,128
-137,672	800,000	0,011	0,025
-136,658	26,591	0,037	0,022
-135,643	364,827	-0,080	-0,116
-134,629	-200,000	0,023	0,133
-133,614	-167,794	0,131	0,004
-132,599	299,567	-0,110	0,146
-131,585	800,000	0,002	-0,007
-130,570	-200,000	-0,003	0,142
-129,556	-200,000	-0,008	0,104
-128,541	623,442	-0,036	-0,065
-127,526	528,749	0,064	-0,110
-126,512	297,724	-0,088	-0,117
-125,497	620,630	-0,018	0,032
-124,483	-28,767	-0,036	0,015
-123,468	-200,000	0,012	0,155
-122,453	236,956	-0,026	-0,031
-121,439	167,855	-0,088	-0,091
-120,424	-9,882	0,110	0,053
-119,410	-200,000	0,015	0,076
-118,395	51,582	-0,022	-0,015
