DTS Sentinel unit serial number:	SN410029Multiplexer serial number:	ORYXHardware model number:	OX2-SRSoftware version number:	ORYX F/W v4,00 Oryx Data Collector v3.7.2.0data status	okinstallation	B5 Nyhavnadifferential loss correction	single-endedforward channel	channel 2reverse channel	N/Adate	2023/12/12time	16:07:13forward acquisition time	300,00reverse acquisition time	0,00gamma	499,1914k internal	0,3156k external	0,3156temperature offset calibration	1,0000default loss term (dB/km)	0,3820temperature slope calibration	1,0000multiplexer offset coefficient	1,0000multiplexer slope coefficient	1,0000fibre end	0,00T internal ref (°C)	15,89T ext. ref 1 (°C)	-0,58T ext. ref 2 (°C)	-0,88length (m)	temperature (°C)	Stokes	anti-Stokes-744,400	202,916	0,041	0,046
-743,385	-114,041	-0,208	0,029
-742,371	150,946	-0,090	0,090
-741,356	12,067	-0,144	0,081
-740,342	175,979	0,136	0,146
-739,327	19,973	-0,265	0,157
-738,312	790,095	0,046	-0,094
-737,298	-67,153	-0,288	-0,083
-736,283	-151,227	0,082	-0,004
-735,269	-133,121	-0,337	0,031
-734,254	-144,880	0,100	-0,007
-733,239	-63,787	-0,564	-0,169
-732,225	-64,667	0,182	0,054
-731,210	-64,811	0,021	-0,006
-730,196	118,599	0,033	-0,030
-729,181	255,230	-0,081	-0,103
-728,167	75,315	-0,096	0,074
-727,152	-109,856	0,123	0,019
-726,137	76,496	-0,105	-0,082
-725,123	-69,382	-0,037	-0,010
-724,108	-200,000	0,008	0,055
-723,094	-174,737	0,049	-0,001
-722,079	-142,229	-0,132	0,009
-721,064	571,022	0,019	0,035
-720,050	-4,486	-0,076	0,039
-719,035	-112,859	0,057	0,008
-718,021	386,270	-0,034	-0,051
-717,006	-23,222	-0,132	-0,058
-715,991	591,110	-0,032	-0,058
-714,977	800,000	0,069	-0,150
-713,962	69,461	-0,098	-0,074
-712,948	783,290	0,032	0,065
-711,933	78,469	0,045	0,035
-710,918	587,186	0,029	0,053
-709,904	800,000	-0,006	0,012
-708,889	-200,000	-0,043	-0,190
-707,875	-200,000	-0,027	-0,141
-706,860	-200,000	0,022	-0,139
-705,845	-33,757	-0,082	0,033
-704,831	-27,136	0,069	-0,029
-703,816	189,854	-0,049	-0,054
-702,802	89,774	0,055	-0,046
-701,787	-200,000	-0,002	-0,039
-700,772	47,640	-0,074	-0,050
-699,758	-200,000	-0,015	-0,188
-698,743	800,000	0,019	-0,053
-697,729	145,868	0,026	0,025
-696,714	256,972	0,142	-0,180
-695,699	93,312	0,086	-0,071
-694,685	-161,123	-0,087	-0,003
-693,670	62,376	-0,154	0,113
-692,656	-200,000	-0,013	0,064
-691,641	-200,000	0,002	0,064
-690,627	-18,765	0,139	0,063
-689,612	197,672	-0,072	-0,081
-688,597	-131,305	-0,039	0,004
-687,583	4,182	-0,079	-0,042
-686,568	235,907	-0,044	0,054
-685,554	751,660	0,016	-0,033
-684,539	800,000	0,054	-0,122
-683,524	800,000	0,081	0,181
-682,510	-200,000	-0,014	-0,145
-681,495	-114,680	-0,053	0,007
-680,481	524,429	-0,114	-0,198
-679,466	-12,953	-0,044	-0,021
-678,451	-200,000	-0,000	0,082
-677,437	-91,674	-0,056	-0,012
-676,422	378,679	-0,040	-0,061
-675,408	-200,000	-0,001	0,061
-674,393	77,352	0,054	-0,042
-673,378	28,924	-0,145	-0,090
-672,364	-124,836	0,024	-0,003
-671,349	-200,000	0,009	-0,067
-670,335	30,030	0,109	-0,068
-669,320	17,362	0,045	-0,026
-668,305	234,818	0,031	-0,038
-667,291	-200,000	-0,008	-0,046
-666,276	9,272	-0,138	-0,077
-665,262	-67,406	0,090	0,026
-664,247	455,599	-0,024	-0,039
-663,232	-61,763	-0,044	-0,013
-662,218	-112,613	-0,050	0,007
-661,203	111,055	0,116	0,103
-660,189	-66,064	-0,064	-0,019
-659,174	800,000	0,025	-0,064
-658,159	-102,732	-0,126	-0,022
-657,145	204,401	-0,113	-0,129
-656,130	147,501	0,046	0,046
-655,116	256,059	0,023	0,030
-654,101	-200,000	0,012	0,068
-653,086	5,105	0,122	0,066
-652,072	-8,767	0,094	0,046
-651,057	-200,000	-0,028	-0,122
-650,043	-200,000	-0,004	-0,023
-649,028	-200,000	-0,001	0,021
-648,014	190,357	-0,109	-0,120
-646,999	20,003	0,134	0,079
-645,984	473,028	-0,080	0,132
-644,970	66,696	-0,163	0,122
-643,955	519,798	-0,053	-0,092
-642,941	400,944	-0,083	-0,129
-641,926	288,382	0,038	-0,051
-640,911	300,233	0,101	0,137
-639,897	-200,000	-0,022	-0,085
-638,882	60,934	0,100	-0,073
-637,868	14,651	-0,091	-0,052
-636,853	54,364	0,081	-0,057
-635,838	105,273	0,012	-0,011
-634,824	692,349	-0,081	-0,157
-633,809	-66,036	0,052	0,015
-632,795	-200,000	-0,020	0,101
-631,780	-97,770	0,070	0,013
-630,765	-200,000	0,003	0,093
-629,751	150,266	-0,082	-0,082
-628,736	11,031	-0,197	-0,110
-627,722	-57,562	-0,237	-0,076
-626,707	-200,000	0,003	0,032
-625,692	151,665	0,099	0,099
-624,678	-115,984	-0,052	-0,007
-623,663	190,072	0,108	0,119
-622,649	-200,000	0,008	-0,261
-621,634	-200,000	-0,007	0,047
-620,619	-200,000	-0,012	-0,111
-619,605	81,046	-0,049	-0,039
-618,590	62,460	0,113	0,083
-617,576	488,836	0,101	0,170
-616,561	2,961	0,047	0,025
-615,546	-12,525	-0,223	-0,106
-614,532	-6,288	-0,024	0,012
-613,517	146,545	0,098	-0,097
-612,503	133,447	-0,062	0,058
-611,488	-51,245	0,049	0,017
-610,474	26,555	-0,038	0,023
-609,459	26,777	0,022	-0,013
-608,444	-200,000	0,014	-0,045
-607,430	-169,980	-0,096	0,002
-606,415	800,000	0,047	0,103
-605,401	-37,198	0,020	0,008
-604,386	426,573	0,013	0,021
-603,371	800,000	0,035	0,085
-602,357	-10,129	0,016	0,008
-601,342	725,835	-0,040	0,079
-600,328	-200,000	-0,021	-0,082
-599,313	123,369	0,056	-0,051
-598,298	8,668	0,086	0,047
-597,284	800,000	-0,023	0,066
-596,269	35,749	0,024	0,015
-595,255	-109,118	0,088	-0,014
-594,240	800,000	0,011	0,030
-593,225	-160,117	-0,209	0,008
-592,211	379,060	-0,101	-0,153
-591,196	-109,460	0,081	0,012
-590,182	-200,000	0,027	0,181
-589,167	-72,009	0,072	0,020
-588,152	102,880	-0,066	0,057
-587,138	-82,011	0,021	-0,005
-586,123	53,672	0,069	0,048
-585,109	-200,000	0,021	-0,070
-584,094	-59,163	-0,054	-0,017
-583,079	13,143	-0,087	0,049
-582,065	-95,133	0,174	-0,034
-581,050	164,122	-0,108	0,112
-580,036	-78,220	-0,133	0,033
-579,021	800,000	0,017	-0,047
-578,006	225,255	-0,039	-0,047
-576,992	-200,000	-0,007	0,075
-575,977	102,076	-0,055	0,047
-574,963	100,466	-0,053	-0,045
-573,948	45,689	0,064	0,043
-572,934	-78,061	-0,096	0,024
-571,919	171,760	0,089	-0,094
-570,904	134,079	0,031	-0,029
-569,890	27,235	0,024	-0,015
-568,875	-200,000	0,012	0,195
-567,861	206,984	0,023	-0,027
-566,846	800,000	-0,033	-0,102
-565,831	51,381	0,022	0,015
-564,817	-49,306	-0,069	-0,024
-563,802	-55,630	-0,033	0,011
-562,788	-113,573	0,036	0,005
-561,773	-200,000	-0,012	0,099
-560,758	229,630	0,064	-0,077
-559,744	-118,315	-0,125	-0,016
-558,729	637,746	-0,066	0,123
-557,715	181,021	0,102	0,110
-556,700	-200,000	0,012	0,193
-555,685	-45,390	-0,094	-0,034
-554,671	-80,524	0,024	0,006
-553,656	-120,541	0,083	0,010
-552,642	-91,964	0,095	0,020
-551,627	77,779	0,101	0,079
-550,612	135,694	0,056	0,053
-549,598	676,450	-0,029	-0,055
-548,583	39,216	-0,052	0,034
-547,569	-89,767	0,019	-0,004
-546,554	-4,744	-0,073	-0,037
-545,539	101,812	-0,049	0,042
-544,525	-4,166	0,156	-0,079
-543,510	38,096	0,067	0,044
-542,496	800,000	0,023	0,060
-541,481	-7,694	-0,070	0,035
-540,466	-27,242	0,082	0,035
-539,452	-200,000	-0,009	-0,076
-538,437	-200,000	0,006	0,102
-537,423	800,000	-0,052	0,120
-536,408	95,946	0,040	0,033
-535,393	800,000	0,017	-0,038
-534,379	488,322	-0,071	-0,119
-533,364	11,709	-0,080	-0,045
-532,350	-77,345	-0,057	-0,014
-531,335	-64,069	0,049	-0,015
-530,321	35,786	0,044	-0,028
-529,306	100,817	0,119	0,102
-528,291	97,820	-0,113	0,095
-527,277	28,651	-0,037	-0,023
-526,262	730,997	0,009	-0,018
-525,248	800,000	-0,058	0,177
-524,233	-106,291	0,133	-0,022
-523,218	97,466	0,074	0,062
-522,204	128,241	-0,031	0,029
-521,189	-200,000	-0,003	-0,060
-520,175	-200,000	-0,012	-0,045
-519,160	800,000	-0,043	0,088
-518,145	800,000	0,026	-0,057
-517,131	800,000	-0,040	-0,107
-516,116	121,419	0,089	0,081
-515,102	364,738	-0,093	0,137
-514,087	191,342	0,013	0,014
-513,072	-200,000	-0,012	0,042
-512,058	-67,549	-0,122	0,035
-511,043	-200,000	0,017	0,090
-510,029	-33,721	0,181	0,072
-509,014	333,938	0,072	0,102
-507,999	800,000	0,072	0,154
-506,985	800,000	-0,041	-0,101
-505,970	-105,163	-0,109	-0,018
-504,956	299,583	-0,041	0,055
-503,941	118,189	0,062	-0,055
-502,926	98,226	0,089	-0,074
-501,912	-200,000	-0,004	0,175
-500,897	-200,000	0,012	0,058
-499,883	101,098	-0,074	-0,063
-498,868	-200,000	0,017	-0,075
-497,853	-200,000	0,001	-0,067
-496,839	-132,641	-0,031	0,003
-495,824	800,000	-0,025	0,069
-494,810	34,649	-0,008	0,005
-493,795	-159,536	-0,089	0,004
-492,781	800,000	0,062	-0,166
-491,766	-109,327	-0,031	-0,005
-490,751	414,713	-0,011	0,017
-489,737	35,270	0,085	0,055
-488,722	800,000	0,038	0,122
-487,708	800,000	0,052	0,134
-486,693	143,158	-0,108	0,105
-485,678	-97,508	-0,169	0,032
-484,664	-200,000	0,008	-0,104
-483,649	-10,360	0,016	-0,007
-482,635	-200,000	-0,007	0,061
-481,620	-61,017	0,113	0,035
-480,605	-81,868	0,097	0,023
-479,591	800,000	0,041	0,098
-478,576	-200,000	-0,041	-0,192
-477,562	-69,572	0,076	-0,021
-476,547	487,514	0,062	0,103
-475,532	-22,929	0,033	0,014
-474,518	-133,759	0,093	0,008
-473,503	-63,532	-0,010	0,003
-472,489	518,360	0,059	-0,102
-471,474	-170,979	-0,072	-0,002
-470,459	-30,060	-0,024	0,010
-469,445	-200,000	0,014	0,066
-468,430	-200,000	-0,038	-0,139
-467,416	-11,313	0,015	-0,007
-466,401	30,624	0,109	-0,068
-465,386	-112,134	-0,061	-0,009
-464,372	-200,000	-0,011	0,037
-463,357	-200,000	-0,014	-0,054
-462,343	-70,594	-0,181	-0,050
-461,328	158,695	-0,054	-0,055
-460,313	-106,789	0,087	0,014
-459,299	800,000	0,059	0,124
-458,284	67,179	-0,020	0,015
-457,270	-200,000	-0,027	-0,143
-456,255	-200,000	0,005	-0,046
-455,241	-200,000	0,015	0,055
-454,226	25,129	-0,041	-0,025
-453,211	-153,841	0,127	0,006
-452,197	170,597	-0,095	-0,099
-451,182	800,000	0,077	-0,157
-450,168	187,433	0,041	-0,045
-449,153	-63,419	-0,032	0,009
-448,138	43,051	-0,058	0,039
-447,124	76,259	0,120	0,093
-446,109	800,000	-0,005	-0,012
-445,095	-200,000	0,002	0,087
-444,080	258,152	0,086	-0,108
-443,065	800,000	0,044	0,099
-442,051	-90,558	-0,151	-0,032
-441,036	800,000	-0,020	-0,043
-440,022	272,066	0,046	0,059
-439,007	486,427	0,090	-0,151
-437,992	26,894	0,037	0,022
-436,978	800,000	0,052	0,122
-435,963	-200,000	-0,002	-0,032
-434,949	-200,000	-0,006	0,039
-433,934	-129,541	-0,072	-0,007
-432,919	-87,017	0,078	0,017
-431,905	-200,000	-0,007	0,031
-430,890	-85,609	0,012	-0,003
-429,876	330,767	0,086	0,121
-428,861	-200,000	0,002	0,098
-427,846	-200,000	0,003	0,014
-426,832	-10,457	-0,087	-0,042
-425,817	-142,951	-0,080	-0,006
-424,803	54,494	-0,043	-0,030
-423,788	-99,729	-0,067	0,012
-422,773	470,075	0,100	0,164
-421,759	701,402	0,020	0,038
-420,744	-200,000	0,012	0,068
-419,730	75,635	0,060	-0,046
-418,715	541,184	0,022	-0,039
-417,701	36,164	-0,098	-0,063
-416,686	154,245	0,094	0,094
-415,671	136,705	-0,102	-0,097
-414,657	800,000	-0,027	0,071
-413,642	-200,000	-0,000	0,050
-412,628	35,989	-0,114	-0,073
-411,613	-200,000	-0,001	0,054
-410,598	124,677	-0,066	0,060
-409,584	227,403	-0,020	-0,023
-408,569	82,537	0,056	-0,044
-407,555	125,193	0,043	0,040
-406,540	-200,000	0,011	-0,134
-405,525	-200,000	0,033	0,197
-404,511	0,340	0,009	-0,005
-403,496	-111,394	-0,119	0,017
-402,482	-200,000	-0,006	0,081
-401,467	-26,885	0,089	-0,038
-400,452	-92,603	0,187	0,038
-399,438	-21,698	-0,066	0,029
-398,423	-34,909	0,110	-0,043
-397,409	-47,804	-0,118	-0,041
-396,394	389,066	0,080	-0,120
-395,379	23,865	-0,089	0,053
-394,365	-200,000	0,006	-0,038
-393,350	153,626	-0,039	0,039
-392,336	-13,542	0,119	-0,056
-391,321	82,264	-0,066	-0,052
-390,306	713,454	-0,040	-0,077
-389,292	800,000	-0,018	0,047
-388,277	28,148	0,042	0,025
-387,263	290,186	-0,026	-0,035
-386,248	-15,697	0,175	-0,081
-385,233	261,937	0,084	0,106
-384,219	83,128	0,075	0,060
-383,204	-126,317	-0,152	0,016
-382,190	599,416	-0,024	-0,044
-381,175	-200,000	-0,045	0,238
-380,160	800,000	0,038	0,112
-379,146	-148,721	0,079	0,005
-378,131	-125,091	0,081	-0,009
-377,117	34,493	0,100	0,063
-376,102	37,702	-0,095	-0,061
-375,088	800,000	0,061	-0,166
-374,073	49,097	-0,107	-0,073
-373,058	251,059	0,081	0,100
-372,044	187,610	-0,024	0,026
-371,029	800,000	0,022	0,056
-370,015	-200,000	-0,017	-0,075
-369,000	-44,645	0,101	0,037
-367,985	-146,528	-0,155	-0,010
-366,971	-200,000	-0,025	-0,175
-365,956	-126,103	-0,084	0,009
-364,942	-184,906	0,092	0,001
-363,927	16,727	0,097	-0,056
-362,912	800,000	-0,017	-0,052
-361,898	-200,000	-0,010	-0,069
-360,883	-200,000	-0,014	-0,077
-359,869	-200,000	-0,003	-0,022
-358,854	203,728	0,033	0,038
-357,839	593,243	-0,060	0,108
-356,825	-200,000	0,004	-0,089
-355,810	9,331	0,104	-0,057
-354,796	295,361	0,091	-0,122
-353,781	800,000	0,051	-0,149
-352,766	40,623	-0,130	-0,085
-351,752	800,000	0,057	0,172
-350,737	591,117	-0,069	0,124
-349,723	69,556	-0,143	0,107
-348,708	218,758	-0,018	0,021
-347,693	-30,480	-0,089	-0,037
-346,679	-200,000	0,009	-0,084
-345,664	246,968	-0,077	-0,094
-344,650	800,000	-0,040	-0,088
-343,635	-200,000	-0,034	-0,136
-342,620	-200,000	0,016	0,078
-341,606	800,000	-0,020	-0,064
-340,591	177,511	-0,075	-0,079
-339,577	-200,000	-0,025	-0,125
-338,562	-36,762	-0,104	-0,040
-337,548	-51,489	-0,072	-0,024
-336,533	-200,000	-0,005	0,018
-335,518	576,855	-0,053	0,095
-334,504	219,368	-0,069	-0,080
-333,489	-40,812	-0,065	-0,024
-332,475	800,000	0,051	-0,161
-331,460	-110,850	-0,137	-0,020
-330,445	-166,751	0,119	-0,004
-329,431	800,000	0,020	0,041
-328,416	307,466	0,029	-0,039
-327,402	-200,000	-0,016	-0,082
-326,387	-10,732	-0,076	-0,036
-325,372	-200,000	0,022	-0,151
-324,358	800,000	-0,045	0,101
-323,343	205,742	0,038	0,043
-322,329	68,345	0,012	0,009
-321,314	-151,259	-0,095	0,005
-320,299	-200,000	0,003	0,135
-319,285	-61,195	-0,146	0,044
-318,270	329,466	0,033	0,047
-317,256	72,529	-0,118	-0,089
-316,241	-200,000	-0,022	-0,141
-315,226	-142,921	-0,156	-0,011
-314,212	65,475	0,199	0,146
-313,197	262,891	0,122	0,155
-312,183	108,412	-0,150	-0,130
-311,168	-17,340	-0,069	-0,031
-310,153	-91,520	-0,067	-0,014
-309,139	328,243	-0,043	-0,060
-308,124	110,085	0,002	0,002
-307,110	112,659	0,127	0,112
-306,095	-17,856	0,021	0,010
-305,080	-200,000	-0,020	0,068
-304,066	-200,000	-0,006	-0,020
-303,051	50,177	-0,029	0,020
-302,037	78,871	0,026	-0,020
-301,022	137,092	0,023	0,022
-300,008	193,681	-0,101	-0,111
-298,993	-138,319	0,009	0,001
-297,978	-200,000	0,003	0,026
-296,964	-142,730	-0,073	-0,005
-295,949	63,735	0,211	-0,153
-294,935	234,889	0,071	0,086
-293,920	33,437	-0,156	-0,098
-292,905	-126,983	0,166	-0,017
-291,891	-120,151	-0,125	-0,015
-290,876	-200,000	-0,005	0,057
-289,862	782,843	0,046	0,091
-288,847	-200,000	-0,027	-0,151
-287,832	800,000	0,040	0,105
-286,818	-10,004	0,086	-0,041
-285,803	519,202	0,026	-0,044
-284,789	-200,000	-0,004	0,039
-283,774	-23,762	0,168	0,073
-282,759	639,915	0,024	-0,045
-281,745	800,000	-0,075	-0,162
-280,730	-176,485	-0,081	0,001
-279,716	-200,000	0,007	0,067
-278,701	-13,794	0,112	-0,052
-277,686	-138,035	0,088	-0,007
-276,672	-64,423	0,150	0,044
-275,657	-29,257	0,063	0,026
-274,643	-200,000	-0,031	-0,102
-273,628	85,282	-0,065	0,052
-272,613	-5,480	0,095	0,047
-271,599	-19,254	0,118	0,053
-270,584	304,851	-0,029	0,039
-269,570	188,717	0,015	0,017
-268,555	-79,329	0,050	-0,012
-267,540	210,403	0,025	0,028
-266,526	25,294	-0,079	-0,047
-265,511	136,500	-0,053	0,050
-264,497	800,000	-0,057	0,123
-263,482	606,583	-0,048	0,087
-262,467	-200,000	0,029	0,111
-261,453	-200,000	-0,004	-0,035
-260,438	-119,375	-0,127	-0,016
-259,424	-200,000	-0,010	0,056
-258,409	-82,178	0,131	-0,031
-257,395	-200,000	-0,001	-0,041
-256,380	56,842	0,099	-0,070
-255,365	611,291	0,041	0,074
-254,351	-200,000	0,025	0,126
-253,336	270,522	0,045	-0,057
-252,322	51,840	-0,112	-0,077
-251,307	800,000	-0,048	-0,153
-250,292	258,266	-0,038	0,048
-249,278	800,000	0,057	0,137
-248,263	800,000	-0,034	0,108
-247,249	67,362	0,079	-0,058
-246,234	328,816	-0,076	0,106
-245,219	-60,058	0,046	0,014
-244,205	115,754	-0,048	0,043
-243,190	778,946	0,062	0,124
-242,176	390,163	0,018	-0,027
-241,161	800,000	0,031	-0,074
-240,146	261,863	0,028	0,035
-239,132	800,000	0,035	-0,074
-238,117	24,902	-0,112	-0,067
-237,103	349,489	0,115	-0,165
-236,088	-200,000	-0,026	-0,125
-235,073	800,000	0,042	0,100
-234,059	-10,767	-0,011	0,005
-233,044	-200,000	0,013	-0,055
-232,030	164,780	0,143	0,146
-231,015	800,000	-0,023	-0,063
-230,000	-72,227	0,053	-0,014
-228,986	-200,000	0,020	-0,082
-227,971	-200,000	0,031	-0,106
-226,957	-127,120	-0,056	-0,006
-225,942	-200,000	0,009	-0,071
-224,927	-200,000	0,005	-0,082
-223,913	139,631	-0,086	-0,082
-222,898	123,408	-0,092	-0,084
-221,884	-137,502	0,183	-0,015
-220,869	346,554	-0,013	0,018
-219,855	-43,174	0,060	0,022
-218,840	-157,825	0,256	0,011
-217,825	415,776	-0,068	-0,105
-216,811	464,492	-0,065	-0,105
-215,796	500,721	-0,068	-0,114
-214,782	-31,164	-0,027	0,011
-213,767	682,485	-0,082	0,155
-212,752	-200,000	0,000	0,061
-211,738	48,666	-0,076	-0,052
-210,723	800,000	0,075	0,162
-209,709	23,849	0,070	0,042
-208,694	10,280	0,068	-0,037
-207,679	462,644	-0,102	-0,165
-206,665	-72,931	-0,143	0,038
-205,650	-200,000	0,031	-0,106
-204,636	800,000	0,046	0,118
-203,621	-163,840	0,151	-0,005
-202,606	800,000	0,051	-0,121
-201,592	-3,837	0,007	-0,004
-200,577	294,484	0,024	-0,031
-199,563	-50,376	0,150	-0,051
-198,548	199,229	-0,057	0,063
-197,533	723,213	0,060	0,115
-196,519	800,000	-0,062	0,142
-195,504	800,000	-0,051	-0,115
-194,490	-200,000	0,038	0,142
-193,475	309,679	0,049	0,066
-192,460	50,861	-0,036	-0,025
-191,446	-63,406	0,119	0,035
-190,431	-200,000	-0,012	-0,068
-189,417	-200,000	0,026	-0,096
-188,402	461,947	-0,049	-0,078
-187,387	-176,967	-0,247	0,004
-186,373	-104,862	0,042	0,007
-185,358	569,610	0,028	0,050
-184,344	-127,340	-0,107	0,011
-183,329	-200,000	0,030	0,128
-182,315	800,000	0,051	-0,123
-181,300	-70,853	0,048	-0,013
-180,285	174,706	0,021	-0,022
-179,271	30,409	-0,073	-0,045
-178,256	-200,000	-0,005	0,025
-177,242	-85,956	0,075	-0,017
-176,227	-200,000	0,001	0,008
-175,212	-72,162	-0,032	0,008
-174,198	166,011	-0,058	-0,060
-173,183	800,000	-0,024	-0,066
-172,169	231,528	0,032	-0,037
-171,154	800,000	0,065	-0,156
-170,139	97,717	0,049	0,040
-169,125	800,000	0,033	0,066
-168,110	35,011	0,085	0,054
-167,096	800,000	-0,053	-0,148
-166,081	510,824	0,020	-0,034
-165,066	538,527	-0,057	-0,099
-164,052	800,000	-0,046	-0,118
-163,037	557,961	-0,063	-0,110
-162,023	24,330	-0,124	0,074
-161,008	-61,623	-0,106	0,032
-159,993	713,829	-0,023	0,045
-158,979	134,376	-0,086	0,080
-157,964	-119,259	-0,083	0,010
-156,950	800,000	-0,029	-0,089
-155,935	-200,000	-0,013	0,080
-154,920	-5,160	0,065	-0,032
-153,906	-51,820	0,026	0,009
-152,891	-134,452	-0,098	-0,009
-151,877	529,319	0,049	-0,084
-150,862	-126,979	-0,083	0,009
-149,847	800,000	-0,016	0,048
-148,833	-65,721	-0,052	-0,015
-147,818	800,000	-0,040	-0,100
-146,804	43,716	0,023	0,015
-145,789	800,000	-0,058	0,161
-144,775	54,606	-0,079	-0,055
-143,760	-141,540	-0,049	-0,004
-142,745	676,607	0,029	0,054
-141,731	-200,000	0,053	0,191
-140,716	-74,035	-0,070	-0,018
-139,702	800,000	-0,048	0,119
-138,687	800,000	0,015	0,033
-137,672	-35,931	0,099	0,039
-136,658	52,124	-0,094	-0,065
-135,643	-11,328	0,041	-0,019
-134,629	350,942	-0,055	-0,079
-133,614	800,000	0,025	-0,078
-132,599	584,705	0,047	0,083
-131,585	120,271	-0,016	0,015
-130,570	-19,967	-0,065	-0,029
-129,556	-51,170	-0,069	0,023
-128,541	-51,243	-0,049	-0,016
-127,526	118,841	-0,055	0,049
-126,512	-155,591	-0,061	0,003
-125,497	142,033	-0,084	0,081
-124,483	-98,057	-0,067	0,012
-123,468	800,000	-0,077	0,185
-122,453	-200,000	0,007	0,053
-121,439	-101,498	0,043	-0,007
-120,424	-11,424	-0,142	0,067
-119,410	800,000	0,002	0,005
-118,395	-200,000	-0,021	0,067
