DTS Sentinel unit serial number:	SN410029Multiplexer serial number:	ORYXHardware model number:	OX2-SRSoftware version number:	ORYX F/W v4,00 Oryx Data Collector v3.7.2.0data status	okinstallation	B5 Nyhavnadifferential loss correction	single-endedforward channel	channel 2reverse channel	N/Adate	2023/12/14time	08:32:13forward acquisition time	300,00reverse acquisition time	0,00gamma	499,1914k internal	0,3160k external	0,3160temperature offset calibration	1,0000default loss term (dB/km)	0,3820temperature slope calibration	1,0000multiplexer offset coefficient	1,0000multiplexer slope coefficient	1,0000fibre end	0,00T internal ref (°C)	7,05T ext. ref 1 (°C)	-9,16T ext. ref 2 (°C)	-9,22length (m)	temperature (°C)	Stokes	anti-Stokes-744,400	159,402	0,121	0,124
-743,385	-129,477	-0,390	-0,039
-742,371	-14,040	0,186	0,088
-741,356	-118,398	-0,399	-0,052
-740,342	-114,855	0,227	0,032
-739,327	-110,436	-0,456	-0,069
-738,312	247,302	0,078	0,098
-737,298	-182,720	-0,489	0,006
-736,283	-63,725	0,190	0,057
-735,269	-104,793	-0,332	-0,056
-734,254	-50,382	0,142	-0,049
-733,239	-42,629	-0,609	-0,227
-732,225	-17,264	0,308	0,142
-731,210	-126,549	0,161	-0,017
-730,196	-170,395	0,033	-0,001
-729,181	-200,000	0,004	0,028
-728,167	-200,000	-0,020	0,134
-727,152	618,715	0,055	0,102
-726,137	-200,000	-0,001	0,018
-725,123	106,132	-0,122	-0,107
-724,108	-99,834	-0,150	-0,027
-723,094	232,052	-0,086	-0,104
-722,079	228,349	-0,048	-0,058
-721,064	509,832	-0,074	0,126
-720,050	800,000	0,031	-0,074
-719,035	-69,411	-0,066	-0,018
-718,021	463,524	-0,029	-0,048
-717,006	246,993	-0,063	-0,078
-715,991	-200,000	0,001	-0,263
-714,977	565,616	-0,038	-0,068
-713,962	90,622	-0,102	-0,084
-712,948	-58,396	0,047	-0,015
-711,933	800,000	-0,038	0,086
-710,918	800,000	0,027	-0,066
-709,904	346,657	0,044	-0,064
-708,889	800,000	0,026	-0,065
-707,875	34,232	-0,098	0,062
-706,860	78,422	0,143	0,113
-705,845	-35,680	0,097	0,039
-704,831	239,881	0,060	0,073
-703,816	-200,000	-0,030	-0,158
-702,802	800,000	-0,017	0,051
-701,787	8,662	-0,104	-0,057
-700,772	76,923	-0,062	0,049
-699,758	-62,789	-0,068	0,021
-698,743	534,624	0,085	0,148
-697,729	65,495	0,070	0,052
-696,714	286,492	-0,071	-0,094
-695,699	-112,533	0,091	0,013
-694,685	115,639	-0,068	-0,061
-693,670	-200,000	-0,031	-0,122
-692,656	-200,000	0,025	0,100
-691,641	349,792	-0,112	-0,163
-690,627	-200,000	-0,015	0,087
-689,612	800,000	-0,011	-0,030
-688,597	800,000	-0,078	-0,185
-687,583	-200,000	-0,029	-0,152
-686,568	-200,000	-0,032	-0,111
-685,554	800,000	-0,052	0,107
-684,539	800,000	-0,014	0,046
-683,524	-64,982	0,190	0,056
-682,510	162,909	-0,041	-0,042
-681,495	-141,918	-0,141	0,010
-680,481	-24,008	-0,101	0,044
-679,466	-200,000	-0,000	0,004
-678,451	-164,183	-0,039	-0,001
-677,437	800,000	-0,017	0,043
-676,422	-200,000	0,000	-0,032
-675,408	24,330	-0,104	0,063
-674,393	-176,757	-0,153	0,003
-673,378	-6,755	-0,140	-0,070
-672,364	16,547	-0,080	-0,046
-671,349	41,234	-0,057	-0,038
-670,335	24,100	0,110	0,067
-669,320	181,000	0,054	0,058
-668,305	-121,953	0,014	-0,002
-667,291	381,642	0,021	0,032
-666,276	99,284	-0,081	0,068
-665,262	-112,917	-0,107	-0,015
-664,247	294,612	-0,034	0,046
-663,232	91,895	-0,023	-0,019
-662,218	138,050	0,082	-0,079
-661,203	-125,283	-0,041	-0,004
-660,189	-200,000	0,007	0,064
-659,174	-104,504	-0,071	-0,012
-658,159	59,895	0,092	-0,067
-657,145	-200,000	-0,015	0,212
-656,130	145,056	0,070	0,069
-655,116	302,690	0,079	0,107
-654,101	134,483	-0,072	-0,068
-653,086	-21,358	0,129	0,057
-652,072	-200,000	-0,014	-0,072
-651,057	-91,300	-0,099	0,021
-650,043	554,938	-0,031	-0,054
-649,028	-58,322	0,138	-0,044
-648,014	-174,847	0,022	-0,000
-646,999	353,018	0,034	0,049
-645,984	35,904	-0,082	-0,053
-644,970	-46,333	-0,081	0,029
-643,955	695,856	-0,062	-0,121
-642,941	43,561	-0,082	0,055
-641,926	166,207	0,078	-0,081
-640,911	519,168	-0,034	-0,058
-639,897	-200,000	0,000	-0,059
-638,882	-200,000	-0,006	-0,022
-637,868	387,370	0,023	-0,036
-636,853	-200,000	-0,006	0,076
-635,838	-35,028	0,112	0,045
-634,824	-122,156	-0,120	-0,014
-633,809	-200,000	-0,026	0,126
-632,795	30,387	-0,077	0,048
-631,780	-200,000	-0,007	-0,024
-630,765	-103,067	-0,138	-0,024
-629,751	-200,000	0,012	-0,153
-628,736	-97,705	-0,008	0,002
-627,722	-200,000	-0,003	0,012
-626,707	-42,640	0,087	-0,032
-625,692	-200,000	0,008	-0,035
-624,678	-102,690	0,162	-0,028
-623,663	-200,000	-0,005	-0,021
-622,649	-200,000	0,022	-0,122
-621,634	221,822	-0,042	0,050
-620,619	-200,000	0,016	0,115
-619,605	142,156	-0,014	-0,014
-618,590	144,168	-0,050	-0,049
-617,576	-33,029	-0,037	-0,015
-616,561	0,249	-0,048	-0,025
-615,546	800,000	0,016	-0,042
-614,532	-200,000	-0,011	-0,048
-613,517	194,475	-0,062	0,070
-612,503	237,542	-0,088	-0,107
-611,488	-95,667	0,048	0,009
-610,474	-200,000	-0,013	0,226
-609,459	23,518	0,101	0,061
-608,444	99,707	-0,075	-0,063
-607,430	-200,000	-0,004	-0,125
-606,415	-167,610	0,025	-0,001
-605,401	-157,900	-0,048	-0,002
-604,386	67,941	-0,152	0,114
-603,371	-200,000	0,009	-0,074
-602,357	739,835	-0,042	-0,083
-601,342	46,724	-0,097	-0,066
-600,328	59,870	0,030	0,022
-599,313	-126,601	0,048	-0,005
-598,298	-200,000	0,031	-0,103
-597,284	-200,000	0,013	0,058
-596,269	57,494	0,033	-0,024
-595,255	168,262	0,034	0,035
-594,240	800,000	0,025	0,061
-593,225	-11,466	-0,082	-0,039
-592,211	1,914	-0,083	-0,044
-591,196	96,068	0,005	0,004
-590,182	-200,000	0,014	0,108
-589,167	90,327	0,091	0,075
-588,152	234,969	0,091	-0,111
-587,138	119,796	0,038	0,034
-586,123	99,374	-0,134	-0,114
-585,109	-200,000	0,019	0,070
-584,094	-200,000	-0,003	-0,018
-583,079	397,627	-0,016	0,025
-582,065	800,000	-0,065	0,143
-581,050	-143,600	0,189	0,013
-580,036	-46,285	-0,118	-0,042
-579,021	800,000	-0,028	0,086
-578,006	-200,000	0,005	0,089
-576,992	588,045	0,036	-0,065
-575,977	500,546	-0,059	-0,100
-574,963	-77,954	0,063	-0,016
-573,948	93,588	-0,009	-0,008
-572,934	473,834	-0,033	0,054
-571,919	-200,000	0,024	-0,129
-570,904	87,069	-0,013	-0,010
-569,890	-200,000	0,009	-0,085
-568,875	-42,082	0,012	-0,004
-567,861	277,568	-0,046	0,061
-566,846	-50,956	-0,022	0,008
-565,831	-200,000	0,002	-0,128
-564,817	59,077	0,033	0,024
-563,802	22,973	-0,118	-0,070
-562,788	800,000	0,042	-0,103
-561,773	800,000	-0,053	0,141
-560,758	-200,000	0,012	-0,066
-559,744	-25,455	-0,016	-0,007
-558,729	8,861	-0,124	0,068
-557,715	379,628	0,076	0,114
-556,700	756,872	0,015	-0,030
-555,685	-120,643	-0,077	0,009
-554,671	800,000	0,089	-0,208
-553,656	-36,018	0,091	0,036
-552,642	800,000	0,003	0,007
-551,627	-200,000	0,034	0,193
-550,612	800,000	0,018	-0,052
-549,598	800,000	0,025	-0,054
-548,583	322,083	-0,042	0,059
-547,569	53,987	0,093	0,066
-546,554	53,802	0,045	-0,031
-545,539	374,400	-0,055	-0,082
-544,525	186,216	0,077	0,084
-543,510	247,152	-0,065	-0,080
-542,496	-49,525	0,144	0,050
-541,481	416,211	0,114	0,178
-540,466	-200,000	-0,028	-0,149
-539,452	90,847	0,007	0,005
-538,437	-70,956	0,079	-0,022
-537,423	198,454	0,007	-0,008
-536,408	-200,000	-0,002	0,015
-535,393	-58,794	0,059	0,019
-534,379	89,066	-0,089	-0,072
-533,364	80,839	0,102	0,080
-532,350	800,000	-0,046	-0,098
-531,335	-70,425	-0,080	0,022
-530,321	-112,695	0,111	0,016
-529,306	-200,000	0,038	0,197
-528,291	-111,480	-0,167	-0,025
-527,277	674,642	-0,013	-0,024
-526,262	2,430	0,089	0,047
-525,248	659,131	0,042	-0,079
-524,233	129,814	-0,144	0,135
-523,218	-53,147	0,082	-0,027
-522,204	-66,800	-0,087	0,025
-521,189	-77,117	-0,123	0,031
-520,175	-46,860	0,072	0,025
-519,160	800,000	0,040	-0,094
-518,145	38,361	-0,026	0,017
-517,131	-200,000	0,049	0,175
-516,116	-161,383	-0,186	0,007
-515,102	56,627	-0,083	-0,059
-514,087	626,013	-0,029	-0,054
-513,072	-200,000	-0,016	-0,142
-512,058	449,639	0,009	-0,015
-511,043	-200,000	0,008	-0,104
-510,029	-200,000	-0,005	0,058
-509,014	197,525	0,018	-0,020
-507,999	-200,000	-0,024	0,083
-506,985	-200,000	-0,047	-0,225
-505,970	-200,000	0,001	0,092
-504,956	-91,230	-0,112	-0,023
-503,941	-200,000	0,007	0,065
-502,926	800,000	0,034	0,094
-501,912	161,122	0,092	0,094
-500,897	-192,921	-0,044	-0,000
-499,883	-200,000	-0,007	-0,023
-498,868	-19,472	-0,070	-0,031
-497,853	553,611	-0,036	0,063
-496,839	-108,558	-0,063	0,010
-495,824	-71,675	0,046	0,012
-494,810	-2,162	0,037	0,019
-493,795	-200,000	-0,004	-0,023
-492,781	-142,411	-0,089	-0,006
-491,766	-119,680	-0,088	-0,011
-490,751	-200,000	0,003	0,078
-489,737	-200,000	0,017	0,108
-488,722	134,658	0,120	0,114
-487,708	-200,000	-0,013	0,070
-486,693	-200,000	-0,040	-0,130
-485,678	-18,383	-0,059	-0,027
-484,664	202,049	0,073	0,083
-483,649	67,765	-0,120	0,089
-482,635	686,586	0,053	-0,102
-481,620	357,560	-0,073	0,106
-480,605	42,237	-0,045	0,030
-479,591	440,109	0,035	0,056
-478,576	-200,000	0,003	0,056
-477,562	-200,000	-0,030	-0,116
-476,547	800,000	0,017	-0,035
-475,532	-200,000	-0,002	-0,059
-474,518	188,715	-0,057	0,063
-473,503	-45,525	0,052	0,019
-472,489	800,000	-0,034	0,090
-471,474	212,548	-0,045	0,052
-470,459	800,000	0,061	-0,125
-469,445	800,000	-0,020	-0,058
-468,430	204,339	-0,106	-0,119
-467,416	-21,414	0,106	-0,047
-466,401	318,210	0,095	0,132
-465,386	507,661	0,015	0,026
-464,372	-200,000	0,015	0,082
-463,357	-200,000	0,001	0,052
-462,343	-42,423	-0,092	0,034
-461,328	20,418	0,097	-0,057
-460,313	800,000	-0,009	0,027
-459,299	-94,459	-0,070	-0,014
-458,284	511,790	0,048	0,082
-457,270	-121,446	0,153	-0,018
-456,255	-200,000	0,015	0,143
-455,241	167,515	-0,082	0,085
-454,226	-41,458	0,133	-0,050
-453,211	-200,000	0,004	-0,080
-452,197	-63,847	0,018	-0,005
-451,182	-200,000	0,010	0,066
-450,168	4,853	-0,126	-0,067
-449,153	-94,621	0,080	0,016
-448,138	37,324	0,056	-0,036
-447,124	770,335	-0,033	-0,066
-446,109	-29,919	0,099	-0,041
-445,095	570,339	0,007	-0,012
-444,080	-104,387	0,056	0,009
-443,065	-134,893	-0,028	0,002
-442,051	-59,570	-0,144	0,045
-441,036	136,480	-0,036	0,035
-440,022	-200,000	0,011	0,247
-439,007	9,222	-0,124	-0,068
-437,992	488,675	0,054	0,090
-436,978	800,000	0,041	0,113
-435,963	-133,094	0,074	0,007
-434,949	-200,000	0,007	-0,087
-433,934	-110,978	-0,108	-0,016
-432,919	-200,000	0,011	-0,133
-431,905	-200,000	-0,010	0,098
-430,890	190,440	-0,043	0,047
-429,876	-200,000	0,017	0,075
-428,861	26,617	0,069	0,042
-427,846	544,937	-0,043	0,075
-426,832	5,396	-0,096	-0,051
-425,817	800,000	0,057	-0,181
-424,803	-200,000	0,033	0,107
-423,788	69,126	0,002	-0,001
-422,773	221,447	0,091	-0,106
-421,759	609,303	0,074	0,135
-420,744	450,650	-0,021	-0,034
-419,730	-200,000	0,030	0,123
-418,715	-200,000	-0,004	0,081
-417,701	109,868	-0,076	-0,066
-416,686	-17,807	-0,127	-0,058
-415,671	-87,631	0,118	0,026
-414,657	-200,000	-0,013	0,112
-413,642	-0,783	0,088	0,045
-412,628	-200,000	-0,019	-0,126
-411,613	-0,392	0,158	-0,081
-410,598	10,860	0,024	-0,013
-409,584	64,784	-0,027	-0,020
-408,569	-200,000	0,015	0,080
-407,555	216,529	-0,068	0,078
-406,540	4,669	0,057	-0,030
-405,525	-101,830	-0,052	0,009
-404,511	-200,000	0,000	-0,143
-403,496	391,129	0,041	-0,063
-402,482	421,060	0,046	0,071
-401,467	-120,745	-0,112	-0,014
-400,452	-70,347	0,075	-0,021
-399,438	-200,000	0,007	0,119
-398,423	36,517	-0,053	-0,034
-397,409	-200,000	0,031	-0,110
-396,394	-95,389	-0,044	-0,009
-395,379	-54,550	0,025	0,008
-394,365	-200,000	-0,024	0,116
-393,350	98,121	-0,093	0,078
-392,336	130,181	0,069	0,064
-391,321	134,620	0,042	-0,039
-390,306	485,252	-0,023	0,038
-389,292	15,110	0,127	-0,072
-388,277	-40,690	-0,057	0,021
-387,263	-25,106	0,091	-0,039
-386,248	-77,056	-0,106	0,027
-385,233	800,000	-0,033	0,072
-384,219	315,475	0,019	0,026
-383,204	431,460	-0,026	0,040
-382,190	-64,460	-0,086	0,025
-381,175	48,941	-0,024	0,016
-380,160	-200,000	0,023	0,078
-379,146	-200,000	-0,001	-0,039
-378,131	800,000	-0,071	0,158
-377,117	-92,046	0,097	0,020
-376,102	-134,549	-0,212	0,019
-375,088	-46,436	0,051	-0,018
-374,073	-132,310	-0,048	-0,004
-373,058	-190,329	0,103	0,001
-372,044	55,068	0,045	0,031
-371,029	800,000	0,022	-0,045
-370,015	107,252	0,015	-0,013
-369,000	41,244	-0,096	-0,063
-367,985	45,612	-0,077	-0,051
-366,971	-200,000	-0,002	0,038
-365,956	-129,146	0,080	-0,008
-364,942	-121,406	0,052	0,006
-363,927	452,204	0,059	0,095
-362,912	347,119	-0,018	0,026
-361,898	-144,063	0,039	-0,003
-360,883	6,114	-0,108	0,058
-359,869	800,000	-0,061	-0,170
-358,854	800,000	-0,049	0,107
-357,839	720,424	-0,060	0,117
-356,825	273,615	0,094	0,121
-355,810	-110,102	0,098	0,015
-354,796	800,000	0,011	-0,030
-353,781	-192,817	-0,116	0,001
-352,766	-200,000	0,025	0,080
-351,752	-86,625	0,100	-0,022
-350,737	-19,871	0,042	0,019
-349,723	800,000	-0,020	-0,061
-348,708	37,429	0,148	0,095
-347,693	800,000	0,021	-0,051
-346,679	800,000	-0,028	-0,057
-345,664	-150,493	-0,029	0,002
-344,650	-200,000	0,005	0,036
-343,635	-0,690	0,037	0,019
-342,620	-200,000	0,007	0,027
-341,606	-13,060	0,081	0,038
-340,591	800,000	0,025	0,075
-339,577	-163,892	-0,082	-0,003
-338,562	-87,460	-0,062	-0,013
-337,548	444,720	-0,051	-0,081
-336,533	-200,000	-0,009	0,123
-335,518	-200,000	-0,037	0,135
-334,504	800,000	-0,004	0,008
-333,489	699,024	-0,044	0,084
-332,475	299,859	0,046	-0,062
-331,460	25,691	-0,092	-0,055
-330,445	76,499	-0,034	0,026
-329,431	-12,727	0,083	-0,039
-328,416	329,897	0,027	0,037
-327,402	-90,292	0,137	-0,029
-326,387	-7,938	0,058	0,028
-325,372	800,000	-0,025	0,053
-324,358	-159,286	-0,056	-0,002
-323,343	301,711	-0,078	0,105
-322,329	-18,919	-0,082	0,037
-321,314	157,688	0,015	0,015
-320,299	-200,000	0,014	0,084
-319,285	120,254	-0,069	-0,062
-318,270	-45,291	0,065	-0,023
-317,256	145,416	-0,028	-0,027
-316,241	80,813	0,053	-0,041
-315,226	86,128	0,029	-0,023
-314,212	-89,181	0,130	0,027
-313,197	-200,000	0,006	-0,171
-312,183	-200,000	-0,003	-0,045
-311,168	-8,727	-0,131	-0,064
-310,153	271,702	0,085	-0,108
-309,139	-200,000	0,030	-0,131
-308,124	691,401	-0,038	0,073
-307,110	-104,105	0,117	-0,020
-306,095	46,858	0,083	0,056
-305,080	-74,742	-0,087	-0,022
-304,066	435,660	-0,048	-0,076
-303,051	176,972	0,092	-0,098
-302,037	40,134	0,081	-0,053
-301,022	-57,073	-0,152	0,048
-300,008	-91,380	0,193	-0,039
-298,993	480,883	0,013	-0,021
-297,978	-200,000	-0,029	0,118
-296,964	800,000	0,035	-0,100
-295,949	-200,000	-0,045	-0,166
-294,935	-200,000	-0,007	0,032
-293,920	680,156	0,053	-0,100
-292,905	-138,146	0,186	-0,015
-291,891	-134,528	-0,072	0,006
-290,876	645,451	0,051	-0,094
-289,862	-200,000	-0,003	-0,209
-288,847	800,000	-0,011	0,035
-287,832	27,729	-0,158	-0,096
-286,818	144,948	0,130	0,126
-285,803	114,334	-0,054	0,048
-284,789	-132,302	0,068	-0,006
-283,774	106,870	-0,105	-0,090
-282,759	-56,537	-0,097	0,031
-281,745	-200,000	-0,004	0,024
-280,730	-173,977	-0,166	-0,003
-279,716	800,000	0,032	-0,076
-278,701	-111,501	0,069	-0,010
-277,686	-24,344	0,078	-0,034
-276,672	-200,000	0,003	-0,030
-275,657	-200,000	0,021	-0,150
-274,643	-18,906	-0,098	-0,044
-273,628	-106,027	0,026	0,004
-272,613	228,926	0,031	0,036
-271,599	-74,807	-0,007	-0,002
-270,584	-83,861	0,059	0,013
-269,570	-103,078	-0,026	-0,004
-268,555	329,376	-0,046	-0,064
-267,540	-200,000	-0,009	-0,071
-266,526	800,000	-0,046	-0,130
-265,511	800,000	-0,079	-0,172
-264,497	228,562	0,087	0,102
-263,482	-54,246	0,095	0,031
-262,467	-200,000	-0,001	-0,062
-261,453	184,993	-0,028	0,030
-260,438	-89,769	-0,024	-0,005
-259,424	-91,943	-0,097	-0,020
-258,409	-178,830	-0,095	-0,002
-257,395	-46,160	0,117	0,041
-256,380	79,724	-0,039	0,030
-255,365	-200,000	-0,008	0,047
-254,351	-200,000	-0,002	0,028
-253,336	-8,667	0,053	-0,025
-252,322	-200,000	-0,006	-0,025
-251,307	-200,000	-0,008	0,071
-250,292	-131,928	0,123	0,011
-249,278	345,146	-0,025	-0,036
-248,263	157,004	0,097	0,097
-247,249	-48,124	-0,062	-0,021
-246,234	705,412	0,034	-0,065
-245,219	99,056	0,040	-0,033
-244,205	199,124	0,033	-0,036
-243,190	21,742	-0,056	-0,033
-242,176	-109,212	0,064	0,010
-241,161	-200,000	-0,018	-0,110
-240,146	-200,000	0,014	-0,056
-239,132	-130,660	-0,167	-0,016
-238,117	305,660	0,062	-0,083
-237,103	248,509	-0,096	-0,117
-236,088	90,389	0,032	0,026
-235,073	245,467	-0,033	-0,041
-234,059	-200,000	-0,041	-0,177
-233,044	-200,000	0,018	-0,090
-232,030	31,435	0,093	-0,058
-231,015	734,938	0,065	-0,127
-230,000	381,985	0,021	-0,032
-228,986	119,847	0,075	-0,067
-227,971	53,758	-0,047	0,032
-226,957	213,944	0,064	-0,073
-225,942	-113,093	0,118	0,017
-224,927	-98,879	-0,108	-0,020
-223,913	800,000	-0,038	-0,108
-222,898	-200,000	-0,002	0,015
-221,884	75,408	-0,080	0,061
-220,869	304,595	-0,127	0,171
-219,855	-14,598	0,064	0,029
-218,840	103,174	-0,053	0,044
-217,825	-13,854	0,173	-0,080
-216,811	432,066	0,016	-0,025
-215,796	643,052	0,022	0,042
-214,782	-200,000	0,026	-0,127
-213,767	-40,727	0,093	-0,035
-212,752	-200,000	0,005	0,061
-211,738	-101,026	-0,054	0,009
-210,723	800,000	-0,035	-0,074
-209,709	-200,000	0,002	-0,097
-208,694	-183,637	0,050	-0,001
-207,679	-200,000	0,006	0,048
-206,665	237,601	0,089	0,106
-205,650	-200,000	0,042	0,163
-204,636	41,538	-0,026	0,017
-203,621	-88,447	-0,103	0,022
-202,606	595,215	0,057	-0,102
-201,592	-200,000	-0,025	-0,102
-200,577	800,000	-0,035	-0,079
-199,563	-200,000	-0,010	0,183
-198,548	711,643	0,048	0,092
-197,533	593,827	0,051	-0,092
-196,519	-200,000	0,005	0,020
-195,504	-59,636	-0,135	0,042
-194,490	-200,000	0,021	0,077
-193,475	-200,000	-0,024	0,138
-192,460	312,411	-0,020	-0,027
-191,446	-200,000	0,008	0,033
-190,431	184,588	0,087	-0,093
-189,417	676,938	-0,083	-0,155
-188,402	800,000	-0,034	0,094
-187,387	33,116	-0,001	0,000
-186,373	-57,506	0,026	-0,008
-185,358	-200,000	0,048	0,186
-184,344	280,105	0,077	-0,100
-183,329	800,000	0,038	0,078
-182,315	-200,000	0,002	0,148
-181,300	800,000	0,024	0,049
-180,285	50,137	0,097	0,066
-179,271	-13,564	-0,158	-0,074
-178,256	170,550	-0,024	-0,024
-177,242	800,000	0,050	0,137
-176,227	-10,644	0,084	0,040
-175,212	179,171	0,062	-0,066
-174,198	195,859	-0,112	-0,123
-173,183	26,554	-0,038	-0,023
-172,169	-51,399	-0,064	0,022
-171,154	588,173	-0,074	-0,132
-170,139	800,000	-0,010	-0,028
-169,125	362,452	-0,083	0,121
-168,110	-200,000	0,013	-0,097
-167,096	-200,000	0,014	0,203
-166,081	-116,984	0,070	-0,009
-165,066	50,068	0,011	-0,007
-164,052	-200,000	0,005	0,071
-163,037	-39,660	0,056	0,021
-162,023	-129,314	-0,082	0,008
-161,008	-138,202	0,084	0,007
-159,993	45,793	-0,118	0,078
-158,979	800,000	-0,058	-0,135
-157,964	170,217	-0,066	0,068
-156,950	-59,103	-0,031	-0,010
-155,935	139,139	0,049	0,047
-154,920	-157,567	0,095	-0,004
-153,906	459,642	0,039	-0,062
-152,891	-200,000	-0,007	0,104
-151,877	50,914	-0,170	-0,116
-150,862	-111,044	-0,150	-0,022
-149,847	-100,212	0,167	-0,030
-148,833	726,872	0,008	-0,016
-147,818	-110,453	0,059	-0,009
-146,804	-200,000	0,010	-0,103
-145,789	471,563	-0,048	0,078
-144,775	0,889	-0,075	-0,039
-143,760	-96,111	-0,113	-0,021
-142,745	108,941	-0,047	0,040
-141,731	-4,558	-0,094	-0,046
-140,716	-200,000	-0,002	0,108
-139,702	-89,444	-0,107	0,022
-138,687	-200,000	0,059	0,218
-137,672	-200,000	-0,003	-0,009
-136,658	800,000	0,016	-0,042
-135,643	-200,000	-0,005	-0,153
-134,629	-123,579	-0,078	-0,009
-133,614	-161,936	0,186	-0,007
-132,599	181,695	-0,031	0,033
-131,585	-200,000	0,025	0,137
-130,570	26,917	-0,060	-0,036
-129,556	-79,030	0,088	-0,021
-128,541	-200,000	0,038	-0,144
-127,526	800,000	0,074	-0,149
-126,512	446,263	0,033	0,052
-125,497	-200,000	-0,005	0,136
-124,483	447,964	0,046	-0,074
-123,468	800,000	-0,047	0,135
-122,453	-198,742	-0,109	0,000
-121,439	-14,683	0,036	0,017
-120,424	124,741	-0,066	-0,059
