DTS Sentinel unit serial number:	SN410029Multiplexer serial number:	ORYXHardware model number:	OX2-SRSoftware version number:	ORYX F/W v4,00 Oryx Data Collector v3.7.2.0data status	okinstallation	B5 Nyhavnadifferential loss correction	single-endedforward channel	channel 2reverse channel	N/Adate	2023/12/12time	08:57:13forward acquisition time	300,00reverse acquisition time	0,00gamma	499,1914k internal	0,3158k external	0,3158temperature offset calibration	1,0000default loss term (dB/km)	0,3820temperature slope calibration	1,0000multiplexer offset coefficient	1,0000multiplexer slope coefficient	1,0000fibre end	0,00T internal ref (°C)	15,06T ext. ref 1 (°C)	-1,28T ext. ref 2 (°C)	-1,58length (m)	temperature (°C)	Stokes	anti-Stokes-744,400	-123,485	0,155	-0,018
-743,385	-46,365	-0,229	0,083
-742,371	-142,614	0,149	0,011
-741,356	-50,130	-0,323	-0,112
-740,342	-35,294	0,189	0,075
-739,327	-80,296	-0,247	-0,060
-738,312	2,739	0,081	0,043
-737,298	-70,461	-0,362	-0,100
-736,283	-16,172	0,115	0,054
-735,269	-97,534	-0,231	0,044
-734,254	144,350	0,057	0,056
-733,239	-140,441	-0,422	-0,032
-732,225	-53,434	0,075	-0,025
-731,210	-200,000	-0,014	-0,047
-730,196	-200,000	-0,014	-0,107
-729,181	-74,090	0,096	0,025
-728,167	443,177	0,038	-0,062
-727,152	800,000	-0,018	0,041
-726,137	-115,794	-0,044	-0,006
-725,123	305,981	-0,117	-0,161
-724,108	800,000	-0,014	0,043
-723,094	122,703	-0,138	-0,127
-722,079	273,747	0,058	-0,076
-721,064	-102,060	-0,012	0,002
-720,050	-6,757	-0,189	-0,094
-719,035	-139,061	-0,045	-0,004
-718,021	608,922	-0,116	0,214
-717,006	-86,199	-0,048	-0,011
-715,991	247,223	-0,117	-0,145
-714,977	-200,000	0,056	-0,192
-713,962	-17,067	0,178	0,082
-712,948	-124,596	-0,157	0,018
-711,933	800,000	0,012	-0,029
-710,918	-200,000	0,016	0,078
-709,904	-200,000	-0,009	-0,161
-708,889	6,643	-0,070	-0,038
-707,875	-120,595	-0,175	0,022
-706,860	-200,000	-0,022	0,102
-705,845	140,548	-0,038	-0,037
-704,831	-32,380	0,010	0,004
-703,816	-200,000	-0,001	0,115
-702,802	-85,087	0,055	-0,013
-701,787	-200,000	-0,010	-0,066
-700,772	800,000	-0,045	-0,122
-699,758	83,235	0,045	-0,036
-698,743	800,000	-0,035	0,082
-697,729	-94,096	0,085	0,017
-696,714	-200,000	-0,004	0,016
-695,699	-200,000	0,008	-0,115
-694,685	-181,099	-0,078	0,001
-693,670	347,084	-0,055	-0,080
-692,656	-133,303	0,071	0,007
-691,641	199,033	-0,114	-0,128
-690,627	-117,555	0,113	-0,015
-689,612	-52,499	-0,117	-0,040
-688,597	-200,000	0,007	-0,109
-687,583	-17,522	-0,147	-0,068
-686,568	46,906	-0,071	-0,049
-685,554	65,430	-0,019	0,014
-684,539	-116,967	-0,101	0,013
-683,524	248,859	0,134	-0,167
-682,510	-82,852	0,164	0,039
-681,495	-200,000	-0,001	0,055
-680,481	800,000	-0,034	-0,106
-679,466	70,017	-0,032	0,024
-678,451	-120,295	-0,029	-0,004
-677,437	-58,634	0,104	0,033
-676,422	-94,920	0,032	-0,006
-675,408	-200,000	-0,008	-0,177
-674,393	-111,665	-0,210	0,031
-673,378	800,000	0,046	-0,097
-672,364	325,441	-0,032	-0,045
-671,349	46,238	0,041	0,028
-670,335	43,040	-0,129	0,086
-669,320	-14,500	0,080	-0,038
-668,305	-10,290	-0,027	0,013
-667,291	-200,000	0,014	0,117
-666,276	244,809	-0,066	-0,082
-665,262	82,491	-0,119	-0,095
-664,247	-67,648	0,072	-0,020
-663,232	280,026	0,025	-0,032
-662,218	750,762	-0,044	0,089
-661,203	800,000	-0,055	0,138
-660,189	314,110	0,017	0,024
-659,174	800,000	0,036	-0,079
-658,159	-75,280	-0,144	-0,038
-657,145	296,859	-0,106	0,143
-656,130	358,758	-0,075	0,110
-655,116	800,000	-0,039	-0,080
-654,101	45,357	0,026	0,018
-653,086	-162,466	-0,049	-0,002
-652,072	-200,000	-0,006	-0,115
-651,057	24,642	-0,097	-0,059
-650,043	202,290	-0,091	-0,104
-649,028	124,917	0,140	-0,130
-648,014	-177,308	0,173	0,003
-646,999	-23,324	0,070	-0,031
-645,984	-34,777	0,086	-0,034
-644,970	-96,051	0,087	-0,017
-643,955	-163,173	-0,227	-0,008
-642,941	-200,000	0,001	-0,154
-641,926	-200,000	0,002	0,007
-640,911	-143,632	-0,061	0,004
-639,897	-200,000	0,034	0,116
-638,882	-137,901	0,034	0,003
-637,868	31,833	-0,059	0,037
-636,853	-94,736	-0,008	0,001
-635,838	-200,000	0,000	0,011
-634,824	236,460	0,064	0,078
-633,809	163,608	-0,100	-0,103
-632,795	132,233	-0,012	0,012
-631,780	-200,000	0,004	0,071
-630,765	685,694	0,072	-0,140
-629,751	-10,390	-0,092	0,045
-628,736	800,000	-0,020	-0,057
-627,722	-13,239	-0,046	-0,022
-626,707	-26,863	-0,074	0,032
-625,692	-112,460	0,107	0,016
-624,678	-200,000	-0,010	0,088
-623,663	-27,374	-0,076	-0,032
-622,649	-200,000	0,017	0,064
-621,634	-90,250	-0,055	0,012
-620,619	26,928	0,125	-0,077
-619,605	187,440	-0,101	-0,111
-618,590	-132,836	0,061	0,006
-617,576	-9,867	-0,105	-0,051
-616,561	119,419	0,029	-0,027
-615,546	-29,013	0,048	-0,020
-614,532	148,185	0,078	-0,077
-613,517	60,064	0,043	-0,031
-612,503	40,348	-0,029	0,019
-611,488	-200,000	-0,010	0,124
-610,474	-200,000	0,009	-0,063
-609,459	15,344	-0,061	0,035
-608,444	-14,402	0,025	0,012
-607,430	-200,000	-0,004	-0,066
-606,415	208,120	0,046	0,053
-605,401	-34,934	-0,032	0,013
-604,386	100,488	0,053	0,045
-603,371	-170,849	0,012	-0,000
-602,357	-27,097	0,072	0,031
-601,342	-40,242	0,086	-0,033
-600,328	-116,816	-0,101	0,013
-599,313	-200,000	0,024	-0,078
-598,298	23,865	-0,048	-0,029
-597,284	-37,243	0,025	-0,010
-596,269	-200,000	0,001	-0,020
-595,255	-200,000	0,020	-0,077
-594,240	441,806	-0,043	-0,069
-593,225	-200,000	-0,019	0,127
-592,211	-200,000	-0,024	-0,165
-591,196	-200,000	-0,009	0,132
-590,182	-114,631	0,119	0,017
-589,167	-32,377	-0,087	-0,035
-588,152	114,215	-0,071	0,063
-587,138	800,000	-0,023	0,056
-586,123	111,413	-0,029	-0,026
-585,109	-43,371	0,073	-0,027
-584,094	672,202	0,021	-0,040
-583,079	733,529	0,012	0,024
-582,065	800,000	-0,025	0,058
-581,050	2,207	-0,045	0,024
-580,036	-200,000	0,025	-0,109
-579,021	398,822	-0,061	-0,093
-578,006	100,281	-0,052	0,045
-576,992	-200,000	-0,002	0,064
-575,977	800,000	0,022	0,050
-574,963	-200,000	-0,031	-0,162
-573,948	186,260	0,088	0,096
-572,934	-105,672	-0,090	-0,015
-571,919	-97,794	-0,113	-0,021
-570,904	306,503	-0,059	-0,081
-569,890	800,000	0,022	-0,063
-568,875	800,000	0,027	-0,077
-567,861	186,267	-0,065	-0,071
-566,846	1,516	-0,209	0,110
-565,831	-39,851	-0,042	-0,016
-564,817	97,977	0,013	0,011
-563,802	34,971	-0,066	0,042
-562,788	439,679	0,071	0,114
-561,773	2,395	0,087	-0,046
-560,758	31,325	-0,124	0,077
-559,744	447,571	0,128	0,207
-558,729	-33,680	-0,092	-0,037
-557,715	-200,000	-0,037	-0,183
-556,700	800,000	0,019	0,046
-555,685	-200,000	0,006	-0,107
-554,671	488,338	0,021	-0,035
-553,656	-82,361	-0,188	-0,044
-552,642	800,000	-0,063	0,153
-551,627	46,876	-0,031	0,021
-550,612	-173,722	-0,052	0,001
-549,598	59,318	-0,062	-0,044
-548,583	-200,000	0,003	-0,130
-547,569	-91,425	0,112	-0,023
-546,554	-114,154	0,106	-0,015
-545,539	673,352	0,043	0,082
-544,525	-200,000	0,018	0,124
-543,510	-149,499	-0,131	-0,007
-542,496	701,537	0,005	-0,010
-541,481	-63,734	-0,130	-0,039
-540,466	698,105	0,054	0,105
-539,452	-200,000	0,008	0,109
-538,437	122,953	-0,096	-0,088
-537,423	-160,991	0,075	-0,003
-536,408	536,732	-0,040	-0,069
-535,393	-200,000	-0,007	-0,225
-534,379	800,000	-0,033	-0,072
-533,364	800,000	0,011	-0,022
-532,350	61,641	0,042	0,030
-531,335	-60,344	0,135	0,042
-530,321	104,299	0,038	0,033
-529,306	40,221	-0,077	-0,051
-528,291	-2,993	0,012	-0,006
-527,277	800,000	0,030	-0,088
-526,262	140,193	0,055	0,053
-525,248	800,000	0,011	-0,033
-524,233	-7,561	-0,098	-0,048
-523,218	81,240	0,071	0,056
-522,204	-35,794	0,129	-0,051
-521,189	-88,349	0,018	-0,004
-520,175	-102,272	-0,097	-0,017
-519,160	-58,758	0,054	-0,017
-518,145	233,229	-0,095	-0,115
-517,131	-165,811	0,008	-0,000
-516,116	0,048	0,152	0,079
-515,102	800,000	0,016	0,050
-514,087	138,244	-0,058	-0,055
-513,072	-7,477	0,048	0,024
-512,058	-18,120	-0,135	-0,062
-511,043	-200,000	0,004	-0,077
-510,029	54,937	0,045	-0,032
-509,014	136,789	0,069	0,066
-507,999	-49,480	0,075	-0,026
-506,985	-200,000	-0,037	-0,154
-505,970	-90,143	0,180	0,038
-504,956	-90,445	-0,211	-0,044
-503,941	-56,308	0,156	0,050
-502,926	38,180	0,052	-0,033
-501,912	-119,890	-0,109	0,014
-500,897	-95,295	0,091	0,018
-499,883	206,662	-0,107	-0,122
-498,868	382,174	0,033	-0,049
-497,853	279,866	0,020	-0,026
-496,839	-92,896	0,030	0,006
-495,824	-133,131	-0,067	0,006
-494,810	-141,634	0,110	0,008
-493,795	595,580	0,059	0,107
-492,781	-72,431	0,124	0,033
-491,766	800,000	0,063	0,152
-490,751	-116,487	0,095	0,013
-489,737	-200,000	0,001	0,030
-488,722	-200,000	0,023	0,082
-487,708	-117,422	0,077	-0,010
-486,693	-132,989	-0,066	0,006
-485,678	51,926	-0,105	-0,073
-484,664	-89,708	-0,108	-0,023
-483,649	219,031	0,044	0,051
-482,635	97,994	-0,137	-0,115
-481,620	-200,000	0,022	-0,166
-480,605	-200,000	0,003	0,133
-479,591	800,000	0,026	0,077
-478,576	294,932	0,088	-0,118
-477,562	-200,000	-0,016	-0,069
-476,547	360,103	-0,038	0,056
-475,532	72,289	-0,037	-0,028
-474,518	800,000	0,008	-0,021
-473,503	116,151	-0,080	-0,072
-472,489	68,678	0,024	0,018
-471,474	-44,990	-0,114	-0,041
-470,459	78,381	-0,077	0,060
-469,445	-200,000	-0,035	-0,163
-468,430	130,649	0,030	-0,028
-467,416	800,000	0,030	-0,075
-466,401	-200,000	0,058	0,217
-465,386	-200,000	0,045	-0,161
-464,372	180,193	-0,063	0,067
-463,357	173,720	0,136	-0,143
-462,343	-132,446	-0,094	0,009
-461,328	695,013	-0,015	0,029
-460,313	-118,756	0,093	0,012
-459,299	800,000	-0,079	0,163
-458,284	322,861	0,092	-0,129
-457,270	370,837	0,035	0,052
-456,255	90,747	-0,074	0,061
-455,241	-200,000	-0,000	-0,003
-454,226	-166,672	-0,147	-0,004
-453,211	-105,418	-0,117	-0,019
-452,197	-200,000	-0,002	0,020
-451,182	-173,590	0,052	0,001
-450,168	78,650	-0,048	-0,037
-449,153	-200,000	0,005	0,065
-448,138	151,135	-0,029	0,029
-447,124	-200,000	0,034	-0,191
-446,109	-161,929	0,045	-0,002
-445,095	71,709	0,113	0,085
-444,080	446,626	-0,018	0,030
-443,065	-101,233	-0,040	-0,007
-442,051	-200,000	-0,023	-0,136
-441,036	800,000	-0,053	-0,148
-440,022	-145,302	-0,061	0,004
-439,007	454,756	-0,097	0,157
-437,992	-74,839	-0,093	-0,024
-436,978	-74,433	-0,047	0,012
-435,963	139,343	0,103	0,099
-434,949	32,731	-0,017	-0,011
-433,934	-200,000	-0,065	-0,222
-432,919	81,576	-0,060	-0,047
-431,905	-79,524	-0,010	-0,002
-430,890	-200,000	0,008	-0,089
-429,876	-181,719	0,088	-0,001
-428,861	-200,000	0,024	0,102
-427,846	-200,000	-0,005	0,079
-426,832	-200,000	0,001	0,091
-425,817	-9,846	-0,099	-0,048
-424,803	-189,783	0,112	0,001
-423,788	0,563	0,129	-0,067
-422,773	127,221	-0,044	0,041
-421,759	428,710	-0,046	0,073
-420,744	174,916	0,081	0,085
-419,730	674,767	0,047	0,089
-418,715	-200,000	0,001	-0,007
-417,701	-200,000	-0,001	-0,066
-416,686	636,442	-0,006	0,011
-415,671	800,000	0,031	0,078
-414,657	229,403	0,086	0,102
-413,642	-57,949	-0,104	0,033
-412,628	800,000	-0,032	-0,101
-411,613	151,868	0,058	-0,058
-410,598	-73,838	-0,097	-0,025
-409,584	-200,000	0,014	-0,070
-408,569	-200,000	0,015	0,056
-407,555	74,874	0,060	-0,046
-406,540	-110,633	-0,084	0,012
-405,525	65,367	0,046	-0,034
-404,511	-200,000	-0,010	0,085
-403,496	-2,937	0,038	0,019
-402,482	103,705	0,037	-0,031
-401,467	800,000	0,024	0,066
-400,452	800,000	0,015	0,049
-399,438	81,835	-0,074	-0,059
-398,423	-83,018	0,046	-0,011
-397,409	46,415	-0,094	0,063
-396,394	-17,543	-0,136	0,062
-395,379	-19,110	-0,134	0,060
-394,365	230,972	0,086	-0,103
-393,350	-200,000	-0,030	0,114
-392,336	800,000	-0,033	0,104
-391,321	-75,145	-0,033	-0,009
-390,306	191,217	-0,085	-0,093
-389,292	191,675	0,055	-0,060
-388,277	746,753	-0,087	0,171
-387,263	13,158	0,080	-0,045
-386,248	800,000	0,036	-0,103
-385,233	16,200	-0,093	0,053
-384,219	240,557	0,100	0,122
-383,204	192,370	0,026	-0,029
-382,190	-109,631	0,023	0,003
-381,175	-65,085	0,124	0,036
-380,160	-200,000	0,013	-0,158
-379,146	-77,846	-0,062	-0,015
-378,131	-3,461	0,111	0,056
-377,117	-85,030	-0,147	-0,033
-376,102	800,000	-0,044	0,113
-375,088	183,180	-0,063	-0,067
-374,073	61,715	0,030	-0,022
-373,058	777,301	-0,021	0,041
-372,044	-200,000	-0,010	0,139
-371,029	358,644	0,028	0,040
-370,015	800,000	0,050	-0,117
-369,000	255,631	0,016	0,020
-367,985	-200,000	0,019	-0,176
-366,971	-137,000	0,114	-0,009
-365,956	-200,000	-0,023	0,104
-364,942	-18,722	-0,076	0,034
-363,927	147,101	-0,055	0,054
-362,912	-55,787	0,086	0,028
-361,898	-52,598	-0,070	0,023
-360,883	89,587	-0,095	0,077
-359,869	-88,362	-0,082	0,018
-358,854	-200,000	-0,004	0,032
-357,839	26,083	0,092	0,055
-356,825	273,508	0,097	0,124
-355,810	84,151	0,102	0,081
-354,796	-111,865	-0,152	-0,022
-353,781	-84,292	0,083	-0,019
-352,766	-200,000	0,018	-0,089
-351,752	463,363	0,033	0,053
-350,737	800,000	-0,030	-0,067
-349,723	-200,000	0,003	-0,063
-348,708	-200,000	-0,008	-0,040
-347,693	-119,832	0,157	-0,019
-346,679	538,631	-0,094	-0,162
-345,664	752,576	0,057	-0,113
-344,650	800,000	0,034	0,093
-343,635	800,000	0,006	-0,014
-342,620	35,389	0,107	0,068
-341,606	-62,772	0,129	0,039
-340,591	-200,000	-0,042	0,184
-339,577	16,612	-0,208	0,119
-338,562	800,000	0,070	-0,152
-337,548	-200,000	-0,013	-0,085
-336,533	270,102	-0,082	0,105
-335,518	800,000	0,024	-0,048
-334,504	576,034	0,019	0,033
-333,489	-41,841	-0,056	0,021
-332,475	14,303	-0,065	0,037
-331,460	8,445	0,038	0,021
-330,445	-119,807	0,134	0,017
-329,431	34,040	0,033	-0,021
-328,416	-200,000	-0,009	0,130
-327,402	591,268	-0,051	-0,091
-326,387	590,440	-0,025	0,046
-325,372	215,609	0,056	0,065
-324,358	-85,454	-0,087	0,020
-323,343	277,459	0,073	-0,094
-322,329	-200,000	0,002	-0,051
-321,314	669,417	0,042	-0,080
-320,299	-76,608	0,097	0,025
-319,285	-200,000	0,020	-0,088
-318,270	35,048	-0,042	-0,026
-317,256	-200,000	-0,014	-0,086
-316,241	-27,129	0,121	-0,051
-315,226	38,642	0,087	0,056
-314,212	-71,540	-0,122	0,033
-313,197	-97,383	-0,035	0,007
-312,183	-13,494	0,070	0,033
-311,168	35,415	-0,101	-0,064
-310,153	705,945	0,032	-0,061
-309,139	247,132	0,017	-0,021
-308,124	-200,000	-0,024	-0,098
-307,110	800,000	-0,025	-0,077
-306,095	97,690	0,051	0,042
-305,080	800,000	-0,028	0,068
-304,066	800,000	-0,017	0,043
-303,051	-200,000	0,003	-0,042
-302,037	144,559	-0,093	0,090
-301,022	-73,553	-0,139	0,037
-300,008	-41,765	0,076	0,028
-298,993	-105,274	-0,119	-0,019
-297,978	-38,572	0,058	0,022
-296,964	116,646	0,070	0,062
-295,949	-75,746	-0,203	0,052
-294,935	800,000	-0,018	0,037
-293,920	12,738	0,026	-0,015
-292,905	800,000	0,013	0,042
-291,891	334,568	0,008	0,011
-290,876	91,089	0,068	0,055
-289,862	-200,000	-0,005	-0,061
-288,847	-167,310	0,115	0,003
-287,832	-73,893	-0,063	-0,016
-286,818	-150,824	0,095	0,005
-285,803	257,189	0,095	0,118
-284,789	80,603	0,029	0,023
-283,774	39,398	-0,099	0,064
-282,759	0,589	-0,077	0,040
-281,745	-120,456	-0,049	-0,006
-280,730	800,000	-0,034	0,088
-279,716	-28,909	-0,023	0,010
-278,701	-200,000	-0,002	0,094
-277,686	-8,451	-0,076	0,037
-276,672	138,108	-0,058	0,055
-275,657	-200,000	0,000	0,116
-274,643	-0,774	0,160	0,082
-273,628	800,000	0,015	0,042
-272,613	-104,050	-0,168	-0,028
-271,599	800,000	0,057	-0,138
-270,584	531,385	0,042	0,071
-269,570	5,376	0,208	0,111
-268,555	-200,000	0,005	0,117
-267,540	-37,430	-0,069	0,026
-266,526	-200,000	-0,005	-0,023
-265,511	-200,000	0,007	-0,051
-264,497	800,000	0,035	0,070
-263,482	129,942	0,130	0,121
-262,467	-128,413	0,088	-0,009
-261,453	-23,408	-0,051	0,022
-260,438	-200,000	-0,004	0,065
-259,424	282,970	-0,041	0,054
-258,409	-58,490	-0,129	-0,040
-257,395	-62,154	-0,082	0,025
-256,380	-30,014	0,102	-0,042
-255,365	-200,000	-0,006	0,030
-254,351	-15,258	0,069	-0,032
-253,336	800,000	-0,011	0,036
-252,322	-148,189	-0,067	-0,004
-251,307	800,000	0,029	-0,081
-250,292	42,326	-0,062	-0,041
-249,278	-56,308	-0,053	0,017
-248,263	-3,738	0,033	0,017
-247,249	23,337	-0,146	-0,087
-246,234	-200,000	-0,008	-0,211
-245,219	-118,212	-0,074	-0,009
-244,205	-200,000	-0,011	-0,136
-243,190	-19,366	-0,098	0,044
-242,176	-174,807	0,051	0,001
-241,161	-52,088	0,141	0,047
-240,146	525,785	0,004	-0,006
-239,132	-90,134	-0,155	0,032
-238,117	16,425	-0,016	0,009
-237,103	-71,877	0,156	-0,042
-236,088	-200,000	-0,022	0,084
-235,073	-200,000	0,016	0,112
-234,059	-200,000	0,014	0,124
-233,044	-200,000	-0,003	0,036
-232,030	-200,000	0,017	0,061
-231,015	261,547	-0,058	-0,073
-230,000	535,865	-0,043	-0,074
-228,986	655,636	-0,021	0,038
-227,971	-33,682	0,184	0,073
-226,957	75,260	0,077	0,058
-225,942	-2,804	0,114	-0,057
-224,927	-200,000	0,015	-0,065
-223,913	-30,557	-0,082	0,034
-222,898	-74,671	-0,044	-0,011
-221,884	-157,053	0,049	-0,002
-220,869	-200,000	-0,007	-0,117
-219,855	781,060	-0,078	0,155
-218,840	47,005	-0,151	0,101
-217,825	-58,697	0,102	0,032
-216,811	800,000	0,020	0,062
-215,796	-200,000	-0,024	0,105
-214,782	-200,000	0,013	-0,082
-213,767	-98,865	0,120	0,022
-212,752	627,112	0,040	-0,074
-211,738	-200,000	-0,020	0,105
-210,723	-93,022	-0,083	-0,017
-209,709	131,402	-0,049	0,045
-208,694	-51,099	-0,084	-0,028
-207,679	-200,000	-0,007	-0,147
-206,665	-82,613	0,104	0,024
-205,650	-141,356	-0,047	-0,003
-204,636	-200,000	-0,006	0,066
-203,621	-200,000	-0,020	-0,164
-202,606	285,256	-0,062	0,081
-201,592	-19,653	-0,089	0,040
-200,577	284,576	0,021	0,027
-199,563	197,943	0,034	-0,038
-198,548	84,462	0,069	0,055
-197,533	-48,790	0,113	0,039
-196,519	84,294	0,027	0,021
-195,504	-200,000	0,006	0,088
-194,490	148,685	0,079	-0,077
-193,475	272,237	0,059	0,075
-192,460	-91,998	0,016	-0,003
-191,446	-94,433	0,116	0,023
-190,431	-200,000	-0,012	-0,135
-189,417	-32,274	0,156	0,063
-188,402	-25,298	-0,176	-0,075
-187,387	520,996	-0,072	-0,122
-186,373	-119,001	0,114	-0,014
-185,358	800,000	0,009	0,020
-184,344	-137,371	0,026	-0,002
-183,329	22,491	0,078	-0,046
-182,315	-18,061	0,048	0,022
-181,300	-44,607	-0,098	0,035
-180,285	149,765	-0,136	-0,133
-179,271	800,000	-0,054	-0,130
-178,256	53,410	0,104	0,072
-177,242	-160,119	0,016	-0,001
-176,227	13,531	0,094	0,053
-175,212	257,691	0,126	0,157
-174,198	-66,028	-0,051	-0,015
-173,183	-200,000	0,003	-0,068
-172,169	105,100	-0,045	-0,038
-171,154	-200,000	0,025	-0,128
-170,139	-133,948	-0,136	-0,012
-169,125	-114,558	0,052	-0,007
-168,110	800,000	-0,041	0,131
-167,096	-170,561	-0,073	-0,002
-166,081	-7,535	0,098	0,047
-165,066	-200,000	0,006	-0,019
-164,052	555,467	0,078	-0,136
-163,037	676,914	0,055	-0,103
-162,023	-56,577	0,169	0,054
-161,008	-27,499	-0,103	-0,043
-159,993	-200,000	-0,007	-0,125
-158,979	-200,000	0,017	-0,084
-157,964	182,347	-0,048	-0,051
-156,950	-131,211	-0,100	0,009
-155,935	125,935	0,076	0,070
-154,920	800,000	-0,013	0,032
-153,906	429,233	-0,040	0,062
-152,891	800,000	-0,009	-0,020
-151,877	-22,149	0,041	-0,018
-150,862	245,633	-0,061	-0,074
-149,847	136,340	-0,036	0,034
-148,833	-200,000	0,014	0,057
-147,818	-50,153	-0,080	-0,027
-146,804	-29,112	-0,022	0,009
-145,789	589,640	0,044	0,078
-144,775	-200,000	0,009	-0,071
-143,760	-125,391	-0,050	-0,005
-142,745	-158,719	-0,114	-0,005
-141,731	-200,000	-0,002	-0,037
-140,716	-200,000	-0,030	-0,122
-139,702	800,000	-0,013	0,042
-138,687	66,212	-0,125	0,091
-137,672	124,368	0,030	-0,027
-136,658	-32,428	-0,111	-0,044
-135,643	29,480	0,104	0,064
-134,629	-200,000	-0,050	-0,170
-133,614	117,169	-0,065	0,057
-132,599	-89,908	0,042	0,009
-131,585	-151,400	0,049	0,003
-130,570	800,000	-0,027	0,054
-129,556	-200,000	0,001	-0,054
-128,541	-111,203	-0,085	0,012
-127,526	-200,000	-0,023	-0,087
-126,512	-200,000	0,006	0,096
-125,497	226,812	0,123	0,144
-124,483	753,736	0,049	-0,096
-123,468	-172,451	-0,110	0,002
-122,453	-200,000	0,019	-0,066
-121,439	290,162	-0,076	-0,099
-120,424	443,159	0,061	-0,096
-119,410	-200,000	-0,018	-0,143
