DTS Sentinel unit serial number:	SN410029Multiplexer serial number:	ORYXHardware model number:	OX2-SRSoftware version number:	ORYX F/W v4,00 Oryx Data Collector v3.7.2.0data status	okinstallation	B5 Nyhavnadifferential loss correction	single-endedforward channel	channel 2reverse channel	N/Adate	2023/12/14time	13:52:14forward acquisition time	300,00reverse acquisition time	0,00gamma	499,1914k internal	0,3157k external	0,3157temperature offset calibration	1,0000default loss term (dB/km)	0,3820temperature slope calibration	1,0000multiplexer offset coefficient	1,0000multiplexer slope coefficient	1,0000fibre end	0,00T internal ref (°C)	8,07T ext. ref 1 (°C)	-7,87T ext. ref 2 (°C)	-7,95length (m)	temperature (°C)	Stokes	anti-Stokes-744,400	-154,783	0,087	0,004
-743,385	-186,193	-0,560	0,006
-742,371	-93,945	0,213	-0,043
-741,356	-16,049	-0,342	-0,160
-740,342	-200,000	0,039	0,140
-739,327	-124,862	-0,428	-0,048
-738,312	-141,025	0,182	0,014
-737,298	-41,469	-0,406	-0,153
-736,283	-31,836	0,212	0,087
-735,269	-118,221	-0,409	-0,053
-734,254	25,332	0,127	0,077
-733,239	11,555	-0,610	-0,344
-732,225	116,926	0,166	0,150
-731,210	333,993	0,072	0,103
-730,196	17,061	-0,030	0,018
-729,181	-164,500	-0,140	-0,005
-728,167	-200,000	-0,007	0,097
-727,152	-200,000	0,030	-0,124
-726,137	43,432	-0,167	-0,112
-725,123	615,163	0,047	0,086
-724,108	-35,435	0,050	0,020
-723,094	-113,403	-0,099	-0,014
-722,079	219,349	-0,039	0,046
-721,064	119,416	0,127	0,116
-720,050	240,738	0,067	0,083
-719,035	618,425	-0,047	-0,087
-718,021	166,186	0,052	0,054
-717,006	800,000	-0,041	-0,086
-715,991	800,000	0,084	-0,177
-714,977	-13,371	-0,115	-0,055
-713,962	90,363	-0,050	-0,041
-712,948	-200,000	0,001	0,020
-711,933	-200,000	0,014	-0,051
-710,918	85,214	-0,062	-0,050
-709,904	429,458	0,024	0,038
-708,889	130,304	-0,056	-0,053
-707,875	56,985	-0,054	-0,039
-706,860	800,000	0,038	0,108
-705,845	-1,888	-0,013	-0,007
-704,831	469,870	0,013	-0,022
-703,816	-33,618	-0,093	0,037
-702,802	-200,000	-0,018	0,080
-701,787	-62,888	-0,137	0,042
-700,772	139,036	-0,053	-0,051
-699,758	234,209	0,068	-0,083
-698,743	383,078	0,023	0,034
-697,729	-91,443	-0,070	0,015
-696,714	606,293	0,050	-0,092
-695,699	176,595	-0,057	-0,061
-694,685	68,318	0,066	-0,050
-693,670	-200,000	-0,008	-0,134
-692,656	10,855	0,075	0,042
-691,641	800,000	-0,020	-0,053
-690,627	-61,877	0,114	0,035
-689,612	-91,850	0,051	0,011
-688,597	-26,635	0,108	-0,046
-687,583	800,000	0,073	-0,191
-686,568	800,000	-0,017	-0,052
-685,554	343,805	0,062	-0,089
-684,539	-200,000	0,025	0,088
-683,524	254,490	-0,061	0,077
-682,510	-5,622	-0,045	-0,023
-681,495	-4,863	-0,081	-0,041
-680,481	148,239	0,060	0,059
-679,466	-70,743	-0,058	-0,016
-678,451	183,991	0,069	0,075
-677,437	256,629	-0,037	-0,047
-676,422	308,437	0,050	-0,068
-675,408	369,447	-0,028	-0,042
-674,393	800,000	0,012	-0,037
-673,378	612,438	-0,033	0,062
-672,364	559,610	0,057	-0,101
-671,349	-200,000	-0,008	-0,079
-670,335	800,000	0,034	0,077
-669,320	-200,000	0,010	0,140
-668,305	-11,943	-0,127	0,061
-667,291	-200,000	0,001	-0,068
-666,276	-73,134	0,053	0,014
-665,262	8,602	-0,190	-0,105
-664,247	-200,000	-0,018	-0,072
-663,232	81,255	-0,010	-0,008
-662,218	67,717	0,146	0,109
-661,203	-73,993	0,063	0,017
-660,189	-200,000	0,009	-0,081
-659,174	-146,802	-0,015	0,001
-658,159	367,430	-0,048	0,071
-657,145	48,702	-0,087	-0,060
-656,130	800,000	0,074	-0,175
-655,116	800,000	0,014	-0,045
-654,101	120,242	-0,037	0,034
-653,086	-200,000	0,013	-0,069
-652,072	800,000	0,004	0,009
-651,057	8,866	-0,119	-0,066
-650,043	-92,135	-0,139	0,029
-649,028	-9,351	0,049	0,024
-648,014	-200,000	0,002	0,023
-646,999	-87,726	0,073	0,016
-645,984	57,299	-0,069	0,049
-644,970	152,090	0,013	0,013
-643,955	-11,310	-0,104	0,050
-642,941	728,926	-0,034	-0,067
-641,926	83,630	-0,040	0,032
-640,911	96,324	-0,101	-0,085
-639,897	800,000	0,048	0,100
-638,882	-200,000	0,003	0,043
-637,868	-200,000	0,001	-0,134
-636,853	800,000	-0,030	-0,066
-635,838	-200,000	-0,026	-0,104
-634,824	394,248	0,044	0,068
-633,809	-200,000	-0,099	0,000
-632,795	-112,541	-0,034	0,005
-631,780	246,927	-0,022	-0,028
-630,765	-76,474	0,045	-0,012
-629,751	-65,715	0,041	-0,012
-628,736	-94,245	0,098	-0,020
-627,722	-15,797	0,037	0,017
-626,707	-71,752	0,111	0,030
-625,692	-87,542	0,144	0,032
-624,678	87,788	-0,128	-0,104
-623,663	374,228	-0,047	0,070
-622,649	-95,487	-0,191	0,037
-621,634	-86,576	-0,038	-0,008
-620,619	35,475	-0,051	0,033
-619,605	482,842	0,040	0,067
-618,590	25,224	0,022	-0,013
-617,576	-200,000	-0,012	0,042
-616,561	47,958	0,151	0,104
-615,546	34,502	-0,036	-0,023
-614,532	-37,732	-0,187	-0,073
-613,517	603,348	0,019	-0,036
-612,503	-178,379	0,075	0,001
-611,488	-80,272	-0,184	-0,045
-610,474	403,786	-0,038	-0,058
-609,459	-3,934	0,049	-0,025
-608,444	-200,000	0,005	0,019
-607,430	165,581	-0,032	0,033
-606,415	800,000	0,027	-0,076
-605,401	800,000	0,041	-0,109
-604,386	193,962	0,036	0,040
-603,371	109,591	0,074	0,065
-602,357	-200,000	0,003	-0,097
-601,342	-104,722	0,069	0,012
-600,328	-200,000	-0,019	-0,105
-599,313	173,469	0,080	-0,085
-598,298	800,000	-0,018	0,048
-597,284	194,447	-0,043	-0,048
-596,269	-200,000	0,026	0,124
-595,255	800,000	0,011	0,022
-594,240	-126,215	0,068	0,007
-593,225	-200,000	0,015	-0,161
-592,211	558,893	-0,035	-0,062
-591,196	-200,000	0,000	0,046
-590,182	-200,000	0,023	0,105
-589,167	86,847	0,036	0,030
-588,152	382,817	-0,093	0,141
-587,138	800,000	-0,051	0,120
-586,123	53,572	0,053	0,037
-585,109	-88,316	-0,123	-0,027
-584,094	579,863	-0,038	0,068
-583,079	0,180	0,087	0,045
-582,065	147,797	-0,059	-0,059
-581,050	292,059	-0,035	0,046
-580,036	28,562	0,077	0,048
-579,021	276,082	-0,097	-0,126
-578,006	-150,939	0,116	0,006
-576,992	0,297	-0,016	-0,008
-575,977	-200,000	0,003	-0,041
-574,963	-200,000	0,046	-0,163
-573,948	-117,081	0,059	-0,008
-572,934	-200,000	-0,058	0,000
-571,919	-101,823	-0,177	-0,031
-570,904	14,429	-0,030	-0,017
-569,890	-112,533	-0,095	0,014
-568,875	-67,280	0,073	0,021
-567,861	289,453	0,027	0,037
-566,846	800,000	0,046	0,116
-565,831	-28,114	0,051	-0,022
-564,817	256,883	-0,033	-0,041
-563,802	28,156	-0,077	-0,047
-562,788	202,408	0,049	-0,055
-561,773	431,144	-0,061	0,098
-560,758	800,000	-0,041	-0,113
-559,744	-49,534	-0,097	-0,034
-558,729	186,040	0,111	0,121
-557,715	-92,423	-0,126	-0,026
-556,700	211,312	-0,044	0,051
-555,685	99,083	-0,065	-0,055
-554,671	-200,000	0,015	0,082
-553,656	800,000	-0,042	0,103
-552,642	-200,000	0,009	0,106
-551,627	-200,000	-0,010	0,089
-550,612	72,767	-0,074	0,057
-549,598	-200,000	0,017	-0,071
-548,583	132,813	-0,079	-0,075
-547,569	429,033	0,029	-0,046
-546,554	317,823	0,089	-0,124
-545,539	128,503	0,092	0,086
-544,525	275,660	-0,049	0,064
-543,510	493,186	0,072	0,122
-542,496	-36,420	0,131	-0,051
-541,481	213,122	-0,050	-0,058
-540,466	43,326	0,079	0,053
-539,452	19,245	0,046	-0,027
-538,437	76,566	-0,032	0,025
-537,423	800,000	0,045	-0,103
-536,408	800,000	0,007	-0,018
-535,393	142,057	-0,130	-0,126
-534,379	-200,000	0,050	-0,180
-533,364	800,000	0,058	-0,167
-532,350	299,834	0,057	0,077
-531,335	95,968	0,097	-0,081
-530,321	800,000	-0,032	0,101
-529,306	98,798	-0,098	-0,082
-528,291	-200,000	-0,036	-0,143
-527,277	-102,098	-0,110	-0,019
-526,262	-200,000	-0,008	0,098
-525,248	296,497	0,059	0,079
-524,233	-114,260	0,091	0,013
-523,218	-9,814	-0,133	-0,064
-522,204	479,352	0,002	-0,003
-521,189	270,271	-0,043	-0,055
-520,175	15,273	-0,050	-0,028
-519,160	-55,345	0,219	-0,071
-518,145	-200,000	-0,009	0,066
-517,131	45,365	-0,052	-0,035
-516,116	-200,000	-0,000	0,080
-515,102	800,000	-0,015	-0,046
-514,087	-155,726	-0,125	0,006
-513,072	-168,324	0,029	-0,001
-512,058	-200,000	0,018	-0,103
-511,043	-200,000	0,023	0,121
-510,029	-200,000	0,021	0,109
-509,014	800,000	-0,040	0,115
-507,999	800,000	-0,022	-0,051
-506,985	636,727	0,028	-0,052
-505,970	61,860	0,072	0,053
-504,956	-86,016	-0,103	0,023
-503,941	-200,000	-0,001	-0,037
-502,926	-200,000	0,012	0,121
-501,912	-200,000	0,018	0,067
-500,897	-24,398	0,094	0,041
-499,883	800,000	-0,032	0,088
-498,868	-200,000	0,025	-0,083
-497,853	5,047	0,099	-0,053
-496,839	414,182	-0,089	0,139
-495,824	267,407	0,108	0,138
-494,810	102,013	-0,051	-0,043
-493,795	-200,000	0,002	0,107
-492,781	-126,851	-0,103	-0,011
-491,766	-192,736	-0,078	-0,001
-490,751	225,829	0,020	-0,024
-489,737	-26,409	0,096	-0,041
-488,722	-4,884	-0,089	0,045
-487,708	56,662	0,112	-0,079
-486,693	195,143	-0,081	-0,090
-485,678	-85,686	-0,073	-0,016
-484,664	1,824	-0,059	-0,031
-483,649	800,000	0,055	0,120
-482,635	-58,948	-0,125	0,039
-481,620	-200,000	0,014	-0,072
-480,605	93,673	0,147	0,122
-479,591	145,721	0,021	-0,021
-478,576	-9,228	-0,170	0,083
-477,562	-200,000	-0,015	0,056
-476,547	68,104	0,060	-0,044
-475,532	-22,891	-0,071	0,031
-474,518	394,688	0,097	0,147
-473,503	186,946	0,108	0,117
-472,489	800,000	-0,058	0,151
-471,474	-200,000	0,005	0,121
-470,459	101,898	-0,050	0,043
-469,445	260,812	0,016	0,020
-468,430	206,539	0,053	0,060
-467,416	-200,000	0,036	0,000
-466,401	-18,234	-0,085	0,039
-465,386	800,000	0,065	0,135
-464,372	-200,000	0,020	0,074
-463,357	56,434	0,044	-0,031
-462,343	800,000	0,035	-0,092
-461,328	134,329	-0,089	-0,084
-460,313	-200,000	-0,023	-0,162
-459,299	-200,000	0,011	-0,057
-458,284	514,789	-0,087	0,148
-457,270	134,053	0,038	-0,036
-456,255	-147,338	-0,116	-0,007
-455,241	800,000	0,012	0,029
-454,226	800,000	0,042	0,136
-453,211	264,130	0,071	-0,090
-452,197	141,885	0,143	0,138
-451,182	416,178	0,069	-0,107
-450,168	-200,000	0,007	-0,066
-449,153	800,000	-0,027	-0,056
-448,138	800,000	0,027	-0,063
-447,124	-71,175	-0,146	0,040
-446,109	-76,198	0,047	0,012
-445,095	223,112	-0,034	0,040
-444,080	-200,000	-0,007	0,025
-443,065	344,210	0,055	0,079
-442,051	-3,781	-0,018	0,009
-441,036	-66,194	-0,044	0,013
-440,022	234,580	-0,070	-0,084
-439,007	73,598	0,054	-0,041
-437,992	-200,000	0,000	-0,022
-436,978	-106,950	0,138	0,022
-435,963	56,126	0,080	-0,057
-434,949	-87,019	-0,137	0,030
-433,934	-200,000	-0,059	-0,213
-432,919	25,778	-0,062	0,037
-431,905	-200,000	-0,011	-0,117
-430,890	-200,000	-0,001	0,012
-429,876	710,589	0,019	-0,037
-428,861	639,136	-0,045	0,084
-427,846	-200,000	0,001	-0,056
-426,832	-200,000	-0,008	0,155
-425,817	125,810	-0,056	-0,052
-424,803	800,000	0,021	0,055
-423,788	-200,000	-0,018	0,157
-422,773	800,000	0,100	0,222
-421,759	-200,000	-0,120	0,000
-420,744	-15,076	-0,042	-0,020
-419,730	-103,277	0,047	0,008
-418,715	105,489	-0,044	-0,038
-417,701	13,922	-0,047	0,027
-416,686	281,826	-0,040	0,053
-415,671	212,778	-0,045	0,052
-414,657	-22,633	0,093	0,041
-413,642	800,000	0,078	0,182
-412,628	-200,000	-0,011	0,041
-411,613	800,000	-0,003	-0,007
-410,598	269,386	-0,076	-0,098
-409,584	202,587	0,037	0,042
-408,569	161,584	0,082	-0,084
-407,555	-108,286	0,102	-0,016
-406,540	800,000	-0,035	0,084
-405,525	498,311	-0,062	-0,105
-404,511	-10,751	0,006	-0,003
-403,496	-200,000	-0,020	-0,107
-402,482	16,042	0,134	0,077
-401,467	433,110	0,065	0,103
-400,452	-158,015	-0,053	-0,002
-399,438	-200,000	-0,009	0,122
-398,423	800,000	-0,029	0,091
-397,409	800,000	0,064	-0,200
-396,394	-37,119	-0,154	-0,060
-395,379	-88,647	0,051	0,011
-394,365	237,156	0,043	0,052
-393,350	708,406	0,007	-0,013
-392,336	800,000	0,038	-0,084
-391,321	800,000	-0,070	-0,152
-390,306	-76,635	-0,122	-0,031
-389,292	800,000	0,053	-0,138
-388,277	17,393	-0,057	-0,033
-387,263	800,000	0,017	-0,039
-386,248	-200,000	-0,011	0,088
-385,233	800,000	0,068	0,202
-384,219	-200,000	-0,012	-0,074
-383,204	99,524	-0,032	-0,026
-382,190	761,775	0,048	-0,096
-381,175	-54,957	-0,110	0,036
-380,160	-200,000	-0,007	0,125
-379,146	-200,000	0,008	-0,086
-378,131	800,000	0,032	-0,074
-377,117	0,562	-0,055	0,028
-376,102	800,000	0,027	-0,076
-375,088	-200,000	0,023	-0,180
-374,073	-200,000	-0,014	-0,078
-373,058	286,698	-0,020	-0,026
-372,044	-47,589	0,143	0,050
-371,029	10,078	0,080	0,044
-370,015	-82,580	0,077	-0,018
-369,000	800,000	-0,036	-0,097
-367,985	55,421	0,018	0,013
-366,971	84,063	-0,119	-0,094
-365,956	-20,968	-0,092	-0,041
-364,942	289,132	0,090	0,119
-363,927	-174,986	0,156	-0,003
-362,912	800,000	0,046	-0,133
-361,898	39,314	0,068	0,044
-360,883	-9,326	0,056	0,027
-359,869	-200,000	-0,003	-0,026
-358,854	-122,040	0,067	0,008
-357,839	-1,092	-0,047	0,024
-356,825	215,387	-0,051	-0,059
-355,810	208,281	-0,054	0,062
-354,796	721,142	0,035	0,068
-353,781	-0,356	-0,087	-0,045
-352,766	165,006	-0,110	0,113
-351,752	25,360	0,149	-0,090
-350,737	-43,913	0,092	-0,034
-349,723	243,542	0,042	0,051
-348,708	179,015	-0,036	0,038
-347,693	-101,309	-0,078	0,014
-346,679	71,588	-0,071	-0,054
-345,664	-75,536	-0,151	-0,039
-344,650	-6,581	-0,042	0,020
-343,635	-200,000	0,016	-0,174
-342,620	14,335	0,041	0,023
-341,606	-200,000	-0,033	-0,113
-340,591	-200,000	0,004	-0,037
-339,577	69,397	0,010	0,008
-338,562	-200,000	0,008	-0,134
-337,548	800,000	-0,047	-0,101
-336,533	-64,993	0,135	0,039
-335,518	-200,000	-0,002	0,128
-334,504	64,808	0,046	0,034
-333,489	-200,000	0,011	0,071
-332,475	54,273	-0,069	0,048
-331,460	158,973	-0,111	-0,112
-330,445	800,000	-0,009	0,022
-329,431	265,173	0,017	0,021
-328,416	444,567	-0,046	0,073
-327,402	371,915	-0,055	0,082
-326,387	-4,386	-0,082	-0,041
-325,372	-200,000	-0,023	-0,166
-324,358	11,614	-0,006	0,004
-323,343	-200,000	0,010	0,092
-322,329	-115,101	0,095	-0,013
-321,314	48,300	0,042	0,029
-320,299	800,000	-0,076	0,169
-319,285	251,418	0,051	-0,064
-318,270	-98,697	-0,068	0,012
-317,256	227,376	-0,047	0,055
-316,241	-70,468	0,117	0,032
-315,226	-40,958	-0,082	-0,030
-314,212	-200,000	-0,003	0,147
-313,197	-200,000	0,011	0,099
-312,183	-200,000	0,000	0,008
-311,168	154,434	0,119	-0,119
-310,153	-70,510	-0,060	-0,016
-309,139	3,290	-0,106	-0,056
-308,124	315,016	0,096	0,131
-307,110	800,000	0,039	-0,079
-306,095	97,087	0,086	-0,072
-305,080	14,544	0,044	-0,025
-304,066	72,245	0,022	0,017
-303,051	-69,941	-0,093	0,026
-302,037	746,703	-0,045	0,088
-301,022	-200,000	0,011	0,071
-300,008	10,145	0,147	0,081
-298,993	800,000	-0,046	0,120
-297,978	52,018	-0,052	-0,036
-296,964	276,180	0,075	0,096
-295,949	-8,005	0,109	-0,053
-294,935	800,000	0,015	0,044
-293,920	579,694	0,024	-0,043
-292,905	-200,000	0,024	0,113
-291,891	-84,489	0,084	-0,019
-290,876	138,252	0,025	0,024
-289,862	800,000	0,011	-0,034
-288,847	-139,999	-0,149	-0,011
-287,832	800,000	0,036	-0,097
-286,818	-200,000	-0,019	-0,148
-285,803	75,878	0,144	0,110
-284,789	-200,000	-0,015	-0,107
-283,774	-65,953	0,090	-0,026
-282,759	-200,000	0,007	0,097
-281,745	800,000	-0,014	0,035
-280,730	108,404	0,057	-0,050
-279,716	-0,776	0,079	0,040
-278,701	-28,780	0,057	-0,024
-277,686	-159,115	-0,123	0,005
-276,672	136,438	0,040	0,038
-275,657	800,000	-0,021	0,054
-274,643	-53,897	0,102	0,034
-273,628	-187,898	-0,064	-0,001
-272,613	-171,143	-0,093	-0,002
-271,599	-200,000	0,017	0,081
-270,584	177,794	-0,049	-0,051
-269,570	711,942	0,060	0,115
-268,555	-200,000	0,008	0,029
-267,540	-200,000	-0,018	-0,159
-266,526	-200,000	0,001	0,026
-265,511	325,894	0,059	0,081
-264,497	295,820	-0,082	0,110
-263,482	202,920	-0,101	0,113
-262,467	800,000	-0,040	0,104
-261,453	-200,000	0,006	0,092
-260,438	196,439	-0,071	-0,079
-259,424	33,391	0,120	-0,075
-258,409	-11,483	-0,022	-0,011
-257,395	-105,987	-0,055	-0,009
-256,380	186,871	0,063	0,068
-255,365	-118,782	0,014	-0,002
-254,351	-200,000	-0,004	-0,052
-253,336	-19,690	-0,070	0,031
-252,322	-76,507	0,070	-0,018
-251,307	-181,822	-0,077	0,001
-250,292	256,202	-0,040	-0,049
-249,278	26,144	0,019	0,011
-248,263	-162,162	0,089	0,003
-247,249	-36,566	-0,082	-0,032
-246,234	-200,000	0,028	0,098
-245,219	166,359	-0,020	-0,020
-244,205	-146,937	0,041	0,003
-243,190	-14,901	0,076	0,035
-242,176	-200,000	0,005	-0,126
-241,161	160,826	-0,027	-0,027
-240,146	800,000	0,006	-0,014
-239,132	800,000	-0,022	-0,063
-238,117	800,000	0,066	-0,156
-237,103	-200,000	-0,012	-0,057
-236,088	800,000	0,009	-0,024
-235,073	800,000	-0,041	0,096
-234,059	-61,283	0,128	-0,039
-233,044	-12,446	-0,224	-0,106
-232,030	234,868	0,028	-0,033
-231,015	53,055	0,037	-0,025
-230,000	-118,406	0,096	0,012
-228,986	-200,000	-0,129	-0,000
-227,971	-200,000	-0,000	-0,037
-226,957	800,000	0,072	0,151
-225,942	-200,000	-0,034	0,142
-224,927	-128,599	-0,082	0,008
-223,913	-43,616	-0,110	-0,040
-222,898	800,000	0,022	-0,045
-221,884	-166,087	0,019	0,001
-220,869	25,974	0,071	-0,042
-219,855	165,037	0,081	-0,083
-218,840	701,119	0,028	-0,054
-217,825	223,688	0,096	-0,112
-216,811	413,993	-0,036	-0,056
-215,796	379,921	-0,106	-0,158
-214,782	-200,000	0,026	-0,163
-213,767	31,172	0,174	-0,108
-212,752	-200,000	-0,010	-0,044
-211,738	83,315	-0,073	-0,058
-210,723	526,660	0,064	0,109
-209,709	-50,803	-0,154	-0,052
-208,694	-106,837	-0,064	0,010
-207,679	626,614	0,010	-0,018
-206,665	-200,000	0,038	0,146
-205,650	800,000	0,007	0,014
-204,636	-133,708	0,037	0,003
-203,621	76,830	-0,066	0,051
-202,606	-200,000	-0,007	-0,081
-201,592	-200,000	-0,016	-0,103
-200,577	-70,676	0,176	0,048
-199,563	-5,780	-0,065	-0,032
-198,548	-95,238	0,185	-0,036
-197,533	97,433	-0,063	0,052
-196,519	16,109	-0,077	0,044
-195,504	8,056	0,152	0,082
-194,490	-200,000	-0,007	0,067
-193,475	13,864	-0,053	-0,029
-192,460	670,519	0,095	-0,179
-191,446	-200,000	-0,010	0,120
-190,431	-127,422	0,164	-0,017
-189,417	-109,497	-0,060	0,009
-188,402	201,822	0,064	-0,071
-187,387	-77,011	-0,100	0,025
-186,373	-200,000	-0,031	-0,166
-185,358	-45,835	-0,107	-0,038
-184,344	-200,000	0,021	0,115
-183,329	-67,307	-0,064	0,018
-182,315	-200,000	-0,029	-0,116
-181,300	-31,737	-0,123	-0,049
-180,285	-65,417	-0,050	0,014
-179,271	-200,000	0,009	-0,031
-178,256	-148,596	-0,094	-0,005
-177,242	-73,816	0,105	0,027
-176,227	161,445	0,147	0,148
-175,212	612,670	-0,021	0,038
-174,198	117,399	-0,069	0,061
-173,183	311,535	-0,104	-0,141
-172,169	124,662	0,087	-0,079
-171,154	-200,000	0,019	0,094
-170,139	-200,000	-0,004	-0,041
-169,125	-200,000	-0,014	0,044
-168,110	374,523	0,016	-0,024
-167,096	800,000	0,031	0,079
-166,081	148,061	0,036	-0,035
-165,066	251,656	0,061	-0,074
-164,052	128,140	-0,126	-0,116
-163,037	142,006	0,057	-0,055
-162,023	-200,000	-0,007	0,090
-161,008	800,000	-0,010	0,032
-159,993	-200,000	-0,014	0,146
-158,979	210,240	0,006	-0,007
-157,964	-159,227	-0,077	-0,003
-156,950	-146,064	-0,125	0,008
-155,935	100,921	0,087	-0,073
-154,920	367,599	-0,020	-0,030
-153,906	-58,176	0,152	-0,048
-152,891	331,674	0,070	-0,097
-151,877	800,000	-0,029	-0,061
-150,862	78,700	-0,081	-0,063
-149,847	83,191	0,019	0,015
-148,833	800,000	0,025	-0,071
-147,818	107,924	-0,077	-0,066
-146,804	540,661	-0,071	0,122
-145,789	-159,097	-0,109	-0,004
-144,775	-200,000	0,008	-0,100
-143,760	800,000	-0,106	-0,215
-142,745	-200,000	0,004	-0,049
-141,731	800,000	-0,034	-0,069
-140,716	-200,000	0,000	0,025
-139,702	370,634	0,062	0,091
-138,687	-200,000	-0,010	-0,037
-137,672	-48,956	-0,147	0,051
-136,658	468,243	0,062	-0,100
-135,643	-200,000	-0,006	-0,056
-134,629	317,278	-0,079	-0,107
-133,614	-200,000	0,000	0,077
-132,599	62,886	0,115	0,083
-131,585	800,000	-0,042	0,106
-130,570	-200,000	0,011	-0,163
-129,556	-153,294	-0,075	-0,004
-128,541	-200,000	0,004	-0,052
-127,526	-200,000	0,007	0,034
-126,512	800,000	0,052	0,105
-125,497	307,212	0,124	0,167
-124,483	-165,416	0,118	-0,004
-123,468	-85,400	-0,098	0,022
-122,453	-4,229	0,071	-0,035
-121,439	-69,468	0,066	-0,018
-120,424	-200,000	-0,030	0,111
-119,410	-200,000	0,011	0,047
-118,395	189,583	-0,057	0,061
