DTS Sentinel unit serial number:	SN410029Multiplexer serial number:	ORYXHardware model number:	OX2-SRSoftware version number:	ORYX F/W v4,00 Oryx Data Collector v3.7.2.0data status	okinstallation	B5 Nyhavnadifferential loss correction	single-endedforward channel	channel 2reverse channel	N/Adate	2023/12/13time	09:12:13forward acquisition time	300,00reverse acquisition time	0,00gamma	499,1914k internal	0,3160k external	0,3160temperature offset calibration	1,0000default loss term (dB/km)	0,3820temperature slope calibration	1,0000multiplexer offset coefficient	1,0000multiplexer slope coefficient	1,0000fibre end	0,00T internal ref (°C)	13,66T ext. ref 1 (°C)	-2,73T ext. ref 2 (°C)	-3,02length (m)	temperature (°C)	Stokes	anti-Stokes-744,400	239,811	-0,084	-0,104
-743,385	-97,984	-0,256	0,048
-742,371	-122,718	0,093	0,011
-741,356	18,088	-0,267	0,156
-740,342	-200,000	0,028	0,191
-739,327	-105,357	-0,336	-0,056
-738,312	661,215	-0,054	0,103
-737,298	-96,594	-0,303	-0,058
-736,283	-48,074	0,225	0,080
-735,269	-45,007	-0,253	0,092
-734,254	-56,081	0,096	0,031
-733,239	-147,317	-0,508	-0,031
-732,225	-115,200	0,180	-0,025
-731,210	-78,163	0,043	0,011
-730,196	-200,000	-0,008	-0,074
-729,181	-200,000	0,009	-0,096
-728,167	-200,000	0,015	-0,054
-727,152	800,000	-0,089	-0,199
-726,137	-200,000	-0,011	0,050
-725,123	-40,306	0,034	-0,013
-724,108	-84,911	-0,154	0,035
-723,094	-200,000	0,012	-0,079
-722,079	94,713	-0,102	-0,085
-721,064	710,298	0,049	-0,095
-720,050	-135,156	-0,032	0,003
-719,035	-139,079	0,032	-0,003
-718,021	-200,000	0,019	-0,062
-717,006	193,071	0,004	-0,004
-715,991	-137,565	-0,142	0,012
-714,977	-10,568	-0,064	0,031
-713,962	800,000	-0,042	-0,128
-712,948	198,303	-0,023	-0,026
-711,933	598,640	-0,056	0,103
-710,918	-76,773	-0,133	-0,034
-709,904	-57,108	0,043	0,014
-708,889	92,627	-0,051	0,042
-707,875	-12,754	-0,057	-0,027
-706,860	-123,668	-0,053	0,006
-705,845	-91,390	0,023	0,005
-704,831	800,000	-0,006	-0,018
-703,816	71,019	-0,046	0,035
-702,802	-29,436	-0,087	0,037
-701,787	229,319	-0,023	-0,028
-700,772	-53,822	-0,104	0,035
-699,758	-200,000	0,000	0,011
-698,743	182,476	0,058	0,063
-697,729	-200,000	-0,019	-0,074
-696,714	-200,000	-0,006	-0,158
-695,699	64,482	-0,134	-0,099
-694,685	-32,994	0,095	0,038
-693,670	-37,939	-0,076	-0,029
-692,656	112,771	0,053	0,048
-691,641	-200,000	0,017	-0,089
-690,627	544,479	0,036	-0,063
-689,612	-0,155	0,079	-0,041
-688,597	-200,000	-0,013	-0,074
-687,583	-76,265	0,094	-0,024
-686,568	147,743	-0,039	0,039
-685,554	205,176	-0,085	0,097
-684,539	-200,000	0,017	0,105
-683,524	-6,526	0,006	0,003
-682,510	800,000	0,018	-0,046
-681,495	-41,237	-0,068	0,026
-680,481	328,235	-0,048	-0,068
-679,466	621,997	0,066	-0,123
-678,451	344,055	-0,030	0,043
-677,437	-11,089	-0,078	-0,038
-676,422	-22,659	0,054	0,024
-675,408	89,162	-0,088	0,072
-674,393	89,911	-0,058	0,047
-673,378	509,065	0,039	0,067
-672,364	-200,000	-0,013	-0,081
-671,349	19,631	0,048	0,028
-670,335	-200,000	0,004	-0,089
-669,320	50,105	0,162	0,112
-668,305	800,000	0,018	-0,052
-667,291	270,913	0,032	-0,042
-666,276	-44,624	-0,035	-0,013
-665,262	-200,000	-0,023	-0,127
-664,247	800,000	-0,040	-0,096
-663,232	-17,028	0,042	0,020
-662,218	800,000	0,025	-0,057
-661,203	-109,964	-0,069	0,010
-660,189	23,629	0,044	-0,027
-659,174	473,549	-0,044	-0,072
-658,159	-200,000	0,002	-0,099
-657,145	-200,000	0,036	-0,124
-656,130	-136,492	0,050	-0,004
-655,116	646,546	0,019	0,035
-654,101	83,720	0,081	0,065
-653,086	-200,000	0,004	-0,051
-652,072	-200,000	-0,003	-0,123
-651,057	-34,946	-0,068	-0,027
-650,043	800,000	-0,015	-0,039
-649,028	-62,442	-0,083	0,025
-648,014	-45,057	0,118	-0,043
-646,999	800,000	-0,059	0,176
-645,984	171,449	-0,046	-0,049
-644,970	313,930	-0,104	-0,143
-643,955	7,661	-0,193	-0,106
-642,941	-200,000	-0,006	-0,113
-641,926	26,891	-0,095	-0,058
-640,911	-27,438	0,119	-0,051
-639,897	139,681	0,082	0,079
-638,882	370,869	0,042	0,063
-637,868	800,000	0,024	0,049
-636,853	-68,320	-0,066	0,019
-635,838	-200,000	0,002	0,103
-634,824	411,797	-0,053	0,083
-633,809	-87,419	0,058	0,013
-632,795	-93,100	0,107	0,022
-631,780	168,269	-0,040	0,042
-630,765	-200,000	-0,027	-0,092
-629,751	-98,479	-0,055	0,010
-628,736	-25,037	-0,159	-0,069
-627,722	1,164	0,073	0,038
-626,707	31,308	-0,037	0,024
-625,692	-200,000	0,006	0,107
-624,678	9,669	-0,097	0,054
-623,663	225,281	0,020	0,024
-622,649	-200,000	0,044	-0,179
-621,634	800,000	0,032	-0,077
-620,619	-200,000	0,010	-0,128
-619,605	-27,760	0,095	0,040
-618,590	-200,000	0,039	-0,135
-617,576	-200,000	-0,016	-0,060
-616,561	800,000	0,034	0,084
-615,546	-38,432	-0,097	-0,037
-614,532	-200,000	-0,020	-0,070
-613,517	93,685	-0,054	-0,045
-612,503	237,598	-0,104	-0,126
-611,488	-170,033	-0,098	-0,003
-610,474	-200,000	-0,008	0,092
-609,459	800,000	-0,024	0,063
-608,444	-194,684	-0,091	0,001
-607,430	-200,000	-0,018	-0,132
-606,415	22,490	0,079	-0,047
-605,401	30,268	-0,102	0,063
-604,386	278,704	0,019	0,025
-603,371	800,000	-0,055	0,156
-602,357	-139,361	0,218	-0,017
-601,342	800,000	-0,058	0,166
-600,328	340,835	0,063	0,090
-599,313	800,000	0,047	-0,112
-598,298	-17,741	-0,100	-0,046
-597,284	-59,810	0,226	0,070
-596,269	71,715	-0,068	0,052
-595,255	-131,841	0,108	-0,010
-594,240	800,000	-0,050	-0,145
-593,225	2,061	-0,027	0,014
-592,211	195,820	-0,054	0,060
-591,196	-26,705	-0,079	0,034
-590,182	-88,753	0,044	0,009
-589,167	89,551	0,083	0,068
-588,152	200,189	0,038	-0,042
-587,138	-147,259	0,097	-0,006
-586,123	87,880	-0,058	-0,047
-585,109	-200,000	-0,009	-0,057
-584,094	-17,179	0,038	0,017
-583,079	47,853	0,026	-0,018
-582,065	-200,000	0,019	0,088
-581,050	-108,456	-0,043	0,007
-580,036	-200,000	0,014	-0,071
-579,021	-101,195	-0,144	0,025
-578,006	264,552	-0,056	0,072
-576,992	-180,921	-0,118	0,002
-575,977	-57,218	0,185	-0,059
-574,963	83,623	0,052	0,042
-573,948	-70,909	0,152	-0,042
-572,934	-63,900	-0,050	0,015
-571,919	-200,000	0,043	0,162
-570,904	-122,630	0,073	0,009
-569,890	356,124	-0,085	-0,124
-568,875	-99,270	-0,072	-0,013
-567,861	-200,000	-0,015	0,157
-566,846	-4,130	0,101	-0,051
-565,831	476,240	-0,012	-0,020
-564,817	309,272	0,042	-0,058
-563,802	510,750	-0,060	-0,102
-562,788	193,247	-0,093	-0,103
-561,773	-54,820	-0,046	-0,015
-560,758	655,826	-0,049	-0,093
-559,744	142,104	-0,041	-0,040
-558,729	130,202	0,089	0,083
-557,715	11,714	-0,058	-0,032
-556,700	490,191	0,063	-0,107
-555,685	-52,479	-0,108	0,036
-554,671	-74,510	-0,059	0,015
-553,656	800,000	-0,009	-0,026
-552,642	-8,746	-0,045	-0,022
-551,627	45,444	0,040	-0,027
-550,612	547,784	0,032	-0,057
-549,598	-78,554	-0,140	-0,035
-548,583	-200,000	-0,007	-0,033
-547,569	-56,551	-0,024	-0,008
-546,554	-200,000	-0,022	0,158
-545,539	800,000	-0,058	0,125
-544,525	295,960	-0,049	0,066
-543,510	-86,995	-0,244	0,054
-542,496	-56,607	-0,055	0,018
-541,481	800,000	-0,037	-0,117
-540,466	-200,000	-0,012	0,057
-539,452	364,866	-0,066	0,098
-538,437	128,532	0,171	0,159
-537,423	357,378	0,054	-0,078
-536,408	401,179	-0,080	-0,123
-535,393	-116,892	-0,028	-0,004
-534,379	-200,000	-0,002	-0,022
-533,364	-200,000	-0,004	0,069
-532,350	-200,000	-0,050	0,192
-531,335	548,049	0,048	0,084
-530,321	38,971	-0,102	0,066
-529,306	-200,000	0,026	0,000
-528,291	150,069	0,067	0,066
-527,277	164,354	0,031	-0,032
-526,262	-200,000	-0,006	0,052
-525,248	97,764	0,065	-0,055
-524,233	110,452	-0,078	0,068
-523,218	-74,284	0,116	-0,030
-522,204	-200,000	-0,010	-0,048
-521,189	363,453	0,008	-0,011
-520,175	800,000	0,030	-0,069
-519,160	-200,000	0,017	0,122
-518,145	-121,219	0,109	-0,013
-517,131	800,000	0,028	0,079
-516,116	800,000	0,025	0,059
-515,102	800,000	0,035	-0,104
-514,087	115,743	-0,068	0,061
-513,072	-25,709	-0,090	-0,039
-512,058	-200,000	0,031	-0,131
-511,043	105,632	0,104	-0,090
-510,029	-200,000	0,002	0,065
-509,014	-102,681	0,034	0,006
-507,999	636,192	0,081	-0,150
-506,985	101,036	-0,052	0,044
-505,970	208,469	-0,125	-0,143
-504,956	27,065	0,087	-0,053
-503,941	800,000	-0,039	-0,107
-502,926	402,431	-0,039	0,060
-501,912	-200,000	-0,029	0,194
-500,897	-190,361	0,024	0,000
-499,883	33,912	-0,021	-0,013
-498,868	411,234	-0,056	-0,087
-497,853	169,334	-0,102	-0,107
-496,839	-200,000	0,023	-0,104
-495,824	-127,733	0,021	0,002
-494,810	-200,000	0,016	0,090
-493,795	720,917	0,085	-0,165
-492,781	-200,000	-0,011	-0,052
-491,766	-91,229	-0,064	-0,013
-490,751	791,758	-0,023	-0,047
-489,737	-200,000	-0,009	0,113
-488,722	-200,000	0,003	0,024
-487,708	365,186	-0,027	0,040
-486,693	-200,000	0,008	-0,150
-485,678	504,022	-0,030	-0,051
-484,664	57,099	-0,124	-0,088
-483,649	-74,084	-0,179	0,047
-482,635	-200,000	0,027	-0,129
-481,620	171,708	0,085	0,089
-480,605	224,502	0,104	0,123
-479,591	27,263	-0,068	0,042
-478,576	14,019	0,121	0,069
-477,562	29,228	-0,057	-0,035
-476,547	-95,316	0,142	0,028
-475,532	800,000	0,075	0,164
-474,518	-200,000	0,009	-0,073
-473,503	-200,000	0,011	0,082
-472,489	-109,687	0,103	-0,016
-471,474	54,530	-0,052	0,037
-470,459	-151,051	-0,019	-0,001
-469,445	-200,000	0,005	0,083
-468,430	-108,445	0,095	-0,015
-467,416	800,000	-0,009	-0,021
-466,401	-5,696	-0,111	-0,055
-465,386	578,279	0,040	0,071
-464,372	-138,368	-0,059	-0,005
-463,357	138,084	-0,084	-0,081
-462,343	-22,953	0,058	0,025
-461,328	189,535	-0,032	0,035
-460,313	-56,424	0,047	0,015
-459,299	-200,000	0,012	-0,039
-458,284	-3,371	0,077	0,039
-457,270	400,100	-0,046	-0,071
-456,255	538,870	-0,033	-0,057
-455,241	119,467	-0,029	0,026
-454,226	800,000	0,016	0,033
-453,211	285,348	0,022	0,029
-452,197	-84,874	0,137	0,031
-451,182	-43,579	0,044	0,016
-450,168	116,201	-0,050	0,044
-449,153	175,200	0,051	-0,053
-448,138	605,118	-0,022	-0,039
-447,124	149,659	0,053	0,052
-446,109	-200,000	-0,003	0,049
-445,095	800,000	-0,071	-0,189
-444,080	-2,411	0,245	0,124
-443,065	145,693	0,051	0,050
-442,051	-184,491	-0,040	-0,000
-441,036	-200,000	0,001	-0,066
-440,022	-102,831	-0,123	0,021
-439,007	-79,979	0,130	-0,032
-437,992	274,909	0,082	0,106
-436,978	-200,000	-0,006	0,139
-435,963	22,198	0,127	-0,075
-434,949	-200,000	-0,009	-0,188
-433,934	267,970	-0,065	0,084
-432,919	-200,000	0,012	-0,087
-431,905	2,469	0,150	-0,079
-430,890	-200,000	0,003	0,040
-429,876	49,934	0,019	0,013
-428,861	-200,000	-0,016	0,163
-427,846	800,000	0,070	0,197
-426,832	800,000	0,056	-0,128
-425,817	330,448	0,031	0,043
-424,803	525,594	0,034	0,058
-423,788	642,055	-0,082	-0,152
-422,773	-77,139	0,066	-0,017
-421,759	-188,782	-0,121	0,001
-420,744	-160,046	0,113	0,004
-419,730	800,000	0,023	-0,055
-418,715	97,921	-0,061	-0,051
-417,701	-200,000	0,004	-0,057
-416,686	239,775	-0,057	0,069
-415,671	-161,511	0,063	-0,002
-414,657	670,077	0,051	0,096
-413,642	185,772	-0,058	0,063
-412,628	800,000	-0,021	-0,050
-411,613	252,623	-0,032	-0,040
-410,598	-74,405	-0,114	0,030
-409,584	55,060	0,041	-0,029
-408,569	-79,326	-0,029	-0,007
-407,555	-59,847	0,041	0,013
-406,540	800,000	0,030	0,069
-405,525	-130,971	-0,061	-0,006
-404,511	-30,078	0,138	0,057
-403,496	-73,555	-0,104	-0,027
-402,482	58,457	0,112	0,080
-401,467	-200,000	0,067	0,225
-400,452	-177,308	-0,057	-0,001
-399,438	-200,000	-0,015	0,093
-398,423	-200,000	0,022	0,146
-397,409	-1,434	-0,127	0,065
-396,394	450,934	-0,051	-0,082
-395,379	-200,000	-0,013	0,078
-394,365	429,707	0,078	0,123
-393,350	-47,432	-0,021	0,007
-392,336	534,864	-0,013	-0,023
-391,321	94,140	0,020	0,017
-390,306	-162,275	-0,107	-0,004
-389,292	160,431	-0,104	-0,106
-388,277	-105,435	0,151	-0,025
-387,263	-58,625	0,086	0,027
-386,248	-200,000	0,051	-0,169
-385,233	-130,585	-0,146	0,014
-384,219	54,016	-0,104	-0,073
-383,204	0,768	-0,086	-0,044
-382,190	323,466	0,016	0,023
-381,175	-28,461	-0,081	-0,034
-380,160	-200,000	0,043	0,183
-379,146	-200,000	0,019	0,077
-378,131	800,000	0,011	-0,034
-377,117	-200,000	-0,019	0,087
-376,102	65,754	-0,043	-0,032
-375,088	-131,122	-0,048	-0,005
-374,073	800,000	-0,015	-0,030
-373,058	800,000	0,028	-0,057
-372,044	630,419	0,068	0,125
-371,029	124,494	-0,069	-0,063
-370,015	-200,000	-0,011	0,093
-369,000	800,000	0,017	0,038
-367,985	-47,489	0,040	0,014
-366,971	800,000	-0,055	-0,149
-365,956	-200,000	0,013	-0,084
-364,942	-101,639	0,058	-0,010
-363,927	-14,301	-0,088	0,041
-362,912	-70,115	0,105	0,029
-361,898	-145,599	0,090	-0,006
-360,883	74,281	-0,144	-0,110
-359,869	-122,308	0,110	0,013
-358,854	207,413	0,087	0,099
-357,839	-53,652	0,061	-0,020
-356,825	-146,765	-0,030	-0,002
-355,810	-14,768	0,046	-0,021
-354,796	-139,453	-0,153	-0,012
-353,781	-22,614	0,078	-0,034
-352,766	-200,000	0,011	-0,114
-351,752	-10,691	0,093	-0,044
-350,737	-33,620	0,022	0,009
-349,723	212,185	-0,039	0,045
-348,708	-200,000	-0,037	0,158
-347,693	491,352	-0,074	0,123
-346,679	300,742	0,026	0,034
-345,664	-138,407	-0,094	-0,007
-344,650	-63,656	0,085	-0,025
-343,635	800,000	0,006	0,017
-342,620	-121,965	-0,023	0,003
-341,606	69,188	0,075	-0,056
-340,591	81,518	-0,123	0,097
-339,577	-200,000	-0,004	-0,016
-338,562	146,574	0,127	0,123
-337,548	-200,000	-0,011	-0,046
-336,533	-102,980	0,144	-0,025
-335,518	278,184	0,095	0,123
-334,504	-154,895	0,105	0,005
-333,489	-200,000	0,019	0,074
-332,475	60,141	0,110	0,079
-331,460	-111,478	0,151	0,022
-330,445	-135,408	-0,132	0,011
-329,431	-40,042	0,239	0,090
-328,416	196,630	0,094	0,104
-327,402	800,000	0,050	0,113
-326,387	-36,771	0,065	-0,025
-325,372	-200,000	-0,004	0,089
-324,358	-62,878	0,064	0,019
-323,343	-2,246	0,060	0,030
-322,329	-81,139	-0,131	0,031
-321,314	-76,223	0,172	-0,044
-320,299	94,871	0,055	-0,046
-319,285	-200,000	-0,028	-0,139
-318,270	271,446	-0,019	-0,025
-317,256	-200,000	0,031	-0,113
-316,241	-122,099	-0,163	0,019
-315,226	355,205	0,101	-0,146
-314,212	308,193	0,135	0,183
-313,197	59,876	0,140	-0,100
-312,183	-200,000	0,004	-0,134
-311,168	-136,011	-0,047	0,004
-310,153	-26,276	0,039	-0,017
-309,139	800,000	0,042	-0,103
-308,124	316,507	0,019	-0,026
-307,110	-200,000	0,010	0,128
-306,095	-200,000	-0,001	0,062
-305,080	-200,000	0,013	0,105
-304,066	-200,000	-0,018	0,082
-303,051	742,013	-0,057	-0,111
-302,037	800,000	-0,066	-0,142
-301,022	17,501	-0,082	-0,047
-300,008	-124,865	0,095	0,010
-298,993	193,827	-0,155	0,170
-297,978	-200,000	-0,015	0,074
-296,964	-130,351	-0,208	0,020
-295,949	-22,585	-0,111	-0,048
-294,935	53,031	0,032	0,022
-293,920	109,856	0,122	0,106
-292,905	-156,641	-0,014	0,001
-291,891	11,102	0,019	-0,010
-290,876	-200,000	-0,014	0,067
-289,862	278,664	0,074	0,096
-288,847	-101,224	-0,153	-0,027
-287,832	-93,939	-0,120	0,024
-286,818	52,554	-0,102	-0,070
-285,803	-7,791	0,065	-0,032
-284,789	-6,535	-0,064	0,032
-283,774	-200,000	0,006	0,093
-282,759	-149,465	-0,040	0,002
-281,745	100,422	-0,059	-0,050
-280,730	788,539	0,022	-0,043
-279,716	24,705	-0,111	-0,066
-278,701	-200,000	-0,014	0,045
-277,686	148,828	0,044	0,043
-276,672	-155,882	0,160	-0,007
-275,657	800,000	-0,012	-0,036
-274,643	-183,491	0,055	-0,001
-273,628	540,040	-0,085	-0,147
-272,613	-111,119	-0,080	-0,012
-271,599	-134,194	-0,114	0,010
-270,584	800,000	-0,015	0,036
-269,570	-51,140	-0,043	-0,015
-268,555	545,295	0,034	0,059
-267,540	171,659	-0,019	-0,019
-266,526	58,409	-0,071	0,050
-265,511	28,254	-0,119	-0,073
-264,497	-143,494	-0,118	-0,008
-263,482	-57,361	-0,081	-0,026
-262,467	-200,000	-0,002	-0,072
-261,453	-92,446	0,172	0,035
-260,438	38,954	-0,081	-0,052
-259,424	562,583	-0,054	0,094
-258,409	154,284	-0,040	-0,040
-257,395	88,186	0,060	0,048
-256,380	142,719	0,052	-0,050
-255,365	167,676	0,060	-0,062
-254,351	29,692	-0,046	-0,028
-253,336	133,787	0,051	-0,047
-252,322	800,000	-0,050	-0,152
-251,307	800,000	0,047	-0,131
-250,292	125,594	0,013	-0,012
-249,278	-129,772	0,111	-0,011
-248,263	800,000	-0,032	-0,079
-247,249	103,075	-0,030	0,025
-246,234	-137,051	0,053	-0,004
-245,219	-89,560	-0,048	0,010
-244,205	563,310	-0,045	-0,079
-243,190	451,586	0,032	0,051
-242,176	-97,216	0,048	0,009
-241,161	96,573	-0,078	0,065
-240,146	44,561	0,075	-0,050
-239,132	-102,989	-0,100	0,017
-238,117	191,269	0,091	-0,099
-237,103	800,000	0,042	-0,092
-236,088	116,153	0,096	-0,085
-235,073	-84,958	-0,074	0,017
-234,059	415,391	0,021	-0,033
-233,044	114,291	-0,011	0,009
-232,030	-29,828	-0,098	-0,040
-231,015	317,104	-0,120	-0,164
-230,000	-200,000	0,017	0,071
-228,986	-91,912	0,052	0,011
-227,971	45,014	0,194	-0,129
-226,957	288,545	0,114	0,149
-225,942	14,494	-0,013	-0,008
-224,927	34,967	-0,113	0,071
-223,913	-200,000	-0,026	-0,190
-222,898	109,726	-0,094	-0,081
-221,884	800,000	0,026	0,072
-220,869	800,000	-0,027	-0,084
-219,855	800,000	0,031	0,089
-218,840	504,436	0,045	0,075
-217,825	67,620	-0,093	-0,068
-216,811	-200,000	-0,020	0,162
-215,796	74,078	-0,078	-0,059
-214,782	800,000	-0,071	-0,183
-213,767	355,686	-0,094	0,136
-212,752	800,000	0,083	-0,206
-211,738	287,701	-0,034	-0,045
-210,723	-200,000	-0,001	0,033
-209,709	184,669	-0,071	-0,076
-208,694	189,883	0,067	0,073
-207,679	-6,693	0,128	-0,062
-206,665	755,756	0,020	0,039
-205,650	-200,000	0,009	-0,089
-204,636	-170,928	0,227	0,005
-203,621	47,038	-0,050	0,034
-202,606	86,085	-0,081	-0,064
-201,592	-200,000	-0,017	-0,086
-200,577	800,000	-0,010	0,025
-199,563	32,417	0,118	-0,074
-198,548	312,308	0,014	0,019
-197,533	-200,000	-0,001	0,072
-196,519	-161,559	-0,127	0,005
-195,504	-200,000	-0,042	0,000
-194,490	27,204	0,117	-0,071
-193,475	-3,790	0,024	0,012
-192,460	160,369	0,054	0,054
-191,446	161,420	0,080	0,080
-190,431	405,641	0,091	0,138
-189,417	-200,000	-0,014	-0,147
-188,402	-131,510	0,023	-0,002
-187,387	-69,697	-0,029	-0,008
-186,373	14,713	-0,055	0,031
-185,358	248,558	-0,037	0,045
-184,344	781,667	0,010	-0,021
-183,329	800,000	0,049	0,124
-182,315	247,540	0,017	0,020
-181,300	-200,000	-0,045	-0,169
-180,285	-200,000	-0,040	-0,167
-179,271	443,967	-0,063	0,100
-178,256	-200,000	0,003	0,136
-177,242	141,146	0,055	-0,053
-176,227	-177,905	0,094	0,002
-175,212	-200,000	-0,011	0,165
-174,198	-200,000	-0,021	-0,085
-173,183	724,959	-0,047	-0,090
-172,169	800,000	-0,060	-0,164
-171,154	-78,258	-0,048	-0,012
-170,139	-108,739	0,109	0,017
-169,125	-200,000	0,038	0,156
-168,110	-2,940	0,202	0,101
-167,096	-184,973	0,047	0,001
-166,081	-63,584	-0,198	-0,058
-165,066	800,000	-0,069	-0,193
-164,052	471,743	-0,087	0,141
-163,037	-200,000	-0,020	0,090
-162,023	-132,677	0,137	0,012
-161,008	368,967	-0,085	-0,125
-159,993	-200,000	0,011	0,038
-158,979	28,281	0,045	-0,027
-157,964	-134,860	0,070	0,006
-156,950	-108,737	-0,075	0,011
-155,935	-200,000	-0,027	-0,111
-154,920	800,000	-0,033	0,102
-153,906	542,798	-0,084	0,145
-152,891	32,200	-0,025	-0,016
-151,877	25,048	0,099	-0,059
-150,862	106,857	-0,095	-0,081
-149,847	-72,674	0,082	-0,022
-148,833	12,545	-0,013	0,007
-147,818	14,754	0,146	0,082
-146,804	659,355	0,026	-0,049
-145,789	-109,264	0,033	-0,005
-144,775	-200,000	-0,028	-0,134
-143,760	780,264	-0,013	-0,026
-142,745	467,731	-0,011	0,018
-141,731	-91,580	-0,020	-0,004
-140,716	124,704	-0,088	-0,080
-139,702	129,841	-0,021	0,020
-138,687	-106,587	0,028	0,004
-137,672	72,541	-0,068	-0,051
-136,658	800,000	-0,051	-0,128
-135,643	3,336	0,088	-0,046
-134,629	397,352	0,035	0,053
-133,614	800,000	0,009	-0,023
-132,599	-170,978	0,134	0,003
-131,585	503,099	-0,064	0,108
-130,570	725,338	-0,055	-0,106
-129,556	-187,207	-0,042	0,000
-128,541	-156,514	-0,095	0,004
-127,526	271,246	0,070	-0,089
-126,512	-200,000	-0,001	0,022
-125,497	180,332	0,047	0,049
-124,483	421,512	0,026	0,040
-123,468	-97,291	-0,112	0,021
-122,453	66,321	0,112	-0,082
-121,439	357,857	0,060	0,087
-120,424	346,949	-0,085	0,121
-119,410	135,380	0,061	0,057
