DTS Sentinel unit serial number:	SN410029Multiplexer serial number:	ORYXHardware model number:	OX2-SRSoftware version number:	ORYX F/W v4,00 Oryx Data Collector v3.7.2.0data status	okinstallation	B5 Nyhavnadifferential loss correction	single-endedforward channel	channel 2reverse channel	N/Adate	2023/12/13time	12:47:13forward acquisition time	300,00reverse acquisition time	0,00gamma	499,1914k internal	0,3161k external	0,3161temperature offset calibration	1,0000default loss term (dB/km)	0,3820temperature slope calibration	1,0000multiplexer offset coefficient	1,0000multiplexer slope coefficient	1,0000fibre end	0,00T internal ref (°C)	14,25T ext. ref 1 (°C)	-1,55T ext. ref 2 (°C)	-1,83length (m)	temperature (°C)	Stokes	anti-Stokes-744,400	-46,796	0,137	0,049
-743,385	18,587	-0,382	0,224
-742,371	66,561	0,104	0,078
-741,356	-68,707	-0,298	0,084
-740,342	112,411	0,119	0,106
-739,327	-169,785	-0,400	-0,010
-738,312	-163,844	0,145	0,005
-737,298	-111,089	-0,322	0,048
-736,283	800,000	0,030	0,080
-735,269	-107,545	-0,283	-0,045
-734,254	279,844	0,077	0,102
-733,239	119,972	-0,418	-0,381
-732,225	38,025	0,130	0,085
-731,210	800,000	0,022	0,050
-730,196	188,600	0,058	-0,063
-729,181	-200,000	-0,039	-0,153
-728,167	-200,000	0,005	-0,040
-727,152	-200,000	-0,027	-0,096
-726,137	-168,491	-0,150	0,004
-725,123	12,924	0,040	0,023
-724,108	5,385	-0,105	0,057
-723,094	800,000	0,025	-0,068
-722,079	78,705	0,031	-0,024
-721,064	-200,000	-0,035	-0,134
-720,050	102,716	0,081	0,070
-719,035	-74,757	-0,163	0,043
-718,021	-200,000	0,010	-0,044
-717,006	-29,578	-0,183	-0,077
-715,991	-29,903	-0,136	-0,057
-714,977	800,000	0,044	-0,114
-713,962	211,372	0,064	-0,074
-712,948	-68,743	-0,013	-0,004
-711,933	42,633	-0,036	-0,024
-710,918	91,740	-0,055	-0,046
-709,904	72,511	-0,046	0,035
-708,889	800,000	-0,043	-0,094
-707,875	286,950	-0,067	-0,089
-706,860	-155,139	0,111	0,005
-705,845	22,746	0,062	0,037
-704,831	613,204	0,043	-0,079
-703,816	-200,000	-0,017	-0,117
-702,802	398,094	-0,042	-0,065
-701,787	-48,527	-0,130	-0,046
-700,772	-200,000	0,010	-0,092
-699,758	21,614	0,099	-0,059
-698,743	-200,000	-0,013	-0,148
-697,729	-141,434	-0,205	0,015
-696,714	-61,922	0,112	0,034
-695,699	-165,272	-0,031	0,001
-694,685	318,747	0,090	-0,126
-693,670	85,195	0,068	-0,054
-692,656	146,041	-0,021	-0,021
-691,641	48,176	0,061	0,042
-690,627	167,963	-0,104	0,109
-689,612	363,035	-0,125	0,185
-688,597	-200,000	-0,006	0,100
-687,583	460,115	-0,060	0,099
-686,568	-200,000	-0,048	-0,170
-685,554	-60,724	0,061	-0,019
-684,539	232,642	-0,152	0,184
-683,524	-3,270	0,033	0,017
-682,510	-163,660	-0,063	0,002
-681,495	-86,089	0,028	0,006
-680,481	800,000	-0,077	-0,177
-679,466	-59,613	-0,111	-0,035
-678,451	-200,000	-0,015	-0,101
-677,437	-133,800	0,088	-0,008
-676,422	-200,000	0,021	0,213
-675,408	-156,930	-0,048	-0,002
-674,393	-171,772	-0,186	0,004
-673,378	-19,822	-0,127	-0,058
-672,364	722,132	-0,106	-0,208
-671,349	-200,000	0,004	-0,068
-670,335	288,688	0,011	0,015
-669,320	-200,000	0,022	-0,117
-668,305	-200,000	0,039	-0,127
-667,291	-200,000	-0,010	-0,038
-666,276	-72,111	-0,125	-0,034
-665,262	-200,000	0,022	-0,150
-664,247	-0,985	-0,089	0,046
-663,232	166,868	-0,080	0,083
-662,218	333,859	0,067	0,096
-661,203	-157,400	0,137	0,006
-660,189	-200,000	0,003	-0,055
-659,174	-32,312	-0,106	-0,043
-658,159	800,000	-0,038	-0,118
-657,145	74,233	-0,068	-0,052
-656,130	-130,384	-0,028	-0,003
-655,116	-81,361	0,085	0,020
-654,101	67,207	-0,051	-0,038
-653,086	-74,384	-0,060	0,016
-652,072	203,798	0,027	0,031
-651,057	-200,000	0,001	-0,082
-650,043	186,426	-0,127	0,139
-649,028	800,000	-0,052	-0,133
-648,014	800,000	0,046	0,119
-646,999	-200,000	-0,008	-0,084
-645,984	284,710	0,026	0,035
-644,970	-190,128	-0,093	-0,001
-643,955	274,053	-0,029	-0,038
-642,941	386,422	0,063	0,096
-641,926	3,604	0,023	0,012
-640,911	800,000	0,013	0,031
-639,897	75,780	-0,106	0,082
-638,882	160,659	0,060	-0,061
-637,868	80,952	-0,027	-0,021
-636,853	-200,000	0,023	-0,131
-635,838	-200,000	0,009	-0,084
-634,824	-24,249	-0,099	0,043
-633,809	1,903	-0,049	-0,026
-632,795	-147,573	0,128	-0,008
-631,780	800,000	0,022	0,065
-630,765	-177,664	0,092	-0,002
-629,751	-4,642	-0,132	-0,066
-628,736	-200,000	-0,009	-0,306
-627,722	800,000	-0,024	-0,058
-626,707	405,712	-0,068	0,106
-625,692	-103,056	0,078	0,013
-624,678	800,000	0,018	-0,051
-623,663	479,932	0,114	-0,190
-622,649	56,722	0,040	0,029
-621,634	133,542	-0,038	0,036
-620,619	-200,000	0,014	-0,218
-619,605	206,264	0,044	-0,050
-618,590	-200,000	-0,011	0,134
-617,576	-20,800	0,073	-0,033
-616,561	-24,704	-0,093	0,041
-615,546	-39,068	-0,123	0,047
-614,532	-200,000	-0,032	-0,140
-613,517	-200,000	-0,006	0,103
-612,503	-69,164	-0,062	0,017
-611,488	-12,603	-0,097	0,046
-610,474	800,000	0,010	0,028
-609,459	-142,816	-0,087	0,006
-608,444	-13,278	0,121	-0,057
-607,430	-200,000	0,007	-0,096
-606,415	-81,181	-0,070	-0,017
-605,401	234,204	0,059	-0,071
-604,386	49,784	-0,008	0,005
-603,371	-99,490	0,093	-0,017
-602,357	-200,000	-0,026	-0,091
-601,342	-200,000	-0,012	0,054
-600,328	-200,000	0,029	-0,104
-599,313	-30,656	-0,070	0,029
-598,298	-200,000	0,003	-0,029
-597,284	170,430	0,080	0,084
-596,269	110,626	0,043	-0,038
-595,255	-155,815	0,165	-0,008
-594,240	-7,289	-0,060	-0,030
-593,225	-96,550	0,039	0,008
-592,211	-177,063	-0,140	0,003
-591,196	688,044	-0,050	-0,096
-590,182	-200,000	0,013	-0,106
-589,167	-122,279	0,138	0,016
-588,152	132,606	-0,065	0,062
-587,138	-48,169	-0,056	-0,020
-586,123	-46,074	-0,089	0,032
-585,109	-200,000	-0,041	-0,172
-584,094	113,671	-0,039	-0,035
-583,079	-49,568	0,044	-0,015
-582,065	430,148	0,036	0,057
-581,050	142,648	0,058	-0,056
-580,036	475,321	-0,055	-0,091
-579,021	72,869	-0,105	-0,080
-578,006	-200,000	-0,005	-0,088
-576,992	-200,000	0,022	0,107
-575,977	-200,000	-0,001	0,015
-574,963	-200,000	-0,009	-0,093
-573,948	178,483	0,044	0,047
-572,934	-200,000	0,010	0,048
-571,919	-12,403	-0,173	-0,082
-570,904	97,701	-0,117	0,098
-569,890	526,936	-0,055	0,096
-568,875	19,834	-0,010	0,006
-567,861	-113,008	-0,082	-0,012
-566,846	-0,780	0,051	-0,026
-565,831	-200,000	0,005	-0,102
-564,817	258,469	-0,097	-0,123
-563,802	306,722	0,021	-0,029
-562,788	-200,000	-0,018	-0,070
-561,773	-200,000	-0,005	-0,028
-560,758	-49,089	0,089	-0,031
-559,744	32,367	0,179	0,113
-558,729	-70,799	-0,167	-0,046
-557,715	140,067	-0,005	0,005
-556,700	-62,903	-0,062	0,019
-555,685	262,696	0,053	-0,068
-554,671	308,274	-0,053	-0,073
-553,656	-200,000	-0,014	0,114
-552,642	33,280	0,007	0,005
-551,627	-200,000	-0,026	0,105
-550,612	-59,888	-0,067	0,021
-549,598	800,000	0,052	0,138
-548,583	-134,465	0,103	-0,009
-547,569	378,436	0,041	0,061
-546,554	29,195	-0,021	-0,013
-545,539	143,371	-0,015	0,014
-544,525	59,572	-0,099	0,071
-543,510	46,978	0,083	-0,056
-542,496	28,292	0,077	-0,048
-541,481	283,324	0,008	0,011
-540,466	91,271	0,075	-0,061
-539,452	9,812	0,079	0,044
-538,437	247,830	-0,082	0,101
-537,423	76,657	-0,012	-0,009
-536,408	-200,000	0,002	0,008
-535,393	42,102	-0,078	0,052
-534,379	34,639	-0,032	0,020
-533,364	-26,633	0,059	0,025
-532,350	259,303	0,105	0,132
-531,335	667,899	-0,018	0,035
-530,321	12,892	0,069	0,039
-529,306	158,678	0,080	0,081
-528,291	82,858	-0,132	-0,104
-527,277	-200,000	-0,012	-0,042
-526,262	3,230	-0,032	0,017
-525,248	-75,829	0,114	-0,029
-524,233	519,051	-0,057	-0,099
-523,218	-164,424	0,146	0,005
-522,204	440,579	0,035	-0,056
-521,189	-200,000	-0,001	-0,057
-520,175	-200,000	-0,019	0,120
-519,160	-200,000	0,050	0,165
-518,145	-200,000	0,047	0,159
-517,131	105,313	-0,104	0,089
-516,116	88,924	0,105	0,085
-515,102	-191,699	0,105	-0,001
-514,087	129,538	-0,083	0,077
-513,072	800,000	-0,019	-0,057
-512,058	-200,000	-0,014	-0,066
-511,043	800,000	0,017	-0,048
-510,029	-139,538	0,125	0,010
-509,014	186,517	0,037	-0,040
-507,999	184,388	-0,066	-0,072
-506,985	5,410	0,122	0,066
-505,970	465,163	0,033	-0,054
-504,956	-200,000	-0,006	-0,035
-503,941	-200,000	0,004	0,035
-502,926	291,190	-0,051	0,068
-501,912	-200,000	0,037	0,171
-500,897	112,486	-0,081	0,071
-499,883	800,000	0,016	-0,046
-498,868	800,000	-0,030	-0,090
-497,853	317,556	-0,105	-0,146
-496,839	-91,191	0,080	-0,017
-495,824	-200,000	-0,000	0,033
-494,810	133,228	0,040	-0,038
-493,795	-200,000	0,007	0,033
-492,781	-200,000	0,041	-0,136
-491,766	216,646	-0,077	-0,089
-490,751	-200,000	-0,004	-0,059
-489,737	49,103	-0,110	-0,075
-488,722	507,249	0,017	-0,028
-487,708	-200,000	-0,018	-0,064
-486,693	800,000	0,022	0,045
-485,678	-15,880	-0,097	-0,045
-484,664	-58,081	-0,152	-0,048
-483,649	-47,978	-0,121	-0,042
-482,635	77,812	0,084	0,065
-481,620	-200,000	-0,001	-0,039
-480,605	-200,000	0,011	0,046
-479,591	800,000	-0,009	0,029
-478,576	-95,063	-0,070	-0,014
-477,562	800,000	-0,043	-0,114
-476,547	800,000	-0,024	-0,057
-475,532	800,000	0,048	0,144
-474,518	-56,077	0,100	0,032
-473,503	-200,000	0,000	0,127
-472,489	32,215	0,184	-0,116
-471,474	646,776	-0,035	-0,066
-470,459	-200,000	-0,024	-0,097
-469,445	53,558	-0,113	-0,079
-468,430	-19,892	0,025	-0,011
-467,416	509,907	0,044	-0,075
-466,401	377,309	0,071	0,107
-465,386	-49,588	0,063	0,022
-464,372	-59,330	-0,016	-0,005
-463,357	-200,000	-0,017	-0,138
-462,343	348,312	-0,099	-0,142
-461,328	-200,000	0,013	0,122
-460,313	-200,000	-0,021	0,154
-459,299	168,554	0,105	0,109
-458,284	-109,952	0,122	0,018
-457,270	-200,000	-0,002	0,042
-456,255	800,000	-0,017	-0,034
-455,241	800,000	0,027	-0,054
-454,226	122,359	0,066	-0,060
-453,211	-200,000	0,027	0,087
-452,197	112,465	0,085	0,075
-451,182	201,339	0,074	-0,083
-450,168	-200,000	-0,003	-0,009
-449,153	-139,277	0,019	0,001
-448,138	-130,708	0,017	-0,002
-447,124	97,257	-0,108	-0,090
-446,109	436,909	0,077	0,122
-445,095	-58,097	-0,028	-0,009
-444,080	-118,204	0,142	0,018
-443,065	-106,539	0,012	0,002
-442,051	-78,217	-0,076	0,019
-441,036	-200,000	-0,046	-0,192
-440,022	403,939	0,084	-0,129
-439,007	800,000	-0,052	-0,106
-437,992	18,638	0,164	0,095
-436,978	-89,679	0,014	-0,003
-435,963	339,793	-0,057	0,081
-434,949	800,000	-0,055	0,140
-433,934	202,264	0,015	0,017
-432,919	-75,250	0,064	0,017
-431,905	-118,464	0,035	-0,004
-430,890	372,595	0,051	-0,075
-429,876	251,176	0,062	-0,076
-428,861	-76,790	0,043	-0,011
-427,846	-200,000	0,016	-0,091
-426,832	-154,615	-0,092	0,004
-425,817	-81,313	-0,056	0,013
-424,803	262,736	0,017	0,022
-423,788	142,782	0,021	-0,020
-422,773	-43,986	0,144	0,052
-421,759	-145,646	0,107	0,007
-420,744	275,223	0,018	-0,024
-419,730	-167,791	-0,093	0,003
-418,715	90,958	-0,100	-0,082
-417,701	34,280	0,040	0,026
-416,686	150,278	-0,046	0,046
-415,671	403,112	0,053	0,082
-414,657	119,156	0,121	0,109
-413,642	-134,906	0,040	0,003
-412,628	90,626	0,030	0,025
-411,613	-200,000	0,025	0,127
-410,598	-200,000	-0,004	0,047
-409,584	149,906	-0,083	0,082
-408,569	-200,000	0,044	0,157
-407,555	-139,915	-0,107	-0,008
-406,540	458,625	0,054	-0,088
-405,525	38,194	-0,069	0,044
-404,511	-8,381	-0,047	-0,023
-403,496	-100,433	0,046	-0,008
-402,482	222,264	-0,068	0,080
-401,467	516,818	0,022	-0,037
-400,452	411,901	-0,049	0,075
-399,438	-68,278	-0,069	-0,019
-398,423	-57,330	-0,089	-0,028
-397,409	-96,082	0,088	-0,017
-396,394	-173,113	0,140	-0,003
-395,379	262,614	-0,061	-0,077
-394,365	64,215	0,058	0,043
-393,350	-200,000	-0,039	0,161
-392,336	-116,844	0,114	0,015
-391,321	-52,799	-0,032	-0,011
-390,306	131,614	0,039	-0,036
-389,292	76,938	0,024	0,018
-388,277	-22,249	-0,110	0,048
-387,263	33,684	0,115	-0,073
-386,248	-200,000	-0,006	0,044
-385,233	124,657	-0,071	0,065
-384,219	-200,000	-0,007	0,091
-383,204	-200,000	0,006	-0,097
-382,190	534,091	-0,036	-0,061
-381,175	50,285	-0,035	-0,024
-380,160	105,382	-0,088	0,076
-379,146	140,032	0,099	0,095
-378,131	-128,816	-0,056	0,006
-377,117	661,508	0,071	-0,133
-376,102	-5,626	-0,085	-0,042
-375,088	-31,842	-0,158	0,064
-374,073	-200,000	-0,002	-0,100
-373,058	-134,212	0,119	0,010
-372,044	800,000	-0,021	0,061
-371,029	61,121	0,142	0,102
-370,015	17,129	0,136	-0,078
-369,000	-14,251	-0,142	0,066
-367,985	321,763	-0,075	-0,103
-366,971	-13,435	-0,049	-0,023
-365,956	-66,536	0,068	-0,020
-364,942	732,123	0,067	0,131
-363,927	-200,000	-0,013	0,078
-362,912	37,507	0,095	-0,061
-361,898	776,674	-0,057	-0,114
-360,883	-96,730	-0,099	0,019
-359,869	-200,000	-0,017	-0,079
-358,854	25,813	-0,031	-0,019
-357,839	-33,210	0,118	-0,047
-356,825	800,000	-0,002	0,005
-355,810	800,000	-0,021	-0,049
-354,796	-200,000	-0,010	-0,074
-353,781	800,000	-0,067	-0,141
-352,766	-200,000	0,015	-0,097
-351,752	105,590	-0,117	0,100
-350,737	123,289	0,055	0,050
-349,723	-172,563	0,042	0,001
-348,708	20,335	0,080	0,046
-347,693	44,155	0,039	0,026
-346,679	800,000	-0,036	0,074
-345,664	-200,000	0,029	0,113
-344,650	11,673	-0,071	0,040
-343,635	487,345	0,069	-0,115
-342,620	325,647	0,024	-0,033
-341,606	-29,256	0,096	-0,040
-340,591	800,000	-0,059	-0,189
-339,577	212,750	0,057	-0,066
-338,562	-200,000	0,000	-0,062
-337,548	-90,294	-0,090	0,019
-336,533	124,421	0,037	-0,034
-335,518	-37,247	0,037	-0,014
-334,504	800,000	0,025	0,074
-333,489	265,194	0,049	0,062
-332,475	-200,000	-0,020	-0,079
-331,460	-113,253	0,078	0,011
-330,445	782,763	-0,016	-0,032
-329,431	-81,910	0,143	-0,034
-328,416	642,673	0,081	0,151
-327,402	-99,324	-0,035	0,006
-326,387	77,104	0,084	-0,065
-325,372	-113,755	-0,136	-0,019
-324,358	167,995	-0,027	-0,028
-323,343	178,069	0,035	0,037
-322,329	800,000	-0,034	0,097
-321,314	91,170	0,106	0,086
-320,299	800,000	-0,052	0,155
-319,285	95,913	0,045	-0,037
-318,270	165,616	-0,056	-0,057
-317,256	45,623	0,139	0,093
-316,241	29,910	-0,052	0,032
-315,226	49,224	0,163	0,111
-314,212	-200,000	-0,024	0,086
-313,197	-200,000	0,005	-0,069
-312,183	800,000	-0,076	0,176
-311,168	781,856	-0,075	-0,150
-310,153	319,124	0,006	-0,008
-309,139	800,000	0,031	0,098
-308,124	-43,565	0,083	-0,030
-307,110	800,000	0,005	-0,014
-306,095	-25,652	0,146	-0,062
-305,080	281,092	0,044	-0,057
-304,066	717,596	-0,039	-0,075
-303,051	630,274	-0,024	-0,044
-302,037	192,968	0,096	-0,105
-301,022	21,963	0,051	0,030
-300,008	-200,000	-0,017	-0,175
-298,993	-21,162	0,071	-0,031
-297,978	217,582	0,037	0,043
-296,964	-86,822	-0,049	-0,011
-295,949	211,582	-0,071	-0,080
-294,935	355,586	-0,015	0,022
-293,920	-102,442	0,139	0,024
-292,905	-200,000	-0,009	0,037
-291,891	-139,929	-0,128	0,010
-290,876	-53,938	0,171	0,056
-289,862	800,000	0,037	0,103
-288,847	-200,000	-0,001	0,091
-287,832	458,838	-0,087	0,140
-286,818	-62,048	0,044	0,013
-285,803	-126,691	0,203	0,021
-284,789	-200,000	-0,008	0,097
-283,774	-200,000	0,016	0,067
-282,759	-200,000	0,009	0,053
-281,745	109,586	0,020	0,018
-280,730	-37,404	0,081	-0,031
-279,716	800,000	-0,032	0,066
-278,701	-61,746	0,054	-0,016
-277,686	-68,356	0,157	-0,044
-276,672	58,574	-0,100	0,071
-275,657	800,000	0,037	0,100
-274,643	143,737	-0,122	-0,118
-273,628	-200,000	-0,143	0,000
-272,613	-110,909	-0,070	0,010
-271,599	-121,505	0,085	0,010
-270,584	319,625	0,077	0,106
-269,570	211,784	-0,042	0,048
-268,555	192,343	-0,074	-0,081
-267,540	202,533	-0,106	0,118
-266,526	-200,000	-0,015	-0,099
-265,511	-200,000	0,020	0,102
-264,497	-200,000	-0,005	0,023
-263,482	2,819	0,072	0,037
-262,467	120,721	0,053	-0,047
-261,453	-200,000	-0,026	0,111
-260,438	451,050	-0,023	-0,036
-259,424	-200,000	-0,008	0,040
-258,409	-76,274	-0,085	0,022
-257,395	800,000	0,030	0,072
-256,380	582,331	0,086	0,152
-255,365	-90,066	0,103	0,022
-254,351	-200,000	0,012	0,040
-253,336	-200,000	0,015	0,049
-252,322	300,777	-0,098	0,131
-251,307	-119,863	-0,191	0,023
-250,292	126,615	-0,038	-0,034
-249,278	-200,000	-0,035	0,192
-248,263	800,000	0,066	0,181
-247,249	356,280	0,046	-0,067
-246,234	-17,601	0,055	-0,025
-245,219	-0,569	-0,089	-0,045
-244,205	-24,786	-0,032	-0,014
-243,190	628,557	0,038	0,070
-242,176	462,821	-0,035	0,056
-241,161	745,434	0,083	0,162
-240,146	-200,000	0,015	-0,096
-239,132	-98,053	0,128	-0,024
-238,117	141,468	-0,049	-0,047
-237,103	156,812	-0,066	-0,066
-236,088	-200,000	-0,022	0,119
-235,073	-24,831	-0,068	0,029
-234,059	219,365	0,011	0,012
-233,044	19,234	0,114	-0,066
-232,030	-200,000	0,002	0,047
-231,015	-200,000	0,001	-0,008
-230,000	156,720	-0,066	0,066
-228,986	-200,000	-0,001	-0,113
-227,971	-200,000	-0,043	0,159
-226,957	-105,708	-0,075	-0,012
-225,942	-200,000	-0,018	0,109
-224,927	-117,744	0,161	0,021
-223,913	-200,000	-0,021	-0,131
-222,898	66,986	-0,135	-0,099
-221,884	-200,000	-0,004	-0,113
-220,869	-12,940	-0,046	0,022
-219,855	204,694	-0,037	0,042
-218,840	-200,000	-0,010	-0,063
-217,825	-200,000	-0,019	-0,129
-216,811	64,276	-0,053	0,038
-215,796	550,917	-0,044	-0,077
-214,782	121,570	-0,020	-0,018
-213,767	-53,443	0,065	0,021
-212,752	108,271	-0,055	0,047
-211,738	-18,220	0,085	-0,038
-210,723	37,126	-0,065	-0,042
-209,709	148,647	0,059	-0,058
-208,694	-173,315	-0,115	-0,002
-207,679	-126,299	0,088	0,009
-206,665	-44,869	0,020	0,007
-205,650	-200,000	0,004	-0,088
-204,636	-200,000	-0,010	-0,111
-203,621	-71,419	0,134	0,036
-202,606	651,521	-0,074	-0,137
-201,592	800,000	-0,049	-0,114
-200,577	28,263	-0,135	-0,082
-199,563	800,000	0,030	0,085
-198,548	-200,000	-0,004	0,081
-197,533	759,981	-0,033	0,066
-196,519	-200,000	0,030	0,122
-195,504	-58,719	-0,136	-0,042
-194,490	-200,000	-0,005	-0,044
-193,475	130,572	0,079	-0,073
-192,460	5,139	-0,112	0,059
-191,446	-200,000	0,018	-0,064
-190,431	263,830	-0,037	-0,046
-189,417	-200,000	-0,002	-0,079
-188,402	152,991	-0,024	-0,023
-187,387	778,665	0,033	0,065
-186,373	-200,000	-0,005	-0,037
-185,358	24,646	0,015	-0,009
-184,344	-10,539	0,019	-0,009
-183,329	-200,000	-0,009	0,099
-182,315	-150,675	-0,074	0,004
-181,300	39,963	-0,026	0,017
-180,285	800,000	-0,038	0,113
-179,271	800,000	-0,005	0,014
-178,256	188,341	-0,087	-0,094
-177,242	25,665	-0,070	-0,042
-176,227	-200,000	-0,005	-0,041
-175,212	231,897	-0,047	0,055
-174,198	146,459	-0,057	-0,055
-173,183	-200,000	0,001	0,127
-172,169	-96,088	-0,133	0,025
-171,154	402,665	0,033	-0,050
-170,139	-200,000	-0,006	0,070
-169,125	800,000	0,075	0,162
-168,110	-200,000	-0,006	-0,080
-167,096	-26,467	0,135	0,057
-166,081	-4,744	-0,152	-0,075
-165,066	102,508	0,002	0,002
-164,052	460,797	-0,035	-0,056
-163,037	624,899	0,016	-0,029
-162,023	800,000	-0,027	0,054
-161,008	800,000	0,042	-0,103
-159,993	253,933	0,020	-0,024
-158,979	-166,446	-0,065	0,002
-157,964	-200,000	-0,020	-0,080
-156,950	351,693	-0,128	-0,183
-155,935	95,657	-0,096	-0,079
-154,920	-200,000	-0,028	0,210
-153,906	-123,358	-0,074	-0,008
-152,891	91,305	-0,176	0,143
-151,877	800,000	0,060	-0,132
-150,862	800,000	-0,065	-0,188
-149,847	-81,084	0,078	-0,018
-148,833	-200,000	-0,023	0,108
-147,818	800,000	0,052	0,144
-146,804	-86,426	-0,092	0,020
-145,789	554,188	0,022	0,039
-144,775	259,035	0,010	-0,013
-143,760	78,759	0,025	0,019
-142,745	-37,204	-0,040	0,015
-141,731	-54,522	0,120	-0,039
-140,716	800,000	0,071	-0,144
-139,702	-43,151	0,045	0,016
-138,687	800,000	0,027	0,056
-137,672	-200,000	-0,001	0,089
-136,658	-200,000	-0,002	-0,071
-135,643	385,523	0,013	-0,020
-134,629	800,000	-0,026	0,066
-133,614	103,978	0,105	0,089
-132,599	-200,000	0,002	0,025
-131,585	-76,554	0,048	-0,012
-130,570	62,925	0,115	-0,082
-129,556	800,000	-0,034	0,104
-128,541	-200,000	-0,005	-0,068
-127,526	-16,898	-0,095	0,043
-126,512	-126,971	-0,117	-0,012
-125,497	-27,406	0,076	-0,032
-124,483	411,987	0,037	0,056
-123,468	-106,915	-0,076	0,012
-122,453	43,012	0,105	0,069
-121,439	326,092	-0,040	0,055
-120,424	699,529	-0,035	-0,067
-119,410	74,578	0,056	-0,042
