DTS Sentinel unit serial number:	SN410029Multiplexer serial number:	ORYXHardware model number:	OX2-SRSoftware version number:	ORYX F/W v4,00 Oryx Data Collector v3.7.2.0data status	okinstallation	B5 Nyhavnadifferential loss correction	single-endedforward channel	channel 2reverse channel	N/Adate	2023/12/13time	12:27:14forward acquisition time	300,00reverse acquisition time	0,00gamma	499,1914k internal	0,3161k external	0,3161temperature offset calibration	1,0000default loss term (dB/km)	0,3820temperature slope calibration	1,0000multiplexer offset coefficient	1,0000multiplexer slope coefficient	1,0000fibre end	0,00T internal ref (°C)	14,12T ext. ref 1 (°C)	-1,74T ext. ref 2 (°C)	-2,03length (m)	temperature (°C)	Stokes	anti-Stokes-744,400	261,607	0,075	0,095
-743,385	57,007	-0,157	0,113
-742,371	291,011	0,080	0,107
-741,356	-126,625	-0,310	0,033
-740,342	94,524	0,122	0,102
-739,327	-27,063	-0,287	-0,123
-738,312	222,556	0,097	0,116
-737,298	-80,540	-0,394	-0,096
-736,283	16,478	0,123	0,071
-735,269	40,944	-0,221	0,146
-734,254	14,468	0,059	-0,034
-733,239	-35,252	-0,642	-0,256
-732,225	-28,213	0,155	-0,066
-731,210	-13,279	-0,092	0,044
-730,196	223,733	0,008	-0,009
-729,181	-38,247	-0,117	-0,045
-728,167	675,178	-0,012	-0,023
-727,152	-200,000	-0,003	0,029
-726,137	20,434	-0,024	-0,015
-725,123	-200,000	0,021	0,107
-724,108	685,337	-0,073	-0,140
-723,094	432,035	0,024	0,038
-722,079	-131,193	-0,100	0,010
-721,064	-69,274	0,056	-0,016
-720,050	800,000	-0,018	0,049
-719,035	-32,638	-0,015	-0,006
-718,021	91,405	-0,070	-0,058
-717,006	800,000	-0,085	-0,177
-715,991	800,000	-0,012	-0,039
-714,977	209,728	0,089	-0,103
-713,962	-125,262	0,047	-0,005
-712,948	180,404	0,115	-0,124
-711,933	-200,000	0,013	-0,090
-710,918	-200,000	-0,022	0,078
-709,904	382,774	-0,066	-0,100
-708,889	258,083	-0,070	-0,088
-707,875	61,914	-0,151	-0,110
-706,860	-109,928	0,143	0,022
-705,845	-100,461	-0,018	0,003
-704,831	-200,000	0,025	0,138
-703,816	800,000	-0,038	-0,106
-702,802	800,000	0,012	-0,039
-701,787	-200,000	0,005	0,097
-700,772	-200,000	-0,013	0,145
-699,758	181,652	-0,067	0,073
-698,743	339,375	0,132	0,190
-697,729	-200,000	-0,023	-0,077
-696,714	-200,000	-0,025	-0,126
-695,699	-200,000	0,001	0,035
-694,685	-200,000	-0,024	-0,155
-693,670	-200,000	0,032	-0,171
-692,656	-200,000	-0,000	0,073
-691,641	32,574	0,010	-0,006
-690,627	-200,000	0,005	0,035
-689,612	262,235	-0,052	-0,067
-688,597	21,315	-0,047	-0,028
-687,583	800,000	0,006	0,017
-686,568	-54,510	-0,061	0,020
-685,554	42,640	-0,040	-0,027
-684,539	-100,714	0,030	-0,005
-683,524	-200,000	-0,018	0,096
-682,510	-200,000	-0,006	0,023
-681,495	-3,302	-0,109	-0,056
-680,481	-73,088	-0,141	-0,038
-679,466	800,000	-0,025	0,059
-678,451	151,435	0,073	-0,073
-677,437	-94,144	0,162	0,032
-676,422	800,000	0,020	0,052
-675,408	-200,000	0,023	0,080
-674,393	800,000	-0,062	0,140
-673,378	164,360	-0,029	-0,030
-672,364	-175,060	-0,144	0,003
-671,349	-200,000	-0,031	-0,117
-670,335	800,000	0,024	0,056
-669,320	800,000	0,045	0,109
-668,305	89,486	0,041	-0,033
-667,291	194,280	0,075	0,083
-666,276	-200,000	-0,002	0,063
-665,262	800,000	0,021	0,059
-664,247	800,000	-0,079	-0,176
-663,232	50,813	0,049	0,034
-662,218	238,046	-0,023	-0,028
-661,203	800,000	0,065	0,161
-660,189	128,046	0,071	-0,066
-659,174	292,270	-0,129	0,172
-658,159	87,240	0,040	-0,033
-657,145	-200,000	-0,007	-0,080
-656,130	384,910	0,055	0,083
-655,116	-13,945	0,100	0,047
-654,101	800,000	0,033	-0,105
-653,086	-200,000	-0,015	-0,109
-652,072	138,683	-0,114	-0,110
-651,057	-82,965	-0,040	-0,009
-650,043	800,000	-0,094	-0,196
-649,028	-144,168	-0,095	0,006
-648,014	36,219	0,038	0,025
-646,999	-137,393	-0,178	0,015
-645,984	-27,147	-0,027	-0,012
-644,970	183,810	0,085	-0,093
-643,955	-200,000	0,032	-0,114
-642,941	-200,000	0,033	-0,114
-641,926	-13,758	-0,045	0,021
-640,911	428,104	-0,081	-0,129
-639,897	-179,699	0,067	0,001
-638,882	-200,000	0,001	0,008
-637,868	256,826	-0,031	-0,040
-636,853	-200,000	0,002	-0,023
-635,838	-200,000	0,019	-0,162
-634,824	5,115	0,083	-0,045
-633,809	800,000	0,034	0,108
-632,795	69,327	-0,029	-0,022
-631,780	64,149	-0,060	-0,044
-630,765	800,000	0,043	-0,128
-629,751	-82,366	-0,125	-0,030
-628,736	-200,000	0,000	0,046
-627,722	-200,000	-0,006	-0,054
-626,707	95,127	-0,120	0,100
-625,692	366,606	0,007	0,010
-624,678	-200,000	-0,009	0,085
-623,663	43,751	0,096	0,064
-622,649	-92,533	-0,054	-0,011
-621,634	-89,575	-0,027	-0,006
-620,619	-200,000	-0,015	0,138
-619,605	800,000	-0,014	0,030
-618,590	-112,932	-0,029	-0,004
-617,576	-200,000	0,023	0,117
-616,561	-200,000	-0,022	0,104
-615,546	73,307	-0,020	-0,015
-614,532	155,221	-0,008	0,008
-613,517	-200,000	-0,021	-0,077
-612,503	183,062	-0,009	-0,010
-611,488	-200,000	-0,004	0,136
-610,474	178,340	0,052	0,056
-609,459	179,601	-0,096	0,103
-608,444	-104,004	-0,177	-0,030
-607,430	-200,000	-0,006	-0,107
-606,415	149,781	-0,103	-0,102
-605,401	-119,474	0,094	-0,012
-604,386	18,778	0,116	-0,068
-603,371	339,408	-0,039	0,056
-602,357	-105,748	-0,145	0,024
-601,342	-127,085	-0,011	0,001
-600,328	146,949	-0,016	-0,016
-599,313	-200,000	-0,008	0,035
-598,298	49,632	0,131	0,090
-597,284	-200,000	-0,012	-0,044
-596,269	-200,000	0,004	-0,023
-595,255	386,603	-0,034	0,051
-594,240	-137,771	-0,067	-0,005
-593,225	459,659	0,030	-0,049
-592,211	-157,933	-0,131	-0,006
-591,196	-200,000	0,033	-0,142
-590,182	800,000	-0,049	0,131
-589,167	-200,000	-0,008	0,116
-588,152	310,601	0,052	-0,071
-587,138	288,390	0,054	0,072
-586,123	-82,873	-0,148	0,035
-585,109	-200,000	-0,033	-0,127
-584,094	800,000	-0,063	0,137
-583,079	-17,050	0,026	0,012
-582,065	19,825	0,064	-0,038
-581,050	368,956	-0,039	-0,058
-580,036	-123,047	0,102	0,012
-579,021	-200,000	0,002	0,036
-578,006	213,164	0,192	-0,223
-576,992	-39,171	0,101	-0,039
-575,977	-89,436	-0,028	0,006
-574,963	52,432	-0,026	-0,018
-573,948	800,000	0,044	-0,098
-572,934	-140,132	-0,038	-0,003
-571,919	800,000	-0,035	-0,095
-570,904	-81,861	-0,069	0,016
-569,890	-154,747	-0,042	0,002
-568,875	161,419	0,049	0,050
-567,861	304,122	0,029	0,039
-566,846	147,604	0,070	0,069
-565,831	527,228	0,022	0,038
-564,817	-56,353	-0,015	0,005
-563,802	-88,135	-0,128	-0,028
-562,788	-108,167	0,066	-0,010
-561,773	-200,000	-0,019	-0,095
-560,758	56,173	0,066	0,047
-559,744	131,021	-0,128	0,120
-558,729	-200,000	-0,003	-0,080
-557,715	300,943	0,058	-0,079
-556,700	-89,317	0,024	-0,005
-555,685	48,478	-0,115	-0,078
-554,671	-14,783	0,094	0,044
-553,656	-19,637	0,036	-0,016
-552,642	49,248	-0,055	0,037
-551,627	283,694	-0,084	0,111
-550,612	96,581	0,154	0,129
-549,598	-200,000	0,002	-0,047
-548,583	-73,305	-0,100	-0,027
-547,569	242,253	0,046	0,056
-546,554	-200,000	0,021	-0,218
-545,539	208,482	0,041	0,047
-544,525	126,898	-0,019	-0,017
-543,510	-200,000	-0,004	-0,043
-542,496	-200,000	0,006	0,152
-541,481	-58,824	-0,124	-0,039
-540,466	567,864	-0,021	-0,038
-539,452	191,908	0,080	0,088
-538,437	800,000	-0,019	-0,049
-537,423	9,609	0,080	0,044
-536,408	-132,560	0,042	0,004
-535,393	28,434	-0,091	0,056
-534,379	98,540	-0,087	-0,073
-533,364	800,000	0,035	-0,097
-532,350	-47,422	0,147	0,052
-531,335	48,753	-0,073	0,050
-530,321	-200,000	0,023	0,104
-529,306	800,000	-0,054	-0,133
-528,291	67,987	-0,067	0,050
-527,277	-128,226	-0,055	-0,006
-526,262	-200,000	-0,006	-0,176
-525,248	-65,466	0,107	0,031
-524,233	-59,306	-0,064	0,020
-523,218	-125,295	0,132	0,015
-522,204	316,008	-0,097	0,134
-521,189	-200,000	-0,115	0,000
-520,175	18,771	-0,070	0,041
-519,160	504,727	-0,030	-0,051
-518,145	800,000	0,011	-0,024
-517,131	-200,000	0,002	0,018
-516,116	-200,000	0,000	0,039
-515,102	-200,000	-0,007	0,149
-514,087	178,136	0,112	-0,119
-513,072	-128,887	-0,103	-0,010
-512,058	-1,602	0,109	0,056
-511,043	-112,298	0,041	-0,006
-510,029	-189,449	0,165	0,001
-509,014	9,342	-0,016	0,009
-507,999	-24,116	-0,106	0,046
-506,985	26,665	-0,036	0,022
-505,970	274,194	0,021	-0,027
-504,956	-200,000	-0,007	0,040
-503,941	800,000	-0,016	0,045
-502,926	-114,503	-0,120	0,017
-501,912	-152,284	0,231	0,012
-500,897	279,954	0,068	-0,089
-499,883	48,935	0,119	0,081
-498,868	498,067	-0,048	-0,082
-497,853	-200,000	-0,005	-0,024
-496,839	139,653	0,021	-0,020
-495,824	-200,000	0,028	0,106
-494,810	-16,473	-0,016	0,007
-493,795	97,894	0,136	0,114
-492,781	-200,000	-0,018	0,139
-491,766	683,238	0,026	-0,049
-490,751	-200,000	0,010	0,054
-489,737	800,000	-0,008	0,018
-488,722	115,971	0,074	-0,066
-487,708	111,645	-0,097	0,085
-486,693	-178,468	0,076	-0,001
-485,678	-59,964	-0,076	0,024
-484,664	135,481	-0,087	-0,082
-483,649	22,377	-0,110	0,065
-482,635	5,461	0,094	0,051
-481,620	84,135	0,131	0,104
-480,605	-200,000	0,014	-0,064
-479,591	-39,091	0,103	-0,039
-478,576	144,180	0,051	0,050
-477,562	24,140	-0,046	0,027
-476,547	-73,281	-0,131	-0,035
-475,532	-200,000	0,011	0,067
-474,518	495,838	0,025	0,043
-473,503	574,949	0,043	-0,078
-472,489	-40,513	0,130	-0,049
-471,474	275,979	-0,041	0,053
-470,459	-80,775	0,040	0,010
-469,445	291,993	-0,091	-0,121
-468,430	-200,000	-0,002	0,100
-467,416	254,182	0,110	0,138
-466,401	-58,112	0,165	0,052
-465,386	176,618	-0,074	-0,078
-464,372	350,245	0,058	0,083
-463,357	327,558	0,075	-0,105
-462,343	37,922	-0,016	0,011
-461,328	335,651	0,035	-0,049
-460,313	-200,000	-0,000	0,047
-459,299	117,340	0,137	0,122
-458,284	-142,630	-0,165	0,012
-457,270	-129,191	0,091	0,009
-456,255	800,000	-0,050	-0,103
-455,241	-200,000	-0,003	0,020
-454,226	90,638	-0,054	-0,044
-453,211	41,005	-0,063	-0,041
-452,197	230,031	0,125	0,149
-451,182	800,000	-0,005	-0,014
-450,168	-34,979	0,071	-0,028
-449,153	800,000	-0,011	-0,036
-448,138	-24,641	-0,062	-0,027
-447,124	800,000	-0,041	-0,098
-446,109	598,212	0,020	0,035
-445,095	175,598	-0,096	0,102
-444,080	119,380	-0,016	0,014
-443,065	-104,017	-0,036	0,006
-442,051	65,000	0,040	-0,029
-441,036	152,526	-0,052	0,051
-440,022	-68,562	-0,026	0,007
-439,007	-42,973	0,138	0,051
-437,992	-63,326	-0,085	-0,025
-436,978	-200,000	0,002	-0,019
-435,963	-147,672	0,094	-0,006
-434,949	43,856	-0,032	-0,021
-433,934	-75,700	-0,032	-0,008
-432,919	243,062	-0,145	-0,178
-431,905	-177,264	0,059	-0,001
-430,890	-148,944	0,007	0,000
-429,876	70,105	0,009	0,006
-428,861	-9,422	0,049	0,023
-427,846	800,000	0,017	0,048
-426,832	312,576	-0,008	0,011
-425,817	507,721	0,054	-0,091
-424,803	800,000	-0,024	0,059
-423,788	187,564	0,099	0,107
-422,773	439,908	-0,029	0,046
-421,759	122,053	0,021	0,019
-420,744	-38,909	-0,093	-0,036
-419,730	-200,000	0,020	-0,120
-418,715	-146,112	-0,088	-0,006
-417,701	-105,007	0,049	-0,008
-416,686	-0,122	-0,021	0,011
-415,671	800,000	0,018	-0,043
-414,657	-200,000	-0,001	-0,043
-413,642	800,000	0,031	-0,065
-412,628	-200,000	0,003	0,031
-411,613	66,367	-0,193	0,142
-410,598	-199,195	-0,097	-0,000
-409,584	53,412	0,048	0,033
-408,569	-42,411	-0,063	0,023
-407,555	-200,000	-0,001	0,013
-406,540	-68,735	-0,084	-0,023
-405,525	236,854	0,033	0,040
-404,511	800,000	0,014	-0,028
-403,496	-141,504	-0,151	0,011
-402,482	25,975	-0,094	-0,057
-401,467	-200,000	-0,011	0,109
-400,452	-111,949	-0,061	-0,009
-399,438	49,617	-0,042	-0,028
-398,423	-200,000	-0,004	-0,047
-397,409	-200,000	-0,046	-0,149
-396,394	-200,000	0,008	-0,186
-395,379	800,000	0,026	0,069
-394,365	9,665	0,078	-0,043
-393,350	-200,000	-0,006	0,169
-392,336	34,578	-0,075	-0,047
-391,321	800,000	-0,063	-0,150
-390,306	-200,000	-0,000	0,042
-389,292	-118,942	0,061	-0,008
-388,277	168,099	0,071	-0,073
-387,263	-138,974	0,234	-0,018
-386,248	359,470	-0,048	0,069
-385,233	-42,411	-0,114	-0,042
-384,219	-200,000	-0,002	-0,023
-383,204	19,292	0,009	-0,005
-382,190	-200,000	0,015	-0,263
-381,175	283,716	0,014	-0,019
-380,160	-56,755	0,069	0,022
-379,146	-39,090	-0,058	0,022
-378,131	800,000	-0,039	0,095
-377,117	2,955	-0,024	-0,013
-376,102	-99,176	0,107	0,019
-375,088	-200,000	-0,017	-0,184
-374,073	96,748	-0,032	-0,026
-373,058	108,765	-0,069	0,060
-372,044	290,844	-0,095	-0,125
-371,029	-200,000	0,002	0,060
-370,015	-17,786	-0,115	-0,052
-369,000	245,769	-0,030	-0,037
-367,985	40,462	-0,096	-0,062
-366,971	-200,000	-0,056	-0,208
-365,956	208,066	0,083	0,094
-364,942	239,998	0,038	-0,046
-363,927	6,907	0,028	0,015
-362,912	-200,000	-0,001	0,117
-361,898	-200,000	-0,004	0,026
-360,883	-200,000	-0,002	0,012
-359,869	51,359	-0,054	-0,037
-358,854	340,395	0,075	0,107
-357,839	-158,019	-0,135	-0,006
-356,825	103,994	-0,081	-0,069
-355,810	-44,183	-0,081	0,029
-354,796	-200,000	-0,009	0,031
-353,781	321,380	-0,079	-0,110
-352,766	-200,000	-0,002	0,044
-351,752	660,955	0,066	-0,123
-350,737	199,886	0,061	0,069
-349,723	321,553	0,082	0,114
-348,708	169,293	0,028	-0,029
-347,693	-200,000	0,008	0,057
-346,679	-74,251	0,098	-0,025
-345,664	-42,539	0,087	-0,032
-344,650	167,949	-0,096	-0,099
-343,635	-112,903	-0,016	0,002
-342,620	132,092	-0,087	0,081
-341,606	283,746	0,043	0,056
-340,591	-76,268	-0,011	-0,003
-339,577	204,320	-0,056	-0,063
-338,562	-169,989	-0,053	0,001
-337,548	9,822	0,075	0,041
-336,533	-200,000	-0,005	0,047
-335,518	707,141	0,045	-0,087
-334,504	-130,045	0,062	0,006
-333,489	-200,000	-0,017	-0,133
-332,475	-116,523	-0,036	-0,005
-331,460	393,359	-0,088	-0,134
-330,445	-7,820	0,100	-0,049
-329,431	46,353	0,140	-0,094
-328,416	248,508	-0,079	0,097
-327,402	5,214	-0,073	-0,039
-326,387	-117,813	0,109	0,014
-325,372	-200,000	-0,003	-0,120
-324,358	-200,000	0,062	-0,207
-323,343	-13,820	0,028	0,013
-322,329	-52,134	-0,021	0,007
-321,314	-72,139	0,234	0,062
-320,299	-200,000	0,002	0,148
-319,285	770,985	-0,048	0,096
-318,270	-200,000	-0,018	-0,212
-317,256	-200,000	-0,005	0,026
-316,241	74,592	-0,054	-0,041
-315,226	-200,000	0,004	0,091
-314,212	512,649	-0,034	0,057
-313,197	298,894	-0,042	0,056
-312,183	321,287	-0,090	0,124
-311,168	78,537	-0,060	-0,047
-310,153	45,413	-0,101	-0,067
-309,139	-200,000	-0,014	-0,057
-308,124	-200,000	0,001	-0,071
-307,110	14,167	0,115	0,065
-306,095	-39,509	0,137	-0,052
-305,080	294,645	0,029	0,039
-304,066	56,844	-0,057	0,040
-303,051	-98,106	-0,104	-0,019
-302,037	53,665	0,064	-0,044
-301,022	42,054	-0,054	-0,035
-300,008	-200,000	0,012	0,113
-298,993	-8,990	0,099	0,048
-297,978	-139,432	0,259	0,020
-296,964	-59,130	-0,076	0,024
-295,949	36,590	-0,078	-0,050
-294,935	240,901	0,124	0,150
-293,920	-25,883	0,031	-0,013
-292,905	-186,295	0,110	-0,001
-291,891	-137,258	0,155	-0,013
-290,876	263,143	-0,010	-0,013
-289,862	4,627	0,061	0,033
-288,847	60,544	-0,028	0,020
-287,832	-200,000	-0,004	-0,141
-286,818	215,856	0,016	0,018
-285,803	-200,000	-0,010	-0,066
-284,789	-200,000	0,026	0,113
-283,774	-10,617	0,038	-0,018
-282,759	-16,898	-0,084	0,038
-281,745	-78,439	0,063	0,015
-280,730	723,992	-0,025	-0,049
-279,716	-62,473	0,088	-0,026
-278,701	17,163	-0,014	0,008
-277,686	-200,000	0,003	-0,063
-276,672	-200,000	-0,006	-0,124
-275,657	-68,234	0,076	-0,021
-274,643	-105,083	-0,114	0,019
-273,628	118,922	-0,106	0,095
-272,613	-200,000	-0,023	0,087
-271,599	148,725	0,056	-0,055
-270,584	-200,000	-0,004	0,020
-269,570	-140,863	0,101	-0,007
-268,555	67,004	0,058	0,043
-267,540	-74,054	-0,198	0,052
-266,526	-48,465	-0,031	-0,011
-265,511	800,000	0,049	0,106
-264,497	124,046	-0,048	-0,044
-263,482	800,000	-0,027	0,085
-262,467	21,791	0,097	0,057
-261,453	-200,000	-0,006	-0,078
-260,438	53,387	-0,085	0,059
-259,424	-200,000	0,021	0,131
-258,409	682,884	0,054	0,103
-257,395	-36,774	0,047	-0,018
-256,380	-112,770	0,073	0,010
-255,365	86,732	0,067	0,053
-254,351	-200,000	0,022	0,101
-253,336	-200,000	0,022	-0,085
-252,322	-200,000	-0,019	-0,079
-251,307	-180,235	0,084	-0,001
-250,292	34,281	-0,074	-0,047
-249,278	141,581	0,085	0,081
-248,263	39,119	0,020	-0,013
-247,249	800,000	-0,034	0,107
-246,234	194,615	-0,045	0,049
-245,219	-118,524	-0,117	0,015
-244,205	-79,597	0,027	-0,007
-243,190	-34,734	0,101	0,040
-242,176	800,000	-0,029	-0,092
-241,161	443,530	0,021	-0,033
-240,146	-3,506	0,081	-0,041
-239,132	166,288	-0,049	-0,050
-238,117	294,756	0,067	-0,088
-237,103	-31,507	0,123	-0,050
-236,088	-181,336	-0,120	-0,002
-235,073	88,719	0,056	-0,045
-234,059	800,000	-0,045	-0,105
-233,044	20,466	0,006	-0,003
-232,030	297,686	-0,024	-0,031
-231,015	-11,511	-0,042	0,020
-230,000	-49,256	0,176	-0,060
-228,986	157,933	-0,086	-0,086
-227,971	450,270	0,076	0,122
-226,957	800,000	0,028	-0,074
-225,942	523,166	-0,050	0,086
-224,927	130,287	0,088	0,082
-223,913	-200,000	-0,007	0,052
-222,898	-99,667	-0,182	0,033
-221,884	217,194	-0,015	0,017
-220,869	-81,163	0,048	-0,011
-219,855	-200,000	0,009	-0,044
-218,840	-37,209	0,033	0,013
-217,825	397,987	-0,028	-0,042
-216,811	109,515	0,050	0,043
-215,796	537,262	-0,098	-0,169
-214,782	271,586	0,058	0,074
-213,767	800,000	0,016	0,041
-212,752	-200,000	-0,010	0,120
-211,738	33,150	0,075	0,047
-210,723	-4,474	0,072	0,036
-209,709	497,749	-0,022	0,037
-208,694	157,094	0,041	0,041
-207,679	320,982	-0,043	-0,060
-206,665	800,000	0,016	-0,049
-205,650	-26,268	-0,140	0,059
-204,636	18,686	0,053	0,031
-203,621	800,000	0,016	0,036
-202,606	364,759	0,068	0,099
-201,592	288,692	0,040	-0,053
-200,577	-200,000	-0,147	0,000
-199,563	-30,459	0,051	0,021
-198,548	-200,000	-0,005	0,097
-197,533	89,659	-0,039	0,032
-196,519	-200,000	-0,023	-0,094
-195,504	-200,000	0,046	-0,179
-194,490	-200,000	0,006	-0,040
-193,475	224,383	0,025	0,029
-192,460	277,833	-0,053	0,068
-191,446	779,808	0,028	0,055
-190,431	389,684	0,026	0,039
-189,417	800,000	0,019	0,058
-188,402	-42,916	0,146	-0,053
-187,387	-150,107	-0,023	0,001
-186,373	-200,000	0,018	-0,110
-185,358	800,000	0,025	-0,054
-184,344	661,700	-0,035	0,066
-183,329	14,163	0,067	-0,037
-182,315	18,083	-0,109	0,062
-181,300	800,000	-0,080	0,177
-180,285	-136,776	-0,127	0,010
-179,271	286,459	0,042	-0,055
-178,256	134,588	0,074	0,069
-177,242	-31,569	-0,144	-0,058
-176,227	246,007	0,053	-0,064
-175,212	-200,000	0,020	0,197
-174,198	244,319	0,034	0,042
-173,183	793,207	-0,085	-0,169
-172,169	-105,523	-0,049	0,008
-171,154	27,176	-0,043	0,026
-170,139	-200,000	0,013	0,065
-169,125	115,988	0,130	0,115
-168,110	277,427	0,026	0,033
-167,096	323,382	-0,052	-0,071
-166,081	-200,000	-0,007	-0,079
-165,066	243,873	-0,045	0,055
-164,052	800,000	-0,023	0,051
-163,037	255,065	-0,045	0,056
-162,023	-18,938	0,091	-0,041
-161,008	347,786	0,042	0,060
-159,993	-115,927	-0,029	0,004
-158,979	-27,178	-0,082	-0,034
-157,964	22,506	-0,096	-0,056
-156,950	240,017	-0,049	0,058
-155,935	534,865	-0,058	-0,099
-154,920	62,619	0,076	-0,055
-153,906	-200,000	-0,003	-0,138
-152,891	-142,735	0,078	0,005
-151,877	-105,546	0,084	0,014
-150,862	-43,951	-0,036	0,013
-149,847	-98,387	0,106	0,019
-148,833	-200,000	0,013	0,227
-147,818	-116,235	0,133	-0,018
-146,804	800,000	0,056	0,142
-145,789	-22,442	0,118	0,051
-144,775	800,000	0,039	-0,100
-143,760	40,827	-0,038	-0,024
-142,745	746,900	0,027	-0,052
-141,731	-200,000	0,000	-0,011
-140,716	-59,721	0,139	-0,043
-139,702	87,142	0,054	0,043
-138,687	373,964	-0,046	0,068
-137,672	-200,000	0,008	0,095
-136,658	220,744	0,051	-0,059
-135,643	71,257	-0,032	0,023
-134,629	154,186	-0,049	-0,049
-133,614	7,627	0,074	-0,040
-132,599	517,247	0,087	0,147
-131,585	78,287	-0,076	-0,058
-130,570	63,794	-0,144	-0,104
-129,556	69,333	-0,139	0,103
-128,541	800,000	0,020	-0,060
-127,526	718,179	-0,005	-0,010
-126,512	-63,218	-0,107	-0,032
-125,497	25,171	-0,053	0,032
-124,483	-200,000	-0,001	0,110
-123,468	800,000	-0,048	-0,121
-122,453	24,994	0,114	-0,068
-121,439	-63,313	-0,120	-0,035
-120,424	209,953	-0,053	0,060
-119,410	-116,704	0,062	0,008
