DTS Sentinel unit serial number:	SN410029Multiplexer serial number:	ORYXHardware model number:	OX2-SRSoftware version number:	ORYX F/W v4,00 Oryx Data Collector v3.7.2.0data status	okinstallation	B5 Nyhavnadifferential loss correction	single-endedforward channel	channel 2reverse channel	N/Adate	2023/12/14time	07:47:13forward acquisition time	300,00reverse acquisition time	0,00gamma	499,1914k internal	0,3159k external	0,3159temperature offset calibration	1,0000default loss term (dB/km)	0,3820temperature slope calibration	1,0000multiplexer offset coefficient	1,0000multiplexer slope coefficient	1,0000fibre end	0,00T internal ref (°C)	7,10T ext. ref 1 (°C)	-9,24T ext. ref 2 (°C)	-9,33length (m)	temperature (°C)	Stokes	anti-Stokes-744,400	800,000	0,024	0,058
-743,385	-87,106	-0,277	-0,062
-742,371	-70,260	0,280	0,078
-741,356	-68,095	-0,398	-0,113
-740,342	45,568	0,155	0,105
-739,327	20,210	-0,242	-0,143
-738,312	3,309	0,118	0,063
-737,298	-98,293	-0,427	-0,080
-736,283	84,515	0,102	0,082
-735,269	-118,501	-0,270	-0,035
-734,254	-65,439	0,146	0,043
-733,239	-73,136	-0,629	-0,169
-732,225	17,616	0,307	0,179
-731,210	-99,969	0,043	-0,008
-730,196	-45,201	-0,121	-0,044
-729,181	-150,413	0,039	-0,002
-728,167	187,817	-0,092	0,102
-727,152	-200,000	-0,019	0,086
-726,137	-106,327	-0,195	-0,032
-725,123	422,655	-0,032	0,051
-724,108	-200,000	0,008	-0,072
-723,094	-26,644	-0,034	-0,015
-722,079	21,203	-0,085	0,051
-721,064	127,631	-0,057	-0,054
-720,050	-200,000	-0,001	0,179
-719,035	-24,137	0,038	0,017
-718,021	34,276	0,055	0,035
-717,006	7,516	-0,058	-0,032
-715,991	-85,632	-0,165	-0,037
-714,977	-200,000	0,023	-0,122
-713,962	-107,270	-0,111	-0,018
-712,948	-78,379	-0,048	0,012
-711,933	7,265	0,015	-0,008
-710,918	-200,000	0,004	-0,071
-709,904	-126,580	-0,104	0,011
-708,889	-50,747	-0,052	0,018
-707,875	159,382	-0,042	0,043
-706,860	95,947	0,011	0,010
-705,845	-200,000	0,000	-0,034
-704,831	-125,260	0,090	-0,010
-703,816	93,726	-0,121	0,101
-702,802	-200,000	-0,010	-0,065
-701,787	-200,000	0,006	0,060
-700,772	-87,930	-0,094	0,021
-699,758	800,000	-0,067	-0,192
-698,743	-67,593	0,109	0,031
-697,729	800,000	0,044	0,107
-696,714	-98,446	0,017	-0,003
-695,699	-37,608	-0,017	0,007
-694,685	-170,658	-0,126	0,003
-693,670	75,171	0,032	0,025
-692,656	-136,818	-0,050	-0,004
-691,641	589,294	-0,039	0,071
-690,627	-162,941	-0,037	0,001
-689,612	-103,094	0,053	-0,009
-688,597	143,836	-0,102	-0,100
-687,583	95,749	-0,019	-0,016
-686,568	800,000	-0,058	-0,159
-685,554	53,964	0,033	-0,023
-684,539	800,000	-0,041	0,087
-683,524	-200,000	-0,021	0,068
-682,510	8,391	0,059	0,033
-681,495	800,000	-0,055	0,122
-680,481	557,262	-0,000	-0,000
-679,466	-87,978	0,063	-0,014
-678,451	800,000	-0,053	-0,135
-677,437	800,000	-0,014	-0,042
-676,422	-200,000	-0,025	0,132
-675,408	-200,000	-0,024	0,097
-674,393	438,145	0,012	-0,020
-673,378	216,457	-0,042	0,049
-672,364	800,000	0,025	-0,062
-671,349	-32,852	0,077	0,031
-670,335	240,609	0,093	0,115
-669,320	-25,101	-0,117	-0,051
-668,305	-77,908	-0,184	0,046
-667,291	-200,000	-0,031	-0,138
-666,276	-55,097	0,022	-0,007
-665,262	800,000	-0,053	-0,126
-664,247	270,495	0,015	-0,020
-663,232	-123,084	-0,101	-0,012
-662,218	-8,183	0,120	0,059
-661,203	153,722	-0,064	-0,064
-660,189	257,709	-0,030	0,037
-659,174	496,044	-0,074	-0,125
-658,159	-0,482	-0,032	-0,017
-657,145	25,823	-0,040	0,024
-656,130	-94,451	-0,118	-0,023
-655,116	800,000	-0,035	0,114
-654,101	-87,667	0,058	-0,013
-653,086	2,567	-0,093	-0,049
-652,072	165,784	-0,127	-0,132
-651,057	-28,675	-0,098	-0,041
-650,043	60,867	0,030	0,022
-649,028	-180,885	-0,133	-0,002
-648,014	124,609	-0,025	-0,023
-646,999	-2,617	-0,072	-0,037
-645,984	489,412	0,023	-0,038
-644,970	800,000	0,027	-0,083
-643,955	-110,813	-0,144	-0,021
-642,941	363,291	-0,031	0,045
-641,926	-2,504	0,049	0,025
-640,911	190,027	0,140	0,155
-639,897	-200,000	-0,005	0,086
-638,882	-54,939	-0,141	0,046
-637,868	-70,163	0,115	-0,032
-636,853	273,931	-0,068	-0,088
-635,838	-200,000	0,006	-0,122
-634,824	36,490	-0,091	0,059
-633,809	-76,180	0,161	0,041
-632,795	800,000	-0,038	0,121
-631,780	108,825	0,011	-0,010
-630,765	-4,853	0,039	0,020
-629,751	97,223	-0,065	-0,055
-628,736	-115,609	0,017	-0,002
-627,722	222,655	0,045	0,053
-626,707	152,744	-0,085	0,086
-625,692	-200,000	0,037	0,138
-624,678	209,786	0,060	0,069
-623,663	800,000	-0,035	-0,075
-622,649	313,184	0,053	0,073
-621,634	800,000	-0,020	-0,059
-620,619	-137,906	0,115	-0,009
-619,605	-200,000	-0,027	-0,127
-618,590	-132,394	0,028	0,003
-617,576	-55,064	0,208	0,068
-616,561	433,916	-0,054	-0,087
-615,546	-200,000	-0,007	-0,043
-614,532	800,000	-0,059	-0,168
-613,517	-200,000	0,028	-0,112
-612,503	800,000	0,024	-0,064
-611,488	-123,976	0,153	0,017
-610,474	-200,000	-0,001	0,040
-609,459	287,665	-0,041	-0,055
-608,444	2,000	0,102	0,054
-607,430	365,236	-0,058	-0,086
-606,415	337,647	-0,014	-0,020
-605,401	192,697	-0,032	-0,035
-604,386	-106,148	0,128	-0,021
-603,371	166,921	0,062	-0,064
-602,357	-72,454	-0,027	-0,007
-601,342	70,040	-0,061	0,046
-600,328	141,000	-0,091	-0,088
-599,313	800,000	-0,023	0,065
-598,298	-47,735	-0,180	0,064
-597,284	-200,000	-0,008	0,045
-596,269	-152,714	0,114	-0,006
-595,255	-73,561	-0,033	0,009
-594,240	-200,000	0,014	-0,062
-593,225	-105,265	-0,183	0,030
-592,211	-21,824	-0,105	-0,046
-591,196	-200,000	0,004	-0,096
-590,182	-25,156	-0,078	0,034
-589,167	319,525	0,050	0,070
-588,152	-200,000	0,016	-0,055
-587,138	416,897	-0,049	-0,077
-586,123	800,000	-0,035	-0,101
-585,109	-200,000	0,005	-0,071
-584,094	95,247	-0,062	0,052
-583,079	-200,000	0,022	0,119
-582,065	800,000	0,036	0,073
-581,050	-200,000	-0,018	-0,063
-580,036	800,000	-0,079	-0,186
-579,021	800,000	0,012	-0,025
-578,006	73,888	-0,059	0,045
-576,992	-200,000	0,001	0,060
-575,977	-18,689	0,102	0,046
-574,963	-200,000	-0,008	0,084
-573,948	48,819	0,094	0,064
-572,934	337,227	-0,064	-0,092
-571,919	-200,000	0,017	-0,085
-570,904	-135,428	-0,081	-0,007
-569,890	523,662	0,014	0,024
-568,875	-200,000	-0,001	0,040
-567,861	192,439	0,047	-0,052
-566,846	-200,000	-0,009	0,048
-565,831	137,689	-0,120	-0,115
-564,817	618,923	0,023	-0,042
-563,802	49,286	-0,079	-0,054
-562,788	-200,000	0,005	0,082
-561,773	-200,000	-0,008	0,077
-560,758	-200,000	0,001	0,121
-559,744	-17,258	-0,077	0,036
-558,729	-153,822	-0,026	-0,001
-557,715	800,000	0,056	-0,144
-556,700	-30,323	0,047	-0,020
-555,685	800,000	-0,065	-0,178
-554,671	-200,000	0,026	-0,091
-553,656	-82,937	0,071	0,017
-552,642	90,617	0,016	-0,013
-551,627	210,639	0,061	0,070
-550,612	112,324	-0,048	0,042
-549,598	220,937	0,015	0,017
-548,583	187,469	0,046	0,050
-547,569	-14,913	-0,080	0,037
-546,554	-200,000	0,043	0,176
-545,539	-200,000	0,004	0,025
-544,525	242,555	0,061	0,075
-543,510	-200,000	0,011	0,062
-542,496	-200,000	-0,017	-0,188
-541,481	-200,000	-0,002	0,030
-540,466	37,025	-0,102	0,066
-539,452	-200,000	0,029	0,190
-538,437	-25,970	-0,061	-0,026
-537,423	24,353	-0,130	0,078
-536,408	-53,745	0,040	-0,013
-535,393	800,000	0,012	-0,031
-534,379	-125,389	0,075	0,008
-533,364	146,463	-0,009	0,009
-532,350	-74,927	0,071	0,018
-531,335	-32,602	0,162	-0,066
-530,321	178,364	-0,039	0,042
-529,306	74,336	0,102	-0,078
-528,291	173,734	-0,079	-0,083
-527,277	-88,099	0,105	0,023
-526,262	148,963	-0,184	0,182
-525,248	476,601	-0,027	-0,044
-524,233	19,426	0,146	0,086
-523,218	-200,000	-0,021	0,080
-522,204	-200,000	-0,032	-0,153
-521,189	574,784	0,028	0,049
-520,175	7,911	-0,115	0,063
-519,160	-200,000	0,026	0,086
-518,145	800,000	-0,024	0,060
-517,131	-21,712	0,118	0,052
-516,116	151,657	-0,108	0,107
-515,102	561,030	-0,061	0,108
-514,087	207,778	-0,052	0,059
-513,072	53,354	-0,071	-0,049
-512,058	-200,000	-0,010	0,079
-511,043	660,101	-0,068	0,128
-510,029	315,425	0,047	-0,065
-509,014	-19,222	-0,019	0,009
-507,999	270,996	-0,078	0,100
-506,985	236,905	-0,054	-0,065
-505,970	-200,000	-0,011	0,104
-504,956	-122,344	-0,128	-0,015
-503,941	324,572	-0,034	-0,048
-502,926	489,418	-0,019	-0,032
-501,912	35,520	0,103	0,066
-500,897	-74,698	-0,120	0,031
-499,883	-101,438	-0,099	0,017
-498,868	16,606	-0,087	-0,050
-497,853	-200,000	0,007	-0,159
-496,839	-7,075	-0,088	0,044
-495,824	-200,000	0,001	-0,036
-494,810	134,222	0,065	0,061
-493,795	619,770	-0,011	0,021
-492,781	-122,712	-0,108	0,013
-491,766	724,901	-0,059	0,116
-490,751	88,348	-0,075	-0,061
-489,737	-200,000	-0,001	-0,016
-488,722	800,000	0,057	0,115
-487,708	-43,323	-0,038	0,014
-486,693	48,423	0,067	0,046
-485,678	238,849	0,068	-0,083
-484,664	49,773	-0,100	0,069
-483,649	-200,000	-0,007	0,079
-482,635	-29,973	-0,061	0,025
-481,620	800,000	-0,019	0,045
-480,605	-200,000	0,005	0,055
-479,591	-34,098	-0,100	-0,040
-478,576	-174,151	0,063	0,001
-477,562	800,000	-0,012	-0,034
-476,547	-74,817	0,104	0,027
-475,532	82,833	0,047	-0,037
-474,518	27,098	0,130	0,079
-473,503	162,699	-0,124	0,127
-472,489	-200,000	0,015	-0,112
-471,474	-200,000	-0,005	0,056
-470,459	800,000	0,069	-0,209
-469,445	214,797	0,058	-0,067
-468,430	-38,713	0,087	0,033
-467,416	-200,000	0,017	-0,118
-466,401	38,999	0,075	-0,049
-465,386	191,727	-0,016	0,018
-464,372	-69,447	0,045	0,013
-463,357	-200,000	-0,001	0,013
-462,343	17,301	-0,065	-0,038
-461,328	69,925	-0,063	0,047
-460,313	-110,516	0,152	-0,023
-459,299	-42,806	0,070	0,026
-458,284	800,000	-0,071	0,149
-457,270	337,537	0,015	-0,022
-456,255	-39,479	-0,063	-0,024
-455,241	800,000	0,023	0,060
-454,226	116,215	0,033	0,030
-453,211	-200,000	0,009	-0,126
-452,197	800,000	-0,042	0,105
-451,182	51,177	0,016	-0,011
-450,168	127,132	-0,092	-0,085
-449,153	24,735	-0,048	0,029
-448,138	595,908	-0,097	0,175
-447,124	-88,260	0,084	-0,018
-446,109	-200,000	0,014	-0,052
-445,095	247,805	0,049	0,060
-444,080	-43,617	-0,014	0,005
-443,065	9,383	0,086	-0,048
-442,051	800,000	-0,016	-0,046
-441,036	-22,663	0,071	0,031
-440,022	-200,000	-0,023	-0,078
-439,007	-190,569	-0,113	-0,001
-437,992	110,429	0,111	0,097
-436,978	-130,062	0,077	-0,008
-435,963	-200,000	0,001	0,058
-434,949	15,031	-0,083	-0,047
-433,934	-200,000	-0,023	-0,085
-432,919	-200,000	-0,013	-0,051
-431,905	-200,000	-0,005	-0,054
-430,890	-7,988	-0,086	0,042
-429,876	71,140	0,038	-0,029
-428,861	0,880	0,069	0,036
-427,846	191,208	0,030	-0,032
-426,832	150,869	-0,134	-0,133
-425,817	299,635	-0,035	0,047
-424,803	800,000	-0,025	-0,070
-423,788	-200,000	-0,012	0,097
-422,773	-145,094	0,050	0,003
-421,759	800,000	0,036	-0,088
-420,744	-106,964	0,063	0,010
-419,730	-200,000	-0,034	-0,113
-418,715	188,076	0,055	0,060
-417,701	41,941	0,097	-0,064
-416,686	-200,000	-0,057	-0,246
-415,671	-156,183	0,108	-0,005
-414,657	-74,393	-0,038	0,010
-413,642	800,000	-0,061	0,162
-412,628	-200,000	0,046	-0,154
-411,613	421,944	-0,034	0,053
-410,598	-200,000	0,022	-0,081
-409,584	800,000	0,032	0,082
-408,569	-62,206	0,155	0,047
-407,555	800,000	-0,026	0,055
-406,540	-31,894	0,076	0,031
-405,525	800,000	-0,027	0,062
-404,511	383,729	-0,074	-0,112
-403,496	339,846	-0,039	-0,055
-402,482	800,000	0,036	0,081
-401,467	165,448	0,044	0,046
-400,452	-200,000	0,018	-0,071
-399,438	-174,512	0,117	0,002
-398,423	-200,000	0,005	-0,100
-397,409	296,762	0,041	0,055
-396,394	398,804	-0,007	-0,010
-395,379	-200,000	0,039	-0,150
-394,365	800,000	0,034	0,087
-393,350	36,203	-0,041	0,026
-392,336	800,000	-0,033	-0,090
-391,321	800,000	0,014	0,031
-390,306	-94,663	-0,083	-0,016
-389,292	75,414	0,159	-0,122
-388,277	360,990	-0,043	0,063
-387,263	-200,000	0,041	0,139
-386,248	-136,150	0,139	-0,012
-385,233	665,783	-0,008	0,015
-384,219	800,000	-0,063	0,145
-383,204	-130,590	-0,026	-0,002
-382,190	56,987	-0,022	0,015
-381,175	-139,892	0,083	-0,006
-380,160	533,228	-0,029	0,050
-379,146	-46,768	0,162	0,057
-378,131	-150,607	0,099	-0,005
-377,117	65,489	-0,127	-0,093
-376,102	-101,600	-0,015	-0,003
-375,088	-74,264	-0,010	0,002
-374,073	-57,996	-0,131	-0,041
-373,058	-200,000	0,000	-0,084
-372,044	-125,410	0,143	0,016
-371,029	-186,238	-0,125	-0,001
-370,015	232,710	-0,087	0,104
-369,000	-200,000	-0,026	-0,090
-367,985	280,466	0,027	0,035
-366,971	-200,000	0,006	0,044
-365,956	-200,000	-0,037	0,185
-364,942	-88,518	0,033	0,007
-363,927	-131,306	0,127	0,012
-362,912	-0,819	-0,026	-0,013
-361,898	278,070	-0,019	-0,025
-360,883	266,865	-0,025	-0,032
-359,869	-91,678	-0,117	-0,024
-358,854	-88,091	-0,045	0,010
-357,839	-200,000	-0,020	0,147
-356,825	664,808	0,060	0,113
-355,810	-160,537	-0,233	0,009
-354,796	37,136	-0,092	-0,059
-353,781	-200,000	-0,001	-0,024
-352,766	-50,817	-0,022	0,007
-351,752	30,891	0,219	-0,136
-350,737	-200,000	-0,002	-0,022
-349,723	-81,768	-0,053	-0,012
-348,708	208,457	-0,007	-0,008
-347,693	258,302	-0,068	-0,085
-346,679	44,768	0,110	-0,073
-345,664	-200,000	-0,003	0,019
-344,650	482,848	-0,028	0,046
-343,635	800,000	0,033	0,081
-342,620	79,917	0,169	0,132
-341,606	203,976	-0,080	0,090
-340,591	-200,000	0,013	-0,189
-339,577	800,000	-0,030	-0,090
-338,562	143,764	-0,048	0,046
-337,548	-30,530	-0,027	-0,011
-336,533	163,747	0,024	0,025
-335,518	25,969	0,080	0,048
-334,504	-200,000	0,013	-0,118
-333,489	-200,000	-0,002	-0,039
-332,475	124,566	0,099	-0,091
-331,460	-69,506	0,034	0,009
-330,445	377,271	-0,094	-0,139
-329,431	-112,016	0,153	0,022
-328,416	134,351	0,153	0,143
-327,402	-90,882	0,063	-0,013
-326,387	-45,607	0,089	-0,032
-325,372	-200,000	-0,052	-0,249
-324,358	-54,501	0,098	0,032
-323,343	99,453	-0,006	-0,005
-322,329	-32,424	-0,048	0,019
-321,314	376,273	0,021	-0,031
-320,299	-127,164	0,061	0,006
-319,285	-158,913	0,147	0,006
-318,270	-15,091	-0,061	0,028
-317,256	210,118	-0,052	-0,059
-316,241	65,967	0,042	0,031
-315,226	59,292	0,099	0,070
-314,212	8,163	-0,067	-0,037
-313,197	200,287	0,147	-0,164
-312,183	99,856	0,077	-0,064
-311,168	-200,000	-0,006	-0,032
-310,153	746,144	-0,031	-0,061
-309,139	110,641	-0,052	-0,045
-308,124	-88,807	0,064	0,014
-307,110	800,000	0,055	0,120
-306,095	5,531	0,039	0,021
-305,080	58,405	0,036	-0,026
-304,066	28,919	-0,062	-0,038
-303,051	-200,000	-0,006	0,062
-302,037	-17,542	-0,189	-0,086
-301,022	800,000	-0,009	-0,020
-300,008	219,244	-0,040	-0,046
-298,993	508,302	0,034	0,058
-297,978	-89,649	-0,069	-0,015
-296,964	-200,000	0,018	0,088
-295,949	61,758	-0,144	-0,104
-294,935	324,373	-0,033	-0,046
-293,920	550,093	-0,069	-0,121
-292,905	218,894	-0,011	0,012
-291,891	98,438	0,042	0,035
-290,876	188,542	-0,107	0,117
-289,862	-200,000	-0,032	0,104
-288,847	-200,000	0,028	-0,119
-287,832	800,000	-0,127	-0,289
-286,818	274,550	0,056	-0,072
-285,803	30,471	-0,038	0,023
-284,789	-93,944	0,119	0,023
-283,774	58,792	-0,062	-0,044
-282,759	-25,510	-0,159	-0,068
-281,745	105,060	-0,017	-0,014
-280,730	168,651	-0,076	0,079
-279,716	-200,000	0,027	0,101
-278,701	19,927	-0,022	-0,013
-277,686	-200,000	-0,023	0,095
-276,672	-176,844	0,096	-0,002
-275,657	16,902	-0,104	0,059
-274,643	307,022	0,018	-0,024
-273,628	-72,954	-0,081	0,021
-272,613	139,625	-0,019	0,018
-271,599	13,582	0,083	-0,047
-270,584	-200,000	0,007	0,033
-269,570	-200,000	0,005	-0,041
-268,555	-67,705	0,118	0,033
-267,540	-130,362	-0,121	-0,012
-266,526	-200,000	0,011	-0,071
-265,511	-125,573	0,109	-0,012
-264,497	-109,464	-0,093	-0,014
-263,482	-200,000	-0,002	0,059
-262,467	695,241	-0,069	0,131
-261,453	-200,000	-0,020	-0,096
-260,438	30,246	0,048	-0,030
-259,424	-200,000	0,006	-0,066
-258,409	800,000	-0,061	-0,132
-257,395	133,027	0,010	0,010
-256,380	70,788	0,146	0,109
-255,365	22,876	0,057	0,034
-254,351	39,773	0,061	-0,040
-253,336	-200,000	-0,004	-0,076
-252,322	532,686	-0,043	-0,075
-251,307	-123,737	-0,092	0,010
-250,292	-200,000	0,008	-0,029
-249,278	183,139	0,037	0,040
-248,263	175,722	0,024	-0,026
-247,249	2,886	0,110	0,057
-246,234	209,963	-0,056	0,063
-245,219	-200,000	0,001	-0,026
-244,205	800,000	-0,017	0,044
-243,190	-112,335	-0,116	0,017
-242,176	541,775	0,075	0,130
-241,161	117,906	-0,116	0,103
-240,146	-200,000	-0,026	-0,131
-239,132	800,000	0,029	0,078
-238,117	-143,237	0,077	0,005
-237,103	378,730	-0,049	-0,072
-236,088	-200,000	0,000	-0,177
-235,073	-200,000	-0,022	0,133
-234,059	508,633	0,085	0,143
-233,044	-33,597	0,036	-0,014
-232,030	800,000	-0,075	-0,189
-231,015	-115,554	-0,046	-0,006
-230,000	47,596	-0,095	0,064
-228,986	-43,354	0,028	0,010
-227,971	-200,000	0,007	0,116
-226,957	-200,000	0,011	0,078
-225,942	-200,000	-0,025	0,095
-224,927	800,000	-0,031	0,071
-223,913	113,091	0,015	-0,013
-222,898	-200,000	0,012	0,109
-221,884	24,796	-0,047	-0,028
-220,869	-58,804	0,045	-0,014
-219,855	103,545	0,029	-0,024
-218,840	-172,900	0,099	0,002
-217,825	-175,850	0,206	-0,004
-216,811	-200,000	0,017	-0,092
-215,796	800,000	0,030	0,080
-214,782	702,668	-0,086	-0,165
-213,767	62,765	-0,050	0,036
-212,752	-200,000	0,010	0,203
-211,738	800,000	0,025	0,059
-210,723	-200,000	-0,014	0,099
-209,709	-85,879	-0,176	-0,039
-208,694	474,375	0,039	-0,063
-207,679	178,397	-0,015	0,016
-206,665	-140,018	0,088	-0,007
-205,650	-1,149	0,072	-0,037
-204,636	800,000	0,019	0,041
-203,621	332,604	0,018	0,025
-202,606	-200,000	0,006	-0,052
-201,592	-166,792	-0,037	-0,001
-200,577	-200,000	-0,014	-0,081
-199,563	273,895	0,044	0,057
-198,548	800,000	-0,035	0,105
-197,533	800,000	-0,004	-0,009
-196,519	-56,383	0,079	0,025
-195,504	83,960	-0,035	0,027
-194,490	-28,485	0,069	-0,029
-193,475	-40,851	-0,143	-0,053
-192,460	74,922	-0,054	-0,041
-191,446	-200,000	0,030	-0,109
-190,431	-200,000	0,009	-0,028
-189,417	101,974	0,032	0,027
-188,402	800,000	-0,037	-0,098
-187,387	-200,000	-0,010	0,056
-186,373	-40,656	0,039	-0,014
-185,358	-60,482	-0,061	-0,019
-184,344	101,549	0,103	0,086
-183,329	114,419	0,123	0,108
-182,315	657,041	-0,030	-0,056
-181,300	162,309	-0,073	-0,074
-180,285	243,086	0,026	-0,032
-179,271	-200,000	0,016	-0,134
-178,256	342,309	0,134	-0,190
-177,242	356,923	0,044	0,064
-176,227	-200,000	0,012	-0,065
-175,212	398,398	0,098	0,148
-174,198	-90,195	0,100	0,021
-173,183	-130,296	-0,115	0,011
-172,169	422,330	-0,043	-0,067
-171,154	-200,000	-0,003	-0,084
-170,139	488,028	0,103	0,171
-169,125	118,877	0,037	-0,033
-168,110	-200,000	-0,019	0,078
-167,096	-200,000	0,031	-0,112
-166,081	144,749	0,036	0,035
-165,066	-85,073	-0,187	-0,042
-164,052	142,737	-0,047	0,045
-163,037	800,000	-0,069	-0,143
-162,023	-200,000	0,030	0,140
-161,008	-200,000	0,018	0,112
-159,993	-96,912	0,040	-0,008
-158,979	-141,508	-0,041	-0,003
-157,964	111,128	-0,098	-0,085
-156,950	800,000	0,066	0,168
-155,935	260,969	0,068	-0,085
-154,920	-200,000	0,005	-0,028
-153,906	800,000	0,027	-0,067
-152,891	-200,000	0,014	0,066
-151,877	-99,555	0,042	-0,007
-150,862	800,000	-0,011	-0,028
-149,847	-30,376	-0,036	-0,015
-148,833	800,000	0,015	0,042
-147,818	800,000	-0,005	0,011
-146,804	-103,756	-0,077	0,013
-145,789	-200,000	-0,031	-0,115
-144,775	-140,085	-0,036	0,003
-143,760	-84,968	-0,173	0,039
-142,745	1,581	-0,038	-0,020
-141,731	-35,165	-0,091	-0,036
-140,716	263,173	0,098	0,123
-139,702	-200,000	-0,003	0,034
-138,687	800,000	0,020	0,055
-137,672	-57,136	-0,083	-0,026
-136,658	-101,554	0,171	0,030
-135,643	41,193	-0,057	-0,037
-134,629	-200,000	-0,028	-0,101
-133,614	234,033	0,074	0,087
-132,599	800,000	0,010	-0,029
-131,585	-200,000	-0,017	-0,094
-130,570	442,476	-0,103	-0,162
-129,556	355,526	-0,041	0,059
-128,541	-130,386	-0,067	-0,006
-127,526	431,068	-0,018	0,028
-126,512	-200,000	-0,019	-0,169
-125,497	-85,073	0,151	-0,034
-124,483	200,329	0,020	0,022
-123,468	103,113	-0,047	0,040
-122,453	-85,409	0,059	0,013
-121,439	-114,367	-0,050	-0,007
-120,424	77,683	-0,060	-0,046
-119,410	387,487	0,014	-0,021
