DTS Sentinel unit serial number:	SN410029Multiplexer serial number:	ORYXHardware model number:	OX2-SRSoftware version number:	ORYX F/W v4,00 Oryx Data Collector v3.7.2.0data status	okinstallation	B5 Nyhavnadifferential loss correction	single-endedforward channel	channel 2reverse channel	N/Adate	2023/12/13time	20:12:13forward acquisition time	300,00reverse acquisition time	0,00gamma	499,1914k internal	0,3158k external	0,3158temperature offset calibration	1,0000default loss term (dB/km)	0,3820temperature slope calibration	1,0000multiplexer offset coefficient	1,0000multiplexer slope coefficient	1,0000fibre end	0,00T internal ref (°C)	11,02T ext. ref 1 (°C)	-6,04T ext. ref 2 (°C)	-6,12length (m)	temperature (°C)	Stokes	anti-Stokes-744,400	87,584	0,047	0,039
-743,385	-114,002	-0,291	-0,041
-742,371	-90,472	0,263	0,056
-741,356	-71,463	-0,419	-0,115
-740,342	-200,000	-0,014	0,166
-739,327	-23,328	-0,318	-0,140
-738,312	-154,929	0,209	0,010
-737,298	-130,269	-0,473	0,047
-736,283	-0,360	0,117	0,061
-735,269	-55,696	-0,365	0,119
-734,254	259,567	0,107	0,136
-733,239	-10,871	-0,516	-0,250
-732,225	32,675	0,151	0,096
-731,210	26,636	0,047	0,029
-730,196	210,933	-0,061	0,070
-729,181	188,704	0,019	0,021
-728,167	118,617	-0,083	0,075
-727,152	183,645	-0,059	-0,064
-726,137	-93,767	-0,099	0,020
-725,123	-94,669	-0,090	0,018
-724,108	-200,000	-0,029	-0,108
-723,094	800,000	-0,073	-0,153
-722,079	-108,378	-0,209	-0,033
-721,064	-73,890	0,073	0,019
-720,050	-159,236	0,171	0,007
-719,035	800,000	-0,047	-0,133
-718,021	800,000	-0,007	-0,016
-717,006	-9,626	-0,075	0,037
-715,991	60,357	-0,125	-0,091
-714,977	288,264	-0,078	-0,104
-713,962	-200,000	0,021	-0,135
-712,948	-200,000	-0,014	0,113
-711,933	-142,337	-0,026	0,002
-710,918	108,820	-0,204	-0,179
-709,904	-200,000	-0,012	-0,052
-708,889	40,060	-0,162	-0,107
-707,875	58,643	0,087	-0,062
-706,860	521,358	-0,046	-0,080
-705,845	83,070	-0,028	-0,022
-704,831	-78,427	0,177	-0,044
-703,816	113,177	-0,048	0,043
-702,802	-200,000	-0,004	-0,036
-701,787	-200,000	-0,020	-0,109
-700,772	23,033	-0,059	-0,036
-699,758	-31,187	-0,124	0,051
-698,743	800,000	0,043	0,125
-697,729	100,316	-0,072	0,061
-696,714	-11,400	-0,127	0,061
-695,699	-60,949	-0,032	0,010
-694,685	294,673	-0,029	0,039
-693,670	80,575	-0,023	-0,019
-692,656	22,895	-0,083	-0,050
-691,641	453,140	0,051	0,083
-690,627	186,495	0,030	-0,033
-689,612	-83,077	-0,092	-0,022
-688,597	-181,092	-0,109	-0,002
-687,583	-132,973	-0,143	-0,013
-686,568	672,312	0,021	-0,040
-685,554	246,225	-0,036	-0,045
-684,539	233,120	-0,070	-0,085
-683,524	800,000	0,017	0,044
-682,510	-163,572	-0,103	0,004
-681,495	157,197	-0,066	-0,067
-680,481	-166,994	-0,028	-0,001
-679,466	800,000	0,071	0,147
-678,451	-83,399	0,045	0,011
-677,437	403,528	0,029	-0,045
-676,422	147,382	-0,075	-0,074
-675,408	40,012	0,042	0,027
-674,393	152,625	-0,139	-0,140
-673,378	800,000	-0,039	-0,125
-672,364	-91,215	-0,109	-0,023
-671,349	106,022	-0,113	0,098
-670,335	21,818	-0,032	0,019
-669,320	6,386	-0,036	0,019
-668,305	221,064	-0,114	-0,135
-667,291	-200,000	0,044	0,000
-666,276	126,491	-0,009	-0,008
-665,262	621,841	-0,038	-0,071
-664,247	-200,000	0,000	-0,073
-663,232	-15,641	-0,008	0,004
-662,218	-200,000	0,002	0,026
-661,203	-5,018	-0,201	-0,101
-660,189	-131,767	0,107	-0,010
-659,174	135,082	0,050	-0,048
-658,159	-40,537	-0,129	-0,049
-657,145	374,567	-0,083	-0,125
-656,130	156,892	-0,063	0,064
-655,116	-200,000	0,032	0,126
-654,101	785,612	-0,024	0,048
-653,086	-156,477	0,068	0,003
-652,072	135,694	-0,083	-0,080
-651,057	-134,498	-0,109	0,010
-650,043	-68,444	-0,177	-0,050
-649,028	79,928	0,041	0,032
-648,014	640,065	-0,055	0,103
-646,999	-88,931	0,050	-0,011
-645,984	24,845	-0,055	-0,033
-644,970	-200,000	0,021	-0,140
-643,955	-200,000	-0,002	-0,041
-642,941	-92,456	-0,085	-0,017
-641,926	-200,000	0,023	0,092
-640,911	-26,999	0,080	-0,034
-639,897	-105,009	-0,017	0,003
-638,882	800,000	-0,009	-0,024
-637,868	-200,000	0,005	0,027
-636,853	800,000	-0,054	-0,123
-635,838	800,000	0,018	-0,051
-634,824	-89,230	-0,089	0,019
-633,809	800,000	0,043	-0,122
-632,795	60,344	0,088	-0,064
-631,780	-200,000	0,002	-0,158
-630,765	800,000	0,004	0,013
-629,751	144,174	-0,083	0,081
-628,736	-13,300	-0,077	-0,037
-627,722	130,588	-0,047	-0,044
-626,707	546,652	-0,036	0,064
-625,692	-22,168	0,057	0,025
-624,678	211,091	-0,051	0,059
-623,663	-200,000	-0,006	0,130
-622,649	684,630	0,055	-0,107
-621,634	46,786	-0,113	0,077
-620,619	531,173	-0,080	0,139
-619,605	194,676	0,008	0,009
-618,590	158,423	0,023	0,024
-617,576	800,000	0,013	-0,032
-616,561	280,039	-0,077	0,101
-615,546	800,000	-0,101	-0,242
-614,532	800,000	0,030	-0,064
-613,517	388,606	0,085	0,129
-612,503	39,373	-0,073	-0,048
-611,488	336,045	0,055	0,078
-610,474	156,242	0,080	-0,081
-609,459	-23,946	-0,191	0,084
-608,444	57,153	-0,060	-0,043
-607,430	-63,369	-0,092	-0,027
-606,415	-200,000	0,023	-0,124
-605,401	-86,256	0,093	0,021
-604,386	47,745	-0,023	-0,016
-603,371	-42,116	0,103	0,038
-602,357	-99,294	-0,104	0,019
-601,342	44,853	0,113	0,076
-600,328	245,188	-0,111	-0,137
-599,313	-200,000	-0,001	0,042
-598,298	800,000	0,027	-0,077
-597,284	-176,765	0,115	0,002
-596,269	59,693	-0,016	0,011
-595,255	800,000	-0,037	-0,098
-594,240	50,111	-0,106	0,073
-593,225	257,838	0,060	-0,075
-592,211	-59,362	0,137	-0,043
-591,196	-200,000	-0,020	0,108
-590,182	-37,656	0,073	-0,028
-589,167	-169,171	-0,035	-0,001
-588,152	-186,470	-0,006	0,000
-587,138	684,959	-0,039	0,076
-586,123	276,212	-0,042	-0,055
-585,109	199,106	-0,011	0,012
-584,094	-95,022	0,186	-0,036
-583,079	800,000	-0,004	0,013
-582,065	-200,000	-0,012	-0,125
-581,050	84,065	0,055	-0,044
-580,036	247,368	0,076	-0,095
-579,021	-200,000	-0,003	-0,082
-578,006	-81,956	-0,058	0,014
-576,992	-56,109	-0,140	-0,045
-575,977	15,124	0,061	0,035
-574,963	-200,000	-0,005	-0,019
-573,948	382,569	-0,032	0,049
-572,934	800,000	-0,024	0,072
-571,919	-160,826	-0,050	-0,002
-570,904	413,244	-0,061	-0,095
-569,890	800,000	-0,013	0,041
-568,875	-200,000	0,017	-0,106
-567,861	100,679	0,024	-0,020
-566,846	-105,419	0,087	0,014
-565,831	87,072	-0,063	0,051
-564,817	-37,656	-0,048	0,019
-563,802	168,368	-0,064	0,067
-562,788	673,802	-0,021	-0,039
-561,773	-44,845	-0,073	-0,027
-560,758	-78,704	0,095	0,023
-559,744	120,642	-0,089	0,081
-558,729	-200,000	-0,002	0,034
-557,715	116,429	-0,073	0,065
-556,700	557,145	0,070	-0,124
-555,685	177,499	0,015	-0,016
-554,671	-76,566	0,054	0,014
-553,656	101,992	-0,120	-0,103
-552,642	-16,405	-0,109	-0,050
-551,627	490,947	0,112	0,189
-550,612	180,291	-0,099	-0,107
-549,598	-200,000	-0,028	-0,171
-548,583	-49,840	-0,117	0,040
-547,569	4,712	0,108	-0,058
-546,554	260,520	-0,098	0,125
-545,539	163,303	0,056	-0,058
-544,525	-20,925	-0,046	0,021
-543,510	800,000	0,056	0,124
-542,496	-200,000	0,008	-0,100
-541,481	-200,000	0,025	0,089
-540,466	-92,465	0,082	0,017
-539,452	766,228	0,057	0,114
-538,437	0,463	0,101	0,053
-537,423	800,000	-0,020	0,043
-536,408	102,733	-0,048	0,041
-535,393	-200,000	-0,023	0,145
-534,379	-67,204	0,051	-0,015
-533,364	55,976	-0,106	0,075
-532,350	169,171	-0,050	-0,052
-531,335	437,744	-0,056	0,090
-530,321	-200,000	0,037	0,182
-529,306	800,000	-0,041	-0,087
-528,291	472,714	-0,046	0,076
-527,277	17,938	0,058	-0,034
-526,262	-200,000	0,021	0,078
-525,248	-200,000	-0,033	-0,153
-524,233	59,978	0,063	-0,046
-523,218	-23,452	0,072	-0,032
-522,204	56,639	-0,143	-0,101
-521,189	-115,072	0,080	-0,011
-520,175	-127,852	-0,119	-0,012
-519,160	11,966	0,063	-0,035
-518,145	-106,236	0,111	0,018
-517,131	-160,214	0,074	-0,003
-516,116	16,711	0,059	-0,034
-515,102	-122,879	-0,035	0,004
-514,087	334,270	-0,062	-0,088
-513,072	468,550	-0,056	0,092
-512,058	-200,000	-0,016	-0,110
-511,043	800,000	0,033	0,088
-510,029	800,000	-0,054	0,121
-509,014	289,383	0,074	0,098
-507,999	57,791	-0,142	-0,102
-506,985	-200,000	0,003	-0,019
-505,970	800,000	-0,041	-0,123
-504,956	-200,000	0,002	0,013
-503,941	-200,000	-0,010	0,060
-502,926	-200,000	0,002	-0,026
-501,912	64,519	0,076	0,056
-500,897	-200,000	-0,002	0,097
-499,883	-200,000	-0,004	-0,085
-498,868	-152,909	-0,139	0,007
-497,853	-32,839	0,116	0,047
-496,839	-38,368	-0,038	0,015
-495,824	-88,425	0,194	0,042
-494,810	800,000	0,041	0,096
-493,795	-190,999	-0,182	0,001
-492,781	-200,000	0,031	-0,117
-491,766	-200,000	-0,016	-0,072
-490,751	215,626	0,057	-0,066
-489,737	800,000	-0,031	0,100
-488,722	-200,000	0,028	0,183
-487,708	-200,000	0,007	0,060
-486,693	-10,882	0,086	-0,041
-485,678	-200,000	0,012	0,111
-484,664	237,292	0,080	-0,097
-483,649	-95,487	-0,147	0,028
-482,635	800,000	-0,022	0,047
-481,620	-200,000	-0,030	0,105
-480,605	72,639	-0,049	0,037
-479,591	172,047	-0,042	-0,044
-478,576	800,000	0,002	0,005
-477,562	-136,732	-0,122	0,010
-476,547	-200,000	-0,038	-0,133
-475,532	95,135	0,097	0,081
-474,518	316,915	0,101	-0,140
-473,503	-127,888	0,089	0,009
-472,489	-26,883	0,032	0,014
-471,474	-102,817	-0,087	-0,015
-470,459	-200,000	-0,007	-0,050
-469,445	-200,000	-0,006	0,100
-468,430	-43,483	-0,061	-0,022
-467,416	-200,000	0,011	-0,105
-466,401	-29,844	0,049	0,020
-465,386	-46,411	0,092	0,033
-464,372	-200,000	0,011	0,080
-463,357	33,520	-0,128	-0,081
-462,343	800,000	-0,029	-0,086
-461,328	181,048	-0,021	-0,023
-460,313	-17,862	0,065	-0,029
-459,299	344,638	-0,024	0,035
-458,284	553,890	0,011	0,019
-457,270	96,586	-0,147	0,123
-456,255	170,080	-0,139	-0,145
-455,241	45,229	0,048	-0,032
-454,226	157,683	-0,116	-0,118
-453,211	-200,000	-0,030	0,120
-452,197	429,301	0,044	0,070
-451,182	-200,000	-0,010	0,047
-450,168	99,603	0,076	-0,064
-449,153	-97,809	-0,184	0,034
-448,138	-83,890	-0,059	-0,014
-447,124	-200,000	0,004	-0,178
-446,109	-178,312	0,049	-0,001
-445,095	-58,592	0,057	0,018
-444,080	190,505	-0,091	-0,100
-443,065	-200,000	0,003	-0,017
-442,051	-140,077	-0,068	-0,005
-441,036	-83,361	-0,099	0,023
-440,022	-200,000	-0,001	0,081
-439,007	-200,000	-0,021	-0,098
-437,992	800,000	0,045	-0,091
-436,978	-136,636	0,150	0,012
-435,963	-200,000	-0,042	0,145
-434,949	390,065	0,015	-0,023
-433,934	-173,154	0,136	-0,003
-432,919	165,771	-0,054	-0,055
-431,905	-200,000	0,009	-0,072
-430,890	-200,000	0,014	-0,046
-429,876	-133,821	-0,005	0,000
-428,861	488,733	0,071	0,119
-427,846	82,036	-0,052	-0,041
-426,832	-149,290	-0,024	-0,001
-425,817	-17,581	-0,073	0,033
-424,803	-200,000	-0,007	-0,065
-423,788	-65,581	0,108	0,031
-422,773	-29,046	-0,091	-0,038
-421,759	64,391	0,151	0,111
-420,744	-110,296	-0,104	-0,016
-419,730	671,774	0,055	-0,104
-418,715	-154,178	0,073	-0,004
-417,701	368,137	0,069	0,102
-416,686	164,758	0,088	0,090
-415,671	-108,283	0,052	0,008
-414,657	0,232	0,046	0,024
-413,642	800,000	0,061	0,123
-412,628	800,000	0,030	-0,075
-411,613	-26,311	-0,086	0,036
-410,598	-26,093	-0,081	0,035
-409,584	-113,994	0,034	-0,005
-408,569	218,091	0,020	-0,024
-407,555	-7,394	-0,136	0,067
-406,540	45,357	0,102	-0,069
-405,525	800,000	-0,075	-0,153
-404,511	282,350	-0,078	-0,102
-403,496	-9,873	-0,181	-0,087
-402,482	24,839	0,040	0,024
-401,467	800,000	0,060	0,149
-400,452	268,023	0,076	-0,097
-399,438	24,532	-0,069	-0,041
-398,423	-200,000	-0,028	0,146
-397,409	-139,662	-0,043	-0,003
-396,394	127,238	0,017	-0,016
-395,379	3,923	-0,116	0,062
-394,365	285,870	0,046	-0,061
-393,350	-49,055	0,014	0,005
-392,336	-43,144	-0,078	0,028
-391,321	-200,000	0,012	-0,040
-390,306	41,448	0,132	-0,086
-389,292	-200,000	-0,004	0,019
-388,277	190,402	0,107	-0,117
-387,263	-114,686	-0,088	0,012
-386,248	115,453	0,082	0,073
-385,233	107,768	0,100	0,087
-384,219	-200,000	0,001	-0,072
-383,204	800,000	-0,032	0,090
-382,190	0,806	0,080	0,042
-381,175	440,442	-0,066	0,105
-380,160	427,113	-0,043	0,067
-379,146	-18,514	0,020	-0,009
-378,131	800,000	-0,015	0,039
-377,117	-200,000	-0,003	-0,066
-376,102	-101,800	0,041	0,007
-375,088	-200,000	-0,021	-0,106
-374,073	-200,000	0,005	0,098
-373,058	-124,353	0,114	0,013
-372,044	74,017	0,131	0,100
-371,029	800,000	-0,025	-0,063
-370,015	64,406	0,069	-0,051
-369,000	-28,614	0,133	0,055
-367,985	111,180	0,117	-0,102
-366,971	-200,000	-0,004	-0,081
-365,956	-200,000	0,013	0,082
-364,942	-119,072	0,090	0,011
-363,927	800,000	0,057	0,158
-362,912	-157,004	-0,175	-0,008
-361,898	-200,000	0,001	0,038
-360,883	-11,650	-0,144	0,068
-359,869	-19,748	0,093	-0,042
-358,854	-147,465	-0,047	0,003
-357,839	44,565	0,023	-0,015
-356,825	-200,000	-0,023	0,114
-355,810	-200,000	0,014	-0,057
-354,796	-200,000	-0,003	-0,071
-353,781	-200,000	-0,020	-0,159
-352,766	-200,000	-0,006	-0,078
-351,752	-12,483	0,169	0,080
-350,737	800,000	0,031	0,068
-349,723	800,000	-0,034	0,073
-348,708	481,293	-0,070	-0,116
-347,693	158,628	-0,018	0,018
-346,679	-22,388	-0,106	-0,046
-345,664	-92,164	-0,138	0,028
-344,650	454,150	0,050	0,080
-343,635	143,384	-0,041	-0,039
-342,620	-158,431	0,143	-0,006
-341,606	800,000	-0,036	-0,095
-340,591	104,908	-0,052	0,045
-339,577	104,434	-0,049	-0,042
-338,562	-200,000	-0,005	-0,201
-337,548	-200,000	0,006	-0,116
-336,533	52,169	0,146	0,100
-335,518	-52,576	0,129	0,043
-334,504	21,601	-0,025	-0,015
-333,489	800,000	-0,015	0,038
-332,475	800,000	0,015	-0,030
-331,460	243,578	-0,040	-0,049
-330,445	-0,165	-0,043	-0,022
-329,431	-200,000	0,009	-0,049
-328,416	207,999	0,140	0,159
-327,402	-81,429	-0,101	-0,024
-326,387	-3,923	-0,099	-0,049
-325,372	356,607	0,023	0,034
-324,358	-200,000	0,014	-0,204
-323,343	-37,251	-0,077	0,030
-322,329	-15,840	0,055	0,025
-321,314	-200,000	-0,025	0,200
-320,299	91,800	-0,107	-0,087
-319,285	51,506	0,050	-0,035
-318,270	-200,000	-0,008	-0,028
-317,256	-200,000	-0,020	-0,100
-316,241	-40,896	-0,235	0,088
-315,226	-200,000	0,001	0,034
-314,212	-24,489	0,079	-0,034
-313,197	800,000	-0,038	-0,094
-312,183	-57,336	0,110	-0,035
-311,168	153,148	0,020	0,020
-310,153	61,413	0,102	-0,074
-309,139	112,162	-0,107	-0,093
-308,124	800,000	0,036	0,077
-307,110	624,317	0,043	-0,078
-306,095	800,000	0,027	-0,070
-305,080	-59,600	-0,120	0,037
-304,066	800,000	-0,034	0,095
-303,051	-88,046	-0,047	0,010
-302,037	749,971	-0,047	0,093
-301,022	54,505	-0,070	-0,049
-300,008	129,165	-0,069	0,064
-298,993	-200,000	0,035	0,231
-297,978	-85,539	0,084	-0,019
-296,964	273,168	-0,050	-0,064
-295,949	-88,808	-0,087	-0,019
-294,935	-132,497	0,120	-0,011
-293,920	-200,000	0,022	0,158
-292,905	97,911	0,157	0,131
-291,891	-19,169	0,131	-0,059
-290,876	469,874	-0,044	0,072
-289,862	180,709	-0,030	0,032
-288,847	800,000	-0,061	-0,169
-287,832	-89,734	-0,026	0,006
-286,818	275,288	-0,048	-0,062
-285,803	-200,000	0,012	0,047
-284,789	-116,759	0,002	0,000
-283,774	800,000	0,014	-0,028
-282,759	-24,428	0,132	0,057
-281,745	-141,989	-0,057	0,004
-280,730	-76,962	0,029	0,007
-279,716	-200,000	0,018	-0,277
-278,701	800,000	0,028	-0,084
-277,686	162,885	-0,050	-0,051
-276,672	-42,872	0,103	0,038
-275,657	-43,540	0,033	0,012
-274,643	-200,000	-0,021	-0,073
-273,628	564,277	0,052	-0,092
-272,613	-128,577	-0,104	-0,011
-271,599	94,367	-0,005	-0,004
-270,584	160,978	0,033	0,033
-269,570	800,000	0,029	0,089
-268,555	169,273	-0,100	0,104
-267,540	-200,000	0,004	0,029
-266,526	-200,000	-0,027	-0,152
-265,511	-53,753	0,079	0,026
-264,497	-28,735	0,178	0,074
-263,482	351,077	-0,070	0,100
-262,467	149,270	0,104	0,102
-261,453	-200,000	-0,002	0,044
-260,438	-200,000	0,033	-0,110
-259,424	10,464	-0,109	-0,060
-258,409	-200,000	0,010	-0,076
-257,395	189,648	0,079	0,086
-256,380	800,000	0,023	0,061
-255,365	656,298	0,062	0,117
-254,351	-84,312	-0,095	-0,022
-253,336	-200,000	0,011	-0,040
-252,322	50,574	-0,029	0,020
-251,307	-80,022	-0,127	-0,031
-250,292	-87,248	-0,037	0,008
-249,278	140,027	0,098	0,093
-248,263	478,893	-0,009	0,015
-247,249	800,000	-0,038	0,090
-246,234	-100,876	-0,075	0,013
-245,219	-8,883	0,070	0,034
-244,205	-200,000	-0,023	-0,177
-243,190	-49,415	-0,048	0,017
-242,176	310,978	0,073	-0,099
-241,161	-180,674	0,048	0,001
-240,146	-119,901	-0,168	-0,021
-239,132	-100,219	0,062	-0,011
-238,117	84,843	-0,022	0,017
-237,103	78,166	-0,120	-0,093
-236,088	-132,923	0,141	-0,013
-235,073	-200,000	0,003	-0,030
-234,059	-200,000	0,020	0,076
-233,044	-200,000	-0,002	0,013
-232,030	27,095	0,184	0,111
-231,015	-58,011	0,127	0,040
-230,000	-200,000	0,004	-0,097
-228,986	-117,081	0,112	-0,015
-227,971	-141,202	0,077	-0,006
-226,957	278,955	-0,075	0,097
-225,942	3,915	-0,027	-0,014
-224,927	69,922	0,071	-0,053
-223,913	99,692	-0,132	-0,110
-222,898	322,191	-0,060	-0,082
-221,884	41,552	-0,087	0,057
-220,869	-4,813	0,051	0,025
-219,855	-200,000	-0,043	0,201
-218,840	-14,364	0,095	-0,044
-217,825	-9,722	0,055	0,026
-216,811	-27,462	0,060	-0,025
-215,796	100,004	-0,115	0,097
-214,782	800,000	0,072	-0,170
-213,767	106,312	0,017	-0,015
-212,752	-200,000	-0,003	-0,115
-211,738	132,342	0,164	-0,153
-210,723	75,441	-0,135	-0,103
-209,709	310,078	0,005	0,006
-208,694	800,000	0,027	-0,075
-207,679	-77,648	-0,125	0,031
-206,665	-200,000	0,013	0,072
-205,650	232,092	0,040	0,048
-204,636	-200,000	0,000	0,089
-203,621	-94,292	-0,027	0,005
-202,606	-171,412	0,089	0,002
-201,592	-116,322	-0,076	0,010
-200,577	8,485	-0,069	-0,037
-199,563	12,828	0,118	0,066
-198,548	800,000	-0,045	0,108
-197,533	-200,000	0,019	0,000
-196,519	-25,192	0,021	-0,009
-195,504	-200,000	-0,001	0,105
-194,490	-200,000	0,045	0,180
-193,475	-200,000	0,011	-0,128
-192,460	179,415	0,095	0,100
-191,446	773,750	0,059	0,116
-190,431	132,293	0,091	-0,084
-189,417	88,629	-0,048	0,039
-188,402	-45,674	-0,044	-0,016
-187,387	-80,477	-0,074	0,018
-186,373	21,123	0,055	0,032
-185,358	-200,000	0,001	-0,020
-184,344	800,000	-0,031	-0,078
-183,329	-200,000	-0,006	-0,116
-182,315	800,000	0,028	0,056
-181,300	-200,000	0,030	0,115
-180,285	-200,000	-0,019	0,063
-179,271	-74,519	-0,109	-0,028
-178,256	33,296	0,166	0,104
-177,242	534,377	0,052	-0,089
-176,227	-200,000	0,002	-0,023
-175,212	-21,964	0,140	-0,061
-174,198	161,025	0,055	-0,056
-173,183	785,240	0,057	-0,113
-172,169	-200,000	-0,026	-0,130
-171,154	-111,790	0,102	0,015
-170,139	260,312	-0,040	0,050
-169,125	-50,087	0,067	0,023
-168,110	-200,000	0,013	0,090
-167,096	800,000	0,020	0,058
-166,081	-32,776	-0,154	-0,062
-165,066	-200,000	0,001	-0,063
-164,052	373,695	-0,039	0,057
-163,037	203,370	0,029	0,033
-162,023	73,291	-0,039	-0,029
-161,008	-200,000	0,013	-0,049
-159,993	-200,000	-0,022	0,134
-158,979	-86,611	-0,062	0,014
-157,964	65,886	-0,157	0,114
-156,950	32,880	0,036	0,023
-155,935	800,000	0,033	0,090
-154,920	800,000	0,026	0,074
-153,906	222,702	-0,027	0,031
-152,891	6,963	-0,072	0,038
-151,877	-200,000	0,018	0,063
-150,862	132,315	-0,114	-0,106
-149,847	800,000	-0,010	-0,021
-148,833	147,115	-0,045	-0,043
-147,818	800,000	0,054	0,170
-146,804	-32,030	0,207	0,083
-145,789	800,000	-0,009	-0,026
-144,775	-200,000	0,040	-0,138
-143,760	-68,424	0,051	-0,014
-142,745	-42,069	-0,069	-0,025
-141,731	74,861	0,133	0,101
-140,716	-200,000	0,006	-0,123
-139,702	-200,000	0,012	-0,076
-138,687	6,465	-0,019	0,010
-137,672	-111,411	-0,084	0,012
-136,658	-200,000	0,019	-0,076
-135,643	-88,190	-0,014	-0,003
-134,629	800,000	0,046	-0,107
-133,614	-200,000	0,016	-0,065
-132,599	236,868	0,052	0,062
-131,585	-200,000	-0,022	0,110
-130,570	-2,063	-0,082	-0,041
-129,556	-119,651	0,065	0,008
-128,541	800,000	-0,027	-0,069
-127,526	344,440	0,075	-0,106
-126,512	41,331	-0,128	0,083
-125,497	800,000	-0,023	0,058
-124,483	-74,667	-0,090	-0,023
-123,468	25,044	0,132	0,079
-122,453	-62,373	0,058	-0,017
-121,439	91,954	-0,073	0,059
-120,424	-29,232	-0,080	0,033
-119,410	-200,000	0,023	0,110
