DTS Sentinel unit serial number:	SN410029Multiplexer serial number:	ORYXHardware model number:	OX2-SRSoftware version number:	ORYX F/W v4,00 Oryx Data Collector v3.7.2.0data status	okinstallation	B5 Nyhavnadifferential loss correction	single-endedforward channel	channel 2reverse channel	N/Adate	2023/12/14time	19:37:13forward acquisition time	300,00reverse acquisition time	0,00gamma	499,1914k internal	0,3157k external	0,3157temperature offset calibration	1,0000default loss term (dB/km)	0,3820temperature slope calibration	1,0000multiplexer offset coefficient	1,0000multiplexer slope coefficient	1,0000fibre end	0,00T internal ref (°C)	9,02T ext. ref 1 (°C)	-5,69T ext. ref 2 (°C)	-5,74length (m)	temperature (°C)	Stokes	anti-Stokes-744,400	640,071	0,099	0,187
-743,385	-169,931	-0,416	-0,011
-742,371	-70,255	0,290	0,081
-741,356	-135,753	-0,496	0,043
-740,342	10,217	0,304	0,170
-739,327	-102,926	-0,405	-0,070
-738,312	46,756	0,225	0,154
-737,298	-45,904	-0,239	-0,086
-736,283	37,405	0,196	0,128
-735,269	-84,080	-0,442	-0,103
-734,254	-35,306	0,120	0,048
-733,239	-81,782	-0,511	-0,122
-732,225	-34,028	0,266	0,107
-731,210	-200,000	0,003	0,234
-730,196	-200,000	0,017	-0,088
-729,181	-200,000	-0,008	-0,119
-728,167	129,926	-0,095	0,090
-727,152	-200,000	-0,205	0,000
-726,137	194,912	-0,089	-0,100
-725,123	-0,424	0,078	-0,040
-724,108	503,207	0,023	-0,040
-723,094	19,529	-0,112	-0,066
-722,079	540,108	0,032	-0,056
-721,064	-0,017	-0,090	0,047
-720,050	800,000	0,030	0,082
-719,035	69,327	-0,108	0,081
-718,021	621,320	0,041	-0,076
-717,006	800,000	-0,023	-0,064
-715,991	-200,000	-0,049	0,222
-714,977	144,187	0,128	0,126
-713,962	207,073	-0,066	0,076
-712,948	800,000	-0,063	0,161
-711,933	-136,520	0,083	-0,007
-710,918	800,000	-0,050	-0,134
-709,904	95,732	-0,128	-0,107
-708,889	31,802	0,119	-0,075
-707,875	-11,294	-0,176	-0,085
-706,860	-104,169	-0,059	0,010
-705,845	-200,000	-0,007	0,061
-704,831	-82,460	-0,007	0,002
-703,816	-200,000	-0,001	-0,032
-702,802	768,877	0,014	-0,028
-701,787	-152,649	-0,075	0,004
-700,772	-77,482	-0,019	0,005
-699,758	-56,631	-0,103	-0,033
-698,743	11,428	0,111	0,063
-697,729	63,546	-0,079	0,058
-696,714	800,000	0,024	-0,072
-695,699	-200,000	-0,013	-0,072
-694,685	-97,747	0,056	0,011
-693,670	89,427	-0,057	-0,047
-692,656	-42,074	-0,102	-0,038
-691,641	268,167	-0,044	-0,056
-690,627	529,657	0,048	0,084
-689,612	333,504	-0,020	0,029
-688,597	800,000	-0,023	0,071
-687,583	-200,000	-0,006	-0,065
-686,568	-35,760	-0,061	-0,024
-685,554	-24,831	-0,055	0,024
-684,539	-200,000	-0,030	0,105
-683,524	0,978	0,031	-0,017
-682,510	-200,000	-0,011	0,087
-681,495	800,000	-0,017	0,050
-680,481	-200,000	-0,021	0,090
-679,466	-200,000	0,018	-0,101
-678,451	-200,000	-0,162	0,000
-677,437	-25,914	0,014	0,006
-676,422	270,595	-0,020	-0,026
-675,408	-200,000	-0,013	-0,045
-674,393	-200,000	-0,020	0,101
-673,378	690,200	-0,055	0,107
-672,364	800,000	-0,017	0,038
-671,349	190,481	-0,054	0,060
-670,335	800,000	0,020	-0,051
-669,320	-166,149	-0,089	-0,003
-668,305	-188,575	0,129	-0,001
-667,291	-200,000	0,003	0,011
-666,276	-56,818	-0,140	0,045
-665,262	-111,444	-0,129	0,019
-664,247	247,998	0,031	0,039
-663,232	-13,967	-0,053	-0,025
-662,218	-78,509	-0,061	0,015
-661,203	-58,153	-0,071	-0,023
-660,189	121,029	-0,112	0,103
-659,174	-18,915	0,110	0,050
-658,159	-200,000	-0,012	-0,074
-657,145	-79,943	-0,153	-0,037
-656,130	800,000	-0,076	0,189
-655,116	719,754	0,036	0,071
-654,101	-55,751	0,176	-0,058
-653,086	-200,000	0,000	0,028
-652,072	-200,000	-0,009	-0,032
-651,057	-72,645	-0,043	-0,012
-650,043	194,415	0,033	-0,037
-649,028	-95,534	-0,106	0,021
-648,014	-94,473	-0,029	-0,006
-646,999	-71,050	-0,170	-0,047
-645,984	-164,614	0,104	0,003
-644,970	-200,000	-0,021	-0,113
-643,955	-147,404	0,080	-0,005
-642,941	62,592	-0,029	-0,021
-641,926	800,000	0,043	-0,110
-640,911	706,894	-0,014	-0,027
-639,897	-87,980	0,195	0,043
-638,882	-89,710	0,099	-0,021
-637,868	-30,520	-0,094	0,039
-636,853	273,905	-0,080	0,104
-635,838	44,387	-0,071	0,048
-634,824	-200,000	0,026	0,094
-633,809	128,068	0,054	0,050
-632,795	-65,849	-0,093	0,027
-631,780	12,364	0,115	0,065
-630,765	-200,000	0,002	0,083
-629,751	-50,536	0,131	-0,045
-628,736	459,075	-0,044	0,073
-627,722	405,214	0,083	0,130
-626,707	800,000	-0,006	-0,015
-625,692	-122,766	0,071	-0,008
-624,678	143,175	-0,038	0,037
-623,663	-62,312	0,105	0,032
-622,649	-78,504	-0,058	-0,014
-621,634	174,679	-0,064	-0,068
-620,619	-193,558	0,086	0,001
-619,605	-40,110	0,080	0,030
-618,590	-64,875	-0,041	-0,012
-617,576	-114,784	-0,085	-0,012
-616,561	-200,000	0,001	0,009
-615,546	19,296	-0,174	-0,102
-614,532	-200,000	-0,022	0,116
-613,517	-40,531	-0,030	-0,011
-612,503	-200,000	-0,001	0,022
-611,488	800,000	-0,023	-0,062
-610,474	-200,000	-0,005	0,103
-609,459	333,571	0,015	0,021
-608,444	239,924	-0,058	-0,072
-607,430	-160,761	-0,081	-0,003
-606,415	417,261	-0,042	-0,066
-605,401	-47,545	0,175	-0,062
-604,386	-44,252	0,039	-0,014
-603,371	151,997	-0,144	0,144
-602,357	-200,000	0,002	-0,013
-601,342	241,943	-0,033	-0,040
-600,328	-42,885	0,047	0,017
-599,313	116,948	0,067	-0,060
-598,298	800,000	-0,027	-0,062
-597,284	7,475	0,055	0,030
-596,269	-118,042	-0,030	-0,004
-595,255	-44,527	-0,104	-0,038
-594,240	-200,000	0,021	-0,069
-593,225	800,000	-0,046	0,108
-592,211	-200,000	0,021	-0,134
-591,196	-200,000	0,017	-0,121
-590,182	-124,200	0,124	0,014
-589,167	354,499	-0,010	0,015
-588,152	-126,416	-0,123	0,013
-587,138	390,358	-0,063	0,096
-586,123	-98,883	0,103	0,019
-585,109	-200,000	-0,002	0,034
-584,094	269,581	-0,010	0,013
-583,079	226,931	0,066	0,079
-582,065	-90,043	0,112	0,024
-581,050	-200,000	-0,019	-0,088
-580,036	195,317	0,056	-0,063
-579,021	-200,000	-0,024	-0,115
-578,006	-200,000	-0,012	-0,091
-576,992	131,898	-0,117	-0,111
-575,977	-200,000	-0,017	0,110
-574,963	-6,193	0,124	0,062
-573,948	800,000	0,006	0,017
-572,934	-3,569	-0,141	-0,071
-571,919	-200,000	-0,005	-0,091
-570,904	679,752	0,048	-0,091
-569,890	155,361	-0,061	0,062
-568,875	137,262	0,066	-0,063
-567,861	-194,005	0,112	-0,001
-566,846	256,113	0,044	0,055
-565,831	-200,000	0,012	0,089
-564,817	388,841	0,054	-0,083
-563,802	-200,000	-0,001	0,086
-562,788	800,000	0,040	-0,085
-561,773	-200,000	-0,020	0,218
-560,758	-25,396	0,060	0,026
-559,744	-200,000	-0,029	-0,101
-558,729	800,000	0,026	0,067
-557,715	-65,042	-0,067	-0,020
-556,700	-200,000	0,001	-0,102
-555,685	619,662	-0,074	-0,137
-554,671	73,569	0,055	0,042
-553,656	-50,257	0,081	0,028
-552,642	511,572	0,063	-0,108
-551,627	-113,240	0,053	-0,008
-550,612	340,485	-0,081	0,117
-549,598	-182,067	-0,127	0,002
-548,583	-95,789	0,064	-0,012
-547,569	-42,672	0,056	0,021
-546,554	-200,000	0,010	0,148
-545,539	377,582	-0,041	0,062
-544,525	147,889	0,096	-0,095
-543,510	-200,000	-0,001	0,089
-542,496	89,830	0,086	0,070
-541,481	-131,612	-0,076	-0,007
-540,466	-52,531	-0,101	0,034
-539,452	65,772	0,136	0,101
-538,437	800,000	0,035	-0,078
-537,423	415,877	-0,058	-0,090
-536,408	-128,522	-0,159	-0,016
-535,393	-113,250	-0,183	-0,026
-534,379	-155,617	0,162	0,007
-533,364	433,827	-0,058	-0,092
-532,350	-130,655	0,208	-0,020
-531,335	-14,364	-0,076	-0,036
-530,321	800,000	0,016	0,037
-529,306	-200,000	0,026	0,125
-528,291	407,474	-0,009	0,014
-527,277	-200,000	0,011	0,138
-526,262	65,338	-0,075	-0,055
-525,248	-120,716	-0,027	0,003
-524,233	-200,000	0,004	-0,018
-523,218	184,994	0,098	-0,106
-522,204	10,995	-0,104	0,058
-521,189	-200,000	0,021	0,082
-520,175	-31,085	0,025	0,010
-519,160	-58,356	-0,059	-0,019
-518,145	-200,000	0,004	0,076
-517,131	213,762	-0,026	-0,030
-516,116	-146,500	0,049	0,003
-515,102	29,855	0,135	0,084
-514,087	800,000	-0,048	0,127
-513,072	19,480	-0,068	-0,040
-512,058	-174,441	-0,156	-0,003
-511,043	17,328	0,101	0,058
-510,029	-200,000	-0,001	0,050
-509,014	-12,230	0,078	0,037
-507,999	-145,811	-0,117	0,007
-506,985	-200,000	-0,005	-0,065
-505,970	50,236	-0,133	0,092
-504,956	-200,000	0,001	-0,012
-503,941	-200,000	0,001	0,110
-502,926	-72,795	0,081	0,022
-501,912	-200,000	-0,003	0,061
-500,897	-196,669	-0,003	0,000
-499,883	-200,000	-0,016	-0,110
-498,868	-200,000	0,012	-0,073
-497,853	508,388	-0,045	-0,077
-496,839	159,194	-0,079	0,080
-495,824	800,000	0,084	0,176
-494,810	-63,534	0,177	-0,053
-493,795	-58,123	-0,053	0,017
-492,781	58,598	-0,033	-0,023
-491,766	-114,239	-0,035	-0,005
-490,751	-133,552	-0,006	-0,001
-489,737	53,427	0,034	0,023
-488,722	-200,000	0,027	0,170
-487,708	800,000	0,066	0,189
-486,693	-67,102	-0,125	0,036
-485,678	-26,300	0,041	0,018
-484,664	-200,000	-0,029	-0,094
-483,649	-72,453	0,044	0,012
-482,635	562,417	0,060	-0,106
-481,620	197,477	0,110	0,123
-480,605	800,000	0,045	0,100
-479,591	-200,000	0,025	0,169
-478,576	164,369	-0,055	0,056
-477,562	47,837	-0,135	-0,092
-476,547	33,267	0,047	-0,029
-475,532	-200,000	0,030	-0,103
-474,518	33,060	-0,107	0,067
-473,503	206,863	-0,087	0,099
-472,489	64,791	0,116	-0,085
-471,474	252,355	-0,077	-0,095
-470,459	-146,033	-0,022	0,001
-469,445	175,693	0,061	-0,065
-468,430	-34,735	-0,066	0,026
-467,416	-200,000	-0,035	0,129
-466,401	175,748	0,034	0,036
-465,386	85,685	0,099	-0,079
-464,372	-200,000	0,015	0,052
-463,357	479,539	0,022	0,037
-462,343	52,141	0,095	-0,066
-461,328	621,130	-0,052	-0,096
-460,313	-200,000	-0,014	0,071
-459,299	800,000	0,025	0,055
-458,284	32,891	0,101	0,063
-457,270	161,592	0,064	-0,065
-456,255	-200,000	0,016	-0,145
-455,241	347,984	-0,042	-0,061
-454,226	769,479	-0,031	-0,061
-453,211	4,560	0,095	0,051
-452,197	-200,000	0,004	-0,024
-451,182	-102,656	0,096	-0,016
-450,168	-51,990	-0,107	-0,036
-449,153	52,337	0,113	-0,078
-448,138	23,243	-0,067	0,040
-447,124	800,000	-0,027	0,077
-446,109	117,979	-0,006	-0,005
-445,095	-64,767	0,069	0,020
-444,080	-200,000	0,012	-0,074
-443,065	492,756	-0,068	0,114
-442,051	-200,000	0,008	-0,035
-441,036	800,000	-0,035	-0,097
-440,022	-29,468	-0,013	0,005
-439,007	125,835	0,090	-0,083
-437,992	-200,000	-0,010	-0,045
-436,978	800,000	0,037	0,093
-435,963	-77,948	-0,058	0,015
-434,949	-152,486	-0,020	-0,001
-433,934	800,000	0,011	-0,030
-432,919	278,440	-0,054	-0,070
-431,905	99,894	-0,122	-0,103
-430,890	-200,000	-0,016	0,063
-429,876	-98,361	0,060	0,011
-428,861	-200,000	-0,004	0,064
-427,846	0,353	0,072	0,037
-426,832	-200,000	-0,015	-0,127
-425,817	776,260	-0,041	-0,081
-424,803	44,248	-0,064	0,042
-423,788	-49,065	-0,010	-0,003
-422,773	365,833	0,060	-0,088
-421,759	-200,000	0,022	0,162
-420,744	-15,049	-0,042	0,019
-419,730	800,000	-0,022	-0,045
-418,715	219,501	0,027	0,032
-417,701	-200,000	0,007	0,054
-416,686	84,969	0,034	0,027
-415,671	-200,000	-0,000	0,027
-414,657	-123,547	-0,092	-0,011
-413,642	-86,206	0,097	-0,022
-412,628	-94,937	-0,137	0,027
-411,613	11,633	0,069	-0,039
-410,598	800,000	-0,051	-0,113
-409,584	-200,000	0,001	0,062
-408,569	-200,000	0,047	0,209
-407,555	19,375	-0,092	-0,053
-406,540	-115,895	0,040	0,005
-405,525	-22,204	-0,081	0,035
-404,511	800,000	0,020	-0,045
-403,496	91,938	-0,039	-0,032
-402,482	79,443	0,120	-0,094
-401,467	223,187	-0,043	0,051
-400,452	-32,564	0,107	0,043
-399,438	386,519	-0,089	0,134
-398,423	105,539	0,057	-0,049
-397,409	-51,669	-0,098	0,033
-396,394	-107,355	-0,099	-0,016
-395,379	-200,000	0,012	0,106
-394,365	-118,547	0,091	-0,012
-393,350	-13,401	0,021	0,010
-392,336	232,765	0,039	0,046
-391,321	393,117	-0,073	-0,111
-390,306	-200,000	0,012	-0,085
-389,292	-200,000	0,007	-0,059
-388,277	323,593	-0,043	0,060
-387,263	800,000	0,048	-0,143
-386,248	334,500	0,035	-0,049
-385,233	-27,303	-0,051	0,021
-384,219	3,019	-0,123	-0,065
-383,204	-128,243	-0,055	-0,006
-382,190	39,446	-0,053	-0,035
-381,175	197,637	0,103	-0,115
-380,160	-136,098	0,029	-0,002
-379,146	-156,242	0,056	-0,002
-378,131	800,000	0,059	0,122
-377,117	-66,632	0,078	0,022
-376,102	-83,130	-0,057	-0,013
-375,088	800,000	-0,077	-0,172
-374,073	768,606	0,046	-0,091
-373,058	-200,000	0,153	0,001
-372,044	-26,152	-0,028	-0,012
-371,029	-151,869	0,051	0,003
-370,015	-17,312	-0,055	-0,025
-369,000	-34,408	-0,100	-0,040
-367,985	24,771	0,098	0,059
-366,971	-200,000	0,024	-0,128
-365,956	57,699	0,061	-0,043
-364,942	753,098	0,057	0,113
-363,927	800,000	-0,029	0,069
-362,912	800,000	-0,030	0,079
-361,898	66,696	-0,086	-0,064
-360,883	-185,905	-0,091	0,001
-359,869	-123,281	-0,051	0,006
-358,854	82,340	0,081	-0,064
-357,839	129,075	-0,038	0,035
-356,825	6,011	0,135	0,073
-355,810	800,000	0,067	0,199
-354,796	100,518	0,107	-0,090
-353,781	-200,000	0,043	-0,160
-352,766	-64,778	-0,139	0,041
-351,752	179,574	0,014	0,015
-350,737	30,656	0,096	0,060
-349,723	800,000	0,103	0,208
-348,708	-114,936	0,106	-0,014
-347,693	-200,000	0,004	-0,070
-346,679	-200,000	0,001	0,034
-345,664	-160,413	-0,140	-0,005
-344,650	414,099	0,056	0,086
-343,635	422,873	0,037	-0,058
-342,620	207,270	0,043	0,049
-341,606	290,938	0,119	-0,157
-340,591	585,340	0,039	-0,069
-339,577	106,259	-0,142	-0,122
-338,562	800,000	-0,046	0,102
-337,548	800,000	0,049	-0,102
-336,533	77,061	0,100	0,077
-335,518	-8,174	0,151	0,074
-334,504	-200,000	0,016	0,063
-333,489	-54,032	-0,038	-0,012
-332,475	155,468	0,066	-0,066
-331,460	217,502	-0,059	-0,068
-330,445	-200,000	0,030	0,118
-329,431	22,203	0,058	0,034
-328,416	431,537	-0,050	0,078
-327,402	234,685	-0,064	-0,077
-326,387	167,648	0,070	-0,072
-325,372	-200,000	0,001	-0,078
-324,358	545,833	0,031	-0,054
-323,343	150,137	-0,018	-0,017
-322,329	490,591	0,099	0,165
-321,314	733,039	0,068	0,133
-320,299	730,617	0,056	-0,110
-319,285	564,372	-0,051	-0,090
-318,270	566,276	0,033	-0,059
-317,256	-108,953	-0,148	-0,023
-316,241	-42,881	-0,054	0,020
-315,226	-200,000	-0,023	0,128
-314,212	212,233	0,163	-0,187
-313,197	800,000	0,029	0,083
-312,183	-36,383	-0,133	-0,052
-311,168	800,000	0,037	-0,078
-310,153	-200,000	0,007	-0,169
-309,139	-144,649	-0,127	0,008
-308,124	-77,881	-0,055	0,014
-307,110	153,505	0,093	0,092
-306,095	194,945	0,109	0,120
-305,080	800,000	-0,042	0,119
-304,066	-200,000	0,026	-0,095
-303,051	397,481	-0,066	-0,100
-302,037	116,170	-0,041	-0,037
-301,022	31,657	-0,037	-0,023
-300,008	-200,000	0,026	0,095
-298,993	-51,652	0,091	-0,031
-297,978	-124,557	0,076	0,008
-296,964	-42,841	-0,059	0,022
-295,949	-99,764	-0,122	-0,022
-294,935	12,827	-0,086	-0,048
-293,920	115,557	0,053	-0,047
-292,905	527,572	-0,085	-0,145
-291,891	-67,657	0,017	0,005
-290,876	-125,443	-0,098	0,011
-289,862	-151,271	-0,043	-0,002
-288,847	56,516	0,080	0,056
-287,832	-67,499	-0,118	-0,033
-286,818	-200,000	0,032	-0,113
-285,803	178,926	-0,074	0,078
-284,789	146,961	-0,084	0,082
-283,774	444,059	-0,044	0,070
-282,759	93,840	0,083	0,068
-281,745	47,622	0,027	-0,018
-280,730	800,000	-0,019	-0,042
-279,716	71,819	0,069	0,052
-278,701	-200,000	0,011	-0,058
-277,686	-51,532	-0,032	-0,011
-276,672	564,755	0,044	0,078
-275,657	22,751	-0,011	0,006
-274,643	-6,217	-0,058	-0,029
-273,628	800,000	0,056	-0,139
-272,613	567,313	-0,028	-0,050
-271,599	-200,000	-0,003	-0,025
-270,584	144,977	0,071	0,069
-269,570	-5,126	-0,075	0,037
-268,555	2,954	-0,091	0,048
-267,540	398,211	0,057	-0,087
-266,526	-40,590	-0,120	-0,045
-265,511	98,458	0,066	-0,055
-264,497	81,260	-0,089	-0,069
-263,482	40,506	-0,083	0,054
-262,467	-34,658	-0,062	0,025
-261,453	800,000	-0,023	-0,073
-260,438	-200,000	-0,007	-0,105
-259,424	187,837	-0,080	0,087
-258,409	307,551	-0,023	-0,032
-257,395	800,000	-0,042	-0,126
-256,380	-98,669	0,065	0,012
-255,365	77,454	-0,042	0,032
-254,351	91,424	-0,149	-0,121
-253,336	-200,000	0,002	-0,039
-252,322	33,834	-0,124	-0,078
-251,307	79,199	0,078	0,060
-250,292	522,966	-0,006	0,011
-249,278	-200,000	0,029	0,118
-248,263	118,572	-0,135	0,121
-247,249	15,481	0,050	-0,028
-246,234	460,104	-0,028	-0,045
-245,219	-200,000	0,004	-0,103
-244,205	-21,824	-0,103	-0,045
-243,190	46,259	-0,056	-0,037
-242,176	-200,000	0,015	-0,077
-241,161	188,108	0,126	-0,137
-240,146	211,756	-0,065	0,074
-239,132	-18,449	-0,087	0,039
-238,117	800,000	-0,071	-0,195
-237,103	-110,570	0,104	-0,015
-236,088	80,488	-0,093	-0,073
-235,073	-85,650	-0,099	-0,022
-234,059	-48,175	0,186	-0,064
-233,044	82,610	0,043	0,034
-232,030	800,000	-0,028	0,070
-231,015	-62,929	-0,092	0,027
-230,000	-200,000	0,036	-0,181
-228,986	680,568	0,040	-0,075
-227,971	-37,658	0,117	0,045
-226,957	-89,354	0,059	-0,013
-225,942	245,610	0,048	-0,059
-224,927	224,680	-0,052	0,061
-223,913	-90,144	-0,098	-0,020
-222,898	800,000	-0,045	-0,137
-221,884	19,126	-0,037	0,021
-220,869	38,195	-0,099	0,064
-219,855	-34,210	0,059	0,023
-218,840	123,143	-0,047	-0,043
-217,825	-200,000	-0,013	0,066
-216,811	-198,740	0,087	-0,000
-215,796	-200,000	0,009	-0,100
-214,782	800,000	-0,033	-0,090
-213,767	294,798	0,006	0,008
-212,752	-70,853	0,052	-0,014
-211,738	302,285	-0,098	0,131
-210,723	-200,000	-0,018	-0,080
-209,709	382,554	-0,026	-0,038
-208,694	-39,843	-0,104	0,039
-207,679	65,350	-0,108	-0,079
-206,665	-65,161	0,055	-0,016
-205,650	2,531	0,048	0,025
-204,636	3,973	-0,104	0,055
-203,621	-90,862	0,067	-0,014
-202,606	-67,630	-0,090	-0,025
-201,592	-200,000	0,005	0,059
-200,577	800,000	0,029	-0,066
-199,563	173,690	-0,058	0,061
-198,548	25,434	0,082	-0,049
-197,533	800,000	-0,032	0,075
-196,519	121,761	0,069	0,062
-195,504	194,839	0,063	-0,069
-194,490	-1,246	0,036	0,018
-193,475	269,758	-0,047	-0,060
-192,460	800,000	0,038	0,115
-191,446	487,498	0,025	0,042
-190,431	231,502	0,058	0,068
-189,417	136,538	0,029	-0,027
-188,402	-158,891	-0,150	-0,006
-187,387	-200,000	-0,001	-0,069
-186,373	-73,211	0,251	-0,066
-185,358	-74,126	0,091	0,024
-184,344	2,321	0,072	-0,037
-183,329	-54,533	0,080	-0,026
-182,315	800,000	0,025	0,070
-181,300	532,744	0,029	0,050
-180,285	-46,458	-0,026	0,009
-179,271	-166,392	-0,188	-0,006
-178,256	251,204	0,063	0,078
-177,242	800,000	-0,039	0,082
-176,227	-200,000	0,012	-0,101
-175,212	186,711	0,116	0,125
-174,198	800,000	-0,022	0,046
-173,183	152,713	0,036	0,035
-172,169	63,111	0,028	0,020
-171,154	-200,000	0,029	-0,151
-170,139	134,473	-0,106	0,099
-169,125	-200,000	0,003	0,115
-168,110	416,636	-0,029	0,044
-167,096	800,000	0,076	0,172
-166,081	-0,886	-0,124	-0,063
-165,066	-71,183	0,121	-0,033
-164,052	-200,000	-0,003	-0,134
-163,037	-200,000	0,010	0,062
-162,023	57,300	-0,119	0,083
-161,008	-200,000	0,014	0,109
-159,993	-200,000	0,048	0,000
-158,979	-200,000	0,027	0,119
-157,964	-62,600	-0,134	-0,040
-156,950	18,998	-0,031	-0,018
-155,935	-200,000	0,028	0,118
-154,920	230,179	-0,062	-0,073
-153,906	800,000	0,056	0,133
-152,891	800,000	0,034	0,072
-151,877	46,969	-0,103	-0,069
-150,862	-200,000	-0,012	-0,123
-149,847	800,000	-0,039	0,080
-148,833	800,000	0,049	-0,148
-147,818	-127,273	0,154	-0,016
-146,804	-148,140	0,093	0,005
-145,789	-58,411	-0,082	0,025
-144,775	-81,352	0,033	-0,008
-143,760	800,000	-0,019	0,042
-142,745	458,325	-0,038	0,062
-141,731	223,633	0,133	-0,155
-140,716	65,678	0,137	-0,100
-139,702	93,756	-0,133	-0,108
-138,687	-200,000	0,011	0,059
-137,672	-200,000	-0,013	0,066
-136,658	-200,000	0,086	-0,000
-135,643	-35,815	-0,171	-0,066
-134,629	-99,351	0,087	-0,016
-133,614	25,587	-0,137	0,082
-132,599	-34,310	0,131	0,051
-131,585	-9,001	0,070	0,034
-130,570	-200,000	0,038	0,176
-129,556	119,068	-0,072	-0,064
-128,541	-200,000	0,010	-0,034
-127,526	-62,679	-0,134	0,040
-126,512	-44,990	0,050	0,018
-125,497	278,131	0,051	0,066
-124,483	162,692	0,102	0,103
-123,468	436,873	0,022	0,035
-122,453	6,544	-0,017	0,009
-121,439	-200,000	-0,023	-0,129
-120,424	95,777	-0,088	-0,072
-119,410	80,895	0,148	0,115
-118,395	-167,665	0,060	-0,002
