DTS Sentinel unit serial number:	SN410029Multiplexer serial number:	ORYXHardware model number:	OX2-SRSoftware version number:	ORYX F/W v4,00 Oryx Data Collector v3.7.2.0data status	okinstallation	B5 Nyhavnadifferential loss correction	single-endedforward channel	channel 2reverse channel	N/Adate	2023/12/14time	07:42:13forward acquisition time	300,00reverse acquisition time	0,00gamma	499,1914k internal	0,3159k external	0,3159temperature offset calibration	1,0000default loss term (dB/km)	0,3820temperature slope calibration	1,0000multiplexer offset coefficient	1,0000multiplexer slope coefficient	1,0000fibre end	0,00T internal ref (°C)	7,12T ext. ref 1 (°C)	-9,28T ext. ref 2 (°C)	-9,36length (m)	temperature (°C)	Stokes	anti-Stokes-744,400	201,402	0,100	0,114
-743,385	-29,163	-0,457	-0,192
-742,371	110,283	0,224	0,198
-741,356	-149,022	-0,399	-0,023
-740,342	410,120	0,107	0,168
-739,327	-124,798	-0,357	0,040
-738,312	574,965	0,108	0,195
-737,298	-59,844	-0,283	-0,089
-736,283	2,006	0,280	0,148
-735,269	-126,170	-0,536	-0,058
-734,254	178,146	0,102	0,110
-733,239	-100,344	-0,628	-0,114
-732,225	-154,325	0,410	0,020
-731,210	-159,341	-0,146	0,006
-730,196	-97,238	0,157	-0,030
-729,181	-4,728	-0,127	-0,064
-728,167	65,201	-0,159	0,119
-727,152	203,499	0,034	-0,038
-726,137	-168,626	-0,107	0,003
-725,123	9,658	-0,066	-0,037
-724,108	-165,478	-0,075	-0,002
-723,094	555,058	-0,104	-0,185
-722,079	-69,578	-0,058	0,016
-721,064	800,000	0,062	0,144
-720,050	-200,000	0,036	0,131
-719,035	-200,000	-0,010	0,124
-718,021	125,249	0,041	0,038
-717,006	-82,593	-0,127	-0,030
-715,991	-200,000	0,003	-0,077
-714,977	-15,323	-0,064	-0,030
-713,962	1,061	0,192	0,101
-712,948	260,913	0,061	0,078
-711,933	800,000	-0,041	-0,099
-710,918	126,022	-0,119	-0,110
-709,904	-200,000	0,001	0,080
-708,889	273,452	-0,105	-0,137
-707,875	800,000	0,036	0,083
-706,860	-200,000	-0,028	-0,097
-705,845	137,775	-0,023	0,022
-704,831	172,868	0,062	-0,065
-703,816	800,000	0,037	0,097
-702,802	800,000	-0,046	-0,144
-701,787	-45,499	0,098	-0,036
-700,772	-115,195	-0,112	0,015
-699,758	-182,893	0,084	0,001
-698,743	-200,000	-0,009	0,071
-697,729	232,224	-0,065	0,079
-696,714	492,432	0,010	-0,018
-695,699	471,301	-0,143	-0,238
-694,685	-134,474	-0,070	-0,006
-693,670	183,502	0,047	-0,051
-692,656	12,162	-0,106	0,060
-691,641	-55,535	0,064	0,021
-690,627	-54,760	0,101	-0,033
-689,612	88,404	0,087	0,071
-688,597	-123,541	-0,062	-0,007
-687,583	228,780	0,046	0,055
-686,568	259,789	-0,081	-0,103
-685,554	800,000	0,015	0,044
-684,539	-133,424	-0,070	-0,006
-683,524	-98,725	0,055	-0,010
-682,510	-130,430	-0,133	0,013
-681,495	-7,579	0,074	0,037
-680,481	199,180	-0,126	-0,142
-679,466	591,175	0,056	-0,102
-678,451	-1,838	-0,021	0,011
-677,437	-200,000	-0,005	-0,027
-676,422	800,000	-0,017	-0,050
-675,408	-111,591	0,054	0,008
-674,393	800,000	0,027	0,064
-673,378	155,433	-0,126	-0,127
-672,364	800,000	-0,058	-0,152
-671,349	800,000	-0,038	-0,084
-670,335	800,000	0,035	-0,106
-669,320	89,934	0,049	-0,040
-668,305	-200,000	-0,026	-0,160
-667,291	-200,000	0,044	0,158
-666,276	-99,317	-0,036	0,007
-665,262	21,842	-0,143	0,085
-664,247	-77,842	-0,040	0,010
-663,232	126,849	-0,068	-0,064
-662,218	52,483	0,098	0,069
-661,203	-75,646	-0,059	0,015
-660,189	9,386	0,072	-0,040
-659,174	800,000	-0,073	0,151
-658,159	-57,466	-0,101	0,032
-657,145	-156,994	-0,213	-0,009
-656,130	-134,535	0,086	-0,008
-655,116	79,646	0,066	-0,052
-654,101	566,497	-0,089	0,160
-653,086	-200,000	0,017	0,058
-652,072	-142,077	-0,182	-0,013
-651,057	22,569	0,179	-0,107
-650,043	-48,613	-0,108	0,038
-649,028	-200,000	0,007	0,062
-648,014	454,145	0,025	0,040
-646,999	-200,000	-0,000	0,018
-645,984	145,565	-0,022	-0,022
-644,970	96,863	-0,048	0,040
-643,955	45,508	-0,067	-0,045
-642,941	99,977	-0,105	-0,089
-641,926	55,233	0,109	0,077
-640,911	34,866	0,097	0,062
-639,897	245,887	0,095	-0,118
-638,882	-129,594	0,134	-0,013
-637,868	-188,176	-0,116	0,001
-636,853	98,673	0,016	0,013
-635,838	394,397	0,035	0,054
-634,824	560,592	-0,029	-0,052
-633,809	-186,508	0,083	0,001
-632,795	34,045	-0,028	0,018
-631,780	-200,000	-0,039	0,145
-630,765	-130,671	-0,124	0,012
-629,751	-25,111	0,015	-0,006
-628,736	-115,816	-0,119	0,016
-627,722	536,373	0,046	0,080
-626,707	-42,834	0,076	0,028
-625,692	-200,000	0,004	-0,043
-624,678	-151,040	-0,079	-0,004
-623,663	366,320	-0,013	0,020
-622,649	58,492	0,011	0,008
-621,634	-113,199	0,086	-0,012
-620,619	244,272	-0,093	-0,114
-619,605	800,000	-0,009	-0,020
-618,590	-200,000	0,002	-0,054
-617,576	-200,000	-0,023	0,099
-616,561	-200,000	-0,001	0,054
-615,546	187,533	-0,049	-0,054
-614,532	-95,447	-0,074	-0,014
-613,517	-200,000	0,033	-0,170
-612,503	-100,375	-0,059	0,011
-611,488	229,862	0,097	-0,117
-610,474	218,052	0,043	0,050
-609,459	-200,000	-0,015	-0,097
-608,444	-200,000	-0,013	-0,041
-607,430	-200,000	0,003	-0,066
-606,415	179,724	-0,042	-0,046
-605,401	-200,000	0,002	0,009
-604,386	-200,000	0,004	-0,117
-603,371	-200,000	0,019	0,071
-602,357	800,000	-0,050	0,117
-601,342	-98,751	-0,102	0,019
-600,328	35,319	-0,136	-0,087
-599,313	324,272	0,043	-0,061
-598,298	-200,000	0,031	0,125
-597,284	295,946	0,014	-0,019
-596,269	800,000	-0,028	-0,088
-595,255	-200,000	-0,025	-0,114
-594,240	43,498	-0,124	-0,083
-593,225	-200,000	-0,035	-0,136
-592,211	22,057	0,037	-0,022
-591,196	-200,000	-0,020	-0,081
-590,182	25,838	0,057	0,035
-589,167	220,343	0,074	0,087
-588,152	-120,609	-0,024	0,003
-587,138	331,583	-0,029	0,041
-586,123	74,181	-0,038	0,029
-585,109	-200,000	-0,005	-0,017
-584,094	-200,000	0,009	0,115
-583,079	-200,000	-0,002	0,099
-582,065	40,259	0,057	0,038
-581,050	71,704	-0,089	0,067
-580,036	800,000	0,064	0,130
-579,021	55,012	-0,081	-0,057
-578,006	-200,000	0,014	0,095
-576,992	-200,000	-0,012	-0,044
-575,977	100,961	-0,064	-0,055
-574,963	-200,000	0,011	0,114
-573,948	-66,593	0,146	-0,042
-572,934	191,840	-0,114	0,126
-571,919	602,864	-0,068	0,124
-570,904	147,270	-0,078	-0,077
-569,890	-19,019	-0,116	0,053
-568,875	-121,987	0,073	0,009
-567,861	94,865	-0,047	0,039
-566,846	-61,363	-0,121	0,037
-565,831	49,820	0,012	0,008
-564,817	-84,885	0,139	-0,032
-563,802	800,000	-0,019	-0,043
-562,788	-7,046	0,106	0,053
-561,773	543,789	0,057	0,100
-560,758	-150,711	0,060	-0,003
-559,744	-200,000	-0,008	-0,140
-558,729	-200,000	-0,004	0,104
-557,715	-64,246	-0,117	-0,035
-556,700	-142,383	-0,177	-0,013
-555,685	-43,629	-0,139	-0,051
-554,671	-127,563	0,157	-0,016
-553,656	626,042	0,060	-0,112
-552,642	-34,892	-0,042	0,017
-551,627	-200,000	0,017	0,087
-550,612	-74,244	-0,059	-0,015
-549,598	416,500	0,091	-0,142
-548,583	17,747	0,078	-0,045
-547,569	138,043	0,049	-0,047
-546,554	441,884	0,091	0,145
-545,539	-3,271	0,026	0,013
-544,525	67,759	0,025	0,019
-543,510	79,831	-0,096	0,075
-542,496	-147,613	-0,178	0,011
-541,481	-200,000	-0,036	-0,150
-540,466	376,440	0,047	0,071
-539,452	-76,581	0,056	0,014
-538,437	95,201	0,095	-0,079
-537,423	-200,000	-0,000	-0,028
-536,408	-200,000	-0,011	-0,052
-535,393	519,731	-0,064	-0,110
-534,379	-200,000	-0,009	0,052
-533,364	-200,000	0,013	-0,089
-532,350	-39,121	0,137	0,052
-531,335	85,234	-0,117	-0,094
-530,321	239,735	0,042	0,051
-529,306	800,000	-0,039	0,095
-528,291	-72,276	0,018	-0,005
-527,277	403,228	-0,067	0,103
-526,262	800,000	-0,019	-0,038
-525,248	333,144	0,136	-0,192
-524,233	-200,000	-0,032	0,134
-523,218	-200,000	0,006	0,034
-522,204	-200,000	-0,015	0,113
-521,189	-200,000	-0,001	0,056
-520,175	800,000	0,058	-0,117
-519,160	244,427	0,094	0,116
-518,145	-200,000	0,006	0,034
-517,131	-114,871	0,018	0,002
-516,116	-200,000	0,052	0,221
-515,102	800,000	0,043	0,112
-514,087	-41,309	-0,068	-0,026
-513,072	54,215	-0,056	0,040
-512,058	-200,000	0,015	-0,078
-511,043	338,873	0,031	0,044
-510,029	-2,098	0,034	-0,017
-509,014	800,000	0,020	-0,062
-507,999	-188,460	-0,058	0,001
-506,985	-32,603	-0,121	0,049
-505,970	-200,000	-0,006	-0,022
-504,956	-106,460	0,034	0,006
-503,941	-102,858	-0,129	0,022
-502,926	-200,000	-0,037	0,139
-501,912	602,816	-0,072	-0,131
-500,897	348,590	-0,078	0,112
-499,883	-200,000	0,008	-0,104
-498,868	19,702	0,103	-0,060
-497,853	800,000	0,030	-0,072
-496,839	-200,000	0,015	0,065
-495,824	131,326	-0,109	0,102
-494,810	-94,857	0,167	0,033
-493,795	-200,000	-0,012	0,081
-492,781	0,137	-0,108	-0,056
-491,766	211,685	-0,042	-0,048
-490,751	-200,000	0,011	-0,180
-489,737	181,801	-0,072	0,078
-488,722	8,168	0,113	0,062
-487,708	-99,321	0,242	-0,044
-486,693	105,658	-0,089	-0,077
-485,678	73,096	0,041	0,031
-484,664	800,000	0,060	-0,122
-483,649	-39,423	0,073	0,028
-482,635	512,802	0,070	0,119
-481,620	800,000	-0,012	-0,029
-480,605	-200,000	0,008	-0,038
-479,591	172,817	0,157	-0,165
-478,576	205,314	-0,036	-0,041
-477,562	-150,834	-0,060	-0,003
-476,547	-120,467	0,042	0,005
-475,532	152,709	0,046	-0,046
-474,518	-56,610	-0,073	-0,023
-473,503	800,000	-0,050	0,104
-472,489	-200,000	0,046	0,187
-471,474	800,000	0,071	0,223
-470,459	-57,612	0,168	0,053
-469,445	265,902	-0,058	-0,074
-468,430	-87,767	-0,038	-0,008
-467,416	16,268	-0,060	0,035
-466,401	-200,000	0,002	0,071
-465,386	-41,919	0,170	0,063
-464,372	-200,000	-0,009	0,112
-463,357	-72,453	-0,023	0,006
-462,343	800,000	0,003	-0,008
-461,328	659,491	-0,033	0,062
-460,313	-143,128	0,069	0,005
-459,299	-200,000	-0,002	0,014
-458,284	31,307	0,099	0,062
-457,270	46,784	0,025	0,017
-456,255	-132,288	0,109	0,010
-455,241	30,672	-0,062	-0,038
-454,226	-200,000	0,021	-0,117
-453,211	-200,000	-0,021	0,080
-452,197	-56,531	0,089	0,029
-451,182	120,771	-0,041	0,037
-450,168	-30,431	0,093	-0,038
-449,153	-80,289	0,069	0,017
-448,138	800,000	-0,043	0,129
-447,124	32,393	-0,054	-0,034
-446,109	-104,202	0,101	0,017
-445,095	-200,000	0,017	0,108
-444,080	-4,395	0,106	0,053
-443,065	-200,000	0,009	0,105
-442,051	639,853	-0,041	0,075
-441,036	13,664	-0,113	-0,064
-440,022	43,814	-0,036	0,024
-439,007	-25,288	0,036	0,016
-437,992	-97,862	0,125	-0,023
-436,978	369,406	0,035	-0,051
-435,963	800,000	0,051	0,149
-434,949	181,279	0,007	0,007
-433,934	800,000	-0,004	0,011
-432,919	-5,839	-0,064	0,032
-431,905	-16,197	0,135	0,062
-430,890	308,510	0,103	0,141
-429,876	-2,673	0,090	0,046
-428,861	152,148	-0,082	0,081
-427,846	-200,000	-0,024	-0,126
-426,832	-200,000	-0,001	-0,072
-425,817	35,900	0,059	0,038
-424,803	-22,032	-0,073	0,032
-423,788	298,832	0,081	0,109
-422,773	-147,447	0,069	0,004
-421,759	-93,128	-0,137	0,027
-420,744	-200,000	-0,002	-0,019
-419,730	800,000	-0,005	-0,014
-418,715	-117,705	-0,106	-0,014
-417,701	800,000	0,046	-0,111
-416,686	800,000	-0,012	0,033
-415,671	-200,000	-0,016	0,064
-414,657	328,830	-0,055	0,078
-413,642	170,795	0,019	0,020
-412,628	-110,711	-0,128	-0,019
-411,613	109,740	-0,043	-0,037
-410,598	-74,956	0,120	0,031
-409,584	-200,000	-0,032	0,130
-408,569	277,023	-0,038	0,050
-407,555	-200,000	0,077	-0,000
-406,540	157,302	-0,104	-0,105
-405,525	-87,790	-0,041	0,009
-404,511	-63,211	-0,027	-0,008
-403,496	-200,000	0,003	-0,092
-402,482	108,188	0,088	0,077
-401,467	216,780	0,108	0,125
-400,452	-117,159	-0,060	-0,008
-399,438	-200,000	-0,006	0,090
-398,423	157,897	0,089	-0,090
-397,409	341,621	-0,098	-0,140
-396,394	-120,065	0,101	0,012
-395,379	-109,118	0,023	0,003
-394,365	-82,450	-0,137	0,032
-393,350	36,351	0,056	-0,036
-392,336	-200,000	0,029	-0,112
-391,321	312,588	0,037	-0,051
-390,306	-95,183	-0,057	-0,011
-389,292	-131,061	0,042	0,004
-388,277	359,490	0,069	0,100
-387,263	-200,000	0,024	0,173
-386,248	108,896	0,084	0,073
-385,233	89,734	0,032	0,026
-384,219	127,850	-0,023	-0,021
-383,204	652,037	0,011	0,020
-382,190	258,103	-0,034	0,043
-381,175	-26,403	0,021	0,009
-380,160	542,629	0,044	0,077
-379,146	-200,000	-0,003	0,046
-378,131	800,000	0,031	0,068
-377,117	-200,000	-0,016	-0,053
-376,102	-200,000	0,001	0,035
-375,088	-61,275	-0,124	-0,038
-374,073	-49,701	0,104	-0,036
-373,058	117,605	-0,099	-0,089
-372,044	-61,903	0,109	0,033
-371,029	160,892	0,075	-0,076
-370,015	-153,762	-0,180	0,009
-369,000	-79,020	0,030	-0,007
-367,985	439,901	0,042	0,067
-366,971	-200,000	0,022	-0,110
-365,956	159,803	-0,056	0,057
-364,942	-200,000	-0,013	0,084
-363,927	-115,290	0,116	-0,016
-362,912	145,399	-0,030	-0,029
-361,898	104,021	0,017	-0,015
-360,883	800,000	0,018	0,052
-359,869	165,531	-0,046	-0,048
-358,854	-200,000	-0,004	0,047
-357,839	-27,873	-0,030	0,013
-356,825	-154,752	-0,133	0,006
-355,810	-151,264	-0,059	-0,003
-354,796	71,402	-0,099	0,074
-353,781	-199,063	0,063	-0,000
-352,766	800,000	0,026	0,062
-351,752	-92,440	-0,136	-0,027
-350,737	-46,194	0,061	0,021
-349,723	175,475	0,029	0,031
-348,708	-200,000	-0,017	-0,089
-347,693	157,632	-0,084	0,084
-346,679	-200,000	0,004	-0,029
-345,664	735,452	-0,082	-0,160
-344,650	-12,790	-0,033	-0,015
-343,635	-145,181	0,048	0,003
-342,620	-71,765	0,049	-0,013
-341,606	-62,858	-0,184	-0,055
-340,591	-200,000	-0,005	-0,050
-339,577	-3,750	-0,158	0,079
-338,562	-166,250	-0,083	-0,002
-337,548	-200,000	0,003	-0,110
-336,533	85,854	-0,089	-0,071
-335,518	800,000	0,059	0,148
-334,504	788,421	0,022	-0,044
-333,489	436,073	0,066	-0,105
-332,475	127,458	-0,045	-0,041
-331,460	800,000	-0,022	-0,070
-330,445	800,000	-0,035	0,093
-329,431	-92,986	0,073	0,015
-328,416	58,790	-0,082	0,058
-327,402	-200,000	-0,009	-0,069
-326,387	-200,000	0,181	-0,000
-325,372	-200,000	-0,038	-0,180
-324,358	-151,548	-0,022	-0,001
-323,343	294,181	0,014	-0,019
-322,329	115,858	0,005	0,005
-321,314	59,198	-0,058	-0,042
-320,299	333,964	0,031	-0,043
-319,285	-200,000	-0,004	0,079
-318,270	97,924	-0,093	-0,078
-317,256	513,304	-0,070	-0,118
-316,241	59,207	0,020	-0,015
-315,226	-200,000	-0,023	-0,098
-314,212	91,540	0,084	-0,068
-313,197	-131,396	-0,080	-0,008
-312,183	-200,000	-0,026	-0,111
-311,168	-200,000	-0,003	-0,121
-310,153	800,000	-0,093	-0,239
-309,139	-200,000	-0,034	-0,142
-308,124	163,342	0,077	0,078
-307,110	-200,000	-0,024	0,163
-306,095	800,000	0,061	0,167
-305,080	800,000	0,028	0,069
-304,066	-66,919	-0,092	0,026
-303,051	137,867	-0,056	-0,053
-302,037	-8,845	-0,085	-0,041
-301,022	20,128	0,085	0,050
-300,008	800,000	0,032	0,102
-298,993	298,026	0,059	0,078
-297,978	-123,674	-0,102	-0,012
-296,964	-110,968	-0,074	0,011
-295,949	-144,138	-0,121	0,008
-294,935	-127,542	0,036	0,004
-293,920	800,000	0,036	-0,096
-292,905	-200,000	0,031	-0,120
-291,891	-158,287	0,083	-0,003
-290,876	-70,936	0,050	-0,014
-289,862	-44,035	-0,167	0,060
-288,847	747,841	0,040	-0,078
-287,832	800,000	-0,037	0,076
-286,818	-200,000	0,023	-0,150
-285,803	-189,397	0,040	0,000
-284,789	-72,113	0,115	0,031
-283,774	67,923	-0,054	-0,040
-282,759	-200,000	-0,007	0,039
-281,745	356,991	0,019	0,028
-280,730	-200,000	-0,012	0,077
-279,716	-89,688	0,055	-0,012
-278,701	58,429	-0,146	0,103
-277,686	142,586	0,057	0,055
-276,672	-74,936	-0,066	-0,017
-275,657	-79,692	0,071	0,017
-274,643	130,873	0,017	-0,016
-273,628	800,000	-0,016	0,040
-272,613	41,013	-0,127	-0,083
-271,599	800,000	-0,043	-0,124
-270,584	-69,431	0,196	0,054
-269,570	207,943	0,065	0,074
-268,555	150,049	-0,026	-0,025
-267,540	-200,000	0,019	0,130
-266,526	79,011	-0,088	-0,068
-265,511	-116,671	-0,075	0,010
-264,497	-200,000	0,009	0,090
-263,482	-87,944	0,232	0,050
-262,467	800,000	0,023	0,048
-261,453	800,000	0,030	-0,065
-260,438	-200,000	0,010	-0,123
-259,424	-200,000	-0,003	-0,079
-258,409	489,713	-0,064	-0,106
-257,395	61,054	-0,096	-0,069
-256,380	800,000	-0,012	-0,027
-255,365	8,367	-0,034	-0,018
-254,351	-200,000	-0,013	0,078
-253,336	-42,760	-0,070	0,025
-252,322	-145,691	-0,052	0,003
-251,307	-99,047	0,118	0,021
-250,292	117,628	-0,143	-0,127
-249,278	65,761	0,155	-0,113
-248,263	-200,000	0,023	0,144
-247,249	-200,000	0,006	-0,070
-246,234	134,313	0,056	0,053
-245,219	-61,326	-0,108	-0,033
-244,205	-200,000	-0,027	-0,139
-243,190	800,000	-0,046	-0,136
-242,176	-200,000	0,002	0,084
-241,161	-200,000	-0,014	-0,060
-240,146	800,000	0,029	0,068
-239,132	187,972	-0,097	0,105
-238,117	-55,931	0,011	0,004
-237,103	-200,000	0,029	-0,187
-236,088	-80,508	0,177	0,042
-235,073	57,126	-0,080	-0,056
-234,059	103,162	0,077	-0,065
-233,044	201,654	-0,016	-0,018
-232,030	-200,000	-0,004	-0,082
-231,015	282,272	-0,089	-0,115
-230,000	324,792	-0,112	0,154
-228,986	-151,544	0,064	0,003
-227,971	384,138	0,027	-0,040
-226,957	-200,000	0,034	0,111
-225,942	167,060	-0,049	-0,050
-224,927	454,484	-0,033	0,054
-223,913	41,402	0,062	-0,041
-222,898	281,298	0,074	-0,096
-221,884	660,912	0,032	-0,059
-220,869	239,736	0,109	-0,131
-219,855	-33,319	-0,111	-0,044
-218,840	67,667	0,069	0,051
-217,825	33,090	0,114	-0,071
-216,811	800,000	-0,020	-0,049
-215,796	156,300	-0,011	-0,011
-214,782	-82,221	0,175	-0,041
-213,767	800,000	0,012	-0,033
-212,752	98,753	-0,106	0,088
-211,738	800,000	-0,020	-0,055
-210,723	96,475	-0,023	0,019
-209,709	-183,885	-0,044	0,001
-208,694	-200,000	-0,018	-0,092
-207,679	-15,373	0,105	0,048
-206,665	-200,000	0,012	-0,120
-205,650	-163,613	0,219	0,007
-204,636	292,779	-0,052	0,069
-203,621	-156,087	0,060	0,003
-202,606	124,879	-0,019	-0,017
-201,592	-63,377	0,035	-0,010
-200,577	-30,018	0,080	0,033
-199,563	800,000	0,094	-0,188
-198,548	-132,772	0,039	-0,004
-197,533	132,712	-0,094	-0,088
-196,519	-86,423	-0,107	-0,024
-195,504	190,302	0,090	-0,098
-194,490	-113,901	-0,043	-0,006
-193,475	-14,562	-0,169	0,078
-192,460	123,937	0,046	0,042
-191,446	-64,208	0,050	-0,015
-190,431	346,643	0,025	-0,036
-189,417	729,472	-0,029	0,056
-188,402	598,200	-0,012	-0,021
-187,387	-119,007	-0,021	0,003
-186,373	-200,000	0,016	0,062
-185,358	179,811	0,086	-0,091
-184,344	456,838	-0,032	0,051
-183,329	-102,177	0,168	0,029
-182,315	112,814	-0,080	-0,070
-181,300	132,860	0,060	-0,056
-180,285	272,291	0,016	-0,021
-179,271	461,263	-0,038	0,062
-178,256	394,283	-0,077	-0,116
-177,242	120,575	0,035	0,031
-176,227	800,000	-0,020	0,060
-175,212	12,958	0,033	0,018
-174,198	-71,102	0,093	-0,025
-173,183	-97,918	-0,098	0,018
-172,169	-59,451	-0,058	0,018
-171,154	92,955	-0,038	0,031
-170,139	-116,642	-0,118	0,015
-169,125	800,000	0,025	0,059
-168,110	-200,000	0,023	0,079
-167,096	-6,115	-0,018	-0,009
-166,081	-200,000	0,036	0,179
-165,066	800,000	0,006	-0,017
-164,052	-66,971	-0,166	-0,047
-163,037	31,740	0,017	0,010
-162,023	111,277	-0,046	-0,040
-161,008	-200,000	0,004	0,095
-159,993	800,000	0,022	0,060
-158,979	570,155	-0,061	-0,107
-157,964	-22,890	0,088	0,038
-156,950	-5,515	-0,044	-0,022
-155,935	-200,000	0,017	-0,143
-154,920	-159,514	0,058	-0,002
-153,906	-97,324	0,042	-0,008
-152,891	-21,519	-0,096	0,042
-151,877	199,236	-0,060	0,066
-150,862	265,609	0,061	-0,077
-149,847	-200,000	-0,007	-0,163
-148,833	-200,000	-0,012	0,174
-147,818	23,931	-0,057	0,034
-146,804	136,901	-0,096	0,091
-145,789	178,368	0,107	0,113
-144,775	68,667	0,074	-0,055
-143,760	-200,000	-0,046	-0,160
-142,745	-200,000	-0,000	-0,063
-141,731	25,842	0,113	0,068
-140,716	-158,159	-0,055	-0,002
-139,702	140,826	0,081	-0,077
-138,687	-156,286	-0,068	0,003
-137,672	509,350	-0,033	0,055
-136,658	-68,248	-0,157	-0,044
-135,643	-200,000	-0,013	0,045
-134,629	-38,462	-0,028	0,011
-133,614	-58,315	0,115	0,036
-132,599	-200,000	-0,001	-0,026
-131,585	348,797	-0,047	-0,067
-130,570	-121,533	0,136	0,016
-129,556	-157,531	-0,102	0,004
-128,541	4,931	-0,105	-0,056
-127,526	-91,337	0,027	0,005
-126,512	-200,000	-0,015	-0,050
-125,497	-87,224	-0,066	-0,014
-124,483	-200,000	0,006	0,123
-123,468	-91,469	0,083	-0,017
-122,453	-24,305	-0,110	0,047
-121,439	327,208	0,043	-0,060
-120,424	800,000	-0,064	-0,141
-119,410	561,383	0,067	0,117
