DTS Sentinel unit serial number:	SN410029Multiplexer serial number:	ORYXHardware model number:	OX2-SRSoftware version number:	ORYX F/W v4,00 Oryx Data Collector v3.7.2.0data status	okinstallation	B5 Nyhavnadifferential loss correction	single-endedforward channel	channel 2reverse channel	N/Adate	2023/12/13time	05:52:13forward acquisition time	300,00reverse acquisition time	0,00gamma	499,1914k internal	0,3160k external	0,3160temperature offset calibration	1,0000default loss term (dB/km)	0,3820temperature slope calibration	1,0000multiplexer offset coefficient	1,0000multiplexer slope coefficient	1,0000fibre end	0,00T internal ref (°C)	13,81T ext. ref 1 (°C)	-2,63T ext. ref 2 (°C)	-2,95length (m)	temperature (°C)	Stokes	anti-Stokes-744,400	-147,132	0,099	0,006
-743,385	-105,996	-0,378	0,062
-742,371	-87,472	0,294	0,065
-741,356	-177,387	-0,342	0,006
-740,342	-80,223	0,154	0,038
-739,327	-92,805	-0,297	-0,061
-738,312	-98,719	0,242	0,045
-737,298	-51,396	-0,401	0,137
-736,283	-75,609	0,210	0,055
-735,269	-121,936	-0,313	-0,037
-734,254	33,184	-0,035	0,022
-733,239	55,002	-0,396	-0,281
-732,225	-53,314	0,148	0,050
-731,210	-200,000	-0,017	0,075
-730,196	616,413	-0,022	0,041
-729,181	29,616	-0,129	0,080
-728,167	800,000	-0,007	0,016
-727,152	-5,920	0,070	0,035
-726,137	-122,688	-0,267	-0,031
-725,123	800,000	-0,035	-0,100
-724,108	170,495	-0,078	-0,083
-723,094	409,877	-0,074	-0,117
-722,079	5,693	-0,129	0,070
-721,064	-39,194	-0,060	-0,023
-720,050	218,468	-0,046	-0,054
-719,035	0,518	-0,071	0,037
-718,021	241,753	-0,053	-0,066
-717,006	241,122	-0,082	-0,100
-715,991	-95,349	-0,196	0,039
-714,977	361,058	-0,132	-0,195
-713,962	-8,155	0,181	-0,089
-712,948	800,000	0,030	-0,086
-711,933	-61,595	0,144	-0,044
-710,918	-51,838	-0,041	0,014
-709,904	218,872	-0,054	0,064
-708,889	202,097	0,013	-0,015
-707,875	119,224	-0,091	-0,083
-706,860	177,338	-0,070	0,075
-705,845	56,063	-0,097	-0,069
-704,831	-200,000	0,000	0,006
-703,816	-200,000	-0,020	0,071
-702,802	-108,230	-0,092	-0,014
-701,787	508,801	-0,021	-0,036
-700,772	453,982	-0,053	-0,086
-699,758	-200,000	0,015	0,079
-698,743	-66,928	0,069	0,020
-697,729	639,644	0,037	-0,069
-696,714	800,000	0,023	-0,071
-695,699	89,906	0,031	-0,026
-694,685	-38,645	0,095	-0,037
-693,670	272,134	-0,012	-0,016
-692,656	464,590	-0,042	-0,069
-691,641	126,877	0,103	-0,096
-690,627	-19,301	0,081	-0,037
-689,612	318,728	-0,121	-0,169
-688,597	74,516	-0,065	-0,050
-687,583	39,627	0,123	-0,081
-686,568	319,262	-0,088	-0,123
-685,554	-200,000	0,006	-0,063
-684,539	-23,262	0,104	0,046
-683,524	800,000	-0,068	0,150
-682,510	91,929	-0,057	0,048
-681,495	-79,103	-0,076	-0,019
-680,481	-73,279	-0,072	-0,019
-679,466	134,841	-0,042	0,040
-678,451	400,598	0,071	-0,110
-677,437	86,820	0,094	0,076
-676,422	-0,775	0,058	0,030
-675,408	-170,354	-0,039	-0,001
-674,393	-169,354	0,016	-0,000
-673,378	21,088	-0,122	0,072
-672,364	-200,000	0,016	-0,061
-671,349	-47,633	-0,068	0,024
-670,335	-40,475	0,042	0,016
-669,320	495,275	-0,037	0,063
-668,305	800,000	0,020	-0,048
-667,291	525,568	0,078	-0,135
-666,276	-5,661	0,063	-0,032
-665,262	8,791	-0,071	-0,039
-664,247	384,495	-0,038	-0,058
-663,232	-72,908	-0,047	-0,013
-662,218	399,115	0,047	0,072
-661,203	-200,000	0,025	0,108
-660,189	200,181	0,086	0,098
-659,174	-61,424	0,066	0,020
-658,159	-47,780	-0,090	-0,032
-657,145	-200,000	0,002	-0,059
-656,130	-53,523	0,166	-0,056
-655,116	172,318	0,020	-0,021
-654,101	-200,000	0,008	-0,052
-653,086	-110,601	-0,061	-0,009
-652,072	-200,000	-0,030	-0,168
-651,057	-104,988	-0,129	-0,022
-650,043	-72,415	-0,058	-0,016
-649,028	-200,000	0,000	0,053
-648,014	-200,000	0,014	-0,048
-646,999	219,986	0,076	-0,089
-645,984	69,843	-0,087	0,066
-644,970	-70,681	0,122	-0,033
-643,955	328,130	0,074	-0,105
-642,941	-54,422	-0,103	-0,034
-641,926	-12,847	-0,070	0,033
-640,911	-136,062	0,127	0,011
-639,897	-200,000	0,011	0,117
-638,882	-200,000	-0,009	-0,093
-637,868	21,639	0,166	-0,099
-636,853	-199,127	0,035	-0,000
-635,838	319,828	-0,074	-0,103
-634,824	-61,104	0,120	0,037
-633,809	800,000	-0,034	0,096
-632,795	-88,256	-0,100	0,022
-631,780	183,959	0,080	0,087
-630,765	-200,000	0,036	0,144
-629,751	-6,279	-0,050	0,025
-628,736	202,372	0,037	-0,042
-627,722	-200,000	-0,014	0,109
-626,707	800,000	0,015	-0,044
-625,692	95,080	0,112	0,094
-624,678	800,000	-0,070	-0,178
-623,663	-73,347	-0,109	0,029
-622,649	3,253	-0,073	-0,039
-621,634	-37,735	-0,038	-0,015
-620,619	-98,516	-0,087	0,016
-619,605	-200,000	0,022	0,071
-618,590	-200,000	0,007	0,101
-617,576	-167,396	0,083	0,002
-616,561	-52,889	0,077	-0,026
-615,546	-200,000	0,004	-0,034
-614,532	70,400	-0,067	-0,050
-613,517	-35,722	0,040	0,016
-612,503	118,636	0,039	-0,036
-611,488	-69,327	0,070	0,020
-610,474	-121,251	-0,089	-0,011
-609,459	-57,895	-0,074	0,024
-608,444	76,663	0,067	0,052
-607,430	800,000	-0,028	-0,086
-606,415	177,188	-0,062	-0,066
-605,401	175,580	0,105	-0,112
-604,386	87,728	0,073	0,059
-603,371	800,000	0,026	-0,059
-602,357	-200,000	-0,024	0,092
-601,342	-145,354	-0,123	0,008
-600,328	18,906	-0,061	-0,036
-599,313	-200,000	0,020	-0,139
-598,298	551,229	-0,016	-0,028
-597,284	35,114	-0,029	0,019
-596,269	266,057	-0,066	0,084
-595,255	-200,000	-0,023	-0,126
-594,240	-200,000	-0,025	-0,114
-593,225	-75,901	-0,157	-0,040
-592,211	-200,000	-0,011	-0,146
-591,196	-94,779	-0,074	0,015
-590,182	159,079	-0,072	0,073
-589,167	800,000	0,048	-0,114
-588,152	129,666	0,086	-0,080
-587,138	800,000	0,011	0,029
-586,123	-200,000	-0,003	-0,043
-585,109	489,483	-0,043	-0,072
-584,094	-93,816	0,112	0,022
-583,079	800,000	0,053	-0,118
-582,065	-200,000	-0,000	-0,038
-581,050	800,000	0,038	0,102
-580,036	800,000	-0,018	0,043
-579,021	-65,641	0,054	-0,016
-578,006	48,869	0,060	0,041
-576,992	99,956	-0,078	0,066
-575,977	214,960	0,087	0,101
-574,963	800,000	-0,023	0,051
-573,948	-69,251	-0,029	0,008
-572,934	655,759	-0,044	0,083
-571,919	10,183	-0,078	0,043
-570,904	6,999	-0,103	-0,056
-569,890	432,948	0,125	-0,199
-568,875	-200,000	0,016	0,130
-567,861	-138,566	0,045	-0,004
-566,846	444,502	0,054	0,087
-565,831	-121,028	0,058	0,007
-564,817	0,218	-0,038	-0,020
-563,802	-200,000	0,017	0,191
-562,788	-77,832	-0,081	0,020
-561,773	-200,000	-0,038	0,205
-560,758	-132,151	0,057	0,005
-559,744	10,718	0,096	-0,054
-558,729	-200,000	0,003	0,016
-557,715	138,670	-0,120	0,116
-556,700	800,000	0,032	-0,065
-555,685	196,841	0,077	-0,085
-554,671	-110,941	0,102	0,015
-553,656	229,098	-0,047	0,057
-552,642	-60,069	0,104	0,032
-551,627	800,000	-0,047	0,131
-550,612	800,000	-0,008	0,018
-549,598	254,056	-0,017	-0,021
-548,583	-37,344	-0,105	0,041
-547,569	450,797	0,104	0,169
-546,554	-200,000	-0,004	-0,063
-545,539	-52,305	0,063	-0,021
-544,525	-200,000	0,003	0,088
-543,510	800,000	0,054	-0,117
-542,496	800,000	-0,032	-0,066
-541,481	-38,538	-0,099	-0,038
-540,466	800,000	-0,043	-0,114
-539,452	0,726	-0,059	0,031
-538,437	432,579	0,109	0,173
-537,423	800,000	-0,063	0,168
-536,408	176,805	0,032	-0,034
-535,393	35,605	-0,138	0,089
-534,379	-200,000	-0,015	-0,060
-533,364	-200,000	-0,009	0,054
-532,350	98,458	0,106	-0,089
-531,335	-3,960	0,063	0,032
-530,321	-200,000	-0,006	0,155
-529,306	-200,000	-0,000	-0,010
-528,291	-147,177	0,111	0,007
-527,277	679,031	-0,043	0,082
-526,262	93,390	0,143	-0,119
-525,248	105,235	-0,042	0,036
-524,233	544,576	0,032	0,056
-523,218	270,118	0,046	-0,059
-522,204	410,160	0,074	0,115
-521,189	800,000	0,054	-0,133
-520,175	142,754	0,104	-0,101
-519,160	-200,000	-0,004	-0,027
-518,145	800,000	0,017	-0,052
-517,131	3,892	-0,029	0,016
-516,116	800,000	-0,019	0,052
-515,102	-61,281	0,068	-0,021
-514,087	-6,604	-0,175	-0,087
-513,072	552,463	0,053	-0,093
-512,058	800,000	-0,047	0,125
-511,043	-200,000	-0,007	0,041
-510,029	-200,000	0,001	0,107
-509,014	-32,608	0,026	0,010
-507,999	-111,515	-0,071	-0,010
-506,985	-153,751	-0,078	0,004
-505,970	339,179	0,058	-0,083
-504,956	79,876	-0,014	-0,011
-503,941	-42,814	0,114	0,042
-502,926	800,000	0,067	-0,159
-501,912	427,467	0,024	0,037
-500,897	15,056	-0,063	-0,036
-499,883	800,000	0,029	-0,087
-498,868	-52,378	-0,049	-0,016
-497,853	194,193	-0,060	-0,066
-496,839	62,001	-0,047	-0,034
-495,824	-128,722	0,072	-0,007
-494,810	-66,613	-0,086	-0,025
-493,795	800,000	0,015	0,042
-492,781	189,149	-0,101	-0,110
-491,766	800,000	0,073	-0,170
-490,751	86,451	-0,064	-0,051
-489,737	-38,006	0,074	-0,029
-488,722	-67,025	-0,084	0,024
-487,708	-200,000	-0,027	0,097
-486,693	472,740	-0,041	0,068
-485,678	-200,000	0,008	0,059
-484,664	441,187	-0,016	0,025
-483,649	242,052	0,056	0,068
-482,635	-134,127	-0,110	0,010
-481,620	461,410	0,052	0,084
-480,605	-200,000	-0,002	0,082
-479,591	242,592	-0,044	-0,054
-478,576	356,143	-0,071	0,103
-477,562	146,126	0,040	-0,039
-476,547	-200,000	0,014	0,142
-475,532	382,380	0,063	-0,094
-474,518	-18,378	0,096	-0,044
-473,503	800,000	-0,041	0,109
-472,489	800,000	0,012	-0,033
-471,474	346,169	0,063	0,090
-470,459	284,655	-0,042	-0,056
-469,445	-200,000	-0,007	0,044
-468,430	-87,377	-0,052	-0,011
-467,416	36,037	0,058	-0,037
-466,401	-160,073	0,114	-0,004
-465,386	800,000	-0,034	0,073
-464,372	800,000	0,050	0,136
-463,357	-200,000	0,008	0,085
-462,343	422,498	0,074	-0,116
-461,328	300,007	-0,057	0,077
-460,313	25,321	-0,016	0,010
-459,299	171,570	0,007	-0,008
-458,284	127,397	-0,061	0,057
-457,270	-94,786	0,070	-0,014
-456,255	-128,258	0,052	-0,005
-455,241	-26,191	-0,025	0,011
-454,226	-93,105	0,025	0,005
-453,211	160,542	-0,092	0,094
-452,197	73,765	0,091	0,069
-451,182	-200,000	-0,007	-0,049
-450,168	-138,748	-0,067	0,005
-449,153	740,932	0,064	-0,126
-448,138	-200,000	-0,032	-0,103
-447,124	-200,000	-0,000	0,021
-446,109	271,442	0,070	-0,090
-445,095	620,135	0,065	0,120
-444,080	-106,132	0,094	0,015
-443,065	-74,339	0,063	0,017
-442,051	712,237	0,052	-0,101
-441,036	-127,287	-0,106	-0,011
-440,022	-200,000	-0,002	-0,056
-439,007	-53,192	-0,064	0,021
-437,992	62,016	0,092	-0,066
-436,978	369,699	0,095	0,140
-435,963	-103,180	-0,105	-0,018
-434,949	-50,716	0,082	0,028
-433,934	275,737	0,075	-0,097
-432,919	-200,000	-0,008	-0,041
-431,905	800,000	-0,042	-0,104
-430,890	-200,000	-0,007	0,083
-429,876	15,871	0,048	0,028
-428,861	-200,000	-0,009	-0,050
-427,846	-200,000	-0,018	-0,159
-426,832	-200,000	-0,038	-0,157
-425,817	301,466	-0,094	-0,127
-424,803	-200,000	0,033	0,108
-423,788	128,047	0,023	0,021
-422,773	800,000	0,052	0,144
-421,759	-121,398	0,138	-0,017
-420,744	-200,000	-0,016	-0,101
-419,730	-200,000	-0,023	-0,096
-418,715	-133,832	-0,059	-0,005
-417,701	-200,000	0,003	-0,063
-416,686	-200,000	0,018	0,103
-415,671	-200,000	0,009	0,091
-414,657	534,513	0,002	-0,003
-413,642	52,625	0,078	0,054
-412,628	-175,921	-0,018	0,000
-411,613	-14,445	-0,076	0,036
-410,598	106,031	0,034	-0,029
-409,584	800,000	0,033	0,077
-408,569	-200,000	-0,000	0,229
-407,555	217,089	-0,020	-0,023
-406,540	-47,869	-0,121	-0,042
-405,525	104,299	-0,107	-0,091
-404,511	238,024	0,124	-0,149
-403,496	207,786	0,035	0,039
-402,482	-52,293	0,091	-0,031
-401,467	-131,739	0,143	-0,013
-400,452	159,972	0,035	0,036
-399,438	195,217	-0,051	0,056
-398,423	80,868	0,078	-0,061
-397,409	-154,696	0,129	0,006
-396,394	76,234	0,047	0,036
-395,379	-74,499	-0,099	-0,026
-394,365	-200,000	0,020	0,141
-393,350	800,000	-0,029	0,079
-392,336	-200,000	-0,012	0,076
-391,321	301,984	-0,104	0,140
-390,306	546,675	0,024	-0,042
-389,292	41,267	0,024	0,015
-388,277	77,104	0,097	0,075
-387,263	800,000	-0,028	0,070
-386,248	21,549	0,083	-0,049
-385,233	-200,000	-0,005	0,116
-384,219	-200,000	-0,022	0,143
-383,204	-115,143	0,060	-0,008
-382,190	259,957	-0,018	0,023
-381,175	800,000	0,047	0,122
-380,160	-200,000	0,026	0,088
-379,146	-78,452	0,060	-0,015
-378,131	800,000	-0,044	-0,088
-377,117	-134,015	-0,088	-0,008
-376,102	-152,558	-0,013	0,001
-375,088	-200,000	-0,003	-0,133
-374,073	-98,034	-0,106	0,020
-373,058	-200,000	0,025	0,106
-372,044	-18,718	0,045	0,020
-371,029	-96,001	-0,168	0,032
-370,015	-200,000	0,009	-0,047
-369,000	243,993	0,057	0,070
-367,985	-200,000	-0,017	-0,113
-366,971	-200,000	-0,028	-0,122
-365,956	-57,034	-0,064	-0,020
-364,942	-90,973	0,120	-0,025
-363,927	-200,000	0,005	0,050
-362,912	40,637	0,079	0,052
-361,898	-79,639	-0,049	-0,012
-360,883	-85,554	0,081	-0,018
-359,869	-86,005	-0,116	0,026
-358,854	-96,628	0,106	-0,020
-357,839	-200,000	0,012	-0,091
-356,825	800,000	0,044	0,096
-355,810	29,949	-0,043	-0,027
-354,796	-200,000	0,027	-0,127
-353,781	-37,779	-0,057	0,022
-352,766	97,753	0,079	-0,066
-351,752	289,931	0,063	0,083
-350,737	290,061	-0,048	-0,064
-349,723	-77,561	-0,056	-0,014
-348,708	-179,535	0,204	-0,003
-347,693	800,000	0,034	-0,104
-346,679	48,967	-0,075	0,051
-345,664	11,306	0,077	0,043
-344,650	-3,004	-0,050	0,025
-343,635	-20,348	0,076	0,034
-342,620	18,399	-0,018	0,010
-341,606	15,445	-0,136	-0,077
-340,591	800,000	-0,062	-0,188
-339,577	-200,000	-0,012	0,095
-338,562	597,067	0,018	-0,033
-337,548	-152,162	-0,044	-0,002
-336,533	-129,020	0,019	-0,002
-335,518	20,606	0,087	-0,051
-334,504	27,057	0,055	-0,034
-333,489	-200,000	-0,004	0,165
-332,475	-36,657	0,028	0,011
-331,460	640,128	-0,062	0,115
-330,445	199,159	-0,079	-0,088
-329,431	29,336	-0,111	-0,068
-328,416	-22,848	0,095	0,041
-327,402	63,879	-0,130	-0,095
-326,387	-200,000	0,017	0,111
-325,372	59,546	-0,046	0,033
-324,358	64,364	-0,069	-0,050
-323,343	-200,000	0,008	-0,127
-322,329	1,742	-0,148	0,077
-321,314	-200,000	0,011	-0,075
-320,299	-127,371	0,080	0,008
-319,285	800,000	0,022	0,051
-318,270	-200,000	0,012	-0,050
-317,256	612,069	-0,046	-0,084
-316,241	-200,000	-0,014	0,077
-315,226	233,375	0,062	0,074
-314,212	-200,000	0,018	-0,063
-313,197	-86,176	0,030	-0,007
-312,183	0,729	-0,026	-0,014
-311,168	458,890	-0,053	0,085
-310,153	-200,000	-0,009	-0,049
-309,139	-162,875	-0,084	-0,003
-308,124	-75,589	-0,057	0,015
-307,110	-61,207	0,072	-0,022
-306,095	-25,792	0,077	-0,033
-305,080	321,156	0,006	-0,008
-304,066	-14,956	-0,176	-0,081
-303,051	-15,768	-0,022	-0,010
-302,037	131,829	-0,043	-0,040
-301,022	-111,497	0,087	-0,013
-300,008	188,990	-0,090	0,098
-298,993	-200,000	0,020	-0,095
-297,978	67,442	0,136	-0,100
-296,964	24,388	-0,009	0,006
-295,949	-89,375	0,027	0,006
-294,935	-200,000	-0,005	-0,069
-293,920	-200,000	-0,001	-0,027
-292,905	-200,000	0,029	-0,106
-291,891	-71,623	0,072	0,019
-290,876	-2,132	0,049	-0,025
-289,862	-200,000	0,000	0,042
-288,847	-34,348	0,051	0,020
-287,832	234,406	0,076	-0,091
-286,818	216,580	0,153	0,176
-285,803	800,000	-0,036	0,084
-284,789	63,130	-0,071	0,052
-283,774	387,811	0,056	0,085
-282,759	800,000	-0,050	-0,125
-281,745	68,445	0,030	0,022
-280,730	-200,000	0,002	0,021
-279,716	-53,501	0,018	-0,006
-278,701	-200,000	0,020	-0,115
-277,686	-42,216	-0,027	0,010
-276,672	644,391	0,031	-0,058
-275,657	57,611	-0,051	0,036
-274,643	-200,000	0,028	-0,133
-273,628	-200,000	-0,028	-0,155
-272,613	174,580	-0,054	-0,056
-271,599	-200,000	-0,014	0,067
-270,584	-200,000	-0,003	-0,010
-269,570	-110,037	0,138	0,021
-268,555	140,005	0,041	0,039
-267,540	-160,392	-0,121	0,005
-266,526	-86,555	0,030	-0,007
-265,511	-10,880	-0,046	0,022
-264,497	-200,000	0,009	-0,042
-263,482	-157,679	-0,091	0,004
-262,467	296,021	-0,054	0,071
-261,453	-18,247	-0,127	0,057
-260,438	-67,592	0,095	0,027
-259,424	-200,000	0,005	0,021
-258,409	92,499	-0,050	0,041
-257,395	177,982	0,111	0,117
-256,380	77,327	-0,116	0,089
-255,365	200,010	0,073	-0,081
-254,351	-59,069	0,049	-0,015
-253,336	217,494	-0,052	0,060
-252,322	20,161	-0,121	-0,070
-251,307	-192,976	-0,141	-0,001
-250,292	270,052	0,071	0,090
-249,278	78,906	0,068	-0,053
-248,263	800,000	0,060	0,137
-247,249	-147,483	0,109	0,007
-246,234	204,734	-0,065	-0,073
-245,219	-200,000	0,002	-0,134
-244,205	222,694	-0,093	-0,108
-243,190	90,940	0,051	0,041
-242,176	113,846	0,058	0,051
-241,161	-3,714	-0,054	-0,027
-240,146	-142,512	-0,065	0,005
-239,132	-149,096	0,131	-0,007
-238,117	-200,000	0,012	-0,046
-237,103	-133,321	-0,164	0,015
-236,088	-99,398	0,139	-0,025
-235,073	92,321	-0,035	-0,028
-234,059	431,064	-0,054	0,084
-233,044	399,140	-0,020	-0,031
-232,030	800,000	-0,034	-0,094
-231,015	-78,140	-0,158	-0,039
-230,000	-25,886	-0,186	-0,079
-228,986	-23,555	-0,174	0,075
-227,971	-6,168	-0,095	0,047
-226,957	431,655	-0,027	-0,042
-225,942	458,677	-0,076	-0,122
-224,927	0,897	-0,097	-0,050
-223,913	458,897	-0,053	-0,085
-222,898	581,116	0,049	-0,087
-221,884	-168,305	-0,027	-0,001
-220,869	465,980	0,074	-0,121
-219,855	-109,027	-0,090	0,014
-218,840	538,625	0,038	0,066
-217,825	-200,000	-0,004	-0,025
-216,811	-200,000	-0,045	0,181
-215,796	113,366	-0,107	-0,093
-214,782	-200,000	0,008	-0,196
-213,767	150,333	0,085	0,083
-212,752	-200,000	-0,014	-0,051
-211,738	800,000	-0,019	0,047
-210,723	2,920	-0,039	-0,020
-209,709	-1,180	-0,153	-0,078
-208,694	405,803	-0,013	0,020
-207,679	-200,000	0,019	0,082
-206,665	-200,000	0,026	0,101
-205,650	-16,724	-0,080	0,036
-204,636	800,000	-0,038	-0,119
-203,621	800,000	-0,010	-0,024
-202,606	260,709	-0,081	0,102
-201,592	800,000	0,031	0,071
-200,577	800,000	0,020	-0,049
-199,563	557,350	-0,024	0,042
-198,548	57,416	0,146	0,103
-197,533	-200,000	-0,016	-0,090
-196,519	800,000	0,006	0,013
-195,504	-79,948	0,138	-0,033
-194,490	21,606	-0,063	0,037
-193,475	-144,100	-0,027	-0,002
-192,460	153,487	0,131	-0,129
-191,446	1,284	-0,038	-0,019
-190,431	60,728	0,095	0,068
-189,417	800,000	-0,010	0,024
-188,402	603,644	-0,123	0,221
-187,387	42,003	0,063	0,041
-186,373	800,000	-0,049	0,133
-185,358	-200,000	0,002	-0,066
-184,344	-40,846	0,019	-0,007
-183,329	-0,490	-0,088	-0,045
-182,315	800,000	0,114	0,255
-181,300	608,479	-0,048	-0,086
-180,285	617,955	-0,043	-0,079
-179,271	-51,249	-0,136	-0,046
-178,256	-55,271	-0,050	0,016
-177,242	-200,000	0,033	-0,140
-176,227	-200,000	-0,016	0,074
-175,212	-117,109	-0,078	0,010
-174,198	207,781	0,083	0,093
-173,183	315,588	-0,059	-0,081
-172,169	-200,000	-0,011	0,051
-171,154	-200,000	0,051	0,215
-170,139	42,955	0,124	-0,081
-169,125	734,449	0,046	0,088
-168,110	-6,044	0,019	-0,009
-167,096	587,676	0,057	-0,102
-166,081	496,387	0,045	0,075
-165,066	191,392	-0,032	-0,035
-164,052	-55,119	-0,086	-0,028
-163,037	-93,389	0,106	-0,021
-162,023	311,700	0,018	-0,025
-161,008	238,044	-0,068	-0,081
-159,993	109,262	-0,088	-0,076
-158,979	191,456	-0,033	-0,036
-157,964	800,000	-0,018	-0,054
-156,950	-45,536	-0,049	-0,017
-155,935	-200,000	0,001	-0,101
-154,920	-54,656	0,082	0,027
-153,906	135,047	-0,071	0,067
-152,891	-165,510	0,059	-0,002
-151,877	800,000	-0,032	-0,076
-150,862	800,000	0,024	-0,048
-149,847	85,809	0,114	0,090
-148,833	-200,000	0,021	0,084
-147,818	-51,635	0,049	0,016
-146,804	265,485	0,062	-0,078
-145,789	255,627	-0,094	-0,116
-144,775	-128,310	-0,089	-0,009
-143,760	-200,000	-0,016	0,141
-142,745	-59,037	-0,079	0,024
-141,731	800,000	-0,013	0,042
-140,716	30,031	-0,086	0,052
-139,702	210,405	0,037	-0,042
-138,687	167,179	-0,123	-0,125
-137,672	101,104	0,073	-0,061
-136,658	80,955	-0,070	-0,054
-135,643	549,479	-0,055	0,095
-134,629	-155,397	-0,035	-0,002
-133,614	-200,000	-0,001	0,015
-132,599	-200,000	0,015	0,057
-131,585	-87,573	0,033	0,007
-130,570	800,000	0,029	-0,077
-129,556	800,000	-0,049	0,110
-128,541	-108,690	0,091	0,014
-127,526	-22,164	-0,092	-0,040
-126,512	-200,000	-0,018	-0,096
-125,497	97,198	0,007	-0,006
-124,483	505,950	0,080	0,134
-123,468	146,882	-0,063	-0,061
-122,453	-113,254	0,035	0,005
-121,439	800,000	-0,032	-0,067
-120,424	321,296	-0,065	-0,088
-119,410	-56,792	0,147	-0,047
