DTS Sentinel unit serial number:	SN410029Multiplexer serial number:	ORYXHardware model number:	OX2-SRSoftware version number:	ORYX F/W v4,00 Oryx Data Collector v3.7.2.0data status	okinstallation	B5 Nyhavnadifferential loss correction	single-endedforward channel	channel 2reverse channel	N/Adate	2023/12/12time	10:12:13forward acquisition time	300,00reverse acquisition time	0,00gamma	499,1914k internal	0,3158k external	0,3158temperature offset calibration	1,0000default loss term (dB/km)	0,3820temperature slope calibration	1,0000multiplexer offset coefficient	1,0000multiplexer slope coefficient	1,0000fibre end	0,00T internal ref (°C)	15,00T ext. ref 1 (°C)	-1,30T ext. ref 2 (°C)	-1,64length (m)	temperature (°C)	Stokes	anti-Stokes-744,400	335,017	0,104	0,150
-743,385	25,732	-0,232	-0,142
-742,371	47,558	0,094	0,064
-741,356	-119,202	-0,238	0,030
-740,342	-114,729	0,169	0,024
-739,327	-74,725	-0,231	-0,061
-738,312	65,782	0,088	-0,066
-737,298	-47,088	-0,255	0,091
-736,283	-200,000	0,153	-0,000
-735,269	78,685	-0,147	0,115
-734,254	-100,294	0,105	0,019
-733,239	-53,458	-0,481	-0,161
-732,225	95,938	0,101	0,085
-731,210	0,543	0,113	0,059
-730,196	-107,869	0,095	0,015
-729,181	118,550	0,036	0,033
-728,167	79,499	-0,033	0,026
-727,152	225,159	0,026	-0,031
-726,137	283,559	-0,065	0,086
-725,123	-200,000	0,026	-0,152
-724,108	-122,277	-0,020	0,002
-723,094	31,899	-0,136	-0,086
-722,079	-200,000	0,003	0,067
-721,064	204,797	-0,067	0,077
-720,050	766,670	-0,068	0,138
-719,035	-92,581	0,070	0,014
-718,021	-98,063	-0,107	-0,020
-717,006	-200,000	-0,004	-0,047
-715,991	-6,763	-0,144	-0,072
-714,977	-200,000	0,012	-0,076
-713,962	-6,251	-0,047	-0,023
-712,948	800,000	-0,042	0,090
-711,933	-200,000	-0,004	-0,063
-710,918	-38,320	0,026	-0,010
-709,904	-37,869	-0,104	0,040
-708,889	-175,669	-0,068	-0,001
-707,875	-1,800	-0,144	-0,074
-706,860	800,000	0,074	-0,202
-705,845	-102,164	-0,063	-0,011
-704,831	96,918	0,110	0,093
-703,816	50,650	-0,128	-0,089
-702,802	-28,851	-0,026	0,011
-701,787	-127,606	-0,103	0,011
-700,772	-86,111	-0,118	0,027
-699,758	366,035	-0,039	-0,058
-698,743	110,347	0,075	-0,066
-697,729	800,000	0,030	-0,088
-696,714	116,361	-0,087	0,079
-695,699	800,000	0,021	-0,062
-694,685	-200,000	-0,012	0,047
-693,670	88,405	-0,025	-0,020
-692,656	-119,309	0,067	0,009
-691,641	-200,000	0,015	0,149
-690,627	644,815	0,052	-0,099
-689,612	-121,263	0,052	0,006
-688,597	345,293	-0,097	-0,141
-687,583	-30,067	-0,122	0,051
-686,568	286,562	-0,015	-0,020
-685,554	76,192	-0,086	-0,067
-684,539	800,000	-0,007	-0,017
-683,524	800,000	0,009	-0,025
-682,510	-66,174	0,052	-0,015
-681,495	608,728	-0,037	0,069
-680,481	800,000	0,037	-0,091
-679,466	-91,932	-0,186	-0,038
-678,451	26,730	-0,073	-0,045
-677,437	800,000	0,025	-0,058
-676,422	94,450	-0,064	-0,053
-675,408	51,067	0,070	0,049
-674,393	-35,845	-0,115	0,045
-673,378	-30,053	-0,082	-0,034
-672,364	-5,804	0,087	-0,044
-671,349	-141,675	0,030	0,002
-670,335	6,190	-0,117	-0,064
-669,320	10,038	-0,041	0,023
-668,305	68,533	0,033	-0,025
-667,291	160,529	-0,069	0,071
-666,276	-200,000	-0,017	-0,060
-665,262	84,767	-0,098	-0,079
-664,247	357,243	-0,049	-0,071
-663,232	800,000	0,021	-0,068
-662,218	-24,506	0,012	0,005
-661,203	203,563	0,072	0,082
-660,189	-200,000	0,001	-0,023
-659,174	738,336	0,032	0,062
-658,159	718,840	-0,051	-0,099
-657,145	-51,760	-0,041	0,014
-656,130	-92,301	0,061	0,012
-655,116	-200,000	-0,010	-0,057
-654,101	-72,567	-0,144	0,039
-653,086	175,678	0,106	0,113
-652,072	-135,708	0,083	0,007
-651,057	-200,000	-0,029	0,094
-650,043	800,000	-0,073	-0,185
-649,028	-6,523	-0,050	-0,025
-648,014	227,204	0,042	0,051
-646,999	-200,000	-0,017	0,072
-645,984	-200,000	0,012	0,080
-644,970	609,626	0,016	0,030
-643,955	51,879	0,035	0,024
-642,941	145,516	0,074	-0,072
-641,926	-200,000	-0,012	0,072
-640,911	-52,338	0,123	0,042
-639,897	-88,384	-0,015	-0,003
-638,882	28,562	-0,090	-0,056
-637,868	-65,565	-0,077	0,023
-636,853	-135,410	-0,120	-0,010
-635,838	610,453	0,051	-0,094
-634,824	708,053	-0,020	-0,038
-633,809	-93,915	-0,079	-0,016
-632,795	-4,845	-0,048	-0,024
-631,780	250,969	0,081	-0,102
-630,765	3,419	-0,140	-0,075
-629,751	800,000	-0,025	-0,054
-628,736	120,048	-0,046	-0,042
-627,722	-73,027	0,122	0,033
-626,707	-84,908	-0,023	0,005
-625,692	90,949	0,006	-0,005
-624,678	800,000	-0,044	0,102
-623,663	-200,000	0,042	-0,139
-622,649	292,581	0,013	-0,017
-621,634	-150,191	-0,125	0,007
-620,619	184,039	0,071	-0,077
-619,605	-6,325	-0,033	0,016
-618,590	517,256	0,035	-0,061
-617,576	62,595	-0,021	-0,015
-616,561	-200,000	0,001	0,048
-615,546	-12,142	-0,129	-0,062
-614,532	54,299	0,042	0,030
-613,517	-107,583	-0,039	0,006
-612,503	800,000	-0,027	-0,055
-611,488	-74,210	0,103	0,027
-610,474	129,511	0,038	-0,035
-609,459	51,041	-0,079	-0,055
-608,444	-200,000	-0,021	-0,086
-607,430	-46,631	-0,096	0,034
-606,415	800,000	0,022	-0,063
-605,401	-160,295	0,024	0,001
-604,386	-19,289	-0,106	0,048
-603,371	44,899	-0,060	0,040
-602,357	800,000	0,060	-0,150
-601,342	181,796	0,019	0,020
-600,328	-90,079	0,055	-0,012
-599,313	-181,641	0,096	-0,001
-598,298	-200,000	-0,001	-0,039
-597,284	-131,987	0,089	-0,008
-596,269	-120,820	0,121	0,015
-595,255	627,220	-0,007	0,014
-594,240	44,107	0,019	-0,013
-593,225	92,147	0,052	-0,043
-592,211	-42,495	-0,169	-0,063
-591,196	-200,000	0,029	-0,122
-590,182	429,427	-0,080	-0,127
-589,167	-129,648	0,065	-0,007
-588,152	800,000	0,020	0,059
-587,138	-106,404	-0,078	0,013
-586,123	-200,000	-0,001	-0,009
-585,109	-125,033	-0,154	0,017
-584,094	-200,000	0,021	-0,091
-583,079	-114,274	-0,045	0,006
-582,065	157,451	0,089	0,091
-581,050	377,220	-0,087	-0,130
-580,036	144,524	-0,062	-0,061
-579,021	-9,162	-0,162	-0,079
-578,006	-200,000	-0,002	-0,048
-576,992	195,163	-0,057	-0,064
-575,977	800,000	0,036	0,083
-574,963	-74,457	0,080	-0,021
-573,948	-200,000	-0,006	0,028
-572,934	-139,829	0,118	0,009
-571,919	-41,400	-0,043	-0,016
-570,904	76,431	0,011	-0,009
-569,890	224,850	-0,022	-0,027
-568,875	212,070	0,020	0,023
-567,861	-200,000	0,032	0,137
-566,846	91,942	0,046	0,038
-565,831	6,121	0,123	0,066
-564,817	57,107	-0,197	0,141
-563,802	33,617	-0,105	-0,067
-562,788	800,000	-0,039	0,098
-561,773	-200,000	-0,009	-0,114
-560,758	1,488	0,025	0,013
-559,744	800,000	0,034	0,091
-558,729	-46,662	0,103	0,037
-557,715	800,000	0,018	-0,041
-556,700	-89,544	-0,130	-0,028
-555,685	-200,000	0,045	0,155
-554,671	-96,895	0,107	-0,020
-553,656	-99,629	-0,071	0,013
-552,642	-8,360	0,092	0,045
-551,627	-26,177	-0,096	0,041
-550,612	-200,000	0,015	-0,061
-549,598	-200,000	-0,004	0,026
-548,583	-138,871	0,073	-0,006
-547,569	742,393	0,052	0,103
-546,554	465,900	-0,063	0,103
-545,539	-72,371	0,052	-0,014
-544,525	157,472	0,036	-0,037
-543,510	62,611	-0,157	-0,114
-542,496	800,000	0,032	-0,088
-541,481	195,829	-0,040	-0,044
-540,466	71,918	-0,098	0,074
-539,452	-83,634	0,093	0,022
-538,437	-62,740	0,135	0,041
-537,423	610,673	0,048	0,088
-536,408	-74,717	0,025	-0,007
-535,393	-200,000	0,017	-0,160
-534,379	-200,000	-0,007	-0,099
-533,364	800,000	0,041	0,101
-532,350	-34,908	0,132	-0,053
-531,335	-200,000	-0,028	0,109
-530,321	121,589	0,138	0,126
-529,306	-200,000	-0,004	-0,045
-528,291	272,565	0,053	-0,069
-527,277	-76,938	0,109	-0,028
-526,262	158,672	-0,103	-0,105
-525,248	340,565	0,052	0,074
-524,233	800,000	0,051	0,123
-523,218	127,619	-0,094	0,087
-522,204	-131,727	-0,040	0,004
-521,189	-85,776	-0,056	0,013
-520,175	800,000	0,037	-0,103
-519,160	-57,469	-0,144	0,046
-518,145	-123,984	0,158	0,018
-517,131	-85,090	-0,063	0,014
-516,116	-200,000	-0,007	0,088
-515,102	89,138	0,079	-0,064
-514,087	-200,000	-0,001	0,052
-513,072	-200,000	0,008	-0,163
-512,058	-200,000	-0,016	-0,137
-511,043	-200,000	-0,020	-0,082
-510,029	-49,736	0,130	0,045
-509,014	278,572	0,107	0,140
-507,999	266,968	-0,083	0,106
-506,985	-200,000	0,002	-0,109
-505,970	-118,849	-0,033	0,004
-504,956	-200,000	-0,015	0,098
-503,941	800,000	0,029	0,060
-502,926	-200,000	-0,007	0,048
-501,912	133,830	0,010	0,010
-500,897	-200,000	0,023	-0,080
-499,883	-72,875	-0,177	-0,047
-498,868	800,000	-0,020	0,051
-497,853	-25,713	0,034	-0,014
-496,839	800,000	0,023	-0,051
-495,824	-200,000	0,040	-0,197
-494,810	-71,649	0,040	0,011
-493,795	-200,000	0,037	0,132
-492,781	96,805	-0,071	-0,059
-491,766	-200,000	0,001	-0,179
-490,751	53,901	0,163	-0,114
-489,737	800,000	-0,038	0,090
-488,722	44,036	-0,018	-0,012
-487,708	106,505	-0,028	0,025
-486,693	-73,803	-0,034	0,009
-485,678	80,260	-0,042	-0,033
-484,664	752,000	-0,078	-0,154
-483,649	17,997	0,029	-0,017
-482,635	270,657	0,136	-0,175
-481,620	89,166	0,110	-0,090
-480,605	415,047	-0,056	-0,087
-479,591	-19,403	-0,065	0,029
-478,576	416,358	-0,086	0,134
-477,562	159,721	-0,014	-0,014
-476,547	-200,000	0,009	-0,057
-475,532	-135,475	-0,124	0,011
-474,518	270,641	-0,055	0,070
-473,503	-83,918	0,162	0,037
-472,489	-193,775	0,109	0,001
-471,474	-33,911	-0,075	-0,030
-470,459	-43,694	-0,152	0,056
-469,445	-200,000	-0,009	-0,079
-468,430	-11,259	-0,102	0,049
-467,416	-79,595	-0,099	0,024
-466,401	800,000	-0,019	0,055
-465,386	800,000	0,035	0,091
-464,372	-71,500	0,017	0,005
-463,357	-200,000	0,017	0,135
-462,343	-200,000	-0,002	0,076
-461,328	263,579	-0,077	0,097
-460,313	-31,631	-0,094	-0,038
-459,299	-200,000	-0,023	0,138
-458,284	106,946	-0,033	0,029
-457,270	37,684	0,135	0,087
-456,255	-58,252	0,010	0,003
-455,241	59,744	-0,066	-0,048
-454,226	-200,000	0,000	0,017
-453,211	800,000	0,080	0,231
-452,197	-4,702	-0,084	0,042
-451,182	800,000	0,046	0,118
-450,168	-200,000	0,010	0,064
-449,153	288,052	-0,043	0,057
-448,138	-200,000	0,002	-0,014
-447,124	-200,000	0,037	-0,120
-446,109	25,682	0,111	0,067
-445,095	-136,706	0,118	-0,010
-444,080	-200,000	-0,006	-0,085
-443,065	718,340	0,010	-0,020
-442,051	116,467	-0,099	-0,089
-441,036	406,572	0,061	0,094
-440,022	800,000	-0,013	-0,027
-439,007	-200,000	-0,002	-0,082
-437,992	800,000	0,059	-0,136
-436,978	-122,896	0,024	-0,003
-435,963	5,701	-0,135	0,072
-434,949	54,896	0,079	-0,056
-433,934	150,324	-0,032	-0,032
-432,919	67,183	-0,091	0,067
-431,905	-55,700	0,060	-0,019
-430,890	-47,351	0,071	-0,025
-429,876	-43,571	-0,064	-0,023
-428,861	-43,892	0,035	-0,013
-427,846	-58,651	-0,108	-0,034
-426,832	-14,640	-0,074	-0,035
-425,817	-71,625	-0,098	0,027
-424,803	-114,337	0,066	-0,009
-423,788	-85,029	0,059	-0,013
-422,773	317,539	-0,024	-0,034
-421,759	447,269	0,076	0,121
-420,744	-200,000	-0,005	0,057
-419,730	187,386	-0,070	0,077
-418,715	154,748	-0,068	0,068
-417,701	260,797	-0,030	-0,038
-416,686	-132,981	0,087	0,008
-415,671	786,102	0,042	-0,084
-414,657	413,258	-0,066	-0,103
-413,642	514,410	0,042	0,072
-412,628	-200,000	0,003	0,069
-411,613	800,000	0,033	0,087
-410,598	-200,000	-0,002	0,027
-409,584	-200,000	0,000	0,042
-408,569	-73,420	0,076	0,020
-407,555	727,416	-0,020	0,040
-406,540	-190,108	0,037	0,000
-405,525	242,691	-0,059	0,072
-404,511	414,300	-0,014	0,022
-403,496	64,570	-0,004	0,003
-402,482	-200,000	0,009	-0,165
-401,467	-1,761	0,068	-0,035
-400,452	-89,843	-0,116	0,024
-399,438	92,004	0,057	0,047
-398,423	50,556	-0,058	0,040
-397,409	800,000	-0,029	-0,070
-396,394	800,000	0,038	-0,117
-395,379	-200,000	0,022	0,091
-394,365	-200,000	-0,013	-0,058
-393,350	-200,000	0,013	-0,077
-392,336	-153,532	-0,144	0,007
-391,321	97,930	0,096	-0,080
-390,306	800,000	0,019	0,046
-389,292	-192,237	0,016	-0,000
-388,277	-122,706	-0,105	-0,012
-387,263	-109,368	0,044	-0,007
-386,248	251,243	0,081	0,101
-385,233	629,270	-0,023	0,043
-384,219	-63,137	0,031	-0,009
-383,204	-200,000	0,012	-0,113
-382,190	-128,758	-0,061	-0,006
-381,175	-200,000	-0,006	0,116
-380,160	55,877	-0,052	-0,036
-379,146	381,644	0,067	0,100
-378,131	800,000	-0,032	0,082
-377,117	-200,000	0,019	0,085
-376,102	-11,436	-0,104	0,050
-375,088	-18,567	-0,041	0,019
-374,073	-64,167	0,088	-0,026
-373,058	-121,710	0,049	0,006
-372,044	-164,553	0,168	-0,005
-371,029	-143,868	-0,070	0,005
-370,015	800,000	0,030	-0,074
-369,000	-159,441	-0,147	-0,006
-367,985	-200,000	-0,026	-0,116
-366,971	31,063	0,029	-0,018
-365,956	252,360	-0,085	0,106
-364,942	-200,000	0,117	-0,000
-363,927	173,101	0,079	0,083
-362,912	-30,215	0,122	0,050
-361,898	54,237	0,028	-0,019
-360,883	-200,000	0,003	-0,071
-359,869	196,509	0,006	-0,007
-358,854	800,000	-0,003	-0,007
-357,839	233,772	-0,077	0,093
-356,825	800,000	0,043	0,099
-355,810	-200,000	0,019	0,095
-354,796	-200,000	0,009	-0,030
-353,781	-31,861	-0,095	-0,039
-352,766	390,572	0,056	-0,084
-351,752	-54,943	0,093	0,030
-350,737	-200,000	0,013	-0,124
-349,723	-69,021	-0,081	-0,023
-348,708	28,533	-0,064	0,039
-347,693	614,537	-0,033	0,060
-346,679	-63,188	-0,119	0,035
-345,664	-200,000	0,023	-0,126
-344,650	326,968	0,042	-0,058
-343,635	-200,000	-0,013	0,105
-342,620	206,190	0,062	0,070
-341,606	466,814	0,048	0,078
-340,591	-80,858	-0,164	-0,039
-339,577	251,958	-0,094	-0,117
-338,562	-105,907	0,011	-0,002
-337,548	340,558	-0,047	-0,066
-336,533	800,000	0,030	0,066
-335,518	245,384	0,051	0,062
-334,504	800,000	-0,047	-0,104
-333,489	-200,000	-0,002	-0,018
-332,475	200,366	0,053	-0,059
-331,460	90,778	-0,079	0,064
-330,445	-200,000	-0,004	0,099
-329,431	-148,896	0,060	-0,003
-328,416	431,898	0,039	0,062
-327,402	-15,938	-0,022	-0,010
-326,387	118,584	0,090	-0,080
-325,372	113,425	-0,053	-0,047
-324,358	-200,000	0,011	-0,059
-323,343	-132,803	-0,131	0,012
-322,329	303,211	0,051	0,068
-321,314	-83,607	-0,080	0,018
-320,299	257,988	0,095	0,119
-319,285	479,159	-0,074	0,122
-318,270	-200,000	-0,018	-0,102
-317,256	-102,818	-0,119	-0,020
-316,241	98,032	0,136	0,113
-315,226	296,196	0,066	-0,088
-314,212	508,578	0,007	-0,012
-313,197	438,676	0,103	0,163
-312,183	504,442	0,020	0,034
-311,168	6,331	0,034	0,018
-310,153	-200,000	-0,011	0,101
-309,139	637,732	0,041	-0,075
-308,124	-200,000	0,007	0,026
-307,110	-200,000	0,005	0,053
-306,095	57,317	0,024	0,017
-305,080	-120,760	0,124	-0,015
-304,066	800,000	-0,041	-0,094
-303,051	-98,903	0,120	0,022
-302,037	-27,538	0,081	-0,034
-301,022	-200,000	-0,024	-0,101
-300,008	-39,644	0,081	-0,031
-298,993	-120,881	-0,028	0,003
-297,978	-13,043	0,083	-0,039
-296,964	-200,000	-0,009	-0,046
-295,949	149,300	-0,099	-0,097
-294,935	248,859	0,020	-0,024
-293,920	72,678	0,045	0,034
-292,905	-75,976	0,033	-0,008
-291,891	-78,290	-0,084	0,021
-290,876	23,872	-0,098	0,058
-289,862	-149,269	-0,099	-0,006
-288,847	-130,919	-0,066	0,006
-287,832	453,512	-0,039	-0,063
-286,818	-29,572	-0,024	-0,010
-285,803	8,968	0,140	0,076
-284,789	-90,189	0,144	0,030
-283,774	800,000	-0,012	-0,031
-282,759	800,000	-0,025	0,059
-281,745	174,598	0,087	0,092
-280,730	-200,000	-0,007	0,087
-279,716	-200,000	0,010	-0,061
-278,701	57,071	0,107	-0,076
-277,686	-200,000	0,012	0,131
-276,672	-200,000	-0,012	-0,060
-275,657	-200,000	0,045	0,196
-274,643	230,209	0,033	0,039
-273,628	37,699	-0,092	0,059
-272,613	70,779	0,080	-0,060
-271,599	110,587	-0,080	0,070
-270,584	438,821	0,056	0,089
-269,570	-110,531	0,057	0,008
-268,555	221,991	0,095	0,111
-267,540	800,000	-0,054	0,140
-266,526	-200,000	-0,014	-0,108
-265,511	800,000	0,015	-0,038
-264,497	230,018	0,076	-0,090
-263,482	-200,000	0,017	-0,080
-262,467	800,000	0,042	-0,104
-261,453	-23,499	0,133	0,057
-260,438	36,263	-0,067	-0,043
-259,424	-133,789	0,108	0,010
-258,409	-77,338	0,044	-0,011
-257,395	303,056	0,032	-0,043
-256,380	775,432	-0,051	0,102
-255,365	86,473	0,072	0,058
-254,351	-200,000	-0,001	-0,046
-253,336	-78,416	0,168	-0,041
-252,322	68,750	-0,087	-0,065
-251,307	-200,000	-0,024	-0,196
-250,292	-69,696	-0,024	-0,007
-249,278	226,906	0,106	0,125
-248,263	-147,027	0,116	0,007
-247,249	-165,299	0,135	-0,004
-246,234	205,461	-0,137	-0,155
-245,219	-200,000	-0,015	-0,077
-244,205	800,000	-0,020	0,054
-243,190	76,491	-0,054	-0,042
-242,176	-115,642	0,081	0,011
-241,161	647,681	-0,016	-0,030
-240,146	-32,516	-0,030	0,012
-239,132	326,747	-0,013	0,018
-238,117	-200,000	-0,067	-0,232
-237,103	172,233	-0,029	-0,030
-236,088	-16,898	-0,059	-0,027
-235,073	82,716	0,077	0,060
-234,059	-33,979	0,068	-0,027
-233,044	122,177	0,055	-0,050
-232,030	-17,315	-0,041	-0,019
-231,015	-200,000	-0,008	-0,039
-230,000	-200,000	0,001	0,037
-228,986	-200,000	0,019	0,117
-227,971	-94,041	-0,071	0,014
-226,957	-200,000	0,008	-0,113
-225,942	427,751	0,026	-0,041
-224,927	153,737	0,010	-0,010
-223,913	-12,973	-0,100	0,047
-222,898	-200,000	0,000	-0,187
-221,884	35,167	0,120	-0,076
-220,869	800,000	0,052	0,109
-219,855	-131,620	0,151	0,014
-218,840	-109,657	0,091	0,014
-217,825	-69,783	-0,197	0,054
-216,811	-21,665	-0,090	-0,039
-215,796	18,225	0,084	-0,048
-214,782	-200,000	0,018	-0,098
-213,767	-200,000	-0,044	-0,190
-212,752	-83,418	0,136	-0,031
-211,738	251,020	0,065	-0,080
-210,723	-135,412	0,066	0,006
-209,709	1,422	-0,081	0,042
-208,694	350,571	-0,083	-0,118
-207,679	-172,826	-0,102	0,002
-206,665	800,000	-0,007	-0,021
-205,650	55,678	-0,058	-0,041
-204,636	319,194	-0,078	0,107
-203,621	-38,357	0,198	0,075
-202,606	-111,246	-0,113	0,017
-201,592	-80,044	-0,081	-0,019
-200,577	-39,251	-0,048	-0,018
-199,563	217,139	-0,050	0,057
-198,548	106,827	-0,096	0,082
-197,533	-115,880	-0,060	0,008
-196,519	-200,000	0,013	0,139
-195,504	670,109	-0,027	-0,051
-194,490	217,311	-0,081	-0,094
-193,475	12,919	-0,111	-0,062
-192,460	-137,114	-0,174	-0,014
-191,446	800,000	0,013	-0,028
-190,431	358,512	0,033	0,048
-189,417	-200,000	-0,015	0,066
-188,402	55,045	0,037	-0,026
-187,387	-71,753	-0,039	0,010
-186,373	-117,314	-0,027	-0,003
-185,358	242,891	-0,018	0,021
-184,344	-200,000	-0,002	-0,008
-183,329	136,447	0,129	0,121
-182,315	-200,000	-0,000	0,027
-181,300	800,000	0,067	0,142
-180,285	-200,000	-0,013	-0,106
-179,271	543,603	-0,053	-0,091
-178,256	-10,224	-0,105	0,050
-177,242	-103,314	0,201	-0,034
-176,227	-200,000	0,030	0,126
-175,212	-101,733	0,104	-0,018
-174,198	-200,000	0,036	-0,115
-173,183	51,629	-0,060	0,041
-172,169	-99,585	-0,151	-0,027
-171,154	-200,000	-0,002	0,038
-170,139	800,000	-0,037	0,089
-169,125	101,815	-0,109	0,092
-168,110	-129,206	0,150	0,015
-167,096	434,232	-0,017	-0,026
-166,081	-200,000	0,021	0,102
-165,066	-176,821	0,038	-0,001
-164,052	-81,350	0,060	0,014
-163,037	-143,952	-0,110	0,007
-162,023	-42,324	-0,059	-0,022
-161,008	-200,000	0,029	0,107
-159,993	-0,827	-0,128	-0,065
-158,979	800,000	-0,015	-0,038
-157,964	-16,364	-0,124	-0,056
-156,950	-87,755	0,058	-0,013
-155,935	-200,000	0,047	0,169
-154,920	-200,000	-0,006	0,099
-153,906	-71,107	-0,094	0,025
-152,891	-200,000	-0,064	-0,207
-151,877	-56,572	0,110	-0,035
-150,862	293,103	-0,037	-0,049
-149,847	800,000	-0,048	0,110
-148,833	-111,836	0,043	0,006
-147,818	6,814	0,108	0,058
-146,804	-104,315	-0,185	0,031
-145,789	-22,692	-0,061	0,026
-144,775	102,790	0,023	0,020
-143,760	549,095	0,062	-0,108
-142,745	738,518	-0,036	0,070
-141,731	-140,369	0,079	-0,006
-140,716	193,720	-0,069	-0,075
-139,702	182,047	-0,045	-0,048
-138,687	-200,000	0,007	0,081
-137,672	32,925	0,137	0,085
-136,658	-200,000	0,003	-0,056
-135,643	800,000	-0,045	-0,141
-134,629	-38,607	-0,031	-0,012
-133,614	-200,000	-0,015	-0,173
-132,599	-82,421	0,081	-0,019
-131,585	218,781	0,065	0,075
-130,570	-200,000	0,009	0,032
-129,556	-57,191	0,025	0,008
-128,541	-200,000	-0,009	0,037
-127,526	-48,602	0,199	-0,068
-126,512	-52,571	0,052	-0,017
-125,497	272,231	0,113	0,144
-124,483	475,417	-0,061	0,100
-123,468	800,000	-0,049	0,119
-122,453	110,369	0,047	0,041
-121,439	406,487	0,035	-0,053
-120,424	-168,779	-0,123	-0,003
-119,410	-105,870	-0,025	-0,004
