DTS Sentinel unit serial number:	SN410029Multiplexer serial number:	ORYXHardware model number:	OX2-SRSoftware version number:	ORYX F/W v4,00 Oryx Data Collector v3.7.2.0data status	okinstallation	B5 Nyhavnadifferential loss correction	single-endedforward channel	channel 2reverse channel	N/Adate	2023/12/14time	08:02:13forward acquisition time	300,00reverse acquisition time	0,00gamma	499,1914k internal	0,3160k external	0,3160temperature offset calibration	1,0000default loss term (dB/km)	0,3820temperature slope calibration	1,0000multiplexer offset coefficient	1,0000multiplexer slope coefficient	1,0000fibre end	0,00T internal ref (°C)	7,06T ext. ref 1 (°C)	-9,23T ext. ref 2 (°C)	-9,30length (m)	temperature (°C)	Stokes	anti-Stokes-744,400	-200,000	0,033	0,155
-743,385	67,948	-0,308	-0,232
-742,371	800,000	0,050	0,118
-741,356	-88,433	-0,353	-0,077
-740,342	75,868	0,111	0,087
-739,327	-120,609	-0,384	-0,047
-738,312	127,208	0,106	0,099
-737,298	-107,128	-0,461	-0,074
-736,283	231,604	0,121	0,146
-735,269	-38,746	-0,363	-0,140
-734,254	48,328	0,120	0,083
-733,239	-44,507	-0,535	-0,196
-732,225	-17,577	0,382	0,176
-731,210	31,380	0,076	0,048
-730,196	196,332	-0,130	0,146
-729,181	-157,525	0,037	0,002
-728,167	570,622	-0,028	-0,050
-727,152	800,000	-0,003	-0,007
-726,137	800,000	-0,025	-0,074
-725,123	-200,000	0,031	-0,118
-724,108	-200,000	-0,044	-0,167
-723,094	-5,819	-0,142	-0,071
-722,079	-46,168	-0,148	0,053
-721,064	800,000	-0,016	-0,037
-720,050	-16,057	0,067	0,031
-719,035	-200,000	0,001	0,161
-718,021	-12,965	-0,141	0,067
-717,006	12,634	-0,018	0,010
-715,991	135,495	-0,137	-0,131
-714,977	312,815	-0,058	-0,081
-713,962	554,919	-0,038	0,067
-712,948	201,722	0,079	0,089
-711,933	-200,000	0,028	0,100
-710,918	-66,646	-0,182	-0,053
-709,904	672,392	-0,033	-0,063
-708,889	195,813	-0,132	-0,148
-707,875	-81,589	-0,050	0,012
-706,860	-0,804	0,023	-0,012
-705,845	205,385	-0,010	0,012
-704,831	-58,947	0,152	0,048
-703,816	-200,000	-0,032	0,151
-702,802	800,000	-0,014	-0,033
-701,787	-4,884	-0,195	-0,098
-700,772	139,538	-0,015	0,014
-699,758	-200,000	-0,013	0,105
-698,743	72,767	-0,038	-0,029
-697,729	800,000	0,026	-0,061
-696,714	800,000	-0,046	0,136
-695,699	541,089	0,063	-0,111
-694,685	-200,000	-0,001	0,027
-693,670	800,000	-0,057	-0,128
-692,656	-80,299	-0,051	-0,012
-691,641	220,254	-0,041	-0,048
-690,627	-76,218	0,094	-0,024
-689,612	-14,895	-0,118	-0,056
-688,597	-46,858	0,037	-0,013
-687,583	176,923	-0,056	-0,060
-686,568	800,000	0,030	-0,067
-685,554	31,030	-0,018	-0,011
-684,539	-41,944	-0,124	-0,046
-683,524	-200,000	0,026	-0,116
-682,510	-200,000	0,004	-0,019
-681,495	663,362	-0,035	0,067
-680,481	-200,000	-0,031	-0,229
-679,466	800,000	-0,066	-0,147
-678,451	225,734	0,061	-0,072
-677,437	-200,000	-0,022	-0,076
-676,422	800,000	0,060	-0,124
-675,408	116,438	-0,033	-0,030
-674,393	-200,000	-0,013	0,098
-673,378	-200,000	-0,034	-0,141
-672,364	-200,000	0,038	-0,127
-671,349	106,675	0,058	-0,050
-670,335	162,964	0,024	-0,025
-669,320	19,797	-0,109	-0,065
-668,305	-200,000	-0,016	0,157
-667,291	26,287	-0,054	0,033
-666,276	151,236	-0,015	-0,015
-665,262	67,925	-0,019	-0,014
-664,247	-200,000	0,027	-0,151
-663,232	-200,000	0,005	0,038
-662,218	-97,376	-0,105	0,020
-661,203	-74,177	0,206	-0,054
-660,189	-200,000	-0,009	0,058
-659,174	24,740	-0,032	0,019
-658,159	382,926	0,020	-0,031
-657,145	-88,411	-0,192	-0,042
-656,130	221,865	0,068	-0,081
-655,116	-200,000	-0,038	0,146
-654,101	-200,000	0,011	0,094
-653,086	-200,000	-0,027	0,096
-652,072	129,163	-0,078	0,073
-651,057	-200,000	0,022	0,092
-650,043	576,852	-0,022	-0,040
-649,028	-200,000	0,017	0,065
-648,014	800,000	0,059	0,122
-646,999	-200,000	0,005	0,092
-645,984	-88,998	0,038	0,008
-644,970	-71,237	-0,070	0,019
-643,955	-106,069	-0,109	-0,018
-642,941	-200,000	-0,058	-0,200
-641,926	-29,010	0,125	-0,052
-640,911	-200,000	0,004	0,023
-639,897	73,076	0,061	-0,047
-638,882	334,361	-0,015	-0,021
-637,868	-148,981	-0,124	0,007
-636,853	56,181	-0,069	-0,049
-635,838	-101,387	-0,091	-0,016
-634,824	-200,000	-0,005	0,020
-633,809	-64,661	-0,100	0,029
-632,795	-200,000	0,020	0,169
-631,780	800,000	0,039	0,100
-630,765	-66,751	-0,160	-0,046
-629,751	55,313	0,046	-0,033
-628,736	144,156	0,034	-0,033
-627,722	800,000	-0,034	-0,093
-626,707	361,711	0,097	-0,144
-625,692	169,944	0,118	-0,124
-624,678	-69,590	0,056	0,016
-623,663	150,308	-0,121	0,121
-622,649	23,667	-0,167	-0,101
-621,634	-200,000	-0,001	-0,162
-620,619	-133,168	-0,145	-0,013
-619,605	80,729	-0,046	0,036
-618,590	28,220	0,118	0,073
-617,576	-200,000	0,035	0,116
-616,561	-182,444	0,040	0,001
-615,546	-200,000	0,003	-0,131
-614,532	-200,000	-0,000	-0,056
-613,517	800,000	0,017	0,047
-612,503	37,708	0,061	-0,040
-611,488	-149,354	-0,045	0,003
-610,474	236,030	0,062	0,075
-609,459	27,830	-0,103	0,064
-608,444	-200,000	-0,006	-0,062
-607,430	-200,000	0,010	-0,041
-606,415	-200,000	-0,012	-0,101
-605,401	51,281	0,074	0,052
-604,386	-200,000	-0,003	0,058
-603,371	800,000	0,026	0,078
-602,357	800,000	0,038	0,100
-601,342	-200,000	0,020	-0,113
-600,328	-200,000	0,006	-0,065
-599,313	8,657	-0,182	0,100
-598,298	-123,692	0,062	0,007
-597,284	-200,000	-0,006	-0,104
-596,269	800,000	-0,050	0,131
-595,255	-200,000	0,002	0,146
-594,240	-188,075	0,167	-0,002
-593,225	114,249	0,100	-0,089
-592,211	12,948	0,120	-0,068
-591,196	18,640	-0,058	-0,034
-590,182	333,129	0,025	-0,035
-589,167	-200,000	0,023	0,153
-588,152	-58,108	0,057	-0,018
-587,138	183,080	-0,035	0,038
-586,123	800,000	0,024	-0,079
-585,109	-153,905	-0,074	0,004
-584,094	-65,774	0,131	-0,038
-583,079	-128,021	0,062	0,006
-582,065	183,432	0,161	0,174
-581,050	-73,030	0,078	0,021
-580,036	531,505	-0,063	0,109
-579,021	-51,890	-0,071	-0,024
-578,006	800,000	-0,018	-0,052
-576,992	17,175	0,097	0,056
-575,977	-89,261	0,038	-0,008
-574,963	107,846	-0,091	0,080
-573,948	557,936	0,060	0,106
-572,934	800,000	0,062	-0,155
-571,919	-79,766	-0,064	-0,016
-570,904	272,062	-0,058	-0,075
-569,890	94,046	-0,062	-0,051
-568,875	36,721	-0,149	0,096
-567,861	-118,506	0,002	0,000
-566,846	555,452	0,022	-0,039
-565,831	740,852	-0,037	-0,073
-564,817	-200,000	-0,000	-0,130
-563,802	38,880	-0,008	-0,006
-562,788	-200,000	0,046	0,201
-561,773	800,000	0,038	0,088
-560,758	-200,000	0,009	0,059
-559,744	311,114	-0,032	0,043
-558,729	557,921	-0,045	0,079
-557,715	-200,000	0,021	-0,076
-556,700	161,982	-0,083	0,086
-555,685	-72,506	-0,086	0,023
-554,671	-200,000	-0,028	0,128
-553,656	498,133	-0,013	0,022
-552,642	216,235	0,088	-0,102
-551,627	-200,000	-0,009	0,144
-550,612	-73,461	0,100	-0,026
-549,598	553,392	-0,118	0,209
-548,583	-200,000	0,000	0,018
-547,569	800,000	0,009	0,018
-546,554	-200,000	-0,016	0,109
-545,539	-13,838	0,078	0,037
-544,525	81,321	0,030	-0,024
-543,510	391,507	0,012	-0,019
-542,496	-200,000	0,010	-0,078
-541,481	25,303	-0,119	0,072
-540,466	-83,239	0,111	-0,026
-539,452	-111,326	-0,070	-0,010
-538,437	-80,624	0,055	0,013
-537,423	331,982	-0,015	-0,021
-536,408	-1,392	0,110	0,057
-535,393	-37,562	-0,039	-0,015
-534,379	800,000	0,017	-0,052
-533,364	-101,549	-0,024	-0,004
-532,350	112,391	0,074	0,066
-531,335	800,000	-0,031	0,075
-530,321	-200,000	-0,003	0,163
-529,306	-44,982	-0,039	-0,014
-528,291	-200,000	0,018	-0,098
-527,277	43,311	-0,009	0,006
-526,262	416,572	0,085	-0,134
-525,248	307,615	0,075	0,102
-524,233	644,826	0,048	0,090
-523,218	-5,026	-0,105	0,053
-522,204	-18,494	-0,043	0,020
-521,189	32,345	-0,180	-0,113
-520,175	-30,059	-0,027	0,011
-519,160	-200,000	0,030	-0,136
-518,145	-200,000	-0,025	-0,141
-517,131	-179,880	0,022	-0,000
-516,116	25,990	-0,105	0,064
-515,102	-200,000	0,007	-0,100
-514,087	215,763	0,088	0,102
-513,072	-76,278	-0,076	0,019
-512,058	48,865	-0,124	-0,085
-511,043	-200,000	-0,003	-0,096
-510,029	800,000	0,024	-0,061
-509,014	334,784	0,075	-0,106
-507,999	-6,066	-0,195	-0,097
-506,985	685,601	-0,018	0,034
-505,970	-12,288	-0,139	-0,066
-504,956	200,434	0,118	-0,132
-503,941	365,366	0,054	-0,080
-502,926	67,859	-0,040	-0,030
-501,912	-200,000	0,010	-0,087
-500,897	-144,074	0,104	0,007
-499,883	800,000	-0,058	0,140
-498,868	-135,039	0,088	0,008
-497,853	-27,582	-0,128	0,054
-496,839	-165,854	0,187	-0,006
-495,824	-138,839	0,081	0,006
-494,810	-81,907	-0,068	-0,016
-493,795	0,058	-0,033	-0,017
-492,781	78,797	-0,094	0,073
-491,766	-69,207	-0,058	0,016
-490,751	8,403	-0,099	-0,054
-489,737	-200,000	-0,003	0,017
-488,722	298,800	0,082	0,110
-487,708	698,818	-0,027	0,053
-486,693	-100,598	0,134	-0,024
-485,678	208,094	-0,086	-0,098
-484,664	70,093	-0,128	-0,096
-483,649	800,000	0,068	-0,143
-482,635	86,216	-0,060	0,048
-481,620	-106,915	0,119	0,019
-480,605	-90,235	-0,104	0,022
-479,591	206,519	0,068	0,077
-478,576	-124,978	0,022	-0,002
-477,562	-61,172	0,065	0,020
-476,547	-200,000	-0,014	-0,103
-475,532	-200,000	0,007	0,081
-474,518	152,159	-0,036	0,036
-473,503	-200,000	0,054	0,256
-472,489	-200,000	-0,010	0,068
-471,474	142,359	0,057	-0,055
-470,459	-200,000	-0,018	-0,154
-469,445	-74,761	-0,014	0,004
-468,430	117,373	0,053	-0,047
-467,416	98,248	0,111	-0,093
-466,401	-56,804	-0,146	0,047
-465,386	62,107	-0,070	0,051
-464,372	-200,000	0,034	0,134
-463,357	420,898	0,031	0,049
-462,343	-177,930	-0,147	-0,002
-461,328	-84,995	-0,088	0,020
-460,313	-200,000	0,005	0,049
-459,299	800,000	0,100	0,203
-458,284	-200,000	-0,011	-0,063
-457,270	145,609	0,026	-0,026
-456,255	-138,930	-0,145	-0,011
-455,241	81,938	-0,050	0,040
-454,226	695,061	0,032	0,061
-453,211	-67,262	0,226	-0,064
-452,197	-6,278	0,028	-0,014
-451,182	800,000	0,032	0,079
-450,168	-200,000	0,037	-0,129
-449,153	800,000	0,041	0,105
-448,138	-93,656	-0,084	-0,017
-447,124	178,938	-0,112	0,120
-446,109	-65,674	0,067	-0,020
-445,095	323,068	0,071	-0,099
-444,080	143,958	0,022	0,021
-443,065	-182,840	0,196	-0,003
-442,051	-131,972	-0,085	-0,008
-441,036	95,211	-0,007	0,006
-440,022	800,000	0,052	-0,117
-439,007	-200,000	-0,008	0,106
-437,992	121,951	0,099	0,090
-436,978	800,000	-0,010	0,023
-435,963	-126,235	-0,035	0,004
-434,949	-68,751	-0,097	-0,027
-433,934	458,388	-0,022	-0,035
-432,919	-200,000	0,001	0,033
-431,905	-153,806	-0,005	-0,000
-430,890	-200,000	-0,005	0,076
-429,876	-1,367	-0,053	-0,027
-428,861	88,276	-0,074	0,059
-427,846	800,000	-0,019	-0,057
-426,832	-80,426	-0,216	0,052
-425,817	165,442	0,048	0,050
-424,803	-200,000	0,023	-0,136
-423,788	-54,313	0,128	0,042
-422,773	-99,058	0,076	0,014
-421,759	93,514	0,028	-0,023
-420,744	-25,092	-0,081	0,035
-419,730	143,162	-0,063	0,061
-418,715	281,213	-0,100	-0,131
-417,701	800,000	0,023	0,064
-416,686	-111,460	-0,040	0,006
-415,671	92,720	-0,046	-0,038
-414,657	204,141	-0,078	0,088
-413,642	-80,774	-0,155	0,037
-412,628	-200,000	0,026	0,110
-411,613	37,809	-0,167	0,108
-410,598	-19,541	0,081	0,036
-409,584	-156,272	-0,029	-0,001
-408,569	800,000	0,078	0,160
-407,555	800,000	-0,033	0,093
-406,540	-124,027	0,117	-0,013
-405,525	800,000	0,051	-0,134
-404,511	-87,325	-0,037	-0,008
-403,496	800,000	0,031	-0,078
-402,482	-111,020	0,108	0,016
-401,467	-99,497	0,100	0,018
-400,452	-71,774	0,127	-0,034
-399,438	358,606	-0,100	-0,146
-398,423	-126,806	-0,085	-0,009
-397,409	72,132	-0,082	-0,062
-396,394	-200,000	0,009	-0,069
-395,379	312,363	-0,082	0,112
-394,365	552,856	0,038	0,067
-393,350	-96,769	0,055	0,010
-392,336	-65,887	0,095	0,027
-391,321	-200,000	0,019	-0,085
-390,306	-119,081	-0,088	-0,011
-389,292	-145,027	0,116	-0,008
-388,277	319,619	0,007	0,010
-387,263	-152,556	0,154	-0,008
-386,248	-30,547	-0,050	-0,020
-385,233	-148,414	-0,043	-0,002
-384,219	-200,000	0,035	0,128
-383,204	124,729	-0,085	-0,078
-382,190	-57,141	-0,037	0,012
-381,175	-200,000	-0,006	-0,082
-380,160	15,957	0,047	0,027
-379,146	633,966	0,039	-0,072
-378,131	-85,807	0,073	0,016
-377,117	-200,000	-0,019	-0,169
-376,102	800,000	0,015	-0,035
-375,088	-200,000	-0,026	0,129
-374,073	-200,000	0,025	-0,124
-373,058	-46,348	-0,028	-0,010
-372,044	800,000	0,017	0,052
-371,029	488,446	0,014	-0,024
-370,015	26,755	0,060	-0,037
-369,000	-25,411	0,068	-0,029
-367,985	-57,157	-0,102	0,032
-366,971	25,615	-0,009	0,005
-365,956	24,725	-0,086	0,051
-364,942	-200,000	-0,028	-0,138
-363,927	-200,000	-0,004	-0,139
-362,912	117,329	-0,106	0,095
-361,898	84,764	0,058	-0,046
-360,883	-7,867	-0,129	-0,063
-359,869	-200,000	0,006	-0,071
-358,854	-200,000	0,038	0,138
-357,839	800,000	0,076	-0,159
-356,825	-200,000	0,005	-0,062
-355,810	492,826	-0,021	-0,035
-354,796	35,848	-0,094	-0,060
-353,781	-1,401	-0,006	-0,003
-352,766	-6,665	-0,084	-0,041
-351,752	-200,000	-0,012	-0,086
-350,737	800,000	0,019	-0,059
-349,723	72,690	0,057	0,043
-348,708	309,687	-0,060	0,082
-347,693	260,028	0,060	-0,075
-346,679	148,750	-0,047	-0,046
-345,664	-200,000	0,003	-0,052
-344,650	-200,000	0,018	-0,061
-343,635	-200,000	0,007	-0,036
-342,620	800,000	0,040	0,129
-341,606	12,458	0,138	-0,077
-340,591	-200,000	-0,009	-0,218
-339,577	6,705	-0,086	-0,046
-338,562	-200,000	0,025	0,104
-337,548	-122,729	0,183	0,021
-336,533	-151,750	-0,080	0,004
-335,518	-200,000	0,010	0,042
-334,504	-200,000	0,022	-0,106
-333,489	-200,000	0,003	-0,054
-332,475	164,793	-0,141	0,145
-331,460	372,910	0,006	-0,008
-330,445	-200,000	-0,023	0,199
-329,431	-105,696	0,025	0,004
-328,416	-75,649	0,019	-0,005
-327,402	63,270	-0,088	0,064
-326,387	-200,000	0,021	0,115
-325,372	800,000	-0,040	-0,101
-324,358	-120,418	0,152	-0,018
-323,343	-200,000	0,020	0,105
-322,329	-200,000	-0,001	-0,042
-321,314	-200,000	-0,005	0,031
-320,299	-115,875	0,022	-0,003
-319,285	-33,126	0,094	0,038
-318,270	-200,000	-0,028	-0,107
-317,256	-119,228	-0,081	0,010
-316,241	45,588	-0,021	0,014
-315,226	-38,801	-0,043	0,016
-314,212	-159,381	0,063	-0,002
-313,197	-144,721	0,165	-0,011
-312,183	-200,000	0,018	-0,074
-311,168	365,160	0,078	0,114
-310,153	41,757	-0,081	-0,053
-309,139	-129,350	0,117	0,012
-308,124	638,031	-0,033	0,061
-307,110	45,669	0,109	0,073
-306,095	-19,917	0,056	-0,025
-305,080	263,786	0,037	0,047
-304,066	-87,213	0,066	-0,014
-303,051	544,873	-0,076	-0,131
-302,037	-126,743	0,070	0,007
-301,022	-88,475	0,157	0,034
-300,008	-200,000	0,010	-0,104
-298,993	65,433	0,095	0,069
-297,978	-200,000	0,020	0,111
-296,964	182,437	-0,088	-0,094
-295,949	-200,000	0,055	-0,181
-294,935	417,734	-0,069	-0,108
-293,920	-200,000	-0,001	-0,042
-292,905	-10,367	0,111	-0,053
-291,891	137,343	0,145	0,138
-290,876	133,339	0,054	-0,050
-289,862	15,813	0,066	-0,038
-288,847	-5,221	-0,010	-0,005
-287,832	800,000	-0,063	-0,148
-286,818	785,367	0,085	-0,169
-285,803	-3,121	-0,058	0,029
-284,789	-32,477	0,085	-0,034
-283,774	800,000	0,052	0,127
-282,759	52,867	0,035	0,024
-281,745	358,228	-0,034	-0,049
-280,730	-45,796	-0,010	-0,004
-279,716	270,970	0,059	0,076
-278,701	723,416	-0,025	-0,049
-277,686	378,476	0,108	0,161
-276,672	-118,361	0,086	0,011
-275,657	-0,583	0,031	-0,016
-274,643	170,174	-0,150	-0,156
-273,628	17,340	0,102	-0,058
-272,613	79,981	-0,093	-0,073
-271,599	-200,000	0,001	0,033
-270,584	800,000	-0,024	-0,065
-269,570	25,756	0,103	0,062
-268,555	-200,000	-0,009	0,037
-267,540	-200,000	0,013	-0,085
-266,526	364,268	-0,042	-0,062
-265,511	-200,000	-0,014	0,049
-264,497	708,300	-0,071	0,136
-263,482	117,742	0,089	0,080
-262,467	155,460	0,087	0,087
-261,453	36,497	0,027	0,017
-260,438	670,029	0,045	-0,084
-259,424	800,000	-0,031	0,067
-258,409	800,000	-0,069	-0,141
-257,395	111,664	0,022	-0,020
-256,380	11,458	-0,055	-0,030
-255,365	79,699	0,101	0,078
-254,351	-200,000	0,001	0,078
-253,336	53,558	-0,042	0,029
-252,322	800,000	-0,018	0,040
-251,307	66,919	-0,010	-0,008
-250,292	287,240	0,035	-0,045
-249,278	-94,737	0,052	0,010
-248,263	-200,000	0,026	0,171
-247,249	-73,606	0,056	0,015
-246,234	111,808	-0,096	-0,083
-245,219	-200,000	0,006	-0,129
-244,205	237,463	-0,104	-0,125
-243,190	-166,844	0,097	-0,003
-242,176	128,905	0,054	0,050
-241,161	-73,061	0,143	-0,038
-240,146	-155,674	-0,110	-0,005
-239,132	-153,276	-0,150	0,007
-238,117	-104,884	-0,153	-0,025
-237,103	-6,835	0,078	-0,038
-236,088	-54,612	0,116	-0,038
-235,073	-200,000	-0,008	-0,080
-234,059	-49,404	-0,142	0,049
-233,044	733,979	0,035	0,067
-232,030	258,450	0,010	0,012
-231,015	334,141	0,056	-0,078
-230,000	-200,000	0,008	-0,166
-228,986	388,205	-0,121	0,181
-227,971	-200,000	-0,065	0,000
-226,957	179,485	-0,110	0,117
-225,942	800,000	-0,031	0,068
-224,927	-200,000	0,014	0,164
-223,913	-100,430	-0,082	0,015
-222,898	455,784	0,077	-0,123
-221,884	-29,676	-0,208	-0,085
-220,869	139,144	0,059	-0,056
-219,855	268,188	-0,052	0,066
-218,840	-200,000	-0,008	0,028
-217,825	-24,093	-0,066	-0,029
-216,811	499,498	0,044	0,074
-215,796	-200,000	-0,024	-0,094
-214,782	51,947	-0,135	-0,093
-213,767	244,734	0,025	0,030
-212,752	499,894	0,069	0,115
-211,738	16,485	0,053	0,030
-210,723	90,097	-0,094	-0,076
-209,709	800,000	-0,051	-0,138
-208,694	-200,000	0,026	-0,092
-207,679	101,060	-0,068	-0,057
-206,665	28,936	0,064	-0,039
-205,650	139,975	0,080	0,076
-204,636	-200,000	-0,022	0,095
-203,621	800,000	-0,006	0,017
-202,606	-200,000	0,021	-0,066
-201,592	144,265	-0,035	-0,034
-200,577	158,161	-0,051	0,051
-199,563	21,920	-0,052	0,031
-198,548	800,000	-0,019	0,047
-197,533	-200,000	0,013	-0,054
-196,519	321,877	-0,087	0,119
-195,504	800,000	0,052	-0,140
-194,490	-49,469	-0,144	-0,049
-193,475	14,496	-0,084	-0,047
-192,460	491,656	0,067	-0,111
-191,446	-20,269	0,108	-0,048
-190,431	800,000	-0,016	0,040
-189,417	259,398	0,075	-0,094
-188,402	-45,570	0,036	0,013
-187,387	275,211	-0,058	-0,074
-186,373	-47,860	-0,066	0,023
-185,358	-127,289	0,125	-0,013
-184,344	-200,000	0,003	-0,033
-183,329	-200,000	0,045	0,221
-182,315	167,576	0,090	0,093
-181,300	800,000	-0,057	0,132
-180,285	155,136	-0,048	0,048
-179,271	141,226	-0,069	0,066
-178,256	168,271	-0,018	0,018
-177,242	-200,000	-0,042	0,148
-176,227	332,552	-0,021	0,029
-175,212	540,701	-0,061	0,104
-174,198	800,000	0,062	-0,137
-173,183	765,461	0,065	-0,128
-172,169	-58,119	-0,063	0,020
-171,154	64,421	0,126	-0,091
-170,139	-108,453	-0,031	-0,005
-169,125	-200,000	-0,011	0,112
-168,110	-111,726	0,075	0,011
-167,096	-200,000	0,021	-0,139
-166,081	552,740	-0,083	-0,144
-165,066	-200,000	0,009	0,050
-164,052	-117,191	0,093	0,012
-163,037	451,577	0,022	0,035
-162,023	-200,000	0,000	0,153
-161,008	-200,000	-0,002	-0,061
-159,993	800,000	0,068	0,140
-158,979	-89,675	-0,153	0,032
-157,964	-200,000	-0,018	-0,117
-156,950	-78,641	-0,198	-0,048
-155,935	-200,000	0,007	0,049
-154,920	-84,258	-0,028	-0,006
-153,906	-200,000	0,054	0,180
-152,891	-110,451	-0,107	0,016
-151,877	-132,897	-0,175	0,016
-150,862	800,000	-0,072	-0,161
-149,847	329,581	-0,017	-0,023
-148,833	-200,000	0,020	-0,107
-147,818	-43,151	0,077	0,028
-146,804	-66,776	0,139	0,039
-145,789	-82,610	-0,160	0,037
-144,775	800,000	0,020	0,043
-143,760	-128,662	0,058	0,006
-142,745	800,000	-0,040	-0,101
-141,731	-51,472	-0,084	0,028
-140,716	-28,639	0,092	0,038
-139,702	256,791	0,081	0,100
-138,687	53,965	0,071	-0,049
-137,672	579,864	0,065	-0,115
-136,658	-78,996	-0,070	-0,017
-135,643	800,000	0,021	-0,061
-134,629	-147,188	-0,077	-0,005
-133,614	800,000	-0,021	0,059
-132,599	-200,000	0,011	-0,115
-131,585	-118,163	0,048	-0,006
-130,570	800,000	-0,025	0,052
-129,556	-28,022	-0,067	0,028
-128,541	800,000	-0,026	-0,073
-127,526	213,912	-0,043	-0,049
-126,512	-90,700	0,049	0,010
-125,497	-87,216	-0,039	0,008
-124,483	800,000	0,032	0,086
-123,468	260,001	-0,088	-0,110
-122,453	-115,544	-0,189	-0,025
-121,439	800,000	0,069	0,189
-120,424	-98,319	-0,145	0,026
-119,410	84,012	0,021	0,017
