DTS Sentinel unit serial number:	SN410029Multiplexer serial number:	ORYXHardware model number:	OX2-SRSoftware version number:	ORYX F/W v4,00 Oryx Data Collector v3.7.2.0data status	okinstallation	B5 Nyhavnadifferential loss correction	single-endedforward channel	channel 2reverse channel	N/Adate	2023/12/12time	17:32:13forward acquisition time	300,00reverse acquisition time	0,00gamma	499,1914k internal	0,3156k external	0,3156temperature offset calibration	1,0000default loss term (dB/km)	0,3820temperature slope calibration	1,0000multiplexer offset coefficient	1,0000multiplexer slope coefficient	1,0000fibre end	0,00T internal ref (°C)	15,69T ext. ref 1 (°C)	-0,84T ext. ref 2 (°C)	-1,20length (m)	temperature (°C)	Stokes	anti-Stokes-744,400	42,651	0,046	-0,031
-743,385	-133,264	-0,271	0,025
-742,371	56,730	0,073	0,053
-741,356	-163,013	-0,412	0,014
-740,342	-55,423	0,149	-0,049
-739,327	-32,753	-0,297	0,121
-738,312	-177,572	0,059	0,001
-737,298	-38,062	-0,265	-0,103
-736,283	-129,689	0,089	-0,009
-735,269	-139,757	-0,282	-0,022
-734,254	302,422	-0,043	-0,058
-733,239	27,668	-0,402	-0,249
-732,225	86,061	0,247	0,200
-731,210	544,317	0,063	-0,112
-730,196	34,296	-0,039	0,025
-729,181	800,000	-0,075	0,166
-728,167	45,991	-0,037	-0,026
-727,152	-50,896	-0,069	-0,024
-726,137	64,309	0,034	-0,025
-725,123	-154,716	-0,113	-0,005
-724,108	367,976	-0,103	-0,154
-723,094	105,942	-0,045	-0,039
-722,079	-27,787	-0,014	0,006
-721,064	800,000	-0,015	0,031
-720,050	-154,982	-0,099	0,005
-719,035	800,000	-0,033	0,103
-718,021	-200,000	-0,008	-0,063
-717,006	800,000	0,036	0,078
-715,991	-22,254	-0,175	-0,078
-714,977	-134,183	-0,108	0,010
-713,962	226,836	-0,071	0,086
-712,948	-200,000	-0,007	0,117
-711,933	-200,000	-0,010	0,052
-710,918	100,282	0,024	-0,021
-709,904	-183,730	-0,040	0,000
-708,889	-200,000	0,019	0,080
-707,875	340,400	-0,040	0,058
-706,860	571,870	0,133	0,239
-705,845	90,619	0,027	-0,023
-704,831	94,392	0,028	0,023
-703,816	51,677	0,038	-0,027
-702,802	96,544	-0,040	0,033
-701,787	-117,452	-0,155	0,020
-700,772	683,563	0,022	0,042
-699,758	46,691	0,087	0,060
-698,743	378,988	0,080	-0,122
-697,729	-110,345	-0,058	0,009
-696,714	288,069	-0,047	-0,063
-695,699	-39,039	0,077	0,030
-694,685	-200,000	-0,052	-0,230
-693,670	-200,000	-0,000	-0,058
-692,656	-1,019	0,085	-0,044
-691,641	-59,148	-0,076	-0,024
-690,627	-0,739	-0,067	-0,035
-689,612	-32,253	-0,050	0,020
-688,597	-200,000	-0,032	-0,161
-687,583	800,000	-0,023	-0,064
-686,568	-12,530	-0,164	0,079
-685,554	800,000	0,026	-0,084
-684,539	800,000	0,022	-0,046
-683,524	-129,313	-0,067	-0,007
-682,510	-84,378	-0,016	-0,004
-681,495	586,210	0,014	0,025
-680,481	-200,000	-0,010	-0,156
-679,466	800,000	0,061	-0,155
-678,451	-145,238	0,144	-0,009
-677,437	377,978	-0,062	-0,093
-676,422	-77,897	-0,026	-0,007
-675,408	-106,804	0,151	0,024
-674,393	-121,487	0,065	-0,008
-673,378	800,000	-0,066	-0,140
-672,364	-2,119	0,011	0,006
-671,349	-200,000	-0,008	0,050
-670,335	800,000	0,083	-0,194
-669,320	578,344	0,040	-0,072
-668,305	-88,932	0,068	-0,015
-667,291	-109,664	0,107	-0,016
-666,276	-50,998	-0,071	0,024
-665,262	197,034	-0,067	-0,075
-664,247	256,542	-0,072	-0,091
-663,232	305,601	-0,044	-0,061
-662,218	-68,419	-0,100	0,028
-661,203	182,970	0,068	0,074
-660,189	-141,871	-0,077	0,006
-659,174	22,162	0,038	-0,023
-658,159	-200,000	-0,017	-0,088
-657,145	183,514	-0,056	-0,061
-656,130	800,000	-0,055	-0,144
-655,116	69,126	0,042	0,031
-654,101	518,824	0,064	0,111
-653,086	-130,096	0,095	0,009
-652,072	408,826	0,033	0,052
-651,057	800,000	-0,053	-0,110
-650,043	-200,000	0,035	-0,122
-649,028	684,265	-0,029	-0,056
-648,014	253,942	0,064	0,081
-646,999	-200,000	0,025	-0,090
-645,984	-200,000	-0,003	0,098
-644,970	800,000	-0,062	-0,137
-643,955	-88,689	-0,064	0,014
-642,941	-27,249	-0,029	0,012
-641,926	-200,000	-0,046	0,208
-640,911	723,233	0,076	-0,149
-639,897	243,342	0,057	0,070
-638,882	-200,000	-0,007	0,125
-637,868	-141,751	0,053	0,004
-636,853	12,748	-0,131	-0,074
-635,838	-31,676	-0,092	-0,038
-634,824	-200,000	-0,016	-0,114
-633,809	-200,000	0,015	-0,092
-632,795	58,135	0,083	0,060
-631,780	-14,706	-0,162	0,076
-630,765	-200,000	0,013	-0,166
-629,751	-200,000	-0,032	-0,151
-628,736	800,000	0,035	-0,088
-627,722	-128,871	0,063	0,006
-626,707	297,313	0,068	0,092
-625,692	27,582	0,063	0,039
-624,678	49,937	-0,096	0,066
-623,663	55,966	-0,046	-0,033
-622,649	-200,000	-0,040	0,153
-621,634	218,984	0,070	0,083
-620,619	-88,242	0,028	0,006
-619,605	-200,000	0,009	0,056
-618,590	152,692	-0,070	0,070
-617,576	-96,039	0,101	-0,019
-616,561	-200,000	0,001	-0,138
-615,546	800,000	-0,057	-0,124
-614,532	72,173	0,021	-0,016
-613,517	800,000	0,030	0,074
-612,503	-200,000	0,014	0,071
-611,488	-200,000	-0,021	0,175
-610,474	800,000	0,003	0,010
-609,459	314,231	0,066	0,092
-608,444	92,443	-0,168	-0,139
-607,430	-200,000	-0,005	-0,185
-606,415	17,278	0,089	-0,052
-605,401	-200,000	0,017	-0,113
-604,386	-200,000	0,030	-0,099
-603,371	454,491	-0,108	0,176
-602,357	414,843	-0,056	0,088
-601,342	104,004	-0,161	0,139
-600,328	-93,421	-0,123	-0,025
-599,313	-200,000	-0,004	-0,093
-598,298	405,711	-0,047	0,073
-597,284	8,098	0,123	0,067
-596,269	-200,000	-0,003	-0,107
-595,255	-172,557	0,045	-0,001
-594,240	-200,000	-0,009	0,056
-593,225	800,000	-0,046	-0,127
-592,211	-200,000	-0,001	0,041
-591,196	-61,785	0,082	0,025
-590,182	-200,000	0,020	0,270
-589,167	800,000	-0,049	0,104
-588,152	-3,376	-0,060	-0,030
-587,138	-32,157	-0,116	-0,047
-586,123	-200,000	0,002	0,058
-585,109	-158,178	0,063	0,003
-584,094	-31,236	-0,095	-0,039
-583,079	-56,277	0,109	-0,035
-582,065	-73,723	-0,112	-0,030
-581,050	-50,978	0,063	-0,022
-580,036	-200,000	0,040	0,140
-579,021	182,409	0,035	-0,038
-578,006	44,713	-0,104	-0,070
-576,992	-113,543	-0,140	-0,020
-575,977	-200,000	-0,008	0,052
-574,963	800,000	-0,016	-0,047
-573,948	-200,000	0,012	-0,087
-572,934	668,954	0,046	-0,087
-571,919	-200,000	-0,016	-0,053
-570,904	-126,435	-0,195	0,021
-569,890	696,547	0,033	0,063
-568,875	-200,000	-0,001	0,031
-567,861	111,161	-0,070	0,062
-566,846	-119,689	0,038	0,005
-565,831	288,721	0,033	0,043
-564,817	40,532	-0,030	-0,020
-563,802	604,056	-0,041	-0,075
-562,788	150,129	0,085	0,085
-561,773	-136,564	0,100	0,008
-560,758	-87,851	0,115	-0,025
-559,744	311,978	0,054	0,074
-558,729	-47,159	-0,070	-0,025
-557,715	-200,000	-0,000	-0,039
-556,700	64,188	0,105	-0,077
-555,685	-200,000	-0,004	-0,035
-554,671	-200,000	-0,024	0,143
-553,656	-120,243	0,129	-0,016
-552,642	-200,000	-0,046	0,176
-551,627	13,717	0,043	0,025
-550,612	-5,107	-0,024	-0,012
-549,598	-74,650	0,083	-0,022
-548,583	-53,993	-0,082	0,027
-547,569	146,550	0,022	0,022
-546,554	800,000	-0,047	0,106
-545,539	72,463	-0,126	0,096
-544,525	-122,391	-0,100	0,012
-543,510	295,643	0,078	0,105
-542,496	-21,891	0,096	-0,042
-541,481	107,461	0,071	0,062
-540,466	96,448	-0,051	0,042
-539,452	727,378	-0,067	-0,132
-538,437	-105,355	0,133	0,022
-537,423	401,639	-0,054	0,083
-536,408	8,217	-0,046	-0,025
-535,393	79,957	-0,073	-0,058
-534,379	-200,000	-0,010	0,099
-533,364	800,000	0,079	0,185
-532,350	-200,000	-0,001	-0,103
-531,335	297,234	-0,027	-0,037
-530,321	-30,288	-0,133	0,055
-529,306	172,616	-0,101	-0,106
-528,291	800,000	0,036	-0,102
-527,277	-200,000	0,004	0,061
-526,262	86,033	0,056	-0,045
-525,248	202,762	-0,020	-0,023
-524,233	-84,490	-0,153	0,035
-523,218	281,041	-0,059	-0,077
-522,204	800,000	0,025	0,073
-521,189	-200,000	0,012	-0,161
-520,175	-122,303	0,065	-0,008
-519,160	-200,000	0,034	0,138
-518,145	800,000	0,070	-0,153
-517,131	-32,948	0,070	0,028
-516,116	-200,000	0,015	0,111
-515,102	800,000	-0,024	0,070
-514,087	800,000	0,015	-0,039
-513,072	-173,565	0,073	-0,002
-512,058	-200,000	0,002	-0,022
-511,043	-200,000	-0,010	0,039
-510,029	-96,308	0,120	-0,023
-509,014	-78,914	-0,047	-0,012
-507,999	-200,000	-0,007	-0,067
-506,985	-200,000	-0,003	0,015
-505,970	198,029	-0,069	-0,077
-504,956	-116,061	-0,092	-0,012
-503,941	-98,998	-0,113	0,021
-502,926	-38,639	0,040	0,015
-501,912	800,000	-0,012	-0,028
-500,897	-35,094	-0,073	0,029
-499,883	30,403	-0,069	0,043
-498,868	142,126	-0,074	-0,071
-497,853	-154,961	-0,079	-0,004
-496,839	86,017	0,087	0,070
-495,824	-200,000	0,004	0,032
-494,810	-55,383	0,175	0,057
-493,795	24,621	-0,021	-0,013
-492,781	45,939	-0,036	-0,024
-491,766	55,389	-0,078	-0,055
-490,751	-69,934	-0,095	-0,026
-489,737	-200,000	0,022	0,085
-488,722	-96,159	0,114	-0,022
-487,708	-113,716	0,178	-0,025
-486,693	-116,981	-0,072	-0,009
-485,678	-79,596	-0,079	0,019
-484,664	4,310	0,028	0,015
-483,649	800,000	-0,083	-0,191
-482,635	-64,343	0,034	0,010
-481,620	-106,049	0,004	-0,001
-480,605	133,664	-0,007	-0,007
-479,591	598,977	0,041	-0,074
-478,576	800,000	-0,044	-0,126
-477,562	22,986	-0,038	0,023
-476,547	126,640	0,082	-0,076
-475,532	-200,000	-0,036	-0,243
-474,518	603,169	0,022	-0,040
-473,503	-200,000	-0,013	-0,049
-472,489	444,273	-0,044	0,071
-471,474	595,323	-0,035	0,063
-470,459	6,402	0,130	-0,070
-469,445	800,000	0,038	-0,109
-468,430	800,000	0,014	0,039
-467,416	628,727	-0,079	0,147
-466,401	-199,981	0,138	-0,000
-465,386	-200,000	0,008	0,141
-464,372	-128,754	-0,164	-0,017
-463,357	800,000	-0,025	-0,071
-462,343	102,049	-0,071	-0,061
-461,328	-78,273	-0,041	-0,010
-460,313	800,000	-0,032	-0,064
-459,299	800,000	-0,008	-0,020
-458,284	16,161	-0,075	-0,043
-457,270	469,268	-0,025	-0,042
-456,255	548,158	0,031	0,054
-455,241	102,687	-0,036	-0,031
-454,226	-110,843	0,121	-0,018
-453,211	-84,860	0,059	0,013
-452,197	-200,000	-0,013	0,113
-451,182	800,000	0,082	0,177
-450,168	800,000	0,023	0,072
-449,153	1,524	-0,080	0,042
-448,138	-200,000	-0,017	-0,131
-447,124	-120,044	-0,084	-0,010
-446,109	-55,516	0,014	-0,005
-445,095	-157,171	-0,046	-0,002
-444,080	306,282	-0,051	-0,069
-443,065	95,596	0,069	-0,058
-442,051	58,363	0,059	-0,042
-441,036	-200,000	0,026	-0,241
-440,022	33,642	-0,028	0,018
-439,007	-200,000	-0,002	-0,116
-437,992	-103,821	-0,052	0,009
-436,978	617,487	0,062	-0,114
-435,963	-193,375	0,078	-0,000
-434,949	-186,654	-0,081	0,001
-433,934	525,149	0,048	-0,082
-432,919	-200,000	-0,026	-0,101
-431,905	-120,315	0,102	-0,013
-430,890	-153,178	-0,068	0,003
-429,876	-200,000	-0,009	0,052
-428,861	37,013	-0,058	-0,038
-427,846	82,613	-0,092	-0,073
-426,832	106,368	0,084	-0,073
-425,817	-200,000	0,042	0,000
-424,803	71,074	0,125	-0,094
-423,788	-193,839	-0,136	-0,001
-422,773	800,000	0,041	0,128
-421,759	-49,174	0,010	0,004
-420,744	-200,000	0,016	-0,110
-419,730	117,499	0,050	0,045
-418,715	1,478	-0,179	-0,094
-417,701	800,000	-0,101	-0,254
-416,686	634,444	0,029	-0,053
-415,671	3,067	-0,056	0,030
-414,657	-25,345	0,130	0,056
-413,642	54,881	-0,081	-0,057
-412,628	800,000	-0,027	-0,070
-411,613	153,790	0,099	0,099
-410,598	-200,000	0,007	-0,083
-409,584	94,838	0,048	-0,040
-408,569	-149,000	0,020	-0,001
-407,555	-100,879	0,051	0,009
-406,540	-183,843	0,112	-0,001
-405,525	82,022	0,040	-0,032
-404,511	315,139	-0,114	-0,157
-403,496	-200,000	-0,003	0,114
-402,482	800,000	0,032	-0,071
-401,467	414,424	0,026	-0,040
-400,452	-170,255	0,196	-0,005
-399,438	-200,000	0,011	0,172
-398,423	-200,000	0,019	0,065
-397,409	333,579	-0,064	-0,090
-396,394	187,632	0,019	-0,021
-395,379	-200,000	-0,000	-0,007
-394,365	-112,951	0,156	0,022
-393,350	-47,879	0,093	0,032
-392,336	-200,000	-0,006	-0,024
-391,321	140,072	0,060	0,057
-390,306	-107,129	-0,140	0,022
-389,292	-51,834	0,071	-0,024
-388,277	-179,766	-0,081	-0,001
-387,263	-48,203	0,145	0,051
-386,248	-94,088	0,201	0,040
-385,233	288,131	-0,085	0,112
-384,219	483,073	0,016	0,027
-383,204	790,510	0,010	-0,020
-382,190	85,205	-0,057	0,045
-381,175	410,642	-0,047	-0,073
-380,160	800,000	-0,019	-0,044
-379,146	-168,858	-0,055	0,001
-378,131	800,000	0,050	0,119
-377,117	-165,301	0,126	-0,004
-376,102	70,991	-0,038	-0,028
-375,088	-200,000	0,003	-0,075
-374,073	110,754	-0,021	-0,019
-373,058	627,035	0,013	-0,024
-372,044	-200,000	0,001	0,033
-371,029	-200,000	0,023	0,161
-370,015	33,455	-0,047	-0,030
-369,000	-200,000	-0,000	-0,085
-367,985	135,806	-0,062	-0,059
-366,971	-200,000	0,032	0,165
-365,956	-31,011	-0,099	0,040
-364,942	-34,698	-0,052	0,020
-363,927	170,531	0,084	0,088
-362,912	-200,000	-0,009	-0,080
-361,898	34,437	0,097	0,061
-360,883	-156,511	-0,023	-0,001
-359,869	-200,000	0,002	-0,118
-358,854	182,754	-0,064	0,069
-357,839	261,680	-0,046	0,058
-356,825	9,344	0,144	0,079
-355,810	-200,000	-0,013	-0,161
-354,796	241,362	0,006	0,008
-353,781	100,644	-0,090	0,076
-352,766	420,343	-0,054	-0,084
-351,752	146,039	0,140	-0,136
-350,737	9,002	0,083	0,046
-349,723	800,000	-0,028	0,073
-348,708	263,109	0,020	-0,026
-347,693	345,266	0,062	-0,089
-346,679	-124,734	0,068	-0,008
-345,664	65,280	-0,098	-0,072
-344,650	37,821	0,069	-0,044
-343,635	800,000	-0,029	0,077
-342,620	-200,000	0,020	-0,069
-341,606	-200,000	0,005	0,115
-340,591	-35,903	-0,175	-0,068
-339,577	800,000	0,025	-0,077
-338,562	177,548	0,062	0,065
-337,548	-200,000	-0,019	-0,100
-336,533	-200,000	-0,007	0,035
-335,518	800,000	0,037	0,101
-334,504	164,371	0,111	0,113
-333,489	249,611	0,052	0,064
-332,475	21,243	-0,087	-0,051
-331,460	-200,000	0,010	-0,082
-330,445	800,000	0,023	-0,053
-329,431	-40,146	-0,128	-0,048
-328,416	-50,299	0,076	-0,026
-327,402	-101,154	-0,021	-0,004
-326,387	113,224	0,029	0,026
-325,372	127,121	-0,059	-0,055
-324,358	729,231	-0,004	-0,007
-323,343	-107,204	0,134	-0,021
-322,329	230,499	-0,041	-0,048
-321,314	676,097	0,055	0,104
-320,299	-200,000	-0,004	0,043
-319,285	-200,000	0,030	0,111
-318,270	220,302	-0,098	-0,114
-317,256	-56,188	-0,065	0,021
-316,241	-149,507	-0,058	-0,003
-315,226	136,579	0,009	-0,009
-314,212	310,280	0,003	0,004
-313,197	-72,552	0,061	-0,016
-312,183	373,866	-0,057	-0,084
-311,168	-140,943	-0,070	-0,005
-310,153	-200,000	-0,004	-0,037
-309,139	3,442	-0,133	-0,070
-308,124	800,000	-0,046	-0,144
-307,110	-89,942	0,160	0,034
-306,095	92,296	0,108	0,088
-305,080	-88,367	0,043	-0,009
-304,066	29,959	-0,120	0,074
-303,051	36,906	0,045	0,029
-302,037	479,229	-0,039	0,064
-301,022	345,265	0,071	0,101
-300,008	800,000	0,030	0,092
-298,993	465,144	-0,043	-0,069
-297,978	6,481	-0,085	0,045
-296,964	800,000	-0,075	-0,172
-295,949	-200,000	-0,022	-0,106
-294,935	142,808	0,100	-0,096
-293,920	569,934	-0,027	0,047
-292,905	305,580	0,091	0,123
-291,891	-6,108	0,065	0,032
-290,876	31,715	-0,061	0,038
-289,862	-200,000	0,004	-0,023
-288,847	224,815	-0,057	0,067
-287,832	-41,727	-0,089	-0,033
-286,818	-165,974	0,119	0,004
-285,803	351,096	0,066	-0,095
-284,789	-200,000	0,004	0,110
-283,774	734,724	0,028	-0,055
-282,759	-39,495	0,102	0,038
-281,745	-51,205	0,032	-0,011
-280,730	166,666	0,083	0,085
-279,716	171,650	-0,064	-0,066
-278,701	39,882	0,062	0,040
-277,686	-39,443	0,090	0,034
-276,672	-125,139	0,097	-0,011
-275,657	367,713	0,102	0,150
-274,643	-200,000	-0,000	-0,048
-273,628	-200,000	0,000	-0,114
-272,613	503,661	0,012	-0,020
-271,599	-97,500	0,128	0,024
-270,584	-39,510	0,073	0,028
-269,570	6,427	-0,055	-0,029
-268,555	-200,000	0,005	-0,088
-267,540	148,033	0,073	0,071
-266,526	139,687	0,046	-0,044
-265,511	85,495	-0,053	0,042
-264,497	-13,350	0,072	-0,034
-263,482	-200,000	0,047	0,162
-262,467	224,007	-0,077	0,090
-261,453	-200,000	-0,025	0,098
-260,438	-109,987	-0,114	-0,017
-259,424	32,442	0,109	-0,068
-258,409	-200,000	0,008	0,121
-257,395	129,011	0,034	-0,032
-256,380	191,100	0,041	0,045
-255,365	800,000	0,018	0,043
-254,351	518,035	0,012	-0,020
-253,336	1,909	-0,092	-0,048
-252,322	-125,594	0,029	-0,003
-251,307	721,885	-0,051	0,098
-250,292	207,383	-0,094	-0,106
-249,278	-200,000	0,006	0,097
-248,263	-200,000	0,022	0,118
-247,249	-200,000	0,032	0,157
-246,234	-200,000	0,002	0,035
-245,219	-29,883	-0,059	0,024
-244,205	528,517	-0,048	0,082
-243,190	-200,000	0,007	-0,035
-242,176	204,291	-0,037	0,041
-241,161	-111,248	0,116	0,017
-240,146	-59,001	-0,112	0,035
-239,132	-200,000	-0,025	0,092
-238,117	37,481	-0,074	-0,048
-237,103	800,000	-0,037	-0,115
-236,088	106,426	-0,005	-0,004
-235,073	368,928	0,017	0,025
-234,059	-200,000	0,020	-0,070
-233,044	379,120	0,006	-0,008
-232,030	118,866	0,052	-0,047
-231,015	-200,000	0,012	-0,103
-230,000	292,188	-0,016	0,021
-228,986	-108,946	-0,109	-0,017
-227,971	-200,000	0,020	0,080
-226,957	800,000	0,047	0,150
-225,942	418,454	-0,084	0,130
-224,927	695,356	-0,055	0,105
-223,913	793,724	-0,058	0,117
-222,898	-200,000	0,004	-0,015
-221,884	199,634	0,060	0,067
-220,869	-200,000	0,015	0,139
-219,855	-17,505	0,105	0,048
-218,840	800,000	-0,045	0,096
-217,825	800,000	0,036	-0,079
-216,811	-200,000	-0,001	-0,156
-215,796	126,695	-0,112	-0,102
-214,782	294,861	0,028	0,038
-213,767	-115,033	-0,043	-0,006
-212,752	214,924	0,091	0,104
-211,738	-200,000	0,053	0,225
-210,723	27,416	0,057	-0,035
-209,709	-200,000	-0,004	-0,093
-208,694	-200,000	-0,013	0,076
-207,679	535,289	0,044	-0,075
-206,665	2,073	0,087	0,045
-205,650	-74,364	0,128	0,033
-204,636	-200,000	-0,047	-0,157
-203,621	117,080	-0,108	-0,096
-202,606	-59,803	-0,119	0,037
-201,592	-103,209	-0,069	0,012
-200,577	33,309	-0,081	0,051
-199,563	-170,200	0,119	0,003
-198,548	-200,000	-0,000	-0,060
-197,533	-200,000	-0,032	-0,108
-196,519	402,973	0,070	-0,106
-195,504	-21,509	-0,133	0,058
-194,490	-48,932	0,086	-0,030
-193,475	-200,000	-0,020	-0,133
-192,460	27,398	0,105	-0,064
-191,446	30,429	0,077	-0,047
-190,431	-193,307	0,097	0,001
-189,417	701,187	0,034	-0,065
-188,402	-81,912	-0,129	-0,030
-187,387	800,000	-0,060	0,124
-186,373	800,000	0,039	-0,089
-185,358	-200,000	0,015	0,082
-184,344	112,085	0,108	0,094
-183,329	30,995	-0,008	-0,005
-182,315	37,263	0,069	0,044
-181,300	800,000	-0,037	0,096
-180,285	-200,000	0,004	-0,067
-179,271	74,920	0,141	-0,107
-178,256	-200,000	-0,002	-0,116
-177,242	-200,000	-0,025	0,099
-176,227	54,757	-0,035	0,024
-175,212	59,991	-0,025	-0,018
-174,198	-54,334	-0,097	0,032
-173,183	800,000	0,044	-0,141
-172,169	140,864	-0,125	-0,120
-171,154	-97,816	-0,067	-0,012
-170,139	-200,000	-0,000	0,067
-169,125	-200,000	-0,011	0,080
-168,110	536,438	0,049	0,085
-167,096	-24,846	-0,049	0,021
-166,081	133,338	-0,091	-0,085
-165,066	-112,626	-0,029	0,004
-164,052	-38,736	-0,075	0,028
-163,037	357,041	0,058	0,084
-162,023	800,000	0,040	-0,094
-161,008	800,000	0,043	0,123
-159,993	47,588	0,013	-0,009
-158,979	-188,132	-0,090	0,001
-157,964	133,887	-0,128	-0,120
-156,950	-135,174	0,060	-0,005
-155,935	-111,772	-0,119	0,017
-154,920	26,876	-0,086	0,052
-153,906	800,000	0,051	0,129
-152,891	-200,000	0,008	0,071
-151,877	800,000	-0,066	-0,141
-150,862	-200,000	0,002	-0,086
-149,847	-200,000	0,004	-0,013
-148,833	-60,760	0,075	0,023
-147,818	368,348	0,026	-0,038
-146,804	295,855	-0,042	0,056
-145,789	641,647	0,072	0,133
-144,775	-200,000	-0,003	0,069
-143,760	-200,000	-0,011	-0,113
-142,745	800,000	-0,032	-0,070
-141,731	-30,326	0,126	-0,051
-140,716	144,939	-0,032	-0,031
-139,702	-200,000	-0,005	0,167
-138,687	-200,000	-0,011	-0,114
-137,672	-200,000	-0,013	-0,086
-136,658	471,529	-0,042	-0,068
-135,643	-108,324	0,057	0,009
-134,629	144,734	0,066	-0,063
-133,614	-57,181	-0,240	0,076
-132,599	208,769	0,032	-0,036
-131,585	361,398	0,092	0,133
-130,570	-200,000	-0,021	-0,082
-129,556	-120,668	0,119	0,014
-128,541	169,539	-0,053	0,054
-127,526	-200,000	-0,002	-0,033
-126,512	-138,008	-0,063	0,005
-125,497	210,600	0,017	0,019
-124,483	585,874	0,045	-0,080
-123,468	74,311	-0,078	-0,059
-122,453	-73,858	-0,056	-0,014
-121,439	-80,976	0,143	0,034
-120,424	3,807	0,128	-0,067
