DTS Sentinel unit serial number:	SN410029Multiplexer serial number:	ORYXHardware model number:	OX2-SRSoftware version number:	ORYX F/W v4,00 Oryx Data Collector v3.7.2.0data status	okinstallation	B5 Nyhavnadifferential loss correction	single-endedforward channel	channel 2reverse channel	N/Adate	2023/12/13time	14:57:13forward acquisition time	300,00reverse acquisition time	0,00gamma	499,1914k internal	0,3160k external	0,3160temperature offset calibration	1,0000default loss term (dB/km)	0,3820temperature slope calibration	1,0000multiplexer offset coefficient	1,0000multiplexer slope coefficient	1,0000fibre end	0,00T internal ref (°C)	15,00T ext. ref 1 (°C)	-1,27T ext. ref 2 (°C)	-1,55length (m)	temperature (°C)	Stokes	anti-Stokes-744,400	-200,000	0,013	0,164
-743,385	-64,429	-0,244	0,072
-742,371	49,985	0,074	-0,051
-741,356	-83,894	-0,274	0,064
-740,342	-200,000	0,027	0,092
-739,327	-76,803	-0,268	-0,069
-738,312	800,000	-0,012	0,026
-737,298	-107,408	-0,286	0,046
-736,283	17,105	0,094	0,055
-735,269	217,185	-0,126	0,148
-734,254	-77,047	0,141	-0,036
-733,239	-77,682	-0,551	-0,139
-732,225	-96,287	0,278	0,054
-731,210	-200,000	0,018	0,117
-730,196	-135,086	0,142	-0,012
-729,181	800,000	-0,030	0,063
-728,167	-200,000	-0,031	-0,161
-727,152	18,613	0,043	0,025
-726,137	24,983	-0,081	0,049
-725,123	-174,853	-0,013	0,000
-724,108	-60,520	-0,166	-0,051
-723,094	800,000	-0,084	-0,215
-722,079	-200,000	0,033	-0,181
-721,064	638,937	0,042	-0,079
-720,050	667,553	0,029	-0,055
-719,035	-31,657	-0,135	0,055
-718,021	-200,000	-0,018	-0,073
-717,006	133,929	-0,143	-0,136
-715,991	-135,874	-0,099	-0,008
-714,977	-200,000	-0,007	-0,121
-713,962	800,000	0,004	-0,012
-712,948	33,823	0,128	0,082
-711,933	-55,116	-0,011	-0,004
-710,918	800,000	-0,023	-0,049
-709,904	40,640	-0,104	0,069
-708,889	800,000	0,040	-0,089
-707,875	800,000	0,017	0,045
-706,860	-200,000	-0,046	0,154
-705,845	93,913	0,033	0,027
-704,831	-200,000	0,007	0,148
-703,816	-200,000	0,020	0,137
-702,802	-25,760	-0,095	0,041
-701,787	-27,654	0,052	0,022
-700,772	-116,516	0,162	-0,022
-699,758	416,270	0,045	-0,070
-698,743	-94,420	0,073	0,015
-697,729	233,657	-0,013	0,015
-696,714	340,414	-0,068	0,097
-695,699	145,894	0,039	-0,039
-694,685	800,000	-0,054	-0,121
-693,670	-200,000	-0,004	-0,078
-692,656	-200,000	0,000	-0,076
-691,641	16,385	0,063	-0,036
-690,627	-157,922	0,095	-0,004
-689,612	-200,000	-0,021	-0,071
-688,597	40,826	-0,104	-0,069
-687,583	-125,323	-0,077	0,009
-686,568	380,214	0,029	-0,043
-685,554	800,000	-0,031	-0,092
-684,539	145,689	0,037	-0,037
-683,524	-200,000	0,002	-0,011
-682,510	327,458	-0,076	0,107
-681,495	-200,000	0,018	0,093
-680,481	78,128	-0,069	-0,054
-679,466	-90,712	0,096	0,020
-678,451	-0,109	-0,083	-0,043
-677,437	664,690	-0,052	0,099
-676,422	299,906	0,073	0,099
-675,408	-200,000	0,012	0,055
-674,393	50,478	0,067	0,047
-673,378	800,000	0,020	0,045
-672,364	36,408	0,096	-0,062
-671,349	494,223	-0,033	-0,055
-670,335	800,000	0,028	-0,070
-669,320	-176,599	-0,033	-0,001
-668,305	389,012	0,045	0,068
-667,291	-61,754	-0,019	-0,006
-666,276	26,218	-0,096	-0,059
-665,262	-200,000	0,011	-0,121
-664,247	800,000	-0,016	0,051
-663,232	443,496	-0,011	0,017
-662,218	49,718	-0,047	0,032
-661,203	-157,222	-0,034	-0,001
-660,189	-200,000	0,001	0,024
-659,174	-132,411	-0,096	-0,009
-658,159	800,000	-0,054	-0,140
-657,145	-200,000	-0,005	0,025
-656,130	31,671	0,084	-0,053
-655,116	800,000	0,029	0,070
-654,101	-85,224	0,012	-0,003
-653,086	-79,122	-0,094	0,023
-652,072	147,851	0,037	0,037
-651,057	138,427	-0,049	-0,048
-650,043	-98,232	-0,064	0,012
-649,028	440,211	-0,028	0,046
-648,014	-31,551	-0,064	0,026
-646,999	15,429	0,076	0,044
-645,984	-135,263	-0,152	0,013
-644,970	332,721	0,038	-0,054
-643,955	-200,000	-0,015	-0,082
-642,941	-95,337	0,152	-0,030
-641,926	604,364	-0,049	-0,090
-640,911	-13,249	0,088	-0,042
-639,897	320,300	-0,051	0,072
-638,882	53,510	0,026	0,018
-637,868	-104,192	-0,067	0,011
-636,853	-1,443	-0,069	0,036
-635,838	2,099	-0,117	-0,062
-634,824	-71,600	0,067	-0,018
-633,809	240,993	0,020	-0,024
-632,795	800,000	-0,043	0,116
-631,780	-13,220	0,049	0,023
-630,765	-200,000	0,010	-0,043
-629,751	-57,134	-0,063	-0,020
-628,736	800,000	0,026	-0,067
-627,722	-200,000	0,015	-0,063
-626,707	-66,122	0,064	0,019
-625,692	26,385	0,086	-0,053
-624,678	114,808	-0,065	-0,058
-623,663	-79,357	0,038	-0,009
-622,649	-200,000	-0,001	-0,052
-621,634	104,598	-0,065	0,056
-620,619	103,762	-0,044	-0,038
-619,605	-97,982	-0,069	0,013
-618,590	360,590	0,024	0,036
-617,576	85,289	0,118	0,095
-616,561	47,612	0,028	0,019
-615,546	-200,000	0,002	0,015
-614,532	-174,086	-0,153	-0,003
-613,517	800,000	-0,067	-0,215
-612,503	-16,226	0,048	-0,022
-611,488	-132,025	0,122	0,011
-610,474	-83,936	-0,133	0,031
-609,459	-186,234	0,150	0,002
-608,444	-95,534	-0,134	0,026
-607,430	-16,382	-0,049	0,023
-606,415	-200,000	-0,001	-0,021
-605,401	-121,861	0,068	-0,008
-604,386	-52,256	-0,040	-0,013
-603,371	25,894	0,021	-0,013
-602,357	-200,000	-0,022	0,072
-601,342	211,425	-0,055	0,064
-600,328	306,621	-0,099	-0,136
-599,313	800,000	0,054	-0,128
-598,298	-200,000	0,007	0,052
-597,284	522,536	-0,026	-0,046
-596,269	57,425	-0,054	0,038
-595,255	368,817	0,048	0,071
-594,240	684,545	-0,042	0,082
-593,225	49,948	0,065	-0,045
-592,211	174,593	-0,027	0,028
-591,196	-200,000	-0,022	-0,085
-590,182	37,897	0,032	-0,021
-589,167	-175,112	0,161	-0,003
-588,152	-62,135	-0,037	-0,011
-587,138	-82,713	-0,112	0,026
-586,123	344,392	0,039	-0,057
-585,109	93,628	-0,055	-0,045
-584,094	421,627	0,035	0,056
-583,079	-94,396	-0,049	0,010
-582,065	29,457	0,080	0,050
-581,050	-87,354	-0,110	0,024
-580,036	-122,705	-0,052	-0,006
-579,021	-200,000	-0,001	0,011
-578,006	59,469	-0,151	-0,109
-576,992	-43,735	-0,068	0,025
-575,977	180,074	-0,063	0,067
-574,963	296,623	0,101	0,137
-573,948	-6,406	-0,079	-0,039
-572,934	174,816	0,048	-0,051
-571,919	800,000	-0,040	-0,081
-570,904	-116,456	-0,148	-0,020
-569,890	-200,000	0,022	0,071
-568,875	120,121	-0,031	-0,028
-567,861	232,564	0,032	-0,038
-566,846	56,791	0,082	0,059
-565,831	-160,967	0,036	-0,001
-564,817	-43,758	-0,138	-0,051
-563,802	342,924	-0,108	-0,156
-562,788	209,660	-0,125	-0,144
-561,773	17,949	0,080	-0,047
-560,758	-152,791	0,085	0,004
-559,744	28,977	0,056	-0,035
-558,729	-200,000	-0,028	0,093
-557,715	320,854	0,050	-0,070
-556,700	59,983	-0,053	0,038
-555,685	-31,904	-0,047	-0,019
-554,671	800,000	0,018	0,056
-553,656	-200,000	-0,002	0,096
-552,642	-200,000	0,005	0,286
-551,627	-130,716	-0,092	-0,009
-550,612	800,000	-0,023	0,052
-549,598	-38,405	-0,131	-0,050
-548,583	149,452	-0,146	-0,145
-547,569	-21,990	-0,089	0,039
-546,554	-200,000	0,022	0,119
-545,539	362,273	0,054	-0,079
-544,525	-98,829	-0,039	0,007
-543,510	800,000	-0,045	-0,108
-542,496	-154,745	-0,101	0,005
-541,481	-200,000	0,031	-0,104
-540,466	-3,613	-0,029	0,015
-539,452	35,747	0,071	-0,045
-538,437	-66,829	0,161	-0,046
-537,423	-130,045	-0,049	0,005
-536,408	800,000	-0,019	0,050
-535,393	-200,000	0,017	-0,065
-534,379	193,468	-0,065	-0,072
-533,364	-72,074	0,059	0,016
-532,350	-111,343	-0,054	0,008
-531,335	367,004	0,032	-0,048
-530,321	38,925	-0,103	0,067
-529,306	-119,030	-0,012	-0,001
-528,291	73,502	0,046	0,035
-527,277	466,688	-0,043	-0,070
-526,262	590,562	-0,011	0,021
-525,248	800,000	-0,008	0,025
-524,233	800,000	0,037	-0,094
-523,218	-96,149	-0,044	-0,008
-522,204	717,645	0,103	0,200
-521,189	-113,479	-0,106	-0,015
-520,175	-72,800	-0,103	-0,027
-519,160	51,427	-0,097	0,067
-518,145	-16,290	0,107	0,049
-517,131	-36,265	-0,075	-0,030
-516,116	-25,597	-0,041	0,018
-515,102	212,053	-0,028	0,033
-514,087	-92,145	-0,067	-0,014
-513,072	265,642	-0,064	0,082
-512,058	800,000	0,069	0,151
-511,043	-200,000	0,004	0,066
-510,029	569,541	0,055	0,097
-509,014	-23,425	-0,080	-0,035
-507,999	-98,957	-0,084	-0,015
-506,985	800,000	-0,016	0,049
-505,970	11,451	-0,078	-0,043
-504,956	800,000	0,016	0,039
-503,941	-200,000	-0,109	0,000
-502,926	-200,000	-0,016	-0,088
-501,912	-144,878	0,096	-0,006
-500,897	181,369	0,036	0,038
-499,883	-200,000	0,003	0,110
-498,868	-151,396	-0,122	0,007
-497,853	245,395	-0,004	0,005
-496,839	39,961	-0,103	0,067
-495,824	-10,242	0,126	0,061
-494,810	-93,547	0,065	-0,013
-493,795	-123,572	0,106	0,012
-492,781	-200,000	-0,012	0,090
-491,766	330,464	-0,025	-0,035
-490,751	-21,961	0,103	0,046
-489,737	-200,000	0,021	0,131
-488,722	800,000	-0,035	0,105
-487,708	800,000	0,021	0,042
-486,693	-27,246	-0,054	0,023
-485,678	4,822	-0,030	0,016
-484,664	383,151	-0,070	-0,105
-483,649	-8,618	-0,089	-0,043
-482,635	-200,000	0,008	0,142
-481,620	-100,698	0,125	-0,022
-480,605	55,610	0,176	0,124
-479,591	-200,000	-0,001	0,128
-478,576	-42,091	0,088	0,033
-477,562	172,246	-0,024	0,025
-476,547	15,685	0,038	0,022
-475,532	-200,000	0,005	0,045
-474,518	-200,000	0,009	-0,038
-473,503	265,018	0,095	0,121
-472,489	-200,000	0,013	0,170
-471,474	-200,000	-0,018	0,067
-470,459	55,912	-0,068	-0,048
-469,445	95,212	0,035	-0,029
-468,430	267,680	-0,082	0,105
-467,416	-52,580	0,085	-0,028
-466,401	9,620	0,167	-0,092
-465,386	-55,182	-0,072	0,024
-464,372	-200,000	-0,017	0,082
-463,357	800,000	0,053	-0,137
-462,343	189,764	-0,019	-0,020
-461,328	-44,298	0,084	0,030
-460,313	6,693	0,088	-0,047
-459,299	-200,000	-0,001	0,062
-458,284	221,448	0,127	0,149
-457,270	-200,000	-0,033	0,105
-456,255	-200,000	-0,003	0,029
-455,241	142,680	0,160	-0,155
-454,226	-110,287	0,022	-0,003
-453,211	-97,092	-0,089	0,017
-452,197	607,504	0,053	0,096
-451,182	-200,000	-0,009	0,047
-450,168	-200,000	-0,012	0,101
-449,153	519,268	-0,056	0,096
-448,138	327,141	0,003	0,004
-447,124	-200,000	-0,013	-0,174
-446,109	-70,195	-0,025	0,007
-445,095	-49,284	0,166	-0,057
-444,080	-29,532	0,147	-0,061
-443,065	800,000	-0,054	-0,115
-442,051	1,732	0,105	-0,055
-441,036	168,393	0,048	-0,050
-440,022	226,237	0,003	-0,004
-439,007	73,030	-0,112	0,085
-437,992	128,223	0,133	0,123
-436,978	-200,000	-0,022	0,087
-435,963	800,000	0,031	0,076
-434,949	800,000	-0,033	0,097
-433,934	-200,000	0,035	-0,128
-432,919	-26,679	0,073	-0,031
-431,905	-200,000	-0,008	0,079
-430,890	-87,810	0,082	0,018
-429,876	-105,369	0,032	0,005
-428,861	38,529	0,072	0,047
-427,846	797,905	-0,061	-0,123
-426,832	-200,000	0,014	-0,169
-425,817	-19,421	0,063	-0,028
-424,803	450,898	0,031	0,049
-423,788	335,500	-0,024	-0,034
-422,773	-200,000	-0,005	-0,058
-421,759	-125,577	0,114	-0,012
-420,744	344,911	0,058	0,084
-419,730	-80,304	-0,092	-0,022
-418,715	-200,000	0,001	-0,092
-417,701	59,206	-0,055	-0,039
-416,686	-170,276	0,157	0,004
-415,671	-25,995	0,148	0,063
-414,657	444,843	0,082	0,132
-413,642	-90,321	-0,042	0,009
-412,628	-172,813	0,037	-0,001
-411,613	-98,164	-0,039	0,007
-410,598	-45,100	0,044	-0,016
-409,584	120,503	-0,091	0,082
-408,569	800,000	-0,026	-0,072
-407,555	134,205	0,035	0,033
-406,540	480,821	0,084	-0,138
-405,525	-200,000	-0,011	-0,060
-404,511	641,375	-0,085	-0,157
-403,496	-200,000	0,009	-0,120
-402,482	800,000	0,024	0,071
-401,467	329,671	-0,051	-0,071
-400,452	72,776	-0,066	-0,050
-399,438	-200,000	0,008	0,140
-398,423	34,383	0,174	0,110
-397,409	-144,041	0,027	-0,002
-396,394	-109,806	0,113	-0,017
-395,379	-200,000	0,000	-0,125
-394,365	-130,223	-0,013	-0,001
-393,350	-120,471	-0,085	0,010
-392,336	384,929	0,097	0,146
-391,321	-109,525	-0,134	0,020
-390,306	61,951	-0,127	-0,092
-389,292	213,391	0,029	0,033
-388,277	-200,000	-0,009	-0,075
-387,263	15,383	0,063	0,036
-386,248	-200,000	-0,002	0,059
-385,233	-17,664	0,037	0,017
-384,219	-48,027	0,055	0,019
-383,204	-200,000	-0,004	0,020
-382,190	-200,000	0,024	-0,162
-381,175	202,929	-0,088	-0,099
-380,160	800,000	-0,048	-0,108
-379,146	308,306	0,116	0,157
-378,131	800,000	0,024	-0,064
-377,117	64,010	0,072	0,053
-376,102	-200,000	0,003	0,113
-375,088	590,687	-0,054	-0,097
-374,073	-49,788	-0,044	0,015
-373,058	-79,028	0,046	0,011
-372,044	800,000	-0,047	-0,144
-371,029	-138,453	0,144	0,011
-370,015	-200,000	-0,017	0,091
-369,000	55,467	-0,086	-0,060
-367,985	-76,065	-0,095	0,024
-366,971	587,783	-0,053	-0,095
-365,956	120,572	0,035	0,031
-364,942	-56,277	0,059	0,019
-363,927	350,931	-0,145	0,208
-362,912	250,339	0,091	0,113
-361,898	236,803	-0,040	-0,048
-360,883	676,316	0,017	-0,032
-359,869	-200,000	0,019	-0,116
-358,854	33,990	-0,119	0,075
-357,839	59,598	0,101	-0,072
-356,825	-200,000	-0,013	-0,056
-355,810	159,489	-0,052	0,052
-354,796	109,594	0,069	-0,060
-353,781	28,433	-0,135	-0,083
-352,766	-200,000	-0,017	-0,060
-351,752	-76,024	0,070	-0,018
-350,737	-200,000	-0,007	0,052
-349,723	191,802	-0,056	-0,062
-348,708	-6,462	0,104	0,051
-347,693	-24,557	-0,062	-0,027
-346,679	65,809	-0,054	-0,040
-345,664	-117,939	-0,137	-0,018
-344,650	-200,000	0,011	-0,042
-343,635	65,289	0,023	0,017
-342,620	111,363	-0,035	0,031
-341,606	-200,000	-0,013	-0,102
-340,591	49,813	0,108	-0,074
-339,577	800,000	-0,018	-0,043
-338,562	-159,591	0,083	0,003
-337,548	-40,570	0,043	0,016
-336,533	-200,000	0,024	-0,080
-335,518	-200,000	0,002	0,068
-334,504	693,537	0,025	-0,047
-333,489	-29,112	0,045	-0,019
-332,475	800,000	0,056	-0,171
-331,460	-80,736	0,153	-0,037
-330,445	-144,984	-0,055	0,004
-329,431	-200,000	0,006	0,022
-328,416	187,760	-0,058	0,063
-327,402	-69,335	0,102	0,028
-326,387	458,151	-0,039	0,063
-325,372	-35,888	-0,028	-0,011
-324,358	-95,061	-0,021	-0,004
-323,343	-37,386	0,056	0,022
-322,329	-200,000	0,048	0,195
-321,314	-200,000	0,024	-0,077
-320,299	800,000	-0,016	-0,034
-319,285	-200,000	0,008	0,028
-318,270	-78,285	-0,062	0,015
-317,256	-200,000	0,022	-0,084
-316,241	-193,334	0,093	0,001
-315,226	194,127	-0,099	-0,108
-314,212	800,000	-0,031	-0,072
-313,197	-200,000	0,012	-0,061
-312,183	800,000	0,069	0,154
-311,168	48,468	0,029	0,020
-310,153	1,819	-0,066	-0,034
-309,139	-148,532	0,094	-0,005
-308,124	-200,000	0,017	-0,077
-307,110	800,000	0,051	0,137
-306,095	135,812	-0,033	0,031
-305,080	7,851	0,012	0,006
-304,066	-200,000	0,014	-0,155
-303,051	-113,412	0,020	-0,003
-302,037	72,689	-0,134	0,101
-301,022	624,434	-0,040	-0,073
-300,008	-200,000	0,021	-0,092
-298,993	-98,430	0,048	-0,009
-297,978	-33,243	-0,027	0,011
-296,964	424,921	-0,077	0,121
-295,949	-200,000	-0,010	0,108
-294,935	-117,388	0,029	0,004
-293,920	-200,000	-0,001	-0,056
-292,905	112,365	0,151	0,132
-291,891	800,000	-0,023	-0,067
-290,876	-200,000	0,006	0,029
-289,862	115,047	-0,109	-0,096
-288,847	309,651	0,079	0,107
-287,832	45,701	-0,050	-0,033
-286,818	7,470	-0,099	-0,053
-285,803	-167,518	0,136	-0,004
-284,789	-129,189	0,036	0,004
-283,774	202,066	0,070	-0,078
-282,759	201,600	-0,063	-0,070
-281,745	244,835	0,055	-0,067
-280,730	-200,000	0,000	-0,007
-279,716	-200,000	0,004	-0,070
-278,701	199,688	0,014	0,016
-277,686	-75,686	0,129	0,033
-276,672	-122,935	-0,039	0,004
-275,657	800,000	-0,021	0,067
-274,643	-67,871	-0,198	-0,056
-273,628	491,427	-0,040	0,067
-272,613	118,193	-0,113	-0,101
-271,599	800,000	0,051	-0,119
-270,584	-122,697	0,230	0,027
-269,570	-164,289	-0,085	-0,003
-268,555	3,475	-0,014	0,007
-267,540	-167,452	-0,029	-0,001
-266,526	267,371	-0,018	-0,023
-265,511	201,404	-0,055	-0,061
-264,497	134,587	0,014	-0,013
-263,482	102,203	0,054	-0,046
-262,467	-200,000	0,002	-0,029
-261,453	374,644	0,052	0,077
-260,438	31,195	-0,065	0,040
-259,424	800,000	0,021	0,045
-258,409	458,071	-0,003	-0,005
-257,395	628,322	0,019	-0,035
-256,380	75,330	-0,070	-0,053
-255,365	-200,000	0,009	0,087
-254,351	285,346	-0,013	0,017
-253,336	499,783	0,040	0,066
-252,322	57,204	0,051	-0,036
-251,307	312,753	-0,054	-0,074
-250,292	-110,724	0,077	-0,011
-249,278	800,000	-0,030	0,062
-248,263	800,000	-0,017	-0,047
-247,249	138,126	-0,087	0,082
-246,234	-87,226	-0,099	-0,022
-245,219	800,000	-0,023	-0,048
-244,205	-200,000	-0,002	0,022
-243,190	800,000	0,011	0,030
-242,176	250,210	0,061	0,075
-241,161	148,081	-0,095	0,093
-240,146	-186,609	-0,123	0,001
-239,132	-200,000	0,020	0,096
-238,117	-162,987	-0,188	-0,006
-237,103	13,810	0,119	0,067
-236,088	-151,478	0,087	0,005
-235,073	43,873	0,025	0,016
-234,059	379,236	-0,057	-0,085
-233,044	440,949	-0,036	0,057
-232,030	39,647	-0,029	0,019
-231,015	575,223	-0,017	0,030
-230,000	490,167	-0,022	0,036
-228,986	682,756	-0,041	-0,077
-227,971	-200,000	0,029	-0,160
-226,957	-3,664	-0,189	-0,094
-225,942	253,764	-0,044	-0,054
-224,927	-22,978	0,117	0,051
-223,913	134,801	0,068	0,064
-222,898	-178,862	0,056	0,001
-221,884	63,001	0,041	0,030
-220,869	-200,000	-0,006	0,090
-219,855	800,000	-0,053	0,140
-218,840	-200,000	0,026	-0,125
-217,825	-200,000	0,030	0,117
-216,811	10,922	0,018	-0,010
-215,796	-200,000	-0,012	-0,090
-214,782	132,390	-0,060	-0,056
-213,767	700,131	-0,022	-0,042
-212,752	-90,939	0,085	-0,018
-211,738	112,407	-0,055	-0,048
-210,723	293,951	0,063	-0,083
-209,709	135,590	0,043	-0,040
-208,694	-200,000	-0,038	-0,211
-207,679	800,000	-0,032	-0,067
-206,665	198,713	0,056	0,062
-205,650	800,000	0,045	0,119
-204,636	800,000	0,023	0,069
-203,621	72,614	-0,055	0,041
-202,606	-86,137	-0,050	-0,011
-201,592	481,201	-0,054	-0,089
-200,577	800,000	-0,033	-0,099
-199,563	-200,000	0,172	-0,001
-198,548	800,000	0,039	-0,089
-197,533	-200,000	0,015	0,109
-196,519	85,709	-0,066	0,052
-195,504	-200,000	0,017	-0,070
-194,490	-32,219	0,051	-0,020
-193,475	112,887	0,019	0,017
-192,460	-129,673	0,155	-0,015
-191,446	570,284	0,079	-0,138
-190,431	-67,071	0,145	-0,041
-189,417	56,058	-0,079	0,055
-188,402	85,470	-0,127	0,101
-187,387	92,742	-0,074	-0,061
-186,373	-200,000	0,044	0,151
-185,358	-111,737	-0,110	-0,016
-184,344	240,801	0,016	-0,020
-183,329	-200,000	0,023	0,119
-182,315	2,282	0,061	0,032
-181,300	-171,317	0,075	0,002
-180,285	184,927	-0,072	0,077
-179,271	362,269	0,095	-0,138
-178,256	-79,143	-0,079	0,019
-177,242	800,000	-0,050	0,142
-176,227	32,115	0,073	0,045
-175,212	358,157	-0,067	0,097
-174,198	-200,000	-0,019	-0,072
-173,183	241,218	-0,051	-0,062
-172,169	-37,134	-0,094	-0,036
-171,154	800,000	-0,024	0,056
-170,139	-133,694	0,077	0,007
-169,125	148,267	0,080	-0,077
-168,110	771,926	-0,055	-0,108
-167,096	262,862	0,053	-0,067
-166,081	800,000	-0,029	0,062
-165,066	-115,647	0,114	0,015
-164,052	517,490	0,061	0,103
-163,037	8,555	-0,121	0,065
-162,023	76,713	0,038	-0,029
-161,008	-63,252	0,034	-0,010
-159,993	104,059	-0,038	-0,032
-158,979	-200,000	-0,011	-0,106
-157,964	-94,207	-0,078	-0,015
-156,950	105,034	-0,057	-0,048
-155,935	-70,430	-0,112	0,030
-154,920	-72,027	0,060	0,016
-153,906	-86,181	0,141	0,031
-152,891	217,325	-0,040	0,046
-151,877	9,310	-0,106	-0,058
-150,862	254,575	-0,110	-0,136
-149,847	32,638	-0,088	0,055
-148,833	301,393	-0,024	-0,032
-147,818	800,000	-0,047	0,115
-146,804	-18,312	0,080	0,036
-145,789	133,922	0,016	-0,015
-144,775	-200,000	0,011	-0,096
-143,760	-200,000	0,029	0,135
-142,745	24,721	0,033	0,020
-141,731	-200,000	0,005	0,021
-140,716	-139,314	-0,107	-0,008
-139,702	-105,311	-0,043	0,007
-138,687	174,370	0,080	0,084
-137,672	-90,875	0,036	-0,007
-136,658	122,548	-0,111	0,100
-135,643	-123,622	-0,091	0,010
-134,629	-2,642	-0,157	-0,079
-133,614	238,245	0,110	-0,131
-132,599	122,919	0,089	-0,080
-131,585	-200,000	-0,015	-0,051
-130,570	499,186	-0,072	-0,120
-129,556	14,723	-0,087	0,049
-128,541	2,812	0,056	0,029
-127,526	106,150	-0,028	-0,024
-126,512	405,801	0,114	0,173
-125,497	56,661	-0,063	0,044
-124,483	19,463	-0,046	0,027
-123,468	81,157	0,092	-0,071
-122,453	-200,000	-0,017	-0,092
-121,439	745,375	0,071	-0,138
-120,424	-134,919	-0,100	0,009
-119,410	-135,272	0,059	-0,005
-118,395	-134,326	-0,091	0,008
