DTS Sentinel unit serial number:	SN410029Multiplexer serial number:	ORYXHardware model number:	OX2-SRSoftware version number:	ORYX F/W v4,00 Oryx Data Collector v3.7.2.0data status	okinstallation	B5 Nyhavnadifferential loss correction	single-endedforward channel	channel 2reverse channel	N/Adate	2023/12/12time	20:17:13forward acquisition time	300,00reverse acquisition time	0,00gamma	499,1914k internal	0,3157k external	0,3157temperature offset calibration	1,0000default loss term (dB/km)	0,3820temperature slope calibration	1,0000multiplexer offset coefficient	1,0000multiplexer slope coefficient	1,0000fibre end	0,00T internal ref (°C)	15,28T ext. ref 1 (°C)	-1,39T ext. ref 2 (°C)	-1,71length (m)	temperature (°C)	Stokes	anti-Stokes-744,400	-124,045	0,073	0,008
-743,385	-35,165	-0,360	0,144
-742,371	800,000	-0,016	0,041
-741,356	-60,008	-0,390	-0,122
-740,342	209,181	0,102	0,118
-739,327	72,445	-0,338	0,259
-738,312	800,000	0,030	0,079
-737,298	14,043	-0,230	-0,132
-736,283	406,413	0,087	-0,135
-735,269	-198,442	-0,232	0,001
-734,254	266,504	-0,050	-0,064
-733,239	-42,617	-0,491	-0,183
-732,225	-21,820	0,144	0,064
-731,210	-200,000	-0,021	-0,079
-730,196	-29,857	-0,068	-0,028
-729,181	800,000	-0,074	-0,155
-728,167	109,433	0,090	-0,080
-727,152	-89,600	-0,057	0,012
-726,137	325,469	-0,111	-0,157
-725,123	-200,000	0,003	0,055
-724,108	-200,000	-0,027	-0,111
-723,094	180,746	-0,048	-0,052
-722,079	-200,000	0,016	0,189
-721,064	160,475	-0,037	0,038
-720,050	-136,899	-0,068	-0,006
-719,035	284,627	0,052	0,069
-718,021	-32,087	-0,047	-0,019
-717,006	-12,356	-0,108	-0,052
-715,991	-200,000	-0,011	-0,108
-714,977	231,985	-0,163	-0,197
-713,962	-76,972	-0,181	-0,046
-712,948	-200,000	-0,031	-0,108
-711,933	283,924	-0,041	-0,055
-710,918	800,000	0,043	0,107
-709,904	-45,713	-0,161	-0,058
-708,889	13,403	-0,135	-0,077
-707,875	-174,660	-0,150	-0,003
-706,860	341,753	0,109	-0,158
-705,845	-145,287	-0,029	-0,002
-704,831	800,000	0,038	0,088
-703,816	-200,000	0,001	0,070
-702,802	-200,000	0,015	-0,129
-701,787	-44,222	0,110	-0,040
-700,772	-62,946	-0,033	-0,010
-699,758	-200,000	0,014	-0,052
-698,743	-101,668	0,154	0,027
-697,729	-200,000	0,008	-0,032
-696,714	437,633	-0,058	0,093
-695,699	57,075	0,038	0,027
-694,685	313,430	-0,060	-0,084
-693,670	-200,000	0,009	-0,043
-692,656	800,000	0,039	0,082
-691,641	-108,583	0,073	-0,011
-690,627	184,694	0,054	0,059
-689,612	174,371	0,087	-0,092
-688,597	800,000	0,022	0,054
-687,583	800,000	-0,080	-0,222
-686,568	-24,514	-0,153	-0,067
-685,554	734,149	0,010	0,020
-684,539	515,094	0,045	-0,078
-683,524	-1,914	0,084	-0,043
-682,510	508,812	-0,037	0,064
-681,495	-22,869	-0,053	-0,023
-680,481	-110,544	-0,182	-0,027
-679,466	84,757	-0,071	-0,057
-678,451	-71,939	-0,121	0,033
-677,437	-200,000	-0,013	0,080
-676,422	224,157	0,036	-0,043
-675,408	-200,000	-0,011	0,056
-674,393	-39,880	-0,065	-0,025
-673,378	99,385	-0,110	-0,093
-672,364	-166,965	0,052	-0,002
-671,349	-135,294	-0,079	0,007
-670,335	-172,868	0,100	0,002
-669,320	-200,000	-0,004	0,072
-668,305	-200,000	0,003	0,018
-667,291	-200,000	-0,004	-0,088
-666,276	57,421	0,178	-0,128
-665,262	-200,000	-0,048	-0,161
-664,247	165,934	0,097	-0,101
-663,232	800,000	0,041	-0,113
-662,218	-158,678	0,136	-0,006
-661,203	800,000	0,028	-0,063
-660,189	-200,000	-0,012	-0,056
-659,174	-200,000	0,005	0,181
-658,159	8,444	-0,094	-0,052
-657,145	215,218	-0,124	0,145
-656,130	-200,000	-0,035	0,138
-655,116	-47,323	-0,037	0,013
-654,101	35,829	0,034	0,022
-653,086	-148,411	0,049	0,003
-652,072	78,975	-0,079	-0,062
-651,057	800,000	-0,085	-0,174
-650,043	238,401	0,009	0,011
-649,028	-200,000	-0,008	0,055
-648,014	-200,000	0,012	0,070
-646,999	800,000	0,023	-0,068
-645,984	-200,000	-0,018	-0,070
-644,970	800,000	-0,004	-0,009
-643,955	91,261	-0,042	0,035
-642,941	-200,000	-0,002	0,030
-641,926	141,106	0,032	0,031
-640,911	542,804	0,065	-0,114
-639,897	-104,280	-0,104	0,017
-638,882	71,350	-0,103	0,078
-637,868	-146,769	0,071	0,004
-636,853	-86,768	-0,094	-0,021
-635,838	-26,113	0,140	-0,060
-634,824	-200,000	-0,012	-0,097
-633,809	165,347	-0,042	0,043
-632,795	800,000	-0,031	0,075
-631,780	405,099	0,069	0,107
-630,765	247,362	0,046	-0,058
-629,751	-200,000	0,004	-0,032
-628,736	145,300	-0,071	0,070
-627,722	-139,010	0,121	0,009
-626,707	-200,000	0,030	-0,118
-625,692	800,000	-0,021	-0,050
-624,678	-200,000	-0,031	0,112
-623,663	800,000	0,016	0,036
-622,649	27,381	-0,035	-0,022
-621,634	-200,000	-0,012	-0,208
-620,619	310,205	0,094	-0,129
-619,605	-153,521	0,036	0,002
-618,590	-14,109	0,074	-0,035
-617,576	-63,482	-0,045	-0,014
-616,561	-146,121	0,018	0,001
-615,546	-200,000	-0,003	-0,087
-614,532	-200,000	0,012	0,074
-613,517	800,000	0,026	-0,082
-612,503	-200,000	-0,005	0,133
-611,488	-200,000	-0,006	0,032
-610,474	-18,363	0,036	-0,016
-609,459	19,935	-0,068	0,040
-608,444	-200,000	-0,001	-0,051
-607,430	-200,000	0,000	-0,048
-606,415	193,803	-0,078	0,087
-605,401	-108,146	0,116	-0,018
-604,386	298,030	-0,068	0,092
-603,371	-131,660	-0,138	-0,013
-602,357	-65,198	0,029	0,009
-601,342	537,964	-0,086	0,150
-600,328	-200,000	0,003	0,015
-599,313	11,204	0,041	0,023
-598,298	5,599	-0,017	-0,009
-597,284	-160,020	0,211	0,008
-596,269	800,000	0,044	0,097
-595,255	-200,000	0,007	0,084
-594,240	-108,578	-0,090	-0,014
-593,225	-3,767	-0,098	-0,050
-592,211	291,893	0,093	-0,124
-591,196	800,000	-0,067	-0,158
-590,182	421,415	0,065	0,103
-589,167	101,581	0,046	0,039
-588,152	-27,010	-0,061	-0,026
-587,138	79,585	0,084	0,066
-586,123	-36,899	-0,023	0,009
-585,109	437,494	-0,054	-0,087
-584,094	32,787	-0,121	-0,077
-583,079	7,364	0,087	-0,048
-582,065	-34,244	0,089	0,036
-581,050	-200,000	0,000	0,023
-580,036	187,376	0,047	-0,051
-579,021	188,446	-0,056	-0,061
-578,006	-50,648	-0,037	0,013
-576,992	-38,478	-0,038	-0,015
-575,977	800,000	0,001	-0,004
-574,963	-200,000	0,002	-0,037
-573,948	800,000	0,026	0,062
-572,934	-200,000	-0,023	0,141
-571,919	-35,509	-0,120	0,047
-570,904	112,783	0,089	-0,079
-569,890	-144,599	-0,035	-0,002
-568,875	-200,000	-0,011	0,079
-567,861	-48,605	-0,082	0,029
-566,846	800,000	0,006	0,016
-565,831	-54,848	0,069	-0,023
-564,817	800,000	0,031	-0,098
-563,802	-106,895	-0,041	0,007
-562,788	247,837	-0,063	-0,078
-561,773	113,063	-0,078	-0,069
-560,758	21,095	-0,055	-0,033
-559,744	13,449	0,073	-0,041
-558,729	478,867	-0,066	-0,110
-557,715	-200,000	-0,003	-0,066
-556,700	-200,000	0,020	-0,066
-555,685	710,521	-0,012	-0,024
-554,671	-200,000	-0,008	0,069
-553,656	800,000	0,031	0,083
-552,642	-15,476	-0,073	0,034
-551,627	53,848	-0,106	0,074
-550,612	10,029	0,024	0,013
-549,598	15,906	-0,181	-0,104
-548,583	-177,193	0,065	0,001
-547,569	352,358	0,085	-0,123
-546,554	-200,000	-0,004	0,016
-545,539	229,910	0,092	0,110
-544,525	800,000	0,090	0,236
-543,510	-88,217	-0,103	-0,022
-542,496	-200,000	0,034	-0,119
-541,481	229,185	-0,082	-0,098
-540,466	-87,469	0,107	-0,023
-539,452	-125,687	0,071	-0,008
-538,437	-24,931	0,022	-0,010
-537,423	-42,769	0,042	0,016
-536,408	238,618	-0,073	0,089
-535,393	148,942	-0,099	-0,098
-534,379	111,314	0,034	-0,030
-533,364	-200,000	0,046	0,167
-532,350	800,000	0,021	-0,060
-531,335	-200,000	0,003	-0,019
-530,321	-29,525	-0,065	-0,027
-529,306	-200,000	0,001	0,036
-528,291	-116,087	0,053	0,007
-527,277	58,608	-0,083	0,060
-526,262	-200,000	-0,002	0,026
-525,248	276,547	-0,033	0,043
-524,233	221,109	0,059	0,070
-523,218	-33,982	0,145	0,058
-522,204	-66,254	-0,079	0,023
-521,189	-200,000	-0,009	-0,033
-520,175	100,401	0,071	-0,060
-519,160	4,441	-0,133	-0,071
-518,145	514,914	-0,073	0,124
-517,131	197,835	-0,063	0,070
-516,116	330,242	0,011	0,015
-515,102	175,903	-0,054	-0,057
-514,087	65,395	0,048	0,035
-513,072	237,059	0,090	-0,109
-512,058	64,438	0,049	-0,036
-511,043	800,000	0,056	0,118
-510,029	-41,660	0,146	0,054
-509,014	-200,000	0,001	0,009
-507,999	5,741	-0,080	-0,043
-506,985	-200,000	0,022	0,143
-505,970	536,216	-0,026	-0,045
-504,956	115,272	0,120	-0,107
-503,941	-200,000	0,007	-0,053
-502,926	-200,000	-0,018	0,065
-501,912	-200,000	0,002	-0,054
-500,897	-159,200	0,082	0,003
-499,883	37,380	0,075	0,049
-498,868	-107,546	-0,032	0,005
-497,853	800,000	0,008	-0,020
-496,839	705,385	-0,015	-0,030
-495,824	40,498	0,038	0,025
-494,810	-125,647	0,135	-0,015
-493,795	-45,744	-0,030	-0,011
-492,781	304,689	-0,024	-0,033
-491,766	-200,000	0,057	-0,239
-490,751	72,473	-0,075	-0,057
-489,737	173,842	-0,043	0,045
-488,722	646,785	-0,039	0,073
-487,708	84,073	-0,013	0,011
-486,693	-67,149	0,074	0,021
-485,678	39,741	-0,090	-0,059
-484,664	-200,000	-0,034	-0,193
-483,649	-200,000	0,006	-0,117
-482,635	-49,973	0,098	-0,034
-481,620	-59,189	-0,050	0,016
-480,605	-15,236	0,135	0,063
-479,591	800,000	-0,014	0,042
-478,576	166,106	-0,052	-0,054
-477,562	28,053	0,021	-0,013
-476,547	800,000	-0,022	0,060
-475,532	-200,000	0,044	-0,159
-474,518	251,822	0,070	-0,087
-473,503	-136,984	0,101	-0,008
-472,489	652,142	0,032	0,060
-471,474	-200,000	0,026	-0,118
-470,459	40,510	0,076	-0,050
-469,445	488,739	0,019	-0,032
-468,430	-100,698	-0,110	-0,020
-467,416	235,616	-0,059	-0,071
-466,401	-134,668	0,143	0,012
-465,386	800,000	0,020	-0,049
-464,372	102,451	-0,040	0,034
-463,357	252,176	-0,050	-0,062
-462,343	407,311	-0,089	-0,138
-461,328	199,954	-0,072	-0,081
-460,313	334,268	0,130	0,184
-459,299	-112,184	0,109	0,016
-458,284	36,619	-0,061	0,039
-457,270	-200,000	0,008	0,062
-456,255	800,000	0,021	0,065
-455,241	89,321	-0,132	0,108
-454,226	-76,027	-0,069	0,018
-453,211	380,308	-0,044	0,065
-452,197	75,333	-0,098	0,076
-451,182	-200,000	0,017	-0,058
-450,168	59,505	-0,048	-0,034
-449,153	-38,618	-0,170	-0,065
-448,138	-200,000	0,014	-0,103
-447,124	-80,854	0,025	-0,006
-446,109	0,556	0,094	0,049
-445,095	-40,382	0,092	0,035
-444,080	255,779	0,105	0,131
-443,065	-200,000	-0,016	0,085
-442,051	-34,241	0,065	0,026
-441,036	91,976	-0,158	-0,130
-440,022	395,937	-0,032	-0,049
-439,007	192,950	0,034	0,038
-437,992	-200,000	-0,012	0,050
-436,978	172,050	0,046	0,048
-435,963	-200,000	-0,015	0,087
-434,949	-56,568	-0,044	-0,014
-433,934	-200,000	-0,030	0,131
-432,919	455,041	-0,099	-0,160
-431,905	659,013	0,081	-0,153
-430,890	117,105	0,046	0,041
-429,876	-11,713	0,064	-0,030
-428,861	172,428	0,022	-0,023
-427,846	464,066	-0,025	0,041
-426,832	556,533	0,084	-0,148
-425,817	102,265	-0,102	-0,086
-424,803	-200,000	-0,010	0,111
-423,788	-200,000	0,012	0,076
-422,773	658,971	0,070	0,132
-421,759	-65,715	-0,083	0,024
-420,744	-26,945	-0,077	-0,033
-419,730	-121,278	0,042	0,005
-418,715	-200,000	0,000	-0,049
-417,701	515,008	-0,109	-0,186
-416,686	160,952	0,149	0,151
-415,671	188,663	-0,032	-0,035
-414,657	263,450	0,058	-0,074
-413,642	245,988	0,102	0,125
-412,628	465,600	0,034	0,056
-411,613	-182,550	-0,163	0,002
-410,598	22,081	0,073	-0,043
-409,584	-64,647	0,092	-0,027
-408,569	-200,000	-0,003	0,071
-407,555	-200,000	0,007	0,038
-406,540	-2,324	-0,053	-0,027
-405,525	-44,550	-0,197	0,071
-404,511	176,845	0,070	0,074
-403,496	108,764	0,025	-0,022
-402,482	-86,196	-0,054	0,012
-401,467	-200,000	0,002	0,050
-400,452	-200,000	0,001	0,070
-399,438	-36,270	0,068	-0,026
-398,423	40,149	0,057	0,037
-397,409	-46,563	-0,113	-0,040
-396,394	580,220	-0,013	-0,024
-395,379	427,066	0,022	0,035
-394,365	-200,000	-0,004	0,125
-393,350	-200,000	-0,041	0,162
-392,336	-114,100	-0,078	-0,011
-391,321	-61,149	0,037	0,011
-390,306	36,474	-0,076	0,049
-389,292	800,000	-0,040	-0,087
-388,277	-200,000	0,027	0,122
-387,263	-128,974	-0,092	-0,009
-386,248	322,428	-0,055	0,076
-385,233	-200,000	-0,007	-0,065
-384,219	614,245	0,028	-0,052
-383,204	-200,000	-0,010	0,100
-382,190	-40,987	0,048	0,018
-381,175	55,902	-0,063	-0,044
-380,160	171,481	-0,015	-0,016
-379,146	-61,820	0,207	-0,062
-378,131	800,000	0,067	0,182
-377,117	-84,716	-0,165	0,038
-376,102	800,000	-0,014	-0,042
-375,088	779,655	-0,050	-0,100
-374,073	121,991	0,029	-0,026
-373,058	279,822	-0,090	0,117
-372,044	-131,483	-0,107	0,010
-371,029	-200,000	0,013	-0,046
-370,015	800,000	0,068	-0,155
-369,000	209,392	-0,034	-0,038
-367,985	-92,851	-0,114	0,023
-366,971	291,265	-0,055	-0,073
-365,956	-44,174	-0,052	-0,019
-364,942	-89,967	-0,035	0,007
-363,927	59,626	0,095	0,068
-362,912	177,699	-0,042	-0,045
-361,898	-200,000	0,033	-0,127
-360,883	-200,000	-0,034	-0,153
-359,869	-200,000	0,009	0,105
-358,854	-200,000	0,037	-0,133
-357,839	396,760	0,114	0,174
-356,825	490,191	-0,049	-0,082
-355,810	-200,000	0,013	-0,074
-354,796	99,044	-0,085	-0,072
-353,781	800,000	0,020	-0,049
-352,766	569,251	0,021	-0,036
-351,752	458,880	-0,030	0,048
-350,737	287,684	-0,017	-0,022
-349,723	229,280	-0,089	0,105
-348,708	188,134	0,025	-0,027
-347,693	-200,000	-0,013	-0,115
-346,679	304,797	-0,176	-0,238
-345,664	269,524	-0,098	-0,126
-344,650	32,526	-0,030	0,019
-343,635	-200,000	-0,010	-0,035
-342,620	108,912	0,037	0,032
-341,606	-200,000	-0,005	-0,031
-340,591	-91,068	-0,088	-0,018
-339,577	10,266	-0,058	0,032
-338,562	800,000	-0,017	0,046
-337,548	277,750	-0,102	-0,131
-336,533	133,469	-0,027	0,025
-335,518	-200,000	0,012	0,050
-334,504	-120,410	0,160	-0,019
-333,489	800,000	-0,019	0,060
-332,475	122,020	-0,020	-0,018
-331,460	-58,352	-0,072	-0,022
-330,445	464,995	0,052	-0,085
-329,431	276,060	0,041	0,053
-328,416	800,000	0,013	0,036
-327,402	-144,571	-0,024	0,002
-326,387	316,325	0,074	-0,102
-325,372	-146,701	0,075	0,005
-324,358	800,000	0,022	-0,068
-323,343	398,392	-0,053	-0,081
-322,329	31,483	0,021	-0,013
-321,314	800,000	-0,046	0,126
-320,299	-200,000	0,013	0,042
-319,285	800,000	0,026	0,052
-318,270	-99,858	0,116	-0,021
-317,256	-200,000	-0,011	0,048
-316,241	800,000	0,022	0,048
-315,226	209,206	0,064	-0,072
-314,212	46,575	0,017	-0,011
-313,197	298,038	-0,060	0,080
-312,183	800,000	-0,013	0,038
-311,168	-90,836	0,085	-0,018
-310,153	11,619	0,016	-0,009
-309,139	800,000	0,054	0,127
-308,124	800,000	0,052	0,110
-307,110	-200,000	-0,020	0,101
-306,095	-31,295	0,009	0,004
-305,080	-200,000	0,023	-0,084
-304,066	-200,000	0,001	-0,024
-303,051	-38,270	-0,065	0,025
-302,037	28,609	-0,042	-0,026
-301,022	180,395	-0,073	0,078
-300,008	-53,014	0,061	0,020
-298,993	156,284	0,025	-0,025
-297,978	800,000	-0,005	0,013
-296,964	800,000	0,013	-0,035
-295,949	252,383	-0,022	0,027
-294,935	800,000	0,011	0,027
-293,920	295,529	-0,009	-0,012
-292,905	800,000	-0,036	-0,086
-291,891	800,000	0,076	0,183
-290,876	109,418	-0,119	0,103
-289,862	153,981	0,066	0,066
-288,847	-27,314	-0,158	-0,066
-287,832	150,767	-0,025	-0,024
-286,818	438,389	0,042	-0,066
-285,803	-145,972	-0,180	-0,011
-284,789	722,712	0,061	0,118
-283,774	83,246	0,064	-0,051
-282,759	-46,212	0,050	0,018
-281,745	-200,000	0,011	-0,123
-280,730	272,061	-0,061	-0,079
-279,716	19,062	-0,076	-0,044
-278,701	-2,636	0,048	0,024
-277,686	-200,000	0,012	0,081
-276,672	-200,000	0,004	0,125
-275,657	800,000	0,013	-0,039
-274,643	95,837	0,091	-0,075
-273,628	87,688	-0,034	0,027
-272,613	73,154	0,052	0,039
-271,599	-200,000	-0,033	0,112
-270,584	76,881	0,115	0,088
-269,570	-68,329	-0,061	0,017
-268,555	800,000	-0,021	-0,045
-267,540	-200,000	0,005	0,088
-266,526	14,016	0,054	-0,031
-265,511	264,696	-0,049	0,062
-264,497	-200,000	-0,016	0,116
-263,482	-200,000	0,016	0,053
-262,467	89,767	0,037	-0,030
-261,453	70,860	-0,037	-0,027
-260,438	-112,836	-0,146	0,021
-259,424	-200,000	-0,020	0,068
-258,409	-200,000	-0,019	-0,078
-257,395	32,851	0,102	0,064
-256,380	800,000	0,052	0,156
-255,365	152,690	-0,024	-0,024
-254,351	-200,000	0,016	-0,067
-253,336	23,426	-0,080	-0,048
-252,322	-119,137	-0,040	-0,005
-251,307	6,326	0,067	0,036
-250,292	-30,830	-0,071	0,029
-249,278	-185,944	0,090	0,001
-248,263	-200,000	-0,022	-0,128
-247,249	-200,000	-0,021	0,071
-246,234	800,000	0,034	-0,088
-245,219	-155,312	-0,041	-0,002
-244,205	226,453	0,031	0,036
-243,190	800,000	0,032	0,083
-242,176	660,140	0,026	-0,048
-241,161	78,998	0,098	0,076
-240,146	-186,584	0,019	0,000
-239,132	-24,712	0,096	0,041
-238,117	122,467	-0,066	-0,060
-237,103	800,000	0,010	-0,021
-236,088	1,196	0,051	-0,026
-235,073	-200,000	-0,004	0,139
-234,059	800,000	-0,032	0,074
-233,044	-200,000	0,022	0,131
-232,030	-200,000	0,035	0,121
-231,015	-69,796	-0,092	-0,025
-230,000	291,149	-0,026	0,034
-228,986	-133,489	0,021	0,002
-227,971	-200,000	0,010	0,069
-226,957	64,270	0,062	0,045
-225,942	800,000	0,063	0,154
-224,927	182,925	0,057	-0,061
-223,913	224,377	-0,018	0,021
-222,898	482,445	-0,013	0,021
-221,884	-150,511	-0,021	0,001
-220,869	-100,316	0,096	0,017
-219,855	-163,554	-0,041	0,001
-218,840	-63,218	0,116	0,034
-217,825	2,060	0,211	-0,110
-216,811	88,539	-0,115	0,092
-215,796	385,921	0,032	0,047
-214,782	475,577	-0,035	-0,058
-213,767	-133,871	-0,059	0,005
-212,752	212,004	-0,037	-0,042
-211,738	-82,358	0,056	0,013
-210,723	559,171	-0,025	0,045
-209,709	4,870	-0,087	0,046
-208,694	-200,000	-0,007	-0,200
-207,679	-200,000	-0,033	-0,114
-206,665	-111,976	0,120	-0,017
-205,650	800,000	0,060	0,131
-204,636	214,794	0,016	0,018
-203,621	800,000	0,054	0,114
-202,606	-64,358	-0,035	0,010
-201,592	239,276	-0,054	-0,065
-200,577	75,473	-0,020	0,015
-199,563	202,096	-0,060	-0,067
-198,548	165,951	0,039	-0,039
-197,533	131,546	-0,117	-0,109
-196,519	81,042	-0,040	0,031
-195,504	-200,000	-0,012	-0,131
-194,490	19,757	0,101	-0,059
-193,475	-67,830	-0,088	0,025
-192,460	-200,000	0,011	-0,109
-191,446	800,000	-0,031	0,092
-190,431	355,327	0,116	0,168
-189,417	475,337	0,048	0,079
-188,402	800,000	0,060	-0,145
-187,387	10,396	0,066	-0,036
-186,373	74,846	-0,118	-0,089
-185,358	-200,000	0,012	-0,197
-184,344	800,000	-0,030	0,075
-183,329	-200,000	-0,010	0,060
-182,315	100,301	0,013	0,011
-181,300	-32,302	-0,025	0,010
-180,285	79,464	0,031	-0,024
-179,271	-200,000	-0,003	0,097
-178,256	54,696	-0,085	0,059
-177,242	-200,000	-0,017	0,092
-176,227	-141,281	0,096	-0,007
-175,212	-200,000	0,003	0,092
-174,198	-200,000	-0,001	-0,053
-173,183	-77,762	-0,134	0,033
-172,169	326,610	-0,074	0,103
-171,154	171,574	-0,013	-0,013
-170,139	274,432	-0,013	-0,016
-169,125	800,000	0,048	0,111
-168,110	800,000	0,080	0,164
-167,096	-45,898	-0,107	0,038
-166,081	-31,737	-0,044	-0,018
-165,066	94,386	0,102	0,084
-164,052	800,000	0,040	-0,095
-163,037	-200,000	0,044	-0,143
-162,023	62,340	0,127	-0,091
-161,008	181,486	-0,060	-0,064
-159,993	-3,880	0,056	-0,028
-158,979	800,000	0,018	-0,052
-157,964	-103,819	0,066	-0,011
-156,950	332,118	-0,121	-0,169
-155,935	225,979	0,081	-0,095
-154,920	-79,068	0,129	-0,031
-153,906	800,000	0,030	-0,069
-152,891	187,593	-0,072	-0,078
-151,877	800,000	-0,021	0,043
-150,862	612,547	0,031	-0,057
-149,847	800,000	-0,016	-0,050
-148,833	380,700	0,070	0,104
-147,818	-136,011	-0,025	-0,002
-146,804	-200,000	-0,034	0,110
-145,789	291,723	0,040	0,053
-144,775	800,000	-0,059	-0,161
-143,760	-143,173	-0,113	0,008
-142,745	-124,499	0,113	-0,013
-141,731	-99,912	-0,103	0,018
-140,716	78,895	-0,087	0,067
-139,702	-200,000	0,014	-0,122
-138,687	-123,273	0,054	-0,006
-137,672	481,741	-0,083	-0,137
-136,658	-200,000	0,005	-0,038
-135,643	-200,000	0,011	-0,117
-134,629	119,034	-0,111	-0,099
-133,614	-200,000	-0,021	-0,107
-132,599	-200,000	-0,003	-0,051
-131,585	109,741	-0,077	0,067
-130,570	-129,505	-0,144	0,014
-129,556	-130,994	-0,129	0,012
-128,541	179,513	-0,100	0,105
-127,526	-132,934	-0,029	0,003
-126,512	800,000	-0,051	0,106
-125,497	-200,000	-0,020	0,075
-124,483	159,118	-0,061	0,061
-123,468	-200,000	-0,038	-0,126
-122,453	-200,000	0,027	-0,098
-121,439	800,000	0,042	-0,122
-120,424	37,181	-0,074	-0,047
