DTS Sentinel unit serial number:	SN410029Multiplexer serial number:	ORYXHardware model number:	OX2-SRSoftware version number:	ORYX F/W v4,00 Oryx Data Collector v3.7.2.0data status	okinstallation	B5 Nyhavnadifferential loss correction	single-endedforward channel	channel 2reverse channel	N/Adate	2023/12/12time	07:52:13forward acquisition time	300,00reverse acquisition time	0,00gamma	499,1914k internal	0,3158k external	0,3158temperature offset calibration	1,0000default loss term (dB/km)	0,3820temperature slope calibration	1,0000multiplexer offset coefficient	1,0000multiplexer slope coefficient	1,0000fibre end	0,00T internal ref (°C)	15,13T ext. ref 1 (°C)	-1,22T ext. ref 2 (°C)	-1,52length (m)	temperature (°C)	Stokes	anti-Stokes-744,400	109,169	0,116	-0,102
-743,385	-82,075	-0,334	0,080
-742,371	172,911	0,049	0,052
-741,356	-44,196	-0,281	0,103
-740,342	-81,150	0,125	0,030
-739,327	-102,148	-0,294	-0,052
-738,312	109,741	-0,004	-0,004
-737,298	-189,995	-0,336	-0,003
-736,283	-8,484	0,070	0,035
-735,269	-38,081	-0,170	0,066
-734,254	-89,300	0,143	-0,031
-733,239	7,772	-0,477	-0,262
-732,225	-20,376	0,046	0,021
-731,210	-72,771	0,053	-0,014
-730,196	-142,984	0,109	-0,008
-729,181	122,184	0,060	-0,055
-728,167	186,698	-0,054	0,060
-727,152	800,000	-0,066	0,151
-726,137	800,000	0,011	0,035
-725,123	-200,000	0,014	0,085
-724,108	800,000	-0,040	-0,094
-723,094	800,000	-0,051	-0,113
-722,079	-147,834	-0,119	-0,007
-721,064	-139,252	0,050	-0,004
-720,050	39,606	-0,111	-0,073
-719,035	246,174	-0,065	-0,081
-718,021	800,000	-0,052	0,110
-717,006	800,000	-0,089	-0,198
-715,991	45,262	-0,098	-0,066
-714,977	-169,781	-0,087	-0,002
-713,962	-200,000	-0,029	-0,136
-712,948	41,610	-0,036	0,024
-711,933	4,436	0,064	0,035
-710,918	432,542	-0,018	-0,028
-709,904	-167,816	-0,053	-0,001
-708,889	55,244	-0,069	-0,049
-707,875	-148,016	-0,027	-0,002
-706,860	0,867	0,060	0,032
-705,845	-200,000	-0,014	0,108
-704,831	410,968	-0,051	0,080
-703,816	419,423	0,057	0,090
-702,802	-62,808	-0,144	0,044
-701,787	-200,000	0,009	-0,073
-700,772	273,329	-0,153	-0,199
-699,758	-200,000	0,002	0,054
-698,743	505,382	0,078	0,134
-697,729	93,974	-0,032	-0,027
-696,714	-200,000	0,008	0,091
-695,699	-200,000	-0,001	0,096
-694,685	-22,316	-0,068	-0,030
-693,670	-200,000	-0,024	-0,083
-692,656	84,015	0,056	-0,045
-691,641	-95,509	0,069	0,013
-690,627	54,292	-0,070	0,050
-689,612	800,000	-0,041	0,088
-688,597	-96,188	0,037	0,007
-687,583	439,000	0,040	-0,065
-686,568	-117,990	-0,070	-0,009
-685,554	-180,554	0,043	-0,001
-684,539	800,000	0,052	-0,111
-683,524	-200,000	-0,019	0,096
-682,510	-103,356	0,062	-0,011
-681,495	-4,778	-0,044	-0,022
-680,481	101,701	-0,073	-0,063
-679,466	-200,000	-0,004	-0,103
-678,451	-104,384	-0,109	0,018
-677,437	-200,000	-0,004	-0,032
-676,422	71,378	-0,079	0,060
-675,408	409,306	0,014	0,022
-674,393	109,807	-0,047	0,042
-673,378	-118,407	-0,218	-0,028
-672,364	60,823	0,106	-0,078
-671,349	24,077	-0,047	0,029
-670,335	377,691	-0,047	-0,070
-669,320	394,505	0,022	0,034
-668,305	3,134	-0,122	0,065
-667,291	55,688	-0,085	0,061
-666,276	800,000	0,019	-0,054
-665,262	11,046	-0,094	-0,053
-664,247	174,488	0,044	0,046
-663,232	-10,552	-0,070	-0,034
-662,218	-77,345	-0,087	-0,022
-661,203	-12,934	-0,038	-0,018
-660,189	383,372	0,040	0,061
-659,174	46,665	-0,076	0,052
-658,159	-30,396	-0,027	-0,011
-657,145	120,457	-0,129	-0,118
-656,130	-90,462	-0,113	0,024
-655,116	800,000	-0,036	0,097
-654,101	800,000	0,029	0,072
-653,086	-20,179	-0,104	-0,047
-652,072	-3,400	0,033	-0,017
-651,057	800,000	-0,046	-0,099
-650,043	-200,000	-0,004	-0,051
-649,028	79,159	-0,046	0,036
-648,014	100,875	0,068	0,058
-646,999	136,573	-0,019	0,018
-645,984	-64,103	0,062	-0,018
-644,970	-1,023	-0,038	-0,019
-643,955	322,741	-0,046	0,065
-642,941	800,000	-0,082	-0,182
-641,926	-200,000	0,022	-0,088
-640,911	147,312	-0,054	-0,053
-639,897	-59,204	0,027	0,009
-638,882	-104,111	0,080	0,014
-637,868	470,838	0,044	-0,072
-636,853	24,356	0,066	-0,040
-635,838	123,881	-0,025	0,023
-634,824	-34,193	0,087	0,035
-633,809	800,000	-0,034	-0,105
-632,795	101,194	-0,015	-0,013
-631,780	334,515	0,125	0,179
-630,765	-93,585	-0,042	-0,009
-629,751	109,127	0,020	-0,018
-628,736	64,078	-0,061	-0,045
-627,722	513,712	0,023	-0,040
-626,707	-200,000	-0,007	-0,039
-625,692	-200,000	-0,014	0,049
-624,678	-200,000	0,007	-0,124
-623,663	15,219	-0,202	-0,116
-622,649	-200,000	0,005	-0,100
-621,634	-200,000	-0,003	-0,073
-620,619	152,744	-0,049	-0,050
-619,605	-101,911	-0,104	-0,018
-618,590	800,000	0,049	-0,103
-617,576	339,143	-0,103	-0,148
-616,561	767,389	-0,049	-0,099
-615,546	559,343	0,020	-0,035
-614,532	-87,717	0,082	0,018
-613,517	-200,000	-0,009	-0,160
-612,503	-133,246	-0,074	-0,007
-611,488	121,799	0,089	-0,081
-610,474	294,855	0,053	0,071
-609,459	-129,278	-0,117	-0,012
-608,444	-200,000	0,003	0,064
-607,430	232,864	-0,028	0,033
-606,415	-139,872	0,003	-0,000
-605,401	-200,000	0,001	-0,007
-604,386	-200,000	-0,002	-0,120
-603,371	800,000	0,048	-0,153
-602,357	337,199	0,016	0,022
-601,342	199,198	0,060	-0,068
-600,328	-30,386	0,069	-0,029
-599,313	-200,000	-0,016	0,062
-598,298	26,066	-0,060	0,036
-597,284	-200,000	0,014	0,110
-596,269	-153,591	0,150	-0,007
-595,255	800,000	0,035	0,094
-594,240	-50,527	-0,028	0,010
-593,225	289,382	-0,055	-0,073
-592,211	-143,688	0,117	0,008
-591,196	88,969	-0,144	-0,117
-590,182	333,081	0,062	-0,088
-589,167	-200,000	-0,009	0,092
-588,152	274,022	0,027	-0,036
-587,138	42,736	-0,074	0,049
-586,123	800,000	-0,056	0,124
-585,109	-200,000	-0,011	-0,126
-584,094	-39,171	-0,122	-0,047
-583,079	-108,344	-0,050	-0,008
-582,065	800,000	-0,034	0,088
-581,050	-157,897	0,076	0,003
-580,036	66,607	-0,049	-0,037
-579,021	702,513	-0,023	-0,044
-578,006	800,000	-0,028	-0,083
-576,992	-13,304	-0,094	-0,044
-575,977	90,909	0,170	0,140
-574,963	-113,189	0,073	-0,010
-573,948	-47,074	-0,081	0,029
-572,934	-8,035	-0,141	0,069
-571,919	28,618	-0,091	0,056
-570,904	-28,099	-0,074	-0,031
-569,890	-200,000	-0,005	-0,076
-568,875	30,905	-0,067	0,042
-567,861	-200,000	-0,033	0,269
-566,846	800,000	0,022	0,063
-565,831	217,020	0,056	-0,066
-564,817	-169,138	0,016	-0,000
-563,802	-200,000	0,032	-0,147
-562,788	-103,378	0,072	0,012
-561,773	165,104	0,091	-0,094
-560,758	-46,653	-0,084	-0,030
-559,744	180,763	0,094	0,102
-558,729	171,533	-0,025	-0,027
-557,715	-200,000	0,003	-0,098
-556,700	-200,000	0,020	-0,093
-555,685	-200,000	-0,006	-0,060
-554,671	-200,000	-0,003	-0,045
-553,656	469,064	0,072	0,118
-552,642	-134,101	0,167	0,015
-551,627	495,004	-0,108	0,182
-550,612	800,000	0,019	0,055
-549,598	-30,778	0,105	-0,043
-548,583	-200,000	-0,007	0,059
-547,569	0,669	-0,121	0,063
-546,554	-200,000	-0,023	0,152
-545,539	-200,000	-0,002	-0,089
-544,525	-23,075	-0,062	0,027
-543,510	-200,000	0,010	0,037
-542,496	15,031	-0,030	-0,017
-541,481	-200,000	-0,033	0,109
-540,466	271,079	0,065	-0,084
-539,452	-200,000	0,017	0,128
-538,437	704,223	-0,059	0,114
-537,423	-30,582	0,063	0,026
-536,408	-102,768	-0,130	0,022
-535,393	87,275	-0,073	-0,059
-534,379	194,293	0,024	-0,026
-533,364	-44,344	-0,104	-0,038
-532,350	55,608	0,028	0,020
-531,335	262,802	0,086	0,110
-530,321	-25,617	-0,127	0,054
-529,306	683,798	0,048	0,092
-528,291	-88,983	-0,075	0,016
-527,277	-137,099	-0,122	0,010
-526,262	2,445	-0,038	-0,020
-525,248	669,589	0,087	-0,166
-524,233	173,172	-0,040	0,042
-523,218	-200,000	0,004	0,019
-522,204	800,000	-0,036	0,074
-521,189	-200,000	-0,023	-0,115
-520,175	10,544	-0,215	-0,119
-519,160	-82,348	-0,034	-0,008
-518,145	566,464	0,066	0,117
-517,131	19,345	0,029	-0,017
-516,116	366,393	-0,034	0,050
-515,102	174,208	0,056	0,059
-514,087	-21,461	-0,050	-0,022
-513,072	-200,000	-0,014	-0,089
-512,058	77,194	-0,091	-0,071
-511,043	800,000	0,014	0,030
-510,029	240,592	0,101	0,124
-509,014	310,995	-0,035	0,048
-507,999	380,459	-0,063	0,095
-506,985	-200,000	0,001	-0,014
-505,970	-85,215	-0,104	-0,024
-504,956	1,216	0,024	-0,013
-503,941	307,803	0,073	0,100
-502,926	-14,364	-0,074	0,035
-501,912	280,766	-0,039	0,051
-500,897	38,582	0,033	0,021
-499,883	66,954	0,145	0,108
-498,868	-103,346	-0,176	0,030
-497,853	-90,766	-0,100	0,021
-496,839	-200,000	0,041	-0,138
-495,824	-70,570	-0,074	0,020
-494,810	144,166	0,070	0,069
-493,795	547,349	-0,093	-0,163
-492,781	-146,435	-0,045	0,003
-491,766	-200,000	-0,037	0,126
-490,751	286,603	0,019	0,025
-489,737	-149,297	0,109	0,006
-488,722	-48,927	0,074	-0,026
-487,708	-48,023	0,018	-0,006
-486,693	205,193	0,024	0,028
-485,678	-200,000	-0,016	-0,078
-484,664	-54,167	-0,090	0,030
-483,649	800,000	-0,051	-0,123
-482,635	-51,596	0,094	0,032
-481,620	-200,000	-0,002	0,081
-480,605	800,000	0,022	0,045
-479,591	680,845	0,029	0,055
-478,576	800,000	0,025	0,053
-477,562	-63,852	0,028	-0,008
-476,547	-44,282	-0,128	-0,047
-475,532	-66,377	0,123	-0,036
-474,518	-176,278	-0,086	-0,002
-473,503	-200,000	-0,004	0,087
-472,489	-200,000	0,008	0,066
-471,474	-113,097	0,088	-0,013
-470,459	48,109	-0,060	0,041
-469,445	-146,622	0,045	-0,003
-468,430	48,027	0,071	-0,048
-467,416	-21,573	0,132	0,059
-466,401	-200,000	0,083	0,000
-465,386	-34,831	0,024	-0,010
-464,372	211,079	-0,051	-0,058
-463,357	562,911	0,029	-0,051
-462,343	256,660	-0,076	0,095
-461,328	-88,969	-0,054	-0,012
-460,313	800,000	0,019	0,044
-459,299	-132,130	0,139	0,013
-458,284	-39,401	0,025	-0,010
-457,270	800,000	-0,025	0,057
-456,255	-164,246	-0,078	-0,003
-455,241	209,109	0,139	-0,159
-454,226	33,187	-0,069	-0,044
-453,211	-200,000	-0,008	0,102
-452,197	800,000	0,041	0,101
-451,182	800,000	0,055	0,167
-450,168	267,397	0,086	0,110
-449,153	297,564	-0,116	-0,156
-448,138	26,968	0,052	-0,032
-447,124	-200,000	0,018	-0,108
-446,109	-115,030	-0,139	0,019
-445,095	-67,229	0,163	0,046
-444,080	315,623	0,074	-0,102
-443,065	-100,913	0,220	-0,039
-442,051	94,216	-0,076	0,062
-441,036	57,297	0,050	-0,035
-440,022	14,876	0,107	-0,061
-439,007	165,691	0,062	0,063
-437,992	-56,400	0,112	-0,036
-436,978	122,805	0,025	-0,022
-435,963	-3,236	0,046	-0,023
-434,949	52,824	-0,073	-0,051
-433,934	-81,474	0,051	-0,012
-432,919	-200,000	-0,001	-0,052
-431,905	800,000	-0,047	0,116
-430,890	800,000	0,077	0,229
-429,876	-200,000	-0,009	0,095
-428,861	-127,409	0,120	0,013
-427,846	800,000	0,012	-0,035
-426,832	-200,000	-0,009	-0,099
-425,817	345,269	-0,068	-0,097
-424,803	99,553	-0,148	-0,124
-423,788	295,275	-0,072	0,096
-422,773	167,669	0,123	0,127
-421,759	306,631	0,035	-0,048
-420,744	409,184	0,041	0,064
-419,730	128,676	0,138	-0,128
-418,715	-200,000	0,009	0,035
-417,701	800,000	-0,016	0,052
-416,686	353,372	-0,069	-0,100
-415,671	-200,000	0,011	0,110
-414,657	800,000	0,019	0,048
-413,642	800,000	-0,038	-0,085
-412,628	800,000	-0,068	-0,156
-411,613	593,581	0,050	0,090
-410,598	-200,000	-0,004	-0,123
-409,584	700,545	0,023	-0,045
-408,569	-81,839	0,191	0,045
-407,555	-40,319	-0,037	-0,014
-406,540	-128,821	0,073	0,007
-405,525	-200,000	0,015	-0,100
-404,511	23,574	-0,067	-0,040
-403,496	-192,005	0,081	0,001
-402,482	800,000	0,016	-0,033
-401,467	23,279	-0,037	0,022
-400,452	800,000	0,027	-0,085
-399,438	-200,000	0,022	0,070
-398,423	-33,278	-0,054	0,022
-397,409	409,478	-0,019	0,030
-396,394	-200,000	0,002	-0,028
-395,379	800,000	0,031	-0,086
-394,365	57,749	0,016	-0,012
-393,350	-200,000	-0,012	0,062
-392,336	158,546	-0,053	0,054
-391,321	800,000	0,017	-0,039
-390,306	-200,000	0,008	-0,055
-389,292	336,514	-0,074	-0,105
-388,277	-200,000	-0,007	-0,234
-387,263	97,898	0,121	0,101
-386,248	-83,355	0,191	0,044
-385,233	281,288	0,100	0,131
-384,219	-200,000	-0,005	0,084
-383,204	-200,000	-0,001	0,086
-382,190	-173,246	-0,090	-0,002
-381,175	26,092	-0,183	0,111
-380,160	800,000	0,037	0,084
-379,146	800,000	-0,029	-0,061
-378,131	-34,024	0,137	0,055
-377,117	122,369	-0,076	0,069
-376,102	800,000	-0,029	-0,070
-375,088	-92,763	-0,042	-0,008
-374,073	-38,283	0,069	0,027
-373,058	-27,582	0,067	0,028
-372,044	-200,000	0,003	0,139
-371,029	-93,698	-0,129	-0,026
-370,015	-6,285	0,037	-0,018
-369,000	99,684	0,100	-0,084
-367,985	140,400	-0,056	0,053
-366,971	-57,333	0,014	-0,004
-365,956	66,298	-0,041	-0,030
-364,942	-107,991	-0,090	0,014
-363,927	144,889	-0,023	0,022
-362,912	12,127	0,089	-0,050
-361,898	283,380	-0,081	0,106
-360,883	107,481	-0,069	0,060
-359,869	-11,305	-0,103	-0,049
-358,854	-64,994	-0,099	-0,029
-357,839	800,000	0,031	0,097
-356,825	222,986	0,050	-0,059
-355,810	-200,000	0,025	0,139
-354,796	136,820	-0,079	-0,075
-353,781	-28,504	0,115	-0,048
-352,766	-108,055	0,087	0,014
-351,752	126,252	-0,102	-0,094
-350,737	409,797	0,011	-0,017
-349,723	87,320	-0,040	-0,032
-348,708	-200,000	-0,029	-0,190
-347,693	230,288	0,018	0,021
-346,679	66,471	0,089	0,065
-345,664	154,678	0,105	-0,105
-344,650	-80,803	0,005	0,001
-343,635	-6,302	-0,092	0,046
-342,620	800,000	-0,021	-0,065
-341,606	-144,598	-0,047	0,003
-340,591	-38,342	0,061	-0,023
-339,577	-1,848	-0,032	-0,016
-338,562	-200,000	-0,031	0,164
-337,548	147,740	-0,065	0,064
-336,533	-111,112	-0,053	-0,008
-335,518	81,335	-0,125	-0,098
-334,504	-72,590	-0,019	-0,005
-333,489	-200,000	-0,010	-0,037
-332,475	-44,405	-0,102	-0,037
-331,460	-15,288	-0,078	-0,036
-330,445	542,217	0,022	0,039
-329,431	113,052	-0,025	-0,022
-328,416	-102,454	0,143	0,025
-327,402	-28,837	0,176	-0,073
-326,387	700,215	0,053	-0,102
-325,372	-200,000	-0,007	-0,079
-324,358	-200,000	0,011	-0,039
-323,343	1,807	-0,021	-0,011
-322,329	-68,408	0,052	0,014
-321,314	797,910	-0,026	0,052
-320,299	-7,747	0,079	0,039
-319,285	-124,049	-0,105	0,012
-318,270	74,850	0,063	-0,048
-317,256	-13,364	0,026	-0,012
-316,241	-86,114	-0,027	0,006
-315,226	-112,578	-0,145	0,021
-314,212	-32,995	0,149	-0,060
-313,197	87,163	-0,040	-0,032
-312,183	-200,000	-0,016	0,129
-311,168	-50,851	0,149	0,050
-310,153	26,083	-0,197	-0,119
-309,139	-200,000	-0,005	-0,022
-308,124	74,551	0,076	0,058
-307,110	365,742	0,052	0,075
-306,095	535,073	-0,043	-0,074
-305,080	670,678	0,097	-0,183
-304,066	158,930	0,059	-0,059
-303,051	194,316	-0,086	-0,094
-302,037	426,759	-0,109	-0,170
-301,022	25,618	-0,062	0,037
-300,008	-76,356	-0,044	-0,011
-298,993	-93,106	-0,050	0,010
-297,978	57,437	-0,015	-0,011
-296,964	-74,357	-0,087	-0,023
-295,949	-200,000	0,008	0,055
-294,935	-119,516	-0,038	-0,005
-293,920	-57,568	-0,168	0,053
-292,905	29,131	0,071	-0,044
-291,891	-95,604	0,017	0,003
-290,876	-200,000	0,002	0,019
-289,862	-47,603	0,206	0,072
-288,847	800,000	0,058	-0,157
-287,832	-200,000	0,012	-0,183
-286,818	76,179	-0,026	-0,020
-285,803	-61,604	0,034	0,010
-284,789	-16,906	0,122	-0,056
-283,774	-72,410	-0,056	0,015
-282,759	-200,000	-0,017	0,087
-281,745	-42,248	0,031	0,011
-280,730	183,861	0,098	0,105
-279,716	243,493	0,107	-0,131
-278,701	515,925	-0,079	0,133
-277,686	-25,524	0,094	0,040
-276,672	-200,000	-0,009	0,128
-275,657	-96,142	-0,038	0,007
-274,643	-200,000	0,040	-0,144
-273,628	100,078	-0,085	-0,072
-272,613	1,410	0,081	-0,042
-271,599	154,849	0,042	-0,042
-270,584	-34,001	0,046	-0,018
-269,570	-96,002	-0,057	-0,011
-268,555	-200,000	-0,016	0,108
-267,540	112,315	0,063	-0,055
-266,526	119,490	-0,056	-0,050
-265,511	16,199	-0,048	-0,027
-264,497	-200,000	-0,001	-0,052
-263,482	-200,000	0,015	0,072
-262,467	800,000	0,061	0,146
-261,453	-200,000	-0,017	0,078
-260,438	-34,327	0,078	-0,031
-259,424	-75,267	-0,257	-0,066
-258,409	229,982	0,086	-0,101
-257,395	800,000	0,037	0,076
-256,380	402,953	-0,017	-0,026
-255,365	-200,000	-0,013	0,076
-254,351	328,643	-0,052	0,073
-253,336	362,990	-0,047	0,069
-252,322	-172,829	0,083	0,002
-251,307	443,826	0,046	-0,073
-250,292	-200,000	0,001	0,153
-249,278	164,262	0,018	-0,018
-248,263	164,105	0,078	-0,079
-247,249	-200,000	-0,010	0,091
-246,234	-200,000	-0,006	0,025
-245,219	8,927	-0,137	-0,074
-244,205	-49,772	-0,039	0,013
-243,190	-200,000	-0,010	0,040
-242,176	-41,337	0,121	-0,045
-241,161	-200,000	-0,012	-0,166
-240,146	129,422	0,126	-0,116
-239,132	58,707	-0,134	0,095
-238,117	800,000	0,014	0,030
-237,103	-64,603	0,097	0,028
-236,088	17,683	0,067	-0,038
-235,073	384,850	0,021	-0,031
-234,059	180,871	0,074	0,078
-233,044	194,328	-0,031	-0,034
-232,030	75,848	0,127	0,097
-231,015	800,000	0,035	-0,086
-230,000	-100,465	0,124	0,022
-228,986	-53,946	0,059	-0,019
-227,971	-34,574	-0,158	-0,062
-226,957	364,103	0,026	0,038
-225,942	44,846	0,051	-0,034
-224,927	730,845	0,053	0,102
-223,913	-200,000	0,006	-0,056
-222,898	74,610	0,052	-0,039
-221,884	-200,000	-0,014	-0,088
-220,869	-200,000	0,008	0,061
-219,855	800,000	-0,071	0,149
-218,840	286,368	0,111	0,146
-217,825	269,801	0,070	0,089
-216,811	38,779	-0,119	-0,076
-215,796	-200,000	-0,013	-0,064
-214,782	203,424	0,074	0,083
-213,767	270,618	-0,089	0,113
-212,752	800,000	-0,012	0,037
-211,738	-51,777	0,026	0,009
-210,723	128,183	0,073	0,067
-209,709	546,308	-0,069	-0,120
-208,694	36,738	-0,100	0,064
-207,679	16,619	0,022	-0,012
-206,665	-82,219	-0,092	-0,021
-205,650	-200,000	0,016	0,075
-204,636	-200,000	0,010	0,131
-203,621	133,307	0,055	0,052
-202,606	223,171	-0,112	-0,130
-201,592	-200,000	-0,027	-0,139
-200,577	38,078	-0,021	0,014
-199,563	495,925	0,032	-0,053
-198,548	-200,000	0,050	0,000
-197,533	-16,356	-0,139	0,063
-196,519	-185,482	0,082	0,001
-195,504	258,072	-0,028	-0,035
-194,490	-131,656	-0,041	0,004
-193,475	531,204	-0,083	0,142
-192,460	-6,150	-0,050	0,024
-191,446	-200,000	0,002	-0,023
-190,431	108,672	-0,136	0,117
-189,417	-48,367	-0,071	-0,024
-188,402	-72,901	-0,035	-0,009
-187,387	-48,510	0,069	0,024
-186,373	-79,947	-0,030	-0,007
-185,358	-72,291	0,035	-0,009
-184,344	529,590	-0,030	0,052
-183,329	313,958	-0,020	-0,028
-182,315	303,911	-0,024	0,032
-181,300	58,451	-0,034	0,024
-180,285	-200,000	-0,040	-0,185
-179,271	-200,000	-0,002	-0,054
-178,256	340,190	-0,018	0,025
-177,242	543,751	0,065	0,113
-176,227	257,741	0,064	0,079
-175,212	114,684	-0,127	0,111
-174,198	800,000	-0,043	-0,087
-173,183	10,803	-0,065	0,036
-172,169	95,676	-0,048	-0,040
-171,154	-200,000	-0,023	-0,102
-170,139	323,065	0,036	0,050
-169,125	-200,000	-0,008	0,077
-168,110	-200,000	0,012	0,088
-167,096	435,916	-0,085	0,134
-166,081	68,436	0,003	-0,002
-165,066	1,001	-0,051	-0,026
-164,052	-200,000	0,042	-0,229
-163,037	125,313	0,086	-0,078
-162,023	800,000	0,026	0,070
-161,008	800,000	0,034	0,077
-159,993	-200,000	-0,001	0,049
-158,979	-200,000	0,002	0,135
-157,964	-68,078	0,105	0,029
-156,950	178,233	-0,060	-0,063
-155,935	6,344	0,068	-0,036
-154,920	39,305	-0,078	0,051
-153,906	401,947	0,065	0,098
-152,891	800,000	0,021	-0,045
-151,877	662,494	-0,074	0,137
-150,862	-83,199	0,031	0,007
-149,847	518,703	-0,027	-0,046
-148,833	-200,000	-0,011	0,151
-147,818	35,051	0,052	0,033
-146,804	-200,000	-0,003	0,119
-145,789	191,083	0,054	0,059
-144,775	-158,374	-0,076	0,003
-143,760	800,000	-0,060	-0,128
-142,745	528,354	-0,051	-0,086
-141,731	67,211	0,145	-0,106
-140,716	-200,000	-0,005	0,024
-139,702	800,000	-0,011	0,032
-138,687	334,994	-0,074	0,104
-137,672	123,798	0,077	-0,070
-136,658	-52,172	-0,029	0,010
-135,643	-200,000	-0,014	0,115
-134,629	14,733	0,109	-0,061
-133,614	83,186	-0,031	-0,024
-132,599	433,096	0,042	0,066
-131,585	800,000	-0,069	0,156
-130,570	518,688	-0,041	-0,069
-129,556	-72,588	-0,134	-0,035
-128,541	-200,000	0,007	-0,075
-127,526	-200,000	0,006	0,115
-126,512	-200,000	-0,008	0,056
-125,497	-200,000	0,028	0,138
-124,483	-200,000	-0,010	-0,090
-123,468	31,932	-0,035	-0,022
-122,453	800,000	0,027	0,058
-121,439	-200,000	-0,019	0,117
-120,424	800,000	-0,028	0,059
-119,410	800,000	-0,015	0,032
