DTS Sentinel unit serial number:	SN410029Multiplexer serial number:	ORYXHardware model number:	OX2-SRSoftware version number:	ORYX F/W v4,00 Oryx Data Collector v3.7.2.0data status	okinstallation	B5 Nyhavnadifferential loss correction	single-endedforward channel	channel 2reverse channel	N/Adate	2023/12/11time	21:22:13forward acquisition time	300,00reverse acquisition time	0,00gamma	499,1914k internal	0,3157k external	0,3157temperature offset calibration	1,0000default loss term (dB/km)	0,3820temperature slope calibration	1,0000multiplexer offset coefficient	1,0000multiplexer slope coefficient	1,0000fibre end	0,00T internal ref (°C)	16,20T ext. ref 1 (°C)	0,24T ext. ref 2 (°C)	-0,00length (m)	temperature (°C)	Stokes	anti-Stokes-744,400	134,386	-0,066	-0,063
-743,385	-59,496	-0,183	0,058
-742,371	2,649	0,119	-0,063
-741,356	-31,969	-0,287	0,118
-740,342	-55,752	0,121	-0,040
-739,327	-106,052	-0,164	0,027
-738,312	19,571	0,086	0,051
-737,298	-84,510	-0,447	0,103
-736,283	-200,000	-0,013	-0,077
-735,269	-138,067	-0,337	0,027
-734,254	-82,008	0,117	0,028
-733,239	41,253	-0,401	-0,267
-732,225	-181,458	0,187	0,003
-731,210	-22,651	0,158	0,070
-730,196	-94,436	-0,042	0,008
-729,181	114,230	-0,063	-0,057
-728,167	246,207	0,022	-0,028
-727,152	-7,817	0,028	0,014
-726,137	1,066	-0,143	0,075
-725,123	-200,000	-0,025	-0,104
-724,108	-200,000	0,002	-0,151
-723,094	499,066	-0,076	-0,129
-722,079	-47,371	-0,132	0,047
-721,064	800,000	0,011	-0,034
-720,050	-65,925	0,048	0,014
-719,035	-104,620	0,068	-0,011
-718,021	-200,000	-0,023	-0,120
-717,006	-50,144	-0,103	-0,036
-715,991	800,000	-0,059	-0,160
-714,977	-63,189	-0,111	-0,034
-713,962	200,748	-0,063	0,071
-712,948	443,626	0,032	0,051
-711,933	34,097	0,040	-0,026
-710,918	-200,000	-0,026	0,088
-709,904	118,882	-0,177	-0,161
-708,889	-15,748	-0,100	-0,047
-707,875	106,631	-0,067	-0,058
-706,860	80,122	0,119	-0,094
-705,845	-200,000	0,003	-0,052
-704,831	29,514	0,170	0,106
-703,816	-200,000	-0,047	0,162
-702,802	203,171	0,061	-0,070
-701,787	89,808	-0,108	-0,089
-700,772	800,000	0,042	-0,121
-699,758	87,553	0,046	-0,038
-698,743	51,116	0,071	0,049
-697,729	20,311	-0,100	-0,059
-696,714	-84,159	-0,028	-0,006
-695,699	-19,127	-0,068	0,031
-694,685	-200,000	0,013	-0,049
-693,670	-200,000	-0,014	0,140
-692,656	-200,000	-0,045	0,161
-691,641	22,035	-0,094	-0,056
-690,627	-200,000	-0,003	0,010
-689,612	-200,000	0,008	0,113
-688,597	-76,168	-0,154	-0,040
-687,583	-200,000	-0,007	-0,045
-686,568	-123,571	-0,159	-0,018
-685,554	-71,277	-0,161	-0,044
-684,539	-3,549	0,080	-0,041
-683,524	800,000	-0,020	0,061
-682,510	800,000	0,027	0,065
-681,495	603,946	-0,099	-0,182
-680,481	-129,306	0,030	-0,003
-679,466	800,000	-0,055	-0,138
-678,451	-84,161	0,143	0,033
-677,437	116,195	0,147	-0,132
-676,422	-8,198	0,035	0,017
-675,408	-200,000	-0,048	0,202
-674,393	-200,000	-0,017	-0,106
-673,378	-186,672	-0,146	-0,001
-672,364	33,886	-0,070	0,045
-671,349	9,541	-0,045	-0,025
-670,335	266,772	0,092	0,118
-669,320	264,207	0,029	0,037
-668,305	-200,000	0,034	0,136
-667,291	-93,860	-0,058	-0,012
-666,276	-70,256	0,065	-0,018
-665,262	-200,000	-0,032	-0,108
-664,247	-118,174	-0,092	-0,012
-663,232	312,393	0,048	-0,067
-662,218	277,517	-0,089	-0,117
-661,203	42,328	-0,116	-0,077
-660,189	-200,000	-0,001	-0,042
-659,174	-200,000	0,008	-0,030
-658,159	0,160	-0,166	-0,087
-657,145	-200,000	-0,008	-0,065
-656,130	800,000	0,032	0,074
-655,116	-17,196	-0,109	-0,050
-654,101	-200,000	0,001	0,220
-653,086	1,102	-0,064	-0,034
-652,072	-106,434	-0,120	0,019
-651,057	114,788	-0,102	0,092
-650,043	426,261	-0,121	-0,193
-649,028	5,985	-0,099	-0,054
-648,014	81,987	-0,068	-0,054
-646,999	-200,000	-0,003	0,119
-645,984	-200,000	-0,007	-0,115
-644,970	-170,539	-0,115	-0,003
-643,955	-200,000	-0,025	-0,084
-642,941	269,072	0,011	-0,015
-641,926	-86,870	-0,102	-0,023
-640,911	-161,694	-0,055	-0,002
-639,897	-200,000	-0,002	-0,076
-638,882	507,742	0,080	0,137
-637,868	-200,000	0,009	0,035
-636,853	312,587	-0,095	-0,132
-635,838	-200,000	-0,018	-0,104
-634,824	137,990	-0,106	-0,102
-633,809	247,157	-0,036	0,045
-632,795	33,286	0,055	-0,035
-631,780	-41,051	0,067	-0,025
-630,765	-200,000	0,007	0,134
-629,751	120,496	-0,044	0,040
-628,736	118,529	-0,103	-0,093
-627,722	133,002	0,031	-0,029
-626,707	97,343	0,107	-0,090
-625,692	659,457	-0,071	-0,135
-624,678	-54,644	-0,131	0,043
-623,663	89,622	0,075	-0,062
-622,649	74,893	-0,052	0,041
-621,634	179,845	-0,028	-0,030
-620,619	-44,772	0,058	-0,021
-619,605	800,000	-0,039	-0,082
-618,590	800,000	-0,030	0,072
-617,576	-200,000	0,007	0,046
-616,561	-124,017	0,120	0,014
-615,546	-64,124	0,073	-0,022
-614,532	-65,941	-0,111	-0,032
-613,517	458,298	0,045	-0,074
-612,503	-200,000	0,002	-0,078
-611,488	571,082	0,055	-0,098
-610,474	-121,035	0,080	-0,010
-609,459	-152,750	0,090	-0,005
-608,444	-200,000	0,017	-0,130
-607,430	-200,000	0,002	-0,025
-606,415	544,539	-0,063	-0,111
-605,401	800,000	0,055	-0,131
-604,386	355,873	0,033	-0,049
-603,371	635,815	-0,023	0,042
-602,357	78,187	0,146	-0,114
-601,342	53,861	-0,014	-0,010
-600,328	800,000	-0,019	-0,041
-599,313	-109,375	0,072	-0,011
-598,298	-41,532	0,028	-0,011
-597,284	268,566	-0,038	-0,049
-596,269	14,220	-0,079	0,045
-595,255	86,540	-0,085	0,068
-594,240	100,314	0,109	-0,092
-593,225	-200,000	-0,011	-0,065
-592,211	538,232	-0,100	-0,175
-591,196	-67,514	-0,144	0,041
-590,182	-159,084	-0,052	-0,002
-589,167	-129,207	0,175	-0,018
-588,152	24,118	0,044	0,026
-587,138	-200,000	-0,018	0,103
-586,123	-200,000	0,017	-0,104
-585,109	-200,000	0,010	-0,192
-584,094	-56,037	-0,075	0,024
-583,079	203,919	0,098	-0,112
-582,065	-200,000	0,004	0,088
-581,050	43,401	0,083	0,055
-580,036	110,131	0,050	-0,044
-579,021	366,624	-0,024	0,036
-578,006	505,115	-0,047	-0,080
-576,992	338,121	-0,037	-0,052
-575,977	800,000	-0,012	0,039
-574,963	800,000	0,022	-0,045
-573,948	-200,000	0,024	0,108
-572,934	151,382	0,092	0,092
-571,919	-100,342	-0,061	-0,011
-570,904	343,704	-0,070	0,101
-569,890	-167,438	-0,066	-0,002
-568,875	800,000	-0,015	-0,040
-567,861	-109,039	0,200	-0,031
-566,846	-139,536	-0,064	0,005
-565,831	-13,543	-0,108	0,051
-564,817	-163,869	0,095	-0,003
-563,802	627,099	0,052	-0,096
-562,788	-132,559	0,125	0,012
-561,773	135,986	-0,028	0,026
-560,758	-14,023	0,041	0,019
-559,744	700,968	0,035	-0,067
-558,729	-200,000	0,013	0,096
-557,715	140,096	0,047	0,045
-556,700	-200,000	-0,010	-0,179
-555,685	-200,000	-0,018	-0,148
-554,671	-200,000	0,025	0,154
-553,656	320,482	-0,030	0,042
-552,642	-108,501	-0,060	0,009
-551,627	597,707	0,018	-0,032
-550,612	188,639	-0,115	-0,126
-549,598	800,000	-0,039	0,089
-548,583	800,000	0,008	-0,024
-547,569	-200,000	-0,009	-0,036
-546,554	598,405	0,024	0,043
-545,539	37,240	-0,048	0,031
-544,525	-200,000	0,002	-0,013
-543,510	16,803	-0,051	0,029
-542,496	543,668	-0,029	0,051
-541,481	-92,267	-0,036	0,007
-540,466	109,562	-0,048	-0,042
-539,452	262,697	0,064	-0,081
-538,437	-200,000	0,002	0,073
-537,423	800,000	-0,043	-0,136
-536,408	-68,458	-0,053	-0,015
-535,393	-200,000	0,000	0,016
-534,379	745,566	-0,006	0,013
-533,364	-128,937	-0,200	0,020
-532,350	-200,000	0,016	-0,132
-531,335	229,675	0,057	0,068
-530,321	10,903	-0,161	0,090
-529,306	-200,000	0,000	0,134
-528,291	467,762	-0,032	0,052
-527,277	323,585	-0,076	0,107
-526,262	304,723	-0,076	0,104
-525,248	-200,000	0,017	0,082
-524,233	-200,000	0,023	0,186
-523,218	-110,349	-0,053	0,008
-522,204	719,210	-0,066	0,129
-521,189	800,000	-0,063	-0,135
-520,175	-5,971	-0,028	-0,014
-519,160	800,000	0,023	-0,071
-518,145	634,749	-0,096	-0,179
-517,131	51,581	0,078	-0,054
-516,116	800,000	0,027	-0,055
-515,102	800,000	0,013	0,030
-514,087	38,800	-0,074	-0,048
-513,072	-140,068	-0,037	0,003
-512,058	75,254	-0,053	0,041
-511,043	150,027	0,037	0,036
-510,029	-93,671	-0,095	-0,019
-509,014	106,864	-0,045	0,039
-507,999	-200,000	-0,024	0,165
-506,985	-200,000	-0,008	0,100
-505,970	-51,177	-0,059	0,020
-504,956	-29,277	-0,059	-0,025
-503,941	-36,562	0,148	-0,058
-502,926	-102,552	0,020	0,003
-501,912	-200,000	-0,009	0,122
-500,897	-31,082	0,132	0,054
-499,883	800,000	0,077	-0,234
-498,868	-94,900	0,101	-0,020
-497,853	800,000	-0,053	-0,119
-496,839	-200,000	0,003	0,070
-495,824	-170,643	-0,072	-0,002
-494,810	340,461	-0,009	0,012
-493,795	800,000	-0,042	-0,093
-492,781	-60,205	-0,067	0,021
-491,766	8,165	0,096	-0,052
-490,751	-200,000	0,019	-0,112
-489,737	-53,285	0,060	0,020
-488,722	-200,000	0,025	-0,087
-487,708	61,499	0,054	0,039
-486,693	19,384	-0,059	0,034
-485,678	-2,301	-0,099	-0,051
-484,664	651,265	0,122	-0,229
-483,649	-82,133	0,061	-0,014
-482,635	9,997	0,126	-0,070
-481,620	-48,577	0,086	-0,030
-480,605	62,580	0,059	-0,043
-479,591	800,000	0,048	-0,099
-478,576	228,265	-0,046	-0,054
-477,562	-200,000	-0,036	0,141
-476,547	183,521	-0,137	0,148
-475,532	-117,274	-0,238	-0,031
-474,518	730,473	0,025	-0,049
-473,503	-82,464	0,087	-0,020
-472,489	800,000	0,029	0,063
-471,474	-200,000	-0,018	0,080
-470,459	-10,872	-0,070	-0,034
-469,445	800,000	0,048	-0,110
-468,430	207,021	0,178	0,203
-467,416	-200,000	0,028	0,095
-466,401	-200,000	-0,025	0,135
-465,386	644,825	-0,055	0,103
-464,372	-200,000	-0,025	0,083
-463,357	-17,745	0,114	-0,052
-462,343	67,448	-0,059	0,044
-461,328	64,767	-0,110	-0,081
-460,313	-200,000	0,000	0,044
-459,299	127,137	0,015	-0,014
-458,284	-29,736	-0,012	0,005
-457,270	-200,000	0,002	-0,024
-456,255	132,257	0,071	-0,066
-455,241	-109,056	-0,133	0,020
-454,226	509,100	-0,068	-0,115
-453,211	-110,966	-0,056	0,008
-452,197	-111,494	0,090	-0,013
-451,182	114,241	0,111	-0,098
-450,168	-4,594	0,011	-0,005
-449,153	80,717	-0,068	0,054
-448,138	-38,612	-0,072	-0,028
-447,124	-52,140	0,148	0,050
-446,109	55,759	0,036	-0,025
-445,095	497,942	0,072	0,121
-444,080	63,829	0,106	0,077
-443,065	-200,000	0,016	0,110
-442,051	-200,000	-0,024	0,098
-441,036	-200,000	-0,013	0,087
-440,022	-11,574	-0,113	-0,054
-439,007	503,525	0,048	0,081
-437,992	800,000	-0,023	0,065
-436,978	-150,426	0,091	0,005
-435,963	-200,000	0,014	0,093
-434,949	-200,000	0,006	-0,098
-433,934	370,867	-0,046	0,068
-432,919	94,633	0,039	0,032
-431,905	-200,000	0,012	-0,055
-430,890	43,461	0,072	0,048
-429,876	-200,000	0,010	0,074
-428,861	30,852	-0,101	0,063
-427,846	-16,305	-0,050	0,023
-426,832	210,413	-0,036	0,041
-425,817	395,513	-0,054	-0,082
-424,803	-200,000	-0,001	0,026
-423,788	-108,041	0,107	-0,017
-422,773	-47,040	0,090	-0,032
-421,759	48,474	-0,045	0,031
-420,744	800,000	-0,001	0,003
-419,730	213,829	-0,076	-0,088
-418,715	-200,000	-0,005	0,053
-417,701	-200,000	0,002	-0,080
-416,686	-109,026	0,051	0,008
-415,671	-14,099	0,064	-0,030
-414,657	-105,580	0,051	0,008
-413,642	102,982	-0,033	0,028
-412,628	-64,620	0,101	0,030
-411,613	120,166	-0,076	-0,069
-410,598	-200,000	0,036	-0,118
-409,584	29,899	-0,088	0,055
-408,569	-200,000	0,020	0,066
-407,555	800,000	-0,017	0,051
-406,540	4,300	0,126	0,067
-405,525	253,030	-0,066	0,082
-404,511	-200,000	-0,026	-0,133
-403,496	-24,988	0,106	0,045
-402,482	177,458	-0,038	-0,040
-401,467	-112,965	0,142	-0,020
-400,452	-197,209	0,084	-0,000
-399,438	-57,462	-0,054	-0,017
-398,423	270,353	-0,034	0,043
-397,409	172,585	-0,072	0,076
-396,394	-89,228	0,121	0,026
-395,379	-125,930	0,082	-0,009
-394,365	67,442	0,054	0,040
-393,350	-200,000	0,057	-0,000
-392,336	-200,000	-0,012	-0,065
-391,321	-84,755	0,060	0,014
-390,306	148,625	-0,094	-0,092
-389,292	-46,881	-0,053	-0,019
-388,277	131,876	0,028	0,026
-387,263	-89,569	0,123	0,026
-386,248	467,964	0,065	-0,107
-385,233	800,000	0,034	-0,083
-384,219	2,383	-0,060	-0,031
-383,204	570,967	-0,035	-0,061
-382,190	-200,000	-0,015	0,053
-381,175	349,209	0,052	-0,076
-380,160	-111,931	-0,098	0,014
-379,146	28,550	0,046	-0,028
-378,131	-200,000	0,007	0,047
-377,117	-95,663	0,088	0,017
-376,102	800,000	0,028	0,084
-375,088	-103,733	0,017	0,003
-374,073	-200,000	0,009	-0,097
-373,058	25,577	-0,022	0,013
-372,044	800,000	0,081	0,237
-371,029	-3,977	0,083	0,041
-370,015	246,316	0,045	0,056
-369,000	-200,000	-0,009	-0,035
-367,985	161,644	-0,124	-0,126
-366,971	-41,920	-0,117	-0,043
-365,956	547,441	0,013	-0,023
-364,942	79,708	-0,134	0,105
-363,927	-200,000	-0,014	0,055
-362,912	212,990	0,090	0,103
-361,898	50,731	0,024	-0,016
-360,883	800,000	0,026	0,057
-359,869	377,389	0,022	-0,032
-358,854	466,533	0,062	0,101
-357,839	-74,712	0,152	0,039
-356,825	24,319	0,012	0,007
-355,810	411,375	-0,040	-0,061
-354,796	42,338	-0,099	-0,065
-353,781	1,084	-0,089	-0,046
-352,766	91,012	-0,146	0,119
-351,752	-200,000	-0,006	-0,048
-350,737	25,917	-0,143	0,087
-349,723	-109,048	-0,048	0,007
-348,708	-200,000	-0,024	0,083
-347,693	-200,000	-0,002	-0,007
-346,679	1,240	0,039	-0,020
-345,664	-115,366	0,110	-0,015
-344,650	800,000	-0,020	0,060
-343,635	-108,239	-0,076	-0,012
-342,620	-200,000	0,003	-0,025
-341,606	-77,630	-0,158	-0,039
-340,591	646,480	0,051	-0,094
-339,577	-144,090	-0,077	0,005
-338,562	-200,000	0,038	-0,169
-337,548	126,415	-0,107	-0,098
-336,533	166,866	0,033	0,034
-335,518	-200,000	-0,020	0,094
-334,504	191,240	0,064	0,070
-333,489	146,864	-0,038	0,037
-332,475	315,944	-0,068	-0,093
-331,460	-63,378	-0,096	-0,028
-330,445	221,947	0,082	-0,096
-329,431	800,000	0,030	0,088
-328,416	800,000	0,029	0,061
-327,402	384,247	0,025	-0,038
-326,387	-18,429	-0,073	0,033
-325,372	-200,000	-0,031	0,188
-324,358	-200,000	0,016	0,051
-323,343	-200,000	-0,003	0,091
-322,329	-17,360	0,114	-0,052
-321,314	-78,943	0,169	-0,042
-320,299	-200,000	0,049	-0,173
-319,285	-71,636	-0,047	-0,013
-318,270	800,000	0,028	-0,074
-317,256	-44,069	-0,115	0,042
-316,241	-43,116	-0,044	-0,016
-315,226	379,920	-0,058	0,087
-314,212	102,187	0,061	-0,052
-313,197	77,258	-0,096	-0,074
-312,183	-3,346	-0,155	0,078
-311,168	-200,000	-0,009	0,058
-310,153	-178,797	-0,065	-0,001
-309,139	800,000	0,023	-0,065
-308,124	-200,000	-0,011	-0,115
-307,110	800,000	-0,066	0,148
-306,095	793,563	0,050	0,101
-305,080	73,261	0,031	0,023
-304,066	57,197	-0,025	0,017
-303,051	14,098	-0,094	-0,053
-302,037	63,220	-0,042	-0,031
-301,022	-7,676	0,074	-0,036
-300,008	-200,000	0,000	0,122
-298,993	567,999	-0,012	0,021
-297,978	-63,581	0,076	-0,023
-296,964	295,419	-0,044	0,058
-295,949	-200,000	0,030	-0,116
-294,935	-89,102	-0,151	-0,032
-293,920	406,556	-0,030	0,047
-292,905	672,630	0,028	0,052
-291,891	800,000	0,015	0,039
-290,876	800,000	0,022	0,062
-289,862	-12,695	-0,049	-0,023
-288,847	800,000	-0,034	0,093
-287,832	-152,222	-0,167	-0,009
-286,818	-200,000	0,001	0,018
-285,803	58,265	0,037	0,026
-284,789	-200,000	0,037	-0,132
-283,774	-79,219	0,191	0,046
-282,759	35,771	-0,112	0,071
-281,745	-200,000	-0,001	0,078
-280,730	-9,199	-0,077	-0,037
-279,716	-48,744	0,055	-0,019
-278,701	-200,000	0,020	0,105
-277,686	-200,000	-0,017	0,117
-276,672	-200,000	-0,013	-0,067
-275,657	-136,318	-0,142	0,012
-274,643	308,334	-0,025	0,034
-273,628	327,871	-0,036	-0,050
-272,613	-181,186	0,073	-0,001
-271,599	-23,874	-0,085	0,037
-270,584	92,029	0,064	-0,053
-269,570	-200,000	0,023	0,125
-268,555	362,769	-0,036	-0,052
-267,540	12,621	-0,178	-0,099
-266,526	800,000	-0,007	0,022
-265,511	17,778	0,103	-0,059
-264,497	14,062	0,102	-0,057
-263,482	337,604	0,042	-0,060
-262,467	37,497	-0,032	-0,021
-261,453	38,159	0,059	-0,038
-260,438	207,450	-0,032	0,036
-259,424	-148,605	0,138	0,008
-258,409	745,594	0,053	0,103
-257,395	49,778	0,078	-0,053
-256,380	290,955	0,083	0,110
-255,365	55,644	0,098	-0,069
-254,351	-200,000	0,000	-0,043
-253,336	55,107	0,025	0,017
-252,322	169,920	0,023	-0,023
-251,307	800,000	-0,010	-0,025
-250,292	-133,998	0,103	-0,009
-249,278	-56,122	0,143	0,046
-248,263	628,365	-0,037	0,068
-247,249	689,736	-0,024	0,045
-246,234	800,000	-0,021	0,048
-245,219	800,000	0,039	-0,097
-244,205	-154,110	-0,086	-0,004
-243,190	-66,874	0,043	0,012
-242,176	-200,000	0,012	0,046
-241,161	102,353	-0,054	0,046
-240,146	-127,146	0,092	-0,010
-239,132	800,000	-0,037	0,074
-238,117	-200,000	-0,051	-0,167
-237,103	84,631	-0,080	-0,063
-236,088	800,000	0,071	0,171
-235,073	496,919	0,050	-0,084
-234,059	120,239	-0,016	-0,015
-233,044	173,376	-0,095	0,099
-232,030	800,000	-0,002	0,007
-231,015	322,225	-0,110	-0,151
-230,000	-88,261	0,056	0,012
-228,986	134,419	-0,087	-0,082
-227,971	-112,950	0,276	0,039
-226,957	-200,000	0,005	0,139
-225,942	139,366	-0,070	0,066
-224,927	395,242	0,060	0,091
-223,913	18,354	0,076	-0,044
-222,898	77,859	-0,081	-0,062
-221,884	800,000	0,056	-0,155
-220,869	-13,668	0,163	0,076
-219,855	112,384	-0,002	-0,002
-218,840	20,700	0,073	0,042
-217,825	-116,862	0,062	0,008
-216,811	-200,000	-0,007	0,072
-215,796	-52,665	0,072	0,024
-214,782	-200,000	0,039	0,161
-213,767	800,000	0,046	0,103
-212,752	-200,000	-0,011	-0,050
-211,738	-70,609	0,130	0,035
-210,723	-200,000	0,015	0,092
-209,709	-200,000	0,022	0,085
-208,694	-200,000	-0,009	0,090
-207,679	-103,944	-0,103	-0,017
-206,665	706,163	0,044	-0,084
-205,650	-199,144	0,072	-0,000
-204,636	4,709	-0,005	0,003
-203,621	800,000	-0,026	0,054
-202,606	9,568	0,117	-0,064
-201,592	144,915	-0,134	-0,130
-200,577	-200,000	0,004	-0,046
-199,563	-200,000	-0,015	0,080
-198,548	-111,109	0,170	0,025
-197,533	77,102	-0,061	0,047
-196,519	-12,119	-0,034	0,016
-195,504	-200,000	0,009	-0,079
-194,490	800,000	-0,034	-0,070
-193,475	-124,214	0,104	-0,012
-192,460	-4,628	0,039	0,019
-191,446	-64,061	-0,065	0,019
-190,431	25,738	0,066	-0,040
-189,417	800,000	-0,033	-0,078
-188,402	61,890	-0,013	0,010
-187,387	-88,720	-0,047	-0,010
-186,373	800,000	0,005	-0,011
-185,358	571,025	0,046	-0,080
-184,344	169,996	0,021	0,021
-183,329	-200,000	0,013	0,171
-182,315	448,162	-0,028	0,045
-181,300	79,059	-0,090	0,069
-180,285	-92,277	-0,139	-0,028
-179,271	220,078	-0,061	-0,070
-178,256	82,441	0,108	-0,084
-177,242	-200,000	0,009	-0,075
-176,227	800,000	0,040	-0,104
-175,212	397,049	-0,015	-0,023
-174,198	142,765	-0,078	0,075
-173,183	50,955	-0,079	-0,054
-172,169	40,804	-0,037	0,024
-171,154	-200,000	0,029	-0,123
-170,139	-80,895	0,119	0,028
-169,125	244,402	0,084	0,101
-168,110	479,811	-0,048	-0,079
-167,096	98,205	0,127	0,105
-166,081	673,625	-0,043	0,082
-165,066	-153,142	-0,147	0,007
-164,052	-55,788	-0,079	-0,025
-163,037	92,379	-0,042	0,034
-162,023	588,672	0,091	0,162
-161,008	57,738	0,093	-0,065
-159,993	-91,333	0,071	0,015
-158,979	37,228	-0,103	-0,066
-157,964	-140,109	-0,074	0,006
-156,950	800,000	0,017	0,045
-155,935	-95,176	-0,153	0,029
-154,920	103,998	0,087	-0,074
-153,906	292,955	0,055	0,073
-152,891	-166,438	-0,042	-0,001
-151,877	-200,000	-0,017	0,072
-150,862	195,362	-0,043	0,047
-149,847	-110,993	0,192	-0,028
-148,833	157,724	-0,035	0,035
-147,818	191,107	0,085	-0,093
-146,804	251,069	-0,053	0,066
-145,789	59,104	-0,086	0,061
-144,775	800,000	-0,051	-0,107
-143,760	31,785	0,078	-0,048
-142,745	-101,747	-0,108	0,019
-141,731	112,354	-0,058	-0,051
-140,716	435,106	-0,030	0,048
-139,702	-95,112	-0,087	-0,017
-138,687	28,582	0,062	0,038
-137,672	182,721	0,066	0,071
-136,658	-76,036	-0,042	-0,011
-135,643	129,104	-0,047	-0,043
-134,629	-19,464	-0,087	0,039
-133,614	175,571	0,073	-0,076
-132,599	94,709	0,018	-0,014
-131,585	800,000	0,048	0,126
-130,570	-8,188	0,045	-0,022
-129,556	127,976	0,047	-0,043
-128,541	-150,735	-0,276	-0,015
-127,526	800,000	-0,034	-0,091
-126,512	104,295	0,102	0,086
-125,497	-45,500	-0,109	-0,039
-124,483	-106,073	0,095	-0,015
-123,468	732,693	-0,062	0,121
-122,453	-200,000	-0,010	-0,116
-121,439	800,000	-0,021	-0,044
-120,424	90,940	0,058	-0,047
-119,410	-200,000	-0,023	0,077
