DTS Sentinel unit serial number:	SN410029Multiplexer serial number:	ORYXHardware model number:	OX2-SRSoftware version number:	ORYX F/W v4,00 Oryx Data Collector v3.7.2.0data status	okinstallation	B5 Nyhavnadifferential loss correction	single-endedforward channel	channel 2reverse channel	N/Adate	2023/12/12time	12:12:13forward acquisition time	300,00reverse acquisition time	0,00gamma	499,1914k internal	0,3158k external	0,3158temperature offset calibration	1,0000default loss term (dB/km)	0,3820temperature slope calibration	1,0000multiplexer offset coefficient	1,0000multiplexer slope coefficient	1,0000fibre end	0,00T internal ref (°C)	15,24T ext. ref 1 (°C)	-0,67T ext. ref 2 (°C)	-0,94length (m)	temperature (°C)	Stokes	anti-Stokes-744,400	-50,044	0,070	0,024
-743,385	-194,475	-0,405	-0,002
-742,371	-61,462	0,140	-0,043
-741,356	-124,756	-0,184	-0,021
-740,342	393,019	0,039	0,059
-739,327	-155,778	-0,379	-0,018
-738,312	545,308	0,028	-0,050
-737,298	-59,699	-0,315	0,099
-736,283	-127,225	0,099	0,011
-735,269	-155,803	-0,191	0,009
-734,254	800,000	-0,033	0,103
-733,239	-63,867	-0,588	-0,176
-732,225	-55,674	0,157	0,051
-731,210	411,393	0,028	-0,044
-730,196	-200,000	-0,004	0,101
-729,181	92,688	-0,053	-0,044
-728,167	-70,039	-0,096	0,027
-727,152	214,475	0,050	-0,058
-726,137	-102,700	-0,074	0,013
-725,123	25,940	0,001	-0,001
-724,108	-200,000	0,019	-0,086
-723,094	-45,332	-0,103	-0,037
-722,079	-200,000	-0,001	-0,044
-721,064	333,359	0,082	-0,117
-720,050	-36,744	-0,017	0,007
-719,035	-188,856	0,106	0,001
-718,021	458,845	-0,066	-0,109
-717,006	-80,356	-0,144	-0,035
-715,991	-82,398	-0,170	-0,040
-714,977	-7,809	-0,099	-0,049
-713,962	-123,371	-0,108	-0,013
-712,948	-200,000	-0,004	0,053
-711,933	800,000	-0,029	0,059
-710,918	315,174	-0,083	0,115
-709,904	109,683	-0,125	-0,110
-708,889	107,996	-0,041	0,036
-707,875	71,005	0,076	-0,058
-706,860	111,171	-0,077	0,068
-705,845	-200,000	-0,017	0,126
-704,831	-200,000	0,011	0,063
-703,816	-200,000	-0,032	0,184
-702,802	245,233	-0,008	0,010
-701,787	800,000	-0,035	-0,099
-700,772	327,693	0,046	-0,066
-699,758	-110,837	-0,124	0,019
-698,743	273,715	0,050	-0,066
-697,729	-76,529	-0,126	0,032
-696,714	-200,000	-0,003	-0,079
-695,699	-22,261	-0,046	0,021
-694,685	-89,552	-0,113	0,024
-693,670	800,000	0,043	-0,103
-692,656	-84,858	0,095	-0,022
-691,641	-200,000	0,015	-0,092
-690,627	800,000	-0,014	-0,034
-689,612	6,544	0,043	0,023
-688,597	113,607	-0,094	-0,084
-687,583	-200,000	-0,006	0,090
-686,568	34,933	-0,107	0,069
-685,554	301,966	0,046	0,063
-684,539	-30,942	0,105	0,043
-683,524	-200,000	-0,012	-0,126
-682,510	-200,000	0,033	0,121
-681,495	630,831	0,060	-0,113
-680,481	-54,623	-0,119	-0,039
-679,466	-87,881	-0,078	0,017
-678,451	-142,899	-0,082	-0,006
-677,437	-200,000	-0,030	0,155
-676,422	160,582	0,099	-0,102
-675,408	800,000	-0,050	-0,128
-674,393	332,456	0,033	0,047
-673,378	374,354	0,048	0,072
-672,364	-109,382	0,067	-0,010
-671,349	-150,449	-0,150	-0,008
-670,335	133,451	0,075	-0,072
-669,320	800,000	-0,048	-0,124
-668,305	-200,000	-0,018	-0,077
-667,291	-17,955	-0,065	-0,030
-666,276	-200,000	0,034	0,172
-665,262	-43,980	-0,147	-0,054
-664,247	-108,967	-0,153	0,024
-663,232	-104,410	0,166	-0,028
-662,218	278,941	-0,082	0,108
-661,203	214,330	-0,035	0,041
-660,189	332,232	-0,089	0,127
-659,174	276,351	-0,058	0,076
-658,159	75,610	-0,060	-0,046
-657,145	264,550	-0,072	-0,092
-656,130	321,493	0,036	-0,051
-655,116	-200,000	0,019	0,105
-654,101	-98,368	0,010	0,002
-653,086	800,000	-0,043	-0,100
-652,072	723,940	-0,047	0,092
-651,057	-179,396	0,043	-0,001
-650,043	-200,000	-0,003	0,112
-649,028	-200,000	-0,037	-0,123
-648,014	590,679	0,036	0,066
-646,999	800,000	0,063	0,168
-645,984	109,607	-0,060	-0,053
-644,970	-104,727	-0,065	-0,011
-643,955	-7,001	0,012	0,006
-642,941	800,000	-0,049	0,110
-641,926	-116,214	-0,057	0,008
-640,911	-21,235	0,151	0,067
-639,897	-200,000	0,033	0,148
-638,882	77,488	0,140	0,109
-637,868	-149,942	-0,129	-0,007
-636,853	-65,082	-0,140	-0,041
-635,838	-200,000	0,047	-0,202
-634,824	-85,887	-0,089	0,020
-633,809	-6,479	-0,049	-0,024
-632,795	800,000	0,059	0,186
-631,780	633,604	0,077	0,144
-630,765	800,000	0,030	-0,068
-629,751	295,548	-0,091	-0,122
-628,736	330,996	0,028	-0,040
-627,722	-64,531	-0,123	-0,037
-626,707	2,452	-0,101	0,053
-625,692	-83,939	0,109	0,025
-624,678	-58,446	-0,118	0,037
-623,663	134,921	-0,025	0,023
-622,649	-76,186	0,064	-0,017
-621,634	48,997	-0,155	0,107
-620,619	-200,000	0,018	-0,174
-619,605	61,106	-0,053	-0,038
-618,590	-53,055	-0,067	-0,022
-617,576	97,242	-0,029	0,024
-616,561	-5,616	-0,103	-0,052
-615,546	-200,000	0,030	0,123
-614,532	-78,712	-0,045	0,011
-613,517	-9,458	-0,160	-0,078
-612,503	-200,000	-0,017	-0,059
-611,488	-200,000	-0,005	-0,085
-610,474	-133,204	-0,082	0,008
-609,459	800,000	-0,042	0,089
-608,444	-200,000	-0,010	0,046
-607,430	80,931	0,041	-0,032
-606,415	40,990	-0,164	-0,108
-605,401	66,141	0,025	0,019
-604,386	-154,395	0,062	0,003
-603,371	369,723	0,100	0,149
-602,357	49,913	-0,074	0,051
-601,342	287,868	-0,076	0,101
-600,328	8,328	-0,056	-0,031
-599,313	800,000	0,066	-0,203
-598,298	450,021	0,017	-0,027
-597,284	54,282	-0,064	-0,045
-596,269	-200,000	-0,046	-0,166
-595,255	4,078	0,186	-0,100
-594,240	800,000	-0,030	0,074
-593,225	-7,132	-0,072	0,036
-592,211	102,634	0,049	-0,042
-591,196	-100,618	-0,104	-0,019
-590,182	-200,000	-0,023	-0,121
-589,167	800,000	0,035	0,105
-588,152	183,614	-0,131	0,142
-587,138	-200,000	-0,022	0,096
-586,123	800,000	0,038	0,103
-585,109	165,001	-0,093	-0,096
-584,094	276,661	-0,100	-0,130
-583,079	-55,902	0,118	-0,038
-582,065	-200,000	-0,012	0,050
-581,050	167,368	-0,108	0,112
-580,036	-200,000	0,040	0,182
-579,021	-200,000	-0,011	0,040
-578,006	23,169	0,130	-0,078
-576,992	-200,000	-0,005	-0,059
-575,977	-200,000	-0,005	-0,040
-574,963	264,837	-0,081	0,103
-573,948	800,000	-0,045	0,092
-572,934	430,015	-0,051	-0,082
-571,919	-200,000	-0,047	-0,192
-570,904	800,000	0,064	-0,184
-569,890	18,541	-0,086	0,050
-568,875	86,061	0,098	0,079
-567,861	-57,437	0,057	-0,018
-566,846	-194,756	0,048	-0,000
-565,831	-27,791	-0,178	0,075
-564,817	110,346	-0,121	-0,106
-563,802	2,846	-0,073	-0,039
-562,788	-89,548	-0,117	-0,025
-561,773	274,185	0,066	0,086
-560,758	114,157	0,077	-0,069
-559,744	2,757	0,042	-0,022
-558,729	-127,842	0,073	-0,008
-557,715	321,795	0,049	-0,068
-556,700	-106,047	0,053	-0,009
-555,685	78,042	-0,055	-0,043
-554,671	-158,987	-0,054	0,002
-553,656	602,260	0,033	0,061
-552,642	733,844	0,051	-0,100
-551,627	-200,000	-0,012	-0,068
-550,612	485,902	-0,038	-0,064
-549,598	-54,805	-0,046	-0,015
-548,583	-139,387	-0,097	0,008
-547,569	595,466	0,022	0,040
-546,554	54,214	0,084	0,059
-545,539	800,000	0,046	-0,094
-544,525	800,000	0,021	-0,054
-543,510	364,617	-0,092	-0,136
-542,496	68,633	-0,111	-0,083
-541,481	208,726	0,022	-0,025
-540,466	-94,908	0,132	0,026
-539,452	160,264	0,042	0,043
-538,437	-133,251	-0,116	0,011
-537,423	-83,107	-0,046	-0,011
-536,408	67,466	0,053	-0,039
-535,393	800,000	-0,031	-0,067
-534,379	111,548	0,018	0,016
-533,364	-200,000	0,002	0,061
-532,350	86,686	0,075	0,061
-531,335	398,841	0,044	0,068
-530,321	800,000	0,034	0,089
-529,306	141,526	-0,149	0,144
-528,291	73,556	0,132	-0,101
-527,277	4,143	-0,054	0,029
-526,262	-186,922	-0,137	0,001
-525,248	67,724	0,090	-0,067
-524,233	190,044	0,139	0,153
-523,218	161,561	-0,122	0,124
-522,204	-9,483	0,079	0,038
-521,189	56,987	-0,059	-0,042
-520,175	56,581	0,120	-0,085
-519,160	1,023	-0,041	0,022
-518,145	247,133	0,079	-0,098
-517,131	-129,545	-0,110	-0,011
-516,116	252,106	0,044	0,055
-515,102	-32,694	0,108	0,044
-514,087	-141,270	0,036	-0,003
-513,072	-18,208	-0,112	-0,051
-512,058	-181,069	0,041	-0,001
-511,043	-12,146	-0,162	0,077
-510,029	-94,331	0,025	-0,005
-509,014	-3,037	-0,029	-0,015
-507,999	-52,596	-0,019	-0,007
-506,985	239,809	-0,048	-0,059
-505,970	-85,707	-0,067	0,015
-504,956	-90,008	-0,118	0,025
-503,941	745,486	-0,004	-0,009
-502,926	-65,871	0,059	-0,017
-501,912	597,068	-0,049	0,089
-500,897	188,485	0,065	0,071
-499,883	-133,578	-0,108	0,010
-498,868	195,300	-0,032	-0,036
-497,853	-118,592	-0,028	-0,004
-496,839	-200,000	0,015	-0,114
-495,824	800,000	0,032	-0,070
-494,810	-200,000	-0,018	-0,112
-493,795	354,648	0,045	-0,066
-492,781	725,897	-0,065	0,128
-491,766	-11,857	-0,088	-0,042
-490,751	342,177	0,047	0,067
-489,737	-49,894	-0,013	-0,005
-488,722	-200,000	-0,029	0,181
-487,708	167,826	0,094	0,098
-486,693	39,092	-0,067	0,044
-485,678	800,000	-0,061	0,131
-484,664	178,271	-0,059	0,063
-483,649	-200,000	-0,014	-0,049
-482,635	800,000	-0,027	-0,084
-481,620	122,876	-0,032	0,029
-480,605	-78,149	0,167	0,042
-479,591	371,876	0,024	0,035
-478,576	-50,841	0,010	-0,003
-477,562	-57,767	-0,069	-0,022
-476,547	-113,007	-0,084	-0,012
-475,532	-200,000	-0,029	-0,100
-474,518	-200,000	0,011	-0,085
-473,503	472,542	-0,032	-0,053
-472,489	59,735	0,180	0,129
-471,474	-187,129	0,105	-0,001
-470,459	800,000	-0,038	0,120
-469,445	210,449	0,078	-0,089
-468,430	-40,239	0,048	-0,018
-467,416	277,945	0,047	0,061
-466,401	-200,000	0,018	0,112
-465,386	160,772	-0,070	0,071
-464,372	-155,644	0,097	-0,004
-463,357	-35,931	-0,133	-0,052
-462,343	800,000	0,035	-0,086
-461,328	-95,245	0,074	-0,014
-460,313	183,785	0,126	-0,136
-459,299	7,317	-0,040	-0,022
-458,284	800,000	0,034	-0,072
-457,270	589,742	-0,081	0,147
-456,255	58,688	-0,072	0,051
-455,241	800,000	0,039	-0,102
-454,226	-41,762	0,101	-0,038
-453,211	257,147	-0,066	0,083
-452,197	23,646	0,175	0,105
-451,182	-200,000	-0,022	0,104
-450,168	213,754	-0,080	-0,092
-449,153	206,855	0,134	0,152
-448,138	800,000	-0,014	0,039
-447,124	390,117	0,060	-0,091
-446,109	-200,000	-0,004	-0,080
-445,095	205,713	0,092	0,105
-444,080	7,611	0,078	-0,042
-443,065	459,689	-0,082	0,133
-442,051	-200,000	0,014	0,077
-441,036	356,689	-0,141	-0,205
-440,022	-68,949	-0,235	-0,066
-439,007	102,748	0,120	-0,102
-437,992	402,958	-0,040	-0,062
-436,978	17,384	0,140	0,081
-435,963	90,501	0,018	-0,015
-434,949	-16,640	-0,023	0,010
-433,934	37,464	0,046	0,030
-432,919	-137,506	0,065	0,005
-431,905	-41,786	0,108	0,040
-430,890	-95,009	0,064	-0,012
-429,876	-103,900	0,043	-0,007
-428,861	317,812	0,008	-0,012
-427,846	348,507	-0,017	-0,025
-426,832	-159,504	0,012	-0,000
-425,817	-139,870	-0,072	-0,005
-424,803	205,997	-0,019	-0,021
-423,788	-57,336	0,070	0,022
-422,773	309,273	0,072	-0,098
-421,759	-200,000	0,005	-0,032
-420,744	-200,000	0,014	-0,094
-419,730	170,285	-0,021	0,022
-418,715	110,315	0,053	-0,046
-417,701	114,510	-0,059	0,052
-416,686	560,910	-0,055	-0,098
-415,671	800,000	-0,058	-0,125
-414,657	-121,002	0,119	-0,014
-413,642	206,293	0,101	0,114
-412,628	-65,500	-0,033	-0,009
-411,613	168,818	-0,065	-0,067
-410,598	116,535	0,065	0,058
-409,584	304,270	0,089	0,120
-408,569	-200,000	-0,013	0,162
-407,555	800,000	0,049	0,101
-406,540	157,250	0,072	0,073
-405,525	178,386	0,042	-0,045
-404,511	-158,178	-0,086	-0,004
-403,496	500,617	0,035	0,059
-402,482	17,693	0,058	0,034
-401,467	-200,000	0,012	0,121
-400,452	-6,126	0,033	-0,016
-399,438	127,177	-0,059	-0,054
-398,423	800,000	-0,028	-0,078
-397,409	-200,000	0,007	-0,088
-396,394	-131,072	-0,109	-0,010
-395,379	-93,529	-0,027	-0,005
-394,365	756,472	0,047	0,093
-393,350	87,577	0,093	0,075
-392,336	119,334	-0,047	-0,042
-391,321	-200,000	-0,012	-0,047
-390,306	265,804	-0,122	-0,155
-389,292	314,074	0,040	-0,055
-388,277	-54,240	-0,088	0,029
-387,263	800,000	0,005	-0,011
-386,248	-200,000	-0,010	0,050
-385,233	1,432	0,038	-0,020
-384,219	-54,854	-0,111	0,036
-383,204	17,179	-0,030	-0,017
-382,190	-200,000	-0,002	0,019
-381,175	472,934	0,045	-0,073
-380,160	800,000	0,031	0,095
-379,146	295,348	0,086	0,115
-378,131	-125,085	0,152	0,017
-377,117	-70,636	0,066	-0,018
-376,102	132,758	0,053	-0,050
-375,088	-143,851	-0,125	-0,008
-374,073	735,375	0,095	-0,186
-373,058	-200,000	0,032	-0,123
-372,044	24,529	0,075	-0,045
-371,029	-38,129	0,127	0,049
-370,015	-71,667	-0,132	0,035
-369,000	-200,000	-0,007	-0,090
-367,985	-122,236	-0,091	-0,011
-366,971	-109,753	0,101	0,015
-365,956	76,216	-0,142	0,109
-364,942	7,470	0,175	-0,095
-363,927	4,411	0,050	0,026
-362,912	-156,642	-0,092	0,004
-361,898	800,000	-0,041	-0,084
-360,883	-200,000	0,038	-0,175
-359,869	140,110	-0,077	-0,073
-358,854	91,250	-0,084	0,068
-357,839	3,709	-0,026	-0,014
-356,825	-29,633	0,020	-0,008
-355,810	38,446	0,006	-0,004
-354,796	-200,000	0,051	-0,173
-353,781	-35,199	-0,053	-0,021
-352,766	17,245	-0,088	0,050
-351,752	714,347	0,081	0,157
-350,737	-200,000	0,001	-0,160
-349,723	-70,288	0,050	-0,014
-348,708	-200,000	0,007	0,051
-347,693	-200,000	0,018	0,088
-346,679	128,360	-0,084	0,077
-345,664	-21,137	0,092	0,041
-344,650	306,611	-0,035	0,048
-343,635	132,095	0,058	0,055
-342,620	386,603	0,035	0,053
-341,606	778,986	0,034	0,067
-340,591	-3,958	0,059	0,030
-339,577	-104,121	-0,212	-0,035
-338,562	104,385	0,090	-0,077
-337,548	334,449	0,095	0,134
-336,533	209,332	0,030	0,034
-335,518	-200,000	-0,006	0,065
-334,504	-111,054	0,141	0,021
-333,489	800,000	-0,047	0,144
-332,475	-200,000	-0,002	0,031
-331,460	372,573	0,041	-0,061
-330,445	-25,954	0,120	-0,051
-329,431	715,617	-0,021	0,040
-328,416	193,532	-0,056	0,062
-327,402	-74,455	-0,070	0,018
-326,387	-105,664	-0,163	0,026
-325,372	-29,450	0,098	-0,041
-324,358	800,000	-0,039	-0,116
-323,343	800,000	-0,015	-0,034
-322,329	60,110	-0,094	-0,067
-321,314	29,141	0,099	-0,061
-320,299	-200,000	0,018	0,060
-319,285	-44,472	-0,076	-0,027
-318,270	-200,000	0,022	-0,130
-317,256	-200,000	-0,019	-0,234
-316,241	-5,856	-0,066	-0,033
-315,226	-33,549	-0,138	0,055
-314,212	15,948	0,107	0,061
-313,197	53,398	0,020	-0,014
-312,183	-200,000	0,016	-0,131
-311,168	-142,334	-0,119	-0,008
-310,153	-90,976	-0,086	-0,018
-309,139	-200,000	0,031	0,127
-308,124	688,136	-0,025	0,047
-307,110	745,712	0,054	0,107
-306,095	-158,552	-0,096	-0,004
-305,080	-200,000	-0,001	-0,037
-304,066	-148,145	-0,030	-0,002
-303,051	789,774	-0,063	0,127
-302,037	53,071	-0,086	0,059
-301,022	-129,833	0,057	0,006
-300,008	-200,000	0,011	-0,089
-298,993	188,385	-0,059	0,064
-297,978	122,539	0,057	-0,051
-296,964	800,000	0,029	-0,073
-295,949	-12,751	0,035	0,016
-294,935	-65,340	-0,043	-0,013
-293,920	582,804	0,121	0,216
-292,905	-90,540	-0,024	0,005
-291,891	-65,550	0,109	0,031
-290,876	-55,505	0,125	0,040
-289,862	101,097	0,095	0,080
-288,847	677,216	-0,066	-0,125
-287,832	399,134	0,046	0,070
-286,818	195,999	0,162	0,179
-285,803	-200,000	0,005	-0,044
-284,789	357,262	0,079	0,115
-283,774	152,336	-0,074	0,074
-282,759	-200,000	0,010	-0,065
-281,745	-76,686	0,174	0,044
-280,730	-81,054	-0,062	0,015
-279,716	667,632	0,039	-0,073
-278,701	-130,834	0,067	0,006
-277,686	659,126	0,047	-0,088
-276,672	185,093	-0,064	-0,068
-275,657	149,218	-0,009	0,008
-274,643	-200,000	-0,017	-0,107
-273,628	800,000	0,024	-0,056
-272,613	-119,344	-0,092	0,011
-271,599	549,304	0,018	-0,031
-270,584	-200,000	0,001	0,022
-269,570	292,470	-0,025	0,033
-268,555	-200,000	0,003	0,104
-267,540	-200,000	-0,005	-0,024
-266,526	99,911	-0,127	-0,107
-265,511	-146,148	0,017	0,001
-264,497	54,378	0,158	-0,110
-263,482	-27,437	0,067	-0,028
-262,467	-102,192	0,127	0,022
-261,453	444,369	-0,075	-0,120
-260,438	248,984	-0,058	0,071
-259,424	-200,000	0,026	0,091
-258,409	775,869	-0,014	-0,027
-257,395	151,059	0,014	0,014
-256,380	-200,000	0,035	0,129
-255,365	86,600	0,073	0,058
-254,351	-23,811	0,096	0,041
-253,336	-200,000	0,047	-0,158
-252,322	-112,773	0,087	-0,012
-251,307	96,969	-0,040	0,033
-250,292	-200,000	-0,009	-0,054
-249,278	-18,883	0,031	-0,014
-248,263	465,281	-0,035	-0,057
-247,249	-200,000	0,017	0,102
-246,234	-200,000	0,033	0,144
-245,219	-155,186	-0,119	-0,006
-244,205	-46,288	0,064	0,023
-243,190	-35,033	0,114	0,045
-242,176	11,217	-0,130	-0,072
-241,161	10,149	0,135	-0,074
-240,146	38,875	-0,098	0,063
-239,132	-66,524	-0,208	0,059
-238,117	-51,038	0,083	0,028
-237,103	800,000	0,011	-0,031
-236,088	166,557	0,084	0,087
-235,073	63,373	-0,075	-0,054
-234,059	800,000	0,023	0,060
-233,044	-36,376	0,027	-0,011
-232,030	-200,000	0,014	-0,064
-231,015	-200,000	-0,007	0,076
-230,000	800,000	-0,032	-0,089
-228,986	-112,541	-0,067	0,010
-227,971	-16,215	-0,081	-0,037
-226,957	-58,233	0,080	-0,025
-225,942	-155,404	0,142	-0,007
-224,927	-117,825	-0,177	0,023
-223,913	800,000	-0,036	-0,078
-222,898	146,533	0,059	0,057
-221,884	-200,000	-0,024	0,169
-220,869	-43,471	-0,056	0,020
-219,855	-118,598	0,115	-0,015
-218,840	-103,429	0,101	0,017
-217,825	-134,344	-0,046	-0,004
-216,811	36,712	-0,070	-0,045
-215,796	327,091	-0,035	-0,048
-214,782	179,133	-0,109	-0,116
-213,767	-29,378	0,071	0,029
-212,752	800,000	0,062	0,159
-211,738	454,465	-0,096	0,154
-210,723	800,000	0,018	0,047
-209,709	-78,987	-0,084	-0,020
-208,694	119,040	-0,099	-0,088
-207,679	108,652	-0,095	-0,082
-206,665	140,392	0,018	0,018
-205,650	382,633	-0,007	0,011
-204,636	36,023	0,109	0,069
-203,621	263,831	-0,051	-0,064
-202,606	347,308	0,034	0,048
-201,592	187,207	0,067	-0,072
-200,577	137,418	0,051	-0,049
-199,563	15,915	-0,025	-0,014
-198,548	94,152	0,074	0,061
-197,533	0,805	0,083	-0,043
-196,519	12,000	0,111	0,062
-195,504	50,320	-0,025	-0,017
-194,490	69,881	0,066	0,049
-193,475	3,005	-0,162	-0,085
-192,460	-26,729	-0,065	-0,027
-191,446	407,894	0,040	-0,061
-190,431	800,000	0,081	0,178
-189,417	428,675	-0,048	-0,074
-188,402	800,000	0,044	0,128
-187,387	800,000	-0,039	-0,096
-186,373	416,516	-0,084	-0,130
-185,358	-138,098	0,065	0,005
-184,344	-200,000	0,003	0,192
-183,329	-20,634	0,116	0,051
-182,315	19,242	-0,110	-0,063
-181,300	96,293	-0,074	0,061
-180,285	-65,782	0,083	0,024
-179,271	333,895	-0,047	-0,066
-178,256	23,637	-0,034	-0,020
-177,242	-132,535	-0,165	0,015
-176,227	800,000	0,009	-0,028
-175,212	800,000	-0,021	0,042
-174,198	-191,220	-0,155	-0,001
-173,183	76,092	0,087	-0,067
-172,169	800,000	-0,037	-0,086
-171,154	667,857	-0,041	-0,076
-170,139	51,121	0,127	-0,087
-169,125	-140,254	-0,034	-0,003
-168,110	-182,663	0,133	0,002
-167,096	260,394	0,030	0,038
-166,081	800,000	-0,033	-0,080
-165,066	800,000	-0,028	-0,077
-164,052	-66,409	-0,081	-0,023
-163,037	-89,499	0,089	0,019
-162,023	417,322	0,025	-0,039
-161,008	800,000	0,039	-0,092
-159,993	390,582	-0,038	-0,058
-158,979	-117,002	0,020	0,003
-157,964	527,028	0,012	-0,020
-156,950	168,736	0,076	-0,078
-155,935	-200,000	0,011	0,086
-154,920	-200,000	0,012	0,040
-153,906	494,101	0,028	-0,046
-152,891	189,962	0,110	0,119
-151,877	-154,918	-0,161	0,008
-150,862	-100,514	-0,074	-0,013
-149,847	549,328	-0,056	-0,097
-148,833	-200,000	0,041	0,179
-147,818	800,000	0,035	0,080
-146,804	-8,011	0,130	-0,063
-145,789	1,052	-0,062	0,032
-144,775	711,458	-0,041	-0,078
-143,760	189,901	0,038	-0,041
-142,745	188,589	0,038	-0,041
-141,731	6,702	-0,049	0,026
-140,716	-200,000	0,013	-0,063
-139,702	-84,533	0,074	-0,017
-138,687	-200,000	0,041	0,155
-137,672	-200,000	-0,009	0,043
-136,658	-113,365	-0,157	0,022
-135,643	-154,382	-0,148	-0,007
-134,629	-200,000	-0,022	-0,186
-133,614	-83,609	-0,026	-0,006
-132,599	-52,479	-0,028	-0,009
-131,585	-200,000	0,011	0,034
-130,570	324,433	-0,064	-0,088
-129,556	230,345	-0,102	-0,120
-128,541	800,000	-0,057	-0,130
-127,526	48,756	0,074	0,050
-126,512	31,851	-0,111	0,069
-125,497	-85,171	0,052	-0,012
-124,483	-163,002	-0,112	0,004
-123,468	-200,000	-0,004	-0,058
-122,453	800,000	-0,092	-0,186
-121,439	-90,956	-0,199	0,041
-120,424	-194,118	0,086	0,000
-119,410	800,000	0,017	-0,040
