DTS Sentinel unit serial number:	SN410029Multiplexer serial number:	ORYXHardware model number:	OX2-SRSoftware version number:	ORYX F/W v4,00 Oryx Data Collector v3.7.2.0data status	okinstallation	B5 Nyhavnadifferential loss correction	single-endedforward channel	channel 2reverse channel	N/Adate	2023/12/14time	08:17:13forward acquisition time	300,00reverse acquisition time	0,00gamma	499,1914k internal	0,3160k external	0,3160temperature offset calibration	1,0000default loss term (dB/km)	0,3820temperature slope calibration	1,0000multiplexer offset coefficient	1,0000multiplexer slope coefficient	1,0000fibre end	0,00T internal ref (°C)	7,06T ext. ref 1 (°C)	-9,16T ext. ref 2 (°C)	-9,25length (m)	temperature (°C)	Stokes	anti-Stokes-744,400	-131,966	0,223	-0,021
-743,385	-81,266	-0,318	-0,077
-742,371	15,027	0,131	0,075
-741,356	-84,421	-0,281	-0,065
-740,342	-65,388	0,214	-0,063
-739,327	-23,138	-0,393	-0,173
-738,312	-20,858	0,104	-0,047
-737,298	-44,875	-0,451	-0,165
-736,283	-128,360	0,110	0,011
-735,269	-74,768	-0,372	-0,098
-734,254	270,697	0,111	0,144
-733,239	8,280	-0,570	-0,314
-732,225	-42,177	0,203	0,076
-731,210	-200,000	0,000	-0,045
-730,196	42,311	-0,064	-0,043
-729,181	-200,000	-0,012	-0,044
-728,167	53,956	0,145	-0,103
-727,152	288,528	-0,084	0,113
-726,137	13,796	-0,095	-0,054
-725,123	-77,190	-0,078	-0,020
-724,108	10,909	-0,075	-0,042
-723,094	176,429	-0,107	0,115
-722,079	-200,000	-0,024	0,094
-721,064	-92,779	0,067	-0,014
-720,050	15,443	-0,133	0,077
-719,035	-92,270	0,048	-0,010
-718,021	-37,045	-0,114	-0,045
-717,006	-30,176	-0,103	-0,043
-715,991	-38,015	-0,189	-0,074
-714,977	-200,000	-0,035	-0,219
-713,962	-96,420	0,120	-0,023
-712,948	-130,800	-0,031	0,003
-711,933	-200,000	0,012	-0,081
-710,918	-70,367	-0,069	0,019
-709,904	-200,000	0,010	0,057
-708,889	191,865	-0,103	-0,115
-707,875	345,488	0,048	-0,069
-706,860	-39,657	-0,032	0,012
-705,845	-124,288	0,137	-0,016
-704,831	-103,683	0,061	0,010
-703,816	535,811	0,030	-0,053
-702,802	-62,729	-0,059	0,018
-701,787	800,000	-0,080	-0,166
-700,772	-200,000	-0,016	0,149
-699,758	121,739	-0,010	-0,009
-698,743	0,161	0,126	0,066
-697,729	96,407	-0,077	0,065
-696,714	146,985	0,049	0,048
-695,699	-55,230	-0,088	-0,029
-694,685	72,296	-0,099	0,076
-693,670	-200,000	0,016	-0,074
-692,656	-43,685	-0,094	0,035
-691,641	-200,000	0,024	0,082
-690,627	-94,016	-0,049	0,010
-689,612	11,738	0,099	0,056
-688,597	-200,000	0,018	0,114
-687,583	800,000	-0,031	-0,100
-686,568	52,284	-0,084	-0,059
-685,554	-41,272	0,065	-0,025
-684,539	800,000	0,019	-0,051
-683,524	4,659	-0,081	-0,044
-682,510	-200,000	-0,009	-0,096
-681,495	-200,000	-0,001	-0,127
-680,481	-74,288	-0,204	0,054
-679,466	-200,000	0,014	-0,104
-678,451	113,333	0,017	-0,016
-677,437	749,639	0,058	0,115
-676,422	800,000	0,024	-0,077
-675,408	-200,000	0,006	-0,177
-674,393	6,505	0,077	0,042
-673,378	-142,071	-0,054	-0,004
-672,364	-89,966	-0,149	-0,032
-671,349	248,762	-0,037	-0,046
-670,335	51,408	0,033	0,023
-669,320	-54,940	0,109	0,036
-668,305	231,638	0,039	-0,048
-667,291	42,155	-0,085	0,057
-666,276	461,668	-0,050	0,083
-665,262	580,569	-0,056	-0,102
-664,247	-145,065	-0,061	-0,004
-663,232	212,214	0,037	0,043
-662,218	800,000	-0,046	-0,095
-661,203	363,022	-0,070	0,103
-660,189	173,753	-0,059	0,063
-659,174	40,329	-0,125	-0,082
-658,159	114,904	-0,081	-0,073
-657,145	-200,000	0,010	-0,036
-656,130	-200,000	0,006	0,078
-655,116	800,000	0,044	0,123
-654,101	81,989	-0,095	0,075
-653,086	-42,958	0,088	-0,033
-652,072	-10,245	-0,228	0,111
-651,057	800,000	-0,034	-0,070
-650,043	-175,603	-0,155	0,003
-649,028	-52,933	0,148	0,050
-648,014	-27,507	-0,028	0,012
-646,999	-200,000	0,034	-0,122
-645,984	721,740	0,052	-0,101
-644,970	-131,308	-0,114	0,011
-643,955	202,474	0,037	0,042
-642,941	800,000	0,074	-0,191
-641,926	87,932	0,020	-0,016
-640,911	-116,648	0,124	0,017
-639,897	30,490	0,076	0,047
-638,882	245,306	0,050	-0,061
-637,868	-200,000	0,006	0,155
-636,853	-200,000	0,007	0,086
-635,838	-21,228	-0,170	0,076
-634,824	123,024	-0,020	0,018
-633,809	325,643	0,040	0,056
-632,795	800,000	-0,036	0,083
-631,780	-200,000	0,036	0,151
-630,765	14,481	-0,072	-0,041
-629,751	79,767	-0,039	-0,031
-628,736	76,076	-0,135	0,105
-627,722	-17,626	-0,049	-0,023
-626,707	-200,000	0,002	-0,105
-625,692	800,000	0,053	-0,115
-624,678	-200,000	-0,016	0,058
-623,663	800,000	0,049	-0,104
-622,649	49,813	0,057	0,040
-621,634	577,054	-0,077	-0,139
-620,619	800,000	-0,038	-0,085
-619,605	34,287	-0,026	0,016
-618,590	497,634	-0,049	0,082
-617,576	141,365	-0,079	-0,077
-616,561	291,323	0,052	0,069
-615,546	104,027	-0,108	0,093
-614,532	81,612	-0,032	-0,025
-613,517	-200,000	-0,013	0,081
-612,503	58,686	-0,129	0,093
-611,488	35,862	0,085	-0,055
-610,474	84,933	0,126	-0,101
-609,459	-200,000	-0,058	0,208
-608,444	116,190	-0,067	-0,060
-607,430	-35,581	-0,134	0,053
-606,415	-200,000	0,004	-0,015
-605,401	800,000	-0,031	0,090
-604,386	-99,205	0,054	-0,010
-603,371	-200,000	-0,004	0,018
-602,357	260,311	0,089	-0,113
-601,342	221,131	-0,073	-0,086
-600,328	412,202	-0,069	-0,108
-599,313	406,101	-0,023	-0,036
-598,298	-200,000	-0,010	0,105
-597,284	800,000	-0,034	0,088
-596,269	-18,438	0,004	0,002
-595,255	-164,557	0,060	-0,002
-594,240	-200,000	0,002	-0,011
-593,225	-144,042	-0,051	0,003
-592,211	109,775	-0,124	0,109
-591,196	99,726	0,088	0,074
-590,182	-38,078	0,064	-0,025
-589,167	-67,487	0,108	0,031
-588,152	-200,000	-0,028	-0,100
-587,138	-78,465	-0,053	-0,013
-586,123	800,000	0,005	-0,015
-585,109	-61,283	0,148	-0,045
-584,094	-200,000	-0,012	0,108
-583,079	-200,000	-0,008	0,092
-582,065	-127,237	0,070	-0,007
-581,050	-200,000	0,007	0,034
-580,036	344,421	-0,017	-0,025
-579,021	26,160	-0,089	0,054
-578,006	336,989	0,044	-0,062
-576,992	-114,591	-0,041	-0,006
-575,977	-62,844	0,104	-0,031
-574,963	537,953	0,064	0,111
-573,948	800,000	0,044	0,123
-572,934	-200,000	0,159	-0,000
-571,919	702,838	-0,013	-0,025
-570,904	-88,697	-0,077	-0,017
-569,890	800,000	0,024	-0,059
-568,875	-200,000	-0,002	0,067
-567,861	-110,775	0,037	0,006
-566,846	124,979	-0,052	0,048
-565,831	25,319	-0,135	0,082
-564,817	-200,000	0,013	0,042
-563,802	-47,343	-0,147	0,052
-562,788	-27,958	0,089	0,037
-561,773	-151,265	0,028	-0,002
-560,758	-103,888	0,028	-0,005
-559,744	-200,000	0,006	0,063
-558,729	-171,651	-0,064	-0,002
-557,715	-200,000	0,016	-0,082
-556,700	-6,145	-0,033	-0,016
-555,685	41,820	0,065	0,043
-554,671	-200,000	0,016	0,112
-553,656	800,000	0,068	0,204
-552,642	-162,652	-0,040	0,001
-551,627	23,346	-0,112	-0,067
-550,612	800,000	0,026	-0,072
-549,598	-200,000	-0,022	-0,136
-548,583	16,037	0,115	0,066
-547,569	252,722	0,011	0,013
-546,554	-200,000	-0,000	0,016
-545,539	-66,126	0,112	-0,032
-544,525	-200,000	0,001	-0,080
-543,510	25,841	-0,070	0,042
-542,496	-200,000	-0,024	-0,086
-541,481	-200,000	0,009	-0,038
-540,466	-200,000	0,054	0,268
-539,452	-200,000	-0,017	0,102
-538,437	800,000	0,034	0,098
-537,423	800,000	0,009	-0,025
-536,408	800,000	-0,016	0,033
-535,393	-200,000	0,023	-0,098
-534,379	-89,444	-0,043	0,009
-533,364	521,174	-0,036	-0,062
-532,350	155,537	0,102	-0,102
-531,335	88,631	0,039	-0,032
-530,321	20,105	0,006	0,003
-529,306	-25,396	-0,068	-0,029
-528,291	-0,406	0,107	0,055
-527,277	104,818	-0,027	0,023
-526,262	-46,552	-0,115	-0,041
-525,248	-58,040	0,135	-0,043
-524,233	-96,462	0,084	-0,016
-523,218	-19,598	0,066	-0,030
-522,204	443,498	0,015	-0,024
-521,189	406,264	0,043	-0,067
-520,175	-200,000	0,003	0,085
-519,160	-200,000	0,009	-0,073
-518,145	-200,000	-0,006	0,054
-517,131	235,019	0,088	-0,106
-516,116	143,546	0,063	0,061
-515,102	-93,904	0,090	-0,018
-514,087	128,442	-0,087	0,081
-513,072	-84,012	-0,058	-0,013
-512,058	275,741	0,064	-0,083
-511,043	-200,000	-0,020	0,109
-510,029	-48,217	0,034	0,012
-509,014	-200,000	-0,014	0,112
-507,999	-146,352	0,138	-0,009
-506,985	462,096	0,036	-0,059
-505,970	-200,000	0,017	-0,118
-504,956	-88,227	-0,035	0,008
-503,941	-102,003	-0,072	0,013
-502,926	-125,918	0,022	0,002
-501,912	-200,000	0,007	-0,072
-500,897	-200,000	0,036	0,118
-499,883	72,686	0,067	0,051
-498,868	800,000	0,013	-0,033
-497,853	-26,463	0,175	0,074
-496,839	204,457	0,037	0,042
-495,824	-42,037	0,139	0,052
-494,810	-118,399	-0,108	0,014
-493,795	-119,180	0,092	-0,012
-492,781	-200,000	-0,011	-0,069
-491,766	800,000	-0,026	0,074
-490,751	138,237	-0,043	0,041
-489,737	190,059	-0,089	-0,098
-488,722	-90,305	-0,201	-0,042
-487,708	-200,000	-0,012	-0,106
-486,693	-41,339	-0,044	0,017
-485,678	800,000	-0,023	0,051
-484,664	-200,000	0,011	-0,090
-483,649	14,264	-0,085	0,048
-482,635	800,000	-0,019	0,040
-481,620	-3,570	0,215	-0,109
-480,605	-47,576	0,053	-0,019
-479,591	-22,555	-0,060	-0,026
-478,576	-187,943	-0,070	0,001
-477,562	-26,609	-0,064	-0,027
-476,547	-200,000	0,006	0,053
-475,532	-149,829	0,073	0,004
-474,518	54,062	0,080	-0,056
-473,503	752,835	-0,020	0,040
-472,489	-63,036	0,079	-0,024
-471,474	-200,000	-0,010	0,060
-470,459	559,609	0,041	-0,073
-469,445	-200,000	0,011	-0,143
-468,430	-139,988	-0,067	-0,005
-467,416	800,000	-0,011	0,022
-466,401	426,171	0,079	-0,125
-465,386	-129,963	0,078	-0,008
-464,372	-16,739	0,018	0,008
-463,357	800,000	0,026	-0,056
-462,343	-135,722	0,072	-0,006
-461,328	-119,606	-0,039	0,005
-460,313	41,390	0,086	0,056
-459,299	29,538	0,032	0,020
-458,284	373,574	-0,075	0,112
-457,270	-107,382	0,087	-0,014
-456,255	-50,035	-0,105	-0,036
-455,241	48,840	-0,103	-0,070
-454,226	-200,000	-0,017	-0,071
-453,211	-200,000	-0,018	0,079
-452,197	-200,000	0,048	0,158
-451,182	-40,567	-0,080	0,030
-450,168	800,000	0,059	0,153
-449,153	48,452	-0,056	-0,038
-448,138	800,000	0,036	-0,080
-447,124	100,593	-0,097	-0,082
-446,109	219,334	-0,120	-0,140
-445,095	149,982	0,050	-0,050
-444,080	-200,000	-0,010	-0,077
-443,065	800,000	0,032	0,086
-442,051	101,043	-0,032	0,027
-441,036	800,000	0,024	-0,071
-440,022	-43,029	-0,049	0,018
-439,007	-105,006	0,117	0,019
-437,992	146,386	-0,088	0,086
-436,978	-10,798	0,133	0,064
-435,963	40,817	0,072	-0,047
-434,949	-46,272	0,049	0,018
-433,934	800,000	0,028	-0,082
-432,919	-149,740	-0,117	0,007
-431,905	-200,000	-0,029	0,096
-430,890	71,841	-0,064	0,048
-429,876	178,915	0,036	-0,039
-428,861	-171,212	0,000	0,000
-427,846	-41,570	0,106	0,040
-426,832	15,766	0,054	0,031
-425,817	343,263	0,035	-0,050
-424,803	417,134	0,056	-0,088
-423,788	-106,853	0,191	0,031
-422,773	287,097	0,085	0,112
-421,759	101,040	0,083	-0,070
-420,744	748,435	-0,014	-0,027
-419,730	-150,046	0,046	0,003
-418,715	19,958	-0,060	0,035
-417,701	171,436	0,057	-0,060
-416,686	-200,000	0,027	0,101
-415,671	-47,271	0,057	-0,020
-414,657	56,764	0,131	0,093
-413,642	-168,080	-0,024	-0,001
-412,628	231,971	-0,172	-0,205
-411,613	-200,000	-0,032	-0,148
-410,598	79,219	0,065	0,050
-409,584	-117,586	0,024	0,003
-408,569	-43,241	0,155	-0,057
-407,555	474,321	-0,071	-0,117
-406,540	125,905	-0,122	-0,112
-405,525	43,219	0,113	0,075
-404,511	800,000	0,038	-0,095
-403,496	9,533	0,042	-0,023
-402,482	-200,000	0,004	-0,112
-401,467	-86,429	0,103	-0,023
-400,452	800,000	-0,024	0,061
-399,438	-114,845	-0,052	-0,007
-398,423	-129,344	0,102	0,010
-397,409	124,100	0,030	0,028
-396,394	-200,000	0,014	-0,131
-395,379	-200,000	-0,025	0,102
-394,365	33,967	-0,129	0,081
-393,350	175,546	-0,057	0,061
-392,336	127,219	0,090	0,083
-391,321	314,638	-0,086	-0,117
-390,306	800,000	-0,046	-0,146
-389,292	15,588	-0,069	-0,039
-388,277	-53,982	0,043	-0,014
-387,263	5,108	0,029	0,015
-386,248	-200,000	0,022	-0,135
-385,233	-200,000	-0,004	0,045
-384,219	1,505	-0,106	0,055
-383,204	-125,271	-0,045	-0,005
-382,190	-108,815	0,004	-0,001
-381,175	-46,861	0,039	0,014
-380,160	309,943	-0,028	0,039
-379,146	20,036	0,089	0,052
-378,131	283,138	0,039	0,052
-377,117	208,779	-0,032	0,037
-376,102	19,532	0,046	-0,027
-375,088	-5,084	-0,081	0,040
-374,073	-66,065	-0,078	-0,023
-373,058	32,915	-0,075	-0,047
-372,044	-200,000	-0,008	0,122
-371,029	14,799	0,043	0,024
-370,015	255,614	0,025	-0,031
-369,000	205,816	-0,069	0,078
-367,985	141,885	-0,170	-0,163
-366,971	-200,000	0,017	-0,179
-365,956	683,394	0,055	-0,105
-364,942	-85,020	0,080	0,018
-363,927	12,866	0,083	-0,046
-362,912	-115,530	0,035	-0,005
-361,898	800,000	-0,014	0,031
-360,883	44,908	-0,048	-0,032
-359,869	-200,000	-0,011	0,054
-358,854	-87,190	-0,086	0,019
-357,839	-126,301	0,092	0,010
-356,825	177,940	-0,064	-0,068
-355,810	485,605	-0,053	0,087
-354,796	510,865	-0,061	0,103
-353,781	159,818	-0,166	-0,168
-352,766	441,243	-0,049	-0,078
-351,752	292,735	0,044	-0,059
-350,737	46,148	0,072	0,048
-349,723	760,581	-0,045	-0,089
-348,708	92,424	-0,067	0,055
-347,693	715,873	0,016	-0,032
-346,679	70,271	0,029	-0,022
-345,664	-200,000	0,007	-0,188
-344,650	-93,628	0,127	0,025
-343,635	65,903	-0,070	0,051
-342,620	-97,794	0,049	-0,009
-341,606	35,121	-0,113	-0,071
-340,591	-7,707	-0,156	-0,076
-339,577	-192,423	0,064	0,000
-338,562	-167,904	-0,124	-0,003
-337,548	-200,000	0,000	-0,029
-336,533	-50,938	0,072	0,024
-335,518	-20,057	-0,139	0,062
-334,504	107,949	-0,032	0,027
-333,489	-154,666	-0,091	0,004
-332,475	138,803	0,065	-0,062
-331,460	-51,036	-0,024	0,008
-330,445	-56,569	0,163	0,052
-329,431	-200,000	0,002	0,149
-328,416	313,420	0,096	0,132
-327,402	-69,124	0,075	0,021
-326,387	-62,294	0,036	-0,011
-325,372	-63,649	0,053	-0,016
-324,358	-200,000	-0,001	0,112
-323,343	126,967	-0,039	-0,036
-322,329	800,000	-0,051	-0,152
-321,314	-43,138	-0,117	-0,043
-320,299	372,186	-0,021	-0,031
-319,285	-85,004	0,085	0,019
-318,270	650,143	-0,019	0,035
-317,256	-200,000	-0,030	-0,120
-316,241	800,000	-0,028	-0,059
-315,226	800,000	-0,036	0,109
-314,212	3,874	0,048	0,025
-313,197	84,804	0,065	-0,052
-312,183	25,204	0,013	0,008
-311,168	236,964	0,080	-0,096
-310,153	-48,413	0,031	0,011
-309,139	-200,000	-0,024	0,105
-308,124	241,676	0,102	0,124
-307,110	249,717	-0,036	0,045
-306,095	-200,000	0,005	0,049
-305,080	800,000	-0,041	0,112
-304,066	-200,000	-0,015	-0,139
-303,051	160,246	0,076	-0,077
-302,037	111,711	-0,067	-0,059
-301,022	269,894	0,093	-0,118
-300,008	-53,647	-0,030	-0,010
-298,993	166,248	-0,063	0,065
-297,978	67,593	0,019	0,014
-296,964	227,362	-0,050	0,059
-295,949	623,675	-0,068	-0,124
-294,935	367,254	0,063	-0,092
-293,920	800,000	-0,025	0,058
-292,905	-200,000	-0,011	-0,165
-291,891	240,670	0,072	0,087
-290,876	800,000	-0,020	0,047
-289,862	-71,305	-0,139	0,037
-288,847	800,000	-0,060	-0,138
-287,832	-200,000	-0,006	-0,059
-286,818	-200,000	-0,004	0,027
-285,803	-30,685	-0,110	-0,045
-284,789	-125,023	0,072	0,008
-283,774	-82,722	0,169	-0,039
-282,759	800,000	-0,079	-0,184
-281,745	800,000	-0,070	0,151
-280,730	-45,250	-0,089	-0,032
-279,716	-200,000	0,005	-0,025
-278,701	-116,321	-0,058	0,008
-277,686	800,000	0,028	0,081
-276,672	334,729	0,023	0,033
-275,657	-200,000	-0,008	0,058
-274,643	800,000	-0,041	-0,096
-273,628	65,001	-0,110	-0,080
-272,613	-200,000	-0,015	0,184
-271,599	800,000	-0,054	0,167
-270,584	714,205	0,079	0,153
-269,570	17,192	0,134	0,077
-268,555	158,136	0,070	0,070
-267,540	-3,733	-0,093	0,047
-266,526	162,067	0,110	0,112
-265,511	640,160	-0,081	0,150
-264,497	174,686	0,053	0,056
-263,482	201,660	0,035	0,039
-262,467	800,000	0,028	0,075
-261,453	-30,293	0,104	-0,042
-260,438	33,771	-0,043	-0,027
-259,424	211,183	0,051	-0,058
-258,409	360,693	0,047	-0,068
-257,395	-125,248	-0,171	0,019
-256,380	-109,732	0,067	0,010
-255,365	689,371	-0,054	-0,102
-254,351	260,166	-0,008	0,010
-253,336	314,561	-0,044	-0,061
-252,322	-200,000	-0,006	-0,039
-251,307	800,000	-0,046	-0,103
-250,292	-200,000	0,003	0,104
-249,278	-144,547	-0,143	0,009
-248,263	-200,000	0,040	0,191
-247,249	-131,472	-0,131	0,012
-246,234	800,000	0,050	-0,141
-245,219	-23,214	-0,137	-0,059
-244,205	356,237	-0,068	0,098
-243,190	160,027	0,110	-0,111
-242,176	70,591	-0,079	-0,059
-241,161	-46,837	0,029	0,010
-240,146	-200,000	-0,019	-0,077
-239,132	-200,000	0,006	0,046
-238,117	-23,247	0,074	-0,032
-237,103	134,541	-0,050	0,047
-236,088	352,097	0,046	-0,065
-235,073	142,501	0,030	-0,029
-234,059	-200,000	-0,068	-0,000
-233,044	172,103	0,120	0,125
-232,030	-0,551	-0,073	-0,037
-231,015	-200,000	-0,007	-0,056
-230,000	68,424	-0,064	-0,047
-228,986	-200,000	-0,020	-0,093
-227,971	-200,000	-0,010	-0,059
-226,957	-6,981	0,121	0,059
-225,942	103,428	-0,026	0,022
-224,927	800,000	-0,030	0,085
-223,913	205,701	0,006	-0,006
-222,898	192,702	0,080	0,087
-221,884	6,995	-0,059	-0,032
-220,869	-200,000	-0,011	0,037
-219,855	800,000	0,040	-0,093
-218,840	352,954	0,022	-0,031
-217,825	-200,000	-0,013	0,082
-216,811	-22,128	-0,073	-0,032
-215,796	21,114	-0,040	-0,023
-214,782	56,788	0,024	0,017
-213,767	800,000	0,050	-0,117
-212,752	290,090	-0,046	0,060
-211,738	-36,949	0,030	-0,011
-210,723	347,430	-0,081	0,116
-209,709	26,663	-0,105	0,063
-208,694	45,112	-0,034	0,023
-207,679	-36,656	-0,096	-0,037
-206,665	-200,000	0,029	-0,145
-205,650	-140,593	0,088	0,006
-204,636	800,000	-0,056	0,139
-203,621	19,434	-0,107	-0,062
-202,606	-200,000	-0,014	-0,050
-201,592	151,018	0,062	-0,061
-200,577	-120,540	-0,074	-0,009
-199,563	-53,519	-0,080	0,026
-198,548	9,637	0,127	0,069
-197,533	-200,000	-0,021	0,096
-196,519	800,000	0,030	-0,067
-195,504	37,726	-0,136	0,087
-194,490	-200,000	-0,006	-0,141
-193,475	-200,000	0,003	-0,031
-192,460	148,811	0,045	-0,043
-191,446	800,000	0,075	0,160
-190,431	39,981	0,127	-0,082
-189,417	347,016	-0,029	0,042
-188,402	142,119	0,045	-0,043
-187,387	-34,006	-0,129	-0,051
-186,373	-200,000	0,008	0,078
-185,358	-120,766	-0,026	0,003
-184,344	453,704	0,072	0,115
-183,329	-200,000	-0,010	-0,067
-182,315	311,596	-0,055	0,075
-181,300	800,000	0,052	-0,108
-180,285	-200,000	-0,026	-0,142
-179,271	-66,109	-0,174	0,050
-178,256	171,660	0,087	0,090
-177,242	-98,713	-0,010	-0,002
-176,227	391,561	0,048	0,071
-175,212	37,917	0,020	0,013
-174,198	1,910	-0,090	0,046
-173,183	-200,000	-0,027	-0,153
-172,169	-153,333	-0,087	0,004
-171,154	93,475	0,046	0,037
-170,139	-200,000	0,003	0,090
-169,125	289,607	0,049	0,064
-168,110	-200,000	0,005	0,017
-167,096	-109,153	0,091	-0,014
-166,081	99,034	-0,060	0,050
-165,066	800,000	-0,023	-0,063
-164,052	-200,000	-0,002	-0,075
-163,037	800,000	0,037	-0,113
-162,023	293,010	0,071	0,094
-161,008	190,799	-0,055	-0,059
-159,993	-16,486	-0,035	-0,016
-158,979	800,000	-0,020	0,051
-157,964	-169,807	0,042	0,001
-156,950	-200,000	0,006	0,020
-155,935	584,950	-0,058	0,104
-154,920	61,004	0,064	0,046
-153,906	124,346	-0,135	-0,122
-152,891	-200,000	-0,026	0,099
-151,877	55,262	-0,039	-0,027
-150,862	-200,000	0,003	-0,198
-149,847	-200,000	0,010	-0,085
-148,833	-200,000	-0,011	-0,093
-147,818	-98,029	-0,122	0,022
-146,804	434,629	-0,082	0,128
-145,789	-2,166	0,114	0,058
-144,775	123,305	-0,105	0,095
-143,760	258,905	-0,061	-0,076
-142,745	160,363	-0,062	-0,062
-141,731	-87,033	-0,050	0,011
-140,716	675,249	-0,019	0,036
-139,702	800,000	0,068	0,154
-138,687	-22,054	-0,102	-0,044
-137,672	800,000	0,024	-0,067
-136,658	110,566	-0,114	0,099
-135,643	800,000	-0,077	-0,171
-134,629	44,449	-0,050	-0,033
-133,614	24,896	0,137	-0,081
-132,599	-93,620	0,078	0,015
-131,585	49,324	-0,099	0,067
-130,570	800,000	0,017	-0,055
-129,556	194,572	-0,041	-0,045
-128,541	-53,914	-0,075	0,025
-127,526	-200,000	0,004	0,055
-126,512	294,322	-0,053	0,069
-125,497	-200,000	0,005	-0,087
-124,483	-144,964	-0,022	-0,001
-123,468	506,214	-0,076	-0,127
-122,453	-54,933	-0,074	0,024
-121,439	229,240	0,080	0,095
-120,424	-200,000	0,029	0,097
-119,410	-200,000	-0,020	-0,084
-118,395	-146,710	0,118	0,007
