DTS Sentinel unit serial number:	SN410029Multiplexer serial number:	ORYXHardware model number:	OX2-SRSoftware version number:	ORYX F/W v4,00 Oryx Data Collector v3.7.2.0data status	okinstallation	B5 Nyhavnadifferential loss correction	single-endedforward channel	channel 2reverse channel	N/Adate	2023/12/12time	16:27:13forward acquisition time	300,00reverse acquisition time	0,00gamma	499,1914k internal	0,3156k external	0,3156temperature offset calibration	1,0000default loss term (dB/km)	0,3820temperature slope calibration	1,0000multiplexer offset coefficient	1,0000multiplexer slope coefficient	1,0000fibre end	0,00T internal ref (°C)	15,87T ext. ref 1 (°C)	-0,63T ext. ref 2 (°C)	-0,93length (m)	temperature (°C)	Stokes	anti-Stokes-744,400	-26,674	0,204	0,088
-743,385	51,062	-0,259	0,181
-742,371	-64,184	0,150	0,045
-741,356	-105,106	-0,297	0,050
-740,342	-137,894	0,055	-0,005
-739,327	-178,972	-0,330	0,005
-738,312	800,000	0,037	-0,076
-737,298	-16,671	-0,234	-0,109
-736,283	-200,000	-0,007	0,146
-735,269	-16,061	-0,188	0,088
-734,254	71,002	0,076	0,058
-733,239	-121,497	-0,377	-0,046
-732,225	-134,470	0,303	0,027
-731,210	334,505	-0,137	0,196
-730,196	538,966	0,040	-0,071
-729,181	-143,590	-0,170	0,012
-728,167	32,243	-0,095	-0,060
-727,152	63,276	0,062	0,046
-726,137	-5,610	-0,111	0,056
-725,123	800,000	-0,050	-0,106
-724,108	800,000	0,027	0,057
-723,094	58,726	-0,083	-0,060
-722,079	433,102	0,040	-0,065
-721,064	-144,513	-0,136	-0,009
-720,050	-200,000	0,004	-0,015
-719,035	384,052	0,095	0,145
-718,021	776,151	-0,062	-0,125
-717,006	18,299	-0,134	0,079
-715,991	157,134	-0,031	-0,031
-714,977	-33,653	-0,058	-0,024
-713,962	371,420	0,035	-0,052
-712,948	800,000	0,011	-0,023
-711,933	800,000	-0,032	-0,085
-710,918	800,000	0,015	0,037
-709,904	-72,968	-0,200	-0,054
-708,889	312,955	-0,090	-0,124
-707,875	-200,000	0,007	0,086
-706,860	536,569	0,027	-0,047
-705,845	-62,341	-0,088	-0,027
-704,831	800,000	-0,049	-0,100
-703,816	-70,546	0,142	0,039
-702,802	209,689	0,088	0,102
-701,787	800,000	0,022	0,067
-700,772	266,353	-0,017	-0,022
-699,758	362,601	-0,074	-0,110
-698,743	-156,032	0,074	-0,003
-697,729	-200,000	-0,020	0,128
-696,714	-80,816	-0,012	0,003
-695,699	-34,241	-0,212	0,085
-694,685	-54,556	-0,120	0,040
-693,670	-184,174	-0,024	-0,000
-692,656	800,000	-0,035	0,102
-691,641	-200,000	-0,019	0,186
-690,627	9,023	-0,065	0,036
-689,612	66,245	0,131	0,098
-688,597	745,245	0,037	-0,073
-687,583	-72,147	0,141	-0,038
-686,568	800,000	-0,035	0,076
-685,554	-165,557	-0,061	-0,002
-684,539	-200,000	0,002	-0,066
-683,524	35,843	0,050	-0,032
-682,510	102,350	0,014	0,012
-681,495	95,258	-0,014	-0,011
-680,481	-29,843	-0,040	0,017
-679,466	167,444	-0,064	-0,067
-678,451	-17,568	-0,092	-0,042
-677,437	-82,780	0,075	-0,018
-676,422	-65,505	-0,002	0,000
-675,408	-200,000	0,001	-0,050
-674,393	343,970	0,075	0,109
-673,378	-118,360	-0,099	-0,013
-672,364	379,261	-0,033	-0,049
-671,349	211,919	0,029	-0,034
-670,335	117,810	0,029	-0,026
-669,320	129,915	-0,023	0,022
-668,305	-44,452	-0,150	0,055
-667,291	-200,000	0,008	-0,086
-666,276	136,389	0,051	-0,049
-665,262	-200,000	0,008	-0,105
-664,247	-200,000	-0,029	-0,165
-663,232	443,050	0,042	0,069
-662,218	71,417	-0,047	-0,035
-661,203	-200,000	0,002	-0,106
-660,189	56,060	-0,047	0,034
-659,174	300,688	-0,068	-0,093
-658,159	-123,781	-0,051	0,006
-657,145	-200,000	0,002	-0,135
-656,130	-44,053	0,107	0,039
-655,116	148,055	-0,093	0,092
-654,101	0,116	0,115	-0,060
-653,086	218,368	-0,123	-0,144
-652,072	542,638	-0,021	0,036
-651,057	-200,000	-0,016	0,073
-650,043	800,000	0,035	-0,107
-649,028	-200,000	0,010	0,047
-648,014	340,460	0,081	-0,116
-646,999	209,958	-0,107	-0,124
-645,984	-69,648	0,118	0,033
-644,970	-46,506	-0,311	-0,112
-643,955	349,282	0,028	-0,040
-642,941	368,255	-0,026	-0,038
-641,926	570,288	-0,035	-0,062
-640,911	382,465	0,033	0,049
-639,897	560,843	-0,015	0,027
-638,882	110,807	0,048	-0,042
-637,868	-200,000	0,002	-0,205
-636,853	527,525	-0,060	0,105
-635,838	13,225	-0,093	-0,053
-634,824	-105,891	0,033	0,005
-633,809	-200,000	-0,012	0,080
-632,795	800,000	0,069	-0,145
-631,780	134,608	0,094	0,090
-630,765	-110,562	0,010	-0,001
-629,751	-200,000	0,013	-0,086
-628,736	33,689	-0,136	-0,087
-627,722	39,756	0,043	0,028
-626,707	-157,870	0,044	0,002
-625,692	800,000	0,020	-0,052
-624,678	206,916	0,117	-0,135
-623,663	798,958	-0,044	0,090
-622,649	-200,000	0,008	0,078
-621,634	67,319	-0,066	0,049
-620,619	-162,283	-0,173	-0,006
-619,605	-83,180	-0,017	-0,004
-618,590	458,140	0,092	0,151
-617,576	27,429	0,114	0,070
-616,561	-155,445	0,046	-0,002
-615,546	443,306	0,103	-0,166
-614,532	800,000	0,028	-0,058
-613,517	-38,331	0,035	-0,014
-612,503	22,375	-0,091	-0,054
-611,488	800,000	-0,022	0,054
-610,474	81,383	0,214	0,170
-609,459	-200,000	-0,001	0,120
-608,444	16,417	-0,092	-0,053
-607,430	-160,113	-0,112	0,004
-606,415	763,186	0,054	0,109
-605,401	736,774	-0,035	0,069
-604,386	-26,140	-0,174	0,075
-603,371	-200,000	-0,004	0,019
-602,357	45,908	-0,112	0,076
-601,342	116,471	0,047	-0,042
-600,328	-200,000	-0,021	-0,144
-599,313	48,820	-0,037	-0,025
-598,298	-27,820	-0,026	0,011
-597,284	0,804	-0,099	-0,052
-596,269	-200,000	0,019	-0,106
-595,255	800,000	0,059	0,138
-594,240	-51,343	-0,083	-0,028
-593,225	457,707	0,028	-0,046
-592,211	800,000	0,070	-0,156
-591,196	36,346	0,048	0,031
-590,182	229,864	-0,034	0,040
-589,167	277,622	0,077	0,100
-588,152	-105,372	-0,098	-0,016
-587,138	800,000	0,028	-0,073
-586,123	-47,424	-0,095	0,034
-585,109	-200,000	-0,028	-0,129
-584,094	523,849	0,062	-0,107
-583,079	-18,023	-0,113	-0,052
-582,065	408,313	0,059	0,092
-581,050	-200,000	-0,005	-0,081
-580,036	5,351	0,057	-0,031
-579,021	75,763	-0,044	-0,034
-578,006	-125,691	-0,135	0,015
-576,992	800,000	0,042	0,126
-575,977	-78,200	0,139	-0,035
-574,963	-200,000	0,016	0,188
-573,948	800,000	0,033	-0,073
-572,934	-174,632	-0,140	-0,003
-571,919	-67,690	-0,112	0,032
-570,904	159,447	-0,073	-0,075
-569,890	99,641	-0,090	-0,077
-568,875	-200,000	-0,025	0,086
-567,861	800,000	-0,014	0,035
-566,846	26,904	-0,076	-0,047
-565,831	95,734	-0,088	-0,073
-564,817	-132,858	0,032	-0,003
-563,802	113,032	-0,104	0,092
-562,788	-200,000	0,005	0,081
-561,773	-97,364	0,097	-0,018
-560,758	-196,344	0,102	0,000
-559,744	-200,000	0,009	0,056
-558,729	-200,000	0,005	0,091
-557,715	126,233	-0,049	-0,045
-556,700	-90,941	-0,045	-0,009
-555,685	336,800	-0,036	0,052
-554,671	-200,000	0,015	-0,107
-553,656	-111,605	-0,092	0,014
-552,642	-200,000	-0,002	0,104
-551,627	25,216	-0,063	0,038
-550,612	76,406	-0,040	-0,031
-549,598	-200,000	-0,019	-0,084
-548,583	165,892	-0,043	-0,045
-547,569	-200,000	-0,004	-0,056
-546,554	480,457	0,067	0,112
-545,539	-114,765	0,082	0,011
-544,525	-80,099	-0,075	0,018
-543,510	-200,000	-0,001	-0,080
-542,496	454,478	-0,075	0,122
-541,481	100,772	-0,134	-0,114
-540,466	-200,000	0,005	-0,076
-539,452	-25,796	0,095	-0,041
-538,437	464,484	0,042	0,069
-537,423	-129,422	-0,059	0,006
-536,408	-200,000	-0,009	-0,040
-535,393	105,154	-0,059	0,051
-534,379	-200,000	-0,033	0,121
-533,364	451,752	0,042	-0,068
-532,350	518,525	0,070	0,120
-531,335	46,819	-0,008	0,006
-530,321	-15,019	-0,076	0,035
-529,306	-54,213	-0,156	-0,051
-528,291	326,170	-0,059	-0,082
-527,277	89,297	-0,021	-0,017
-526,262	800,000	0,058	0,157
-525,248	-185,623	-0,063	0,001
-524,233	63,024	-0,055	0,040
-523,218	464,833	0,063	0,103
-522,204	631,106	0,050	-0,093
-521,189	88,663	-0,128	-0,104
-520,175	-75,188	-0,031	0,008
-519,160	-108,299	-0,165	0,026
-518,145	-85,408	0,191	-0,043
-517,131	66,691	-0,070	0,052
-516,116	317,804	-0,076	0,105
-515,102	800,000	-0,021	0,053
-514,087	-97,854	-0,043	0,008
-513,072	109,191	-0,086	0,075
-512,058	102,150	0,101	-0,086
-511,043	-200,000	0,003	0,051
-510,029	158,788	0,090	0,091
-509,014	-45,655	0,034	-0,012
-507,999	334,893	0,044	0,062
-506,985	-68,953	0,094	-0,026
-505,970	207,979	-0,081	-0,093
-504,956	-200,000	0,015	0,091
-503,941	261,977	0,087	-0,110
-502,926	-28,597	-0,114	0,048
-501,912	-13,188	0,123	0,058
-500,897	-109,562	-0,051	0,008
-499,883	70,494	0,043	0,033
-498,868	800,000	0,039	-0,114
-497,853	99,094	-0,064	-0,054
-496,839	104,721	0,107	0,092
-495,824	-106,485	0,091	-0,015
-494,810	58,880	-0,012	-0,009
-493,795	77,701	-0,040	-0,031
-492,781	800,000	0,026	0,055
-491,766	84,749	-0,030	-0,024
-490,751	-11,289	-0,025	-0,012
-489,737	800,000	-0,037	0,114
-488,722	138,906	-0,020	-0,019
-487,708	48,308	-0,088	0,060
-486,693	174,933	0,095	0,101
-485,678	-200,000	0,024	0,144
-484,664	-200,000	-0,008	0,054
-483,649	800,000	0,033	0,072
-482,635	226,699	-0,025	-0,029
-481,620	127,571	0,053	0,049
-480,605	800,000	-0,017	0,044
-479,591	91,580	0,060	0,049
-478,576	163,142	0,089	-0,091
-477,562	-99,482	0,139	-0,025
-476,547	-200,000	-0,017	-0,128
-475,532	-200,000	-0,233	-0,000
-474,518	-101,153	0,040	0,007
-473,503	26,938	0,061	0,038
-472,489	162,282	0,078	0,080
-471,474	56,829	-0,053	0,038
-470,459	31,377	-0,163	0,102
-469,445	-120,312	0,087	0,011
-468,430	145,697	-0,012	-0,012
-467,416	-77,188	0,124	0,031
-466,401	10,323	0,042	-0,023
-465,386	-200,000	-0,019	-0,088
-464,372	51,304	0,045	0,031
-463,357	548,553	-0,051	-0,089
-462,343	-38,143	0,047	-0,018
-461,328	-200,000	-0,003	-0,065
-460,313	-200,000	-0,011	-0,072
-459,299	-200,000	0,029	-0,141
-458,284	-200,000	0,042	0,208
-457,270	-200,000	-0,008	0,038
-456,255	800,000	-0,010	0,032
-455,241	799,660	-0,039	-0,079
-454,226	800,000	0,019	0,057
-453,211	121,738	-0,066	-0,060
-452,197	-159,551	-0,091	-0,004
-451,182	-173,715	-0,145	0,003
-450,168	147,354	0,113	0,111
-449,153	800,000	-0,076	0,165
-448,138	-200,000	-0,013	-0,172
-447,124	-60,104	0,120	0,037
-446,109	298,954	0,056	0,075
-445,095	-200,000	-0,014	0,052
-444,080	800,000	-0,050	0,123
-443,065	-130,575	0,049	-0,005
-442,051	14,376	0,097	0,055
-441,036	-98,741	0,047	0,009
-440,022	-41,663	-0,062	0,023
-439,007	588,100	0,037	0,067
-437,992	-51,817	0,028	-0,009
-436,978	128,111	0,064	-0,059
-435,963	-1,544	0,056	-0,028
-434,949	800,000	-0,043	-0,137
-433,934	-112,431	0,124	-0,018
-432,919	242,367	0,062	-0,076
-431,905	169,477	-0,113	-0,118
-430,890	382,651	-0,100	0,151
-429,876	-200,000	0,021	0,147
-428,861	-24,435	0,122	0,053
-427,846	-30,828	-0,079	0,032
-426,832	-200,000	-0,006	0,028
-425,817	-200,000	-0,021	-0,086
-424,803	131,876	-0,042	-0,040
-423,788	-200,000	0,023	0,139
-422,773	39,586	0,054	-0,035
-421,759	-149,810	-0,093	0,005
-420,744	-200,000	0,025	0,086
-419,730	315,552	-0,097	-0,134
-418,715	-200,000	0,013	0,051
-417,701	203,130	-0,090	0,102
-416,686	-200,000	0,038	0,129
-415,671	171,631	-0,105	0,110
-414,657	-88,738	-0,089	-0,019
-413,642	-200,000	-0,046	0,167
-412,628	800,000	0,058	-0,147
-411,613	-160,490	-0,095	-0,004
-410,598	-77,279	0,082	0,021
-409,584	462,704	-0,038	0,062
-408,569	174,866	-0,079	0,083
-407,555	-200,000	0,009	-0,042
-406,540	-200,000	-0,007	-0,024
-405,525	203,773	-0,086	0,097
-404,511	104,742	-0,089	0,076
-403,496	-200,000	0,008	-0,063
-402,482	70,652	0,076	0,057
-401,467	207,304	-0,056	0,064
-400,452	-140,865	-0,012	-0,001
-399,438	-124,090	-0,164	0,018
-398,423	206,844	0,126	-0,143
-397,409	800,000	0,054	-0,123
-396,394	-89,499	0,042	-0,009
-395,379	800,000	0,028	0,069
-394,365	517,345	0,077	0,132
-393,350	800,000	0,032	0,076
-392,336	464,071	0,037	-0,060
-391,321	-3,586	0,062	0,031
-390,306	-99,937	-0,236	0,042
-389,292	490,495	0,116	-0,193
-388,277	182,046	0,006	0,007
-387,263	-116,593	0,118	0,016
-386,248	89,896	0,021	-0,017
-385,233	-120,146	0,129	-0,016
-384,219	42,470	0,128	-0,085
-383,204	566,581	-0,054	-0,095
-382,190	366,975	0,053	-0,077
-381,175	338,783	0,113	-0,160
-380,160	301,101	0,047	0,063
-379,146	540,923	0,050	-0,087
-378,131	39,392	-0,047	0,030
-377,117	-200,000	-0,035	0,189
-376,102	-97,788	-0,039	-0,007
-375,088	78,554	0,055	-0,043
-374,073	382,751	0,087	0,131
-373,058	-20,105	0,045	0,020
-372,044	-200,000	0,015	-0,059
-371,029	-4,967	-0,142	-0,071
-370,015	-159,404	0,121	0,005
-369,000	69,296	-0,033	-0,024
-367,985	30,868	-0,068	0,042
-366,971	22,776	0,037	-0,022
-365,956	800,000	-0,003	-0,006
-364,942	-57,117	0,079	-0,025
-363,927	-200,000	-0,020	0,157
-362,912	80,717	0,118	-0,093
-361,898	268,401	0,012	0,016
-360,883	-41,648	0,094	-0,035
-359,869	800,000	-0,006	-0,016
-358,854	800,000	0,068	-0,203
-357,839	642,613	-0,018	0,033
-356,825	-89,327	0,137	-0,029
-355,810	-30,681	-0,027	-0,011
-354,796	-200,000	-0,054	-0,174
-353,781	14,000	-0,052	0,029
-352,766	149,358	-0,044	-0,043
-351,752	-189,505	-0,113	0,001
-350,737	-200,000	-0,012	0,050
-349,723	-200,000	-0,017	0,131
-348,708	180,585	-0,052	0,055
-347,693	-200,000	0,017	-0,107
-346,679	-5,669	-0,092	-0,046
-345,664	589,490	-0,067	-0,121
-344,650	-99,009	0,095	0,017
-343,635	159,893	0,088	-0,089
-342,620	66,184	0,165	0,121
-341,606	-161,236	0,089	-0,003
-340,591	-83,903	-0,170	-0,039
-339,577	95,527	0,068	-0,056
-338,562	103,024	-0,031	-0,027
-337,548	-200,000	-0,004	-0,088
-336,533	251,041	0,059	0,074
-335,518	-200,000	-0,018	0,155
-334,504	150,791	0,073	0,072
-333,489	-200,000	0,019	-0,074
-332,475	457,512	-0,044	0,072
-331,460	45,513	0,054	-0,036
-330,445	134,707	0,066	-0,062
-329,431	-156,293	-0,054	-0,002
-328,416	729,734	0,056	-0,109
-327,402	229,368	0,067	-0,080
-326,387	-200,000	-0,002	0,097
-325,372	369,723	-0,080	0,118
-324,358	-200,000	-0,009	0,069
-323,343	489,908	-0,010	-0,016
-322,329	-92,309	0,117	-0,024
-321,314	-101,765	-0,046	-0,008
-320,299	-112,768	0,117	0,017
-319,285	70,932	0,055	0,041
-318,270	-58,122	-0,093	0,029
-317,256	98,570	-0,143	-0,120
-316,241	343,913	-0,018	0,026
-315,226	-200,000	0,026	-0,114
-314,212	20,568	0,122	0,071
-313,197	119,644	0,041	0,037
-312,183	180,654	-0,099	-0,106
-311,168	623,613	-0,009	0,017
-310,153	-200,000	0,016	0,152
-309,139	73,356	-0,045	-0,034
-308,124	109,333	0,021	0,018
-307,110	253,801	-0,042	0,052
-306,095	149,512	0,051	-0,050
-305,080	259,064	0,026	0,032
-304,066	326,847	0,078	-0,109
-303,051	219,550	-0,123	-0,143
-302,037	264,909	0,034	0,043
-301,022	176,372	0,072	-0,076
-300,008	-131,790	0,208	-0,020
-298,993	-142,821	0,117	-0,008
-297,978	800,000	-0,027	0,080
-296,964	-106,547	-0,035	0,006
-295,949	-143,035	-0,076	0,005
-294,935	61,753	-0,111	0,080
-293,920	-6,106	0,094	0,046
-292,905	-46,684	0,036	0,013
-291,891	-200,000	0,005	-0,070
-290,876	316,890	0,041	-0,056
-289,862	117,546	0,026	-0,023
-288,847	337,508	-0,085	-0,121
-287,832	111,784	0,033	-0,029
-286,818	164,686	0,038	-0,039
-285,803	-200,000	-0,021	0,093
-284,789	-200,000	0,025	0,100
-283,774	-145,830	0,164	0,010
-282,759	-89,592	-0,158	-0,033
-281,745	-158,818	-0,034	-0,001
-280,730	269,364	-0,080	-0,102
-279,716	-200,000	-0,026	0,084
-278,701	-29,593	-0,047	-0,019
-277,686	-200,000	0,005	0,039
-276,672	-79,736	-0,015	0,004
-275,657	-200,000	-0,014	0,078
-274,643	195,997	0,005	-0,006
-273,628	-76,701	-0,165	-0,042
-272,613	161,236	-0,120	-0,122
-271,599	366,837	-0,062	0,091
-270,584	-70,872	0,134	-0,036
-269,570	-200,000	0,021	0,081
-268,555	-200,000	-0,003	-0,150
-267,540	62,051	0,048	0,034
-266,526	-200,000	-0,036	-0,219
-265,511	-200,000	0,006	-0,136
-264,497	-200,000	-0,014	0,080
-263,482	-200,000	0,030	0,132
-262,467	160,522	0,110	-0,111
-261,453	-200,000	0,001	-0,010
-260,438	129,583	-0,029	-0,027
-259,424	-200,000	0,002	-0,060
-258,409	33,300	0,044	-0,027
-257,395	800,000	0,009	-0,025
-256,380	-33,592	0,116	0,046
-255,365	-33,565	0,195	-0,078
-254,351	13,226	0,093	0,052
-253,336	122,112	-0,042	-0,038
-252,322	234,214	-0,043	0,051
-251,307	472,557	-0,074	-0,120
-250,292	28,866	0,112	-0,069
-249,278	-200,000	0,010	0,061
-248,263	800,000	-0,051	0,158
-247,249	-200,000	-0,045	0,184
-246,234	124,949	0,079	-0,072
-245,219	-59,425	-0,009	-0,003
-244,205	-28,696	-0,095	-0,039
-243,190	-8,140	0,016	0,008
-242,176	-35,091	0,099	-0,039
-241,161	593,569	0,060	0,108
-240,146	477,755	0,032	-0,052
-239,132	-200,000	0,008	-0,104
-238,117	262,538	-0,073	-0,092
-237,103	56,147	0,051	-0,036
-236,088	-73,962	-0,108	-0,028
-235,073	-84,658	0,075	-0,017
-234,059	800,000	-0,046	0,097
-233,044	800,000	-0,040	0,083
-232,030	760,590	-0,035	0,068
-231,015	-113,128	-0,070	-0,010
-230,000	-71,279	-0,097	0,026
-228,986	-41,517	0,083	-0,031
-227,971	-10,110	-0,061	0,029
-226,957	26,726	-0,082	0,050
-225,942	560,058	0,048	0,084
-224,927	-200,000	0,007	0,104
-223,913	78,355	-0,050	-0,039
-222,898	-200,000	0,005	0,070
-221,884	-200,000	0,015	-0,082
-220,869	-130,653	-0,112	0,011
-219,855	-30,270	-0,095	0,039
-218,840	0,213	-0,032	-0,017
-217,825	670,103	-0,038	0,072
-216,811	133,877	-0,051	-0,048
-215,796	-55,085	-0,171	-0,055
-214,782	-57,355	0,081	-0,026
-213,767	-49,282	-0,128	-0,044
-212,752	9,721	0,069	0,038
-211,738	800,000	-0,098	0,216
-210,723	-24,282	-0,135	0,058
-209,709	427,108	-0,046	0,072
-208,694	-73,764	0,122	-0,032
-207,679	-23,468	-0,086	-0,037
-206,665	800,000	-0,052	0,110
-205,650	613,637	0,031	0,057
-204,636	-2,145	0,134	-0,068
-203,621	800,000	0,022	0,059
-202,606	-200,000	0,000	0,057
-201,592	800,000	0,031	-0,081
-200,577	772,090	0,020	-0,039
-199,563	-200,000	0,016	-0,053
-198,548	230,347	0,035	-0,042
-197,533	492,338	-0,016	0,027
-196,519	128,231	-0,045	-0,041
-195,504	147,433	-0,036	0,035
-194,490	147,771	-0,063	-0,062
-193,475	-200,000	0,002	-0,115
-192,460	-200,000	-0,039	0,143
-191,446	65,580	0,154	-0,112
-190,431	231,957	0,044	-0,052
-189,417	-10,123	0,105	-0,050
-188,402	125,359	-0,139	-0,127
-187,387	800,000	0,051	-0,116
-186,373	90,552	-0,073	-0,059
-185,358	169,008	-0,106	0,110
-184,344	3,986	-0,036	0,019
-183,329	383,117	0,063	0,093
-182,315	800,000	-0,027	0,072
-181,300	680,380	0,061	-0,114
-180,285	800,000	0,023	-0,047
-179,271	627,677	-0,026	-0,048
-178,256	461,357	0,086	-0,138
-177,242	47,316	0,045	0,030
-176,227	-17,121	0,078	0,035
-175,212	330,192	0,061	0,084
-174,198	83,911	0,048	-0,038
-173,183	-188,911	0,084	0,001
-172,169	488,272	-0,058	0,096
-171,154	800,000	-0,050	-0,116
-170,139	-200,000	0,024	-0,160
-169,125	-200,000	0,020	0,092
-168,110	800,000	0,072	0,183
-167,096	5,085	-0,021	0,011
-166,081	515,712	0,057	-0,096
-165,066	800,000	0,023	-0,051
-164,052	624,064	0,081	-0,148
-163,037	206,611	-0,062	0,070
-162,023	-20,340	0,188	-0,083
-161,008	-52,368	-0,037	-0,012
-159,993	800,000	0,013	-0,028
-158,979	-125,395	0,022	0,002
-157,964	-3,226	0,051	0,026
-156,950	-200,000	0,002	-0,071
-155,935	-99,242	0,091	-0,016
-154,920	208,704	0,013	0,014
-153,906	132,538	-0,027	0,025
-152,891	-105,772	-0,053	0,009
-151,877	298,532	-0,044	0,059
-150,862	462,009	-0,056	-0,090
-149,847	-115,626	-0,094	-0,013
-148,833	155,370	-0,106	-0,105
-147,818	-200,000	-0,009	0,064
-146,804	83,008	-0,030	-0,023
-145,789	-200,000	0,005	0,065
-144,775	72,379	-0,065	-0,049
-143,760	147,658	0,080	-0,078
-142,745	-137,033	-0,074	-0,006
-141,731	-116,673	0,174	0,023
-140,716	-53,518	0,073	0,024
-139,702	15,714	-0,136	0,077
-138,687	76,734	-0,005	0,004
-137,672	143,552	0,057	-0,055
-136,658	283,067	-0,026	0,034
-135,643	800,000	-0,025	-0,078
-134,629	189,254	-0,170	-0,184
-133,614	-200,000	0,020	-0,066
-132,599	-200,000	0,038	0,141
-131,585	-200,000	-0,002	-0,015
-130,570	102,568	0,043	-0,036
-129,556	349,504	-0,034	-0,048
-128,541	-200,000	-0,009	-0,107
-127,526	-8,141	-0,087	-0,042
-126,512	762,622	-0,041	-0,081
-125,497	-60,122	0,138	0,042
-124,483	-57,699	-0,095	-0,030
-123,468	-200,000	-0,020	0,150
-122,453	-56,119	-0,100	0,032
-121,439	800,000	0,032	-0,084
-120,424	-104,256	0,186	-0,031
-119,410	800,000	0,025	0,050
