DTS Sentinel unit serial number:	SN410029Multiplexer serial number:	ORYXHardware model number:	OX2-SRSoftware version number:	ORYX F/W v4,00 Oryx Data Collector v3.7.2.0data status	okinstallation	B5 Nyhavnadifferential loss correction	single-endedforward channel	channel 2reverse channel	N/Adate	2023/12/13time	01:17:13forward acquisition time	300,00reverse acquisition time	0,00gamma	499,1914k internal	0,3159k external	0,3159temperature offset calibration	1,0000default loss term (dB/km)	0,3820temperature slope calibration	1,0000multiplexer offset coefficient	1,0000multiplexer slope coefficient	1,0000fibre end	0,00T internal ref (°C)	14,13T ext. ref 1 (°C)	-2,38T ext. ref 2 (°C)	-2,70length (m)	temperature (°C)	Stokes	anti-Stokes-744,400	18,577	0,136	-0,080
-743,385	-113,482	-0,352	-0,050
-742,371	-65,704	0,153	0,045
-741,356	-105,697	-0,325	-0,054
-740,342	144,721	0,112	0,110
-739,327	-101,505	-0,433	0,077
-738,312	-157,527	0,172	-0,007
-737,298	20,230	-0,238	0,141
-736,283	742,621	0,040	-0,079
-735,269	-103,245	-0,324	0,056
-734,254	3,865	0,078	0,042
-733,239	-22,658	-0,412	-0,183
-732,225	-153,628	0,208	0,010
-731,210	649,512	0,005	0,010
-730,196	294,460	-0,064	-0,086
-729,181	-200,000	-0,003	-0,043
-728,167	270,303	-0,084	0,109
-727,152	-200,000	-0,001	-0,040
-726,137	-200,000	0,003	-0,104
-725,123	-10,810	-0,052	-0,025
-724,108	218,071	-0,104	-0,122
-723,094	434,659	0,034	-0,054
-722,079	171,838	-0,023	-0,024
-721,064	-62,017	-0,042	-0,013
-720,050	-82,170	0,115	0,027
-719,035	-200,000	-0,042	0,136
-718,021	25,555	0,011	0,007
-717,006	-200,000	-0,020	0,087
-715,991	141,722	-0,100	-0,098
-714,977	-146,338	-0,089	-0,006
-713,962	-80,098	-0,023	-0,006
-712,948	276,752	-0,053	-0,069
-711,933	116,005	-0,086	-0,077
-710,918	-200,000	0,002	-0,053
-709,904	-131,991	-0,153	-0,014
-708,889	-200,000	-0,034	-0,119
-707,875	-200,000	-0,018	0,075
-706,860	94,503	0,083	0,070
-705,845	70,134	-0,037	-0,028
-704,831	268,735	-0,009	0,012
-703,816	-144,760	-0,060	0,004
-702,802	-129,813	-0,100	0,010
-701,787	800,000	-0,016	-0,036
-700,772	177,903	0,018	0,019
-699,758	-200,000	0,005	-0,021
-698,743	245,266	-0,049	0,061
-697,729	-10,714	0,058	0,028
-696,714	405,973	0,071	0,110
-695,699	-200,000	0,014	-0,051
-694,685	-117,294	-0,025	-0,003
-693,670	-200,000	-0,005	-0,095
-692,656	-200,000	-0,010	-0,110
-691,641	-200,000	-0,024	0,086
-690,627	800,000	0,030	0,063
-689,612	658,482	-0,004	-0,009
-688,597	23,423	0,058	0,035
-687,583	-112,614	-0,117	0,017
-686,568	-77,889	-0,056	0,014
-685,554	310,965	0,080	-0,110
-684,539	6,082	0,062	-0,034
-683,524	-89,392	0,096	0,021
-682,510	-58,125	-0,050	0,016
-681,495	164,527	-0,059	-0,061
-680,481	-3,720	0,045	-0,023
-679,466	594,073	-0,070	-0,129
-678,451	31,534	-0,065	-0,041
-677,437	-68,831	0,088	-0,025
-676,422	445,019	0,040	-0,065
-675,408	250,857	0,018	-0,023
-674,393	505,908	-0,027	0,046
-673,378	-112,384	-0,088	-0,013
-672,364	-200,000	0,024	0,083
-671,349	48,495	-0,178	0,122
-670,335	800,000	-0,026	-0,085
-669,320	-200,000	-0,008	0,040
-668,305	168,274	-0,062	-0,065
-667,291	92,303	-0,082	0,068
-666,276	-200,000	-0,025	0,128
-665,262	477,317	-0,035	-0,059
-664,247	189,562	-0,038	-0,042
-663,232	376,144	-0,066	-0,100
-662,218	85,618	-0,113	0,091
-661,203	135,455	-0,023	-0,022
-660,189	-51,506	-0,244	0,083
-659,174	499,894	-0,015	-0,026
-658,159	380,308	0,043	-0,065
-657,145	60,229	-0,075	0,054
-656,130	18,304	0,039	0,023
-655,116	-200,000	0,003	0,120
-654,101	-112,648	0,077	0,011
-653,086	94,313	-0,092	-0,077
-652,072	-41,296	-0,062	-0,023
-651,057	-103,866	0,098	0,017
-650,043	69,547	-0,054	0,041
-649,028	68,546	-0,078	0,059
-648,014	484,757	0,059	-0,099
-646,999	183,723	-0,055	0,060
-645,984	-7,079	-0,041	-0,020
-644,970	249,804	0,058	-0,073
-643,955	800,000	-0,027	-0,083
-642,941	800,000	-0,037	-0,108
-641,926	-200,000	0,019	-0,101
-640,911	168,812	-0,026	-0,027
-639,897	195,286	-0,005	0,005
-638,882	-200,000	0,005	-0,025
-637,868	-200,000	-0,014	-0,093
-636,853	-200,000	0,030	-0,102
-635,838	514,920	-0,040	0,069
-634,824	-200,000	0,026	-0,115
-633,809	-144,216	0,092	0,006
-632,795	146,063	0,052	-0,051
-631,780	800,000	0,043	0,101
-630,765	466,932	0,017	-0,028
-629,751	-76,739	-0,054	-0,014
-628,736	800,000	0,040	-0,082
-627,722	800,000	-0,038	-0,088
-626,707	-200,000	0,037	-0,186
-625,692	-200,000	0,005	0,097
-624,678	-28,568	-0,019	0,008
-623,663	294,359	0,037	0,050
-622,649	681,321	-0,042	-0,080
-621,634	289,320	0,086	-0,115
-620,619	205,649	0,068	-0,078
-619,605	38,473	0,066	0,043
-618,590	374,835	0,046	0,069
-617,576	-200,000	0,037	-0,153
-616,561	-172,627	-0,067	-0,002
-615,546	-114,701	-0,017	-0,002
-614,532	184,074	-0,057	-0,062
-613,517	-200,000	-0,022	0,091
-612,503	303,300	0,073	0,099
-611,488	63,482	-0,043	0,031
-610,474	-18,114	-0,083	0,038
-609,459	33,594	0,120	0,077
-608,444	-200,000	0,046	0,000
-607,430	-24,941	0,026	-0,011
-606,415	-200,000	-0,000	-0,148
-605,401	-16,345	0,071	-0,033
-604,386	-64,753	0,076	-0,022
-603,371	-87,292	-0,080	-0,018
-602,357	100,149	0,093	0,079
-601,342	291,184	0,047	-0,062
-600,328	-47,178	-0,107	0,038
-599,313	-9,911	-0,092	0,045
-598,298	89,528	0,024	-0,019
-597,284	800,000	0,072	0,149
-596,269	-200,000	-0,004	-0,087
-595,255	25,815	0,125	0,076
-594,240	-133,338	0,023	0,002
-593,225	-200,000	-0,002	0,064
-592,211	-200,000	-0,001	-0,057
-591,196	-200,000	-0,000	0,038
-590,182	31,596	-0,043	-0,027
-589,167	-47,790	-0,033	-0,011
-588,152	-200,000	-0,011	-0,057
-587,138	800,000	-0,060	-0,134
-586,123	-200,000	0,002	-0,037
-585,109	335,893	-0,067	-0,096
-584,094	217,281	-0,031	-0,036
-583,079	-100,097	-0,088	-0,016
-582,065	557,610	0,095	0,168
-581,050	-11,019	0,074	0,035
-580,036	60,817	-0,069	0,050
-579,021	534,821	-0,048	-0,084
-578,006	-10,846	-0,056	-0,027
-576,992	158,591	-0,126	0,129
-575,977	328,338	0,032	0,045
-574,963	-200,000	-0,004	0,061
-573,948	482,801	-0,035	-0,058
-572,934	-200,000	-0,009	-0,112
-571,919	-141,741	-0,081	0,006
-570,904	313,738	0,022	-0,031
-569,890	53,111	-0,107	-0,075
-568,875	199,964	0,067	-0,076
-567,861	-200,000	-0,002	-0,060
-566,846	800,000	-0,028	-0,061
-565,831	128,930	-0,063	-0,059
-564,817	314,760	-0,064	-0,088
-563,802	215,134	-0,038	0,044
-562,788	-200,000	-0,002	0,019
-561,773	193,942	0,158	0,176
-560,758	98,736	-0,111	0,093
-559,744	-81,795	0,032	0,008
-558,729	591,555	-0,051	-0,092
-557,715	-200,000	0,007	-0,085
-556,700	-200,000	-0,002	0,037
-555,685	-10,485	-0,137	-0,066
-554,671	294,364	0,052	0,070
-553,656	-47,337	0,121	-0,043
-552,642	-200,000	-0,012	0,084
-551,627	800,000	0,061	0,129
-550,612	575,202	0,034	-0,060
-549,598	-181,651	0,055	0,001
-548,583	-103,148	0,046	0,008
-547,569	18,624	-0,040	0,024
-546,554	53,342	0,134	-0,094
-545,539	781,067	-0,018	0,036
-544,525	-200,000	0,030	0,101
-543,510	-200,000	-0,030	0,159
-542,496	-86,664	-0,074	-0,016
-541,481	-52,326	0,106	-0,036
-540,466	-200,000	0,000	0,145
-539,452	252,410	-0,055	0,069
-538,437	337,096	-0,073	0,104
-537,423	-70,766	0,151	0,041
-536,408	800,000	0,029	-0,077
-535,393	800,000	-0,035	-0,072
-534,379	88,107	-0,031	-0,025
-533,364	-21,856	-0,065	0,029
-532,350	28,527	-0,008	0,005
-531,335	-200,000	0,005	-0,024
-530,321	236,926	0,086	0,104
-529,306	800,000	-0,020	-0,051
-528,291	-125,859	-0,062	-0,007
-527,277	268,158	0,083	-0,107
-526,262	-200,000	-0,046	-0,162
-525,248	70,368	0,056	-0,042
-524,233	12,806	-0,060	-0,034
-523,218	-200,000	-0,007	0,205
-522,204	72,195	0,076	-0,058
-521,189	327,207	-0,054	0,075
-520,175	-136,891	-0,119	-0,010
-519,160	-200,000	-0,012	-0,068
-518,145	-200,000	-0,019	0,104
-517,131	-12,315	-0,079	-0,038
-516,116	149,499	-0,137	0,135
-515,102	-86,735	-0,026	0,006
-514,087	-102,101	-0,065	-0,011
-513,072	199,816	-0,051	0,057
-512,058	800,000	-0,038	-0,078
-511,043	-74,155	0,108	0,028
-510,029	462,671	0,071	0,116
-509,014	53,813	-0,081	0,057
-507,999	279,809	-0,066	0,086
-506,985	107,293	-0,124	-0,108
-505,970	-200,000	-0,005	-0,153
-504,956	-200,000	-0,000	-0,165
-503,941	800,000	0,041	-0,123
-502,926	800,000	0,028	-0,089
-501,912	423,591	-0,061	-0,095
-500,897	-168,627	-0,111	-0,003
-499,883	387,860	0,074	0,112
-498,868	-61,594	-0,019	0,006
-497,853	-80,980	-0,030	0,007
-496,839	-200,000	-0,001	0,005
-495,824	68,927	-0,144	0,107
-494,810	312,740	-0,037	0,051
-493,795	-120,143	0,065	0,008
-492,781	42,144	-0,043	0,029
-491,766	-110,167	0,009	-0,001
-490,751	800,000	0,036	-0,114
-489,737	-79,879	0,054	0,013
-488,722	-9,654	-0,089	-0,043
-487,708	160,642	0,067	-0,069
-486,693	800,000	-0,031	0,073
-485,678	20,162	-0,049	0,029
-484,664	383,875	-0,076	-0,115
-483,649	-200,000	-0,015	-0,078
-482,635	-200,000	-0,018	0,063
-481,620	-16,220	0,034	0,016
-480,605	-200,000	-0,003	-0,047
-479,591	286,274	0,093	0,122
-478,576	15,339	-0,062	-0,036
-477,562	148,649	0,084	0,083
-476,547	128,537	0,065	-0,060
-475,532	28,092	-0,044	0,027
-474,518	-200,000	-0,011	0,082
-473,503	-200,000	-0,015	-0,074
-472,489	800,000	0,024	-0,049
-471,474	-200,000	-0,012	-0,064
-470,459	127,014	-0,128	-0,119
-469,445	-200,000	0,012	0,059
-468,430	800,000	-0,020	0,059
-467,416	-200,000	-0,004	-0,095
-466,401	800,000	0,045	0,101
-465,386	-3,257	0,032	0,016
-464,372	-200,000	0,007	0,040
-463,357	30,845	0,039	-0,024
-462,343	6,540	-0,049	0,026
-461,328	-73,281	-0,090	-0,024
-460,313	40,780	0,050	-0,033
-459,299	-200,000	-0,001	0,028
-458,284	16,778	-0,087	-0,050
-457,270	800,000	-0,020	0,049
-456,255	-64,974	-0,105	-0,031
-455,241	-72,526	-0,018	-0,005
-454,226	684,604	0,011	0,020
-453,211	-93,718	0,066	0,013
-452,197	718,106	-0,045	0,087
-451,182	51,967	0,063	-0,043
-450,168	563,522	0,032	0,057
-449,153	800,000	-0,044	-0,109
-448,138	-200,000	-0,015	0,000
-447,124	490,145	0,077	-0,129
-446,109	-67,841	0,024	-0,007
-445,095	-15,040	-0,066	-0,030
-444,080	706,217	0,069	-0,133
-443,065	-72,221	-0,079	0,021
-442,051	107,817	-0,044	0,039
-441,036	293,444	-0,044	0,058
-440,022	36,773	-0,189	0,121
-439,007	794,551	0,049	-0,098
-437,992	-200,000	0,035	0,147
-436,978	62,513	-0,038	0,028
-435,963	-92,881	-0,044	0,009
-434,949	40,814	0,031	-0,021
-433,934	800,000	0,050	0,112
-432,919	25,547	-0,078	-0,047
-431,905	81,338	0,097	-0,076
-430,890	-91,892	-0,160	0,033
-429,876	59,365	0,026	-0,018
-428,861	-112,390	0,073	0,011
-427,846	-200,000	0,030	0,153
-426,832	-200,000	0,008	-0,050
-425,817	-200,000	-0,010	0,059
-424,803	-145,539	0,075	0,005
-423,788	-126,097	0,073	-0,008
-422,773	-186,122	0,067	-0,001
-421,759	311,936	0,069	0,095
-420,744	-30,503	-0,137	-0,056
-419,730	172,017	-0,082	-0,086
-418,715	729,006	-0,060	-0,117
-417,701	-200,000	-0,002	-0,011
-416,686	212,630	0,019	-0,022
-415,671	-200,000	0,011	-0,070
-414,657	206,187	0,142	0,161
-413,642	414,028	-0,094	0,147
-412,628	195,647	-0,039	-0,043
-411,613	-200,000	0,025	-0,112
-410,598	366,143	0,023	-0,034
-409,584	-105,336	-0,086	0,014
-408,569	-133,093	0,060	-0,005
-407,555	-177,593	0,187	-0,003
-406,540	-17,023	-0,128	0,059
-405,525	-55,598	-0,035	-0,011
-404,511	-102,325	-0,156	0,027
-403,496	-20,573	-0,038	0,017
-402,482	31,228	0,107	-0,067
-401,467	-200,000	0,003	0,021
-400,452	-200,000	-0,003	0,069
-399,438	5,728	-0,038	0,020
-398,423	66,333	-0,091	0,067
-397,409	-97,971	-0,143	-0,027
-396,394	305,093	-0,056	0,076
-395,379	-200,000	-0,003	0,102
-394,365	50,504	0,087	0,060
-393,350	375,002	0,057	0,085
-392,336	300,303	0,044	0,059
-391,321	-98,053	0,042	-0,008
-390,306	800,000	0,035	-0,112
-389,292	-6,587	-0,061	0,030
-388,277	48,010	0,078	0,053
-387,263	431,464	0,021	0,033
-386,248	-200,000	0,019	0,101
-385,233	-30,576	-0,066	0,027
-384,219	217,716	0,054	0,063
-383,204	-154,236	0,105	0,005
-382,190	-95,013	-0,130	-0,025
-381,175	89,815	0,109	-0,089
-380,160	458,977	-0,070	-0,113
-379,146	-92,426	0,054	0,011
-378,131	-200,000	0,087	-0,000
-377,117	800,000	-0,035	-0,084
-376,102	800,000	-0,038	0,084
-375,088	-200,000	-0,012	0,093
-374,073	56,201	0,030	0,021
-373,058	11,534	-0,034	-0,019
-372,044	-200,000	0,008	0,048
-371,029	265,935	-0,037	0,047
-370,015	168,097	0,104	0,107
-369,000	-77,536	0,057	-0,014
-367,985	751,420	0,016	-0,032
-366,971	498,149	0,074	0,124
-365,956	-70,695	0,095	-0,026
-364,942	800,000	0,027	-0,069
-363,927	-200,000	-0,008	0,100
-362,912	12,392	0,104	-0,058
-361,898	-73,204	-0,153	-0,040
-360,883	-56,593	0,131	0,042
-359,869	104,165	0,083	-0,071
-358,854	-200,000	0,051	-0,233
-357,839	800,000	0,053	0,123
-356,825	35,506	-0,040	-0,025
-355,810	75,804	-0,098	0,075
-354,796	800,000	0,023	-0,058
-353,781	-57,357	-0,143	0,045
-352,766	800,000	-0,021	0,055
-351,752	800,000	0,019	-0,041
-350,737	128,917	0,053	0,049
-349,723	800,000	0,051	0,131
-348,708	-200,000	0,005	0,142
-347,693	63,891	-0,064	-0,046
-346,679	123,436	-0,113	-0,103
-345,664	800,000	0,053	-0,132
-344,650	800,000	-0,027	0,075
-343,635	119,958	0,062	-0,056
-342,620	307,861	0,037	-0,050
-341,606	-200,000	0,003	-0,019
-340,591	-200,000	0,027	0,121
-339,577	-200,000	-0,003	0,025
-338,562	800,000	-0,024	0,063
-337,548	285,041	-0,053	0,069
-336,533	301,000	0,138	0,185
-335,518	-132,953	0,019	-0,002
-334,504	-88,029	-0,107	-0,023
-333,489	-171,272	0,197	0,005
-332,475	-200,000	0,004	0,015
-331,460	206,937	-0,095	0,108
-330,445	-94,470	-0,039	-0,008
-329,431	-160,500	-0,129	0,005
-328,416	264,851	-0,081	0,102
-327,402	-189,319	0,045	-0,000
-326,387	-82,889	-0,136	0,032
-325,372	-200,000	0,006	-0,057
-324,358	-200,000	0,020	-0,111
-323,343	-59,968	-0,117	0,036
-322,329	67,702	-0,156	-0,116
-321,314	63,593	0,040	-0,029
-320,299	-31,199	-0,025	0,010
-319,285	664,441	0,075	-0,142
-318,270	110,175	0,106	-0,092
-317,256	-200,000	-0,009	-0,170
-316,241	57,337	0,028	0,020
-315,226	566,551	0,047	-0,083
-314,212	8,976	0,119	-0,065
-313,197	191,336	0,053	-0,057
-312,183	-135,271	-0,031	0,003
-311,168	-24,552	0,096	0,041
-310,153	-200,000	-0,005	-0,112
-309,139	434,402	0,011	0,017
-308,124	-48,135	0,201	0,070
-307,110	800,000	-0,024	0,075
-306,095	-55,825	0,023	-0,007
-305,080	-18,009	0,040	0,018
-304,066	-200,000	0,004	-0,152
-303,051	109,803	0,076	-0,066
-302,037	532,864	-0,043	0,074
-301,022	-118,869	0,084	-0,011
-300,008	-200,000	-0,006	-0,130
-298,993	-78,852	-0,105	-0,026
-297,978	-156,557	0,039	0,002
-296,964	-133,252	-0,078	-0,007
-295,949	371,034	-0,059	-0,088
-294,935	-200,000	0,000	-0,005
-293,920	245,888	0,091	0,112
-292,905	-200,000	0,023	0,136
-291,891	274,378	-0,007	0,009
-290,876	-73,328	0,140	0,037
-289,862	560,086	-0,036	0,064
-288,847	36,072	-0,072	-0,046
-287,832	-88,317	0,096	-0,021
-286,818	-178,107	-0,055	0,001
-285,803	-58,519	-0,063	0,020
-284,789	429,289	0,027	-0,043
-283,774	-200,000	0,002	0,204
-282,759	800,000	-0,020	0,049
-281,745	2,489	-0,122	-0,064
-280,730	800,000	0,029	-0,074
-279,716	-200,000	0,004	0,030
-278,701	-18,734	0,093	-0,042
-277,686	233,106	0,067	0,080
-276,672	-200,000	0,020	0,154
-275,657	800,000	0,052	-0,112
-274,643	-200,000	0,003	-0,038
-273,628	-114,013	-0,105	-0,015
-272,613	800,000	0,034	-0,100
-271,599	224,135	-0,052	-0,060
-270,584	-100,234	0,123	-0,022
-269,570	-200,000	-0,014	0,051
-268,555	-50,502	-0,071	-0,024
-267,540	-95,527	-0,043	-0,008
-266,526	289,738	0,067	0,088
-265,511	800,000	-0,033	0,084
-264,497	-200,000	0,007	0,106
-263,482	304,766	0,035	0,047
-262,467	66,633	-0,060	-0,044
-261,453	46,195	0,056	-0,037
-260,438	58,486	-0,095	-0,067
-259,424	-23,451	0,071	0,031
-258,409	-51,660	-0,139	0,047
-257,395	367,444	-0,012	-0,017
-256,380	264,551	0,047	0,059
-255,365	-67,415	0,071	0,020
-254,351	64,650	-0,027	-0,020
-253,336	-200,000	0,001	0,042
-252,322	566,042	-0,049	-0,085
-251,307	15,248	0,106	-0,060
-250,292	-165,099	-0,036	-0,001
-249,278	-115,793	-0,044	0,006
-248,263	-200,000	0,007	0,087
-247,249	-200,000	0,001	0,015
-246,234	800,000	-0,031	-0,076
-245,219	192,035	-0,086	-0,094
-244,205	376,087	-0,081	-0,120
-243,190	-30,783	0,166	0,067
-242,176	800,000	0,026	0,059
-241,161	-155,465	-0,012	-0,001
-240,146	365,426	0,110	-0,160
-239,132	800,000	0,076	0,160
-238,117	-125,858	0,109	-0,012
-237,103	-200,000	-0,028	-0,158
-236,088	126,973	0,059	-0,054
-235,073	283,848	-0,046	0,060
-234,059	-127,920	0,073	0,008
-233,044	-45,545	0,043	-0,015
-232,030	-37,335	0,012	-0,005
-231,015	273,706	0,039	-0,050
-230,000	681,431	0,008	0,016
-228,986	-200,000	0,006	0,117
-227,971	-111,721	0,053	0,008
-226,957	345,161	-0,069	-0,098
-225,942	-18,769	-0,091	0,041
-224,927	506,777	0,040	0,067
-223,913	39,376	-0,140	-0,090
-222,898	2,853	-0,100	-0,052
-221,884	-200,000	0,002	-0,185
-220,869	634,919	-0,019	-0,035
-219,855	8,523	-0,038	-0,021
-218,840	-90,944	-0,041	0,009
-217,825	-122,027	-0,098	0,012
-216,811	-103,815	0,052	0,009
-215,796	-200,000	0,009	0,037
-214,782	-133,064	0,035	-0,003
-213,767	672,434	-0,019	-0,036
-212,752	9,151	0,012	-0,006
-211,738	-22,642	0,099	-0,043
-210,723	369,385	-0,027	-0,040
-209,709	-11,088	-0,064	-0,030
-208,694	-121,174	0,138	-0,017
-207,679	-4,598	0,073	-0,036
-206,665	129,568	0,083	0,076
-205,650	-118,156	0,178	-0,023
-204,636	136,945	-0,090	-0,085
-203,621	800,000	0,009	0,026
-202,606	800,000	0,080	0,162
-201,592	235,346	-0,089	0,107
-200,577	-49,234	-0,167	-0,057
-199,563	110,153	0,049	0,042
-198,548	-73,035	-0,047	-0,012
-197,533	-200,000	-0,021	0,103
-196,519	-151,060	0,008	0,000
-195,504	22,430	0,058	-0,034
-194,490	-105,265	-0,069	0,011
-193,475	-4,541	0,005	0,003
-192,460	-200,000	0,006	0,020
-191,446	-61,620	-0,028	-0,008
-190,431	6,559	-0,106	0,056
-189,417	209,059	0,065	0,073
-188,402	192,516	0,114	-0,124
-187,387	41,527	-0,034	0,022
-186,373	-198,770	-0,057	-0,000
-185,358	-200,000	0,027	0,092
-184,344	262,729	-0,067	0,084
-183,329	110,704	0,081	0,070
-182,315	-200,000	-0,032	-0,177
-181,300	332,125	-0,020	-0,028
-180,285	-200,000	-0,009	-0,068
-179,271	1,952	-0,042	-0,022
-178,256	-200,000	-0,001	0,085
-177,242	178,828	0,051	-0,054
-176,227	-29,659	0,176	0,072
-175,212	183,716	-0,137	0,146
-174,198	-134,928	-0,016	-0,001
-173,183	69,215	-0,037	0,027
-172,169	-200,000	-0,014	0,112
-171,154	-200,000	0,010	-0,093
-170,139	-101,801	0,091	-0,016
-169,125	-200,000	-0,004	-0,012
-168,110	-200,000	0,005	0,058
-167,096	223,070	-0,053	0,062
-166,081	15,089	0,053	-0,030
-165,066	800,000	-0,026	-0,066
-164,052	800,000	0,053	-0,122
-163,037	112,165	-0,065	0,057
-162,023	-200,000	0,044	0,146
-161,008	800,000	-0,083	0,174
-159,993	800,000	0,037	0,090
-158,979	-82,850	0,098	-0,023
-157,964	-102,594	-0,091	-0,016
-156,950	-162,133	0,063	0,002
-155,935	63,453	0,046	0,033
-154,920	800,000	-0,047	0,106
-153,906	-89,094	0,091	-0,019
-152,891	-188,768	0,043	-0,000
-151,877	354,277	-0,022	0,032
-150,862	800,000	-0,035	0,084
-149,847	-200,000	0,025	0,083
-148,833	96,047	0,112	-0,092
-147,818	220,142	0,049	-0,057
-146,804	494,142	0,050	0,084
-145,789	103,940	-0,047	0,040
-144,775	-200,000	-0,003	0,071
-143,760	266,123	-0,073	-0,091
-142,745	134,419	-0,063	0,059
-141,731	-61,899	-0,107	-0,032
-140,716	-200,000	0,017	-0,062
-139,702	-200,000	0,001	-0,038
-138,687	22,389	0,084	-0,049
-137,672	-200,000	0,011	0,046
-136,658	-128,214	-0,125	-0,013
-135,643	800,000	0,007	-0,018
-134,629	800,000	0,013	-0,039
-133,614	92,364	0,085	0,069
-132,599	-200,000	-0,011	-0,065
-131,585	-80,039	0,078	0,019
-130,570	-101,014	-0,069	-0,012
-129,556	800,000	-0,016	0,040
-128,541	251,332	0,065	-0,080
-127,526	-43,190	-0,105	0,038
-126,512	640,391	-0,081	-0,149
-125,497	32,191	0,044	-0,027
-124,483	37,991	0,071	-0,045
-123,468	497,087	-0,049	-0,082
-122,453	226,304	-0,024	0,028
-121,439	-126,693	-0,174	-0,018
-120,424	-200,000	-0,020	0,082
