DTS Sentinel unit serial number:	SN410029Multiplexer serial number:	ORYXHardware model number:	OX2-SRSoftware version number:	ORYX F/W v4,00 Oryx Data Collector v3.7.2.0data status	okinstallation	B5 Nyhavnadifferential loss correction	single-endedforward channel	channel 2reverse channel	N/Adate	2023/12/14time	03:02:13forward acquisition time	300,00reverse acquisition time	0,00gamma	499,1914k internal	0,3155k external	0,3155temperature offset calibration	1,0000default loss term (dB/km)	0,3820temperature slope calibration	1,0000multiplexer offset coefficient	1,0000multiplexer slope coefficient	1,0000fibre end	0,00T internal ref (°C)	8,34T ext. ref 1 (°C)	-8,02T ext. ref 2 (°C)	-8,08length (m)	temperature (°C)	Stokes	anti-Stokes-744,400	-5,147	0,109	0,055
-743,385	-200,000	-0,543	0,000
-742,371	-17,943	0,238	0,110
-741,356	-156,895	-0,327	-0,015
-740,342	-24,568	0,206	0,090
-739,327	8,690	-0,260	-0,144
-738,312	21,824	0,150	0,090
-737,298	-36,761	-0,347	-0,137
-736,283	131,235	0,135	0,128
-735,269	-8,748	-0,319	-0,157
-734,254	235,710	0,060	0,073
-733,239	-23,600	-0,512	-0,226
-732,225	-140,011	0,227	0,017
-731,210	-200,000	-0,037	0,147
-730,196	-200,000	-0,014	-0,109
-729,181	76,997	0,025	0,020
-728,167	-118,056	-0,047	0,006
-727,152	43,938	0,090	0,061
-726,137	76,562	-0,069	-0,054
-725,123	-200,000	-0,003	0,030
-724,108	289,244	-0,080	-0,107
-723,094	-200,000	0,001	-0,059
-722,079	-104,754	-0,106	0,018
-721,064	800,000	0,013	-0,032
-720,050	-23,315	-0,159	0,070
-719,035	800,000	-0,050	-0,122
-718,021	101,097	-0,055	0,047
-717,006	-27,419	-0,212	-0,090
-715,991	-200,000	-0,062	-0,236
-714,977	639,465	-0,060	-0,113
-713,962	-200,000	-0,013	0,047
-712,948	-11,354	-0,052	-0,025
-711,933	-45,630	-0,121	-0,044
-710,918	226,931	0,050	0,060
-709,904	-53,465	-0,038	-0,013
-708,889	-102,991	-0,059	-0,010
-707,875	800,000	0,012	-0,029
-706,860	782,461	-0,032	-0,065
-705,845	-64,717	-0,056	-0,017
-704,831	-200,000	0,014	0,087
-703,816	800,000	0,012	-0,032
-702,802	-139,514	-0,129	-0,010
-701,787	-185,307	-0,185	0,002
-700,772	381,586	-0,017	-0,026
-699,758	-200,000	0,014	0,177
-698,743	-200,000	-0,000	0,034
-697,729	-140,183	0,140	0,011
-696,714	53,275	-0,042	-0,030
-695,699	-200,000	-0,029	-0,108
-694,685	-118,656	-0,060	0,008
-693,670	13,105	-0,068	-0,039
-692,656	94,540	0,078	-0,065
-691,641	670,971	0,030	0,057
-690,627	800,000	0,043	0,119
-689,612	-99,087	-0,088	0,016
-688,597	-22,980	-0,068	-0,030
-687,583	-29,083	0,056	-0,024
-686,568	183,642	-0,048	-0,053
-685,554	103,924	-0,086	-0,075
-684,539	-43,659	0,084	0,031
-683,524	-200,000	0,000	0,019
-682,510	-99,167	-0,093	0,017
-681,495	259,530	0,071	-0,091
-680,481	-132,568	-0,215	-0,020
-679,466	-200,000	-0,005	0,066
-678,451	800,000	0,032	0,080
-677,437	-59,367	0,119	0,038
-676,422	41,851	-0,050	-0,034
-675,408	-150,581	-0,090	0,005
-674,393	40,026	-0,086	0,057
-673,378	6,755	-0,002	0,001
-672,364	-47,326	-0,010	-0,004
-671,349	800,000	0,049	-0,158
-670,335	-111,638	0,074	0,011
-669,320	11,486	-0,083	-0,047
-668,305	-200,000	-0,013	-0,088
-667,291	79,558	0,047	0,037
-666,276	-200,000	-0,024	-0,079
-665,262	-200,000	0,008	0,068
-664,247	-38,337	0,103	0,040
-663,232	-200,000	0,010	-0,097
-662,218	61,325	-0,047	-0,034
-661,203	280,417	0,037	-0,049
-660,189	-82,282	-0,113	-0,027
-659,174	800,000	0,023	-0,050
-658,159	-112,217	-0,023	-0,003
-657,145	-94,556	-0,106	-0,021
-656,130	-70,075	-0,065	0,018
-655,116	-129,516	0,053	0,005
-654,101	448,713	-0,019	-0,030
-653,086	-70,352	0,059	0,016
-652,072	-11,845	-0,159	-0,076
-651,057	645,949	0,077	-0,144
-650,043	-76,172	0,169	0,044
-649,028	10,657	-0,141	-0,079
-648,014	273,937	0,123	0,160
-646,999	142,483	-0,046	-0,045
-645,984	-86,398	0,039	-0,009
-644,970	199,623	-0,057	-0,064
-643,955	-133,119	-0,072	0,007
-642,941	-76,898	-0,157	-0,040
-641,926	-200,000	0,006	-0,064
-640,911	-157,734	-0,144	-0,006
-639,897	800,000	-0,018	0,051
-638,882	-51,770	-0,035	0,012
-637,868	800,000	-0,040	0,126
-636,853	121,775	-0,031	0,029
-635,838	-77,946	-0,090	-0,023
-634,824	97,612	0,083	0,070
-633,809	-74,224	-0,067	-0,018
-632,795	13,876	-0,055	0,031
-631,780	404,606	-0,060	-0,093
-630,765	-49,895	-0,059	0,020
-629,751	-31,048	-0,125	-0,052
-628,736	71,676	0,041	-0,032
-627,722	612,404	-0,063	-0,116
-626,707	767,178	0,060	0,120
-625,692	40,289	0,164	-0,108
-624,678	72,128	-0,111	-0,085
-623,663	116,877	-0,013	-0,012
-622,649	-200,000	-0,034	0,119
-621,634	800,000	0,022	-0,065
-620,619	800,000	-0,043	0,129
-619,605	314,100	-0,095	0,132
-618,590	-151,301	0,066	0,004
-617,576	81,100	-0,066	-0,053
-616,561	512,496	0,024	0,041
-615,546	800,000	0,019	0,040
-614,532	-200,000	0,006	-0,152
-613,517	-200,000	0,039	-0,136
-612,503	485,844	-0,069	-0,116
-611,488	772,292	0,028	-0,057
-610,474	-46,466	-0,068	-0,024
-609,459	-200,000	-0,010	0,072
-608,444	-1,641	-0,059	0,030
-607,430	20,133	-0,110	-0,065
-606,415	-200,000	-0,006	0,113
-605,401	250,100	0,048	-0,060
-604,386	-200,000	-0,005	0,061
-603,371	800,000	-0,022	0,055
-602,357	68,904	0,021	-0,016
-601,342	-23,400	-0,054	0,024
-600,328	-143,250	0,039	-0,003
-599,313	-82,513	-0,080	-0,019
-598,298	328,093	-0,055	-0,077
-597,284	-200,000	0,008	-0,044
-596,269	25,880	-0,016	0,010
-595,255	800,000	-0,025	-0,054
-594,240	-49,115	-0,162	-0,056
-593,225	-127,885	-0,014	0,001
-592,211	41,211	-0,156	-0,103
-591,196	289,776	-0,066	0,088
-590,182	49,829	0,078	0,054
-589,167	-18,642	0,097	0,044
-588,152	-200,000	0,013	-0,048
-587,138	122,670	-0,053	-0,049
-586,123	800,000	-0,033	-0,077
-585,109	-200,000	-0,052	0,183
-584,094	207,252	0,028	-0,032
-583,079	678,947	0,030	0,058
-582,065	-158,485	0,075	-0,003
-581,050	180,667	0,044	-0,047
-580,036	-200,000	0,004	-0,102
-579,021	127,014	-0,119	-0,111
-578,006	798,861	0,007	0,014
-576,992	-52,943	0,060	0,020
-575,977	274,645	0,006	0,007
-574,963	519,623	-0,095	0,164
-573,948	256,925	0,050	-0,063
-572,934	30,824	0,156	0,098
-571,919	800,000	0,032	0,083
-570,904	-200,000	-0,025	-0,095
-569,890	242,155	0,072	0,089
-568,875	-200,000	0,006	0,125
-567,861	266,336	-0,081	-0,104
-566,846	-200,000	0,019	-0,118
-565,831	7,704	-0,114	-0,062
-564,817	-200,000	0,016	-0,154
-563,802	33,376	-0,018	0,012
-562,788	-200,000	0,019	0,069
-561,773	-200,000	-0,025	0,228
-560,758	-84,168	-0,110	0,025
-559,744	432,324	-0,080	0,128
-558,729	8,388	-0,103	-0,057
-557,715	800,000	-0,026	-0,079
-556,700	-137,511	-0,059	0,005
-555,685	800,000	-0,012	0,038
-554,671	-142,989	0,236	-0,016
-553,656	-200,000	0,003	0,056
-552,642	800,000	-0,034	0,086
-551,627	30,925	0,051	-0,032
-550,612	52,021	-0,135	-0,094
-549,598	-160,959	0,114	0,004
-548,583	39,112	0,134	-0,087
-547,569	391,117	0,035	-0,053
-546,554	-200,000	0,013	0,048
-545,539	122,590	-0,114	-0,104
-544,525	-200,000	0,021	-0,074
-543,510	766,355	0,026	0,051
-542,496	188,342	-0,059	-0,065
-541,481	216,242	-0,063	-0,074
-540,466	-200,000	0,038	0,140
-539,452	150,230	0,127	-0,126
-538,437	800,000	-0,040	0,116
-537,423	-50,111	0,127	-0,044
-536,408	-121,471	-0,017	-0,002
-535,393	32,407	-0,156	-0,098
-534,379	800,000	0,036	-0,088
-533,364	-200,000	-0,003	0,032
-532,350	800,000	0,036	0,096
-531,335	-100,811	0,070	-0,012
-530,321	251,449	0,050	0,063
-529,306	253,030	0,043	0,054
-528,291	-200,000	0,019	-0,173
-527,277	-25,882	0,047	-0,020
-526,262	800,000	0,026	-0,078
-525,248	141,674	-0,029	0,028
-524,233	800,000	0,078	0,161
-523,218	71,470	-0,043	-0,033
-522,204	-200,000	-0,000	0,063
-521,189	-99,287	-0,127	0,023
-520,175	-7,332	-0,106	-0,052
-519,160	-73,478	0,164	0,044
-518,145	9,694	0,037	0,020
-517,131	-38,694	0,097	-0,037
-516,116	-200,000	0,007	0,099
-515,102	-192,781	-0,051	-0,000
-514,087	658,004	-0,024	-0,046
-513,072	-106,068	0,058	-0,009
-512,058	134,768	0,063	0,060
-511,043	800,000	0,025	-0,071
-510,029	-200,000	0,014	-0,082
-509,014	800,000	0,021	0,059
-507,999	35,767	-0,027	0,017
-506,985	202,383	-0,075	-0,085
-505,970	43,750	-0,034	-0,023
-504,956	290,422	0,012	-0,016
-503,941	800,000	-0,035	0,077
-502,926	315,532	0,099	0,137
-501,912	-200,000	0,019	0,203
-500,897	237,928	0,062	0,076
-499,883	-200,000	-0,015	-0,176
-498,868	-200,000	0,002	-0,130
-497,853	-116,870	-0,085	-0,011
-496,839	-200,000	-0,025	-0,135
-495,824	121,571	0,100	0,091
-494,810	-200,000	0,011	0,083
-493,795	-200,000	-0,002	0,021
-492,781	-200,000	0,007	0,025
-491,766	-200,000	-0,035	-0,116
-490,751	395,219	-0,055	-0,084
-489,737	-200,000	-0,005	-0,097
-488,722	90,851	-0,054	0,044
-487,708	49,939	0,075	0,052
-486,693	800,000	-0,057	-0,117
-485,678	-20,058	-0,043	0,019
-484,664	302,414	-0,063	0,085
-483,649	-200,000	0,034	-0,117
-482,635	1,551	0,135	0,071
-481,620	56,915	0,086	0,061
-480,605	800,000	0,050	0,109
-479,591	-78,443	-0,048	-0,012
-478,576	63,755	0,101	0,074
-477,562	84,222	-0,039	0,031
-476,547	-200,000	-0,024	0,117
-475,532	131,745	-0,060	-0,057
-474,518	-152,148	0,122	-0,006
-473,503	47,423	-0,068	0,046
-472,489	-19,919	0,173	0,078
-471,474	-103,134	-0,115	-0,020
-470,459	2,706	-0,119	-0,063
-469,445	136,818	0,038	-0,036
-468,430	-200,000	0,002	0,091
-467,416	87,366	0,077	-0,062
-466,401	216,706	-0,030	0,035
-465,386	-175,193	-0,024	0,000
-464,372	555,644	-0,098	-0,173
-463,357	800,000	0,048	0,140
-462,343	-200,000	-0,032	-0,122
-461,328	573,322	0,101	-0,180
-460,313	125,504	-0,041	-0,038
-459,299	-92,022	0,122	-0,025
-458,284	-160,201	0,073	-0,003
-457,270	60,496	0,040	0,029
-456,255	52,759	-0,054	0,038
-455,241	-101,950	-0,090	-0,016
-454,226	405,936	0,032	-0,049
-453,211	-84,639	0,084	0,019
-452,197	57,362	0,007	-0,005
-451,182	-121,666	0,176	-0,021
-450,168	254,859	-0,031	0,039
-449,153	-200,000	-0,011	-0,069
-448,138	-130,373	0,112	0,011
-447,124	15,622	-0,088	0,050
-446,109	-200,000	0,028	-0,093
-445,095	113,444	-0,003	0,003
-444,080	800,000	-0,020	-0,058
-443,065	-86,119	-0,010	0,002
-442,051	-200,000	-0,029	-0,181
-441,036	315,958	0,046	0,063
-440,022	-129,412	-0,038	-0,004
-439,007	800,000	-0,030	-0,068
-437,992	-119,191	0,094	0,012
-436,978	800,000	-0,022	0,050
-435,963	-200,000	-0,021	-0,152
-434,949	-200,000	-0,031	-0,115
-433,934	208,134	-0,054	-0,061
-432,919	-75,223	-0,066	0,017
-431,905	800,000	-0,033	-0,094
-430,890	56,370	-0,048	-0,034
-429,876	800,000	0,055	-0,114
-428,861	800,000	0,022	0,064
-427,846	-133,245	-0,058	0,005
-426,832	800,000	0,041	-0,121
-425,817	-12,873	0,103	0,049
-424,803	-39,444	0,150	-0,057
-423,788	-200,000	0,011	0,096
-422,773	-3,252	-0,087	-0,044
-421,759	524,533	-0,015	-0,025
-420,744	-200,000	0,001	-0,041
-419,730	800,000	-0,006	0,018
-418,715	-200,000	-0,010	-0,104
-417,701	800,000	0,023	-0,069
-416,686	-200,000	-0,010	-0,099
-415,671	63,501	0,088	-0,064
-414,657	-200,000	0,017	-0,098
-413,642	55,793	0,014	-0,010
-412,628	-127,689	-0,091	0,009
-411,613	-67,320	-0,145	-0,041
-410,598	-7,896	0,120	-0,059
-409,584	-35,738	-0,129	0,051
-408,569	25,019	0,059	0,036
-407,555	188,763	-0,091	0,099
-406,540	-67,138	-0,160	0,046
-405,525	162,562	-0,062	0,063
-404,511	127,426	-0,017	-0,015
-403,496	416,222	-0,111	-0,173
-402,482	-1,443	0,095	0,049
-401,467	418,879	-0,044	-0,069
-400,452	-200,000	-0,041	0,180
-399,438	477,321	0,023	-0,037
-398,423	386,764	0,015	0,022
-397,409	-200,000	-0,006	0,052
-396,394	428,853	-0,034	0,054
-395,379	88,982	-0,195	0,158
-394,365	-200,000	0,011	0,102
-393,350	-200,000	-0,010	0,112
-392,336	800,000	0,016	0,033
-391,321	-146,820	-0,038	0,002
-390,306	800,000	-0,029	-0,085
-389,292	224,091	0,053	0,062
-388,277	21,851	0,050	0,029
-387,263	800,000	0,038	0,081
-386,248	76,667	0,074	0,057
-385,233	800,000	-0,025	0,056
-384,219	800,000	-0,017	0,053
-383,204	236,715	0,053	0,064
-382,190	800,000	-0,033	0,078
-381,175	8,542	0,062	0,034
-380,160	36,345	0,064	0,041
-379,146	-200,000	-0,070	-0,250
-378,131	800,000	-0,036	0,092
-377,117	88,094	0,045	-0,036
-376,102	-200,000	0,002	0,020
-375,088	376,955	-0,056	0,083
-374,073	-200,000	-0,003	-0,065
-373,058	-102,933	0,061	0,010
-372,044	800,000	-0,007	-0,020
-371,029	-191,423	0,107	-0,001
-370,015	537,886	0,041	-0,072
-369,000	480,816	0,067	-0,110
-367,985	228,552	-0,047	-0,056
-366,971	-131,149	-0,075	-0,007
-365,956	-200,000	0,006	0,099
-364,942	425,809	0,048	0,076
-363,927	-87,285	-0,075	0,016
-362,912	137,640	0,106	0,101
-361,898	29,864	0,151	0,093
-360,883	800,000	0,029	0,071
-359,869	-39,239	-0,116	-0,044
-358,854	-200,000	0,028	0,163
-357,839	800,000	-0,017	-0,042
-356,825	-200,000	0,030	0,147
-355,810	58,192	0,084	0,060
-354,796	484,224	-0,081	-0,134
-353,781	78,044	0,051	0,039
-352,766	-26,789	-0,048	0,021
-351,752	-200,000	-0,025	0,214
-350,737	-40,576	0,091	-0,034
-349,723	-14,728	0,081	0,038
-348,708	-200,000	-0,022	0,080
-347,693	-56,444	0,041	0,013
-346,679	-19,455	0,041	0,018
-345,664	97,066	0,069	0,057
-344,650	-98,945	0,049	0,009
-343,635	-118,915	0,075	0,009
-342,620	66,530	0,086	0,064
-341,606	397,958	0,047	0,072
-340,591	-128,918	0,119	-0,012
-339,577	-200,000	-0,020	-0,129
-338,562	-62,318	-0,174	-0,052
-337,548	-200,000	0,025	-0,129
-336,533	-200,000	-0,005	0,126
-335,518	-200,000	-0,005	-0,044
-334,504	653,581	-0,030	-0,056
-333,489	1,405	-0,113	0,059
-332,475	55,094	-0,056	-0,039
-331,460	246,752	0,060	0,074
-330,445	800,000	0,060	0,140
-329,431	-61,788	-0,101	0,031
-328,416	-177,728	0,057	-0,001
-327,402	800,000	-0,014	-0,032
-326,387	28,030	-0,075	-0,046
-325,372	509,423	0,037	0,063
-324,358	-200,000	0,018	-0,079
-323,343	800,000	0,018	-0,053
-322,329	327,252	0,029	0,041
-321,314	413,895	0,057	0,088
-320,299	197,470	0,016	-0,018
-319,285	380,109	-0,025	0,037
-318,270	375,771	-0,074	-0,110
-317,256	-200,000	0,012	-0,083
-316,241	-49,126	-0,059	-0,020
-315,226	-12,075	0,012	-0,006
-314,212	-3,280	0,109	0,055
-313,197	353,415	0,066	0,095
-312,183	31,766	-0,095	-0,059
-311,168	265,943	0,024	-0,030
-310,153	142,293	-0,132	-0,127
-309,139	-27,382	0,082	0,034
-308,124	11,039	0,081	0,045
-307,110	435,154	0,043	0,067
-306,095	-103,132	0,188	0,032
-305,080	287,231	-0,068	-0,089
-304,066	800,000	-0,012	0,032
-303,051	-200,000	-0,007	-0,057
-302,037	800,000	0,066	-0,158
-301,022	-103,191	-0,041	-0,007
-300,008	130,812	-0,030	0,028
-298,993	-52,276	0,119	0,040
-297,978	211,842	0,085	0,097
-296,964	-200,000	-0,024	0,085
-295,949	-200,000	-0,036	-0,120
-294,935	-34,715	-0,026	-0,010
-293,920	-200,000	-0,023	0,095
-292,905	554,729	0,036	-0,063
-291,891	158,787	0,055	0,055
-290,876	-56,966	0,112	0,035
-289,862	-200,000	-0,019	-0,085
-288,847	-200,000	-0,021	-0,106
-287,832	-200,000	0,015	-0,081
-286,818	800,000	0,010	0,028
-285,803	-26,607	-0,037	0,016
-284,789	-200,000	0,004	0,022
-283,774	67,890	-0,067	-0,050
-282,759	117,047	-0,066	-0,058
-281,745	-200,000	0,007	0,106
-280,730	-139,755	-0,078	-0,006
-279,716	-19,027	-0,150	0,067
-278,701	-92,526	0,006	0,001
-277,686	-200,000	0,005	0,183
-276,672	437,882	-0,087	0,138
-275,657	76,946	0,015	-0,011
-274,643	152,294	-0,058	-0,057
-273,628	601,465	-0,088	-0,159
-272,613	-125,828	0,083	0,009
-271,599	-31,835	0,113	0,046
-270,584	2,138	0,073	-0,038
-269,570	-200,000	0,013	-0,224
-268,555	-150,172	-0,181	-0,010
-267,540	800,000	0,027	0,061
-266,526	-200,000	0,013	-0,048
-265,511	-200,000	-0,005	-0,089
-264,497	76,460	0,111	0,085
-263,482	-40,050	0,078	-0,029
-262,467	-200,000	-0,008	0,029
-261,453	-200,000	-0,011	0,058
-260,438	-64,400	-0,106	0,031
-259,424	-91,663	-0,012	-0,002
-258,409	800,000	-0,034	-0,074
-257,395	800,000	0,017	0,041
-256,380	-31,045	-0,011	-0,004
-255,365	142,542	-0,071	0,068
-254,351	210,294	0,032	0,036
-253,336	92,740	0,054	0,044
-252,322	-161,979	-0,083	-0,003
-251,307	10,664	0,098	-0,054
-250,292	-200,000	0,045	0,171
-249,278	454,769	-0,046	0,074
-248,263	800,000	0,052	-0,107
-247,249	-200,000	0,027	0,090
-246,234	-36,519	0,075	0,029
-245,219	628,641	0,058	-0,107
-244,205	163,275	-0,093	-0,094
-243,190	-66,896	0,123	-0,035
-242,176	800,000	-0,055	0,144
-241,161	655,576	0,105	0,196
-240,146	110,300	0,030	0,026
-239,132	34,880	-0,150	-0,094
-238,117	800,000	0,035	-0,070
-237,103	-50,732	0,054	0,018
-236,088	-118,139	-0,113	0,014
-235,073	-200,000	-0,003	-0,022
-234,059	417,803	-0,016	-0,024
-233,044	216,068	0,142	0,164
-232,030	59,395	-0,117	-0,083
-231,015	111,728	-0,076	-0,066
-230,000	447,110	-0,013	0,020
-228,986	-77,198	0,124	0,031
-227,971	-200,000	0,005	0,061
-226,957	124,782	-0,061	0,055
-225,942	-200,000	0,007	0,084
-224,927	549,585	-0,046	0,080
-223,913	90,705	-0,134	-0,109
-222,898	34,619	0,063	-0,039
-221,884	-41,913	0,072	-0,027
-220,869	-200,000	0,003	-0,044
-219,855	-144,676	-0,124	0,008
-218,840	-32,651	0,159	0,064
-217,825	-16,210	-0,129	0,059
-216,811	-131,418	-0,212	-0,020
-215,796	287,297	-0,064	-0,084
-214,782	-200,000	0,000	-0,072
-213,767	-86,058	0,156	0,034
-212,752	-200,000	-0,008	0,147
-211,738	586,410	0,017	0,030
-210,723	217,724	0,069	0,080
-209,709	-200,000	0,018	-0,154
-208,694	13,919	-0,029	-0,017
-207,679	-109,801	0,045	0,007
-206,665	-52,347	-0,012	0,004
-205,650	-52,857	0,033	-0,011
-204,636	603,239	0,029	-0,053
-203,621	-109,732	-0,034	-0,005
-202,606	-200,000	0,001	0,016
-201,592	46,476	-0,121	0,081
-200,577	-74,252	0,136	0,035
-199,563	-70,170	0,112	0,031
-198,548	413,058	0,015	-0,023
-197,533	800,000	0,055	0,145
-196,519	357,003	-0,051	0,073
-195,504	342,067	0,062	-0,088
-194,490	211,259	-0,110	-0,126
-193,475	775,181	-0,038	0,076
-192,460	800,000	0,041	0,127
-191,446	-200,000	0,019	-0,089
-190,431	800,000	0,037	-0,103
-189,417	-130,459	-0,123	0,012
-188,402	-159,967	0,142	0,005
-187,387	34,170	0,074	0,047
-186,373	8,710	0,070	0,038
-185,358	153,895	-0,029	-0,029
-184,344	360,651	0,040	-0,058
-183,329	-200,000	0,019	0,061
-182,315	-200,000	0,013	0,068
-181,300	-22,682	0,066	0,029
-180,285	-117,911	-0,086	-0,011
-179,271	-59,025	0,124	0,038
-178,256	-200,000	-0,000	-0,002
-177,242	209,666	0,108	-0,122
-176,227	-85,158	0,102	0,023
-175,212	-115,462	0,021	0,003
-174,198	210,304	0,112	-0,127
-173,183	-200,000	0,008	-0,247
-172,169	-200,000	-0,051	-0,169
-171,154	0,902	-0,045	0,023
-170,139	300,709	0,068	0,091
-169,125	59,107	0,043	-0,031
-168,110	76,616	0,042	-0,032
-167,096	-200,000	0,012	-0,072
-166,081	333,808	-0,064	0,090
-165,066	-15,546	-0,050	-0,023
-164,052	238,844	-0,039	0,047
-163,037	-200,000	0,041	-0,157
-162,023	19,413	0,052	0,030
-161,008	-200,000	-0,029	0,117
-159,993	-93,842	-0,052	-0,010
-158,979	800,000	-0,053	0,106
-157,964	54,967	-0,055	0,038
-156,950	-200,000	-0,003	-0,101
-155,935	-89,568	-0,125	0,026
-154,920	14,478	0,111	-0,062
-153,906	44,912	-0,039	0,026
-152,891	-83,973	-0,107	0,024
-151,877	-176,448	-0,154	-0,003
-150,862	584,473	0,078	-0,139
-149,847	-200,000	-0,054	0,210
-148,833	-48,629	-0,071	0,025
-147,818	128,315	0,021	-0,019
-146,804	45,886	-0,111	0,074
-145,789	551,697	-0,065	0,112
-144,775	-32,670	0,060	-0,024
-143,760	-132,953	-0,199	-0,018
-142,745	-29,366	-0,041	0,017
-141,731	-200,000	-0,012	-0,070
-140,716	-200,000	-0,005	-0,031
-139,702	74,779	-0,059	-0,045
-138,687	199,098	0,027	0,030
-137,672	33,712	-0,105	0,066
-136,658	-200,000	0,017	-0,057
-135,643	800,000	0,027	-0,076
-134,629	-82,979	-0,040	-0,009
-133,614	193,758	0,108	0,118
-132,599	-55,986	-0,126	0,040
-131,585	800,000	0,078	0,202
-130,570	-200,000	-0,000	-0,025
-129,556	-155,322	0,080	0,004
-128,541	76,577	-0,180	-0,137
-127,526	-63,921	0,128	-0,037
-126,512	-200,000	0,021	0,107
-125,497	-95,072	0,067	0,013
-124,483	503,285	-0,032	0,053
-123,468	-125,839	0,065	0,007
-122,453	449,980	0,088	0,140
-121,439	800,000	0,041	-0,083
-120,424	-200,000	-0,033	-0,190
-119,410	-179,682	0,064	-0,001
-118,395	-128,589	0,238	-0,024
