DTS Sentinel unit serial number:	SN410029Multiplexer serial number:	ORYXHardware model number:	OX2-SRSoftware version number:	ORYX F/W v4,00 Oryx Data Collector v3.7.2.0data status	okinstallation	B5 Nyhavnadifferential loss correction	single-endedforward channel	channel 2reverse channel	N/Adate	2023/12/14time	11:22:13forward acquisition time	300,00reverse acquisition time	0,00gamma	499,1914k internal	0,3159k external	0,3159temperature offset calibration	1,0000default loss term (dB/km)	0,3820temperature slope calibration	1,0000multiplexer offset coefficient	1,0000multiplexer slope coefficient	1,0000fibre end	0,00T internal ref (°C)	7,36T ext. ref 1 (°C)	-8,04T ext. ref 2 (°C)	-8,05length (m)	temperature (°C)	Stokes	anti-Stokes-744,400	-23,852	0,169	0,074
-743,385	-137,877	-0,303	-0,025
-742,371	-159,966	0,207	0,008
-741,356	-165,804	-0,267	0,008
-740,342	160,935	0,119	0,123
-739,327	-78,213	-0,456	-0,115
-738,312	-15,749	0,240	0,112
-737,298	-82,850	-0,394	-0,093
-736,283	92,458	0,158	0,131
-735,269	-86,384	-0,363	-0,082
-734,254	-17,943	0,146	0,067
-733,239	-5,106	-0,628	-0,317
-732,225	39,986	0,293	0,194
-731,210	-45,310	0,141	-0,051
-730,196	-137,517	-0,044	-0,004
-729,181	-121,552	-0,041	0,005
-728,167	-66,452	0,098	0,028
-727,152	64,164	0,059	-0,044
-726,137	-46,815	-0,193	0,069
-725,123	495,340	-0,002	-0,004
-724,108	2,163	-0,128	-0,068
-723,094	-75,711	-0,118	0,031
-722,079	-69,444	-0,038	0,011
-721,064	800,000	0,039	0,105
-720,050	-142,209	-0,096	0,007
-719,035	800,000	-0,016	0,036
-718,021	33,159	0,064	-0,041
-717,006	11,771	0,088	-0,050
-715,991	800,000	-0,057	-0,132
-714,977	600,973	-0,033	-0,061
-713,962	246,354	-0,027	0,034
-712,948	131,378	0,101	-0,096
-711,933	417,790	0,063	-0,100
-710,918	419,001	0,045	0,071
-709,904	547,140	0,023	0,041
-708,889	202,179	-0,084	-0,095
-707,875	60,706	-0,057	-0,041
-706,860	800,000	0,058	0,134
-705,845	68,962	-0,027	0,021
-704,831	-200,000	-0,023	0,133
-703,816	45,616	0,024	0,017
-702,802	319,346	0,069	-0,097
-701,787	-200,000	-0,022	-0,091
-700,772	14,889	0,056	-0,032
-699,758	-200,000	0,008	0,064
-698,743	0,640	0,026	0,014
-697,729	362,679	-0,127	0,188
-696,714	-200,000	0,005	-0,046
-695,699	-35,554	-0,121	-0,048
-694,685	800,000	-0,043	0,097
-693,670	-82,754	-0,081	-0,019
-692,656	209,899	0,031	0,036
-691,641	-131,170	-0,021	0,002
-690,627	302,992	-0,064	0,087
-689,612	-200,000	0,011	0,099
-688,597	462,637	-0,013	-0,021
-687,583	-42,054	-0,081	-0,030
-686,568	-200,000	-0,021	-0,107
-685,554	-200,000	0,011	0,102
-684,539	800,000	0,023	-0,047
-683,524	800,000	0,024	0,051
-682,510	74,609	0,103	0,080
-681,495	-200,000	-0,023	0,236
-680,481	467,327	-0,087	0,144
-679,466	22,052	-0,038	0,023
-678,451	25,903	-0,046	-0,028
-677,437	136,860	-0,005	0,005
-676,422	-200,000	-0,005	0,069
-675,408	-162,002	0,051	-0,002
-674,393	47,021	0,014	-0,010
-673,378	345,259	-0,054	-0,079
-672,364	-200,000	-0,021	0,154
-671,349	75,525	-0,034	0,026
-670,335	800,000	-0,025	0,057
-669,320	-200,000	0,023	-0,097
-668,305	272,298	0,040	0,052
-667,291	-200,000	-0,030	0,102
-666,276	-21,292	-0,074	-0,033
-665,262	60,367	-0,045	-0,033
-664,247	36,393	-0,086	0,056
-663,232	-22,605	-0,138	-0,061
-662,218	-200,000	0,020	0,122
-661,203	800,000	-0,025	-0,057
-660,189	-115,845	-0,039	-0,005
-659,174	786,679	-0,038	0,077
-658,159	-200,000	-0,002	-0,234
-657,145	-72,924	-0,211	-0,057
-656,130	101,926	-0,100	-0,086
-655,116	-63,780	0,132	0,039
-654,101	-200,000	0,003	0,034
-653,086	-200,000	-0,020	0,115
-652,072	-47,730	-0,112	-0,040
-651,057	196,043	0,044	-0,050
-650,043	1,671	-0,010	-0,005
-649,028	-160,055	-0,090	0,004
-648,014	-200,000	-0,001	0,091
-646,999	-0,676	0,028	0,015
-645,984	800,000	-0,020	-0,041
-644,970	6,038	-0,088	-0,048
-643,955	116,933	-0,109	0,098
-642,941	569,343	0,021	-0,037
-641,926	-176,477	0,024	-0,000
-640,911	619,663	0,031	-0,057
-639,897	800,000	0,037	0,120
-638,882	27,171	-0,100	-0,061
-637,868	800,000	-0,028	-0,072
-636,853	-200,000	-0,017	-0,123
-635,838	-200,000	-0,032	-0,284
-634,824	800,000	-0,007	-0,020
-633,809	42,789	-0,052	0,035
-632,795	119,006	0,073	-0,067
-631,780	126,182	-0,076	0,070
-630,765	-93,599	0,069	0,014
-629,751	-200,000	0,002	0,053
-628,736	-22,172	-0,057	0,025
-627,722	134,773	-0,022	0,021
-626,707	-200,000	0,006	-0,025
-625,692	75,804	0,114	0,089
-624,678	-200,000	-0,004	-0,025
-623,663	-200,000	-0,021	-0,068
-622,649	-19,621	0,074	0,034
-621,634	800,000	0,069	-0,148
-620,619	-200,000	-0,005	-0,045
-619,605	-200,000	-0,013	0,067
-618,590	28,450	0,046	0,029
-617,576	51,449	0,086	0,060
-616,561	-200,000	0,002	-0,014
-615,546	800,000	-0,029	-0,081
-614,532	-12,069	-0,150	0,072
-613,517	426,075	0,052	0,082
-612,503	-200,000	-0,009	-0,075
-611,488	-200,000	0,029	0,113
-610,474	2,602	0,127	-0,067
-609,459	-200,000	0,035	0,144
-608,444	-87,319	-0,029	-0,006
-607,430	-200,000	0,002	-0,028
-606,415	800,000	0,008	0,022
-605,401	-200,000	0,010	-0,033
-604,386	505,256	-0,045	-0,076
-603,371	721,869	-0,021	0,040
-602,357	800,000	-0,047	0,097
-601,342	13,376	-0,135	-0,076
-600,328	800,000	-0,022	-0,072
-599,313	-200,000	-0,001	0,037
-598,298	-133,046	0,013	-0,001
-597,284	99,903	0,128	0,108
-596,269	237,941	0,058	0,071
-595,255	800,000	0,016	-0,039
-594,240	4,436	-0,061	-0,033
-593,225	-70,207	-0,153	-0,042
-592,211	-125,367	0,086	0,009
-591,196	599,269	-0,024	-0,044
-590,182	-91,090	0,089	0,019
-589,167	-200,000	0,056	0,181
-588,152	-2,134	0,158	0,081
-587,138	-7,796	0,062	-0,031
-586,123	278,075	-0,031	-0,040
-585,109	78,062	0,118	-0,092
-584,094	-200,000	0,001	-0,046
-583,079	66,021	0,066	-0,049
-582,065	-74,500	0,075	0,020
-581,050	-148,285	-0,133	-0,008
-580,036	-31,625	0,057	0,023
-579,021	800,000	0,087	-0,197
-578,006	-200,000	0,001	-0,068
-576,992	512,328	-0,034	0,058
-575,977	-200,000	-0,001	0,027
-574,963	-200,000	-0,003	0,151
-573,948	251,514	-0,055	0,069
-572,934	202,789	0,032	-0,037
-571,919	45,644	0,068	0,046
-570,904	-13,277	-0,103	0,049
-569,890	280,103	-0,074	-0,096
-568,875	-140,939	0,119	0,009
-567,861	800,000	-0,027	-0,082
-566,846	-200,000	0,010	0,038
-565,831	161,357	-0,050	0,051
-564,817	-24,242	-0,175	0,076
-563,802	97,907	0,017	0,014
-562,788	800,000	0,043	-0,091
-561,773	-200,000	0,004	-0,201
-560,758	800,000	-0,011	-0,030
-559,744	-118,168	-0,006	0,001
-558,729	800,000	-0,025	-0,068
-557,715	117,423	0,085	-0,077
-556,700	-200,000	-0,005	-0,097
-555,685	175,378	0,039	0,042
-554,671	-108,169	0,093	-0,015
-553,656	163,107	0,083	-0,085
-552,642	134,577	-0,009	-0,008
-551,627	-200,000	-0,034	-0,118
-550,612	-200,000	-0,001	0,132
-549,598	55,683	-0,188	0,133
-548,583	800,000	-0,065	0,160
-547,569	-200,000	0,014	-0,105
-546,554	4,045	-0,039	-0,021
-545,539	80,434	0,112	0,088
-544,525	68,514	0,083	-0,062
-543,510	-101,577	-0,036	-0,006
-542,496	-157,726	0,080	0,003
-541,481	-185,438	0,073	-0,001
-540,466	-181,803	-0,080	-0,001
-539,452	-200,000	-0,028	-0,091
-538,437	-118,735	0,145	0,018
-537,423	-76,310	-0,089	0,023
-536,408	-200,000	0,008	-0,176
-535,393	-56,626	-0,148	0,048
-534,379	426,905	-0,019	-0,031
-533,364	-93,054	0,037	-0,007
-532,350	800,000	-0,080	-0,166
-531,335	-43,945	-0,124	0,045
-530,321	800,000	0,054	0,123
-529,306	-200,000	-0,112	-0,000
-528,291	191,360	-0,055	-0,061
-527,277	-109,303	0,018	0,003
-526,262	-200,000	-0,001	0,040
-525,248	-92,134	0,057	-0,012
-524,233	2,627	0,168	-0,089
-523,218	4,155	0,030	-0,016
-522,204	-17,277	-0,076	0,035
-521,189	-200,000	0,007	-0,030
-520,175	800,000	-0,074	-0,161
-519,160	-200,000	0,008	-0,037
-518,145	84,024	0,051	0,040
-517,131	53,820	0,092	-0,065
-516,116	74,120	-0,077	0,059
-515,102	187,763	0,022	-0,024
-514,087	-85,454	-0,070	-0,016
-513,072	287,604	0,030	-0,040
-512,058	220,303	0,066	0,078
-511,043	-109,514	-0,121	0,018
-510,029	-6,976	0,028	0,014
-509,014	-51,363	0,096	0,033
-507,999	-22,372	-0,098	0,043
-506,985	197,073	-0,058	-0,065
-505,970	-40,550	-0,095	-0,036
-504,956	800,000	-0,050	-0,118
-503,941	146,047	0,085	0,083
-502,926	-138,700	-0,042	-0,003
-501,912	-103,437	0,028	-0,005
-500,897	21,694	0,057	0,034
-499,883	509,378	-0,135	-0,229
-498,868	-38,576	-0,137	-0,053
-497,853	85,007	-0,016	-0,013
-496,839	800,000	-0,039	-0,109
-495,824	-200,000	-0,010	0,130
-494,810	-200,000	-0,033	0,184
-493,795	-38,513	-0,065	-0,025
-492,781	162,564	0,043	-0,044
-491,766	800,000	-0,044	-0,122
-490,751	-130,377	-0,051	-0,005
-489,737	773,321	-0,061	-0,121
-488,722	-82,306	0,210	0,050
-487,708	-70,928	0,074	-0,020
-486,693	-200,000	-0,037	0,140
-485,678	-5,923	-0,081	-0,040
-484,664	38,371	0,120	-0,078
-483,649	-200,000	-0,032	0,117
-482,635	193,276	-0,050	0,055
-481,620	44,609	0,055	0,037
-480,605	-166,016	0,063	0,002
-479,591	155,872	0,021	0,021
-478,576	800,000	0,022	0,056
-477,562	-7,744	0,048	0,023
-476,547	800,000	0,007	0,017
-475,532	-72,512	-0,123	-0,033
-474,518	402,594	0,082	0,127
-473,503	155,146	0,063	0,064
-472,489	-200,000	0,027	0,145
-471,474	-200,000	-0,011	-0,151
-470,459	-120,266	-0,151	0,019
-469,445	-200,000	-0,048	-0,250
-468,430	-103,765	0,067	-0,011
-467,416	391,940	-0,048	-0,074
-466,401	800,000	-0,015	-0,042
-465,386	-200,000	0,012	0,066
-464,372	33,473	-0,094	-0,059
-463,357	-200,000	0,013	-0,149
-462,343	125,656	-0,091	-0,084
-461,328	149,656	-0,101	-0,100
-460,313	167,192	0,033	-0,034
-459,299	241,504	0,035	0,043
-458,284	-145,783	-0,038	-0,002
-457,270	293,927	0,084	0,113
-456,255	21,325	-0,064	0,038
-455,241	-200,000	0,008	-0,102
-454,226	800,000	-0,032	-0,074
-453,211	-43,704	0,151	0,055
-452,197	12,333	0,062	-0,034
-451,182	202,731	0,050	-0,056
-450,168	-200,000	-0,008	0,040
-449,153	-200,000	-0,025	-0,163
-448,138	90,405	0,067	-0,055
-447,124	55,540	-0,074	0,052
-446,109	300,114	0,045	0,061
-445,095	-186,688	0,020	0,000
-444,080	196,446	0,050	0,055
-443,065	800,000	-0,052	-0,125
-442,051	675,528	0,041	-0,077
-441,036	-72,321	-0,051	-0,014
-440,022	-37,022	-0,076	-0,029
-439,007	-3,771	-0,056	-0,028
-437,992	800,000	0,020	-0,049
-436,978	-17,785	-0,150	0,068
-435,963	-200,000	0,001	-0,071
-434,949	75,175	-0,071	0,055
-433,934	96,344	-0,030	0,025
-432,919	-123,711	-0,098	-0,011
-431,905	225,713	-0,055	0,065
-430,890	100,747	0,103	0,087
-429,876	800,000	0,012	-0,028
-428,861	-200,000	-0,001	-0,170
-427,846	255,336	0,045	0,056
-426,832	800,000	-0,010	0,031
-425,817	106,216	0,046	-0,040
-424,803	-200,000	-0,002	0,063
-423,788	-200,000	0,009	-0,099
-422,773	-25,441	0,017	0,007
-421,759	216,155	0,080	0,093
-420,744	338,480	0,076	0,107
-419,730	800,000	-0,013	0,041
-418,715	28,663	0,103	-0,063
-417,701	100,265	-0,080	0,068
-416,686	490,253	0,080	-0,133
-415,671	528,303	0,058	-0,100
-414,657	-200,000	-0,027	0,096
-413,642	-86,396	0,126	0,028
-412,628	-140,825	-0,118	0,009
-411,613	435,509	-0,080	-0,127
-410,598	-200,000	0,014	0,120
-409,584	49,610	0,042	0,029
-408,569	-88,312	0,115	0,025
-407,555	-142,436	0,171	-0,012
-406,540	-37,997	0,104	0,040
-405,525	92,063	-0,109	0,089
-404,511	155,957	-0,065	-0,065
-403,496	110,721	0,091	-0,079
-402,482	211,405	0,016	0,019
-401,467	439,973	0,053	0,085
-400,452	287,990	0,025	0,034
-399,438	-78,886	0,116	-0,028
-398,423	385,987	-0,029	0,043
-397,409	-88,656	-0,082	-0,018
-396,394	-200,000	-0,005	-0,124
-395,379	-200,000	-0,048	-0,157
-394,365	-96,184	0,089	0,017
-393,350	-82,268	0,172	-0,040
-392,336	-200,000	-0,011	0,058
-391,321	-200,000	-0,004	-0,099
-390,306	413,031	0,031	-0,049
-389,292	-100,300	-0,149	0,027
-388,277	328,112	-0,053	0,074
-387,263	346,317	-0,032	0,045
-386,248	-200,000	-0,009	0,076
-385,233	-146,313	-0,197	-0,012
-384,219	-36,472	-0,122	0,047
-383,204	53,475	0,100	-0,070
-382,190	15,962	-0,093	-0,053
-381,175	-200,000	0,000	-0,007
-380,160	-151,494	0,192	-0,010
-379,146	363,228	-0,041	0,059
-378,131	611,767	0,062	0,114
-377,117	-152,580	-0,082	0,004
-376,102	-24,978	-0,073	-0,031
-375,088	94,418	0,061	-0,050
-374,073	93,999	-0,107	-0,088
-373,058	-200,000	0,007	0,083
-372,044	800,000	-0,065	0,147
-371,029	532,377	0,050	0,086
-370,015	157,299	0,062	0,063
-369,000	143,970	-0,108	-0,105
-367,985	43,239	-0,127	-0,084
-366,971	-73,611	0,107	0,028
-365,956	-200,000	0,019	-0,108
-364,942	-200,000	-0,010	-0,130
-363,927	220,939	0,084	0,098
-362,912	654,126	-0,004	0,008
-361,898	-119,826	0,077	-0,010
-360,883	89,763	0,067	-0,054
-359,869	-61,457	-0,058	0,018
-358,854	-93,105	-0,081	-0,016
-357,839	800,000	-0,005	-0,010
-356,825	800,000	0,009	-0,021
-355,810	61,026	-0,057	0,041
-354,796	-200,000	-0,006	0,076
-353,781	90,851	0,108	0,088
-352,766	-200,000	-0,002	0,032
-351,752	-102,185	0,089	-0,015
-350,737	-113,389	0,066	0,009
-349,723	436,640	-0,046	0,073
-348,708	-200,000	0,016	0,058
-347,693	62,904	0,056	-0,041
-346,679	-200,000	-0,011	-0,145
-345,664	-200,000	-0,009	-0,057
-344,650	30,692	-0,069	-0,043
-343,635	-200,000	0,012	0,117
-342,620	-67,968	0,120	-0,034
-341,606	800,000	0,044	-0,134
-340,591	161,695	0,019	-0,019
-339,577	-171,831	-0,085	-0,002
-338,562	169,254	-0,056	-0,058
-337,548	478,745	-0,030	0,050
-336,533	-50,680	-0,061	0,021
-335,518	284,200	-0,033	-0,043
-334,504	-162,619	0,153	0,005
-333,489	32,466	0,085	0,053
-332,475	465,662	-0,046	0,076
-331,460	-38,259	-0,092	0,035
-330,445	-117,117	-0,061	-0,008
-329,431	466,030	-0,051	-0,083
-328,416	800,000	-0,031	0,067
-327,402	542,903	0,039	-0,068
-326,387	800,000	-0,019	-0,052
-325,372	-99,791	-0,122	0,022
-324,358	430,268	-0,018	0,028
-323,343	150,154	0,065	-0,064
-322,329	800,000	-0,020	-0,054
-321,314	-162,795	0,031	0,001
-320,299	24,449	-0,073	-0,044
-319,285	105,554	0,037	-0,032
-318,270	-200,000	0,009	0,143
-317,256	-200,000	0,113	-0,000
-316,241	-187,361	-0,185	-0,002
-315,226	-200,000	0,029	0,162
-314,212	-200,000	0,024	0,172
-313,197	-200,000	0,016	0,076
-312,183	-200,000	-0,015	-0,170
-311,168	-200,000	-0,008	0,050
-310,153	800,000	-0,065	-0,162
-309,139	-143,768	0,048	0,003
-308,124	-9,175	0,119	0,057
-307,110	-41,990	0,081	-0,030
-306,095	800,000	-0,067	0,139
-305,080	-200,000	-0,008	0,053
-304,066	201,436	-0,136	0,152
-303,051	451,342	-0,033	-0,053
-302,037	-130,869	-0,059	-0,006
-301,022	-200,000	0,025	0,119
-300,008	-200,000	0,004	-0,012
-298,993	-200,000	-0,010	0,165
-297,978	32,631	0,097	0,061
-296,964	-129,688	-0,107	-0,010
-295,949	-164,771	0,151	0,005
-294,935	-200,000	-0,007	-0,042
-293,920	-200,000	0,015	-0,048
-292,905	175,836	0,038	0,040
-291,891	146,087	0,011	0,010
-290,876	159,827	-0,018	0,018
-289,862	-37,860	0,040	0,015
-288,847	-31,319	0,049	0,020
-287,832	-179,609	-0,087	-0,001
-286,818	800,000	-0,027	-0,075
-285,803	-13,374	0,131	0,061
-284,789	-175,573	0,123	0,002
-283,774	10,399	-0,074	0,041
-282,759	202,453	0,033	-0,037
-281,745	-158,763	-0,145	0,006
-280,730	-169,120	-0,111	-0,003
-279,716	-48,559	0,097	-0,034
-278,701	240,059	0,104	0,126
-277,686	-200,000	0,026	0,085
-276,672	-80,696	0,157	0,037
-275,657	69,152	-0,081	0,061
-274,643	146,080	-0,034	-0,033
-273,628	-200,000	-0,012	-0,098
-272,613	-200,000	0,050	-0,163
-271,599	-113,840	0,091	0,013
-270,584	1,326	0,092	0,048
-269,570	180,465	0,093	-0,099
-268,555	266,314	0,068	-0,087
-267,540	-170,459	0,063	-0,002
-266,526	-15,726	-0,111	-0,051
-265,511	-104,032	0,049	-0,008
-264,497	404,369	0,035	0,054
-263,482	564,842	-0,022	0,039
-262,467	-162,337	0,110	0,004
-261,453	63,303	-0,097	-0,070
-260,438	157,328	0,045	-0,045
-259,424	800,000	-0,039	-0,080
-258,409	182,529	-0,094	-0,101
-257,395	-200,000	0,000	0,009
-256,380	800,000	-0,056	0,130
-255,365	800,000	-0,036	-0,077
-254,351	321,918	0,045	-0,062
-253,336	80,775	-0,071	0,055
-252,322	-200,000	-0,024	-0,100
-251,307	-200,000	0,010	0,061
-250,292	-151,572	-0,080	-0,004
-249,278	-200,000	0,036	-0,122
-248,263	-103,140	0,091	-0,015
-247,249	134,190	-0,065	0,061
-246,234	289,898	-0,147	-0,193
-245,219	-200,000	-0,006	-0,090
-244,205	-21,479	0,043	0,019
-243,190	-200,000	-0,025	-0,195
-242,176	-171,877	0,052	-0,001
-241,161	-81,883	0,096	0,023
-240,146	-200,000	-0,012	0,087
-239,132	-200,000	-0,024	-0,109
-238,117	99,943	-0,017	0,014
-237,103	184,542	-0,058	-0,063
-236,088	-130,475	-0,158	0,015
-235,073	51,159	0,129	-0,088
-234,059	240,737	-0,066	0,080
-233,044	136,911	-0,025	-0,024
-232,030	-78,415	-0,069	0,017
-231,015	145,236	-0,118	0,114
-230,000	80,302	-0,075	0,058
-228,986	264,852	-0,060	-0,075
-227,971	315,627	0,069	0,094
-226,957	104,230	0,089	0,076
-225,942	-158,127	0,049	0,002
-224,927	-86,137	-0,048	-0,011
-223,913	63,665	-0,071	-0,052
-222,898	-62,036	-0,066	-0,020
-221,884	-200,000	0,005	0,119
-220,869	-74,324	0,104	0,027
-219,855	300,181	0,054	0,072
-218,840	-200,000	0,004	0,013
-217,825	3,528	-0,022	-0,012
-216,811	-200,000	-0,018	-0,058
-215,796	198,951	-0,090	0,100
-214,782	-200,000	0,054	0,184
-213,767	-200,000	-0,002	0,109
-212,752	800,000	0,061	-0,162
-211,738	-27,747	-0,070	-0,029
-210,723	759,192	-0,050	0,098
-209,709	-200,000	0,006	0,150
-208,694	-200,000	0,006	0,107
-207,679	683,426	0,035	-0,066
-206,665	216,582	0,033	-0,038
-205,650	-48,927	0,133	0,046
-204,636	-200,000	0,007	0,066
-203,621	-139,251	-0,045	-0,003
-202,606	123,627	-0,037	0,034
-201,592	-64,762	0,027	-0,008
-200,577	800,000	0,021	0,051
-199,563	76,572	-0,022	-0,017
-198,548	349,687	0,087	0,125
-197,533	-14,929	0,062	-0,029
-196,519	-41,170	-0,137	0,051
-195,504	364,227	0,018	-0,026
-194,490	114,099	-0,113	0,100
-193,475	-200,000	0,010	-0,077
-192,460	265,567	0,060	0,075
-191,446	800,000	0,033	0,094
-190,431	51,641	0,118	0,081
-189,417	-83,095	-0,091	-0,021
-188,402	-200,000	0,009	-0,082
-187,387	647,400	-0,061	-0,113
-186,373	77,947	-0,042	-0,032
-185,358	-67,222	0,184	0,052
-184,344	508,116	-0,039	0,065
-183,329	-200,000	0,014	0,062
-182,315	122,163	0,157	0,141
-181,300	-200,000	-0,015	-0,059
-180,285	-153,910	-0,113	0,005
-179,271	642,465	-0,026	0,047
-178,256	-87,927	-0,145	0,031
-177,242	-93,927	0,093	0,018
-176,227	-200,000	-0,016	0,179
-175,212	221,286	-0,030	0,035
-174,198	408,713	0,045	0,068
-173,183	-18,699	0,065	0,029
-172,169	-32,398	0,120	0,048
-171,154	44,557	-0,084	-0,055
-170,139	800,000	-0,027	0,060
-169,125	-200,000	-0,026	-0,096
-168,110	-200,000	-0,024	0,113
-167,096	-37,181	0,130	-0,050
-166,081	-42,143	-0,054	-0,020
-165,066	598,977	-0,069	0,123
-164,052	350,391	0,107	0,153
-163,037	36,350	-0,084	-0,053
-162,023	800,000	0,040	0,083
-161,008	-200,000	0,029	0,097
-159,993	268,672	0,028	0,036
-158,979	52,288	-0,060	-0,041
-157,964	488,445	-0,038	-0,063
-156,950	87,230	0,132	-0,105
-155,935	800,000	0,030	0,094
-154,920	-200,000	0,014	-0,044
-153,906	7,944	-0,062	0,033
-152,891	-17,409	-0,106	-0,048
-151,877	800,000	-0,020	-0,052
-150,862	289,347	-0,057	-0,074
-149,847	-82,886	-0,033	0,008
-148,833	167,968	-0,073	-0,074
-147,818	52,739	0,087	-0,060
-146,804	-15,372	0,032	0,015
-145,789	800,000	-0,049	0,111
-144,775	104,868	-0,165	-0,140
-143,760	-37,525	-0,025	0,009
-142,745	47,605	0,052	-0,035
-141,731	93,464	0,135	0,110
-140,716	-97,900	0,068	-0,012
-139,702	-200,000	-0,017	0,135
-138,687	-200,000	0,003	0,167
-137,672	408,120	0,034	0,052
-136,658	800,000	0,031	-0,062
-135,643	100,223	-0,076	0,064
-134,629	800,000	0,038	0,095
-133,614	-43,579	0,125	-0,045
-132,599	800,000	0,020	-0,059
-131,585	9,281	-0,170	0,092
-130,570	-135,939	-0,168	-0,014
-129,556	-200,000	-0,018	0,108
-128,541	-57,294	0,078	-0,025
-127,526	172,808	-0,036	0,037
-126,512	147,253	-0,097	-0,094
-125,497	659,734	0,063	0,116
-124,483	228,065	-0,105	0,123
-123,468	72,144	0,086	-0,065
-122,453	-200,000	0,011	0,043
-121,439	-200,000	0,012	0,062
-120,424	81,310	0,020	-0,016
-119,410	70,901	0,010	-0,007
