DTS Sentinel unit serial number:	SN410029Multiplexer serial number:	ORYXHardware model number:	OX2-SRSoftware version number:	ORYX F/W v4,00 Oryx Data Collector v3.7.2.0data status	okinstallation	B5 Nyhavnadifferential loss correction	single-endedforward channel	channel 2reverse channel	N/Adate	2023/12/13time	00:57:13forward acquisition time	300,00reverse acquisition time	0,00gamma	499,1914k internal	0,3159k external	0,3159temperature offset calibration	1,0000default loss term (dB/km)	0,3820temperature slope calibration	1,0000multiplexer offset coefficient	1,0000multiplexer slope coefficient	1,0000fibre end	0,00T internal ref (°C)	14,18T ext. ref 1 (°C)	-2,31T ext. ref 2 (°C)	-2,59length (m)	temperature (°C)	Stokes	anti-Stokes-744,400	-93,244	0,177	-0,036
-743,385	-198,864	-0,345	0,001
-742,371	-200,000	0,046	0,181
-741,356	-95,637	-0,361	0,071
-740,342	297,652	0,088	0,119
-739,327	-161,688	-0,305	-0,011
-738,312	-86,291	0,070	0,016
-737,298	-88,778	-0,335	-0,073
-736,283	344,144	0,088	0,128
-735,269	-167,030	-0,203	-0,006
-734,254	140,241	0,037	0,036
-733,239	-90,237	-0,509	-0,108
-732,225	-106,399	0,106	0,017
-731,210	758,553	0,028	-0,056
-730,196	98,521	-0,104	-0,088
-729,181	800,000	-0,053	0,138
-728,167	16,319	-0,025	0,015
-727,152	15,664	0,045	0,026
-726,137	-109,011	-0,114	0,018
-725,123	74,496	0,032	-0,025
-724,108	800,000	-0,052	0,113
-723,094	-200,000	0,009	-0,092
-722,079	180,349	0,022	0,024
-721,064	56,641	0,060	-0,043
-720,050	24,690	-0,065	0,040
-719,035	-15,005	0,055	-0,026
-718,021	-200,000	-0,003	-0,035
-717,006	102,114	-0,075	-0,065
-715,991	69,605	-0,116	-0,088
-714,977	-66,863	-0,075	-0,022
-713,962	19,939	-0,088	-0,052
-712,948	-171,759	0,093	-0,002
-711,933	186,274	0,030	0,033
-710,918	-200,000	0,019	-0,126
-709,904	-161,573	-0,179	-0,007
-708,889	-200,000	-0,019	-0,146
-707,875	-200,000	-0,026	-0,203
-706,860	58,212	0,064	-0,046
-705,845	608,628	-0,071	-0,130
-704,831	635,010	0,033	0,063
-703,816	-61,868	-0,096	0,029
-702,802	-200,000	-0,028	0,098
-701,787	-200,000	-0,021	-0,138
-700,772	62,884	0,096	-0,071
-699,758	800,000	0,019	-0,042
-698,743	-116,880	0,152	0,020
-697,729	-180,102	-0,066	-0,001
-696,714	-5,219	-0,103	0,052
-695,699	77,063	0,036	-0,028
-694,685	84,125	-0,052	-0,042
-693,670	-129,078	0,041	0,004
-692,656	-200,000	-0,025	-0,106
-691,641	-4,857	0,045	-0,023
-690,627	42,798	-0,089	-0,060
-689,612	-200,000	0,003	0,076
-688,597	254,285	-0,022	0,027
-687,583	-159,268	-0,050	0,002
-686,568	-56,710	-0,106	-0,034
-685,554	118,708	0,052	-0,047
-684,539	584,317	0,044	0,081
-683,524	437,056	0,015	-0,023
-682,510	-167,325	0,095	0,003
-681,495	65,295	-0,164	-0,122
-680,481	-94,280	0,093	-0,019
-679,466	-76,991	-0,143	-0,037
-678,451	452,865	0,013	-0,021
-677,437	-200,000	-0,006	0,034
-676,422	-200,000	-0,009	0,121
-675,408	800,000	-0,021	0,054
-674,393	-200,000	-0,012	-0,234
-673,378	253,269	-0,116	-0,146
-672,364	9,079	-0,085	0,047
-671,349	-47,134	-0,145	0,052
-670,335	73,102	-0,060	0,046
-669,320	-100,117	-0,013	0,002
-668,305	74,866	0,056	-0,043
-667,291	224,127	-0,091	-0,108
-666,276	-150,450	-0,128	0,007
-665,262	42,089	-0,170	-0,113
-664,247	-82,084	-0,022	-0,005
-663,232	52,249	0,032	-0,023
-662,218	800,000	0,051	0,108
-661,203	-2,343	-0,071	0,036
-660,189	320,039	-0,012	0,016
-659,174	-200,000	-0,003	0,067
-658,159	-53,505	0,032	-0,011
-657,145	458,473	0,038	-0,062
-656,130	-200,000	0,019	-0,101
-655,116	536,693	0,034	-0,060
-654,101	-200,000	0,006	0,028
-653,086	361,761	-0,090	0,133
-652,072	785,823	0,065	-0,131
-651,057	27,585	-0,093	-0,057
-650,043	68,356	-0,042	-0,031
-649,028	-89,972	-0,074	0,016
-648,014	-200,000	0,021	0,087
-646,999	-66,625	0,035	0,010
-645,984	-3,534	0,122	-0,062
-644,970	160,086	-0,150	-0,153
-643,955	420,254	0,047	-0,073
-642,941	-98,800	-0,181	-0,034
-641,926	161,720	-0,023	-0,024
-640,911	80,412	0,125	-0,099
-639,897	800,000	-0,045	-0,120
-638,882	-98,281	-0,052	0,010
-637,868	-55,110	-0,077	0,025
-636,853	152,243	0,026	0,026
-635,838	122,538	0,071	0,065
-634,824	-81,311	0,085	-0,020
-633,809	8,226	-0,079	0,043
-632,795	117,484	0,117	0,106
-631,780	34,282	0,048	-0,030
-630,765	212,553	-0,049	0,057
-629,751	-200,000	-0,013	-0,047
-628,736	0,622	-0,200	-0,105
-627,722	29,893	0,051	-0,032
-626,707	251,381	0,055	-0,069
-625,692	800,000	0,018	0,038
-624,678	237,220	-0,027	-0,033
-623,663	-17,910	0,024	-0,011
-622,649	93,474	-0,036	0,030
-621,634	-156,167	-0,075	-0,003
-620,619	-42,712	0,046	-0,017
-619,605	340,785	0,078	-0,112
-618,590	-100,528	0,033	-0,006
-617,576	91,652	0,074	0,061
-616,561	800,000	0,051	-0,110
-615,546	-26,662	-0,157	-0,067
-614,532	693,417	-0,031	-0,059
-613,517	151,885	-0,048	0,048
-612,503	-140,716	-0,031	0,002
-611,488	71,506	-0,059	0,045
-610,474	223,501	0,130	0,154
-609,459	664,424	0,076	-0,144
-608,444	800,000	0,021	-0,067
-607,430	-4,803	-0,122	-0,061
-606,415	30,613	-0,056	-0,035
-605,401	5,306	0,121	-0,065
-604,386	343,274	0,015	-0,022
-603,371	-80,462	0,144	0,035
-602,357	160,344	-0,086	-0,088
-601,342	763,952	-0,100	0,201
-600,328	21,983	-0,087	-0,052
-599,313	368,001	0,044	-0,065
-598,298	208,288	0,017	0,019
-597,284	-200,000	0,016	-0,082
-596,269	-14,587	0,105	0,049
-595,255	117,744	0,030	-0,027
-594,240	323,477	0,007	0,010
-593,225	800,000	-0,013	-0,041
-592,211	800,000	0,027	-0,078
-591,196	-54,882	-0,050	0,017
-590,182	2,857	-0,044	0,023
-589,167	-180,268	0,183	-0,003
-588,152	-200,000	0,011	0,117
-587,138	-8,111	-0,048	0,024
-586,123	503,751	0,033	-0,055
-585,109	800,000	-0,045	0,121
-584,094	-200,000	-0,022	-0,112
-583,079	-200,000	0,016	-0,131
-582,065	800,000	-0,040	-0,089
-581,050	-163,145	0,095	0,003
-580,036	-69,325	-0,093	-0,026
-579,021	-200,000	0,021	-0,090
-578,006	62,521	-0,052	-0,038
-576,992	438,334	-0,046	-0,073
-575,977	64,819	-0,044	-0,032
-574,963	-200,000	0,020	0,071
-573,948	-200,000	-0,048	0,243
-572,934	-200,000	0,024	-0,147
-571,919	168,075	0,076	-0,079
-570,904	44,388	-0,029	-0,019
-569,890	-106,219	-0,091	-0,015
-568,875	534,248	0,019	0,033
-567,861	300,903	0,030	0,040
-566,846	-7,470	0,032	-0,016
-565,831	255,362	0,086	0,108
-564,817	-200,000	0,005	0,132
-563,802	-200,000	-0,004	0,040
-562,788	-53,712	0,029	0,010
-561,773	-120,787	-0,082	0,010
-560,758	-200,000	-0,003	0,017
-559,744	-200,000	0,033	0,143
-558,729	103,880	-0,041	0,036
-557,715	-200,000	-0,002	-0,108
-556,700	-200,000	0,010	-0,098
-555,685	325,412	-0,100	-0,140
-554,671	363,295	0,018	0,027
-553,656	120,642	0,097	0,088
-552,642	72,005	-0,098	0,075
-551,627	1,187	0,114	-0,059
-550,612	-83,320	-0,100	0,023
-549,598	6,737	-0,053	-0,029
-548,583	-200,000	-0,011	0,041
-547,569	-52,060	0,049	0,017
-546,554	-200,000	0,045	0,185
-545,539	-200,000	0,014	-0,055
-544,525	-200,000	0,011	-0,037
-543,510	493,211	-0,047	-0,079
-542,496	-17,074	-0,157	0,072
-541,481	120,462	-0,052	0,047
-540,466	373,475	0,077	0,114
-539,452	-54,749	0,096	-0,031
-538,437	195,162	0,112	0,125
-537,423	-200,000	0,018	0,059
-536,408	800,000	0,050	-0,110
-535,393	-200,000	0,022	0,130
-534,379	-200,000	0,032	-0,140
-533,364	192,194	0,091	-0,101
-532,350	800,000	0,039	0,085
-531,335	-71,859	0,110	0,030
-530,321	-95,026	-0,100	0,019
-529,306	-200,000	0,005	-0,041
-528,291	800,000	0,011	0,024
-527,277	-33,591	-0,051	-0,021
-526,262	-200,000	-0,012	0,135
-525,248	-200,000	-0,010	-0,068
-524,233	-200,000	-0,003	0,025
-523,218	114,049	0,066	-0,059
-522,204	-200,000	-0,033	0,135
-521,189	-200,000	-0,002	-0,090
-520,175	663,120	-0,048	-0,090
-519,160	577,109	0,067	-0,121
-518,145	-22,128	0,104	0,046
-517,131	371,711	-0,021	-0,031
-516,116	223,722	-0,025	0,029
-515,102	-200,000	-0,014	0,073
-514,087	386,796	0,068	-0,102
-513,072	72,912	0,086	-0,065
-512,058	-31,201	0,036	-0,015
-511,043	-200,000	-0,010	-0,086
-510,029	-200,000	-0,008	0,095
-509,014	124,082	0,126	0,116
-507,999	74,555	0,075	-0,058
-506,985	390,154	-0,012	-0,018
-505,970	-29,059	-0,160	-0,067
-504,956	-33,701	-0,100	0,040
-503,941	800,000	-0,061	-0,134
-502,926	-138,208	0,059	0,005
-501,912	450,630	0,034	0,055
-500,897	-85,044	-0,049	-0,011
-499,883	34,125	-0,053	0,034
-498,868	-200,000	0,032	-0,110
-497,853	-200,000	-0,038	0,166
-496,839	800,000	-0,039	-0,082
-495,824	-150,785	-0,088	0,005
-494,810	81,160	0,098	0,077
-493,795	-174,298	-0,028	-0,001
-492,781	275,301	-0,033	0,042
-491,766	-0,452	-0,115	-0,060
-490,751	80,448	-0,107	-0,084
-489,737	64,130	-0,115	0,085
-488,722	800,000	0,012	-0,039
-487,708	26,736	-0,099	0,060
-486,693	-179,583	-0,065	-0,001
-485,678	-200,000	-0,007	-0,087
-484,664	108,260	-0,109	-0,095
-483,649	39,552	0,118	-0,077
-482,635	-95,706	-0,017	-0,003
-481,620	-200,000	0,011	-0,101
-480,605	-15,470	0,133	0,062
-479,591	453,591	-0,082	0,133
-478,576	492,603	-0,069	0,116
-477,562	14,822	-0,072	-0,041
-476,547	33,514	0,003	-0,002
-475,532	-45,109	0,116	0,042
-474,518	-148,254	0,020	0,001
-473,503	-67,332	-0,028	-0,008
-472,489	-142,662	-0,087	0,006
-471,474	220,778	0,063	0,074
-470,459	31,732	-0,069	-0,043
-469,445	79,902	-0,110	-0,086
-468,430	-73,983	-0,120	0,032
-467,416	378,049	0,134	-0,200
-466,401	-170,339	-0,018	-0,000
-465,386	234,654	-0,087	-0,105
-464,372	510,529	-0,046	0,079
-463,357	395,428	-0,029	-0,044
-462,343	-39,441	-0,129	-0,049
-461,328	-200,000	0,009	-0,097
-460,313	-90,375	-0,062	0,013
-459,299	264,756	-0,067	0,085
-458,284	-89,420	0,062	0,013
-457,270	-85,064	0,059	-0,013
-456,255	-36,894	-0,082	0,032
-455,241	242,759	0,040	0,049
-454,226	320,226	0,052	0,072
-453,211	709,013	-0,042	-0,082
-452,197	800,000	-0,014	-0,037
-451,182	-120,272	0,132	0,016
-450,168	800,000	0,010	0,025
-449,153	-184,861	0,023	-0,000
-448,138	45,438	-0,058	0,039
-447,124	-153,003	0,042	0,002
-446,109	24,594	-0,087	0,052
-445,095	-18,038	0,042	-0,019
-444,080	800,000	0,033	0,081
-443,065	11,426	0,122	0,068
-442,051	-12,910	-0,020	0,010
-441,036	-162,261	-0,056	0,002
-440,022	171,849	0,050	-0,053
-439,007	-58,206	-0,114	-0,036
-437,992	-1,659	0,039	0,020
-436,978	800,000	0,028	0,058
-435,963	-42,574	0,045	-0,017
-434,949	-33,628	0,072	-0,029
-433,934	38,263	0,076	-0,049
-432,919	-37,450	-0,152	-0,059
-431,905	-110,390	0,068	0,010
-430,890	217,298	0,031	-0,036
-429,876	61,830	0,017	-0,012
-428,861	800,000	-0,039	0,105
-427,846	98,210	0,059	0,049
-426,832	-174,761	-0,084	0,002
-425,817	614,047	-0,026	-0,047
-424,803	87,840	0,166	-0,134
-423,788	-0,904	0,069	-0,035
-422,773	235,749	0,042	-0,051
-421,759	-200,000	0,011	0,105
-420,744	-28,839	-0,097	0,040
-419,730	800,000	-0,042	-0,096
-418,715	-200,000	0,007	-0,040
-417,701	-200,000	-0,018	-0,122
-416,686	-200,000	-0,033	0,155
-415,671	246,522	0,031	0,039
-414,657	-78,454	0,106	0,026
-413,642	-90,812	-0,081	0,017
-412,628	-200,000	-0,013	-0,099
-411,613	329,479	0,018	0,025
-410,598	-57,420	0,141	0,045
-409,584	109,496	-0,085	0,074
-408,569	225,955	0,051	0,060
-407,555	235,766	0,048	-0,057
-406,540	-200,000	0,010	-0,055
-405,525	-20,736	0,089	0,040
-404,511	248,540	-0,017	-0,021
-403,496	-24,868	0,092	0,040
-402,482	342,508	-0,046	-0,065
-401,467	-200,000	0,006	0,084
-400,452	248,214	0,013	0,017
-399,438	-144,893	0,012	-0,001
-398,423	763,184	-0,009	-0,017
-397,409	-42,402	0,032	-0,012
-396,394	-38,179	-0,096	0,037
-395,379	800,000	-0,040	0,116
-394,365	-5,139	0,186	0,093
-393,350	16,199	0,061	0,035
-392,336	185,869	-0,104	0,113
-391,321	340,615	0,066	0,094
-390,306	372,949	-0,088	-0,131
-389,292	-200,000	0,015	0,083
-388,277	343,205	-0,077	0,110
-387,263	-200,000	-0,014	-0,054
-386,248	-200,000	-0,016	-0,096
-385,233	348,948	0,023	-0,033
-384,219	238,274	0,038	-0,046
-383,204	-200,000	-0,005	-0,065
-382,190	-200,000	0,019	0,070
-381,175	6,009	0,074	-0,040
-380,160	32,929	0,124	0,078
-379,146	-96,951	0,055	-0,010
-378,131	-200,000	0,001	-0,105
-377,117	139,294	0,052	-0,049
-376,102	-57,619	0,084	-0,027
-375,088	294,146	-0,065	0,087
-374,073	800,000	0,059	-0,150
-373,058	800,000	0,078	-0,168
-372,044	-200,000	0,005	0,054
-371,029	23,520	0,105	0,063
-370,015	-200,000	0,016	0,146
-369,000	102,805	0,052	-0,044
-367,985	-200,000	-0,003	-0,066
-366,971	-200,000	-0,006	-0,059
-365,956	166,999	0,123	0,127
-364,942	308,627	-0,032	0,043
-363,927	-41,572	0,072	-0,027
-362,912	-56,798	-0,154	-0,049
-361,898	331,840	-0,034	-0,047
-360,883	-200,000	-0,033	-0,144
-359,869	19,020	0,109	-0,063
-358,854	-200,000	0,009	-0,035
-357,839	800,000	-0,036	0,105
-356,825	-200,000	0,057	0,209
-355,810	-136,330	-0,125	0,010
-354,796	-49,940	0,078	-0,027
-353,781	-200,000	0,007	0,039
-352,766	-123,420	-0,048	-0,006
-351,752	-200,000	-0,019	0,136
-350,737	44,860	0,103	-0,069
-349,723	120,290	0,159	0,143
-348,708	-18,149	-0,098	0,044
-347,693	260,383	0,028	0,035
-346,679	646,567	-0,055	0,103
-345,664	120,771	0,083	-0,075
-344,650	-200,000	-0,006	0,061
-343,635	800,000	0,044	0,123
-342,620	-200,000	-0,011	0,042
-341,606	800,000	0,023	0,052
-340,591	149,043	-0,063	-0,062
-339,577	-200,000	-0,030	-0,212
-338,562	747,874	-0,033	0,065
-337,548	-101,360	0,082	0,014
-336,533	419,187	-0,047	-0,073
-335,518	-200,000	-0,004	0,050
-334,504	-9,291	0,106	0,051
-333,489	-37,750	-0,163	-0,063
-332,475	732,960	0,036	0,070
-331,460	186,942	-0,020	-0,021
-330,445	-150,051	-0,089	0,005
-329,431	-29,567	0,097	-0,040
-328,416	667,634	0,025	0,046
-327,402	-133,205	0,190	-0,017
-326,387	-112,165	-0,188	-0,027
-325,372	-59,737	-0,096	-0,030
-324,358	800,000	0,035	-0,091
-323,343	-200,000	0,044	-0,191
-322,329	-200,000	-0,007	0,133
-321,314	-200,000	-0,015	0,094
-320,299	-69,069	0,083	-0,023
-319,285	-200,000	-0,036	-0,115
-318,270	-46,075	0,082	0,029
-317,256	18,573	0,064	-0,037
-316,241	800,000	-0,021	0,044
-315,226	800,000	0,046	0,133
-314,212	-200,000	-0,010	0,238
-313,197	-200,000	-0,031	0,205
-312,183	800,000	0,018	0,043
-311,168	-59,169	-0,106	0,033
-310,153	-200,000	-0,006	-0,058
-309,139	187,631	-0,100	-0,109
-308,124	-200,000	-0,008	-0,117
-307,110	46,332	0,113	-0,076
-306,095	137,164	0,087	0,083
-305,080	-200,000	-0,032	0,000
-304,066	-200,000	-0,025	-0,119
-303,051	-200,000	-0,053	0,195
-302,037	-68,559	0,168	0,047
-301,022	2,752	0,092	0,048
-300,008	0,612	0,028	-0,014
-298,993	-63,927	-0,149	0,044
-297,978	-22,138	0,082	0,036
-296,964	-60,116	-0,054	0,017
-295,949	-200,000	0,000	-0,009
-294,935	800,000	0,062	-0,134
-293,920	800,000	0,022	0,064
-292,905	800,000	0,033	0,092
-291,891	-16,771	-0,095	-0,043
-290,876	301,625	-0,067	0,090
-289,862	249,771	-0,042	-0,052
-288,847	800,000	-0,027	0,070
-287,832	800,000	-0,009	0,028
-286,818	-30,334	-0,072	-0,030
-285,803	276,366	0,066	0,086
-284,789	39,945	-0,051	0,033
-283,774	143,306	-0,038	-0,036
-282,759	800,000	0,055	0,129
-281,745	5,110	-0,048	-0,025
-280,730	273,825	0,057	-0,073
-279,716	187,555	-0,043	-0,047
-278,701	800,000	-0,034	-0,098
-277,686	-90,124	0,030	-0,006
-276,672	57,619	-0,055	0,039
-275,657	800,000	0,012	0,036
-274,643	436,314	-0,080	-0,126
-273,628	58,684	-0,137	-0,097
-272,613	-174,746	0,062	0,001
-271,599	800,000	-0,040	-0,107
-270,584	799,925	-0,011	-0,022
-269,570	-147,106	0,139	-0,008
-268,555	-200,000	0,011	0,123
-267,540	-50,493	-0,139	0,047
-266,526	461,812	0,065	-0,106
-265,511	-100,213	0,065	0,012
-264,497	34,901	0,063	0,040
-263,482	16,972	0,086	0,049
-262,467	-200,000	0,001	0,099
-261,453	311,469	-0,023	-0,031
-260,438	7,937	-0,077	0,041
-259,424	172,607	-0,047	-0,049
-258,409	-200,000	-0,001	-0,261
-257,395	-107,480	-0,122	0,019
-256,380	648,910	0,023	0,043
-255,365	319,964	0,082	0,113
-254,351	38,041	-0,084	0,054
-253,336	-145,527	-0,033	-0,002
-252,322	-200,000	-0,027	-0,109
-251,307	-171,515	0,052	-0,001
-250,292	-200,000	-0,022	0,091
-249,278	544,438	0,050	0,087
-248,263	535,548	-0,004	0,008
-247,249	321,276	-0,059	0,082
-246,234	373,913	-0,055	0,081
-245,219	49,116	0,076	0,051
-244,205	753,019	-0,046	-0,091
-243,190	269,757	-0,043	0,055
-242,176	151,972	0,087	-0,086
-241,161	63,883	-0,126	0,092
-240,146	180,111	0,142	0,151
-239,132	-200,000	-0,010	-0,110
-238,117	49,160	-0,070	0,047
-237,103	-200,000	-0,020	-0,105
-236,088	-200,000	0,001	-0,077
-235,073	-137,241	0,058	-0,005
-234,059	67,757	0,096	-0,071
-233,044	159,740	0,088	0,089
-232,030	-200,000	-0,000	0,087
-231,015	800,000	-0,009	0,023
-230,000	-200,000	-0,015	-0,122
-228,986	523,988	0,018	0,031
-227,971	225,965	-0,025	-0,029
-226,957	-9,994	-0,121	-0,058
-225,942	215,042	-0,131	-0,150
-224,927	-17,939	-0,069	-0,031
-223,913	-49,314	-0,201	-0,069
-222,898	-8,619	-0,039	-0,019
-221,884	800,000	-0,029	-0,069
-220,869	-70,431	-0,033	-0,009
-219,855	-9,276	0,067	-0,032
-218,840	217,988	-0,124	0,143
-217,825	-90,683	0,026	0,005
-216,811	-62,239	0,138	-0,041
-215,796	-124,832	-0,135	-0,015
-214,782	-70,888	0,089	0,024
-213,767	-18,106	0,043	-0,019
-212,752	-200,000	0,022	-0,079
-211,738	-200,000	0,010	0,124
-210,723	800,000	0,019	-0,053
-209,709	-200,000	-0,030	-0,108
-208,694	-200,000	0,006	-0,104
-207,679	-74,647	-0,110	-0,028
-206,665	-200,000	-0,017	-0,086
-205,650	800,000	0,025	-0,073
-204,636	800,000	-0,015	0,047
-203,621	107,411	-0,010	-0,008
-202,606	-200,000	0,007	0,046
-201,592	158,095	0,080	-0,080
-200,577	237,582	-0,044	-0,052
-199,563	110,686	-0,038	-0,033
-198,548	327,454	0,082	0,113
-197,533	118,792	-0,084	0,075
-196,519	162,503	0,052	-0,053
-195,504	-105,691	0,071	-0,011
-194,490	-200,000	-0,003	-0,058
-193,475	101,123	-0,048	0,040
-192,460	-56,782	0,029	-0,009
-191,446	56,250	0,121	-0,085
-190,431	93,082	-0,043	0,035
-189,417	-200,000	-0,001	0,039
-188,402	-200,000	-0,006	0,115
-187,387	-87,992	-0,070	-0,015
-186,373	-48,271	-0,110	0,038
-185,358	-68,418	0,003	0,001
-184,344	-110,623	0,121	0,018
-183,329	194,301	0,053	0,058
-182,315	66,848	0,088	0,065
-181,300	173,237	-0,016	-0,017
-180,285	-200,000	0,004	-0,112
-179,271	-200,000	-0,002	-0,077
-178,256	-83,301	-0,049	0,011
-177,242	287,994	-0,033	0,044
-176,227	-62,810	-0,092	0,027
-175,212	-18,664	0,117	-0,052
-174,198	107,681	-0,036	-0,031
-173,183	548,830	0,037	-0,065
-172,169	-61,019	-0,019	-0,006
-171,154	-59,269	-0,075	-0,023
-170,139	233,571	0,051	0,061
-169,125	-200,000	-0,010	0,070
-168,110	345,323	0,045	0,064
-167,096	132,253	-0,119	0,111
-166,081	-161,148	0,156	-0,006
-165,066	85,872	0,052	-0,041
-164,052	75,250	0,026	-0,019
-163,037	-127,666	0,074	-0,008
-162,023	-179,684	-0,122	-0,002
-161,008	-119,080	0,033	-0,004
-159,993	800,000	-0,032	-0,065
-158,979	145,666	-0,144	0,139
-157,964	-200,000	0,000	-0,083
-156,950	36,843	-0,096	0,061
-155,935	-200,000	-0,018	0,063
-154,920	158,671	0,121	0,122
-153,906	-200,000	-0,030	0,118
-152,891	800,000	-0,028	0,060
-151,877	-91,341	-0,092	-0,019
-150,862	800,000	-0,011	-0,030
-149,847	-200,000	-0,010	-0,065
-148,833	246,379	-0,035	0,043
-147,818	41,289	0,082	0,053
-146,804	743,313	0,021	0,041
-145,789	-200,000	0,005	0,131
-144,775	-200,000	-0,000	0,044
-143,760	-200,000	-0,014	-0,134
-142,745	-44,198	0,034	0,012
-141,731	-200,000	0,004	0,141
-140,716	44,319	0,066	-0,043
-139,702	-10,326	0,075	-0,035
-138,687	167,578	-0,005	0,005
-137,672	41,180	0,145	0,094
-136,658	333,616	-0,034	-0,047
-135,643	-200,000	0,001	0,039
-134,629	-116,407	-0,069	0,009
-133,614	-66,859	0,017	-0,005
-132,599	133,887	0,027	0,025
-131,585	-200,000	-0,016	0,105
-130,570	46,651	-0,063	-0,042
-129,556	-200,000	0,015	-0,082
-128,541	-77,197	-0,094	-0,023
-127,526	-200,000	0,003	0,018
-126,512	-119,897	0,124	0,015
-125,497	-200,000	-0,009	-0,071
-124,483	800,000	0,054	0,164
-123,468	27,455	-0,068	0,041
-122,453	29,156	-0,066	-0,040
-121,439	229,554	-0,025	-0,030
-120,424	-70,488	0,021	-0,006
-119,410	800,000	0,042	-0,099
