DTS Sentinel unit serial number:	SN410029Multiplexer serial number:	ORYXHardware model number:	OX2-SRSoftware version number:	ORYX F/W v4,00 Oryx Data Collector v3.7.2.0data status	okinstallation	B5 Nyhavnadifferential loss correction	single-endedforward channel	channel 2reverse channel	N/Adate	2023/12/12time	12:57:13forward acquisition time	300,00reverse acquisition time	0,00gamma	499,1914k internal	0,3158k external	0,3158temperature offset calibration	1,0000default loss term (dB/km)	0,3820temperature slope calibration	1,0000multiplexer offset coefficient	1,0000multiplexer slope coefficient	1,0000fibre end	0,00T internal ref (°C)	15,45T ext. ref 1 (°C)	-0,46T ext. ref 2 (°C)	-0,70length (m)	temperature (°C)	Stokes	anti-Stokes-744,400	-200,000	0,032	0,152
-743,385	-192,603	-0,290	-0,002
-742,371	-200,000	0,012	0,078
-741,356	145,321	-0,134	0,132
-740,342	-18,145	0,233	0,107
-739,327	-64,023	-0,234	0,070
-738,312	-185,654	0,020	0,000
-737,298	-90,306	-0,232	0,049
-736,283	53,478	0,156	-0,110
-735,269	-161,853	-0,247	-0,009
-734,254	617,956	0,056	-0,103
-733,239	-21,284	-0,336	-0,151
-732,225	-17,568	0,113	0,052
-731,210	-200,000	-0,016	0,127
-730,196	800,000	-0,048	0,120
-729,181	-92,861	0,085	0,017
-728,167	-44,149	-0,050	0,018
-727,152	-11,336	0,015	0,007
-726,137	-113,406	-0,223	-0,032
-725,123	266,877	0,044	-0,057
-724,108	128,963	-0,105	-0,099
-723,094	-200,000	0,020	0,182
-722,079	158,414	-0,072	-0,074
-721,064	62,538	-0,076	0,056
-720,050	313,295	0,027	0,038
-719,035	800,000	0,059	0,139
-718,021	-180,657	-0,102	-0,002
-717,006	800,000	-0,044	-0,125
-715,991	-200,000	0,009	0,112
-714,977	-125,056	0,109	-0,012
-713,962	800,000	-0,065	-0,140
-712,948	-200,000	-0,023	0,131
-711,933	63,850	0,051	-0,037
-710,918	-200,000	0,012	0,122
-709,904	-200,000	-0,005	0,100
-708,889	533,204	-0,061	0,107
-707,875	-144,415	-0,021	-0,001
-706,860	800,000	-0,011	0,036
-705,845	-200,000	0,020	-0,111
-704,831	-121,685	0,182	-0,022
-703,816	-155,787	0,070	-0,003
-702,802	-80,827	0,183	-0,044
-701,787	368,842	-0,063	0,094
-700,772	800,000	0,059	-0,155
-699,758	-59,072	-0,236	0,075
-698,743	-137,030	0,089	0,007
-697,729	800,000	0,022	0,064
-696,714	-21,340	0,075	-0,033
-695,699	-200,000	0,003	-0,081
-694,685	-60,184	-0,141	-0,044
-693,670	-200,000	0,017	0,095
-692,656	-13,687	0,058	0,028
-691,641	-70,804	-0,081	0,022
-690,627	83,625	-0,072	0,057
-689,612	270,777	0,042	0,054
-688,597	-120,656	-0,115	-0,014
-687,583	-152,592	-0,236	-0,012
-686,568	660,077	-0,018	-0,034
-685,554	-200,000	-0,020	-0,105
-684,539	-200,000	0,006	-0,125
-683,524	800,000	0,031	0,064
-682,510	-53,708	0,040	0,013
-681,495	-200,000	0,048	0,175
-680,481	-149,190	-0,086	0,005
-679,466	800,000	-0,020	-0,043
-678,451	253,919	-0,065	-0,082
-677,437	230,374	-0,026	0,031
-676,422	-54,619	0,153	0,051
-675,408	235,742	0,027	0,033
-674,393	428,579	-0,052	0,083
-673,378	-116,845	0,060	-0,008
-672,364	-200,000	-0,012	0,233
-671,349	-200,000	-0,006	0,027
-670,335	800,000	0,068	0,189
-669,320	140,315	0,148	-0,144
-668,305	247,999	-0,137	0,171
-667,291	800,000	0,045	0,104
-666,276	-200,000	-0,019	0,139
-665,262	-18,915	-0,065	0,030
-664,247	800,000	0,097	-0,241
-663,232	412,572	-0,015	0,023
-662,218	66,657	0,071	0,053
-661,203	-58,230	-0,008	0,003
-660,189	-200,000	0,006	-0,124
-659,174	-102,937	-0,117	0,020
-658,159	-111,167	-0,092	0,014
-657,145	525,721	0,006	-0,011
-656,130	-200,000	-0,014	-0,115
-655,116	178,924	-0,049	0,053
-654,101	98,875	-0,027	0,023
-653,086	428,891	0,106	0,169
-652,072	-1,211	-0,052	-0,027
-651,057	534,288	-0,106	-0,185
-650,043	-1,047	-0,038	-0,020
-649,028	800,000	-0,015	0,031
-648,014	-18,406	-0,101	0,046
-646,999	-143,697	-0,033	-0,002
-645,984	800,000	-0,046	0,103
-644,970	503,082	-0,072	-0,123
-643,955	56,611	0,120	-0,086
-642,941	-200,000	0,026	-0,195
-641,926	-200,000	0,025	0,140
-640,911	664,291	0,023	0,044
-639,897	60,673	0,107	-0,078
-638,882	-61,178	-0,141	0,043
-637,868	-63,068	-0,081	0,024
-636,853	260,661	-0,062	-0,079
-635,838	470,706	-0,100	-0,166
-634,824	-200,000	-0,021	0,071
-633,809	59,809	0,136	-0,099
-632,795	-126,436	-0,139	0,015
-631,780	-68,747	0,091	0,026
-630,765	-200,000	0,011	0,077
-629,751	800,000	-0,020	-0,050
-628,736	-185,009	-0,096	-0,001
-627,722	-83,369	0,057	0,013
-626,707	399,267	0,027	0,041
-625,692	-175,305	-0,108	-0,002
-624,678	-200,000	-0,024	0,150
-623,663	159,644	0,083	0,084
-622,649	-200,000	0,023	-0,097
-621,634	67,990	0,097	-0,073
-620,619	-200,000	0,012	-0,055
-619,605	-200,000	-0,004	-0,065
-618,590	144,679	0,042	-0,041
-617,576	-94,961	0,084	0,017
-616,561	-200,000	0,005	-0,155
-615,546	-200,000	0,012	-0,118
-614,532	-100,998	-0,101	-0,018
-613,517	-70,220	-0,112	-0,031
-612,503	-200,000	0,015	-0,070
-611,488	-147,481	0,058	-0,004
-610,474	-107,938	0,056	-0,009
-609,459	800,000	-0,041	-0,124
-608,444	-51,970	-0,113	0,038
-607,430	800,000	-0,029	0,080
-606,415	-200,000	0,003	-0,026
-605,401	-200,000	0,016	-0,069
-604,386	-200,000	-0,025	0,155
-603,371	72,711	-0,034	0,026
-602,357	-16,019	0,050	-0,023
-601,342	69,883	0,018	-0,014
-600,328	-200,000	-0,003	-0,067
-599,313	-200,000	0,013	-0,069
-598,298	-200,000	-0,001	0,045
-597,284	667,351	-0,041	-0,079
-596,269	-200,000	0,037	0,230
-595,255	39,320	-0,039	-0,025
-594,240	575,948	-0,024	-0,043
-593,225	-200,000	0,016	-0,071
-592,211	-200,000	-0,001	0,072
-591,196	-166,681	0,055	0,002
-590,182	366,013	0,051	0,075
-589,167	501,362	-0,057	-0,096
-588,152	-119,899	0,031	0,004
-587,138	-128,021	-0,073	0,008
-586,123	-200,000	0,007	-0,110
-585,109	-146,513	-0,005	-0,000
-584,094	-200,000	0,003	0,117
-583,079	800,000	0,017	0,039
-582,065	-2,272	0,131	0,067
-581,050	-200,000	0,024	0,095
-580,036	-123,322	-0,075	0,009
-579,021	260,164	-0,071	-0,090
-578,006	-17,691	-0,033	-0,015
-576,992	-93,542	0,087	0,017
-575,977	-17,498	0,075	0,035
-574,963	-200,000	0,010	0,095
-573,948	800,000	-0,020	-0,051
-572,934	570,073	0,062	0,111
-571,919	533,920	-0,045	-0,078
-570,904	273,407	0,099	-0,128
-569,890	-86,013	0,115	0,026
-568,875	-200,000	0,019	0,091
-567,861	800,000	0,042	0,095
-566,846	198,242	0,060	-0,068
-565,831	181,498	-0,032	-0,035
-564,817	75,448	0,026	0,020
-563,802	-90,667	0,044	0,009
-562,788	-111,525	-0,047	-0,007
-561,773	-40,875	0,060	0,023
-560,758	30,280	0,070	-0,043
-559,744	-200,000	0,008	-0,130
-558,729	122,217	-0,056	0,051
-557,715	-70,873	-0,104	-0,029
-556,700	377,368	0,043	-0,065
-555,685	-15,425	-0,131	-0,061
-554,671	-200,000	0,028	0,117
-553,656	-75,761	0,059	0,015
-552,642	-105,943	-0,137	-0,022
-551,627	-5,924	-0,076	0,038
-550,612	-80,197	0,172	-0,042
-549,598	-26,698	-0,124	-0,053
-548,583	66,975	-0,091	-0,068
-547,569	-200,000	-0,151	-0,000
-546,554	213,040	0,038	0,044
-545,539	171,447	-0,124	0,130
-544,525	-200,000	-0,039	-0,126
-543,510	504,785	-0,015	0,026
-542,496	-144,731	-0,169	-0,011
-541,481	-127,952	0,011	0,001
-540,466	96,922	-0,091	-0,076
-539,452	418,776	0,023	-0,036
-538,437	800,000	0,080	0,225
-537,423	-200,000	0,032	0,110
-536,408	77,812	0,156	0,122
-535,393	800,000	0,047	-0,097
-534,379	180,328	-0,096	-0,103
-533,364	7,824	0,025	-0,014
-532,350	-10,788	0,081	0,039
-531,335	800,000	-0,026	0,066
-530,321	49,023	0,011	-0,008
-529,306	281,460	0,082	-0,107
-528,291	-200,000	-0,048	-0,196
-527,277	-200,000	-0,019	-0,083
-526,262	115,258	-0,052	-0,047
-525,248	287,807	-0,015	0,020
-524,233	-200,000	0,003	-0,044
-523,218	-200,000	0,005	-0,076
-522,204	105,434	0,152	0,132
-521,189	-200,000	-0,007	-0,080
-520,175	-200,000	0,018	-0,083
-519,160	323,235	-0,030	0,042
-518,145	81,040	0,141	-0,111
-517,131	-99,374	-0,204	-0,037
-516,116	800,000	0,021	-0,043
-515,102	199,540	-0,113	-0,126
-514,087	743,177	-0,050	-0,099
-513,072	800,000	-0,038	-0,085
-512,058	409,792	0,049	-0,076
-511,043	368,143	0,021	-0,031
-510,029	-174,221	-0,228	-0,005
-509,014	-124,202	0,065	-0,007
-507,999	-15,971	0,124	-0,057
-506,985	-23,759	0,076	-0,033
-505,970	738,171	-0,038	-0,075
-504,956	253,949	0,054	-0,068
-503,941	-64,471	0,151	0,045
-502,926	-174,075	-0,042	0,001
-501,912	0,029	0,027	0,014
-500,897	31,109	0,076	0,047
-499,883	-200,000	-0,035	-0,132
-498,868	69,704	-0,061	-0,046
-497,853	-200,000	-0,005	-0,024
-496,839	800,000	-0,030	0,082
-495,824	-200,000	0,010	0,098
-494,810	129,778	0,063	0,059
-493,795	-64,233	-0,051	-0,015
-492,781	-158,510	-0,120	-0,005
-491,766	-65,789	-0,029	-0,008
-490,751	326,354	-0,051	0,071
-489,737	-200,000	-0,005	-0,038
-488,722	-96,562	0,058	-0,011
-487,708	622,194	0,021	0,039
-486,693	-187,168	0,077	-0,001
-485,678	-200,000	-0,007	0,082
-484,664	61,096	0,121	-0,087
-483,649	347,770	0,049	0,071
-482,635	187,509	-0,040	0,044
-481,620	537,589	-0,041	0,071
-480,605	383,996	-0,045	-0,068
-479,591	140,913	0,104	0,101
-478,576	54,491	-0,132	-0,093
-477,562	-200,000	-0,003	-0,058
-476,547	-127,236	0,076	0,008
-475,532	800,000	-0,017	0,036
-474,518	-145,833	0,061	0,004
-473,503	-35,754	0,151	-0,059
-472,489	-167,002	-0,144	-0,004
-471,474	-200,000	-0,014	-0,103
-470,459	43,648	-0,082	0,055
-469,445	-200,000	-0,017	-0,125
-468,430	118,033	-0,019	0,017
-467,416	-200,000	-0,010	0,056
-466,401	800,000	0,034	-0,089
-465,386	786,722	0,057	-0,114
-464,372	800,000	-0,047	0,137
-463,357	667,894	-0,045	0,086
-462,343	-57,592	-0,022	-0,007
-461,328	101,162	-0,050	0,043
-460,313	313,785	0,085	0,117
-459,299	79,465	0,079	0,061
-458,284	153,538	-0,073	0,073
-457,270	-200,000	-0,012	0,117
-456,255	-200,000	0,016	-0,055
-455,241	-200,000	-0,022	-0,157
-454,226	23,075	0,060	0,036
-453,211	-200,000	-0,003	-0,094
-452,197	-39,685	-0,037	-0,014
-451,182	275,408	-0,098	-0,127
-450,168	591,390	0,027	-0,049
-449,153	49,277	-0,093	-0,064
-448,138	267,828	-0,026	-0,033
-447,124	800,000	-0,016	0,045
-446,109	138,359	-0,049	-0,047
-445,095	699,935	-0,023	-0,045
-444,080	455,634	-0,069	-0,112
-443,065	417,841	-0,055	-0,087
-442,051	-89,690	0,020	0,004
-441,036	800,000	-0,021	-0,050
-440,022	800,000	-0,038	-0,089
-439,007	145,321	-0,058	-0,057
-437,992	533,187	0,070	0,121
-436,978	-200,000	0,012	-0,111
-435,963	-85,043	0,039	0,009
-434,949	800,000	-0,088	-0,229
-433,934	-200,000	-0,018	-0,143
-432,919	-200,000	-0,006	-0,051
-431,905	147,081	0,090	-0,089
-430,890	118,308	0,063	-0,057
-429,876	-200,000	-0,020	0,084
-428,861	-122,492	0,064	-0,008
-427,846	296,613	-0,109	-0,146
-426,832	-200,000	0,002	-0,142
-425,817	219,932	-0,067	-0,078
-424,803	800,000	0,016	-0,048
-423,788	-93,209	0,137	0,028
-422,773	-141,836	-0,179	-0,013
-421,759	479,200	0,052	0,086
-420,744	-106,553	-0,153	0,025
-419,730	800,000	-0,012	0,035
-418,715	237,801	-0,112	-0,136
-417,701	379,458	0,027	0,040
-416,686	-153,104	0,039	0,002
-415,671	199,249	-0,100	-0,112
-414,657	229,007	-0,057	-0,068
-413,642	21,744	0,023	-0,014
-412,628	300,395	0,021	0,028
-411,613	1,450	-0,073	0,038
-410,598	-200,000	0,004	-0,074
-409,584	-128,224	-0,097	-0,010
-408,569	472,314	-0,045	0,074
-407,555	367,050	0,093	0,136
-406,540	231,571	-0,067	0,080
-405,525	293,276	0,062	0,083
-404,511	-139,530	0,026	0,002
-403,496	-33,848	-0,213	0,085
-402,482	-77,547	0,176	0,044
-401,467	-128,466	0,156	0,016
-400,452	137,770	-0,091	0,087
-399,438	-83,593	-0,144	-0,033
-398,423	-200,000	-0,004	0,116
-397,409	-200,000	0,019	-0,131
-396,394	82,712	0,035	-0,028
-395,379	-123,467	0,075	-0,009
-394,365	-77,987	0,069	0,017
-393,350	-22,758	0,094	-0,041
-392,336	800,000	0,009	-0,026
-391,321	-170,733	-0,128	0,003
-390,306	-200,000	-0,002	0,079
-389,292	137,516	-0,082	-0,079
-388,277	-200,000	0,037	0,128
-387,263	91,720	0,149	0,121
-386,248	-73,050	0,094	-0,025
-385,233	-200,000	0,016	0,096
-384,219	31,063	0,108	-0,067
-383,204	-200,000	0,027	-0,093
-382,190	393,561	-0,039	0,059
-381,175	274,083	-0,070	0,090
-380,160	-200,000	-0,009	0,037
-379,146	103,031	-0,061	0,052
-378,131	-200,000	-0,012	0,097
-377,117	-200,000	-0,002	-0,019
-376,102	-64,267	0,062	0,018
-375,088	-117,577	0,085	-0,011
-374,073	-173,855	0,101	-0,002
-373,058	800,000	0,002	-0,007
-372,044	-200,000	0,016	0,146
-371,029	-200,000	-0,003	0,117
-370,015	-200,000	-0,032	-0,236
-369,000	-200,000	0,010	0,066
-367,985	-137,126	-0,078	-0,006
-366,971	-158,175	0,036	-0,002
-365,956	223,368	0,045	0,053
-364,942	-110,245	0,029	0,004
-363,927	-92,119	-0,067	-0,014
-362,912	0,123	-0,028	-0,014
-361,898	-34,845	-0,085	0,034
-360,883	-200,000	-0,037	-0,131
-359,869	-24,321	-0,096	0,041
-358,854	343,216	0,038	0,054
-357,839	-200,000	-0,018	0,080
-356,825	-200,000	-0,017	0,129
-355,810	-200,000	-0,011	0,238
-354,796	90,351	-0,074	-0,060
-353,781	73,203	-0,073	-0,056
-352,766	800,000	-0,016	-0,045
-351,752	-59,155	0,148	0,046
-350,737	-9,998	0,106	0,051
-349,723	-200,000	-0,007	-0,043
-348,708	-5,333	-0,176	-0,087
-347,693	-143,022	-0,144	0,010
-346,679	484,659	-0,080	0,133
-345,664	-3,736	-0,122	0,061
-344,650	-3,905	-0,100	0,050
-343,635	-102,040	-0,062	-0,011
-342,620	-73,220	0,096	-0,025
-341,606	-200,000	0,026	0,145
-340,591	-74,234	-0,088	-0,023
-339,577	222,959	0,048	-0,056
-338,562	800,000	0,033	0,086
-337,548	684,320	0,030	0,057
-336,533	134,582	-0,044	0,041
-335,518	599,817	-0,075	0,136
-334,504	270,317	-0,024	0,030
-333,489	-60,767	-0,030	0,009
-332,475	286,422	0,031	-0,041
-331,460	-51,319	-0,133	-0,045
-330,445	433,594	-0,016	-0,025
-329,431	267,081	0,041	0,052
-328,416	245,321	0,022	-0,027
-327,402	-8,467	-0,096	0,047
-326,387	800,000	0,036	0,108
-325,372	206,029	0,085	0,096
-324,358	-37,892	0,047	0,018
-323,343	-200,000	0,020	-0,095
-322,329	198,208	0,109	-0,121
-321,314	-200,000	-0,002	0,015
-320,299	-93,519	-0,100	0,020
-319,285	34,862	-0,130	0,082
-318,270	-47,386	-0,066	-0,023
-317,256	800,000	0,038	-0,078
-316,241	-8,591	0,081	0,039
-315,226	-200,000	0,002	0,076
-314,212	99,409	0,092	0,077
-313,197	-200,000	0,016	0,101
-312,183	444,443	0,083	0,133
-311,168	746,275	0,055	-0,107
-310,153	-26,633	0,023	0,010
-309,139	-200,000	-0,009	-0,041
-308,124	462,562	-0,025	0,041
-307,110	153,579	-0,051	-0,051
-306,095	-17,591	0,181	0,082
-305,080	-51,414	-0,014	-0,005
-304,066	800,000	0,050	-0,113
-303,051	-177,512	-0,120	0,002
-302,037	-58,962	-0,037	-0,011
-301,022	-65,545	-0,041	-0,012
-300,008	7,718	0,199	0,107
-298,993	35,794	0,026	-0,016
-297,978	-200,000	-0,009	0,111
-296,964	800,000	0,029	0,065
-295,949	800,000	-0,028	-0,077
-294,935	2,178	-0,048	0,025
-293,920	10,019	-0,064	-0,035
-292,905	-70,259	0,031	0,009
-291,891	55,369	-0,093	-0,065
-290,876	-200,000	-0,008	-0,104
-289,862	112,318	0,028	-0,025
-288,847	201,950	0,040	0,045
-287,832	28,859	0,073	-0,045
-286,818	79,087	-0,132	0,102
-285,803	-108,376	0,067	0,010
-284,789	-72,340	-0,032	-0,009
-283,774	296,633	0,044	0,059
-282,759	-101,017	-0,054	-0,009
-281,745	72,466	0,032	0,024
-280,730	439,163	-0,061	0,096
-279,716	-20,205	0,112	-0,050
-278,701	-154,614	0,029	-0,001
-277,686	-196,941	-0,048	0,000
-276,672	70,009	0,103	-0,077
-275,657	0,694	0,105	0,054
-274,643	-41,118	-0,120	0,045
-273,628	-98,491	0,137	-0,025
-272,613	737,550	-0,025	0,049
-271,599	-66,072	0,186	0,053
-270,584	-33,556	0,124	-0,049
-269,570	-106,188	-0,101	0,016
-268,555	111,709	0,057	0,050
-267,540	800,000	0,048	-0,098
-266,526	800,000	0,013	0,027
-265,511	-94,355	0,102	-0,020
-264,497	746,993	0,026	0,051
-263,482	193,911	0,026	0,029
-262,467	-200,000	0,001	-0,011
-261,453	800,000	0,010	-0,028
-260,438	568,298	-0,020	-0,035
-259,424	-198,423	-0,109	0,000
-258,409	405,690	-0,038	0,058
-257,395	785,842	0,029	0,058
-256,380	73,368	0,059	0,045
-255,365	800,000	0,031	0,096
-254,351	-146,526	-0,189	0,012
-253,336	72,001	-0,049	0,037
-252,322	800,000	-0,006	-0,014
-251,307	800,000	-0,010	0,021
-250,292	800,000	0,012	-0,036
-249,278	249,523	-0,045	0,055
-248,263	-200,000	0,017	-0,103
-247,249	101,738	-0,059	-0,050
-246,234	-33,936	0,036	-0,014
-245,219	-50,807	0,026	-0,009
-244,205	-58,362	0,064	0,020
-243,190	296,719	0,059	0,078
-242,176	-64,140	-0,034	0,010
-241,161	-200,000	0,013	0,090
-240,146	-11,742	0,031	-0,015
-239,132	207,145	0,057	-0,064
-238,117	157,176	-0,089	0,089
-237,103	143,899	0,155	-0,149
-236,088	-0,155	-0,092	0,047
-235,073	694,566	0,046	0,088
-234,059	-200,000	0,036	0,145
-233,044	176,428	-0,062	-0,065
-232,030	-16,452	0,116	-0,053
-231,015	142,528	-0,029	0,027
-230,000	204,947	-0,075	-0,084
-228,986	-5,504	-0,070	-0,035
-227,971	-200,000	-0,022	0,102
-226,957	-165,707	0,092	0,003
-225,942	-26,375	-0,086	0,036
-224,927	147,729	-0,049	-0,048
-223,913	-38,821	0,095	-0,036
-222,898	24,345	0,035	0,021
-221,884	-75,998	0,014	-0,004
-220,869	-39,873	0,105	0,040
-219,855	800,000	0,032	-0,064
-218,840	100,978	-0,141	-0,118
-217,825	-200,000	0,007	0,095
-216,811	-16,418	0,091	-0,041
-215,796	-104,399	-0,085	-0,014
-214,782	-200,000	0,010	0,048
-213,767	-85,700	0,296	0,066
-212,752	-200,000	-0,004	-0,120
-211,738	-31,739	0,041	0,016
-210,723	-185,929	0,125	0,001
-209,709	96,358	0,042	-0,035
-208,694	-3,364	-0,116	-0,058
-207,679	-200,000	-0,029	-0,156
-206,665	-200,000	-0,010	-0,071
-205,650	89,849	0,033	0,026
-204,636	31,928	-0,096	-0,059
-203,621	69,298	0,114	0,085
-202,606	531,163	-0,072	-0,124
-201,592	-73,244	-0,131	0,034
-200,577	-52,206	0,080	0,027
-199,563	677,312	0,071	0,134
-198,548	-200,000	-0,021	0,095
-197,533	69,120	-0,105	0,078
-196,519	-4,141	0,157	0,078
-195,504	-102,654	-0,078	0,013
-194,490	-93,037	0,084	-0,017
-193,475	-84,287	-0,199	-0,045
-192,460	-200,000	0,001	-0,008
-191,446	800,000	0,061	0,174
-190,431	12,098	-0,081	0,045
-189,417	7,918	0,112	0,060
-188,402	-74,754	-0,095	0,024
-187,387	-75,121	-0,058	0,015
-186,373	121,765	0,053	-0,048
-185,358	-94,665	-0,025	0,005
-184,344	-200,000	0,028	0,120
-183,329	-200,000	-0,003	0,088
-182,315	16,411	0,078	0,044
-181,300	-114,434	-0,025	0,003
-180,285	-152,797	-0,107	0,005
-179,271	800,000	0,013	-0,033
-178,256	-200,000	0,009	0,053
-177,242	-200,000	-0,005	0,047
-176,227	29,014	0,008	-0,005
-175,212	-54,365	0,074	-0,024
-174,198	-41,534	0,054	-0,020
-173,183	800,000	0,049	-0,139
-172,169	468,245	-0,031	0,050
-171,154	-20,598	0,077	0,034
-170,139	-141,952	-0,177	0,013
-169,125	-200,000	-0,015	0,091
-168,110	-111,992	-0,100	0,014
-167,096	285,758	0,076	-0,099
-166,081	-200,000	-0,003	-0,051
-165,066	800,000	-0,024	0,051
-164,052	-200,000	-0,030	-0,108
-163,037	-16,958	0,046	-0,021
-162,023	279,832	0,101	-0,130
-161,008	224,317	0,035	-0,041
-159,993	262,080	0,056	0,070
-158,979	-38,028	0,106	-0,040
-157,964	-69,039	0,067	-0,018
-156,950	-200,000	-0,022	0,088
-155,935	-64,989	0,085	-0,025
-154,920	419,233	0,017	0,027
-153,906	800,000	0,028	0,071
-152,891	284,621	0,135	0,175
-151,877	-200,000	0,008	0,049
-150,862	40,440	-0,079	-0,051
-149,847	-200,000	0,003	-0,123
-148,833	-145,341	0,093	0,006
-147,818	95,251	0,179	0,147
-146,804	282,518	-0,039	-0,050
-145,789	186,953	-0,038	-0,041
-144,775	71,229	-0,098	-0,073
-143,760	106,153	-0,028	-0,024
-142,745	-11,520	0,022	0,011
-141,731	-127,953	0,100	0,010
-140,716	800,000	0,018	-0,044
-139,702	251,213	0,025	0,030
-138,687	140,620	0,074	-0,070
-137,672	58,080	-0,024	-0,017
-136,658	-200,000	-0,012	-0,163
-135,643	-20,099	0,150	0,066
-134,629	800,000	-0,032	0,088
-133,614	45,049	0,076	0,050
-132,599	800,000	-0,031	0,095
-131,585	26,598	0,102	0,061
-130,570	244,314	-0,068	0,082
-129,556	800,000	-0,035	-0,107
-128,541	271,284	-0,152	-0,193
-127,526	-46,658	0,087	0,030
-126,512	800,000	0,017	0,050
-125,497	-3,311	0,192	0,096
-124,483	124,229	-0,027	0,024
-123,468	483,138	0,082	0,134
-122,453	-200,000	-0,016	0,068
-121,439	-50,651	-0,042	-0,014
-120,424	65,230	0,064	0,046
-119,410	52,232	-0,116	0,079
