DTS Sentinel unit serial number:	SN410029Multiplexer serial number:	ORYXHardware model number:	OX2-SRSoftware version number:	ORYX F/W v4,00 Oryx Data Collector v3.7.2.0data status	okinstallation	B5 Nyhavnadifferential loss correction	single-endedforward channel	channel 2reverse channel	N/Adate	2023/12/12time	01:32:13forward acquisition time	300,00reverse acquisition time	0,00gamma	499,1914k internal	0,3156k external	0,3156temperature offset calibration	1,0000default loss term (dB/km)	0,3820temperature slope calibration	1,0000multiplexer offset coefficient	1,0000multiplexer slope coefficient	1,0000fibre end	0,00T internal ref (°C)	15,91T ext. ref 1 (°C)	-0,49T ext. ref 2 (°C)	-0,78length (m)	temperature (°C)	Stokes	anti-Stokes-744,400	-73,927	0,085	0,023
-743,385	-129,993	-0,289	-0,029
-742,371	-109,613	0,108	0,017
-741,356	-191,008	-0,250	-0,002
-740,342	-67,168	0,100	-0,029
-739,327	-83,574	-0,231	-0,054
-738,312	-35,060	0,065	0,026
-737,298	-52,316	-0,242	-0,082
-736,283	800,000	0,061	-0,139
-735,269	-164,325	-0,265	-0,009
-734,254	-200,000	0,007	0,146
-733,239	-87,229	-0,468	-0,104
-732,225	303,760	0,099	0,135
-731,210	31,630	0,035	0,022
-730,196	800,000	0,031	-0,070
-729,181	516,182	-0,047	-0,082
-728,167	108,831	-0,051	-0,045
-727,152	-200,000	-0,009	0,076
-726,137	-94,343	0,027	0,005
-725,123	29,769	-0,063	-0,039
-724,108	800,000	0,043	-0,103
-723,094	766,215	-0,066	-0,134
-722,079	-200,000	0,000	-0,146
-721,064	800,000	-0,052	-0,162
-720,050	56,045	0,045	-0,032
-719,035	191,454	0,088	-0,098
-718,021	800,000	-0,060	-0,165
-717,006	137,055	-0,107	-0,103
-715,991	800,000	0,085	-0,207
-714,977	-200,000	-0,014	0,050
-713,962	-141,558	0,144	0,011
-712,948	61,801	-0,076	0,055
-711,933	124,693	-0,079	0,073
-710,918	-17,908	0,044	-0,020
-709,904	-63,136	-0,152	-0,046
-708,889	-103,839	-0,228	0,039
-707,875	-66,111	-0,082	-0,024
-706,860	114,556	-0,025	-0,022
-705,845	-200,000	-0,014	-0,088
-704,831	114,770	0,024	-0,022
-703,816	451,171	-0,046	0,075
-702,802	46,680	-0,063	0,043
-701,787	-200,000	-0,026	-0,090
-700,772	638,247	-0,056	0,106
-699,758	572,959	-0,032	-0,058
-698,743	-111,465	0,047	-0,007
-697,729	-85,510	0,097	-0,022
-696,714	-6,437	0,022	0,011
-695,699	-43,744	-0,143	-0,053
-694,685	-146,371	0,077	-0,005
-693,670	-119,012	0,101	0,013
-692,656	-200,000	0,009	-0,081
-691,641	800,000	0,037	0,111
-690,627	-94,111	0,006	-0,001
-689,612	800,000	0,026	-0,058
-688,597	71,997	-0,034	0,026
-687,583	-2,025	-0,065	-0,034
-686,568	128,338	0,096	-0,090
-685,554	-13,863	-0,108	0,051
-684,539	-200,000	-0,006	-0,102
-683,524	800,000	0,051	0,142
-682,510	-3,083	0,075	-0,038
-681,495	-1,467	-0,027	0,014
-680,481	-27,712	-0,152	-0,065
-679,466	40,799	0,036	0,024
-678,451	43,405	0,057	-0,038
-677,437	261,838	0,071	0,091
-676,422	115,655	0,043	-0,039
-675,408	364,260	0,055	-0,082
-674,393	254,488	-0,083	-0,105
-673,378	-200,000	0,051	-0,200
-672,364	-200,000	-0,036	0,139
-671,349	-200,000	-0,004	-0,038
-670,335	366,048	0,011	-0,016
-669,320	-53,421	0,117	0,039
-668,305	-115,929	-0,036	-0,005
-667,291	-200,000	-0,003	0,062
-666,276	-73,419	-0,109	-0,029
-665,262	252,286	-0,112	-0,140
-664,247	121,563	-0,114	-0,105
-663,232	0,094	-0,187	0,098
-662,218	258,609	-0,029	-0,036
-661,203	-139,125	0,158	-0,012
-660,189	221,699	-0,029	0,035
-659,174	69,818	0,083	0,063
-658,159	-200,000	0,002	-0,090
-657,145	-200,000	-0,015	-0,111
-656,130	-148,149	-0,132	-0,008
-655,116	-80,067	-0,225	0,055
-654,101	501,697	-0,019	-0,032
-653,086	-200,000	0,011	0,046
-652,072	-200,000	-0,023	-0,084
-651,057	800,000	0,009	0,022
-650,043	267,033	-0,046	-0,059
-649,028	500,795	-0,037	0,062
-648,014	70,812	0,048	0,036
-646,999	-14,646	-0,068	0,032
-645,984	-200,000	0,006	0,055
-644,970	540,030	-0,030	0,052
-643,955	-125,038	-0,083	-0,009
-642,941	228,135	-0,057	-0,069
-641,926	-200,000	0,015	-0,123
-640,911	-58,134	0,027	-0,009
-639,897	-85,365	-0,100	-0,023
-638,882	-23,288	0,107	-0,047
-637,868	0,818	-0,102	-0,053
-636,853	-134,321	-0,045	-0,004
-635,838	800,000	-0,081	-0,216
-634,824	132,076	-0,130	0,123
-633,809	-67,060	0,126	0,036
-632,795	1,570	0,099	0,052
-631,780	25,862	-0,044	0,027
-630,765	151,730	-0,073	0,073
-629,751	11,992	0,028	0,016
-628,736	291,284	-0,053	0,070
-627,722	-68,098	0,036	0,010
-626,707	-200,000	0,001	0,040
-625,692	226,248	0,024	0,028
-624,678	-120,836	-0,085	0,010
-623,663	339,902	0,041	0,059
-622,649	-32,628	0,066	-0,027
-621,634	32,938	-0,102	-0,065
-620,619	64,769	-0,107	-0,079
-619,605	29,829	0,126	0,079
-618,590	-158,331	0,125	0,005
-617,576	6,352	-0,172	0,093
-616,561	-97,894	-0,103	-0,019
-615,546	-149,024	-0,119	-0,007
-614,532	56,735	-0,060	-0,043
-613,517	16,218	0,041	0,024
-612,503	163,738	0,050	0,052
-611,488	-136,119	0,182	-0,015
-610,474	-200,000	0,020	-0,121
-609,459	-1,420	0,081	-0,042
-608,444	800,000	-0,048	-0,135
-607,430	-200,000	-0,004	-0,019
-606,415	800,000	-0,013	0,028
-605,401	21,051	0,107	0,064
-604,386	179,740	-0,010	0,011
-603,371	-155,941	-0,035	0,002
-602,357	-200,000	-0,005	0,063
-601,342	-72,142	0,073	-0,020
-600,328	-200,000	-0,001	-0,138
-599,313	757,293	-0,086	-0,172
-598,298	47,311	0,063	0,043
-597,284	800,000	0,013	0,035
-596,269	800,000	0,015	0,041
-595,255	0,036	0,016	-0,008
-594,240	-73,242	0,050	-0,013
-593,225	779,573	-0,057	-0,116
-592,211	-200,000	-0,003	0,018
-591,196	79,980	0,072	0,057
-590,182	161,444	0,145	0,149
-589,167	800,000	0,046	-0,120
-588,152	-200,000	-0,008	0,091
-587,138	218,522	-0,108	-0,127
-586,123	366,661	-0,042	-0,062
-585,109	-200,000	-0,007	-0,075
-584,094	-200,000	0,026	-0,114
-583,079	662,451	-0,040	0,076
-582,065	800,000	0,026	0,068
-581,050	162,210	0,042	-0,043
-580,036	-53,059	-0,121	0,040
-579,021	-66,655	-0,061	0,017
-578,006	-62,234	0,114	0,035
-576,992	-131,390	-0,026	0,002
-575,977	162,599	-0,085	0,088
-574,963	800,000	0,022	-0,069
-573,948	-155,959	-0,025	0,001
-572,934	416,783	0,074	0,116
-571,919	-79,566	0,078	-0,019
-570,904	-200,000	-0,001	0,021
-569,890	-57,733	-0,085	0,027
-568,875	53,862	-0,081	-0,057
-567,861	-48,749	0,176	0,062
-566,846	800,000	-0,057	0,141
-565,831	800,000	-0,032	-0,088
-564,817	-200,000	-0,005	0,039
-563,802	-66,449	-0,040	0,012
-562,788	123,659	0,036	0,033
-561,773	282,854	0,005	-0,006
-560,758	-28,716	-0,138	0,058
-559,744	-59,613	-0,012	-0,004
-558,729	-67,243	-0,052	0,015
-557,715	-200,000	0,026	0,094
-556,700	800,000	-0,028	0,065
-555,685	17,053	-0,106	-0,061
-554,671	47,945	-0,045	-0,031
-553,656	-76,070	0,115	0,029
-552,642	20,270	-0,130	-0,077
-551,627	800,000	0,021	0,048
-550,612	-93,972	-0,064	0,013
-549,598	185,532	-0,158	-0,172
-548,583	-200,000	0,035	-0,127
-547,569	800,000	-0,009	-0,024
-546,554	800,000	0,074	0,152
-545,539	342,232	-0,047	0,068
-544,525	166,688	0,060	0,062
-543,510	12,018	-0,092	0,052
-542,496	22,362	0,049	0,029
-541,481	-200,000	0,032	-0,145
-540,466	68,086	-0,101	-0,076
-539,452	184,404	0,029	0,031
-538,437	800,000	0,042	-0,114
-537,423	6,121	-0,124	0,067
-536,408	235,087	-0,017	-0,020
-535,393	-63,347	-0,138	-0,041
-534,379	136,796	-0,060	-0,057
-533,364	359,685	-0,028	-0,041
-532,350	24,361	-0,138	0,083
-531,335	720,702	-0,064	0,124
-530,321	-200,000	-0,004	-0,160
-529,306	-2,429	-0,053	-0,027
-528,291	676,131	-0,090	-0,172
-527,277	231,014	-0,029	-0,035
-526,262	-2,767	0,040	-0,020
-525,248	-72,232	-0,037	-0,010
-524,233	0,658	0,148	0,077
-523,218	800,000	-0,026	0,069
-522,204	-141,072	-0,192	-0,014
-521,189	-60,119	-0,103	-0,032
-520,175	296,841	-0,062	0,083
-519,160	11,476	-0,104	-0,058
-518,145	800,000	0,037	0,103
-517,131	-56,981	0,063	0,020
-516,116	140,553	0,035	-0,034
-515,102	-14,259	0,130	-0,061
-514,087	-60,260	-0,107	-0,033
-513,072	491,721	0,070	-0,117
-512,058	108,082	0,054	0,047
-511,043	800,000	-0,039	0,103
-510,029	341,667	0,016	0,023
-509,014	-200,000	-0,010	0,044
-507,999	-200,000	-0,004	0,080
-506,985	218,555	0,037	-0,043
-505,970	-158,228	-0,055	-0,002
-504,956	-200,000	0,006	-0,021
-503,941	-200,000	-0,025	0,085
-502,926	-118,686	0,067	-0,009
-501,912	117,532	0,066	0,059
-500,897	209,234	0,058	0,066
-499,883	208,330	-0,062	0,071
-498,868	292,581	-0,092	-0,122
-497,853	-91,934	-0,103	0,021
-496,839	-200,000	0,016	0,093
-495,824	-200,000	0,001	0,083
-494,810	-200,000	0,002	0,127
-493,795	-103,458	-0,184	-0,031
-492,781	454,418	-0,011	-0,018
-491,766	-200,000	-0,005	-0,117
-490,751	240,038	-0,062	-0,075
-489,737	-200,000	0,009	0,077
-488,722	-200,000	-0,033	0,184
-487,708	137,766	0,122	0,116
-486,693	-95,626	0,102	0,020
-485,678	-93,899	-0,068	0,013
-484,664	141,875	0,065	-0,063
-483,649	-200,000	-0,008	-0,166
-482,635	800,000	-0,030	0,069
-481,620	38,538	0,114	0,074
-480,605	139,395	0,054	0,052
-479,591	2,547	-0,107	-0,057
-478,576	-31,609	-0,038	0,015
-477,562	-86,701	-0,033	-0,007
-476,547	-47,968	-0,114	0,040
-475,532	-200,000	-0,014	0,052
-474,518	-1,965	0,053	0,027
-473,503	-108,153	0,084	-0,013
-472,489	-7,812	-0,032	0,016
-471,474	-22,247	-0,108	0,047
-470,459	460,651	0,084	-0,137
-469,445	786,248	-0,010	-0,019
-468,430	261,019	0,098	-0,124
-467,416	146,988	0,052	0,051
-466,401	-85,142	-0,082	-0,019
-465,386	-200,000	0,004	-0,086
-464,372	-200,000	0,009	-0,045
-463,357	1,494	-0,062	0,033
-462,343	266,512	-0,070	-0,089
-461,328	-200,000	0,032	-0,185
-460,313	49,822	0,140	-0,096
-459,299	800,000	0,035	-0,082
-458,284	308,041	0,010	0,013
-457,270	101,410	0,108	0,092
-456,255	623,764	0,022	-0,040
-455,241	-7,016	0,114	-0,057
-454,226	-200,000	-0,018	0,084
-453,211	734,456	-0,040	-0,078
-452,197	-97,619	0,061	0,011
-451,182	31,440	-0,037	0,023
-450,168	800,000	-0,051	0,148
-449,153	38,153	-0,095	0,062
-448,138	-75,560	-0,100	-0,026
-447,124	800,000	-0,036	-0,109
-446,109	-200,000	0,004	-0,075
-445,095	-106,874	-0,083	-0,013
-444,080	116,122	0,139	-0,124
-443,065	-90,294	0,050	-0,011
-442,051	-122,890	-0,108	0,012
-441,036	-165,022	0,086	-0,003
-440,022	-133,789	-0,055	0,005
-439,007	-200,000	0,003	-0,050
-437,992	-200,000	0,018	-0,190
-436,978	13,694	0,054	-0,030
-435,963	388,323	0,045	0,068
-434,949	266,091	-0,097	0,124
-433,934	-14,146	-0,048	-0,022
-432,919	-7,129	0,080	-0,039
-431,905	-93,130	0,046	-0,009
-430,890	800,000	0,035	0,094
-429,876	111,616	0,086	-0,075
-428,861	4,147	0,051	0,027
-427,846	800,000	0,020	0,063
-426,832	-188,371	-0,161	-0,001
-425,817	-200,000	-0,017	-0,128
-424,803	162,921	0,054	-0,055
-423,788	107,781	0,020	-0,018
-422,773	800,000	-0,011	0,025
-421,759	13,212	-0,072	0,041
-420,744	-200,000	-0,005	0,148
-419,730	24,818	-0,061	-0,037
-418,715	89,480	0,055	0,045
-417,701	-38,434	0,076	0,029
-416,686	-72,937	0,147	0,039
-415,671	-130,692	0,096	-0,009
-414,657	147,168	0,083	-0,082
-413,642	-93,266	-0,127	-0,025
-412,628	-200,000	-0,011	-0,053
-411,613	-200,000	-0,026	0,137
-410,598	483,323	0,034	0,056
-409,584	-133,471	0,108	-0,010
-408,569	-1,539	0,131	0,067
-407,555	-200,000	-0,002	0,025
-406,540	41,371	0,077	-0,050
-405,525	800,000	-0,057	-0,141
-404,511	-200,000	0,009	-0,056
-403,496	-115,014	-0,076	-0,010
-402,482	444,715	0,057	-0,091
-401,467	-200,000	0,030	-0,179
-400,452	-102,577	0,121	0,021
-399,438	-147,192	-0,082	-0,005
-398,423	517,673	0,041	-0,069
-397,409	800,000	-0,052	-0,129
-396,394	437,599	-0,025	-0,040
-395,379	800,000	-0,026	-0,064
-394,365	-50,977	-0,009	0,003
-393,350	800,000	0,007	-0,015
-392,336	800,000	-0,035	0,073
-391,321	-121,482	-0,154	-0,018
-390,306	-200,000	-0,002	-0,017
-389,292	540,789	-0,042	0,073
-388,277	241,989	-0,086	0,105
-387,263	-123,038	-0,030	0,003
-386,248	333,532	0,037	0,052
-385,233	42,011	-0,062	0,041
-384,219	126,952	-0,096	0,088
-383,204	729,521	0,017	0,034
-382,190	217,427	-0,042	0,049
-381,175	-49,806	-0,099	-0,034
-380,160	-16,817	0,240	0,110
-379,146	91,279	0,086	0,070
-378,131	800,000	0,030	0,084
-377,117	134,892	0,052	0,049
-376,102	-200,000	-0,013	-0,056
-375,088	27,936	-0,136	-0,083
-374,073	115,677	0,158	-0,140
-373,058	-200,000	0,042	0,170
-372,044	164,549	0,060	0,061
-371,029	-19,903	0,140	0,062
-370,015	-200,000	-0,001	0,016
-369,000	213,128	-0,004	0,005
-367,985	292,517	-0,063	-0,084
-366,971	-200,000	-0,002	-0,163
-365,956	446,566	0,071	-0,114
-364,942	-200,000	0,027	0,098
-363,927	241,237	0,050	0,060
-362,912	-200,000	0,035	0,127
-361,898	-121,431	-0,104	-0,012
-360,883	-109,254	0,125	-0,019
-359,869	78,558	-0,073	0,056
-358,854	151,850	0,116	0,115
-357,839	-200,000	0,008	-0,097
-356,825	-25,777	-0,087	0,037
-355,810	154,662	0,054	0,054
-354,796	-200,000	0,016	0,097
-353,781	221,490	0,020	0,023
-352,766	800,000	-0,072	-0,169
-351,752	-200,000	0,011	0,108
-350,737	-200,000	0,004	0,027
-349,723	-42,890	0,133	-0,049
-348,708	-2,861	0,077	-0,039
-347,693	-43,636	0,095	0,035
-346,679	-200,000	0,007	-0,159
-345,664	800,000	0,019	-0,057
-344,650	-57,064	0,056	-0,018
-343,635	800,000	0,025	0,063
-342,620	-66,766	0,147	-0,042
-341,606	-200,000	0,038	-0,183
-340,591	22,870	-0,023	0,014
-339,577	-67,557	-0,080	-0,023
-338,562	-170,112	-0,089	0,002
-337,548	-129,371	-0,129	0,013
-336,533	40,657	0,123	0,080
-335,518	133,205	0,061	0,057
-334,504	171,144	0,062	-0,064
-333,489	800,000	0,031	-0,073
-332,475	-200,000	0,038	-0,140
-331,460	147,541	-0,091	-0,089
-330,445	-12,266	-0,020	-0,010
-329,431	-200,000	0,030	0,151
-328,416	-62,766	0,179	0,053
-327,402	-200,000	0,017	0,071
-326,387	-158,637	0,076	0,003
-325,372	49,779	-0,059	-0,040
-324,358	163,392	0,103	-0,105
-323,343	-200,000	-0,008	0,041
-322,329	193,523	-0,077	-0,084
-321,314	-152,500	0,058	-0,003
-320,299	-89,344	0,080	-0,017
-319,285	-127,603	-0,203	0,021
-318,270	198,027	-0,047	0,052
-317,256	-200,000	0,011	-0,093
-316,241	-1,603	-0,112	0,057
-315,226	33,920	-0,095	0,060
-314,212	-101,362	0,159	0,028
-313,197	800,000	0,080	0,194
-312,183	346,735	-0,060	0,085
-311,168	-108,810	-0,130	-0,020
-310,153	7,019	0,101	-0,055
-309,139	-171,615	-0,109	0,003
-308,124	-200,000	0,008	0,063
-307,110	4,784	0,135	0,072
-306,095	-46,030	0,071	-0,025
-305,080	16,903	0,106	-0,060
-304,066	-200,000	-0,010	-0,077
-303,051	-97,268	-0,108	0,020
-302,037	-64,671	-0,148	-0,043
-301,022	-200,000	0,001	-0,053
-300,008	-62,195	-0,049	-0,015
-298,993	540,223	0,052	-0,090
-297,978	-200,000	-0,068	-0,217
-296,964	-47,880	0,011	0,004
-295,949	-200,000	0,048	-0,179
-294,935	-200,000	0,028	-0,103
-293,920	-82,520	-0,093	-0,022
-292,905	-5,050	0,072	-0,036
-291,891	-110,513	0,099	0,015
-290,876	-186,499	-0,099	-0,001
-289,862	-8,558	-0,040	-0,020
-288,847	618,388	0,046	0,085
-287,832	77,689	-0,012	0,009
-286,818	-20,980	-0,056	0,025
-285,803	410,277	0,060	0,093
-284,789	117,981	-0,027	-0,024
-283,774	289,377	-0,022	0,029
-282,759	-95,932	-0,028	-0,005
-281,745	-11,687	0,114	-0,054
-280,730	124,839	-0,088	-0,080
-279,716	-121,074	0,066	0,008
-278,701	554,334	-0,014	-0,024
-277,686	767,996	0,047	0,093
-276,672	-200,000	0,010	0,043
-275,657	-200,000	0,035	0,175
-274,643	-200,000	-0,034	-0,192
-273,628	-200,000	-0,011	-0,109
-272,613	-200,000	0,005	-0,031
-271,599	-200,000	-0,037	0,133
-270,584	-200,000	0,006	-0,081
-269,570	-20,202	0,034	-0,015
-268,555	-146,414	0,053	-0,003
-267,540	800,000	-0,038	-0,092
-266,526	-200,000	-0,006	0,090
-265,511	85,294	0,145	0,116
-264,497	127,681	0,118	-0,108
-263,482	-200,000	-0,015	0,088
-262,467	-200,000	-0,031	0,110
-261,453	-120,004	0,104	0,013
-260,438	-200,000	0,002	0,084
-259,424	-49,295	-0,081	-0,028
-258,409	36,626	-0,052	-0,033
-257,395	127,434	0,013	0,012
-256,380	-54,408	0,086	0,028
-255,365	227,438	0,031	0,037
-254,351	782,204	-0,054	0,107
-253,336	-144,323	-0,097	-0,006
-252,322	526,519	-0,060	-0,103
-251,307	-48,625	-0,121	-0,042
-250,292	564,739	-0,047	0,083
-249,278	336,164	-0,025	0,035
-248,263	-200,000	-0,023	0,132
-247,249	-200,000	0,060	0,000
-246,234	-147,480	-0,080	0,005
-245,219	-141,449	-0,080	0,006
-244,205	333,681	0,074	0,104
-243,190	238,247	-0,107	0,128
-242,176	299,555	0,041	0,054
-241,161	-128,554	0,156	-0,016
-240,146	584,339	0,043	-0,077
-239,132	800,000	-0,039	0,078
-238,117	81,107	-0,059	-0,046
-237,103	256,720	-0,040	0,049
-236,088	134,340	-0,136	-0,128
-235,073	-200,000	0,008	0,045
-234,059	-32,748	0,081	0,032
-233,044	800,000	-0,078	0,176
-232,030	-160,296	-0,089	0,003
-231,015	32,910	-0,044	-0,028
-230,000	716,699	0,089	-0,171
-228,986	79,406	-0,050	-0,039
-227,971	-200,000	0,021	0,133
-226,957	-200,000	0,018	0,084
-225,942	-104,952	0,153	0,025
-224,927	-127,933	0,113	0,012
-223,913	800,000	-0,033	-0,096
-222,898	56,134	-0,242	-0,170
-221,884	-200,000	-0,002	0,016
-220,869	-91,802	0,053	0,011
-219,855	-32,289	-0,140	0,056
-218,840	-200,000	0,016	0,111
-217,825	765,268	-0,024	-0,047
-216,811	16,794	0,028	-0,016
-215,796	-109,324	0,054	-0,008
-214,782	-200,000	0,000	-0,068
-213,767	-33,622	0,065	-0,026
-212,752	60,378	0,079	0,057
-211,738	-70,848	-0,103	0,028
-210,723	800,000	-0,057	0,160
-209,709	-155,330	0,120	-0,006
-208,694	-200,000	0,022	-0,188
-207,679	800,000	0,034	0,100
-206,665	-200,000	-0,016	0,110
-205,650	66,723	0,099	0,073
-204,636	-200,000	-0,011	0,120
-203,621	-200,000	-0,008	0,101
-202,606	-147,459	-0,029	-0,002
-201,592	85,687	0,010	-0,008
-200,577	-144,107	0,032	0,002
-199,563	-68,835	0,104	0,029
-198,548	245,662	0,106	-0,129
-197,533	27,827	0,019	-0,012
-196,519	-12,501	-0,075	-0,035
-195,504	106,493	0,065	-0,056
-194,490	800,000	-0,023	-0,047
-193,475	52,477	-0,117	-0,080
-192,460	-110,605	0,137	0,020
-191,446	-139,989	0,057	0,004
-190,431	415,881	-0,072	0,111
-189,417	-40,941	0,144	0,053
-188,402	552,819	-0,063	-0,110
-187,387	63,438	0,155	-0,112
-186,373	371,648	0,034	0,050
-185,358	458,647	-0,023	0,037
-184,344	156,607	0,117	-0,117
-183,329	507,195	0,055	0,093
-182,315	-10,539	0,234	0,112
-181,300	-200,000	0,011	-0,058
-180,285	-131,446	0,056	0,005
-179,271	800,000	-0,020	0,048
-178,256	74,977	-0,054	0,041
-177,242	-143,628	0,073	0,005
-176,227	-200,000	-0,038	0,201
-175,212	800,000	-0,009	0,021
-174,198	25,789	-0,058	-0,035
-173,183	288,800	-0,069	-0,091
-172,169	24,531	-0,056	-0,033
-171,154	-200,000	0,017	0,081
-170,139	78,659	0,027	0,020
-169,125	-200,000	-0,033	0,111
-168,110	-200,000	0,015	0,094
-167,096	-200,000	0,001	0,108
-166,081	-51,372	-0,092	-0,031
-165,066	447,868	-0,101	-0,160
-164,052	-96,288	0,145	-0,027
-163,037	-200,000	-0,006	-0,056
-162,023	-200,000	0,018	-0,124
-161,008	-200,000	-0,005	0,120
-159,993	27,435	-0,023	-0,014
-158,979	-20,836	-0,076	-0,033
-157,964	-106,156	-0,076	0,012
-156,950	59,305	-0,123	-0,087
-155,935	767,317	-0,076	-0,150
-154,920	-200,000	0,008	0,045
-153,906	-170,878	0,091	-0,002
-152,891	504,230	0,046	-0,077
-151,877	-43,888	0,171	0,062
-150,862	800,000	-0,056	0,139
-149,847	800,000	0,054	0,113
-148,833	174,421	0,057	-0,060
-147,818	-66,160	-0,052	0,015
-146,804	-189,644	0,117	0,001
-145,789	-43,353	0,031	0,011
-144,775	721,681	-0,059	0,114
-143,760	800,000	0,044	0,127
-142,745	-200,000	-0,048	-0,177
-141,731	349,902	-0,025	0,036
-140,716	90,381	-0,052	-0,042
-139,702	800,000	0,039	0,094
-138,687	175,818	-0,054	0,056
-137,672	-123,196	-0,100	-0,011
-136,658	-200,000	0,026	-0,152
-135,643	-120,346	-0,097	0,012
-134,629	622,921	0,084	0,152
-133,614	18,255	0,080	0,046
-132,599	-53,595	0,111	-0,036
-131,585	800,000	0,068	-0,144
-130,570	53,556	0,041	0,028
-129,556	175,507	-0,033	0,035
-128,541	216,169	-0,059	-0,067
-127,526	-170,743	0,106	0,003
-126,512	71,252	0,043	0,032
-125,497	42,045	0,076	0,050
-124,483	-24,520	-0,107	0,046
-123,468	-200,000	-0,038	0,140
-122,453	72,742	-0,081	0,060
-121,439	-130,577	0,119	-0,011
-120,424	-200,000	0,003	-0,026
-119,410	-92,974	-0,077	-0,015
