DTS Sentinel unit serial number:	SN410029Multiplexer serial number:	ORYXHardware model number:	OX2-SRSoftware version number:	ORYX F/W v4,00 Oryx Data Collector v3.7.2.0data status	okinstallation	B5 Nyhavnadifferential loss correction	single-endedforward channel	channel 2reverse channel	N/Adate	2023/12/12time	12:52:13forward acquisition time	300,00reverse acquisition time	0,00gamma	499,1914k internal	0,3158k external	0,3158temperature offset calibration	1,0000default loss term (dB/km)	0,3820temperature slope calibration	1,0000multiplexer offset coefficient	1,0000multiplexer slope coefficient	1,0000fibre end	0,00T internal ref (°C)	15,43T ext. ref 1 (°C)	-0,48T ext. ref 2 (°C)	-0,70length (m)	temperature (°C)	Stokes	anti-Stokes-744,400	253,605	0,095	0,120
-743,385	-80,353	-0,346	0,085
-742,371	-31,606	0,147	0,061
-741,356	-79,149	-0,178	-0,044
-740,342	426,602	0,030	-0,047
-739,327	-77,357	-0,249	0,063
-738,312	-154,145	-0,040	-0,002
-737,298	-91,252	-0,375	-0,078
-736,283	-75,539	0,101	0,026
-735,269	-51,102	-0,372	-0,128
-734,254	17,849	0,153	-0,090
-733,239	-71,301	-0,516	-0,142
-732,225	-129,729	0,225	-0,022
-731,210	-9,190	0,102	0,050
-730,196	-37,558	-0,141	-0,055
-729,181	-200,000	0,026	-0,160
-728,167	-200,000	0,041	-0,170
-727,152	472,554	-0,066	-0,110
-726,137	103,195	-0,099	-0,085
-725,123	800,000	-0,020	0,060
-724,108	-200,000	-0,030	-0,110
-723,094	8,645	-0,176	-0,097
-722,079	351,492	0,011	0,016
-721,064	800,000	0,026	-0,084
-720,050	540,832	-0,042	-0,074
-719,035	-170,657	-0,022	0,001
-718,021	-145,814	-0,140	0,009
-717,006	596,102	0,009	0,016
-715,991	-200,000	0,012	-0,147
-714,977	800,000	-0,058	-0,154
-713,962	436,902	-0,015	-0,023
-712,948	-200,000	0,011	-0,086
-711,933	-116,746	-0,149	-0,020
-710,918	452,697	0,044	0,072
-709,904	188,281	0,065	-0,072
-708,889	193,141	-0,094	-0,105
-707,875	69,649	-0,147	-0,111
-706,860	800,000	0,042	-0,109
-705,845	761,876	0,051	-0,103
-704,831	254,541	-0,033	0,042
-703,816	22,243	-0,123	-0,073
-702,802	-200,000	-0,038	0,129
-701,787	33,642	-0,130	-0,083
-700,772	-142,664	0,076	0,005
-699,758	588,292	0,020	-0,037
-698,743	-5,602	-0,143	0,072
-697,729	-120,888	0,096	0,012
-696,714	119,648	0,088	0,081
-695,699	-124,967	-0,107	0,012
-694,685	53,953	-0,103	0,073
-693,670	-200,000	-0,017	-0,103
-692,656	-96,450	0,135	0,026
-691,641	800,000	-0,039	0,091
-690,627	116,834	0,069	-0,062
-689,612	-200,000	0,012	-0,088
-688,597	-134,324	0,109	-0,010
-687,583	8,595	-0,036	-0,020
-686,568	79,984	-0,088	0,070
-685,554	-39,663	0,039	0,015
-684,539	14,123	0,091	-0,052
-683,524	208,374	-0,026	0,030
-682,510	-46,363	-0,135	-0,049
-681,495	800,000	0,037	-0,090
-680,481	487,704	-0,081	-0,137
-679,466	800,000	-0,008	-0,021
-678,451	297,678	-0,067	-0,090
-677,437	116,298	0,045	0,040
-676,422	-33,676	0,101	-0,041
-675,408	-52,199	-0,189	0,064
-674,393	18,416	0,026	-0,015
-673,378	-200,000	-0,003	-0,102
-672,364	443,690	-0,032	0,052
-671,349	-200,000	0,036	-0,144
-670,335	-102,583	-0,027	-0,005
-669,320	800,000	-0,019	0,053
-668,305	-7,713	0,071	-0,035
-667,291	-112,572	-0,051	-0,007
-666,276	-106,172	-0,131	0,021
-665,262	127,552	0,065	0,061
-664,247	-200,000	0,009	-0,029
-663,232	-200,000	-0,008	0,164
-662,218	131,818	0,103	-0,097
-661,203	-38,460	-0,044	-0,017
-660,189	769,543	-0,032	0,065
-659,174	-200,000	0,004	-0,042
-658,159	-123,275	-0,084	-0,010
-657,145	27,943	-0,079	0,049
-656,130	333,446	0,024	-0,034
-655,116	67,230	0,076	-0,057
-654,101	142,554	-0,053	-0,052
-653,086	-119,183	0,122	0,016
-652,072	800,000	-0,010	-0,023
-651,057	-200,000	-0,022	-0,095
-650,043	249,188	-0,059	0,073
-649,028	40,941	0,090	-0,060
-648,014	163,084	-0,091	0,094
-646,999	-43,974	0,058	-0,021
-645,984	175,779	-0,050	0,053
-644,970	800,000	-0,018	0,049
-643,955	185,364	-0,028	0,030
-642,941	-98,239	0,026	-0,005
-641,926	687,320	0,081	0,155
-640,911	216,928	0,043	-0,051
-639,897	-12,474	-0,025	0,012
-638,882	-79,384	-0,021	0,005
-637,868	240,358	-0,087	-0,106
-636,853	89,109	-0,246	-0,201
-635,838	800,000	-0,019	0,050
-634,824	134,991	-0,091	0,087
-633,809	134,030	-0,131	0,125
-632,795	800,000	0,009	0,020
-631,780	-116,007	-0,019	-0,003
-630,765	96,432	-0,093	-0,078
-629,751	247,475	-0,025	0,031
-628,736	-200,000	0,033	-0,143
-627,722	102,422	0,089	0,076
-626,707	-49,461	-0,083	-0,029
-625,692	373,100	0,017	0,025
-624,678	16,821	-0,189	0,110
-623,663	800,000	0,033	-0,092
-622,649	-99,792	-0,060	-0,011
-621,634	115,252	-0,106	-0,095
-620,619	578,226	-0,058	-0,105
-619,605	13,641	0,037	-0,021
-618,590	128,813	-0,102	0,095
-617,576	-200,000	0,007	0,097
-616,561	-176,740	0,043	-0,001
-615,546	-200,000	-0,002	-0,051
-614,532	90,630	-0,181	-0,149
-613,517	-39,954	-0,115	-0,044
-612,503	-200,000	0,002	-0,083
-611,488	37,479	0,110	-0,071
-610,474	108,566	0,045	0,039
-609,459	-27,201	-0,038	0,016
-608,444	-89,728	-0,108	0,023
-607,430	800,000	-0,017	-0,048
-606,415	98,170	-0,146	-0,123
-605,401	-200,000	0,012	-0,074
-604,386	-59,949	-0,073	-0,023
-603,371	304,264	-0,037	0,050
-602,357	398,089	-0,066	-0,102
-601,342	-19,528	0,166	-0,075
-600,328	138,741	0,054	-0,052
-599,313	-161,654	-0,097	0,004
-598,298	-200,000	-0,013	-0,109
-597,284	-99,173	0,112	-0,021
-596,269	-200,000	-0,029	0,104
-595,255	-200,000	0,007	0,043
-594,240	-200,000	0,003	0,067
-593,225	-200,000	-0,022	0,077
-592,211	800,000	-0,024	0,051
-591,196	-200,000	-0,020	-0,115
-590,182	363,236	0,010	-0,014
-589,167	-86,433	0,137	-0,031
-588,152	487,877	-0,050	0,084
-587,138	-200,000	0,037	-0,183
-586,123	588,402	-0,011	-0,019
-585,109	-200,000	0,019	-0,073
-584,094	-12,414	0,070	-0,033
-583,079	-200,000	-0,001	0,060
-582,065	-200,000	0,003	0,115
-581,050	161,571	-0,118	-0,121
-580,036	637,874	-0,066	-0,123
-579,021	-200,000	0,007	0,062
-578,006	800,000	-0,044	-0,095
-576,992	-41,035	0,136	0,051
-575,977	800,000	-0,007	-0,019
-574,963	390,057	-0,043	0,066
-573,948	-8,006	-0,027	0,013
-572,934	-142,837	0,034	0,002
-571,919	-200,000	0,006	-0,105
-570,904	794,224	0,030	-0,060
-569,890	-165,698	-0,256	0,008
-568,875	-100,578	0,114	0,020
-567,861	-200,000	0,007	0,082
-566,846	51,556	-0,124	0,086
-565,831	-148,202	-0,136	0,008
-564,817	-200,000	0,008	0,108
-563,802	-25,180	0,041	-0,018
-562,788	-108,935	0,069	-0,011
-561,773	-123,480	-0,033	0,004
-560,758	-91,019	0,073	-0,015
-559,744	-72,463	0,097	-0,026
-558,729	-70,268	-0,174	-0,048
-557,715	800,000	0,024	-0,060
-556,700	77,165	0,044	-0,034
-555,685	800,000	0,044	0,130
-554,671	37,037	0,057	-0,037
-553,656	-200,000	-0,010	0,060
-552,642	800,000	-0,067	0,150
-551,627	577,900	-0,064	-0,115
-550,612	-159,527	0,035	-0,001
-549,598	45,777	0,066	0,045
-548,583	-74,984	-0,074	0,019
-547,569	-177,126	0,065	0,001
-546,554	-3,828	0,114	0,057
-545,539	68,834	0,038	-0,029
-544,525	24,910	0,119	-0,072
-543,510	800,000	-0,056	-0,136
-542,496	-200,000	0,027	0,095
-541,481	119,804	-0,056	0,051
-540,466	219,907	0,103	0,120
-539,452	800,000	0,007	0,018
-538,437	-148,123	0,158	0,009
-537,423	800,000	-0,129	0,269
-536,408	-76,632	-0,188	0,048
-535,393	45,196	0,016	-0,011
-534,379	-200,000	-0,028	-0,128
-533,364	-200,000	-0,010	0,054
-532,350	-200,000	0,023	0,125
-531,335	800,000	-0,004	0,008
-530,321	109,755	-0,038	0,033
-529,306	-139,166	-0,093	0,007
-528,291	62,482	0,078	0,057
-527,277	575,512	0,073	-0,130
-526,262	162,452	-0,084	-0,086
-525,248	0,082	0,081	-0,042
-524,233	690,079	-0,032	0,061
-523,218	-200,000	0,009	0,093
-522,204	-36,662	-0,148	0,058
-521,189	-102,824	0,123	0,021
-520,175	-200,000	-0,047	-0,162
-519,160	129,077	-0,094	0,088
-518,145	-120,609	0,058	0,007
-517,131	145,538	0,073	0,071
-516,116	-42,713	-0,050	0,019
-515,102	445,656	0,033	0,053
-514,087	-200,000	0,013	-0,127
-513,072	82,304	-0,102	-0,081
-512,058	-54,458	0,015	-0,005
-511,043	222,644	0,007	-0,008
-510,029	-200,000	-0,026	0,167
-509,014	391,985	-0,038	0,059
-507,999	-200,000	0,019	-0,200
-506,985	-127,051	0,038	-0,004
-505,970	770,040	-0,085	-0,170
-504,956	365,874	-0,027	-0,039
-503,941	-116,095	0,104	0,014
-502,926	-31,170	-0,033	-0,013
-501,912	-70,207	0,071	-0,020
-500,897	-200,000	-0,008	-0,079
-499,883	336,511	0,032	-0,046
-498,868	-200,000	0,002	-0,065
-497,853	-200,000	-0,010	0,088
-496,839	-200,000	-0,037	-0,126
-495,824	-200,000	0,029	-0,131
-494,810	193,476	-0,087	0,096
-493,795	800,000	0,027	0,071
-492,781	-120,829	-0,064	0,008
-491,766	-37,990	-0,112	0,043
-490,751	312,393	0,087	-0,120
-489,737	-200,000	-0,025	-0,096
-488,722	800,000	0,073	-0,165
-487,708	-70,898	0,114	0,031
-486,693	-120,898	0,068	-0,008
-485,678	800,000	0,024	-0,057
-484,664	764,036	0,023	-0,047
-483,649	-63,877	-0,090	0,027
-482,635	-200,000	-0,005	-0,065
-481,620	-31,524	0,034	0,014
-480,605	-143,359	0,116	0,008
-479,591	-121,338	-0,098	-0,012
-478,576	800,000	-0,028	0,077
-477,562	258,623	-0,040	0,051
-476,547	-151,062	-0,065	0,004
-475,532	800,000	-0,033	-0,106
-474,518	-39,851	0,082	-0,031
-473,503	800,000	-0,016	0,034
-472,489	540,992	-0,063	0,110
-471,474	-156,530	-0,075	0,003
-470,459	420,918	-0,018	-0,028
-469,445	712,173	0,076	-0,147
-468,430	-200,000	0,003	-0,072
-467,416	-119,535	0,061	-0,008
-466,401	124,762	-0,091	0,083
-465,386	0,140	-0,035	0,018
-464,372	44,596	0,041	0,028
-463,357	263,967	0,034	0,043
-462,343	-94,352	0,034	0,007
-461,328	59,804	0,040	0,029
-460,313	48,135	0,022	-0,015
-459,299	31,518	0,066	0,041
-458,284	384,150	0,075	0,113
-457,270	-31,172	-0,016	0,006
-456,255	215,349	0,072	0,084
-455,241	800,000	-0,012	-0,039
-454,226	-175,017	-0,096	0,002
-453,211	88,031	0,090	0,072
-452,197	485,035	-0,092	0,154
-451,182	318,660	-0,078	0,108
-450,168	-200,000	-0,011	-0,038
-449,153	-46,788	0,034	-0,012
-448,138	-200,000	0,005	-0,171
-447,124	-42,290	0,046	0,017
-446,109	47,540	-0,065	-0,044
-445,095	48,984	-0,038	-0,026
-444,080	-200,000	0,000	-0,052
-443,065	800,000	0,044	-0,112
-442,051	34,018	0,048	-0,030
-441,036	54,197	0,042	0,029
-440,022	-200,000	-0,020	-0,119
-439,007	-200,000	0,037	-0,120
-437,992	-200,000	0,029	0,173
-436,978	5,195	0,093	0,050
-435,963	-200,000	-0,010	-0,083
-434,949	447,762	-0,091	0,146
-433,934	430,591	0,038	0,060
-432,919	198,133	-0,032	-0,036
-431,905	73,006	-0,081	0,061
-430,890	-200,000	0,008	0,029
-429,876	627,224	0,015	0,028
-428,861	276,533	0,044	-0,057
-427,846	800,000	-0,028	-0,079
-426,832	30,145	-0,042	0,026
-425,817	146,932	-0,133	-0,130
-424,803	-42,402	0,067	-0,025
-423,788	800,000	0,047	0,102
-422,773	117,141	-0,075	0,067
-421,759	60,378	0,109	-0,078
-420,744	83,273	0,053	0,042
-419,730	-65,163	0,088	-0,026
-418,715	192,501	-0,048	-0,053
-417,701	-12,741	0,033	-0,016
-416,686	59,729	0,064	0,046
-415,671	131,707	0,092	0,086
-414,657	-32,396	-0,061	0,025
-413,642	88,114	0,065	0,053
-412,628	-113,906	-0,068	-0,009
-411,613	51,187	0,044	-0,030
-410,598	-200,000	0,018	-0,107
-409,584	275,612	-0,051	0,066
-408,569	800,000	-0,055	-0,113
-407,555	-200,000	0,039	0,205
-406,540	54,602	-0,062	0,044
-405,525	187,609	-0,024	0,026
-404,511	31,410	-0,170	-0,106
-403,496	186,544	0,100	-0,108
-402,482	-26,591	-0,147	0,063
-401,467	-109,663	0,114	-0,017
-400,452	120,979	-0,087	0,079
-399,438	-29,809	-0,094	0,039
-398,423	-200,000	0,017	0,079
-397,409	24,873	-0,079	-0,048
-396,394	190,447	-0,038	-0,042
-395,379	-200,000	-0,018	0,074
-394,365	-73,558	0,055	0,014
-393,350	-61,505	0,112	0,034
-392,336	-64,319	-0,070	0,021
-391,321	-80,453	-0,089	0,021
-390,306	257,319	-0,037	0,046
-389,292	-148,246	0,036	0,002
-388,277	-105,115	0,087	-0,014
-387,263	-17,334	0,087	-0,040
-386,248	-200,000	0,006	0,150
-385,233	82,270	-0,092	0,072
-384,219	-200,000	-0,014	-0,051
-383,204	800,000	-0,031	-0,096
-382,190	800,000	-0,031	-0,097
-381,175	-200,000	0,006	-0,201
-380,160	-76,439	0,052	0,013
-379,146	-200,000	0,013	0,065
-378,131	800,000	-0,025	0,071
-377,117	131,763	-0,055	-0,052
-376,102	-200,000	0,005	-0,043
-375,088	-200,000	0,021	-0,080
-374,073	-43,953	0,055	0,020
-373,058	-1,596	0,077	0,039
-372,044	136,796	-0,097	-0,092
-371,029	-166,959	0,103	0,003
-370,015	-96,637	-0,054	0,010
-369,000	-91,680	-0,075	0,015
-367,985	390,329	-0,047	-0,072
-366,971	-101,920	0,044	-0,008
-365,956	-200,000	-0,003	0,161
-364,942	50,284	0,046	0,032
-363,927	800,000	-0,022	0,044
-362,912	-69,031	-0,061	-0,017
-361,898	193,494	0,096	-0,106
-360,883	-200,000	0,019	-0,107
-359,869	13,272	-0,109	-0,061
-358,854	800,000	0,026	-0,055
-357,839	-113,629	0,140	0,020
-356,825	-200,000	0,022	-0,079
-355,810	-158,849	-0,043	0,002
-354,796	-200,000	0,001	-0,074
-353,781	800,000	0,052	-0,128
-352,766	27,267	-0,027	-0,016
-351,752	800,000	0,035	0,107
-350,737	-200,000	0,026	-0,089
-349,723	485,127	0,068	0,114
-348,708	622,609	0,040	0,074
-347,693	-26,238	-0,039	-0,017
-346,679	91,447	-0,103	-0,084
-345,664	800,000	0,048	0,133
-344,650	-200,000	0,007	0,049
-343,635	281,304	0,061	0,079
-342,620	800,000	0,105	0,239
-341,606	102,086	0,074	0,062
-340,591	45,217	-0,033	-0,022
-339,577	672,590	0,007	0,013
-338,562	62,928	0,076	0,055
-337,548	-65,441	0,133	0,038
-336,533	255,306	-0,045	0,055
-335,518	540,908	0,041	0,071
-334,504	496,310	-0,047	-0,079
-333,489	99,271	0,039	-0,033
-332,475	-80,561	-0,097	0,023
-331,460	410,198	0,032	-0,050
-330,445	5,402	-0,068	-0,036
-329,431	-146,567	0,084	0,005
-328,416	800,000	0,015	-0,038
-327,402	132,464	0,031	0,029
-326,387	200,749	0,039	-0,044
-325,372	-200,000	-0,034	-0,115
-324,358	-200,000	0,038	-0,125
-323,343	3,696	0,071	-0,037
-322,329	-200,000	0,008	0,068
-321,314	-145,126	0,173	0,011
-320,299	-200,000	-0,019	0,091
-319,285	22,789	0,172	-0,102
-318,270	-60,591	0,083	-0,025
-317,256	24,667	-0,045	-0,027
-316,241	258,208	-0,019	0,024
-315,226	800,000	-0,012	-0,028
-314,212	-80,034	0,046	0,011
-313,197	187,055	-0,045	-0,049
-312,183	372,387	0,107	0,158
-311,168	800,000	0,014	0,042
-310,153	-200,000	-0,043	0,148
-309,139	800,000	0,032	0,086
-308,124	287,343	0,090	0,119
-307,110	6,045	0,153	-0,082
-306,095	582,477	-0,006	0,011
-305,080	-88,755	0,050	-0,011
-304,066	-200,000	-0,039	-0,132
-303,051	249,614	-0,059	-0,073
-302,037	-98,216	-0,144	0,027
-301,022	371,609	0,023	-0,034
-300,008	800,000	0,053	0,150
-298,993	-200,000	0,028	0,105
-297,978	124,729	0,045	0,041
-296,964	-90,205	-0,058	-0,012
-295,949	131,178	0,029	0,027
-294,935	120,657	-0,055	-0,049
-293,920	439,468	0,030	-0,047
-292,905	-200,000	0,002	-0,020
-291,891	-200,000	0,014	-0,082
-290,876	-200,000	0,003	-0,028
-289,862	221,226	0,044	0,051
-288,847	89,627	-0,145	-0,117
-287,832	197,007	0,093	0,103
-286,818	-83,418	-0,141	-0,032
-285,803	4,482	0,104	-0,055
-284,789	-200,000	0,004	-0,076
-283,774	800,000	0,023	-0,066
-282,759	-85,124	-0,174	-0,039
-281,745	183,548	-0,068	0,073
-280,730	-89,037	-0,119	0,025
-279,716	-200,000	0,019	-0,072
-278,701	13,257	0,037	-0,021
-277,686	40,500	0,109	-0,071
-276,672	-152,229	0,134	-0,007
-275,657	-31,128	-0,130	-0,053
-274,643	-200,000	-0,015	-0,083
-273,628	-200,000	0,027	0,088
-272,613	-200,000	-0,008	-0,165
-271,599	-200,000	0,016	-0,140
-270,584	-200,000	0,007	0,093
-269,570	800,000	-0,050	0,152
-268,555	237,205	-0,083	0,100
-267,540	134,648	-0,138	0,130
-266,526	-135,215	-0,050	-0,004
-265,511	419,894	-0,019	-0,030
-264,497	800,000	0,053	0,155
-263,482	-134,769	0,118	-0,010
-262,467	-81,536	0,091	0,021
-261,453	76,363	0,117	0,089
-260,438	800,000	0,031	-0,064
-259,424	800,000	0,045	0,091
-258,409	20,399	-0,060	0,035
-257,395	69,754	0,099	0,074
-256,380	74,038	0,105	-0,079
-255,365	-155,125	-0,060	0,003
-254,351	-82,277	0,077	-0,018
-253,336	135,518	0,041	-0,039
-252,322	-139,704	-0,087	0,007
-251,307	77,042	-0,122	-0,093
-250,292	-12,768	-0,039	0,018
-249,278	-114,235	0,015	0,002
-248,263	800,000	0,036	0,073
-247,249	800,000	-0,031	0,087
-246,234	468,707	-0,078	-0,127
-245,219	-108,025	0,155	-0,024
-244,205	483,039	-0,057	-0,094
-243,190	-183,109	0,084	0,001
-242,176	-26,426	0,135	0,057
-241,161	459,167	0,028	0,045
-240,146	-200,000	0,002	-0,008
-239,132	-11,452	0,040	0,019
-238,117	65,385	-0,032	-0,023
-237,103	-200,000	-0,012	0,000
-236,088	85,395	0,029	-0,023
-235,073	-200,000	0,014	0,160
-234,059	124,852	0,016	0,015
-233,044	118,618	0,033	0,029
-232,030	-200,000	-0,010	0,165
-231,015	-116,915	-0,010	0,001
-230,000	-200,000	-0,000	0,017
-228,986	800,000	0,111	-0,232
-227,971	-200,000	-0,041	0,161
-226,957	190,077	0,092	0,100
-225,942	800,000	-0,020	-0,047
-224,927	-169,846	-0,084	0,002
-223,913	800,000	-0,053	0,151
-222,898	96,880	-0,075	-0,062
-221,884	-200,000	-0,029	-0,187
-220,869	-200,000	-0,012	-0,070
-219,855	-109,300	0,113	-0,017
-218,840	673,150	0,093	0,174
-217,825	-200,000	0,003	0,021
-216,811	800,000	-0,075	-0,200
-215,796	-200,000	-0,021	-0,197
-214,782	-83,158	-0,046	-0,011
-213,767	-47,498	-0,023	-0,008
-212,752	776,096	0,032	0,063
-211,738	90,050	0,165	-0,133
-210,723	73,522	-0,094	0,071
-209,709	151,425	0,075	0,074
-208,694	-200,000	0,032	0,185
-207,679	48,441	-0,032	-0,022
-206,665	-10,123	0,065	-0,031
-205,650	205,797	0,039	0,044
-204,636	213,181	-0,112	0,128
-203,621	-17,408	-0,046	0,021
-202,606	273,402	0,032	-0,042
-201,592	-96,213	-0,096	0,018
-200,577	102,747	0,095	-0,080
-199,563	-74,913	0,122	0,031
-198,548	-200,000	-0,016	0,150
-197,533	-108,957	-0,048	0,007
-196,519	-71,133	0,196	-0,053
-195,504	-113,449	-0,167	-0,023
-194,490	-200,000	-0,000	0,030
-193,475	-6,257	-0,016	-0,008
-192,460	-14,806	0,020	-0,009
-191,446	17,845	0,090	0,052
-190,431	480,114	0,042	0,069
-189,417	338,539	0,032	0,046
-188,402	-200,000	-0,041	0,133
-187,387	-27,085	-0,128	-0,053
-186,373	110,833	-0,033	-0,028
-185,358	-26,529	-0,086	0,036
-184,344	800,000	0,019	-0,048
-183,329	-169,836	0,060	0,002
-182,315	69,656	0,028	0,021
-181,300	-73,661	-0,050	-0,013
-180,285	473,396	-0,091	-0,148
-179,271	-200,000	-0,003	-0,026
-178,256	-159,935	0,026	-0,001
-177,242	800,000	0,038	0,082
-176,227	-171,905	-0,125	0,003
-175,212	46,440	-0,095	-0,063
-174,198	-152,035	0,139	-0,007
-173,183	16,529	-0,016	0,009
-172,169	538,987	0,039	-0,067
-171,154	173,978	-0,035	0,036
-170,139	-200,000	-0,003	-0,028
-169,125	290,025	0,069	0,090
-168,110	800,000	0,051	-0,107
-167,096	-27,657	0,109	0,046
-166,081	-131,560	-0,175	0,016
-165,066	-121,489	-0,142	0,017
-164,052	-76,442	-0,069	-0,017
-163,037	798,570	-0,045	-0,091
-162,023	-200,000	0,019	0,065
-161,008	800,000	0,026	0,077
-159,993	73,995	0,058	-0,044
-158,979	280,398	-0,025	0,033
-157,964	-113,690	0,091	0,013
-156,950	-91,864	-0,173	0,035
-155,935	-18,233	0,084	0,038
-154,920	-65,922	0,066	-0,019
-153,906	489,771	0,043	0,071
-152,891	-84,737	0,050	-0,011
-151,877	184,078	0,115	-0,123
-150,862	-200,000	-0,020	-0,078
-149,847	343,915	-0,034	-0,049
-148,833	-103,803	-0,024	0,004
-147,818	-73,078	0,143	0,037
-146,804	-40,240	-0,036	-0,014
-145,789	-142,576	-0,044	-0,003
-144,775	528,734	-0,020	-0,034
-143,760	-200,000	0,012	-0,129
-142,745	193,832	-0,102	0,111
-141,731	800,000	0,034	0,077
-140,716	-6,985	0,120	0,058
-139,702	-200,000	-0,060	-0,000
-138,687	800,000	0,024	0,068
-137,672	272,880	-0,036	0,045
-136,658	-146,016	0,067	0,004
-135,643	-110,107	-0,096	-0,014
-134,629	-155,988	-0,080	0,004
-133,614	800,000	0,058	0,161
-132,599	479,843	-0,054	-0,088
-131,585	-177,713	-0,061	0,001
-130,570	-200,000	-0,012	-0,044
-129,556	-16,395	0,027	0,012
-128,541	-38,636	0,149	0,056
-127,526	-200,000	0,004	-0,014
-126,512	684,029	-0,023	0,043
-125,497	-83,663	0,123	0,028
-124,483	164,461	0,054	0,055
-123,468	655,555	0,054	0,100
-122,453	-9,035	-0,149	0,071
-121,439	-191,120	0,070	0,001
-120,424	-200,000	-0,008	-0,063
-119,410	-25,529	0,073	0,031
-118,395	-200,000	0,007	0,115
