DTS Sentinel unit serial number:	SN410029Multiplexer serial number:	ORYXHardware model number:	OX2-SRSoftware version number:	ORYX F/W v4,00 Oryx Data Collector v3.7.2.0data status	okinstallation	B5 Nyhavnadifferential loss correction	single-endedforward channel	channel 2reverse channel	N/Adate	2023/12/12time	10:22:13forward acquisition time	300,00reverse acquisition time	0,00gamma	499,1914k internal	0,3158k external	0,3158temperature offset calibration	1,0000default loss term (dB/km)	0,3820temperature slope calibration	1,0000multiplexer offset coefficient	1,0000multiplexer slope coefficient	1,0000fibre end	0,00T internal ref (°C)	15,00T ext. ref 1 (°C)	-1,36T ext. ref 2 (°C)	-1,64length (m)	temperature (°C)	Stokes	anti-Stokes-744,400	-183,177	0,151	0,002
-743,385	-132,427	-0,235	0,022
-742,371	-147,780	0,160	-0,010
-741,356	-18,197	-0,255	0,117
-740,342	-200,000	0,034	0,125
-739,327	-98,568	-0,328	0,061
-738,312	405,581	0,069	0,108
-737,298	-199,110	-0,377	0,001
-736,283	192,182	0,033	-0,037
-735,269	-119,566	-0,344	0,043
-734,254	-28,183	0,069	0,029
-733,239	33,685	-0,388	-0,248
-732,225	-57,722	0,230	0,074
-731,210	326,592	0,073	0,104
-730,196	-151,894	-0,144	0,008
-729,181	-16,093	-0,120	0,056
-728,167	-200,000	-0,006	0,074
-727,152	-200,000	0,031	-0,204
-726,137	-72,634	-0,063	-0,017
-725,123	-95,533	-0,042	-0,008
-724,108	216,604	-0,069	-0,081
-723,094	51,758	0,085	-0,060
-722,079	-10,253	-0,147	-0,072
-721,064	326,247	0,029	-0,042
-720,050	-120,757	-0,005	-0,001
-719,035	-200,000	0,004	0,095
-718,021	354,872	0,054	-0,079
-717,006	800,000	-0,014	-0,032
-715,991	127,463	-0,108	0,101
-714,977	350,196	-0,091	-0,133
-713,962	-200,000	0,020	-0,088
-712,948	800,000	0,079	0,210
-711,933	78,467	-0,024	-0,019
-710,918	13,278	0,069	0,039
-709,904	-127,947	-0,155	0,016
-708,889	800,000	-0,034	-0,101
-707,875	239,613	0,032	0,039
-706,860	-67,799	0,127	0,036
-705,845	-60,517	-0,022	-0,007
-704,831	-200,000	-0,001	-0,056
-703,816	-101,422	-0,004	-0,001
-702,802	-9,848	-0,037	-0,018
-701,787	303,138	-0,128	-0,175
-700,772	-200,000	-0,020	-0,206
-699,758	34,825	0,043	-0,028
-698,743	236,213	-0,088	0,107
-697,729	-67,425	-0,128	-0,037
-696,714	-200,000	-0,008	-0,119
-695,699	-200,000	-0,014	-0,056
-694,685	473,240	-0,007	0,011
-693,670	800,000	-0,020	-0,044
-692,656	-96,045	0,034	0,007
-691,641	-158,831	0,037	-0,002
-690,627	-200,000	0,058	0,188
-689,612	36,144	-0,075	-0,049
-688,597	-34,143	-0,069	-0,028
-687,583	-200,000	-0,041	-0,179
-686,568	12,433	-0,155	-0,088
-685,554	-117,676	0,103	-0,014
-684,539	-3,688	-0,005	-0,003
-683,524	800,000	-0,018	-0,041
-682,510	118,421	0,077	-0,070
-681,495	23,325	-0,044	-0,026
-680,481	155,717	-0,047	0,048
-679,466	180,348	-0,034	0,036
-678,451	273,239	0,021	-0,027
-677,437	194,097	0,049	-0,054
-676,422	107,549	0,114	-0,100
-675,408	800,000	-0,030	0,070
-674,393	-200,000	-0,032	-0,205
-673,378	161,672	-0,047	0,048
-672,364	800,000	0,005	-0,011
-671,349	628,037	-0,058	-0,108
-670,335	-45,562	0,062	-0,022
-669,320	-200,000	0,025	-0,114
-668,305	-69,170	0,074	0,021
-667,291	-87,334	0,111	0,025
-666,276	85,750	0,026	-0,021
-665,262	-200,000	0,038	-0,184
-664,247	782,978	0,077	-0,156
-663,232	800,000	0,043	0,128
-662,218	-75,223	-0,185	0,048
-661,203	132,966	0,102	-0,097
-660,189	-200,000	0,013	-0,080
-659,174	800,000	-0,029	-0,085
-658,159	552,558	-0,022	-0,039
-657,145	800,000	-0,066	-0,162
-656,130	-32,646	0,164	0,067
-655,116	-200,000	-0,003	0,049
-654,101	-62,011	0,198	-0,060
-653,086	-110,938	0,175	0,026
-652,072	-49,046	0,027	-0,009
-651,057	53,357	-0,088	-0,062
-650,043	800,000	-0,059	-0,145
-649,028	120,811	-0,064	-0,059
-648,014	-200,000	0,021	-0,114
-646,999	-33,160	-0,192	0,078
-645,984	241,141	0,049	0,060
-644,970	141,335	-0,139	-0,135
-643,955	114,082	-0,076	0,068
-642,941	245,402	-0,061	0,075
-641,926	113,052	-0,037	0,033
-640,911	-9,512	0,044	-0,022
-639,897	130,582	-0,013	0,012
-638,882	-81,653	-0,109	0,026
-637,868	-200,000	0,011	0,088
-636,853	800,000	-0,050	-0,106
-635,838	-42,630	-0,120	0,045
-634,824	136,664	0,027	0,026
-633,809	672,170	0,073	-0,139
-632,795	-132,139	-0,078	-0,007
-631,780	-12,359	-0,054	-0,026
-630,765	800,000	-0,022	-0,064
-629,751	800,000	-0,031	-0,066
-628,736	-60,348	0,128	0,040
-627,722	800,000	0,022	-0,058
-626,707	20,335	-0,085	-0,051
-625,692	85,172	-0,066	-0,053
-624,678	241,523	-0,017	0,021
-623,663	267,362	-0,004	-0,005
-622,649	-200,000	-0,064	-0,213
-621,634	-200,000	-0,002	0,020
-620,619	-164,597	0,180	-0,006
-619,605	39,275	-0,114	0,075
-618,590	10,124	0,094	-0,052
-617,576	-200,000	-0,020	-0,065
-616,561	800,000	0,015	-0,036
-615,546	-200,000	-0,002	-0,024
-614,532	-1,044	-0,018	-0,009
-613,517	-200,000	0,017	-0,144
-612,503	-200,000	0,013	-0,111
-611,488	652,850	0,022	-0,042
-610,474	234,380	-0,041	-0,049
-609,459	628,744	0,076	-0,142
-608,444	131,224	-0,057	-0,054
-607,430	139,382	0,051	0,049
-606,415	800,000	-0,025	-0,060
-605,401	91,610	-0,029	-0,024
-604,386	221,660	0,065	0,077
-603,371	321,079	-0,036	0,051
-602,357	-3,976	-0,039	0,020
-601,342	-31,493	-0,125	0,051
-600,328	-95,312	-0,122	-0,024
-599,313	-133,241	-0,150	-0,014
-598,298	800,000	0,023	-0,061
-597,284	-200,000	-0,040	-0,155
-596,269	-200,000	-0,043	-0,145
-595,255	800,000	0,011	-0,034
-594,240	122,921	0,182	-0,167
-593,225	-200,000	-0,001	-0,004
-592,211	-200,000	0,003	0,009
-591,196	96,448	-0,170	-0,143
-590,182	-49,083	0,115	0,040
-589,167	-24,681	0,144	0,062
-588,152	-23,684	0,068	-0,030
-587,138	0,387	-0,007	-0,004
-586,123	64,542	-0,097	-0,072
-585,109	-166,343	-0,156	-0,005
-584,094	-75,356	0,116	0,030
-583,079	-200,000	-0,018	0,136
-582,065	-54,185	0,038	-0,013
-581,050	800,000	-0,015	0,035
-580,036	-19,430	0,099	0,045
-579,021	-104,275	-0,138	-0,023
-578,006	565,636	0,066	0,118
-576,992	140,324	0,020	0,020
-575,977	-200,000	-0,009	-0,090
-574,963	800,000	0,021	-0,050
-573,948	-200,000	0,003	0,094
-572,934	-34,540	0,152	0,061
-571,919	-200,000	-0,009	-0,066
-570,904	-143,012	-0,083	0,006
-569,890	-144,386	0,074	0,005
-568,875	-93,581	-0,026	0,005
-567,861	-71,939	0,084	0,023
-566,846	431,983	0,071	0,113
-565,831	-53,976	-0,114	-0,038
-564,817	735,024	0,024	-0,048
-563,802	-73,475	-0,168	0,045
-562,788	-200,000	-0,003	-0,017
-561,773	129,656	0,022	-0,021
-560,758	-128,789	-0,125	-0,013
-559,744	-200,000	0,011	0,107
-558,729	-200,000	-0,001	-0,008
-557,715	-200,000	-0,011	-0,117
-556,700	-183,653	0,083	0,001
-555,685	306,530	0,026	0,035
-554,671	41,080	-0,094	-0,062
-553,656	-200,000	0,020	0,079
-552,642	44,635	0,047	-0,032
-551,627	-13,201	0,107	-0,051
-550,612	109,639	-0,062	-0,054
-549,598	-200,000	-0,026	-0,124
-548,583	-128,350	-0,218	0,022
-547,569	-35,842	0,106	0,042
-546,554	-200,000	0,001	0,068
-545,539	-200,000	0,010	0,062
-544,525	-194,070	0,085	-0,000
-543,510	-200,000	-0,015	0,121
-542,496	800,000	0,022	0,063
-541,481	-44,090	-0,131	0,048
-540,466	800,000	-0,066	0,202
-539,452	20,859	0,092	-0,054
-538,437	-121,409	0,068	0,008
-537,423	252,171	-0,012	0,015
-536,408	316,393	-0,066	0,091
-535,393	-200,000	0,025	-0,103
-534,379	800,000	-0,072	-0,180
-533,364	-200,000	0,048	-0,184
-532,350	-200,000	-0,004	-0,112
-531,335	64,254	0,091	0,067
-530,321	-200,000	-0,008	-0,071
-529,306	531,827	-0,028	-0,049
-528,291	225,861	0,111	-0,132
-527,277	67,380	-0,068	0,051
-526,262	-128,970	-0,185	0,019
-525,248	-200,000	0,018	0,135
-524,233	-200,000	0,002	-0,028
-523,218	246,749	-0,059	0,073
-522,204	175,741	0,033	-0,035
-521,189	800,000	-0,016	0,052
-520,175	251,978	0,026	0,033
-519,160	-200,000	0,003	-0,152
-518,145	124,411	0,111	0,102
-517,131	274,745	0,086	-0,112
-516,116	800,000	-0,023	0,053
-515,102	-90,708	-0,038	0,008
-514,087	800,000	0,011	0,034
-513,072	-48,686	0,035	0,012
-512,058	-200,000	0,011	0,066
-511,043	-103,947	0,180	-0,030
-510,029	800,000	0,013	0,041
-509,014	246,278	-0,077	0,095
-507,999	162,727	-0,075	0,077
-506,985	-200,000	-0,003	-0,030
-505,970	231,287	0,037	-0,044
-504,956	-78,442	-0,144	-0,036
-503,941	-200,000	0,000	0,036
-502,926	800,000	0,074	0,222
-501,912	410,417	-0,087	-0,135
-500,897	-200,000	0,016	0,079
-499,883	-44,947	0,131	-0,047
-498,868	-87,394	-0,135	-0,030
-497,853	-134,323	-0,115	-0,010
-496,839	156,773	-0,062	-0,063
-495,824	800,000	-0,019	-0,050
-494,810	76,469	0,115	-0,089
-493,795	-14,015	0,016	0,007
-492,781	800,000	-0,049	0,103
-491,766	800,000	0,027	-0,066
-490,751	-200,000	-0,026	-0,094
-489,737	25,782	-0,048	-0,029
-488,722	-9,263	-0,129	0,062
-487,708	-200,000	-0,034	0,146
-486,693	456,123	0,033	-0,054
-485,678	-200,000	-0,013	0,137
-484,664	-200,000	-0,004	0,174
-483,649	177,949	-0,099	-0,106
-482,635	16,201	0,034	-0,020
-481,620	-151,570	0,088	0,005
-480,605	90,029	-0,050	0,041
-479,591	91,920	-0,096	0,079
-478,576	-200,000	-0,005	-0,075
-477,562	197,796	-0,136	0,152
-476,547	-11,848	-0,187	-0,089
-475,532	174,796	0,072	-0,076
-474,518	70,107	-0,114	0,086
-473,503	-200,000	0,027	0,158
-472,489	92,594	-0,024	-0,020
-471,474	800,000	-0,008	-0,019
-470,459	228,753	-0,047	-0,056
-469,445	581,106	0,036	0,065
-468,430	139,456	0,063	-0,060
-467,416	136,433	0,084	0,080
-466,401	7,458	-0,011	0,006
-465,386	800,000	0,034	0,090
-464,372	36,264	-0,076	0,049
-463,357	-3,682	0,077	0,039
-462,343	-23,347	-0,003	-0,001
-461,328	55,461	-0,166	-0,117
-460,313	800,000	0,056	0,177
-459,299	-49,894	-0,045	-0,016
-458,284	-90,528	0,166	-0,035
-457,270	262,282	-0,069	-0,088
-456,255	-200,000	0,003	0,062
-455,241	117,829	-0,048	-0,043
-454,226	-200,000	0,005	0,158
-453,211	-200,000	-0,012	-0,060
-452,197	-151,100	0,144	0,008
-451,182	-116,858	0,044	0,006
-450,168	-200,000	0,001	0,028
-449,153	800,000	-0,058	-0,177
-448,138	-200,000	0,005	-0,056
-447,124	651,204	0,063	-0,118
-446,109	130,922	-0,036	-0,034
-445,095	356,369	0,068	-0,099
-444,080	-43,580	-0,145	0,053
-443,065	-45,027	0,130	0,047
-442,051	-22,576	-0,085	0,037
-441,036	101,717	0,130	-0,111
-440,022	188,875	0,036	-0,040
-439,007	800,000	-0,019	-0,057
-437,992	-71,061	0,115	0,031
-436,978	-200,000	0,007	-0,031
-435,963	-200,000	-0,010	0,146
-434,949	-200,000	0,014	0,080
-433,934	-200,000	0,018	-0,082
-432,919	-77,802	0,110	0,027
-431,905	-200,000	-0,000	0,077
-430,890	-200,000	0,004	0,014
-429,876	-13,180	0,124	0,058
-428,861	-200,000	0,011	-0,097
-427,846	-137,827	0,108	-0,009
-426,832	120,853	-0,039	-0,035
-425,817	800,000	-0,033	0,071
-424,803	344,316	0,039	-0,056
-423,788	-116,166	0,100	-0,013
-422,773	-200,000	0,002	0,065
-421,759	-200,000	0,007	-0,052
-420,744	-163,481	-0,055	0,002
-419,730	318,171	0,082	-0,114
-418,715	413,105	-0,058	-0,091
-417,701	-122,963	0,062	-0,007
-416,686	-75,866	-0,073	-0,019
-415,671	24,875	-0,156	-0,094
-414,657	-127,670	-0,010	-0,001
-413,642	-200,000	-0,027	-0,124
-412,628	-30,551	0,024	0,010
-411,613	-139,125	0,069	-0,005
-410,598	495,160	-0,098	-0,164
-409,584	240,060	0,063	-0,076
-408,569	1,759	0,079	0,041
-407,555	-155,115	0,070	-0,003
-406,540	-54,121	0,047	-0,016
-405,525	-43,113	-0,037	-0,013
-404,511	-200,000	0,018	0,073
-403,496	-200,000	-0,032	-0,107
-402,482	-30,908	0,063	0,026
-401,467	588,848	0,079	0,142
-400,452	623,528	-0,052	-0,096
-399,438	252,127	0,081	0,101
-398,423	-200,000	0,016	0,060
-397,409	-67,398	0,025	0,007
-396,394	800,000	-0,011	-0,034
-395,379	46,825	0,055	-0,037
-394,365	0,238	0,137	-0,071
-393,350	324,087	0,043	0,059
-392,336	-200,000	-0,030	0,143
-391,321	245,580	0,017	0,021
-390,306	82,663	-0,023	-0,018
-389,292	-101,654	-0,111	0,019
-388,277	39,836	-0,026	-0,017
-387,263	800,000	0,022	0,063
-386,248	156,656	0,111	-0,111
-385,233	108,736	-0,046	-0,040
-384,219	301,728	0,105	0,141
-383,204	91,021	-0,067	-0,054
-382,190	-47,452	-0,145	0,051
-381,175	61,619	0,054	-0,039
-380,160	-200,000	0,011	-0,047
-379,146	-58,446	-0,122	-0,038
-378,131	800,000	0,049	0,122
-377,117	191,996	-0,054	0,060
-376,102	-200,000	-0,015	0,056
-375,088	30,905	0,080	0,050
-374,073	800,000	0,035	-0,072
-373,058	29,475	0,104	-0,064
-372,044	-101,003	0,138	0,024
-371,029	-56,419	-0,150	-0,048
-370,015	571,395	0,091	-0,162
-369,000	800,000	0,049	-0,107
-367,985	-87,817	0,064	-0,014
-366,971	10,176	0,076	-0,042
-365,956	-200,000	0,023	0,108
-364,942	-25,839	0,057	-0,024
-363,927	-164,607	-0,068	0,002
-362,912	-18,018	0,097	-0,044
-361,898	-200,000	-0,036	0,117
-360,883	-200,000	-0,013	-0,052
-359,869	-90,151	-0,112	0,023
-358,854	800,000	0,057	0,115
-357,839	800,000	0,027	0,065
-356,825	358,401	-0,066	-0,096
-355,810	-34,232	-0,085	0,034
-354,796	-200,000	-0,005	0,041
-353,781	355,228	-0,097	-0,141
-352,766	441,359	-0,017	-0,028
-351,752	-200,000	0,023	0,117
-350,737	-200,000	-0,000	0,004
-349,723	240,109	-0,040	-0,048
-348,708	-57,103	-0,183	-0,058
-347,693	-200,000	0,034	-0,115
-346,679	-165,096	-0,078	0,002
-345,664	800,000	-0,020	-0,053
-344,650	697,078	0,025	0,048
-343,635	-200,000	-0,003	-0,018
-342,620	267,705	0,040	-0,051
-341,606	506,587	0,020	0,035
-340,591	537,662	0,040	0,069
-339,577	-74,013	-0,089	-0,023
-338,562	-200,000	0,005	0,017
-337,548	70,719	0,042	-0,031
-336,533	-200,000	0,042	-0,140
-335,518	800,000	0,027	0,077
-334,504	-59,698	-0,090	-0,028
-333,489	-200,000	0,004	0,047
-332,475	800,000	-0,025	-0,073
-331,460	329,562	-0,007	0,009
-330,445	17,275	0,065	-0,037
-329,431	42,840	0,132	0,087
-328,416	97,829	0,105	0,088
-327,402	800,000	-0,032	0,072
-326,387	-149,778	-0,054	0,003
-325,372	109,856	0,067	-0,058
-324,358	-8,539	-0,038	-0,018
-323,343	-200,000	0,005	-0,027
-322,329	-200,000	-0,005	0,049
-321,314	648,915	0,079	0,147
-320,299	72,362	0,062	0,047
-319,285	234,338	-0,046	-0,055
-318,270	112,418	-0,089	0,078
-317,256	-101,366	0,111	-0,019
-316,241	13,169	-0,061	0,034
-315,226	800,000	0,032	0,095
-314,212	-160,541	0,099	0,004
-313,197	-200,000	-0,026	0,091
-312,183	-118,451	-0,075	-0,010
-311,168	-87,710	-0,050	-0,011
-310,153	-110,784	-0,137	-0,020
-309,139	-83,239	-0,099	-0,023
-308,124	-151,918	0,073	-0,004
-307,110	-200,000	-0,009	0,037
-306,095	-200,000	0,009	-0,125
-305,080	595,777	-0,032	-0,057
-304,066	800,000	0,019	0,060
-303,051	-200,000	-0,038	0,127
-302,037	560,582	-0,033	-0,057
-301,022	800,000	-0,011	0,027
-300,008	744,042	-0,067	0,131
-298,993	301,782	0,061	0,082
-297,978	72,873	0,066	0,050
-296,964	-12,606	-0,185	-0,087
-295,949	659,155	-0,007	-0,013
-294,935	-200,000	0,008	-0,030
-293,920	-60,558	0,056	0,017
-292,905	-103,443	0,098	0,017
-291,891	59,778	0,052	0,037
-290,876	-200,000	0,003	0,145
-289,862	800,000	-0,035	0,079
-288,847	325,450	0,027	-0,037
-287,832	27,706	0,018	0,011
-286,818	800,000	0,037	-0,089
-285,803	-144,117	-0,047	0,003
-284,789	800,000	0,029	0,072
-283,774	575,111	-0,033	0,059
-282,759	93,434	-0,125	-0,103
-281,745	-7,383	-0,025	-0,012
-280,730	-30,118	-0,064	-0,026
-279,716	-200,000	-0,050	-0,210
-278,701	-200,000	-0,010	0,072
-277,686	249,346	0,020	0,025
-276,672	72,722	0,094	0,071
-275,657	194,306	0,047	0,051
-274,643	4,854	-0,028	-0,015
-273,628	-200,000	0,004	-0,021
-272,613	-165,645	-0,118	-0,004
-271,599	800,000	-0,044	0,096
-270,584	-3,517	0,128	0,064
-269,570	-200,000	-0,010	0,048
-268,555	30,169	0,097	0,060
-267,540	162,780	0,091	-0,092
-266,526	25,296	-0,129	0,078
-265,511	465,380	-0,046	0,075
-264,497	-108,456	0,058	-0,009
-263,482	-13,495	0,128	0,060
-262,467	-139,645	0,055	0,004
-261,453	100,735	0,054	0,045
-260,438	74,176	0,007	-0,005
-259,424	-128,125	-0,093	0,009
-258,409	143,684	0,115	-0,111
-257,395	800,000	0,005	0,015
-256,380	-200,000	0,005	0,101
-255,365	-193,708	0,159	0,001
-254,351	-146,768	-0,039	0,002
-253,336	213,066	-0,089	0,102
-252,322	95,567	0,105	0,086
-251,307	119,326	-0,089	-0,080
-250,292	85,659	0,097	0,077
-249,278	232,852	0,054	0,064
-248,263	-39,120	0,080	0,030
-247,249	310,434	-0,036	-0,049
-246,234	-200,000	0,013	-0,071
-245,219	-100,386	-0,176	0,031
-244,205	800,000	-0,035	-0,074
-243,190	68,755	0,058	0,043
-242,176	-97,395	0,136	0,025
-241,161	-200,000	0,002	0,120
-240,146	244,883	0,086	-0,104
-239,132	-200,000	-0,004	-0,157
-238,117	223,346	-0,059	-0,069
-237,103	297,188	-0,039	0,052
-236,088	22,598	0,074	0,044
-235,073	-200,000	-0,018	-0,170
-234,059	-200,000	0,014	0,159
-233,044	-104,200	0,074	-0,012
-232,030	25,318	-0,023	0,014
-231,015	472,466	0,037	0,060
-230,000	591,784	-0,025	-0,045
-228,986	-56,246	-0,055	0,018
-227,971	151,868	0,137	0,135
-226,957	55,270	0,038	0,027
-225,942	800,000	0,055	0,149
-224,927	10,303	-0,066	-0,036
-223,913	-200,000	-0,044	-0,170
-222,898	179,615	0,061	0,065
-221,884	-14,338	-0,053	0,024
-220,869	-136,384	-0,093	0,008
-219,855	166,582	-0,062	-0,064
-218,840	-41,637	0,083	-0,031
-217,825	800,000	0,010	0,020
-216,811	-200,000	-0,014	-0,080
-215,796	217,577	-0,065	-0,075
-214,782	63,760	-0,020	0,015
-213,767	27,054	-0,062	-0,038
-212,752	81,705	-0,099	0,077
-211,738	234,442	0,037	0,044
-210,723	191,097	-0,060	0,066
-209,709	800,000	-0,026	0,073
-208,694	17,188	-0,141	-0,080
-207,679	-177,666	0,080	-0,001
-206,665	-52,917	0,024	0,008
-205,650	-200,000	-0,019	0,091
-204,636	34,555	-0,137	0,086
-203,621	-200,000	0,007	0,094
-202,606	-200,000	-0,001	0,004
-201,592	800,000	-0,052	-0,119
-200,577	278,449	-0,039	0,050
-199,563	-200,000	0,019	-0,148
-198,548	-200,000	-0,004	0,026
-197,533	-52,605	0,070	-0,023
-196,519	-102,199	0,123	-0,021
-195,504	223,846	-0,023	-0,027
-194,490	-200,000	0,019	-0,100
-193,475	-88,950	0,048	0,010
-192,460	619,313	0,064	0,116
-191,446	146,177	-0,068	-0,066
-190,431	-196,060	0,039	0,000
-189,417	800,000	0,038	0,113
-188,402	-200,000	0,003	0,060
-187,387	-54,719	-0,020	0,006
-186,373	-200,000	-0,005	0,058
-185,358	19,358	0,057	0,033
-184,344	112,034	0,101	-0,088
-183,329	30,084	-0,058	0,035
-182,315	-52,698	0,071	0,024
-181,300	107,304	0,053	0,046
-180,285	-114,981	-0,201	0,027
-179,271	-7,721	-0,035	0,017
-178,256	265,023	-0,039	-0,049
-177,242	64,568	0,090	-0,065
-176,227	800,000	0,059	0,153
-175,212	53,963	-0,040	-0,028
-174,198	-200,000	-0,048	-0,154
-173,183	-200,000	0,010	-0,089
-172,169	-51,564	-0,193	0,065
-171,154	-200,000	0,015	-0,113
-170,139	692,618	-0,021	0,040
-169,125	-30,322	0,072	0,029
-168,110	75,835	0,103	0,079
-167,096	-101,951	-0,057	0,010
-166,081	35,892	0,017	-0,011
-165,066	800,000	-0,013	-0,031
-164,052	-200,000	-0,008	-0,061
-163,037	68,218	-0,067	-0,049
-162,023	800,000	-0,018	0,053
-161,008	691,280	0,055	0,104
-159,993	-70,285	-0,025	0,007
-158,979	102,779	0,050	-0,042
-157,964	-176,114	0,089	-0,002
-156,950	800,000	-0,010	0,029
-155,935	-112,719	0,166	0,024
-154,920	130,923	0,075	0,069
-153,906	27,784	0,102	0,062
-152,891	46,109	0,081	-0,054
-151,877	-200,000	-0,036	-0,120
-150,862	22,824	-0,027	0,016
-149,847	-90,039	0,036	0,007
-148,833	49,394	-0,026	-0,018
-147,818	-200,000	-0,010	0,072
-146,804	800,000	-0,030	-0,059
-145,789	780,020	-0,070	-0,138
-144,775	-200,000	-0,001	-0,059
-143,760	151,245	0,039	-0,038
-142,745	-200,000	-0,024	0,129
-141,731	-12,335	-0,065	-0,030
-140,716	-67,560	-0,089	-0,025
-139,702	137,076	-0,041	0,038
-138,687	72,851	-0,040	0,030
-137,672	464,600	0,032	-0,051
-136,658	555,089	0,043	-0,075
-135,643	73,670	-0,096	-0,072
-134,629	-128,695	-0,087	-0,009
-133,614	32,533	-0,070	0,043
-132,599	-102,102	0,071	-0,012
-131,585	-72,689	-0,057	0,015
-130,570	-200,000	0,015	0,117
-129,556	-101,848	0,154	-0,027
-128,541	-71,892	-0,080	0,021
-127,526	800,000	-0,029	0,063
-126,512	800,000	-0,020	0,060
-125,497	800,000	0,011	0,021
-124,483	-41,612	-0,125	-0,046
-123,468	-200,000	-0,021	-0,116
-122,453	-107,372	-0,140	-0,022
-121,439	235,543	0,039	0,046
-120,424	-200,000	0,024	-0,100
