DTS Sentinel unit serial number:	SN410029Multiplexer serial number:	ORYXHardware model number:	OX2-SRSoftware version number:	ORYX F/W v4,00 Oryx Data Collector v3.7.2.0data status	okinstallation	B5 Nyhavnadifferential loss correction	single-endedforward channel	channel 2reverse channel	N/Adate	2023/12/14time	03:32:14forward acquisition time	300,00reverse acquisition time	0,00gamma	499,1914k internal	0,3156k external	0,3156temperature offset calibration	1,0000default loss term (dB/km)	0,3820temperature slope calibration	1,0000multiplexer offset coefficient	1,0000multiplexer slope coefficient	1,0000fibre end	0,00T internal ref (°C)	8,18T ext. ref 1 (°C)	-8,21T ext. ref 2 (°C)	-8,29length (m)	temperature (°C)	Stokes	anti-Stokes-744,400	61,956	0,123	0,090
-743,385	-115,611	-0,389	-0,053
-742,371	7,026	0,140	-0,077
-741,356	-150,562	-0,315	0,018
-740,342	380,375	0,113	0,172
-739,327	-54,069	-0,360	-0,120
-738,312	-107,860	0,186	-0,030
-737,298	53,251	-0,404	-0,285
-736,283	465,772	0,049	0,081
-735,269	-100,773	-0,381	-0,069
-734,254	153,938	0,104	0,105
-733,239	47,129	-0,412	-0,282
-732,225	-73,867	0,235	0,062
-731,210	143,624	0,178	0,175
-730,196	-168,377	0,048	-0,001
-729,181	-198,869	-0,086	0,000
-728,167	13,654	-0,047	-0,027
-727,152	-31,860	-0,107	-0,044
-726,137	0,270	-0,069	0,036
-725,123	443,247	0,057	0,093
-724,108	128,021	-0,051	-0,048
-723,094	-0,036	-0,086	0,045
-722,079	-200,000	0,015	-0,082
-721,064	-140,067	0,024	-0,002
-720,050	-200,000	-0,004	0,031
-719,035	250,562	-0,054	0,067
-718,021	789,007	-0,035	0,071
-717,006	-8,344	-0,085	-0,042
-715,991	-200,000	-0,046	-0,186
-714,977	271,613	-0,024	0,031
-713,962	-15,621	-0,042	0,020
-712,948	191,497	-0,069	-0,076
-711,933	-112,094	-0,065	0,010
-710,918	134,004	-0,101	-0,096
-709,904	-59,022	-0,140	0,044
-708,889	293,469	-0,055	-0,075
-707,875	130,512	-0,115	-0,109
-706,860	800,000	0,084	0,172
-705,845	-96,561	-0,091	0,018
-704,831	17,035	0,008	0,004
-703,816	-200,000	0,011	0,159
-702,802	340,675	-0,060	-0,086
-701,787	-138,242	-0,090	-0,007
-700,772	-87,579	-0,102	-0,023
-699,758	182,110	0,038	-0,042
-698,743	-200,000	-0,019	0,075
-697,729	-182,114	-0,146	-0,002
-696,714	-9,819	0,136	0,067
-695,699	271,872	0,017	-0,022
-694,685	22,127	-0,070	-0,042
-693,670	-12,469	-0,126	-0,060
-692,656	168,735	-0,051	0,054
-691,641	509,189	-0,037	-0,064
-690,627	-34,449	0,121	0,048
-689,612	732,947	0,027	0,054
-688,597	-25,262	-0,153	-0,066
-687,583	-31,191	-0,114	-0,047
-686,568	173,702	-0,062	-0,066
-685,554	713,145	0,078	-0,154
-684,539	-140,508	-0,093	-0,007
-683,524	-157,159	0,076	0,003
-682,510	543,307	-0,035	-0,063
-681,495	385,119	0,063	-0,097
-680,481	-79,978	-0,027	0,007
-679,466	-200,000	-0,030	-0,163
-678,451	-101,519	-0,093	0,016
-677,437	501,002	0,067	-0,115
-676,422	558,931	-0,044	0,078
-675,408	277,609	-0,091	-0,119
-674,393	-84,062	0,160	0,037
-673,378	83,113	0,020	-0,016
-672,364	-76,264	-0,126	-0,032
-671,349	-200,000	-0,002	-0,042
-670,335	-197,447	0,167	-0,001
-669,320	330,171	0,040	-0,056
-668,305	-200,000	-0,015	0,049
-667,291	524,559	-0,057	0,100
-666,276	185,011	-0,069	0,075
-665,262	262,306	0,039	-0,050
-664,247	53,985	0,082	0,058
-663,232	166,231	0,007	-0,007
-662,218	-200,000	0,007	-0,082
-661,203	-61,392	-0,116	-0,036
-660,189	575,421	0,072	0,129
-659,174	-125,499	-0,060	-0,007
-658,159	537,425	0,139	-0,244
-657,145	32,956	-0,042	-0,027
-656,130	-62,102	0,097	-0,030
-655,116	-182,906	-0,074	0,001
-654,101	-200,000	-0,013	-0,056
-653,086	787,569	0,031	0,062
-652,072	-122,638	-0,123	0,014
-651,057	-200,000	-0,046	-0,189
-650,043	28,824	0,059	-0,037
-649,028	-200,000	-0,011	0,039
-648,014	-124,465	0,060	0,007
-646,999	81,661	-0,056	0,045
-645,984	399,583	0,027	0,041
-644,970	-200,000	-0,016	-0,100
-643,955	-200,000	-0,031	-0,118
-642,941	-200,000	0,021	-0,125
-641,926	800,000	-0,050	0,103
-640,911	351,856	-0,052	-0,076
-639,897	297,315	0,056	-0,075
-638,882	37,324	-0,011	-0,007
-637,868	102,233	-0,033	0,028
-636,853	-200,000	0,016	0,062
-635,838	27,046	-0,093	-0,057
-634,824	-200,000	0,032	-0,125
-633,809	267,772	0,011	0,014
-632,795	225,478	-0,064	0,077
-631,780	-200,000	0,002	0,059
-630,765	261,273	-0,088	-0,112
-629,751	110,928	-0,143	-0,126
-628,736	-200,000	-0,021	-0,103
-627,722	36,881	-0,016	0,010
-626,707	800,000	0,040	0,128
-625,692	65,903	-0,020	-0,015
-624,678	800,000	0,062	-0,183
-623,663	235,149	-0,053	0,064
-622,649	37,466	-0,053	0,034
-621,634	10,943	-0,084	-0,047
-620,619	-56,469	-0,094	0,031
-619,605	23,587	0,131	-0,079
-618,590	-116,912	0,095	0,013
-617,576	82,587	-0,089	-0,071
-616,561	-7,737	0,019	-0,009
-615,546	800,000	0,055	-0,152
-614,532	-200,000	0,029	-0,133
-613,517	475,969	-0,063	0,105
-612,503	-178,412	-0,163	-0,003
-611,488	254,370	0,081	0,102
-610,474	84,530	-0,035	0,028
-609,459	-76,729	-0,043	0,011
-608,444	-200,000	0,036	-0,158
-607,430	91,516	0,061	-0,050
-606,415	455,055	0,026	-0,043
-605,401	-155,340	0,081	0,004
-604,386	343,697	0,081	0,117
-603,371	-75,819	0,076	-0,020
-602,357	211,497	-0,057	0,066
-601,342	-200,000	0,003	-0,037
-600,328	-200,000	-0,009	0,148
-599,313	269,155	-0,089	0,115
-598,298	-200,000	-0,007	-0,141
-597,284	-137,055	0,193	-0,016
-596,269	267,982	-0,051	0,066
-595,255	103,619	0,073	0,062
-594,240	800,000	0,050	-0,143
-593,225	-97,523	-0,055	0,010
-592,211	-142,055	0,147	0,011
-591,196	-115,935	-0,127	-0,017
-590,182	800,000	0,049	0,145
-589,167	40,323	-0,108	0,071
-588,152	457,181	-0,004	-0,007
-587,138	186,722	-0,022	0,024
-586,123	-200,000	-0,014	-0,167
-585,109	-200,000	-0,023	-0,162
-584,094	527,117	-0,008	-0,013
-583,079	-200,000	-0,027	0,111
-582,065	-168,862	-0,085	-0,002
-581,050	-54,576	-0,080	0,026
-580,036	800,000	-0,032	-0,087
-579,021	533,120	0,035	-0,062
-578,006	-11,089	-0,044	0,021
-576,992	22,133	-0,089	0,053
-575,977	-3,515	0,053	-0,027
-574,963	-2,916	0,030	0,015
-573,948	195,350	0,097	0,108
-572,934	-197,349	0,045	-0,000
-571,919	-200,000	-0,020	-0,107
-570,904	-67,315	-0,081	-0,023
-569,890	432,037	-0,054	-0,086
-568,875	93,657	-0,042	0,035
-567,861	-35,034	0,106	0,042
-566,846	390,405	0,083	0,126
-565,831	-200,000	0,010	-0,048
-564,817	-68,133	-0,103	0,029
-563,802	800,000	0,048	-0,133
-562,788	408,375	0,057	-0,089
-561,773	-40,478	0,117	0,044
-560,758	285,815	0,081	0,107
-559,744	-165,500	0,039	-0,001
-558,729	-200,000	0,017	0,110
-557,715	-200,000	-0,014	0,168
-556,700	-152,960	0,100	-0,005
-555,685	243,937	0,007	-0,008
-554,671	-55,527	-0,080	0,026
-553,656	34,070	-0,072	0,046
-552,642	-200,000	-0,001	-0,064
-551,627	635,793	-0,032	-0,060
-550,612	800,000	-0,024	-0,049
-549,598	281,502	-0,081	-0,106
-548,583	342,862	-0,054	-0,077
-547,569	114,637	0,077	0,069
-546,554	-129,596	0,148	0,015
-545,539	-148,690	0,081	0,005
-544,525	-80,392	-0,154	-0,037
-543,510	-104,236	0,089	-0,015
-542,496	120,977	0,059	-0,054
-541,481	628,018	-0,041	-0,075
-540,466	-33,653	0,038	0,015
-539,452	101,927	0,095	0,081
-538,437	294,140	0,036	0,048
-537,423	-30,018	0,106	0,044
-536,408	-44,194	-0,109	-0,040
-535,393	800,000	0,029	-0,071
-534,379	509,435	0,065	0,111
-533,364	-200,000	0,001	-0,166
-532,350	800,000	-0,005	0,011
-531,335	51,066	0,095	-0,066
-530,321	317,616	-0,009	-0,012
-529,306	-50,121	-0,119	0,041
-528,291	-200,000	-0,003	0,090
-527,277	-14,974	-0,151	-0,071
-526,262	-76,713	-0,032	0,008
-525,248	-193,962	0,197	0,001
-524,233	800,000	0,038	-0,085
-523,218	119,873	0,069	-0,062
-522,204	-178,003	0,056	-0,001
-521,189	-92,929	-0,089	-0,018
-520,175	89,016	-0,027	-0,022
-519,160	-161,650	-0,121	-0,004
-518,145	192,449	-0,037	-0,040
-517,131	-106,577	-0,086	0,014
-516,116	-47,226	-0,074	-0,026
-515,102	70,167	-0,062	-0,047
-514,087	-134,805	0,043	0,004
-513,072	-24,423	-0,086	-0,037
-512,058	-110,207	-0,065	0,010
-511,043	800,000	0,027	0,064
-510,029	-76,972	-0,106	0,027
-509,014	348,330	-0,087	0,126
-507,999	289,590	-0,051	0,068
-506,985	-60,762	-0,129	-0,040
-505,970	-26,696	0,129	-0,055
-504,956	-134,301	-0,097	0,009
-503,941	103,934	-0,123	-0,106
-502,926	5,934	-0,069	-0,037
-501,912	800,000	0,020	-0,045
-500,897	272,220	0,087	-0,112
-499,883	194,823	-0,058	0,064
-498,868	273,275	-0,061	0,079
-497,853	104,497	0,042	-0,036
-496,839	-140,586	-0,120	-0,009
-495,824	101,708	0,106	-0,090
-494,810	-107,678	0,016	0,003
-493,795	-14,512	-0,158	0,074
-492,781	-111,758	-0,175	-0,026
-491,766	-200,000	-0,003	-0,150
-490,751	-10,765	0,169	-0,081
-489,737	-150,271	-0,150	-0,008
-488,722	144,215	0,034	0,033
-487,708	-200,000	0,040	0,167
-486,693	-198,603	-0,060	-0,000
-485,678	-200,000	0,014	0,049
-484,664	-150,093	-0,083	0,005
-483,649	777,026	-0,055	-0,110
-482,635	800,000	-0,012	-0,024
-481,620	-200,000	-0,010	0,124
-480,605	-161,072	-0,136	-0,005
-479,591	-200,000	0,036	0,241
-478,576	448,252	-0,077	0,124
-477,562	105,159	0,014	0,012
-476,547	800,000	-0,012	0,028
-475,532	-93,683	0,140	-0,028
-474,518	-200,000	-0,031	-0,130
-473,503	800,000	0,041	-0,104
-472,489	-200,000	-0,028	0,097
-471,474	95,040	0,172	0,143
-470,459	-75,108	-0,078	-0,020
-469,445	-200,000	-0,025	0,129
-468,430	-200,000	0,030	0,112
-467,416	-16,552	0,050	0,023
-466,401	-67,293	0,089	0,025
-465,386	549,802	-0,067	0,117
-464,372	800,000	0,011	-0,031
-463,357	-200,000	0,022	-0,138
-462,343	12,209	-0,083	0,046
-461,328	331,211	-0,072	0,102
-460,313	77,493	-0,049	0,038
-459,299	-200,000	0,024	0,156
-458,284	-24,529	-0,063	0,027
-457,270	800,000	0,039	0,105
-456,255	318,640	0,074	-0,102
-455,241	375,127	0,050	-0,074
-454,226	-111,701	-0,032	0,005
-453,211	32,776	-0,070	-0,044
-452,197	-136,663	0,148	0,012
-451,182	344,348	-0,027	-0,038
-450,168	-53,306	-0,188	-0,063
-449,153	800,000	0,054	0,154
-448,138	-200,000	0,011	0,102
-447,124	-200,000	-0,047	0,000
-446,109	140,025	-0,056	0,053
-445,095	-77,167	0,089	-0,022
-444,080	326,169	-0,005	-0,007
-443,065	-200,000	-0,001	-0,083
-442,051	-136,523	0,108	-0,009
-441,036	107,393	-0,012	0,011
-440,022	-200,000	0,015	0,091
-439,007	-200,000	0,022	0,144
-437,992	43,912	-0,104	-0,070
-436,978	-81,629	0,059	-0,014
-435,963	-8,438	0,078	-0,038
-434,949	-200,000	-0,048	-0,208
-433,934	-11,570	0,057	0,027
-432,919	800,000	-0,042	-0,102
-431,905	16,166	0,130	-0,075
-430,890	-200,000	0,024	0,090
-429,876	-155,016	0,158	0,007
-428,861	-46,256	0,140	-0,050
-427,846	-89,072	-0,112	-0,024
-426,832	-8,314	0,091	0,044
-425,817	1,058	-0,163	0,085
-424,803	800,000	-0,053	-0,164
-423,788	272,884	0,050	0,065
-422,773	-15,421	0,082	0,038
-421,759	68,833	0,082	-0,061
-420,744	31,240	0,062	0,039
-419,730	62,304	0,033	0,024
-418,715	48,729	-0,030	-0,021
-417,701	49,452	0,024	-0,016
-416,686	317,335	-0,010	0,014
-415,671	481,566	0,067	0,112
-414,657	-200,000	-0,033	0,172
-413,642	-14,838	0,119	0,055
-412,628	325,193	-0,032	-0,045
-411,613	7,027	-0,131	0,071
-410,598	800,000	0,014	0,029
-409,584	-200,000	-0,008	0,088
-408,569	800,000	-0,053	0,139
-407,555	154,632	-0,046	0,046
-406,540	-200,000	-0,012	-0,047
-405,525	356,373	0,005	0,007
-404,511	800,000	-0,021	0,060
-403,496	40,700	-0,063	-0,041
-402,482	11,709	0,091	0,051
-401,467	800,000	-0,038	-0,090
-400,452	4,736	-0,028	0,015
-399,438	8,339	0,081	0,044
-398,423	51,192	-0,041	-0,028
-397,409	-108,665	-0,143	0,022
-396,394	-200,000	-0,013	-0,134
-395,379	-64,662	0,132	-0,039
-394,365	188,478	0,016	-0,017
-393,350	-40,817	0,127	0,047
-392,336	800,000	0,015	0,035
-391,321	-200,000	-0,009	-0,064
-390,306	-87,746	-0,084	-0,018
-389,292	293,735	0,049	-0,066
-388,277	8,241	0,081	0,044
-387,263	279,595	0,059	0,077
-386,248	-125,924	0,113	0,012
-385,233	-113,748	-0,029	0,004
-384,219	78,019	0,131	0,101
-383,204	143,357	0,082	0,079
-382,190	79,691	-0,057	0,044
-381,175	800,000	-0,044	-0,107
-380,160	654,982	-0,048	0,090
-379,146	137,779	-0,127	-0,121
-378,131	-22,731	0,039	-0,017
-377,117	132,797	0,063	0,059
-376,102	-52,680	-0,034	-0,011
-375,088	-200,000	0,005	-0,046
-374,073	-200,000	0,011	0,090
-373,058	66,035	0,097	0,072
-372,044	20,356	-0,073	0,043
-371,029	104,251	0,091	0,078
-370,015	11,275	-0,075	-0,042
-369,000	34,272	0,107	0,068
-367,985	227,872	0,028	0,033
-366,971	-200,000	-0,009	0,086
-365,956	48,364	0,143	-0,097
-364,942	641,565	0,004	-0,008
-363,927	301,198	-0,080	0,107
-362,912	761,693	0,041	0,081
-361,898	800,000	-0,019	-0,038
-360,883	-56,211	0,108	-0,035
-359,869	800,000	0,038	-0,082
-358,854	-156,427	0,162	0,007
-357,839	-200,000	0,018	-0,077
-356,825	116,231	-0,098	-0,087
-355,810	-200,000	-0,001	-0,115
-354,796	-200,000	0,016	-0,061
-353,781	301,548	-0,006	-0,009
-352,766	-108,060	-0,155	-0,024
-351,752	40,291	0,107	-0,070
-350,737	-161,087	0,069	0,003
-349,723	800,000	-0,012	0,030
-348,708	-64,634	-0,099	-0,029
-347,693	109,594	0,073	0,063
-346,679	-28,269	-0,058	0,024
-345,664	364,289	-0,075	-0,110
-344,650	-52,250	0,075	0,025
-343,635	-51,686	0,188	-0,063
-342,620	61,759	0,077	0,056
-341,606	800,000	-0,003	-0,008
-340,591	315,184	-0,058	-0,079
-339,577	800,000	-0,077	-0,174
-338,562	452,453	-0,029	0,047
-337,548	150,852	0,057	0,056
-336,533	800,000	-0,041	0,101
-335,518	-93,475	0,107	0,021
-334,504	800,000	0,035	0,094
-333,489	-92,851	0,171	-0,034
-332,475	-200,000	-0,008	-0,102
-331,460	-3,537	-0,007	-0,003
-330,445	-10,775	-0,103	-0,049
-329,431	-141,057	0,109	0,008
-328,416	195,475	-0,102	0,112
-327,402	114,984	0,060	0,053
-326,387	-200,000	-0,019	0,067
-325,372	307,468	0,052	0,070
-324,358	-84,664	-0,136	0,031
-323,343	-177,386	0,043	-0,001
-322,329	-200,000	-0,006	0,118
-321,314	-200,000	-0,054	-0,178
-320,299	-41,590	0,028	0,011
-319,285	141,448	0,040	0,039
-318,270	0,094	-0,137	0,070
-317,256	-200,000	-0,007	-0,043
-316,241	145,755	0,106	0,103
-315,226	30,915	-0,047	-0,029
-314,212	95,958	0,044	-0,036
-313,197	-34,010	0,082	-0,033
-312,183	159,688	-0,048	-0,049
-311,168	-91,617	-0,020	0,004
-310,153	-200,000	-0,045	-0,168
-309,139	-73,486	0,076	0,020
-308,124	444,833	0,057	0,091
-307,110	309,573	0,073	0,099
-306,095	145,075	-0,142	0,138
-305,080	-111,909	-0,077	-0,011
-304,066	409,930	-0,074	0,114
-303,051	-69,957	-0,162	-0,044
-302,037	111,254	0,104	0,091
-301,022	-52,056	0,075	-0,025
-300,008	74,325	-0,068	-0,052
-298,993	602,622	0,070	0,127
-297,978	145,142	-0,026	-0,026
-296,964	-200,000	0,013	0,053
-295,949	707,841	-0,021	-0,040
-294,935	-200,000	-0,007	-0,155
-293,920	117,698	-0,026	0,023
-292,905	-41,313	0,024	-0,009
-291,891	-85,677	0,059	0,013
-290,876	800,000	0,012	0,027
-289,862	800,000	0,036	-0,093
-288,847	800,000	0,004	0,009
-287,832	398,737	0,059	-0,089
-286,818	-36,102	0,144	-0,056
-285,803	126,848	0,102	-0,094
-284,789	-130,422	0,051	-0,005
-283,774	-146,474	0,045	0,003
-282,759	800,000	-0,007	-0,021
-281,745	-29,130	0,062	0,026
-280,730	289,727	-0,087	-0,114
-279,716	324,455	-0,049	-0,068
-278,701	-200,000	0,041	-0,151
-277,686	800,000	0,038	0,097
-276,672	-200,000	-0,039	0,147
-275,657	-67,080	0,079	-0,022
-274,643	248,817	0,074	-0,091
-273,628	83,225	-0,094	-0,074
-272,613	78,463	0,065	0,050
-271,599	727,800	-0,050	0,098
-270,584	650,188	-0,007	0,014
-269,570	800,000	-0,023	0,069
-268,555	-200,000	-0,004	-0,032
-267,540	-156,683	-0,058	0,003
-266,526	320,593	0,060	-0,083
-265,511	284,745	-0,073	-0,095
-264,497	-200,000	-0,020	-0,108
-263,482	-102,852	0,070	-0,012
-262,467	800,000	-0,128	0,262
-261,453	698,476	-0,033	-0,063
-260,438	-154,841	-0,198	0,009
-259,424	-85,776	0,121	-0,027
-258,409	-18,082	-0,064	-0,029
-257,395	158,568	-0,074	-0,074
-256,380	-200,000	-0,013	-0,067
-255,365	720,906	-0,070	-0,135
-254,351	11,855	-0,027	0,015
-253,336	-200,000	-0,002	-0,051
-252,322	130,331	0,066	-0,062
-251,307	-200,000	0,003	0,028
-250,292	63,139	0,063	0,045
-249,278	-56,965	0,072	-0,023
-248,263	-104,466	0,068	0,011
-247,249	17,296	0,050	0,029
-246,234	-107,714	-0,048	0,007
-245,219	800,000	0,065	-0,136
-244,205	351,244	-0,063	-0,090
-243,190	800,000	-0,070	-0,182
-242,176	-200,000	0,032	-0,212
-241,161	39,615	0,051	-0,033
-240,146	103,437	-0,047	-0,040
-239,132	-59,974	-0,026	-0,008
-238,117	-77,358	-0,183	-0,046
-237,103	-36,229	-0,033	0,013
-236,088	410,122	0,008	-0,013
-235,073	800,000	0,084	0,212
-234,059	381,051	0,058	-0,086
-233,044	800,000	0,021	-0,061
-232,030	800,000	-0,026	0,079
-231,015	800,000	-0,015	-0,039
-230,000	205,126	-0,075	0,084
-228,986	287,995	-0,018	-0,024
-227,971	406,122	0,046	0,071
-226,957	537,789	-0,034	-0,059
-225,942	206,038	0,061	-0,069
-224,927	779,887	-0,026	0,051
-223,913	182,734	0,056	-0,060
-222,898	-9,461	-0,036	-0,017
-221,884	-95,499	0,133	-0,025
-220,869	-200,000	-0,015	0,191
-219,855	-200,000	0,012	0,079
-218,840	800,000	-0,042	-0,087
-217,825	-200,000	-0,009	0,184
-216,811	-200,000	0,013	0,043
-215,796	-62,117	-0,063	-0,019
-214,782	-90,572	0,053	-0,011
-213,767	65,731	0,122	0,089
-212,752	122,653	-0,046	-0,042
-211,738	360,967	-0,035	-0,051
-210,723	164,491	0,129	0,131
-209,709	-150,155	-0,169	0,009
-208,694	-200,000	0,002	-0,026
-207,679	23,176	-0,124	-0,073
-206,665	-138,775	0,103	-0,008
-205,650	-200,000	-0,009	0,042
-204,636	-200,000	0,008	0,042
-203,621	50,470	-0,104	-0,071
-202,606	-35,585	-0,097	0,038
-201,592	-42,552	-0,030	-0,011
-200,577	-80,255	-0,030	-0,007
-199,563	-200,000	0,021	0,119
-198,548	433,447	0,054	0,085
-197,533	-89,434	-0,008	-0,002
-196,519	254,115	-0,052	0,064
-195,504	-200,000	-0,045	-0,172
-194,490	-200,000	0,011	-0,085
-193,475	251,337	-0,106	-0,131
-192,460	234,841	0,082	0,098
-191,446	-200,000	0,009	0,144
-190,431	416,430	-0,034	0,052
-189,417	409,262	-0,028	0,042
-188,402	72,292	0,097	0,073
-187,387	-72,234	-0,074	0,020
-186,373	-53,501	-0,066	0,022
-185,358	616,571	0,073	-0,132
-184,344	465,280	0,015	0,025
-183,329	-200,000	0,013	-0,107
-182,315	-14,958	0,092	0,043
-181,300	-11,914	-0,112	-0,053
-180,285	-21,933	0,158	-0,069
-179,271	-33,425	-0,106	-0,042
-178,256	-40,688	0,186	-0,069
-177,242	-68,118	-0,128	-0,036
-176,227	82,015	0,099	0,077
-175,212	85,286	0,102	-0,081
-174,198	32,248	0,014	-0,009
-173,183	-1,160	-0,022	-0,011
-172,169	-87,210	-0,216	-0,047
-171,154	-200,000	0,021	-0,106
-170,139	138,084	-0,023	0,022
-169,125	800,000	0,076	0,165
-168,110	241,123	0,029	0,035
-167,096	-200,000	0,026	0,116
-166,081	-166,340	-0,086	0,003
-165,066	-24,080	-0,089	-0,038
-164,052	-200,000	0,005	0,117
-163,037	118,176	0,062	0,055
-162,023	-200,000	0,013	0,046
-161,008	48,216	0,085	0,058
-159,993	-200,000	-0,015	0,132
-158,979	-200,000	0,016	0,117
-157,964	295,292	0,097	-0,128
-156,950	-81,473	-0,120	0,028
-155,935	-32,641	-0,039	0,016
-154,920	-200,000	0,023	-0,075
-153,906	-64,001	0,064	0,019
-152,891	155,555	-0,132	0,131
-151,877	332,758	-0,041	-0,057
-150,862	-101,231	0,072	0,013
-149,847	-200,000	-0,018	-0,069
-148,833	141,053	0,136	-0,130
-147,818	363,411	0,019	0,028
-146,804	57,473	-0,079	0,056
-145,789	416,031	0,081	0,125
-144,775	-48,525	-0,092	-0,032
-143,760	146,810	0,010	0,009
-142,745	-108,848	0,057	0,009
-141,731	800,000	0,047	0,147
-140,716	576,888	-0,042	0,074
-139,702	410,596	-0,040	0,061
-138,687	472,462	-0,033	-0,054
-137,672	-200,000	-0,001	0,029
-136,658	55,860	0,032	0,022
-135,643	30,720	-0,137	-0,084
-134,629	-67,719	-0,064	0,018
-133,614	-200,000	-0,036	0,134
-132,599	40,878	0,054	0,035
-131,585	445,892	0,045	0,071
-130,570	515,455	-0,054	-0,092
-129,556	-34,391	0,157	0,062
-128,541	159,544	-0,160	-0,161
-127,526	650,605	-0,041	-0,075
-126,512	4,001	0,183	0,096
-125,497	4,238	0,084	-0,044
-124,483	-200,000	0,026	0,093
-123,468	33,313	0,133	0,083
-122,453	-100,315	-0,187	-0,033
-121,439	-200,000	0,043	0,166
-120,424	250,300	0,052	0,064
-119,410	8,297	-0,033	-0,018
