DTS Sentinel unit serial number:	SN410029Multiplexer serial number:	ORYXHardware model number:	OX2-SRSoftware version number:	ORYX F/W v4,00 Oryx Data Collector v3.7.2.0data status	okinstallation	B5 Nyhavnadifferential loss correction	single-endedforward channel	channel 2reverse channel	N/Adate	2023/12/13time	06:07:13forward acquisition time	300,00reverse acquisition time	0,00gamma	499,1914k internal	0,3160k external	0,3160temperature offset calibration	1,0000default loss term (dB/km)	0,3820temperature slope calibration	1,0000multiplexer offset coefficient	1,0000multiplexer slope coefficient	1,0000fibre end	0,00T internal ref (°C)	13,79T ext. ref 1 (°C)	-2,70T ext. ref 2 (°C)	-3,00length (m)	temperature (°C)	Stokes	anti-Stokes-744,400	301,039	0,066	-0,090
-743,385	-17,971	-0,245	-0,113
-742,371	-200,000	0,029	0,167
-741,356	-30,509	-0,287	0,119
-740,342	-36,317	-0,047	-0,019
-739,327	-162,705	-0,345	0,012
-738,312	-122,755	0,061	-0,007
-737,298	-163,948	-0,356	-0,012
-736,283	-200,000	-0,021	0,083
-735,269	-51,417	-0,213	-0,073
-734,254	232,490	0,133	0,161
-733,239	-14,941	-0,463	-0,218
-732,225	-23,154	0,269	0,119
-731,210	-200,000	-0,006	0,091
-730,196	-200,000	0,015	0,075
-729,181	63,257	-0,052	0,039
-728,167	-200,000	-0,027	-0,089
-727,152	-200,000	-0,006	-0,174
-726,137	19,688	-0,056	-0,033
-725,123	26,289	-0,033	0,021
-724,108	-30,362	-0,121	-0,051
-723,094	-58,041	0,034	-0,011
-722,079	-147,170	-0,141	-0,009
-721,064	376,117	-0,013	-0,020
-720,050	-62,299	0,048	0,015
-719,035	388,286	0,067	0,102
-718,021	-195,889	-0,133	0,001
-717,006	239,030	-0,061	-0,075
-715,991	115,595	-0,147	-0,133
-714,977	40,531	0,045	0,030
-713,962	-57,822	-0,070	-0,023
-712,948	-200,000	0,016	-0,061
-711,933	263,248	-0,052	-0,066
-710,918	181,034	-0,054	0,059
-709,904	22,150	0,082	-0,049
-708,889	2,781	-0,056	0,030
-707,875	-35,457	-0,157	-0,062
-706,860	-59,295	0,038	-0,012
-705,845	215,274	-0,113	0,132
-704,831	-200,000	0,003	0,072
-703,816	122,898	0,022	0,020
-702,802	800,000	-0,057	-0,152
-701,787	22,088	-0,143	-0,086
-700,772	-200,000	-0,029	-0,132
-699,758	-200,000	-0,013	0,094
-698,743	122,344	-0,060	0,055
-697,729	-200,000	0,027	0,111
-696,714	800,000	0,051	0,109
-695,699	-109,373	0,044	-0,007
-694,685	433,586	-0,079	-0,126
-693,670	-78,052	-0,090	-0,023
-692,656	-200,000	0,032	0,136
-691,641	800,000	0,002	0,007
-690,627	274,192	0,050	0,065
-689,612	113,000	0,099	-0,088
-688,597	46,923	-0,157	-0,107
-687,583	100,998	-0,132	-0,112
-686,568	-26,920	-0,170	-0,073
-685,554	-200,000	-0,028	-0,106
-684,539	-200,000	-0,002	0,023
-683,524	-200,000	-0,032	0,145
-682,510	-200,000	-0,034	0,118
-681,495	14,363	-0,035	-0,020
-680,481	-200,000	-0,034	0,144
-679,466	-200,000	-0,027	-0,090
-678,451	332,282	0,083	-0,118
-677,437	-200,000	0,002	-0,024
-676,422	-200,000	0,013	0,056
-675,408	-200,000	0,000	-0,007
-674,393	187,149	0,052	-0,057
-673,378	800,000	-0,040	-0,113
-672,364	111,041	-0,067	-0,059
-671,349	181,745	-0,022	0,023
-670,335	-23,207	-0,101	-0,044
-669,320	393,227	0,107	0,164
-668,305	70,534	-0,028	0,021
-667,291	-119,208	-0,083	0,010
-666,276	473,785	-0,066	-0,110
-665,262	800,000	0,032	-0,083
-664,247	-200,000	0,002	0,065
-663,232	-81,326	-0,152	-0,036
-662,218	3,317	0,100	0,053
-661,203	61,963	0,157	0,114
-660,189	499,522	-0,025	-0,043
-659,174	-186,048	-0,059	-0,001
-658,159	692,591	-0,059	-0,115
-657,145	-59,280	0,043	-0,014
-656,130	-200,000	-0,017	0,067
-655,116	-80,560	-0,054	-0,013
-654,101	-200,000	-0,010	0,091
-653,086	397,881	-0,057	0,087
-652,072	-200,000	-0,006	0,142
-651,057	301,181	-0,065	0,088
-650,043	495,375	-0,053	0,090
-649,028	-191,377	0,078	0,001
-648,014	59,616	-0,037	0,027
-646,999	17,471	-0,047	0,027
-645,984	322,405	-0,034	-0,047
-644,970	307,178	0,016	0,022
-643,955	558,549	0,063	0,113
-642,941	82,914	0,072	-0,057
-641,926	-200,000	0,007	-0,146
-640,911	181,087	-0,102	-0,110
-639,897	-33,819	-0,107	0,043
-638,882	-200,000	-0,008	-0,139
-637,868	7,072	-0,071	-0,039
-636,853	-200,000	0,034	-0,135
-635,838	-154,568	-0,067	-0,003
-634,824	-200,000	-0,001	-0,118
-633,809	-200,000	0,012	0,113
-632,795	-200,000	-0,011	-0,044
-631,780	-200,000	-0,000	0,144
-630,765	-200,000	-0,008	-0,051
-629,751	-91,563	-0,047	0,010
-628,736	23,174	0,063	0,038
-627,722	-108,245	0,132	0,021
-626,707	-8,956	-0,042	-0,020
-625,692	-200,000	0,009	-0,045
-624,678	-92,178	-0,091	-0,019
-623,663	169,059	-0,078	-0,082
-622,649	-17,108	-0,112	-0,051
-621,634	-56,115	0,117	-0,038
-620,619	800,000	-0,018	0,050
-619,605	-200,000	-0,004	-0,030
-618,590	-200,000	0,001	0,018
-617,576	-29,712	-0,114	0,048
-616,561	-200,000	0,000	-0,011
-615,546	-200,000	0,007	-0,122
-614,532	37,979	-0,065	-0,042
-613,517	174,076	-0,044	0,046
-612,503	-200,000	0,001	0,079
-611,488	88,797	0,091	0,074
-610,474	800,000	0,047	0,139
-609,459	81,037	-0,112	-0,089
-608,444	-200,000	0,009	0,039
-607,430	-200,000	0,032	-0,125
-606,415	131,594	-0,127	0,119
-605,401	670,216	0,029	0,056
-604,386	-200,000	0,003	-0,054
-603,371	35,044	0,100	0,064
-602,357	156,951	-0,053	0,053
-601,342	-200,000	0,001	-0,193
-600,328	800,000	-0,025	0,067
-599,313	137,127	-0,056	0,053
-598,298	800,000	0,045	0,096
-597,284	-49,438	0,044	0,015
-596,269	204,411	0,013	0,015
-595,255	122,215	-0,049	-0,045
-594,240	-30,934	-0,088	0,036
-593,225	-200,000	-0,009	-0,086
-592,211	-200,000	-0,027	-0,098
-591,196	577,538	0,032	-0,058
-590,182	174,296	-0,025	0,026
-589,167	50,670	-0,032	-0,022
-588,152	270,186	-0,020	0,026
-587,138	-138,907	0,095	-0,007
-586,123	251,544	-0,062	-0,078
-585,109	-29,286	-0,026	-0,011
-584,094	-135,619	-0,147	-0,013
-583,079	444,467	-0,031	0,050
-582,065	-200,000	0,000	-0,078
-581,050	-15,487	-0,029	0,014
-580,036	-141,470	0,166	0,012
-579,021	28,085	-0,091	-0,056
-578,006	-119,072	0,100	-0,013
-576,992	488,848	-0,067	-0,112
-575,977	-72,571	0,087	0,023
-574,963	800,000	0,015	-0,032
-573,948	-200,000	0,037	-0,122
-572,934	290,209	0,022	0,029
-571,919	71,857	0,058	0,044
-570,904	279,479	-0,099	-0,130
-569,890	800,000	0,024	0,068
-568,875	6,558	-0,023	-0,013
-567,861	311,909	0,024	-0,033
-566,846	800,000	0,053	0,128
-565,831	-58,812	-0,075	0,024
-564,817	121,878	0,040	0,036
-563,802	45,200	-0,027	-0,018
-562,788	9,812	0,030	0,017
-561,773	463,102	0,015	0,024
-560,758	600,237	0,038	0,069
-559,744	47,627	0,116	0,079
-558,729	561,606	-0,014	0,024
-557,715	263,101	0,025	-0,032
-556,700	800,000	0,060	-0,158
-555,685	142,045	-0,105	-0,102
-554,671	-200,000	0,008	0,029
-553,656	607,117	0,116	-0,212
-552,642	-52,079	0,026	0,009
-551,627	370,376	0,045	-0,067
-550,612	-200,000	0,002	-0,067
-549,598	-91,460	0,092	-0,019
-548,583	244,433	-0,040	-0,050
-547,569	-200,000	-0,002	-0,025
-546,554	280,431	-0,068	0,089
-545,539	-200,000	-0,011	0,045
-544,525	-164,844	0,047	0,002
-543,510	-92,929	-0,138	0,028
-542,496	141,091	0,076	0,074
-541,481	3,893	-0,143	-0,076
-540,466	-13,533	-0,149	-0,070
-539,452	574,570	0,014	0,024
-538,437	169,096	-0,114	-0,119
-537,423	-104,333	-0,048	0,008
-536,408	-65,364	-0,088	-0,026
-535,393	101,354	0,099	0,084
-534,379	222,908	0,010	0,011
-533,364	21,265	0,019	-0,012
-532,350	-41,313	-0,050	0,019
-531,335	-200,000	-0,016	0,079
-530,321	-72,818	-0,016	-0,004
-529,306	346,864	0,050	0,072
-528,291	-32,536	0,113	0,046
-527,277	244,042	0,025	-0,030
-526,262	-50,806	-0,087	-0,030
-525,248	-200,000	-0,007	0,059
-524,233	138,927	0,060	0,058
-523,218	47,404	0,172	-0,117
-522,204	86,558	-0,101	-0,082
-521,189	142,583	-0,018	-0,017
-520,175	456,006	-0,080	-0,130
-519,160	91,731	0,113	0,093
-518,145	-17,163	0,084	-0,039
-517,131	789,436	0,028	-0,057
-516,116	219,574	0,031	0,036
-515,102	800,000	-0,023	-0,056
-514,087	-41,030	-0,134	-0,050
-513,072	114,777	0,092	-0,082
-512,058	-53,720	0,129	0,043
-511,043	800,000	0,030	-0,079
-510,029	-200,000	-0,020	0,114
-509,014	800,000	0,049	-0,139
-507,999	347,763	-0,015	-0,022
-506,985	800,000	-0,026	-0,060
-505,970	-193,843	0,074	0,000
-504,956	-200,000	0,001	-0,149
-503,941	-31,804	0,053	0,022
-502,926	244,303	0,062	-0,076
-501,912	-200,000	-0,040	0,151
-500,897	132,742	0,106	0,100
-499,883	-110,912	-0,035	0,005
-498,868	-200,000	-0,007	-0,059
-497,853	-200,000	-0,038	-0,127
-496,839	-200,000	0,003	-0,096
-495,824	-24,237	0,073	0,032
-494,810	-41,357	0,035	-0,013
-493,795	90,120	0,036	-0,030
-492,781	800,000	-0,032	-0,067
-491,766	-200,000	0,008	-0,150
-490,751	800,000	-0,017	-0,044
-489,737	91,488	-0,143	0,117
-488,722	-72,212	0,189	0,051
-487,708	54,138	0,034	0,024
-486,693	-29,938	-0,015	-0,006
-485,678	800,000	0,022	0,061
-484,664	-200,000	0,004	-0,106
-483,649	800,000	-0,040	-0,121
-482,635	-200,000	-0,008	0,076
-481,620	0,447	0,066	-0,034
-480,605	685,176	-0,028	0,054
-479,591	-200,000	0,005	-0,098
-478,576	11,729	0,098	-0,055
-477,562	161,938	-0,031	0,032
-476,547	348,596	-0,030	0,044
-475,532	-200,000	0,001	-0,120
-474,518	-162,743	-0,067	-0,002
-473,503	88,700	0,022	0,018
-472,489	800,000	-0,022	0,070
-471,474	578,696	0,027	0,048
-470,459	259,810	-0,089	-0,113
-469,445	230,503	0,105	-0,125
-468,430	476,706	-0,067	-0,111
-467,416	-200,000	0,004	-0,056
-466,401	-129,423	0,052	0,005
-465,386	800,000	-0,033	0,106
-464,372	-110,340	-0,118	0,018
-463,357	-157,634	-0,048	0,002
-462,343	-111,100	0,054	0,008
-461,328	800,000	0,036	-0,090
-460,313	800,000	-0,043	-0,093
-459,299	163,058	-0,028	0,029
-458,284	-2,584	-0,031	-0,016
-457,270	-74,709	0,152	0,040
-456,255	128,356	0,119	-0,110
-455,241	122,256	0,024	-0,022
-454,226	-66,413	0,039	-0,011
-453,211	311,576	0,052	0,071
-452,197	-178,897	-0,065	-0,001
-451,182	800,000	0,074	-0,156
-450,168	-87,842	0,069	0,015
-449,153	466,945	0,014	0,023
-448,138	89,910	-0,080	-0,065
-447,124	552,123	0,049	-0,085
-446,109	483,169	-0,045	-0,074
-445,095	-87,049	0,087	0,019
-444,080	205,454	0,022	-0,025
-443,065	-135,431	0,117	0,010
-442,051	-172,512	-0,095	-0,002
-441,036	386,658	-0,057	0,085
-440,022	-130,270	0,106	0,010
-439,007	-200,000	-0,019	0,128
-437,992	134,278	0,013	-0,012
-436,978	-112,445	0,061	-0,009
-435,963	746,973	0,003	-0,006
-434,949	103,859	-0,035	0,030
-433,934	625,031	-0,075	-0,138
-432,919	132,333	0,014	0,013
-431,905	-200,000	0,008	-0,100
-430,890	430,216	0,094	-0,148
-429,876	-200,000	0,001	0,099
-428,861	134,116	0,080	0,076
-427,846	-50,969	0,087	0,029
-426,832	5,064	0,066	0,035
-425,817	-45,868	-0,016	-0,006
-424,803	-129,352	0,128	-0,013
-423,788	113,251	0,047	-0,042
-422,773	54,717	-0,094	-0,066
-421,759	-200,000	-0,029	0,140
-420,744	-115,744	-0,037	-0,005
-419,730	50,533	-0,154	-0,105
-418,715	437,278	-0,050	0,079
-417,701	-118,100	0,047	-0,006
-416,686	-58,505	-0,136	0,043
-415,671	563,948	-0,036	0,064
-414,657	-151,011	0,182	-0,010
-413,642	-200,000	-0,020	0,232
-412,628	258,665	0,041	0,051
-411,613	61,579	-0,085	0,061
-410,598	-116,829	-0,028	0,004
-409,584	220,594	0,121	0,141
-408,569	211,727	0,134	0,153
-407,555	25,125	-0,071	0,043
-406,540	-200,000	-0,010	0,104
-405,525	556,120	0,035	0,061
-404,511	68,435	-0,061	-0,046
-403,496	-200,000	-0,001	0,107
-402,482	-39,306	0,087	0,033
-401,467	-63,037	0,112	0,033
-400,452	-185,102	-0,050	0,001
-399,438	48,687	0,136	0,092
-398,423	-200,000	-0,003	-0,086
-397,409	106,878	-0,112	-0,097
-396,394	-33,592	0,103	-0,041
-395,379	-141,545	-0,178	0,013
-394,365	-200,000	-0,009	0,134
-393,350	-200,000	0,027	0,118
-392,336	-45,555	0,036	-0,013
-391,321	-166,113	-0,120	-0,004
-390,306	-200,000	0,002	0,036
-389,292	-33,540	0,152	-0,061
-388,277	-200,000	-0,015	-0,054
-387,263	515,238	0,035	-0,060
-386,248	-17,487	-0,106	-0,048
-385,233	-38,413	-0,052	-0,020
-384,219	-89,327	-0,090	0,019
-383,204	482,233	0,036	-0,060
-382,190	83,855	-0,043	-0,034
-381,175	-200,000	0,017	0,091
-380,160	294,809	-0,079	0,105
-379,146	-200,000	-0,017	0,086
-378,131	-48,181	-0,098	0,034
-377,117	654,244	-0,073	-0,137
-376,102	-188,107	-0,118	-0,001
-375,088	-200,000	0,004	0,179
-374,073	800,000	-0,046	-0,143
-373,058	800,000	0,036	0,085
-372,044	8,089	-0,012	0,006
-371,029	333,735	0,046	0,065
-370,015	-34,787	0,192	-0,076
-369,000	260,237	-0,109	0,137
-367,985	-200,000	-0,021	-0,131
-366,971	-41,057	-0,041	-0,015
-365,956	42,586	-0,092	0,060
-364,942	183,959	-0,050	0,053
-363,927	27,382	-0,047	0,029
-362,912	66,787	-0,061	0,045
-361,898	-200,000	-0,014	-0,092
-360,883	-148,956	-0,089	0,005
-359,869	11,304	0,146	0,081
-358,854	333,466	0,018	0,025
-357,839	-121,158	0,090	-0,011
-356,825	-200,000	0,015	0,086
-355,810	581,146	-0,011	0,020
-354,796	-112,694	0,083	0,012
-353,781	618,191	-0,092	-0,169
-352,766	37,673	-0,074	0,047
-351,752	403,304	-0,079	0,121
-350,737	-82,111	0,100	0,024
-349,723	-129,676	0,096	-0,009
-348,708	-179,535	-0,047	-0,001
-347,693	566,295	0,020	-0,036
-346,679	800,000	0,028	0,086
-345,664	-200,000	0,011	-0,118
-344,650	130,241	0,065	-0,060
-343,635	-98,264	-0,055	0,010
-342,620	202,798	-0,092	0,103
-341,606	376,199	-0,040	-0,059
-340,591	-200,000	-0,016	0,051
-339,577	-49,812	-0,045	0,015
-338,562	-8,229	-0,100	-0,049
-337,548	-76,273	0,144	-0,037
-336,533	-128,445	-0,123	-0,012
-335,518	145,742	0,079	0,076
-334,504	234,576	-0,020	-0,024
-333,489	-22,246	-0,111	-0,049
-332,475	800,000	0,045	-0,141
-331,460	17,502	-0,109	-0,062
-330,445	-21,022	0,084	-0,037
-329,431	144,170	-0,080	-0,077
-328,416	-106,423	0,025	0,004
-327,402	800,000	0,029	0,072
-326,387	-20,337	0,102	-0,045
-325,372	800,000	0,040	0,090
-324,358	800,000	0,069	-0,147
-323,343	-200,000	-0,006	-0,065
-322,329	-200,000	-0,011	-0,035
-321,314	149,814	0,096	0,094
-320,299	-181,514	0,096	0,001
-319,285	289,598	-0,027	0,036
-318,270	-56,472	0,015	0,005
-317,256	-69,836	-0,150	-0,041
-316,241	26,214	-0,057	-0,035
-315,226	-132,968	0,081	0,007
-314,212	-126,779	0,102	-0,011
-313,197	-200,000	0,005	0,019
-312,183	57,176	-0,073	0,052
-311,168	669,468	0,009	-0,017
-310,153	227,491	0,025	0,029
-309,139	800,000	0,026	-0,082
-308,124	-200,000	0,029	0,114
-307,110	49,181	0,006	-0,004
-306,095	-21,307	-0,076	0,033
-305,080	65,105	0,098	0,072
-304,066	314,077	-0,053	0,073
-303,051	427,961	-0,034	-0,054
-302,037	-200,000	0,028	-0,124
-301,022	27,634	0,061	-0,037
-300,008	216,058	0,103	0,118
-298,993	-29,021	0,125	0,052
-297,978	-28,623	-0,142	0,059
-296,964	800,000	-0,013	0,029
-295,949	365,939	0,026	-0,038
-294,935	800,000	0,011	-0,023
-293,920	-200,000	-0,006	-0,072
-292,905	382,600	0,064	0,096
-291,891	-200,000	0,014	0,149
-290,876	-200,000	0,004	0,048
-289,862	-200,000	-0,008	-0,030
-288,847	29,681	-0,056	0,035
-287,832	-200,000	-0,018	-0,067
-286,818	138,498	-0,049	0,047
-285,803	88,151	0,039	-0,031
-284,789	800,000	0,029	0,064
-283,774	-158,487	0,090	0,004
-282,759	-109,978	0,086	-0,013
-281,745	-66,082	0,016	0,005
-280,730	79,597	-0,090	-0,070
-279,716	319,661	0,083	0,114
-278,701	152,020	0,146	0,144
-277,686	25,076	0,121	0,072
-276,672	10,932	-0,036	-0,020
-275,657	666,974	-0,048	-0,091
-274,643	473,077	-0,063	0,103
-273,628	104,919	-0,113	-0,096
-272,613	115,552	-0,005	-0,004
-271,599	-200,000	0,038	0,183
-270,584	-200,000	0,008	-0,154
-269,570	25,517	0,068	-0,041
-268,555	266,950	0,034	-0,043
-267,540	-103,832	-0,070	-0,012
-266,526	-200,000	0,039	-0,169
-265,511	48,985	0,019	0,013
-264,497	432,660	0,075	0,118
-263,482	800,000	-0,029	-0,074
-262,467	-200,000	0,014	0,083
-261,453	-22,320	-0,087	0,038
-260,438	-39,469	-0,089	-0,034
-259,424	7,256	0,106	0,057
-258,409	-107,400	-0,027	-0,004
-257,395	1,928	0,068	-0,036
-256,380	139,435	0,050	-0,048
-255,365	-92,781	0,070	-0,014
-254,351	456,567	0,071	0,115
-253,336	103,841	-0,121	-0,103
-252,322	-93,688	0,026	0,005
-251,307	251,090	0,073	-0,090
-250,292	276,566	0,073	-0,094
-249,278	281,394	0,042	0,055
-248,263	800,000	-0,015	-0,037
-247,249	800,000	0,068	-0,141
-246,234	23,909	-0,048	-0,029
-245,219	417,926	0,076	-0,118
-244,205	-97,525	-0,063	-0,012
-243,190	49,730	-0,094	-0,064
-242,176	800,000	0,030	0,062
-241,161	38,309	0,039	-0,025
-240,146	800,000	-0,027	0,061
-239,132	-200,000	-0,007	0,152
-238,117	156,049	-0,021	0,021
-237,103	-170,082	-0,055	-0,001
-236,088	38,508	-0,057	-0,036
-235,073	-99,611	-0,075	0,013
-234,059	-200,000	0,000	0,077
-233,044	-200,000	0,002	-0,117
-232,030	-200,000	0,010	-0,075
-231,015	7,491	-0,038	0,020
-230,000	800,000	-0,050	0,116
-228,986	-111,338	-0,061	-0,009
-227,971	287,743	-0,043	0,056
-226,957	366,814	-0,017	0,026
-225,942	-71,415	0,072	-0,019
-224,927	-200,000	0,012	0,129
-223,913	-200,000	-0,031	0,120
-222,898	-174,540	-0,149	-0,003
-221,884	99,378	0,048	-0,040
-220,869	-200,000	-0,032	0,170
-219,855	-200,000	-0,016	0,086
-218,840	125,037	0,136	0,124
-217,825	-200,000	0,002	-0,078
-216,811	-138,904	-0,064	-0,005
-215,796	-200,000	0,007	-0,046
-214,782	-200,000	0,009	-0,064
-213,767	-155,896	-0,155	-0,007
-212,752	-57,689	0,145	0,046
-211,738	800,000	-0,092	0,198
-210,723	405,093	-0,084	0,128
-209,709	-49,652	-0,045	-0,015
-208,694	-200,000	0,023	0,107
-207,679	800,000	-0,011	0,029
-206,665	558,024	0,068	0,119
-205,650	377,685	0,038	0,056
-204,636	-4,297	-0,088	0,044
-203,621	-31,260	-0,097	0,039
-202,606	-200,000	0,006	0,044
-201,592	-165,641	-0,113	0,003
-200,577	47,291	-0,117	-0,079
-199,563	749,332	-0,025	0,048
-198,548	-132,897	-0,105	0,010
-197,533	-65,755	0,083	0,024
-196,519	66,942	-0,103	-0,075
-195,504	800,000	-0,054	-0,125
-194,490	-200,000	-0,002	0,057
-193,475	800,000	0,029	0,063
-192,460	-90,914	-0,091	-0,019
-191,446	-200,000	0,006	0,102
-190,431	-200,000	-0,022	-0,102
-189,417	187,551	-0,014	-0,015
-188,402	-200,000	0,007	0,040
-187,387	322,701	-0,060	0,083
-186,373	489,324	-0,081	-0,134
-185,358	424,025	-0,064	-0,100
-184,344	-200,000	0,002	-0,042
-183,329	71,737	-0,027	-0,021
-182,315	-62,306	0,050	-0,015
-181,300	14,450	-0,095	-0,053
-180,285	-56,111	0,117	0,037
-179,271	-200,000	0,001	-0,099
-178,256	-26,524	-0,104	0,044
-177,242	-11,206	0,085	-0,040
-176,227	-184,934	0,134	-0,001
-175,212	97,790	0,087	0,072
-174,198	-124,906	0,055	-0,006
-173,183	-33,100	-0,090	0,036
-172,169	-200,000	-0,009	0,030
-171,154	186,934	0,104	0,111
-170,139	234,863	0,066	0,079
-169,125	403,414	0,009	0,014
-168,110	800,000	-0,025	0,072
-167,096	35,097	0,091	-0,058
-166,081	347,720	-0,027	-0,039
-165,066	142,867	-0,094	-0,090
-164,052	710,929	0,065	0,125
-163,037	193,508	0,086	0,094
-162,023	-124,125	0,096	0,011
-161,008	800,000	-0,026	0,063
-159,993	-58,434	-0,083	-0,026
-158,979	-41,765	0,101	-0,037
-157,964	431,445	0,014	-0,021
-156,950	-52,071	0,098	-0,033
-155,935	-200,000	0,005	-0,105
-154,920	800,000	-0,061	0,165
-153,906	70,614	-0,118	0,088
-152,891	-23,061	-0,081	0,035
-151,877	-114,248	-0,050	0,007
-150,862	-85,773	0,049	-0,011
-149,847	476,806	0,038	0,062
-148,833	429,774	-0,027	-0,041
-147,818	640,402	0,053	0,097
-146,804	-200,000	-0,009	0,159
-145,789	476,357	-0,096	0,156
-144,775	487,878	0,041	0,067
-143,760	48,292	-0,125	-0,084
-142,745	-200,000	-0,115	0,000
-141,731	-128,737	0,119	0,012
-140,716	251,279	-0,068	0,083
-139,702	220,005	-0,039	0,045
-138,687	396,836	-0,141	0,213
-137,672	377,154	-0,094	-0,138
-136,658	-42,507	0,106	-0,039
-135,643	800,000	0,016	0,039
-134,629	101,370	-0,066	-0,055
-133,614	-117,325	0,127	-0,016
-132,599	800,000	0,030	-0,071
-131,585	-56,422	0,042	0,013
-130,570	324,210	-0,082	-0,113
-129,556	17,288	-0,107	-0,061
-128,541	-27,033	0,039	0,016
-127,526	-200,000	0,005	0,028
-126,512	135,545	0,064	0,060
-125,497	-200,000	-0,027	0,109
-124,483	-56,920	0,053	0,017
-123,468	800,000	-0,035	0,072
-122,453	-200,000	-0,023	0,085
-121,439	-200,000	-0,035	0,156
-120,424	-200,000	-0,013	-0,044
-119,410	0,293	0,043	-0,022
