DTS Sentinel unit serial number:	SN410029Multiplexer serial number:	ORYXHardware model number:	OX2-SRSoftware version number:	ORYX F/W v4,00 Oryx Data Collector v3.7.2.0data status	okinstallation	B5 Nyhavnadifferential loss correction	single-endedforward channel	channel 2reverse channel	N/Adate	2023/12/13time	02:12:13forward acquisition time	300,00reverse acquisition time	0,00gamma	499,1914k internal	0,3160k external	0,3160temperature offset calibration	1,0000default loss term (dB/km)	0,3820temperature slope calibration	1,0000multiplexer offset coefficient	1,0000multiplexer slope coefficient	1,0000fibre end	0,00T internal ref (°C)	14,03T ext. ref 1 (°C)	-2,40T ext. ref 2 (°C)	-2,71length (m)	temperature (°C)	Stokes	anti-Stokes-744,400	800,000	0,037	0,081
-743,385	-138,925	-0,126	0,010
-742,371	-113,841	0,192	0,027
-741,356	-136,661	-0,274	0,023
-740,342	38,118	0,158	0,103
-739,327	6,657	-0,278	-0,152
-738,312	573,688	-0,011	-0,020
-737,298	-195,284	-0,161	0,001
-736,283	214,969	0,033	-0,038
-735,269	76,065	-0,289	0,225
-734,254	69,454	-0,040	-0,031
-733,239	-6,799	-0,454	-0,227
-732,225	177,947	0,107	0,115
-731,210	274,984	0,046	-0,060
-730,196	28,286	-0,059	-0,037
-729,181	55,720	-0,086	0,061
-728,167	-200,000	0,013	0,059
-727,152	-179,297	-0,054	-0,001
-726,137	800,000	-0,031	0,099
-725,123	502,038	-0,078	-0,133
-724,108	261,280	-0,109	-0,139
-723,094	-200,000	0,007	-0,031
-722,079	-200,000	-0,015	-0,119
-721,064	113,972	0,091	-0,082
-720,050	-122,164	-0,049	-0,006
-719,035	800,000	-0,017	-0,040
-718,021	800,000	-0,048	-0,099
-717,006	352,377	-0,081	-0,118
-715,991	-200,000	-0,007	0,054
-714,977	461,910	0,016	0,026
-713,962	-41,463	0,101	-0,038
-712,948	-89,403	-0,038	-0,008
-711,933	-113,378	0,112	0,016
-710,918	286,995	0,025	-0,033
-709,904	126,058	-0,068	-0,063
-708,889	-4,163	-0,094	-0,048
-707,875	50,215	-0,081	0,056
-706,860	-70,345	-0,043	0,012
-705,845	-52,291	-0,032	0,011
-704,831	210,940	-0,052	0,060
-703,816	506,062	-0,123	-0,211
-702,802	97,846	-0,040	0,034
-701,787	-62,038	-0,100	-0,031
-700,772	-200,000	0,005	-0,218
-699,758	-200,000	-0,181	-0,000
-698,743	580,970	0,030	0,054
-697,729	-109,505	-0,131	-0,020
-696,714	102,811	-0,042	-0,036
-695,699	-30,703	-0,191	0,079
-694,685	616,802	0,030	-0,056
-693,670	-200,000	0,027	-0,125
-692,656	98,580	0,056	0,047
-691,641	-22,634	0,161	-0,071
-690,627	179,309	-0,106	0,114
-689,612	72,954	-0,088	0,068
-688,597	-193,631	0,125	-0,001
-687,583	-37,129	-0,075	-0,029
-686,568	-200,000	-0,100	0,000
-685,554	116,183	0,097	-0,088
-684,539	800,000	-0,063	-0,137
-683,524	-141,316	0,097	0,007
-682,510	-25,026	-0,049	0,021
-681,495	-148,569	0,106	-0,006
-680,481	-200,000	-0,031	-0,126
-679,466	381,333	0,054	-0,082
-678,451	641,005	-0,011	-0,020
-677,437	-200,000	-0,024	0,174
-676,422	-9,578	-0,140	0,068
-675,408	658,989	-0,060	0,114
-674,393	800,000	-0,053	-0,155
-673,378	-200,000	0,014	-0,125
-672,364	79,970	0,077	-0,060
-671,349	-200,000	0,001	-0,009
-670,335	-81,099	-0,129	-0,031
-669,320	369,797	0,067	-0,100
-668,305	800,000	0,042	0,119
-667,291	51,378	-0,070	0,049
-666,276	327,841	0,108	0,153
-665,262	559,332	-0,058	0,104
-664,247	123,302	0,036	-0,033
-663,232	-10,812	0,059	-0,028
-662,218	146,570	0,090	0,089
-661,203	-200,000	-0,004	-0,022
-660,189	47,793	0,142	0,097
-659,174	164,906	-0,092	-0,096
-658,159	-38,108	-0,104	0,040
-657,145	-34,682	-0,105	0,042
-656,130	556,934	0,070	-0,124
-655,116	-45,352	0,026	-0,009
-654,101	398,949	-0,062	-0,096
-653,086	-200,000	-0,010	0,094
-652,072	274,745	-0,152	0,199
-651,057	68,287	-0,182	0,136
-650,043	276,763	-0,068	0,089
-649,028	146,943	-0,128	0,126
-648,014	-36,220	-0,084	-0,033
-646,999	800,000	0,115	0,242
-645,984	-146,129	-0,093	0,006
-644,970	-101,652	0,023	-0,004
-643,955	-200,000	0,026	-0,120
-642,941	150,729	-0,105	-0,105
-641,926	-20,533	0,145	0,065
-640,911	44,835	-0,030	0,020
-639,897	188,531	0,067	0,074
-638,882	-122,763	-0,198	-0,023
-637,868	60,194	0,068	-0,049
-636,853	-200,000	-0,008	-0,156
-635,838	-200,000	0,005	0,027
-634,824	31,600	-0,134	0,084
-633,809	800,000	0,047	0,140
-632,795	-200,000	0,026	0,128
-631,780	62,830	-0,055	0,040
-630,765	8,417	-0,110	0,060
-629,751	-119,887	-0,164	0,021
-628,736	-90,237	-0,165	0,035
-627,722	800,000	0,044	0,104
-626,707	-200,000	0,005	-0,101
-625,692	800,000	-0,032	0,093
-624,678	-200,000	-0,024	0,134
-623,663	-10,084	-0,151	0,073
-622,649	52,334	-0,011	-0,008
-621,634	699,869	0,064	-0,123
-620,619	241,928	0,003	-0,004
-619,605	-122,243	0,079	-0,009
-618,590	36,447	0,130	-0,084
-617,576	800,000	-0,023	0,055
-616,561	-200,000	-0,007	0,029
-615,546	-163,659	0,099	0,003
-614,532	-27,969	-0,078	-0,033
-613,517	-160,555	0,104	-0,004
-612,503	179,373	-0,037	0,040
-611,488	617,183	-0,045	0,083
-610,474	800,000	-0,033	-0,068
-609,459	-194,681	0,097	-0,001
-608,444	285,300	-0,080	0,106
-607,430	252,215	-0,087	-0,109
-606,415	53,388	-0,037	-0,026
-605,401	-200,000	-0,002	0,113
-604,386	-147,876	0,195	-0,012
-603,371	190,091	-0,087	0,096
-602,357	14,924	-0,030	-0,017
-601,342	-168,490	0,004	-0,000
-600,328	49,053	0,072	-0,049
-599,313	-200,000	0,013	0,082
-598,298	68,955	-0,089	-0,067
-597,284	800,000	0,020	0,061
-596,269	491,057	0,032	-0,054
-595,255	-5,972	-0,036	0,018
-594,240	30,411	-0,030	0,019
-593,225	-200,000	0,024	-0,187
-592,211	800,000	0,049	0,134
-591,196	-200,000	-0,059	0,235
-590,182	348,791	0,034	-0,050
-589,167	-113,527	-0,086	-0,012
-588,152	-132,870	-0,151	-0,014
-587,138	-47,402	0,042	-0,015
-586,123	-139,853	0,063	-0,005
-585,109	-21,667	-0,108	-0,048
-584,094	800,000	0,017	0,044
-583,079	16,398	-0,069	0,040
-582,065	800,000	0,047	-0,150
-581,050	-1,542	0,023	0,012
-580,036	-200,000	-0,018	0,098
-579,021	-38,273	-0,011	0,004
-578,006	-200,000	0,011	-0,041
-576,992	-154,598	-0,061	0,003
-575,977	23,680	0,095	0,057
-574,963	516,476	-0,034	0,058
-573,948	-37,888	0,064	-0,025
-572,934	800,000	-0,015	-0,033
-571,919	361,290	-0,020	-0,029
-570,904	383,241	0,078	-0,118
-569,890	32,724	0,075	0,047
-568,875	-52,357	-0,068	-0,023
-567,861	257,686	-0,078	-0,099
-566,846	-200,000	-0,001	-0,042
-565,831	-129,225	0,059	-0,006
-564,817	800,000	-0,030	-0,097
-563,802	350,709	-0,036	-0,052
-562,788	258,291	-0,081	-0,102
-561,773	-87,018	-0,052	-0,011
-560,758	-18,782	0,051	0,023
-559,744	78,358	0,047	0,037
-558,729	-200,000	0,009	0,063
-557,715	115,168	-0,040	-0,036
-556,700	-104,216	-0,185	-0,031
-555,685	212,338	-0,032	0,037
-554,671	-5,277	0,137	-0,069
-553,656	800,000	0,014	0,036
-552,642	-98,365	0,116	0,021
-551,627	-44,214	0,070	-0,025
-550,612	232,504	-0,020	-0,024
-549,598	-0,173	-0,026	-0,013
-548,583	142,760	-0,013	-0,013
-547,569	405,132	0,036	0,056
-546,554	785,704	0,012	0,025
-545,539	-154,146	-0,046	-0,002
-544,525	99,204	0,062	-0,052
-543,510	-200,000	0,015	0,071
-542,496	774,449	0,018	0,036
-541,481	800,000	-0,027	-0,057
-540,466	38,634	0,083	-0,054
-539,452	-79,746	0,135	0,033
-538,437	668,303	0,030	0,058
-537,423	15,715	-0,086	-0,049
-536,408	14,183	-0,196	-0,111
-535,393	118,411	-0,089	-0,080
-534,379	-200,000	-0,006	-0,105
-533,364	40,141	-0,059	-0,039
-532,350	-200,000	0,011	-0,115
-531,335	-200,000	0,005	-0,100
-530,321	11,486	-0,048	0,027
-529,306	-200,000	-0,000	-0,008
-528,291	41,141	-0,041	-0,027
-527,277	414,898	0,019	-0,030
-526,262	759,347	-0,007	-0,014
-525,248	-200,000	0,003	-0,020
-524,233	-86,136	-0,059	-0,013
-523,218	-18,590	-0,182	0,083
-522,204	800,000	-0,067	0,146
-521,189	357,018	-0,106	-0,155
-520,175	32,969	-0,078	-0,049
-519,160	653,165	-0,088	0,165
-518,145	-107,479	0,146	0,023
-517,131	-98,295	0,176	-0,033
-516,116	-119,243	-0,157	-0,020
-515,102	-29,281	-0,046	-0,019
-514,087	-109,513	0,093	-0,014
-513,072	-200,000	0,030	-0,133
-512,058	-119,618	-0,137	0,017
-511,043	26,870	0,077	-0,047
-510,029	14,451	0,124	-0,070
-509,014	-96,314	0,137	-0,026
-507,999	-31,731	0,061	0,025
-506,985	-50,612	-0,069	-0,024
-505,970	-76,327	0,121	0,031
-504,956	152,843	-0,109	0,109
-503,941	-200,000	0,052	-0,211
-502,926	-200,000	0,031	-0,131
-501,912	-0,250	-0,033	-0,017
-500,897	-6,100	0,182	0,091
-499,883	-76,970	0,032	-0,008
-498,868	-200,000	-0,021	0,135
-497,853	-200,000	-0,028	-0,098
-496,839	-200,000	-0,012	-0,096
-495,824	116,751	-0,022	-0,020
-494,810	800,000	0,026	-0,054
-493,795	-147,733	0,056	-0,003
-492,781	-70,102	-0,104	-0,029
-491,766	118,274	0,032	-0,029
-490,751	-5,943	0,098	-0,049
-489,737	800,000	0,085	-0,209
-488,722	178,392	-0,016	0,017
-487,708	103,758	-0,061	-0,052
-486,693	19,495	-0,095	0,056
-485,678	178,240	0,094	0,100
-484,664	-0,382	0,099	-0,051
-483,649	-96,176	0,088	-0,017
-482,635	-141,429	-0,131	0,010
-481,620	-200,000	0,009	0,122
-480,605	-31,205	-0,071	-0,029
-479,591	-200,000	0,041	-0,186
-478,576	271,696	0,035	0,045
-477,562	-200,000	0,007	0,045
-476,547	-27,103	0,067	0,028
-475,532	193,304	-0,045	-0,050
-474,518	-200,000	0,018	-0,072
-473,503	-97,010	0,074	0,014
-472,489	-200,000	0,000	0,074
-471,474	618,750	-0,035	0,065
-470,459	186,763	-0,090	0,098
-469,445	-200,000	-0,011	-0,073
-468,430	-200,000	-0,034	0,142
-467,416	-200,000	0,006	0,056
-466,401	-117,987	0,089	-0,012
-465,386	123,276	0,047	0,043
-464,372	-200,000	0,002	-0,048
-463,357	35,983	0,037	0,024
-462,343	398,197	-0,033	0,051
-461,328	-127,336	-0,067	0,007
-460,313	-4,525	0,126	0,063
-459,299	469,249	0,016	-0,027
-458,284	293,208	0,045	-0,060
-457,270	1,932	-0,013	-0,007
-456,255	-200,000	0,038	-0,171
-455,241	-200,000	0,006	-0,020
-454,226	-200,000	-0,016	-0,118
-453,211	-63,199	-0,057	0,017
-452,197	-140,222	0,039	0,003
-451,182	-189,525	0,052	0,000
-450,168	-28,579	-0,103	-0,043
-449,153	-200,000	0,008	0,117
-448,138	52,469	0,100	-0,070
-447,124	314,038	0,052	-0,072
-446,109	-23,603	-0,188	-0,082
-445,095	-83,316	0,104	0,024
-444,080	44,553	0,095	0,064
-443,065	202,779	-0,059	0,067
-442,051	-108,189	-0,060	-0,009
-441,036	-174,622	0,080	-0,002
-440,022	-74,064	-0,032	0,008
-439,007	-3,856	0,020	0,010
-437,992	-200,000	0,029	0,200
-436,978	-200,000	0,024	0,093
-435,963	614,727	-0,086	0,158
-434,949	-200,000	0,016	-0,106
-433,934	258,607	0,085	-0,107
-432,919	-200,000	-0,011	-0,046
-431,905	-200,000	0,003	0,111
-430,890	-102,666	0,079	0,014
-429,876	2,672	-0,062	-0,033
-428,861	419,234	0,064	0,100
-427,846	-200,000	0,003	-0,022
-426,832	363,222	-0,116	-0,170
-425,817	194,836	-0,087	-0,096
-424,803	-14,762	0,065	0,030
-423,788	366,290	0,062	-0,091
-422,773	287,482	0,009	0,012
-421,759	-200,000	-0,001	0,008
-420,744	-157,217	0,095	-0,004
-419,730	327,936	-0,063	0,088
-418,715	133,875	-0,094	0,089
-417,701	800,000	0,049	0,109
-416,686	-121,004	-0,053	0,006
-415,671	119,347	-0,058	0,052
-414,657	30,344	-0,117	0,073
-413,642	3,580	0,053	0,028
-412,628	191,064	-0,062	0,067
-411,613	-41,411	-0,052	-0,019
-410,598	252,629	0,037	-0,046
-409,584	-108,126	-0,057	-0,009
-408,569	-101,989	0,203	0,035
-407,555	371,880	0,066	-0,098
-406,540	-200,000	0,013	0,058
-405,525	90,431	-0,165	0,134
-404,511	-17,587	-0,064	0,029
-403,496	75,061	0,127	-0,097
-402,482	326,226	-0,035	0,049
-401,467	800,000	0,031	0,083
-400,452	128,343	0,064	0,059
-399,438	252,146	0,090	0,112
-398,423	187,747	-0,185	-0,201
-397,409	79,739	0,092	0,072
-396,394	800,000	0,044	-0,108
-395,379	-60,825	0,102	-0,031
-394,365	-68,953	-0,016	-0,004
-393,350	-200,000	0,057	0,000
-392,336	-200,000	-0,004	0,147
-391,321	511,914	0,021	0,036
-390,306	83,904	0,040	-0,032
-389,292	-171,134	-0,183	-0,004
-388,277	419,858	0,049	0,076
-387,263	49,235	0,063	-0,043
-386,248	-58,437	-0,058	0,018
-385,233	-200,000	0,010	-0,066
-384,219	191,427	0,057	0,062
-383,204	34,258	-0,125	-0,079
-382,190	29,788	-0,036	0,022
-381,175	543,284	-0,053	0,092
-380,160	-9,983	0,088	-0,042
-379,146	-200,000	0,013	-0,083
-378,131	66,642	-0,038	-0,028
-377,117	323,138	-0,016	0,023
-376,102	-131,155	-0,120	0,011
-375,088	-105,123	-0,100	-0,016
-374,073	112,906	0,100	0,088
-373,058	-200,000	-0,023	0,125
-372,044	-200,000	0,001	-0,007
-371,029	-200,000	-0,008	0,094
-370,015	207,261	-0,039	-0,044
-369,000	-21,479	-0,165	0,073
-367,985	-200,000	0,006	-0,062
-366,971	542,748	0,035	0,061
-365,956	20,917	-0,050	-0,029
-364,942	-73,900	0,040	0,010
-363,927	-96,795	0,147	-0,028
-362,912	-158,292	0,060	0,003
-361,898	31,211	-0,116	-0,072
-360,883	-66,819	-0,076	-0,022
-359,869	115,487	0,059	-0,052
-358,854	120,493	0,063	0,057
-357,839	7,167	0,104	0,056
-356,825	-53,387	-0,132	0,044
-355,810	-62,486	-0,080	0,024
-354,796	-36,414	-0,087	0,034
-353,781	146,557	-0,072	0,070
-352,766	-200,000	-0,002	-0,030
-351,752	-91,595	-0,107	0,022
-350,737	37,393	-0,014	-0,009
-349,723	-142,129	0,148	0,010
-348,708	-10,080	0,104	0,050
-347,693	800,000	-0,003	-0,008
-346,679	-200,000	-0,019	-0,107
-345,664	-55,694	0,046	0,015
-344,650	-10,979	-0,019	-0,009
-343,635	800,000	0,019	0,038
-342,620	75,299	0,080	0,061
-341,606	739,767	-0,017	-0,033
-340,591	608,969	-0,075	-0,136
-339,577	-106,456	0,025	0,004
-338,562	-17,277	-0,153	0,070
-337,548	800,000	-0,060	0,181
-336,533	-178,534	-0,091	-0,001
-335,518	-124,563	-0,105	0,012
-334,504	-184,259	0,072	-0,001
-333,489	-200,000	0,014	-0,062
-332,475	-181,563	-0,108	-0,001
-331,460	329,342	0,102	0,143
-330,445	-200,000	-0,004	0,014
-329,431	661,293	0,089	0,167
-328,416	-171,005	0,098	-0,002
-327,402	21,251	-0,009	0,005
-326,387	-200,000	0,011	0,040
-325,372	-108,261	-0,075	-0,012
-324,358	-200,000	0,012	0,042
-323,343	-14,439	-0,068	-0,032
-322,329	-17,966	0,103	0,047
-321,314	-200,000	0,008	-0,061
-320,299	-61,471	-0,076	0,023
-319,285	-71,658	0,124	-0,033
-318,270	284,719	0,056	-0,073
-317,256	256,089	-0,057	-0,070
-316,241	65,852	0,073	-0,053
-315,226	-80,203	-0,138	0,033
-314,212	-70,409	0,110	-0,030
-313,197	143,822	-0,008	0,007
-312,183	800,000	0,044	-0,124
-311,168	800,000	-0,016	0,040
-310,153	-200,000	0,022	-0,078
-309,139	-24,064	0,036	0,015
-308,124	100,539	0,025	0,021
-307,110	-87,705	0,043	-0,009
-306,095	-139,197	0,144	-0,011
-305,080	-200,000	-0,028	0,095
-304,066	225,366	0,085	0,100
-303,051	-94,594	0,020	-0,004
-302,037	-44,317	-0,068	0,024
-301,022	-104,468	0,071	-0,012
-300,008	-200,000	0,008	0,136
-298,993	-55,208	0,136	0,044
-297,978	-200,000	0,001	0,062
-296,964	386,707	0,028	-0,042
-295,949	-53,833	-0,086	0,028
-294,935	800,000	-0,026	-0,055
-293,920	181,927	0,030	-0,032
-292,905	800,000	0,041	-0,092
-291,891	-200,000	0,029	0,109
-290,876	36,868	0,087	0,055
-289,862	466,630	-0,050	0,081
-288,847	-30,366	-0,020	-0,008
-287,832	-115,351	0,150	0,020
-286,818	800,000	0,014	-0,040
-285,803	49,914	-0,068	0,047
-284,789	-200,000	0,006	0,091
-283,774	-76,926	0,159	-0,040
-282,759	377,390	-0,065	-0,097
-281,745	-106,829	0,132	-0,021
-280,730	358,236	-0,014	-0,020
-279,716	189,464	0,078	0,084
-278,701	-74,315	0,027	-0,007
-277,686	-200,000	0,002	0,075
-276,672	30,951	-0,066	-0,041
-275,657	-150,963	-0,114	-0,006
-274,643	-200,000	-0,008	-0,081
-273,628	-17,824	0,076	0,034
-272,613	800,000	0,043	0,089
-271,599	-45,362	0,037	0,013
-270,584	-197,940	0,180	0,001
-269,570	-56,047	-0,036	0,012
-268,555	-200,000	-0,022	-0,076
-267,540	542,601	-0,082	-0,142
-266,526	286,910	0,048	0,063
-265,511	800,000	0,079	-0,166
-264,497	-50,495	0,046	-0,015
-263,482	-94,809	0,058	-0,011
-262,467	-200,000	-0,006	0,047
-261,453	800,000	-0,016	-0,036
-260,438	9,620	-0,093	-0,051
-259,424	205,946	-0,076	-0,086
-258,409	-102,619	-0,057	0,010
-257,395	40,325	0,073	0,047
-256,380	45,727	0,056	0,037
-255,365	250,519	-0,046	-0,056
-254,351	-200,000	-0,007	0,072
-253,336	800,000	-0,043	0,130
-252,322	582,778	0,054	-0,097
-251,307	-19,871	0,057	-0,025
-250,292	800,000	0,029	-0,072
-249,278	-200,000	-0,008	0,057
-248,263	-119,268	0,112	-0,014
-247,249	505,127	-0,094	0,158
-246,234	-63,785	0,122	0,036
-245,219	116,623	-0,092	0,081
-244,205	800,000	0,042	-0,084
-243,190	800,000	-0,009	0,019
-242,176	-200,000	-0,014	0,077
-241,161	-200,000	0,017	0,067
-240,146	800,000	-0,028	0,058
-239,132	555,635	0,095	-0,166
-238,117	-40,973	0,061	-0,023
-237,103	800,000	-0,024	-0,072
-236,088	319,596	-0,024	-0,032
-235,073	-200,000	-0,006	0,060
-234,059	629,045	-0,021	0,038
-233,044	800,000	0,026	0,072
-232,030	-113,714	-0,171	0,024
-231,015	-200,000	-0,046	-0,169
-230,000	244,239	-0,103	-0,125
-228,986	73,918	-0,053	-0,040
-227,971	-19,418	0,063	0,028
-226,957	-62,932	0,165	-0,049
-225,942	-17,950	-0,083	0,037
-224,927	10,938	-0,067	0,037
-223,913	746,488	0,015	-0,028
-222,898	800,000	0,011	-0,031
-221,884	65,724	0,028	0,020
-220,869	548,767	-0,024	0,041
-219,855	800,000	0,021	0,052
-218,840	-151,880	-0,069	0,004
-217,825	90,006	-0,054	0,043
-216,811	546,481	-0,014	-0,024
-215,796	800,000	-0,050	0,126
-214,782	26,404	0,075	-0,045
-213,767	42,937	0,056	0,037
-212,752	-200,000	0,026	0,116
-211,738	-76,640	-0,165	0,041
-210,723	585,959	-0,041	-0,073
-209,709	800,000	-0,040	-0,091
-208,694	-151,108	-0,056	-0,003
-207,679	800,000	0,060	0,129
-206,665	118,131	0,110	-0,098
-205,650	-101,650	-0,101	-0,017
-204,636	800,000	0,029	0,081
-203,621	-200,000	-0,030	0,118
-202,606	-45,101	-0,078	-0,028
-201,592	130,778	-0,050	-0,046
-200,577	34,867	0,110	-0,069
-199,563	-83,855	0,083	0,019
-198,548	-173,332	0,155	-0,003
-197,533	-91,204	0,077	-0,016
-196,519	-9,146	-0,053	-0,026
-195,504	108,308	0,014	0,012
-194,490	93,045	0,042	-0,034
-193,475	800,000	-0,053	-0,114
-192,460	-200,000	0,027	-0,117
-191,446	-43,605	0,076	-0,028
-190,431	582,006	-0,031	0,056
-189,417	800,000	-0,044	-0,121
-188,402	-200,000	-0,020	-0,276
-187,387	-140,344	-0,070	0,005
-186,373	78,512	-0,058	-0,044
-185,358	201,321	-0,096	-0,107
-184,344	-135,926	0,129	0,011
-183,329	231,269	-0,059	0,070
-182,315	71,652	0,012	-0,009
-181,300	325,694	-0,061	-0,084
-180,285	669,206	-0,036	-0,068
-179,271	-118,586	-0,107	0,013
-178,256	322,646	0,076	0,104
-177,242	-77,280	0,102	-0,025
-176,227	67,308	0,111	0,082
-175,212	-200,000	-0,114	0,000
-174,198	-150,820	-0,150	-0,008
-173,183	-22,423	-0,047	-0,021
-172,169	-200,000	0,032	-0,189
-171,154	-200,000	0,029	0,173
-170,139	478,359	0,022	0,036
-169,125	517,402	-0,059	-0,100
-168,110	800,000	0,030	-0,069
-167,096	2,037	0,074	-0,039
-166,081	-87,162	0,077	-0,017
-165,066	-200,000	-0,011	-0,096
-164,052	-24,055	-0,084	-0,036
-163,037	-200,000	-0,013	0,053
-162,023	-95,464	0,073	0,014
-161,008	-25,484	-0,065	0,027
-159,993	-77,760	-0,073	0,018
-158,979	800,000	-0,056	-0,151
-157,964	800,000	0,030	0,078
-156,950	-200,000	-0,002	-0,126
-155,935	-8,067	0,046	0,022
-154,920	133,559	0,121	0,113
-153,906	-75,570	0,071	-0,018
-152,891	800,000	-0,026	0,057
-151,877	414,454	-0,043	0,066
-150,862	-200,000	0,020	-0,141
-149,847	-101,376	-0,186	-0,032
-148,833	-200,000	0,032	-0,172
-147,818	-53,688	0,099	0,032
-146,804	34,000	0,080	-0,050
-145,789	-200,000	-0,012	0,052
-144,775	167,505	-0,062	0,063
-143,760	800,000	0,036	-0,084
-142,745	373,008	-0,055	0,081
-141,731	-200,000	-0,014	0,197
-140,716	-200,000	0,016	-0,111
-139,702	-73,772	-0,072	0,019
-138,687	96,049	0,143	0,117
-137,672	240,598	0,054	-0,065
-136,658	800,000	-0,011	-0,031
-135,643	340,424	0,015	-0,021
-134,629	145,810	0,017	0,017
-133,614	474,421	0,062	0,100
-132,599	30,764	0,124	0,076
-131,585	-200,000	0,019	0,116
-130,570	-160,365	0,040	0,002
-129,556	56,294	-0,174	0,121
-128,541	-171,757	0,070	-0,002
-127,526	-48,550	-0,077	0,026
-126,512	496,681	0,025	0,041
-125,497	-200,000	0,015	0,047
-124,483	-71,201	-0,065	-0,017
-123,468	517,023	-0,047	0,080
-122,453	-200,000	-0,002	-0,155
-121,439	186,034	-0,050	0,053
-120,424	185,932	0,068	-0,073
-119,410	441,015	0,036	-0,057
