DTS Sentinel unit serial number:	SN410029Multiplexer serial number:	ORYXHardware model number:	OX2-SRSoftware version number:	ORYX F/W v4,00 Oryx Data Collector v3.7.2.0data status	okinstallation	B5 Nyhavnadifferential loss correction	single-endedforward channel	channel 2reverse channel	N/Adate	2023/12/11time	21:17:13forward acquisition time	300,00reverse acquisition time	0,00gamma	499,1914k internal	0,3157k external	0,3157temperature offset calibration	1,0000default loss term (dB/km)	0,3820temperature slope calibration	1,0000multiplexer offset coefficient	1,0000multiplexer slope coefficient	1,0000fibre end	0,00T internal ref (°C)	16,19T ext. ref 1 (°C)	0,22T ext. ref 2 (°C)	-0,00length (m)	temperature (°C)	Stokes	anti-Stokes-744,400	-141,920	0,126	-0,009
-743,385	-24,418	-0,295	-0,129
-742,371	138,347	0,061	0,059
-741,356	-149,199	-0,255	-0,015
-740,342	800,000	0,039	0,091
-739,327	-168,075	-0,395	0,011
-738,312	-124,689	0,058	0,007
-737,298	-176,503	-0,198	0,004
-736,283	-159,268	0,050	-0,002
-735,269	-95,689	-0,284	0,055
-734,254	90,176	0,049	0,040
-733,239	-183,332	-0,481	-0,006
-732,225	-127,485	0,263	0,028
-731,210	309,497	-0,080	0,111
-730,196	-200,000	0,003	-0,093
-729,181	98,603	-0,118	-0,101
-728,167	566,364	0,071	-0,128
-727,152	800,000	-0,045	0,137
-726,137	800,000	0,023	-0,064
-725,123	-111,699	-0,032	-0,005
-724,108	-104,057	-0,203	-0,034
-723,094	-59,178	-0,101	0,032
-722,079	50,385	-0,096	-0,067
-721,064	101,888	-0,067	-0,057
-720,050	-200,000	-0,004	-0,088
-719,035	-47,007	0,063	0,022
-718,021	-200,000	-0,045	-0,170
-717,006	192,000	-0,049	0,054
-715,991	132,805	-0,095	0,091
-714,977	-200,000	0,013	0,051
-713,962	164,339	-0,089	-0,092
-712,948	576,771	0,075	0,135
-711,933	364,545	-0,037	0,054
-710,918	353,715	-0,056	0,082
-709,904	112,226	0,040	0,035
-708,889	-87,804	-0,083	-0,018
-707,875	-69,621	0,068	-0,019
-706,860	-76,479	0,061	0,016
-705,845	230,233	0,094	0,114
-704,831	20,466	0,057	0,034
-703,816	-31,931	-0,215	0,088
-702,802	-32,026	0,113	-0,046
-701,787	166,002	-0,098	-0,102
-700,772	-11,210	-0,031	0,015
-699,758	7,978	0,041	-0,022
-698,743	-10,554	-0,145	0,071
-697,729	-200,000	0,013	0,097
-696,714	149,704	0,023	0,023
-695,699	-200,000	0,017	0,112
-694,685	-101,219	-0,119	0,021
-693,670	-31,623	-0,029	-0,012
-692,656	408,009	0,023	0,035
-691,641	4,143	0,136	0,073
-690,627	-200,000	-0,009	-0,154
-689,612	800,000	0,032	0,073
-688,597	659,598	-0,071	0,135
-687,583	-43,611	-0,149	-0,055
-686,568	78,299	-0,053	-0,041
-685,554	-200,000	-0,005	0,028
-684,539	238,852	-0,029	0,036
-683,524	37,423	-0,088	0,057
-682,510	-200,000	0,002	0,046
-681,495	30,611	0,038	-0,024
-680,481	-91,568	-0,021	0,004
-679,466	800,000	-0,029	-0,078
-678,451	584,897	-0,050	-0,091
-677,437	209,539	0,046	-0,053
-676,422	-158,291	-0,087	0,004
-675,408	-39,137	-0,100	0,038
-674,393	-103,721	-0,116	-0,020
-673,378	202,686	-0,029	-0,033
-672,364	800,000	-0,019	-0,057
-671,349	-200,000	-0,007	-0,045
-670,335	800,000	-0,038	-0,120
-669,320	-17,183	-0,115	-0,053
-668,305	-125,044	0,134	-0,015
-667,291	-200,000	-0,007	0,032
-666,276	-93,385	0,061	0,012
-665,262	102,473	-0,119	-0,102
-664,247	800,000	0,024	-0,064
-663,232	61,940	0,079	-0,058
-662,218	427,076	0,018	0,028
-661,203	-154,379	0,156	0,008
-660,189	-51,248	-0,136	0,046
-659,174	-27,288	-0,091	0,039
-658,159	800,000	-0,035	-0,083
-657,145	-200,000	0,021	-0,087
-656,130	-42,319	0,035	-0,013
-655,116	-5,457	-0,040	0,020
-654,101	-200,000	0,003	-0,219
-653,086	-102,099	0,109	0,019
-652,072	-126,653	-0,093	0,010
-651,057	-185,416	-0,062	0,001
-650,043	148,276	-0,023	-0,023
-649,028	-200,000	0,021	-0,072
-648,014	326,973	0,067	0,095
-646,999	23,966	0,111	0,067
-645,984	-200,000	0,001	0,043
-644,970	154,248	-0,034	0,034
-643,955	-0,597	-0,140	0,073
-642,941	-87,798	0,050	-0,011
-641,926	-7,205	0,066	-0,033
-640,911	-140,362	-0,048	0,004
-639,897	83,063	0,086	0,069
-638,882	-92,590	-0,115	0,024
-637,868	246,412	0,052	0,064
-636,853	-13,179	-0,142	-0,068
-635,838	-200,000	-0,020	0,173
-634,824	-200,000	-0,008	-0,091
-633,809	65,890	0,044	0,032
-632,795	403,317	-0,044	-0,068
-631,780	-116,614	-0,031	0,004
-630,765	224,200	0,057	0,068
-629,751	50,718	-0,005	0,004
-628,736	105,359	-0,066	-0,057
-627,722	74,575	0,075	-0,058
-626,707	191,364	-0,021	0,023
-625,692	504,714	0,011	0,019
-624,678	-2,718	-0,046	0,024
-623,663	206,836	-0,084	0,096
-622,649	80,165	0,090	-0,071
-621,634	421,718	-0,051	-0,081
-620,619	332,705	0,021	-0,030
-619,605	-168,168	0,089	0,002
-618,590	561,563	-0,023	-0,041
-617,576	-81,966	-0,026	0,006
-616,561	292,334	-0,098	0,131
-615,546	-154,456	0,060	0,003
-614,532	675,672	0,008	-0,015
-613,517	18,873	0,161	-0,094
-612,503	91,600	-0,064	0,053
-611,488	728,143	0,006	-0,012
-610,474	-200,000	-0,019	0,064
-609,459	-200,000	-0,006	-0,070
-608,444	108,065	0,043	0,038
-607,430	800,000	-0,010	-0,030
-606,415	-200,000	-0,030	-0,103
-605,401	-176,472	-0,117	0,002
-604,386	-66,072	0,087	-0,025
-603,371	-51,793	0,228	-0,077
-602,357	-200,000	-0,010	-0,079
-601,342	634,485	-0,041	0,077
-600,328	-143,745	-0,075	0,005
-599,313	-51,802	0,197	0,067
-598,298	148,978	0,081	-0,080
-597,284	269,234	-0,052	-0,067
-596,269	-200,000	0,049	0,168
-595,255	397,957	-0,039	-0,061
-594,240	-184,679	0,101	-0,001
-593,225	617,560	-0,019	-0,034
-592,211	106,238	-0,045	-0,039
-591,196	-200,000	-0,022	0,139
-590,182	-45,837	0,087	0,031
-589,167	-145,302	0,109	0,007
-588,152	303,695	0,072	0,099
-587,138	-200,000	-0,006	-0,044
-586,123	85,571	-0,151	-0,121
-585,109	129,115	0,083	-0,078
-584,094	191,990	-0,056	0,061
-583,079	-108,646	-0,121	0,019
-582,065	-200,000	-0,019	0,070
-581,050	711,661	-0,060	-0,116
-580,036	53,607	-0,144	0,101
-579,021	-200,000	-0,001	-0,095
-578,006	221,243	0,038	-0,044
-576,992	-15,273	0,103	-0,048
-575,977	-110,706	0,183	0,027
-574,963	177,175	-0,015	0,016
-573,948	800,000	0,009	0,023
-572,934	54,871	-0,035	0,025
-571,919	-45,582	0,102	0,037
-570,904	143,101	0,045	-0,044
-569,890	421,163	-0,091	0,144
-568,875	-36,626	-0,093	0,037
-567,861	-69,470	0,183	0,051
-566,846	-200,000	-0,013	-0,124
-565,831	49,491	-0,078	0,054
-564,817	-53,310	0,122	0,041
-563,802	69,308	0,066	-0,050
-562,788	131,091	-0,085	-0,079
-561,773	-91,180	-0,104	0,022
-560,758	800,000	-0,016	-0,035
-559,744	7,353	0,077	0,042
-558,729	-200,000	-0,007	0,064
-557,715	304,952	-0,096	0,131
-556,700	84,762	-0,045	0,036
-555,685	66,375	-0,080	-0,060
-554,671	800,000	0,012	-0,035
-553,656	-94,779	0,054	-0,011
-552,642	-147,389	-0,023	-0,001
-551,627	-200,000	-0,043	0,162
-550,612	67,237	0,143	0,106
-549,598	80,326	0,021	0,016
-548,583	-200,000	0,000	-0,006
-547,569	800,000	-0,027	0,078
-546,554	-94,083	0,050	-0,010
-545,539	313,724	-0,024	0,034
-544,525	59,552	-0,057	0,041
-543,510	-30,348	-0,076	0,031
-542,496	11,915	-0,116	0,065
-541,481	-14,286	-0,043	-0,020
-540,466	-200,000	-0,013	0,056
-539,452	800,000	-0,018	0,037
-538,437	800,000	-0,076	0,178
-537,423	125,913	0,040	0,037
-536,408	-64,448	0,056	0,017
-535,393	465,668	0,067	-0,110
-534,379	-26,158	-0,177	-0,076
-533,364	206,049	-0,034	0,039
-532,350	-200,000	0,000	0,093
-531,335	-5,189	0,136	0,068
-530,321	23,364	-0,136	-0,081
-529,306	-200,000	-0,015	0,125
-528,291	-200,000	-0,044	-0,158
-527,277	254,643	0,040	0,051
-526,262	110,718	0,096	0,085
-525,248	148,302	-0,060	-0,059
-524,233	83,638	0,037	0,030
-523,218	-200,000	0,010	-0,054
-522,204	203,905	-0,067	0,075
-521,189	233,225	-0,084	-0,101
-520,175	800,000	0,016	0,044
-519,160	254,113	-0,048	-0,060
-518,145	-37,546	-0,045	-0,017
-517,131	537,429	-0,037	-0,064
-516,116	800,000	0,043	0,119
-515,102	10,440	-0,078	0,044
-514,087	-144,457	0,034	-0,002
-513,072	-161,222	-0,105	0,004
-512,058	83,368	0,087	-0,069
-511,043	-200,000	0,015	0,089
-510,029	-21,233	-0,031	0,014
-509,014	24,295	0,029	-0,017
-507,999	-157,594	0,083	-0,004
-506,985	-200,000	-0,008	0,049
-505,970	182,586	-0,096	-0,104
-504,956	800,000	-0,026	0,061
-503,941	234,363	-0,059	-0,072
-502,926	-5,391	0,097	-0,048
-501,912	-81,970	-0,094	-0,022
-500,897	-200,000	0,010	-0,058
-499,883	416,944	0,060	0,094
-498,868	800,000	-0,050	-0,110
-497,853	-88,395	0,020	-0,004
-496,839	-200,000	-0,013	0,058
-495,824	116,489	0,065	0,058
-494,810	800,000	0,046	0,096
-493,795	-200,000	-0,011	0,190
-492,781	-177,978	-0,081	-0,001
-491,766	-38,992	-0,116	-0,044
-490,751	-200,000	0,009	0,068
-489,737	-200,000	0,001	0,006
-488,722	79,261	-0,056	-0,044
-487,708	-200,000	0,017	0,105
-486,693	-200,000	0,005	-0,091
-485,678	-110,690	-0,016	0,002
-484,664	26,303	-0,100	0,061
-483,649	-200,000	0,013	0,049
-482,635	800,000	-0,026	-0,067
-481,620	-149,284	0,045	0,003
-480,605	-83,448	0,034	-0,008
-479,591	800,000	0,114	0,248
-478,576	-200,000	-0,011	-0,072
-477,562	-200,000	-0,019	-0,088
-476,547	-54,430	-0,149	0,049
-475,532	102,475	-0,071	-0,061
-474,518	331,137	-0,100	-0,141
-473,503	328,987	0,004	0,006
-472,489	14,268	0,119	0,067
-471,474	87,169	-0,031	0,025
-470,459	-200,000	-0,019	-0,106
-469,445	-200,000	-0,005	-0,023
-468,430	-200,000	0,002	-0,132
-467,416	800,000	0,013	-0,036
-466,401	43,997	0,056	-0,037
-465,386	-96,484	-0,037	-0,007
-464,372	458,650	0,043	0,071
-463,357	441,368	0,079	-0,127
-462,343	-200,000	0,014	0,116
-461,328	800,000	-0,011	-0,027
-460,313	44,283	0,028	-0,019
-459,299	75,879	-0,061	-0,047
-458,284	-96,917	0,060	-0,011
-457,270	800,000	0,048	0,117
-456,255	-200,000	0,037	-0,139
-455,241	800,000	-0,041	-0,084
-454,226	54,226	0,041	-0,029
-453,211	680,313	0,031	-0,060
-452,197	295,335	0,091	-0,121
-451,182	90,986	0,059	0,048
-450,168	800,000	0,011	0,033
-449,153	-200,000	-0,062	-0,000
-448,138	-200,000	0,003	-0,126
-447,124	-22,164	-0,029	-0,013
-446,109	-200,000	0,037	-0,144
-445,095	-101,521	0,047	-0,008
-444,080	800,000	0,032	0,085
-443,065	-77,939	0,119	0,030
-442,051	785,760	-0,034	-0,068
-441,036	-177,754	-0,151	0,003
-440,022	-200,000	-0,021	-0,120
-439,007	144,159	0,069	0,067
-437,992	-200,000	-0,036	0,135
-436,978	-200,000	-0,001	-0,055
-435,963	-200,000	-0,004	-0,107
-434,949	-113,983	0,116	0,016
-433,934	-70,110	-0,111	-0,030
-432,919	800,000	0,025	-0,059
-431,905	322,304	-0,042	0,058
-430,890	-200,000	0,010	-0,053
-429,876	43,349	0,001	0,000
-428,861	-51,403	0,114	0,039
-427,846	-200,000	-0,025	-0,110
-426,832	-200,000	0,007	-0,147
-425,817	60,458	0,116	-0,084
-424,803	-44,664	0,021	-0,008
-423,788	-26,567	-0,086	-0,037
-422,773	339,193	-0,080	0,113
-421,759	91,153	0,120	-0,098
-420,744	-30,841	0,096	0,039
-419,730	415,895	0,045	0,070
-418,715	639,643	0,038	0,070
-417,701	-59,678	-0,096	0,030
-416,686	-7,847	0,129	0,063
-415,671	288,893	-0,021	0,028
-414,657	800,000	0,022	-0,065
-413,642	-200,000	0,012	-0,053
-412,628	800,000	-0,033	0,100
-411,613	50,641	-0,042	-0,029
-410,598	-28,062	-0,124	-0,052
-409,584	-78,818	0,164	-0,040
-408,569	369,841	0,061	-0,091
-407,555	-71,726	0,088	0,024
-406,540	166,841	0,044	-0,045
-405,525	-183,899	-0,039	0,000
-404,511	800,000	0,045	-0,102
-403,496	800,000	-0,043	-0,101
-402,482	-63,139	0,199	0,060
-401,467	695,411	-0,024	0,045
-400,452	800,000	0,029	0,059
-399,438	7,528	-0,158	-0,086
-398,423	-53,075	-0,062	0,021
-397,409	-77,546	-0,026	-0,006
-396,394	24,722	0,049	-0,029
-395,379	12,195	0,074	-0,041
-394,365	-200,000	-0,007	0,023
-393,350	194,249	-0,069	0,077
-392,336	1,815	0,049	-0,025
-391,321	-200,000	-0,007	0,117
-390,306	-200,000	0,003	-0,113
-389,292	197,817	-0,109	0,121
-388,277	-200,000	-0,006	0,071
-387,263	346,672	0,098	0,141
-386,248	8,825	-0,040	-0,022
-385,233	800,000	-0,018	0,045
-384,219	44,686	-0,070	-0,047
-383,204	800,000	0,096	0,204
-382,190	-70,362	-0,031	0,009
-381,175	-111,129	0,151	-0,022
-380,160	-200,000	-0,001	0,030
-379,146	294,452	0,061	0,082
-378,131	-37,183	0,063	0,024
-377,117	800,000	0,048	-0,122
-376,102	-200,000	-0,006	0,107
-375,088	-200,000	-0,016	-0,072
-374,073	800,000	-0,050	-0,127
-373,058	-200,000	-0,023	-0,098
-372,044	-200,000	-0,000	0,043
-371,029	-129,426	0,059	0,006
-370,015	800,000	0,003	0,006
-369,000	-90,822	-0,102	0,021
-367,985	-126,621	0,091	0,010
-366,971	-128,399	-0,132	0,013
-365,956	132,989	0,110	-0,103
-364,942	-87,672	-0,100	0,022
-363,927	800,000	-0,053	0,168
-362,912	113,936	0,049	-0,043
-361,898	800,000	0,024	-0,066
-360,883	591,934	0,055	-0,099
-359,869	419,200	0,068	-0,107
-358,854	636,768	0,050	-0,093
-357,839	193,895	-0,140	0,154
-356,825	800,000	0,044	0,096
-355,810	-148,426	0,057	0,003
-354,796	800,000	-0,027	0,072
-353,781	-200,000	-0,007	-0,055
-352,766	56,064	-0,091	0,064
-351,752	5,793	-0,037	0,020
-350,737	-200,000	0,003	0,071
-349,723	210,993	-0,004	-0,005
-348,708	-200,000	-0,002	0,055
-347,693	-200,000	0,019	-0,083
-346,679	164,274	0,019	-0,020
-345,664	-76,298	-0,037	-0,009
-344,650	-200,000	-0,034	0,126
-343,635	800,000	0,018	0,040
-342,620	178,787	-0,012	0,012
-341,606	800,000	0,009	-0,022
-340,591	-200,000	0,011	-0,110
-339,577	-200,000	-0,032	-0,103
-338,562	-74,611	0,099	-0,026
-337,548	800,000	0,032	-0,100
-336,533	182,725	-0,034	0,037
-335,518	-200,000	0,013	-0,056
-334,504	-33,531	-0,081	0,032
-333,489	-200,000	0,044	0,152
-332,475	34,856	-0,049	0,031
-331,460	-48,399	0,039	0,014
-330,445	-25,088	0,071	0,031
-329,431	-200,000	-0,009	0,148
-328,416	-129,379	-0,075	0,007
-327,402	-43,935	-0,111	0,040
-326,387	63,600	-0,038	0,027
-325,372	-122,882	-0,121	-0,014
-324,358	-31,498	-0,137	-0,055
-323,343	333,880	-0,046	-0,065
-322,329	1,367	0,079	-0,041
-321,314	86,418	0,037	0,029
-320,299	251,210	-0,034	0,042
-319,285	-29,527	0,128	0,053
-318,270	-140,640	-0,081	-0,006
-317,256	-159,506	-0,057	-0,002
-316,241	329,262	0,104	0,146
-315,226	748,579	-0,079	0,156
-314,212	-200,000	0,001	0,130
-313,197	-102,804	-0,082	-0,014
-312,183	55,625	0,021	0,015
-311,168	273,873	0,079	0,101
-310,153	-55,418	-0,153	-0,049
-309,139	133,689	-0,103	0,097
-308,124	-185,261	0,141	0,002
-307,110	175,311	0,045	0,048
-306,095	-200,000	-0,001	-0,019
-305,080	-165,892	0,156	0,005
-304,066	-200,000	-0,002	-0,061
-303,051	800,000	-0,028	-0,085
-302,037	800,000	-0,021	0,065
-301,022	-60,023	0,188	0,058
-300,008	299,758	-0,064	-0,086
-298,993	141,519	-0,042	-0,041
-297,978	549,578	-0,052	-0,091
-296,964	-200,000	-0,001	-0,064
-295,949	630,617	0,050	-0,092
-294,935	184,734	-0,108	-0,116
-293,920	145,030	-0,035	-0,034
-292,905	-200,000	-0,021	-0,080
-291,891	-109,496	0,112	0,017
-290,876	-40,257	0,088	-0,033
-289,862	-200,000	-0,009	-0,105
-288,847	579,909	-0,018	0,032
-287,832	-139,248	-0,091	-0,007
-286,818	-200,000	-0,005	0,022
-285,803	279,967	0,055	-0,072
-284,789	-80,354	0,113	0,027
-283,774	9,634	0,084	-0,046
-282,759	-82,885	-0,183	0,043
-281,745	226,856	-0,069	-0,081
-280,730	121,127	-0,172	-0,155
-279,716	800,000	0,021	-0,056
-278,701	232,290	0,106	0,126
-277,686	-200,000	-0,022	0,073
-276,672	800,000	0,014	0,044
-275,657	618,801	0,033	-0,059
-274,643	-8,940	-0,044	-0,021
-273,628	-124,005	0,069	-0,008
-272,613	-200,000	-0,006	0,129
-271,599	18,615	0,070	0,041
-270,584	800,000	-0,078	0,169
-269,570	-200,000	-0,007	0,145
-268,555	-172,695	-0,078	0,002
-267,540	340,943	0,059	-0,084
-266,526	-63,372	0,169	0,050
-265,511	23,633	0,023	0,014
-264,497	430,719	-0,076	0,120
-263,482	64,863	-0,039	0,029
-262,467	-0,487	-0,064	0,033
-261,453	800,000	0,035	0,080
-260,438	65,614	-0,099	-0,072
-259,424	-30,916	-0,086	-0,035
-258,409	-53,133	0,093	-0,031
-257,395	-58,353	-0,118	-0,037
-256,380	82,215	0,086	0,068
-255,365	206,698	0,097	0,110
-254,351	96,950	-0,086	-0,071
-253,336	27,869	0,088	-0,054
-252,322	67,943	-0,039	0,029
-251,307	129,912	-0,048	0,045
-250,292	-132,243	-0,105	-0,010
-249,278	-20,486	0,055	0,024
-248,263	-138,563	-0,076	-0,006
-247,249	-72,570	-0,055	0,015
-246,234	559,060	-0,036	-0,063
-245,219	449,712	0,054	-0,087
-244,205	46,628	0,110	-0,074
-243,190	224,405	0,048	-0,056
-242,176	645,361	0,050	-0,093
-241,161	-65,286	-0,031	0,009
-240,146	235,477	-0,058	0,069
-239,132	302,499	-0,030	0,041
-238,117	-200,000	0,021	-0,086
-237,103	-200,000	-0,024	-0,127
-236,088	-200,000	-0,033	-0,116
-235,073	18,288	0,131	0,076
-234,059	-53,930	0,051	0,017
-233,044	613,752	0,065	-0,119
-232,030	-200,000	-0,013	0,066
-231,015	-200,000	0,019	-0,110
-230,000	-200,000	0,013	-0,136
-228,986	-200,000	0,012	-0,042
-227,971	-36,183	0,038	-0,015
-226,957	294,131	-0,016	0,021
-225,942	-64,472	-0,084	0,025
-224,927	-64,740	0,148	-0,043
-223,913	-200,000	-0,013	-0,186
-222,898	46,551	-0,061	0,041
-221,884	15,707	-0,033	0,019
-220,869	587,176	-0,035	-0,063
-219,855	800,000	-0,033	0,089
-218,840	800,000	0,044	0,128
-217,825	800,000	0,029	-0,060
-216,811	-39,657	0,067	-0,025
-215,796	90,581	-0,044	-0,036
-214,782	95,318	0,025	0,021
-213,767	373,002	0,009	-0,013
-212,752	-127,691	0,051	-0,005
-211,738	634,905	-0,027	0,050
-210,723	36,672	-0,133	-0,085
-209,709	-200,000	-0,012	-0,099
-208,694	104,246	-0,152	-0,129
-207,679	800,000	-0,022	0,068
-206,665	54,703	0,071	0,049
-205,650	7,456	-0,050	-0,027
-204,636	50,722	0,068	-0,047
-203,621	-13,271	0,120	0,056
-202,606	143,817	0,062	0,059
-201,592	46,191	-0,092	-0,062
-200,577	800,000	-0,053	-0,124
-199,563	-200,000	-0,012	0,128
-198,548	42,586	0,097	0,063
-197,533	-180,279	0,007	0,000
-196,519	-200,000	-0,026	0,148
-195,504	-200,000	-0,011	-0,141
-194,490	-200,000	-0,005	-0,084
-193,475	800,000	0,056	-0,168
-192,460	-200,000	0,006	-0,159
-191,446	-67,671	-0,040	0,011
-190,431	-51,415	0,076	0,026
-189,417	-2,290	-0,088	-0,044
-188,402	-200,000	-0,003	-0,023
-187,387	800,000	0,067	-0,188
-186,373	681,088	0,041	-0,077
-185,358	272,436	0,031	0,040
-184,344	238,015	0,023	0,028
-183,329	-200,000	0,013	0,063
-182,315	-200,000	-0,001	0,058
-181,300	614,395	-0,066	-0,119
-180,285	521,800	-0,029	0,050
-179,271	-0,379	-0,156	-0,079
-178,256	-200,000	0,002	-0,034
-177,242	207,795	0,032	-0,036
-176,227	-200,000	0,031	0,136
-175,212	71,094	0,054	0,040
-174,198	67,716	-0,075	0,056
-173,183	-38,706	-0,110	-0,042
-172,169	-200,000	-0,001	-0,140
-171,154	-177,695	0,038	-0,001
-170,139	214,525	0,060	-0,069
-169,125	414,172	-0,062	0,096
-168,110	568,978	-0,075	0,131
-167,096	25,015	-0,113	-0,067
-166,081	411,817	0,035	0,053
-165,066	-84,670	0,139	-0,031
-164,052	386,347	0,022	0,033
-163,037	-178,434	-0,132	-0,002
-162,023	-179,135	0,046	-0,001
-161,008	-133,877	0,144	-0,013
-159,993	800,000	-0,058	0,154
-158,979	13,890	-0,031	0,018
-157,964	230,895	0,034	-0,040
-156,950	-161,083	0,009	-0,000
-155,935	17,840	-0,030	0,017
-154,920	-27,052	0,041	-0,017
-153,906	-200,000	0,027	0,196
-152,891	97,683	-0,105	0,087
-151,877	-200,000	0,041	0,211
-150,862	81,806	0,165	-0,129
-149,847	-14,637	-0,180	-0,083
-148,833	201,997	-0,057	-0,063
-147,818	702,259	0,024	0,046
-146,804	-10,446	0,068	-0,032
-145,789	52,888	-0,030	-0,021
-144,775	160,821	0,025	-0,025
-143,760	116,699	-0,101	-0,089
-142,745	800,000	0,045	-0,110
-141,731	800,000	-0,011	-0,027
-140,716	232,612	0,064	-0,076
-139,702	-38,668	0,215	0,081
-138,687	71,964	-0,089	0,066
-137,672	800,000	0,043	0,116
-136,658	223,371	-0,103	-0,120
-135,643	-200,000	0,005	-0,026
-134,629	-59,917	0,064	0,019
-133,614	439,201	-0,008	0,012
-132,599	-85,960	0,027	-0,006
-131,585	-31,322	0,059	0,024
-130,570	381,024	-0,008	0,012
-129,556	123,218	0,097	-0,087
-128,541	-16,678	-0,100	0,045
-127,526	-97,863	-0,011	-0,002
-126,512	8,146	-0,116	0,062
-125,497	800,000	0,030	-0,092
-124,483	800,000	0,047	0,094
-123,468	323,442	0,033	-0,045
-122,453	-200,000	-0,003	-0,149
-121,439	-200,000	-0,046	0,160
-120,424	-200,000	-0,049	-0,158
-119,410	-9,723	-0,044	-0,021
-118,395	-74,686	0,101	0,026
