DTS Sentinel unit serial number:	SN410029Multiplexer serial number:	ORYXHardware model number:	OX2-SRSoftware version number:	ORYX F/W v4,00 Oryx Data Collector v3.7.2.0data status	okinstallation	B5 Nyhavnadifferential loss correction	single-endedforward channel	channel 2reverse channel	N/Adate	2023/12/12time	13:27:13forward acquisition time	300,00reverse acquisition time	0,00gamma	499,1914k internal	0,3158k external	0,3158temperature offset calibration	1,0000default loss term (dB/km)	0,3820temperature slope calibration	1,0000multiplexer offset coefficient	1,0000multiplexer slope coefficient	1,0000fibre end	0,00T internal ref (°C)	15,62T ext. ref 1 (°C)	-0,35T ext. ref 2 (°C)	-0,59length (m)	temperature (°C)	Stokes	anti-Stokes-744,400	-24,071	0,120	-0,053
-743,385	-139,453	-0,334	-0,026
-742,371	-15,045	0,163	-0,077
-741,356	-100,705	-0,076	0,014
-740,342	217,688	0,082	0,097
-739,327	-25,754	-0,280	0,121
-738,312	-200,000	0,008	-0,145
-737,298	-164,014	-0,201	0,007
-736,283	-149,898	0,058	0,003
-735,269	-29,068	-0,205	-0,086
-734,254	-88,202	0,138	0,030
-733,239	-76,356	-0,534	-0,138
-732,225	-109,685	0,317	0,049
-731,210	-200,000	-0,031	0,151
-730,196	344,839	0,030	-0,044
-729,181	125,937	-0,118	0,110
-728,167	-97,556	-0,087	-0,016
-727,152	12,421	-0,079	0,045
-726,137	-200,000	-0,006	-0,059
-725,123	-78,941	-0,126	0,031
-724,108	157,192	-0,102	-0,104
-723,094	195,010	0,099	-0,111
-722,079	-200,000	-0,016	-0,076
-721,064	-67,294	0,055	0,016
-720,050	431,310	0,006	-0,009
-719,035	-20,699	-0,136	0,061
-718,021	353,781	-0,056	-0,082
-717,006	-200,000	-0,021	-0,082
-715,991	207,724	-0,094	-0,108
-714,977	800,000	-0,032	-0,073
-713,962	402,591	0,114	-0,177
-712,948	188,272	0,046	-0,051
-711,933	800,000	0,049	-0,157
-710,918	170,544	-0,045	-0,048
-709,904	205,280	-0,131	-0,150
-708,889	-16,578	-0,094	-0,043
-707,875	-200,000	-0,018	-0,145
-706,860	-107,215	0,061	-0,010
-705,845	-109,668	-0,029	-0,004
-704,831	-59,276	0,185	-0,058
-703,816	109,432	-0,026	-0,023
-702,802	9,126	-0,005	-0,003
-701,787	-200,000	-0,041	-0,217
-700,772	-200,000	0,021	-0,133
-699,758	329,323	0,028	-0,039
-698,743	276,718	0,011	0,015
-697,729	-200,000	0,004	-0,068
-696,714	800,000	0,026	-0,060
-695,699	-200,000	-0,007	0,073
-694,685	125,547	-0,021	0,019
-693,670	-17,033	-0,037	-0,017
-692,656	108,908	-0,112	-0,099
-691,641	405,306	0,039	-0,060
-690,627	231,164	0,058	0,070
-689,612	240,011	0,094	-0,116
-688,597	-200,000	0,000	-0,028
-687,583	38,768	-0,098	0,064
-686,568	-200,000	-0,014	-0,100
-685,554	-162,622	0,050	-0,002
-684,539	-200,000	0,015	-0,058
-683,524	-200,000	0,006	0,033
-682,510	252,416	0,038	0,048
-681,495	2,605	-0,106	-0,056
-680,481	401,522	-0,009	-0,013
-679,466	-67,498	-0,059	0,017
-678,451	-108,266	0,028	-0,004
-677,437	-56,485	-0,045	0,015
-676,422	-137,560	0,224	-0,018
-675,408	-86,201	-0,048	-0,011
-674,393	-200,000	-0,023	-0,115
-673,378	-133,155	-0,135	0,012
-672,364	-200,000	-0,007	0,095
-671,349	-200,000	-0,005	-0,088
-670,335	-200,000	0,011	-0,096
-669,320	-52,264	0,130	-0,044
-668,305	-88,374	0,087	-0,019
-667,291	-94,555	0,064	0,013
-666,276	136,646	0,114	-0,109
-665,262	-200,000	-0,022	-0,134
-664,247	800,000	0,012	0,025
-663,232	-59,777	0,063	0,020
-662,218	52,105	-0,075	-0,052
-661,203	-130,313	-0,074	0,007
-660,189	193,785	0,021	0,023
-659,174	99,145	0,073	-0,062
-658,159	-200,000	-0,033	-0,139
-657,145	-63,118	-0,069	-0,021
-656,130	800,000	0,039	-0,115
-655,116	248,183	-0,030	0,038
-654,101	2,857	0,065	-0,035
-653,086	-200,000	0,014	0,064
-652,072	184,632	-0,039	0,042
-651,057	-101,650	-0,052	-0,009
-650,043	5,602	-0,112	-0,061
-649,028	-168,562	0,144	0,004
-648,014	-200,000	0,023	0,089
-646,999	28,355	0,094	-0,058
-645,984	64,900	0,095	0,071
-644,970	234,600	-0,135	0,164
-643,955	-70,784	-0,141	-0,039
-642,941	-49,468	0,148	-0,051
-641,926	-200,000	-0,021	-0,091
-640,911	-200,000	0,038	-0,226
-639,897	143,029	-0,046	0,045
-638,882	68,856	0,030	-0,023
-637,868	-102,162	-0,079	-0,014
-636,853	-117,100	-0,079	-0,010
-635,838	-141,983	-0,070	0,005
-634,824	-137,746	-0,205	-0,017
-633,809	383,845	-0,004	0,005
-632,795	800,000	0,069	0,184
-631,780	159,636	0,018	-0,018
-630,765	178,843	-0,034	0,037
-629,751	528,380	-0,069	0,120
-628,736	-55,249	-0,147	-0,048
-627,722	-44,403	0,103	-0,038
-626,707	101,745	-0,009	0,007
-625,692	-200,000	0,026	0,136
-624,678	-14,292	0,098	0,046
-623,663	800,000	0,032	-0,082
-622,649	-80,651	-0,086	-0,021
-621,634	181,906	-0,056	0,060
-620,619	282,653	0,040	-0,052
-619,605	368,087	0,043	0,063
-618,590	-23,559	-0,100	0,044
-617,576	14,564	-0,043	-0,024
-616,561	-200,000	-0,003	-0,100
-615,546	159,950	0,013	-0,013
-614,532	-200,000	-0,003	0,027
-613,517	-35,489	-0,081	-0,032
-612,503	-70,639	-0,059	0,016
-611,488	800,000	0,026	-0,078
-610,474	-69,193	-0,108	-0,030
-609,459	-157,751	0,039	0,002
-608,444	648,315	-0,064	-0,121
-607,430	-111,190	-0,080	0,012
-606,415	104,965	0,020	-0,017
-605,401	264,674	-0,006	0,008
-604,386	800,000	0,044	-0,089
-603,371	196,157	0,074	0,083
-602,357	-16,051	0,020	-0,009
-601,342	-200,000	-0,000	-0,118
-600,328	144,960	-0,109	-0,107
-599,313	-112,162	-0,108	-0,016
-598,298	-55,803	0,202	-0,066
-597,284	800,000	-0,044	-0,105
-596,269	-200,000	0,020	0,000
-595,255	75,007	0,057	-0,044
-594,240	77,348	0,046	-0,036
-593,225	-192,783	-0,157	-0,001
-592,211	586,161	-0,095	-0,172
-591,196	56,610	0,078	0,055
-590,182	-102,728	0,165	0,029
-589,167	30,329	0,040	0,025
-588,152	-96,110	0,029	-0,006
-587,138	411,513	0,096	-0,150
-586,123	615,912	0,025	0,046
-585,109	-200,000	0,007	-0,103
-584,094	800,000	-0,033	-0,099
-583,079	-141,340	-0,095	0,007
-582,065	58,920	-0,041	-0,029
-581,050	-113,354	-0,135	-0,019
-580,036	-86,290	-0,109	-0,024
-579,021	-200,000	-0,023	-0,097
-578,006	516,725	0,021	-0,036
-576,992	-75,223	0,015	0,004
-575,977	576,736	0,007	-0,013
-574,963	279,790	0,034	0,045
-573,948	-153,409	-0,051	0,003
-572,934	280,591	0,053	-0,070
-571,919	-200,000	-0,002	-0,010
-570,904	-200,000	-0,002	-0,076
-569,890	-97,587	-0,042	0,008
-568,875	800,000	0,029	0,077
-567,861	-151,635	0,013	-0,001
-566,846	120,734	0,080	0,073
-565,831	-200,000	-0,034	0,117
-564,817	321,694	0,053	0,074
-563,802	-200,000	0,016	-0,060
-562,788	362,819	-0,019	-0,028
-561,773	-117,721	0,021	-0,003
-560,758	-47,817	0,052	-0,018
-559,744	800,000	0,049	0,113
-558,729	800,000	-0,064	0,141
-557,715	-200,000	-0,008	-0,076
-556,700	-92,433	-0,092	0,019
-555,685	43,799	-0,074	0,049
-554,671	168,848	0,009	0,010
-553,656	359,007	0,019	0,028
-552,642	-200,000	-0,010	0,188
-551,627	-200,000	-0,017	-0,165
-550,612	-200,000	0,014	-0,152
-549,598	-200,000	-0,060	-0,249
-548,583	-152,492	-0,056	0,003
-547,569	670,106	-0,093	-0,176
-546,554	-3,119	0,059	0,030
-545,539	-200,000	-0,006	-0,103
-544,525	540,355	-0,025	0,044
-543,510	93,315	0,117	-0,096
-542,496	-133,843	-0,113	0,010
-541,481	310,812	0,052	-0,071
-540,466	-200,000	-0,003	-0,027
-539,452	-148,685	-0,108	0,006
-538,437	-193,214	0,060	-0,000
-537,423	800,000	0,049	0,105
-536,408	244,629	0,033	-0,040
-535,393	259,385	-0,048	-0,061
-534,379	800,000	-0,070	-0,166
-533,364	-200,000	0,033	-0,182
-532,350	88,731	-0,039	-0,032
-531,335	84,793	-0,021	-0,017
-530,321	-200,000	-0,005	-0,141
-529,306	53,499	0,050	0,035
-528,291	199,341	-0,016	-0,018
-527,277	800,000	-0,041	-0,128
-526,262	227,644	0,008	0,010
-525,248	184,359	-0,024	-0,026
-524,233	800,000	0,085	0,208
-523,218	147,354	-0,116	0,114
-522,204	418,977	0,074	0,115
-521,189	-59,319	-0,136	-0,042
-520,175	16,272	-0,159	-0,092
-519,160	-57,491	-0,144	-0,046
-518,145	-45,707	0,072	0,026
-517,131	328,410	0,049	-0,069
-516,116	119,289	-0,056	0,051
-515,102	-89,700	-0,094	0,020
-514,087	107,184	-0,038	-0,033
-513,072	523,285	-0,047	-0,081
-512,058	-138,476	0,048	-0,004
-511,043	-200,000	-0,019	0,128
-510,029	-200,000	0,006	-0,024
-509,014	437,728	-0,049	-0,078
-507,999	-200,000	0,011	-0,092
-506,985	-200,000	-0,014	-0,101
-505,970	207,927	0,059	0,067
-504,956	-163,583	-0,110	-0,004
-503,941	-122,466	-0,138	-0,016
-502,926	800,000	0,031	-0,094
-501,912	224,988	0,069	0,081
-500,897	25,489	-0,045	0,027
-499,883	235,088	0,033	0,040
-498,868	-98,747	-0,046	0,008
-497,853	-99,784	-0,103	-0,019
-496,839	-200,000	0,021	0,085
-495,824	800,000	-0,059	0,124
-494,810	62,811	0,129	0,094
-493,795	800,000	-0,019	-0,059
-492,781	-171,958	0,053	0,001
-491,766	-17,352	-0,111	0,051
-490,751	800,000	-0,028	-0,066
-489,737	-1,175	0,058	0,030
-488,722	-145,357	0,084	0,005
-487,708	-72,249	-0,069	-0,019
-486,693	-200,000	0,013	0,053
-485,678	767,543	-0,046	-0,091
-484,664	800,000	0,019	0,048
-483,649	555,624	0,053	-0,093
-482,635	-22,691	0,065	-0,028
-481,620	144,568	0,150	0,146
-480,605	265,849	0,061	0,077
-479,591	800,000	0,068	0,160
-478,576	28,841	-0,128	0,079
-477,562	341,830	-0,081	0,116
-476,547	-61,159	0,073	0,022
-475,532	637,101	0,069	0,129
-474,518	190,121	-0,031	-0,034
-473,503	-200,000	-0,012	0,096
-472,489	800,000	0,037	0,089
-471,474	800,000	0,027	-0,084
-470,459	-200,000	-0,012	-0,102
-469,445	800,000	0,064	0,146
-468,430	341,192	-0,031	0,044
-467,416	-15,268	0,192	0,089
-466,401	519,592	0,054	-0,093
-465,386	56,317	-0,090	-0,064
-464,372	-200,000	0,002	-0,069
-463,357	19,758	-0,046	-0,027
-462,343	612,759	0,022	-0,040
-461,328	343,172	-0,045	-0,064
-460,313	800,000	-0,024	-0,055
-459,299	-200,000	0,046	0,185
-458,284	-108,943	-0,139	-0,021
-457,270	800,000	0,023	-0,069
-456,255	-200,000	-0,007	0,027
-455,241	622,036	0,040	0,075
-454,226	800,000	0,008	-0,017
-453,211	453,144	0,069	-0,112
-452,197	132,844	0,176	0,165
-451,182	-95,212	-0,081	-0,016
-450,168	800,000	-0,024	-0,074
-449,153	800,000	-0,015	-0,033
-448,138	-200,000	-0,012	-0,112
-447,124	424,277	0,049	-0,077
-446,109	-56,375	0,094	-0,030
-445,095	-111,207	-0,073	-0,011
-444,080	-200,000	-0,002	0,228
-443,065	-37,660	-0,048	-0,018
-442,051	134,750	-0,031	0,029
-441,036	-200,000	0,016	-0,074
-440,022	22,383	-0,098	-0,058
-439,007	-200,000	-0,010	0,059
-437,992	-28,942	0,034	0,014
-436,978	-200,000	0,011	0,118
-435,963	490,737	0,030	0,050
-434,949	-200,000	-0,015	0,145
-433,934	-97,041	-0,069	0,013
-432,919	257,134	0,068	-0,085
-431,905	800,000	0,034	0,107
-430,890	800,000	0,036	-0,091
-429,876	-8,781	0,175	0,085
-428,861	318,382	0,037	-0,051
-427,846	-200,000	0,017	-0,107
-426,832	-200,000	-0,006	-0,050
-425,817	-78,492	-0,106	0,026
-424,803	83,922	-0,035	-0,027
-423,788	-140,128	0,171	0,013
-422,773	-6,531	0,044	0,022
-421,759	394,230	0,021	0,032
-420,744	-200,000	0,021	-0,163
-419,730	470,115	0,008	0,013
-418,715	-60,742	0,081	-0,025
-417,701	-200,000	0,015	0,059
-416,686	-86,307	0,064	-0,014
-415,671	-200,000	-0,008	-0,115
-414,657	-21,453	0,052	-0,023
-413,642	237,109	-0,056	0,068
-412,628	-110,888	-0,059	0,009
-411,613	-61,835	-0,064	-0,019
-410,598	-200,000	-0,006	0,105
-409,584	52,688	0,074	0,051
-408,569	84,024	-0,067	-0,053
-407,555	-30,216	-0,046	0,019
-406,540	228,213	-0,056	0,066
-405,525	-171,803	-0,146	-0,003
-404,511	291,588	-0,017	-0,023
-403,496	30,997	0,108	0,067
-402,482	-145,310	-0,034	-0,002
-401,467	-130,608	-0,079	0,008
-400,452	-95,343	-0,106	-0,020
-399,438	-138,869	-0,092	-0,007
-398,423	367,287	-0,060	-0,089
-397,409	-103,995	-0,085	0,014
-396,394	-200,000	0,007	-0,055
-395,379	749,434	0,037	0,073
-394,365	357,525	0,076	0,110
-393,350	-200,000	-0,031	-0,129
-392,336	-52,326	0,021	0,007
-391,321	-200,000	0,009	0,051
-390,306	-200,000	0,017	-0,081
-389,292	-73,214	0,021	-0,005
-388,277	234,152	-0,077	-0,093
-387,263	65,524	-0,050	-0,037
-386,248	4,719	-0,057	-0,031
-385,233	290,636	0,032	-0,042
-384,219	171,505	-0,102	-0,107
-383,204	-200,000	-0,019	-0,116
-382,190	160,604	-0,120	-0,122
-381,175	-8,617	-0,137	-0,067
-380,160	800,000	-0,040	0,081
-379,146	-200,000	-0,014	0,138
-378,131	-21,441	-0,046	0,020
-377,117	364,673	0,070	0,103
-376,102	-59,983	0,061	-0,019
-375,088	461,020	-0,012	-0,019
-374,073	-65,015	0,117	0,034
-373,058	-145,828	-0,084	-0,005
-372,044	-11,218	0,070	0,033
-371,029	305,132	-0,054	0,073
-370,015	-200,000	-0,003	-0,108
-369,000	800,000	-0,063	0,165
-367,985	746,673	0,006	-0,012
-366,971	-104,411	0,048	0,008
-365,956	800,000	0,047	-0,105
-364,942	-200,000	0,001	-0,060
-363,927	-35,290	-0,029	0,011
-362,912	248,411	-0,098	-0,121
-361,898	257,202	0,016	0,020
-360,883	-23,505	-0,070	-0,030
-359,869	276,449	-0,062	0,081
-358,854	-98,780	0,087	0,016
-357,839	800,000	0,012	0,035
-356,825	666,652	-0,013	-0,025
-355,810	-200,000	-0,000	0,011
-354,796	173,472	0,059	-0,061
-353,781	102,634	-0,064	-0,055
-352,766	-2,333	-0,059	-0,030
-351,752	21,047	0,109	-0,064
-350,737	-200,000	-0,033	0,108
-349,723	800,000	-0,070	0,182
-348,708	166,959	0,053	0,055
-347,693	-200,000	0,009	0,037
-346,679	67,204	0,055	0,041
-345,664	214,073	-0,141	-0,162
-344,650	800,000	0,028	-0,087
-343,635	-11,297	0,100	-0,047
-342,620	27,241	-0,107	0,065
-341,606	-200,000	0,008	-0,051
-340,591	800,000	-0,043	-0,089
-339,577	-200,000	-0,015	0,114
-338,562	800,000	-0,030	-0,079
-337,548	53,211	0,088	-0,061
-336,533	-103,686	-0,056	-0,009
-335,518	-200,000	-0,027	0,137
-334,504	23,433	0,055	0,033
-333,489	3,429	0,045	-0,023
-332,475	800,000	0,021	-0,051
-331,460	800,000	-0,050	-0,125
-330,445	307,020	0,031	0,042
-329,431	800,000	-0,012	0,039
-328,416	-200,000	0,007	0,126
-327,402	244,918	0,083	0,102
-326,387	37,978	0,068	0,043
-325,372	-131,030	0,090	0,009
-324,358	800,000	0,040	0,087
-323,343	-17,613	-0,071	0,032
-322,329	60,466	0,086	-0,061
-321,314	149,246	0,038	-0,037
-320,299	800,000	-0,018	-0,047
-319,285	-200,000	0,006	0,090
-318,270	-200,000	-0,017	0,128
-317,256	-200,000	0,090	0,000
-316,241	106,439	-0,076	0,065
-315,226	156,576	0,045	-0,045
-314,212	-6,163	0,051	-0,025
-313,197	-200,000	0,064	-0,206
-312,183	609,664	-0,052	0,095
-311,168	68,679	-0,042	0,031
-310,153	563,808	0,027	-0,048
-309,139	-129,079	-0,105	0,011
-308,124	-200,000	0,045	0,146
-307,110	-200,000	0,000	0,057
-306,095	-200,000	-0,005	0,053
-305,080	800,000	-0,060	-0,136
-304,066	-21,050	-0,144	0,063
-303,051	205,839	0,035	0,040
-302,037	-200,000	0,017	-0,155
-301,022	-200,000	0,007	-0,109
-300,008	-200,000	-0,012	0,058
-298,993	651,148	0,041	0,077
-297,978	-200,000	0,016	0,160
-296,964	-56,728	0,116	-0,037
-295,949	800,000	-0,020	-0,051
-294,935	-103,110	0,086	-0,015
-293,920	800,000	0,062	0,156
-292,905	-42,895	0,120	0,044
-291,891	115,696	-0,107	0,095
-290,876	21,103	0,090	-0,053
-289,862	800,000	-0,039	-0,097
-288,847	-93,541	0,093	-0,019
-287,832	-38,077	0,104	-0,040
-286,818	281,555	0,047	-0,061
-285,803	790,005	-0,039	0,078
-284,789	-200,000	0,015	0,184
-283,774	100,896	0,007	-0,006
-282,759	-18,631	0,104	0,047
-281,745	-126,071	-0,076	-0,008
-280,730	86,412	0,103	-0,082
-279,716	-56,899	0,159	-0,051
-278,701	800,000	-0,025	-0,067
-277,686	-200,000	-0,003	0,026
-276,672	623,498	-0,053	0,098
-275,657	-200,000	0,069	-0,236
-274,643	-23,286	-0,107	-0,047
-273,628	100,416	-0,018	0,015
-272,613	800,000	0,031	0,068
-271,599	39,149	0,041	0,026
-270,584	179,538	-0,149	0,158
-269,570	800,000	0,079	0,183
-268,555	78,988	0,025	-0,020
-267,540	309,895	0,055	-0,075
-266,526	13,529	-0,007	-0,004
-265,511	335,877	-0,091	0,128
-264,497	-200,000	-0,011	0,074
-263,482	62,097	0,127	-0,091
-262,467	76,757	0,088	-0,068
-261,453	-166,106	-0,095	-0,003
-260,438	-200,000	-0,016	-0,145
-259,424	-70,481	0,082	-0,022
-258,409	-5,983	0,075	0,037
-257,395	-200,000	0,002	0,067
-256,380	-169,999	0,211	-0,005
-255,365	-65,177	0,135	-0,039
-254,351	-84,976	0,084	0,019
-253,336	285,355	-0,063	0,082
-252,322	-162,981	-0,156	0,005
-251,307	-123,618	0,160	0,018
-250,292	349,011	0,030	-0,043
-249,278	118,018	0,060	0,054
-248,263	562,918	-0,043	0,075
-247,249	800,000	0,048	0,100
-246,234	57,545	-0,127	-0,090
-245,219	55,331	-0,072	-0,051
-244,205	78,732	-0,081	-0,062
-243,190	198,481	0,041	0,046
-242,176	-130,449	0,060	-0,006
-241,161	-97,625	0,129	0,024
-240,146	106,364	-0,071	0,061
-239,132	399,664	-0,067	-0,102
-238,117	38,300	-0,039	-0,025
-237,103	-33,860	0,088	0,035
-236,088	524,790	-0,017	-0,028
-235,073	800,000	-0,022	0,070
-234,059	-200,000	0,014	-0,066
-233,044	198,918	0,073	0,081
-232,030	-42,666	-0,109	0,040
-231,015	-200,000	0,014	0,070
-230,000	-200,000	0,014	-0,064
-228,986	-2,924	0,067	0,034
-227,971	-94,194	-0,031	0,006
-226,957	241,895	-0,016	-0,020
-225,942	800,000	0,044	0,107
-224,927	-5,668	-0,048	-0,023
-223,913	-200,000	-0,033	-0,111
-222,898	663,255	0,041	0,077
-221,884	19,552	-0,082	-0,047
-220,869	-37,112	0,085	0,033
-219,855	-88,203	0,043	0,009
-218,840	700,925	0,040	0,076
-217,825	2,750	-0,069	-0,036
-216,811	800,000	0,048	-0,106
-215,796	800,000	0,006	-0,016
-214,782	-200,000	0,000	0,146
-213,767	-200,000	-0,005	-0,031
-212,752	-74,036	0,127	0,033
-211,738	5,158	-0,111	0,059
-210,723	-200,000	-0,037	-0,123
-209,709	800,000	0,018	0,050
-208,694	-200,000	-0,009	-0,051
-207,679	238,058	-0,046	-0,056
-206,665	39,265	0,167	-0,108
-205,650	-145,914	0,086	-0,005
-204,636	-68,590	0,148	-0,041
-203,621	83,760	0,064	-0,050
-202,606	-164,840	-0,179	-0,006
-201,592	800,000	-0,034	-0,079
-200,577	387,865	-0,077	-0,116
-199,563	-3,922	-0,069	0,035
-198,548	221,539	-0,060	-0,070
-197,533	157,432	0,040	0,040
-196,519	64,952	-0,123	0,090
-195,504	-200,000	0,001	-0,095
-194,490	-200,000	-0,002	-0,091
-193,475	-200,000	0,044	0,187
-192,460	-2,688	0,068	-0,034
-191,446	800,000	0,006	0,017
-190,431	-200,000	-0,009	0,042
-189,417	-28,443	0,021	-0,009
-188,402	320,846	-0,027	-0,038
-187,387	131,990	0,076	-0,071
-186,373	-22,461	-0,097	-0,042
-185,358	-100,278	0,053	0,009
-184,344	627,268	0,062	0,113
-183,329	670,448	-0,032	0,059
-182,315	-200,000	0,014	0,201
-181,300	-200,000	0,004	0,104
-180,285	-157,495	-0,055	-0,002
-179,271	538,320	0,028	0,048
-178,256	800,000	0,040	0,083
-177,242	-83,497	0,176	0,040
-176,227	71,745	0,123	-0,092
-175,212	-85,979	-0,032	0,007
-174,198	-200,000	0,022	-0,101
-173,183	238,347	-0,021	0,025
-172,169	376,632	-0,027	0,039
-171,154	182,811	-0,053	0,057
-170,139	-200,000	-0,002	0,125
-169,125	800,000	0,045	0,112
-168,110	12,105	0,107	0,059
-167,096	37,486	-0,037	0,023
-166,081	-57,077	0,055	-0,017
-165,066	800,000	0,035	0,074
-164,052	65,014	0,064	-0,047
-163,037	-122,160	-0,024	-0,003
-162,023	-200,000	-0,005	0,068
-161,008	585,229	-0,039	0,070
-159,993	800,000	-0,058	0,180
-158,979	-200,000	0,015	-0,105
-157,964	43,089	-0,064	0,042
-156,950	318,537	-0,049	-0,067
-155,935	-28,283	-0,065	-0,027
-154,920	-139,290	0,028	0,002
-153,906	366,129	0,025	0,036
-152,891	-72,163	-0,104	-0,028
-151,877	-200,000	0,024	-0,078
-150,862	-5,357	0,124	-0,061
-149,847	-53,621	0,129	-0,042
-148,833	16,816	-0,075	0,043
-147,818	-33,687	0,060	-0,024
-146,804	96,825	-0,076	-0,063
-145,789	13,324	0,109	-0,061
-144,775	117,644	0,066	-0,058
-143,760	800,000	0,038	0,091
-142,745	-45,355	-0,079	-0,028
-141,731	-200,000	0,011	0,078
-140,716	-62,179	0,035	-0,011
-139,702	-65,038	0,029	0,008
-138,687	-66,948	-0,137	0,039
-137,672	-4,017	-0,059	-0,029
-136,658	-200,000	0,003	0,019
-135,643	127,131	-0,129	0,118
-134,629	123,907	0,087	-0,079
-133,614	439,910	0,045	0,071
-132,599	-200,000	0,008	0,033
-131,585	466,784	-0,016	0,025
-130,570	13,783	0,056	0,031
-129,556	479,095	-0,114	0,186
-128,541	-1,273	0,100	0,051
-127,526	159,142	0,101	-0,101
-126,512	-49,846	0,116	0,039
-125,497	10,044	0,083	0,045
-124,483	-200,000	0,010	0,182
-123,468	-150,112	-0,050	-0,003
-122,453	-72,100	-0,076	0,020
-121,439	163,637	-0,120	0,121
-120,424	800,000	-0,050	-0,124
-119,410	-166,226	0,089	0,003
