DTS Sentinel unit serial number:	SN410029Multiplexer serial number:	ORYXHardware model number:	OX2-SRSoftware version number:	ORYX F/W v4,00 Oryx Data Collector v3.7.2.0data status	okinstallation	B5 Nyhavnadifferential loss correction	single-endedforward channel	channel 2reverse channel	N/Adate	2023/12/11time	15:22:13forward acquisition time	300,00reverse acquisition time	0,00gamma	499,1914k internal	0,3166k external	0,3166temperature offset calibration	1,0000default loss term (dB/km)	0,3820temperature slope calibration	1,0000multiplexer offset coefficient	1,0000multiplexer slope coefficient	1,0000fibre end	0,00T internal ref (°C)	13,29T ext. ref 1 (°C)	-1,97T ext. ref 2 (°C)	-1,98length (m)	temperature (°C)	Stokes	anti-Stokes-744,400	-200,000	0,014	0,064
-743,385	-31,332	-0,303	0,125
-742,371	28,267	0,092	-0,057
-741,356	-114,891	-0,320	0,044
-740,342	41,008	0,085	-0,057
-739,327	-58,876	-0,362	0,114
-738,312	-200,000	-0,004	0,085
-737,298	-63,461	-0,308	-0,093
-736,283	-154,131	0,171	-0,008
-735,269	-27,202	-0,203	0,086
-734,254	529,456	0,127	0,221
-733,239	7,548	-0,469	-0,257
-732,225	-91,718	0,149	-0,031
-731,210	-101,872	-0,072	0,013
-730,196	281,339	0,067	0,088
-729,181	-130,272	-0,054	-0,005
-728,167	-15,240	-0,075	-0,035
-727,152	-200,000	0,016	0,088
-726,137	208,070	-0,012	-0,014
-725,123	3,164	0,068	-0,036
-724,108	-200,000	0,007	-0,130
-723,094	800,000	-0,017	-0,046
-722,079	-57,661	-0,095	-0,030
-721,064	271,526	-0,047	-0,061
-720,050	348,201	-0,053	-0,077
-719,035	160,829	0,046	0,047
-718,021	-200,000	-0,003	-0,083
-717,006	-133,213	-0,118	-0,011
-715,991	30,468	-0,090	0,057
-714,977	3,119	-0,023	-0,012
-713,962	-200,000	0,001	-0,071
-712,948	-138,504	0,172	0,014
-711,933	-135,180	-0,062	-0,005
-710,918	-200,000	-0,002	0,024
-709,904	277,222	-0,096	-0,125
-708,889	-6,250	-0,171	-0,086
-707,875	-102,737	-0,112	0,019
-706,860	-197,765	0,127	0,001
-705,845	84,276	0,124	-0,100
-704,831	638,983	-0,026	-0,050
-703,816	-106,912	0,037	-0,006
-702,802	-152,827	-0,038	0,002
-701,787	136,467	-0,046	-0,044
-700,772	-67,851	0,040	-0,011
-699,758	-137,271	-0,099	-0,008
-698,743	-200,000	0,022	-0,120
-697,729	-200,000	0,011	-0,056
-696,714	800,000	0,037	0,117
-695,699	-78,478	0,058	0,015
-694,685	-115,876	-0,088	-0,012
-693,670	-200,000	0,000	-0,005
-692,656	-181,890	-0,024	0,000
-691,641	-71,896	-0,052	0,014
-690,627	-92,045	-0,149	0,031
-689,612	555,472	0,015	-0,026
-688,597	800,000	0,007	-0,017
-687,583	15,901	-0,106	-0,061
-686,568	471,653	-0,036	-0,060
-685,554	-200,000	-0,016	0,094
-684,539	-200,000	-0,021	0,143
-683,524	-200,000	0,004	0,074
-682,510	-200,000	0,044	0,159
-681,495	88,939	0,062	-0,050
-680,481	-200,000	0,006	-0,079
-679,466	612,237	-0,069	-0,128
-678,451	-50,651	0,100	0,034
-677,437	21,849	-0,109	-0,065
-676,422	-187,695	0,070	0,001
-675,408	350,943	0,054	0,079
-674,393	222,564	-0,058	-0,068
-673,378	-126,963	0,054	-0,006
-672,364	43,188	-0,134	0,090
-671,349	-150,976	-0,025	0,001
-670,335	313,039	-0,041	0,057
-669,320	-122,963	0,149	-0,017
-668,305	-200,000	-0,026	-0,125
-667,291	521,938	0,031	0,053
-666,276	169,190	0,019	-0,020
-665,262	591,260	-0,067	-0,121
-664,247	-26,076	0,104	-0,044
-663,232	97,581	-0,081	-0,068
-662,218	119,848	0,049	0,045
-661,203	-92,205	0,043	0,009
-660,189	-137,899	0,061	-0,005
-659,174	-200,000	-0,002	-0,084
-658,159	-40,408	-0,148	-0,056
-657,145	-200,000	0,004	-0,019
-656,130	-200,000	-0,014	0,075
-655,116	-148,100	0,138	-0,008
-654,101	-35,307	-0,090	-0,036
-653,086	339,408	-0,052	0,074
-652,072	-33,154	0,032	-0,013
-651,057	-41,599	-0,110	-0,041
-650,043	-73,122	-0,032	0,009
-649,028	209,328	0,126	-0,144
-648,014	-200,000	-0,002	-0,036
-646,999	160,408	-0,062	0,063
-645,984	609,422	-0,047	-0,086
-644,970	-200,000	-0,013	-0,084
-643,955	-200,000	-0,050	-0,238
-642,941	197,502	-0,031	-0,035
-641,926	208,545	0,040	-0,046
-640,911	410,126	0,057	0,089
-639,897	153,945	0,026	-0,026
-638,882	233,765	0,036	0,043
-637,868	-10,921	-0,054	0,026
-636,853	-8,688	0,125	0,061
-635,838	-50,766	-0,123	-0,042
-634,824	800,000	-0,023	-0,055
-633,809	317,378	0,062	-0,086
-632,795	32,374	0,052	0,033
-631,780	-200,000	-0,005	0,146
-630,765	-145,274	-0,082	0,005
-629,751	-200,000	-0,022	-0,203
-628,736	102,027	-0,070	0,060
-627,722	149,599	0,024	0,024
-626,707	-142,113	0,105	0,007
-625,692	152,716	0,037	0,037
-624,678	-1,393	-0,098	-0,050
-623,663	79,942	0,041	0,032
-622,649	73,210	-0,137	-0,105
-621,634	125,234	0,117	0,108
-620,619	800,000	0,024	-0,074
-619,605	668,329	0,016	0,030
-618,590	524,330	-0,029	-0,050
-617,576	-200,000	-0,002	-0,090
-616,561	800,000	-0,025	0,075
-615,546	27,259	-0,072	-0,044
-614,532	-70,414	0,041	0,011
-613,517	-12,777	-0,068	-0,032
-612,503	16,741	-0,043	0,025
-611,488	800,000	-0,015	-0,038
-610,474	-200,000	0,016	-0,094
-609,459	-200,000	0,002	-0,157
-608,444	37,294	0,052	-0,033
-607,430	727,161	-0,073	-0,143
-606,415	-200,000	-0,031	-0,178
-605,401	-200,000	0,034	-0,168
-604,386	140,149	-0,022	0,021
-603,371	17,977	-0,109	0,063
-602,357	-200,000	-0,021	0,091
-601,342	681,124	0,097	0,185
-600,328	-135,887	-0,096	0,008
-599,313	-106,569	0,111	0,018
-598,298	800,000	-0,039	0,108
-597,284	-89,312	-0,092	0,020
-596,269	-130,915	0,161	-0,016
-595,255	-46,589	0,138	0,049
-594,240	-200,000	0,013	-0,046
-593,225	-116,095	0,061	-0,008
-592,211	213,163	0,064	-0,074
-591,196	-104,359	-0,075	0,013
-590,182	-200,000	0,003	0,171
-589,167	-200,000	0,010	-0,039
-588,152	-184,223	-0,162	-0,002
-587,138	-86,536	0,067	-0,015
-586,123	-62,852	-0,055	0,017
-585,109	-172,443	-0,133	-0,003
-584,094	-200,000	0,001	0,015
-583,079	131,462	0,101	0,095
-582,065	-200,000	0,024	-0,083
-581,050	-200,000	0,015	-0,148
-580,036	167,996	-0,025	-0,026
-579,021	82,586	-0,028	-0,022
-578,006	-200,000	-0,014	0,083
-576,992	543,525	0,070	-0,123
-575,977	-154,153	-0,077	-0,004
-574,963	800,000	-0,014	-0,036
-573,948	42,296	0,085	-0,056
-572,934	706,425	0,048	-0,092
-571,919	739,954	-0,037	-0,072
-570,904	23,230	-0,019	0,011
-569,890	-65,074	-0,119	0,035
-568,875	175,608	-0,052	0,055
-567,861	445,581	0,054	-0,086
-566,846	-101,322	0,095	-0,017
-565,831	-26,439	-0,030	0,013
-564,817	-24,211	0,105	-0,045
-563,802	-200,000	-0,035	-0,154
-562,788	197,237	0,064	-0,071
-561,773	-146,678	0,047	0,003
-560,758	-200,000	0,024	0,105
-559,744	109,813	-0,017	0,015
-558,729	-200,000	-0,000	0,098
-557,715	-150,956	0,073	-0,004
-556,700	-15,288	-0,067	-0,031
-555,685	224,237	-0,126	-0,149
-554,671	-156,823	0,110	0,005
-553,656	104,268	-0,037	0,031
-552,642	48,605	0,053	-0,036
-551,627	229,160	0,097	0,116
-550,612	19,792	0,138	0,081
-549,598	-94,269	-0,034	0,007
-548,583	33,141	0,026	-0,017
-547,569	113,189	0,062	0,055
-546,554	47,290	-0,069	0,047
-545,539	800,000	0,061	0,189
-544,525	800,000	0,005	0,010
-543,510	800,000	0,057	-0,147
-542,496	-155,150	0,097	-0,005
-541,481	521,389	0,103	-0,177
-540,466	-200,000	0,021	0,164
-539,452	-200,000	0,015	0,228
-538,437	-85,515	-0,138	0,031
-537,423	800,000	0,025	0,075
-536,408	1,938	0,077	-0,040
-535,393	42,772	0,036	-0,024
-534,379	-200,000	0,003	-0,099
-533,364	-38,167	0,070	-0,027
-532,350	-11,756	0,133	0,063
-531,335	-200,000	-0,018	0,065
-530,321	196,912	0,140	0,156
-529,306	216,414	-0,040	-0,046
-528,291	-127,206	-0,076	-0,008
-527,277	-33,916	0,151	-0,060
-526,262	-106,084	-0,072	0,012
-525,248	-166,664	-0,057	-0,002
-524,233	-47,741	0,179	0,063
-523,218	800,000	-0,060	-0,140
-522,204	-181,498	-0,062	-0,001
-521,189	110,082	-0,067	-0,059
-520,175	-76,962	-0,055	-0,014
-519,160	158,426	-0,029	-0,029
-518,145	69,844	0,031	0,023
-517,131	265,041	-0,008	-0,010
-516,116	-97,695	-0,053	0,010
-515,102	-108,351	-0,052	0,008
-514,087	800,000	-0,017	0,047
-513,072	439,531	-0,035	-0,055
-512,058	-19,551	0,013	0,006
-511,043	-200,000	0,022	-0,074
-510,029	337,481	-0,049	-0,070
-509,014	68,017	-0,106	0,079
-507,999	315,908	-0,042	0,059
-506,985	-38,307	-0,099	0,038
-505,970	-200,000	0,011	-0,057
-504,956	-200,000	0,009	-0,096
-503,941	190,857	0,072	0,079
-502,926	-200,000	0,003	0,032
-501,912	35,025	0,059	0,038
-500,897	35,495	0,107	0,069
-499,883	319,482	0,080	0,111
-498,868	-84,326	0,075	0,017
-497,853	-51,016	0,077	-0,026
-496,839	-200,000	0,002	0,015
-495,824	800,000	0,067	0,148
-494,810	-0,454	0,108	0,056
-493,795	280,355	0,074	0,097
-492,781	-22,001	-0,086	0,038
-491,766	113,447	0,044	0,039
-490,751	-44,638	-0,129	-0,046
-489,737	800,000	0,024	-0,062
-488,722	800,000	0,013	0,038
-487,708	475,895	0,052	-0,086
-486,693	-200,000	0,018	0,118
-485,678	-59,132	0,099	-0,031
-484,664	-200,000	0,001	0,013
-483,649	-131,627	-0,161	-0,015
-482,635	-200,000	0,010	-0,064
-481,620	30,956	0,028	0,017
-480,605	800,000	-0,025	0,079
-479,591	25,243	-0,066	0,040
-478,576	800,000	-0,023	0,072
-477,562	800,000	0,022	0,064
-476,547	-145,121	0,061	-0,004
-475,532	401,112	-0,092	0,142
-474,518	211,617	0,015	0,017
-473,503	8,867	0,092	0,050
-472,489	-24,912	-0,088	-0,038
-471,474	-81,154	0,047	-0,011
-470,459	-200,000	0,007	-0,035
-469,445	91,166	-0,223	0,182
-468,430	-125,191	0,059	0,007
-467,416	-90,169	0,084	0,018
-466,401	143,718	0,155	0,150
-465,386	68,489	-0,078	0,058
-464,372	49,042	0,025	0,017
-463,357	-100,300	-0,117	0,021
-462,343	-143,831	-0,053	0,004
-461,328	309,523	-0,062	-0,085
-460,313	161,032	0,055	0,056
-459,299	-200,000	-0,023	0,085
-458,284	-35,832	0,088	0,035
-457,270	-200,000	0,011	0,061
-456,255	76,305	-0,132	-0,102
-455,241	-200,000	0,026	-0,097
-454,226	216,554	-0,007	0,008
-453,211	-59,560	0,110	-0,034
-452,197	-119,392	0,075	-0,009
-451,182	44,057	0,035	0,024
-450,168	152,437	0,097	-0,096
-449,153	12,403	-0,116	-0,065
-448,138	800,000	-0,054	-0,171
-447,124	-140,413	-0,030	0,002
-446,109	-200,000	-0,011	-0,044
-445,095	-45,061	-0,101	-0,036
-444,080	-148,680	-0,092	-0,005
-443,065	-127,113	-0,094	-0,010
-442,051	800,000	-0,044	0,107
-441,036	-200,000	0,019	-0,182
-440,022	-3,310	-0,071	-0,036
-439,007	-188,542	0,148	0,001
-437,992	633,908	0,081	0,151
-436,978	165,112	0,069	0,071
-435,963	-200,000	0,014	0,071
-434,949	73,482	0,052	0,039
-433,934	123,489	-0,007	-0,006
-432,919	123,500	-0,042	-0,038
-431,905	-200,000	-0,030	0,106
-430,890	102,689	-0,084	-0,071
-429,876	179,173	0,071	-0,076
-428,861	800,000	-0,008	-0,021
-427,846	222,918	0,037	0,043
-426,832	112,951	-0,125	-0,110
-425,817	-146,888	-0,050	-0,003
-424,803	91,681	0,063	-0,052
-423,788	800,000	0,033	-0,090
-422,773	-171,793	-0,143	-0,003
-421,759	58,300	0,013	0,009
-420,744	800,000	-0,052	0,121
-419,730	12,170	-0,094	-0,052
-418,715	162,642	0,078	-0,079
-417,701	-90,761	0,040	0,008
-416,686	257,837	0,051	-0,064
-415,671	485,648	-0,044	-0,073
-414,657	-200,000	0,004	-0,028
-413,642	503,975	0,037	0,062
-412,628	800,000	-0,015	-0,032
-411,613	89,978	-0,138	0,112
-410,598	-200,000	-0,020	-0,095
-409,584	-100,694	0,068	-0,012
-408,569	2,185	-0,011	-0,006
-407,555	-200,000	-0,011	0,047
-406,540	-200,000	0,001	0,069
-405,525	-44,697	0,017	0,006
-404,511	-200,000	-0,027	-0,092
-403,496	-24,912	0,022	-0,009
-402,482	800,000	0,023	-0,058
-401,467	-200,000	0,021	0,193
-400,452	-200,000	-0,037	0,123
-399,438	-200,000	0,002	0,047
-398,423	-38,790	-0,076	-0,029
-397,409	-189,423	0,083	0,001
-396,394	-200,000	0,013	0,092
-395,379	-200,000	0,007	0,038
-394,365	-200,000	0,005	-0,031
-393,350	29,464	0,152	0,094
-392,336	-64,534	-0,152	-0,045
-391,321	-6,236	-0,099	-0,049
-390,306	-200,000	0,008	-0,100
-389,292	-18,972	-0,041	-0,018
-388,277	50,794	-0,053	-0,037
-387,263	-119,154	-0,111	0,014
-386,248	444,924	-0,067	0,107
-385,233	49,992	0,063	-0,043
-384,219	-68,288	-0,045	-0,013
-383,204	-129,247	0,092	-0,009
-382,190	-183,067	-0,044	0,001
-381,175	-56,454	0,047	-0,015
-380,160	-104,525	0,133	0,022
-379,146	-200,000	-0,021	0,086
-378,131	13,324	0,016	-0,009
-377,117	800,000	-0,022	-0,048
-376,102	-112,427	0,123	0,018
-375,088	-158,372	-0,169	-0,007
-374,073	-200,000	-0,027	0,104
-373,058	-200,000	0,046	-0,161
-372,044	316,416	-0,106	0,145
-371,029	-200,000	0,002	0,056
-370,015	97,522	0,069	-0,057
-369,000	4,068	-0,103	0,054
-367,985	197,713	-0,051	-0,056
-366,971	-200,000	0,001	0,101
-365,956	-200,000	0,001	-0,099
-364,942	-97,158	0,092	0,017
-363,927	-52,740	-0,096	0,032
-362,912	378,493	0,100	0,149
-361,898	-103,412	0,030	-0,005
-360,883	25,606	-0,098	-0,059
-359,869	23,607	-0,022	0,013
-358,854	70,550	-0,077	-0,058
-357,839	-6,110	0,029	0,014
-356,825	-200,000	0,000	-0,210
-355,810	371,861	0,071	0,105
-354,796	-146,840	0,100	-0,006
-353,781	129,276	0,053	-0,049
-352,766	147,730	-0,022	-0,021
-351,752	156,998	0,068	-0,068
-350,737	75,477	0,125	-0,096
-349,723	800,000	0,010	0,028
-348,708	800,000	0,036	0,087
-347,693	-0,013	-0,060	-0,031
-346,679	-51,271	-0,086	0,029
-345,664	-200,000	-0,007	-0,076
-344,650	-14,733	0,134	-0,062
-343,635	-200,000	-0,007	0,050
-342,620	751,623	0,027	0,052
-341,606	24,797	-0,031	0,019
-340,591	800,000	-0,046	0,142
-339,577	15,107	-0,022	0,013
-338,562	-200,000	-0,008	-0,044
-337,548	42,813	0,029	-0,019
-336,533	800,000	-0,066	0,183
-335,518	-200,000	-0,018	0,070
-334,504	61,052	0,098	0,071
-333,489	598,693	-0,050	0,091
-332,475	-3,791	-0,067	-0,034
-331,460	41,260	-0,069	0,045
-330,445	12,075	0,089	-0,049
-329,431	46,605	0,142	-0,096
-328,416	61,400	-0,148	-0,107
-327,402	-5,248	0,134	-0,067
-326,387	-147,286	-0,114	-0,007
-325,372	521,003	-0,041	-0,069
-324,358	30,433	-0,108	-0,066
-323,343	47,655	0,082	-0,055
-322,329	56,401	0,103	-0,072
-321,314	411,683	-0,028	-0,043
-320,299	603,081	0,037	-0,067
-319,285	327,055	0,096	0,133
-318,270	117,524	0,083	-0,074
-317,256	54,491	0,030	0,021
-316,241	165,706	-0,077	0,079
-315,226	157,747	-0,038	0,038
-314,212	303,676	0,085	0,114
-313,197	175,456	-0,059	0,062
-312,183	-200,000	-0,006	0,028
-311,168	107,962	-0,064	-0,055
-310,153	208,866	-0,100	-0,113
-309,139	444,605	0,016	-0,025
-308,124	-119,876	0,095	0,012
-307,110	-200,000	0,013	0,042
-306,095	-126,951	0,067	0,007
-305,080	-63,729	-0,022	-0,006
-304,066	-200,000	-0,018	0,084
-303,051	145,094	-0,057	-0,055
-302,037	83,736	0,084	0,066
-301,022	73,739	0,056	0,042
-300,008	-117,189	-0,086	0,011
-298,993	74,670	0,101	0,077
-297,978	-200,000	0,019	-0,071
-296,964	375,389	0,085	0,126
-295,949	-149,650	0,203	0,011
-294,935	-94,894	-0,074	0,014
-293,920	800,000	-0,011	-0,026
-292,905	119,484	0,081	0,072
-291,891	-200,000	0,018	0,145
-290,876	273,026	0,082	-0,105
-289,862	-43,252	-0,098	-0,036
-288,847	452,993	-0,060	-0,097
-287,832	-200,000	0,015	-0,100
-286,818	-200,000	-0,017	0,054
-285,803	92,630	-0,067	0,055
-284,789	800,000	0,069	0,145
-283,774	-80,720	0,032	-0,008
-282,759	122,870	-0,034	0,031
-281,745	-22,522	-0,015	-0,007
-280,730	196,543	0,063	0,069
-279,716	216,696	0,094	-0,108
-278,701	-90,784	0,100	-0,021
-277,686	800,000	0,046	-0,134
-276,672	800,000	-0,055	0,124
-275,657	-170,908	0,073	0,002
-274,643	-38,638	0,079	0,030
-273,628	-200,000	0,010	0,037
-272,613	-171,551	-0,014	0,000
-271,599	-200,000	-0,003	0,019
-270,584	-200,000	0,014	0,097
-269,570	-200,000	-0,006	0,098
-268,555	-200,000	0,008	-0,076
-267,540	-200,000	-0,000	0,024
-266,526	132,800	-0,041	0,039
-265,511	64,405	-0,072	0,052
-264,497	-200,000	-0,022	-0,080
-263,482	38,764	0,158	-0,101
-262,467	84,942	-0,114	0,090
-261,453	-47,546	-0,099	0,034
-260,438	-64,172	-0,040	-0,012
-259,424	-61,890	-0,050	0,015
-258,409	532,593	-0,047	-0,081
-257,395	-200,000	-0,003	-0,022
-256,380	-19,196	0,088	0,039
-255,365	151,301	-0,029	-0,029
-254,351	800,000	0,054	-0,132
-253,336	-200,000	0,009	-0,086
-252,322	800,000	0,046	-0,107
-251,307	226,147	-0,094	-0,111
-250,292	-91,972	-0,106	-0,021
-249,278	-104,442	0,072	-0,012
-248,263	587,123	0,013	-0,023
-247,249	-41,381	0,081	0,030
-246,234	-200,000	-0,008	-0,055
-245,219	15,871	-0,049	-0,028
-244,205	-135,201	0,035	0,003
-243,190	-170,592	-0,099	0,002
-242,176	55,999	0,063	0,044
-241,161	95,076	-0,052	0,042
-240,146	271,156	0,040	-0,051
-239,132	10,282	0,044	-0,024
-238,117	-102,596	-0,227	-0,039
-237,103	33,017	0,052	-0,032
-236,088	425,238	0,010	-0,015
-235,073	-39,965	-0,118	0,044
-234,059	-200,000	0,024	0,169
-233,044	800,000	-0,024	-0,059
-232,030	220,217	-0,067	-0,078
-231,015	303,545	-0,122	-0,163
-230,000	-139,860	0,062	0,005
-228,986	161,062	-0,045	-0,045
-227,971	-200,000	0,016	0,113
-226,957	107,074	0,173	0,148
-225,942	-200,000	0,021	0,075
-224,927	800,000	0,023	0,054
-223,913	800,000	-0,061	0,139
-222,898	201,293	-0,082	-0,091
-221,884	124,115	-0,038	-0,034
-220,869	-155,831	-0,051	0,002
-219,855	-20,710	0,077	0,034
-218,840	-200,000	-0,006	-0,062
-217,825	-200,000	0,005	-0,137
-216,811	-99,342	0,070	0,013
-215,796	71,050	-0,086	0,064
-214,782	23,480	0,157	0,093
-213,767	118,490	-0,117	0,104
-212,752	-200,000	-0,013	0,041
-211,738	800,000	0,035	-0,109
-210,723	203,339	0,047	0,053
-209,709	-18,534	-0,131	0,059
-208,694	-31,534	-0,125	0,050
-207,679	-166,288	-0,076	-0,002
-206,665	126,625	0,060	-0,055
-205,650	4,746	0,030	-0,016
-204,636	-82,456	0,104	0,024
-203,621	800,000	-0,042	0,113
-202,606	-3,487	-0,042	0,021
-201,592	-200,000	0,000	-0,132
-200,577	136,299	-0,056	-0,053
-199,563	-93,388	-0,113	-0,022
-198,548	800,000	-0,038	-0,094
-197,533	145,236	0,092	0,088
-196,519	547,892	-0,022	0,038
-195,504	-128,393	0,078	-0,008
-194,490	-200,000	-0,014	-0,046
-193,475	-76,947	-0,149	-0,037
-192,460	166,960	-0,098	0,100
-191,446	111,780	0,117	-0,102
-190,431	-200,000	-0,005	0,145
-189,417	-93,873	-0,222	0,044
-188,402	800,000	0,023	-0,069
-187,387	245,104	-0,047	-0,057
-186,373	102,603	0,081	-0,068
-185,358	-120,708	-0,061	-0,007
-184,344	-141,458	-0,073	0,005
-183,329	46,222	0,052	-0,035
-182,315	136,138	-0,047	0,044
-181,300	-200,000	0,015	-0,112
-180,285	-138,100	-0,127	-0,010
-179,271	-200,000	-0,062	-0,211
-178,256	710,836	-0,003	0,005
-177,242	-200,000	0,028	0,113
-176,227	296,027	0,037	-0,049
-175,212	-200,000	-0,047	-0,159
-174,198	-97,115	0,056	-0,010
-173,183	-72,984	-0,005	0,001
-172,169	800,000	-0,026	-0,057
-171,154	-200,000	-0,003	-0,048
-170,139	50,876	0,151	0,103
-169,125	791,039	-0,064	0,128
-168,110	-200,000	-0,016	0,174
-167,096	15,795	0,047	0,027
-166,081	88,756	-0,077	-0,062
-165,066	-127,588	-0,130	0,013
-164,052	800,000	-0,002	-0,006
-163,037	-45,139	0,036	-0,013
-162,023	-200,000	-0,010	-0,168
-161,008	177,069	0,131	0,137
-159,993	187,416	-0,097	-0,104
-158,979	-200,000	-0,003	-0,119
-157,964	322,080	-0,070	0,096
-156,950	-200,000	-0,002	0,052
-155,935	-200,000	-0,025	0,102
-154,920	129,188	0,079	0,073
-153,906	-55,068	0,161	0,052
-152,891	-20,485	-0,076	-0,033
-151,877	-200,000	0,022	0,082
-150,862	-57,411	0,025	0,008
-149,847	-100,545	-0,133	-0,023
-148,833	-40,485	0,083	0,031
-147,818	-200,000	0,008	0,049
-146,804	189,917	0,018	0,020
-145,789	-200,000	-0,051	0,182
-144,775	-200,000	0,010	-0,032
-143,760	-200,000	-0,025	-0,111
-142,745	44,190	0,072	-0,047
-141,731	-199,374	-0,107	-0,000
-140,716	-94,249	0,090	-0,018
-139,702	-67,322	-0,080	0,022
-138,687	-200,000	0,002	0,108
-137,672	205,125	0,035	0,039
-136,658	800,000	0,017	-0,038
-135,643	9,450	-0,082	0,044
-134,629	655,974	-0,032	0,059
-133,614	241,565	-0,067	-0,081
-132,599	52,797	0,098	-0,067
-131,585	293,808	0,056	-0,074
-130,570	-73,254	0,079	-0,021
-129,556	238,326	-0,128	0,153
-128,541	-111,662	-0,120	-0,017
-127,526	10,534	0,164	0,089
-126,512	800,000	0,045	0,125
-125,497	-200,000	-0,000	0,036
-124,483	-200,000	-0,000	0,010
-123,468	-200,000	-0,018	0,224
-122,453	-200,000	-0,014	0,064
-121,439	135,765	0,076	-0,071
-120,424	186,937	-0,045	-0,049
