DTS Sentinel unit serial number:	SN410029Multiplexer serial number:	ORYXHardware model number:	OX2-SRSoftware version number:	ORYX F/W v4,00 Oryx Data Collector v3.7.2.0data status	okinstallation	B5 Nyhavnadifferential loss correction	single-endedforward channel	channel 2reverse channel	N/Adate	2023/12/12time	11:27:13forward acquisition time	300,00reverse acquisition time	0,00gamma	499,1914k internal	0,3158k external	0,3158temperature offset calibration	1,0000default loss term (dB/km)	0,3820temperature slope calibration	1,0000multiplexer offset coefficient	1,0000multiplexer slope coefficient	1,0000fibre end	0,00T internal ref (°C)	15,07T ext. ref 1 (°C)	-1,05T ext. ref 2 (°C)	-1,32length (m)	temperature (°C)	Stokes	anti-Stokes-744,400	307,729	0,103	-0,142
-743,385	-94,176	-0,212	-0,042
-742,371	123,897	0,091	0,084
-741,356	-55,951	-0,345	0,113
-740,342	-78,455	-0,110	0,028
-739,327	56,924	-0,227	0,163
-738,312	-161,126	0,066	0,002
-737,298	-87,063	-0,291	0,065
-736,283	-59,280	0,039	-0,012
-735,269	111,788	-0,169	0,150
-734,254	-102,478	0,174	0,030
-733,239	-11,411	-0,465	-0,225
-732,225	-144,121	0,213	-0,014
-731,210	264,960	0,057	0,074
-730,196	311,536	-0,117	-0,163
-729,181	92,011	0,033	-0,027
-728,167	-44,535	-0,052	-0,019
-727,152	-200,000	-0,021	-0,111
-726,137	-200,000	0,013	-0,050
-725,123	-39,650	-0,131	-0,050
-724,108	-200,000	-0,027	-0,152
-723,094	83,836	-0,073	-0,059
-722,079	237,577	-0,119	-0,146
-721,064	357,483	0,134	-0,197
-720,050	-200,000	0,002	-0,060
-719,035	-0,523	-0,168	-0,088
-718,021	-128,010	-0,165	0,017
-717,006	49,148	-0,080	-0,055
-715,991	-200,000	-0,009	0,133
-714,977	385,796	-0,046	0,071
-713,962	-14,337	-0,088	-0,042
-712,948	-200,000	-0,008	0,204
-711,933	295,640	-0,088	0,119
-710,918	-95,391	-0,056	-0,011
-709,904	-200,000	-0,001	-0,110
-708,889	112,513	0,117	-0,104
-707,875	731,704	0,070	0,138
-706,860	-200,000	0,019	-0,137
-705,845	-74,548	0,231	0,061
-704,831	141,669	-0,020	0,020
-703,816	-200,000	-0,001	-0,045
-702,802	-200,000	-0,028	-0,118
-701,787	47,283	0,054	0,037
-700,772	800,000	-0,036	-0,113
-699,758	-36,237	0,047	0,019
-698,743	764,614	0,051	0,103
-697,729	800,000	-0,056	0,140
-696,714	304,635	0,043	0,058
-695,699	-58,007	-0,033	-0,011
-694,685	800,000	-0,028	0,069
-693,670	-94,897	-0,074	0,015
-692,656	177,520	0,007	0,008
-691,641	-200,000	-0,000	0,022
-690,627	800,000	0,014	-0,033
-689,612	-117,951	0,047	-0,006
-688,597	800,000	-0,027	0,065
-687,583	-107,322	-0,081	0,013
-686,568	180,922	0,006	0,007
-685,554	-200,000	0,005	0,027
-684,539	-33,880	0,064	-0,026
-683,524	410,815	0,055	0,087
-682,510	92,837	0,095	0,079
-681,495	800,000	-0,095	0,208
-680,481	-11,371	0,058	-0,028
-679,466	111,154	-0,052	-0,046
-678,451	-200,000	0,018	-0,118
-677,437	270,366	-0,018	0,023
-676,422	398,269	-0,028	0,044
-675,408	281,942	-0,023	-0,030
-674,393	30,122	-0,017	-0,011
-673,378	-200,000	0,001	-0,078
-672,364	-110,675	-0,140	-0,021
-671,349	108,163	0,064	-0,056
-670,335	800,000	0,021	-0,054
-669,320	39,188	0,128	0,084
-668,305	-66,218	0,045	-0,013
-667,291	-54,517	0,057	0,019
-666,276	800,000	-0,032	0,078
-665,262	741,873	-0,072	-0,143
-664,247	159,607	0,049	0,050
-663,232	-79,479	0,086	-0,021
-662,218	-156,534	-0,105	0,005
-661,203	641,289	0,046	0,087
-660,189	225,754	-0,116	0,138
-659,174	279,095	-0,070	-0,092
-658,159	-200,000	0,005	-0,155
-657,145	155,419	-0,005	0,005
-656,130	18,088	0,073	0,043
-655,116	800,000	0,001	0,002
-654,101	-200,000	-0,016	0,061
-653,086	104,238	0,028	-0,024
-652,072	-200,000	-0,001	0,025
-651,057	-15,766	-0,088	-0,041
-650,043	-200,000	0,020	0,073
-649,028	-200,000	0,013	0,056
-648,014	-200,000	0,003	0,056
-646,999	194,539	-0,009	0,010
-645,984	800,000	-0,024	-0,071
-644,970	-7,770	-0,033	0,016
-643,955	29,462	-0,095	-0,059
-642,941	-107,756	-0,101	-0,016
-641,926	388,026	0,060	-0,091
-640,911	-112,356	0,238	0,035
-639,897	-29,868	0,084	0,035
-638,882	257,550	-0,025	0,031
-637,868	267,510	0,018	0,023
-636,853	413,471	-0,063	-0,099
-635,838	-58,772	0,059	-0,019
-634,824	-200,000	-0,008	-0,093
-633,809	-156,358	-0,075	-0,003
-632,795	75,174	0,063	0,048
-631,780	107,765	-0,051	0,045
-630,765	102,927	-0,033	0,028
-629,751	181,941	-0,069	-0,074
-628,736	54,665	-0,069	0,049
-627,722	56,923	-0,083	-0,060
-626,707	272,564	0,024	0,032
-625,692	-200,000	0,038	0,131
-624,678	-45,870	-0,033	0,012
-623,663	-200,000	-0,034	0,119
-622,649	-89,504	-0,101	-0,021
-621,634	-46,014	-0,112	-0,040
-620,619	800,000	-0,008	-0,021
-619,605	15,146	-0,048	-0,027
-618,590	475,116	0,095	-0,158
-617,576	-63,642	-0,049	-0,015
-616,561	302,795	-0,052	0,071
-615,546	112,777	-0,089	-0,079
-614,532	-200,000	0,018	-0,090
-613,517	-87,052	-0,059	0,013
-612,503	-64,498	-0,065	-0,019
-611,488	460,866	0,033	0,054
-610,474	-162,046	-0,033	0,001
-609,459	-84,257	-0,100	0,023
-608,444	134,561	0,088	-0,084
-607,430	-200,000	-0,036	-0,148
-606,415	-103,258	-0,035	0,006
-605,401	167,644	0,069	-0,072
-604,386	-200,000	-0,011	0,066
-603,371	215,345	0,028	-0,032
-602,357	800,000	0,043	-0,106
-601,342	-47,360	-0,138	-0,049
-600,328	438,359	-0,069	-0,111
-599,313	657,526	0,032	0,061
-598,298	198,206	0,076	-0,086
-597,284	-102,001	-0,132	-0,023
-596,269	-34,611	0,150	0,060
-595,255	244,126	0,029	0,036
-594,240	-133,854	-0,012	0,001
-593,225	4,651	-0,071	0,038
-592,211	109,145	-0,056	0,049
-591,196	800,000	-0,040	0,087
-590,182	301,073	0,074	0,100
-589,167	-123,076	0,084	0,010
-588,152	207,818	0,032	-0,037
-587,138	430,864	0,025	0,040
-586,123	334,094	-0,067	-0,095
-585,109	435,826	0,030	0,047
-584,094	-48,204	0,063	0,022
-583,079	-13,685	0,102	-0,048
-582,065	92,891	0,096	-0,079
-581,050	-30,653	-0,143	-0,059
-580,036	514,579	0,002	0,004
-579,021	173,354	0,017	0,018
-578,006	800,000	0,025	0,051
-576,992	-200,000	0,011	-0,037
-575,977	-71,458	0,100	-0,027
-574,963	324,657	-0,036	-0,050
-573,948	0,133	-0,045	-0,023
-572,934	800,000	-0,019	0,060
-571,919	-200,000	0,004	-0,034
-570,904	202,716	0,072	0,082
-569,890	262,570	0,085	0,109
-568,875	800,000	-0,016	0,037
-567,861	356,441	0,087	0,128
-566,846	499,762	-0,064	-0,108
-565,831	141,497	-0,101	-0,098
-564,817	800,000	-0,055	-0,133
-563,802	442,781	-0,016	-0,026
-562,788	774,151	-0,034	-0,068
-561,773	190,954	-0,069	0,076
-560,758	-200,000	0,015	0,170
-559,744	195,436	-0,029	0,032
-558,729	800,000	-0,020	0,050
-557,715	-99,507	-0,086	0,016
-556,700	26,173	0,062	-0,038
-555,685	-200,000	-0,034	-0,152
-554,671	800,000	0,035	0,080
-553,656	155,209	0,124	-0,125
-552,642	-123,846	-0,038	0,004
-551,627	-69,743	-0,139	-0,039
-550,612	62,798	0,075	0,055
-549,598	-4,984	-0,100	-0,050
-548,583	143,914	0,055	0,053
-547,569	-200,000	-0,036	0,127
-546,554	147,662	-0,085	-0,084
-545,539	-157,345	0,105	-0,005
-544,525	-138,976	-0,096	0,008
-543,510	-181,979	0,103	0,001
-542,496	-191,114	-0,097	0,001
-541,481	800,000	-0,033	-0,072
-540,466	331,181	0,045	0,064
-539,452	174,229	-0,037	0,039
-538,437	443,669	0,046	0,075
-537,423	-185,335	0,157	0,002
-536,408	-124,478	0,070	-0,008
-535,393	-126,623	-0,038	0,004
-534,379	800,000	-0,033	0,095
-533,364	-137,265	-0,054	0,004
-532,350	660,442	-0,043	0,082
-531,335	27,778	0,040	0,024
-530,321	125,230	0,027	0,024
-529,306	-41,010	0,038	0,014
-528,291	-47,525	-0,091	-0,032
-527,277	800,000	-0,016	-0,039
-526,262	-200,000	-0,002	-0,131
-525,248	-146,445	0,148	0,009
-524,233	-98,568	0,121	0,022
-523,218	-90,298	-0,061	0,013
-522,204	-156,675	0,069	-0,003
-521,189	-200,000	-0,011	-0,090
-520,175	70,437	0,198	-0,150
-519,160	800,000	-0,022	-0,070
-518,145	238,700	0,086	-0,105
-517,131	10,702	0,103	0,057
-516,116	-200,000	-0,001	0,016
-515,102	-27,967	0,084	0,035
-514,087	36,202	-0,061	0,039
-513,072	-200,000	-0,024	0,090
-512,058	-49,072	0,044	-0,015
-511,043	430,256	-0,028	-0,045
-510,029	-168,252	-0,048	-0,001
-509,014	229,020	0,085	-0,101
-507,999	-200,000	-0,001	-0,030
-506,985	89,807	0,076	-0,062
-505,970	0,356	-0,104	0,054
-504,956	183,989	0,051	-0,055
-503,941	635,688	-0,025	0,046
-502,926	-112,222	-0,037	0,005
-501,912	800,000	0,063	0,167
-500,897	-66,657	-0,173	-0,050
-499,883	-40,189	0,023	0,009
-498,868	371,051	-0,058	-0,086
-497,853	800,000	0,028	-0,087
-496,839	-28,956	-0,108	0,045
-495,824	800,000	0,026	0,061
-494,810	74,682	-0,032	-0,024
-493,795	800,000	-0,037	0,107
-492,781	-200,000	-0,049	0,167
-491,766	-200,000	-0,015	-0,148
-490,751	136,450	-0,028	-0,027
-489,737	450,054	0,067	-0,108
-488,722	397,752	0,042	-0,064
-487,708	-200,000	0,028	0,094
-486,693	14,803	-0,130	0,074
-485,678	56,807	-0,160	-0,113
-484,664	-0,703	-0,074	0,038
-483,649	-138,994	-0,085	0,007
-482,635	-148,403	0,130	-0,008
-481,620	-200,000	-0,003	0,046
-480,605	112,375	0,021	0,018
-479,591	-200,000	0,014	0,164
-478,576	-76,919	-0,195	-0,049
-477,562	149,297	-0,071	-0,070
-476,547	226,550	-0,071	-0,084
-475,532	-141,000	0,038	0,003
-474,518	-18,682	0,202	-0,092
-473,503	-134,182	-0,063	0,006
-472,489	-200,000	0,026	0,100
-471,474	-62,450	-0,087	-0,026
-470,459	691,707	-0,041	-0,079
-469,445	33,420	0,062	-0,039
-468,430	-52,374	0,088	-0,029
-467,416	100,322	0,065	0,055
-466,401	441,431	0,064	0,102
-465,386	224,890	0,095	0,112
-464,372	22,076	-0,102	-0,060
-463,357	457,583	0,022	0,036
-462,343	84,914	-0,024	0,019
-461,328	634,184	-0,033	-0,062
-460,313	-59,701	0,168	0,052
-459,299	144,922	-0,050	0,049
-458,284	-121,554	0,167	0,020
-457,270	-200,000	-0,022	0,120
-456,255	323,528	0,063	-0,088
-455,241	353,526	-0,085	-0,123
-454,226	29,853	0,086	-0,054
-453,211	-200,000	-0,057	0,000
-452,197	-18,818	-0,153	-0,069
-451,182	-75,950	0,107	0,027
-450,168	-35,568	0,127	0,050
-449,153	708,452	-0,026	-0,051
-448,138	68,345	0,056	-0,042
-447,124	-100,491	0,056	-0,010
-446,109	3,655	-0,019	0,010
-445,095	55,102	-0,062	-0,044
-444,080	800,000	-0,058	0,152
-443,065	216,615	0,023	-0,027
-442,051	-14,010	-0,102	-0,048
-441,036	-200,000	0,006	0,032
-440,022	44,839	0,055	-0,037
-439,007	92,147	0,071	-0,058
-437,992	735,460	-0,051	0,100
-436,978	-32,900	-0,072	0,029
-435,963	-39,147	0,164	-0,062
-434,949	494,685	-0,055	0,092
-433,934	261,324	-0,044	0,055
-432,919	-139,188	-0,117	0,009
-431,905	41,956	-0,050	0,033
-430,890	24,831	-0,038	0,023
-429,876	-12,907	0,075	0,036
-428,861	800,000	-0,039	0,081
-427,846	153,244	0,028	0,028
-426,832	800,000	-0,008	0,021
-425,817	-33,743	-0,103	-0,041
-424,803	392,428	0,063	-0,095
-423,788	182,762	-0,066	-0,071
-422,773	-97,553	0,154	-0,029
-421,759	36,327	-0,085	0,055
-420,744	256,776	0,041	0,051
-419,730	380,234	-0,038	0,056
-418,715	800,000	-0,039	-0,094
-417,701	-67,158	-0,087	0,025
-416,686	-133,370	-0,109	-0,010
-415,671	-51,468	0,138	0,047
-414,657	-200,000	-0,027	0,133
-413,642	20,077	0,050	-0,029
-412,628	-200,000	-0,037	0,000
-411,613	257,502	-0,020	0,025
-410,598	84,190	-0,102	0,081
-409,584	-200,000	0,013	-0,081
-408,569	378,267	-0,047	0,070
-407,555	81,398	0,236	0,186
-406,540	79,458	-0,064	0,050
-405,525	313,201	0,063	-0,086
-404,511	800,000	-0,025	-0,078
-403,496	614,952	-0,041	-0,075
-402,482	44,228	-0,037	0,025
-401,467	12,600	0,065	0,036
-400,452	-165,398	-0,115	-0,004
-399,438	-92,591	-0,050	0,010
-398,423	-26,027	0,058	-0,025
-397,409	-22,660	-0,186	0,081
-396,394	68,523	0,105	0,079
-395,379	800,000	0,065	0,141
-394,365	-200,000	0,006	-0,094
-393,350	45,072	-0,096	-0,064
-392,336	-200,000	0,017	-0,099
-391,321	58,393	0,067	0,048
-390,306	78,793	-0,075	-0,058
-389,292	366,944	0,053	-0,078
-388,277	-200,000	0,005	-0,069
-387,263	-200,000	-0,009	0,063
-386,248	91,384	0,126	0,103
-385,233	-101,143	-0,206	-0,036
-384,219	677,816	0,011	0,020
-383,204	-200,000	0,021	0,070
-382,190	-117,895	0,093	0,012
-381,175	-65,387	0,189	-0,055
-380,160	-58,633	0,096	-0,030
-379,146	-200,000	-0,004	0,060
-378,131	800,000	0,044	0,125
-377,117	-200,000	0,012	0,124
-376,102	-200,000	-0,017	-0,080
-375,088	-200,000	0,002	-0,050
-374,073	-84,185	0,116	0,027
-373,058	716,542	-0,065	-0,125
-372,044	800,000	-0,031	0,078
-371,029	-28,018	0,041	-0,017
-370,015	-185,999	0,024	-0,000
-369,000	-146,837	-0,023	-0,001
-367,985	136,707	0,040	0,038
-366,971	-200,000	-0,007	-0,035
-365,956	-135,123	0,128	-0,011
-364,942	770,781	-0,015	0,031
-363,927	-8,868	0,065	-0,032
-362,912	-200,000	-0,011	0,056
-361,898	176,048	-0,052	0,054
-360,883	316,376	0,013	0,018
-359,869	-59,798	0,060	0,019
-358,854	-67,248	0,064	-0,018
-357,839	800,000	0,016	0,045
-356,825	-9,386	-0,183	0,089
-355,810	-200,000	-0,016	0,123
-354,796	265,563	0,041	-0,052
-353,781	-12,100	-0,099	-0,047
-352,766	136,469	0,037	0,035
-351,752	44,126	-0,111	0,074
-350,737	-200,000	0,029	0,158
-349,723	-146,153	0,054	0,003
-348,708	800,000	0,062	-0,125
-347,693	104,233	0,056	0,048
-346,679	176,382	-0,077	0,081
-345,664	-164,319	0,144	-0,005
-344,650	-200,000	0,002	0,128
-343,635	-200,000	-0,016	0,197
-342,620	81,844	0,097	-0,076
-341,606	388,663	-0,053	0,079
-340,591	-85,672	-0,062	0,014
-339,577	-33,233	-0,087	0,035
-338,562	124,703	0,018	0,017
-337,548	-111,928	0,037	-0,005
-336,533	-144,152	-0,042	-0,003
-335,518	597,208	0,063	0,114
-334,504	78,778	0,109	0,085
-333,489	299,437	-0,025	0,033
-332,475	-200,000	0,041	0,179
-331,460	-200,000	0,029	0,108
-330,445	-200,000	-0,007	0,030
-329,431	94,733	0,063	0,052
-328,416	-74,774	-0,088	-0,023
-327,402	-110,031	-0,048	-0,007
-326,387	-200,000	-0,027	-0,152
-325,372	31,292	-0,083	0,051
-324,358	14,389	0,017	-0,010
-323,343	158,510	-0,048	-0,048
-322,329	-200,000	0,000	-0,159
-321,314	-74,251	0,142	0,037
-320,299	123,181	0,060	-0,054
-319,285	293,523	0,044	-0,058
-318,270	684,560	0,047	-0,089
-317,256	800,000	-0,033	-0,071
-316,241	800,000	-0,022	-0,066
-315,226	320,149	0,101	-0,139
-314,212	-200,000	0,001	-0,052
-313,197	126,673	0,025	0,023
-312,183	91,341	0,108	0,088
-311,168	432,758	0,062	0,097
-310,153	-12,093	-0,197	-0,093
-309,139	141,377	0,132	-0,127
-308,124	148,979	-0,047	0,046
-307,110	-200,000	-0,030	-0,120
-306,095	489,733	0,021	-0,035
-305,080	276,190	-0,070	-0,091
-304,066	787,532	-0,034	-0,068
-303,051	-167,871	-0,126	0,004
-302,037	-200,000	-0,001	-0,203
-301,022	289,757	-0,050	-0,066
-300,008	-20,174	0,144	-0,064
-298,993	-31,548	0,093	-0,038
-297,978	536,690	-0,059	0,102
-296,964	188,231	0,075	-0,082
-295,949	-109,677	-0,061	0,009
-294,935	442,977	0,032	-0,051
-293,920	-57,602	-0,086	0,027
-292,905	126,355	-0,081	-0,075
-291,891	-200,000	0,012	0,096
-290,876	132,003	-0,125	-0,116
-289,862	-200,000	-0,007	-0,081
-288,847	-200,000	0,005	-0,121
-287,832	643,679	-0,044	-0,081
-286,818	-200,000	-0,000	-0,101
-285,803	56,018	0,108	0,076
-284,789	69,224	-0,093	-0,069
-283,774	-200,000	0,027	-0,152
-282,759	49,864	0,030	0,020
-281,745	-200,000	0,012	0,064
-280,730	537,200	-0,022	0,039
-279,716	800,000	-0,020	-0,054
-278,701	65,517	0,064	0,047
-277,686	-46,362	0,087	0,031
-276,672	265,376	-0,014	-0,018
-275,657	-200,000	-0,003	-0,053
-274,643	-3,334	-0,058	-0,029
-273,628	800,000	-0,082	0,240
-272,613	-200,000	0,006	-0,042
-271,599	19,496	0,020	0,012
-270,584	-21,993	0,164	0,072
-269,570	800,000	-0,022	0,048
-268,555	-200,000	-0,006	0,101
-267,540	800,000	0,032	-0,065
-266,526	-13,020	0,023	-0,011
-265,511	-200,000	-0,000	-0,025
-264,497	-45,967	0,120	0,043
-263,482	-200,000	0,019	0,142
-262,467	-174,168	-0,129	0,003
-261,453	-33,684	0,129	-0,051
-260,438	456,692	-0,018	0,029
-259,424	193,576	-0,067	0,074
-258,409	-200,000	0,002	-0,048
-257,395	-141,822	0,053	-0,004
-256,380	29,798	0,091	0,056
-255,365	435,900	0,055	0,087
-254,351	800,000	-0,039	0,082
-253,336	275,966	-0,040	-0,051
-252,322	-58,513	0,053	-0,017
-251,307	209,072	-0,043	0,049
-250,292	800,000	0,035	0,097
-249,278	-51,790	-0,100	-0,033
-248,263	-35,750	0,118	0,046
-247,249	74,755	0,044	0,033
-246,234	4,037	-0,085	-0,045
-245,219	18,017	-0,038	0,022
-244,205	-172,111	-0,069	0,002
-243,190	107,420	-0,063	0,055
-242,176	323,818	0,076	0,105
-241,161	353,762	-0,061	0,087
-240,146	40,896	0,071	0,046
-239,132	137,743	-0,056	0,053
-238,117	555,856	0,035	-0,061
-237,103	-200,000	-0,032	-0,142
-236,088	-200,000	-0,020	0,110
-235,073	37,067	0,042	-0,027
-234,059	800,000	-0,037	0,083
-233,044	466,438	0,058	0,095
-232,030	746,811	-0,029	-0,057
-231,015	-18,608	-0,109	0,049
-230,000	193,746	0,043	-0,047
-228,986	83,086	-0,019	-0,015
-227,971	800,000	-0,048	-0,137
-226,957	-200,000	-0,007	0,130
-225,942	-86,863	0,022	-0,005
-224,927	800,000	0,004	-0,009
-223,913	-200,000	-0,067	-0,258
-222,898	379,287	-0,089	-0,132
-221,884	747,956	-0,100	-0,196
-220,869	800,000	0,037	0,074
-219,855	420,350	0,052	0,081
-218,840	-45,082	-0,141	-0,050
-217,825	-22,154	-0,083	-0,036
-216,811	800,000	0,004	-0,010
-215,796	26,467	-0,040	0,024
-214,782	-200,000	0,013	-0,061
-213,767	102,172	-0,030	-0,025
-212,752	-165,039	0,079	0,002
-211,738	-200,000	0,006	0,095
-210,723	88,952	0,091	0,073
-209,709	117,236	-0,125	-0,111
-208,694	-200,000	-0,006	-0,112
-207,679	800,000	-0,044	-0,119
-206,665	-200,000	-0,012	0,063
-205,650	-97,213	0,156	-0,029
-204,636	195,632	0,097	-0,106
-203,621	19,512	0,059	-0,034
-202,606	29,085	0,107	-0,066
-201,592	70,274	-0,021	0,015
-200,577	-10,825	-0,022	-0,010
-199,563	156,390	-0,123	-0,122
-198,548	140,305	0,065	-0,062
-197,533	-200,000	0,008	0,113
-196,519	-97,300	0,109	0,020
-195,504	290,313	-0,068	-0,090
-194,490	42,521	-0,143	-0,094
-193,475	-2,925	0,022	-0,011
-192,460	-131,078	0,095	-0,009
-191,446	-30,256	0,094	0,038
-190,431	219,408	0,026	0,030
-189,417	-200,000	-0,011	0,103
-188,402	-58,682	-0,162	-0,050
-187,387	-200,000	0,021	-0,074
-186,373	-37,590	0,099	0,038
-185,358	-200,000	-0,007	-0,037
-184,344	-18,506	0,069	0,031
-183,329	283,224	0,071	-0,092
-182,315	-200,000	0,012	0,072
-181,300	-200,000	-0,019	0,104
-180,285	-187,764	-0,046	0,000
-179,271	86,914	0,049	-0,039
-178,256	466,588	-0,042	0,068
-177,242	-200,000	0,000	0,033
-176,227	-200,000	-0,034	-0,112
-175,212	-200,000	-0,013	0,074
-174,198	-160,652	-0,140	0,005
-173,183	-47,306	0,035	0,012
-172,169	6,738	-0,032	-0,017
-171,154	-179,594	0,138	0,002
-170,139	800,000	-0,033	0,080
-169,125	-161,932	-0,086	-0,003
-168,110	800,000	0,046	0,100
-167,096	800,000	0,063	-0,170
-166,081	-7,582	-0,036	0,017
-165,066	454,291	0,013	-0,021
-164,052	-16,817	-0,146	0,066
-163,037	506,043	-0,048	0,080
-162,023	192,389	-0,013	0,014
-161,008	-83,723	0,012	-0,003
-159,993	-23,385	-0,173	0,075
-158,979	-66,802	0,155	0,044
-157,964	45,930	-0,027	0,018
-156,950	137,689	-0,086	-0,081
-155,935	-112,326	-0,082	-0,012
-154,920	-87,932	0,082	0,018
-153,906	11,405	0,119	0,066
-152,891	-115,325	0,167	0,023
-151,877	-200,000	0,002	0,009
-150,862	176,479	-0,051	0,053
-149,847	-50,974	0,088	0,030
-148,833	138,216	0,073	-0,069
-147,818	519,014	0,075	0,127
-146,804	800,000	0,086	0,220
-145,789	-200,000	0,003	0,105
-144,775	-200,000	-0,022	-0,125
-143,760	-14,594	-0,165	0,076
-142,745	-200,000	0,013	-0,048
-141,731	200,577	-0,040	-0,044
-140,716	-83,471	0,054	0,012
-139,702	-160,682	0,130	-0,005
-138,687	800,000	-0,044	0,123
-137,672	-200,000	-0,009	0,043
-136,658	-200,000	-0,003	0,068
-135,643	444,259	0,037	0,058
-134,629	27,688	-0,057	-0,034
-133,614	-31,768	-0,084	0,034
-132,599	800,000	-0,037	0,082
-131,585	-200,000	-0,012	0,101
-130,570	604,509	-0,036	0,065
-129,556	682,720	0,013	0,024
-128,541	286,784	-0,083	-0,108
-127,526	227,665	0,069	-0,081
-126,512	164,384	-0,023	-0,023
-125,497	166,729	0,104	-0,106
-124,483	-81,412	0,077	-0,018
-123,468	-73,171	0,064	0,017
-122,453	-89,708	-0,191	-0,040
-121,439	-200,000	-0,023	0,084
-120,424	-200,000	-0,019	-0,078
-119,410	-200,000	0,024	-0,158
-118,395	773,502	-0,041	-0,081
