DTS Sentinel unit serial number:	SN410029Multiplexer serial number:	ORYXHardware model number:	OX2-SRSoftware version number:	ORYX F/W v4,00 Oryx Data Collector v3.7.2.0data status	okinstallation	B5 Nyhavnadifferential loss correction	single-endedforward channel	channel 2reverse channel	N/Adate	2023/12/14time	02:22:13forward acquisition time	300,00reverse acquisition time	0,00gamma	499,1914k internal	0,3155k external	0,3155temperature offset calibration	1,0000default loss term (dB/km)	0,3820temperature slope calibration	1,0000multiplexer offset coefficient	1,0000multiplexer slope coefficient	1,0000fibre end	0,00T internal ref (°C)	8,55T ext. ref 1 (°C)	-7,75T ext. ref 2 (°C)	-7,78length (m)	temperature (°C)	Stokes	anti-Stokes-744,400	-110,850	0,267	0,040
-743,385	-155,880	-0,426	-0,020
-742,371	-200,000	-0,018	0,072
-741,356	-159,924	-0,248	0,010
-740,342	-161,305	0,160	0,006
-739,327	60,169	-0,252	-0,183
-738,312	800,000	-0,015	0,034
-737,298	-14,462	-0,350	-0,166
-736,283	-91,743	0,309	0,064
-735,269	-44,232	-0,525	-0,193
-734,254	109,526	0,203	0,180
-733,239	27,437	-0,459	-0,284
-732,225	-155,921	0,299	-0,014
-731,210	115,788	-0,011	0,010
-730,196	-200,000	0,009	-0,348
-729,181	35,519	0,044	-0,028
-728,167	351,885	-0,038	0,055
-727,152	-71,339	-0,027	-0,007
-726,137	-200,000	-0,009	0,065
-725,123	-17,788	-0,129	-0,060
-724,108	1,180	0,050	-0,026
-723,094	-105,647	0,110	-0,018
-722,079	52,556	-0,066	-0,046
-721,064	-173,959	0,107	-0,002
-720,050	-200,000	-0,008	0,083
-719,035	800,000	-0,033	0,093
-718,021	17,675	-0,089	-0,052
-717,006	24,968	0,102	-0,062
-715,991	-49,480	-0,169	-0,059
-714,977	242,224	-0,012	-0,015
-713,962	659,231	-0,053	-0,101
-712,948	118,870	0,020	0,018
-711,933	105,665	-0,067	0,058
-710,918	655,536	-0,031	-0,059
-709,904	-200,000	-0,000	-0,169
-708,889	392,936	0,072	-0,111
-707,875	-200,000	-0,026	-0,169
-706,860	141,912	-0,068	-0,067
-705,845	61,530	-0,215	-0,158
-704,831	-200,000	-0,018	0,080
-703,816	723,350	0,048	-0,094
-702,802	800,000	-0,036	-0,097
-701,787	6,176	-0,066	-0,036
-700,772	-103,660	-0,127	0,022
-699,758	50,451	0,038	-0,026
-698,743	800,000	0,032	-0,093
-697,729	66,651	0,126	0,095
-696,714	765,913	-0,042	0,085
-695,699	-200,000	0,010	-0,153
-694,685	-200,000	-0,003	-0,018
-693,670	-200,000	-0,009	-0,099
-692,656	-0,232	-0,026	-0,014
-691,641	531,536	-0,046	0,081
-690,627	-200,000	0,005	-0,104
-689,612	-200,000	-0,007	0,091
-688,597	-200,000	0,015	0,086
-687,583	800,000	-0,034	-0,088
-686,568	-200,000	-0,006	-0,143
-685,554	-96,234	-0,119	0,023
-684,539	800,000	0,077	-0,183
-683,524	800,000	-0,050	-0,139
-682,510	159,593	-0,100	0,103
-681,495	231,085	-0,060	-0,073
-680,481	227,127	0,032	0,039
-679,466	-200,000	-0,036	0,176
-678,451	-200,000	0,023	-0,133
-677,437	502,643	-0,033	0,057
-676,422	41,627	0,074	0,049
-675,408	800,000	-0,037	-0,090
-674,393	229,429	-0,072	0,087
-673,378	278,222	-0,092	-0,121
-672,364	800,000	0,050	-0,120
-671,349	-200,000	0,012	0,130
-670,335	35,596	0,033	-0,021
-669,320	78,652	-0,075	-0,059
-668,305	-200,000	0,024	0,081
-667,291	278,548	0,087	-0,115
-666,276	11,829	-0,095	-0,053
-665,262	431,515	0,051	-0,082
-664,247	782,444	0,081	-0,165
-663,232	-103,493	-0,153	-0,026
-662,218	-200,000	0,014	-0,051
-661,203	-200,000	0,010	0,046
-660,189	-165,409	-0,045	0,001
-659,174	-200,000	-0,010	-0,080
-658,159	-200,000	0,010	-0,068
-657,145	97,133	-0,076	0,064
-656,130	355,283	-0,053	-0,077
-655,116	3,493	0,019	0,010
-654,101	-150,555	0,055	0,003
-653,086	16,167	-0,109	0,063
-652,072	-200,000	0,028	0,125
-651,057	-185,739	-0,115	0,001
-650,043	111,848	-0,015	0,013
-649,028	125,809	-0,036	0,034
-648,014	-146,293	0,046	-0,003
-646,999	-200,000	0,001	-0,023
-645,984	-115,828	-0,099	-0,013
-644,970	-200,000	-0,011	0,053
-643,955	218,152	-0,041	-0,048
-642,941	174,065	-0,129	-0,137
-641,926	342,627	0,035	0,051
-640,911	-84,072	0,121	0,028
-639,897	171,003	-0,010	0,010
-638,882	560,583	0,064	-0,113
-637,868	289,079	-0,056	0,075
-636,853	800,000	-0,038	0,081
-635,838	322,582	-0,045	0,063
-634,824	-14,992	-0,055	-0,026
-633,809	-80,052	0,063	0,015
-632,795	-32,195	0,056	-0,023
-631,780	-200,000	-0,023	-0,110
-630,765	-134,426	-0,134	0,012
-629,751	118,390	-0,110	-0,100
-628,736	-200,000	-0,003	-0,146
-627,722	-121,590	0,059	-0,007
-626,707	78,744	0,112	0,088
-625,692	-104,332	0,183	0,031
-624,678	324,367	-0,064	-0,090
-623,663	731,738	0,035	-0,069
-622,649	245,191	-0,023	0,029
-621,634	-200,000	-0,004	0,015
-620,619	-187,449	-0,096	-0,001
-619,605	800,000	-0,059	0,120
-618,590	-81,474	0,091	-0,022
-617,576	-200,000	-0,005	-0,046
-616,561	10,548	0,137	0,076
-615,546	231,823	0,025	0,030
-614,532	800,000	-0,031	-0,078
-613,517	-200,000	-0,022	-0,200
-612,503	-61,722	0,050	-0,015
-611,488	-200,000	0,005	0,144
-610,474	31,652	-0,065	-0,041
-609,459	-200,000	0,066	0,000
-608,444	607,006	0,062	-0,115
-607,430	-49,856	0,042	0,014
-606,415	186,118	-0,024	-0,027
-605,401	22,574	0,109	0,065
-604,386	-75,830	0,120	0,031
-603,371	-200,000	0,001	0,185
-602,357	-155,992	0,070	-0,003
-601,342	-200,000	-0,008	-0,027
-600,328	-200,000	-0,011	-0,041
-599,313	318,964	-0,046	-0,065
-598,298	-88,220	0,087	-0,019
-597,284	712,103	0,044	0,086
-596,269	800,000	-0,030	-0,076
-595,255	800,000	-0,042	0,103
-594,240	-161,524	-0,066	-0,002
-593,225	-99,525	-0,184	0,034
-592,211	181,106	0,065	0,070
-591,196	-141,328	-0,099	0,007
-590,182	800,000	-0,026	0,058
-589,167	29,945	0,166	0,104
-588,152	-129,590	-0,074	0,007
-587,138	3,169	-0,057	0,031
-586,123	-200,000	0,001	0,028
-585,109	598,376	-0,069	0,126
-584,094	-107,571	0,031	-0,005
-583,079	-55,080	0,062	-0,021
-582,065	-112,656	-0,063	-0,009
-581,050	-200,000	0,000	-0,043
-580,036	218,385	-0,053	0,062
-579,021	238,836	-0,057	0,070
-578,006	-200,000	-0,011	-0,085
-576,992	425,054	0,088	0,139
-575,977	-129,711	-0,061	0,006
-574,963	-200,000	-0,011	-0,046
-573,948	221,551	0,032	0,038
-572,934	410,819	-0,033	0,051
-571,919	800,000	0,039	0,099
-570,904	779,389	-0,034	-0,069
-569,890	800,000	-0,043	0,120
-568,875	142,949	0,142	0,138
-567,861	189,162	0,074	0,081
-566,846	423,244	0,026	0,041
-565,831	-200,000	-0,005	-0,050
-564,817	-5,589	0,071	-0,036
-563,802	429,136	-0,074	-0,118
-562,788	382,607	-0,069	0,105
-561,773	800,000	0,015	0,043
-560,758	800,000	0,023	0,067
-559,744	-200,000	-0,020	0,103
-558,729	633,667	0,045	0,083
-557,715	800,000	-0,029	-0,092
-556,700	-132,139	-0,064	-0,006
-555,685	-200,000	0,007	0,110
-554,671	290,829	0,077	0,103
-553,656	800,000	0,053	0,125
-552,642	-40,773	-0,116	0,044
-551,627	97,889	0,042	0,036
-550,612	-200,000	-0,017	-0,065
-549,598	42,927	-0,093	-0,062
-548,583	-146,572	0,107	-0,007
-547,569	115,335	0,106	-0,094
-546,554	-40,304	-0,116	-0,044
-545,539	321,877	-0,037	-0,052
-544,525	-200,000	0,009	0,077
-543,510	-200,000	-0,007	0,057
-542,496	34,879	0,042	-0,027
-541,481	-200,000	0,007	-0,029
-540,466	-168,675	-0,087	-0,002
-539,452	-39,164	0,147	0,056
-538,437	-141,583	0,068	-0,005
-537,423	-200,000	0,043	0,185
-536,408	12,570	-0,019	-0,011
-535,393	68,871	0,069	-0,052
-534,379	36,980	-0,114	-0,074
-533,364	800,000	-0,028	0,062
-532,350	-80,545	-0,042	-0,010
-531,335	372,153	-0,056	0,083
-530,321	340,875	-0,037	0,053
-529,306	-200,000	0,006	-0,031
-528,291	800,000	0,037	-0,108
-527,277	800,000	0,034	-0,107
-526,262	108,607	-0,022	-0,020
-525,248	233,515	-0,041	0,049
-524,233	-71,181	0,118	-0,032
-523,218	218,456	-0,079	0,093
-522,204	455,106	-0,013	0,021
-521,189	800,000	0,028	-0,057
-520,175	800,000	0,077	-0,159
-519,160	271,509	-0,076	-0,099
-518,145	73,670	0,053	0,040
-517,131	-48,022	0,155	0,054
-516,116	500,366	-0,079	0,135
-515,102	333,170	0,017	-0,024
-514,087	184,691	0,066	-0,072
-513,072	-61,998	-0,088	-0,027
-512,058	210,543	-0,130	-0,149
-511,043	-200,000	0,013	-0,061
-510,029	354,620	0,114	0,167
-509,014	-200,000	-0,010	0,042
-507,999	12,059	-0,131	0,074
-506,985	800,000	0,038	-0,096
-505,970	161,147	-0,009	0,009
-504,956	-38,271	-0,076	-0,029
-503,941	131,550	0,168	-0,158
-502,926	-200,000	0,019	0,088
-501,912	113,356	0,005	0,005
-500,897	48,938	0,040	-0,027
-499,883	800,000	-0,017	0,050
-498,868	-82,308	-0,132	-0,031
-497,853	-200,000	-0,033	-0,159
-496,839	-14,621	0,075	-0,035
-495,824	61,330	0,060	-0,044
-494,810	800,000	0,035	0,077
-493,795	-200,000	-0,012	-0,130
-492,781	-136,694	0,043	0,004
-491,766	800,000	-0,038	-0,112
-490,751	200,771	-0,037	0,042
-489,737	-81,209	0,038	-0,009
-488,722	-200,000	0,010	0,043
-487,708	189,721	0,055	0,060
-486,693	-132,901	0,134	-0,012
-485,678	-56,031	-0,061	-0,020
-484,664	-200,000	-0,008	-0,144
-483,649	-53,968	0,078	0,026
-482,635	4,929	0,026	0,014
-481,620	-74,550	-0,069	-0,018
-480,605	-95,564	0,119	0,023
-479,591	-200,000	-0,002	0,018
-478,576	27,868	-0,048	-0,029
-477,562	506,373	-0,090	0,154
-476,547	39,017	-0,065	-0,043
-475,532	493,139	0,005	-0,008
-474,518	-139,137	0,117	0,009
-473,503	-17,354	0,157	-0,072
-472,489	-44,964	-0,026	-0,009
-471,474	-62,075	0,075	0,023
-470,459	86,196	-0,046	-0,037
-469,445	-48,961	-0,132	0,046
-468,430	50,665	-0,047	-0,033
-467,416	-55,011	-0,058	-0,019
-466,401	218,145	0,084	0,098
-465,386	54,301	0,138	0,097
-464,372	172,178	-0,034	-0,036
-463,357	-59,167	-0,077	-0,024
-462,343	211,537	-0,042	-0,048
-461,328	69,441	-0,024	0,018
-460,313	-200,000	-0,019	0,068
-459,299	405,469	-0,019	-0,029
-458,284	-44,644	0,008	0,003
-457,270	-131,123	0,085	0,008
-456,255	-200,000	0,014	0,075
-455,241	-200,000	-0,000	-0,045
-454,226	-200,000	-0,006	0,031
-453,211	-200,000	-0,014	-0,102
-452,197	145,686	0,085	0,083
-451,182	54,759	0,108	0,076
-450,168	-200,000	0,002	0,066
-449,153	-18,395	0,072	0,033
-448,138	-101,744	-0,119	-0,021
-447,124	179,719	-0,075	-0,081
-446,109	800,000	-0,028	-0,078
-445,095	114,475	0,053	0,047
-444,080	15,201	-0,072	0,041
-443,065	283,342	0,023	0,030
-442,051	-200,000	0,006	-0,051
-441,036	144,691	0,038	-0,037
-440,022	-200,000	0,016	0,087
-439,007	175,506	0,104	-0,110
-437,992	-57,824	0,086	-0,027
-436,978	326,702	0,033	-0,047
-435,963	173,867	-0,066	-0,070
-434,949	800,000	-0,045	0,124
-433,934	-102,101	0,053	0,009
-432,919	-139,474	0,053	0,004
-431,905	-200,000	-0,006	0,026
-430,890	2,151	-0,056	0,029
-429,876	800,000	-0,017	0,047
-428,861	30,087	0,061	-0,038
-427,846	-200,000	-0,004	-0,056
-426,832	-165,924	-0,102	0,003
-425,817	800,000	0,026	0,060
-424,803	800,000	-0,032	-0,081
-423,788	-70,595	0,037	0,010
-422,773	-200,000	0,016	0,084
-421,759	-200,000	0,039	0,185
-420,744	42,521	-0,032	0,021
-419,730	-200,000	-0,011	-0,180
-418,715	800,000	-0,011	-0,033
-417,701	-33,032	-0,034	-0,014
-416,686	-200,000	0,009	0,100
-415,671	-107,928	0,075	-0,012
-414,657	-43,393	0,049	-0,018
-413,642	35,235	-0,101	-0,065
-412,628	800,000	0,062	-0,142
-411,613	-67,847	-0,157	-0,044
-410,598	-84,088	0,073	0,017
-409,584	-62,208	0,140	0,042
-408,569	120,328	0,051	-0,046
-407,555	86,892	0,091	0,073
-406,540	-188,553	-0,074	0,001
-405,525	-200,000	-0,001	-0,076
-404,511	-6,454	0,070	-0,035
-403,496	362,012	-0,097	-0,142
-402,482	-200,000	-0,009	-0,103
-401,467	-88,137	-0,047	0,010
-400,452	-200,000	0,012	0,040
-399,438	-117,071	-0,105	-0,014
-398,423	-200,000	0,008	-0,030
-397,409	-63,962	0,075	-0,022
-396,394	-200,000	0,023	-0,264
-395,379	206,149	-0,073	-0,083
-394,365	-200,000	-0,015	0,148
-393,350	-200,000	0,014	0,055
-392,336	415,182	0,027	-0,043
-391,321	408,606	0,074	-0,115
-390,306	800,000	0,070	0,158
-389,292	-77,806	-0,023	-0,006
-388,277	280,477	-0,077	0,100
-387,263	800,000	-0,054	0,127
-386,248	-87,467	0,118	-0,026
-385,233	800,000	-0,020	0,051
-384,219	-86,919	0,071	-0,016
-383,204	-100,041	-0,104	0,019
-382,190	800,000	0,077	-0,158
-381,175	589,790	0,068	-0,123
-380,160	-200,000	0,023	-0,134
-379,146	200,426	0,069	-0,077
-378,131	800,000	0,042	0,094
-377,117	-36,813	0,041	0,016
-376,102	394,402	0,062	-0,094
-375,088	115,769	-0,001	-0,001
-374,073	263,872	-0,007	-0,009
-373,058	-159,446	-0,104	-0,004
-372,044	443,690	0,040	0,064
-371,029	-125,182	0,036	0,004
-370,015	258,551	0,076	0,095
-369,000	-86,853	0,082	-0,018
-367,985	-200,000	0,011	-0,090
-366,971	62,839	0,136	-0,099
-365,956	-200,000	0,004	-0,021
-364,942	150,429	0,019	0,018
-363,927	398,943	-0,030	0,046
-362,912	20,376	-0,104	0,061
-361,898	-200,000	-0,011	-0,035
-360,883	-200,000	-0,029	-0,164
-359,869	-62,909	0,085	-0,025
-358,854	-200,000	0,012	-0,089
-357,839	-103,374	0,097	-0,016
-356,825	-61,189	0,027	-0,008
-355,810	77,387	0,090	-0,070
-354,796	-121,367	-0,034	-0,004
-353,781	-200,000	0,011	-0,102
-352,766	-200,000	0,019	-0,089
-351,752	-200,000	0,001	0,044
-350,737	-200,000	0,031	0,114
-349,723	92,249	0,050	0,041
-348,708	65,959	-0,089	0,065
-347,693	-33,970	-0,110	0,044
-346,679	204,956	0,124	0,140
-345,664	417,212	0,057	-0,088
-344,650	231,426	0,092	-0,110
-343,635	786,264	-0,026	0,052
-342,620	27,630	-0,032	0,020
-341,606	62,817	-0,031	0,022
-340,591	-21,012	0,068	-0,030
-339,577	800,000	-0,029	-0,073
-338,562	-17,188	0,047	-0,022
-337,548	-102,088	0,024	-0,004
-336,533	-91,206	-0,011	-0,002
-335,518	800,000	0,032	0,092
-334,504	-105,205	-0,137	-0,023
-333,489	-200,000	-0,018	0,131
-332,475	174,148	0,054	-0,056
-331,460	-123,807	-0,088	0,010
-330,445	-33,208	0,077	0,031
-329,431	-92,453	-0,136	0,027
-328,416	223,882	0,062	-0,073
-327,402	800,000	-0,008	0,022
-326,387	-200,000	0,003	0,032
-325,372	-134,339	-0,085	-0,007
-324,358	800,000	-0,065	-0,137
-323,343	-141,587	-0,106	0,008
-322,329	-200,000	0,024	0,079
-321,314	-200,000	0,037	0,140
-320,299	394,452	-0,089	-0,136
-319,285	-200,000	0,044	-0,148
-318,270	-22,188	-0,131	0,057
-317,256	126,178	-0,066	0,061
-316,241	-168,946	-0,067	-0,002
-315,226	427,875	0,041	0,064
-314,212	-200,000	0,018	0,105
-313,197	793,382	-0,025	-0,051
-312,183	96,545	0,125	-0,104
-311,168	800,000	0,023	0,062
-310,153	-109,910	-0,170	-0,026
-309,139	-200,000	-0,003	0,026
-308,124	-200,000	0,019	-0,061
-307,110	346,185	0,084	0,120
-306,095	279,451	0,021	-0,027
-305,080	221,541	-0,086	0,101
-304,066	-200,000	-0,018	0,076
-303,051	199,247	0,049	-0,054
-302,037	577,516	-0,050	0,088
-301,022	-117,238	0,047	0,006
-300,008	-89,174	-0,081	-0,017
-298,993	-134,916	-0,198	0,017
-297,978	-66,812	-0,045	-0,013
-296,964	313,854	0,020	0,027
-295,949	259,356	-0,018	0,023
-294,935	-200,000	-0,024	-0,110
-293,920	665,807	-0,061	0,115
-292,905	-200,000	-0,016	0,079
-291,891	-63,999	-0,105	0,031
-290,876	-200,000	0,006	-0,109
-289,862	-84,794	0,107	-0,024
-288,847	265,428	0,053	0,067
-287,832	115,503	-0,094	0,083
-286,818	185,465	-0,005	0,006
-285,803	496,306	0,061	0,103
-284,789	-160,885	0,115	0,004
-283,774	32,369	-0,148	0,092
-282,759	800,000	0,034	-0,087
-281,745	0,791	-0,055	-0,028
-280,730	108,516	0,103	-0,089
-279,716	57,036	-0,074	-0,052
-278,701	94,232	-0,059	-0,049
-277,686	-74,883	-0,045	0,012
-276,672	134,989	-0,030	0,028
-275,657	-200,000	0,019	0,189
-274,643	-79,451	-0,114	0,028
-273,628	770,537	-0,085	-0,168
-272,613	-200,000	-0,032	-0,104
-271,599	-77,429	0,111	-0,028
-270,584	-200,000	0,002	0,162
-269,570	49,206	-0,054	-0,036
-268,555	-106,566	0,095	0,015
-267,540	-200,000	0,020	-0,068
-266,526	124,070	-0,057	-0,052
-265,511	88,633	0,074	0,060
-264,497	800,000	0,079	-0,167
-263,482	139,189	0,113	0,107
-262,467	-145,133	0,097	-0,006
-261,453	-104,746	0,050	0,008
-260,438	51,075	-0,020	-0,013
-259,424	413,368	0,048	0,074
-258,409	-167,804	-0,128	0,004
-257,395	-61,082	0,095	-0,029
-256,380	800,000	0,037	0,099
-255,365	50,613	0,042	0,029
-254,351	-131,580	-0,010	0,001
-253,336	800,000	-0,045	0,127
-252,322	456,933	-0,021	-0,034
-251,307	-23,689	-0,071	-0,031
-250,292	-120,683	0,108	-0,013
-249,278	-200,000	-0,015	-0,089
-248,263	63,171	0,016	-0,012
-247,249	7,859	0,110	-0,060
-246,234	-8,537	-0,129	0,063
-245,219	-86,048	-0,039	0,009
-244,205	-200,000	0,004	-0,094
-243,190	-200,000	0,002	0,046
-242,176	278,733	0,050	0,065
-241,161	229,593	0,078	0,092
-240,146	-200,000	0,019	0,111
-239,132	-200,000	0,022	0,170
-238,117	-156,802	-0,111	-0,005
-237,103	800,000	-0,010	-0,030
-236,088	-2,946	-0,041	-0,021
-235,073	262,883	-0,024	0,030
-234,059	203,614	0,071	0,079
-233,044	-200,000	0,003	0,055
-232,030	-200,000	0,001	-0,092
-231,015	800,000	0,057	0,117
-230,000	277,176	0,029	-0,037
-228,986	-148,000	-0,065	-0,004
-227,971	290,434	0,003	-0,004
-226,957	-122,385	0,136	0,016
-225,942	70,954	0,027	-0,021
-224,927	303,744	0,052	-0,070
-223,913	-181,476	-0,109	-0,002
-222,898	-67,838	-0,130	-0,036
-221,884	-97,851	-0,075	-0,014
-220,869	-58,697	0,069	0,021
-219,855	-126,116	0,048	0,005
-218,840	228,959	0,030	0,035
-217,825	145,032	-0,060	0,058
-216,811	146,340	0,034	0,033
-215,796	42,554	-0,116	0,076
-214,782	800,000	-0,007	0,020
-213,767	13,644	-0,040	-0,023
-212,752	23,513	0,169	0,100
-211,738	-114,797	-0,108	0,015
-210,723	-124,799	-0,175	-0,019
-209,709	-200,000	-0,025	-0,138
-208,694	-48,260	-0,133	-0,046
-207,679	-200,000	0,009	-0,085
-206,665	-200,000	-0,001	-0,158
-205,650	800,000	0,024	0,063
-204,636	25,598	-0,048	0,029
-203,621	-16,719	-0,119	0,054
-202,606	800,000	0,075	-0,173
-201,592	-200,000	-0,003	-0,108
-200,577	706,346	-0,066	-0,127
-199,563	-200,000	0,013	-0,063
-198,548	-200,000	0,012	0,086
-197,533	800,000	0,023	-0,047
-196,519	-200,000	0,006	-0,021
-195,504	-200,000	0,034	0,151
-194,490	-155,960	-0,037	-0,002
-193,475	-200,000	0,006	-0,094
-192,460	-200,000	0,006	0,080
-191,446	-200,000	-0,003	-0,070
-190,431	306,507	0,053	0,072
-189,417	102,990	0,023	-0,019
-188,402	-200,000	-0,008	0,050
-187,387	-200,000	0,005	-0,030
-186,373	-7,566	-0,135	-0,066
-185,358	-23,894	-0,090	-0,039
-184,344	-5,357	-0,051	-0,025
-183,329	164,834	0,062	0,063
-182,315	7,750	-0,096	-0,052
-181,300	55,355	-0,030	-0,021
-180,285	-200,000	0,008	0,061
-179,271	-200,000	0,017	-0,112
-178,256	-27,377	0,077	-0,032
-177,242	-200,000	-0,014	0,081
-176,227	800,000	0,036	0,114
-175,212	-134,860	-0,081	-0,007
-174,198	-16,949	-0,055	-0,025
-173,183	20,485	-0,111	-0,065
-172,169	46,535	-0,067	0,045
-171,154	-136,623	-0,076	-0,006
-170,139	-99,401	0,042	-0,008
-169,125	-200,000	-0,005	-0,015
-168,110	-129,958	0,082	0,008
-167,096	527,875	0,033	-0,056
-166,081	-136,245	-0,107	0,009
-165,066	172,527	-0,022	0,022
-164,052	800,000	0,054	-0,155
-163,037	-200,000	-0,045	0,152
-162,023	153,670	0,079	0,078
-161,008	83,587	-0,063	-0,050
-159,993	800,000	-0,010	0,027
-158,979	34,584	-0,022	-0,014
-157,964	-182,883	0,073	-0,001
-156,950	-200,000	0,005	0,088
-155,935	800,000	-0,023	-0,068
-154,920	526,274	-0,102	-0,174
-153,906	-200,000	0,011	-0,048
-152,891	800,000	-0,014	0,039
-151,877	-35,204	-0,124	0,049
-150,862	-139,003	-0,130	-0,010
-149,847	-99,998	-0,077	0,014
-148,833	-200,000	0,008	-0,047
-147,818	-147,065	0,045	0,003
-146,804	50,689	0,108	-0,074
-145,789	-200,000	-0,016	0,125
-144,775	75,324	0,070	-0,053
-143,760	-75,773	-0,168	0,043
-142,745	101,935	0,123	-0,104
-141,731	180,458	0,029	0,031
-140,716	800,000	-0,010	-0,021
-139,702	56,261	0,084	0,059
-138,687	15,182	-0,094	0,053
-137,672	469,612	0,070	0,114
-136,658	-48,239	-0,188	0,065
-135,643	800,000	-0,031	-0,081
-134,629	800,000	-0,031	-0,077
-133,614	-200,000	-0,052	0,189
-132,599	-163,409	0,074	0,002
-131,585	-88,037	-0,080	0,017
-130,570	-27,550	0,076	0,032
-129,556	-134,925	-0,183	-0,016
-128,541	-200,000	0,006	-0,037
-127,526	124,220	0,071	-0,064
-126,512	-15,123	0,151	-0,069
-125,497	201,357	0,110	0,122
-124,483	800,000	-0,037	0,094
-123,468	-200,000	0,026	0,129
-122,453	-146,054	-0,207	0,013
-121,439	6,598	0,072	0,039
-120,424	800,000	0,043	0,122
