DTS Sentinel unit serial number:	SN410029Multiplexer serial number:	ORYXHardware model number:	OX2-SRSoftware version number:	ORYX F/W v4,00 Oryx Data Collector v3.7.2.0data status	okinstallation	B5 Nyhavnadifferential loss correction	single-endedforward channel	channel 2reverse channel	N/Adate	2023/12/12time	07:27:13forward acquisition time	300,00reverse acquisition time	0,00gamma	499,1914k internal	0,3158k external	0,3158temperature offset calibration	1,0000default loss term (dB/km)	0,3820temperature slope calibration	1,0000multiplexer offset coefficient	1,0000multiplexer slope coefficient	1,0000fibre end	0,00T internal ref (°C)	15,14T ext. ref 1 (°C)	-1,15T ext. ref 2 (°C)	-1,45length (m)	temperature (°C)	Stokes	anti-Stokes-744,400	800,000	0,072	0,169
-743,385	-160,081	-0,291	-0,011
-742,371	28,189	0,136	0,085
-741,356	-125,752	-0,338	-0,037
-740,342	-155,539	0,087	0,004
-739,327	-138,163	-0,272	0,022
-738,312	-200,000	-0,009	0,109
-737,298	-102,747	-0,352	-0,061
-736,283	-25,048	0,133	0,058
-735,269	-95,232	-0,290	0,057
-734,254	-70,775	0,123	0,034
-733,239	12,361	-0,382	-0,217
-732,225	-182,086	0,251	-0,003
-731,210	-200,000	-0,007	0,035
-730,196	391,575	0,062	-0,095
-729,181	424,104	-0,034	-0,054
-728,167	282,642	0,045	-0,059
-727,152	-200,000	0,001	-0,023
-726,137	65,599	-0,071	-0,053
-725,123	-137,586	0,094	0,008
-724,108	69,747	-0,020	0,015
-723,094	679,455	-0,065	-0,125
-722,079	622,596	-0,047	-0,087
-721,064	800,000	-0,005	-0,011
-720,050	-103,855	-0,072	0,012
-719,035	416,948	-0,012	-0,019
-718,021	13,567	-0,149	-0,085
-717,006	181,199	-0,044	-0,047
-715,991	800,000	0,072	-0,152
-714,977	797,428	-0,037	-0,075
-713,962	331,645	-0,022	-0,031
-712,948	-110,927	0,121	0,018
-711,933	-200,000	-0,006	0,124
-710,918	-75,209	-0,079	0,021
-709,904	41,890	-0,111	-0,074
-708,889	103,805	0,121	-0,105
-707,875	-200,000	-0,002	-0,093
-706,860	-13,302	-0,081	-0,039
-705,845	83,533	0,065	-0,052
-704,831	-200,000	-0,010	-0,044
-703,816	-73,290	-0,050	-0,013
-702,802	-146,520	-0,111	-0,007
-701,787	-55,245	-0,123	-0,040
-700,772	141,340	0,046	-0,044
-699,758	249,463	0,017	0,021
-698,743	-12,204	0,042	-0,020
-697,729	-132,409	0,016	0,001
-696,714	800,000	0,054	-0,121
-695,699	248,617	-0,093	0,115
-694,685	-200,000	-0,030	-0,160
-693,670	-192,808	0,191	0,001
-692,656	176,920	-0,101	-0,108
-691,641	260,625	0,038	-0,048
-690,627	433,933	0,021	0,034
-689,612	-126,271	-0,053	-0,006
-688,597	147,001	-0,046	0,046
-687,583	164,700	-0,122	0,126
-686,568	-200,000	-0,001	0,014
-685,554	322,072	-0,035	0,049
-684,539	-200,000	0,010	0,157
-683,524	-200,000	0,002	0,009
-682,510	-175,515	-0,088	0,002
-681,495	-200,000	0,005	-0,065
-680,481	-31,072	-0,154	-0,064
-679,466	-200,000	0,010	-0,176
-678,451	38,709	-0,089	0,058
-677,437	800,000	-0,044	-0,120
-676,422	380,095	0,075	-0,113
-675,408	-106,641	0,112	-0,018
-674,393	-200,000	-0,001	0,075
-673,378	442,847	-0,039	-0,062
-672,364	-44,051	-0,178	0,066
-671,349	296,102	-0,057	0,076
-670,335	-99,384	-0,092	-0,017
-669,320	476,116	0,047	-0,078
-668,305	800,000	-0,045	-0,094
-667,291	643,340	-0,017	0,031
-666,276	25,192	-0,016	-0,010
-665,262	358,745	0,037	0,054
-664,247	210,205	-0,099	-0,115
-663,232	-65,157	-0,057	-0,017
-662,218	707,308	0,030	0,058
-661,203	221,072	-0,107	0,127
-660,189	14,114	0,060	0,034
-659,174	-78,241	-0,210	0,053
-658,159	444,921	-0,068	-0,110
-657,145	-28,384	-0,059	-0,025
-656,130	12,618	-0,045	0,025
-655,116	38,271	-0,043	-0,028
-654,101	800,000	0,073	-0,165
-653,086	-156,337	-0,113	0,005
-652,072	641,521	0,042	-0,078
-651,057	187,955	0,062	-0,068
-650,043	37,292	0,059	0,038
-649,028	485,827	-0,062	0,104
-648,014	524,641	-0,051	0,088
-646,999	-200,000	-0,009	0,148
-645,984	101,333	0,038	0,032
-644,970	43,061	-0,080	-0,054
-643,955	-200,000	-0,055	-0,197
-642,941	-28,354	-0,030	-0,013
-641,926	-94,373	-0,083	-0,017
-640,911	-14,263	-0,028	-0,013
-639,897	233,371	-0,043	-0,052
-638,882	9,590	0,087	-0,048
-637,868	148,429	0,011	0,011
-636,853	-66,483	-0,071	0,021
-635,838	800,000	-0,072	-0,154
-634,824	-200,000	0,034	-0,147
-633,809	-200,000	-0,017	-0,060
-632,795	-7,433	-0,100	-0,050
-631,780	-175,126	0,201	-0,004
-630,765	-200,000	-0,002	0,070
-629,751	-200,000	0,022	-0,084
-628,736	-200,000	-0,022	-0,088
-627,722	113,807	-0,080	0,072
-626,707	-100,195	0,186	0,034
-625,692	396,223	-0,069	0,106
-624,678	-29,890	-0,070	-0,029
-623,663	133,548	-0,043	0,041
-622,649	800,000	0,027	-0,070
-621,634	-26,641	-0,146	0,062
-620,619	413,123	-0,098	0,153
-619,605	-182,692	0,108	0,001
-618,590	-200,000	-0,002	0,047
-617,576	-113,768	0,105	-0,015
-616,561	180,669	0,002	-0,002
-615,546	-126,340	-0,173	-0,019
-614,532	800,000	-0,073	-0,151
-613,517	-119,015	0,053	0,007
-612,503	-200,000	0,007	-0,071
-611,488	54,580	0,153	-0,108
-610,474	-31,698	-0,111	-0,046
-609,459	-90,189	-0,124	-0,026
-608,444	84,659	0,177	-0,142
-607,430	-48,289	-0,159	-0,056
-606,415	-49,326	-0,131	0,046
-605,401	40,158	0,170	-0,112
-604,386	9,505	0,083	-0,046
-603,371	-44,487	0,043	0,016
-602,357	241,945	0,064	-0,079
-601,342	492,937	-0,035	-0,059
-600,328	-200,000	-0,035	-0,151
-599,313	-200,000	0,011	0,079
-598,298	-104,275	0,019	0,003
-597,284	252,224	-0,070	-0,087
-596,269	243,876	0,097	0,119
-595,255	598,494	0,053	-0,097
-594,240	-200,000	-0,003	0,065
-593,225	35,784	-0,081	-0,052
-592,211	800,000	0,034	-0,086
-591,196	-28,709	-0,088	0,037
-590,182	-46,575	0,068	-0,024
-589,167	230,651	-0,058	0,069
-588,152	-200,000	0,004	-0,015
-587,138	-200,000	0,006	-0,077
-586,123	-97,502	-0,056	-0,011
-585,109	-165,275	-0,099	0,003
-584,094	-200,000	-0,001	0,120
-583,079	-135,068	0,067	-0,006
-582,065	127,848	0,015	0,014
-581,050	-52,347	-0,116	0,039
-580,036	-200,000	0,002	0,142
-579,021	241,546	-0,053	-0,065
-578,006	-200,000	0,002	-0,111
-576,992	-132,804	0,070	-0,006
-575,977	442,589	0,086	0,139
-574,963	-12,226	0,040	0,019
-573,948	485,700	0,033	-0,056
-572,934	297,607	-0,084	-0,113
-571,919	800,000	0,019	-0,052
-570,904	168,515	-0,061	-0,063
-569,890	255,606	-0,023	0,029
-568,875	-72,549	0,018	-0,005
-567,861	43,762	-0,113	0,076
-566,846	32,194	-0,072	0,045
-565,831	3,427	-0,038	-0,020
-564,817	109,492	-0,143	-0,126
-563,802	-28,405	-0,111	0,046
-562,788	-69,685	0,099	0,028
-561,773	-200,000	0,014	0,115
-560,758	-88,465	0,208	0,045
-559,744	178,052	0,033	0,036
-558,729	-110,786	0,035	0,005
-557,715	800,000	-0,018	0,047
-556,700	-99,405	-0,071	-0,013
-555,685	41,362	-0,094	-0,062
-554,671	612,332	-0,027	0,050
-553,656	-200,000	-0,011	-0,089
-552,642	-90,971	0,084	-0,017
-551,627	800,000	-0,043	0,116
-550,612	800,000	-0,020	-0,044
-549,598	-200,000	-0,003	-0,055
-548,583	112,088	-0,016	-0,014
-547,569	-70,315	-0,073	-0,020
-546,554	-200,000	0,024	0,122
-545,539	155,259	0,049	0,049
-544,525	800,000	0,066	0,203
-543,510	-45,459	-0,097	0,035
-542,496	248,879	-0,093	-0,115
-541,481	-117,892	-0,067	0,009
-540,466	97,977	-0,090	-0,076
-539,452	104,769	0,089	-0,077
-538,437	-155,703	0,085	-0,004
-537,423	800,000	-0,049	0,113
-536,408	-200,000	0,003	0,111
-535,393	-144,270	-0,167	-0,011
-534,379	-73,553	0,070	-0,019
-533,364	-162,486	-0,193	-0,007
-532,350	-63,575	0,085	-0,025
-531,335	-17,480	0,140	0,064
-530,321	-112,843	-0,096	0,014
-529,306	800,000	0,033	-0,091
-528,291	-54,281	-0,075	-0,025
-527,277	148,388	0,032	-0,032
-526,262	-200,000	-0,007	0,045
-525,248	-165,440	0,071	-0,002
-524,233	-200,000	-0,018	0,100
-523,218	187,590	0,019	0,021
-522,204	96,702	-0,059	0,049
-521,189	-200,000	0,018	0,060
-520,175	134,696	0,035	-0,034
-519,160	613,878	0,069	-0,126
-518,145	800,000	0,083	0,216
-517,131	53,345	0,076	-0,053
-516,116	-128,301	0,053	-0,005
-515,102	-122,288	0,046	0,005
-514,087	-58,821	-0,087	-0,027
-513,072	-121,877	-0,108	-0,013
-512,058	-154,049	0,044	-0,002
-511,043	-200,000	-0,005	-0,064
-510,029	-200,000	-0,037	0,178
-509,014	-200,000	0,019	0,064
-507,999	-200,000	-0,003	0,034
-506,985	800,000	0,058	-0,143
-505,970	-112,599	-0,170	-0,024
-504,956	-200,000	0,064	-0,230
-503,941	70,696	-0,103	-0,078
-502,926	800,000	-0,033	-0,083
-501,912	72,005	0,061	-0,046
-500,897	-200,000	0,017	0,133
-499,883	-120,216	-0,077	-0,010
-498,868	164,677	0,019	-0,019
-497,853	-132,552	-0,043	0,004
-496,839	800,000	0,038	0,091
-495,824	218,507	0,038	-0,044
-494,810	-36,361	-0,108	-0,042
-493,795	-52,593	0,081	-0,027
-492,781	373,170	-0,057	-0,084
-491,766	632,697	-0,038	-0,071
-490,751	-200,000	-0,015	0,051
-489,737	-200,000	-0,029	0,130
-488,722	-34,570	0,178	0,071
-487,708	91,689	-0,100	-0,082
-486,693	-200,000	-0,013	-0,155
-485,678	-200,000	-0,007	-0,087
-484,664	-200,000	0,020	-0,077
-483,649	213,788	-0,086	-0,100
-482,635	-85,034	0,097	-0,022
-481,620	800,000	-0,042	-0,109
-480,605	-200,000	0,003	0,042
-479,591	-46,430	-0,083	-0,029
-478,576	493,520	-0,022	0,038
-477,562	-200,000	0,016	-0,072
-476,547	800,000	-0,019	-0,050
-475,532	39,326	0,018	-0,012
-474,518	-130,171	0,070	0,007
-473,503	530,054	-0,042	0,072
-472,489	117,177	0,123	-0,110
-471,474	46,448	-0,124	0,084
-470,459	-200,000	0,014	0,193
-469,445	800,000	-0,012	0,027
-468,430	800,000	-0,034	-0,087
-467,416	396,226	0,060	-0,092
-466,401	-200,000	0,008	0,129
-465,386	41,993	0,093	0,062
-464,372	32,609	-0,137	-0,086
-463,357	-121,174	0,077	0,009
-462,343	553,447	0,058	-0,103
-461,328	800,000	0,025	-0,068
-460,313	364,265	-0,059	0,087
-459,299	249,306	0,088	0,108
-458,284	-200,000	0,016	0,124
-457,270	-63,899	-0,055	-0,016
-456,255	-81,343	-0,032	-0,008
-455,241	122,011	0,139	0,127
-454,226	-200,000	-0,005	-0,042
-453,211	-124,693	-0,101	0,011
-452,197	6,416	0,088	0,048
-451,182	47,538	0,131	0,089
-450,168	-27,372	0,085	-0,036
-449,153	-74,902	-0,073	0,019
-448,138	-200,000	0,030	0,099
-447,124	-63,753	0,124	0,037
-446,109	-167,138	-0,117	0,003
-445,095	800,000	0,028	0,081
-444,080	-100,191	0,156	-0,028
-443,065	328,734	0,013	0,018
-442,051	-200,000	0,002	-0,035
-441,036	-104,097	-0,110	0,018
-440,022	-36,905	-0,091	-0,035
-439,007	-48,814	-0,083	-0,029
-437,992	-4,078	0,204	-0,103
-436,978	64,736	0,038	-0,028
-435,963	-200,000	-0,017	-0,072
-434,949	-75,775	-0,024	0,006
-433,934	13,805	0,154	-0,087
-432,919	-200,000	0,001	-0,006
-431,905	-200,000	0,039	-0,135
-430,890	1,413	0,027	0,014
-429,876	256,523	0,046	0,058
-428,861	-200,000	-0,014	0,105
-427,846	107,927	-0,035	0,030
-426,832	-47,485	-0,069	-0,024
-425,817	-8,483	-0,108	-0,053
-424,803	-200,000	-0,025	-0,083
-423,788	107,002	0,068	-0,059
-422,773	-200,000	-0,019	-0,102
-421,759	-200,000	0,004	0,117
-420,744	-30,650	0,158	0,065
-419,730	232,411	0,021	-0,025
-418,715	83,419	-0,112	0,088
-417,701	-200,000	-0,009	-0,087
-416,686	800,000	0,045	-0,094
-415,671	-111,095	-0,063	0,009
-414,657	-200,000	0,003	0,126
-413,642	137,626	0,048	0,046
-412,628	-111,506	-0,151	0,022
-411,613	62,794	-0,090	-0,066
-410,598	-23,695	0,032	-0,014
-409,584	-112,872	-0,103	-0,015
-408,569	539,788	0,004	0,007
-407,555	150,858	-0,068	0,067
-406,540	-67,906	0,103	-0,029
-405,525	-200,000	0,015	0,070
-404,511	-200,000	0,006	-0,078
-403,496	-86,715	-0,018	0,004
-402,482	93,260	0,086	-0,070
-401,467	-7,941	0,075	-0,036
-400,452	-200,000	0,007	0,088
-399,438	293,397	0,043	0,058
-398,423	-112,596	-0,167	0,024
-397,409	-200,000	0,014	-0,054
-396,394	27,989	0,066	-0,041
-395,379	297,138	-0,031	-0,041
-394,365	-52,960	-0,020	0,007
-393,350	-161,756	0,073	-0,003
-392,336	587,653	0,066	0,118
-391,321	359,683	-0,059	0,085
-390,306	800,000	-0,041	0,091
-389,292	800,000	0,070	-0,144
-388,277	284,934	0,054	0,071
-387,263	800,000	-0,018	-0,042
-386,248	273,908	-0,028	0,036
-385,233	357,481	-0,039	0,056
-384,219	-179,817	0,120	0,002
-383,204	-18,740	0,050	-0,023
-382,190	-40,199	0,035	-0,013
-381,175	105,801	-0,112	-0,096
-380,160	800,000	0,031	0,081
-379,146	100,627	-0,132	0,111
-378,131	-89,512	0,079	0,017
-377,117	-200,000	-0,005	-0,129
-376,102	800,000	0,009	0,025
-375,088	-200,000	-0,032	-0,145
-374,073	556,636	-0,084	0,148
-373,058	142,354	0,051	0,050
-372,044	215,646	-0,073	0,085
-371,029	54,875	0,076	0,053
-370,015	179,735	-0,056	0,059
-369,000	-200,000	-0,018	-0,097
-367,985	-111,236	0,134	0,020
-366,971	119,524	-0,054	-0,049
-365,956	-99,074	0,081	-0,015
-364,942	203,012	-0,046	-0,051
-363,927	-200,000	0,024	0,104
-362,912	61,360	0,051	0,037
-361,898	-50,378	-0,050	-0,017
-360,883	542,348	-0,029	-0,050
-359,869	-200,000	0,033	-0,206
-358,854	-90,780	-0,135	-0,028
-357,839	-129,707	0,099	0,010
-356,825	-33,709	0,045	0,018
-355,810	-200,000	-0,009	0,130
-354,796	335,297	-0,086	0,121
-353,781	19,449	-0,039	0,022
-352,766	-136,597	0,041	0,003
-351,752	-35,713	0,029	-0,011
-350,737	159,466	0,101	0,102
-349,723	345,932	0,040	0,057
-348,708	446,073	-0,084	-0,135
-347,693	92,333	-0,048	-0,039
-346,679	-12,166	0,126	-0,060
-345,664	198,451	0,097	0,108
-344,650	194,928	-0,067	0,073
-343,635	800,000	-0,024	0,067
-342,620	13,412	0,103	-0,058
-341,606	645,332	-0,032	0,060
-340,591	1,795	-0,028	-0,015
-339,577	241,109	0,080	-0,098
-338,562	-200,000	0,004	0,035
-337,548	152,998	-0,035	0,035
-336,533	-46,113	-0,001	0,000
-335,518	-200,000	0,005	-0,042
-334,504	-41,394	0,051	-0,019
-333,489	800,000	-0,033	0,086
-332,475	-84,531	-0,152	0,035
-331,460	605,714	0,033	-0,060
-330,445	-200,000	0,010	-0,052
-329,431	-54,440	0,033	0,011
-328,416	679,189	0,014	-0,027
-327,402	27,171	-0,040	0,024
-326,387	-200,000	0,004	0,032
-325,372	-130,211	-0,087	0,009
-324,358	800,000	-0,032	0,086
-323,343	-149,904	-0,128	-0,007
-322,329	197,189	-0,015	0,016
-321,314	-1,530	0,135	0,069
-320,299	231,525	0,062	0,074
-319,285	320,998	-0,014	0,019
-318,270	-200,000	0,008	-0,051
-317,256	141,486	-0,042	0,040
-316,241	800,000	-0,029	-0,093
-315,226	274,183	-0,051	0,065
-314,212	303,764	0,056	0,075
-313,197	-100,592	0,191	-0,034
-312,183	82,369	-0,039	-0,030
-311,168	58,651	-0,034	0,025
-310,153	-31,110	-0,099	-0,040
-309,139	-25,058	-0,023	0,010
-308,124	124,464	0,090	-0,082
-307,110	-200,000	0,006	0,049
-306,095	-30,894	0,219	0,089
-305,080	-200,000	0,013	-0,152
-304,066	800,000	-0,040	0,079
-303,051	229,988	0,085	-0,101
-302,037	-30,669	-0,049	-0,020
-301,022	164,478	0,101	0,104
-300,008	-132,721	0,130	-0,012
-298,993	-192,460	0,017	-0,000
-297,978	69,274	0,136	0,102
-296,964	800,000	-0,031	0,094
-295,949	116,981	0,097	-0,086
-294,935	31,752	-0,012	0,007
-293,920	800,000	0,006	-0,019
-292,905	9,763	0,053	0,029
-291,891	88,093	-0,042	0,034
-290,876	13,583	0,059	0,033
-289,862	-200,000	0,026	-0,117
-288,847	76,495	-0,109	-0,083
-287,832	800,000	-0,015	-0,045
-286,818	-90,739	-0,027	-0,006
-285,803	-41,655	0,144	-0,053
-284,789	800,000	0,013	-0,030
-283,774	83,812	0,063	-0,050
-282,759	178,737	0,095	-0,101
-281,745	-144,527	-0,165	-0,011
-280,730	-115,793	-0,044	0,006
-279,716	-77,387	-0,130	0,032
-278,701	-200,000	0,012	-0,042
-277,686	-200,000	0,022	0,089
-276,672	44,829	-0,119	-0,079
-275,657	-65,767	0,107	0,031
-274,643	800,000	-0,041	-0,106
-273,628	-141,070	-0,155	0,011
-272,613	-140,960	0,034	-0,002
-271,599	800,000	0,028	0,058
-270,584	-16,151	0,034	-0,016
-269,570	-28,156	-0,076	0,031
-268,555	160,493	0,022	0,022
-267,540	613,771	-0,096	0,175
-266,526	206,368	-0,061	-0,069
-265,511	-200,000	-0,018	-0,065
-264,497	168,601	-0,063	0,065
-263,482	-74,329	0,191	0,050
-262,467	485,143	-0,071	0,118
-261,453	800,000	0,036	0,113
-260,438	-64,123	0,088	-0,026
-259,424	-104,081	-0,036	-0,006
-258,409	46,367	0,080	-0,053
-257,395	46,899	-0,052	0,035
-256,380	-200,000	-0,014	-0,044
-255,365	-200,000	-0,002	0,205
-254,351	-200,000	0,008	-0,103
-253,336	-119,772	0,148	-0,018
-252,322	367,146	-0,065	0,095
-251,307	374,056	0,033	0,049
-250,292	259,674	0,050	-0,063
-249,278	91,304	0,121	0,098
-248,263	-78,503	0,062	0,015
-247,249	195,881	0,041	0,045
-246,234	-137,070	0,219	0,018
-245,219	616,767	-0,010	0,018
-244,205	-93,403	0,117	-0,023
-243,190	70,469	0,145	-0,108
-242,176	106,693	0,029	0,025
-241,161	-200,000	0,006	0,089
-240,146	-200,000	-0,031	0,118
-239,132	582,577	0,033	-0,059
-238,117	0,986	0,134	-0,069
-237,103	23,236	-0,050	0,030
-236,088	-200,000	0,043	-0,146
-235,073	153,749	0,056	0,056
-234,059	-200,000	-0,003	-0,141
-233,044	-53,669	-0,143	0,047
-232,030	357,453	-0,049	-0,071
-231,015	-200,000	0,004	0,020
-230,000	-75,261	-0,103	-0,026
-228,986	155,373	-0,053	0,053
-227,971	-200,000	-0,004	0,115
-226,957	800,000	0,036	0,081
-225,942	725,586	0,068	0,131
-224,927	346,502	-0,052	-0,074
-223,913	-73,875	0,023	0,006
-222,898	-75,235	0,057	0,015
-221,884	800,000	-0,021	-0,044
-220,869	-200,000	-0,005	0,023
-219,855	634,737	0,073	-0,135
-218,840	-34,105	-0,081	-0,032
-217,825	-154,754	0,115	0,005
-216,811	-15,349	-0,086	0,040
-215,796	58,369	-0,092	-0,065
-214,782	618,460	-0,105	0,191
-213,767	-200,000	0,012	0,074
-212,752	-200,000	-0,007	0,037
-211,738	121,720	0,063	-0,056
-210,723	755,128	-0,035	0,068
-209,709	-40,455	-0,138	-0,052
-208,694	208,392	-0,062	0,070
-207,679	-134,656	-0,126	-0,011
-206,665	-200,000	-0,013	-0,062
-205,650	150,505	0,039	0,038
-204,636	475,322	0,064	-0,104
-203,621	-36,058	-0,078	0,030
-202,606	30,958	0,091	0,056
-201,592	268,776	-0,028	-0,035
-200,577	-74,827	-0,102	0,026
-199,563	701,475	-0,080	-0,153
-198,548	631,976	0,039	-0,072
-197,533	800,000	-0,006	0,012
-196,519	125,952	-0,073	0,067
-195,504	-200,000	0,004	0,061
-194,490	-200,000	-0,007	-0,089
-193,475	-32,353	0,060	0,024
-192,460	800,000	-0,019	0,042
-191,446	-21,312	0,038	0,017
-190,431	-47,547	0,062	-0,022
-189,417	-200,000	0,003	-0,129
-188,402	-107,807	0,039	-0,006
-187,387	-200,000	0,063	-0,203
-186,373	800,000	-0,059	-0,157
-185,358	517,793	-0,035	0,059
-184,344	-98,908	-0,067	0,012
-183,329	289,296	-0,076	0,100
-182,315	-47,099	-0,090	0,032
-181,300	332,749	-0,013	0,018
-180,285	-200,000	0,002	-0,034
-179,271	-200,000	-0,026	0,000
-178,256	125,515	-0,041	0,038
-177,242	-159,450	0,175	-0,007
-176,227	800,000	0,053	0,127
-175,212	330,050	0,014	-0,019
-174,198	-200,000	-0,001	0,092
-173,183	-119,159	-0,022	-0,003
-172,169	800,000	0,025	0,052
-171,154	-200,000	-0,018	0,065
-170,139	800,000	0,065	0,164
-169,125	800,000	-0,068	0,150
-168,110	238,657	-0,080	0,096
-167,096	800,000	0,008	0,019
-166,081	-200,000	0,006	-0,049
-165,066	115,194	-0,011	0,010
-164,052	43,135	-0,022	0,015
-163,037	800,000	0,032	0,079
-162,023	201,236	0,101	-0,112
-161,008	800,000	0,052	-0,151
-159,993	423,513	-0,077	-0,120
-158,979	627,380	-0,005	0,010
-157,964	-200,000	-0,008	-0,031
-156,950	131,923	0,024	-0,022
-155,935	94,631	-0,090	-0,074
-154,920	-65,464	0,082	-0,023
-153,906	582,346	-0,045	0,079
-152,891	564,916	-0,030	-0,052
-151,877	17,073	0,034	-0,019
-150,862	60,695	0,066	0,047
-149,847	800,000	0,038	-0,099
-148,833	-200,000	0,021	-0,100
-147,818	70,126	-0,097	-0,072
-146,804	133,452	0,036	-0,033
-145,789	379,626	-0,029	0,042
-144,775	-200,000	0,002	0,014
-143,760	29,586	-0,103	-0,063
-142,745	800,000	-0,044	-0,127
-141,731	19,469	0,090	0,052
-140,716	538,124	0,034	-0,058
-139,702	800,000	0,022	0,052
-138,687	-200,000	0,007	-0,033
-137,672	120,058	-0,091	0,082
-136,658	153,012	-0,082	-0,081
-135,643	58,053	0,069	0,049
-134,629	-152,930	-0,099	0,005
-133,614	-56,975	0,091	0,029
-132,599	107,760	-0,024	-0,021
-131,585	-160,995	0,033	-0,001
-130,570	-200,000	0,000	-0,074
-129,556	-200,000	0,005	0,173
-128,541	180,653	0,043	0,046
-127,526	800,000	-0,035	-0,099
-126,512	-182,065	0,081	0,001
-125,497	533,459	-0,044	0,075
-124,483	800,000	0,028	0,070
-123,468	800,000	0,056	-0,119
-122,453	3,772	-0,099	0,052
-121,439	-60,229	-0,038	0,012
-120,424	166,799	0,026	0,027
