DTS Sentinel unit serial number:	SN410029Multiplexer serial number:	ORYXHardware model number:	OX2-SRSoftware version number:	ORYX F/W v4,00 Oryx Data Collector v3.7.2.0data status	okinstallation	B5 Nyhavnadifferential loss correction	single-endedforward channel	channel 2reverse channel	N/Adate	2023/12/14time	13:27:13forward acquisition time	300,00reverse acquisition time	0,00gamma	499,1914k internal	0,3157k external	0,3157temperature offset calibration	1,0000default loss term (dB/km)	0,3820temperature slope calibration	1,0000multiplexer offset coefficient	1,0000multiplexer slope coefficient	1,0000fibre end	0,00T internal ref (°C)	8,07T ext. ref 1 (°C)	-7,75T ext. ref 2 (°C)	-7,82length (m)	temperature (°C)	Stokes	anti-Stokes-744,400	-115,308	0,179	0,025
-743,385	-91,170	-0,315	-0,066
-742,371	-49,624	0,159	0,056
-741,356	-135,968	-0,415	-0,036
-740,342	192,302	0,230	0,256
-739,327	-27,431	-0,378	-0,161
-738,312	59,822	0,128	0,093
-737,298	-157,768	-0,459	-0,020
-736,283	-151,441	0,156	0,008
-735,269	-84,358	-0,257	-0,060
-734,254	-119,079	0,223	0,028
-733,239	33,949	-0,506	-0,324
-732,225	-33,433	0,348	0,141
-731,210	-200,000	-0,019	0,100
-730,196	-42,965	0,050	-0,019
-729,181	115,461	-0,103	-0,093
-728,167	-200,000	-0,010	-0,098
-727,152	800,000	-0,040	-0,084
-726,137	-200,000	0,002	-0,128
-725,123	-200,000	-0,022	-0,091
-724,108	403,097	-0,046	0,072
-723,094	-116,678	-0,088	-0,012
-722,079	-31,363	-0,150	0,062
-721,064	92,679	-0,047	-0,039
-720,050	-41,321	0,039	0,015
-719,035	-200,000	-0,015	0,085
-718,021	-61,828	0,036	-0,011
-717,006	800,000	-0,021	-0,061
-715,991	22,161	-0,201	-0,120
-714,977	-200,000	-0,004	0,091
-713,962	-200,000	-0,001	-0,117
-712,948	177,105	-0,049	0,052
-711,933	-22,614	0,053	0,024
-710,918	-13,833	0,078	0,037
-709,904	233,386	-0,089	-0,107
-708,889	133,378	-0,097	-0,093
-707,875	-129,883	-0,093	-0,009
-706,860	-200,000	0,002	-0,027
-705,845	568,766	0,017	0,031
-704,831	432,948	0,122	0,195
-703,816	379,732	-0,106	0,161
-702,802	422,246	-0,067	-0,107
-701,787	6,279	-0,088	-0,048
-700,772	-16,428	0,091	-0,042
-699,758	-2,567	-0,092	0,047
-698,743	800,000	0,064	0,135
-697,729	-200,000	0,003	-0,038
-696,714	332,203	0,066	-0,093
-695,699	92,918	-0,108	-0,090
-694,685	180,910	0,021	-0,023
-693,670	-200,000	0,003	-0,081
-692,656	-57,724	0,154	0,049
-691,641	800,000	0,013	0,026
-690,627	-200,000	-0,011	0,066
-689,612	292,732	-0,038	0,051
-688,597	584,488	0,052	-0,095
-687,583	-200,000	0,017	-0,086
-686,568	151,842	0,056	-0,056
-685,554	800,000	-0,059	-0,126
-684,539	-200,000	0,000	0,123
-683,524	-8,712	-0,077	0,038
-682,510	-2,590	-0,033	0,017
-681,495	800,000	0,029	0,085
-680,481	35,477	-0,068	0,044
-679,466	4,263	-0,120	0,064
-678,451	57,138	0,025	-0,018
-677,437	800,000	-0,057	0,132
-676,422	-148,586	0,090	0,005
-675,408	117,334	0,041	-0,038
-674,393	-200,000	0,001	0,061
-673,378	139,054	-0,075	-0,073
-672,364	224,206	-0,117	-0,139
-671,349	296,742	-0,042	0,057
-670,335	44,414	-0,116	0,078
-669,320	209,864	-0,094	0,108
-668,305	-200,000	0,005	-0,068
-667,291	90,785	-0,053	0,043
-666,276	-91,992	0,105	-0,022
-665,262	-200,000	0,010	-0,178
-664,247	308,150	-0,081	-0,111
-663,232	74,580	-0,053	-0,041
-662,218	166,315	0,043	0,045
-661,203	800,000	0,041	-0,085
-660,189	-166,162	-0,067	-0,002
-659,174	201,221	-0,071	-0,080
-658,159	-95,311	-0,096	0,019
-657,145	-128,780	0,055	0,006
-656,130	-57,183	0,080	0,026
-655,116	-200,000	0,019	0,089
-654,101	-200,000	0,026	0,102
-653,086	307,924	-0,086	-0,118
-652,072	9,885	-0,113	-0,063
-651,057	260,322	0,010	-0,012
-650,043	-200,000	-0,017	-0,115
-649,028	-55,625	-0,111	0,036
-648,014	623,710	0,036	0,067
-646,999	-22,694	0,137	0,060
-645,984	17,794	-0,104	0,061
-644,970	38,041	-0,131	0,086
-643,955	124,270	-0,045	0,042
-642,941	-89,839	0,069	0,015
-641,926	800,000	0,051	-0,108
-640,911	316,586	0,081	-0,113
-639,897	301,389	0,006	-0,009
-638,882	-24,074	0,053	-0,023
-637,868	-123,966	-0,148	-0,017
-636,853	-200,000	0,032	-0,126
-635,838	-200,000	-0,020	-0,117
-634,824	724,365	-0,021	-0,042
-633,809	190,739	-0,075	0,083
-632,795	-148,707	-0,019	-0,001
-631,780	800,000	0,032	0,086
-630,765	-36,919	-0,110	-0,043
-629,751	-200,000	0,040	-0,135
-628,736	800,000	-0,025	-0,059
-627,722	251,445	-0,058	0,072
-626,707	-200,000	-0,005	0,038
-625,692	164,182	0,037	0,038
-624,678	344,593	-0,072	0,103
-623,663	0,509	-0,078	-0,041
-622,649	173,828	-0,088	-0,093
-621,634	109,380	0,095	0,083
-620,619	-72,624	0,050	-0,014
-619,605	800,000	0,021	-0,058
-618,590	223,104	0,106	-0,125
-617,576	128,610	0,074	-0,069
-616,561	141,385	0,043	0,042
-615,546	68,258	-0,076	-0,057
-614,532	-134,092	-0,073	-0,007
-613,517	695,309	0,023	-0,045
-612,503	-51,885	0,091	0,031
-611,488	-31,866	-0,033	0,014
-610,474	-18,953	0,010	0,005
-609,459	81,261	0,068	0,054
-608,444	125,695	0,045	-0,042
-607,430	-200,000	0,020	-0,076
-606,415	701,398	0,030	-0,059
-605,401	-54,966	-0,152	0,050
-604,386	63,031	0,087	-0,064
-603,371	-41,651	0,092	0,034
-602,357	-121,612	0,027	-0,003
-601,342	-200,000	0,002	0,025
-600,328	34,711	-0,045	0,029
-599,313	-93,769	0,070	0,014
-598,298	-200,000	-0,015	0,226
-597,284	-200,000	-0,011	-0,037
-596,269	-146,078	-0,049	0,003
-595,255	211,531	-0,039	-0,045
-594,240	-16,890	-0,069	-0,032
-593,225	4,560	-0,119	-0,064
-592,211	800,000	0,042	-0,119
-591,196	144,797	-0,033	-0,032
-590,182	389,205	-0,027	0,040
-589,167	-199,068	0,141	-0,001
-588,152	-46,627	-0,051	-0,018
-587,138	-200,000	0,008	-0,157
-586,123	4,555	-0,125	-0,067
-585,109	105,499	0,181	-0,157
-584,094	638,783	0,054	-0,100
-583,079	66,261	0,107	0,080
-582,065	53,933	-0,035	-0,025
-581,050	57,947	0,034	0,024
-580,036	-200,000	-0,017	-0,065
-579,021	209,761	0,056	0,064
-578,006	-21,058	-0,121	-0,054
-576,992	-200,000	0,002	0,056
-575,977	43,834	0,072	0,048
-574,963	-121,151	0,121	0,015
-573,948	117,511	0,060	0,055
-572,934	142,797	0,075	-0,073
-571,919	-19,829	-0,094	0,042
-570,904	523,819	0,088	-0,153
-569,890	-200,000	-0,006	-0,152
-568,875	-200,000	-0,017	-0,065
-567,861	51,335	0,107	0,074
-566,846	135,302	0,012	0,011
-565,831	-137,552	-0,113	-0,009
-564,817	25,546	-0,042	0,025
-563,802	-119,398	-0,038	-0,005
-562,788	-104,758	-0,158	0,026
-561,773	-32,677	0,208	0,084
-560,758	-200,000	-0,024	0,085
-559,744	6,592	-0,011	-0,006
-558,729	11,348	0,076	0,042
-557,715	712,611	-0,033	-0,064
-556,700	-13,811	0,059	-0,028
-555,685	-82,756	0,066	-0,015
-554,671	-200,000	0,047	0,167
-553,656	-200,000	0,003	-0,048
-552,642	-200,000	0,015	0,077
-551,627	89,097	0,077	-0,063
-550,612	-200,000	0,012	-0,107
-549,598	694,932	0,025	0,048
-548,583	-200,000	0,021	0,116
-547,569	207,697	0,056	-0,065
-546,554	-200,000	-0,021	0,121
-545,539	-200,000	0,020	0,085
-544,525	-122,227	-0,054	0,006
-543,510	42,295	-0,027	-0,018
-542,496	-200,000	0,018	-0,102
-541,481	286,227	0,073	-0,097
-540,466	-83,931	0,034	-0,008
-539,452	-200,000	0,019	0,098
-538,437	-200,000	0,004	-0,051
-537,423	-167,403	-0,039	-0,001
-536,408	113,944	-0,057	-0,050
-535,393	-9,234	-0,074	0,036
-534,379	800,000	-0,034	-0,080
-533,364	-166,904	0,137	-0,004
-532,350	-58,533	-0,099	-0,031
-531,335	-120,221	0,076	-0,009
-530,321	-200,000	-0,039	0,128
-529,306	-53,351	0,053	-0,018
-528,291	111,014	0,021	-0,018
-527,277	-76,571	-0,074	-0,019
-526,262	-155,110	-0,103	0,005
-525,248	-200,000	0,048	0,156
-524,233	800,000	0,013	0,040
-523,218	111,255	-0,208	-0,183
-522,204	-200,000	0,002	0,021
-521,189	-200,000	-0,013	0,047
-520,175	-200,000	-0,006	-0,085
-519,160	-55,701	-0,051	0,017
-518,145	18,798	-0,083	-0,048
-517,131	53,800	0,124	0,087
-516,116	-19,654	0,164	0,074
-515,102	726,392	-0,014	0,027
-514,087	800,000	0,026	-0,074
-513,072	800,000	-0,065	-0,138
-512,058	164,141	0,064	-0,066
-511,043	800,000	0,031	0,068
-510,029	456,366	0,010	0,017
-509,014	-200,000	-0,005	0,035
-507,999	447,900	-0,101	0,163
-506,985	-66,168	-0,056	-0,016
-505,970	-106,940	-0,090	0,014
-504,956	-76,897	0,022	0,006
-503,941	145,003	0,063	-0,062
-502,926	-200,000	-0,009	0,161
-501,912	-200,000	-0,008	0,029
-500,897	800,000	-0,025	0,081
-499,883	-60,129	-0,100	-0,031
-498,868	330,908	0,084	-0,119
-497,853	-98,472	-0,078	-0,014
-496,839	80,338	-0,076	-0,060
-495,824	61,334	0,046	0,033
-494,810	293,633	0,078	-0,104
-493,795	800,000	0,014	0,033
-492,781	577,224	-0,017	-0,030
-491,766	19,694	-0,111	-0,065
-490,751	-200,000	0,032	-0,192
-489,737	800,000	-0,023	0,063
-488,722	-107,286	-0,134	-0,021
-487,708	-105,064	0,044	-0,007
-486,693	271,766	-0,067	0,086
-485,678	-200,000	0,003	0,018
-484,664	-43,334	0,033	-0,012
-483,649	41,981	-0,052	-0,034
-482,635	156,719	-0,039	-0,039
-481,620	-137,358	0,199	-0,016
-480,605	-112,363	0,085	0,012
-479,591	205,156	-0,034	-0,038
-478,576	-121,149	-0,115	0,014
-477,562	196,222	-0,157	0,174
-476,547	1,155	-0,101	-0,053
-475,532	-200,000	0,052	-0,209
-474,518	-200,000	0,091	0,000
-473,503	-57,761	-0,045	0,014
-472,489	800,000	0,012	0,034
-471,474	-53,030	0,149	0,050
-470,459	71,816	-0,131	-0,099
-469,445	800,000	-0,054	-0,111
-468,430	25,399	0,032	0,019
-467,416	800,000	-0,085	0,218
-466,401	-116,781	0,097	-0,013
-465,386	-200,000	0,010	-0,052
-464,372	781,239	-0,023	-0,046
-463,357	-108,110	0,086	0,014
-462,343	70,985	0,070	0,053
-461,328	-88,181	0,070	-0,015
-460,313	-15,575	0,076	-0,035
-459,299	411,288	0,096	0,149
-458,284	75,325	0,091	0,070
-457,270	151,232	-0,092	0,092
-456,255	54,342	0,012	0,008
-455,241	369,702	0,043	-0,064
-454,226	-68,394	-0,078	0,022
-453,211	480,242	0,017	0,029
-452,197	-149,667	0,070	0,004
-451,182	800,000	0,056	0,174
-450,168	-200,000	-0,014	0,102
-449,153	-29,762	-0,071	0,030
-448,138	-200,000	-0,019	0,105
-447,124	800,000	-0,017	0,040
-446,109	-101,815	-0,146	0,026
-445,095	-124,573	0,084	-0,009
-444,080	-48,411	-0,183	0,064
-443,065	-200,000	0,009	-0,063
-442,051	-200,000	-0,001	0,203
-441,036	-200,000	-0,005	-0,136
-440,022	-69,601	-0,136	0,038
-439,007	17,972	0,073	0,042
-437,992	-47,205	-0,089	0,032
-436,978	-167,371	0,248	-0,007
-435,963	-130,119	0,056	0,005
-434,949	21,979	-0,112	0,067
-433,934	-161,713	0,054	-0,002
-432,919	32,875	-0,082	-0,052
-431,905	-200,000	-0,005	-0,026
-430,890	-27,633	0,066	-0,028
-429,876	-200,000	-0,001	0,043
-428,861	-200,000	-0,029	0,214
-427,846	65,590	-0,053	-0,039
-426,832	-110,889	0,175	0,026
-425,817	-200,000	-0,002	0,079
-424,803	-151,593	0,145	-0,008
-423,788	146,987	0,056	0,055
-422,773	-70,353	0,156	0,043
-421,759	800,000	0,063	-0,127
-420,744	312,008	-0,130	-0,178
-419,730	576,471	-0,028	0,050
-418,715	-83,399	-0,035	0,008
-417,701	261,916	0,040	0,051
-416,686	-54,196	0,185	0,061
-415,671	183,516	-0,042	-0,045
-414,657	-188,835	0,063	0,001
-413,642	111,203	0,071	0,062
-412,628	14,315	-0,104	-0,059
-411,613	85,258	0,094	0,075
-410,598	128,361	0,074	0,069
-409,584	-173,386	-0,091	-0,002
-408,569	800,000	-0,029	0,064
-407,555	-30,659	0,175	-0,072
-406,540	800,000	0,030	0,087
-405,525	-1,586	-0,079	-0,041
-404,511	-200,000	-0,011	0,080
-403,496	-48,623	0,122	0,043
-402,482	539,417	-0,113	0,196
-401,467	126,821	0,046	0,043
-400,452	121,595	-0,016	-0,015
-399,438	-200,000	0,000	0,052
-398,423	-200,000	-0,019	0,125
-397,409	396,816	-0,095	-0,144
-396,394	800,000	-0,035	-0,083
-395,379	800,000	-0,021	-0,055
-394,365	-129,096	-0,108	0,011
-393,350	37,603	0,068	-0,044
-392,336	-124,883	0,081	-0,009
-391,321	37,589	-0,086	0,056
-390,306	24,460	-0,046	0,028
-389,292	800,000	-0,062	-0,137
-388,277	-3,201	-0,082	-0,041
-387,263	-106,438	0,118	0,019
-386,248	-200,000	0,008	0,046
-385,233	800,000	0,061	0,127
-384,219	-200,000	0,000	-0,131
-383,204	800,000	0,038	-0,082
-382,190	-200,000	-0,022	-0,119
-381,175	231,256	0,053	-0,064
-380,160	12,963	0,093	-0,052
-379,146	95,368	-0,035	0,029
-378,131	488,959	0,033	-0,056
-377,117	-200,000	0,007	-0,037
-376,102	800,000	-0,055	-0,170
-375,088	-200,000	-0,001	-0,129
-374,073	-45,160	-0,061	0,022
-373,058	800,000	0,081	0,165
-372,044	-200,000	0,026	-0,122
-371,029	-200,000	-0,017	-0,081
-370,015	216,536	-0,056	0,064
-369,000	-95,706	0,002	-0,000
-367,985	8,958	-0,172	0,094
-366,971	13,930	0,050	0,028
-365,956	-111,044	0,270	0,040
-364,942	-96,633	-0,115	-0,022
-363,927	494,663	-0,011	-0,018
-362,912	774,928	0,061	0,121
-361,898	245,151	-0,032	0,040
-360,883	800,000	0,039	-0,106
-359,869	-200,000	-0,001	-0,014
-358,854	800,000	0,042	-0,099
-357,839	16,323	0,032	-0,018
-356,825	-111,329	0,100	-0,015
-355,810	18,913	-0,046	-0,027
-354,796	-200,000	0,002	-0,060
-353,781	92,834	-0,107	-0,088
-352,766	43,671	-0,108	0,072
-351,752	-38,767	0,096	-0,037
-350,737	-200,000	-0,007	-0,030
-349,723	271,525	-0,041	0,053
-348,708	-4,366	-0,049	0,024
-347,693	66,315	-0,071	-0,052
-346,679	337,160	-0,060	-0,085
-345,664	-200,000	-0,004	-0,083
-344,650	-33,944	0,006	-0,002
-343,635	-101,644	-0,064	-0,011
-342,620	175,585	-0,024	0,025
-341,606	800,000	0,022	-0,053
-340,591	-200,000	-0,002	0,029
-339,577	26,610	-0,106	0,064
-338,562	141,044	0,138	-0,132
-337,548	-200,000	-0,035	0,136
-336,533	800,000	0,026	0,062
-335,518	-57,716	-0,076	-0,024
-334,504	-200,000	0,006	0,079
-333,489	149,655	0,075	-0,073
-332,475	-165,590	-0,107	0,003
-331,460	-0,719	-0,110	-0,057
-330,445	96,291	-0,054	-0,045
-329,431	800,000	0,046	0,105
-328,416	-200,000	0,002	0,139
-327,402	-200,000	-0,001	0,143
-326,387	487,238	-0,057	-0,094
-325,372	87,255	0,057	-0,045
-324,358	133,734	-0,078	-0,073
-323,343	-200,000	-0,037	-0,181
-322,329	-93,239	0,150	-0,030
-321,314	207,105	0,078	0,088
-320,299	-59,276	-0,090	-0,028
-319,285	36,666	0,131	0,083
-318,270	33,776	-0,107	-0,068
-317,256	-200,000	-0,000	-0,022
-316,241	-146,500	0,077	-0,005
-315,226	225,785	0,107	0,126
-314,212	-200,000	-0,006	0,090
-313,197	-200,000	-0,004	-0,017
-312,183	116,795	0,038	0,033
-311,168	-200,000	-0,018	0,065
-310,153	73,553	-0,047	-0,036
-309,139	-81,906	0,100	0,023
-308,124	357,381	-0,058	-0,084
-307,110	800,000	0,020	0,054
-306,095	800,000	-0,039	0,108
-305,080	-109,679	0,121	0,018
-304,066	-200,000	0,027	-0,093
-303,051	-26,337	0,034	0,014
-302,037	57,666	-0,126	0,090
-301,022	74,713	-0,066	-0,050
-300,008	268,504	0,096	0,123
-298,993	-200,000	-0,005	0,023
-297,978	-83,850	-0,169	0,039
-296,964	-200,000	-0,022	-0,129
-295,949	65,210	0,077	-0,056
-294,935	800,000	0,023	-0,046
-293,920	162,712	-0,150	0,153
-292,905	-200,000	-0,004	-0,052
-291,891	-200,000	0,005	0,132
-290,876	131,674	-0,041	-0,038
-289,862	-181,638	0,061	0,001
-288,847	800,000	-0,044	0,127
-287,832	425,299	0,044	-0,069
-286,818	103,652	0,028	-0,024
-285,803	-200,000	0,023	0,147
-284,789	800,000	-0,027	0,067
-283,774	226,824	0,090	0,106
-282,759	-200,000	0,018	-0,111
-281,745	-200,000	0,015	-0,148
-280,730	213,424	-0,062	-0,071
-279,716	-200,000	-0,017	0,061
-278,701	800,000	0,081	0,209
-277,686	-200,000	0,011	0,106
-276,672	800,000	0,058	0,133
-275,657	-49,808	-0,086	-0,030
-274,643	-175,147	-0,083	0,002
-273,628	143,897	0,043	-0,042
-272,613	32,991	0,052	0,033
-271,599	-200,000	0,024	-0,078
-270,584	737,773	-0,015	0,029
-269,570	-200,000	0,006	-0,028
-268,555	-174,639	-0,070	0,001
-267,540	722,833	-0,051	0,099
-266,526	-200,000	0,007	-0,075
-265,511	-200,000	-0,013	0,108
-264,497	55,239	0,042	-0,030
-263,482	-90,980	0,194	-0,040
-262,467	-200,000	0,026	0,112
-261,453	-200,000	-0,035	0,207
-260,438	93,984	0,061	-0,050
-259,424	-200,000	-0,002	0,025
-258,409	399,655	-0,016	-0,024
-257,395	50,491	0,146	0,100
-256,380	26,905	0,078	-0,047
-255,365	187,036	-0,038	0,041
-254,351	-71,328	0,146	-0,039
-253,336	89,849	-0,111	-0,090
-252,322	-73,366	0,123	0,032
-251,307	-62,852	0,146	-0,043
-250,292	800,000	0,052	0,120
-249,278	-34,045	0,061	-0,024
-248,263	-200,000	-0,000	-0,009
-247,249	800,000	-0,023	-0,058
-246,234	237,751	-0,048	-0,058
-245,219	120,194	0,081	-0,073
-244,205	-10,349	-0,109	-0,052
-243,190	-200,000	-0,007	-0,055
-242,176	86,236	0,040	0,032
-241,161	-94,808	-0,074	0,014
-240,146	192,220	0,008	-0,009
-239,132	-71,811	-0,041	0,011
-238,117	-72,319	-0,041	-0,011
-237,103	-160,514	0,041	-0,002
-236,088	143,456	0,027	0,026
-235,073	639,817	-0,051	0,095
-234,059	-73,598	0,128	0,033
-233,044	312,537	0,086	0,117
-232,030	459,352	-0,031	0,050
-231,015	267,391	-0,041	-0,051
-230,000	-200,000	-0,025	-0,095
-228,986	800,000	-0,025	-0,052
-227,971	52,897	0,052	-0,036
-226,957	180,704	0,049	-0,052
-225,942	-22,524	-0,068	0,030
-224,927	800,000	0,042	0,133
-223,913	142,201	-0,151	-0,145
-222,898	317,865	0,050	-0,068
-221,884	-61,465	-0,092	-0,028
-220,869	800,000	0,044	-0,127
-219,855	-200,000	-0,007	0,128
-218,840	-56,105	0,107	-0,034
-217,825	353,571	-0,068	-0,098
-216,811	212,426	0,058	-0,066
-215,796	-200,000	0,007	-0,065
-214,782	-88,805	-0,086	-0,018
-213,767	-111,331	0,128	0,019
-212,752	-200,000	-0,014	0,060
-211,738	800,000	0,030	0,085
-210,723	194,622	-0,036	-0,039
-209,709	-175,424	-0,034	-0,001
-208,694	800,000	0,022	0,055
-207,679	93,460	0,066	-0,054
-206,665	-20,962	-0,092	-0,041
-205,650	184,866	0,084	-0,090
-204,636	119,092	0,058	0,052
-203,621	-200,000	-0,027	0,101
-202,606	-200,000	-0,006	-0,082
-201,592	-36,971	-0,095	-0,037
-200,577	800,000	0,009	-0,027
-199,563	41,524	-0,100	0,065
-198,548	331,978	0,025	-0,035
-197,533	-46,924	-0,134	0,047
-196,519	-122,237	-0,142	0,017
-195,504	-200,000	0,010	-0,102
-194,490	96,337	-0,052	-0,043
-193,475	800,000	-0,040	-0,106
-192,460	-35,549	-0,107	0,042
-191,446	144,183	0,048	-0,046
-190,431	-92,072	-0,022	-0,004
-189,417	-101,094	-0,182	0,032
-188,402	-200,000	0,010	0,040
-187,387	-200,000	-0,003	-0,036
-186,373	350,495	-0,075	0,107
-185,358	-200,000	-0,019	-0,083
-184,344	-200,000	0,005	0,039
-183,329	800,000	-0,030	-0,077
-182,315	202,227	-0,016	0,018
-181,300	82,142	0,094	-0,073
-180,285	114,471	-0,078	-0,069
-179,271	800,000	-0,024	-0,049
-178,256	68,163	0,077	-0,057
-177,242	355,865	-0,078	0,113
-176,227	86,674	0,117	0,093
-175,212	-40,429	-0,090	-0,034
-174,198	-122,061	0,070	-0,008
-173,183	-0,052	-0,050	0,026
-172,169	-200,000	-0,001	-0,098
-171,154	89,434	-0,145	-0,117
-170,139	-150,265	0,048	-0,003
-169,125	800,000	-0,009	0,028
-168,110	-124,553	-0,040	-0,004
-167,096	139,977	0,033	-0,032
-166,081	-27,972	-0,080	-0,033
-165,066	732,502	0,023	0,044
-164,052	21,278	-0,086	0,050
-163,037	527,875	-0,037	0,063
-162,023	40,308	0,047	-0,030
-161,008	168,758	-0,087	0,090
-159,993	800,000	-0,039	-0,093
-158,979	35,209	-0,118	-0,075
-157,964	-10,161	0,006	-0,003
-156,950	358,859	-0,041	-0,059
-155,935	800,000	0,017	0,046
-154,920	146,136	-0,043	0,041
-153,906	-200,000	0,010	0,102
-152,891	-179,920	0,079	-0,001
-151,877	-98,437	-0,120	0,022
-150,862	306,201	-0,025	-0,033
-149,847	733,148	0,032	-0,062
-148,833	505,615	0,002	-0,004
-147,818	266,908	0,075	0,094
-146,804	-88,460	0,064	-0,014
-145,789	-200,000	-0,014	0,126
-144,775	-83,038	-0,059	-0,013
-143,760	-96,014	0,059	-0,011
-142,745	-126,398	-0,105	-0,011
-141,731	-200,000	0,001	0,048
-140,716	-46,708	0,113	0,040
-139,702	-200,000	0,017	0,078
-138,687	240,908	0,086	0,104
-137,672	-200,000	0,021	0,074
-136,658	-200,000	-0,011	-0,085
-135,643	596,723	0,031	-0,055
-134,629	378,308	-0,067	0,099
-133,614	194,419	0,054	-0,059
-132,599	-17,301	0,073	0,033
-131,585	-92,887	-0,046	0,009
-130,570	-200,000	0,004	-0,018
-129,556	0,348	-0,112	-0,057
-128,541	226,447	-0,121	-0,142
-127,526	655,146	-0,046	-0,086
-126,512	-3,695	0,073	0,036
-125,497	-98,287	-0,043	-0,008
-124,483	-136,058	0,175	-0,015
-123,468	-5,827	-0,094	0,046
-122,453	81,110	-0,044	-0,034
-121,439	800,000	0,021	-0,042
-120,424	366,287	0,059	-0,086
-119,410	-200,000	0,034	0,118
