DTS Sentinel unit serial number:	SN410029Multiplexer serial number:	ORYXHardware model number:	OX2-SRSoftware version number:	ORYX F/W v4,00 Oryx Data Collector v3.7.2.0data status	okinstallation	B5 Nyhavnadifferential loss correction	single-endedforward channel	channel 2reverse channel	N/Adate	2023/12/14time	16:52:13forward acquisition time	300,00reverse acquisition time	0,00gamma	499,1914k internal	0,3157k external	0,3157temperature offset calibration	1,0000default loss term (dB/km)	0,3820temperature slope calibration	1,0000multiplexer offset coefficient	1,0000multiplexer slope coefficient	1,0000fibre end	0,00T internal ref (°C)	8,07T ext. ref 1 (°C)	-7,33T ext. ref 2 (°C)	-7,38length (m)	temperature (°C)	Stokes	anti-Stokes-744,400	-9,041	0,111	-0,055
-743,385	-99,628	-0,298	-0,055
-742,371	-70,185	0,275	0,077
-741,356	-11,996	-0,203	-0,098
-740,342	211,507	0,157	0,182
-739,327	-67,403	-0,366	-0,105
-738,312	800,000	-0,040	0,091
-737,298	-68,049	-0,452	-0,129
-736,283	266,173	0,078	0,101
-735,269	-152,699	-0,395	-0,020
-734,254	-40,224	0,205	0,078
-733,239	-15,567	-0,542	-0,254
-732,225	-19,244	0,219	0,100
-731,210	-10,789	0,081	-0,039
-730,196	-200,000	0,018	0,123
-729,181	-200,000	-0,014	-0,109
-728,167	-40,226	-0,093	-0,036
-727,152	-200,000	-0,009	0,029
-726,137	-21,897	-0,111	-0,049
-725,123	354,090	-0,046	-0,068
-724,108	152,966	0,088	-0,089
-723,094	536,034	-0,026	0,046
-722,079	9,600	-0,178	-0,099
-721,064	144,330	-0,098	0,097
-720,050	246,115	0,052	-0,065
-719,035	-200,000	-0,015	-0,105
-718,021	-107,617	-0,149	0,024
-717,006	82,753	0,029	-0,023
-715,991	24,542	-0,176	-0,107
-714,977	222,540	-0,097	-0,116
-713,962	103,628	0,110	0,095
-712,948	236,953	0,086	-0,105
-711,933	-101,141	-0,085	0,015
-710,918	-200,000	0,007	-0,030
-709,904	-139,927	-0,056	-0,004
-708,889	18,801	-0,122	-0,072
-707,875	66,355	-0,090	-0,067
-706,860	-40,577	0,086	-0,033
-705,845	778,912	-0,029	0,058
-704,831	57,040	-0,066	0,047
-703,816	28,095	0,061	0,038
-702,802	-56,245	-0,158	-0,051
-701,787	-109,237	0,155	0,024
-700,772	800,000	-0,039	-0,102
-699,758	240,351	0,059	-0,073
-698,743	79,031	-0,040	-0,031
-697,729	686,235	0,069	0,134
-696,714	623,491	0,079	-0,147
-695,699	41,837	-0,014	-0,009
-694,685	-200,000	0,025	-0,101
-693,670	256,684	-0,110	-0,139
-692,656	-200,000	-0,030	-0,119
-691,641	81,138	-0,055	0,044
-690,627	-200,000	0,000	0,084
-689,612	-46,512	0,123	-0,044
-688,597	135,110	-0,083	-0,080
-687,583	614,957	-0,102	-0,189
-686,568	-74,605	0,126	0,033
-685,554	800,000	-0,038	-0,107
-684,539	179,357	-0,027	0,029
-683,524	-137,863	0,144	-0,012
-682,510	111,551	-0,056	0,050
-681,495	-200,000	-0,001	-0,042
-680,481	-110,132	-0,029	0,004
-679,466	60,932	-0,092	-0,067
-678,451	-200,000	-0,023	0,104
-677,437	-105,868	0,100	0,016
-676,422	-41,192	-0,190	-0,072
-675,408	88,363	-0,103	-0,084
-674,393	74,486	-0,030	0,023
-673,378	-200,000	0,017	-0,151
-672,364	272,601	-0,105	-0,137
-671,349	523,366	-0,034	-0,059
-670,335	141,355	-0,039	-0,038
-669,320	800,000	0,048	-0,144
-668,305	-131,520	0,148	-0,014
-667,291	738,273	-0,029	0,058
-666,276	-200,000	-0,016	-0,063
-665,262	-86,848	0,040	-0,009
-664,247	-200,000	0,041	-0,151
-663,232	324,418	0,107	-0,151
-662,218	-200,000	0,024	0,211
-661,203	266,176	0,015	-0,019
-660,189	197,108	-0,107	0,120
-659,174	800,000	-0,042	-0,093
-658,159	800,000	-0,029	0,068
-657,145	-200,000	-0,016	0,077
-656,130	-125,835	-0,134	0,015
-655,116	-200,000	-0,014	-0,088
-654,101	775,983	-0,056	0,113
-653,086	-200,000	0,001	0,092
-652,072	-150,035	-0,034	-0,002
-651,057	-200,000	-0,001	0,186
-650,043	800,000	-0,018	-0,053
-649,028	-39,652	-0,081	0,031
-648,014	-2,849	-0,087	0,045
-646,999	159,460	-0,109	-0,111
-645,984	800,000	-0,033	0,089
-644,970	57,658	-0,009	0,006
-643,955	-3,103	-0,090	-0,046
-642,941	117,107	0,057	0,051
-641,926	40,187	0,021	-0,014
-640,911	-122,965	0,096	0,011
-639,897	-84,642	0,082	0,019
-638,882	17,669	-0,081	0,047
-637,868	-200,000	0,012	-0,051
-636,853	32,477	-0,067	-0,042
-635,838	-200,000	-0,001	-0,055
-634,824	40,643	-0,017	0,011
-633,809	800,000	0,024	0,069
-632,795	-122,380	0,083	-0,010
-631,780	752,871	-0,056	0,111
-630,765	31,827	-0,089	0,056
-629,751	593,866	-0,044	0,080
-628,736	211,530	-0,033	0,038
-627,722	-68,575	0,011	0,003
-626,707	-200,000	0,019	0,098
-625,692	800,000	-0,028	-0,069
-624,678	800,000	0,045	-0,092
-623,663	213,908	0,118	0,137
-622,649	-200,000	-0,014	-0,073
-621,634	259,239	-0,089	-0,112
-620,619	86,791	-0,126	0,102
-619,605	800,000	0,034	0,091
-618,590	438,149	-0,010	0,016
-617,576	358,386	-0,045	0,066
-616,561	800,000	0,047	0,152
-615,546	295,903	-0,056	-0,076
-614,532	-200,000	-0,007	0,038
-613,517	-200,000	-0,038	-0,125
-612,503	153,172	-0,029	-0,029
-611,488	-100,586	0,018	0,003
-610,474	-96,036	0,102	-0,020
-609,459	326,718	-0,077	-0,108
-608,444	-200,000	-0,018	0,059
-607,430	106,009	0,081	-0,070
-606,415	-200,000	-0,011	-0,039
-605,401	156,064	-0,084	0,085
-604,386	-121,439	0,080	-0,010
-603,371	800,000	0,024	-0,050
-602,357	-200,000	-0,012	-0,072
-601,342	-94,557	-0,046	-0,009
-600,328	800,000	-0,027	-0,058
-599,313	110,113	0,026	0,023
-598,298	-200,000	0,023	-0,102
-597,284	100,855	0,067	0,058
-596,269	800,000	0,008	0,023
-595,255	800,000	0,011	0,028
-594,240	-200,000	-0,022	-0,084
-593,225	68,604	0,054	-0,040
-592,211	68,186	0,063	-0,047
-591,196	217,947	0,083	0,097
-590,182	47,143	0,083	0,057
-589,167	152,136	-0,068	0,068
-588,152	585,231	-0,023	0,041
-587,138	800,000	-0,028	-0,076
-586,123	185,627	0,012	-0,013
-585,109	-200,000	0,009	-0,057
-584,094	360,290	-0,092	-0,135
-583,079	19,685	-0,049	-0,029
-582,065	-17,859	-0,065	-0,030
-581,050	52,777	-0,068	0,048
-580,036	16,265	-0,092	-0,053
-579,021	38,053	-0,066	-0,043
-578,006	800,000	-0,067	-0,211
-576,992	800,000	0,032	-0,084
-575,977	-157,760	0,077	0,003
-574,963	-200,000	-0,019	0,113
-573,948	-43,981	-0,068	0,025
-572,934	-200,000	0,004	0,109
-571,919	800,000	0,002	0,005
-570,904	252,413	-0,014	-0,018
-569,890	800,000	0,042	-0,121
-568,875	-200,000	0,006	-0,117
-567,861	-45,813	0,073	0,026
-566,846	-185,068	0,130	-0,001
-565,831	-200,000	-0,006	0,119
-564,817	-91,748	0,074	-0,015
-563,802	496,341	-0,067	0,114
-562,788	-200,000	0,000	-0,120
-561,773	-62,146	0,038	-0,011
-560,758	-7,808	0,124	0,061
-559,744	168,867	0,024	0,025
-558,729	-17,995	0,115	0,053
-557,715	-169,772	-0,148	-0,004
-556,700	800,000	0,032	0,095
-555,685	-23,004	0,040	0,017
-554,671	736,579	0,072	0,143
-553,656	-1,245	0,078	-0,040
-552,642	-200,000	0,062	-0,200
-551,627	-200,000	-0,011	-0,039
-550,612	468,497	-0,036	0,059
-549,598	222,670	0,032	-0,037
-548,583	-99,280	-0,027	-0,005
-547,569	-14,261	0,028	0,013
-546,554	-151,013	0,045	-0,002
-545,539	-200,000	0,002	0,127
-544,525	-200,000	0,002	0,021
-543,510	164,688	0,048	0,050
-542,496	-113,344	-0,095	-0,013
-541,481	-57,224	0,130	0,042
-540,466	56,257	-0,040	0,029
-539,452	166,438	0,016	-0,017
-538,437	800,000	-0,044	-0,106
-537,423	66,380	0,019	-0,014
-536,408	48,782	0,027	-0,018
-535,393	61,299	0,038	-0,027
-534,379	50,069	-0,144	-0,099
-533,364	122,602	0,109	-0,100
-532,350	-200,000	0,009	-0,034
-531,335	-65,732	0,069	0,020
-530,321	-200,000	-0,026	0,144
-529,306	-108,512	-0,165	-0,026
-528,291	-111,481	0,062	0,009
-527,277	242,448	-0,023	0,028
-526,262	8,003	-0,126	0,069
-525,248	103,921	0,088	-0,075
-524,233	245,820	-0,049	-0,060
-523,218	800,000	0,006	-0,012
-522,204	-56,460	-0,130	-0,042
-521,189	88,047	-0,092	0,074
-520,175	23,283	0,127	0,076
-519,160	177,323	0,140	-0,149
-518,145	-98,501	-0,095	0,018
-517,131	800,000	-0,025	0,075
-516,116	800,000	0,005	-0,017
-515,102	451,758	-0,078	-0,127
-514,087	-131,534	0,085	0,008
-513,072	146,276	-0,057	-0,056
-512,058	-122,690	0,080	0,009
-511,043	-16,060	0,167	-0,077
-510,029	-170,635	-0,094	-0,002
-509,014	800,000	0,028	-0,057
-507,999	-23,158	0,097	0,042
-506,985	63,228	-0,115	0,084
-505,970	-200,000	0,002	0,109
-504,956	-200,000	0,019	0,072
-503,941	800,000	-0,036	0,110
-502,926	-106,142	-0,112	0,018
-501,912	-200,000	0,014	-0,077
-500,897	-200,000	-0,027	-0,095
-499,883	423,812	-0,056	-0,089
-498,868	800,000	-0,017	-0,052
-497,853	351,745	-0,053	-0,077
-496,839	653,717	0,067	0,125
-495,824	-170,788	-0,160	0,004
-494,810	-145,927	-0,108	0,007
-493,795	-5,088	-0,061	-0,031
-492,781	93,418	0,047	-0,039
-491,766	265,688	-0,041	-0,053
-490,751	-200,000	-0,022	-0,148
-489,737	75,683	0,050	0,039
-488,722	394,517	-0,056	0,086
-487,708	88,325	0,087	-0,071
-486,693	39,115	-0,120	0,078
-485,678	-200,000	0,008	0,166
-484,664	-200,000	-0,000	-0,063
-483,649	-200,000	0,016	-0,106
-482,635	800,000	0,040	-0,100
-481,620	800,000	-0,023	-0,054
-480,605	-106,353	0,030	0,005
-479,591	-58,414	0,036	-0,012
-478,576	333,331	-0,039	-0,055
-477,562	82,932	0,069	-0,054
-476,547	92,381	-0,067	0,055
-475,532	-19,466	0,139	-0,063
-474,518	404,719	-0,106	0,163
-473,503	520,097	0,027	0,047
-472,489	199,660	-0,032	0,035
-471,474	-200,000	0,021	0,072
-470,459	-200,000	-0,007	0,074
-469,445	-10,210	-0,084	-0,040
-468,430	96,590	-0,096	-0,080
-467,416	-26,662	0,058	0,024
-466,401	147,040	0,066	0,065
-465,386	688,368	0,035	-0,067
-464,372	-124,109	-0,084	-0,010
-463,357	-200,000	0,020	-0,116
-462,343	-26,225	-0,132	0,056
-461,328	-114,525	0,102	0,014
-460,313	28,696	0,055	0,034
-459,299	104,926	0,064	-0,055
-458,284	124,638	-0,021	0,019
-457,270	800,000	-0,046	0,113
-456,255	205,550	-0,053	-0,060
-455,241	-111,005	-0,019	0,003
-454,226	-172,324	0,031	-0,001
-453,211	-150,665	0,046	-0,003
-452,197	83,059	-0,048	0,038
-451,182	800,000	0,034	-0,076
-450,168	97,896	0,062	-0,052
-449,153	800,000	0,049	-0,115
-448,138	800,000	-0,076	-0,154
-447,124	-84,082	0,079	0,018
-446,109	64,995	0,099	0,073
-445,095	4,292	0,169	0,090
-444,080	-13,706	-0,090	0,042
-443,065	356,631	-0,110	-0,160
-442,051	800,000	0,031	0,063
-441,036	-200,000	-0,051	-0,000
-440,022	800,000	0,005	0,016
-439,007	800,000	-0,032	0,065
-437,992	64,115	0,097	-0,071
-436,978	-71,128	-0,086	-0,023
-435,963	800,000	0,023	-0,051
-434,949	-200,000	-0,003	-0,022
-433,934	-143,367	-0,213	0,015
-432,919	-51,925	-0,056	0,019
-431,905	748,798	0,061	0,120
-430,890	-60,205	-0,114	-0,035
-429,876	-55,293	-0,084	-0,027
-428,861	43,870	-0,037	0,025
-427,846	79,058	0,036	0,028
-426,832	-9,900	-0,025	-0,012
-425,817	-52,991	0,057	-0,019
-424,803	449,495	-0,057	-0,093
-423,788	368,456	0,026	-0,039
-422,773	316,683	-0,085	0,117
-421,759	-35,758	-0,141	-0,055
-420,744	150,073	0,087	-0,086
-419,730	110,695	0,064	0,056
-418,715	-31,956	0,070	0,028
-417,701	296,869	0,059	-0,079
-416,686	-200,000	0,024	-0,176
-415,671	50,700	0,009	0,006
-414,657	800,000	0,042	0,111
-413,642	-200,000	-0,015	0,159
-412,628	-33,982	-0,043	-0,017
-411,613	-200,000	-0,012	-0,073
-410,598	-76,357	-0,049	0,013
-409,584	91,637	0,075	0,061
-408,569	69,424	-0,072	0,054
-407,555	-1,211	0,157	0,080
-406,540	-97,400	0,053	0,010
-405,525	-159,042	-0,055	-0,002
-404,511	-200,000	-0,012	-0,140
-403,496	800,000	-0,044	-0,139
-402,482	-200,000	0,042	-0,147
-401,467	414,240	0,034	0,053
-400,452	33,534	0,149	0,094
-399,438	-200,000	0,061	0,226
-398,423	800,000	-0,030	0,078
-397,409	800,000	-0,021	-0,043
-396,394	-200,000	-0,020	0,079
-395,379	-120,463	0,072	0,009
-394,365	20,963	-0,042	-0,025
-393,350	600,207	0,078	0,142
-392,336	-200,000	-0,023	0,111
-391,321	336,010	-0,079	-0,112
-390,306	31,282	0,031	-0,019
-389,292	322,806	0,093	0,130
-388,277	-40,817	-0,038	-0,014
-387,263	8,271	0,085	-0,046
-386,248	800,000	0,045	0,105
-385,233	12,615	0,042	0,023
-384,219	-200,000	-0,043	-0,169
-383,204	-1,609	-0,175	-0,089
-382,190	-119,407	-0,103	0,013
-381,175	452,766	-0,066	-0,107
-380,160	-50,431	0,089	0,030
-379,146	-10,993	-0,074	0,035
-378,131	800,000	-0,038	0,082
-377,117	-93,099	0,052	-0,010
-376,102	-14,982	-0,133	0,062
-375,088	-200,000	0,000	-0,097
-374,073	-200,000	-0,003	0,015
-373,058	66,477	-0,077	0,057
-372,044	800,000	0,068	-0,165
-371,029	800,000	0,081	-0,185
-370,015	32,630	0,062	0,039
-369,000	14,249	-0,076	0,043
-367,985	-129,205	0,034	-0,003
-366,971	572,394	-0,013	0,023
-365,956	45,213	0,081	0,054
-364,942	469,430	0,091	0,149
-363,927	-32,724	-0,070	-0,028
-362,912	-78,730	-0,093	-0,023
-361,898	800,000	-0,064	0,140
-360,883	97,495	-0,024	0,020
-359,869	800,000	-0,033	-0,072
-358,854	166,847	-0,060	0,062
-357,839	-162,874	0,101	0,004
-356,825	319,870	-0,071	0,098
-355,810	52,994	-0,023	-0,016
-354,796	-200,000	-0,013	-0,109
-353,781	-200,000	0,013	0,043
-352,766	-140,700	0,069	0,005
-351,752	48,337	0,104	-0,071
-350,737	195,180	0,046	-0,051
-349,723	-200,000	0,008	-0,163
-348,708	-124,231	0,215	-0,024
-347,693	4,241	-0,041	-0,022
-346,679	-70,448	-0,145	-0,040
-345,664	-200,000	-0,016	-0,058
-344,650	-73,165	0,070	0,018
-343,635	90,756	-0,070	0,057
-342,620	800,000	0,013	-0,030
-341,606	647,664	0,014	0,026
-340,591	296,708	-0,062	-0,083
-339,577	81,920	0,074	-0,058
-338,562	-143,094	-0,032	-0,002
-337,548	49,643	0,079	-0,054
-336,533	-200,000	0,013	0,081
-335,518	-183,269	-0,048	0,001
-334,504	416,271	-0,050	0,078
-333,489	-22,084	0,082	-0,036
-332,475	54,242	-0,042	0,030
-331,460	461,476	-0,004	-0,007
-330,445	-176,624	0,057	0,001
-329,431	-177,072	-0,040	0,001
-328,416	143,091	0,032	-0,031
-327,402	-161,566	0,123	0,004
-326,387	-91,319	0,140	0,029
-325,372	0,834	-0,048	-0,025
-324,358	-200,000	0,000	-0,108
-323,343	-68,334	0,035	-0,010
-322,329	800,000	0,030	0,071
-321,314	-200,000	0,010	-0,076
-320,299	800,000	0,092	0,240
-319,285	38,612	-0,104	0,067
-318,270	-113,904	-0,067	0,009
-317,256	83,613	-0,015	-0,012
-316,241	71,235	0,096	0,072
-315,226	21,413	0,042	0,025
-314,212	-63,271	0,216	-0,064
-313,197	-158,276	-0,087	0,004
-312,183	-71,325	-0,096	-0,026
-311,168	109,257	0,121	0,105
-310,153	18,834	-0,127	0,074
-309,139	800,000	0,047	-0,116
-308,124	-111,366	-0,088	0,013
-307,110	578,306	0,040	0,071
-306,095	800,000	0,029	-0,068
-305,080	-44,947	-0,077	0,028
-304,066	11,394	0,089	0,049
-303,051	800,000	0,011	-0,032
-302,037	357,351	0,097	-0,141
-301,022	565,070	-0,033	0,059
-300,008	102,722	0,029	0,025
-298,993	800,000	-0,007	0,014
-297,978	800,000	0,048	-0,108
-296,964	114,981	0,062	0,055
-295,949	-200,000	-0,042	-0,154
-294,935	69,387	0,084	-0,062
-293,920	800,000	-0,060	-0,160
-292,905	482,684	0,061	-0,101
-291,891	-47,777	0,029	-0,010
-290,876	266,799	0,039	-0,050
-289,862	-21,281	-0,104	0,046
-288,847	-200,000	-0,005	-0,063
-287,832	20,945	-0,060	-0,035
-286,818	67,212	0,059	0,044
-285,803	-89,067	0,117	0,025
-284,789	-200,000	0,009	0,080
-283,774	-121,270	-0,105	0,013
-282,759	-109,501	0,048	0,007
-281,745	23,894	0,089	-0,053
-280,730	280,226	0,018	-0,023
-279,716	97,454	-0,088	-0,073
-278,701	343,361	0,054	0,076
-277,686	80,989	0,078	-0,061
-276,672	-33,767	-0,187	0,074
-275,657	221,622	-0,056	0,065
-274,643	191,765	0,092	-0,100
-273,628	747,672	-0,057	-0,112
-272,613	-25,361	0,049	-0,021
-271,599	-200,000	-0,007	0,052
-270,584	-200,000	-0,009	0,108
-269,570	800,000	-0,062	0,154
-268,555	800,000	-0,003	0,008
-267,540	-95,444	-0,129	0,025
-266,526	800,000	-0,031	-0,076
-265,511	3,542	-0,101	-0,053
-264,497	-58,025	0,254	-0,080
-263,482	83,846	-0,059	0,046
-262,467	222,084	-0,051	0,059
-261,453	-35,853	-0,105	0,041
-260,438	88,766	-0,111	-0,089
-259,424	-200,000	0,005	0,030
-258,409	-24,658	0,046	-0,020
-257,395	386,302	-0,031	-0,046
-256,380	-67,174	0,106	0,030
-255,365	-200,000	0,000	0,118
-254,351	800,000	0,039	-0,096
-253,336	-200,000	0,001	-0,041
-252,322	-87,764	-0,139	-0,030
-251,307	-200,000	0,012	-0,076
-250,292	35,791	-0,036	-0,023
-249,278	-161,374	0,178	-0,007
-248,263	115,949	0,081	0,072
-247,249	-200,000	-0,005	0,038
-246,234	-166,077	0,077	-0,002
-245,219	-200,000	-0,021	-0,109
-244,205	-200,000	-0,020	0,163
-243,190	-200,000	-0,027	-0,137
-242,176	-200,000	0,004	-0,015
-241,161	601,554	-0,039	0,071
-240,146	55,725	0,076	0,053
-239,132	-46,659	0,154	0,054
-238,117	-191,584	-0,162	0,001
-237,103	371,710	0,040	0,060
-236,088	-70,070	0,058	-0,016
-235,073	32,700	0,030	0,019
-234,059	662,636	0,011	0,021
-233,044	-200,000	-0,017	0,073
-232,030	800,000	-0,018	0,049
-231,015	36,250	0,049	-0,031
-230,000	-36,087	-0,112	0,044
-228,986	-200,000	0,012	0,127
-227,971	-57,476	-0,135	0,042
-226,957	295,051	0,025	-0,034
-225,942	25,781	0,126	0,076
-224,927	-33,193	-0,079	0,032
-223,913	-127,820	-0,076	0,008
-222,898	-200,000	-0,028	-0,091
-221,884	6,924	-0,076	0,041
-220,869	-200,000	-0,012	0,204
-219,855	-200,000	-0,002	0,064
-218,840	-42,323	0,094	0,035
-217,825	86,795	0,085	-0,068
-216,811	800,000	-0,008	0,023
-215,796	-14,439	0,126	0,058
-214,782	-112,350	-0,058	0,008
-213,767	800,000	0,006	0,014
-212,752	800,000	-0,043	0,105
-211,738	-102,784	0,086	-0,015
-210,723	-145,195	-0,113	-0,007
-209,709	-74,652	-0,061	0,016
-208,694	-164,846	-0,046	-0,001
-207,679	10,203	0,084	0,046
-206,665	36,876	0,082	-0,052
-205,650	800,000	0,052	0,121
-204,636	-200,000	-0,028	0,102
-203,621	-200,000	0,005	0,087
-202,606	-200,000	0,021	0,087
-201,592	24,149	-0,039	0,023
-200,577	-64,966	0,142	0,041
-199,563	679,625	0,039	0,073
-198,548	17,208	0,101	-0,058
-197,533	376,765	-0,051	0,075
-196,519	-200,000	-0,012	0,110
-195,504	324,011	-0,074	-0,103
-194,490	106,138	0,115	-0,099
-193,475	-200,000	0,016	0,181
-192,460	112,124	0,121	-0,106
-191,446	-200,000	0,009	0,080
-190,431	800,000	0,011	0,032
-189,417	-162,625	-0,026	0,001
-188,402	752,946	0,028	0,056
-187,387	800,000	-0,072	-0,150
-186,373	-200,000	0,020	-0,092
-185,358	-200,000	-0,011	-0,135
-184,344	-200,000	0,006	0,024
-183,329	-200,000	-0,023	-0,127
-182,315	339,805	0,107	-0,151
-181,300	43,125	-0,142	-0,093
-180,285	-200,000	-0,001	-0,016
-179,271	-12,089	-0,143	0,067
-178,256	28,580	0,108	0,066
-177,242	-22,065	-0,178	0,078
-176,227	569,783	0,101	0,178
-175,212	-200,000	0,011	0,129
-174,198	-200,000	0,009	-0,044
-173,183	-118,270	-0,110	0,014
-172,169	800,000	-0,008	0,018
-171,154	-55,687	-0,019	-0,006
-170,139	-74,944	-0,108	0,028
-169,125	328,965	0,018	0,025
-168,110	-36,237	0,031	-0,012
-167,096	272,160	-0,108	-0,138
-166,081	800,000	-0,021	0,053
-165,066	257,325	-0,080	0,099
-164,052	800,000	-0,023	-0,050
-163,037	174,509	0,113	-0,118
-162,023	23,720	-0,092	0,054
-161,008	155,502	-0,041	0,041
-159,993	-111,345	0,112	0,016
-158,979	-38,242	-0,114	0,043
-157,964	262,187	-0,108	-0,135
-156,950	-40,102	0,007	0,003
-155,935	-36,896	0,061	-0,023
-154,920	642,524	0,031	-0,057
-153,906	800,000	-0,038	-0,110
-152,891	-11,163	0,214	-0,101
-151,877	176,327	0,029	-0,030
-150,862	75,834	0,021	-0,016
-149,847	150,918	0,084	-0,082
-148,833	106,262	0,028	0,024
-147,818	5,176	0,032	0,017
-146,804	92,373	0,083	0,067
-145,789	-200,000	0,028	0,183
-144,775	105,768	-0,133	-0,113
-143,760	-200,000	0,045	-0,159
-142,745	84,593	-0,025	0,019
-141,731	-200,000	0,002	0,078
-140,716	800,000	0,019	-0,040
-139,702	96,707	0,140	-0,115
-138,687	45,522	-0,137	0,091
-137,672	259,121	0,066	-0,082
-136,658	-22,865	-0,061	0,026
-135,643	335,746	-0,045	0,063
-134,629	203,239	-0,017	0,019
-133,614	-200,000	0,016	0,069
-132,599	-48,328	-0,108	-0,037
-131,585	-200,000	-0,008	0,112
-130,570	800,000	0,058	0,154
-129,556	285,748	-0,096	-0,125
-128,541	-87,419	-0,058	0,012
-127,526	800,000	0,059	0,117
-126,512	-200,000	-0,016	0,077
-125,497	-21,650	0,114	0,050
-124,483	-200,000	0,000	0,076
-123,468	-200,000	-0,035	-0,112
-122,453	176,337	-0,050	-0,052
-121,439	-200,000	0,013	-0,173
-120,424	-200,000	-0,000	-0,084
-119,410	182,047	0,074	0,078
-118,395	156,402	0,007	-0,007
