DTS Sentinel unit serial number:	SN410029Multiplexer serial number:	ORYXHardware model number:	OX2-SRSoftware version number:	ORYX F/W v4,00 Oryx Data Collector v3.7.2.0data status	okinstallation	B5 Nyhavnadifferential loss correction	single-endedforward channel	channel 2reverse channel	N/Adate	2023/12/14time	06:02:13forward acquisition time	300,00reverse acquisition time	0,00gamma	499,1914k internal	0,3158k external	0,3158temperature offset calibration	1,0000default loss term (dB/km)	0,3820temperature slope calibration	1,0000multiplexer offset coefficient	1,0000multiplexer slope coefficient	1,0000fibre end	0,00T internal ref (°C)	7,63T ext. ref 1 (°C)	-8,79T ext. ref 2 (°C)	-8,91length (m)	temperature (°C)	Stokes	anti-Stokes-744,400	-125,081	0,123	0,014
-743,385	-53,140	-0,369	-0,124
-742,371	-30,839	0,220	0,091
-741,356	-68,474	-0,380	-0,108
-740,342	-53,839	0,228	0,076
-739,327	43,848	-0,375	-0,253
-738,312	-43,201	0,226	0,084
-737,298	11,314	-0,449	-0,253
-736,283	34,394	0,103	0,066
-735,269	-128,037	-0,400	-0,042
-734,254	1,107	0,180	0,095
-733,239	14,625	-0,537	-0,308
-732,225	-125,879	0,241	-0,026
-731,210	-200,000	0,009	0,126
-730,196	-87,917	0,068	-0,015
-729,181	800,000	-0,051	-0,123
-728,167	225,147	-0,085	-0,102
-727,152	800,000	0,024	-0,063
-726,137	561,977	-0,031	-0,055
-725,123	-21,629	-0,122	-0,055
-724,108	511,095	0,020	-0,035
-723,094	132,129	0,113	-0,108
-722,079	78,854	-0,096	-0,076
-721,064	87,214	0,036	0,029
-720,050	-47,914	-0,157	0,056
-719,035	-200,000	-0,016	-0,170
-718,021	162,630	0,010	-0,011
-717,006	389,407	-0,066	0,100
-715,991	-4,687	-0,095	-0,048
-714,977	-200,000	-0,036	-0,122
-713,962	137,909	0,043	-0,041
-712,948	800,000	0,016	0,048
-711,933	222,669	0,036	0,042
-710,918	62,541	-0,042	-0,031
-709,904	106,391	-0,052	-0,046
-708,889	207,701	0,041	0,048
-707,875	-26,553	-0,088	-0,038
-706,860	279,230	0,054	-0,071
-705,845	46,966	-0,026	0,018
-704,831	75,444	-0,014	-0,011
-703,816	147,910	-0,029	-0,028
-702,802	293,868	-0,066	0,089
-701,787	183,998	-0,048	-0,052
-700,772	800,000	0,034	-0,105
-699,758	660,228	0,061	-0,117
-698,743	800,000	0,031	-0,095
-697,729	143,690	0,073	-0,071
-696,714	-116,295	0,035	-0,005
-695,699	1,419	-0,058	0,031
-694,685	74,160	-0,053	0,041
-693,670	20,599	-0,036	0,021
-692,656	63,340	-0,098	-0,072
-691,641	800,000	-0,008	0,021
-690,627	-120,808	0,020	-0,002
-689,612	51,312	-0,060	0,042
-688,597	45,079	0,089	-0,060
-687,583	-200,000	-0,010	-0,063
-686,568	331,115	-0,089	-0,127
-685,554	-200,000	-0,055	-0,183
-684,539	-74,037	0,208	-0,055
-683,524	-200,000	-0,001	-0,089
-682,510	800,000	0,010	0,023
-681,495	-66,811	-0,188	-0,054
-680,481	-200,000	0,009	-0,055
-679,466	-104,905	-0,190	-0,032
-678,451	-200,000	-0,021	-0,146
-677,437	-200,000	-0,017	0,177
-676,422	-129,021	-0,070	-0,007
-675,408	91,648	0,095	0,078
-674,393	800,000	-0,046	0,105
-673,378	518,221	-0,064	-0,111
-672,364	800,000	-0,056	-0,121
-671,349	665,353	-0,066	-0,126
-670,335	142,100	-0,048	-0,046
-669,320	-200,000	-0,011	-0,036
-668,305	-200,000	-0,005	-0,016
-667,291	800,000	-0,033	-0,090
-666,276	639,051	-0,049	-0,092
-665,262	-181,289	-0,082	0,001
-664,247	-81,900	-0,081	-0,019
-663,232	27,003	-0,030	0,018
-662,218	-65,553	-0,044	-0,013
-661,203	21,885	-0,061	-0,037
-660,189	-200,000	0,010	-0,080
-659,174	800,000	-0,033	-0,096
-658,159	-200,000	0,010	-0,079
-657,145	71,524	-0,070	-0,053
-656,130	-51,443	0,064	-0,022
-655,116	800,000	0,018	0,051
-654,101	229,102	0,038	-0,046
-653,086	800,000	-0,063	-0,177
-652,072	283,610	-0,035	-0,047
-651,057	498,766	0,065	-0,110
-650,043	-200,000	-0,007	-0,164
-649,028	-26,262	-0,217	-0,093
-648,014	278,771	0,102	-0,134
-646,999	-200,000	0,008	-0,119
-645,984	236,892	-0,085	0,103
-644,970	-27,096	-0,096	0,041
-643,955	52,125	-0,148	-0,103
-642,941	700,001	-0,125	-0,242
-641,926	112,253	0,070	-0,062
-640,911	800,000	0,047	-0,136
-639,897	-200,000	0,021	0,150
-638,882	-129,071	0,121	0,012
-637,868	295,047	-0,016	0,022
-636,853	800,000	-0,021	0,064
-635,838	-200,000	0,011	-0,121
-634,824	60,317	-0,121	0,088
-633,809	133,535	-0,102	0,097
-632,795	68,114	0,055	0,041
-631,780	-200,000	0,024	0,090
-630,765	206,622	0,036	-0,041
-629,751	800,000	0,032	-0,095
-628,736	-200,000	0,009	0,047
-627,722	97,869	-0,087	-0,073
-626,707	-149,445	0,135	0,008
-625,692	-68,072	0,138	0,039
-624,678	103,869	-0,029	0,025
-623,663	258,017	0,015	0,019
-622,649	-200,000	0,003	-0,098
-621,634	144,348	0,046	-0,045
-620,619	-200,000	-0,014	-0,076
-619,605	230,277	0,025	-0,031
-618,590	21,104	0,154	-0,091
-617,576	380,904	0,036	-0,054
-616,561	302,229	-0,020	0,028
-615,546	-200,000	0,004	-0,087
-614,532	481,032	-0,030	-0,051
-613,517	-66,758	-0,202	0,058
-612,503	738,046	0,059	-0,117
-611,488	800,000	-0,050	-0,107
-610,474	800,000	-0,031	-0,069
-609,459	305,119	0,014	0,020
-608,444	400,940	-0,064	-0,099
-607,430	-200,000	-0,019	-0,207
-606,415	298,901	-0,110	-0,148
-605,401	-150,158	0,105	0,006
-604,386	-119,130	-0,042	0,005
-603,371	-135,615	0,144	-0,012
-602,357	13,396	0,088	-0,050
-601,342	200,044	-0,038	-0,042
-600,328	-28,595	-0,148	0,062
-599,313	-200,000	0,008	0,088
-598,298	-149,750	-0,087	0,005
-597,284	-200,000	-0,010	0,133
-596,269	164,124	-0,020	-0,021
-595,255	7,660	-0,067	0,037
-594,240	-200,000	0,001	0,029
-593,225	64,474	-0,144	-0,106
-592,211	-17,460	-0,173	-0,080
-591,196	154,116	0,027	-0,027
-590,182	-39,749	-0,133	-0,051
-589,167	348,589	0,035	-0,050
-588,152	-158,488	-0,136	-0,006
-587,138	-200,000	0,005	-0,031
-586,123	-145,266	-0,060	-0,004
-585,109	646,701	-0,043	-0,080
-584,094	-43,227	0,027	-0,010
-583,079	-200,000	0,006	-0,153
-582,065	158,056	0,061	-0,062
-581,050	-25,387	0,129	-0,055
-580,036	-200,000	0,007	0,079
-579,021	46,701	0,074	0,050
-578,006	20,153	0,025	0,015
-576,992	800,000	0,024	-0,060
-575,977	-51,228	0,118	0,040
-574,963	-150,246	0,058	0,003
-573,948	800,000	0,077	-0,167
-572,934	-150,119	-0,116	0,006
-571,919	165,772	-0,144	-0,149
-570,904	800,000	0,053	0,167
-569,890	139,977	-0,067	0,065
-568,875	800,000	-0,009	-0,027
-567,861	-104,532	0,086	0,014
-566,846	-156,093	0,084	0,004
-565,831	69,784	-0,073	-0,055
-564,817	800,000	-0,015	-0,038
-563,802	-72,181	-0,132	-0,036
-562,788	612,179	0,059	-0,109
-561,773	-200,000	0,004	0,068
-560,758	-142,749	-0,045	0,003
-559,744	20,074	-0,072	-0,043
-558,729	-0,080	-0,077	0,040
-557,715	243,217	-0,045	0,055
-556,700	-200,000	-0,008	-0,031
-555,685	800,000	-0,079	-0,251
-554,671	5,623	0,030	0,016
-553,656	42,463	0,020	-0,013
-552,642	523,970	0,068	0,117
-551,627	-200,000	0,027	0,108
-550,612	75,106	-0,010	0,008
-549,598	800,000	-0,067	-0,152
-548,583	191,560	-0,062	-0,068
-547,569	204,401	0,059	0,067
-546,554	-200,000	-0,007	-0,119
-545,539	14,617	0,056	0,032
-544,525	800,000	-0,009	-0,027
-543,510	-200,000	0,014	-0,152
-542,496	39,769	-0,040	-0,026
-541,481	359,808	0,037	-0,055
-540,466	188,255	-0,087	-0,095
-539,452	-200,000	-0,012	-0,081
-538,437	-58,583	0,038	0,012
-537,423	-200,000	0,010	-0,031
-536,408	-64,000	-0,015	-0,004
-535,393	669,028	-0,071	0,135
-534,379	500,311	0,054	-0,091
-533,364	-69,874	0,208	-0,058
-532,350	-99,658	-0,080	-0,014
-531,335	-200,000	-0,007	-0,028
-530,321	-200,000	0,022	-0,076
-529,306	9,138	-0,090	-0,049
-528,291	-36,343	0,135	-0,053
-527,277	-200,000	0,003	0,071
-526,262	58,404	0,027	0,019
-525,248	-80,558	0,122	0,030
-524,233	-44,201	-0,017	-0,006
-523,218	-200,000	-0,023	-0,079
-522,204	800,000	0,015	0,047
-521,189	-200,000	-0,007	0,070
-520,175	100,990	-0,025	0,021
-519,160	573,375	-0,067	0,119
-518,145	800,000	0,053	0,165
-517,131	152,769	0,030	0,030
-516,116	195,149	0,091	-0,101
-515,102	-200,000	-0,025	-0,089
-514,087	81,670	-0,120	-0,095
-513,072	173,685	0,080	-0,085
-512,058	800,000	-0,044	0,110
-511,043	96,038	0,074	-0,061
-510,029	236,325	-0,066	0,080
-509,014	-149,982	-0,063	0,004
-507,999	183,315	-0,040	0,043
-506,985	622,115	0,028	-0,052
-505,970	-200,000	0,019	0,066
-504,956	137,468	-0,051	-0,049
-503,941	-7,628	-0,057	0,028
-502,926	506,867	-0,064	0,109
-501,912	-68,409	0,111	0,031
-500,897	494,188	0,002	-0,003
-499,883	-136,549	-0,099	0,008
-498,868	-200,000	-0,048	-0,224
-497,853	52,424	-0,116	-0,081
-496,839	-49,364	0,177	0,061
-495,824	-200,000	0,027	0,106
-494,810	-112,767	0,016	-0,002
-493,795	-155,049	-0,071	-0,003
-492,781	81,857	0,091	0,072
-491,766	25,151	-0,136	-0,082
-490,751	103,955	0,065	0,055
-489,737	-133,571	0,053	-0,005
-488,722	119,032	0,020	-0,018
-487,708	308,449	-0,135	0,185
-486,693	-200,000	0,013	-0,054
-485,678	-106,479	0,015	0,002
-484,664	159,318	-0,019	0,019
-483,649	-98,645	-0,095	-0,017
-482,635	-130,516	0,085	0,008
-481,620	-48,284	0,063	0,022
-480,605	-200,000	0,021	0,130
-479,591	-200,000	0,002	0,161
-478,576	80,417	-0,110	0,086
-477,562	225,038	0,032	0,038
-476,547	406,729	-0,077	-0,119
-475,532	-200,000	-0,007	-0,124
-474,518	-32,439	0,164	-0,066
-473,503	-116,939	0,037	0,005
-472,489	86,564	-0,122	0,098
-471,474	-200,000	-0,020	0,113
-470,459	99,279	-0,165	0,139
-469,445	-38,292	-0,004	-0,002
-468,430	800,000	0,053	-0,153
-467,416	-200,000	0,029	0,155
-466,401	112,934	0,062	0,055
-465,386	-200,000	-0,013	0,056
-464,372	80,515	0,036	0,028
-463,357	450,748	0,070	-0,113
-462,343	800,000	-0,025	-0,070
-461,328	800,000	-0,048	0,107
-460,313	-0,805	0,027	-0,014
-459,299	-200,000	0,014	0,066
-458,284	18,216	-0,029	-0,017
-457,270	-200,000	0,010	0,036
-456,255	800,000	0,047	-0,119
-455,241	-200,000	-0,029	-0,103
-454,226	103,446	0,089	-0,076
-453,211	101,529	-0,054	0,046
-452,197	800,000	0,016	0,050
-451,182	-61,152	-0,147	-0,045
-450,168	315,293	0,137	0,189
-449,153	-38,751	-0,140	-0,053
-448,138	-148,797	0,111	0,006
-447,124	800,000	-0,040	-0,092
-446,109	-82,816	0,064	-0,015
-445,095	37,977	0,108	-0,070
-444,080	-200,000	0,001	0,093
-443,065	16,481	0,116	0,067
-442,051	-89,529	-0,053	0,011
-441,036	-178,024	0,103	0,002
-440,022	-4,551	-0,122	-0,061
-439,007	157,780	-0,071	0,071
-437,992	-200,000	0,018	-0,111
-436,978	-69,207	0,081	-0,023
-435,963	210,211	-0,065	0,074
-434,949	95,529	-0,050	-0,041
-433,934	-200,000	0,005	0,086
-432,919	204,959	-0,102	-0,116
-431,905	275,313	0,007	0,009
-430,890	800,000	-0,067	0,146
-429,876	-2,668	-0,066	0,033
-428,861	-200,000	0,010	0,113
-427,846	39,923	-0,073	-0,048
-426,832	800,000	0,023	0,056
-425,817	-146,410	-0,031	-0,002
-424,803	82,377	-0,081	-0,064
-423,788	406,456	0,006	-0,009
-422,773	635,258	0,045	-0,083
-421,759	-200,000	0,235	-0,001
-420,744	-43,564	-0,016	-0,006
-419,730	241,388	0,035	-0,042
-418,715	-200,000	-0,029	-0,217
-417,701	224,330	0,050	0,058
-416,686	283,020	0,128	-0,168
-415,671	460,986	-0,033	0,055
-414,657	-110,204	0,075	-0,011
-413,642	-200,000	0,004	0,086
-412,628	332,418	-0,047	-0,066
-411,613	463,003	0,039	-0,064
-410,598	-200,000	-0,013	0,138
-409,584	-200,000	0,051	0,162
-408,569	94,075	0,094	0,078
-407,555	97,652	0,047	0,039
-406,540	12,918	-0,016	0,009
-405,525	138,288	-0,072	0,069
-404,511	-200,000	-0,009	0,081
-403,496	19,766	0,071	-0,042
-402,482	-141,465	0,182	0,013
-401,467	-200,000	0,001	0,099
-400,452	-200,000	0,002	-0,021
-399,438	-57,017	-0,011	-0,003
-398,423	-200,000	-0,002	-0,025
-397,409	329,681	0,039	-0,054
-396,394	671,859	0,049	-0,092
-395,379	307,782	0,079	-0,107
-394,365	108,363	-0,095	0,083
-393,350	800,000	-0,014	0,029
-392,336	231,631	-0,065	0,077
-391,321	-200,000	-0,016	-0,107
-390,306	-184,130	-0,066	0,001
-389,292	9,419	0,094	0,051
-388,277	8,738	-0,029	-0,016
-387,263	-17,203	0,092	0,042
-386,248	-200,000	0,001	-0,005
-385,233	-200,000	0,007	0,049
-384,219	800,000	-0,061	-0,157
-383,204	-148,267	-0,037	-0,002
-382,190	20,617	-0,063	-0,037
-381,175	6,269	0,148	-0,080
-380,160	62,084	-0,037	0,026
-379,146	800,000	-0,020	-0,049
-378,131	341,435	-0,041	0,059
-377,117	2,553	-0,149	0,078
-376,102	-200,000	-0,011	-0,058
-375,088	262,761	-0,050	0,063
-374,073	-72,267	-0,039	0,010
-373,058	800,000	-0,039	0,097
-372,044	1,188	0,140	0,073
-371,029	-17,849	0,131	0,059
-370,015	283,247	0,035	-0,046
-369,000	-53,097	-0,043	0,014
-367,985	47,626	-0,146	-0,099
-366,971	109,305	-0,064	-0,055
-365,956	-200,000	0,020	-0,100
-364,942	-200,000	-0,160	-0,000
-363,927	551,094	-0,016	0,028
-362,912	-107,475	0,051	-0,008
-361,898	-200,000	0,005	-0,023
-360,883	145,317	0,066	-0,064
-359,869	64,464	-0,080	-0,059
-358,854	-30,961	-0,113	-0,046
-357,839	-200,000	-0,015	0,102
-356,825	85,926	-0,045	0,036
-355,810	-15,121	0,153	0,071
-354,796	-200,000	-0,016	0,057
-353,781	336,758	-0,092	0,130
-352,766	105,151	0,051	0,043
-351,752	-18,733	0,145	-0,065
-350,737	-200,000	-0,007	0,079
-349,723	-49,062	-0,077	-0,027
-348,708	-200,000	0,007	0,142
-347,693	800,000	-0,053	0,117
-346,679	-33,892	0,100	0,040
-345,664	-137,158	-0,085	-0,007
-344,650	-78,501	0,033	-0,008
-343,635	3,339	0,024	0,013
-342,620	800,000	0,011	0,034
-341,606	-200,000	0,003	0,036
-340,591	46,075	-0,020	0,013
-339,577	-200,000	-0,019	0,095
-338,562	-98,415	0,199	0,037
-337,548	75,231	0,066	-0,050
-336,533	-200,000	0,019	-0,124
-335,518	3,199	0,117	0,062
-334,504	-77,623	-0,082	0,020
-333,489	149,754	0,062	0,061
-332,475	-72,409	-0,092	-0,024
-331,460	79,668	0,116	-0,090
-330,445	-200,000	-0,004	0,114
-329,431	800,000	-0,036	0,099
-328,416	215,230	0,124	-0,143
-327,402	-19,554	0,075	0,033
-326,387	-101,944	-0,116	0,020
-325,372	-106,986	-0,045	0,007
-324,358	285,916	0,009	0,012
-323,343	103,269	-0,092	0,078
-322,329	-189,108	-0,061	0,001
-321,314	137,483	0,042	-0,040
-320,299	-200,000	-0,029	0,112
-319,285	-125,820	0,140	0,015
-318,270	-200,000	-0,016	0,097
-317,256	-200,000	0,009	0,036
-316,241	-200,000	-0,018	-0,120
-315,226	-200,000	0,021	0,094
-314,212	-200,000	0,013	0,200
-313,197	24,050	-0,124	-0,074
-312,183	532,744	0,024	-0,041
-311,168	-200,000	-0,002	-0,033
-310,153	800,000	-0,017	-0,053
-309,139	-200,000	0,019	-0,073
-308,124	800,000	-0,070	0,146
-307,110	-200,000	-0,026	0,095
-306,095	630,023	0,034	-0,062
-305,080	-200,000	-0,004	0,024
-304,066	404,145	0,057	0,087
-303,051	-200,000	0,012	-0,140
-302,037	258,024	0,067	-0,084
-301,022	800,000	0,027	-0,063
-300,008	-200,000	0,001	0,039
-298,993	-200,000	-0,003	0,043
-297,978	800,000	0,047	0,101
-296,964	-200,000	-0,010	0,093
-295,949	19,103	0,035	0,020
-294,935	450,323	0,019	0,031
-293,920	84,251	0,067	0,053
-292,905	419,179	-0,017	0,026
-291,891	80,101	0,090	0,070
-290,876	644,446	-0,051	-0,094
-289,862	151,279	-0,078	-0,077
-288,847	-10,165	0,061	-0,029
-287,832	242,884	-0,067	0,082
-286,818	48,721	-0,140	-0,095
-285,803	-110,905	-0,012	0,002
-284,789	-59,068	0,125	0,039
-283,774	698,081	-0,043	0,083
-282,759	9,827	0,131	-0,072
-281,745	800,000	-0,035	-0,089
-280,730	-200,000	0,050	0,207
-279,716	-184,419	-0,058	-0,001
-278,701	144,461	-0,032	-0,031
-277,686	-200,000	0,020	-0,093
-276,672	-148,673	0,114	0,007
-275,657	-62,410	-0,042	0,013
-274,643	204,609	-0,087	0,098
-273,628	231,038	-0,071	0,084
-272,613	350,486	0,035	-0,051
-271,599	-200,000	0,010	-0,097
-270,584	189,234	0,064	0,070
-269,570	-60,302	0,109	-0,033
-268,555	112,984	0,080	-0,070
-267,540	-181,961	-0,143	0,002
-266,526	-113,899	0,114	0,016
-265,511	-200,000	-0,003	-0,024
-264,497	-98,741	0,065	0,012
-263,482	319,095	0,056	0,078
-262,467	-61,388	-0,051	0,016
-261,453	460,719	0,107	0,174
-260,438	126,377	-0,134	0,122
-259,424	174,870	-0,061	-0,064
-258,409	341,138	0,033	0,047
-257,395	108,699	0,017	-0,015
-256,380	99,001	-0,038	0,031
-255,365	223,617	0,051	0,060
-254,351	1,684	0,090	-0,047
-253,336	-23,757	-0,119	0,051
-252,322	-166,433	-0,182	0,005
-251,307	-200,000	-0,006	-0,026
-250,292	800,000	-0,044	0,093
-249,278	203,834	-0,060	0,067
-248,263	-59,047	-0,086	0,027
-247,249	-55,305	0,129	0,042
-246,234	-33,788	0,048	-0,019
-245,219	279,177	0,019	-0,024
-244,205	-131,685	0,015	0,001
-243,190	-200,000	0,006	0,024
-242,176	-86,611	0,077	-0,017
-241,161	-200,000	-0,003	0,121
-240,146	13,751	0,107	0,060
-239,132	800,000	0,049	-0,129
-238,117	26,544	0,081	0,049
-237,103	126,755	-0,067	-0,061
-236,088	-63,502	0,097	0,029
-235,073	422,828	-0,015	0,024
-234,059	474,367	0,027	0,044
-233,044	494,336	0,025	-0,042
-232,030	800,000	-0,060	-0,120
-231,015	-34,441	-0,196	0,077
-230,000	-44,828	-0,062	-0,022
-228,986	368,807	-0,053	-0,078
-227,971	109,264	0,081	0,070
-226,957	68,565	0,077	0,057
-225,942	-200,000	-0,011	-0,069
-224,927	-40,641	0,074	0,027
-223,913	68,341	-0,110	0,082
-222,898	-99,382	-0,017	0,003
-221,884	153,153	-0,053	0,053
-220,869	615,138	-0,028	0,051
-219,855	234,628	-0,093	0,110
-218,840	-200,000	0,011	0,093
-217,825	-25,402	-0,095	0,040
-216,811	800,000	-0,057	-0,130
-215,796	-200,000	-0,013	-0,098
-214,782	-70,888	0,048	0,013
-213,767	-16,897	0,052	0,024
-212,752	-200,000	0,005	0,032
-211,738	73,144	0,042	0,032
-210,723	-7,969	0,203	0,098
-209,709	207,150	-0,114	-0,128
-208,694	17,493	-0,008	-0,004
-207,679	-147,612	0,161	0,010
-206,665	-87,141	-0,094	-0,020
-205,650	59,516	0,122	0,087
-204,636	800,000	0,019	0,044
-203,621	-142,479	-0,068	-0,005
-202,606	675,696	-0,066	-0,125
-201,592	-76,662	-0,040	-0,010
-200,577	26,312	-0,025	-0,015
-199,563	175,684	0,085	-0,089
-198,548	800,000	0,032	-0,078
-197,533	800,000	0,057	0,151
-196,519	-200,000	0,085	0,000
-195,504	87,616	-0,058	0,046
-194,490	-74,319	-0,096	0,025
-193,475	-8,106	-0,017	-0,008
-192,460	-200,000	0,001	-0,099
-191,446	28,695	0,100	0,061
-190,431	800,000	0,064	0,142
-189,417	37,790	0,024	0,016
-188,402	-200,000	-0,020	-0,151
-187,387	-82,863	-0,129	-0,030
-186,373	-141,514	-0,079	0,006
-185,358	286,813	0,005	-0,007
-184,344	305,480	-0,066	-0,089
-183,329	800,000	-0,026	-0,066
-182,315	-45,700	0,142	0,050
-181,300	-200,000	-0,003	-0,021
-180,285	-200,000	0,001	-0,073
-179,271	-200,000	0,003	-0,070
-178,256	-112,494	0,119	0,017
-177,242	19,171	0,138	0,080
-176,227	119,202	0,074	0,066
-175,212	-10,992	0,022	-0,011
-174,198	133,484	0,066	0,062
-173,183	295,664	-0,114	-0,151
-172,169	-200,000	0,031	-0,137
-171,154	-200,000	-0,018	0,057
-170,139	-39,420	-0,102	0,038
-169,125	46,838	0,116	-0,077
-168,110	291,270	-0,068	0,089
-167,096	-110,758	-0,138	-0,020
-166,081	557,890	0,057	-0,100
-165,066	224,893	-0,036	-0,042
-164,052	800,000	-0,057	0,114
-163,037	-76,521	0,090	0,023
-162,023	12,886	0,081	0,045
-161,008	689,836	-0,016	0,029
-159,993	131,235	-0,041	0,038
-158,979	11,983	0,099	0,055
-157,964	-200,000	-0,040	0,196
-156,950	800,000	0,058	-0,149
-155,935	543,562	0,029	0,051
-154,920	800,000	0,017	0,038
-153,906	-8,937	-0,015	0,007
-152,891	83,669	-0,136	-0,106
-151,877	-200,000	0,003	0,115
-150,862	44,208	-0,061	0,041
-149,847	761,618	0,031	-0,062
-148,833	-67,162	-0,073	-0,021
-147,818	800,000	0,056	-0,136
-146,804	800,000	0,049	0,120
-145,789	436,334	-0,024	0,038
-144,775	-200,000	0,088	0,000
-143,760	261,383	-0,024	-0,030
-142,745	170,298	-0,063	0,065
-141,731	230,460	0,115	-0,135
-140,716	537,124	0,056	0,095
-139,702	63,949	-0,025	0,018
-138,687	-49,631	-0,160	0,055
-137,672	800,000	-0,068	-0,171
-136,658	-123,209	0,041	-0,005
-135,643	-200,000	-0,000	-0,115
-134,629	-200,000	0,004	0,132
-133,614	800,000	-0,039	-0,087
-132,599	14,973	-0,019	0,011
-131,585	-9,181	0,096	0,046
-130,570	800,000	-0,021	0,045
-129,556	283,030	-0,052	-0,068
-128,541	13,928	0,057	0,032
-127,526	800,000	-0,070	-0,164
-126,512	-54,399	0,108	0,035
-125,497	-200,000	0,004	-0,028
-124,483	-118,228	-0,085	0,011
-123,468	800,000	0,059	-0,139
-122,453	-53,048	-0,034	0,011
-121,439	800,000	-0,026	-0,064
-120,424	-44,351	-0,057	-0,021
-119,410	-62,074	0,088	-0,026
-118,395	100,063	0,124	0,103
