DTS Sentinel unit serial number:	SN410029Multiplexer serial number:	ORYXHardware model number:	OX2-SRSoftware version number:	ORYX F/W v4,00 Oryx Data Collector v3.7.2.0data status	okinstallation	B5 Nyhavnadifferential loss correction	single-endedforward channel	channel 2reverse channel	N/Adate	2023/12/12time	02:07:13forward acquisition time	300,00reverse acquisition time	0,00gamma	499,1914k internal	0,3156k external	0,3156temperature offset calibration	1,0000default loss term (dB/km)	0,3820temperature slope calibration	1,0000multiplexer offset coefficient	1,0000multiplexer slope coefficient	1,0000fibre end	0,00T internal ref (°C)	15,81T ext. ref 1 (°C)	-0,59T ext. ref 2 (°C)	-0,90length (m)	temperature (°C)	Stokes	anti-Stokes-744,400	-50,397	0,076	-0,026
-743,385	-83,739	-0,398	0,093
-742,371	147,516	0,030	-0,030
-741,356	-99,904	-0,257	-0,047
-740,342	304,037	0,033	0,046
-739,327	-132,108	-0,337	0,032
-738,312	-102,482	0,083	-0,014
-737,298	-58,627	-0,397	-0,126
-736,283	-200,000	0,004	-0,035
-735,269	-25,069	-0,267	-0,116
-734,254	-168,773	0,097	0,003
-733,239	-35,350	-0,458	-0,183
-732,225	-160,527	0,202	-0,008
-731,210	98,534	-0,103	0,087
-730,196	-51,386	-0,086	0,029
-729,181	-200,000	0,004	-0,029
-728,167	518,986	-0,013	0,022
-727,152	-16,891	-0,047	-0,022
-726,137	-86,905	-0,143	-0,032
-725,123	200,717	-0,107	-0,122
-724,108	322,421	-0,136	-0,192
-723,094	-66,662	-0,110	-0,032
-722,079	5,250	-0,051	-0,028
-721,064	-200,000	-0,003	0,081
-720,050	-200,000	-0,000	-0,023
-719,035	104,925	-0,028	0,024
-718,021	-200,000	-0,051	-0,169
-717,006	-89,280	-0,040	-0,009
-715,991	92,153	-0,096	-0,080
-714,977	-18,641	0,128	-0,059
-713,962	-55,837	-0,122	-0,040
-712,948	187,583	-0,052	0,058
-711,933	800,000	-0,008	0,017
-710,918	150,314	-0,145	0,146
-709,904	170,259	0,020	0,021
-708,889	18,689	-0,119	-0,070
-707,875	-13,349	0,070	-0,034
-706,860	-200,000	0,011	0,065
-705,845	613,197	-0,050	-0,093
-704,831	6,448	-0,027	0,015
-703,816	593,053	0,031	-0,057
-702,802	613,410	-0,088	-0,164
-701,787	-86,306	-0,154	0,035
-700,772	-52,130	-0,066	0,022
-699,758	340,118	-0,039	-0,057
-698,743	-63,114	-0,151	0,046
-697,729	152,509	0,106	0,107
-696,714	-36,433	-0,112	-0,044
-695,699	-200,000	-0,052	0,000
-694,685	-200,000	0,005	0,125
-693,670	-120,235	-0,128	-0,016
-692,656	-36,819	-0,181	-0,071
-691,641	182,841	0,140	-0,152
-690,627	800,000	-0,014	-0,036
-689,612	-119,737	0,234	-0,029
-688,597	650,708	-0,019	-0,037
-687,583	-73,032	0,084	-0,023
-686,568	149,486	-0,086	0,085
-685,554	-28,042	0,086	0,037
-684,539	0,792	-0,093	-0,049
-683,524	800,000	0,011	0,029
-682,510	-35,567	-0,050	-0,020
-681,495	800,000	-0,069	0,148
-680,481	9,536	-0,092	-0,051
-679,466	-53,703	-0,124	0,042
-678,451	45,640	-0,061	0,042
-677,437	800,000	0,038	-0,092
-676,422	800,000	-0,039	0,093
-675,408	-200,000	0,030	-0,098
-674,393	800,000	-0,061	0,129
-673,378	-140,000	-0,098	-0,008
-672,364	134,941	-0,134	-0,128
-671,349	-200,000	-0,003	-0,103
-670,335	800,000	-0,043	0,109
-669,320	800,000	-0,046	0,112
-668,305	292,771	-0,061	0,083
-667,291	-200,000	-0,010	-0,188
-666,276	-200,000	0,027	-0,200
-665,262	172,572	0,051	-0,054
-664,247	-200,000	0,046	-0,184
-663,232	405,913	-0,070	0,109
-662,218	-26,554	-0,095	0,041
-661,203	-200,000	-0,016	-0,093
-660,189	-61,560	0,070	-0,022
-659,174	123,863	-0,114	-0,106
-658,159	86,179	-0,034	0,027
-657,145	482,923	-0,039	-0,066
-656,130	-176,470	-0,108	-0,002
-655,116	-34,639	-0,018	-0,007
-654,101	290,050	-0,102	0,137
-653,086	-23,015	0,116	-0,051
-652,072	32,022	-0,043	0,027
-651,057	-200,000	0,018	-0,079
-650,043	800,000	-0,031	-0,072
-649,028	-17,017	-0,077	0,036
-648,014	-200,000	0,004	-0,042
-646,999	-200,000	-0,011	-0,072
-645,984	-19,500	0,090	-0,041
-644,970	800,000	0,064	-0,169
-643,955	-95,654	-0,144	0,028
-642,941	800,000	0,051	-0,156
-641,926	-200,000	0,020	-0,114
-640,911	570,817	-0,036	-0,065
-639,897	14,402	-0,084	0,048
-638,882	338,867	-0,071	0,102
-637,868	287,955	0,005	0,007
-636,853	-88,962	0,075	0,016
-635,838	800,000	0,009	-0,022
-634,824	-200,000	-0,010	-0,061
-633,809	800,000	-0,027	-0,073
-632,795	168,701	-0,040	0,042
-631,780	69,040	0,019	0,015
-630,765	-123,219	-0,046	-0,005
-629,751	-123,343	-0,058	-0,007
-628,736	26,884	-0,026	0,016
-627,722	364,246	-0,075	0,111
-626,707	209,741	0,044	0,051
-625,692	-90,860	-0,050	-0,011
-624,678	800,000	0,053	0,121
-623,663	800,000	0,032	-0,074
-622,649	-101,120	0,040	-0,007
-621,634	-200,000	-0,014	-0,080
-620,619	761,036	0,036	-0,073
-619,605	-184,496	0,098	-0,001
-618,590	66,155	-0,041	0,031
-617,576	-200,000	0,030	0,149
-616,561	25,855	0,107	0,065
-615,546	-200,000	-0,019	-0,089
-614,532	224,276	-0,029	-0,034
-613,517	800,000	-0,015	0,042
-612,503	-200,000	-0,001	0,029
-611,488	-200,000	-0,021	-0,127
-610,474	-200,000	-0,026	0,088
-609,459	160,798	-0,093	0,095
-608,444	376,473	0,032	-0,048
-607,430	468,940	0,041	-0,068
-606,415	148,859	0,070	0,069
-605,401	-200,000	-0,005	0,098
-604,386	216,787	0,027	0,031
-603,371	619,481	0,033	-0,062
-602,357	561,405	-0,039	-0,069
-601,342	800,000	0,065	-0,172
-600,328	-54,743	-0,158	-0,052
-599,313	58,796	-0,098	0,071
-598,298	-96,470	0,060	-0,012
-597,284	-64,603	0,094	-0,028
-596,269	-38,442	0,067	0,026
-595,255	-200,000	-0,005	0,060
-594,240	-200,000	0,014	0,087
-593,225	401,939	0,072	-0,112
-592,211	800,000	0,023	-0,067
-591,196	89,262	-0,028	-0,023
-590,182	261,145	-0,066	0,084
-589,167	-35,116	-0,035	-0,014
-588,152	142,743	-0,087	0,085
-587,138	44,720	-0,129	0,087
-586,123	-200,000	0,014	-0,095
-585,109	68,903	0,056	-0,042
-584,094	-7,291	0,102	0,051
-583,079	163,495	-0,048	-0,050
-582,065	77,480	0,018	0,014
-581,050	800,000	-0,055	0,124
-580,036	-164,422	0,051	-0,002
-579,021	-87,147	-0,077	-0,017
-578,006	1,265	-0,094	-0,050
-576,992	115,690	-0,072	0,064
-575,977	-200,000	-0,003	0,146
-574,963	407,538	0,041	-0,064
-573,948	336,154	-0,061	0,087
-572,934	-123,134	0,053	0,006
-571,919	-83,496	-0,141	-0,033
-570,904	-167,677	-0,184	0,005
-569,890	618,378	-0,063	-0,117
-568,875	117,625	0,079	0,072
-567,861	-74,536	0,053	0,014
-566,846	297,416	-0,051	0,069
-565,831	146,253	0,018	0,018
-564,817	-132,821	0,036	-0,003
-563,802	10,008	0,081	-0,045
-562,788	-109,510	0,096	0,015
-561,773	167,428	0,100	-0,104
-560,758	155,161	0,026	-0,026
-559,744	348,562	-0,076	0,111
-558,729	800,000	-0,066	0,203
-557,715	-82,775	-0,124	-0,029
-556,700	-136,340	0,038	-0,003
-555,685	800,000	-0,050	-0,121
-554,671	165,370	0,045	-0,047
-553,656	159,275	0,075	-0,077
-552,642	-30,352	-0,152	0,063
-551,627	-200,000	-0,022	0,084
-550,612	79,345	-0,062	0,048
-549,598	152,493	0,052	0,052
-548,583	746,557	-0,019	0,039
-547,569	800,000	-0,040	-0,105
-546,554	-95,672	-0,078	-0,015
-545,539	79,103	-0,115	0,090
-544,525	800,000	0,054	-0,137
-543,510	-200,000	0,005	0,103
-542,496	106,575	-0,121	-0,105
-541,481	-200,000	-0,004	0,043
-540,466	51,520	0,058	0,041
-539,452	-19,891	-0,046	-0,021
-538,437	785,229	0,070	-0,141
-537,423	112,788	0,041	-0,036
-536,408	37,554	-0,044	-0,029
-535,393	26,622	-0,093	-0,057
-534,379	-200,000	0,016	0,131
-533,364	278,836	0,049	0,063
-532,350	-200,000	-0,015	-0,158
-531,335	-200,000	0,039	0,182
-530,321	538,515	-0,023	0,040
-529,306	-125,874	-0,021	0,002
-528,291	220,250	-0,039	-0,046
-527,277	-200,000	-0,011	-0,189
-526,262	-200,000	0,019	-0,069
-525,248	800,000	-0,028	-0,077
-524,233	800,000	0,046	0,140
-523,218	-163,325	-0,046	-0,002
-522,204	635,797	0,026	-0,048
-521,189	413,729	-0,032	-0,051
-520,175	189,125	-0,047	-0,052
-519,160	176,154	0,067	0,072
-518,145	-79,263	0,126	0,031
-517,131	-6,508	-0,123	0,061
-516,116	479,022	0,044	-0,074
-515,102	176,891	-0,063	-0,067
-514,087	800,000	0,035	-0,075
-513,072	-115,060	-0,033	-0,004
-512,058	-200,000	0,016	-0,058
-511,043	48,690	0,129	-0,088
-510,029	10,249	0,086	-0,048
-509,014	-95,734	0,105	0,020
-507,999	800,000	-0,057	0,118
-506,985	-17,274	-0,091	0,042
-505,970	151,925	0,084	0,084
-504,956	-101,135	-0,167	0,030
-503,941	166,323	0,054	-0,056
-502,926	800,000	0,017	-0,039
-501,912	800,000	0,030	0,092
-500,897	444,097	-0,011	-0,018
-499,883	-200,000	-0,003	0,046
-498,868	14,385	-0,193	0,109
-497,853	800,000	-0,035	-0,080
-496,839	1,013	0,022	-0,011
-495,824	130,208	-0,116	0,108
-494,810	800,000	-0,056	-0,117
-493,795	315,943	0,039	0,054
-492,781	-197,046	0,058	0,000
-491,766	265,717	0,030	0,038
-490,751	-200,000	0,050	-0,176
-489,737	-17,609	0,064	-0,029
-488,722	-200,000	0,015	0,093
-487,708	104,563	0,093	-0,080
-486,693	-168,568	0,109	-0,003
-485,678	304,481	-0,046	-0,062
-484,664	-42,158	-0,091	-0,034
-483,649	-200,000	-0,007	-0,173
-482,635	623,427	0,037	-0,068
-481,620	-200,000	0,007	0,043
-480,605	-135,676	0,055	-0,005
-479,591	800,000	0,060	0,142
-478,576	114,763	0,052	-0,046
-477,562	-200,000	0,026	0,110
-476,547	-1,264	-0,082	0,042
-475,532	-200,000	-0,023	-0,075
-474,518	765,265	-0,017	0,035
-473,503	-122,651	0,075	0,009
-472,489	-200,000	0,024	0,137
-471,474	-113,131	-0,073	-0,010
-470,459	800,000	0,056	-0,130
-469,445	42,019	0,006	0,004
-468,430	250,448	0,030	-0,037
-467,416	-150,960	0,053	-0,003
-466,401	800,000	0,036	-0,097
-465,386	-200,000	0,000	0,038
-464,372	800,000	-0,028	0,084
-463,357	-73,658	-0,051	-0,013
-462,343	-75,227	-0,067	-0,017
-461,328	75,579	0,098	0,076
-460,313	-200,000	0,041	0,155
-459,299	388,997	0,097	0,147
-458,284	113,531	0,069	0,061
-457,270	102,588	0,074	0,063
-456,255	156,011	-0,078	0,078
-455,241	384,497	0,067	-0,101
-454,226	800,000	0,051	-0,107
-453,211	-24,969	-0,106	-0,046
-452,197	16,048	-0,154	-0,088
-451,182	800,000	0,032	0,082
-450,168	-12,950	-0,053	-0,025
-449,153	-32,475	0,084	0,034
-448,138	294,327	-0,105	-0,140
-447,124	-200,000	0,010	-0,054
-446,109	-200,000	0,002	-0,039
-445,095	83,513	0,060	0,048
-444,080	800,000	-0,015	0,041
-443,065	-200,000	0,018	0,074
-442,051	-59,380	0,030	0,009
-441,036	-139,461	0,072	-0,006
-440,022	-174,303	-0,139	-0,003
-439,007	-75,258	0,136	-0,035
-437,992	-200,000	-0,009	0,079
-436,978	-200,000	0,031	0,135
-435,963	800,000	0,079	0,161
-434,949	800,000	-0,032	0,070
-433,934	545,055	-0,051	-0,089
-432,919	-104,317	0,113	0,019
-431,905	508,470	0,060	-0,102
-430,890	216,317	0,105	0,122
-429,876	800,000	0,044	0,095
-428,861	124,008	-0,083	0,076
-427,846	118,341	-0,043	-0,039
-426,832	-200,000	-0,001	-0,006
-425,817	146,276	-0,062	0,061
-424,803	-200,000	-0,039	0,128
-423,788	53,309	0,106	0,074
-422,773	329,347	-0,061	-0,086
-421,759	-25,521	-0,034	0,015
-420,744	-200,000	-0,015	-0,078
-419,730	-200,000	-0,012	0,109
-418,715	-200,000	-0,007	-0,033
-417,701	-20,928	-0,206	-0,092
-416,686	501,510	0,094	0,159
-415,671	800,000	-0,023	0,059
-414,657	206,655	-0,107	-0,122
-413,642	161,204	-0,032	0,033
-412,628	800,000	-0,003	0,009
-411,613	800,000	0,034	-0,071
-410,598	-27,860	0,139	-0,059
-409,584	-108,260	-0,071	0,011
-408,569	-200,000	-0,028	-0,115
-407,555	-125,367	0,162	0,018
-406,540	800,000	-0,049	-0,106
-405,525	-116,533	0,055	0,007
-404,511	596,728	-0,057	0,104
-403,496	800,000	-0,031	-0,074
-402,482	-200,000	0,001	0,004
-401,467	-200,000	0,003	-0,021
-400,452	-200,000	-0,002	0,043
-399,438	190,858	-0,024	0,027
-398,423	-200,000	0,008	0,035
-397,409	-74,715	-0,113	-0,029
-396,394	449,576	0,068	-0,110
-395,379	260,468	-0,050	0,062
-394,365	-166,234	0,149	-0,004
-393,350	183,214	0,083	-0,089
-392,336	-137,861	0,147	0,012
-391,321	453,706	-0,078	-0,126
-390,306	96,255	-0,190	-0,158
-389,292	282,849	0,071	0,093
-388,277	172,879	0,029	-0,030
-387,263	800,000	0,046	0,130
-386,248	-54,819	0,070	0,023
-385,233	97,992	0,038	-0,032
-384,219	64,902	0,099	0,072
-383,204	161,623	0,048	-0,049
-382,190	-60,274	-0,129	0,040
-381,175	322,263	0,003	-0,004
-380,160	-0,194	0,112	-0,058
-379,146	169,889	0,057	-0,059
-378,131	-27,144	-0,140	0,059
-377,117	106,972	0,074	-0,064
-376,102	-86,134	0,065	0,014
-375,088	-190,862	-0,064	0,000
-374,073	800,000	-0,077	-0,161
-373,058	800,000	-0,029	-0,068
-372,044	-200,000	0,010	0,227
-371,029	341,997	-0,062	0,088
-370,015	-200,000	0,013	0,090
-369,000	-121,886	-0,035	-0,004
-367,985	-200,000	-0,007	-0,117
-366,971	800,000	-0,031	0,079
-365,956	-200,000	-0,003	-0,044
-364,942	210,389	0,036	0,042
-363,927	800,000	0,046	0,119
-362,912	85,144	0,098	-0,078
-361,898	51,319	0,064	-0,044
-360,883	-73,558	-0,028	-0,007
-359,869	-65,160	0,008	-0,002
-358,854	450,912	-0,018	-0,029
-357,839	-120,447	0,050	-0,006
-356,825	420,461	0,053	0,083
-355,810	-75,680	-0,062	-0,016
-354,796	-200,000	-0,007	-0,093
-353,781	-56,473	0,044	-0,014
-352,766	96,788	0,038	-0,032
-351,752	89,771	-0,027	0,022
-350,737	2,610	0,025	0,013
-349,723	64,851	-0,085	0,062
-348,708	15,304	-0,112	0,064
-347,693	8,770	-0,110	-0,060
-346,679	434,706	-0,038	-0,060
-345,664	-200,000	-0,027	-0,148
-344,650	800,000	0,023	0,068
-343,635	208,934	-0,068	-0,077
-342,620	458,861	-0,061	0,099
-341,606	800,000	-0,026	-0,059
-340,591	-161,853	0,204	0,007
-339,577	-200,000	-0,027	-0,091
-338,562	167,373	-0,056	-0,058
-337,548	209,828	-0,052	-0,059
-336,533	45,275	0,038	0,025
-335,518	-140,532	0,103	-0,008
-334,504	207,238	0,069	-0,078
-333,489	-54,269	-0,159	0,052
-332,475	-60,402	-0,053	-0,016
-331,460	-200,000	0,004	0,021
-330,445	-200,000	0,005	-0,039
-329,431	412,927	-0,046	-0,071
-328,416	-200,000	0,053	0,184
-327,402	-118,004	0,043	0,006
-326,387	-89,587	-0,093	0,020
-325,372	134,240	-0,018	-0,017
-324,358	139,890	0,097	-0,092
-323,343	-109,638	0,100	-0,015
-322,329	-200,000	0,007	0,112
-321,314	330,546	-0,052	0,072
-320,299	8,460	-0,114	0,062
-319,285	640,604	-0,026	0,048
-318,270	-200,000	0,016	0,053
-317,256	-152,927	-0,130	-0,007
-316,241	-69,808	0,064	0,018
-315,226	-5,825	0,123	-0,061
-314,212	-103,603	0,095	-0,016
-313,197	800,000	0,012	0,032
-312,183	-58,332	0,077	-0,024
-311,168	318,222	-0,081	-0,112
-310,153	-30,527	-0,131	0,053
-309,139	-68,205	0,163	-0,046
-308,124	-102,942	-0,073	-0,012
-307,110	-22,304	0,229	-0,100
-306,095	151,578	0,054	0,053
-305,080	2,926	0,177	-0,093
-304,066	-64,327	0,096	0,028
-303,051	13,940	-0,113	-0,063
-302,037	563,704	0,105	-0,185
-301,022	800,000	0,028	-0,088
-300,008	778,291	0,024	0,048
-298,993	-21,837	0,098	-0,043
-297,978	-38,861	-0,140	-0,053
-296,964	258,302	0,039	0,049
-295,949	108,937	-0,129	-0,112
-294,935	800,000	-0,054	-0,125
-293,920	-200,000	-0,021	-0,114
-292,905	494,128	-0,039	0,065
-291,891	55,434	0,126	-0,088
-290,876	18,916	-0,070	-0,041
-289,862	-41,267	0,045	-0,017
-288,847	250,619	-0,061	-0,075
-287,832	-81,633	-0,137	-0,032
-286,818	-200,000	-0,030	-0,161
-285,803	-200,000	-0,013	-0,045
-284,789	-200,000	0,006	-0,145
-283,774	-122,412	0,099	0,012
-282,759	-200,000	0,025	0,140
-281,745	-135,706	-0,054	-0,005
-280,730	116,811	-0,113	0,101
-279,716	-93,578	-0,069	-0,014
-278,701	-11,319	-0,088	-0,042
-277,686	-61,439	0,110	0,033
-276,672	-20,631	0,127	0,056
-275,657	-36,465	-0,025	-0,010
-274,643	-200,000	-0,012	0,064
-273,628	-100,927	-0,069	-0,012
-272,613	142,844	-0,041	0,039
-271,599	-61,899	0,119	-0,036
-270,584	160,937	-0,061	0,062
-269,570	-200,000	0,031	0,119
-268,555	-200,000	-0,037	0,137
-267,540	-141,001	0,066	-0,005
-266,526	576,257	-0,072	-0,127
-265,511	-200,000	-0,010	0,077
-264,497	-29,590	0,208	0,086
-263,482	76,525	0,078	-0,060
-262,467	-200,000	0,031	0,127
-261,453	125,249	0,054	0,050
-260,438	-153,644	-0,155	-0,008
-259,424	8,790	0,053	0,029
-258,409	37,305	-0,122	0,078
-257,395	-82,175	0,064	-0,015
-256,380	558,622	0,040	-0,070
-255,365	-165,203	0,167	0,005
-254,351	-18,748	-0,030	-0,013
-253,336	800,000	-0,026	-0,055
-252,322	111,050	-0,159	0,138
-251,307	800,000	-0,041	-0,085
-250,292	184,437	0,009	0,009
-249,278	-200,000	-0,030	-0,107
-248,263	-158,951	0,130	-0,005
-247,249	73,433	0,088	-0,067
-246,234	-200,000	-0,021	0,000
-245,219	800,000	-0,020	-0,056
-244,205	-200,000	-0,008	0,066
-243,190	-200,000	0,009	0,031
-242,176	764,830	0,028	-0,055
-241,161	478,402	-0,026	0,043
-240,146	-200,000	-0,004	0,109
-239,132	-53,812	0,161	0,053
-238,117	-18,115	-0,154	0,069
-237,103	-4,068	0,147	0,073
-236,088	-135,952	-0,052	-0,004
-235,073	109,271	0,156	0,135
-234,059	-58,866	0,073	-0,023
-233,044	294,688	0,019	-0,025
-232,030	-71,073	-0,138	-0,037
-231,015	-133,539	-0,146	-0,013
-230,000	539,604	0,087	-0,150
-228,986	384,356	-0,084	-0,125
-227,971	-71,873	0,045	0,012
-226,957	-3,857	-0,134	0,067
-225,942	353,386	-0,076	0,110
-224,927	800,000	0,005	0,015
-223,913	-56,129	0,118	-0,038
-222,898	-200,000	0,022	-0,105
-221,884	15,359	-0,047	-0,026
-220,869	-100,327	0,022	-0,004
-219,855	-200,000	0,003	0,149
-218,840	800,000	0,030	0,073
-217,825	42,089	-0,040	-0,026
-216,811	-142,080	-0,022	-0,002
-215,796	-148,499	-0,062	-0,004
-214,782	287,227	-0,035	-0,046
-213,767	-200,000	0,019	0,070
-212,752	-200,000	-0,004	-0,055
-211,738	149,759	-0,102	0,100
-210,723	-200,000	-0,008	0,115
-209,709	28,412	0,091	0,055
-208,694	16,209	-0,006	-0,003
-207,679	-24,725	-0,069	0,030
-206,665	256,329	-0,084	-0,104
-205,650	473,369	-0,034	0,056
-204,636	61,095	-0,072	0,051
-203,621	100,735	0,105	-0,088
-202,606	306,019	-0,036	-0,049
-201,592	146,676	-0,063	0,061
-200,577	800,000	-0,041	0,119
-199,563	-100,308	0,245	-0,043
-198,548	-200,000	-0,012	0,045
-197,533	-51,505	-0,162	0,054
-196,519	-9,173	0,058	0,028
-195,504	-200,000	0,032	-0,113
-194,490	-120,283	-0,116	-0,014
-193,475	-69,317	0,100	0,028
-192,460	724,450	-0,045	0,087
-191,446	15,985	0,143	0,081
-190,431	-48,599	0,071	0,024
-189,417	-77,189	-0,097	0,024
-188,402	170,965	-0,078	0,080
-187,387	-92,721	-0,040	0,008
-186,373	-200,000	0,038	-0,150
-185,358	400,577	-0,048	-0,073
-184,344	7,437	0,082	0,044
-183,329	-42,104	-0,059	0,022
-182,315	648,804	0,066	0,122
-181,300	-79,224	-0,106	-0,026
-180,285	584,762	0,046	-0,081
-179,271	-165,306	-0,102	0,003
-178,256	-200,000	-0,002	0,030
-177,242	-200,000	-0,008	0,050
-176,227	-48,502	0,091	0,031
-175,212	-200,000	0,035	-0,152
-174,198	225,577	-0,027	0,032
-173,183	-160,650	0,076	-0,003
-172,169	6,633	0,027	0,015
-171,154	702,153	0,004	-0,008
-170,139	800,000	-0,017	-0,035
-169,125	-200,000	0,005	0,055
-168,110	-137,711	0,108	-0,009
-167,096	-200,000	-0,000	-0,081
-166,081	-42,499	-0,056	0,021
-165,066	-1,648	0,114	-0,058
-164,052	191,980	0,008	0,008
-163,037	-200,000	-0,014	-0,103
-162,023	4,501	0,098	-0,052
-161,008	-200,000	0,002	0,127
-159,993	741,086	-0,008	0,016
-158,979	500,343	-0,039	0,065
-157,964	-200,000	-0,016	0,067
-156,950	446,322	-0,069	-0,110
-155,935	104,596	0,056	0,047
-154,920	349,908	-0,032	0,046
-153,906	-110,350	-0,069	0,010
-152,891	-200,000	-0,034	0,121
-151,877	-71,155	0,012	0,003
-150,862	158,068	-0,037	0,037
-149,847	176,518	0,038	0,040
-148,833	-200,000	-0,026	0,118
-147,818	800,000	0,052	0,115
-146,804	87,752	0,122	-0,097
-145,789	167,194	0,037	0,038
-144,775	-50,171	-0,070	-0,024
-143,760	-200,000	-0,007	0,054
-142,745	-200,000	0,003	-0,109
-141,731	82,607	-0,041	-0,032
-140,716	190,792	0,089	-0,097
-139,702	-114,642	0,103	0,014
-138,687	680,653	0,021	0,040
-137,672	-200,000	-0,033	-0,187
-136,658	-5,197	0,080	-0,040
-135,643	-200,000	0,014	-0,155
-134,629	242,205	-0,034	-0,041
-133,614	107,173	-0,048	-0,041
-132,599	91,901	0,142	0,115
-131,585	-156,399	-0,033	-0,001
-130,570	800,000	0,056	-0,163
-129,556	11,702	-0,036	0,020
-128,541	242,984	-0,053	-0,064
-127,526	-130,618	0,096	-0,009
-126,512	-85,193	-0,043	0,010
-125,497	676,044	0,048	-0,090
-124,483	22,853	0,053	-0,031
-123,468	56,058	-0,076	0,053
-122,453	17,514	-0,205	-0,117
-121,439	-39,932	-0,114	0,043
-120,424	-76,910	-0,079	0,020
