DTS Sentinel unit serial number:	SN410029Multiplexer serial number:	ORYXHardware model number:	OX2-SRSoftware version number:	ORYX F/W v4,00 Oryx Data Collector v3.7.2.0data status	okinstallation	B5 Nyhavnadifferential loss correction	single-endedforward channel	channel 2reverse channel	N/Adate	2023/12/13time	22:57:13forward acquisition time	300,00reverse acquisition time	0,00gamma	499,1914k internal	0,3154k external	0,3154temperature offset calibration	1,0000default loss term (dB/km)	0,3820temperature slope calibration	1,0000multiplexer offset coefficient	1,0000multiplexer slope coefficient	1,0000fibre end	0,00T internal ref (°C)	9,12T ext. ref 1 (°C)	-7,51T ext. ref 2 (°C)	-7,53length (m)	temperature (°C)	Stokes	anti-Stokes-744,400	-126,944	0,217	-0,023
-743,385	-79,242	-0,398	-0,099
-742,371	367,162	0,126	0,189
-741,356	-124,037	-0,517	-0,059
-740,342	-104,986	0,203	0,034
-739,327	-62,352	-0,339	-0,104
-738,312	16,714	0,161	0,094
-737,298	-85,769	-0,352	-0,080
-736,283	2,616	0,066	-0,035
-735,269	29,132	-0,282	-0,176
-734,254	-118,693	0,118	0,015
-733,239	64,726	-0,498	-0,371
-732,225	-120,010	0,234	0,029
-731,210	-25,754	0,126	0,055
-730,196	99,226	0,072	0,061
-729,181	-200,000	-0,040	-0,183
-728,167	612,097	0,059	0,110
-727,152	-143,716	0,079	0,005
-726,137	-15,463	-0,072	-0,034
-725,123	-200,000	-0,015	0,067
-724,108	36,280	-0,122	-0,079
-723,094	523,092	-0,145	-0,253
-722,079	-200,000	-0,007	-0,228
-721,064	-200,000	-0,012	-0,124
-720,050	-62,857	0,007	-0,002
-719,035	54,762	-0,072	-0,051
-718,021	356,980	-0,072	0,106
-717,006	87,106	-0,047	0,038
-715,991	-200,000	-0,005	0,000
-714,977	-179,741	-0,167	0,003
-713,962	800,000	-0,040	-0,119
-712,948	-200,000	-0,001	0,160
-711,933	800,000	0,036	0,110
-710,918	449,643	-0,059	0,097
-709,904	800,000	0,033	-0,106
-708,889	-29,676	-0,084	-0,035
-707,875	36,600	0,018	-0,012
-706,860	323,341	-0,033	0,047
-705,845	242,763	0,035	0,044
-704,831	246,990	0,060	-0,075
-703,816	254,832	-0,074	-0,093
-702,802	-118,742	0,142	-0,018
-701,787	-40,425	-0,203	0,077
-700,772	421,283	-0,011	0,018
-699,758	149,138	-0,122	0,121
-698,743	-45,939	0,087	0,032
-697,729	-65,870	0,107	-0,031
-696,714	142,261	0,128	0,125
-695,699	-86,398	-0,070	-0,016
-694,685	75,516	-0,073	-0,057
-693,670	800,000	-0,050	-0,120
-692,656	272,003	0,034	0,044
-691,641	-87,377	0,116	0,026
-690,627	-200,000	0,008	0,053
-689,612	-173,574	0,115	-0,002
-688,597	-200,000	-0,035	-0,136
-687,583	-200,000	0,007	0,077
-686,568	96,103	-0,092	-0,077
-685,554	663,592	-0,058	-0,111
-684,539	-200,000	-0,030	0,153
-683,524	-200,000	-0,015	0,103
-682,510	25,570	-0,090	0,055
-681,495	130,471	-0,024	-0,023
-680,481	57,787	-0,040	-0,029
-679,466	200,501	-0,089	-0,101
-678,451	-200,000	-0,003	-0,055
-677,437	371,073	-0,026	0,039
-676,422	261,797	0,118	0,151
-675,408	800,000	0,053	0,123
-674,393	-200,000	-0,002	0,144
-673,378	-62,428	-0,070	0,021
-672,364	-111,309	-0,086	0,013
-671,349	-45,984	-0,015	0,005
-670,335	-119,156	0,032	0,004
-669,320	149,074	-0,106	0,106
-668,305	-200,000	0,024	0,087
-667,291	313,694	0,031	0,043
-666,276	-140,181	-0,065	0,005
-665,262	-200,000	-0,006	0,138
-664,247	-200,000	0,021	0,088
-663,232	-66,314	0,089	0,026
-662,218	46,134	0,125	0,085
-661,203	-200,000	-0,016	0,080
-660,189	30,049	-0,133	0,083
-659,174	-24,774	0,014	0,006
-658,159	124,273	0,118	-0,109
-657,145	-28,597	-0,066	-0,028
-656,130	-59,462	0,072	0,023
-655,116	70,770	0,172	0,131
-654,101	-145,618	-0,088	-0,006
-653,086	-174,139	-0,031	-0,001
-652,072	-200,000	-0,039	-0,144
-651,057	-200,000	-0,020	-0,074
-650,043	26,703	-0,024	-0,015
-649,028	-184,339	-0,018	0,000
-648,014	47,397	0,101	-0,069
-646,999	574,640	-0,056	-0,102
-645,984	605,935	-0,043	-0,080
-644,970	-102,283	-0,096	-0,017
-643,955	-200,000	-0,028	-0,148
-642,941	800,000	-0,067	0,145
-641,926	110,563	0,063	-0,056
-640,911	620,920	-0,048	-0,089
-639,897	91,310	0,035	0,029
-638,882	75,682	-0,038	0,030
-637,868	-149,608	-0,094	-0,005
-636,853	800,000	-0,040	-0,113
-635,838	104,330	0,013	-0,011
-634,824	9,127	-0,064	-0,035
-633,809	120,873	0,114	0,104
-632,795	-113,839	-0,027	-0,004
-631,780	119,021	0,068	0,062
-630,765	17,023	0,039	-0,023
-629,751	-141,187	-0,187	0,014
-628,736	-200,000	-0,004	-0,084
-627,722	123,376	-0,090	0,083
-626,707	88,382	-0,030	-0,024
-625,692	68,831	-0,086	-0,065
-624,678	238,317	0,045	0,056
-623,663	-84,815	0,060	0,014
-622,649	-73,791	-0,061	-0,016
-621,634	210,369	0,044	-0,051
-620,619	800,000	0,041	-0,087
-619,605	-143,188	0,113	0,008
-618,590	-200,000	-0,000	0,042
-617,576	55,015	-0,157	0,111
-616,561	225,434	-0,046	0,055
-615,546	-200,000	0,021	0,136
-614,532	253,403	0,044	-0,055
-613,517	-200,000	-0,022	-0,092
-612,503	800,000	-0,054	-0,127
-611,488	-7,314	0,061	0,030
-610,474	-200,000	-0,012	-0,056
-609,459	429,799	0,024	0,039
-608,444	416,679	0,049	0,076
-607,430	365,319	-0,078	-0,116
-606,415	-200,000	-0,030	-0,170
-605,401	197,581	0,063	-0,070
-604,386	-168,942	-0,128	-0,003
-603,371	43,256	0,050	0,033
-602,357	-43,642	-0,061	-0,023
-601,342	-200,000	-0,000	0,118
-600,328	31,452	-0,131	0,082
-599,313	267,429	-0,018	0,023
-598,298	120,170	-0,098	0,089
-597,284	20,624	-0,010	0,006
-596,269	259,551	-0,037	-0,047
-595,255	800,000	-0,067	-0,143
-594,240	-125,004	-0,116	-0,013
-593,225	-200,000	0,012	-0,107
-592,211	528,252	-0,092	0,161
-591,196	31,303	0,067	0,042
-590,182	93,581	0,042	0,035
-589,167	-37,926	-0,028	-0,011
-588,152	-122,440	0,105	0,012
-587,138	424,587	0,004	-0,007
-586,123	-200,000	0,017	-0,060
-585,109	219,002	-0,052	-0,062
-584,094	-200,000	0,010	-0,092
-583,079	-200,000	-0,013	0,087
-582,065	-4,015	-0,050	0,025
-581,050	-200,000	-0,040	-0,132
-580,036	-200,000	-0,005	0,025
-579,021	-200,000	-0,016	0,134
-578,006	-154,321	-0,056	-0,003
-576,992	-143,773	0,019	-0,001
-575,977	493,983	-0,019	0,031
-574,963	159,529	0,102	0,104
-573,948	659,910	-0,041	-0,078
-572,934	227,228	-0,068	-0,082
-571,919	373,466	-0,040	0,060
-570,904	323,914	-0,090	0,126
-569,890	333,051	-0,052	-0,075
-568,875	248,163	-0,059	-0,073
-567,861	-121,183	0,164	-0,020
-566,846	-25,091	0,163	0,071
-565,831	72,187	-0,118	-0,090
-564,817	-18,018	-0,064	-0,029
-563,802	800,000	0,072	-0,159
-562,788	-28,821	-0,188	-0,079
-561,773	-106,462	0,089	0,014
-560,758	89,298	-0,034	-0,027
-559,744	800,000	0,058	0,162
-558,729	-126,633	-0,056	0,006
-557,715	-26,160	-0,086	0,037
-556,700	-63,675	0,051	-0,015
-555,685	-180,862	-0,067	-0,001
-554,671	390,064	-0,036	0,055
-553,656	-67,097	0,020	-0,006
-552,642	-56,516	0,060	-0,019
-551,627	626,810	-0,041	0,077
-550,612	102,038	-0,075	0,064
-549,598	800,000	0,044	-0,126
-548,583	-200,000	0,003	-0,015
-547,569	305,241	-0,048	0,065
-546,554	800,000	-0,007	0,017
-545,539	800,000	-0,010	0,028
-544,525	-76,007	-0,009	0,002
-543,510	-101,786	-0,140	-0,025
-542,496	-66,456	0,095	0,028
-541,481	-200,000	0,011	-0,117
-540,466	-72,521	0,049	0,013
-539,452	36,012	0,059	0,038
-538,437	-124,318	0,175	0,020
-537,423	-200,000	-0,016	0,163
-536,408	48,205	-0,059	0,041
-535,393	456,045	-0,037	-0,060
-534,379	-83,949	-0,107	-0,025
-533,364	164,336	-0,080	0,083
-532,350	115,720	-0,096	-0,086
-531,335	274,253	0,044	0,057
-530,321	-148,874	0,073	0,004
-529,306	-200,000	-0,008	0,036
-528,291	97,915	0,145	-0,122
-527,277	22,672	-0,107	-0,064
-526,262	2,250	0,125	-0,066
-525,248	-161,234	0,093	-0,003
-524,233	116,419	-0,077	-0,069
-523,218	-200,000	0,009	0,060
-522,204	-200,000	0,014	-0,092
-521,189	-4,889	0,078	0,039
-520,175	247,241	0,065	-0,081
-519,160	245,228	-0,041	-0,050
-518,145	751,681	0,043	-0,085
-517,131	82,949	0,103	0,082
-516,116	52,904	-0,046	-0,032
-515,102	100,019	-0,012	0,010
-514,087	-173,467	-0,069	-0,001
-513,072	756,797	-0,034	-0,067
-512,058	800,000	0,067	0,142
-511,043	-200,000	0,013	-0,116
-510,029	54,240	0,008	-0,005
-509,014	-200,000	0,013	-0,091
-507,999	-49,088	0,035	0,012
-506,985	-70,669	0,043	-0,012
-505,970	115,001	-0,080	0,071
-504,956	294,479	-0,029	-0,038
-503,941	800,000	-0,021	-0,047
-502,926	602,253	0,064	0,117
-501,912	177,049	0,110	0,117
-500,897	-200,000	0,023	-0,126
-499,883	-164,376	-0,132	0,004
-498,868	-200,000	0,012	-0,093
-497,853	-200,000	-0,013	-0,110
-496,839	185,752	0,019	-0,021
-495,824	-126,447	0,130	0,014
-494,810	-60,287	-0,088	0,027
-493,795	-200,000	0,006	0,100
-492,781	800,000	-0,034	-0,087
-491,766	-175,206	-0,131	-0,003
-490,751	-200,000	0,005	0,031
-489,737	-200,000	-0,023	0,076
-488,722	452,728	0,046	-0,075
-487,708	7,589	-0,059	0,032
-486,693	-156,429	0,121	-0,005
-485,678	-69,127	-0,046	0,013
-484,664	-72,205	-0,088	0,024
-483,649	31,859	0,024	0,015
-482,635	188,799	0,034	-0,037
-481,620	307,351	-0,062	-0,084
-480,605	-200,000	0,003	-0,033
-479,591	-200,000	-0,015	-0,057
-478,576	493,428	-0,020	-0,034
-477,562	-200,000	0,039	-0,233
-476,547	32,012	-0,032	-0,020
-475,532	-72,410	0,126	0,034
-474,518	-200,000	-0,014	-0,110
-473,503	371,902	0,028	0,042
-472,489	-200,000	-0,006	0,029
-471,474	-12,774	0,017	-0,008
-470,459	46,021	0,121	-0,082
-469,445	120,929	-0,083	-0,075
-468,430	426,436	-0,028	-0,044
-467,416	-15,679	0,064	0,030
-466,401	118,055	0,109	0,098
-465,386	-200,000	0,004	0,046
-464,372	-69,496	0,064	-0,018
-463,357	56,037	0,068	-0,048
-462,343	800,000	-0,005	-0,014
-461,328	-101,895	0,022	0,004
-460,313	800,000	0,028	0,076
-459,299	800,000	-0,022	0,063
-458,284	179,333	0,062	0,066
-457,270	800,000	-0,108	0,236
-456,255	-200,000	0,005	-0,051
-455,241	-200,000	-0,006	-0,073
-454,226	-200,000	0,012	-0,078
-453,211	309,696	0,072	-0,098
-452,197	-117,325	0,061	0,008
-451,182	-171,818	0,069	-0,002
-450,168	800,000	-0,072	0,166
-449,153	-93,481	0,053	-0,011
-448,138	162,693	-0,080	-0,082
-447,124	84,186	-0,059	-0,047
-446,109	-111,716	0,090	-0,013
-445,095	-200,000	0,008	0,138
-444,080	460,211	0,041	-0,066
-443,065	165,075	-0,080	-0,082
-442,051	-156,499	-0,177	-0,008
-441,036	-182,002	-0,159	-0,002
-440,022	212,439	0,011	-0,013
-439,007	743,015	0,018	0,035
-437,992	-42,605	0,075	-0,028
-436,978	-200,000	-0,014	0,131
-435,963	-21,301	-0,099	-0,044
-434,949	91,021	0,031	-0,026
-433,934	568,220	0,020	0,036
-432,919	673,228	-0,062	-0,117
-431,905	482,896	-0,016	-0,027
-430,890	-200,000	0,008	-0,131
-429,876	546,027	-0,026	-0,045
-428,861	132,342	0,027	-0,025
-427,846	7,593	-0,111	-0,060
-426,832	-114,198	-0,108	0,015
-425,817	53,267	-0,038	0,027
-424,803	-151,262	0,097	0,005
-423,788	-54,061	0,053	0,017
-422,773	-1,079	0,085	-0,044
-421,759	-40,225	0,066	0,025
-420,744	-200,000	-0,005	-0,068
-419,730	800,000	-0,077	-0,171
-418,715	317,581	0,006	-0,009
-417,701	132,817	0,072	-0,067
-416,686	800,000	0,022	-0,056
-415,671	-200,000	-0,001	-0,215
-414,657	72,511	-0,070	-0,053
-413,642	-200,000	-0,028	-0,113
-412,628	800,000	0,026	-0,069
-411,613	64,645	-0,070	-0,052
-410,598	99,416	-0,031	0,026
-409,584	-177,388	0,166	0,003
-408,569	113,488	-0,017	-0,015
-407,555	332,122	0,102	0,144
-406,540	454,952	-0,042	0,068
-405,525	-200,000	0,007	0,102
-404,511	-13,422	-0,050	-0,024
-403,496	-200,000	0,015	0,049
-402,482	199,051	-0,048	0,054
-401,467	-200,000	0,041	0,186
-400,452	-200,000	-0,027	0,106
-399,438	101,782	0,231	0,196
-398,423	-160,205	-0,086	-0,003
-397,409	-200,000	-0,023	0,088
-396,394	-61,321	-0,058	-0,018
-395,379	-200,000	0,024	-0,130
-394,365	800,000	0,018	0,055
-393,350	77,117	0,076	0,059
-392,336	318,149	0,075	-0,104
-391,321	378,604	-0,097	0,145
-390,306	-147,512	-0,077	0,005
-389,292	358,078	-0,020	-0,030
-388,277	-70,822	-0,067	0,018
-387,263	108,245	-0,100	0,087
-386,248	325,007	-0,042	0,058
-385,233	-200,000	-0,006	0,023
-384,219	410,829	0,030	-0,046
-383,204	-191,703	-0,154	-0,001
-382,190	800,000	0,016	0,038
-381,175	-83,078	-0,013	0,003
-380,160	255,584	0,083	-0,104
-379,146	12,093	-0,113	-0,063
-378,131	-163,965	0,130	-0,004
-377,117	133,734	-0,070	0,066
-376,102	-162,352	0,213	-0,008
-375,088	429,887	0,027	0,042
-374,073	65,040	0,091	-0,067
-373,058	115,637	-0,123	-0,109
-372,044	800,000	0,079	0,168
-371,029	181,167	0,038	0,040
-370,015	-200,000	-0,014	0,082
-369,000	-200,000	-0,000	0,008
-367,985	270,203	-0,089	0,114
-366,971	57,516	-0,098	0,070
-365,956	-200,000	0,007	0,024
-364,942	-172,015	0,108	0,002
-363,927	-200,000	-0,000	0,160
-362,912	800,000	0,045	0,095
-361,898	800,000	-0,056	0,135
-360,883	-105,599	-0,061	0,010
-359,869	-200,000	0,020	-0,138
-358,854	800,000	-0,019	-0,055
-357,839	352,056	-0,033	0,048
-356,825	-200,000	-0,003	0,101
-355,810	10,162	0,092	0,051
-354,796	55,771	-0,057	-0,040
-353,781	266,675	0,091	-0,116
-352,766	-200,000	-0,006	0,047
-351,752	-200,000	0,002	0,078
-350,737	-200,000	-0,012	0,159
-349,723	-200,000	0,028	-0,094
-348,708	-58,440	-0,116	0,036
-347,693	752,788	-0,020	-0,040
-346,679	800,000	0,011	0,031
-345,664	-85,992	-0,079	0,018
-344,650	91,059	0,061	0,050
-343,635	-200,000	-0,136	0,000
-342,620	133,659	-0,067	0,063
-341,606	-187,550	0,036	0,000
-340,591	112,044	0,118	0,103
-339,577	800,000	-0,010	0,023
-338,562	-87,341	-0,056	0,012
-337,548	-200,000	0,001	-0,143
-336,533	133,798	-0,016	0,015
-335,518	-25,115	0,198	0,085
-334,504	800,000	0,015	-0,036
-333,489	26,871	0,144	-0,087
-332,475	-88,001	-0,103	0,022
-331,460	85,623	-0,023	0,019
-330,445	82,351	-0,074	-0,058
-329,431	-200,000	-0,038	0,126
-328,416	195,867	0,074	-0,082
-327,402	-144,084	0,145	-0,010
-326,387	-5,106	-0,045	0,023
-325,372	208,434	-0,044	0,050
-324,358	42,090	-0,048	0,031
-323,343	31,842	0,097	0,061
-322,329	317,394	0,012	0,017
-321,314	-128,550	-0,104	-0,011
-320,299	800,000	0,033	0,104
-319,285	-33,595	0,050	-0,020
-318,270	-83,940	0,074	-0,017
-317,256	249,137	0,005	0,006
-316,241	91,801	0,076	-0,062
-315,226	-100,708	-0,057	-0,010
-314,212	-53,780	-0,051	0,017
-313,197	-200,000	-0,026	0,140
-312,183	-200,000	-0,011	-0,050
-311,168	-102,582	-0,085	0,015
-310,153	230,068	0,055	0,065
-309,139	102,343	-0,131	0,111
-308,124	15,669	-0,035	-0,020
-307,110	-151,124	0,113	-0,006
-306,095	-200,000	0,002	0,055
-305,080	-70,005	-0,142	-0,039
-304,066	-200,000	-0,008	0,055
-303,051	-31,088	0,122	0,050
-302,037	191,449	0,074	0,081
-301,022	-200,000	0,010	-0,067
-300,008	-200,000	-0,022	-0,180
-298,993	-17,521	-0,095	-0,043
-297,978	-200,000	0,002	0,090
-296,964	238,990	-0,035	0,042
-295,949	29,107	-0,103	-0,063
-294,935	-19,440	0,127	-0,057
-293,920	-26,910	-0,027	0,012
-292,905	800,000	-0,028	0,063
-291,891	-63,198	0,097	-0,029
-290,876	87,534	0,064	0,051
-289,862	800,000	0,049	0,129
-288,847	359,280	-0,013	-0,019
-287,832	-127,452	-0,080	0,008
-286,818	325,474	0,048	-0,067
-285,803	-86,142	0,075	-0,017
-284,789	254,002	0,102	0,127
-283,774	207,126	0,167	0,189
-282,759	-200,000	-0,023	0,132
-281,745	549,308	-0,028	-0,048
-280,730	-88,002	0,141	0,030
-279,716	22,310	-0,106	0,063
-278,701	4,664	-0,070	-0,037
-277,686	37,906	0,126	0,081
-276,672	260,393	0,057	0,072
-275,657	-200,000	-0,019	0,076
-274,643	-51,986	0,150	0,050
-273,628	-200,000	0,013	-0,123
-272,613	-103,930	0,053	-0,009
-271,599	800,000	0,021	0,049
-270,584	-4,600	-0,031	0,016
-269,570	120,598	0,038	-0,034
-268,555	800,000	-0,012	-0,032
-267,540	78,147	0,148	-0,114
-266,526	82,215	-0,069	0,054
-265,511	155,219	0,136	-0,135
-264,497	722,799	0,064	0,123
-263,482	58,053	0,082	0,058
-262,467	-200,000	0,012	0,054
-261,453	-130,569	0,130	0,013
-260,438	800,000	0,015	0,043
-259,424	800,000	0,017	0,046
-258,409	396,527	-0,049	-0,074
-257,395	-62,330	-0,070	-0,021
-256,380	11,538	0,077	0,042
-255,365	90,399	0,067	0,054
-254,351	102,937	-0,138	0,117
-253,336	-200,000	-0,017	-0,103
-252,322	15,994	0,056	-0,032
-251,307	616,193	-0,016	0,029
-250,292	-50,294	-0,048	0,016
-249,278	-98,036	-0,058	0,011
-248,263	-119,609	0,190	0,024
-247,249	419,873	-0,041	0,064
-246,234	-29,152	-0,086	-0,036
-245,219	-200,000	-0,028	-0,098
-244,205	800,000	0,046	-0,117
-243,190	25,658	0,073	-0,044
-242,176	-200,000	-0,019	0,123
-241,161	48,067	0,067	-0,045
-240,146	312,431	-0,018	0,024
-239,132	68,571	0,092	0,068
-238,117	-37,492	-0,184	0,071
-237,103	800,000	0,031	-0,094
-236,088	-200,000	-0,022	0,128
-235,073	-118,604	0,035	0,004
-234,059	-200,000	-0,003	0,064
-233,044	-200,000	0,002	0,120
-232,030	148,667	-0,030	-0,030
-231,015	661,824	0,040	-0,076
-230,000	52,232	0,076	0,052
-228,986	-127,053	-0,203	-0,021
-227,971	-200,000	-0,002	0,031
-226,957	800,000	0,026	-0,055
-225,942	7,331	0,171	-0,092
-224,927	-113,915	0,083	-0,012
-223,913	-175,079	-0,120	-0,002
-222,898	-200,000	0,005	0,022
-221,884	-96,143	0,150	-0,029
-220,869	-64,094	0,120	-0,035
-219,855	-200,000	-0,000	0,051
-218,840	794,568	0,098	0,195
-217,825	-13,524	-0,092	0,043
-216,811	766,213	0,071	-0,141
-215,796	138,963	-0,068	-0,065
-214,782	-200,000	-0,003	-0,084
-213,767	800,000	0,062	-0,159
-212,752	684,647	0,052	0,099
-211,738	-200,000	-0,016	0,094
-210,723	-200,000	-0,010	0,098
-209,709	-101,623	-0,122	0,021
-208,694	-17,944	0,048	0,022
-207,679	375,083	-0,049	-0,072
-206,665	615,601	0,036	-0,066
-205,650	800,000	0,090	-0,187
-204,636	441,355	-0,056	-0,089
-203,621	-200,000	-0,007	-0,047
-202,606	-8,064	-0,010	-0,005
-201,592	545,423	-0,056	-0,098
-200,577	33,006	-0,083	-0,052
-199,563	-74,473	-0,143	-0,037
-198,548	800,000	-0,038	0,081
-197,533	-200,000	-0,030	0,107
-196,519	433,263	0,034	-0,053
-195,504	-2,946	-0,071	-0,036
-194,490	-200,000	-0,022	-0,073
-193,475	715,752	-0,017	0,033
-192,460	-21,042	0,106	0,047
-191,446	37,778	0,085	-0,055
-190,431	-200,000	-0,013	-0,100
-189,417	-200,000	-0,004	-0,068
-188,402	-200,000	0,014	0,053
-187,387	-15,500	-0,119	0,055
-186,373	-200,000	-0,045	-0,165
-185,358	4,094	-0,109	0,058
-184,344	154,820	-0,074	0,074
-183,329	-13,903	0,085	-0,039
-182,315	-5,736	0,064	0,032
-181,300	539,573	0,095	-0,164
-180,285	-200,000	0,001	-0,029
-179,271	-200,000	0,012	-0,106
-178,256	800,000	-0,048	-0,106
-177,242	30,949	0,070	-0,043
-176,227	800,000	0,015	0,040
-175,212	-15,604	0,029	0,013
-174,198	-200,000	0,023	0,076
-173,183	332,541	-0,068	-0,095
-172,169	800,000	-0,009	-0,018
-171,154	-200,000	0,025	0,088
-170,139	-200,000	-0,006	-0,048
-169,125	-200,000	0,004	0,063
-168,110	-113,612	0,087	-0,012
-167,096	800,000	0,029	-0,065
-166,081	177,901	-0,047	0,050
-165,066	-98,102	-0,046	0,009
-164,052	-200,000	0,001	0,104
-163,037	-23,194	0,050	-0,021
-162,023	36,757	0,154	0,098
-161,008	22,880	-0,068	0,040
-159,993	-176,439	-0,112	0,002
-158,979	678,702	-0,086	-0,162
-157,964	-149,756	-0,019	-0,001
-156,950	11,351	0,033	0,018
-155,935	-200,000	0,004	0,057
-154,920	-49,506	-0,161	-0,055
-153,906	257,325	0,062	0,077
-152,891	-168,375	0,063	-0,002
-151,877	-200,000	-0,002	0,070
-150,862	38,702	-0,069	-0,044
-149,847	133,595	-0,097	-0,090
-148,833	-95,627	-0,051	0,010
-147,818	224,478	-0,043	-0,051
-146,804	-49,036	-0,037	0,013
-145,789	-200,000	0,029	-0,114
-144,775	-200,000	-0,061	-0,213
-143,760	-23,369	-0,086	-0,037
-142,745	-200,000	0,022	0,114
-141,731	-23,651	-0,097	0,042
-140,716	-146,007	0,057	-0,004
-139,702	-14,034	0,054	-0,025
-138,687	-200,000	-0,000	0,241
-137,672	800,000	-0,012	0,025
-136,658	86,984	0,124	-0,099
-135,643	-56,125	0,074	0,024
-134,629	-200,000	0,040	-0,156
-133,614	791,325	0,019	-0,038
-132,599	192,692	0,060	0,066
-131,585	-6,458	0,058	0,029
-130,570	-40,173	-0,049	-0,018
-129,556	136,128	-0,017	0,016
-128,541	-200,000	-0,001	-0,041
-127,526	84,171	0,071	0,056
-126,512	-116,571	0,146	-0,019
-125,497	-200,000	-0,005	-0,022
-124,483	-200,000	0,019	-0,080
-123,468	83,259	0,058	0,046
-122,453	-200,000	-0,009	0,054
-121,439	238,834	-0,082	0,098
-120,424	-200,000	0,022	0,095
-119,410	452,416	0,047	0,075
