DTS Sentinel unit serial number:	SN410029Multiplexer serial number:	ORYXHardware model number:	OX2-SRSoftware version number:	ORYX F/W v4,00 Oryx Data Collector v3.7.2.0data status	okinstallation	B5 Nyhavnadifferential loss correction	single-endedforward channel	channel 2reverse channel	N/Adate	2023/12/13time	11:02:13forward acquisition time	300,00reverse acquisition time	0,00gamma	499,1914k internal	0,3160k external	0,3160temperature offset calibration	1,0000default loss term (dB/km)	0,3820temperature slope calibration	1,0000multiplexer offset coefficient	1,0000multiplexer slope coefficient	1,0000fibre end	0,00T internal ref (°C)	13,69T ext. ref 1 (°C)	-2,47T ext. ref 2 (°C)	-2,77length (m)	temperature (°C)	Stokes	anti-Stokes-744,400	-200,000	0,027	0,132
-743,385	-98,525	-0,292	0,054
-742,371	239,979	0,056	0,069
-741,356	-51,428	-0,325	0,111
-740,342	605,486	0,050	0,093
-739,327	-85,951	-0,329	0,074
-738,312	-75,492	0,101	0,026
-737,298	-136,539	-0,468	-0,039
-736,283	63,979	0,133	-0,098
-735,269	-149,095	-0,323	-0,019
-734,254	108,087	0,071	0,063
-733,239	62,380	-0,521	-0,383
-732,225	-62,744	0,186	-0,057
-731,210	-5,537	0,019	-0,009
-730,196	237,013	-0,065	-0,079
-729,181	32,492	0,079	0,050
-728,167	800,000	-0,008	0,024
-727,152	-200,000	0,020	-0,183
-726,137	-200,000	0,005	-0,089
-725,123	-200,000	-0,008	0,091
-724,108	-121,893	-0,135	0,016
-723,094	454,762	-0,028	-0,046
-722,079	195,811	0,086	-0,096
-721,064	-146,664	-0,058	-0,004
-720,050	564,879	0,044	0,078
-719,035	289,411	0,047	0,063
-718,021	800,000	-0,096	-0,201
-717,006	194,220	-0,128	-0,142
-715,991	-63,744	-0,117	-0,035
-714,977	-22,023	0,107	-0,048
-713,962	-200,000	-0,023	-0,159
-712,948	343,054	0,056	-0,081
-711,933	-200,000	-0,015	-0,091
-710,918	76,688	-0,070	0,055
-709,904	482,300	0,066	-0,110
-708,889	145,783	-0,115	-0,113
-707,875	657,501	-0,047	-0,089
-706,860	116,802	0,025	-0,023
-705,845	-200,000	0,017	0,158
-704,831	-62,349	0,134	0,041
-703,816	-200,000	-0,007	-0,025
-702,802	-114,982	-0,015	-0,002
-701,787	-200,000	0,015	0,067
-700,772	800,000	-0,034	-0,093
-699,758	554,988	-0,019	0,033
-698,743	653,709	0,094	0,178
-697,729	800,000	0,012	0,038
-696,714	-200,000	-0,003	0,077
-695,699	320,360	-0,074	-0,103
-694,685	-200,000	0,017	-0,090
-693,670	800,000	-0,027	-0,066
-692,656	-131,320	-0,058	0,006
-691,641	-178,183	0,042	0,001
-690,627	-200,000	-0,009	-0,124
-689,612	259,741	0,031	0,039
-688,597	-200,000	0,000	-0,152
-687,583	40,296	-0,110	-0,072
-686,568	800,000	0,050	-0,151
-685,554	-200,000	-0,013	-0,048
-684,539	7,182	0,159	0,087
-683,524	679,318	-0,062	0,120
-682,510	783,369	-0,054	0,110
-681,495	-200,000	-0,006	0,039
-680,481	800,000	-0,024	-0,063
-679,466	421,087	-0,089	-0,141
-678,451	-69,190	0,072	-0,020
-677,437	692,466	-0,039	-0,076
-676,422	155,978	0,081	0,082
-675,408	-116,660	-0,078	-0,010
-674,393	-144,093	-0,080	-0,005
-673,378	-172,795	-0,066	0,001
-672,364	516,104	-0,049	-0,084
-671,349	60,411	-0,084	-0,061
-670,335	-130,046	-0,064	-0,006
-669,320	-200,000	0,027	0,125
-668,305	-200,000	0,001	-0,040
-667,291	-130,592	0,011	0,001
-666,276	-200,000	0,038	-0,133
-665,262	-200,000	-0,023	-0,137
-664,247	285,464	0,044	0,058
-663,232	-54,897	0,029	-0,010
-662,218	-149,920	0,052	0,003
-661,203	108,668	-0,027	-0,024
-660,189	-1,774	-0,046	0,024
-659,174	-200,000	-0,011	-0,155
-658,159	-154,237	-0,086	-0,004
-657,145	-24,797	-0,053	0,023
-656,130	202,116	0,082	-0,093
-655,116	-104,965	0,057	-0,009
-654,101	-200,000	-0,001	0,036
-653,086	-81,812	0,031	0,007
-652,072	-200,000	0,003	-0,034
-651,057	-25,114	0,034	0,015
-650,043	-28,975	-0,049	-0,021
-649,028	304,619	-0,053	0,072
-648,014	54,108	-0,094	0,066
-646,999	-92,009	-0,075	0,015
-645,984	-135,535	0,120	0,010
-644,970	-69,407	0,096	-0,027
-643,955	162,636	0,040	0,041
-642,941	760,092	-0,050	-0,100
-641,926	392,526	-0,061	-0,093
-640,911	112,338	0,069	0,061
-639,897	800,000	0,028	0,083
-638,882	17,453	0,039	-0,022
-637,868	-200,000	0,000	-0,050
-636,853	-72,000	-0,099	-0,027
-635,838	-164,475	-0,076	-0,002
-634,824	-78,706	0,130	-0,032
-633,809	-200,000	0,018	0,072
-632,795	-111,044	0,105	-0,016
-631,780	85,290	-0,049	-0,039
-630,765	-145,939	-0,088	-0,006
-629,751	-148,841	-0,109	-0,006
-628,736	-200,000	-0,012	-0,059
-627,722	800,000	-0,074	-0,158
-626,707	242,870	0,052	-0,064
-625,692	-35,124	0,015	-0,006
-624,678	791,841	0,040	0,082
-623,663	42,618	0,129	-0,086
-622,649	173,352	-0,085	-0,090
-621,634	-200,000	0,048	-0,156
-620,619	-116,350	0,061	-0,008
-619,605	800,000	0,068	0,159
-618,590	267,097	-0,086	0,111
-617,576	-107,301	0,196	0,031
-616,561	-147,624	-0,131	0,008
-615,546	176,293	-0,100	-0,106
-614,532	-31,608	-0,184	-0,075
-613,517	-200,000	0,017	0,129
-612,503	-143,123	-0,120	-0,008
-611,488	-200,000	0,007	0,045
-610,474	189,210	-0,050	0,055
-609,459	-200,000	-0,003	0,029
-608,444	218,582	0,048	-0,057
-607,430	-200,000	0,037	-0,119
-606,415	-200,000	-0,009	-0,110
-605,401	-200,000	-0,014	0,046
-604,386	-34,730	-0,081	-0,032
-603,371	-200,000	-0,007	0,102
-602,357	-117,816	0,084	-0,011
-601,342	-200,000	0,034	-0,115
-600,328	139,477	-0,056	-0,054
-599,313	800,000	0,038	-0,116
-598,298	-200,000	-0,006	0,109
-597,284	-200,000	-0,018	0,069
-596,269	-53,055	0,069	-0,023
-595,255	-200,000	0,029	0,103
-594,240	-200,000	0,014	-0,058
-593,225	-61,988	-0,123	0,037
-592,211	-200,000	0,012	-0,053
-591,196	-200,000	-0,004	-0,064
-590,182	800,000	-0,025	-0,078
-589,167	800,000	0,011	0,026
-588,152	-200,000	-0,014	0,076
-587,138	-150,922	-0,083	-0,005
-586,123	-109,617	-0,022	0,003
-585,109	507,493	-0,061	0,105
-584,094	-200,000	-0,008	-0,110
-583,079	-61,914	0,100	0,030
-582,065	800,000	0,007	-0,015
-581,050	150,008	0,078	0,077
-580,036	-68,704	0,005	0,001
-579,021	791,646	-0,085	-0,173
-578,006	107,015	-0,063	-0,055
-576,992	70,876	0,152	-0,115
-575,977	-200,000	0,019	0,086
-574,963	-26,375	0,033	-0,014
-573,948	-200,000	0,037	-0,158
-572,934	185,429	0,123	-0,134
-571,919	225,465	-0,048	-0,057
-570,904	-177,718	-0,125	-0,002
-569,890	413,014	-0,062	-0,097
-568,875	-138,173	0,116	-0,009
-567,861	-110,595	-0,033	-0,005
-566,846	-124,207	0,055	0,006
-565,831	-200,000	0,014	-0,099
-564,817	-200,000	-0,021	0,097
-563,802	242,067	-0,067	-0,082
-562,788	800,000	0,053	-0,166
-561,773	377,338	0,006	0,009
-560,758	263,189	0,080	-0,102
-559,744	800,000	0,085	-0,172
-558,729	167,610	-0,098	-0,102
-557,715	10,943	-0,066	-0,037
-556,700	-44,578	-0,244	-0,089
-555,685	-67,634	0,030	-0,008
-554,671	329,327	0,082	-0,116
-553,656	-2,572	0,041	0,021
-552,642	-15,859	0,040	-0,019
-551,627	-110,277	-0,060	-0,009
-550,612	106,909	0,045	0,039
-549,598	-58,334	-0,072	-0,023
-548,583	-200,000	-0,021	-0,086
-547,569	-61,510	0,026	-0,008
-546,554	-105,853	-0,130	-0,021
-545,539	-200,000	-0,025	0,117
-544,525	-137,083	0,054	-0,004
-543,510	41,115	-0,035	0,023
-542,496	-91,288	-0,090	-0,019
-541,481	800,000	-0,054	0,119
-540,466	436,450	0,034	0,055
-539,452	-200,000	-0,029	-0,098
-538,437	560,437	0,090	0,159
-537,423	32,374	-0,093	0,058
-536,408	192,648	-0,027	0,029
-535,393	-200,000	-0,034	-0,124
-534,379	-51,524	0,160	-0,054
-533,364	49,864	-0,100	-0,069
-532,350	-84,031	0,063	-0,014
-531,335	44,556	-0,020	-0,014
-530,321	-1,497	-0,075	0,039
-529,306	800,000	-0,045	0,109
-528,291	800,000	-0,077	-0,165
-527,277	-200,000	0,011	0,120
-526,262	-58,309	-0,075	-0,024
-525,248	-200,000	-0,009	-0,114
-524,233	800,000	0,030	0,078
-523,218	-200,000	-0,012	0,110
-522,204	-19,384	-0,031	-0,014
-521,189	-200,000	0,012	-0,085
-520,175	49,397	-0,081	-0,056
-519,160	379,751	-0,006	-0,009
-518,145	661,101	0,035	-0,066
-517,131	242,324	-0,037	0,045
-516,116	-200,000	-0,009	-0,036
-515,102	-200,000	-0,001	0,057
-514,087	-132,040	-0,024	0,002
-513,072	-200,000	0,004	-0,049
-512,058	63,081	0,091	0,066
-511,043	0,543	0,090	0,047
-510,029	800,000	0,038	0,090
-509,014	-139,418	-0,159	0,012
-507,999	-162,417	-0,073	-0,003
-506,985	332,612	0,049	0,070
-505,970	800,000	-0,044	-0,125
-504,956	64,814	-0,029	0,021
-503,941	61,957	-0,066	0,048
-502,926	-91,400	0,167	0,035
-501,912	-3,533	-0,016	-0,008
-500,897	-200,000	0,002	0,013
-499,883	-200,000	-0,007	0,087
-498,868	353,767	-0,049	0,071
-497,853	0,147	-0,060	-0,031
-496,839	157,176	-0,130	-0,132
-495,824	354,478	0,046	0,067
-494,810	29,190	0,126	0,078
-493,795	738,146	-0,097	-0,191
-492,781	-168,601	-0,172	-0,005
-491,766	84,166	-0,044	-0,035
-490,751	-68,817	-0,036	0,010
-489,737	1,822	-0,098	0,051
-488,722	49,593	-0,108	-0,074
-487,708	-170,975	0,160	0,004
-486,693	-200,000	0,004	-0,117
-485,678	7,633	-0,133	-0,072
-484,664	23,421	-0,044	-0,026
-483,649	-200,000	-0,011	0,075
-482,635	-14,056	0,040	0,019
-481,620	800,000	0,032	-0,088
-480,605	523,187	0,053	-0,091
-479,591	-200,000	0,012	0,095
-478,576	741,592	0,070	-0,137
-477,562	-98,024	0,085	-0,016
-476,547	413,831	0,078	-0,121
-475,532	106,036	0,074	-0,064
-474,518	1,467	0,101	-0,053
-473,503	557,143	0,072	0,127
-472,489	167,889	0,098	0,102
-471,474	-96,491	-0,057	-0,011
-470,459	-80,404	0,063	0,015
-469,445	52,323	-0,086	0,060
-468,430	-200,000	-0,023	-0,107
-467,416	800,000	-0,020	0,040
-466,401	-5,692	-0,076	0,038
-465,386	179,988	-0,054	-0,058
-464,372	-136,640	-0,097	-0,008
-463,357	8,899	-0,072	0,039
-462,343	800,000	0,077	0,166
-461,328	-135,700	-0,065	0,006
-460,313	800,000	0,045	0,108
-459,299	-44,059	-0,100	0,036
-458,284	-111,913	0,070	0,010
-457,270	-18,089	-0,135	0,061
-456,255	469,947	0,015	-0,025
-455,241	-200,000	-0,009	-0,136
-454,226	-79,089	-0,043	-0,011
-453,211	95,193	0,058	-0,048
-452,197	122,442	0,057	-0,052
-451,182	800,000	0,022	-0,052
-450,168	-200,000	-0,003	0,043
-449,153	15,529	0,051	-0,029
-448,138	-102,887	-0,143	0,024
-447,124	-200,000	-0,028	-0,192
-446,109	101,124	0,054	-0,045
-445,095	-8,972	-0,088	0,043
-444,080	-140,693	0,072	-0,005
-443,065	72,777	0,098	-0,074
-442,051	197,289	-0,038	0,043
-441,036	426,026	-0,086	-0,136
-440,022	13,487	-0,062	-0,035
-439,007	8,887	-0,090	-0,049
-437,992	214,449	0,029	0,033
-436,978	800,000	0,095	0,214
-435,963	-200,000	0,026	0,095
-434,949	53,150	-0,115	0,080
-433,934	800,000	-0,070	-0,182
-432,919	800,000	0,050	0,137
-431,905	27,700	-0,105	-0,064
-430,890	800,000	0,076	0,194
-429,876	361,656	-0,046	-0,067
-428,861	38,990	-0,071	0,046
-427,846	-200,000	-0,008	-0,103
-426,832	45,636	-0,078	-0,052
-425,817	494,643	-0,065	0,109
-424,803	186,144	0,030	0,033
-423,788	800,000	-0,019	0,056
-422,773	-13,082	0,016	-0,008
-421,759	-200,000	0,028	0,145
-420,744	-119,807	0,153	-0,019
-419,730	800,000	0,051	-0,125
-418,715	-200,000	0,021	-0,085
-417,701	-45,943	-0,152	-0,054
-416,686	272,499	0,126	-0,162
-415,671	256,099	-0,065	0,081
-414,657	-200,000	0,004	-0,022
-413,642	-54,644	0,041	-0,013
-412,628	-27,160	0,090	-0,038
-411,613	-88,308	-0,181	-0,039
-410,598	-1,237	0,096	0,049
-409,584	-200,000	0,008	-0,069
-408,569	187,757	-0,040	0,043
-407,555	150,268	-0,008	0,008
-406,540	-87,773	-0,066	0,014
-405,525	117,154	0,081	0,072
-404,511	-200,000	0,050	-0,173
-403,496	-71,650	-0,098	-0,026
-402,482	-17,617	0,093	0,042
-401,467	-52,987	0,172	-0,057
-400,452	106,964	0,105	-0,090
-399,438	-103,474	-0,035	0,006
-398,423	-200,000	-0,018	0,139
-397,409	-19,148	-0,019	-0,009
-396,394	-130,657	-0,088	0,009
-395,379	640,287	0,056	-0,104
-394,365	314,193	-0,050	0,069
-393,350	-200,000	-0,013	0,159
-392,336	-200,000	0,003	-0,113
-391,321	634,803	-0,054	-0,099
-390,306	77,447	0,012	0,009
-389,292	-75,127	-0,089	0,023
-388,277	105,510	0,072	0,062
-387,263	-39,671	0,189	-0,072
-386,248	-200,000	0,005	-0,033
-385,233	-200,000	-0,004	0,100
-384,219	800,000	-0,017	-0,043
-383,204	-123,410	0,055	-0,006
-382,190	-136,376	-0,132	-0,011
-381,175	66,433	-0,043	-0,032
-380,160	800,000	-0,017	-0,037
-379,146	51,451	0,147	0,102
-378,131	32,281	-0,059	0,037
-377,117	52,048	-0,130	-0,090
-376,102	-90,475	-0,052	-0,011
-375,088	677,892	0,052	-0,098
-374,073	-200,000	0,005	-0,060
-373,058	-30,226	0,010	-0,004
-372,044	800,000	0,031	-0,079
-371,029	-200,000	0,026	-0,094
-370,015	132,013	-0,103	0,097
-369,000	547,170	0,053	0,093
-367,985	85,033	-0,176	0,140
-366,971	59,233	0,152	0,108
-365,956	-200,000	0,007	0,129
-364,942	-12,606	0,056	0,026
-363,927	-1,510	-0,111	0,057
-362,912	-200,000	-0,013	-0,046
-361,898	436,608	-0,062	0,099
-360,883	-20,003	-0,127	-0,057
-359,869	-16,490	-0,051	-0,023
-358,854	-88,655	-0,116	0,025
-357,839	196,312	0,078	0,087
-356,825	91,517	0,025	0,020
-355,810	-51,273	-0,022	-0,008
-354,796	-121,816	-0,060	-0,007
-353,781	-200,000	0,008	-0,040
-352,766	800,000	-0,022	0,049
-351,752	339,929	0,055	-0,079
-350,737	-140,646	-0,082	-0,006
-349,723	-5,294	0,046	0,023
-348,708	-99,068	0,185	0,034
-347,693	800,000	0,011	0,027
-346,679	105,710	0,080	-0,069
-345,664	-200,000	-0,013	-0,068
-344,650	-7,907	0,160	-0,078
-343,635	-64,235	0,060	-0,017
-342,620	-200,000	0,014	0,156
-341,606	800,000	-0,036	0,080
-340,591	459,845	0,052	0,084
-339,577	-55,253	-0,146	-0,047
-338,562	-58,680	0,059	0,018
-337,548	71,746	0,082	0,061
-336,533	-140,255	0,233	0,017
-335,518	54,372	-0,036	0,025
-334,504	-200,000	0,011	0,049
-333,489	800,000	0,068	0,146
-332,475	197,216	-0,055	0,061
-331,460	-14,660	0,073	0,034
-330,445	357,965	-0,089	-0,129
-329,431	362,458	0,047	0,068
-328,416	800,000	0,069	0,142
-327,402	-106,647	-0,085	0,013
-326,387	-100,933	0,029	0,005
-325,372	385,632	0,068	0,102
-324,358	-64,621	0,058	-0,017
-323,343	25,715	0,018	0,011
-322,329	70,205	0,032	-0,024
-321,314	800,000	0,031	-0,074
-320,299	-170,237	0,153	-0,004
-319,285	76,135	-0,076	0,058
-318,270	175,709	0,091	-0,096
-317,256	306,495	-0,054	-0,073
-316,241	134,161	-0,094	0,088
-315,226	-1,877	0,090	-0,046
-314,212	-200,000	-0,013	-0,078
-313,197	800,000	0,066	0,144
-312,183	-200,000	0,002	0,008
-311,168	-40,635	-0,099	-0,037
-310,153	-114,561	-0,090	0,012
-309,139	-117,648	-0,094	0,012
-308,124	-27,744	0,060	0,025
-307,110	341,582	0,112	0,158
-306,095	-200,000	-0,004	0,127
-305,080	-200,000	0,036	-0,139
-304,066	-200,000	0,015	-0,108
-303,051	-200,000	0,001	-0,019
-302,037	-49,423	-0,055	0,019
-301,022	724,349	0,034	-0,066
-300,008	185,657	0,053	-0,057
-298,993	800,000	-0,012	0,025
-297,978	800,000	-0,040	-0,119
-296,964	-160,675	0,086	-0,003
-295,949	-124,326	-0,128	-0,014
-294,935	-114,404	-0,055	-0,008
-293,920	19,481	0,020	-0,012
-292,905	218,545	-0,048	0,055
-291,891	-200,000	-0,014	0,090
-290,876	-3,827	0,100	0,050
-289,862	606,544	-0,030	0,054
-288,847	-200,000	0,004	-0,108
-287,832	-6,576	0,047	-0,023
-286,818	-54,398	0,114	-0,037
-285,803	-157,137	0,033	-0,001
-284,789	8,332	0,062	-0,033
-283,774	509,978	0,005	-0,008
-282,759	92,352	0,040	-0,032
-281,745	-200,000	0,009	-0,117
-280,730	-131,777	-0,032	-0,003
-279,716	-65,072	-0,063	-0,018
-278,701	-69,340	0,041	0,011
-277,686	800,000	0,010	0,025
-276,672	-116,652	0,079	-0,010
-275,657	46,912	0,093	0,063
-274,643	-83,672	-0,131	-0,030
-273,628	800,000	-0,050	0,106
-272,613	136,660	0,023	0,022
-271,599	-65,439	0,116	0,033
-270,584	227,060	-0,027	-0,031
-269,570	-200,000	0,005	0,063
-268,555	-102,017	0,198	0,034
-267,540	-13,337	0,014	-0,007
-266,526	26,443	-0,082	-0,049
-265,511	-25,841	0,116	-0,049
-264,497	-200,000	-0,015	0,066
-263,482	232,883	0,070	0,083
-262,467	104,658	0,046	0,039
-261,453	77,513	0,023	0,018
-260,438	-34,905	0,067	-0,026
-259,424	800,000	0,019	-0,042
-258,409	800,000	0,011	0,033
-257,395	-200,000	0,013	0,055
-256,380	-200,000	-0,018	0,086
-255,365	-39,333	-0,060	0,023
-254,351	-89,036	-0,032	0,007
-253,336	68,117	-0,047	-0,035
-252,322	306,688	0,037	0,050
-251,307	-151,327	-0,083	0,004
-250,292	-20,124	-0,055	0,024
-249,278	76,932	0,020	0,015
-248,263	117,977	-0,030	0,026
-247,249	781,137	0,059	0,118
-246,234	594,398	0,052	0,093
-245,219	-200,000	0,022	-0,072
-244,205	29,366	-0,079	0,048
-243,190	-200,000	0,022	-0,099
-242,176	242,323	-0,045	0,054
-241,161	-182,055	0,133	-0,002
-240,146	-200,000	-0,012	-0,118
-239,132	-107,529	-0,104	-0,016
-238,117	-105,844	0,033	0,005
-237,103	437,634	-0,089	0,141
-236,088	-132,551	0,099	0,009
-235,073	105,875	0,125	0,107
-234,059	-70,076	0,055	0,015
-233,044	800,000	-0,053	0,133
-232,030	-59,340	0,054	-0,017
-231,015	29,228	-0,130	-0,079
-230,000	-200,000	-0,005	-0,088
-228,986	-200,000	0,014	0,093
-227,971	9,498	-0,076	0,042
-226,957	-200,000	0,022	0,101
-225,942	-8,091	0,080	0,039
-224,927	89,292	-0,070	0,056
-223,913	25,894	-0,070	-0,042
-222,898	800,000	0,023	0,054
-221,884	347,052	-0,085	0,122
-220,869	141,386	-0,083	-0,080
-219,855	473,757	0,025	0,040
-218,840	314,137	-0,042	0,058
-217,825	87,952	-0,052	0,041
-216,811	-200,000	0,017	0,090
-215,796	183,673	-0,050	-0,054
-214,782	11,652	-0,063	0,035
-213,767	155,306	0,081	-0,081
-212,752	-200,000	-0,028	0,110
-211,738	-200,000	-0,016	0,058
-210,723	57,938	0,032	-0,022
-209,709	14,977	0,021	0,012
-208,694	-158,332	0,082	-0,003
-207,679	-115,542	-0,126	-0,017
-206,665	13,125	0,071	-0,040
-205,650	800,000	0,020	0,043
-204,636	26,134	-0,073	0,044
-203,621	-31,402	0,035	-0,014
-202,606	109,393	-0,018	-0,015
-201,592	-200,000	0,027	-0,090
-200,577	800,000	-0,026	0,062
-199,563	-64,799	-0,135	0,039
-198,548	-110,792	0,084	-0,012
-197,533	86,270	0,071	0,056
-196,519	-9,552	-0,107	0,051
-195,504	800,000	0,032	0,070
-194,490	140,631	0,169	-0,161
-193,475	-13,845	-0,123	0,057
-192,460	-102,719	0,092	-0,016
-191,446	23,197	-0,064	-0,038
-190,431	800,000	0,069	0,150
-189,417	465,447	0,085	0,137
-188,402	800,000	-0,071	-0,180
-187,387	800,000	-0,055	-0,122
-186,373	417,660	0,015	0,024
-185,358	-200,000	-0,008	-0,055
-184,344	-200,000	0,003	-0,017
-183,329	-111,101	0,104	0,015
-182,315	-7,749	-0,081	0,039
-181,300	-200,000	-0,006	0,052
-180,285	-200,000	0,031	0,132
-179,271	228,935	0,020	-0,023
-178,256	-160,398	0,061	-0,002
-177,242	-200,000	-0,021	0,089
-176,227	448,006	0,061	0,097
-175,212	-200,000	-0,008	0,051
-174,198	92,552	0,134	0,109
-173,183	205,372	-0,021	0,024
-172,169	-77,268	-0,258	-0,064
-171,154	-200,000	-0,020	-0,100
-170,139	-43,555	0,110	0,040
-169,125	-146,265	0,118	-0,007
-168,110	-200,000	-0,017	-0,074
-167,096	34,668	-0,029	0,018
-166,081	-200,000	0,016	0,059
-165,066	582,420	0,032	-0,056
-164,052	-119,842	0,046	-0,006
-163,037	-66,327	0,074	-0,021
-162,023	-83,273	-0,081	0,019
-161,008	800,000	0,026	-0,069
-159,993	561,655	0,056	0,098
-158,979	81,451	-0,034	-0,027
-157,964	-200,000	0,015	-0,048
-156,950	-104,923	0,044	0,007
-155,935	-43,924	0,178	-0,064
-154,920	800,000	-0,028	0,087
-153,906	61,012	-0,070	0,050
-152,891	800,000	-0,015	-0,044
-151,877	118,220	0,039	-0,035
-150,862	-22,420	-0,231	-0,100
-149,847	126,859	0,092	0,084
-148,833	28,005	0,067	-0,041
-147,818	-200,000	-0,002	0,141
-146,804	800,000	-0,020	0,056
-145,789	-169,414	0,187	0,005
-144,775	793,230	-0,045	0,090
-143,760	-200,000	-0,016	0,105
-142,745	-200,000	0,056	-0,220
-141,731	8,337	-0,092	-0,050
-140,716	58,567	-0,152	0,107
-139,702	202,157	0,066	0,073
-138,687	-200,000	-0,006	0,043
-137,672	-200,000	-0,021	0,069
-136,658	284,977	-0,047	-0,060
-135,643	-200,000	-0,027	-0,179
-134,629	800,000	-0,040	0,107
-133,614	800,000	-0,019	0,057
-132,599	-200,000	0,027	0,122
-131,585	800,000	0,022	0,065
-130,570	-21,482	-0,079	0,034
-129,556	-79,207	-0,177	-0,043
-128,541	800,000	0,009	0,027
-127,526	-200,000	0,020	-0,090
-126,512	-123,620	0,155	0,017
-125,497	51,984	-0,058	0,040
-124,483	128,787	0,028	0,026
-123,468	17,403	-0,021	-0,012
-122,453	-5,940	-0,171	0,084
-121,439	-57,088	-0,212	-0,067
-120,424	-62,247	0,174	0,052
-119,410	743,175	0,042	0,081
