DTS Sentinel unit serial number:	SN410029Multiplexer serial number:	ORYXHardware model number:	OX2-SRSoftware version number:	ORYX F/W v4,00 Oryx Data Collector v3.7.2.0data status	okinstallation	B5 Nyhavnadifferential loss correction	single-endedforward channel	channel 2reverse channel	N/Adate	2023/12/13time	15:52:13forward acquisition time	300,00reverse acquisition time	0,00gamma	499,1914k internal	0,3160k external	0,3160temperature offset calibration	1,0000default loss term (dB/km)	0,3820temperature slope calibration	1,0000multiplexer offset coefficient	1,0000multiplexer slope coefficient	1,0000fibre end	0,00T internal ref (°C)	14,93T ext. ref 1 (°C)	-1,49T ext. ref 2 (°C)	-1,79length (m)	temperature (°C)	Stokes	anti-Stokes-744,400	-175,037	0,204	0,004
-743,385	-50,673	-0,175	0,061
-742,371	-122,653	0,164	0,019
-741,356	-73,549	-0,208	0,056
-740,342	-24,376	0,122	0,053
-739,327	-46,283	-0,270	0,097
-738,312	-140,381	0,046	0,003
-737,298	-142,405	-0,318	-0,023
-736,283	-70,608	0,141	-0,039
-735,269	-73,582	-0,122	0,033
-734,254	800,000	-0,011	0,034
-733,239	-107,173	-0,526	-0,085
-732,225	-42,675	0,183	0,068
-731,210	-200,000	0,016	0,060
-730,196	-200,000	-0,034	0,179
-729,181	-123,186	-0,104	0,012
-728,167	26,080	0,061	0,037
-727,152	-11,127	-0,108	0,052
-726,137	426,727	-0,082	-0,130
-725,123	-200,000	0,003	0,037
-724,108	-200,000	-0,010	-0,107
-723,094	-200,000	-0,013	-0,103
-722,079	800,000	-0,055	-0,130
-721,064	90,056	0,046	0,038
-720,050	-94,495	-0,138	0,028
-719,035	-101,974	0,124	-0,022
-718,021	189,291	-0,074	-0,082
-717,006	-37,812	-0,214	-0,083
-715,991	-200,000	0,022	0,087
-714,977	-62,962	0,081	0,024
-713,962	71,239	-0,082	-0,062
-712,948	-200,000	0,017	0,087
-711,933	63,983	0,064	-0,048
-710,918	-200,000	0,001	0,134
-709,904	-93,672	-0,089	0,018
-708,889	577,125	-0,092	-0,167
-707,875	-119,442	-0,069	-0,009
-706,860	-67,417	-0,027	-0,008
-705,845	601,234	0,048	-0,089
-704,831	-13,303	-0,128	-0,061
-703,816	-108,748	-0,115	-0,018
-702,802	800,000	-0,044	0,119
-701,787	75,692	-0,032	-0,025
-700,772	-109,747	0,064	0,010
-699,758	-200,000	0,007	-0,054
-698,743	-200,000	0,004	0,141
-697,729	658,663	-0,056	0,106
-696,714	-200,000	0,009	-0,032
-695,699	800,000	-0,036	-0,099
-694,685	-5,491	0,046	-0,023
-693,670	-200,000	-0,005	-0,144
-692,656	-200,000	-0,017	-0,095
-691,641	-96,851	0,137	-0,026
-690,627	-76,127	0,063	-0,016
-689,612	-32,492	0,056	-0,023
-688,597	74,776	-0,085	0,066
-687,583	800,000	-0,088	-0,193
-686,568	-108,899	-0,125	0,019
-685,554	92,141	0,052	-0,043
-684,539	800,000	-0,018	0,054
-683,524	-200,000	-0,001	0,032
-682,510	-200,000	0,016	0,104
-681,495	95,770	-0,067	-0,056
-680,481	800,000	0,013	-0,032
-679,466	139,268	0,047	-0,046
-678,451	-75,226	-0,104	-0,027
-677,437	428,323	-0,030	0,048
-676,422	152,304	0,053	-0,053
-675,408	-200,000	-0,010	-0,124
-674,393	-32,334	0,099	-0,040
-673,378	800,000	-0,044	-0,113
-672,364	800,000	-0,030	-0,066
-671,349	160,643	0,081	-0,083
-670,335	660,056	0,087	-0,166
-669,320	-200,000	-0,006	0,057
-668,305	800,000	-0,049	0,121
-667,291	202,487	-0,028	0,032
-666,276	-52,207	-0,114	0,039
-665,262	-153,336	-0,193	-0,010
-664,247	-12,170	0,093	-0,045
-663,232	345,211	0,004	-0,006
-662,218	-98,395	0,012	-0,002
-661,203	487,497	-0,041	0,069
-660,189	9,780	-0,152	0,085
-659,174	-200,000	0,007	-0,054
-658,159	-64,245	-0,070	0,021
-657,145	-200,000	-0,009	-0,068
-656,130	-200,000	0,009	-0,098
-655,116	-200,000	0,007	0,083
-654,101	-200,000	-0,075	-0,246
-653,086	-64,866	0,042	0,012
-652,072	720,373	-0,025	0,049
-651,057	128,990	-0,156	-0,147
-650,043	141,467	0,061	0,059
-649,028	-200,000	0,021	-0,120
-648,014	-1,879	0,090	-0,046
-646,999	-200,000	-0,006	-0,145
-645,984	16,595	-0,021	0,012
-644,970	-66,475	-0,019	-0,006
-643,955	800,000	-0,021	0,057
-642,941	109,820	-0,030	0,027
-641,926	414,183	-0,098	0,154
-640,911	-151,175	0,054	-0,003
-639,897	-200,000	-0,005	0,053
-638,882	-200,000	0,004	0,017
-637,868	-73,048	-0,152	-0,041
-636,853	-200,000	0,019	0,062
-635,838	-200,000	-0,008	0,025
-634,824	221,957	-0,051	0,061
-633,809	-170,840	-0,064	-0,002
-632,795	168,628	-0,036	0,037
-631,780	340,006	0,075	0,108
-630,765	393,709	-0,088	0,134
-629,751	-63,043	0,077	0,023
-628,736	-66,296	-0,046	0,013
-627,722	-200,000	0,021	-0,149
-626,707	86,567	0,068	0,055
-625,692	800,000	0,027	0,086
-624,678	-200,000	0,009	0,075
-623,663	-71,914	-0,102	-0,028
-622,649	689,286	-0,014	0,027
-621,634	249,599	-0,056	0,070
-620,619	-102,274	-0,181	-0,032
-619,605	-200,000	0,013	0,076
-618,590	190,381	0,088	0,097
-617,576	555,558	-0,080	0,142
-616,561	-200,000	-0,016	0,053
-615,546	-70,221	-0,106	0,029
-614,532	17,505	-0,066	0,038
-613,517	219,029	-0,010	0,012
-612,503	119,623	0,152	-0,138
-611,488	504,427	0,045	0,077
-610,474	274,007	0,014	0,019
-609,459	31,415	0,075	0,047
-608,444	-100,458	-0,151	-0,027
-607,430	-134,833	0,145	-0,013
-606,415	91,314	-0,055	-0,045
-605,401	121,043	0,056	0,051
-604,386	-200,000	-0,025	0,099
-603,371	202,506	0,055	-0,062
-602,357	-200,000	-0,008	-0,108
-601,342	245,329	-0,071	-0,088
-600,328	800,000	-0,053	-0,160
-599,313	-200,000	-0,002	-0,010
-598,298	-200,000	0,012	0,048
-597,284	-151,395	-0,095	0,005
-596,269	121,486	-0,126	0,115
-595,255	-15,079	0,173	0,081
-594,240	-105,059	0,113	0,019
-593,225	347,327	-0,051	-0,073
-592,211	-66,270	-0,098	-0,029
-591,196	304,024	0,059	-0,080
-590,182	-152,221	-0,141	0,007
-589,167	28,843	0,068	0,042
-588,152	-200,000	0,036	0,177
-587,138	-10,905	-0,107	-0,051
-586,123	65,832	-0,088	-0,065
-585,109	81,247	0,045	-0,036
-584,094	800,000	0,028	-0,091
-583,079	195,575	-0,079	0,087
-582,065	183,236	0,079	-0,086
-581,050	800,000	-0,041	0,093
-580,036	168,454	-0,072	0,076
-579,021	2,338	-0,047	-0,025
-578,006	-97,651	-0,185	0,035
-576,992	-200,000	0,005	0,047
-575,977	-200,000	0,010	-0,142
-574,963	-200,000	-0,014	-0,096
-573,948	-200,000	0,021	-0,122
-572,934	38,013	-0,130	-0,084
-571,919	-200,000	0,006	0,089
-570,904	800,000	-0,042	-0,112
-569,890	800,000	-0,063	-0,139
-568,875	-64,547	-0,082	-0,024
-567,861	-120,389	-0,053	-0,006
-566,846	800,000	0,021	-0,051
-565,831	-22,160	-0,131	0,058
-564,817	-200,000	-0,024	-0,123
-563,802	-200,000	0,010	-0,062
-562,788	-52,526	0,204	-0,069
-561,773	147,925	-0,122	-0,121
-560,758	287,100	0,028	-0,037
-559,744	-200,000	-0,011	-0,055
-558,729	-11,457	-0,106	0,051
-557,715	-82,286	-0,103	-0,024
-556,700	97,250	0,040	0,034
-555,685	-200,000	-0,013	-0,104
-554,671	-200,000	0,018	0,059
-553,656	-90,098	0,155	-0,033
-552,642	800,000	0,035	0,071
-551,627	192,935	-0,057	0,063
-550,612	-95,004	0,101	0,020
-549,598	61,758	-0,032	-0,023
-548,583	-200,000	-0,001	0,109
-547,569	225,108	-0,046	-0,054
-546,554	-200,000	0,006	0,161
-545,539	800,000	-0,021	0,046
-544,525	-200,000	0,003	-0,017
-543,510	-117,457	-0,071	0,009
-542,496	-101,362	0,047	-0,008
-541,481	20,459	-0,074	-0,044
-540,466	18,187	0,138	-0,081
-539,452	4,225	0,183	0,097
-538,437	218,945	-0,077	0,090
-537,423	-200,000	-0,001	0,065
-536,408	6,926	-0,108	0,058
-535,393	-22,466	-0,114	-0,050
-534,379	-60,085	0,023	0,007
-533,364	-152,902	-0,079	-0,004
-532,350	-200,000	-0,005	0,058
-531,335	-109,632	0,131	-0,020
-530,321	-80,276	-0,010	0,002
-529,306	-19,735	-0,064	-0,029
-528,291	-196,506	-0,143	0,001
-527,277	800,000	0,054	-0,114
-526,262	800,000	-0,031	0,086
-525,248	800,000	0,009	0,022
-524,233	-200,000	-0,018	-0,069
-523,218	800,000	-0,040	0,095
-522,204	487,938	0,019	0,032
-521,189	-121,982	-0,083	0,010
-520,175	-200,000	-0,010	0,061
-519,160	63,560	-0,094	-0,069
-518,145	155,159	0,132	0,133
-517,131	-92,323	0,119	-0,024
-516,116	-200,000	0,030	-0,145
-515,102	-81,919	-0,088	-0,021
-514,087	276,682	0,032	0,042
-513,072	97,772	-0,033	-0,027
-512,058	-83,238	-0,022	0,005
-511,043	-200,000	0,005	-0,146
-510,029	-77,129	0,040	-0,010
-509,014	239,891	0,045	0,055
-507,999	-58,581	0,056	0,018
-506,985	-162,776	0,043	-0,002
-505,970	800,000	0,031	0,077
-504,956	-200,000	-0,011	0,087
-503,941	-3,724	0,080	0,040
-502,926	57,237	0,069	-0,049
-501,912	-46,227	0,015	-0,005
-500,897	800,000	0,061	-0,125
-499,883	112,613	-0,156	-0,138
-498,868	-200,000	0,003	-0,044
-497,853	247,133	0,039	0,049
-496,839	-49,285	0,207	-0,072
-495,824	-89,686	0,023	0,005
-494,810	800,000	0,016	-0,038
-493,795	-200,000	-0,002	0,017
-492,781	-59,206	0,031	-0,010
-491,766	-200,000	-0,014	0,180
-490,751	74,710	-0,089	-0,068
-489,737	28,079	0,063	0,039
-488,722	354,420	-0,077	0,112
-487,708	-200,000	0,002	0,083
-486,693	410,853	0,047	0,074
-485,678	-24,711	-0,081	0,035
-484,664	-27,301	0,061	0,026
-483,649	234,317	-0,078	0,094
-482,635	78,622	0,147	0,114
-481,620	-80,069	0,179	0,043
-480,605	224,543	0,094	0,111
-479,591	185,139	0,057	-0,062
-478,576	553,831	-0,014	0,024
-477,562	114,188	0,082	-0,072
-476,547	209,095	-0,079	-0,090
-475,532	-46,138	0,132	0,047
-474,518	243,728	-0,051	0,062
-473,503	-200,000	-0,009	0,082
-472,489	-77,993	0,058	0,014
-471,474	42,594	-0,069	-0,045
-470,459	-146,879	-0,026	0,002
-469,445	-26,489	0,105	0,045
-468,430	355,880	0,094	-0,137
-467,416	-85,229	0,046	-0,010
-466,401	-42,370	0,072	-0,027
-465,386	52,671	0,077	-0,054
-464,372	-200,000	-0,003	0,101
-463,357	-200,000	0,005	-0,027
-462,343	477,267	0,025	-0,042
-461,328	-200,000	0,011	-0,051
-460,313	-200,000	0,012	-0,129
-459,299	201,747	0,075	0,084
-458,284	133,237	0,071	0,067
-457,270	35,972	0,043	-0,027
-456,255	161,639	-0,023	0,023
-455,241	39,907	-0,114	-0,074
-454,226	8,371	-0,190	0,104
-453,211	247,706	0,049	0,060
-452,197	17,935	-0,053	-0,031
-451,182	-200,000	0,030	0,126
-450,168	69,861	0,070	0,053
-449,153	-89,782	-0,138	0,029
-448,138	-7,133	0,052	0,026
-447,124	-5,597	-0,160	-0,080
-446,109	689,088	0,022	-0,042
-445,095	-156,088	0,068	-0,003
-444,080	800,000	-0,023	-0,049
-443,065	422,361	-0,038	0,060
-442,051	61,562	-0,140	-0,101
-441,036	223,578	-0,053	0,063
-440,022	-200,000	-0,012	-0,045
-439,007	117,869	0,017	-0,015
-437,992	394,184	-0,035	-0,054
-436,978	-200,000	0,018	0,123
-435,963	-200,000	0,009	0,106
-434,949	8,054	0,045	-0,025
-433,934	-28,994	0,052	0,021
-432,919	-38,026	0,104	-0,040
-431,905	271,075	-0,050	-0,065
-430,890	211,917	0,070	0,081
-429,876	-132,383	0,100	-0,009
-428,861	15,817	-0,045	-0,026
-427,846	-83,004	-0,096	-0,022
-426,832	281,523	-0,081	0,106
-425,817	339,442	-0,033	-0,047
-424,803	-200,000	-0,020	-0,110
-423,788	-200,000	0,014	-0,045
-422,773	-200,000	0,008	-0,118
-421,759	643,981	0,049	-0,091
-420,744	-200,000	-0,003	0,147
-419,730	193,006	0,054	0,060
-418,715	800,000	0,039	-0,085
-417,701	800,000	-0,045	-0,101
-416,686	-80,067	0,055	-0,013
-415,671	63,821	0,030	-0,022
-414,657	-61,407	0,089	0,027
-413,642	-200,000	0,006	0,049
-412,628	-200,000	-0,022	-0,103
-411,613	646,994	-0,022	-0,041
-410,598	-119,323	0,051	-0,006
-409,584	-91,623	0,248	0,051
-408,569	-61,503	-0,136	0,041
-407,555	558,893	-0,068	0,119
-406,540	277,253	-0,087	-0,113
-405,525	-17,157	-0,138	-0,063
-404,511	230,547	0,035	-0,042
-403,496	115,091	0,124	-0,110
-402,482	7,368	0,084	0,046
-401,467	97,394	0,038	-0,032
-400,452	-20,602	-0,082	0,037
-399,438	-116,389	0,137	-0,018
-398,423	800,000	-0,031	-0,085
-397,409	251,024	-0,090	-0,112
-396,394	484,552	-0,130	-0,215
-395,379	-6,422	0,152	0,075
-394,365	76,465	0,161	0,124
-393,350	-66,574	0,131	0,038
-392,336	800,000	-0,045	-0,100
-391,321	-67,524	-0,026	0,007
-390,306	800,000	0,010	0,029
-389,292	568,439	-0,021	-0,036
-388,277	-86,612	0,031	0,007
-387,263	-200,000	0,029	-0,116
-386,248	88,381	0,062	0,050
-385,233	13,663	-0,048	0,027
-384,219	-200,000	0,008	0,052
-383,204	-200,000	-0,018	-0,066
-382,190	-55,127	-0,043	0,014
-381,175	-59,964	-0,092	-0,028
-380,160	-152,741	-0,054	0,003
-379,146	53,890	0,147	0,102
-378,131	-200,000	-0,005	0,134
-377,117	-200,000	0,002	-0,051
-376,102	100,840	-0,079	0,067
-375,088	-67,358	0,068	0,019
-374,073	494,815	0,039	-0,065
-373,058	-128,979	-0,155	-0,016
-372,044	79,629	0,137	-0,107
-371,029	800,000	-0,013	0,031
-370,015	800,000	-0,072	-0,205
-369,000	-200,000	0,009	-0,123
-367,985	-69,887	0,115	-0,032
-366,971	-200,000	-0,002	-0,106
-365,956	17,804	0,031	-0,018
-364,942	526,412	0,043	-0,074
-363,927	29,588	-0,074	-0,046
-362,912	1,093	0,106	0,055
-361,898	-139,499	-0,152	-0,012
-360,883	-200,000	0,002	0,014
-359,869	238,154	-0,122	-0,147
-358,854	-119,227	0,095	-0,012
-357,839	-52,972	-0,057	-0,019
-356,825	-200,000	0,014	0,111
-355,810	-46,581	-0,068	0,024
-354,796	45,761	0,087	-0,058
-353,781	-99,933	-0,041	0,007
-352,766	244,624	-0,008	0,010
-351,752	-200,000	0,020	0,080
-350,737	-123,691	-0,102	-0,012
-349,723	-99,763	-0,081	-0,015
-348,708	-200,000	-0,019	-0,093
-347,693	-48,020	-0,167	-0,058
-346,679	-72,365	0,112	0,030
-345,664	-200,000	0,003	0,025
-344,650	800,000	-0,025	0,063
-343,635	303,046	0,067	-0,090
-342,620	47,459	-0,024	0,017
-341,606	-188,976	0,097	-0,001
-340,591	184,915	0,075	-0,081
-339,577	800,000	-0,028	-0,087
-338,562	800,000	0,051	-0,116
-337,548	800,000	-0,017	0,037
-336,533	-131,163	0,070	0,007
-335,518	40,646	0,092	-0,060
-334,504	-200,000	0,005	0,027
-333,489	425,916	-0,082	-0,129
-332,475	-200,000	-0,009	-0,080
-331,460	743,981	0,019	-0,037
-330,445	-147,170	-0,176	-0,011
-329,431	123,855	-0,080	-0,073
-328,416	-200,000	0,007	0,031
-327,402	501,916	0,089	-0,149
-326,387	-157,393	-0,008	0,000
-325,372	256,647	-0,112	-0,140
-324,358	800,000	0,015	-0,047
-323,343	-200,000	-0,023	-0,101
-322,329	-200,000	0,032	0,116
-321,314	800,000	0,041	0,115
-320,299	-200,000	0,006	0,037
-319,285	-170,615	0,121	-0,003
-318,270	385,694	-0,002	0,002
-317,256	-200,000	0,024	-0,141
-316,241	-200,000	0,037	-0,130
-315,226	309,261	0,100	-0,136
-314,212	87,134	-0,158	0,126
-313,197	122,465	0,083	0,075
-312,183	-137,455	0,053	-0,004
-311,168	-35,870	-0,107	0,042
-310,153	-14,013	-0,063	-0,029
-309,139	-45,960	0,097	0,034
-308,124	-85,901	0,109	-0,024
-307,110	-27,952	0,017	-0,007
-306,095	47,407	0,112	0,075
-305,080	800,000	-0,055	-0,112
-304,066	-200,000	0,024	0,124
-303,051	-200,000	0,028	0,094
-302,037	108,985	-0,115	-0,099
-301,022	-151,476	-0,116	-0,006
-300,008	-16,966	0,025	-0,011
-298,993	158,440	0,074	-0,074
-297,978	178,928	-0,030	0,031
-296,964	99,124	-0,045	0,037
-295,949	-102,037	-0,132	-0,023
-294,935	800,000	0,098	-0,214
-293,920	-200,000	-0,011	-0,131
-292,905	22,790	0,129	0,076
-291,891	-75,440	0,154	0,039
-290,876	-180,357	-0,093	-0,001
-289,862	-137,680	-0,120	-0,010
-288,847	-200,000	0,014	-0,070
-287,832	125,311	0,120	0,109
-286,818	175,976	-0,091	-0,096
-285,803	4,958	0,078	0,041
-284,789	724,491	-0,062	0,120
-283,774	-68,035	-0,102	-0,029
-282,759	-113,025	-0,051	0,007
-281,745	-200,000	-0,001	0,171
-280,730	692,341	0,051	-0,097
-279,716	149,059	0,091	-0,089
-278,701	-200,000	-0,001	-0,057
-277,686	457,826	0,075	0,121
-276,672	-200,000	-0,009	0,039
-275,657	800,000	0,020	0,050
-274,643	-8,144	-0,032	0,015
-273,628	-113,413	0,153	-0,021
-272,613	-105,422	0,046	0,007
-271,599	-200,000	-0,011	0,136
-270,584	659,396	-0,012	0,022
-269,570	-15,532	0,115	0,053
-268,555	-39,603	-0,043	0,016
-267,540	-200,000	0,010	0,047
-266,526	-200,000	0,003	-0,034
-265,511	436,504	0,059	0,094
-264,497	-200,000	-0,011	-0,114
-263,482	204,418	0,070	0,079
-262,467	150,862	-0,065	0,064
-261,453	-21,695	0,059	0,026
-260,438	-200,000	-0,026	-0,084
-259,424	-41,391	0,029	-0,011
-258,409	21,034	-0,078	-0,045
-257,395	84,945	0,009	0,007
-256,380	-134,134	-0,098	-0,009
-255,365	-114,927	-0,065	-0,009
-254,351	183,286	-0,125	0,134
-253,336	-131,535	-0,192	0,018
-252,322	-30,762	0,039	-0,016
-251,307	236,136	0,041	-0,050
-250,292	142,902	0,032	0,031
-249,278	10,381	-0,006	0,003
-248,263	55,012	0,099	-0,069
-247,249	169,241	0,079	0,082
-246,234	-200,000	-0,017	0,064
-245,219	-200,000	0,001	-0,125
-244,205	-17,161	-0,134	-0,061
-243,190	-200,000	-0,005	0,083
-242,176	-200,000	-0,000	0,015
-241,161	40,218	-0,032	0,021
-240,146	265,562	0,049	0,062
-239,132	-148,441	-0,154	0,009
-238,117	15,400	0,087	0,049
-237,103	-200,000	0,008	0,059
-236,088	800,000	0,021	-0,067
-235,073	635,118	0,080	0,147
-234,059	300,557	0,038	0,051
-233,044	-200,000	0,019	0,130
-232,030	800,000	-0,036	0,095
-231,015	800,000	0,025	0,052
-230,000	-91,640	-0,126	-0,026
-228,986	-152,037	0,117	-0,006
-227,971	-92,186	-0,147	-0,030
-226,957	-21,145	0,135	0,059
-225,942	800,000	0,050	0,132
-224,927	-127,484	-0,058	0,006
-223,913	488,500	-0,009	-0,014
-222,898	295,648	-0,114	0,151
-221,884	-45,184	0,032	0,012
-220,869	800,000	0,028	-0,074
-219,855	-200,000	-0,043	-0,185
-218,840	-200,000	0,024	0,094
-217,825	585,138	-0,008	-0,015
-216,811	-66,752	-0,081	-0,023
-215,796	-200,000	0,045	-0,222
-214,782	-200,000	0,005	-0,037
-213,767	-85,563	0,041	0,009
-212,752	683,482	-0,048	0,090
-211,738	-71,838	0,149	0,040
-210,723	-55,946	0,065	-0,021
-209,709	-79,433	0,053	0,013
-208,694	102,510	0,038	0,032
-207,679	341,458	0,042	-0,060
-206,665	86,348	0,108	0,086
-205,650	14,615	0,122	0,068
-204,636	480,643	0,017	-0,029
-203,621	165,882	0,059	-0,060
-202,606	31,069	0,054	0,033
-201,592	-200,000	-0,003	-0,067
-200,577	-200,000	0,008	-0,072
-199,563	800,000	-0,029	0,073
-198,548	414,116	0,054	-0,083
-197,533	-151,268	0,072	0,004
-196,519	41,637	-0,008	0,005
-195,504	-200,000	-0,014	-0,076
-194,490	202,829	-0,141	0,158
-193,475	800,000	0,063	-0,148
-192,460	-40,640	-0,084	-0,031
-191,446	-200,000	0,040	0,130
-190,431	-200,000	0,007	-0,110
-189,417	800,000	0,050	0,116
-188,402	-26,929	0,067	-0,028
-187,387	-200,000	0,002	-0,113
-186,373	321,413	-0,046	-0,063
-185,358	-79,514	-0,025	0,006
-184,344	-200,000	0,005	0,019
-183,329	461,876	0,076	0,122
-182,315	-68,310	-0,040	-0,011
-181,300	-58,577	-0,123	0,038
-180,285	6,393	-0,060	-0,032
-179,271	372,891	-0,044	-0,065
-178,256	98,083	-0,036	-0,030
-177,242	220,407	0,085	0,099
-176,227	309,278	-0,105	-0,142
-175,212	-94,907	-0,057	0,011
-174,198	-200,000	0,006	-0,044
-173,183	-200,000	-0,009	0,102
-172,169	-166,207	0,029	0,001
-171,154	185,572	-0,026	-0,028
-170,139	598,383	0,029	0,051
-169,125	42,158	0,007	-0,005
-168,110	394,912	-0,057	0,086
-167,096	650,938	-0,073	-0,136
-166,081	800,000	0,005	-0,013
-165,066	424,596	-0,101	0,157
-164,052	9,216	-0,108	-0,058
-163,037	-200,000	0,014	0,142
-162,023	479,963	0,054	0,089
-161,008	-200,000	0,005	0,021
-159,993	312,674	-0,083	0,112
-158,979	-47,382	0,050	-0,018
-157,964	-37,182	-0,079	-0,030
-156,950	-91,221	0,067	0,014
-155,935	377,004	-0,072	0,106
-154,920	520,345	-0,105	0,177
-153,906	-67,711	0,148	0,041
-152,891	-126,371	0,006	0,001
-151,877	-200,000	-0,039	-0,221
-150,862	-109,008	-0,133	-0,020
-149,847	158,305	-0,115	0,115
-148,833	800,000	-0,063	-0,150
-147,818	376,355	0,018	-0,027
-146,804	-200,000	-0,009	0,094
-145,789	36,035	-0,055	-0,035
-144,775	800,000	-0,023	-0,047
-143,760	37,578	-0,150	-0,096
-142,745	-17,985	-0,084	-0,038
-141,731	800,000	-0,016	-0,043
-140,716	136,157	-0,108	0,102
-139,702	-200,000	0,042	0,138
-138,687	138,547	-0,003	-0,003
-137,672	15,934	0,070	-0,040
-136,658	-200,000	-0,012	0,052
-135,643	-200,000	-0,014	-0,066
-134,629	800,000	0,031	-0,073
-133,614	763,913	0,034	0,067
-132,599	23,457	0,105	0,062
-131,585	-200,000	-0,020	0,098
-130,570	-96,921	-0,047	0,009
-129,556	516,083	-0,059	-0,100
-128,541	-5,388	-0,082	-0,041
-127,526	-200,000	-0,005	0,045
-126,512	-200,000	-0,020	-0,124
-125,497	-13,877	0,098	0,046
-124,483	800,000	-0,059	0,186
-123,468	-200,000	-0,010	0,168
-122,453	-88,683	-0,158	-0,033
-121,439	188,599	-0,125	-0,135
-120,424	800,000	-0,042	-0,108
-119,410	26,282	0,066	0,040
