DTS Sentinel unit serial number:	SN410029Multiplexer serial number:	ORYXHardware model number:	OX2-SRSoftware version number:	ORYX F/W v4,00 Oryx Data Collector v3.7.2.0data status	okinstallation	B5 Nyhavnadifferential loss correction	single-endedforward channel	channel 2reverse channel	N/Adate	2023/12/12time	05:22:13forward acquisition time	300,00reverse acquisition time	0,00gamma	499,1914k internal	0,3157k external	0,3157temperature offset calibration	1,0000default loss term (dB/km)	0,3820temperature slope calibration	1,0000multiplexer offset coefficient	1,0000multiplexer slope coefficient	1,0000fibre end	0,00T internal ref (°C)	15,37T ext. ref 1 (°C)	-1,05T ext. ref 2 (°C)	-1,35length (m)	temperature (°C)	Stokes	anti-Stokes-744,400	72,480	0,100	-0,077
-743,385	-149,745	-0,318	0,018
-742,371	624,729	-0,032	0,060
-741,356	-23,902	-0,276	0,121
-740,342	250,107	0,155	0,195
-739,327	-69,030	-0,379	0,107
-738,312	273,740	0,061	-0,080
-737,298	-26,562	-0,385	-0,165
-736,283	101,752	0,048	0,041
-735,269	-57,395	-0,217	0,070
-734,254	-31,971	0,107	0,044
-733,239	-101,796	-0,466	-0,082
-732,225	-80,434	0,214	0,052
-731,210	161,336	0,144	0,149
-730,196	106,205	0,090	0,078
-729,181	0,875	-0,081	-0,043
-728,167	800,000	-0,015	-0,041
-727,152	-200,000	-0,027	-0,110
-726,137	-0,176	-0,075	-0,039
-725,123	154,251	0,021	0,021
-724,108	-200,000	-0,011	-0,131
-723,094	138,958	-0,060	-0,058
-722,079	-72,054	-0,056	0,015
-721,064	126,412	-0,023	0,021
-720,050	201,362	-0,067	0,077
-719,035	350,127	-0,012	-0,017
-718,021	-110,893	-0,007	-0,001
-717,006	-89,175	0,057	0,012
-715,991	85,749	-0,086	-0,070
-714,977	127,218	-0,110	-0,103
-713,962	741,275	0,057	-0,114
-712,948	800,000	0,025	-0,067
-711,933	800,000	0,056	-0,158
-710,918	800,000	-0,092	0,188
-709,904	-34,751	-0,078	-0,031
-708,889	800,000	0,030	-0,084
-707,875	800,000	-0,083	-0,200
-706,860	31,416	-0,123	-0,078
-705,845	-200,000	0,025	-0,091
-704,831	75,409	0,009	-0,007
-703,816	-28,846	-0,017	-0,007
-702,802	34,762	0,049	-0,031
-701,787	252,697	-0,049	-0,062
-700,772	584,237	-0,025	0,045
-699,758	-200,000	0,018	0,063
-698,743	-200,000	0,007	0,079
-697,729	33,412	0,089	-0,056
-696,714	-44,154	-0,038	-0,014
-695,699	119,271	-0,062	-0,057
-694,685	800,000	-0,033	-0,086
-693,670	-200,000	-0,011	-0,060
-692,656	108,033	0,044	-0,038
-691,641	-92,000	-0,107	0,022
-690,627	-95,202	-0,053	-0,010
-689,612	0,748	-0,070	-0,037
-688,597	14,681	-0,042	-0,024
-687,583	-200,000	0,005	0,081
-686,568	-142,820	-0,211	-0,015
-685,554	486,417	0,020	0,034
-684,539	270,281	-0,031	-0,040
-683,524	6,615	0,045	0,024
-682,510	47,064	-0,112	0,076
-681,495	-200,000	-0,039	-0,142
-680,481	-200,000	0,009	0,061
-679,466	-34,016	-0,052	0,021
-678,451	384,620	-0,037	-0,057
-677,437	-200,000	0,000	-0,002
-676,422	-72,168	0,119	0,032
-675,408	24,736	-0,079	-0,048
-674,393	125,421	-0,030	0,028
-673,378	174,367	0,026	0,028
-672,364	800,000	0,052	0,164
-671,349	-200,000	-0,025	-0,087
-670,335	418,707	0,021	-0,033
-669,320	683,086	0,056	-0,108
-668,305	-160,403	-0,030	-0,001
-667,291	131,146	0,054	-0,051
-666,276	800,000	-0,044	-0,091
-665,262	269,649	-0,094	-0,122
-664,247	-126,558	-0,113	0,012
-663,232	-200,000	-0,024	0,108
-662,218	647,062	0,039	0,073
-661,203	-128,580	-0,075	-0,008
-660,189	3,403	-0,057	-0,030
-659,174	-110,839	-0,151	-0,023
-658,159	-111,343	-0,062	0,009
-657,145	800,000	-0,017	-0,042
-656,130	-200,000	0,030	0,122
-655,116	118,245	0,138	0,125
-654,101	520,301	0,080	0,138
-653,086	-146,582	-0,087	0,005
-652,072	7,351	-0,100	-0,055
-651,057	-13,123	-0,017	-0,008
-650,043	397,241	-0,080	0,124
-649,028	-200,000	0,013	-0,066
-648,014	170,969	-0,040	0,042
-646,999	-200,000	-0,006	-0,057
-645,984	-49,299	0,140	-0,049
-644,970	-200,000	-0,007	0,049
-643,955	-200,000	0,028	-0,144
-642,941	-200,000	0,028	-0,120
-641,926	114,326	-0,192	-0,172
-640,911	402,977	0,026	0,040
-639,897	482,777	0,091	0,152
-638,882	800,000	0,059	0,121
-637,868	40,356	-0,149	-0,098
-636,853	-200,000	-0,002	-0,036
-635,838	-200,000	0,004	0,121
-634,824	75,335	-0,111	0,086
-633,809	-66,161	0,111	-0,032
-632,795	-148,565	0,200	-0,012
-631,780	400,618	0,066	0,103
-630,765	298,224	-0,075	-0,102
-629,751	16,455	-0,058	-0,033
-628,736	800,000	-0,045	-0,105
-627,722	800,000	0,053	-0,136
-626,707	60,877	-0,061	0,044
-625,692	100,679	0,096	-0,082
-624,678	-162,632	-0,082	0,003
-623,663	445,960	-0,039	-0,063
-622,649	-200,000	-0,006	-0,145
-621,634	110,386	0,032	0,028
-620,619	-117,581	-0,063	0,008
-619,605	186,016	0,078	-0,086
-618,590	800,000	0,037	0,083
-617,576	24,810	0,103	0,063
-616,561	800,000	-0,036	-0,098
-615,546	-66,548	-0,080	0,023
-614,532	-200,000	-0,020	-0,095
-613,517	-105,689	-0,173	0,028
-612,503	-71,618	0,070	0,019
-611,488	-200,000	0,006	-0,020
-610,474	800,000	0,037	0,118
-609,459	143,426	-0,024	0,024
-608,444	800,000	0,019	0,052
-607,430	11,097	-0,160	0,090
-606,415	454,439	0,017	0,027
-605,401	800,000	0,030	0,091
-604,386	38,211	-0,058	0,038
-603,371	-9,076	0,053	0,026
-602,357	800,000	-0,049	0,116
-601,342	-200,000	0,018	-0,126
-600,328	-67,802	-0,023	-0,007
-599,313	800,000	-0,033	-0,072
-598,298	379,580	0,055	0,083
-597,284	56,802	-0,035	0,025
-596,269	122,833	0,060	-0,055
-595,255	-94,900	-0,106	0,021
-594,240	800,000	0,018	-0,047
-593,225	139,432	0,027	0,026
-592,211	-126,388	0,043	-0,005
-591,196	5,935	-0,020	0,011
-590,182	-109,515	0,152	-0,023
-589,167	800,000	0,045	-0,105
-588,152	-200,000	-0,009	0,035
-587,138	-141,622	0,174	-0,013
-586,123	14,332	-0,143	-0,082
-585,109	-200,000	-0,000	-0,037
-584,094	-82,826	-0,035	0,008
-583,079	-111,612	0,166	-0,025
-582,065	91,162	0,040	0,033
-581,050	251,664	0,092	0,115
-580,036	-200,000	0,016	0,061
-579,021	29,070	0,055	-0,034
-578,006	109,699	0,014	0,012
-576,992	-200,000	-0,033	-0,187
-575,977	-20,256	0,061	-0,027
-574,963	313,249	-0,052	0,072
-573,948	31,793	0,098	-0,062
-572,934	367,628	-0,049	0,073
-571,919	610,208	0,068	0,126
-570,904	-77,526	-0,111	-0,028
-569,890	-19,229	0,075	-0,034
-568,875	-200,000	0,010	-0,062
-567,861	524,868	0,048	-0,083
-566,846	-89,226	0,080	-0,017
-565,831	66,795	-0,144	-0,107
-564,817	-200,000	-0,005	0,063
-563,802	78,706	-0,068	-0,053
-562,788	9,889	0,162	-0,090
-561,773	-172,516	0,028	0,001
-560,758	-118,235	-0,043	0,006
-559,744	-200,000	-0,036	0,160
-558,729	-11,494	-0,158	-0,076
-557,715	800,000	-0,012	-0,033
-556,700	-41,138	0,047	-0,017
-555,685	-200,000	0,006	-0,029
-554,671	-200,000	-0,017	-0,141
-553,656	-23,951	0,061	-0,027
-552,642	505,351	-0,053	0,090
-551,627	-1,245	0,097	0,050
-550,612	-50,746	-0,109	-0,037
-549,598	-200,000	-0,020	-0,108
-548,583	218,332	-0,102	-0,119
-547,569	258,013	0,046	0,059
-546,554	261,223	0,079	-0,100
-545,539	78,767	0,056	-0,043
-544,525	-21,873	0,088	-0,039
-543,510	298,280	0,063	0,085
-542,496	-200,000	-0,008	0,131
-541,481	-200,000	-0,006	-0,081
-540,466	800,000	-0,043	0,092
-539,452	87,791	0,103	0,083
-538,437	-200,000	-0,012	0,104
-537,423	-50,720	-0,011	-0,004
-536,408	115,599	-0,050	-0,045
-535,393	800,000	-0,045	-0,092
-534,379	345,158	-0,034	0,049
-533,364	-86,030	0,132	-0,030
-532,350	-55,273	0,046	0,015
-531,335	483,392	-0,090	0,150
-530,321	-200,000	0,016	0,101
-529,306	800,000	-0,035	-0,086
-528,291	-200,000	-0,006	-0,022
-527,277	398,155	-0,062	-0,095
-526,262	-57,059	-0,048	0,015
-525,248	-37,531	0,157	0,061
-524,233	145,119	-0,143	0,140
-523,218	371,664	0,042	0,062
-522,204	-200,000	0,019	0,083
-521,189	-32,693	0,144	-0,058
-520,175	177,069	0,060	0,064
-519,160	445,195	-0,047	0,075
-518,145	329,771	0,032	-0,045
-517,131	-85,338	0,094	-0,021
-516,116	303,549	0,098	0,133
-515,102	-44,731	0,032	0,012
-514,087	-200,000	-0,000	-0,090
-513,072	-86,076	-0,120	-0,027
-512,058	800,000	-0,008	0,024
-511,043	-59,618	-0,015	-0,005
-510,029	-92,179	0,119	-0,024
-509,014	-200,000	0,009	-0,086
-507,999	800,000	-0,016	-0,047
-506,985	-37,025	-0,050	0,020
-505,970	350,091	0,102	-0,148
-504,956	800,000	-0,020	-0,043
-503,941	215,110	0,121	0,140
-502,926	-74,658	0,049	-0,013
-501,912	141,346	0,062	-0,060
-500,897	-200,000	0,012	-0,148
-499,883	77,990	-0,094	-0,073
-498,868	338,474	-0,016	-0,023
-497,853	168,635	0,062	-0,065
-496,839	-200,000	0,016	0,068
-495,824	-200,000	-0,018	0,092
-494,810	800,000	-0,029	0,074
-493,795	342,491	-0,109	-0,156
-492,781	171,878	-0,065	-0,069
-491,766	235,749	-0,085	0,102
-490,751	-200,000	0,001	-0,011
-489,737	-98,992	0,066	0,012
-488,722	-200,000	-0,024	0,090
-487,708	800,000	-0,035	-0,113
-486,693	204,885	-0,047	0,054
-485,678	-200,000	0,047	-0,190
-484,664	-167,224	-0,100	0,003
-483,649	490,116	-0,062	-0,104
-482,635	800,000	0,048	-0,125
-481,620	800,000	-0,023	0,054
-480,605	74,520	-0,061	0,047
-479,591	800,000	0,014	0,034
-478,576	-38,952	-0,055	-0,021
-477,562	-200,000	-0,007	-0,123
-476,547	130,757	-0,079	-0,074
-475,532	-200,000	0,008	-0,033
-474,518	-1,086	-0,071	0,036
-473,503	65,763	0,083	0,062
-472,489	67,500	0,052	0,039
-471,474	121,137	-0,043	0,039
-470,459	-200,000	0,010	-0,081
-469,445	-110,896	-0,106	0,016
-468,430	421,577	0,055	0,086
-467,416	-200,000	-0,011	-0,166
-466,401	-200,000	0,015	0,131
-465,386	572,946	0,044	0,079
-464,372	689,619	0,033	-0,063
-463,357	-200,000	0,022	0,079
-462,343	-28,568	0,108	0,045
-461,328	-162,149	-0,081	0,003
-460,313	498,602	0,047	-0,079
-459,299	-6,660	0,162	-0,080
-458,284	-116,666	0,082	-0,011
-457,270	800,000	0,031	0,088
-456,255	-48,779	-0,046	0,016
-455,241	86,370	-0,041	-0,033
-454,226	800,000	-0,015	0,046
-453,211	-4,893	0,159	-0,079
-452,197	-16,886	0,065	0,030
-451,182	226,249	0,022	0,026
-450,168	499,777	-0,062	-0,104
-449,153	-1,537	-0,100	-0,051
-448,138	-200,000	0,018	-0,102
-447,124	153,976	0,088	-0,088
-446,109	-200,000	-0,028	-0,142
-445,095	15,203	0,055	-0,031
-444,080	-200,000	0,028	-0,127
-443,065	113,802	-0,028	0,024
-442,051	-11,410	-0,173	0,083
-441,036	757,384	-0,033	-0,066
-440,022	-83,386	-0,122	-0,028
-439,007	800,000	-0,042	0,117
-437,992	-200,000	-0,009	0,184
-436,978	800,000	0,027	0,078
-435,963	-200,000	0,016	-0,056
-434,949	-92,574	-0,033	0,007
-433,934	-16,684	-0,138	0,063
-432,919	678,141	-0,024	-0,046
-431,905	60,594	-0,040	0,029
-430,890	800,000	0,048	0,108
-429,876	6,243	0,171	0,092
-428,861	588,083	0,040	-0,072
-427,846	-16,795	0,009	-0,004
-426,832	-200,000	0,027	-0,142
-425,817	800,000	0,045	0,092
-424,803	469,355	-0,060	0,099
-423,788	-71,814	0,080	-0,022
-422,773	-200,000	0,032	-0,115
-421,759	332,313	-0,023	0,033
-420,744	616,743	-0,054	-0,099
-419,730	275,685	-0,034	-0,044
-418,715	155,391	0,042	-0,043
-417,701	800,000	-0,016	-0,049
-416,686	-74,640	0,136	0,035
-415,671	800,000	0,025	-0,071
-414,657	-31,352	-0,038	0,016
-413,642	-200,000	-0,005	-0,086
-412,628	284,502	-0,052	-0,068
-411,613	800,000	-0,017	0,051
-410,598	-200,000	0,004	0,196
-409,584	655,314	0,108	0,202
-408,569	5,473	0,106	0,057
-407,555	-200,000	-0,001	-0,034
-406,540	54,408	0,050	0,035
-405,525	202,777	-0,085	0,096
-404,511	25,694	0,062	-0,038
-403,496	800,000	-0,034	-0,090
-402,482	-200,000	0,005	-0,031
-401,467	-34,128	0,131	0,052
-400,452	-30,556	-0,118	0,048
-399,438	-56,615	0,038	0,012
-398,423	-200,000	-0,006	0,174
-397,409	36,560	-0,051	0,032
-396,394	-98,990	0,078	-0,014
-395,379	800,000	-0,031	0,075
-394,365	-200,000	0,024	0,083
-393,350	-114,759	-0,072	-0,010
-392,336	-63,115	0,102	-0,031
-391,321	91,150	0,028	0,023
-390,306	-145,389	-0,145	-0,009
-389,292	-200,000	0,015	-0,131
-388,277	800,000	0,009	-0,027
-387,263	-200,000	0,004	-0,031
-386,248	394,977	-0,053	0,080
-385,233	-200,000	0,006	0,088
-384,219	-56,520	0,133	0,043
-383,204	-127,133	-0,019	-0,002
-382,190	-60,701	-0,114	-0,035
-381,175	-137,854	-0,059	-0,005
-380,160	-200,000	0,010	0,132
-379,146	-52,926	-0,133	0,044
-378,131	800,000	0,040	0,096
-377,117	-114,803	-0,087	0,012
-376,102	-49,302	0,129	-0,044
-375,088	-200,000	0,038	0,125
-374,073	-135,271	-0,084	-0,007
-373,058	409,823	0,036	0,056
-372,044	-61,916	0,182	0,055
-371,029	800,000	-0,011	-0,023
-370,015	800,000	0,021	-0,047
-369,000	-200,000	0,016	-0,053
-367,985	-59,997	-0,100	-0,031
-366,971	-200,000	-0,004	-0,097
-365,956	-5,064	0,125	0,062
-364,942	161,756	0,034	0,034
-363,927	203,739	-0,114	0,129
-362,912	525,944	-0,017	-0,029
-361,898	-70,305	-0,062	-0,017
-360,883	-102,393	-0,126	-0,022
-359,869	800,000	-0,021	0,049
-358,854	-191,232	0,087	0,001
-357,839	800,000	0,048	0,142
-356,825	-200,000	-0,029	0,107
-355,810	-200,000	0,023	-0,092
-354,796	-200,000	-0,002	0,040
-353,781	-200,000	0,018	0,079
-352,766	34,400	-0,025	-0,016
-351,752	-122,256	-0,208	0,024
-350,737	-200,000	-0,011	0,059
-349,723	-137,336	-0,126	0,010
-348,708	118,730	-0,079	-0,071
-347,693	95,404	-0,033	0,027
-346,679	-200,000	0,018	-0,070
-345,664	-10,142	0,091	-0,044
-344,650	-200,000	-0,023	-0,090
-343,635	435,174	-0,062	-0,098
-342,620	288,826	0,110	0,146
-341,606	-200,000	0,003	0,087
-340,591	510,759	-0,009	-0,016
-339,577	433,339	0,043	-0,068
-338,562	234,440	0,037	-0,045
-337,548	-27,454	0,059	0,025
-336,533	800,000	0,053	0,147
-335,518	34,846	-0,050	0,032
-334,504	53,824	-0,116	0,081
-333,489	321,333	0,040	0,055
-332,475	10,168	-0,144	-0,079
-331,460	100,493	-0,051	0,043
-330,445	-200,000	0,024	0,087
-329,431	-200,000	-0,019	0,085
-328,416	331,889	0,049	0,069
-327,402	800,000	0,019	0,061
-326,387	57,692	-0,080	0,057
-325,372	528,283	0,039	0,067
-324,358	141,347	0,079	-0,076
-323,343	248,807	0,103	-0,127
-322,329	33,633	0,071	0,045
-321,314	-83,666	0,066	0,015
-320,299	130,481	-0,038	-0,035
-319,285	-82,035	0,097	0,023
-318,270	800,000	-0,056	-0,133
-317,256	100,483	0,065	0,054
-316,241	8,718	-0,115	-0,063
-315,226	16,592	-0,031	0,018
-314,212	800,000	0,009	0,021
-313,197	-200,000	-0,002	0,062
-312,183	-119,315	-0,082	-0,010
-311,168	-200,000	0,014	0,111
-310,153	384,723	-0,054	-0,081
-309,139	139,425	-0,046	0,044
-308,124	541,001	0,066	-0,115
-307,110	0,147	0,064	-0,033
-306,095	-119,051	-0,058	0,007
-305,080	409,942	-0,012	-0,019
-304,066	134,791	0,048	-0,045
-303,051	-134,163	0,083	0,007
-302,037	-89,783	-0,109	-0,023
-301,022	-200,000	0,003	-0,078
-300,008	-200,000	0,041	0,150
-298,993	-200,000	-0,032	0,112
-297,978	-2,888	-0,092	0,047
-296,964	-53,492	0,175	0,058
-295,949	-19,702	-0,083	-0,037
-294,935	-105,064	0,082	0,014
-293,920	144,135	0,115	-0,111
-292,905	-200,000	-0,014	-0,148
-291,891	128,771	-0,079	-0,073
-290,876	30,131	-0,098	0,061
-289,862	461,756	0,074	0,120
-288,847	-90,778	-0,076	0,016
-287,832	-200,000	-0,026	-0,092
-286,818	-47,844	-0,178	0,062
-285,803	-200,000	-0,019	0,079
-284,789	800,000	0,018	0,037
-283,774	276,132	-0,025	-0,032
-282,759	-43,073	-0,103	0,037
-281,745	-200,000	0,000	0,068
-280,730	-27,469	0,019	-0,008
-279,716	745,557	0,037	-0,073
-278,701	195,449	0,073	0,081
-277,686	-200,000	0,025	-0,099
-276,672	33,691	-0,130	0,082
-275,657	-71,720	-0,105	0,028
-274,643	-76,009	0,049	0,012
-273,628	-54,970	-0,098	-0,032
-272,613	685,732	0,054	-0,103
-271,599	-200,000	-0,023	0,131
-270,584	556,859	0,036	-0,064
-269,570	114,762	-0,080	-0,070
-268,555	-200,000	-0,002	0,060
-267,540	-200,000	-0,022	-0,118
-266,526	-200,000	0,011	-0,065
-265,511	-60,787	-0,154	-0,047
-264,497	800,000	-0,026	0,057
-263,482	-91,149	0,229	0,047
-262,467	92,238	-0,049	-0,040
-261,453	55,026	-0,022	-0,015
-260,438	407,175	-0,069	0,106
-259,424	800,000	-0,006	0,013
-258,409	277,144	0,060	-0,078
-257,395	-189,523	0,095	-0,001
-256,380	800,000	0,033	0,101
-255,365	166,006	0,050	0,051
-254,351	800,000	-0,009	0,024
-253,336	-26,157	-0,124	0,052
-252,322	-77,592	0,119	0,029
-251,307	374,332	-0,050	-0,074
-250,292	-24,701	0,048	0,021
-249,278	31,954	-0,115	0,072
-248,263	-50,465	0,030	-0,010
-247,249	-71,345	0,162	0,044
-246,234	800,000	-0,019	0,039
-245,219	-200,000	-0,025	-0,089
-244,205	337,207	-0,026	-0,037
-243,190	-200,000	0,031	0,112
-242,176	-200,000	-0,029	-0,097
-241,161	238,975	0,085	0,103
-240,146	346,445	0,109	0,155
-239,132	-200,000	-0,020	0,177
-238,117	-117,972	-0,019	0,002
-237,103	157,032	-0,010	0,010
-236,088	104,033	-0,058	-0,049
-235,073	800,000	0,023	-0,066
-234,059	800,000	0,033	0,105
-233,044	-146,476	-0,171	-0,011
-232,030	800,000	-0,013	0,041
-231,015	-200,000	-0,021	0,076
-230,000	-200,000	-0,004	-0,083
-228,986	-200,000	-0,020	-0,085
-227,971	-29,607	0,093	-0,038
-226,957	-200,000	0,003	-0,081
-225,942	653,508	0,018	-0,033
-224,927	111,707	0,073	0,064
-223,913	-163,003	0,051	0,002
-222,898	163,600	-0,090	-0,091
-221,884	-90,869	-0,146	-0,030
-220,869	-103,739	0,183	-0,031
-219,855	122,684	0,051	-0,047
-218,840	65,044	-0,110	-0,080
-217,825	-102,057	-0,045	-0,008
-216,811	103,394	-0,023	0,020
-215,796	-115,282	-0,116	0,016
-214,782	800,000	-0,029	0,090
-213,767	461,536	0,040	-0,064
-212,752	-200,000	-0,011	0,106
-211,738	-200,000	0,033	0,106
-210,723	800,000	-0,018	-0,056
-209,709	800,000	-0,047	-0,111
-208,694	-11,162	-0,013	0,006
-207,679	800,000	-0,045	-0,122
-206,665	40,428	0,071	0,046
-205,650	-200,000	0,033	0,115
-204,636	100,357	0,041	-0,035
-203,621	680,373	-0,053	0,100
-202,606	-200,000	-0,006	0,041
-201,592	-200,000	0,039	-0,149
-200,577	136,421	0,126	0,119
-199,563	-173,080	-0,115	0,002
-198,548	-113,536	-0,093	0,013
-197,533	143,531	0,073	-0,070
-196,519	-82,716	-0,086	-0,020
-195,504	-200,000	-0,022	-0,085
-194,490	-103,038	0,144	-0,024
-193,475	-131,937	-0,055	-0,005
-192,460	-160,361	0,083	-0,003
-191,446	800,000	0,035	0,105
-190,431	800,000	-0,053	-0,114
-189,417	-43,963	-0,104	-0,038
-188,402	185,814	0,096	0,103
-187,387	-13,720	-0,040	0,019
-186,373	44,973	0,031	-0,021
-185,358	-200,000	-0,037	-0,193
-184,344	147,499	0,090	-0,087
-183,329	-67,800	-0,098	0,027
-182,315	-200,000	-0,018	0,120
-181,300	-29,493	-0,150	-0,062
-180,285	-6,349	-0,035	0,017
-179,271	2,491	0,039	-0,021
-178,256	-200,000	-0,003	-0,050
-177,242	-30,919	-0,034	0,014
-176,227	-200,000	0,035	0,131
-175,212	-79,217	-0,033	0,008
-174,198	-92,588	0,105	0,021
-173,183	-200,000	-0,049	-0,162
-172,169	-200,000	0,019	-0,164
-171,154	800,000	-0,065	-0,135
-170,139	-200,000	0,016	0,070
-169,125	800,000	-0,024	-0,064
-168,110	190,215	0,099	-0,107
-167,096	-200,000	0,004	0,079
-166,081	742,324	-0,038	0,075
-165,066	509,711	0,013	-0,023
-164,052	648,492	-0,028	0,052
-163,037	490,225	0,009	0,014
-162,023	-162,951	0,139	-0,005
-161,008	-117,317	-0,045	-0,006
-159,993	-154,643	0,105	0,005
-158,979	-7,641	-0,046	-0,022
-157,964	-200,000	0,006	-0,074
-156,950	106,051	-0,095	0,081
-155,935	66,835	-0,069	-0,051
-154,920	-91,979	-0,084	0,017
-153,906	-100,161	-0,088	-0,016
-152,891	-16,724	0,082	0,037
-151,877	-200,000	0,015	-0,059
-150,862	158,109	-0,141	-0,141
-149,847	800,000	-0,021	0,066
-148,833	378,467	-0,027	-0,040
-147,818	180,277	-0,211	0,223
-146,804	207,906	-0,012	-0,013
-145,789	-200,000	-0,028	0,171
-144,775	196,528	0,030	-0,033
-143,760	8,415	0,160	-0,087
-142,745	-200,000	-0,019	-0,111
-141,731	353,490	-0,017	0,024
-140,716	-200,000	-0,002	0,015
-139,702	61,489	0,078	0,055
-138,687	800,000	-0,023	0,061
-137,672	485,800	0,034	0,056
-136,658	-200,000	-0,041	-0,162
-135,643	-200,000	-0,001	-0,004
-134,629	-123,597	-0,042	0,005
-133,614	-200,000	0,029	0,126
-132,599	-86,231	0,120	0,026
-131,585	5,571	0,026	0,014
-130,570	-155,080	-0,079	-0,004
-129,556	237,928	-0,104	-0,125
-128,541	171,837	0,092	-0,096
-127,526	28,531	-0,047	-0,029
-126,512	800,000	-0,014	0,036
-125,497	133,258	-0,082	0,077
-124,483	-200,000	0,001	-0,045
-123,468	-200,000	-0,003	0,036
-122,453	49,518	0,127	0,086
-121,439	-113,533	-0,132	-0,018
-120,424	706,346	0,068	0,130
