DTS Sentinel unit serial number:	SN410029Multiplexer serial number:	ORYXHardware model number:	OX2-SRSoftware version number:	ORYX F/W v4,00 Oryx Data Collector v3.7.2.0data status	okinstallation	B5 Nyhavnadifferential loss correction	single-endedforward channel	channel 2reverse channel	N/Adate	2023/12/12time	19:07:13forward acquisition time	300,00reverse acquisition time	0,00gamma	499,1914k internal	0,3157k external	0,3157temperature offset calibration	1,0000default loss term (dB/km)	0,3820temperature slope calibration	1,0000multiplexer offset coefficient	1,0000multiplexer slope coefficient	1,0000fibre end	0,00T internal ref (°C)	15,50T ext. ref 1 (°C)	-1,08T ext. ref 2 (°C)	-1,37length (m)	temperature (°C)	Stokes	anti-Stokes-744,400	143,860	0,088	0,087
-743,385	-133,162	-0,340	0,031
-742,371	-2,635	0,170	0,088
-741,356	12,443	-0,330	0,187
-740,342	9,823	0,075	-0,042
-739,327	-86,323	-0,302	-0,068
-738,312	80,689	-0,151	0,120
-737,298	95,244	-0,210	0,176
-736,283	-200,000	0,011	0,079
-735,269	-199,783	-0,253	0,001
-734,254	800,000	0,056	0,163
-733,239	-45,703	-0,523	-0,190
-732,225	-147,943	0,197	-0,012
-731,210	13,342	-0,047	0,027
-730,196	-32,901	-0,128	-0,052
-729,181	-75,597	-0,109	-0,028
-728,167	159,239	0,061	0,063
-727,152	128,396	0,155	-0,146
-726,137	-117,283	-0,120	0,016
-725,123	733,986	-0,057	-0,114
-724,108	142,850	-0,090	-0,089
-723,094	-107,896	-0,203	-0,032
-722,079	77,464	0,045	-0,035
-721,064	-119,233	-0,214	-0,027
-720,050	438,654	-0,046	0,074
-719,035	-99,943	0,111	-0,020
-718,021	-200,000	-0,007	-0,033
-717,006	-200,000	-0,118	-0,000
-715,991	139,188	-0,043	0,042
-714,977	110,694	-0,065	0,058
-713,962	113,326	-0,009	-0,008
-712,948	-25,844	0,075	-0,032
-711,933	-104,808	-0,051	-0,009
-710,918	800,000	-0,015	-0,048
-709,904	-145,260	-0,016	0,001
-708,889	800,000	-0,015	-0,041
-707,875	-200,000	-0,038	-0,141
-706,860	800,000	-0,014	-0,034
-705,845	346,076	0,060	0,088
-704,831	800,000	0,011	0,031
-703,816	-58,666	-0,123	-0,039
-702,802	-200,000	-0,016	-0,116
-701,787	203,988	0,070	-0,080
-700,772	-154,333	-0,196	-0,010
-699,758	-103,241	-0,132	-0,023
-698,743	-139,572	-0,090	0,007
-697,729	7,583	0,058	0,032
-696,714	-44,463	-0,043	-0,016
-695,699	-200,000	-0,034	-0,129
-694,685	-96,011	0,085	0,016
-693,670	-66,019	-0,100	-0,029
-692,656	-18,505	-0,044	0,020
-691,641	-200,000	0,004	0,165
-690,627	4,028	0,048	0,026
-689,612	-200,000	0,013	-0,144
-688,597	-31,796	-0,057	0,023
-687,583	196,992	0,139	0,157
-686,568	584,594	-0,052	-0,094
-685,554	-200,000	-0,008	-0,094
-684,539	-200,000	0,012	-0,049
-683,524	182,371	0,015	-0,017
-682,510	-200,000	-0,026	-0,127
-681,495	-43,156	-0,043	-0,016
-680,481	-7,617	0,043	-0,021
-679,466	-200,000	-0,022	-0,073
-678,451	-200,000	0,017	-0,198
-677,437	398,966	-0,024	0,038
-676,422	-109,998	0,088	0,013
-675,408	-200,000	0,001	0,184
-674,393	-35,651	0,200	-0,080
-673,378	800,000	-0,022	-0,045
-672,364	800,000	-0,019	-0,047
-671,349	-200,000	-0,002	-0,044
-670,335	-39,977	-0,016	-0,006
-669,320	-200,000	-0,006	0,128
-668,305	452,369	-0,109	-0,178
-667,291	-98,640	-0,111	-0,021
-666,276	77,637	0,053	-0,042
-665,262	-63,999	-0,076	-0,023
-664,247	-101,910	0,054	-0,009
-663,232	653,455	0,033	0,062
-662,218	768,080	0,049	0,099
-661,203	-200,000	-0,010	0,080
-660,189	13,349	0,117	-0,066
-659,174	-75,928	-0,092	-0,024
-658,159	-48,842	0,019	-0,007
-657,145	126,207	-0,038	-0,035
-656,130	-200,000	0,001	0,131
-655,116	-35,592	0,037	0,015
-654,101	-200,000	-0,018	0,128
-653,086	-200,000	-0,024	-0,119
-652,072	800,000	-0,039	-0,096
-651,057	575,112	-0,010	0,019
-650,043	145,026	0,110	-0,108
-649,028	-200,000	0,004	0,026
-648,014	-9,003	0,020	0,010
-646,999	612,609	0,061	0,112
-645,984	71,402	-0,043	-0,032
-644,970	145,225	-0,131	-0,129
-643,955	12,797	-0,225	-0,127
-642,941	-129,634	-0,126	0,013
-641,926	33,215	0,049	0,031
-640,911	-3,038	-0,097	-0,049
-639,897	156,179	-0,047	-0,048
-638,882	-200,000	-0,016	0,123
-637,868	169,423	-0,119	0,125
-636,853	-10,071	-0,030	0,014
-635,838	800,000	-0,013	0,033
-634,824	-116,425	0,041	0,005
-633,809	800,000	0,050	-0,132
-632,795	-200,000	-0,011	0,117
-631,780	-200,000	0,020	0,138
-630,765	398,988	0,099	0,153
-629,751	-200,000	0,004	0,017
-628,736	359,949	-0,090	-0,133
-627,722	-159,345	-0,135	-0,005
-626,707	13,693	-0,070	-0,040
-625,692	-163,274	-0,177	0,006
-624,678	70,571	-0,104	0,079
-623,663	-30,396	-0,138	0,057
-622,649	-49,358	-0,157	0,055
-621,634	-99,376	-0,067	-0,012
-620,619	-152,588	-0,121	0,006
-619,605	-5,485	0,039	0,020
-618,590	197,685	0,149	0,167
-617,576	-50,848	0,100	0,034
-616,561	-200,000	-0,025	-0,085
-615,546	-200,000	-0,010	-0,086
-614,532	1,896	-0,081	0,043
-613,517	700,481	0,021	-0,040
-612,503	99,186	-0,026	-0,022
-611,488	283,765	0,046	0,061
-610,474	-20,677	0,067	-0,030
-609,459	-200,000	0,022	-0,102
-608,444	-49,125	-0,099	-0,035
-607,430	666,920	0,018	-0,033
-606,415	-93,557	-0,159	0,032
-605,401	129,762	0,117	0,110
-604,386	-200,000	-0,007	0,065
-603,371	766,919	-0,042	-0,084
-602,357	-200,000	-0,019	-0,134
-601,342	20,055	-0,021	-0,013
-600,328	213,453	0,055	0,064
-599,313	11,402	-0,090	-0,050
-598,298	-45,611	-0,099	-0,036
-597,284	159,489	0,081	-0,083
-596,269	-200,000	-0,049	0,000
-595,255	-59,969	-0,123	0,038
-594,240	284,760	0,060	0,079
-593,225	-200,000	-0,024	-0,117
-592,211	6,152	-0,084	0,046
-591,196	524,678	0,036	0,062
-590,182	177,398	-0,024	-0,026
-589,167	800,000	-0,014	0,039
-588,152	294,510	-0,015	0,020
-587,138	-200,000	-0,033	0,179
-586,123	-85,467	-0,090	0,020
-585,109	183,010	-0,030	-0,032
-584,094	146,736	-0,010	0,009
-583,079	-60,167	0,117	-0,036
-582,065	23,145	0,057	0,034
-581,050	-127,113	0,037	-0,004
-580,036	105,615	-0,112	-0,097
-579,021	-31,325	0,103	-0,042
-578,006	-117,908	-0,129	-0,017
-576,992	-76,985	0,107	-0,027
-575,977	-200,000	-0,001	0,132
-574,963	-200,000	0,055	0,205
-573,948	16,857	0,131	0,076
-572,934	180,954	0,024	-0,026
-571,919	36,917	-0,067	-0,043
-570,904	63,899	0,081	-0,059
-569,890	-119,434	-0,062	-0,008
-568,875	-200,000	0,013	0,130
-567,861	73,767	0,152	0,116
-566,846	415,823	0,043	0,067
-565,831	28,181	-0,036	-0,022
-564,817	-109,195	-0,145	-0,022
-563,802	800,000	-0,019	-0,053
-562,788	-200,000	0,003	-0,021
-561,773	265,771	0,024	0,030
-560,758	-53,974	0,140	0,046
-559,744	-200,000	-0,022	-0,092
-558,729	-63,425	0,036	0,011
-557,715	60,936	0,033	-0,024
-556,700	24,746	-0,082	-0,050
-555,685	12,601	-0,120	-0,067
-554,671	-1,003	0,084	0,043
-553,656	179,914	-0,037	-0,040
-552,642	398,111	-0,060	0,092
-551,627	-68,401	0,022	0,006
-550,612	245,917	0,017	-0,022
-549,598	126,385	-0,158	-0,146
-548,583	363,723	-0,032	-0,047
-547,569	321,529	-0,044	-0,062
-546,554	-78,304	0,025	0,006
-545,539	-200,000	0,008	-0,071
-544,525	-72,985	0,119	0,032
-543,510	22,144	-0,144	0,086
-542,496	-200,000	-0,000	-0,004
-541,481	-69,600	-0,051	0,014
-540,466	-200,000	-0,009	-0,108
-539,452	521,912	-0,063	-0,108
-538,437	149,890	0,029	-0,029
-537,423	-24,983	0,103	0,045
-536,408	-119,089	-0,062	-0,008
-535,393	481,768	0,047	-0,078
-534,379	800,000	0,008	-0,023
-533,364	658,370	0,031	-0,059
-532,350	138,235	-0,053	-0,051
-531,335	86,907	-0,097	-0,078
-530,321	-89,401	0,110	-0,023
-529,306	-200,000	-0,015	-0,101
-528,291	800,000	0,089	-0,183
-527,277	72,444	0,093	-0,071
-526,262	-147,240	-0,142	0,009
-525,248	-102,852	0,058	-0,010
-524,233	36,623	0,040	0,026
-523,218	800,000	-0,046	0,098
-522,204	-35,128	-0,044	-0,017
-521,189	-200,000	-0,010	0,045
-520,175	-200,000	-0,008	0,033
-519,160	800,000	-0,033	-0,102
-518,145	-200,000	-0,003	0,025
-517,131	800,000	-0,038	0,096
-516,116	602,943	-0,034	0,062
-515,102	147,529	0,068	0,067
-514,087	800,000	-0,041	-0,087
-513,072	290,657	-0,074	-0,099
-512,058	-6,348	-0,112	0,056
-511,043	-200,000	0,010	0,046
-510,029	347,714	0,015	0,022
-509,014	443,344	-0,030	0,049
-507,999	800,000	0,033	-0,097
-506,985	193,828	-0,013	0,014
-505,970	-175,653	-0,048	-0,001
-504,956	-200,000	-0,007	0,078
-503,941	50,593	-0,074	-0,051
-502,926	-53,079	-0,083	0,028
-501,912	112,822	0,099	-0,088
-500,897	216,718	0,017	-0,020
-499,883	204,393	0,113	0,128
-498,868	-133,460	-0,089	-0,008
-497,853	104,515	-0,069	-0,059
-496,839	800,000	0,083	-0,175
-495,824	-200,000	0,030	-0,104
-494,810	-200,000	-0,012	-0,091
-493,795	-200,000	0,001	0,089
-492,781	-0,696	0,058	0,030
-491,766	-200,000	-0,021	0,071
-490,751	-200,000	0,021	0,160
-489,737	91,811	0,058	-0,048
-488,722	-167,751	-0,033	0,001
-487,708	164,752	-0,045	-0,047
-486,693	89,349	0,077	0,062
-485,678	-66,234	0,078	-0,023
-484,664	-4,639	-0,109	-0,055
-483,649	199,001	-0,052	-0,059
-482,635	249,408	-0,044	0,054
-481,620	-45,597	0,097	0,035
-480,605	50,016	0,070	0,048
-479,591	401,555	-0,095	0,146
-478,576	-200,000	-0,015	-0,052
-477,562	34,043	0,108	-0,069
-476,547	-8,390	-0,062	0,030
-475,532	-0,685	-0,145	-0,075
-474,518	-112,186	0,029	-0,004
-473,503	211,779	0,058	-0,067
-472,489	-59,458	0,102	0,032
-471,474	512,830	-0,054	-0,093
-470,459	44,497	0,068	-0,045
-469,445	326,805	0,042	0,059
-468,430	658,877	-0,034	-0,064
-467,416	144,695	0,101	-0,099
-466,401	18,356	-0,027	-0,016
-465,386	-6,617	0,060	0,030
-464,372	101,218	0,015	0,013
-463,357	76,395	-0,067	0,052
-462,343	102,984	0,063	-0,054
-461,328	244,587	-0,050	0,061
-460,313	38,134	0,098	-0,063
-459,299	800,000	0,031	0,095
-458,284	-8,416	-0,050	0,024
-457,270	102,965	0,063	0,054
-456,255	308,733	0,098	-0,134
-455,241	800,000	-0,042	0,118
-454,226	1,842	0,077	0,040
-453,211	33,801	-0,044	-0,028
-452,197	-25,710	0,080	0,034
-451,182	31,231	-0,067	0,042
-450,168	-186,054	0,044	-0,000
-449,153	563,723	0,057	-0,102
-448,138	611,284	0,067	-0,123
-447,124	-85,436	-0,062	-0,014
-446,109	85,607	0,058	-0,046
-445,095	551,267	0,002	-0,004
-444,080	-7,065	-0,113	0,056
-443,065	359,607	-0,038	0,055
-442,051	800,000	-0,078	0,169
-441,036	-200,000	0,019	-0,076
-440,022	275,693	-0,044	0,057
-439,007	150,307	0,043	-0,042
-437,992	800,000	0,032	0,100
-436,978	-73,710	0,149	-0,039
-435,963	800,000	0,023	-0,049
-434,949	80,119	-0,046	-0,036
-433,934	800,000	-0,031	0,095
-432,919	98,970	0,099	-0,083
-431,905	-200,000	0,008	-0,049
-430,890	326,399	-0,022	0,031
-429,876	-74,402	-0,113	0,029
-428,861	570,046	-0,075	-0,134
-427,846	95,942	0,083	-0,069
-426,832	-155,452	-0,120	-0,006
-425,817	-200,000	0,014	-0,055
-424,803	-94,680	0,096	0,019
-423,788	800,000	0,026	-0,072
-422,773	-77,510	-0,093	0,023
-421,759	-102,512	0,169	-0,029
-420,744	800,000	-0,021	-0,050
-419,730	187,280	-0,104	-0,113
-418,715	800,000	0,042	-0,122
-417,701	-30,684	0,060	-0,025
-416,686	-21,139	0,128	0,057
-415,671	16,582	-0,048	0,028
-414,657	750,292	0,056	0,111
-413,642	-39,395	-0,029	0,011
-412,628	44,532	-0,080	-0,054
-411,613	-3,209	-0,069	0,035
-410,598	349,271	0,056	0,080
-409,584	70,865	0,050	0,038
-408,569	-139,722	0,155	-0,012
-407,555	-150,952	-0,121	0,007
-406,540	-112,510	-0,089	0,013
-405,525	-141,792	-0,103	0,007
-404,511	-130,353	0,042	0,004
-403,496	-135,618	-0,078	0,007
-402,482	34,052	-0,109	0,069
-401,467	284,677	0,028	0,037
-400,452	-106,897	0,074	-0,012
-399,438	-75,241	-0,061	0,016
-398,423	158,974	-0,055	-0,055
-397,409	-200,000	-0,009	-0,096
-396,394	-200,000	0,004	-0,043
-395,379	239,135	0,020	-0,024
-394,365	-6,066	0,116	0,057
-393,350	349,128	0,024	0,035
-392,336	212,876	-0,126	0,145
-391,321	-200,000	-0,000	-0,014
-390,306	62,583	-0,083	-0,060
-389,292	10,386	0,027	0,015
-388,277	406,578	0,023	-0,036
-387,263	236,442	-0,048	0,057
-386,248	800,000	-0,011	0,033
-385,233	-200,000	-0,020	-0,075
-384,219	-80,850	-0,066	0,016
-383,204	800,000	0,046	0,128
-382,190	800,000	-0,038	-0,092
-381,175	289,117	0,039	0,051
-380,160	481,587	-0,036	-0,060
-379,146	800,000	-0,042	0,109
-378,131	202,935	-0,090	-0,101
-377,117	-200,000	0,005	-0,063
-376,102	-22,047	-0,082	0,036
-375,088	468,261	-0,063	-0,104
-374,073	235,021	0,103	-0,123
-373,058	624,632	0,029	-0,053
-372,044	101,251	0,084	0,071
-371,029	-200,000	-0,017	-0,078
-370,015	-107,087	0,052	0,008
-369,000	-65,529	0,075	-0,022
-367,985	525,041	0,039	-0,066
-366,971	90,252	-0,067	-0,055
-365,956	-200,000	-0,009	-0,094
-364,942	-200,000	-0,021	0,154
-363,927	-17,867	-0,022	0,010
-362,912	-200,000	0,040	-0,149
-361,898	145,889	-0,034	-0,033
-360,883	139,858	-0,135	-0,129
-359,869	37,211	0,039	-0,025
-358,854	-200,000	0,016	0,056
-357,839	-29,781	0,126	0,052
-356,825	-200,000	-0,010	0,049
-355,810	631,180	0,023	0,042
-354,796	-66,085	-0,088	0,025
-353,781	49,963	0,055	-0,037
-352,766	-162,467	-0,079	0,003
-351,752	789,489	0,011	-0,023
-350,737	800,000	0,060	0,144
-349,723	287,508	-0,098	0,129
-348,708	-200,000	-0,005	0,044
-347,693	-200,000	0,017	0,098
-346,679	25,530	-0,028	0,017
-345,664	-200,000	0,026	-0,115
-344,650	130,749	-0,045	0,042
-343,635	-86,733	0,061	0,013
-342,620	145,737	0,054	0,053
-341,606	800,000	0,037	-0,075
-340,591	750,327	0,030	-0,058
-339,577	-180,792	0,056	0,001
-338,562	-200,000	-0,022	-0,105
-337,548	-77,494	0,119	-0,030
-336,533	430,861	-0,035	0,056
-335,518	-200,000	-0,011	0,094
-334,504	800,000	-0,037	0,110
-333,489	414,182	-0,056	0,086
-332,475	184,856	0,018	0,019
-331,460	206,037	0,023	-0,026
-330,445	800,000	0,024	0,071
-329,431	-36,643	-0,041	-0,016
-328,416	800,000	-0,015	0,042
-327,402	118,442	0,043	-0,039
-326,387	-200,000	0,007	0,066
-325,372	-24,133	0,022	-0,009
-324,358	-90,977	-0,059	-0,012
-323,343	-200,000	0,014	0,089
-322,329	-99,345	0,119	0,022
-321,314	-26,001	-0,123	-0,052
-320,299	363,600	0,040	0,058
-319,285	133,537	-0,035	-0,033
-318,270	-200,000	-0,004	0,033
-317,256	-18,002	0,104	-0,047
-316,241	-138,446	0,122	0,010
-315,226	-200,000	0,040	0,148
-314,212	-200,000	0,021	0,094
-313,197	800,000	-0,035	0,081
-312,183	341,859	-0,023	-0,033
-311,168	800,000	-0,059	-0,178
-310,153	-137,448	0,141	-0,011
-309,139	187,497	0,027	-0,030
-308,124	-161,324	0,137	0,005
-307,110	-21,536	0,108	0,048
-306,095	-200,000	0,013	0,067
-305,080	-148,508	0,032	-0,002
-304,066	253,200	0,048	0,060
-303,051	-98,420	-0,078	0,014
-302,037	545,739	-0,055	-0,095
-301,022	86,003	0,052	0,042
-300,008	11,253	-0,091	0,050
-298,993	800,000	0,020	0,045
-297,978	-9,378	-0,080	-0,039
-296,964	59,382	0,045	0,032
-295,949	164,327	-0,076	0,078
-294,935	-102,662	0,046	-0,008
-293,920	-96,888	-0,137	-0,026
-292,905	-29,117	-0,015	-0,006
-291,891	800,000	0,026	0,061
-290,876	163,219	0,051	0,052
-289,862	6,524	-0,134	-0,072
-288,847	-200,000	0,047	-0,168
-287,832	-57,623	0,067	0,021
-286,818	50,322	0,063	-0,043
-285,803	-200,000	-0,003	-0,110
-284,789	800,000	0,046	-0,106
-283,774	800,000	0,031	-0,066
-282,759	117,415	0,031	0,027
-281,745	23,747	0,047	0,028
-280,730	495,359	-0,020	0,034
-279,716	800,000	0,038	-0,081
-278,701	381,275	-0,053	0,078
-277,686	-155,999	0,065	-0,003
-276,672	-200,000	-0,009	0,084
-275,657	-84,573	0,043	0,010
-274,643	800,000	-0,026	-0,055
-273,628	-182,593	0,073	0,001
-272,613	-97,069	-0,065	-0,012
-271,599	800,000	0,019	-0,039
-270,584	-200,000	-0,004	0,036
-269,570	-84,261	0,008	-0,002
-268,555	-73,693	-0,062	-0,016
-267,540	-56,382	-0,107	-0,034
-266,526	173,880	0,051	-0,054
-265,511	-2,770	0,017	0,009
-264,497	174,483	0,054	-0,057
-263,482	-162,130	0,051	0,002
-262,467	87,605	-0,055	0,044
-261,453	800,000	0,039	0,094
-260,438	-200,000	0,007	0,085
-259,424	800,000	0,055	-0,142
-258,409	-119,456	-0,098	-0,012
-257,395	-200,000	0,020	0,129
-256,380	-14,652	-0,005	-0,002
-255,365	800,000	0,038	0,091
-254,351	-200,000	0,005	0,154
-253,336	800,000	-0,028	-0,062
-252,322	-200,000	0,017	0,079
-251,307	177,152	0,129	0,136
-250,292	-200,000	0,015	-0,079
-249,278	-172,340	0,107	-0,002
-248,263	101,152	0,060	-0,050
-247,249	74,879	-0,066	0,050
-246,234	-79,150	-0,122	0,030
-245,219	-101,389	0,058	-0,010
-244,205	-60,410	-0,088	-0,027
-243,190	800,000	0,072	-0,154
-242,176	450,594	-0,038	0,061
-241,161	118,050	-0,068	0,060
-240,146	-200,000	0,006	-0,063
-239,132	-56,958	0,049	-0,016
-238,117	800,000	-0,030	-0,095
-237,103	-200,000	-0,009	-0,038
-236,088	766,537	0,076	-0,150
-235,073	-53,654	-0,030	-0,010
-234,059	273,134	0,047	0,060
-233,044	112,385	0,057	0,050
-232,030	55,174	-0,074	-0,051
-231,015	86,383	0,037	-0,030
-230,000	-49,422	-0,072	0,025
-228,986	-200,000	0,004	-0,088
-227,971	800,000	-0,039	0,085
-226,957	476,969	0,068	0,112
-225,942	-200,000	-0,006	0,048
-224,927	-145,331	-0,075	0,005
-223,913	-33,955	0,138	-0,054
-222,898	-46,805	-0,081	0,028
-221,884	-93,506	0,069	-0,014
-220,869	800,000	-0,044	-0,098
-219,855	-110,221	0,077	0,011
-218,840	371,407	0,076	0,112
-217,825	208,459	-0,098	-0,111
-216,811	-200,000	0,008	0,088
-215,796	-117,178	-0,153	0,020
-214,782	-141,180	0,131	-0,010
-213,767	-75,732	-0,077	-0,020
-212,752	617,159	0,090	0,164
-211,738	800,000	0,042	0,102
-210,723	106,945	0,031	-0,026
-209,709	128,635	-0,090	0,083
-208,694	800,000	0,011	-0,025
-207,679	67,567	-0,136	0,100
-206,665	172,992	-0,027	-0,028
-205,650	168,940	-0,042	-0,043
-204,636	623,451	-0,027	-0,049
-203,621	-200,000	0,013	0,053
-202,606	-200,000	-0,001	-0,108
-201,592	188,841	0,043	0,047
-200,577	325,198	0,058	-0,080
-199,563	-69,003	0,053	0,015
-198,548	-176,994	0,124	-0,002
-197,533	-79,747	0,033	0,008
-196,519	102,093	0,059	-0,050
-195,504	213,534	0,079	-0,090
-194,490	21,812	0,041	-0,024
-193,475	-200,000	-0,006	-0,042
-192,460	-200,000	-0,018	-0,093
-191,446	165,621	-0,065	0,067
-190,431	-200,000	-0,017	0,072
-189,417	-110,386	0,047	0,007
-188,402	263,874	0,060	-0,075
-187,387	800,000	0,065	-0,146
-186,373	-123,693	0,070	0,008
-185,358	-155,394	-0,100	0,005
-184,344	75,225	0,072	-0,055
-183,329	-90,499	0,099	0,021
-182,315	96,907	0,058	-0,048
-181,300	-200,000	-0,023	0,112
-180,285	-200,000	0,019	-0,131
-179,271	171,544	0,047	0,049
-178,256	6,081	0,078	-0,041
-177,242	235,812	-0,048	0,058
-176,227	49,665	0,058	-0,039
-175,212	800,000	-0,044	0,090
-174,198	-101,543	0,123	-0,021
-173,183	356,471	-0,066	0,095
-172,169	-122,211	-0,043	-0,005
-171,154	254,815	-0,073	-0,091
-170,139	197,524	0,026	0,029
-169,125	-131,451	-0,084	-0,008
-168,110	-89,256	0,072	-0,015
-167,096	52,617	0,098	0,067
-166,081	800,000	0,034	0,075
-165,066	3,070	-0,098	-0,051
-164,052	800,000	0,048	-0,140
-163,037	-83,846	0,075	0,017
-162,023	-97,614	0,105	0,019
-161,008	60,041	-0,050	0,036
-159,993	8,555	0,036	0,020
-158,979	446,223	-0,034	0,054
-157,964	-39,448	-0,068	0,025
-156,950	-200,000	-0,002	0,028
-155,935	-194,013	-0,032	0,000
-154,920	15,954	0,099	0,056
-153,906	407,867	0,059	0,090
-152,891	632,293	0,037	0,068
-151,877	367,874	0,076	-0,110
-150,862	-200,000	-0,008	-0,204
-149,847	305,995	0,039	0,052
-148,833	73,906	-0,041	-0,031
-147,818	132,079	0,107	0,099
-146,804	-200,000	-0,017	0,057
-145,789	-53,780	0,121	0,039
-144,775	-163,068	0,065	-0,002
-143,760	99,016	-0,107	-0,089
-142,745	434,823	0,018	-0,028
-141,731	61,635	0,079	-0,057
-140,716	754,209	-0,021	-0,041
-139,702	-200,000	-0,003	-0,043
-138,687	2,288	-0,106	-0,055
-137,672	-46,374	-0,025	-0,009
-136,658	-29,904	-0,047	0,019
-135,643	599,948	0,060	0,107
-134,629	-200,000	0,004	-0,063
-133,614	-200,000	0,021	0,168
-132,599	-200,000	-0,003	0,186
-131,585	451,488	-0,057	0,091
-130,570	-154,936	0,119	0,006
-129,556	-144,157	0,151	0,010
-128,541	210,497	-0,043	-0,049
-127,526	-200,000	0,029	-0,125
-126,512	229,699	0,114	0,134
-125,497	1,420	0,103	-0,053
-124,483	100,772	-0,046	-0,038
-123,468	-19,477	-0,109	-0,048
-122,453	-192,029	0,039	0,000
-121,439	101,071	-0,048	0,040
-120,424	150,759	-0,051	0,050
-119,410	161,309	0,085	0,086
-118,395	-92,023	0,137	-0,028
