DTS Sentinel unit serial number:	SN410029Multiplexer serial number:	ORYXHardware model number:	OX2-SRSoftware version number:	ORYX F/W v4,00 Oryx Data Collector v3.7.2.0data status	okinstallation	B5 Nyhavnadifferential loss correction	single-endedforward channel	channel 2reverse channel	N/Adate	2023/12/12time	14:22:13forward acquisition time	300,00reverse acquisition time	0,00gamma	499,1914k internal	0,3157k external	0,3157temperature offset calibration	1,0000default loss term (dB/km)	0,3820temperature slope calibration	1,0000multiplexer offset coefficient	1,0000multiplexer slope coefficient	1,0000fibre end	0,00T internal ref (°C)	15,82T ext. ref 1 (°C)	-0,31T ext. ref 2 (°C)	-0,56length (m)	temperature (°C)	Stokes	anti-Stokes-744,400	-64,398	0,132	0,039
-743,385	-40,314	-0,266	0,101
-742,371	268,737	0,147	0,190
-741,356	-171,282	-0,348	-0,008
-740,342	28,208	0,243	0,151
-739,327	-159,438	-0,366	-0,015
-738,312	191,362	0,079	-0,087
-737,298	-104,039	-0,368	-0,063
-736,283	22,230	0,068	-0,041
-735,269	-163,221	-0,261	0,009
-734,254	58,770	0,038	-0,028
-733,239	-74,321	-0,368	-0,097
-732,225	-5,729	0,099	0,050
-731,210	211,584	0,077	0,090
-730,196	-169,556	-0,055	0,001
-729,181	152,970	0,069	-0,070
-728,167	-117,686	-0,137	-0,018
-727,152	-147,312	0,035	-0,002
-726,137	-200,000	-0,005	-0,113
-725,123	-144,791	-0,031	0,002
-724,108	-59,723	-0,177	-0,056
-723,094	-200,000	-0,000	0,017
-722,079	-92,436	-0,131	-0,027
-721,064	57,351	-0,049	-0,035
-720,050	-200,000	-0,003	0,011
-719,035	-200,000	0,013	0,073
-718,021	34,593	-0,017	0,011
-717,006	224,724	-0,139	-0,166
-715,991	-51,665	-0,006	0,002
-714,977	228,233	-0,030	-0,036
-713,962	249,052	0,089	-0,112
-712,948	-200,000	0,002	-0,132
-711,933	800,000	-0,071	-0,169
-710,918	-200,000	0,005	-0,107
-709,904	800,000	-0,061	-0,170
-708,889	423,851	0,090	-0,143
-707,875	-200,000	0,014	0,120
-706,860	-138,576	0,079	0,006
-705,845	43,699	0,129	0,087
-704,831	-154,129	0,002	-0,000
-703,816	-135,948	-0,208	-0,018
-702,802	-200,000	0,014	-0,048
-701,787	-5,749	0,020	-0,010
-700,772	-128,223	-0,168	0,017
-699,758	149,810	-0,069	-0,069
-698,743	65,824	-0,113	-0,084
-697,729	356,819	-0,086	0,127
-696,714	79,884	0,164	-0,130
-695,699	-200,000	-0,011	0,121
-694,685	84,501	-0,090	-0,073
-693,670	-68,531	0,132	-0,037
-692,656	-32,321	0,092	-0,038
-691,641	22,038	-0,131	-0,078
-690,627	553,995	0,132	-0,235
-689,612	-98,982	-0,172	0,032
-688,597	-46,483	0,075	-0,027
-687,583	-36,326	-0,114	0,045
-686,568	-122,667	0,086	0,010
-685,554	497,397	-0,015	-0,025
-684,539	-200,000	0,030	-0,120
-683,524	-200,000	0,019	-0,093
-682,510	-133,662	-0,075	-0,007
-681,495	533,498	0,017	-0,030
-680,481	275,108	-0,050	-0,065
-679,466	800,000	-0,052	-0,122
-678,451	800,000	-0,056	-0,117
-677,437	-96,291	0,053	-0,010
-676,422	-27,671	-0,039	-0,017
-675,408	-128,328	-0,159	0,016
-674,393	-56,405	-0,175	0,057
-673,378	741,529	-0,063	-0,125
-672,364	335,307	-0,072	-0,103
-671,349	165,676	-0,065	0,068
-670,335	462,380	-0,027	0,044
-669,320	-68,601	0,059	-0,017
-668,305	644,151	-0,048	-0,091
-667,291	155,125	0,074	-0,074
-666,276	800,000	0,072	-0,165
-665,262	800,000	-0,121	-0,261
-664,247	30,325	-0,143	-0,089
-663,232	102,251	-0,083	-0,071
-662,218	130,883	0,072	0,068
-661,203	225,636	-0,037	-0,044
-660,189	201,224	-0,022	0,025
-659,174	-111,143	0,087	0,013
-658,159	-20,445	-0,096	-0,043
-657,145	800,000	-0,032	-0,088
-656,130	800,000	-0,036	0,086
-655,116	-15,471	-0,087	0,041
-654,101	-96,549	-0,215	-0,041
-653,086	-11,855	-0,025	0,012
-652,072	-88,062	0,087	-0,019
-651,057	-57,456	-0,112	-0,036
-650,043	-130,753	-0,080	0,008
-649,028	-200,000	-0,026	-0,092
-648,014	-168,758	0,079	0,002
-646,999	800,000	0,021	-0,060
-645,984	728,684	0,015	0,031
-644,970	-100,779	0,018	0,003
-643,955	-200,000	0,023	0,095
-642,941	147,802	-0,104	-0,104
-641,926	86,697	0,003	0,003
-640,911	-200,000	-0,015	0,064
-639,897	421,061	0,022	-0,035
-638,882	-200,000	0,008	0,090
-637,868	144,176	-0,030	-0,029
-636,853	800,000	-0,057	0,140
-635,838	-49,580	-0,122	-0,042
-634,824	190,505	-0,015	0,017
-633,809	-49,211	-0,105	0,036
-632,795	331,640	0,036	0,052
-631,780	30,168	0,030	-0,019
-630,765	-200,000	-0,014	-0,138
-629,751	322,770	-0,108	-0,152
-628,736	-85,428	-0,108	0,025
-627,722	-200,000	0,008	-0,027
-626,707	-200,000	-0,009	-0,041
-625,692	109,786	0,043	-0,038
-624,678	800,000	-0,019	0,040
-623,663	71,014	-0,134	0,102
-622,649	-34,802	-0,038	-0,015
-621,634	-200,000	0,015	0,138
-620,619	800,000	0,017	-0,043
-619,605	80,990	0,005	-0,004
-618,590	-86,639	0,072	-0,016
-617,576	-200,000	-0,005	-0,067
-616,561	17,306	0,115	0,067
-615,546	164,859	-0,052	-0,054
-614,532	-200,000	0,005	0,069
-613,517	-186,495	0,105	0,001
-612,503	49,162	-0,102	0,070
-611,488	-200,000	0,014	0,069
-610,474	800,000	0,038	0,108
-609,459	-121,681	0,092	0,011
-608,444	83,489	-0,102	-0,081
-607,430	195,814	-0,022	-0,024
-606,415	135,772	0,020	0,019
-605,401	15,200	-0,101	-0,058
-604,386	800,000	0,075	0,156
-603,371	-156,207	-0,095	-0,004
-602,357	-54,995	-0,093	-0,031
-601,342	-200,000	-0,031	-0,220
-600,328	-200,000	-0,003	0,105
-599,313	-58,163	-0,045	0,014
-598,298	-200,000	-0,008	-0,106
-597,284	129,228	0,003	-0,002
-596,269	800,000	-0,016	-0,046
-595,255	640,888	-0,089	0,167
-594,240	159,823	0,045	-0,046
-593,225	9,955	-0,050	0,028
-592,211	-200,000	0,000	-0,042
-591,196	40,785	-0,009	-0,006
-590,182	-124,397	0,207	-0,023
-589,167	-200,000	0,001	0,013
-588,152	-200,000	-0,026	0,246
-587,138	-176,745	0,094	0,002
-586,123	-169,496	-0,126	-0,003
-585,109	272,346	-0,060	-0,078
-584,094	-200,000	0,009	-0,042
-583,079	800,000	0,069	0,172
-582,065	-98,870	-0,048	0,009
-581,050	-86,069	0,066	0,015
-580,036	-47,052	-0,139	-0,050
-579,021	56,872	-0,031	-0,022
-578,006	-47,296	-0,090	-0,032
-576,992	99,557	0,091	-0,077
-575,977	1,782	0,145	0,076
-574,963	-140,819	-0,043	0,003
-573,948	800,000	-0,035	-0,081
-572,934	421,115	0,025	0,039
-571,919	800,000	-0,048	0,142
-570,904	-28,224	-0,081	0,034
-569,890	-200,000	-0,013	0,082
-568,875	330,371	0,116	0,164
-567,861	-200,000	0,003	0,043
-566,846	111,222	0,034	0,030
-565,831	-200,000	-0,039	0,150
-564,817	-173,159	0,099	-0,002
-563,802	-131,535	-0,051	0,005
-562,788	317,103	-0,077	-0,106
-561,773	769,530	-0,006	0,013
-560,758	800,000	0,065	0,135
-559,744	172,668	0,059	-0,062
-558,729	112,835	0,019	-0,017
-557,715	-200,000	0,001	-0,082
-556,700	800,000	-0,034	-0,091
-555,685	413,292	0,071	-0,111
-554,671	281,192	-0,051	0,067
-553,656	8,944	0,070	-0,039
-552,642	-151,518	-0,115	0,006
-551,627	-31,015	-0,074	-0,030
-550,612	-187,717	0,126	0,001
-549,598	-200,000	0,095	0,000
-548,583	-53,764	0,182	-0,060
-547,569	59,599	-0,054	0,039
-546,554	800,000	-0,022	-0,059
-545,539	-200,000	-0,011	0,058
-544,525	-200,000	-0,018	0,081
-543,510	-200,000	-0,003	-0,054
-542,496	-77,972	0,127	-0,032
-541,481	629,624	-0,032	-0,060
-540,466	315,895	-0,079	0,109
-539,452	-200,000	0,027	-0,131
-538,437	-23,688	-0,069	0,030
-537,423	68,043	0,083	-0,062
-536,408	-75,319	0,041	-0,011
-535,393	217,014	0,067	0,079
-534,379	-81,811	-0,168	-0,040
-533,364	148,081	-0,076	-0,075
-532,350	-17,373	-0,113	0,052
-531,335	800,000	-0,028	0,091
-530,321	800,000	-0,013	-0,026
-529,306	-42,951	0,106	0,039
-528,291	-80,093	-0,146	-0,035
-527,277	-200,000	0,012	-0,113
-526,262	-149,829	-0,099	0,006
-525,248	-198,371	0,072	-0,000
-524,233	578,829	0,088	0,159
-523,218	-200,000	-0,004	-0,072
-522,204	800,000	-0,076	0,156
-521,189	-200,000	0,013	0,210
-520,175	578,292	0,056	0,101
-519,160	-200,000	-0,022	0,164
-518,145	800,000	-0,072	0,179
-517,131	-43,083	0,186	0,069
-516,116	323,349	0,154	0,215
-515,102	-130,286	0,096	0,009
-514,087	308,811	-0,050	-0,069
-513,072	83,048	0,106	-0,084
-512,058	26,444	-0,080	0,049
-511,043	689,000	0,023	0,043
-510,029	-38,080	0,073	0,028
-509,014	-24,021	0,104	-0,045
-507,999	-200,000	-0,007	0,113
-506,985	-200,000	-0,010	0,099
-505,970	677,372	-0,040	-0,076
-504,956	21,540	-0,098	-0,058
-503,941	42,827	0,091	0,061
-502,926	-26,799	-0,123	0,052
-501,912	225,201	0,083	0,098
-500,897	75,294	-0,054	0,041
-499,883	-200,000	-0,000	-0,083
-498,868	-200,000	0,012	-0,085
-497,853	347,754	0,092	0,133
-496,839	-200,000	0,006	-0,023
-495,824	-70,309	-0,020	0,005
-494,810	-59,530	0,077	-0,024
-493,795	146,457	0,038	-0,037
-492,781	-141,648	0,082	0,006
-491,766	222,801	-0,013	0,015
-490,751	-139,672	-0,111	-0,008
-489,737	139,026	0,048	0,046
-488,722	-34,420	0,059	0,023
-487,708	-150,951	-0,020	-0,001
-486,693	659,111	-0,050	-0,095
-485,678	-48,567	0,024	-0,008
-484,664	708,629	0,070	0,135
-483,649	84,423	0,093	0,074
-482,635	-200,000	-0,008	0,078
-481,620	-47,054	0,103	0,037
-480,605	299,271	0,024	-0,032
-479,591	588,381	0,021	-0,037
-478,576	7,271	-0,036	-0,020
-477,562	800,000	-0,016	0,035
-476,547	-200,000	-0,013	-0,063
-475,532	800,000	-0,051	0,124
-474,518	105,351	0,044	-0,038
-473,503	-138,356	0,048	-0,004
-472,489	192,137	-0,058	0,064
-471,474	800,000	0,012	0,037
-470,459	-166,209	-0,081	-0,002
-469,445	-127,976	0,044	-0,005
-468,430	-200,000	-0,015	0,122
-467,416	800,000	0,040	0,087
-466,401	-132,416	-0,008	0,001
-465,386	-200,000	-0,007	0,102
-464,372	94,503	0,019	-0,016
-463,357	404,360	0,038	-0,059
-462,343	-10,709	-0,059	0,028
-461,328	-83,764	0,041	-0,010
-460,313	32,701	-0,135	0,085
-459,299	-3,848	0,040	0,020
-458,284	-200,000	0,027	0,142
-457,270	800,000	-0,034	-0,078
-456,255	800,000	-0,049	-0,114
-455,241	-200,000	-0,008	0,114
-454,226	-89,983	-0,081	-0,017
-453,211	611,479	0,029	0,053
-452,197	-36,343	0,101	0,039
-451,182	-97,952	-0,066	0,012
-450,168	46,541	0,128	-0,086
-449,153	66,208	-0,110	-0,081
-448,138	73,603	-0,055	0,042
-447,124	268,993	-0,100	-0,128
-446,109	800,000	-0,026	-0,061
-445,095	745,328	0,023	0,046
-444,080	246,161	0,099	-0,122
-443,065	74,842	0,062	-0,048
-442,051	19,687	-0,096	-0,056
-441,036	-23,581	-0,016	0,007
-440,022	557,955	0,077	-0,136
-439,007	86,496	0,137	0,110
-437,992	-44,086	0,082	-0,030
-436,978	-42,315	0,147	0,054
-435,963	-159,860	-0,178	-0,007
-434,949	-200,000	0,003	-0,066
-433,934	446,895	-0,060	-0,096
-432,919	-113,467	0,064	0,009
-431,905	-200,000	0,022	-0,074
-430,890	-45,836	0,093	0,033
-429,876	114,309	-0,133	-0,118
-428,861	318,779	0,037	0,051
-427,846	133,208	-0,110	0,103
-426,832	193,450	-0,031	-0,034
-425,817	-200,000	-0,000	0,182
-424,803	-50,543	-0,142	0,049
-423,788	-142,463	0,056	-0,004
-422,773	-140,625	-0,075	0,006
-421,759	559,994	-0,051	-0,091
-420,744	27,210	0,066	0,040
-419,730	718,790	0,022	-0,042
-418,715	800,000	-0,048	-0,121
-417,701	-26,328	-0,067	0,029
-416,686	-200,000	0,012	0,131
-415,671	800,000	-0,037	0,113
-414,657	-28,008	0,065	-0,027
-413,642	331,930	-0,021	-0,030
-412,628	800,000	-0,019	-0,051
-411,613	102,624	-0,107	-0,091
-410,598	-5,018	0,048	-0,024
-409,584	83,831	-0,023	-0,019
-408,569	627,299	-0,012	-0,022
-407,555	14,579	0,013	0,007
-406,540	471,862	0,057	0,093
-405,525	800,000	-0,007	0,018
-404,511	129,178	0,054	-0,050
-403,496	129,767	-0,053	-0,049
-402,482	-200,000	-0,006	0,155
-401,467	-37,617	0,094	0,036
-400,452	-23,351	-0,114	0,049
-399,438	-200,000	0,030	0,126
-398,423	-78,474	0,128	0,032
-397,409	390,921	-0,057	-0,086
-396,394	52,888	-0,058	-0,040
-395,379	-200,000	0,006	-0,098
-394,365	800,000	-0,007	-0,020
-393,350	501,756	-0,047	0,079
-392,336	-61,200	0,043	-0,013
-391,321	800,000	0,013	-0,027
-390,306	800,000	-0,036	-0,110
-389,292	-61,831	0,041	-0,012
-388,277	-137,974	-0,038	0,003
-387,263	368,301	0,072	-0,107
-386,248	307,836	0,066	0,089
-385,233	103,169	0,137	0,117
-384,219	207,001	-0,071	0,081
-383,204	-200,000	0,029	0,109
-382,190	-35,603	0,037	-0,015
-381,175	712,126	0,025	-0,048
-380,160	-47,451	-0,137	0,048
-379,146	470,479	0,063	0,103
-378,131	22,209	0,103	0,061
-377,117	-56,521	-0,038	0,012
-376,102	800,000	-0,022	0,058
-375,088	-200,000	0,011	0,058
-374,073	277,897	-0,029	-0,037
-373,058	8,013	0,044	-0,024
-372,044	167,629	0,046	0,047
-371,029	495,100	-0,041	-0,069
-370,015	800,000	0,021	0,053
-369,000	800,000	-0,031	0,066
-367,985	800,000	-0,059	-0,126
-366,971	-200,000	0,001	-0,117
-365,956	-200,000	-0,002	-0,108
-364,942	-52,978	0,022	0,007
-363,927	150,043	0,043	-0,043
-362,912	-83,540	-0,048	0,011
-361,898	-200,000	0,019	0,196
-360,883	800,000	-0,029	-0,068
-359,869	800,000	-0,003	-0,006
-358,854	-200,000	-0,013	0,065
-357,839	-85,267	0,061	-0,014
-356,825	800,000	0,063	0,177
-355,810	-93,903	0,095	0,019
-354,796	-200,000	0,008	0,088
-353,781	100,158	0,055	0,046
-352,766	-48,328	-0,067	-0,023
-351,752	800,000	0,063	-0,153
-350,737	265,787	-0,035	-0,045
-349,723	-200,000	0,001	-0,011
-348,708	-114,016	0,133	-0,019
-347,693	-200,000	-0,005	-0,042
-346,679	800,000	0,022	-0,047
-345,664	147,291	-0,125	-0,122
-344,650	141,996	0,030	0,029
-343,635	-200,000	0,040	-0,151
-342,620	-110,441	0,110	-0,016
-341,606	302,551	0,029	-0,039
-340,591	76,446	-0,051	-0,039
-339,577	58,959	-0,069	-0,049
-338,562	24,972	-0,028	-0,017
-337,548	7,728	-0,026	0,014
-336,533	242,933	0,049	0,060
-335,518	-200,000	0,011	-0,110
-334,504	800,000	-0,041	-0,102
-333,489	91,793	0,135	-0,110
-332,475	776,115	-0,035	0,069
-331,460	-200,000	0,015	-0,193
-330,445	-43,807	0,029	0,011
-329,431	180,840	0,115	0,123
-328,416	343,935	0,021	0,030
-327,402	-30,203	0,039	-0,016
-326,387	-200,000	-0,022	0,091
-325,372	-200,000	-0,020	-0,131
-324,358	800,000	-0,035	0,107
-323,343	800,000	-0,027	-0,081
-322,329	-14,562	0,073	0,034
-321,314	-133,152	0,115	-0,010
-320,299	491,456	-0,023	-0,038
-319,285	-188,782	-0,124	0,001
-318,270	250,329	0,063	0,078
-317,256	1,602	-0,107	-0,056
-316,241	-15,207	0,095	-0,044
-315,226	55,979	0,047	-0,033
-314,212	502,095	0,082	0,138
-313,197	-46,965	0,024	-0,008
-312,183	567,987	0,069	-0,122
-311,168	55,025	-0,032	-0,022
-310,153	-92,644	-0,142	-0,029
-309,139	800,000	-0,070	-0,169
-308,124	800,000	0,024	-0,065
-307,110	388,337	0,055	0,082
-306,095	-200,000	0,006	0,079
-305,080	-95,662	0,117	-0,023
-304,066	800,000	0,039	-0,101
-303,051	-49,765	-0,089	-0,030
-302,037	-200,000	-0,041	-0,168
-301,022	65,985	-0,041	0,030
-300,008	-20,018	-0,018	0,008
-298,993	-200,000	0,030	0,154
-297,978	-200,000	-0,042	0,175
-296,964	247,969	0,059	-0,072
-295,949	-143,071	-0,079	-0,005
-294,935	145,052	0,041	-0,040
-293,920	179,421	0,044	-0,047
-292,905	800,000	0,030	0,084
-291,891	-37,952	0,095	0,036
-290,876	-200,000	0,010	-0,111
-289,862	263,107	0,034	0,043
-288,847	488,554	-0,026	-0,043
-287,832	-200,000	-0,010	-0,063
-286,818	-200,000	-0,003	-0,032
-285,803	206,644	-0,077	-0,086
-284,789	-142,106	0,011	-0,001
-283,774	-150,914	0,129	0,007
-282,759	317,313	-0,034	-0,046
-281,745	-200,000	0,006	0,149
-280,730	-40,507	-0,057	0,021
-279,716	745,148	0,043	0,085
-278,701	-47,542	0,116	0,041
-277,686	-143,702	0,070	-0,005
-276,672	447,602	-0,015	-0,023
-275,657	-200,000	-0,020	-0,095
-274,643	-97,517	-0,105	-0,020
-273,628	800,000	-0,078	-0,219
-272,613	236,867	-0,076	-0,091
-271,599	56,474	-0,015	-0,010
-270,584	47,844	0,138	-0,093
-269,570	-200,000	0,027	0,118
-268,555	218,787	-0,031	-0,036
-267,540	-103,481	0,109	-0,018
-266,526	800,000	-0,025	-0,069
-265,511	-37,008	0,087	-0,033
-264,497	-200,000	-0,021	0,070
-263,482	161,901	0,099	-0,100
-262,467	-200,000	0,013	-0,090
-261,453	800,000	-0,015	0,049
-260,438	253,510	-0,031	0,039
-259,424	-130,614	0,065	0,006
-258,409	154,172	-0,091	0,090
-257,395	62,874	0,089	0,064
-256,380	800,000	-0,049	0,101
-255,365	49,832	0,143	-0,097
-254,351	-152,087	0,115	-0,006
-253,336	99,960	-0,044	0,037
-252,322	-58,229	0,013	-0,004
-251,307	108,688	0,047	-0,040
-250,292	800,000	-0,053	-0,110
-249,278	-65,704	0,029	0,008
-248,263	800,000	-0,023	0,049
-247,249	-200,000	-0,009	0,046
-246,234	70,379	0,037	-0,028
-245,219	482,222	-0,044	-0,073
-244,205	-129,154	-0,071	0,007
-243,190	-200,000	-0,019	0,098
-242,176	-200,000	-0,032	0,196
-241,161	197,532	0,069	0,077
-240,146	605,224	-0,032	0,057
-239,132	5,207	-0,045	-0,024
-238,117	127,916	0,036	-0,033
-237,103	-25,587	-0,033	0,014
-236,088	39,911	-0,033	0,021
-235,073	22,100	0,064	-0,038
-234,059	39,400	0,043	0,028
-233,044	654,954	-0,051	0,095
-232,030	239,392	-0,123	-0,148
-231,015	800,000	-0,032	-0,070
-230,000	264,330	0,035	0,044
-228,986	-82,211	-0,032	0,007
-227,971	800,000	-0,026	-0,073
-226,957	463,880	0,040	0,064
-225,942	-63,443	0,088	0,026
-224,927	-153,120	-0,203	-0,010
-223,913	-82,705	0,024	0,006
-222,898	800,000	0,003	-0,011
-221,884	78,002	-0,086	0,066
-220,869	800,000	-0,024	-0,064
-219,855	-200,000	-0,017	0,142
-218,840	-200,000	-0,056	0,000
-217,825	-200,000	-0,007	0,090
-216,811	-200,000	0,013	-0,091
-215,796	-200,000	-0,013	-0,093
-214,782	800,000	-0,017	-0,042
-213,767	-200,000	0,004	0,022
-212,752	-148,318	0,028	0,002
-211,738	-200,000	-0,003	-0,060
-210,723	-24,835	-0,107	0,046
-209,709	-101,992	-0,030	-0,005
-208,694	-200,000	0,005	-0,157
-207,679	-137,644	-0,062	0,005
-206,665	-65,951	-0,154	0,044
-205,650	108,696	-0,061	-0,052
-204,636	-200,000	-0,006	-0,057
-203,621	-200,000	0,006	-0,138
-202,606	91,062	-0,066	-0,053
-201,592	-38,418	-0,071	-0,027
-200,577	98,359	0,086	-0,072
-199,563	-111,320	0,051	-0,007
-198,548	39,391	0,095	0,061
-197,533	-200,000	0,000	-0,175
-196,519	-200,000	0,028	-0,095
-195,504	-79,168	-0,183	0,044
-194,490	136,953	-0,129	0,121
-193,475	800,000	0,019	-0,050
-192,460	270,263	-0,125	-0,159
-191,446	-200,000	0,001	-0,052
-190,431	714,723	0,016	-0,030
-189,417	59,521	-0,120	0,086
-188,402	-46,973	-0,065	0,023
-187,387	-200,000	-0,019	-0,191
-186,373	800,000	-0,044	-0,119
-185,358	-200,000	-0,009	-0,134
-184,344	134,771	0,077	0,073
-183,329	353,096	0,066	0,095
-182,315	-10,703	-0,121	-0,058
-181,300	-151,189	-0,177	0,009
-180,285	735,142	-0,049	-0,095
-179,271	-200,000	0,006	-0,060
-178,256	-200,000	-0,012	0,080
-177,242	88,487	0,055	0,044
-176,227	-113,827	0,081	-0,011
-175,212	293,914	-0,104	0,138
-174,198	800,000	-0,043	0,128
-173,183	800,000	-0,055	-0,164
-172,169	800,000	-0,041	-0,098
-171,154	-26,992	0,024	0,010
-170,139	-122,432	0,098	0,011
-169,125	-51,161	0,071	0,024
-168,110	-14,397	0,105	0,049
-167,096	63,504	-0,112	0,081
-166,081	553,444	0,048	0,083
-165,066	-200,000	0,026	-0,160
-164,052	800,000	-0,028	0,063
-163,037	-200,000	0,020	-0,173
-162,023	9,784	0,150	-0,082
-161,008	84,632	0,066	0,052
-159,993	735,513	-0,048	-0,093
-158,979	-85,073	0,095	-0,021
-157,964	45,087	-0,052	0,034
-156,950	-18,563	0,070	-0,031
-155,935	2,656	-0,073	0,038
-154,920	-152,934	-0,086	-0,004
-153,906	162,679	-0,054	-0,055
-152,891	-51,545	0,142	-0,048
-151,877	728,256	-0,022	0,043
-150,862	800,000	0,076	0,152
-149,847	-200,000	-0,035	-0,189
-148,833	32,248	-0,089	-0,056
-147,818	96,400	-0,040	-0,033
-146,804	27,312	-0,064	-0,039
-145,789	-200,000	0,020	0,108
-144,775	-17,158	-0,072	-0,033
-143,760	-31,520	0,084	-0,034
-142,745	-200,000	0,022	-0,093
-141,731	43,484	-0,093	-0,061
-140,716	22,704	0,072	-0,042
-139,702	-200,000	0,001	0,057
-138,687	-72,857	-0,068	-0,018
-137,672	-59,470	0,091	0,028
-136,658	800,000	-0,013	-0,036
-135,643	664,874	0,024	-0,044
-134,629	-59,780	-0,076	0,023
-133,614	-200,000	-0,007	-0,036
-132,599	255,624	0,043	0,054
-131,585	25,157	-0,068	0,041
-130,570	-200,000	0,008	0,075
-129,556	800,000	0,027	-0,066
-128,541	800,000	-0,041	-0,093
-127,526	-61,598	0,033	-0,010
-126,512	610,437	-0,044	0,080
-125,497	479,713	-0,039	-0,065
-124,483	-57,233	-0,011	0,003
-123,468	-122,573	-0,105	0,012
-122,453	173,791	-0,114	0,119
-121,439	-178,426	0,068	0,001
-120,424	-123,225	-0,099	-0,011
