DTS Sentinel unit serial number:	SN410029Multiplexer serial number:	ORYXHardware model number:	OX2-SRSoftware version number:	ORYX F/W v4,00 Oryx Data Collector v3.7.2.0data status	okinstallation	B5 Nyhavnadifferential loss correction	single-endedforward channel	channel 2reverse channel	N/Adate	2023/12/12time	14:32:13forward acquisition time	300,00reverse acquisition time	0,00gamma	499,1914k internal	0,3157k external	0,3157temperature offset calibration	1,0000default loss term (dB/km)	0,3820temperature slope calibration	1,0000multiplexer offset coefficient	1,0000multiplexer slope coefficient	1,0000fibre end	0,00T internal ref (°C)	15,87T ext. ref 1 (°C)	-0,32T ext. ref 2 (°C)	-0,56length (m)	temperature (°C)	Stokes	anti-Stokes-744,400	-200,000	0,001	-0,027
-743,385	-169,451	-0,206	0,005
-742,371	-50,243	0,081	0,028
-741,356	-13,640	-0,223	0,106
-740,342	-46,806	0,187	-0,067
-739,327	-51,075	-0,245	-0,084
-738,312	-90,911	0,147	0,031
-737,298	-132,082	-0,356	0,034
-736,283	-200,000	-0,008	0,076
-735,269	-65,663	-0,195	0,057
-734,254	-110,347	0,136	-0,021
-733,239	-2,334	-0,441	-0,227
-732,225	-98,528	0,151	0,028
-731,210	556,575	0,015	-0,027
-730,196	504,054	0,047	-0,080
-729,181	135,493	0,023	-0,022
-728,167	-57,964	-0,215	-0,069
-727,152	-200,000	-0,027	0,180
-726,137	-99,145	-0,081	-0,015
-725,123	-200,000	-0,008	-0,112
-724,108	-200,000	0,002	-0,114
-723,094	-42,089	-0,228	-0,085
-722,079	-20,082	0,025	0,011
-721,064	800,000	-0,039	-0,104
-720,050	215,607	-0,116	-0,135
-719,035	-165,967	0,030	0,001
-718,021	598,516	-0,030	0,054
-717,006	474,338	-0,044	0,073
-715,991	-169,740	-0,172	0,004
-714,977	458,716	-0,034	-0,056
-713,962	542,444	-0,070	-0,123
-712,948	32,816	0,084	0,053
-711,933	800,000	0,047	0,113
-710,918	-130,066	-0,105	-0,010
-709,904	354,685	-0,057	-0,084
-708,889	-200,000	0,024	-0,253
-707,875	800,000	-0,029	-0,061
-706,860	-143,633	-0,057	0,004
-705,845	-81,106	-0,022	-0,005
-704,831	772,321	-0,051	0,103
-703,816	-123,721	-0,121	-0,014
-702,802	204,631	0,014	0,016
-701,787	179,242	-0,117	-0,126
-700,772	-39,936	-0,139	-0,053
-699,758	-200,000	0,004	-0,101
-698,743	800,000	-0,057	-0,145
-697,729	-66,458	-0,074	0,022
-696,714	-200,000	0,018	0,079
-695,699	-131,155	0,097	0,009
-694,685	51,330	0,072	-0,050
-693,670	800,000	-0,042	-0,114
-692,656	-200,000	0,000	0,051
-691,641	-200,000	-0,023	0,103
-690,627	277,512	-0,022	0,028
-689,612	-8,084	-0,017	-0,009
-688,597	-73,981	-0,098	-0,026
-687,583	-12,471	-0,132	-0,063
-686,568	-13,291	-0,113	0,054
-685,554	69,760	-0,145	-0,110
-684,539	800,000	-0,031	-0,072
-683,524	-200,000	-0,038	-0,140
-682,510	-200,000	0,009	-0,048
-681,495	332,371	-0,081	-0,116
-680,481	358,872	0,016	-0,024
-679,466	-33,599	-0,039	0,016
-678,451	134,510	0,128	-0,122
-677,437	492,608	-0,028	0,048
-676,422	-23,274	-0,053	0,023
-675,408	142,072	0,133	-0,130
-674,393	428,537	0,054	0,086
-673,378	72,023	-0,063	0,049
-672,364	-115,926	-0,106	0,014
-671,349	113,528	-0,034	0,030
-670,335	-117,132	0,155	0,020
-669,320	800,000	0,045	-0,105
-668,305	153,922	-0,083	-0,084
-667,291	19,851	0,103	-0,061
-666,276	264,267	0,034	0,044
-665,262	243,589	0,005	0,006
-664,247	-90,973	-0,180	-0,038
-663,232	-200,000	-0,029	0,106
-662,218	-83,850	-0,152	0,035
-661,203	97,214	-0,017	-0,015
-660,189	-200,000	0,003	0,122
-659,174	387,650	0,041	0,062
-658,159	800,000	-0,041	-0,130
-657,145	800,000	-0,036	-0,115
-656,130	-200,000	-0,001	-0,028
-655,116	32,722	-0,185	-0,117
-654,101	-200,000	0,030	0,109
-653,086	109,969	-0,085	-0,075
-652,072	-200,000	-0,019	-0,166
-651,057	-28,049	-0,102	-0,043
-650,043	-153,217	-0,138	-0,007
-649,028	300,186	0,068	-0,093
-648,014	-200,000	0,005	0,039
-646,999	206,035	0,061	0,070
-645,984	-117,731	0,059	0,008
-644,970	166,323	-0,053	0,056
-643,955	146,389	0,064	-0,063
-642,941	-9,971	0,017	-0,008
-641,926	-200,000	-0,022	-0,086
-640,911	197,442	0,047	0,053
-639,897	-25,160	-0,034	0,015
-638,882	751,470	0,051	-0,102
-637,868	-200,000	0,019	-0,101
-636,853	-200,000	0,001	0,101
-635,838	-183,413	0,074	-0,001
-634,824	-51,024	-0,041	-0,014
-633,809	21,734	0,057	0,034
-632,795	0,872	0,064	0,034
-631,780	800,000	0,020	0,042
-630,765	800,000	-0,052	0,130
-629,751	-45,778	-0,116	-0,042
-628,736	-79,354	-0,143	-0,035
-627,722	-79,674	0,050	0,012
-626,707	82,383	-0,218	-0,173
-625,692	-47,295	0,121	0,043
-624,678	-71,818	0,056	-0,015
-623,663	30,794	0,080	-0,050
-622,649	203,365	-0,057	-0,065
-621,634	-2,693	-0,167	-0,085
-620,619	636,245	-0,068	-0,128
-619,605	800,000	0,052	-0,117
-618,590	-45,200	0,099	-0,036
-617,576	157,186	0,057	-0,058
-616,561	-200,000	-0,008	-0,078
-615,546	-69,937	0,060	-0,017
-614,532	800,000	0,030	0,073
-613,517	291,933	-0,034	0,045
-612,503	531,596	-0,045	0,079
-611,488	-200,000	0,001	-0,076
-610,474	-52,986	0,056	-0,019
-609,459	-200,000	-0,025	0,087
-608,444	43,320	0,021	-0,014
-607,430	7,155	-0,079	-0,043
-606,415	774,358	-0,046	0,093
-605,401	119,145	0,046	-0,042
-604,386	783,698	0,024	-0,049
-603,371	-200,000	0,025	-0,107
-602,357	37,397	-0,019	0,012
-601,342	-103,170	0,124	-0,021
-600,328	239,026	0,111	-0,136
-599,313	-120,267	-0,068	0,008
-598,298	-147,444	0,121	0,007
-597,284	-200,000	-0,005	0,038
-596,269	-200,000	0,013	0,126
-595,255	68,276	0,034	-0,025
-594,240	800,000	-0,060	-0,141
-593,225	-200,000	-0,005	-0,060
-592,211	34,342	-0,065	-0,042
-591,196	331,270	-0,019	-0,027
-590,182	285,686	-0,047	0,062
-589,167	323,079	0,058	0,081
-588,152	-66,662	0,207	0,060
-587,138	-200,000	-0,001	0,104
-586,123	297,041	-0,045	-0,061
-585,109	-143,010	0,128	-0,009
-584,094	800,000	-0,022	-0,066
-583,079	-200,000	-0,011	0,039
-582,065	-200,000	0,018	-0,089
-581,050	-200,000	-0,004	0,127
-580,036	800,000	0,015	-0,048
-579,021	-119,488	-0,138	-0,017
-578,006	-33,286	-0,139	-0,056
-576,992	-50,684	-0,021	0,007
-575,977	53,190	-0,042	0,029
-574,963	-200,000	0,008	0,047
-573,948	276,561	0,070	-0,091
-572,934	128,452	0,085	0,080
-571,919	724,643	-0,051	-0,100
-570,904	-200,000	0,017	-0,089
-569,890	800,000	0,045	0,125
-568,875	20,809	-0,108	0,064
-567,861	-119,700	0,096	-0,012
-566,846	234,991	0,059	0,071
-565,831	-39,496	-0,050	0,019
-564,817	33,738	0,099	-0,063
-563,802	-136,907	-0,136	0,011
-562,788	-137,387	0,048	-0,004
-561,773	800,000	0,039	-0,120
-560,758	473,883	0,041	-0,067
-559,744	-200,000	0,011	-0,037
-558,729	8,762	0,087	-0,048
-557,715	54,315	0,068	-0,048
-556,700	106,187	-0,132	0,114
-555,685	-114,758	-0,055	-0,008
-554,671	3,592	-0,069	0,037
-553,656	331,188	0,034	-0,049
-552,642	800,000	0,026	0,064
-551,627	45,362	-0,085	-0,057
-550,612	213,559	-0,046	-0,053
-549,598	-71,308	-0,114	-0,031
-548,583	-200,000	0,001	0,006
-547,569	36,243	-0,135	0,087
-546,554	800,000	-0,056	-0,129
-545,539	-200,000	0,005	-0,094
-544,525	-153,272	-0,057	-0,003
-543,510	5,212	-0,086	0,046
-542,496	23,212	-0,109	-0,065
-541,481	800,000	-0,040	-0,094
-540,466	26,612	-0,095	-0,058
-539,452	28,515	-0,038	0,024
-538,437	-124,332	-0,082	0,009
-537,423	185,873	0,033	-0,036
-536,408	46,948	-0,020	0,014
-535,393	-109,906	-0,091	-0,014
-534,379	139,221	0,086	-0,082
-533,364	-200,000	-0,018	-0,100
-532,350	248,143	0,090	0,111
-531,335	-200,000	0,014	0,098
-530,321	800,000	-0,014	0,030
-529,306	71,473	0,043	0,033
-528,291	116,601	-0,089	-0,080
-527,277	-93,284	-0,150	0,030
-526,262	-200,000	-0,024	-0,169
-525,248	-31,334	0,139	0,057
-524,233	118,315	-0,018	-0,016
-523,218	135,154	0,069	-0,066
-522,204	-80,740	0,055	0,013
-521,189	-200,000	0,047	-0,171
-520,175	-107,389	-0,066	-0,011
-519,160	-115,101	0,148	0,020
-518,145	-200,000	-0,014	0,078
-517,131	-200,000	0,003	0,047
-516,116	-62,797	0,033	0,010
-515,102	321,074	0,141	0,196
-514,087	119,949	-0,079	-0,071
-513,072	20,779	-0,082	-0,048
-512,058	740,046	0,034	-0,067
-511,043	-58,748	-0,056	0,018
-510,029	-93,005	0,058	-0,012
-509,014	17,653	0,039	0,023
-507,999	-66,453	0,042	-0,012
-506,985	-52,197	-0,118	-0,040
-505,970	-200,000	-0,001	-0,161
-504,956	-54,056	-0,043	0,014
-503,941	800,000	-0,028	-0,083
-502,926	-123,591	0,061	-0,007
-501,912	-200,000	-0,007	0,174
-500,897	-200,000	0,004	-0,058
-499,883	796,639	-0,038	-0,077
-498,868	800,000	-0,022	-0,061
-497,853	-200,000	-0,002	-0,103
-496,839	698,513	0,039	-0,076
-495,824	800,000	-0,019	-0,042
-494,810	-200,000	-0,040	0,138
-493,795	-151,239	-0,166	-0,009
-492,781	-26,590	-0,067	0,028
-491,766	-176,754	-0,074	0,001
-490,751	127,220	0,026	0,024
-489,737	323,965	-0,040	0,055
-488,722	-42,416	-0,080	0,030
-487,708	193,390	0,042	-0,047
-486,693	50,379	-0,062	0,043
-485,678	42,504	0,068	-0,045
-484,664	66,836	-0,048	-0,036
-483,649	-200,000	0,007	-0,025
-482,635	-29,003	0,044	0,019
-481,620	179,416	0,159	0,170
-480,605	-200,000	-0,006	0,154
-479,591	-200,000	-0,059	0,197
-478,576	-200,000	-0,003	0,046
-477,562	800,000	-0,056	-0,122
-476,547	296,839	-0,045	-0,060
-475,532	-61,572	-0,144	-0,044
-474,518	160,287	0,102	0,104
-473,503	-137,720	-0,055	-0,004
-472,489	-155,033	-0,079	0,004
-471,474	34,785	-0,004	-0,002
-470,459	656,015	0,015	-0,029
-469,445	-200,000	-0,002	-0,102
-468,430	-200,000	-0,044	-0,260
-467,416	-28,234	-0,056	-0,024
-466,401	-69,230	0,046	-0,013
-465,386	-200,000	0,047	0,196
-464,372	-200,000	0,006	-0,097
-463,357	259,288	-0,083	0,105
-462,343	595,712	-0,031	-0,056
-461,328	-91,349	-0,156	-0,032
-460,313	770,772	0,021	0,041
-459,299	464,332	0,041	0,068
-458,284	-200,000	-0,016	0,270
-457,270	-200,000	-0,017	0,141
-456,255	680,754	0,022	0,042
-455,241	142,633	-0,039	0,038
-454,226	78,925	-0,047	0,037
-453,211	800,000	0,045	-0,112
-452,197	800,000	0,036	0,084
-451,182	360,784	0,024	-0,035
-450,168	-200,000	0,003	0,024
-449,153	166,357	0,100	-0,103
-448,138	-16,292	-0,041	0,019
-447,124	67,654	0,039	0,029
-446,109	800,000	0,007	-0,015
-445,095	624,570	-0,038	-0,070
-444,080	-200,000	0,039	0,135
-443,065	-22,753	-0,089	0,039
-442,051	-64,524	-0,148	-0,043
-441,036	-109,021	-0,058	0,009
-440,022	-103,127	-0,036	-0,006
-439,007	475,988	0,027	0,045
-437,992	-200,000	-0,004	0,116
-436,978	800,000	-0,033	0,097
-435,963	65,208	0,048	0,035
-434,949	-200,000	-0,002	0,079
-433,934	-200,000	-0,012	-0,107
-432,919	73,653	-0,079	-0,060
-431,905	231,463	0,056	-0,067
-430,890	800,000	-0,020	0,046
-429,876	800,000	-0,041	0,127
-428,861	204,409	0,114	0,129
-427,846	232,755	-0,098	-0,117
-426,832	-127,025	0,167	0,018
-425,817	390,669	-0,055	0,083
-424,803	367,269	-0,063	0,093
-423,788	-200,000	0,014	-0,086
-422,773	759,427	-0,032	0,063
-421,759	800,000	-0,017	-0,044
-420,744	800,000	0,028	0,068
-419,730	-105,862	-0,089	0,015
-418,715	-73,991	-0,113	0,030
-417,701	800,000	0,059	0,158
-416,686	-54,411	0,095	-0,031
-415,671	-125,484	0,088	0,010
-414,657	-158,482	0,174	0,007
-413,642	-200,000	0,004	-0,124
-412,628	-19,815	-0,079	-0,035
-411,613	331,997	0,022	-0,031
-410,598	230,214	-0,053	0,063
-409,584	58,011	0,043	-0,031
-408,569	-92,873	0,003	0,001
-407,555	195,695	0,054	0,060
-406,540	-98,072	0,185	0,034
-405,525	-200,000	0,010	0,033
-404,511	127,649	0,038	-0,035
-403,496	439,480	0,030	-0,048
-402,482	244,110	-0,090	-0,110
-401,467	-37,576	0,029	0,011
-400,452	-200,000	-0,036	0,117
-399,438	143,616	0,052	0,051
-398,423	-115,184	0,140	-0,019
-397,409	800,000	0,025	-0,054
-396,394	-200,000	0,007	-0,098
-395,379	-19,907	0,053	-0,024
-394,365	112,890	0,060	0,053
-393,350	52,595	-0,142	-0,098
-392,336	-200,000	-0,023	0,184
-391,321	-104,998	0,032	-0,005
-390,306	556,919	-0,053	0,093
-389,292	-71,046	0,080	0,022
-388,277	-200,000	-0,002	0,038
-387,263	21,397	0,152	0,090
-386,248	8,727	-0,135	0,074
-385,233	-200,000	0,012	0,128
-384,219	-24,539	-0,075	0,032
-383,204	278,770	0,090	0,117
-382,190	91,261	-0,134	-0,109
-381,175	-200,000	0,003	-0,125
-380,160	451,181	-0,035	0,056
-379,146	800,000	0,010	0,023
-378,131	-143,241	0,001	0,000
-377,117	235,898	-0,028	0,034
-376,102	179,114	0,051	-0,054
-375,088	64,631	0,128	0,093
-374,073	183,590	-0,102	-0,110
-373,058	-60,238	0,064	-0,020
-372,044	210,687	0,049	0,056
-371,029	-67,469	0,194	0,055
-370,015	800,000	-0,048	0,110
-369,000	800,000	-0,008	-0,021
-367,985	800,000	0,009	0,026
-366,971	800,000	-0,036	0,094
-365,956	387,130	-0,040	0,060
-364,942	-24,799	0,025	0,011
-363,927	-200,000	0,003	-0,062
-362,912	-200,000	-0,018	0,098
-361,898	119,380	-0,150	-0,135
-360,883	-134,945	0,099	-0,009
-359,869	182,312	0,021	-0,023
-358,854	-200,000	0,000	0,080
-357,839	27,621	0,047	0,029
-356,825	-200,000	0,015	0,060
-355,810	0,834	-0,044	-0,023
-354,796	65,873	0,062	0,046
-353,781	-200,000	-0,010	-0,037
-352,766	-200,000	-0,002	0,058
-351,752	-200,000	0,034	0,120
-350,737	800,000	0,043	0,099
-349,723	-30,308	0,068	0,028
-348,708	36,790	0,068	0,044
-347,693	-143,585	-0,120	0,008
-346,679	-200,000	0,010	-0,131
-345,664	375,740	0,106	-0,157
-344,650	800,000	-0,028	-0,061
-343,635	35,206	0,055	0,035
-342,620	800,000	-0,048	0,113
-341,606	289,836	0,109	0,144
-340,591	-93,027	0,052	0,010
-339,577	411,161	0,035	-0,054
-338,562	-45,377	-0,151	-0,054
-337,548	32,195	-0,184	-0,115
-336,533	169,773	0,024	0,025
-335,518	800,000	0,044	0,117
-334,504	270,420	0,117	-0,150
-333,489	-53,277	-0,198	0,065
-332,475	181,431	0,031	-0,033
-331,460	339,569	-0,084	-0,119
-330,445	43,491	-0,059	-0,039
-329,431	-70,671	0,104	0,028
-328,416	-200,000	0,016	0,077
-327,402	10,314	-0,063	-0,035
-326,387	800,000	0,047	0,127
-325,372	56,959	0,059	-0,042
-324,358	-200,000	0,012	-0,081
-323,343	-69,423	0,038	0,010
-322,329	-140,702	-0,062	0,005
-321,314	192,487	0,133	-0,145
-320,299	175,688	0,121	-0,127
-319,285	165,751	-0,079	-0,081
-318,270	-2,290	-0,070	-0,035
-317,256	258,296	-0,034	-0,043
-316,241	-78,204	-0,184	0,046
-315,226	-127,266	0,104	0,011
-314,212	0,078	-0,025	0,013
-313,197	59,816	0,078	0,055
-312,183	247,329	0,103	-0,126
-311,168	81,949	-0,032	-0,025
-310,153	800,000	-0,037	-0,091
-309,139	209,382	-0,055	0,063
-308,124	-200,000	-0,038	0,137
-307,110	195,867	0,066	0,072
-306,095	7,821	0,058	-0,032
-305,080	-11,862	-0,117	-0,055
-304,066	11,182	0,081	0,045
-303,051	-200,000	-0,008	-0,083
-302,037	461,357	0,054	-0,087
-301,022	-200,000	0,013	-0,126
-300,008	542,269	-0,065	-0,113
-298,993	-110,821	0,145	0,021
-297,978	429,961	-0,067	0,105
-296,964	-18,524	0,089	0,040
-295,949	800,000	-0,022	-0,052
-294,935	800,000	0,010	-0,027
-293,920	557,773	-0,053	-0,094
-292,905	15,488	0,041	0,023
-291,891	-200,000	0,012	0,127
-290,876	337,214	-0,095	0,134
-289,862	-200,000	0,016	-0,057
-288,847	419,424	0,081	0,126
-287,832	77,218	-0,103	-0,079
-286,818	272,705	-0,043	-0,055
-285,803	-200,000	-0,003	-0,168
-284,789	-83,568	-0,127	0,029
-283,774	-94,314	0,049	0,010
-282,759	153,557	0,040	0,040
-281,745	357,505	0,095	-0,137
-280,730	-200,000	-0,035	0,128
-279,716	1,003	-0,083	0,043
-278,701	181,631	0,038	-0,040
-277,686	-76,262	0,235	0,060
-276,672	-200,000	0,005	-0,108
-275,657	-200,000	-0,016	-0,058
-274,643	800,000	-0,011	-0,025
-273,628	191,007	-0,052	-0,057
-272,613	-100,396	-0,122	0,022
-271,599	39,620	0,107	-0,069
-270,584	-74,237	0,051	0,013
-269,570	-108,741	-0,090	-0,014
-268,555	-52,629	0,094	-0,031
-267,540	800,000	0,025	0,053
-266,526	-53,026	-0,033	-0,011
-265,511	79,869	0,085	-0,066
-264,497	-28,233	0,070	-0,029
-263,482	-200,000	0,017	0,132
-262,467	-134,596	0,142	-0,012
-261,453	255,370	-0,052	0,065
-260,438	-200,000	0,024	-0,085
-259,424	-200,000	-0,019	0,152
-258,409	-137,293	-0,046	-0,004
-257,395	621,838	-0,061	0,111
-256,380	-104,133	0,083	-0,014
-255,365	800,000	-0,025	0,076
-254,351	-1,404	0,121	-0,061
-253,336	358,843	-0,027	-0,039
-252,322	660,557	0,035	-0,066
-251,307	766,446	-0,010	-0,020
-250,292	800,000	0,015	0,035
-249,278	138,555	0,152	-0,145
-248,263	800,000	0,014	0,040
-247,249	118,495	-0,074	-0,066
-246,234	166,888	-0,039	0,040
-245,219	-68,058	-0,082	0,023
-244,205	-11,780	-0,037	-0,018
-243,190	800,000	0,029	-0,069
-242,176	-146,259	0,054	0,003
-241,161	-60,648	0,163	-0,050
-240,146	143,306	-0,015	0,015
-239,132	614,413	-0,080	0,145
-238,117	-81,211	-0,041	0,010
-237,103	160,783	0,046	0,046
-236,088	-200,000	0,004	-0,050
-235,073	248,390	0,018	0,023
-234,059	-109,550	0,075	-0,011
-233,044	-200,000	0,029	0,174
-232,030	167,599	-0,045	0,046
-231,015	-5,373	-0,081	-0,040
-230,000	-110,261	-0,088	-0,013
-228,986	-73,926	0,033	-0,009
-227,971	-156,885	0,152	0,007
-226,957	-92,419	0,076	-0,015
-225,942	800,000	0,036	-0,107
-224,927	-84,109	0,087	-0,020
-223,913	-124,327	-0,127	0,014
-222,898	-124,224	-0,110	0,012
-221,884	-200,000	0,000	0,108
-220,869	-18,871	-0,031	-0,014
-219,855	250,589	0,057	-0,069
-218,840	-200,000	0,004	0,016
-217,825	360,556	-0,051	0,074
-216,811	466,497	0,024	0,039
-215,796	800,000	-0,074	-0,185
-214,782	73,989	-0,058	-0,044
-213,767	-177,048	-0,174	0,003
-212,752	-200,000	0,005	0,026
-211,738	108,767	0,056	-0,048
-210,723	-200,000	0,015	0,071
-209,709	-200,000	-0,022	-0,111
-208,694	800,000	-0,041	-0,128
-207,679	108,513	-0,056	0,048
-206,665	-200,000	-0,010	0,074
-205,650	275,007	0,036	0,047
-204,636	-133,746	-0,015	-0,001
-203,621	63,888	0,072	-0,052
-202,606	-200,000	0,007	0,075
-201,592	24,645	-0,081	0,048
-200,577	53,330	0,038	-0,026
-199,563	26,455	0,100	0,060
-198,548	-200,000	-0,014	-0,048
-197,533	-200,000	-0,015	0,204
-196,519	-200,000	-0,006	-0,035
-195,504	-48,790	0,153	-0,053
-194,490	746,059	-0,014	-0,028
-193,475	-200,000	0,002	0,094
-192,460	371,534	0,039	0,057
-191,446	128,336	0,070	0,065
-190,431	-107,754	0,023	-0,004
-189,417	512,811	0,059	0,099
-188,402	800,000	-0,076	-0,190
-187,387	231,207	0,045	-0,053
-186,373	241,742	-0,016	0,019
-185,358	-188,861	0,108	-0,001
-184,344	437,114	-0,025	0,039
-183,329	-200,000	-0,001	0,073
-182,315	30,336	0,093	0,057
-181,300	-200,000	-0,029	-0,096
-180,285	267,639	0,053	-0,068
-179,271	-104,594	-0,103	-0,017
-178,256	-200,000	-0,011	0,042
-177,242	800,000	-0,027	0,078
-176,227	183,680	-0,028	-0,030
-175,212	7,836	0,080	-0,043
-174,198	-200,000	-0,062	0,225
-173,183	-200,000	0,014	0,061
-172,169	91,103	-0,119	-0,096
-171,154	-120,604	-0,050	-0,006
-170,139	-185,924	-0,171	0,002
-169,125	-125,649	-0,073	-0,008
-168,110	-200,000	-0,008	-0,033
-167,096	-184,422	-0,071	0,001
-166,081	-200,000	0,000	0,008
-165,066	-200,000	-0,017	-0,088
-164,052	-48,484	-0,085	-0,029
-163,037	-200,000	-0,003	0,101
-162,023	800,000	0,008	0,024
-161,008	-77,917	0,162	-0,040
-159,993	-77,134	-0,077	0,019
-158,979	-200,000	0,003	-0,080
-157,964	-200,000	-0,004	0,049
-156,950	195,447	-0,047	0,051
-155,935	386,962	-0,049	0,074
-154,920	50,407	0,130	-0,089
-153,906	-85,759	0,105	-0,023
-152,891	2,096	-0,121	0,063
-151,877	45,552	0,073	0,049
-150,862	38,124	-0,053	0,034
-149,847	226,679	-0,041	-0,048
-148,833	-34,574	0,078	-0,031
-147,818	468,302	0,034	0,056
-146,804	-126,775	-0,056	-0,006
-145,789	800,000	-0,010	-0,020
-144,775	286,282	0,014	-0,018
-143,760	-200,000	0,004	-0,052
-142,745	-200,000	0,013	-0,059
-141,731	-112,234	-0,106	-0,015
-140,716	-200,000	0,018	-0,070
-139,702	-63,265	0,065	0,019
-138,687	-27,327	0,077	0,032
-137,672	-130,667	-0,075	0,007
-136,658	-56,670	-0,082	0,026
-135,643	66,961	0,110	-0,080
-134,629	201,503	-0,061	-0,068
-133,614	-19,927	0,036	0,016
-132,599	800,000	0,046	-0,093
-131,585	-200,000	0,017	-0,062
-130,570	-83,529	0,046	0,010
-129,556	-111,848	0,021	-0,003
-128,541	-200,000	-0,007	0,024
-127,526	-200,000	-0,009	0,034
-126,512	-200,000	-0,002	0,177
-125,497	432,817	-0,073	0,114
-124,483	393,023	-0,090	0,135
-123,468	170,131	0,090	0,092
-122,453	-138,924	0,015	-0,001
-121,439	-200,000	-0,018	0,112
-120,424	-12,931	0,025	-0,012
