DTS Sentinel unit serial number:	SN410029Multiplexer serial number:	ORYXHardware model number:	OX2-SRSoftware version number:	ORYX F/W v4,00 Oryx Data Collector v3.7.2.0data status	okinstallation	B5 Nyhavnadifferential loss correction	single-endedforward channel	channel 2reverse channel	N/Adate	2023/12/14time	14:57:13forward acquisition time	300,00reverse acquisition time	0,00gamma	499,1914k internal	0,3156k external	0,3156temperature offset calibration	1,0000default loss term (dB/km)	0,3820temperature slope calibration	1,0000multiplexer offset coefficient	1,0000multiplexer slope coefficient	1,0000fibre end	0,00T internal ref (°C)	7,94T ext. ref 1 (°C)	-8,16T ext. ref 2 (°C)	-8,21length (m)	temperature (°C)	Stokes	anti-Stokes-744,400	-200,000	0,051	0,177
-743,385	-58,997	-0,519	-0,164
-742,371	-59,044	0,074	-0,023
-741,356	-43,828	-0,350	-0,129
-740,342	-126,867	0,089	-0,010
-739,327	-53,331	-0,519	-0,174
-738,312	548,540	0,069	0,122
-737,298	-91,333	-0,442	-0,092
-736,283	24,951	0,177	0,108
-735,269	-34,884	-0,306	-0,123
-734,254	-51,688	-0,029	0,010
-733,239	-37,310	-0,641	-0,251
-732,225	70,115	0,227	0,173
-731,210	19,587	0,115	0,068
-730,196	-147,713	-0,027	-0,002
-729,181	187,680	0,042	-0,047
-728,167	449,973	0,037	0,060
-727,152	678,875	-0,032	-0,061
-726,137	-11,938	-0,081	0,039
-725,123	-200,000	-0,067	0,226
-724,108	-130,531	-0,144	-0,014
-723,094	351,141	-0,032	-0,046
-722,079	-133,871	-0,076	0,007
-721,064	-62,698	-0,179	-0,054
-720,050	132,318	0,020	-0,019
-719,035	-34,979	-0,071	0,029
-718,021	5,079	-0,065	0,035
-717,006	-46,612	-0,141	-0,051
-715,991	130,794	-0,053	-0,050
-714,977	29,623	-0,083	-0,052
-713,962	602,218	0,068	0,125
-712,948	83,110	-0,076	0,061
-711,933	417,447	-0,035	-0,056
-710,918	-109,593	-0,168	0,026
-709,904	162,535	-0,030	0,031
-708,889	410,169	-0,038	-0,060
-707,875	2,375	-0,042	-0,022
-706,860	-106,247	-0,046	-0,007
-705,845	-40,012	-0,073	-0,028
-704,831	-74,300	0,038	-0,010
-703,816	-163,606	-0,110	0,004
-702,802	-13,022	-0,010	0,005
-701,787	74,160	-0,080	0,061
-700,772	70,374	0,132	-0,101
-699,758	67,142	-0,086	-0,065
-698,743	177,010	-0,100	-0,107
-697,729	-96,103	0,102	0,020
-696,714	-114,478	0,087	0,012
-695,699	41,704	-0,122	-0,082
-694,685	-22,234	-0,137	-0,061
-693,670	-58,406	-0,120	-0,038
-692,656	-157,210	-0,048	-0,002
-691,641	800,000	0,053	0,126
-690,627	-105,959	0,016	-0,003
-689,612	-72,489	-0,073	0,020
-688,597	108,382	-0,068	-0,059
-687,583	37,269	0,101	-0,065
-686,568	248,442	0,059	-0,073
-685,554	512,574	0,072	-0,124
-684,539	20,659	0,081	0,048
-683,524	-200,000	-0,016	0,060
-682,510	800,000	0,032	-0,088
-681,495	-139,855	0,114	-0,009
-680,481	40,291	-0,050	0,033
-679,466	66,538	-0,046	-0,034
-678,451	-200,000	-0,020	-0,096
-677,437	-117,726	0,060	0,008
-676,422	-100,098	0,144	0,026
-675,408	-128,760	-0,135	-0,014
-674,393	300,598	-0,062	0,084
-673,378	22,149	-0,154	0,093
-672,364	-182,921	0,115	0,001
-671,349	-157,794	-0,144	-0,006
-670,335	352,510	0,015	-0,022
-669,320	14,645	0,125	0,072
-668,305	-49,756	0,049	0,017
-667,291	800,000	-0,023	0,051
-666,276	200,780	0,024	0,027
-665,262	21,620	-0,060	-0,036
-664,247	-1,732	-0,044	-0,023
-663,232	800,000	0,055	-0,127
-662,218	-200,000	-0,011	-0,086
-661,203	-103,179	0,025	0,004
-660,189	206,460	-0,009	-0,011
-659,174	-99,179	-0,049	-0,009
-658,159	227,566	-0,041	-0,050
-657,145	-200,000	0,025	0,087
-656,130	-200,000	0,032	0,109
-655,116	-200,000	-0,031	0,208
-654,101	-200,000	0,007	0,028
-653,086	147,408	0,088	0,087
-652,072	800,000	-0,031	-0,086
-651,057	76,476	0,020	-0,016
-650,043	-64,055	-0,035	0,011
-649,028	63,658	-0,042	0,031
-648,014	-200,000	-0,002	0,022
-646,999	250,494	0,034	-0,042
-645,984	71,566	0,118	-0,090
-644,970	12,785	-0,053	-0,030
-643,955	-82,449	-0,071	-0,017
-642,941	-53,285	-0,100	-0,034
-641,926	-200,000	0,018	-0,079
-640,911	11,739	0,102	0,057
-639,897	93,470	-0,145	0,121
-638,882	-92,586	-0,126	0,026
-637,868	144,065	-0,043	0,042
-636,853	555,530	-0,024	0,043
-635,838	486,097	-0,056	0,094
-634,824	800,000	0,030	-0,081
-633,809	3,298	0,074	-0,040
-632,795	192,772	0,132	-0,147
-631,780	-188,615	-0,044	0,000
-630,765	-10,231	0,046	0,022
-629,751	2,420	-0,122	-0,064
-628,736	-148,277	-0,115	-0,007
-627,722	236,957	0,037	-0,045
-626,707	-58,999	0,029	-0,009
-625,692	-200,000	0,015	0,173
-624,678	-124,596	0,014	0,002
-623,663	-85,319	0,057	0,013
-622,649	-32,132	-0,068	0,028
-621,634	-200,000	0,029	-0,161
-620,619	-200,000	-0,001	0,088
-619,605	-23,919	-0,109	-0,048
-618,590	28,211	-0,082	-0,051
-617,576	50,227	0,071	-0,049
-616,561	100,361	0,071	0,061
-615,546	-200,000	-0,004	0,025
-614,532	-129,293	-0,008	-0,001
-613,517	97,611	-0,093	0,079
-612,503	-200,000	-0,012	0,074
-611,488	101,850	-0,044	-0,038
-610,474	33,834	-0,054	0,035
-609,459	-200,000	-0,013	0,046
-608,444	-200,000	0,017	0,115
-607,430	-200,000	0,002	-0,056
-606,415	-2,645	0,027	0,014
-605,401	213,545	-0,054	0,063
-604,386	96,076	0,085	0,071
-603,371	-148,192	-0,074	0,004
-602,357	-200,000	-0,008	0,130
-601,342	80,341	-0,046	-0,036
-600,328	-200,000	-0,046	-0,205
-599,313	367,279	-0,063	0,094
-598,298	-98,957	0,103	-0,019
-597,284	77,378	0,044	-0,034
-596,269	-200,000	-0,028	0,111
-595,255	-200,000	0,018	-0,068
-594,240	-77,818	-0,075	-0,019
-593,225	472,496	-0,042	-0,069
-592,211	60,014	-0,119	-0,086
-591,196	-200,000	0,037	0,137
-590,182	-200,000	-0,017	0,105
-589,167	577,868	0,101	0,181
-588,152	-200,000	0,009	0,095
-587,138	-200,000	-0,025	-0,090
-586,123	-200,000	-0,014	-0,158
-585,109	800,000	0,014	0,035
-584,094	157,906	-0,065	-0,066
-583,079	199,153	0,108	0,121
-582,065	-194,693	-0,149	0,001
-581,050	-200,000	0,011	-0,051
-580,036	-200,000	0,002	-0,076
-579,021	-3,980	-0,077	-0,039
-578,006	52,005	-0,054	-0,037
-576,992	800,000	0,024	-0,055
-575,977	-200,000	0,002	-0,058
-574,963	-79,168	0,074	0,018
-573,948	219,856	0,030	0,035
-572,934	361,386	0,092	0,136
-571,919	7,887	0,066	-0,036
-570,904	682,815	0,017	-0,032
-569,890	800,000	-0,046	-0,100
-568,875	-200,000	0,005	-0,122
-567,861	-155,662	0,092	-0,004
-566,846	148,686	-0,078	0,077
-565,831	733,799	0,029	-0,057
-564,817	-50,215	0,108	-0,037
-563,802	178,146	-0,056	0,060
-562,788	-62,126	0,069	-0,021
-561,773	42,571	-0,090	0,060
-560,758	9,326	0,141	0,078
-559,744	467,193	0,012	0,020
-558,729	46,258	0,053	0,036
-557,715	-153,329	-0,068	0,003
-556,700	-66,919	-0,148	0,043
-555,685	129,456	0,032	0,030
-554,671	-17,882	-0,064	0,029
-553,656	-172,406	0,139	-0,003
-552,642	103,381	0,077	0,066
-551,627	-85,112	0,152	0,035
-550,612	75,718	-0,076	-0,058
-549,598	800,000	0,052	0,137
-548,583	-200,000	-0,034	-0,149
-547,569	-27,727	-0,230	0,097
-546,554	45,195	-0,047	-0,031
-545,539	-102,625	0,031	-0,005
-544,525	174,506	-0,100	0,106
-543,510	-200,000	-0,007	0,030
-542,496	-149,885	-0,047	0,003
-541,481	-151,800	0,085	0,005
-540,466	-94,286	0,070	-0,014
-539,452	-42,044	0,060	-0,022
-538,437	45,030	0,007	-0,005
-537,423	-200,000	-0,008	0,140
-536,408	-25,217	0,028	0,012
-535,393	-200,000	-0,009	-0,078
-534,379	253,090	0,065	-0,081
-533,364	631,557	0,127	-0,237
-532,350	-100,253	-0,071	0,013
-531,335	-171,462	0,126	0,003
-530,321	-200,000	0,024	0,097
-529,306	25,965	0,046	-0,028
-528,291	553,983	0,087	-0,153
-527,277	-113,464	-0,167	-0,024
-526,262	39,071	0,072	-0,047
-525,248	3,877	-0,111	-0,059
-524,233	38,488	-0,021	0,013
-523,218	232,446	-0,073	0,088
-522,204	48,432	0,049	0,033
-521,189	-89,358	-0,088	0,019
-520,175	-200,000	-0,010	-0,077
-519,160	377,775	-0,101	-0,151
-518,145	-138,073	0,110	0,009
-517,131	-200,000	0,031	0,132
-516,116	800,000	0,039	0,122
-515,102	299,087	-0,024	-0,033
-514,087	170,673	0,045	-0,047
-513,072	146,815	-0,071	-0,069
-512,058	-200,000	0,035	-0,130
-511,043	-40,002	0,078	0,030
-510,029	186,535	0,065	0,071
-509,014	234,978	-0,087	-0,105
-507,999	732,660	0,028	0,055
-506,985	-77,027	0,053	0,013
-505,970	306,694	-0,041	-0,056
-504,956	-133,630	-0,056	0,005
-503,941	800,000	-0,075	-0,166
-502,926	-110,808	0,098	0,015
-501,912	-110,586	-0,164	0,024
-500,897	800,000	0,021	-0,055
-499,883	68,381	-0,104	0,077
-498,868	800,000	0,036	-0,108
-497,853	-200,000	0,011	-0,115
-496,839	731,652	-0,098	0,191
-495,824	-9,734	-0,031	-0,015
-494,810	-41,907	0,061	-0,023
-493,795	-122,907	0,097	-0,011
-492,781	-61,359	-0,092	-0,028
-491,766	175,701	-0,005	-0,005
-490,751	158,960	-0,037	0,038
-489,737	800,000	0,047	-0,146
-488,722	-200,000	0,000	-0,144
-487,708	-200,000	0,024	0,161
-486,693	480,841	-0,051	0,085
-485,678	-200,000	0,016	-0,077
-484,664	129,337	0,191	-0,179
-483,649	233,540	0,098	-0,117
-482,635	449,425	-0,059	-0,095
-481,620	800,000	0,020	-0,046
-480,605	-200,000	0,004	0,174
-479,591	246,138	0,041	-0,051
-478,576	64,348	0,109	0,080
-477,562	437,061	-0,070	-0,112
-476,547	-200,000	0,006	-0,108
-475,532	68,354	0,092	-0,069
-474,518	800,000	-0,024	-0,068
-473,503	6,088	0,108	0,058
-472,489	-200,000	0,016	0,054
-471,474	-120,908	-0,143	0,017
-470,459	109,340	0,150	-0,131
-469,445	800,000	-0,084	-0,187
-468,430	-19,116	-0,043	-0,019
-467,416	132,878	0,089	0,084
-466,401	149,917	0,107	0,106
-465,386	-200,000	0,026	0,137
-464,372	800,000	-0,026	0,076
-463,357	61,453	-0,052	0,038
-462,343	-200,000	-0,018	-0,144
-461,328	-11,958	-0,189	-0,090
-460,313	4,992	0,081	-0,043
-459,299	-200,000	0,003	0,087
-458,284	-200,000	0,005	0,063
-457,270	-200,000	0,046	-0,174
-456,255	406,136	0,016	0,025
-455,241	-71,378	-0,085	0,023
-454,226	-19,840	-0,093	-0,042
-453,211	-200,000	0,006	0,021
-452,197	553,863	-0,056	-0,099
-451,182	323,944	-0,066	-0,092
-450,168	-200,000	0,000	-0,091
-449,153	49,354	-0,115	-0,079
-448,138	-200,000	0,010	0,115
-447,124	800,000	-0,057	0,181
-446,109	-200,000	-0,030	-0,175
-445,095	104,060	-0,131	-0,112
-444,080	19,956	-0,122	0,072
-443,065	-178,400	0,108	0,002
-442,051	-31,700	0,140	0,057
-441,036	26,522	-0,078	-0,047
-440,022	105,351	0,026	-0,022
-439,007	-200,000	0,021	0,102
-437,992	102,034	-0,033	-0,028
-436,978	-200,000	-0,013	0,064
-435,963	-47,482	-0,117	-0,041
-434,949	-34,236	0,096	-0,038
-433,934	274,818	-0,069	-0,090
-432,919	117,925	0,073	0,065
-431,905	-107,047	-0,146	-0,023
-430,890	-32,814	0,126	-0,051
-429,876	326,789	0,031	0,043
-428,861	8,532	0,104	0,057
-427,846	-14,338	-0,069	0,032
-426,832	309,492	0,076	-0,104
-425,817	-200,000	-0,014	-0,056
-424,803	800,000	0,025	-0,054
-423,788	-74,016	-0,083	0,022
-422,773	-38,653	0,197	0,076
-421,759	40,025	-0,092	0,060
-420,744	-200,000	0,008	0,083
-419,730	509,614	-0,040	-0,068
-418,715	95,260	-0,021	-0,017
-417,701	406,736	-0,056	0,086
-416,686	-90,882	0,127	-0,026
-415,671	444,181	0,084	0,135
-414,657	71,971	0,088	-0,066
-413,642	-120,712	0,081	-0,010
-412,628	-200,000	0,013	-0,061
-411,613	52,312	-0,056	0,039
-410,598	-200,000	0,007	0,073
-409,584	-74,031	0,059	0,015
-408,569	-140,999	-0,100	-0,007
-407,555	747,945	-0,067	0,132
-406,540	-200,000	0,006	-0,060
-405,525	-84,839	0,127	0,029
-404,511	-41,364	-0,057	0,021
-403,496	-31,847	0,130	0,053
-402,482	800,000	-0,075	0,159
-401,467	-200,000	-0,004	0,020
-400,452	800,000	-0,034	-0,083
-399,438	-70,662	0,082	0,022
-398,423	-28,825	0,079	-0,033
-397,409	-62,784	-0,020	-0,006
-396,394	-200,000	0,007	-0,064
-395,379	800,000	0,024	0,069
-394,365	-10,037	-0,066	0,032
-393,350	-137,498	0,149	0,012
-392,336	203,067	0,028	0,031
-391,321	-31,040	0,083	-0,034
-390,306	800,000	-0,043	-0,133
-389,292	245,872	-0,021	-0,026
-388,277	-200,000	-0,005	0,096
-387,263	-200,000	-0,014	0,065
-386,248	56,729	-0,112	-0,079
-385,233	800,000	-0,007	-0,017
-384,219	-200,000	-0,012	-0,061
-383,204	290,195	0,011	-0,014
-382,190	119,405	0,081	-0,073
-381,175	-200,000	0,005	-0,118
-380,160	800,000	-0,011	0,026
-379,146	69,015	0,084	0,063
-378,131	78,169	0,035	0,027
-377,117	-147,684	0,083	-0,005
-376,102	-153,311	-0,040	-0,002
-375,088	178,379	-0,152	-0,161
-374,073	-200,000	0,006	-0,067
-373,058	-104,096	0,076	0,013
-372,044	-200,000	0,020	0,138
-371,029	30,115	-0,085	0,052
-370,015	245,416	-0,054	-0,067
-369,000	-200,000	-0,024	-0,157
-367,985	-56,855	-0,088	-0,028
-366,971	-200,000	0,047	-0,192
-365,956	-200,000	-0,002	-0,047
-364,942	23,897	0,127	0,076
-363,927	-139,314	-0,089	0,007
-362,912	-84,769	-0,136	0,031
-361,898	266,420	-0,048	0,061
-360,883	95,607	-0,041	-0,034
-359,869	40,344	0,028	0,018
-358,854	-200,000	-0,005	-0,126
-357,839	243,333	-0,041	-0,050
-356,825	-75,717	0,115	0,029
-355,810	800,000	-0,115	0,266
-354,796	-79,997	-0,027	-0,007
-353,781	4,910	-0,031	0,016
-352,766	680,640	0,038	0,071
-351,752	-44,790	0,119	0,043
-350,737	-200,000	0,014	0,094
-349,723	-157,906	-0,029	-0,001
-348,708	106,744	-0,044	0,038
-347,693	-177,678	-0,053	-0,001
-346,679	-80,797	0,186	0,045
-345,664	800,000	-0,028	-0,077
-344,650	-114,313	0,178	-0,025
-343,635	-120,482	0,115	-0,014
-342,620	-200,000	-0,004	0,116
-341,606	118,038	-0,050	-0,045
-340,591	180,306	0,033	0,035
-339,577	279,962	0,069	-0,089
-338,562	-200,000	-0,027	-0,115
-337,548	263,679	0,019	0,024
-336,533	-200,000	-0,005	0,021
-335,518	-153,644	-0,100	-0,005
-334,504	259,311	-0,056	0,070
-333,489	-54,261	0,065	-0,021
-332,475	800,000	-0,040	-0,082
-331,460	-68,509	-0,041	0,012
-330,445	-68,837	0,173	0,048
-329,431	404,597	-0,039	0,060
-328,416	-30,379	0,157	0,064
-327,402	695,754	0,052	0,099
-326,387	195,145	0,069	0,076
-325,372	-100,043	-0,267	-0,048
-324,358	-159,769	-0,056	-0,002
-323,343	-200,000	0,005	0,020
-322,329	-200,000	0,005	0,085
-321,314	-26,995	-0,099	0,042
-320,299	-200,000	0,019	-0,120
-319,285	-200,000	-0,016	0,060
-318,270	-3,852	-0,065	0,033
-317,256	177,844	-0,093	-0,099
-316,241	-56,532	0,139	-0,044
-315,226	41,739	0,023	-0,015
-314,212	-99,185	0,096	0,017
-313,197	440,179	0,039	0,063
-312,183	465,118	-0,034	0,056
-311,168	-76,864	-0,077	-0,019
-310,153	-200,000	-0,002	-0,046
-309,139	47,668	-0,049	-0,033
-308,124	-52,622	-0,092	0,031
-307,110	279,366	0,119	0,154
-306,095	360,754	0,083	0,121
-305,080	119,266	-0,050	-0,044
-304,066	-74,751	-0,145	-0,037
-303,051	-200,000	0,009	-0,031
-302,037	31,535	0,053	-0,033
-301,022	493,761	-0,112	-0,187
-300,008	800,000	-0,050	0,139
-298,993	12,519	0,063	0,035
-297,978	140,652	-0,100	-0,096
-296,964	-132,702	-0,023	-0,002
-295,949	151,543	-0,044	-0,044
-294,935	234,548	-0,030	0,036
-293,920	-29,405	-0,032	0,013
-292,905	-179,063	-0,070	-0,001
-291,891	69,035	0,112	0,083
-290,876	494,271	-0,015	0,025
-289,862	-44,009	-0,117	0,042
-288,847	800,000	-0,050	-0,106
-287,832	800,000	-0,038	0,090
-286,818	-200,000	-0,007	-0,082
-285,803	-66,145	0,155	0,045
-284,789	10,617	0,161	0,089
-283,774	-200,000	0,011	0,043
-282,759	-200,000	-0,007	0,136
-281,745	44,079	-0,044	0,029
-280,730	159,032	0,085	-0,085
-279,716	-172,297	-0,075	0,002
-278,701	-200,000	-0,012	0,070
-277,686	150,063	0,079	-0,078
-276,672	395,456	0,038	0,058
-275,657	-99,334	0,058	-0,011
-274,643	-200,000	-0,014	-0,077
-273,628	-116,556	-0,020	0,003
-272,613	-90,025	-0,079	-0,017
-271,599	-118,452	0,160	0,020
-270,584	156,353	0,091	-0,091
-269,570	-144,931	0,109	0,007
-268,555	171,745	-0,008	0,008
-267,540	24,314	-0,180	-0,108
-266,526	-141,792	-0,200	-0,014
-265,511	-164,430	-0,041	-0,001
-264,497	-14,081	0,174	-0,081
-263,482	-200,000	-0,030	0,169
-262,467	-77,244	0,037	-0,009
-261,453	-121,836	0,010	-0,001
-260,438	-200,000	0,007	-0,237
-259,424	89,550	-0,164	-0,133
-258,409	579,672	-0,052	-0,092
-257,395	-78,487	-0,175	0,043
-256,380	50,010	0,206	0,140
-255,365	96,448	0,102	-0,084
-254,351	131,987	-0,076	-0,071
-253,336	-18,875	0,008	0,003
-252,322	-101,713	-0,042	-0,007
-251,307	-200,000	0,001	0,047
-250,292	662,387	0,033	-0,062
-249,278	-200,000	0,001	-0,047
-248,263	-200,000	0,003	-0,136
-247,249	-43,735	-0,100	0,036
-246,234	-43,982	0,118	0,043
-245,219	-122,741	-0,095	-0,011
-244,205	518,776	-0,057	-0,097
-243,190	800,000	-0,016	-0,046
-242,176	306,535	0,046	0,063
-241,161	-43,176	0,088	-0,032
-240,146	-158,361	0,135	0,006
-239,132	94,547	-0,025	-0,021
-238,117	493,545	0,066	-0,109
-237,103	491,427	0,005	-0,007
-236,088	180,964	0,157	0,167
-235,073	-12,877	-0,010	-0,005
-234,059	51,452	0,071	0,049
-233,044	-2,390	-0,045	-0,023
-232,030	14,762	-0,178	0,100
-231,015	-38,284	0,019	0,007
-230,000	-141,202	0,029	0,002
-228,986	115,586	-0,128	0,113
-227,971	-200,000	0,006	-0,131
-226,957	645,330	0,024	0,045
-225,942	-200,000	0,006	0,159
-224,927	37,962	-0,014	-0,009
-223,913	51,883	-0,072	0,050
-222,898	-94,679	0,085	0,016
-221,884	-200,000	0,037	-0,165
-220,869	-200,000	0,003	-0,016
-219,855	-200,000	-0,026	0,106
-218,840	-200,000	0,006	0,099
-217,825	800,000	-0,037	0,084
-216,811	261,549	-0,054	0,068
-215,796	-200,000	0,008	0,061
-214,782	92,638	-0,035	0,029
-213,767	-200,000	0,012	0,145
-212,752	800,000	-0,034	0,079
-211,738	112,907	-0,058	0,051
-210,723	-200,000	0,042	-0,000
-209,709	776,349	0,038	0,075
-208,694	800,000	0,044	-0,119
-207,679	-87,365	0,034	-0,007
-206,665	525,714	-0,006	-0,010
-205,650	-33,591	0,053	0,021
-204,636	198,074	0,035	0,039
-203,621	-108,107	0,103	-0,016
-202,606	-200,000	0,026	0,094
-201,592	-105,594	-0,050	0,008
-200,577	-38,461	-0,050	-0,019
-199,563	-200,000	0,007	-0,050
-198,548	-200,000	-0,028	-0,101
-197,533	690,200	0,047	0,089
-196,519	-200,000	0,022	0,082
-195,504	-200,000	-0,001	0,131
-194,490	-126,254	-0,176	-0,019
-193,475	-132,477	-0,248	-0,023
-192,460	-20,873	-0,062	0,027
-191,446	-200,000	0,013	0,066
-190,431	95,580	0,032	0,026
-189,417	-6,958	0,029	0,014
-188,402	-200,000	0,003	-0,186
-187,387	-175,616	0,100	0,002
-186,373	31,449	-0,060	0,037
-185,358	-200,000	-0,013	0,054
-184,344	-200,000	0,005	0,044
-183,329	-49,813	0,098	0,034
-182,315	-65,745	0,113	-0,032
-181,300	-10,272	0,045	0,021
-180,285	-11,748	-0,032	-0,015
-179,271	796,540	-0,032	-0,064
-178,256	-123,285	0,086	-0,010
-177,242	-88,001	0,059	0,013
-176,227	23,578	0,202	-0,120
-175,212	-74,732	0,074	0,019
-174,198	-152,538	-0,048	0,002
-173,183	-200,000	0,007	-0,095
-172,169	-200,000	0,002	-0,299
-171,154	-140,862	-0,092	-0,007
-170,139	-89,411	0,128	-0,027
-169,125	82,314	0,148	0,116
-168,110	-200,000	0,016	0,207
-167,096	-200,000	0,022	0,071
-166,081	35,283	-0,063	0,040
-165,066	-153,602	-0,174	0,008
-164,052	96,725	-0,128	-0,105
-163,037	74,216	0,055	0,042
-162,023	-200,000	0,027	-0,120
-161,008	-39,271	0,130	-0,049
-159,993	-93,466	-0,047	0,009
-158,979	-27,580	-0,133	0,056
-157,964	-34,561	0,080	0,031
-156,950	33,383	-0,072	0,045
-155,935	-149,791	0,162	0,009
-154,920	116,571	-0,078	0,069
-153,906	360,567	-0,102	0,148
-152,891	-200,000	-0,025	0,081
-151,877	89,714	0,075	0,060
-150,862	68,457	0,094	0,069
-149,847	800,000	-0,040	0,083
-148,833	-196,057	-0,184	-0,001
-147,818	-185,995	0,180	-0,002
-146,804	800,000	-0,013	0,029
-145,789	206,251	0,077	0,087
-144,775	234,636	-0,095	0,114
-143,760	31,046	0,082	-0,051
-142,745	46,502	-0,057	-0,038
-141,731	220,914	0,086	-0,099
-140,716	447,304	0,120	0,190
-139,702	-16,806	-0,217	0,098
-138,687	279,280	0,073	0,094
-137,672	-122,233	-0,109	0,013
-136,658	-200,000	0,001	-0,106
-135,643	-200,000	-0,005	0,062
-134,629	-200,000	0,004	-0,015
-133,614	-69,382	-0,047	-0,013
-132,599	272,865	0,021	0,027
-131,585	-200,000	-0,032	0,136
-130,570	-62,695	0,089	-0,026
-129,556	134,613	-0,145	0,135
-128,541	-200,000	0,011	-0,072
-127,526	-168,834	-0,131	-0,003
-126,512	-60,472	0,054	-0,017
-125,497	546,238	0,062	0,106
-124,483	-52,622	0,118	-0,039
-123,468	800,000	-0,026	0,075
-122,453	772,475	0,028	0,055
-121,439	739,228	0,040	0,077
-120,424	-200,000	-0,005	0,072
-119,410	-159,062	-0,017	-0,001
