DTS Sentinel unit serial number:	SN410029Multiplexer serial number:	ORYXHardware model number:	OX2-SRSoftware version number:	ORYX F/W v4,00 Oryx Data Collector v3.7.2.0data status	okinstallation	B5 Nyhavnadifferential loss correction	single-endedforward channel	channel 2reverse channel	N/Adate	2023/12/12time	11:07:13forward acquisition time	300,00reverse acquisition time	0,00gamma	499,1914k internal	0,3158k external	0,3158temperature offset calibration	1,0000default loss term (dB/km)	0,3820temperature slope calibration	1,0000multiplexer offset coefficient	1,0000multiplexer slope coefficient	1,0000fibre end	0,00T internal ref (°C)	15,02T ext. ref 1 (°C)	-1,20T ext. ref 2 (°C)	-1,43length (m)	temperature (°C)	Stokes	anti-Stokes-744,400	-67,545	0,071	-0,020
-743,385	-88,082	-0,278	-0,061
-742,371	-113,639	0,106	0,015
-741,356	-2,257	-0,242	0,125
-740,342	-80,737	0,208	0,051
-739,327	-73,994	-0,342	0,091
-738,312	-98,464	0,159	-0,030
-737,298	6,714	-0,156	-0,085
-736,283	-200,000	0,030	0,145
-735,269	-87,742	-0,273	0,060
-734,254	800,000	0,027	0,065
-733,239	-144,045	-0,582	0,040
-732,225	-154,812	0,262	-0,013
-731,210	800,000	0,007	-0,022
-730,196	-200,000	0,011	0,054
-729,181	-130,500	0,095	-0,009
-728,167	83,289	0,072	0,057
-727,152	-200,000	-0,002	0,066
-726,137	-200,000	-0,041	0,157
-725,123	-40,588	-0,137	-0,052
-724,108	171,574	-0,126	-0,133
-723,094	-200,000	0,026	-0,177
-722,079	800,000	0,035	-0,110
-721,064	-200,000	-0,001	-0,049
-720,050	39,325	-0,057	-0,037
-719,035	-200,000	-0,020	0,154
-718,021	-128,621	0,151	0,016
-717,006	-169,207	-0,204	0,005
-715,991	800,000	-0,111	-0,235
-714,977	88,624	-0,083	-0,068
-713,962	33,317	-0,124	-0,079
-712,948	328,085	0,125	-0,177
-711,933	-200,000	0,001	-0,050
-710,918	800,000	-0,021	-0,053
-709,904	-81,431	-0,116	-0,028
-708,889	67,925	0,034	0,026
-707,875	-200,000	-0,004	-0,113
-706,860	185,528	0,041	-0,045
-705,845	50,997	0,040	0,028
-704,831	113,385	-0,049	-0,044
-703,816	-200,000	0,048	-0,162
-702,802	186,940	-0,104	0,115
-701,787	-37,364	-0,108	-0,042
-700,772	40,131	-0,102	0,067
-699,758	789,015	-0,023	-0,046
-698,743	-35,918	0,173	0,068
-697,729	800,000	0,048	-0,119
-696,714	741,239	0,019	-0,038
-695,699	595,241	-0,047	-0,087
-694,685	-25,512	-0,122	0,053
-693,670	-116,396	0,131	-0,018
-692,656	-128,047	0,104	-0,011
-691,641	623,092	0,061	0,114
-690,627	-176,388	-0,154	-0,003
-689,612	186,887	0,087	0,096
-688,597	800,000	-0,012	0,030
-687,583	19,221	-0,125	-0,074
-686,568	-200,000	0,008	-0,086
-685,554	-200,000	-0,009	0,082
-684,539	-39,516	-0,045	-0,017
-683,524	-104,304	-0,102	-0,017
-682,510	44,518	-0,046	0,031
-681,495	-137,199	-0,146	-0,012
-680,481	-200,000	0,032	0,141
-679,466	0,946	-0,081	-0,043
-678,451	250,884	-0,048	0,060
-677,437	-200,000	-0,009	0,089
-676,422	68,663	0,060	-0,045
-675,408	70,458	0,003	0,002
-674,393	-114,062	-0,098	0,014
-673,378	800,000	-0,017	0,047
-672,364	206,653	-0,133	-0,153
-671,349	800,000	-0,029	-0,075
-670,335	-200,000	0,020	-0,072
-669,320	293,766	0,060	-0,080
-668,305	87,346	0,015	-0,013
-667,291	685,415	0,046	0,088
-666,276	800,000	0,058	-0,171
-665,262	-130,723	-0,154	-0,015
-664,247	-123,768	-0,064	0,007
-663,232	73,670	-0,065	0,050
-662,218	800,000	0,048	0,101
-661,203	121,523	0,035	0,032
-660,189	-200,000	-0,014	0,046
-659,174	800,000	-0,045	-0,110
-658,159	-200,000	0,007	-0,041
-657,145	26,253	-0,212	0,130
-656,130	-200,000	-0,001	-0,003
-655,116	265,296	-0,053	-0,068
-654,101	-107,463	0,115	0,018
-653,086	-3,055	0,053	-0,027
-652,072	-125,178	-0,176	-0,020
-651,057	-65,771	-0,125	-0,036
-650,043	800,000	0,015	0,041
-649,028	460,598	-0,011	-0,019
-648,014	5,962	0,076	-0,041
-646,999	12,539	0,119	-0,067
-645,984	86,252	-0,094	0,076
-644,970	207,373	-0,113	0,130
-643,955	74,504	-0,118	-0,091
-642,941	544,296	0,034	-0,061
-641,926	-200,000	0,006	-0,048
-640,911	-117,174	-0,086	0,011
-639,897	290,555	-0,020	-0,027
-638,882	-32,517	-0,071	-0,029
-637,868	-200,000	0,020	-0,087
-636,853	-150,841	-0,059	0,003
-635,838	-126,030	0,057	0,006
-634,824	800,000	-0,068	-0,138
-633,809	-180,751	-0,084	0,001
-632,795	-145,048	-0,162	-0,011
-631,780	-200,000	0,018	0,068
-630,765	116,995	-0,094	-0,085
-629,751	-200,000	-0,019	-0,137
-628,736	-39,770	0,095	-0,036
-627,722	-128,482	-0,124	-0,013
-626,707	-200,000	0,013	-0,059
-625,692	362,038	0,062	0,091
-624,678	75,352	-0,067	-0,052
-623,663	27,056	0,043	0,026
-622,649	-51,924	-0,062	0,021
-621,634	-125,672	-0,094	-0,010
-620,619	-143,108	-0,108	0,008
-619,605	800,000	-0,058	-0,139
-618,590	2,806	0,151	-0,080
-617,576	-126,647	-0,071	-0,008
-616,561	199,462	0,060	-0,068
-615,546	-129,681	-0,124	-0,012
-614,532	-200,000	0,000	-0,073
-613,517	66,607	0,067	-0,050
-612,503	396,950	0,096	0,147
-611,488	-126,713	0,088	0,009
-610,474	-59,006	-0,005	-0,002
-609,459	-77,338	0,082	-0,021
-608,444	105,848	-0,057	-0,049
-607,430	-94,785	0,138	-0,027
-606,415	-86,936	-0,136	0,030
-605,401	406,390	-0,048	-0,074
-604,386	772,774	-0,044	0,088
-603,371	-11,066	-0,035	0,017
-602,357	800,000	0,006	-0,017
-601,342	53,270	0,021	0,015
-600,328	-5,359	-0,066	0,033
-599,313	-200,000	0,001	-0,068
-598,298	337,981	-0,064	-0,092
-597,284	-200,000	0,038	-0,127
-596,269	280,292	0,045	0,059
-595,255	251,331	-0,062	-0,078
-594,240	-200,000	-0,015	-0,067
-593,225	-6,492	-0,027	-0,013
-592,211	-196,126	-0,088	-0,000
-591,196	26,176	-0,049	-0,030
-590,182	-200,000	-0,018	-0,102
-589,167	-200,000	-0,014	-0,063
-588,152	-200,000	-0,006	-0,101
-587,138	105,409	0,057	-0,049
-586,123	-83,196	-0,128	0,030
-585,109	-145,904	-0,031	-0,002
-584,094	-200,000	0,045	-0,224
-583,079	472,808	0,017	0,027
-582,065	-158,649	0,164	0,007
-581,050	55,057	0,074	0,052
-580,036	-48,863	0,054	-0,019
-579,021	-43,429	-0,088	0,032
-578,006	10,891	-0,189	0,105
-576,992	227,435	-0,026	-0,031
-575,977	313,179	0,053	-0,073
-574,963	800,000	0,040	0,095
-573,948	101,852	0,043	-0,037
-572,934	15,407	-0,127	-0,073
-571,919	-9,631	0,080	0,039
-570,904	-200,000	0,001	0,038
-569,890	-79,835	0,049	-0,012
-568,875	605,433	0,009	0,017
-567,861	-90,695	0,128	-0,027
-566,846	800,000	-0,016	-0,040
-565,831	-200,000	-0,018	0,094
-564,817	238,404	-0,041	0,049
-563,802	800,000	-0,032	-0,098
-562,788	147,368	-0,014	-0,014
-561,773	271,356	-0,109	0,141
-560,758	-200,000	0,001	0,007
-559,744	106,087	0,069	-0,060
-558,729	-163,484	0,096	0,003
-557,715	-200,000	-0,014	-0,048
-556,700	-133,736	-0,083	0,007
-555,685	94,657	-0,037	-0,031
-554,671	-124,314	-0,056	-0,006
-553,656	244,348	0,018	-0,022
-552,642	-200,000	-0,005	0,024
-551,627	-200,000	0,012	-0,056
-550,612	-62,694	0,084	-0,025
-549,598	-200,000	-0,030	-0,148
-548,583	713,294	0,050	-0,098
-547,569	314,382	-0,048	0,067
-546,554	83,788	0,027	-0,022
-545,539	800,000	-0,073	-0,162
-544,525	-200,000	0,006	0,028
-543,510	-123,333	-0,114	-0,013
-542,496	800,000	0,019	-0,044
-541,481	424,077	0,062	-0,098
-540,466	296,077	-0,075	-0,101
-539,452	130,423	0,106	0,099
-538,437	-200,000	-0,026	0,129
-537,423	-200,000	0,009	0,164
-536,408	157,554	0,031	0,032
-535,393	27,056	0,010	-0,006
-534,379	-200,000	-0,014	-0,116
-533,364	-109,300	-0,115	-0,018
-532,350	-200,000	-0,018	0,066
-531,335	103,776	0,125	0,107
-530,321	-200,000	0,004	-0,024
-529,306	-17,247	-0,019	-0,009
-528,291	-110,238	-0,036	-0,005
-527,277	105,094	-0,014	-0,012
-526,262	177,935	0,042	-0,045
-525,248	-144,956	0,080	0,005
-524,233	245,856	0,104	0,129
-523,218	-58,763	0,132	-0,041
-522,204	-200,000	-0,018	0,131
-521,189	75,925	0,108	-0,083
-520,175	273,552	0,069	-0,090
-519,160	60,715	0,073	-0,053
-518,145	64,350	-0,087	0,064
-517,131	-175,978	0,148	-0,003
-516,116	59,013	-0,063	0,045
-515,102	32,441	-0,102	-0,064
-514,087	92,002	-0,173	-0,143
-513,072	-200,000	-0,006	-0,077
-512,058	800,000	0,100	-0,207
-511,043	-200,000	-0,002	-0,059
-510,029	407,729	-0,044	-0,068
-509,014	365,532	0,063	0,093
-507,999	-50,382	0,046	0,016
-506,985	-200,000	0,010	0,041
-505,970	-200,000	-0,000	0,012
-504,956	800,000	-0,045	-0,092
-503,941	-200,000	0,014	0,097
-502,926	-49,178	0,057	-0,020
-501,912	387,654	0,132	0,199
-500,897	66,430	0,033	-0,025
-499,883	34,573	0,011	-0,007
-498,868	800,000	-0,030	-0,093
-497,853	153,191	-0,032	0,032
-496,839	-22,664	0,233	0,102
-495,824	-200,000	0,000	-0,001
-494,810	-67,424	-0,060	0,017
-493,795	-12,643	-0,067	0,032
-492,781	-76,883	0,007	-0,002
-491,766	-72,501	-0,193	-0,052
-490,751	342,726	-0,033	0,048
-489,737	22,948	0,048	-0,028
-488,722	360,432	0,051	-0,075
-487,708	800,000	0,015	0,044
-486,693	-37,460	0,100	0,039
-485,678	179,051	-0,088	0,094
-484,664	295,133	0,062	-0,083
-483,649	659,722	-0,107	-0,202
-482,635	-152,514	0,124	-0,006
-481,620	-200,000	0,013	-0,050
-480,605	-200,000	0,030	-0,110
-479,591	-200,000	0,015	0,050
-478,576	800,000	-0,016	-0,037
-477,562	-89,680	-0,080	0,017
-476,547	133,685	-0,046	0,044
-475,532	-93,837	0,097	-0,019
-474,518	-4,150	0,058	-0,029
-473,503	631,745	0,027	-0,050
-472,489	300,925	-0,020	-0,027
-471,474	690,791	0,027	-0,052
-470,459	122,387	-0,051	-0,046
-469,445	111,766	-0,030	-0,027
-468,430	800,000	0,065	-0,170
-467,416	225,870	0,016	0,019
-466,401	111,493	0,023	-0,020
-465,386	-29,711	0,147	0,061
-464,372	-200,000	0,015	-0,119
-463,357	100,189	-0,165	0,139
-462,343	800,000	0,044	0,110
-461,328	73,752	-0,086	0,066
-460,313	42,110	-0,106	-0,070
-459,299	-60,041	0,073	-0,023
-458,284	-4,404	0,041	-0,021
-457,270	547,170	-0,047	-0,082
-456,255	-126,756	0,031	0,003
-455,241	148,599	-0,146	-0,144
-454,226	226,814	-0,041	-0,049
-453,211	-87,485	-0,110	-0,024
-452,197	-200,000	0,023	0,076
-451,182	254,133	0,082	0,102
-450,168	188,326	0,050	0,054
-449,153	-200,000	0,016	0,099
-448,138	142,448	-0,080	-0,077
-447,124	-200,000	0,064	-0,218
-446,109	-43,964	0,090	0,033
-445,095	-200,000	0,008	0,105
-444,080	5,949	-0,110	-0,059
-443,065	-69,744	0,083	0,023
-442,051	179,601	-0,024	-0,026
-441,036	800,000	-0,072	-0,158
-440,022	73,019	-0,038	-0,029
-439,007	94,744	0,129	0,107
-437,992	34,562	-0,011	0,007
-436,978	245,461	0,111	-0,136
-435,963	-200,000	0,024	-0,113
-434,949	47,560	-0,054	-0,036
-433,934	-165,378	-0,176	-0,006
-432,919	-137,739	-0,054	-0,004
-431,905	-89,626	-0,104	0,022
-430,890	-200,000	0,004	0,021
-429,876	339,591	0,077	0,109
-428,861	260,326	0,026	0,032
-427,846	-93,687	0,153	-0,030
-426,832	-200,000	-0,019	-0,101
-425,817	192,802	-0,042	0,046
-424,803	174,399	-0,020	0,021
-423,788	698,611	-0,026	0,050
-422,773	800,000	0,037	0,095
-421,759	161,405	-0,087	0,088
-420,744	569,594	0,061	0,109
-419,730	800,000	-0,035	-0,087
-418,715	363,634	0,034	-0,050
-417,701	-105,706	-0,168	0,027
-416,686	16,030	-0,063	-0,036
-415,671	131,806	-0,047	0,044
-414,657	-200,000	0,017	0,206
-413,642	-200,000	-0,016	0,111
-412,628	800,000	0,039	-0,116
-411,613	108,758	-0,044	0,039
-410,598	-200,000	0,004	0,076
-409,584	103,526	0,165	0,141
-408,569	29,783	0,072	0,045
-407,555	-150,074	0,089	-0,005
-406,540	-142,801	-0,145	-0,010
-405,525	800,000	-0,020	-0,048
-404,511	-85,932	-0,105	-0,023
-403,496	-29,673	0,165	0,068
-402,482	163,172	-0,071	-0,073
-401,467	90,362	-0,020	-0,016
-400,452	-200,000	-0,015	0,088
-399,438	342,196	0,042	0,060
-398,423	800,000	0,023	-0,054
-397,409	-132,988	-0,165	-0,015
-396,394	180,238	-0,164	-0,176
-395,379	504,219	-0,054	-0,092
-394,365	594,329	0,018	0,032
-393,350	-145,974	0,150	0,009
-392,336	-118,692	-0,057	0,007
-391,321	-0,950	0,036	0,019
-390,306	-200,000	0,014	0,148
-389,292	800,000	-0,040	0,093
-388,277	-158,942	-0,074	-0,003
-387,263	800,000	-0,030	-0,071
-386,248	-200,000	-0,018	-0,063
-385,233	387,825	-0,058	0,087
-384,219	1,973	-0,015	0,008
-383,204	-111,052	-0,159	-0,023
-382,190	-2,118	-0,076	0,038
-381,175	133,261	-0,141	0,132
-380,160	173,708	0,079	0,083
-379,146	-107,283	0,148	0,023
-378,131	-56,975	-0,088	-0,028
-377,117	-51,354	-0,048	0,016
-376,102	800,000	-0,035	-0,094
-375,088	800,000	0,046	-0,106
-374,073	-38,924	-0,145	-0,055
-373,058	-142,634	0,065	-0,005
-372,044	613,529	0,017	0,030
-371,029	800,000	-0,054	0,142
-370,015	800,000	0,015	0,032
-369,000	599,448	0,037	0,067
-367,985	-200,000	0,026	-0,099
-366,971	45,698	-0,026	-0,018
-365,956	-93,911	-0,156	0,031
-364,942	-58,692	0,084	-0,026
-363,927	-200,000	0,019	0,124
-362,912	800,000	-0,011	-0,026
-361,898	-200,000	0,015	0,093
-360,883	180,597	0,035	0,037
-359,869	67,703	0,050	-0,037
-358,854	115,655	-0,055	0,049
-357,839	625,335	0,064	-0,118
-356,825	301,917	0,015	-0,020
-355,810	800,000	-0,022	0,046
-354,796	627,690	0,015	-0,028
-353,781	45,111	0,024	-0,016
-352,766	800,000	-0,017	0,049
-351,752	800,000	-0,005	-0,012
-350,737	-175,760	0,040	0,001
-349,723	126,792	-0,013	-0,012
-348,708	-15,807	-0,074	0,034
-347,693	800,000	-0,033	-0,081
-346,679	800,000	0,034	0,088
-345,664	114,850	0,104	0,092
-344,650	-2,398	-0,109	0,055
-343,635	-200,000	0,061	0,243
-342,620	-139,915	-0,057	0,004
-341,606	51,959	0,205	0,141
-340,591	-149,776	0,079	0,004
-339,577	-200,000	0,004	0,070
-338,562	800,000	-0,026	0,067
-337,548	-111,453	-0,130	-0,019
-336,533	110,634	0,120	0,105
-335,518	-26,786	0,074	0,031
-334,504	234,828	0,075	0,090
-333,489	25,949	-0,042	-0,025
-332,475	800,000	-0,062	-0,132
-331,460	-115,152	0,004	-0,001
-330,445	800,000	-0,032	0,094
-329,431	-62,724	0,109	0,032
-328,416	-112,013	0,122	0,018
-327,402	318,350	0,072	0,099
-326,387	-99,604	-0,060	0,011
-325,372	800,000	0,051	-0,151
-324,358	-194,127	-0,074	0,000
-323,343	800,000	0,074	0,152
-322,329	277,805	0,026	0,033
-321,314	-200,000	-0,002	-0,024
-320,299	-200,000	-0,006	-0,128
-319,285	-200,000	-0,026	0,108
-318,270	-62,467	0,123	-0,037
-317,256	330,013	0,015	-0,021
-316,241	-200,000	0,038	0,127
-315,226	800,000	-0,024	0,064
-314,212	36,671	-0,032	0,020
-313,197	309,753	-0,020	0,027
-312,183	-105,462	0,132	0,021
-311,168	87,456	0,073	0,058
-310,153	4,048	-0,167	0,088
-309,139	-189,888	0,018	0,000
-308,124	800,000	0,037	0,114
-307,110	800,000	0,022	0,051
-306,095	-98,796	0,124	-0,023
-305,080	758,199	-0,062	-0,123
-304,066	6,222	-0,092	-0,049
-303,051	-13,113	0,092	-0,043
-302,037	8,680	0,042	-0,023
-301,022	-174,505	-0,023	0,000
-300,008	737,773	0,056	0,108
-298,993	-136,664	-0,080	0,007
-297,978	113,679	0,106	0,094
-296,964	98,778	0,093	-0,077
-295,949	-125,551	0,037	0,004
-294,935	800,000	0,028	-0,071
-293,920	154,781	0,061	-0,061
-292,905	-80,404	0,038	0,009
-291,891	334,825	-0,049	0,069
-290,876	-200,000	0,026	0,086
-289,862	800,000	0,030	-0,090
-288,847	800,000	0,065	0,156
-287,832	-112,295	0,079	0,011
-286,818	168,412	0,043	0,044
-285,803	103,324	0,047	0,040
-284,789	800,000	0,015	-0,040
-283,774	103,155	0,040	0,034
-282,759	122,386	0,087	-0,079
-281,745	570,423	0,047	0,084
-280,730	-128,862	-0,154	0,015
-279,716	210,689	-0,053	-0,060
-278,701	-200,000	-0,004	0,046
-277,686	13,916	-0,044	0,025
-276,672	-200,000	0,027	-0,110
-275,657	-200,000	0,000	0,015
-274,643	-200,000	0,009	-0,037
-273,628	33,260	-0,128	-0,080
-272,613	161,409	0,092	-0,093
-271,599	-95,513	-0,081	0,016
-270,584	282,667	0,067	0,087
-269,570	194,286	0,051	-0,056
-268,555	221,347	0,013	0,015
-267,540	-200,000	-0,013	-0,051
-266,526	-139,373	-0,019	0,001
-265,511	314,286	0,126	-0,172
-264,497	-24,247	0,112	0,048
-263,482	-88,736	0,131	-0,028
-262,467	-82,858	-0,066	-0,015
-261,453	121,810	-0,114	0,103
-260,438	-47,408	0,049	0,017
-259,424	199,034	0,059	-0,065
-258,409	611,531	-0,030	0,054
-257,395	-65,443	0,054	-0,016
-256,380	-120,402	0,077	-0,009
-255,365	-3,761	-0,123	-0,062
-254,351	-200,000	0,007	-0,034
-253,336	475,966	-0,022	-0,037
-252,322	-10,341	-0,086	-0,041
-251,307	-200,000	0,011	0,060
-250,292	141,754	0,070	-0,067
-249,278	202,934	0,058	0,065
-248,263	800,000	0,071	0,181
-247,249	-200,000	0,008	0,178
-246,234	-155,213	0,068	0,003
-245,219	514,567	-0,043	0,073
-244,205	-173,910	-0,045	-0,001
-243,190	-137,049	0,029	-0,002
-242,176	800,000	-0,017	0,044
-241,161	53,067	0,087	0,060
-240,146	-200,000	0,001	0,035
-239,132	58,653	-0,031	0,022
-238,117	225,661	-0,110	0,129
-237,103	22,136	-0,075	-0,044
-236,088	-22,750	0,130	0,056
-235,073	109,413	-0,072	0,062
-234,059	67,866	-0,045	0,034
-233,044	-200,000	0,029	0,119
-232,030	-63,677	0,058	0,017
-231,015	-16,771	0,094	0,043
-230,000	-133,452	0,139	0,012
-228,986	359,698	0,042	-0,062
-227,971	146,641	-0,053	0,051
-226,957	361,032	0,033	0,048
-225,942	180,576	-0,049	-0,053
-224,927	-34,581	-0,126	0,049
-223,913	158,931	-0,077	-0,077
-222,898	-7,533	0,121	-0,059
-221,884	-10,194	0,085	0,040
-220,869	132,177	-0,074	0,069
-219,855	176,625	0,095	0,100
-218,840	-200,000	-0,031	0,160
-217,825	-200,000	0,016	0,084
-216,811	-54,671	0,087	-0,028
-215,796	616,843	-0,064	-0,117
-214,782	-200,000	0,016	-0,092
-213,767	-38,940	0,053	0,020
-212,752	281,967	0,047	0,061
-211,738	37,155	0,130	0,083
-210,723	-39,902	-0,026	-0,010
-209,709	-122,441	-0,092	-0,011
-208,694	154,906	-0,027	-0,027
-207,679	-25,478	0,068	-0,029
-206,665	-88,908	0,070	0,015
-205,650	-143,914	0,124	-0,008
-204,636	172,073	0,100	-0,104
-203,621	-200,000	0,000	0,142
-202,606	800,000	0,024	-0,051
-201,592	-200,000	-0,023	-0,113
-200,577	-200,000	-0,001	0,033
-199,563	800,000	-0,038	-0,105
-198,548	190,861	-0,048	0,052
-197,533	800,000	-0,069	0,172
-196,519	-49,936	-0,093	0,032
-195,504	108,054	-0,021	-0,018
-194,490	-91,366	-0,156	0,032
-193,475	-200,000	0,005	-0,064
-192,460	53,639	-0,023	-0,016
-191,446	-200,000	0,000	0,027
-190,431	5,660	-0,055	-0,029
-189,417	800,000	-0,036	-0,096
-188,402	800,000	-0,025	-0,055
-187,387	52,330	0,007	0,005
-186,373	385,988	-0,018	0,028
-185,358	-200,000	-0,014	-0,110
-184,344	800,000	0,030	0,065
-183,329	-200,000	0,000	0,003
-182,315	79,673	-0,097	0,075
-181,300	-131,386	-0,044	0,004
-180,285	-200,000	-0,010	0,069
-179,271	-200,000	-0,029	-0,104
-178,256	-73,690	-0,077	0,020
-177,242	800,000	-0,012	0,027
-176,227	-49,879	-0,068	0,023
-175,212	288,978	-0,043	-0,056
-174,198	114,056	0,017	-0,015
-173,183	-200,000	0,019	-0,061
-172,169	-72,618	0,057	-0,015
-171,154	-200,000	0,004	0,019
-170,139	-20,855	-0,046	-0,020
-169,125	-121,854	0,129	-0,015
-168,110	800,000	-0,043	0,093
-167,096	780,074	0,033	0,065
-166,081	352,639	-0,012	0,017
-165,066	224,647	-0,103	-0,120
-164,052	-3,290	-0,041	-0,021
-163,037	800,000	0,028	-0,073
-162,023	-2,874	0,054	-0,027
-161,008	-39,694	-0,069	-0,026
-159,993	74,276	-0,047	0,035
-158,979	83,095	-0,021	0,016
-157,964	800,000	-0,050	-0,134
-156,950	9,699	0,052	0,028
-155,935	-56,422	0,019	-0,006
-154,920	800,000	-0,014	0,033
-153,906	137,289	-0,058	-0,054
-152,891	-200,000	0,016	0,120
-151,877	341,582	-0,112	0,158
-150,862	-109,758	-0,111	-0,017
-149,847	168,983	0,033	-0,034
-148,833	32,039	0,066	0,041
-147,818	-61,793	0,054	-0,016
-146,804	259,444	0,096	-0,120
-145,789	-200,000	0,022	0,143
-144,775	335,414	0,055	0,077
-143,760	11,690	-0,095	-0,053
-142,745	225,764	-0,038	-0,044
-141,731	-69,516	-0,065	-0,018
-140,716	562,266	-0,014	-0,025
-139,702	157,515	0,053	0,053
-138,687	158,258	0,034	0,034
-137,672	-126,623	-0,062	0,007
-136,658	-200,000	0,000	-0,072
-135,643	-13,623	-0,036	0,017
-134,629	207,347	0,025	-0,028
-133,614	-77,639	0,195	-0,048
-132,599	0,513	-0,043	0,022
-131,585	276,020	-0,035	0,044
-130,570	-55,357	-0,096	0,031
-129,556	-200,000	-0,021	-0,100
-128,541	-53,269	0,059	0,019
-127,526	-200,000	0,018	-0,087
-126,512	800,000	0,045	-0,111
-125,497	-200,000	0,032	0,183
-124,483	-200,000	0,027	0,161
-123,468	-4,225	-0,055	-0,028
-122,453	-200,000	0,014	0,062
-121,439	800,000	0,039	-0,089
-120,424	-35,005	-0,118	0,046
-119,410	-112,211	0,091	-0,013
