DTS Sentinel unit serial number:	SN410029Multiplexer serial number:	ORYXHardware model number:	OX2-SRSoftware version number:	ORYX F/W v4,00 Oryx Data Collector v3.7.2.0data status	okinstallation	B5 Nyhavnadifferential loss correction	single-endedforward channel	channel 2reverse channel	N/Adate	2023/12/11time	23:27:13forward acquisition time	300,00reverse acquisition time	0,00gamma	499,1914k internal	0,3155k external	0,3155temperature offset calibration	1,0000default loss term (dB/km)	0,3820temperature slope calibration	1,0000multiplexer offset coefficient	1,0000multiplexer slope coefficient	1,0000fibre end	0,00T internal ref (°C)	16,25T ext. ref 1 (°C)	-0,07T ext. ref 2 (°C)	-0,33length (m)	temperature (°C)	Stokes	anti-Stokes-744,400	-200,000	-0,024	0,194
-743,385	-96,430	-0,243	0,047
-742,371	-75,399	0,131	0,034
-741,356	-31,084	-0,209	0,087
-740,342	-200,000	0,014	0,071
-739,327	-145,269	-0,398	-0,026
-738,312	800,000	0,030	-0,096
-737,298	-121,629	-0,298	-0,036
-736,283	-164,739	-0,021	0,001
-735,269	-75,925	-0,196	0,051
-734,254	575,153	0,046	0,083
-733,239	-42,432	-0,456	-0,171
-732,225	-65,818	0,083	-0,024
-731,210	800,000	0,019	-0,052
-730,196	285,031	0,031	-0,041
-729,181	-116,692	-0,149	0,020
-728,167	-0,755	-0,070	-0,036
-727,152	676,178	-0,077	0,148
-726,137	55,970	0,007	0,005
-725,123	163,279	-0,083	-0,086
-724,108	-50,671	-0,116	0,040
-723,094	-16,076	0,052	0,024
-722,079	-200,000	0,042	-0,142
-721,064	-200,000	0,031	-0,169
-720,050	800,000	-0,046	-0,117
-719,035	179,530	0,036	-0,039
-718,021	-121,385	-0,094	0,011
-717,006	-200,000	-0,032	-0,159
-715,991	-12,579	-0,204	-0,098
-714,977	-97,166	-0,067	0,013
-713,962	800,000	-0,030	0,072
-712,948	292,788	0,058	0,079
-711,933	5,478	-0,111	-0,060
-710,918	-161,447	-0,096	-0,004
-709,904	800,000	-0,019	0,055
-708,889	34,564	-0,028	-0,018
-707,875	-200,000	0,022	-0,227
-706,860	26,332	-0,127	0,078
-705,845	800,000	-0,026	0,061
-704,831	-73,154	-0,032	0,009
-703,816	52,246	0,020	-0,014
-702,802	-120,783	0,082	-0,010
-701,787	198,400	0,048	-0,054
-700,772	231,803	0,035	-0,042
-699,758	-200,000	-0,006	-0,110
-698,743	-200,000	0,022	-0,071
-697,729	96,227	0,118	0,100
-696,714	800,000	-0,025	0,057
-695,699	61,463	-0,049	-0,035
-694,685	70,391	-0,135	-0,103
-693,670	-200,000	0,016	-0,100
-692,656	49,186	-0,151	0,104
-691,641	-63,250	0,130	0,039
-690,627	214,610	0,060	0,070
-689,612	399,406	0,046	-0,071
-688,597	-74,415	0,113	0,030
-687,583	-82,017	-0,066	-0,016
-686,568	85,276	-0,040	0,032
-685,554	708,215	0,024	0,047
-684,539	-130,172	0,086	0,009
-683,524	109,334	0,119	0,105
-682,510	-200,000	0,003	-0,036
-681,495	-200,000	-0,006	0,023
-680,481	64,190	-0,041	-0,030
-679,466	50,383	0,079	-0,055
-678,451	292,408	0,053	0,071
-677,437	-200,000	-0,006	0,035
-676,422	98,052	-0,058	0,049
-675,408	-122,537	-0,053	-0,006
-674,393	-200,000	0,001	-0,009
-673,378	508,018	-0,049	0,084
-672,364	-52,004	0,064	-0,022
-671,349	800,000	-0,030	-0,088
-670,335	169,379	-0,037	0,039
-669,320	625,773	0,094	0,175
-668,305	693,332	0,057	-0,111
-667,291	111,553	-0,078	-0,069
-666,276	223,244	-0,122	0,145
-665,262	-200,000	0,012	-0,134
-664,247	8,351	-0,062	0,034
-663,232	765,443	-0,068	0,136
-662,218	135,584	-0,075	0,072
-661,203	-142,452	-0,024	-0,002
-660,189	-15,608	-0,216	-0,101
-659,174	-200,000	-0,009	-0,143
-658,159	800,000	0,019	-0,057
-657,145	71,804	-0,103	0,078
-656,130	32,890	0,048	-0,031
-655,116	-18,638	-0,099	0,045
-654,101	-81,166	0,144	0,035
-653,086	65,208	0,045	0,033
-652,072	-200,000	0,014	-0,063
-651,057	24,413	0,088	-0,054
-650,043	-169,041	0,040	0,001
-649,028	-174,347	-0,086	-0,002
-648,014	-200,000	-0,016	0,160
-646,999	-140,166	-0,096	0,007
-645,984	129,841	0,097	-0,091
-644,970	-43,312	-0,071	-0,026
-643,955	345,160	-0,040	-0,059
-642,941	-148,385	-0,176	-0,010
-641,926	800,000	-0,034	0,078
-640,911	800,000	0,038	0,085
-639,897	-141,709	-0,010	0,001
-638,882	228,294	-0,025	-0,030
-637,868	-200,000	-0,024	-0,093
-636,853	-5,142	0,030	0,015
-635,838	-200,000	0,041	-0,199
-634,824	800,000	0,046	-0,093
-633,809	800,000	-0,057	0,129
-632,795	15,717	-0,043	-0,025
-631,780	-200,000	0,032	0,137
-630,765	-200,000	0,003	0,126
-629,751	-108,570	-0,170	0,027
-628,736	406,669	0,049	0,077
-627,722	361,976	0,009	0,013
-626,707	-175,602	-0,053	-0,001
-625,692	-200,000	0,003	-0,041
-624,678	604,018	-0,061	0,112
-623,663	-11,244	-0,062	0,030
-622,649	-58,393	-0,077	-0,024
-621,634	-200,000	-0,034	-0,112
-620,619	-200,000	-0,026	-0,109
-619,605	44,334	0,059	-0,040
-618,590	-200,000	0,024	-0,133
-617,576	-200,000	0,007	-0,058
-616,561	800,000	0,035	0,073
-615,546	-200,000	0,007	-0,051
-614,532	54,781	-0,113	-0,080
-613,517	-197,875	-0,027	-0,000
-612,503	-200,000	-0,011	-0,124
-611,488	35,378	0,123	0,079
-610,474	800,000	0,051	0,108
-609,459	-6,888	-0,030	0,015
-608,444	-200,000	-0,029	-0,113
-607,430	12,357	0,100	0,056
-606,415	-116,358	-0,054	-0,007
-605,401	27,513	-0,095	-0,058
-604,386	800,000	0,039	0,104
-603,371	-102,637	0,064	-0,011
-602,357	189,370	-0,064	0,071
-601,342	-200,000	-0,020	0,095
-600,328	399,106	0,090	-0,139
-599,313	-157,287	-0,077	-0,003
-598,298	-130,814	-0,047	0,005
-597,284	800,000	-0,025	0,064
-596,269	-52,561	-0,064	-0,022
-595,255	800,000	-0,044	0,092
-594,240	61,453	-0,076	-0,055
-593,225	-200,000	-0,024	-0,142
-592,211	-1,017	-0,125	-0,065
-591,196	-12,632	0,068	-0,032
-590,182	800,000	-0,033	0,070
-589,167	-200,000	-0,003	0,027
-588,152	578,876	0,036	0,065
-587,138	-108,095	-0,025	0,004
-586,123	129,375	-0,213	-0,199
-585,109	-200,000	0,003	-0,167
-584,094	2,957	0,055	-0,029
-583,079	-23,942	-0,121	0,053
-582,065	-130,598	0,077	0,008
-581,050	800,000	0,024	0,078
-580,036	-154,948	-0,206	-0,010
-579,021	800,000	0,036	0,089
-578,006	222,356	0,040	0,047
-576,992	-184,565	-0,085	-0,001
-575,977	800,000	0,043	-0,125
-574,963	81,705	0,060	0,047
-573,948	-200,000	-0,001	-0,044
-572,934	-200,000	-0,017	-0,103
-571,919	764,846	-0,032	0,065
-570,904	538,518	-0,053	-0,092
-569,890	25,363	0,068	-0,041
-568,875	-200,000	-0,012	0,077
-567,861	107,849	0,039	-0,034
-566,846	-200,000	-0,011	0,066
-565,831	-200,000	0,025	0,150
-564,817	-55,278	-0,078	-0,026
-563,802	388,968	-0,048	0,073
-562,788	173,989	0,034	-0,036
-561,773	104,678	0,063	-0,054
-560,758	-121,950	-0,048	0,006
-559,744	-200,000	0,001	0,098
-558,729	51,821	0,106	0,074
-557,715	-12,976	0,128	0,061
-556,700	-200,000	-0,008	-0,074
-555,685	-115,007	0,085	0,012
-554,671	71,007	0,163	0,124
-553,656	466,956	0,014	0,024
-552,642	-37,730	0,060	0,023
-551,627	800,000	-0,047	-0,108
-550,612	-200,000	-0,012	-0,154
-549,598	-106,242	-0,093	-0,015
-548,583	1,043	-0,091	-0,048
-547,569	800,000	0,014	-0,029
-546,554	-200,000	0,000	-0,061
-545,539	800,000	-0,052	0,111
-544,525	-200,000	-0,019	-0,071
-543,510	-140,043	0,168	0,013
-542,496	599,114	-0,022	0,040
-541,481	-200,000	0,011	-0,068
-540,466	-190,747	-0,129	-0,001
-539,452	-200,000	0,009	0,081
-538,437	-200,000	-0,011	0,086
-537,423	-100,608	0,090	0,016
-536,408	-200,000	0,008	0,032
-535,393	161,067	-0,098	-0,101
-534,379	-200,000	-0,000	-0,110
-533,364	-197,246	-0,061	-0,000
-532,350	1,106	0,068	0,036
-531,335	53,818	0,051	0,036
-530,321	-144,491	0,044	-0,003
-529,306	284,844	0,025	0,033
-528,291	215,482	-0,045	-0,052
-527,277	800,000	-0,045	0,113
-526,262	-200,000	-0,033	0,110
-525,248	-200,000	-0,000	0,057
-524,233	-173,431	0,045	-0,001
-523,218	-200,000	0,010	0,069
-522,204	5,880	-0,040	-0,022
-521,189	800,000	0,036	-0,106
-520,175	-200,000	0,011	-0,107
-519,160	111,412	-0,127	-0,112
-518,145	-200,000	-0,011	-0,086
-517,131	626,840	-0,042	0,078
-516,116	-200,000	-0,027	-0,095
-515,102	800,000	0,026	0,062
-514,087	365,737	0,043	-0,063
-513,072	-200,000	-0,011	-0,078
-512,058	800,000	-0,009	-0,028
-511,043	252,826	-0,067	0,083
-510,029	-200,000	0,006	0,051
-509,014	302,828	-0,039	0,054
-507,999	-200,000	-0,012	0,119
-506,985	-200,000	-0,007	-0,049
-505,970	-18,020	0,110	-0,050
-504,956	-144,157	0,102	-0,007
-503,941	319,670	0,047	-0,066
-502,926	-58,849	-0,104	-0,033
-501,912	229,627	0,070	0,084
-500,897	-200,000	0,021	-0,102
-499,883	-200,000	-0,027	-0,172
-498,868	-4,972	0,009	-0,004
-497,853	-200,000	0,042	-0,147
-496,839	149,034	-0,017	0,017
-495,824	48,381	-0,079	0,054
-494,810	172,347	-0,078	-0,082
-493,795	800,000	0,017	-0,049
-492,781	-104,712	-0,064	0,011
-491,766	557,402	-0,025	0,045
-490,751	-99,880	0,028	-0,005
-489,737	290,544	-0,039	0,052
-488,722	-117,020	0,050	-0,007
-487,708	65,229	0,055	-0,041
-486,693	-143,231	0,283	0,020
-485,678	-200,000	-0,016	0,067
-484,664	369,141	0,044	-0,066
-483,649	192,816	0,068	-0,075
-482,635	-5,804	0,091	-0,045
-481,620	4,876	0,123	0,066
-480,605	-200,000	-0,014	-0,066
-479,591	-92,041	0,286	-0,059
-478,576	-170,284	0,088	0,002
-477,562	33,056	-0,077	0,049
-476,547	179,093	-0,124	-0,133
-475,532	70,231	0,067	0,051
-474,518	-200,000	0,031	0,129
-473,503	-200,000	-0,026	0,200
-472,489	454,127	0,046	0,074
-471,474	-52,439	0,050	0,017
-470,459	-162,579	-0,152	-0,005
-469,445	-130,147	0,067	0,007
-468,430	-200,000	-0,007	-0,043
-467,416	-17,177	0,046	-0,021
-466,401	154,383	0,069	0,069
-465,386	773,277	0,029	0,057
-464,372	-139,406	0,171	0,013
-463,357	220,632	-0,057	0,066
-462,343	-200,000	0,008	-0,094
-461,328	23,740	-0,103	0,062
-460,313	-200,000	-0,005	0,045
-459,299	-15,525	0,091	0,042
-458,284	76,345	0,119	-0,092
-457,270	-115,483	-0,090	0,012
-456,255	105,956	0,042	-0,036
-455,241	-156,429	-0,147	0,007
-454,226	159,600	-0,048	0,049
-453,211	-55,843	0,035	-0,011
-452,197	66,949	-0,037	0,027
-451,182	233,655	0,014	0,017
-450,168	800,000	-0,052	0,108
-449,153	-114,123	-0,046	0,006
-448,138	800,000	0,011	-0,024
-447,124	334,716	0,051	0,073
-446,109	172,425	-0,059	0,062
-445,095	-27,740	-0,128	0,054
-444,080	-200,000	-0,001	0,078
-443,065	129,164	0,112	-0,104
-442,051	125,774	-0,030	-0,027
-441,036	85,707	0,093	-0,075
-440,022	157,237	-0,015	0,015
-439,007	800,000	-0,026	0,071
-437,992	62,552	-0,046	-0,034
-436,978	-200,000	0,043	0,208
-435,963	143,140	0,110	0,107
-434,949	-34,341	-0,145	-0,058
-433,934	-200,000	0,022	0,143
-432,919	-161,451	-0,027	-0,001
-431,905	800,000	-0,039	-0,116
-430,890	83,836	0,119	0,094
-429,876	800,000	0,020	-0,062
-428,861	-200,000	-0,030	0,121
-427,846	-200,000	0,013	0,050
-426,832	66,737	-0,144	-0,107
-425,817	800,000	-0,014	-0,041
-424,803	800,000	-0,054	0,120
-423,788	285,632	0,123	0,162
-422,773	-200,000	-0,005	-0,076
-421,759	-43,830	-0,045	-0,016
-420,744	-115,211	0,088	0,012
-419,730	285,122	-0,042	-0,056
-418,715	800,000	-0,024	-0,051
-417,701	-38,620	-0,059	0,023
-416,686	800,000	-0,051	-0,116
-415,671	277,350	0,095	0,123
-414,657	-200,000	0,023	-0,094
-413,642	101,704	0,014	-0,012
-412,628	800,000	0,028	-0,065
-411,613	645,938	-0,041	-0,076
-410,598	-140,922	-0,053	0,004
-409,584	-108,477	0,048	-0,007
-408,569	440,991	-0,058	-0,092
-407,555	800,000	0,036	0,104
-406,540	-79,034	0,045	-0,011
-405,525	582,304	-0,053	-0,096
-404,511	-106,176	-0,105	0,017
-403,496	20,824	0,039	-0,023
-402,482	449,278	0,103	0,165
-401,467	181,085	-0,083	0,088
-400,452	-7,397	0,047	0,023
-399,438	336,760	0,027	0,039
-398,423	43,760	0,020	-0,013
-397,409	227,805	-0,061	-0,072
-396,394	-200,000	0,019	0,072
-395,379	135,958	-0,031	-0,029
-394,365	-94,939	-0,046	-0,009
-393,350	-1,827	-0,014	0,007
-392,336	-114,547	-0,116	-0,016
-391,321	-29,384	0,100	-0,041
-390,306	308,496	-0,018	-0,024
-389,292	383,593	0,059	-0,089
-388,277	-35,298	-0,206	0,081
-387,263	-158,234	0,113	-0,005
-386,248	800,000	0,063	-0,146
-385,233	-200,000	-0,000	0,060
-384,219	434,774	-0,070	0,111
-383,204	-52,473	-0,070	0,023
-382,190	-4,978	-0,178	-0,089
-381,175	116,903	0,054	-0,048
-380,160	207,185	0,021	0,024
-379,146	-129,821	0,107	0,011
-378,131	-200,000	-0,018	-0,117
-377,117	-65,888	-0,034	0,010
-376,102	41,236	-0,103	-0,068
-375,088	-200,000	-0,004	-0,032
-374,073	168,660	-0,071	0,073
-373,058	233,784	0,076	-0,091
-372,044	748,043	0,039	0,076
-371,029	-200,000	0,013	0,186
-370,015	-47,967	-0,064	0,022
-369,000	-62,683	0,026	-0,008
-367,985	-42,346	-0,081	-0,030
-366,971	493,931	-0,031	-0,053
-365,956	-126,390	0,067	0,007
-364,942	20,190	0,124	0,073
-363,927	-104,055	0,090	-0,015
-362,912	-24,749	0,041	-0,018
-361,898	-3,919	-0,136	0,068
-360,883	191,567	-0,086	0,094
-359,869	212,747	-0,036	0,041
-358,854	-200,000	0,025	-0,118
-357,839	70,690	0,067	0,050
-356,825	-102,643	-0,041	0,007
-355,810	86,166	-0,066	-0,052
-354,796	140,174	0,109	-0,104
-353,781	-200,000	-0,021	-0,199
-352,766	109,949	-0,109	-0,095
-351,752	476,261	-0,039	-0,065
-350,737	128,513	0,101	-0,093
-349,723	-146,384	0,140	-0,009
-348,708	-200,000	0,019	0,087
-347,693	-200,000	0,023	0,079
-346,679	-90,656	-0,063	-0,013
-345,664	800,000	-0,055	-0,123
-344,650	800,000	-0,014	0,036
-343,635	136,055	0,121	0,115
-342,620	-162,659	-0,107	-0,004
-341,606	800,000	0,007	0,021
-340,591	-200,000	-0,025	0,095
-339,577	-192,852	-0,050	0,000
-338,562	75,470	-0,056	-0,043
-337,548	338,745	0,046	-0,066
-336,533	-135,713	0,082	-0,007
-335,518	84,804	0,075	-0,060
-334,504	-14,896	0,072	0,033
-333,489	48,085	0,144	-0,098
-332,475	10,975	-0,049	0,027
-331,460	-188,077	-0,059	0,001
-330,445	-200,000	0,010	-0,056
-329,431	-200,000	0,021	-0,085
-328,416	81,461	0,118	-0,092
-327,402	-48,969	0,042	-0,015
-326,387	-71,310	0,080	0,022
-325,372	-200,000	-0,016	-0,082
-324,358	-200,000	0,009	0,033
-323,343	63,629	-0,134	-0,098
-322,329	127,892	-0,051	0,047
-321,314	-60,931	0,020	0,006
-320,299	-19,672	0,029	-0,013
-319,285	800,000	0,006	0,014
-318,270	-200,000	0,018	-0,092
-317,256	29,948	-0,069	-0,043
-316,241	-5,910	0,051	0,025
-315,226	219,887	0,037	0,043
-314,212	-79,762	-0,115	0,028
-313,197	800,000	-0,039	-0,099
-312,183	-18,009	-0,070	0,032
-311,168	36,217	-0,069	-0,044
-310,153	286,135	-0,077	-0,101
-309,139	-103,839	0,105	0,018
-308,124	-73,043	0,189	-0,050
-307,110	497,580	0,039	-0,065
-306,095	530,223	0,035	-0,061
-305,080	4,643	-0,090	-0,048
-304,066	-58,203	0,114	0,036
-303,051	220,937	0,017	0,019
-302,037	-166,145	-0,117	-0,004
-301,022	-200,000	0,017	0,169
-300,008	800,000	0,009	0,022
-298,993	-200,000	0,054	0,178
-297,978	800,000	0,026	0,078
-296,964	-46,743	-0,008	0,003
-295,949	209,817	-0,050	-0,057
-294,935	16,699	0,121	0,069
-293,920	-200,000	-0,004	-0,065
-292,905	-157,320	-0,083	-0,004
-291,891	-200,000	-0,010	-0,041
-290,876	172,315	0,075	0,079
-289,862	53,536	-0,015	-0,010
-288,847	800,000	0,032	-0,085
-287,832	-126,487	0,033	-0,004
-286,818	800,000	-0,029	-0,079
-285,803	-49,383	-0,081	-0,028
-284,789	-102,736	0,135	0,023
-283,774	-16,469	-0,017	-0,008
-282,759	-200,000	-0,021	-0,074
-281,745	633,651	0,047	-0,086
-280,730	-200,000	0,024	-0,171
-279,716	79,883	-0,097	0,076
-278,701	800,000	-0,021	0,065
-277,686	800,000	0,097	0,197
-276,672	242,592	0,008	0,010
-275,657	-200,000	-0,029	-0,103
-274,643	9,275	0,092	0,050
-273,628	188,207	-0,110	0,119
-272,613	-200,000	0,004	-0,032
-271,599	800,000	-0,042	0,097
-270,584	-128,452	0,120	-0,012
-269,570	-200,000	-0,028	0,129
-268,555	-200,000	0,008	0,035
-267,540	-60,098	0,032	0,010
-266,526	-200,000	-0,023	-0,131
-265,511	686,152	-0,028	-0,053
-264,497	-200,000	0,042	0,140
-263,482	-107,885	0,101	0,016
-262,467	252,234	0,027	0,033
-261,453	-32,102	-0,129	0,052
-260,438	-200,000	-0,019	-0,071
-259,424	-139,422	-0,112	-0,009
-258,409	-108,803	-0,011	0,002
-257,395	800,000	0,043	-0,113
-256,380	-200,000	0,014	0,173
-255,365	272,305	0,098	0,125
-254,351	800,000	0,034	0,077
-253,336	590,499	-0,019	0,034
-252,322	-26,596	-0,109	0,046
-251,307	-62,530	-0,040	0,012
-250,292	101,306	-0,092	-0,078
-249,278	95,809	0,073	0,061
-248,263	99,056	0,111	0,093
-247,249	-109,705	0,130	-0,020
-246,234	-8,599	0,039	0,019
-245,219	-200,000	-0,019	-0,185
-244,205	196,175	-0,074	-0,082
-243,190	-111,052	-0,092	0,014
-242,176	-4,565	0,037	-0,018
-241,161	-200,000	-0,019	0,064
-240,146	338,012	-0,003	-0,005
-239,132	-200,000	0,022	-0,117
-238,117	70,658	-0,098	-0,073
-237,103	-200,000	0,004	-0,028
-236,088	800,000	-0,046	0,094
-235,073	800,000	-0,032	-0,081
-234,059	-56,200	0,125	0,040
-233,044	-200,000	0,016	-0,074
-232,030	175,947	-0,067	-0,071
-231,015	63,019	0,029	-0,021
-230,000	-84,769	0,119	0,027
-228,986	800,000	-0,022	0,064
-227,971	83,201	-0,049	0,038
-226,957	-85,659	0,033	0,007
-225,942	-10,494	0,108	-0,051
-224,927	-91,382	-0,086	0,018
-223,913	800,000	-0,028	-0,067
-222,898	800,000	-0,013	0,033
-221,884	540,173	-0,125	-0,217
-220,869	243,651	0,140	0,170
-219,855	47,779	0,055	0,037
-218,840	502,251	0,035	-0,058
-217,825	9,389	-0,178	-0,097
-216,811	-200,000	-0,007	-0,131
-215,796	-146,711	0,046	0,003
-214,782	800,000	0,019	-0,043
-213,767	104,462	-0,073	0,062
-212,752	-9,055	0,113	0,055
-211,738	-200,000	0,033	0,157
-210,723	5,625	-0,065	-0,035
-209,709	348,366	-0,057	-0,082
-208,694	-200,000	0,002	-0,011
-207,679	-118,080	0,136	-0,017
-206,665	67,057	-0,070	0,051
-205,650	-200,000	-0,016	0,071
-204,636	356,314	0,056	0,080
-203,621	-23,271	0,102	-0,044
-202,606	800,000	-0,021	0,047
-201,592	-139,126	-0,201	-0,015
-200,577	173,632	-0,096	-0,100
-199,563	28,358	-0,095	-0,058
-198,548	-136,665	0,053	-0,004
-197,533	800,000	0,043	0,136
-196,519	-81,448	0,155	0,037
-195,504	-1,067	0,109	0,056
-194,490	67,683	-0,097	0,072
-193,475	-30,180	0,035	0,014
-192,460	129,637	-0,077	-0,071
-191,446	301,911	0,066	0,088
-190,431	88,034	0,063	0,051
-189,417	-41,283	-0,080	-0,029
-188,402	242,688	-0,067	0,081
-187,387	49,566	0,078	-0,053
-186,373	-51,042	-0,033	0,011
-185,358	-102,045	-0,147	0,025
-184,344	-200,000	-0,018	-0,093
-183,329	800,000	0,031	0,078
-182,315	-81,484	0,026	0,006
-181,300	-26,699	0,132	0,056
-180,285	800,000	0,055	0,111
-179,271	800,000	0,036	-0,085
-178,256	-42,574	0,072	0,026
-177,242	-200,000	-0,004	0,027
-176,227	-200,000	-0,047	0,177
-175,212	-200,000	0,044	0,162
-174,198	-31,640	-0,067	0,027
-173,183	-183,434	-0,071	-0,001
-172,169	-114,437	-0,041	0,006
-171,154	-200,000	0,001	-0,051
-170,139	-200,000	-0,005	-0,035
-169,125	-86,317	0,091	-0,020
-168,110	-96,008	0,076	0,015
-167,096	-9,754	-0,062	0,030
-166,081	40,976	0,063	0,041
-165,066	800,000	0,006	0,013
-164,052	-200,000	-0,030	-0,118
-163,037	142,567	0,100	-0,096
-162,023	-200,000	-0,005	-0,046
-161,008	121,821	0,077	0,069
-159,993	20,609	0,081	0,047
-158,979	-16,965	-0,054	-0,025
-157,964	-200,000	-0,012	-0,099
-156,950	656,093	0,024	0,045
-155,935	800,000	0,017	0,043
-154,920	41,816	0,049	0,032
-153,906	800,000	-0,047	-0,121
-152,891	298,991	-0,073	0,097
-151,877	175,497	0,062	-0,065
-150,862	200,751	-0,065	-0,072
-149,847	-104,910	-0,027	0,004
-148,833	-166,519	-0,154	0,005
-147,818	-117,150	0,074	0,010
-146,804	22,482	0,076	-0,045
-145,789	-172,299	0,132	0,003
-144,775	-101,580	-0,143	-0,025
-143,760	-51,745	-0,088	0,029
-142,745	-200,000	0,002	-0,080
-141,731	86,058	0,088	-0,070
-140,716	-200,000	0,025	0,081
-139,702	34,283	0,025	-0,016
-138,687	-95,915	-0,031	0,006
-137,672	-96,690	-0,049	-0,009
-136,658	-200,000	-0,000	-0,060
-135,643	796,452	-0,036	-0,073
-134,629	-200,000	0,003	-0,119
-133,614	-97,578	0,084	0,016
-132,599	583,283	-0,015	-0,027
-131,585	800,000	-0,052	0,106
-130,570	800,000	-0,034	0,096
-129,556	102,046	-0,062	-0,052
-128,541	-200,000	-0,003	0,020
-127,526	200,268	0,054	-0,060
-126,512	558,143	0,077	-0,134
-125,497	-200,000	0,020	0,099
-124,483	-200,000	-0,022	0,082
-123,468	523,238	0,078	-0,132
-122,453	-200,000	0,000	0,096
-121,439	-200,000	0,011	0,093
-120,424	-4,875	0,036	0,018
-119,410	-200,000	-0,006	0,021
