DTS Sentinel unit serial number:	SN410029Multiplexer serial number:	ORYXHardware model number:	OX2-SRSoftware version number:	ORYX F/W v4,00 Oryx Data Collector v3.7.2.0data status	okinstallation	B5 Nyhavnadifferential loss correction	single-endedforward channel	channel 2reverse channel	N/Adate	2023/12/12time	23:22:13forward acquisition time	300,00reverse acquisition time	0,00gamma	499,1914k internal	0,3158k external	0,3158temperature offset calibration	1,0000default loss term (dB/km)	0,3820temperature slope calibration	1,0000multiplexer offset coefficient	1,0000multiplexer slope coefficient	1,0000fibre end	0,00T internal ref (°C)	14,47T ext. ref 1 (°C)	-2,05T ext. ref 2 (°C)	-2,35length (m)	temperature (°C)	Stokes	anti-Stokes-744,400	-38,874	0,037	-0,014
-743,385	-32,979	-0,214	-0,087
-742,371	249,787	0,076	0,096
-741,356	-91,921	-0,201	0,042
-740,342	-15,708	0,122	0,057
-739,327	-133,530	-0,240	0,022
-738,312	162,147	0,039	0,040
-737,298	-111,667	-0,256	0,038
-736,283	61,743	0,102	0,075
-735,269	-25,487	-0,269	0,117
-734,254	150,740	0,105	0,105
-733,239	-19,308	-0,402	-0,183
-732,225	72,934	0,194	0,149
-731,210	-200,000	-0,037	0,156
-730,196	-11,868	-0,102	0,049
-729,181	-200,000	0,013	-0,048
-728,167	393,792	0,003	-0,005
-727,152	-200,000	0,017	0,095
-726,137	578,275	-0,032	-0,059
-725,123	-49,029	-0,037	-0,013
-724,108	35,265	-0,080	0,052
-723,094	-21,105	-0,198	-0,089
-722,079	-200,000	-0,002	-0,044
-721,064	223,646	-0,053	0,063
-720,050	-13,084	0,082	0,039
-719,035	-167,239	-0,062	-0,002
-718,021	-101,983	-0,123	-0,022
-717,006	29,411	0,092	0,058
-715,991	-120,885	-0,181	0,022
-714,977	39,137	0,087	-0,057
-713,962	-3,216	0,019	0,010
-712,948	-110,324	0,053	0,008
-711,933	-28,553	-0,168	-0,071
-710,918	-111,269	0,056	-0,008
-709,904	-200,000	0,017	0,081
-708,889	-200,000	-0,008	-0,043
-707,875	685,435	-0,025	-0,049
-706,860	29,414	-0,071	0,044
-705,845	-116,620	0,062	-0,008
-704,831	-45,016	0,083	0,030
-703,816	136,840	0,130	0,125
-702,802	37,780	-0,068	-0,044
-701,787	162,567	-0,052	-0,053
-700,772	-69,825	-0,010	-0,003
-699,758	-3,395	-0,045	-0,023
-698,743	36,277	0,069	0,045
-697,729	574,207	-0,080	0,144
-696,714	56,614	-0,083	0,059
-695,699	-60,386	0,066	-0,021
-694,685	36,194	-0,045	-0,029
-693,670	-145,963	-0,103	0,007
-692,656	80,781	0,108	-0,085
-691,641	272,917	0,068	-0,088
-690,627	276,037	0,105	0,137
-689,612	60,711	-0,124	-0,090
-688,597	8,666	0,120	0,067
-687,583	730,235	-0,005	0,009
-686,568	800,000	0,030	0,068
-685,554	-100,478	0,083	0,015
-684,539	800,000	0,028	-0,064
-683,524	-178,262	0,096	-0,002
-682,510	556,637	-0,063	-0,112
-681,495	-200,000	-0,004	-0,041
-680,481	-144,663	-0,066	-0,004
-679,466	-59,116	-0,147	-0,046
-678,451	-197,582	0,040	-0,000
-677,437	-130,710	0,027	-0,003
-676,422	320,375	-0,073	-0,103
-675,408	-126,300	-0,164	-0,018
-674,393	-24,725	0,092	0,040
-673,378	187,997	0,053	0,059
-672,364	85,820	-0,027	-0,022
-671,349	-25,965	0,051	-0,022
-670,335	-200,000	0,020	0,125
-669,320	77,360	0,136	0,106
-668,305	274,663	-0,028	0,037
-667,291	465,508	0,029	0,048
-666,276	-200,000	0,020	-0,156
-665,262	665,646	-0,103	-0,196
-664,247	56,460	-0,048	-0,034
-663,232	-4,752	0,095	0,048
-662,218	-119,208	0,075	-0,009
-661,203	146,744	0,045	0,044
-660,189	214,560	0,082	0,095
-659,174	46,303	-0,114	-0,078
-658,159	-115,830	-0,101	-0,014
-657,145	127,389	-0,119	-0,111
-656,130	248,725	0,027	-0,033
-655,116	-0,365	-0,045	-0,023
-654,101	279,935	0,087	0,114
-653,086	-74,116	0,094	0,025
-652,072	115,039	-0,026	-0,023
-651,057	-84,210	-0,038	0,009
-650,043	800,000	0,033	-0,096
-649,028	130,530	0,090	-0,085
-648,014	-200,000	-0,006	0,099
-646,999	800,000	-0,047	-0,106
-645,984	-6,589	0,045	-0,023
-644,970	102,681	-0,121	-0,104
-643,955	-49,716	-0,132	0,046
-642,941	88,638	0,076	-0,062
-641,926	691,452	0,044	-0,085
-640,911	-200,000	0,005	0,164
-639,897	98,878	0,069	-0,059
-638,882	-200,000	0,025	-0,099
-637,868	-34,763	-0,076	-0,030
-636,853	800,000	-0,027	-0,081
-635,838	-52,053	-0,119	-0,040
-634,824	-200,000	0,031	-0,113
-633,809	-107,415	-0,147	0,023
-632,795	800,000	0,045	-0,093
-631,780	24,307	0,085	0,051
-630,765	-67,800	-0,090	-0,026
-629,751	195,062	0,048	-0,053
-628,736	-200,000	-0,020	-0,271
-627,722	371,913	0,055	-0,082
-626,707	329,853	-0,042	-0,059
-625,692	-83,324	0,102	0,024
-624,678	-30,377	0,184	0,076
-623,663	-200,000	0,015	0,049
-622,649	163,956	-0,070	0,072
-621,634	-87,730	-0,104	0,023
-620,619	218,059	0,020	-0,024
-619,605	800,000	0,003	0,007
-618,590	467,613	-0,088	0,145
-617,576	-7,753	0,064	-0,031
-616,561	-200,000	-0,007	0,030
-615,546	84,261	-0,024	0,019
-614,532	800,000	-0,024	0,059
-613,517	-200,000	-0,002	0,023
-612,503	-200,000	0,007	0,041
-611,488	-200,000	-0,020	-0,089
-610,474	216,156	0,039	-0,045
-609,459	-200,000	0,010	0,091
-608,444	18,675	-0,084	-0,049
-607,430	-134,276	0,063	-0,006
-606,415	-145,743	0,171	0,011
-605,401	-37,621	0,066	0,026
-604,386	58,178	-0,042	0,030
-603,371	-108,331	0,040	0,006
-602,357	-168,657	0,079	-0,002
-601,342	92,513	-0,068	-0,056
-600,328	-19,228	-0,112	-0,051
-599,313	-95,005	-0,081	0,016
-598,298	-200,000	0,013	-0,072
-597,284	30,436	0,152	0,095
-596,269	107,230	-0,012	-0,010
-595,255	-92,317	0,039	-0,008
-594,240	-200,000	0,007	-0,058
-593,225	94,807	0,029	0,024
-592,211	-200,000	-0,059	-0,224
-591,196	-200,000	-0,014	-0,062
-590,182	-14,143	-0,037	-0,017
-589,167	-37,751	0,103	-0,040
-588,152	13,038	0,102	-0,057
-587,138	-3,083	0,092	0,047
-586,123	33,025	-0,074	0,047
-585,109	97,014	0,097	-0,081
-584,094	-86,581	0,143	-0,032
-583,079	-200,000	0,035	0,164
-582,065	22,879	0,104	-0,062
-581,050	114,079	-0,058	0,052
-580,036	490,228	-0,040	-0,067
-579,021	87,378	-0,079	-0,064
-578,006	-99,474	0,041	-0,007
-576,992	-13,690	-0,076	-0,036
-575,977	17,046	0,044	0,025
-574,963	-200,000	0,002	0,070
-573,948	6,873	0,157	-0,085
-572,934	-200,000	-0,001	0,036
-571,919	29,976	-0,027	0,017
-570,904	-80,635	-0,131	0,032
-569,890	800,000	-0,023	-0,074
-568,875	99,276	-0,048	0,041
-567,861	-1,449	-0,051	0,026
-566,846	574,574	0,039	0,069
-565,831	-200,000	-0,019	-0,107
-564,817	17,933	-0,083	0,048
-563,802	27,921	0,087	-0,053
-562,788	205,305	0,034	-0,039
-561,773	-125,259	-0,085	0,009
-560,758	108,419	-0,110	0,096
-559,744	-200,000	-0,038	0,127
-558,729	-96,177	-0,106	-0,020
-557,715	-200,000	0,010	-0,053
-556,700	-200,000	-0,023	-0,122
-555,685	-200,000	-0,013	-0,055
-554,671	-36,921	0,076	0,030
-553,656	502,414	0,032	0,054
-552,642	10,311	-0,032	-0,018
-551,627	-200,000	-0,009	-0,046
-550,612	78,117	0,007	-0,005
-549,598	-200,000	0,010	0,125
-548,583	654,187	0,035	0,066
-547,569	800,000	0,059	-0,131
-546,554	-48,533	0,146	-0,051
-545,539	800,000	0,047	-0,103
-544,525	-200,000	0,013	0,098
-543,510	-109,988	-0,050	0,008
-542,496	-200,000	0,031	-0,156
-541,481	-49,408	0,045	-0,016
-540,466	546,815	-0,025	0,043
-539,452	-55,581	-0,102	0,033
-538,437	156,597	-0,061	0,062
-537,423	-111,315	0,080	0,012
-536,408	398,134	-0,044	-0,067
-535,393	-5,862	-0,132	-0,066
-534,379	112,568	-0,133	-0,118
-533,364	800,000	-0,023	-0,050
-532,350	-122,373	0,084	0,010
-531,335	153,269	-0,088	0,088
-530,321	535,122	0,083	0,144
-529,306	-200,000	-0,036	0,197
-528,291	-145,221	-0,068	0,004
-527,277	333,269	-0,039	0,055
-526,262	6,132	-0,071	-0,038
-525,248	-8,205	-0,040	-0,019
-524,233	-22,034	0,097	0,043
-523,218	800,000	0,032	-0,073
-522,204	249,390	0,043	0,053
-521,189	114,927	-0,059	0,052
-520,175	-200,000	0,007	0,064
-519,160	304,546	-0,049	-0,067
-518,145	-98,664	0,165	0,030
-517,131	-200,000	-0,035	-0,170
-516,116	-200,000	0,002	-0,025
-515,102	-3,878	0,093	0,047
-514,087	364,790	-0,047	-0,069
-513,072	-118,856	-0,063	-0,008
-512,058	-54,373	0,068	0,022
-511,043	800,000	-0,035	-0,075
-510,029	-33,130	-0,044	0,018
-509,014	-38,020	0,084	0,033
-507,999	231,902	-0,069	0,083
-506,985	-200,000	-0,003	0,098
-505,970	123,133	0,130	-0,119
-504,956	516,672	-0,025	0,043
-503,941	800,000	-0,033	-0,078
-502,926	-79,372	0,040	0,010
-501,912	800,000	-0,065	-0,153
-500,897	-39,275	-0,123	-0,047
-499,883	154,517	-0,107	-0,107
-498,868	785,916	-0,008	0,016
-497,853	100,535	-0,051	0,043
-496,839	172,091	0,156	-0,164
-495,824	-200,000	0,005	-0,049
-494,810	-21,810	0,106	-0,047
-493,795	133,219	0,073	-0,069
-492,781	103,458	-0,058	-0,050
-491,766	-200,000	0,025	-0,117
-490,751	258,071	0,027	-0,034
-489,737	-63,620	-0,090	-0,027
-488,722	48,966	0,023	-0,016
-487,708	226,502	0,008	-0,009
-486,693	-200,000	-0,041	-0,149
-485,678	-200,000	-0,006	-0,034
-484,664	74,976	0,044	-0,034
-483,649	656,755	0,018	0,033
-482,635	34,027	-0,065	-0,041
-481,620	-168,820	0,159	-0,004
-480,605	-200,000	-0,019	0,063
-479,591	154,682	-0,011	-0,011
-478,576	147,564	0,032	-0,032
-477,562	-200,000	0,006	-0,128
-476,547	-7,972	0,105	-0,052
-475,532	-87,177	-0,065	0,014
-474,518	-200,000	-0,023	0,086
-473,503	-146,930	0,085	0,005
-472,489	-200,000	0,004	0,045
-471,474	137,365	0,112	-0,107
-470,459	59,644	-0,090	-0,065
-469,445	-65,649	0,144	0,042
-468,430	-140,236	-0,082	0,006
-467,416	601,521	-0,057	0,104
-466,401	-200,000	-0,010	0,037
-465,386	23,091	0,087	0,052
-464,372	-200,000	-0,030	0,114
-463,357	229,665	-0,071	0,084
-462,343	22,770	0,098	-0,058
-461,328	25,893	-0,057	0,034
-460,313	-50,771	0,089	0,030
-459,299	-200,000	0,018	-0,063
-458,284	-32,553	0,037	0,015
-457,270	-200,000	-0,036	0,125
-456,255	-200,000	-0,003	-0,051
-455,241	52,407	0,062	-0,043
-454,226	663,776	-0,022	-0,042
-453,211	-88,771	0,142	0,030
-452,197	285,567	0,050	0,066
-451,182	-200,000	-0,009	0,028
-450,168	195,516	-0,067	0,075
-449,153	-98,411	0,141	0,026
-448,138	55,746	-0,075	0,053
-447,124	-54,768	-0,090	-0,029
-446,109	-109,606	0,049	0,007
-445,095	-64,155	0,116	0,034
-444,080	156,781	-0,058	0,059
-443,065	-200,000	0,004	-0,075
-442,051	156,022	-0,040	0,041
-441,036	307,187	-0,053	-0,072
-440,022	12,550	-0,012	-0,006
-439,007	-105,030	0,076	0,013
-437,992	800,000	-0,046	-0,133
-436,978	-200,000	-0,022	-0,193
-435,963	800,000	0,022	-0,047
-434,949	-50,581	0,118	-0,040
-433,934	44,562	-0,021	-0,014
-432,919	-200,000	-0,006	-0,095
-431,905	-94,622	0,145	0,028
-430,890	-200,000	0,027	-0,117
-429,876	59,365	0,143	0,103
-428,861	-6,437	0,060	0,030
-427,846	94,097	-0,050	-0,041
-426,832	26,072	-0,104	0,063
-425,817	33,157	-0,096	0,061
-424,803	800,000	-0,046	-0,137
-423,788	760,036	0,030	0,060
-422,773	348,549	-0,039	-0,057
-421,759	391,820	-0,018	0,028
-420,744	-55,526	0,046	0,015
-419,730	15,383	-0,198	-0,113
-418,715	-20,419	0,091	0,040
-417,701	53,848	-0,075	-0,052
-416,686	-41,748	0,016	0,006
-415,671	89,183	-0,029	0,024
-414,657	-200,000	-0,016	-0,069
-413,642	363,346	0,127	0,187
-412,628	346,267	-0,049	0,071
-411,613	330,409	0,045	-0,063
-410,598	-200,000	0,019	-0,089
-409,584	755,952	-0,044	-0,088
-408,569	-16,833	0,067	0,031
-407,555	317,231	0,098	0,135
-406,540	378,940	-0,056	0,084
-405,525	-47,026	-0,089	0,031
-404,511	24,374	-0,067	0,040
-403,496	41,900	-0,032	-0,021
-402,482	800,000	0,062	0,164
-401,467	-9,485	-0,010	-0,005
-400,452	-8,639	0,069	-0,034
-399,438	-200,000	-0,010	0,057
-398,423	-200,000	-0,023	0,000
-397,409	-200,000	-0,010	-0,061
-396,394	-200,000	0,003	0,077
-395,379	-12,375	0,075	-0,036
-394,365	342,083	-0,006	-0,009
-393,350	800,000	-0,062	0,132
-392,336	26,956	0,058	-0,035
-391,321	-182,552	0,042	-0,001
-390,306	800,000	-0,044	-0,133
-389,292	280,702	-0,056	-0,072
-388,277	679,050	0,055	-0,104
-387,263	236,704	-0,070	0,085
-386,248	800,000	-0,095	0,237
-385,233	-20,439	0,068	-0,030
-384,219	-200,000	0,018	0,115
-383,204	480,511	-0,034	-0,056
-382,190	157,367	-0,022	-0,022
-381,175	-200,000	-0,003	-0,091
-380,160	-150,893	0,057	-0,003
-379,146	-200,000	0,004	0,096
-378,131	193,628	0,040	0,044
-377,117	-64,378	-0,188	0,055
-376,102	73,132	0,035	0,026
-375,088	-200,000	0,000	0,061
-374,073	210,129	0,046	0,053
-373,058	-200,000	0,008	-0,076
-372,044	-54,636	-0,126	-0,041
-371,029	800,000	0,088	0,181
-370,015	-200,000	0,017	0,108
-369,000	0,525	-0,034	0,017
-367,985	65,652	0,132	0,097
-366,971	466,457	0,097	-0,159
-365,956	40,259	0,073	-0,048
-364,942	-200,000	0,040	0,215
-363,927	-200,000	0,031	0,208
-362,912	-67,961	0,047	-0,013
-361,898	-200,000	0,035	0,157
-360,883	-128,151	-0,102	-0,010
-359,869	-200,000	-0,009	0,055
-358,854	-36,681	-0,076	0,029
-357,839	-200,000	-0,005	-0,065
-356,825	-139,306	0,021	-0,002
-355,810	-81,701	0,070	0,016
-354,796	82,314	0,055	-0,043
-353,781	361,217	-0,044	0,065
-352,766	352,120	-0,018	0,026
-351,752	-14,697	-0,037	-0,017
-350,737	-200,000	-0,002	0,017
-349,723	-168,053	0,030	-0,001
-348,708	-24,814	-0,115	-0,050
-347,693	84,503	0,071	0,056
-346,679	-56,205	-0,096	0,031
-345,664	-19,830	-0,115	0,051
-344,650	297,115	-0,033	0,044
-343,635	29,369	0,056	0,035
-342,620	-200,000	-0,006	-0,164
-341,606	79,298	-0,029	0,023
-340,591	800,000	-0,062	0,137
-339,577	132,617	-0,049	0,046
-338,562	-200,000	-0,020	-0,117
-337,548	227,161	-0,133	-0,157
-336,533	442,137	-0,042	0,067
-335,518	-91,780	0,073	-0,015
-334,504	-200,000	-0,009	-0,049
-333,489	-17,233	0,088	-0,040
-332,475	-200,000	-0,002	-0,065
-331,460	9,503	-0,076	-0,042
-330,445	194,394	0,037	0,041
-329,431	-200,000	-0,013	0,058
-328,416	94,537	0,017	-0,014
-327,402	-200,000	-0,001	-0,103
-326,387	-200,000	0,003	-0,078
-325,372	-200,000	0,005	-0,072
-324,358	51,757	-0,095	0,066
-323,343	-63,267	0,076	-0,022
-322,329	-200,000	0,025	0,139
-321,314	58,624	-0,039	-0,028
-320,299	-34,124	-0,133	0,053
-319,285	61,122	-0,042	0,030
-318,270	800,000	0,009	-0,028
-317,256	-102,376	0,113	-0,020
-316,241	40,912	-0,053	0,035
-315,226	-176,618	0,034	-0,001
-314,212	277,253	0,039	0,051
-313,197	103,997	-0,180	0,153
-312,183	-53,033	0,053	0,018
-311,168	122,993	0,076	-0,069
-310,153	144,688	-0,073	0,071
-309,139	329,386	0,057	0,080
-308,124	800,000	-0,044	0,109
-307,110	-200,000	0,004	0,016
-306,095	-200,000	-0,034	0,191
-305,080	-117,542	-0,119	0,015
-304,066	-200,000	0,002	-0,105
-303,051	172,198	0,027	0,028
-302,037	-200,000	-0,011	-0,040
-301,022	634,944	0,062	-0,114
-300,008	-123,214	-0,041	-0,005
-298,993	-200,000	0,005	0,199
-297,978	751,159	0,030	-0,059
-296,964	141,593	0,108	0,104
-295,949	-200,000	0,025	0,087
-294,935	-51,107	-0,030	-0,010
-293,920	-106,219	0,076	0,012
-292,905	-200,000	-0,006	0,142
-291,891	150,011	0,075	-0,074
-290,876	141,392	0,077	0,074
-289,862	-200,000	0,002	0,010
-288,847	50,238	-0,047	-0,032
-287,832	-170,773	-0,044	-0,001
-286,818	-74,443	0,099	-0,026
-285,803	207,869	-0,086	0,097
-284,789	274,270	0,027	-0,035
-283,774	-73,967	-0,072	0,019
-282,759	508,701	0,045	0,076
-281,745	374,937	-0,059	0,087
-280,730	140,620	-0,118	-0,113
-279,716	547,785	-0,058	0,101
-278,701	350,154	-0,042	-0,060
-277,686	-17,680	0,098	-0,045
-276,672	-129,391	-0,026	-0,003
-275,657	49,064	0,110	0,075
-274,643	-8,203	0,135	0,065
-273,628	-86,547	0,121	-0,027
-272,613	-153,767	0,098	0,005
-271,599	-112,189	0,104	-0,015
-270,584	190,589	0,034	0,037
-269,570	70,476	0,071	-0,053
-268,555	800,000	-0,019	-0,051
-267,540	-54,564	0,088	0,029
-266,526	-200,000	0,003	-0,122
-265,511	1,899	-0,125	-0,065
-264,497	13,954	0,016	-0,009
-263,482	-58,482	0,109	0,034
-262,467	-200,000	-0,014	0,053
-261,453	-200,000	0,002	0,114
-260,438	800,000	0,041	-0,104
-259,424	294,514	-0,070	0,093
-258,409	-162,963	-0,090	-0,003
-257,395	109,907	0,055	0,048
-256,380	144,973	0,044	0,043
-255,365	234,288	0,045	-0,054
-254,351	-200,000	0,000	-0,113
-253,336	-130,402	0,042	-0,004
-252,322	-51,930	-0,276	-0,092
-251,307	-194,705	0,177	-0,001
-250,292	-200,000	0,039	-0,157
-249,278	4,382	0,078	0,041
-248,263	48,022	-0,065	0,044
-247,249	-74,982	0,084	0,022
-246,234	800,000	0,073	0,170
-245,219	279,511	0,060	-0,078
-244,205	-21,744	-0,111	-0,049
-243,190	-200,000	-0,006	0,022
-242,176	169,072	0,080	0,082
-241,161	-169,858	-0,149	0,004
-240,146	-36,190	-0,079	0,030
-239,132	454,928	0,038	0,061
-238,117	-42,830	0,044	-0,016
-237,103	198,557	-0,102	0,113
-236,088	-41,066	-0,095	-0,035
-235,073	262,013	0,017	-0,021
-234,059	-53,538	0,073	0,024
-233,044	23,553	-0,023	-0,013
-232,030	56,957	-0,048	0,034
-231,015	-149,749	-0,041	-0,002
-230,000	3,198	-0,104	-0,054
-228,986	249,893	-0,069	0,084
-227,971	317,461	0,046	0,063
-226,957	88,090	0,122	0,098
-225,942	241,641	0,067	-0,081
-224,927	218,713	0,043	-0,050
-223,913	-52,306	-0,186	-0,062
-222,898	51,187	-0,092	0,063
-221,884	5,672	-0,146	-0,077
-220,869	-200,000	-0,003	0,044
-219,855	-117,960	-0,056	-0,007
-218,840	-160,281	-0,023	-0,001
-217,825	800,000	-0,048	-0,130
-216,811	-175,757	-0,074	0,001
-215,796	446,313	-0,065	0,103
-214,782	464,804	0,073	0,118
-213,767	245,799	-0,089	-0,108
-212,752	-83,822	0,102	0,023
-211,738	800,000	-0,015	0,035
-210,723	48,053	-0,045	-0,030
-209,709	-200,000	0,020	-0,179
-208,694	-200,000	0,002	0,038
-207,679	241,406	-0,133	0,161
-206,665	-200,000	-0,026	0,113
-205,650	-50,257	-0,098	-0,033
-204,636	-200,000	0,032	-0,104
-203,621	800,000	0,044	-0,132
-202,606	128,994	-0,064	-0,059
-201,592	32,581	-0,081	-0,051
-200,577	-106,347	0,081	0,013
-199,563	125,567	-0,074	-0,067
-198,548	-200,000	0,002	-0,034
-197,533	483,152	0,097	0,160
-196,519	-200,000	0,015	0,169
-195,504	-38,202	-0,090	-0,034
-194,490	206,531	-0,034	-0,039
-193,475	-200,000	0,004	-0,110
-192,460	-87,007	-0,111	-0,024
-191,446	-166,970	0,136	0,004
-190,431	-87,291	-0,117	0,025
-189,417	110,411	0,107	0,093
-188,402	-29,051	-0,014	0,006
-187,387	-200,000	-0,021	0,138
-186,373	800,000	-0,008	-0,020
-185,358	450,190	-0,051	0,081
-184,344	-200,000	0,005	0,020
-183,329	-200,000	0,026	-0,114
-182,315	-124,839	-0,063	0,007
-181,300	-26,682	-0,110	-0,046
-180,285	39,889	0,049	-0,032
-179,271	-99,259	-0,052	-0,009
-178,256	164,473	0,056	-0,057
-177,242	-137,308	-0,007	0,001
-176,227	-156,750	0,158	-0,007
-175,212	79,335	-0,102	0,079
-174,198	-66,782	-0,007	-0,002
-173,183	-125,089	-0,014	0,002
-172,169	-200,000	0,008	0,057
-171,154	134,545	-0,013	-0,012
-170,139	254,650	0,038	0,047
-169,125	-106,241	0,117	-0,019
-168,110	-200,000	-0,037	0,154
-167,096	66,008	-0,065	0,048
-166,081	-200,000	0,052	-0,179
-165,066	-182,924	-0,083	-0,001
-164,052	116,794	0,064	-0,057
-163,037	14,702	-0,020	0,011
-162,023	234,858	0,066	-0,078
-161,008	95,672	0,050	0,042
-159,993	-199,298	0,088	-0,000
-158,979	99,521	-0,048	-0,040
-157,964	464,418	0,026	0,043
-156,950	227,767	0,003	-0,004
-155,935	-200,000	-0,007	-0,073
-154,920	800,000	0,021	0,063
-153,906	-82,544	-0,015	-0,003
-152,891	800,000	-0,046	-0,118
-151,877	800,000	-0,020	0,055
-150,862	-42,766	-0,119	-0,043
-149,847	213,287	-0,012	0,013
-148,833	800,000	0,040	-0,103
-147,818	-106,895	0,115	-0,018
-146,804	403,056	-0,070	0,107
-145,789	-33,323	-0,039	-0,016
-144,775	-200,000	-0,010	0,098
-143,760	-200,000	-0,006	0,028
-142,745	-66,136	0,075	0,021
-141,731	-103,677	0,080	-0,013
-140,716	-80,284	-0,180	0,043
-139,702	-105,240	-0,018	0,003
-138,687	-139,757	0,184	-0,014
-137,672	-86,714	-0,087	-0,019
-136,658	-200,000	0,020	-0,162
-135,643	483,565	-0,062	0,102
-134,629	-8,453	-0,059	0,029
-133,614	339,530	0,050	0,071
-132,599	800,000	0,028	0,073
-131,585	-81,228	0,055	-0,013
-130,570	-200,000	-0,006	0,068
-129,556	800,000	-0,042	-0,124
-128,541	-200,000	0,031	-0,105
-127,526	-200,000	0,022	-0,074
-126,512	-200,000	-0,026	-0,111
-125,497	270,417	0,097	0,123
-124,483	139,795	0,066	0,062
-123,468	-68,604	0,086	-0,024
-122,453	119,097	-0,057	-0,051
-121,439	-114,881	0,097	-0,013
-120,424	800,000	-0,050	-0,122
-119,410	92,400	0,045	0,036
-118,395	800,000	0,074	0,173
