DTS Sentinel unit serial number:	SN410029Multiplexer serial number:	ORYXHardware model number:	OX2-SRSoftware version number:	ORYX F/W v4,00 Oryx Data Collector v3.7.2.0data status	okinstallation	B5 Nyhavnadifferential loss correction	single-endedforward channel	channel 2reverse channel	N/Adate	2023/12/14time	11:27:13forward acquisition time	300,00reverse acquisition time	0,00gamma	499,1914k internal	0,3159k external	0,3159temperature offset calibration	1,0000default loss term (dB/km)	0,3820temperature slope calibration	1,0000multiplexer offset coefficient	1,0000multiplexer slope coefficient	1,0000fibre end	0,00T internal ref (°C)	7,40T ext. ref 1 (°C)	-8,02T ext. ref 2 (°C)	-8,05length (m)	temperature (°C)	Stokes	anti-Stokes-744,400	-200,000	0,033	0,192
-743,385	14,264	-0,381	-0,218
-742,371	119,849	0,167	0,152
-741,356	-49,898	-0,393	-0,137
-740,342	145,391	0,246	0,243
-739,327	-121,891	-0,493	-0,059
-738,312	277,285	0,135	0,177
-737,298	-122,191	-0,319	-0,038
-736,283	800,000	0,036	0,100
-735,269	-56,904	-0,219	0,071
-734,254	63,638	0,219	0,162
-733,239	-52,621	-0,629	-0,213
-732,225	50,857	0,169	0,118
-731,210	800,000	0,018	0,054
-730,196	275,409	-0,024	0,031
-729,181	132,760	-0,030	-0,028
-728,167	-131,086	-0,067	0,007
-727,152	396,199	-0,109	-0,168
-726,137	-198,636	-0,209	-0,001
-725,123	348,847	0,031	-0,046
-724,108	158,301	-0,090	-0,092
-723,094	-128,832	-0,080	-0,008
-722,079	800,000	-0,048	-0,127
-721,064	249,719	0,150	-0,187
-720,050	501,563	-0,013	-0,022
-719,035	800,000	-0,030	-0,095
-718,021	70,951	-0,146	-0,111
-717,006	-200,000	0,021	-0,082
-715,991	800,000	-0,038	-0,087
-714,977	800,000	-0,066	-0,143
-713,962	800,000	0,078	-0,207
-712,948	735,584	0,031	-0,061
-711,933	-75,818	-0,108	0,028
-710,918	-200,000	-0,014	0,074
-709,904	50,456	0,087	0,061
-708,889	490,893	0,093	-0,157
-707,875	-63,730	-0,084	0,025
-706,860	331,417	-0,019	0,027
-705,845	144,202	0,019	-0,018
-704,831	2,212	0,059	-0,031
-703,816	-56,521	-0,077	0,025
-702,802	23,855	-0,093	0,056
-701,787	-122,819	-0,085	-0,010
-700,772	800,000	-0,014	-0,042
-699,758	-200,000	-0,000	-0,056
-698,743	-174,740	-0,034	-0,001
-697,729	43,506	-0,022	-0,014
-696,714	332,084	0,086	-0,123
-695,699	289,911	0,059	-0,079
-694,685	309,438	0,025	-0,035
-693,670	594,609	-0,047	-0,085
-692,656	-200,000	0,015	0,088
-691,641	800,000	0,023	0,059
-690,627	308,580	0,049	0,067
-689,612	103,520	0,030	0,026
-688,597	31,517	0,033	-0,021
-687,583	37,009	-0,083	-0,054
-686,568	33,582	0,073	-0,046
-685,554	800,000	-0,019	-0,041
-684,539	-121,416	0,103	-0,012
-683,524	415,517	-0,075	0,117
-682,510	-119,258	-0,032	-0,004
-681,495	-91,874	-0,100	0,021
-680,481	292,065	0,061	-0,082
-679,466	-14,388	-0,056	-0,027
-678,451	-96,007	0,058	-0,011
-677,437	30,389	-0,105	-0,066
-676,422	-14,240	-0,117	0,055
-675,408	-200,000	0,025	0,122
-674,393	-200,000	-0,018	0,105
-673,378	93,890	-0,082	-0,069
-672,364	-3,642	0,054	0,028
-671,349	-200,000	-0,043	-0,167
-670,335	332,693	0,023	-0,033
-669,320	-200,000	0,012	0,060
-668,305	-183,782	-0,075	-0,001
-667,291	-160,046	-0,133	0,005
-666,276	265,882	-0,038	0,048
-665,262	224,481	-0,032	-0,038
-664,247	800,000	0,027	0,083
-663,232	-25,877	-0,115	-0,050
-662,218	800,000	-0,024	0,064
-661,203	-200,000	0,011	-0,068
-660,189	222,448	-0,018	0,021
-659,174	800,000	-0,011	-0,026
-658,159	-136,009	-0,045	0,004
-657,145	-200,000	-0,009	0,058
-656,130	271,949	0,113	-0,147
-655,116	102,419	-0,040	-0,034
-654,101	-200,000	-0,002	-0,154
-653,086	363,210	-0,053	0,079
-652,072	203,054	-0,056	-0,063
-651,057	57,730	-0,077	-0,055
-650,043	220,851	0,039	-0,046
-649,028	592,175	0,053	-0,096
-648,014	-200,000	-0,002	0,047
-646,999	-200,000	-0,001	0,042
-645,984	-200,000	-0,019	0,114
-644,970	154,490	-0,044	-0,044
-643,955	-200,000	0,051	-0,202
-642,941	80,932	0,045	0,035
-641,926	-200,000	-0,006	-0,114
-640,911	781,203	0,039	0,079
-639,897	-179,141	0,024	0,000
-638,882	-144,522	-0,035	-0,002
-637,868	-200,000	-0,031	-0,120
-636,853	-200,000	0,026	-0,154
-635,838	180,228	-0,069	0,074
-634,824	245,293	0,137	-0,169
-633,809	-200,000	-0,015	0,093
-632,795	-200,000	-0,008	-0,151
-631,780	800,000	-0,046	0,103
-630,765	-170,301	-0,112	0,003
-629,751	-98,489	-0,137	0,025
-628,736	800,000	-0,048	-0,114
-627,722	-200,000	-0,017	-0,095
-626,707	800,000	-0,035	0,080
-625,692	215,794	0,107	0,124
-624,678	350,428	-0,045	0,066
-623,663	-55,503	-0,052	0,017
-622,649	-200,000	-0,017	-0,171
-621,634	-135,974	-0,004	-0,000
-620,619	800,000	-0,042	-0,104
-619,605	-200,000	-0,022	-0,098
-618,590	316,186	-0,058	0,080
-617,576	96,083	0,055	-0,046
-616,561	-200,000	-0,006	-0,051
-615,546	-142,446	-0,220	0,016
-614,532	492,893	0,060	-0,101
-613,517	-4,033	0,059	0,030
-612,503	150,644	-0,065	0,065
-611,488	-200,000	-0,023	-0,157
-610,474	-200,000	0,042	0,152
-609,459	-151,205	0,069	-0,004
-608,444	133,539	-0,018	-0,017
-607,430	349,157	-0,032	0,047
-606,415	161,934	-0,205	0,210
-605,401	162,793	-0,031	0,032
-604,386	25,768	0,078	0,047
-603,371	800,000	-0,045	-0,091
-602,357	-76,311	0,079	-0,020
-601,342	-58,208	0,032	0,010
-600,328	16,912	0,068	0,040
-599,313	-62,427	0,095	0,029
-598,298	-81,967	-0,040	-0,009
-597,284	-38,132	0,163	0,063
-596,269	112,717	-0,089	0,079
-595,255	-149,939	-0,074	-0,004
-594,240	-42,785	-0,177	0,066
-593,225	-41,319	0,125	-0,047
-592,211	800,000	-0,026	-0,080
-591,196	800,000	-0,057	-0,134
-590,182	-200,000	-0,003	-0,087
-589,167	-1,700	0,061	-0,031
-588,152	67,757	0,030	-0,022
-587,138	-73,826	-0,047	0,012
-586,123	-178,216	-0,082	-0,001
-585,109	-28,788	-0,044	0,019
-584,094	-200,000	0,007	0,087
-583,079	606,844	0,066	0,122
-582,065	800,000	-0,018	0,055
-581,050	211,903	-0,065	0,075
-580,036	-200,000	0,011	-0,087
-579,021	-118,000	-0,147	0,019
-578,006	-200,000	-0,052	-0,192
-576,992	164,972	-0,026	0,027
-575,977	54,003	0,046	0,032
-574,963	-122,114	-0,015	-0,002
-573,948	269,090	0,030	-0,039
-572,934	203,508	-0,005	0,006
-571,919	-115,270	-0,095	-0,013
-570,904	-200,000	-0,032	-0,120
-569,890	51,660	-0,045	0,031
-568,875	-3,994	0,104	-0,052
-567,861	-200,000	-0,015	-0,080
-566,846	75,290	0,092	-0,071
-565,831	-159,985	-0,116	0,005
-564,817	-53,466	-0,065	0,022
-563,802	38,389	-0,058	0,038
-562,788	-200,000	0,002	-0,066
-561,773	67,730	-0,103	-0,077
-560,758	25,841	0,071	-0,043
-559,744	147,338	0,086	0,085
-558,729	86,098	0,121	0,098
-557,715	-26,279	-0,093	0,040
-556,700	-136,782	-0,099	0,008
-555,685	-10,965	0,144	-0,069
-554,671	97,095	-0,029	0,024
-553,656	26,545	-0,138	0,084
-552,642	42,856	0,181	-0,120
-551,627	-200,000	0,010	0,172
-550,612	-200,000	-0,009	-0,070
-549,598	-164,652	0,046	-0,001
-548,583	393,569	-0,069	-0,106
-547,569	-200,000	-0,003	-0,081
-546,554	-200,000	-0,001	0,012
-545,539	-200,000	-0,001	-0,026
-544,525	-28,386	0,157	0,066
-543,510	-200,000	0,008	-0,089
-542,496	-74,178	0,115	-0,030
-541,481	498,509	-0,035	-0,059
-540,466	-134,808	0,181	-0,016
-539,452	-7,696	-0,054	0,026
-538,437	-200,000	0,009	0,036
-537,423	60,637	0,069	0,050
-536,408	-200,000	-0,005	0,060
-535,393	365,554	-0,080	-0,119
-534,379	-200,000	-0,032	0,167
-533,364	-80,589	0,028	-0,007
-532,350	-71,535	0,122	-0,033
-531,335	-28,974	0,084	-0,035
-530,321	-200,000	-0,038	0,185
-529,306	-200,000	-0,011	-0,064
-528,291	800,000	0,025	-0,072
-527,277	-200,000	-0,025	-0,131
-526,262	-200,000	0,030	0,157
-525,248	800,000	0,038	0,110
-524,233	-200,000	-0,015	0,102
-523,218	75,105	-0,111	0,085
-522,204	-200,000	-0,011	-0,085
-521,189	-135,100	-0,031	0,003
-520,175	32,111	-0,119	0,075
-519,160	-99,165	-0,137	-0,025
-518,145	-33,896	-0,090	-0,036
-517,131	108,000	0,111	-0,097
-516,116	-200,000	-0,002	0,009
-515,102	-104,528	-0,065	0,011
-514,087	-200,000	-0,019	-0,134
-513,072	800,000	0,007	0,015
-512,058	-48,431	0,085	-0,030
-511,043	-161,651	-0,176	-0,006
-510,029	-200,000	0,020	0,130
-509,014	700,374	0,024	0,046
-507,999	-85,600	-0,055	0,012
-506,985	142,582	-0,029	0,028
-505,970	0,520	-0,107	-0,056
-504,956	778,744	-0,065	-0,131
-503,941	-200,000	0,012	-0,129
-502,926	-200,000	0,029	0,109
-501,912	-137,743	0,055	0,004
-500,897	-119,859	-0,018	0,002
-499,883	-200,000	0,005	-0,088
-498,868	145,129	0,033	-0,032
-497,853	40,395	0,048	0,031
-496,839	-1,994	0,109	0,056
-495,824	154,252	-0,023	0,023
-494,810	247,621	0,060	-0,074
-493,795	-200,000	-0,027	0,176
-492,781	63,818	-0,125	0,092
-491,766	237,265	0,086	-0,104
-490,751	335,243	-0,043	-0,061
-489,737	242,717	0,027	-0,033
-488,722	-141,825	-0,117	0,008
-487,708	800,000	0,036	0,107
-486,693	-135,160	0,075	0,007
-485,678	800,000	-0,017	-0,047
-484,664	192,662	-0,055	-0,061
-483,649	800,000	-0,036	-0,113
-482,635	-148,146	0,101	-0,006
-481,620	800,000	-0,039	0,102
-480,605	-32,123	0,061	0,025
-479,591	-91,266	-0,054	0,011
-478,576	644,507	-0,019	-0,035
-477,562	-162,951	-0,058	0,002
-476,547	800,000	0,024	-0,058
-475,532	-69,607	-0,089	-0,025
-474,518	-62,423	-0,031	-0,009
-473,503	-200,000	-0,030	0,154
-472,489	-113,541	0,205	-0,029
-471,474	317,032	0,036	-0,049
-470,459	-200,000	-0,011	0,093
-469,445	598,319	0,011	-0,021
-468,430	-200,000	0,024	0,153
-467,416	264,206	-0,035	0,045
-466,401	169,955	-0,050	0,052
-465,386	379,677	-0,064	0,096
-464,372	491,500	0,057	0,096
-463,357	-59,969	0,091	0,028
-462,343	406,011	-0,098	0,151
-461,328	-60,510	0,024	0,008
-460,313	147,650	0,056	-0,055
-459,299	742,243	0,028	0,056
-458,284	94,299	0,084	0,069
-457,270	-200,000	0,012	-0,101
-456,255	18,366	-0,046	0,027
-455,241	-74,815	-0,084	0,022
-454,226	-200,000	-0,002	0,073
-453,211	-200,000	0,013	-0,046
-452,197	184,905	-0,083	0,090
-451,182	-200,000	0,031	0,111
-450,168	234,972	0,068	0,082
-449,153	60,702	-0,111	-0,080
-448,138	32,703	-0,077	-0,049
-447,124	800,000	0,061	-0,187
-446,109	-200,000	0,041	-0,132
-445,095	-200,000	0,009	0,113
-444,080	-121,358	0,091	-0,011
-443,065	-87,432	-0,074	0,016
-442,051	-200,000	-0,005	0,044
-441,036	-15,242	-0,148	-0,069
-440,022	-200,000	0,022	-0,103
-439,007	151,199	0,044	-0,044
-437,992	800,000	0,075	0,170
-436,978	-100,255	0,105	-0,019
-435,963	221,790	0,089	0,105
-434,949	-200,000	-0,029	0,222
-433,934	57,058	0,062	-0,044
-432,919	104,156	0,045	-0,039
-431,905	-57,728	-0,143	-0,045
-430,890	-64,411	-0,108	0,032
-429,876	290,170	0,034	-0,045
-428,861	-200,000	0,001	0,074
-427,846	-70,685	-0,101	0,027
-426,832	800,000	0,006	0,013
-425,817	-28,235	-0,121	-0,051
-424,803	-200,000	-0,001	-0,008
-423,788	-10,637	-0,055	0,027
-422,773	-39,853	0,035	-0,013
-421,759	574,981	-0,060	0,107
-420,744	238,631	0,047	0,057
-419,730	202,578	-0,041	-0,046
-418,715	31,705	0,036	0,022
-417,701	800,000	0,018	-0,041
-416,686	-200,000	0,005	-0,037
-415,671	-124,166	-0,059	-0,007
-414,657	168,575	0,166	0,172
-413,642	48,965	-0,076	0,052
-412,628	347,684	-0,017	-0,025
-411,613	-200,000	-0,004	-0,062
-410,598	-64,800	0,090	-0,026
-409,584	277,109	0,107	0,139
-408,569	-62,501	0,088	-0,026
-407,555	62,681	0,105	0,076
-406,540	-200,000	-0,007	0,051
-405,525	145,192	0,031	0,030
-404,511	305,917	0,079	-0,108
-403,496	-92,036	-0,114	0,023
-402,482	-42,336	0,089	-0,033
-401,467	800,000	-0,011	-0,026
-400,452	243,059	0,050	-0,061
-399,438	-141,772	0,053	0,004
-398,423	-200,000	-0,004	-0,165
-397,409	-53,942	-0,118	0,039
-396,394	800,000	0,014	-0,031
-395,379	-200,000	0,093	0,000
-394,365	-100,931	-0,041	0,007
-393,350	-56,079	0,044	0,014
-392,336	-200,000	-0,011	0,081
-391,321	800,000	0,066	-0,155
-390,306	800,000	-0,069	-0,153
-389,292	20,688	-0,083	0,049
-388,277	-200,000	0,001	-0,033
-387,263	227,910	-0,018	-0,021
-386,248	153,518	0,037	-0,037
-385,233	-200,000	0,026	0,168
-384,219	8,863	0,059	-0,032
-383,204	-20,071	-0,051	-0,023
-382,190	590,682	-0,042	-0,075
-381,175	800,000	0,028	-0,070
-380,160	7,654	0,096	0,052
-379,146	-120,797	-0,077	-0,009
-378,131	800,000	-0,031	0,067
-377,117	180,959	-0,073	-0,078
-376,102	-200,000	0,035	-0,117
-375,088	-16,899	-0,056	-0,026
-374,073	-200,000	0,008	-0,041
-373,058	-200,000	-0,011	-0,141
-372,044	176,053	0,040	0,042
-371,029	-200,000	0,008	0,096
-370,015	267,295	0,010	0,012
-369,000	478,890	-0,103	-0,169
-367,985	-200,000	-0,003	0,018
-366,971	282,321	-0,064	-0,083
-365,956	-200,000	0,017	-0,062
-364,942	-192,487	0,061	-0,000
-363,927	493,138	0,031	0,052
-362,912	-32,392	-0,103	0,041
-361,898	-200,000	0,001	-0,091
-360,883	-80,862	-0,126	0,030
-359,869	-109,172	0,108	0,016
-358,854	-200,000	0,016	0,124
-357,839	27,130	-0,061	0,037
-356,825	95,828	-0,097	0,080
-355,810	-49,856	-0,102	0,035
-354,796	394,070	0,046	0,070
-353,781	-87,832	-0,104	-0,023
-352,766	-69,028	0,099	-0,028
-351,752	-180,875	-0,087	-0,001
-350,737	92,410	0,109	0,089
-349,723	-160,463	0,055	0,002
-348,708	-107,546	-0,118	0,018
-347,693	49,261	-0,078	-0,053
-346,679	81,334	0,176	-0,138
-345,664	-46,811	0,082	-0,029
-344,650	141,768	-0,061	-0,058
-343,635	716,816	0,014	0,027
-342,620	800,000	0,059	0,135
-341,606	530,040	-0,020	-0,034
-340,591	128,103	0,043	0,040
-339,577	-141,598	-0,128	0,009
-338,562	800,000	-0,017	0,041
-337,548	305,419	0,036	0,048
-336,533	74,243	0,139	0,106
-335,518	800,000	-0,031	0,076
-334,504	-57,868	-0,095	-0,030
-333,489	222,948	-0,021	0,025
-332,475	207,026	0,015	0,017
-331,460	-200,000	-0,002	-0,172
-330,445	33,192	0,016	0,010
-329,431	-47,262	-0,103	-0,036
-328,416	-200,000	0,046	0,167
-327,402	-200,000	-0,012	-0,142
-326,387	444,499	0,054	-0,087
-325,372	-103,505	-0,195	-0,033
-324,358	-42,962	0,042	-0,016
-323,343	-160,022	0,051	0,002
-322,329	-27,559	0,098	-0,041
-321,314	-191,450	0,023	0,000
-320,299	800,000	0,028	0,061
-319,285	542,914	0,030	0,051
-318,270	-118,789	0,115	0,014
-317,256	800,000	0,023	-0,050
-316,241	180,179	-0,036	-0,039
-315,226	-92,113	-0,103	0,021
-314,212	571,142	-0,065	0,116
-313,197	-84,582	-0,123	-0,028
-312,183	14,242	0,128	-0,072
-311,168	2,096	-0,060	0,031
-310,153	400,906	-0,104	-0,158
-309,139	800,000	-0,029	0,060
-308,124	-155,850	0,026	-0,001
-307,110	396,003	0,109	0,165
-306,095	-18,389	-0,125	-0,056
-305,080	-71,769	0,101	0,027
-304,066	-37,130	0,052	0,020
-303,051	-50,442	-0,078	-0,027
-302,037	-15,607	0,149	0,068
-301,022	-99,706	0,116	0,021
-300,008	-200,000	0,014	-0,054
-298,993	800,000	0,027	-0,066
-297,978	686,469	0,028	-0,053
-296,964	40,410	0,044	-0,028
-295,949	215,142	-0,127	-0,146
-294,935	180,218	0,071	-0,076
-293,920	-200,000	0,001	-0,081
-292,905	1,284	0,062	0,032
-291,891	568,179	-0,073	0,129
-290,876	307,003	0,028	0,038
-289,862	59,247	-0,071	-0,051
-288,847	529,260	0,023	0,040
-287,832	-200,000	-0,011	0,078
-286,818	474,406	0,034	-0,056
-285,803	-24,037	-0,103	0,044
-284,789	352,636	-0,075	-0,108
-283,774	-200,000	0,044	0,183
-282,759	157,448	-0,020	0,020
-281,745	-60,635	-0,109	0,033
-280,730	800,000	-0,041	-0,085
-279,716	-200,000	0,027	-0,128
-278,701	3,975	0,032	0,017
-277,686	-61,250	0,049	0,015
-276,672	800,000	-0,021	0,052
-275,657	223,585	0,097	-0,113
-274,643	-137,836	-0,103	-0,008
-273,628	17,115	0,023	-0,013
-272,613	-77,566	-0,071	0,018
-271,599	15,364	-0,037	-0,021
-270,584	-200,000	0,079	0,296
-269,570	341,181	-0,099	0,141
-268,555	800,000	0,026	0,070
-267,540	-18,351	-0,093	-0,042
-266,526	-18,376	0,074	0,033
-265,511	133,089	-0,079	0,074
-264,497	800,000	0,096	0,246
-263,482	548,081	-0,039	0,068
-262,467	155,886	0,060	0,060
-261,453	-200,000	0,010	0,097
-260,438	157,933	-0,054	0,054
-259,424	268,272	0,021	0,026
-258,409	-86,764	0,119	-0,026
-257,395	800,000	0,028	-0,059
-256,380	-79,917	0,072	0,017
-255,365	797,920	0,062	0,124
-254,351	-64,944	0,076	-0,022
-253,336	800,000	0,062	-0,135
-252,322	68,834	-0,162	-0,120
-251,307	-74,867	0,077	-0,020
-250,292	-140,367	0,050	-0,004
-249,278	351,641	0,037	-0,053
-248,263	800,000	-0,021	-0,063
-247,249	22,931	0,152	0,090
-246,234	-200,000	0,023	0,094
-245,219	375,020	-0,074	-0,109
-244,205	-125,176	-0,045	-0,005
-243,190	331,772	-0,008	-0,011
-242,176	12,631	-0,113	0,063
-241,161	-128,025	0,036	0,004
-240,146	60,728	0,012	-0,008
-239,132	-43,505	0,119	0,043
-238,117	800,000	-0,037	0,083
-237,103	3,431	-0,036	-0,019
-236,088	26,942	0,092	0,056
-235,073	324,847	-0,061	-0,085
-234,059	16,893	-0,063	-0,036
-233,044	-96,611	-0,038	0,007
-232,030	609,658	0,050	-0,090
-231,015	90,097	0,039	-0,032
-230,000	27,499	-0,100	0,061
-228,986	263,280	0,047	-0,060
-227,971	263,468	-0,034	0,042
-226,957	-87,212	-0,068	0,015
-225,942	-200,000	0,023	-0,081
-224,927	-76,034	-0,023	0,006
-223,913	7,308	-0,119	-0,064
-222,898	-200,000	-0,021	-0,124
-221,884	-98,420	0,132	0,024
-220,869	400,214	0,069	0,105
-219,855	95,179	-0,097	0,080
-218,840	225,563	0,067	0,079
-217,825	-200,000	-0,017	0,078
-216,811	104,375	-0,095	-0,081
-215,796	-148,577	0,070	-0,004
-214,782	253,195	0,050	0,062
-213,767	56,121	-0,065	0,045
-212,752	800,000	0,013	-0,041
-211,738	-200,000	0,013	-0,083
-210,723	800,000	-0,042	0,085
-209,709	-78,715	-0,020	-0,005
-208,694	86,699	-0,021	-0,017
-207,679	28,439	-0,087	-0,053
-206,665	-33,679	0,068	-0,027
-205,650	169,910	0,042	0,043
-204,636	-130,547	0,197	0,019
-203,621	227,208	-0,042	-0,049
-202,606	-200,000	0,082	0,000
-201,592	800,000	-0,050	-0,119
-200,577	-69,167	-0,085	0,023
-199,563	242,985	0,119	-0,144
-198,548	11,663	0,189	-0,104
-197,533	-200,000	-0,005	0,090
-196,519	-95,825	-0,050	-0,010
-195,504	759,074	0,037	0,072
-194,490	-200,000	0,009	-0,062
-193,475	33,887	0,136	-0,085
-192,460	-52,917	-0,038	0,013
-191,446	96,264	0,116	0,096
-190,431	-117,142	0,155	0,020
-189,417	-200,000	-0,005	-0,036
-188,402	97,342	-0,039	0,032
-187,387	-175,665	0,088	-0,002
-186,373	800,000	-0,003	0,008
-185,358	228,040	-0,108	-0,127
-184,344	67,964	0,052	-0,038
-183,329	-93,108	-0,032	-0,006
-182,315	103,504	0,028	0,024
-181,300	271,247	0,061	-0,077
-180,285	-93,458	-0,125	-0,025
-179,271	800,000	-0,052	-0,153
-178,256	800,000	0,105	-0,222
-177,242	375,339	-0,044	0,064
-176,227	800,000	0,053	0,150
-175,212	22,639	-0,063	0,037
-174,198	-200,000	0,002	0,037
-173,183	146,053	-0,068	-0,065
-172,169	295,610	-0,040	-0,052
-171,154	135,036	0,043	-0,041
-170,139	22,694	0,095	0,056
-169,125	523,130	0,025	0,042
-168,110	167,995	0,122	0,125
-167,096	800,000	-0,046	0,100
-166,081	-200,000	-0,014	-0,135
-165,066	247,983	-0,084	-0,103
-164,052	171,380	0,057	0,059
-163,037	-167,306	-0,078	-0,002
-162,023	-13,780	0,199	-0,092
-161,008	-62,890	-0,135	0,040
-159,993	-118,054	0,026	0,003
-158,979	-200,000	-0,002	0,067
-157,964	524,738	-0,072	-0,123
-156,950	-34,581	-0,112	-0,044
-155,935	800,000	0,022	0,055
-154,920	-6,508	0,024	0,012
-153,906	-21,889	0,135	0,059
-152,891	800,000	0,065	0,141
-151,877	-110,343	-0,121	0,018
-150,862	-200,000	-0,001	-0,024
-149,847	-28,499	-0,116	0,048
-148,833	164,977	0,091	0,093
-147,818	419,761	0,042	-0,065
-146,804	9,221	0,034	0,019
-145,789	-200,000	0,007	-0,054
-144,775	59,802	0,031	0,022
-143,760	-200,000	-0,009	0,060
-142,745	195,471	-0,071	-0,077
-141,731	-73,634	-0,028	-0,007
-140,716	511,846	-0,057	0,096
-139,702	-200,000	-0,038	0,263
-138,687	48,827	-0,079	0,053
-137,672	800,000	-0,055	0,154
-136,658	-134,352	-0,102	0,009
-135,643	-127,962	0,104	0,011
-134,629	384,072	0,071	-0,106
-133,614	440,506	0,017	-0,026
-132,599	-200,000	0,000	0,001
-131,585	-200,000	-0,022	0,084
-130,570	68,596	-0,078	0,058
-129,556	-200,000	0,009	-0,154
-128,541	503,722	-0,020	-0,034
-127,526	74,174	-0,084	-0,064
-126,512	-61,688	0,098	-0,029
-125,497	-200,000	-0,043	0,179
-124,483	427,141	-0,032	0,050
-123,468	441,446	0,009	-0,014
-122,453	287,483	-0,071	-0,092
-121,439	800,000	-0,018	0,054
-120,424	619,108	-0,013	0,024
-119,410	-2,515	0,019	-0,009
