DTS Sentinel unit serial number:	SN410029Multiplexer serial number:	ORYXHardware model number:	OX2-SRSoftware version number:	ORYX F/W v4,00 Oryx Data Collector v3.7.2.0data status	okinstallation	B5 Nyhavnadifferential loss correction	single-endedforward channel	channel 2reverse channel	N/Adate	2023/12/14time	03:27:13forward acquisition time	300,00reverse acquisition time	0,00gamma	499,1914k internal	0,3156k external	0,3156temperature offset calibration	1,0000default loss term (dB/km)	0,3820temperature slope calibration	1,0000multiplexer offset coefficient	1,0000multiplexer slope coefficient	1,0000fibre end	0,00T internal ref (°C)	8,20T ext. ref 1 (°C)	-8,18T ext. ref 2 (°C)	-8,26length (m)	temperature (°C)	Stokes	anti-Stokes-744,400	344,558	0,061	0,088
-743,385	-46,859	-0,323	-0,116
-742,371	154,880	0,114	0,115
-741,356	-125,516	-0,351	-0,039
-740,342	300,203	0,153	0,208
-739,327	-136,202	-0,340	-0,029
-738,312	-3,807	0,152	0,078
-737,298	-120,956	-0,385	-0,047
-736,283	-48,070	0,262	0,093
-735,269	-35,940	-0,376	-0,149
-734,254	-192,330	0,170	0,001
-733,239	64,265	-0,555	-0,412
-732,225	-37,685	0,162	0,063
-731,210	-200,000	-0,010	-0,127
-730,196	800,000	0,066	-0,203
-729,181	82,965	-0,141	-0,113
-728,167	732,175	-0,076	0,151
-727,152	609,153	-0,041	-0,076
-726,137	-200,000	0,025	-0,086
-725,123	800,000	0,040	-0,119
-724,108	-63,823	-0,127	0,038
-723,094	-200,000	-0,000	-0,121
-722,079	36,264	-0,007	0,005
-721,064	-78,569	0,014	0,004
-720,050	237,973	0,068	-0,083
-719,035	67,754	0,143	-0,108
-718,021	-200,000	0,006	-0,087
-717,006	37,756	-0,200	-0,131
-715,991	-200,000	0,008	-0,066
-714,977	-200,000	-0,010	-0,069
-713,962	1,328	-0,201	-0,106
-712,948	-77,330	0,081	-0,020
-711,933	96,349	-0,116	-0,097
-710,918	164,601	-0,114	-0,118
-709,904	13,842	-0,052	-0,030
-708,889	72,569	-0,108	-0,083
-707,875	266,616	-0,095	-0,123
-706,860	-12,186	0,084	-0,040
-705,845	5,445	-0,122	0,066
-704,831	-88,299	0,068	0,015
-703,816	86,641	0,078	0,063
-702,802	546,275	-0,029	0,051
-701,787	800,000	0,028	-0,086
-700,772	267,686	-0,035	-0,045
-699,758	-66,978	0,072	0,021
-698,743	312,229	0,062	0,086
-697,729	119,469	0,043	0,040
-696,714	221,405	-0,018	0,021
-695,699	297,404	0,069	0,094
-694,685	225,746	0,101	0,120
-693,670	-151,285	-0,105	0,006
-692,656	93,587	0,092	0,077
-691,641	-200,000	-0,003	-0,064
-690,627	-20,253	0,018	0,008
-689,612	20,326	0,061	0,036
-688,597	-167,493	-0,174	-0,005
-687,583	-200,000	-0,048	-0,192
-686,568	-88,900	-0,163	0,035
-685,554	-200,000	-0,027	0,158
-684,539	-200,000	-0,006	-0,032
-683,524	404,584	0,015	-0,023
-682,510	-42,464	0,074	-0,028
-681,495	745,088	0,028	0,057
-680,481	13,970	-0,082	0,047
-679,466	-8,862	-0,166	-0,082
-678,451	154,683	-0,076	-0,076
-677,437	-200,000	0,000	0,057
-676,422	-40,596	0,090	0,034
-675,408	-93,225	0,117	-0,024
-674,393	-91,743	-0,073	0,015
-673,378	637,418	0,024	0,046
-672,364	800,000	-0,027	0,055
-671,349	577,240	-0,078	-0,140
-670,335	-126,664	-0,062	-0,007
-669,320	800,000	0,035	0,090
-668,305	800,000	-0,042	-0,100
-667,291	-11,408	0,137	0,066
-666,276	-77,765	-0,142	0,036
-665,262	177,503	-0,073	-0,079
-664,247	-37,391	-0,053	0,021
-663,232	800,000	0,022	-0,045
-662,218	-200,000	-0,011	0,069
-661,203	50,911	0,055	-0,038
-660,189	800,000	0,049	-0,118
-659,174	133,140	-0,009	0,009
-658,159	290,400	-0,050	0,067
-657,145	-167,640	-0,043	-0,001
-656,130	-64,002	0,024	0,007
-655,116	678,329	0,057	0,109
-654,101	800,000	0,049	-0,156
-653,086	-200,000	0,014	-0,127
-652,072	-84,844	-0,114	-0,026
-651,057	621,781	-0,061	-0,114
-650,043	-200,000	-0,002	-0,023
-649,028	60,015	0,136	-0,099
-648,014	-27,204	0,125	-0,053
-646,999	-169,756	-0,093	-0,002
-645,984	43,597	0,123	0,082
-644,970	738,260	-0,042	-0,083
-643,955	-200,000	0,002	-0,135
-642,941	800,000	0,042	-0,087
-641,926	344,299	-0,043	-0,062
-640,911	212,793	-0,053	0,061
-639,897	540,433	-0,091	0,160
-638,882	-129,364	0,213	-0,021
-637,868	613,029	0,018	-0,033
-636,853	800,000	-0,023	-0,055
-635,838	-50,782	-0,178	0,061
-634,824	14,837	-0,062	-0,035
-633,809	-80,143	0,095	-0,023
-632,795	-200,000	-0,013	0,142
-631,780	11,769	0,078	0,044
-630,765	-200,000	0,014	0,074
-629,751	-28,905	-0,031	-0,013
-628,736	482,468	0,032	0,054
-627,722	800,000	-0,057	0,130
-626,707	-200,000	-0,001	-0,076
-625,692	-200,000	-0,010	0,149
-624,678	-24,951	0,068	0,029
-623,663	-41,103	-0,075	0,028
-622,649	800,000	0,044	-0,098
-621,634	-200,000	-0,001	0,030
-620,619	391,986	-0,095	-0,146
-619,605	-200,000	-0,007	-0,071
-618,590	-16,760	-0,166	-0,077
-617,576	-111,357	0,030	0,004
-616,561	337,719	0,031	-0,045
-615,546	-200,000	-0,009	-0,069
-614,532	53,387	0,064	0,045
-613,517	-108,548	-0,110	-0,017
-612,503	-14,775	-0,108	-0,051
-611,488	-200,000	0,012	0,120
-610,474	-75,151	0,045	0,012
-609,459	306,500	-0,094	-0,129
-608,444	17,707	-0,070	-0,041
-607,430	-100,205	-0,045	0,008
-606,415	28,217	0,096	-0,059
-605,401	-23,512	0,022	0,010
-604,386	-161,482	0,101	0,004
-603,371	-10,386	0,019	-0,009
-602,357	-88,720	-0,088	0,019
-601,342	53,506	-0,115	-0,081
-600,328	-68,574	0,021	0,006
-599,313	76,335	-0,132	0,103
-598,298	-119,836	0,123	-0,015
-597,284	606,596	0,075	0,138
-596,269	209,986	0,089	0,102
-595,255	-63,530	-0,108	0,032
-594,240	800,000	-0,025	0,059
-593,225	2,529	-0,126	-0,066
-592,211	-67,398	-0,051	-0,015
-591,196	311,775	0,012	-0,016
-590,182	-200,000	0,029	0,125
-589,167	10,277	0,042	0,024
-588,152	109,380	-0,050	0,044
-587,138	-11,430	-0,136	0,065
-586,123	-18,457	-0,039	0,018
-585,109	115,907	-0,021	0,019
-584,094	-41,720	-0,134	0,050
-583,079	-53,553	0,114	-0,038
-582,065	345,325	0,096	-0,139
-581,050	-126,210	-0,183	0,020
-580,036	-200,000	0,028	0,094
-579,021	230,366	0,034	0,041
-578,006	-200,000	-0,008	-0,044
-576,992	800,000	-0,050	-0,137
-575,977	8,117	0,006	-0,003
-574,963	-93,142	0,107	0,022
-573,948	-27,431	-0,022	0,009
-572,934	717,567	-0,017	-0,034
-571,919	-30,831	-0,053	0,022
-570,904	98,486	-0,135	-0,114
-569,890	-115,153	-0,076	0,010
-568,875	754,683	-0,060	-0,120
-567,861	-200,000	0,009	-0,094
-566,846	-123,193	-0,094	0,011
-565,831	-200,000	0,013	-0,104
-564,817	27,841	0,092	0,057
-563,802	-200,000	-0,014	-0,072
-562,788	-42,215	0,044	0,016
-561,773	-73,493	-0,073	0,019
-560,758	-136,780	-0,151	-0,013
-559,744	800,000	0,030	-0,094
-558,729	-155,163	-0,141	-0,007
-557,715	287,647	-0,056	0,074
-556,700	-200,000	-0,066	-0,225
-555,685	-179,201	-0,106	0,002
-554,671	800,000	-0,029	0,069
-553,656	-165,585	0,047	0,001
-552,642	-200,000	0,017	0,092
-551,627	-121,330	-0,016	-0,002
-550,612	-53,586	-0,049	-0,016
-549,598	-200,000	-0,006	-0,087
-548,583	270,668	0,145	-0,187
-547,569	-200,000	0,011	-0,066
-546,554	383,171	0,090	0,136
-545,539	33,663	0,086	-0,055
-544,525	-200,000	-0,047	-0,200
-543,510	320,160	0,033	-0,046
-542,496	-17,021	-0,071	0,033
-541,481	71,293	-0,100	0,076
-540,466	7,916	-0,081	-0,044
-539,452	15,113	-0,148	-0,084
-538,437	-111,751	0,224	0,033
-537,423	673,473	-0,059	0,113
-536,408	-36,799	-0,069	-0,027
-535,393	797,584	-0,062	-0,126
-534,379	369,339	0,025	-0,037
-533,364	-200,000	-0,023	-0,128
-532,350	800,000	-0,015	0,045
-531,335	-126,929	0,153	0,016
-530,321	-162,200	0,107	0,004
-529,306	-22,375	0,136	-0,060
-528,291	-59,277	-0,134	-0,042
-527,277	612,414	0,065	-0,120
-526,262	-13,647	0,049	0,023
-525,248	-98,410	-0,122	0,023
-524,233	-1,852	0,072	0,037
-523,218	35,063	-0,132	0,084
-522,204	800,000	0,016	0,048
-521,189	101,721	0,036	-0,030
-520,175	800,000	-0,066	0,175
-519,160	34,559	-0,044	-0,028
-518,145	-119,228	-0,066	-0,008
-517,131	-200,000	0,004	0,046
-516,116	0,927	-0,078	0,041
-515,102	224,790	0,152	0,180
-514,087	-193,301	0,129	0,001
-513,072	307,019	0,035	0,048
-512,058	46,729	-0,065	0,044
-511,043	-200,000	-0,003	-0,167
-510,029	431,646	0,077	0,123
-509,014	31,552	0,038	-0,024
-507,999	800,000	-0,043	0,097
-506,985	18,625	-0,107	0,063
-505,970	-200,000	0,031	-0,199
-504,956	-200,000	0,018	-0,103
-503,941	274,115	0,067	0,087
-502,926	24,475	0,056	0,034
-501,912	-150,304	0,118	0,007
-500,897	-200,000	0,010	0,141
-499,883	-200,000	-0,005	0,019
-498,868	-200,000	0,024	-0,093
-497,853	-96,814	-0,094	-0,018
-496,839	-200,000	-0,035	0,000
-495,824	580,688	0,035	0,062
-494,810	658,432	0,040	0,075
-493,795	800,000	0,074	-0,167
-492,781	-88,581	-0,029	0,006
-491,766	-200,000	0,017	-0,084
-490,751	332,741	0,050	-0,071
-489,737	-200,000	0,002	-0,027
-488,722	-161,904	0,192	0,007
-487,708	800,000	0,006	0,014
-486,693	-200,000	0,020	-0,067
-485,678	55,862	-0,059	0,042
-484,664	403,437	0,054	0,083
-483,649	800,000	-0,035	-0,088
-482,635	1,648	-0,100	-0,052
-481,620	-124,896	0,067	-0,007
-480,605	-47,856	-0,079	-0,028
-479,591	-90,095	0,111	-0,023
-478,576	-200,000	-0,005	-0,042
-477,562	173,039	-0,114	-0,120
-476,547	-71,990	-0,084	0,023
-475,532	800,000	-0,043	-0,098
-474,518	-200,000	-0,035	-0,191
-473,503	-175,209	0,107	-0,002
-472,489	12,285	0,096	0,054
-471,474	221,906	0,028	0,033
-470,459	-60,903	-0,074	-0,023
-469,445	-151,326	-0,021	-0,001
-468,430	291,444	0,040	0,053
-467,416	-200,000	0,010	0,081
-466,401	-88,500	0,027	-0,006
-465,386	192,616	-0,023	0,025
-464,372	102,618	-0,011	0,010
-463,357	-200,000	-0,016	-0,108
-462,343	-200,000	-0,010	0,079
-461,328	126,679	-0,056	0,051
-460,313	365,492	-0,036	-0,053
-459,299	800,000	0,026	-0,063
-458,284	-200,000	-0,010	-0,118
-457,270	800,000	-0,011	0,026
-456,255	98,666	-0,060	-0,051
-455,241	323,012	-0,056	-0,078
-454,226	671,755	0,053	-0,101
-453,211	153,935	0,115	0,115
-452,197	-74,661	-0,030	-0,008
-451,182	-200,000	0,002	0,150
-450,168	-110,419	0,034	0,005
-449,153	-200,000	-0,014	-0,056
-448,138	-200,000	0,001	-0,089
-447,124	603,533	0,112	-0,204
-446,109	24,403	0,106	-0,064
-445,095	204,711	-0,075	-0,085
-444,080	170,251	-0,069	-0,072
-443,065	-26,651	-0,072	-0,031
-442,051	800,000	-0,020	-0,043
-441,036	645,765	-0,019	-0,036
-440,022	69,253	0,116	0,087
-439,007	465,123	-0,019	-0,030
-437,992	93,944	-0,093	0,077
-436,978	800,000	0,098	-0,203
-435,963	-200,000	-0,001	-0,053
-434,949	-200,000	-0,015	-0,130
-433,934	-200,000	-0,000	0,052
-432,919	-106,353	-0,065	-0,010
-431,905	-61,049	-0,036	-0,011
-430,890	100,168	0,024	-0,020
-429,876	28,824	0,078	-0,048
-428,861	250,685	-0,037	-0,046
-427,846	-119,506	-0,060	0,008
-426,832	-200,000	-0,059	-0,244
-425,817	755,643	0,055	-0,108
-424,803	-200,000	-0,010	-0,158
-423,788	346,555	0,060	0,086
-422,773	420,069	0,063	0,099
-421,759	-41,493	-0,072	0,027
-420,744	-111,720	0,070	-0,010
-419,730	-78,095	-0,052	0,013
-418,715	-200,000	-0,027	0,142
-417,701	-78,121	0,145	-0,036
-416,686	130,641	-0,060	-0,056
-415,671	142,221	0,076	0,074
-414,657	-16,528	0,110	0,050
-413,642	52,010	-0,122	0,085
-412,628	127,860	0,043	0,039
-411,613	103,387	-0,063	0,054
-410,598	-83,360	0,067	-0,016
-409,584	312,660	0,043	0,059
-408,569	379,289	-0,027	-0,040
-407,555	40,476	-0,014	0,009
-406,540	-200,000	0,018	0,070
-405,525	135,563	-0,038	0,036
-404,511	-9,293	0,059	0,029
-403,496	800,000	-0,033	0,091
-402,482	450,555	0,081	0,131
-401,467	-200,000	-0,017	0,098
-400,452	213,355	-0,037	-0,043
-399,438	-200,000	0,012	0,130
-398,423	-84,374	-0,108	0,025
-397,409	-200,000	-0,032	-0,106
-396,394	43,386	0,020	-0,013
-395,379	800,000	-0,052	0,111
-394,365	258,158	0,078	0,098
-393,350	-200,000	-0,005	-0,111
-392,336	800,000	-0,053	0,117
-391,321	585,488	0,064	0,116
-390,306	-164,332	-0,025	-0,001
-389,292	-75,548	-0,066	0,017
-388,277	507,469	-0,006	-0,010
-387,263	-133,102	0,058	0,005
-386,248	29,027	0,066	-0,041
-385,233	-200,000	-0,005	0,044
-384,219	171,997	-0,075	-0,078
-383,204	-117,925	0,053	0,007
-382,190	-167,142	-0,028	-0,001
-381,175	800,000	-0,033	-0,100
-380,160	73,163	-0,025	-0,019
-379,146	-73,377	-0,080	-0,021
-378,131	107,814	0,021	-0,018
-377,117	42,675	0,097	-0,064
-376,102	-50,735	-0,135	-0,046
-375,088	174,779	-0,063	-0,067
-374,073	159,422	-0,036	-0,036
-373,058	-200,000	0,006	-0,098
-372,044	800,000	0,072	-0,169
-371,029	-64,425	-0,104	0,031
-370,015	-200,000	-0,000	0,200
-369,000	-176,788	-0,092	-0,002
-367,985	800,000	-0,047	-0,115
-366,971	-75,683	-0,095	0,024
-365,956	727,662	0,021	0,041
-364,942	391,512	0,060	0,090
-363,927	314,247	-0,035	0,048
-362,912	-100,580	-0,108	-0,019
-361,898	7,706	-0,031	-0,017
-360,883	217,118	0,041	-0,047
-359,869	800,000	0,040	0,095
-358,854	-88,153	0,091	-0,020
-357,839	34,664	0,034	0,022
-356,825	742,284	0,017	-0,033
-355,810	-132,338	0,136	-0,013
-354,796	124,976	0,029	-0,027
-353,781	64,221	-0,153	-0,112
-352,766	-128,276	0,133	-0,014
-351,752	-181,215	0,065	0,001
-350,737	-200,000	0,000	0,024
-349,723	12,395	0,100	0,056
-348,708	116,724	0,052	-0,046
-347,693	-200,000	-0,024	0,089
-346,679	163,559	-0,112	-0,115
-345,664	-200,000	-0,006	-0,049
-344,650	108,355	0,119	0,103
-343,635	191,556	0,071	0,078
-342,620	-24,283	0,085	-0,037
-341,606	-200,000	-0,021	0,221
-340,591	-200,000	0,032	0,112
-339,577	295,706	-0,108	0,144
-338,562	292,440	0,029	-0,038
-337,548	-200,000	0,011	0,113
-336,533	-200,000	0,008	-0,025
-335,518	532,195	-0,021	-0,036
-334,504	800,000	-0,051	0,106
-333,489	408,347	-0,065	-0,099
-332,475	643,320	-0,052	0,096
-331,460	28,513	0,113	0,069
-330,445	-143,597	-0,066	-0,004
-329,431	62,450	-0,030	0,022
-328,416	31,625	0,054	-0,034
-327,402	-83,293	0,122	0,028
-326,387	112,055	-0,056	0,049
-325,372	-99,663	0,091	0,016
-324,358	465,849	-0,021	0,033
-323,343	-171,649	0,113	0,003
-322,329	11,032	-0,113	-0,062
-321,314	-88,101	0,198	-0,043
-320,299	555,408	0,080	0,140
-319,285	-70,418	-0,152	0,042
-318,270	-200,000	0,030	-0,097
-317,256	800,000	-0,012	-0,029
-316,241	-200,000	0,018	0,108
-315,226	-200,000	-0,003	-0,066
-314,212	166,168	0,166	0,171
-313,197	2,208	-0,065	0,034
-312,183	147,557	0,062	-0,061
-311,168	89,200	-0,057	-0,046
-310,153	75,687	-0,074	-0,056
-309,139	58,514	-0,060	0,042
-308,124	-200,000	0,001	0,164
-307,110	-6,495	0,156	-0,077
-306,095	800,000	-0,020	0,057
-305,080	-33,328	-0,023	0,009
-304,066	113,357	-0,113	0,099
-303,051	62,746	-0,078	-0,056
-302,037	800,000	0,027	-0,063
-301,022	-94,228	0,089	-0,017
-300,008	-130,046	0,126	0,012
-298,993	205,470	0,060	0,067
-297,978	-200,000	-0,019	-0,113
-296,964	-108,575	0,108	-0,017
-295,949	800,000	-0,021	-0,063
-294,935	34,832	0,055	0,035
-293,920	-19,942	0,025	0,011
-292,905	-200,000	-0,003	0,124
-291,891	-200,000	0,014	0,105
-290,876	518,996	-0,095	0,163
-289,862	633,867	0,033	0,061
-288,847	-40,948	-0,097	-0,036
-287,832	800,000	-0,020	-0,040
-286,818	-124,650	-0,043	0,005
-285,803	555,755	0,058	-0,102
-284,789	-35,690	0,096	-0,038
-283,774	-200,000	0,002	-0,050
-282,759	800,000	-0,012	-0,026
-281,745	-153,945	-0,114	-0,006
-280,730	262,661	-0,081	-0,102
-279,716	44,063	-0,048	0,032
-278,701	-200,000	0,001	-0,019
-277,686	-177,579	-0,098	0,002
-276,672	-23,231	0,114	0,050
-275,657	255,720	-0,050	-0,062
-274,643	149,507	0,083	-0,081
-273,628	-27,324	-0,019	0,008
-272,613	8,358	0,121	0,066
-271,599	-136,099	0,127	0,011
-270,584	-200,000	-0,022	0,132
-269,570	-200,000	0,006	0,074
-268,555	800,000	0,015	0,039
-267,540	554,622	0,050	0,088
-266,526	383,976	-0,039	-0,058
-265,511	-19,931	0,084	0,037
-264,497	371,785	-0,066	0,097
-263,482	-200,000	0,016	0,053
-262,467	-164,007	0,152	-0,005
-261,453	-142,493	0,066	0,005
-260,438	-64,294	-0,158	-0,046
-259,424	304,798	-0,067	-0,090
-258,409	419,327	-0,066	-0,103
-257,395	-158,213	0,040	-0,002
-256,380	-147,491	-0,085	0,005
-255,365	-200,000	-0,003	0,082
-254,351	50,375	-0,081	-0,055
-253,336	-200,000	0,014	0,084
-252,322	-100,685	0,206	-0,036
-251,307	342,710	-0,036	0,051
-250,292	93,917	-0,024	-0,020
-249,278	307,122	-0,056	0,075
-248,263	-44,016	0,078	0,028
-247,249	640,933	-0,030	0,055
-246,234	800,000	-0,029	0,079
-245,219	-200,000	0,011	0,079
-244,205	800,000	-0,010	-0,021
-243,190	-117,603	0,029	-0,004
-242,176	-94,550	0,146	0,029
-241,161	159,132	0,070	-0,070
-240,146	-31,174	0,117	0,048
-239,132	422,482	0,045	0,071
-238,117	-200,000	0,017	-0,061
-237,103	103,656	-0,150	0,127
-236,088	2,139	0,068	0,035
-235,073	-28,368	0,035	-0,015
-234,059	143,938	-0,018	-0,017
-233,044	46,400	0,060	0,040
-232,030	-69,799	-0,037	0,010
-231,015	50,397	-0,035	-0,024
-230,000	-120,620	0,125	-0,015
-228,986	153,664	0,084	-0,083
-227,971	-200,000	0,014	0,124
-226,957	-200,000	0,016	0,084
-225,942	800,000	0,044	0,106
-224,927	338,521	-0,027	-0,039
-223,913	562,782	-0,032	0,056
-222,898	-64,833	0,164	-0,048
-221,884	44,138	-0,090	-0,059
-220,869	-200,000	0,006	0,119
-219,855	-30,209	-0,071	0,029
-218,840	-82,785	-0,069	-0,016
-217,825	203,751	0,061	-0,068
-216,811	-28,323	0,100	-0,042
-215,796	-200,000	0,012	-0,092
-214,782	-190,454	-0,061	-0,000
-213,767	-110,342	0,162	-0,024
-212,752	800,000	-0,027	-0,060
-211,738	-200,000	-0,002	0,047
-210,723	15,036	-0,083	0,047
-209,709	-200,000	-0,002	-0,036
-208,694	299,866	0,058	-0,078
-207,679	40,213	0,020	0,013
-206,665	-82,946	0,080	-0,019
-205,650	410,054	-0,064	0,098
-204,636	-121,815	-0,074	-0,009
-203,621	-183,696	0,095	-0,001
-202,606	224,622	-0,059	-0,069
-201,592	-72,532	-0,132	-0,035
-200,577	-200,000	0,026	-0,090
-199,563	51,481	0,143	-0,098
-198,548	-26,188	0,195	0,083
-197,533	-88,367	-0,030	-0,006
-196,519	368,644	-0,054	-0,079
-195,504	110,132	0,104	0,090
-194,490	20,574	-0,150	-0,087
-193,475	-200,000	-0,005	0,022
-192,460	800,000	-0,017	0,046
-191,446	-200,000	-0,016	0,192
-190,431	800,000	0,017	0,051
-189,417	256,801	-0,045	0,056
-188,402	283,882	-0,067	-0,088
-187,387	800,000	-0,053	-0,160
-186,373	-114,262	-0,102	0,014
-185,358	-200,000	-0,010	0,131
-184,344	-142,609	0,100	0,007
-183,329	-200,000	-0,017	-0,137
-182,315	246,283	-0,112	0,136
-181,300	10,484	0,025	0,014
-180,285	-110,314	0,014	-0,002
-179,271	-200,000	-0,037	-0,125
-178,256	-200,000	-0,011	-0,050
-177,242	800,000	-0,038	0,112
-176,227	-154,615	-0,040	-0,002
-175,212	-162,675	0,027	-0,001
-174,198	-200,000	0,001	0,007
-173,183	-18,755	-0,101	0,045
-172,169	-200,000	-0,006	0,027
-171,154	-200,000	0,019	-0,102
-170,139	-88,069	-0,054	0,012
-169,125	800,000	-0,052	-0,122
-168,110	-200,000	0,007	0,084
-167,096	-200,000	0,016	-0,062
-166,081	157,434	-0,025	0,024
-165,066	-45,662	-0,064	-0,023
-164,052	298,184	0,064	-0,086
-163,037	-200,000	-0,006	0,034
-162,023	22,373	-0,048	0,028
-161,008	800,000	0,053	0,110
-159,993	-88,076	-0,081	-0,017
-158,979	-200,000	0,002	0,097
-157,964	-113,368	0,115	0,016
-156,950	479,418	-0,027	0,043
-155,935	-97,935	0,045	-0,008
-154,920	800,000	0,022	0,069
-153,906	-200,000	0,025	0,159
-152,891	800,000	-0,044	-0,112
-151,877	-23,202	0,097	0,042
-150,862	601,847	-0,038	-0,068
-149,847	-200,000	0,009	0,073
-148,833	-80,276	-0,062	0,015
-147,818	-200,000	0,005	0,121
-146,804	800,000	0,052	0,114
-145,789	110,306	0,119	-0,103
-144,775	800,000	0,009	-0,024
-143,760	-200,000	-0,020	-0,111
-142,745	223,915	0,077	-0,090
-141,731	800,000	0,032	0,080
-140,716	-13,235	-0,074	0,035
-139,702	-200,000	0,019	0,135
-138,687	-3,664	0,082	-0,041
-137,672	88,975	-0,097	0,078
-136,658	800,000	0,032	-0,077
-135,643	800,000	-0,033	0,070
-134,629	-200,000	-0,008	0,053
-133,614	611,761	0,070	0,127
-132,599	-59,965	0,079	-0,024
-131,585	-200,000	-0,028	0,106
-130,570	92,539	-0,056	0,046
-129,556	800,000	0,043	0,106
-128,541	-81,466	0,133	0,031
-127,526	142,076	-0,091	-0,087
-126,512	-200,000	0,005	0,053
-125,497	344,422	0,089	0,126
-124,483	-129,369	0,086	-0,008
-123,468	410,493	0,042	0,065
-122,453	-126,404	-0,082	0,009
-121,439	310,685	-0,074	-0,100
-120,424	39,693	0,037	-0,024
-119,410	-56,677	-0,030	0,010
