DTS Sentinel unit serial number:	SN410029Multiplexer serial number:	ORYXHardware model number:	OX2-SRSoftware version number:	ORYX F/W v4,00 Oryx Data Collector v3.7.2.0data status	okinstallation	B5 Nyhavnadifferential loss correction	single-endedforward channel	channel 2reverse channel	N/Adate	2023/12/11time	16:32:13forward acquisition time	300,00reverse acquisition time	0,00gamma	499,1914k internal	0,3165k external	0,3165temperature offset calibration	1,0000default loss term (dB/km)	0,3820temperature slope calibration	1,0000multiplexer offset coefficient	1,0000multiplexer slope coefficient	1,0000fibre end	0,00T internal ref (°C)	14,09T ext. ref 1 (°C)	-0,90T ext. ref 2 (°C)	-0,96length (m)	temperature (°C)	Stokes	anti-Stokes-744,400	-182,820	0,189	0,002
-743,385	-33,596	-0,198	-0,080
-742,371	20,466	0,134	0,079
-741,356	-148,669	-0,101	-0,006
-740,342	602,391	0,039	0,072
-739,327	-146,037	-0,240	0,015
-738,312	800,000	0,027	-0,068
-737,298	-8,653	-0,404	-0,199
-736,283	-76,948	0,177	-0,045
-735,269	-114,302	-0,261	0,037
-734,254	-29,963	0,106	0,044
-733,239	-64,225	-0,491	-0,146
-732,225	-44,725	0,080	0,029
-731,210	-200,000	-0,006	0,069
-730,196	-200,000	-0,032	0,118
-729,181	-200,000	0,001	-0,023
-728,167	800,000	-0,062	-0,170
-727,152	322,395	-0,020	-0,028
-726,137	-40,892	-0,058	0,022
-725,123	-5,908	-0,075	-0,037
-724,108	-33,395	0,018	0,007
-723,094	800,000	-0,063	-0,141
-722,079	239,597	-0,070	0,085
-721,064	196,093	-0,021	-0,024
-720,050	-58,351	0,116	-0,037
-719,035	-108,139	0,026	-0,004
-718,021	-83,111	-0,106	-0,025
-717,006	-200,000	0,008	-0,120
-715,991	-106,140	-0,120	-0,020
-714,977	743,405	0,046	-0,091
-713,962	-89,975	0,008	-0,002
-712,948	-200,000	0,008	0,044
-711,933	94,694	0,064	-0,053
-710,918	-174,636	-0,057	-0,001
-709,904	-38,588	-0,031	0,012
-708,889	-200,000	-0,001	0,019
-707,875	-200,000	-0,005	-0,107
-706,860	-200,000	0,009	0,127
-705,845	-200,000	0,009	0,043
-704,831	800,000	0,023	-0,063
-703,816	-200,000	0,005	-0,044
-702,802	-200,000	-0,007	0,129
-701,787	-97,625	-0,103	-0,019
-700,772	-126,476	-0,092	0,010
-699,758	21,656	-0,135	0,081
-698,743	10,885	0,079	0,044
-697,729	-111,216	0,078	0,012
-696,714	-200,000	0,002	-0,088
-695,699	99,495	-0,039	-0,033
-694,685	-57,789	-0,073	-0,023
-693,670	-195,596	-0,133	-0,001
-692,656	-69,101	-0,035	-0,010
-691,641	-128,105	0,086	0,009
-690,627	-19,462	0,027	-0,012
-689,612	482,010	0,074	-0,124
-688,597	-140,766	0,064	0,005
-687,583	-200,000	-0,021	-0,223
-686,568	-87,736	-0,074	0,016
-685,554	55,482	-0,083	-0,059
-684,539	-200,000	0,032	0,128
-683,524	-106,139	0,084	-0,014
-682,510	800,000	0,027	-0,060
-681,495	27,335	0,130	-0,080
-680,481	800,000	-0,057	-0,136
-679,466	-200,000	-0,015	-0,069
-678,451	-33,814	0,099	0,040
-677,437	-70,406	-0,011	-0,003
-676,422	-70,985	0,135	0,037
-675,408	-200,000	-0,017	-0,066
-674,393	1,875	-0,064	-0,034
-673,378	-48,655	-0,069	0,024
-672,364	585,624	0,047	-0,085
-671,349	67,282	-0,080	-0,060
-670,335	-62,286	-0,148	0,045
-669,320	558,687	-0,031	0,054
-668,305	-200,000	0,012	0,043
-667,291	-200,000	-0,032	-0,119
-666,276	665,778	-0,058	-0,110
-665,262	-163,635	0,005	0,000
-664,247	-200,000	0,011	-0,045
-663,232	232,776	0,103	-0,125
-662,218	-200,000	0,042	-0,138
-661,203	134,311	0,089	0,085
-660,189	-91,315	0,082	-0,017
-659,174	800,000	0,023	-0,048
-658,159	799,255	0,026	-0,053
-657,145	119,285	-0,112	0,101
-656,130	614,141	0,071	-0,130
-655,116	728,519	-0,042	0,082
-654,101	6,766	0,064	0,035
-653,086	640,711	0,015	-0,029
-652,072	-200,000	-0,035	-0,150
-651,057	251,981	0,076	-0,094
-650,043	4,281	-0,098	-0,052
-649,028	-200,000	0,025	-0,148
-648,014	-200,000	0,040	0,143
-646,999	135,756	-0,114	0,109
-645,984	4,328	0,046	0,025
-644,970	-78,236	0,107	0,027
-643,955	-135,706	-0,106	-0,009
-642,941	-44,140	0,092	-0,034
-641,926	120,184	0,081	0,073
-640,911	145,412	-0,019	0,019
-639,897	543,297	-0,017	0,029
-638,882	60,355	-0,054	0,039
-637,868	800,000	0,013	0,036
-636,853	631,198	-0,089	-0,165
-635,838	266,591	-0,021	0,027
-634,824	-61,183	-0,012	-0,004
-633,809	-200,000	-0,001	0,004
-632,795	-8,443	-0,072	0,035
-631,780	-200,000	-0,007	-0,040
-630,765	7,261	-0,081	-0,044
-629,751	150,076	-0,056	-0,056
-628,736	800,000	-0,035	-0,099
-627,722	211,711	-0,082	-0,095
-626,707	-55,842	0,099	-0,032
-625,692	-200,000	-0,010	-0,125
-624,678	61,940	-0,053	0,039
-623,663	173,240	0,079	0,083
-622,649	-200,000	-0,021	-0,069
-621,634	49,864	-0,124	-0,086
-620,619	200,456	-0,058	0,065
-619,605	-33,928	0,060	0,024
-618,590	-95,625	0,097	0,019
-617,576	348,066	-0,026	0,037
-616,561	-106,524	-0,016	-0,003
-615,546	-200,000	-0,002	-0,014
-614,532	-105,923	-0,071	0,012
-613,517	388,889	-0,101	-0,154
-612,503	-200,000	0,007	0,041
-611,488	-99,297	0,113	-0,021
-610,474	528,272	0,067	-0,116
-609,459	-200,000	0,007	-0,027
-608,444	-156,181	-0,123	0,006
-607,430	18,051	-0,048	0,028
-606,415	76,358	-0,071	-0,055
-605,401	-200,000	-0,019	0,066
-604,386	-0,495	0,061	0,032
-603,371	80,932	0,015	-0,012
-602,357	49,127	0,085	-0,058
-601,342	-91,598	-0,129	0,027
-600,328	117,510	-0,118	-0,106
-599,313	160,927	-0,081	-0,083
-598,298	800,000	0,046	0,127
-597,284	195,202	0,038	0,042
-596,269	100,478	-0,074	0,063
-595,255	-159,602	-0,044	0,002
-594,240	267,570	-0,028	-0,037
-593,225	-157,563	-0,121	0,005
-592,211	-200,000	-0,021	-0,071
-591,196	800,000	0,017	0,037
-590,182	18,569	0,158	-0,092
-589,167	800,000	0,051	0,148
-588,152	800,000	-0,028	0,068
-587,138	-39,680	-0,071	-0,027
-586,123	-31,809	-0,151	-0,061
-585,109	-200,000	0,029	-0,124
-584,094	800,000	0,029	-0,065
-583,079	308,145	0,081	-0,110
-582,065	-51,444	0,056	0,019
-581,050	104,204	-0,063	-0,054
-580,036	-176,374	-0,177	-0,003
-579,021	153,739	0,040	-0,040
-578,006	800,000	-0,013	-0,037
-576,992	-160,333	0,092	-0,004
-575,977	800,000	-0,007	-0,022
-574,963	-200,000	0,040	0,178
-573,948	-80,674	0,011	0,003
-572,934	800,000	0,030	-0,062
-571,919	800,000	-0,028	-0,087
-570,904	101,671	0,071	-0,060
-569,890	-200,000	-0,062	-0,210
-568,875	-66,669	0,040	-0,011
-567,861	138,710	0,036	0,035
-566,846	635,991	-0,061	-0,114
-565,831	-112,336	-0,096	0,014
-564,817	12,698	0,054	-0,030
-563,802	350,722	-0,107	-0,155
-562,788	-200,000	-0,035	-0,119
-561,773	568,786	-0,046	-0,082
-560,758	238,036	0,092	-0,111
-559,744	134,249	-0,076	0,072
-558,729	71,703	0,141	0,107
-557,715	19,052	-0,060	-0,035
-556,700	-200,000	0,013	-0,044
-555,685	119,957	-0,143	-0,130
-554,671	-64,762	0,097	-0,028
-553,656	-200,000	0,037	0,121
-552,642	-200,000	-0,003	-0,079
-551,627	-200,000	-0,012	-0,069
-550,612	81,289	0,086	0,068
-549,598	-200,000	0,023	-0,122
-548,583	-25,710	-0,122	0,052
-547,569	-200,000	0,008	0,053
-546,554	-108,475	0,103	-0,016
-545,539	344,210	0,041	0,059
-544,525	-200,000	-0,032	0,137
-543,510	-168,409	-0,057	-0,002
-542,496	203,230	-0,049	-0,055
-541,481	427,557	-0,009	0,013
-540,466	-1,556	0,028	-0,014
-539,452	-96,882	0,091	0,017
-538,437	-200,000	0,002	-0,017
-537,423	800,000	-0,032	-0,077
-536,408	138,906	0,040	-0,039
-535,393	800,000	-0,038	0,081
-534,379	306,824	-0,028	-0,039
-533,364	3,704	0,133	-0,070
-532,350	132,582	-0,048	-0,045
-531,335	-34,284	0,086	0,034
-530,321	-159,560	-0,142	0,006
-529,306	-92,308	-0,139	-0,028
-528,291	800,000	0,030	-0,075
-527,277	784,861	0,016	0,031
-526,262	306,982	-0,090	-0,123
-525,248	91,905	0,028	-0,023
-524,233	-8,221	0,063	0,031
-523,218	104,320	-0,040	0,034
-522,204	322,997	0,065	0,090
-521,189	-70,796	-0,071	0,019
-520,175	170,270	-0,019	-0,020
-519,160	36,541	-0,076	-0,049
-518,145	-200,000	0,039	0,198
-517,131	9,902	-0,050	-0,028
-516,116	-15,326	0,102	0,048
-515,102	-200,000	-0,020	-0,179
-514,087	-32,153	-0,059	-0,024
-513,072	-169,211	0,019	0,000
-512,058	-16,063	-0,102	-0,047
-511,043	-128,353	-0,126	-0,013
-510,029	64,205	0,015	-0,011
-509,014	322,284	0,030	0,042
-507,999	3,020	0,034	0,018
-506,985	-104,895	-0,141	-0,023
-505,970	187,423	-0,090	-0,098
-504,956	97,046	0,086	-0,072
-503,941	-200,000	-0,005	0,067
-502,926	-9,009	-0,022	0,011
-501,912	470,581	-0,068	0,111
-500,897	704,533	0,071	0,137
-499,883	800,000	0,033	0,107
-498,868	-141,552	-0,044	-0,003
-497,853	519,361	-0,028	-0,048
-496,839	-200,000	-0,017	0,088
-495,824	800,000	-0,030	0,084
-494,810	-200,000	-0,002	-0,009
-493,795	199,822	-0,052	-0,059
-492,781	-200,000	0,014	0,053
-491,766	50,246	-0,042	-0,029
-490,751	-156,679	-0,094	-0,004
-489,737	-40,880	0,149	-0,056
-488,722	-200,000	0,008	-0,071
-487,708	90,513	-0,077	0,063
-486,693	800,000	0,021	0,066
-485,678	-200,000	-0,017	-0,147
-484,664	29,120	-0,105	0,065
-483,649	259,979	-0,057	0,072
-482,635	-200,000	0,013	-0,064
-481,620	73,419	-0,045	0,034
-480,605	508,912	-0,103	0,174
-479,591	-200,000	0,060	0,000
-478,576	189,746	-0,018	-0,020
-477,562	-200,000	0,013	-0,048
-476,547	58,783	0,045	-0,032
-475,532	219,879	-0,070	0,081
-474,518	5,315	0,019	-0,010
-473,503	800,000	0,046	0,116
-472,489	-200,000	0,024	0,089
-471,474	115,120	0,042	-0,037
-470,459	-39,920	-0,134	-0,050
-469,445	153,008	0,073	0,073
-468,430	355,452	0,012	-0,017
-467,416	-112,560	-0,105	0,015
-466,401	-82,748	0,081	0,019
-465,386	397,395	-0,016	0,024
-464,372	0,611	-0,088	0,046
-463,357	128,740	0,037	0,034
-462,343	97,144	-0,026	0,022
-461,328	800,000	0,047	-0,099
-460,313	277,112	0,054	0,071
-459,299	221,675	-0,083	0,097
-458,284	-22,927	-0,130	0,057
-457,270	-79,055	0,080	-0,020
-456,255	206,439	-0,068	-0,077
-455,241	-200,000	-0,023	-0,147
-454,226	20,269	0,170	0,100
-453,211	25,650	-0,081	0,049
-452,197	-200,000	0,022	0,081
-451,182	-200,000	-0,006	0,097
-450,168	-40,429	0,119	0,045
-449,153	800,000	-0,089	0,185
-448,138	45,654	0,095	0,063
-447,124	-200,000	-0,007	0,092
-446,109	122,051	0,054	0,049
-445,095	-200,000	-0,049	0,171
-444,080	562,525	0,037	0,066
-443,065	-200,000	-0,002	0,123
-442,051	129,446	0,075	0,070
-441,036	-139,966	-0,117	0,009
-440,022	41,146	0,104	-0,068
-439,007	-60,714	0,071	-0,022
-437,992	-166,120	-0,044	-0,001
-436,978	-112,365	0,005	0,001
-435,963	218,907	0,092	-0,107
-434,949	178,419	-0,054	0,058
-433,934	-153,890	-0,207	-0,010
-432,919	-73,538	-0,049	0,013
-431,905	-200,000	-0,009	0,034
-430,890	19,641	-0,077	0,045
-429,876	-104,123	0,199	0,033
-428,861	501,113	-0,018	-0,031
-427,846	-200,000	-0,004	0,098
-426,832	-21,021	-0,059	-0,026
-425,817	-39,575	-0,050	-0,019
-424,803	-119,246	-0,040	-0,005
-423,788	297,815	0,017	0,023
-422,773	800,000	0,043	-0,124
-421,759	80,566	0,025	-0,019
-420,744	-200,000	-0,005	0,156
-419,730	-174,109	-0,132	-0,003
-418,715	-200,000	0,012	-0,211
-417,701	-76,591	0,104	-0,026
-416,686	-26,907	0,114	0,048
-415,671	347,884	-0,065	0,094
-414,657	534,875	-0,013	-0,023
-413,642	-65,099	-0,066	0,019
-412,628	800,000	0,012	-0,031
-411,613	-2,828	-0,113	-0,057
-410,598	800,000	-0,028	-0,078
-409,584	742,430	0,087	0,171
-408,569	258,435	0,080	0,101
-407,555	380,401	0,069	-0,103
-406,540	0,017	-0,058	-0,030
-405,525	30,326	0,105	-0,065
-404,511	-104,660	-0,104	-0,017
-403,496	28,020	-0,069	-0,042
-402,482	800,000	0,026	-0,061
-401,467	-200,000	0,003	-0,091
-400,452	118,840	-0,055	-0,049
-399,438	404,333	0,017	-0,026
-398,423	-200,000	-0,004	-0,057
-397,409	-198,773	0,039	-0,000
-396,394	119,381	0,090	0,081
-395,379	-200,000	-0,001	0,023
-394,365	-3,526	0,047	-0,024
-393,350	-200,000	0,010	0,063
-392,336	-200,000	0,024	0,079
-391,321	80,002	-0,110	0,085
-390,306	-200,000	0,009	0,078
-389,292	-200,000	-0,032	-0,150
-388,277	800,000	-0,047	-0,121
-387,263	-28,840	0,172	0,071
-386,248	-31,970	0,155	-0,063
-385,233	478,106	0,019	0,031
-384,219	-5,505	-0,084	-0,042
-383,204	-200,000	-0,027	-0,132
-382,190	-18,659	-0,091	-0,041
-381,175	-200,000	0,007	0,043
-380,160	52,595	0,122	0,084
-379,146	93,903	0,059	0,049
-378,131	-80,925	0,059	0,014
-377,117	800,000	-0,080	0,221
-376,102	-200,000	0,001	-0,054
-375,088	-200,000	-0,026	0,096
-374,073	-200,000	-0,005	-0,039
-373,058	10,882	-0,102	0,056
-372,044	88,208	0,111	0,089
-371,029	-52,882	-0,125	0,042
-370,015	251,708	-0,059	0,074
-369,000	-79,739	-0,078	0,019
-367,985	-24,929	0,151	-0,065
-366,971	-200,000	0,001	-0,046
-365,956	98,033	0,112	0,094
-364,942	800,000	0,056	0,123
-363,927	164,692	-0,038	0,039
-362,912	-47,774	0,118	-0,041
-361,898	-16,203	0,029	-0,013
-360,883	432,697	-0,104	-0,165
-359,869	17,023	-0,134	-0,077
-358,854	-200,000	0,021	-0,073
-357,839	-43,789	-0,092	-0,033
-356,825	800,000	-0,055	0,129
-355,810	-200,000	-0,025	0,099
-354,796	251,830	-0,063	-0,077
-353,781	183,462	-0,041	0,044
-352,766	-51,798	0,198	-0,066
-351,752	-200,000	0,014	-0,062
-350,737	800,000	-0,011	0,031
-349,723	-35,423	-0,090	0,035
-348,708	800,000	-0,030	0,073
-347,693	634,523	0,049	0,091
-346,679	-200,000	0,001	0,018
-345,664	1,390	0,079	-0,041
-344,650	-200,000	0,019	0,109
-343,635	-200,000	-0,010	0,053
-342,620	112,115	0,095	-0,083
-341,606	185,120	0,031	-0,033
-340,591	-37,208	0,046	0,018
-339,577	-59,201	0,055	-0,017
-338,562	800,000	-0,063	0,138
-337,548	-145,550	0,076	-0,005
-336,533	358,607	0,089	-0,129
-335,518	26,342	-0,043	-0,026
-334,504	-131,416	0,074	-0,007
-333,489	239,372	0,029	-0,035
-332,475	-200,000	-0,010	-0,043
-331,460	800,000	0,046	-0,117
-330,445	800,000	0,022	0,059
-329,431	-200,000	0,000	-0,002
-328,416	-19,969	-0,036	-0,016
-327,402	-200,000	0,123	0,000
-326,387	-200,000	0,008	-0,040
-325,372	800,000	-0,057	-0,136
-324,358	1,000	-0,060	-0,031
-323,343	-72,269	-0,071	-0,019
-322,329	149,926	0,015	0,015
-321,314	800,000	0,051	0,158
-320,299	-126,293	0,053	-0,006
-319,285	269,620	0,048	0,061
-318,270	-112,428	-0,084	-0,012
-317,256	800,000	-0,053	0,111
-316,241	375,009	0,097	-0,143
-315,226	-43,133	-0,068	0,025
-314,212	-200,000	0,009	0,076
-313,197	-102,720	0,072	0,012
-312,183	800,000	0,054	0,143
-311,168	-200,000	-0,031	0,159
-310,153	214,847	-0,142	-0,163
-309,139	-81,655	0,084	0,020
-308,124	-16,251	0,037	-0,017
-307,110	215,350	-0,067	-0,077
-306,095	176,632	-0,049	-0,051
-305,080	-200,000	-0,023	-0,076
-304,066	-82,418	0,087	-0,020
-303,051	117,647	-0,051	0,045
-302,037	-112,543	0,128	0,018
-301,022	386,299	-0,067	0,101
-300,008	0,001	0,074	0,038
-298,993	800,000	0,034	0,083
-297,978	133,966	-0,068	0,064
-296,964	-8,226	0,141	-0,068
-295,949	41,902	0,088	-0,058
-294,935	-200,000	0,008	-0,032
-293,920	-200,000	-0,011	0,070
-292,905	378,886	0,049	0,073
-291,891	259,915	0,023	0,028
-290,876	191,842	0,078	0,085
-289,862	-25,299	-0,124	-0,053
-288,847	-200,000	0,003	-0,091
-287,832	297,720	0,031	-0,042
-286,818	-200,000	-0,004	-0,050
-285,803	4,974	-0,077	-0,041
-284,789	800,000	0,097	0,237
-283,774	-30,789	0,083	-0,034
-282,759	800,000	0,049	-0,115
-281,745	8,974	-0,077	-0,042
-280,730	-77,874	-0,103	-0,025
-279,716	114,958	0,050	0,044
-278,701	63,664	-0,030	-0,022
-277,686	800,000	-0,037	-0,101
-276,672	207,220	-0,076	-0,086
-275,657	-160,312	-0,021	0,001
-274,643	120,074	0,053	-0,048
-273,628	-200,000	-0,011	-0,110
-272,613	-200,000	-0,008	-0,066
-271,599	116,962	0,066	0,059
-270,584	-49,859	0,093	0,032
-269,570	101,582	-0,066	0,056
-268,555	70,598	-0,094	-0,070
-267,540	-4,915	-0,071	0,035
-266,526	255,875	-0,051	-0,063
-265,511	0,059	0,058	-0,030
-264,497	-200,000	0,015	-0,179
-263,482	800,000	0,040	0,086
-262,467	-86,379	0,089	-0,020
-261,453	-200,000	0,001	-0,059
-260,438	25,258	-0,059	0,035
-259,424	241,561	0,045	-0,055
-258,409	-116,216	-0,098	-0,013
-257,395	210,713	0,026	-0,030
-256,380	800,000	0,036	0,097
-255,365	717,421	0,127	0,245
-254,351	-200,000	0,029	0,124
-253,336	-200,000	0,004	0,057
-252,322	52,069	0,114	0,078
-251,307	-118,756	-0,119	-0,015
-250,292	386,271	0,062	0,093
-249,278	35,108	0,017	0,010
-248,263	800,000	0,048	0,101
-247,249	-200,000	0,034	0,193
-246,234	-23,274	0,051	0,022
-245,219	-200,000	0,019	0,118
-244,205	172,836	-0,030	0,032
-243,190	245,997	-0,105	0,128
-242,176	-32,668	-0,042	0,017
-241,161	211,186	-0,078	0,089
-240,146	-51,765	-0,090	0,030
-239,132	-87,162	0,110	0,024
-238,117	-82,887	-0,078	-0,018
-237,103	800,000	-0,014	0,033
-236,088	-104,902	0,179	-0,029
-235,073	-67,249	-0,038	0,011
-234,059	-65,838	0,108	-0,031
-233,044	-200,000	0,008	-0,089
-232,030	-200,000	0,039	-0,199
-231,015	73,904	0,096	-0,073
-230,000	-200,000	-0,015	-0,145
-228,986	800,000	-0,041	-0,097
-227,971	-30,344	0,154	0,063
-226,957	-117,086	0,068	0,009
-225,942	-200,000	-0,017	-0,092
-224,927	353,892	-0,033	0,047
-223,913	-39,076	-0,047	-0,018
-222,898	-200,000	-0,037	-0,139
-221,884	-118,137	0,041	-0,005
-220,869	-182,669	0,123	0,002
-219,855	214,444	0,008	0,010
-218,840	14,748	0,038	0,021
-217,825	255,180	0,124	-0,153
-216,811	800,000	0,016	-0,048
-215,796	-17,538	-0,177	-0,080
-214,782	-74,192	0,072	0,019
-213,767	714,621	-0,033	-0,064
-212,752	212,036	0,138	0,157
-211,738	-200,000	0,033	-0,124
-210,723	252,685	0,039	0,047
-209,709	99,104	0,107	-0,089
-208,694	397,011	0,058	0,088
-207,679	119,807	-0,031	0,028
-206,665	43,387	-0,100	0,065
-205,650	341,872	0,086	0,121
-204,636	-13,117	0,041	-0,019
-203,621	291,461	-0,066	0,086
-202,606	-130,347	-0,102	-0,010
-201,592	636,533	-0,025	0,046
-200,577	-200,000	0,014	-0,069
-199,563	392,306	0,018	-0,028
-198,548	800,000	0,043	-0,105
-197,533	-200,000	-0,008	0,086
-196,519	800,000	-0,037	-0,074
-195,504	455,954	-0,048	-0,077
-194,490	390,277	0,040	-0,059
-193,475	-200,000	-0,025	-0,091
-192,460	24,836	0,083	-0,049
-191,446	35,345	-0,063	-0,039
-190,431	272,942	-0,014	0,017
-189,417	0,990	-0,058	0,030
-188,402	800,000	0,029	0,091
-187,387	-127,871	-0,094	0,010
-186,373	319,594	0,092	-0,126
-185,358	238,370	0,068	0,082
-184,344	472,653	-0,041	0,067
-183,329	800,000	-0,028	0,075
-182,315	383,156	-0,094	0,139
-181,300	-200,000	-0,003	-0,042
-180,285	145,016	-0,054	-0,052
-179,271	106,388	-0,120	-0,102
-178,256	-105,166	-0,070	-0,011
-177,242	-161,642	0,140	-0,005
-176,227	-200,000	0,076	0,000
-175,212	240,723	-0,040	0,048
-174,198	-200,000	0,026	0,185
-173,183	-29,055	-0,074	0,030
-172,169	-200,000	0,010	-0,032
-171,154	38,203	-0,060	0,039
-170,139	-200,000	0,001	0,043
-169,125	-116,149	-0,088	0,012
-168,110	-94,480	0,027	-0,005
-167,096	568,282	0,012	-0,022
-166,081	-200,000	0,027	-0,109
-165,066	-69,276	0,035	-0,009
-164,052	-39,301	0,046	-0,017
-163,037	-151,692	0,067	0,003
-162,023	-122,427	0,109	-0,013
-161,008	423,688	-0,059	0,092
-159,993	133,266	0,119	-0,111
-158,979	-200,000	0,038	-0,136
-157,964	413,341	0,020	-0,030
-156,950	-50,486	-0,126	0,042
-155,935	-169,675	0,103	-0,003
-154,920	-200,000	0,009	-0,036
-153,906	112,001	0,046	-0,040
-152,891	75,215	0,044	0,033
-151,877	63,771	-0,137	0,099
-150,862	-19,234	0,068	-0,030
-149,847	800,000	0,063	-0,166
-148,833	-200,000	0,003	-0,032
-147,818	228,504	0,085	0,100
-146,804	125,180	-0,108	0,098
-145,789	321,210	-0,058	0,079
-144,775	221,580	0,043	0,050
-143,760	-200,000	0,008	-0,069
-142,745	-2,111	0,048	-0,024
-141,731	-200,000	0,018	0,082
-140,716	117,730	-0,075	0,067
-139,702	-200,000	-0,014	0,119
-138,687	49,892	0,125	0,084
-137,672	-85,725	0,081	-0,018
-136,658	178,779	0,116	-0,122
-135,643	398,497	-0,058	0,087
-134,629	48,999	-0,090	0,060
-133,614	-110,555	-0,058	0,009
-132,599	-130,003	0,186	0,018
-131,585	-200,000	0,024	-0,145
-130,570	431,877	-0,002	-0,002
-129,556	34,833	-0,071	-0,045
-128,541	-200,000	-0,008	-0,037
-127,526	-51,953	0,083	0,027
-126,512	203,743	0,049	0,054
-125,497	-95,593	0,044	-0,008
-124,483	-17,142	0,020	-0,009
-123,468	-200,000	-0,014	-0,080
-122,453	133,203	-0,063	0,058
-121,439	118,831	0,053	-0,047
-120,424	-200,000	0,004	-0,051
-119,410	38,459	0,192	-0,123
