DTS Sentinel unit serial number:	SN410029Multiplexer serial number:	ORYXHardware model number:	OX2-SRSoftware version number:	ORYX F/W v4,00 Oryx Data Collector v3.7.2.0data status	okinstallation	B5 Nyhavnadifferential loss correction	single-endedforward channel	channel 2reverse channel	N/Adate	2023/12/12time	10:57:13forward acquisition time	300,00reverse acquisition time	0,00gamma	499,1914k internal	0,3158k external	0,3158temperature offset calibration	1,0000default loss term (dB/km)	0,3820temperature slope calibration	1,0000multiplexer offset coefficient	1,0000multiplexer slope coefficient	1,0000fibre end	0,00T internal ref (°C)	15,01T ext. ref 1 (°C)	-1,23T ext. ref 2 (°C)	-1,49length (m)	temperature (°C)	Stokes	anti-Stokes-744,400	-28,925	0,054	0,023
-743,385	12,639	-0,175	0,099
-742,371	-88,180	0,120	-0,026
-741,356	-126,737	-0,275	-0,030
-740,342	-170,951	0,171	-0,004
-739,327	-143,663	-0,336	0,023
-738,312	-200,000	-0,005	-0,148
-737,298	-142,519	-0,373	0,027
-736,283	-118,807	0,078	0,010
-735,269	20,150	-0,322	0,191
-734,254	-200,000	0,007	0,106
-733,239	-31,695	-0,441	-0,181
-732,225	35,835	0,161	0,104
-731,210	-36,804	-0,148	0,058
-730,196	80,132	0,094	-0,074
-729,181	108,138	-0,082	0,072
-728,167	-200,000	0,001	-0,064
-727,152	83,532	-0,072	-0,058
-726,137	-135,741	-0,030	-0,003
-725,123	-99,064	-0,188	-0,035
-724,108	-78,439	-0,143	0,036
-723,094	-200,000	0,005	-0,067
-722,079	-98,491	-0,102	0,019
-721,064	21,286	-0,080	0,048
-720,050	-69,327	0,036	0,010
-719,035	-163,590	-0,138	-0,005
-718,021	22,348	0,094	0,056
-717,006	-95,904	-0,137	-0,027
-715,991	48,607	-0,012	0,008
-714,977	-52,269	-0,066	-0,022
-713,962	283,507	-0,080	-0,106
-712,948	224,957	-0,034	-0,040
-711,933	-200,000	-0,001	-0,048
-710,918	26,632	-0,076	-0,047
-709,904	-200,000	-0,066	0,000
-708,889	377,630	-0,046	0,070
-707,875	-104,961	-0,149	-0,025
-706,860	66,516	0,088	-0,066
-705,845	-53,703	0,098	-0,033
-704,831	701,401	-0,032	0,061
-703,816	-84,068	0,015	0,004
-702,802	-113,606	-0,126	0,018
-701,787	9,829	-0,122	0,068
-700,772	194,658	-0,113	0,126
-699,758	509,800	-0,013	-0,023
-698,743	-4,720	-0,144	0,073
-697,729	-200,000	0,020	-0,093
-696,714	-9,413	0,035	-0,017
-695,699	183,507	0,031	-0,033
-694,685	-156,930	-0,265	-0,012
-693,670	-108,432	-0,043	0,007
-692,656	-6,586	0,104	0,052
-691,641	305,252	0,023	0,032
-690,627	-61,520	-0,098	0,030
-689,612	-200,000	-0,017	0,130
-688,597	-200,000	0,015	-0,077
-687,583	90,521	0,162	0,134
-686,568	73,226	-0,187	-0,144
-685,554	332,237	0,015	-0,022
-684,539	-113,755	-0,069	0,010
-683,524	128,093	0,023	-0,022
-682,510	35,502	0,155	0,100
-681,495	16,668	-0,031	-0,018
-680,481	800,000	0,011	-0,032
-679,466	243,701	0,067	0,083
-678,451	6,584	-0,047	0,025
-677,437	800,000	0,038	-0,082
-676,422	84,975	-0,097	-0,078
-675,408	800,000	-0,046	0,121
-674,393	86,781	0,013	-0,010
-673,378	343,125	-0,083	-0,120
-672,364	800,000	0,024	-0,070
-671,349	151,818	0,006	-0,006
-670,335	233,931	0,070	0,085
-669,320	-47,720	0,120	-0,042
-668,305	-119,940	0,064	0,008
-667,291	228,367	-0,035	-0,042
-666,276	-24,822	0,163	-0,071
-665,262	800,000	0,022	-0,064
-664,247	241,245	-0,050	-0,062
-663,232	-200,000	0,015	-0,061
-662,218	-200,000	0,003	0,144
-661,203	-200,000	-0,023	-0,099
-660,189	97,542	0,177	-0,150
-659,174	697,569	-0,047	0,091
-658,159	-200,000	-0,003	-0,039
-657,145	253,928	-0,089	-0,112
-656,130	441,278	-0,023	-0,037
-655,116	800,000	-0,042	-0,087
-654,101	71,375	0,070	0,053
-653,086	-4,674	0,044	-0,022
-652,072	800,000	-0,028	-0,063
-651,057	-67,595	0,048	-0,014
-650,043	-200,000	-0,006	-0,104
-649,028	-200,000	0,020	-0,117
-648,014	-200,000	-0,005	0,057
-646,999	-120,040	0,135	0,017
-645,984	-104,043	0,148	0,025
-644,970	284,009	-0,081	-0,108
-643,955	335,079	0,056	-0,080
-642,941	-200,000	0,016	-0,115
-641,926	-85,483	-0,126	0,029
-640,911	-45,959	-0,156	-0,056
-639,897	-200,000	-0,002	-0,055
-638,882	-200,000	0,003	0,017
-637,868	-200,000	0,009	-0,054
-636,853	-163,427	-0,079	0,003
-635,838	-200,000	0,021	0,071
-634,824	-200,000	0,001	0,030
-633,809	-200,000	0,020	-0,156
-632,795	74,964	0,040	-0,031
-631,780	-39,733	0,082	-0,031
-630,765	-200,000	0,005	-0,064
-629,751	78,108	-0,045	-0,035
-628,736	-71,945	-0,072	0,020
-627,722	508,131	-0,015	0,026
-626,707	-12,481	-0,063	0,030
-625,692	292,416	-0,096	0,128
-624,678	-200,000	-0,016	0,062
-623,663	181,652	-0,069	0,074
-622,649	-200,000	0,040	0,210
-621,634	-200,000	0,030	-0,158
-620,619	800,000	-0,055	-0,171
-619,605	-82,013	0,103	0,024
-618,590	83,156	0,075	0,060
-617,576	-200,000	-0,042	0,157
-616,561	-176,330	-0,017	0,000
-615,546	-156,204	0,087	-0,004
-614,532	170,181	-0,060	0,063
-613,517	800,000	-0,043	-0,104
-612,503	124,245	0,026	-0,024
-611,488	-92,053	-0,099	0,020
-610,474	-200,000	0,020	-0,074
-609,459	90,803	0,109	-0,090
-608,444	-121,440	-0,099	-0,012
-607,430	321,013	0,024	-0,033
-606,415	-200,000	0,002	0,011
-605,401	800,000	0,059	-0,126
-604,386	85,581	-0,044	0,035
-603,371	52,138	-0,063	0,044
-602,357	-20,863	0,167	-0,075
-601,342	53,920	0,028	0,020
-600,328	-200,000	-0,017	-0,084
-599,313	642,219	-0,079	-0,149
-598,298	800,000	0,055	-0,113
-597,284	58,555	0,033	0,024
-596,269	343,576	-0,048	0,068
-595,255	-23,038	0,079	0,035
-594,240	30,307	-0,096	0,060
-593,225	800,000	-0,011	-0,036
-592,211	-200,000	-0,011	-0,050
-591,196	177,769	0,039	0,042
-590,182	755,847	-0,027	-0,054
-589,167	-200,000	-0,001	0,069
-588,152	-200,000	0,019	-0,105
-587,138	800,000	-0,006	-0,019
-586,123	89,184	-0,046	0,037
-585,109	248,075	-0,025	-0,031
-584,094	151,327	-0,103	-0,103
-583,079	800,000	-0,048	-0,121
-582,065	-200,000	-0,006	-0,060
-581,050	7,800	-0,069	0,038
-580,036	-141,388	-0,069	0,005
-579,021	-200,000	-0,037	0,130
-578,006	208,112	-0,079	-0,091
-576,992	199,738	-0,036	-0,040
-575,977	336,977	-0,044	-0,063
-574,963	-185,420	0,125	-0,001
-573,948	79,374	0,033	0,026
-572,934	-190,059	-0,144	-0,001
-571,919	746,269	0,051	-0,101
-570,904	175,357	-0,084	0,089
-569,890	-46,379	-0,202	-0,072
-568,875	56,955	0,078	0,056
-567,861	-99,705	-0,075	0,014
-566,846	182,140	0,027	0,030
-565,831	-40,540	-0,121	0,046
-564,817	-101,920	0,098	0,017
-563,802	95,827	-0,086	-0,072
-562,788	90,141	-0,096	-0,078
-561,773	-0,229	-0,088	0,046
-560,758	-171,065	0,055	0,001
-559,744	800,000	0,064	0,147
-558,729	134,006	0,085	0,081
-557,715	-122,834	-0,066	-0,008
-556,700	-118,584	-0,131	-0,017
-555,685	800,000	0,038	-0,082
-554,671	-200,000	0,008	-0,070
-553,656	-200,000	0,015	0,086
-552,642	-75,719	-0,100	0,026
-551,627	242,782	0,058	-0,072
-550,612	-167,375	-0,189	0,005
-549,598	-200,000	0,016	0,054
-548,583	296,154	-0,036	0,048
-547,569	-200,000	-0,003	0,026
-546,554	182,083	0,037	0,040
-545,539	89,785	-0,080	0,065
-544,525	-200,000	0,011	-0,056
-543,510	-86,131	-0,042	-0,009
-542,496	179,513	0,025	-0,027
-541,481	231,932	0,132	-0,159
-540,466	-27,773	-0,083	0,035
-539,452	389,537	0,097	-0,147
-538,437	800,000	-0,052	-0,121
-537,423	-200,000	0,004	0,104
-536,408	-200,000	0,019	-0,067
-535,393	253,952	-0,094	-0,118
-534,379	-80,358	0,041	0,010
-533,364	-44,481	-0,041	0,015
-532,350	508,932	0,072	-0,123
-531,335	-193,594	-0,073	-0,000
-530,321	370,927	-0,027	-0,040
-529,306	-4,871	-0,054	-0,027
-528,291	800,000	-0,017	0,049
-527,277	-200,000	0,000	-0,058
-526,262	-200,000	0,038	-0,130
-525,248	89,256	0,106	0,086
-524,233	136,301	-0,029	0,028
-523,218	-2,155	0,127	0,065
-522,204	207,881	-0,062	-0,070
-521,189	41,651	-0,024	-0,016
-520,175	800,000	-0,010	-0,027
-519,160	-20,798	-0,142	0,063
-518,145	646,492	0,044	0,082
-517,131	-93,299	0,156	-0,031
-516,116	10,337	0,060	-0,034
-515,102	-45,582	0,095	0,034
-514,087	-16,894	-0,072	-0,033
-513,072	274,597	0,042	0,055
-512,058	-51,089	-0,098	-0,033
-511,043	328,388	0,010	0,014
-510,029	123,825	0,064	0,058
-509,014	-200,000	0,029	0,105
-507,999	-132,959	-0,033	0,003
-506,985	24,613	0,066	-0,040
-505,970	121,753	-0,127	-0,115
-504,956	800,000	0,023	0,053
-503,941	272,209	0,063	0,082
-502,926	800,000	0,019	-0,043
-501,912	-80,116	0,164	0,040
-500,897	-200,000	-0,009	-0,084
-499,883	-27,584	-0,141	0,060
-498,868	-69,854	-0,059	-0,016
-497,853	-200,000	-0,016	-0,055
-496,839	-81,859	0,068	0,016
-495,824	276,804	0,091	0,119
-494,810	-62,604	-0,072	0,022
-493,795	800,000	0,037	0,084
-492,781	12,176	0,034	0,019
-491,766	-200,000	0,018	0,089
-490,751	205,990	-0,045	-0,051
-489,737	-19,524	0,091	0,041
-488,722	69,722	-0,039	-0,029
-487,708	800,000	0,016	0,048
-486,693	349,449	0,055	0,080
-485,678	167,118	0,103	0,107
-484,664	16,777	-0,182	-0,105
-483,649	-25,688	-0,072	0,031
-482,635	-47,860	0,054	-0,019
-481,620	-200,000	-0,014	-0,141
-480,605	-200,000	0,022	-0,138
-479,591	800,000	0,047	0,129
-478,576	800,000	-0,052	-0,135
-477,562	270,001	-0,063	0,082
-476,547	523,866	0,040	-0,068
-475,532	563,383	0,046	-0,081
-474,518	-26,065	0,024	-0,010
-473,503	-200,000	-0,010	-0,070
-472,489	-200,000	0,006	0,033
-471,474	165,668	-0,065	0,067
-470,459	220,160	-0,059	0,069
-469,445	76,213	-0,036	-0,028
-468,430	-200,000	0,010	-0,073
-467,416	800,000	0,049	0,122
-466,401	-55,468	0,079	0,026
-465,386	113,486	-0,073	-0,064
-464,372	15,544	0,115	-0,065
-463,357	686,946	0,090	-0,172
-462,343	-152,260	-0,102	0,005
-461,328	-200,000	-0,012	0,061
-460,313	800,000	0,019	-0,048
-459,299	-200,000	0,034	0,126
-458,284	-98,747	-0,075	0,014
-457,270	187,807	-0,049	0,053
-456,255	-138,217	0,019	-0,002
-455,241	156,120	-0,063	0,063
-454,226	89,351	0,096	-0,078
-453,211	-80,703	0,093	-0,022
-452,197	-200,000	0,087	0,000
-451,182	152,309	-0,035	0,035
-450,168	439,082	0,030	0,048
-449,153	42,406	0,065	-0,043
-448,138	541,490	0,028	0,049
-447,124	586,071	-0,065	-0,117
-446,109	60,948	0,071	-0,051
-445,095	-200,000	0,009	-0,056
-444,080	135,609	-0,080	0,076
-443,065	-200,000	0,001	-0,129
-442,051	-146,469	-0,147	0,009
-441,036	378,243	0,053	-0,079
-440,022	-123,354	-0,054	-0,006
-439,007	49,780	-0,124	-0,085
-437,992	800,000	-0,049	0,158
-436,978	25,837	-0,009	-0,005
-435,963	-12,640	0,043	0,020
-434,949	324,254	0,096	-0,134
-433,934	50,781	0,100	0,069
-432,919	194,465	0,068	0,075
-431,905	92,348	-0,090	0,074
-430,890	-200,000	0,022	0,115
-429,876	-200,000	-0,020	-0,083
-428,861	102,179	-0,118	-0,100
-427,846	800,000	0,097	0,222
-426,832	-200,000	0,018	-0,142
-425,817	41,300	-0,026	-0,017
-424,803	-200,000	0,002	0,049
-423,788	-103,173	0,083	0,014
-422,773	-97,675	-0,046	-0,009
-421,759	-52,211	-0,042	0,014
-420,744	-200,000	0,024	0,103
-419,730	800,000	-0,056	-0,165
-418,715	658,449	0,053	-0,100
-417,701	-200,000	-0,012	0,057
-416,686	-121,386	0,141	-0,017
-415,671	182,926	0,007	0,008
-414,657	37,446	0,091	0,059
-413,642	5,950	0,072	0,039
-412,628	-200,000	0,049	0,161
-411,613	-200,000	0,010	-0,037
-410,598	210,791	-0,145	0,166
-409,584	556,482	0,055	-0,097
-408,569	-200,000	0,022	0,094
-407,555	-34,482	0,029	-0,012
-406,540	-200,000	-0,003	0,038
-405,525	96,495	0,057	-0,048
-404,511	-111,562	-0,024	-0,004
-403,496	43,889	-0,046	-0,030
-402,482	-6,959	0,094	0,046
-401,467	800,000	-0,058	0,121
-400,452	173,493	0,097	0,102
-399,438	-63,239	0,151	-0,045
-398,423	-200,000	0,022	0,084
-397,409	-76,195	-0,073	0,019
-396,394	-200,000	0,000	-0,116
-395,379	366,218	0,003	-0,004
-394,365	-200,000	-0,007	-0,038
-393,350	-30,820	0,018	-0,007
-392,336	-54,179	-0,042	0,014
-391,321	-24,447	-0,063	-0,027
-390,306	-18,489	-0,028	0,013
-389,292	-51,931	0,164	0,055
-388,277	-152,940	0,148	0,007
-387,263	-200,000	-0,006	-0,062
-386,248	560,867	0,043	-0,076
-385,233	-120,476	0,062	0,008
-384,219	-126,353	-0,037	-0,004
-383,204	65,942	-0,138	-0,102
-382,190	469,914	0,070	0,115
-381,175	225,743	-0,055	-0,064
-380,160	-21,351	-0,102	-0,045
-379,146	597,155	0,084	-0,152
-378,131	-200,000	0,016	-0,062
-377,117	43,526	-0,052	-0,035
-376,102	-10,017	0,070	0,034
-375,088	58,874	0,039	0,028
-374,073	800,000	-0,039	-0,089
-373,058	-129,358	0,090	0,009
-372,044	-67,859	0,047	0,013
-371,029	-200,000	-0,002	-0,044
-370,015	-35,152	-0,107	0,042
-369,000	29,141	0,064	0,039
-367,985	78,664	-0,196	-0,152
-366,971	-85,793	0,109	0,024
-365,956	-200,000	-0,049	0,214
-364,942	231,000	-0,131	0,156
-363,927	-200,000	0,001	0,234
-362,912	101,632	-0,004	0,004
-361,898	-200,000	-0,037	-0,135
-360,883	-40,371	-0,143	0,054
-359,869	-50,367	0,098	0,033
-358,854	-200,000	0,000	-0,010
-357,839	-65,247	0,057	-0,017
-356,825	800,000	-0,034	0,107
-355,810	-100,701	-0,033	-0,006
-354,796	237,150	-0,021	-0,025
-353,781	270,725	0,025	-0,032
-352,766	123,680	-0,050	0,046
-351,752	141,568	-0,038	-0,036
-350,737	-5,943	-0,045	0,022
-349,723	95,674	-0,085	0,070
-348,708	94,751	0,224	0,185
-347,693	-67,972	0,100	0,028
-346,679	99,154	0,087	0,073
-345,664	-48,199	-0,040	-0,014
-344,650	-25,896	-0,106	0,045
-343,635	13,149	-0,057	0,032
-342,620	-141,504	0,123	-0,009
-341,606	214,664	0,050	-0,058
-340,591	532,807	0,078	0,134
-339,577	-200,000	0,009	-0,048
-338,562	64,333	0,032	-0,023
-337,548	176,919	0,115	-0,122
-336,533	-57,972	0,097	-0,030
-335,518	97,536	0,020	0,017
-334,504	-43,574	0,044	-0,016
-333,489	447,937	0,023	-0,037
-332,475	527,054	-0,040	0,069
-331,460	-200,000	0,041	-0,152
-330,445	40,573	-0,029	0,019
-329,431	800,000	-0,022	0,064
-328,416	500,543	0,040	-0,067
-327,402	350,461	-0,017	0,025
-326,387	-200,000	-0,003	0,093
-325,372	147,808	-0,066	-0,064
-324,358	188,085	-0,088	0,095
-323,343	31,084	-0,056	0,035
-322,329	-113,288	0,071	0,010
-321,314	-200,000	-0,003	0,187
-320,299	102,896	0,088	0,075
-319,285	-200,000	-0,018	-0,084
-318,270	6,309	-0,090	0,048
-317,256	-174,229	-0,066	-0,001
-316,241	-200,000	-0,002	-0,060
-315,226	10,744	-0,130	-0,072
-314,212	800,000	-0,021	0,055
-313,197	43,956	0,170	0,113
-312,183	800,000	-0,053	-0,162
-311,168	556,763	0,035	0,061
-310,153	761,633	0,039	-0,076
-309,139	-124,288	-0,069	-0,008
-308,124	261,605	-0,034	0,043
-307,110	237,936	0,130	0,157
-306,095	-77,035	0,020	0,005
-305,080	800,000	0,009	-0,021
-304,066	122,751	-0,118	0,107
-303,051	254,613	-0,047	-0,058
-302,037	-200,000	0,001	-0,030
-301,022	-20,560	0,041	0,018
-300,008	800,000	0,037	-0,079
-298,993	-21,415	0,166	-0,073
-297,978	-200,000	-0,007	0,096
-296,964	472,687	0,063	-0,104
-295,949	-87,254	-0,183	-0,040
-294,935	-200,000	0,002	-0,016
-293,920	196,857	0,026	-0,028
-292,905	-22,338	0,161	0,071
-291,891	376,379	0,015	-0,022
-290,876	800,000	-0,027	0,056
-289,862	-102,234	-0,100	-0,017
-288,847	337,157	-0,082	-0,116
-287,832	-200,000	0,006	0,078
-286,818	195,218	-0,026	-0,029
-285,803	800,000	-0,039	0,094
-284,789	315,761	0,112	-0,154
-283,774	-200,000	0,048	-0,164
-282,759	-145,135	-0,089	-0,006
-281,745	800,000	0,015	-0,032
-280,730	-200,000	-0,022	-0,072
-279,716	127,091	0,063	0,058
-278,701	150,614	-0,037	0,037
-277,686	141,263	-0,037	0,035
-276,672	-147,767	-0,046	0,003
-275,657	43,510	0,063	-0,042
-274,643	800,000	0,038	-0,093
-273,628	134,375	0,017	-0,016
-272,613	-18,801	-0,112	-0,050
-271,599	-200,000	0,008	0,064
-270,584	-169,013	0,059	0,002
-269,570	-200,000	-0,006	-0,030
-268,555	800,000	-0,028	-0,085
-267,540	-200,000	-0,009	0,097
-266,526	29,402	-0,090	-0,055
-265,511	-200,000	0,020	-0,091
-264,497	-200,000	0,001	-0,119
-263,482	-200,000	0,003	0,046
-262,467	-200,000	-0,005	0,028
-261,453	-179,102	0,075	0,001
-260,438	374,648	-0,019	0,029
-259,424	-80,641	0,128	-0,030
-258,409	10,708	-0,117	-0,065
-257,395	-200,000	0,005	-0,081
-256,380	376,643	0,056	0,083
-255,365	-200,000	0,017	0,074
-254,351	109,234	0,070	0,061
-253,336	510,096	0,034	0,057
-252,322	800,000	-0,032	-0,095
-251,307	-169,533	0,038	-0,001
-250,292	-180,866	-0,116	0,002
-249,278	72,801	0,083	0,063
-248,263	-132,738	-0,053	-0,005
-247,249	-102,029	0,134	0,023
-246,234	-51,650	-0,025	0,008
-245,219	54,364	-0,100	0,070
-244,205	426,189	-0,026	-0,041
-243,190	308,911	0,014	0,019
-242,176	50,819	-0,053	-0,036
-241,161	383,147	-0,054	0,081
-240,146	143,906	0,105	0,101
-239,132	314,813	0,057	0,078
-238,117	42,320	-0,145	-0,095
-237,103	210,180	0,065	-0,074
-236,088	28,366	-0,072	0,044
-235,073	-200,000	0,010	-0,071
-234,059	315,868	0,077	0,106
-233,044	67,312	-0,055	0,040
-232,030	800,000	-0,009	-0,020
-231,015	-46,549	-0,064	-0,023
-230,000	-119,066	-0,045	-0,006
-228,986	-119,193	-0,028	0,003
-227,971	70,880	0,021	-0,016
-226,957	800,000	0,027	-0,067
-225,942	10,719	-0,036	0,020
-224,927	-164,455	0,120	0,004
-223,913	554,648	0,006	0,011
-222,898	430,712	-0,044	0,069
-221,884	-200,000	0,009	-0,040
-220,869	-121,591	-0,100	-0,012
-219,855	-200,000	-0,023	0,122
-218,840	-200,000	0,010	0,114
-217,825	-200,000	0,009	0,108
-216,811	800,000	0,029	-0,083
-215,796	22,600	-0,035	-0,020
-214,782	-200,000	-0,023	0,088
-213,767	190,530	0,069	0,075
-212,752	422,949	0,037	0,058
-211,738	-50,843	0,095	0,032
-210,723	16,835	0,079	0,045
-209,709	-200,000	0,006	-0,084
-208,694	-55,199	-0,028	0,009
-207,679	102,529	0,041	-0,034
-206,665	-100,776	-0,077	-0,014
-205,650	-101,513	-0,108	0,019
-204,636	800,000	0,058	0,122
-203,621	800,000	-0,028	-0,062
-202,606	-200,000	-0,034	0,130
-201,592	501,217	0,033	-0,054
-200,577	341,268	-0,097	-0,137
-199,563	-2,961	0,219	-0,110
-198,548	-200,000	-0,002	-0,076
-197,533	-167,611	-0,048	0,001
-196,519	-200,000	0,011	0,111
-195,504	587,885	0,076	0,136
-194,490	800,000	-0,060	-0,140
-193,475	800,000	-0,017	-0,038
-192,460	85,762	-0,139	0,110
-191,446	150,400	0,046	-0,045
-190,431	-200,000	-0,008	-0,033
-189,417	-152,499	-0,039	0,002
-188,402	102,044	-0,059	0,050
-187,387	-58,048	-0,107	-0,033
-186,373	223,465	0,065	0,075
-185,358	200,018	-0,055	0,061
-184,344	800,000	-0,041	-0,096
-183,329	42,516	-0,147	0,096
-182,315	-200,000	0,017	0,107
-181,300	-28,562	0,085	0,035
-180,285	800,000	0,043	-0,115
-179,271	-200,000	0,014	-0,073
-178,256	303,753	0,051	-0,068
-177,242	309,628	0,087	0,118
-176,227	69,518	-0,047	0,035
-175,212	-200,000	-0,014	0,145
-174,198	477,342	-0,066	0,108
-173,183	800,000	0,059	-0,120
-172,169	-118,324	0,105	-0,013
-171,154	144,662	-0,084	-0,081
-170,139	-9,149	0,061	0,029
-169,125	800,000	-0,021	-0,047
-168,110	84,244	0,031	0,024
-167,096	61,841	0,095	0,068
-166,081	-200,000	-0,007	0,056
-165,066	-21,795	-0,075	-0,033
-164,052	131,568	0,113	-0,105
-163,037	-59,082	0,050	0,015
-162,023	680,199	-0,062	-0,117
-161,008	130,765	0,064	0,059
-159,993	-1,677	0,131	-0,066
-158,979	-65,764	-0,152	-0,043
-157,964	39,530	-0,141	-0,091
-156,950	793,312	0,038	0,076
-155,935	145,192	0,119	0,115
-154,920	-200,000	0,020	0,133
-153,906	53,655	-0,061	-0,042
-152,891	500,101	0,088	0,146
-151,877	-200,000	-0,007	0,080
-150,862	221,340	-0,066	-0,077
-149,847	-111,409	0,081	0,012
-148,833	4,449	-0,139	-0,073
-147,818	-111,532	0,042	0,006
-146,804	352,278	0,050	-0,071
-145,789	-200,000	0,017	0,101
-144,775	-118,512	-0,111	0,014
-143,760	-200,000	0,015	-0,115
-142,745	48,350	0,100	-0,067
-141,731	-13,742	-0,078	-0,036
-140,716	148,373	-0,026	0,025
-139,702	-200,000	0,053	0,218
-138,687	61,402	0,042	-0,030
-137,672	113,193	0,141	0,123
-136,658	-200,000	-0,022	0,147
-135,643	-42,288	-0,155	0,057
-134,629	-18,737	0,142	0,064
-133,614	22,437	0,051	-0,030
-132,599	109,922	-0,026	0,022
-131,585	-80,914	0,079	-0,019
-130,570	-200,000	-0,032	0,105
-129,556	148,427	0,035	-0,034
-128,541	800,000	-0,050	-0,143
-127,526	-64,446	0,053	-0,015
-126,512	-136,005	0,072	0,006
-125,497	-99,301	-0,036	0,006
-124,483	499,034	0,069	0,116
-123,468	-91,167	0,132	0,027
-122,453	-18,174	-0,095	-0,043
-121,439	-162,027	-0,222	-0,008
-120,424	-129,185	-0,118	-0,012
-119,410	800,000	0,057	0,126
-118,395	-97,829	-0,093	-0,017
