DTS Sentinel unit serial number:	SN410029Multiplexer serial number:	ORYXHardware model number:	OX2-SRSoftware version number:	ORYX F/W v4,00 Oryx Data Collector v3.7.2.0data status	okinstallation	B5 Nyhavnadifferential loss correction	single-endedforward channel	channel 2reverse channel	N/Adate	2023/12/11time	20:07:13forward acquisition time	300,00reverse acquisition time	0,00gamma	499,1914k internal	0,3159k external	0,3159temperature offset calibration	1,0000default loss term (dB/km)	0,3820temperature slope calibration	1,0000multiplexer offset coefficient	1,0000multiplexer slope coefficient	1,0000fibre end	0,00T internal ref (°C)	15,88T ext. ref 1 (°C)	0,04T ext. ref 2 (°C)	-0,17length (m)	temperature (°C)	Stokes	anti-Stokes-744,400	9,132	0,179	0,099
-743,385	-172,647	-0,356	0,008
-742,371	-200,000	0,032	-0,172
-741,356	-52,112	-0,225	-0,076
-740,342	800,000	0,064	0,169
-739,327	-143,097	-0,291	0,020
-738,312	-52,212	-0,059	0,020
-737,298	-183,863	-0,228	0,003
-736,283	31,722	0,151	-0,096
-735,269	-71,970	-0,248	-0,067
-734,254	-162,507	0,067	-0,002
-733,239	-20,125	-0,410	-0,186
-732,225	-137,439	0,235	0,019
-731,210	135,405	0,067	-0,065
-730,196	-200,000	-0,038	0,131
-729,181	24,070	0,131	-0,079
-728,167	-47,510	-0,049	0,017
-727,152	21,334	0,026	0,016
-726,137	346,217	-0,121	-0,176
-725,123	142,511	-0,113	-0,110
-724,108	-80,990	0,073	-0,018
-723,094	17,427	-0,069	-0,040
-722,079	-38,077	-0,109	-0,042
-721,064	124,059	-0,096	-0,089
-720,050	-70,404	-0,120	0,033
-719,035	-200,000	0,008	-0,030
-718,021	239,664	-0,045	-0,056
-717,006	20,218	-0,032	-0,019
-715,991	183,489	-0,094	-0,102
-714,977	-124,578	0,027	-0,003
-713,962	-129,839	-0,069	-0,007
-712,948	744,675	-0,044	0,087
-711,933	85,881	0,054	0,044
-710,918	-118,392	-0,118	-0,015
-709,904	519,745	-0,083	-0,143
-708,889	686,860	-0,040	-0,077
-707,875	83,703	0,069	-0,055
-706,860	524,473	0,009	0,016
-705,845	-165,844	-0,090	0,003
-704,831	22,059	0,142	0,085
-703,816	-21,752	0,021	0,009
-702,802	393,676	-0,100	-0,154
-701,787	678,389	-0,059	0,114
-700,772	-140,759	-0,116	-0,009
-699,758	13,002	0,142	-0,080
-698,743	346,780	-0,076	-0,110
-697,729	-65,448	-0,126	-0,037
-696,714	288,060	0,085	-0,114
-695,699	478,693	-0,021	-0,035
-694,685	-200,000	-0,005	0,072
-693,670	503,417	-0,090	-0,154
-692,656	-23,765	0,033	0,014
-691,641	29,325	0,038	-0,024
-690,627	-49,519	-0,034	-0,012
-689,612	75,869	-0,022	-0,017
-688,597	-58,978	0,035	0,011
-687,583	-7,186	-0,055	-0,027
-686,568	-92,027	0,092	0,019
-685,554	-35,867	-0,016	-0,006
-684,539	-39,443	0,149	0,057
-683,524	-149,956	-0,027	0,002
-682,510	104,051	-0,010	0,009
-681,495	211,765	0,060	0,069
-680,481	800,000	-0,033	-0,085
-679,466	-200,000	-0,004	-0,057
-678,451	13,473	-0,085	-0,049
-677,437	-36,722	0,071	0,028
-676,422	-200,000	0,021	-0,158
-675,408	21,721	-0,031	-0,019
-674,393	-200,000	0,005	0,019
-673,378	94,820	-0,084	-0,070
-672,364	800,000	0,034	-0,091
-671,349	146,576	-0,090	-0,089
-670,335	140,319	-0,070	-0,068
-669,320	-96,883	-0,109	-0,021
-668,305	513,717	-0,094	0,162
-667,291	-151,417	-0,060	-0,003
-666,276	-200,000	0,005	-0,049
-665,262	-133,743	-0,146	-0,013
-664,247	117,032	0,030	0,027
-663,232	800,000	0,063	-0,155
-662,218	-138,614	0,090	-0,007
-661,203	-129,061	-0,049	-0,005
-660,189	-47,691	-0,014	0,005
-659,174	-128,327	-0,039	-0,004
-658,159	-200,000	0,042	-0,144
-657,145	75,746	-0,045	0,035
-656,130	-200,000	-0,016	-0,136
-655,116	12,551	0,050	-0,028
-654,101	800,000	0,029	0,059
-653,086	-109,425	-0,161	-0,025
-652,072	800,000	-0,065	-0,186
-651,057	-30,552	-0,096	-0,040
-650,043	800,000	-0,050	-0,129
-649,028	324,684	0,032	0,044
-648,014	550,768	-0,074	-0,132
-646,999	800,000	0,017	-0,052
-645,984	-108,560	-0,133	-0,021
-644,970	-87,019	0,115	-0,026
-643,955	273,225	0,046	-0,060
-642,941	1,883	0,171	-0,090
-641,926	-200,000	-0,026	-0,086
-640,911	-30,582	-0,053	-0,022
-639,897	89,989	0,145	0,119
-638,882	54,344	-0,025	0,018
-637,868	203,981	0,095	0,109
-636,853	-200,000	-0,002	-0,084
-635,838	-136,906	-0,140	0,012
-634,824	78,552	0,085	0,066
-633,809	-27,846	-0,111	-0,047
-632,795	-3,607	0,054	-0,027
-631,780	390,457	0,013	0,020
-630,765	54,525	-0,025	-0,018
-629,751	-75,666	0,113	-0,029
-628,736	93,882	-0,062	-0,051
-627,722	-196,835	0,124	-0,001
-626,707	315,138	0,045	-0,063
-625,692	-59,785	0,104	0,033
-624,678	-124,650	0,071	0,008
-623,663	347,673	-0,027	-0,040
-622,649	-200,000	0,019	-0,193
-621,634	-200,000	0,012	0,048
-620,619	-28,130	0,046	-0,019
-619,605	277,649	0,077	0,100
-618,590	-136,924	0,112	-0,009
-617,576	188,762	-0,006	-0,007
-616,561	20,186	-0,101	0,059
-615,546	-200,000	0,002	-0,129
-614,532	406,483	0,040	-0,063
-613,517	800,000	0,046	-0,103
-612,503	568,136	0,061	0,108
-611,488	-200,000	0,004	-0,025
-610,474	278,904	0,119	-0,156
-609,459	-19,859	0,115	0,052
-608,444	59,452	-0,066	-0,048
-607,430	50,963	0,079	-0,055
-606,415	40,263	0,044	-0,029
-605,401	672,902	-0,071	-0,135
-604,386	-200,000	-0,009	-0,040
-603,371	-0,172	0,049	0,025
-602,357	63,066	-0,065	-0,048
-601,342	-200,000	0,015	-0,098
-600,328	166,241	0,059	-0,061
-599,313	-37,242	-0,180	-0,070
-598,298	-90,899	-0,036	0,008
-597,284	-86,763	0,088	0,020
-596,269	-11,191	-0,007	0,003
-595,255	800,000	0,086	-0,192
-594,240	89,473	-0,106	-0,086
-593,225	-137,165	0,035	-0,003
-592,211	-161,886	0,056	0,002
-591,196	-78,411	-0,079	0,020
-590,182	218,476	-0,090	0,105
-589,167	332,014	0,061	0,087
-588,152	147,924	-0,020	-0,019
-587,138	150,116	0,096	-0,095
-586,123	7,399	-0,111	-0,060
-585,109	-200,000	0,037	-0,142
-584,094	800,000	-0,059	-0,135
-583,079	5,465	-0,114	0,062
-582,065	-120,482	-0,085	0,010
-581,050	800,000	-0,039	0,106
-580,036	97,899	-0,056	0,047
-579,021	-200,000	-0,020	-0,145
-578,006	550,733	0,080	-0,142
-576,992	75,595	-0,049	-0,038
-575,977	70,748	0,124	0,094
-574,963	-39,275	-0,124	0,047
-573,948	5,244	0,049	-0,026
-572,934	800,000	-0,050	-0,123
-571,919	53,762	-0,070	0,049
-570,904	50,180	0,110	0,076
-569,890	233,100	0,006	-0,008
-568,875	203,752	0,012	-0,014
-567,861	-157,237	0,099	0,004
-566,846	369,613	0,016	-0,024
-565,831	259,932	0,060	-0,075
-564,817	270,631	0,066	-0,085
-563,802	194,313	-0,045	-0,050
-562,788	800,000	0,034	0,071
-561,773	496,536	-0,085	0,144
-560,758	-153,542	0,127	-0,006
-559,744	-102,791	-0,097	-0,017
-558,729	31,071	0,111	-0,070
-557,715	307,723	0,036	-0,050
-556,700	-200,000	-0,030	-0,171
-555,685	-200,000	-0,013	-0,099
-554,671	476,344	0,067	-0,111
-553,656	800,000	-0,026	-0,074
-552,642	360,966	0,089	0,131
-551,627	-118,337	-0,111	-0,014
-550,612	358,944	-0,052	-0,076
-549,598	5,568	0,065	-0,035
-548,583	-200,000	0,002	-0,054
-547,569	800,000	-0,067	-0,193
-546,554	178,048	0,051	0,055
-545,539	235,009	0,070	-0,085
-544,525	-200,000	0,022	-0,189
-543,510	584,858	-0,068	-0,123
-542,496	3,042	0,086	-0,046
-541,481	-11,845	0,044	0,021
-540,466	800,000	-0,043	-0,087
-539,452	-110,380	0,183	-0,028
-538,437	800,000	0,010	-0,023
-537,423	36,305	-0,052	0,033
-536,408	269,858	-0,036	-0,046
-535,393	168,138	-0,083	0,086
-534,379	-0,568	-0,114	-0,059
-533,364	-115,566	-0,009	0,001
-532,350	137,918	-0,081	-0,078
-531,335	-116,662	0,146	-0,019
-530,321	-200,000	0,025	0,082
-529,306	-200,000	-0,013	0,081
-528,291	-200,000	0,005	-0,027
-527,277	389,903	-0,077	-0,118
-526,262	511,764	-0,019	-0,033
-525,248	-20,798	0,100	-0,045
-524,233	457,459	-0,029	0,047
-523,218	-200,000	0,001	0,021
-522,204	308,045	-0,043	0,059
-521,189	775,308	0,040	-0,080
-520,175	-200,000	-0,002	-0,027
-519,160	-200,000	0,010	-0,059
-518,145	800,000	0,010	-0,022
-517,131	394,832	-0,020	0,030
-516,116	12,064	-0,076	-0,043
-515,102	98,305	-0,078	0,065
-514,087	-27,601	-0,039	0,017
-513,072	145,944	-0,114	-0,112
-512,058	800,000	0,018	0,048
-511,043	-200,000	0,014	0,069
-510,029	800,000	-0,080	0,168
-509,014	-200,000	-0,014	0,127
-507,999	-102,821	0,102	0,018
-506,985	-128,279	0,082	0,008
-505,970	-38,863	-0,063	-0,024
-504,956	800,000	-0,053	-0,119
-503,941	57,617	0,039	0,028
-502,926	-200,000	-0,001	-0,049
-501,912	-200,000	-0,001	-0,119
-500,897	89,226	0,089	-0,072
-499,883	-59,960	0,017	-0,005
-498,868	235,470	-0,006	-0,007
-497,853	-200,000	-0,006	-0,031
-496,839	-200,000	-0,037	0,175
-495,824	83,304	-0,031	0,024
-494,810	-189,802	-0,012	0,000
-493,795	89,874	0,023	-0,019
-492,781	-63,269	-0,047	0,014
-491,766	800,000	0,068	-0,157
-490,751	-71,929	-0,106	-0,029
-489,737	-52,711	-0,055	0,019
-488,722	-200,000	-0,016	-0,079
-487,708	80,240	0,102	0,080
-486,693	106,626	-0,067	0,058
-485,678	-94,932	-0,050	-0,010
-484,664	142,619	0,038	-0,037
-483,649	114,562	-0,108	0,096
-482,635	101,168	-0,061	-0,052
-481,620	800,000	0,024	0,055
-480,605	-200,000	-0,005	0,040
-479,591	18,651	0,197	-0,115
-478,576	244,505	-0,078	-0,095
-477,562	60,794	0,119	-0,086
-476,547	800,000	-0,022	-0,055
-475,532	-200,000	0,029	0,111
-474,518	-3,748	-0,022	-0,011
-473,503	-159,758	0,043	0,002
-472,489	-200,000	-0,010	-0,047
-471,474	-72,669	0,105	0,028
-470,459	26,445	-0,041	-0,025
-469,445	-200,000	-0,005	-0,025
-468,430	-200,000	-0,025	-0,108
-467,416	800,000	0,015	-0,031
-466,401	800,000	-0,056	0,159
-465,386	226,313	0,053	0,063
-464,372	-80,748	-0,089	0,021
-463,357	-200,000	-0,020	0,142
-462,343	-200,000	-0,003	0,033
-461,328	235,463	-0,044	0,053
-460,313	6,763	-0,061	0,033
-459,299	456,519	-0,031	-0,050
-458,284	168,361	-0,064	-0,066
-457,270	-199,462	-0,107	0,000
-456,255	-50,847	-0,040	-0,014
-455,241	-47,763	-0,034	0,012
-454,226	200,261	0,092	-0,103
-453,211	-200,000	-0,012	-0,099
-452,197	-200,000	0,004	0,071
-451,182	107,036	-0,015	0,013
-450,168	6,356	-0,071	0,038
-449,153	-200,000	0,001	0,080
-448,138	-125,944	0,077	-0,008
-447,124	393,792	-0,096	0,147
-446,109	-200,000	0,007	0,032
-445,095	-113,916	0,125	0,018
-444,080	216,873	0,044	-0,051
-443,065	-200,000	-0,027	0,110
-442,051	795,080	-0,060	-0,122
-441,036	124,158	-0,053	0,048
-440,022	-200,000	-0,010	0,090
-439,007	100,746	0,055	-0,046
-437,992	521,765	-0,045	-0,077
-436,978	5,986	0,030	0,016
-435,963	-200,000	-0,022	-0,099
-434,949	-27,267	-0,065	-0,027
-433,934	-139,478	-0,102	0,008
-432,919	-113,667	-0,108	-0,015
-431,905	-38,851	-0,013	0,005
-430,890	-200,000	0,026	0,093
-429,876	-200,000	0,028	0,102
-428,861	158,575	0,060	0,061
-427,846	429,099	0,006	-0,010
-426,832	65,959	-0,054	0,039
-425,817	-99,104	-0,136	0,025
-424,803	-143,726	-0,045	-0,003
-423,788	800,000	-0,049	0,145
-422,773	-0,568	0,109	0,056
-421,759	800,000	0,041	-0,124
-420,744	285,177	0,045	0,060
-419,730	-200,000	-0,010	-0,040
-418,715	332,953	0,041	-0,058
-417,701	80,022	0,055	-0,043
-416,686	-40,258	0,088	0,033
-415,671	108,719	-0,079	0,068
-414,657	800,000	0,070	0,168
-413,642	404,248	-0,015	-0,023
-412,628	86,713	-0,079	-0,063
-411,613	34,112	0,059	-0,037
-410,598	140,008	-0,024	0,023
-409,584	40,293	-0,079	-0,051
-408,569	800,000	0,034	0,108
-407,555	800,000	0,024	0,055
-406,540	-79,357	-0,140	-0,034
-405,525	-129,681	-0,142	-0,014
-404,511	38,488	0,075	-0,048
-403,496	482,407	-0,061	-0,102
-402,482	58,841	-0,050	-0,036
-401,467	800,000	-0,045	0,117
-400,452	-96,611	-0,008	0,001
-399,438	-192,541	0,150	-0,001
-398,423	31,323	0,023	0,014
-397,409	519,826	-0,036	0,061
-396,394	-108,594	-0,166	-0,026
-395,379	-91,273	0,057	0,012
-394,365	-179,486	0,025	0,000
-393,350	88,089	0,069	-0,056
-392,336	49,373	-0,061	0,042
-391,321	-69,321	-0,066	0,018
-390,306	-88,154	-0,096	-0,021
-389,292	490,687	0,028	-0,047
-388,277	-128,033	-0,098	0,010
-387,263	407,268	0,056	0,086
-386,248	-65,450	-0,080	0,023
-385,233	-76,890	0,047	0,012
-384,219	-162,366	0,078	0,003
-383,204	800,000	-0,040	-0,121
-382,190	-200,000	-0,001	0,017
-381,175	800,000	-0,036	-0,078
-380,160	45,541	-0,060	0,040
-379,146	153,154	0,019	0,018
-378,131	-141,713	0,142	-0,010
-377,117	134,524	0,094	-0,089
-376,102	68,248	-0,052	-0,039
-375,088	-200,000	0,005	-0,131
-374,073	-200,000	0,030	-0,163
-373,058	35,923	0,185	0,118
-372,044	320,685	-0,049	-0,067
-371,029	-200,000	-0,004	0,020
-370,015	-200,000	-0,010	0,051
-369,000	-200,000	0,011	-0,121
-367,985	95,105	0,049	-0,041
-366,971	-67,712	0,068	-0,019
-365,956	746,106	0,065	-0,128
-364,942	-200,000	0,015	0,174
-363,927	800,000	-0,015	0,036
-362,912	800,000	-0,016	-0,050
-361,898	800,000	-0,040	0,122
-360,883	442,515	0,032	0,051
-359,869	281,210	0,029	-0,038
-358,854	-80,548	0,061	-0,015
-357,839	-32,971	0,124	-0,050
-356,825	-54,413	-0,128	-0,042
-355,810	140,165	-0,029	-0,028
-354,796	-200,000	-0,019	0,101
-353,781	800,000	0,006	-0,011
-352,766	-14,766	0,103	0,048
-351,752	-155,435	-0,017	-0,001
-350,737	-200,000	0,007	0,157
-349,723	800,000	0,026	0,082
-348,708	-148,963	0,082	0,005
-347,693	129,122	-0,074	-0,068
-346,679	-126,605	0,049	0,005
-345,664	133,470	0,019	0,018
-344,650	-200,000	-0,024	0,127
-343,635	-81,261	0,037	-0,009
-342,620	800,000	-0,067	0,136
-341,606	405,086	0,098	0,150
-340,591	-200,000	-0,023	0,136
-339,577	710,068	-0,029	-0,055
-338,562	454,821	0,042	-0,067
-337,548	326,304	0,023	0,032
-336,533	108,371	0,052	0,045
-335,518	-200,000	-0,008	0,044
-334,504	800,000	-0,030	0,095
-333,489	-53,526	-0,038	-0,013
-332,475	-92,669	-0,177	0,036
-331,460	-92,641	-0,111	-0,022
-330,445	111,854	-0,035	0,031
-329,431	-62,044	-0,081	0,024
-328,416	-92,250	0,170	-0,034
-327,402	800,000	-0,069	0,149
-326,387	-200,000	0,001	0,138
-325,372	800,000	-0,063	0,143
-324,358	-157,608	-0,122	-0,005
-323,343	-9,452	0,106	0,051
-322,329	24,857	0,041	-0,025
-321,314	79,552	0,123	-0,096
-320,299	256,995	-0,089	0,111
-319,285	800,000	-0,045	-0,091
-318,270	528,206	0,064	-0,110
-317,256	-200,000	0,028	-0,170
-316,241	126,156	-0,038	0,035
-315,226	44,355	-0,021	-0,014
-314,212	726,622	-0,102	0,198
-313,197	-65,788	0,043	0,012
-312,183	-200,000	-0,003	0,066
-311,168	3,168	-0,042	-0,022
-310,153	117,465	-0,025	-0,022
-309,139	-200,000	0,001	0,069
-308,124	35,314	0,052	-0,033
-307,110	-98,087	-0,048	0,009
-306,095	33,725	0,049	0,031
-305,080	-200,000	-0,014	0,076
-304,066	-163,501	-0,093	-0,003
-303,051	-74,330	0,059	-0,015
-302,037	204,252	-0,051	-0,058
-301,022	48,582	-0,024	0,016
-300,008	150,960	-0,048	0,047
-298,993	359,375	0,042	0,060
-297,978	-200,000	-0,016	0,081
-296,964	13,111	0,035	0,019
-295,949	249,147	0,015	0,019
-294,935	-200,000	-0,010	-0,069
-293,920	27,516	0,105	-0,064
-292,905	126,564	-0,023	-0,021
-291,891	800,000	-0,033	-0,102
-290,876	-116,859	-0,120	-0,016
-289,862	80,608	0,034	-0,026
-288,847	-200,000	-0,009	0,113
-287,832	-200,000	0,027	-0,197
-286,818	654,561	0,041	-0,076
-285,803	90,695	0,187	0,152
-284,789	-122,267	-0,050	0,006
-283,774	-98,249	0,092	-0,017
-282,759	-200,000	-0,022	-0,114
-281,745	7,629	-0,076	0,041
-280,730	800,000	-0,049	-0,128
-279,716	-111,203	-0,068	0,010
-278,701	-200,000	-0,007	-0,056
-277,686	-200,000	-0,012	0,038
-276,672	-76,034	0,043	0,011
-275,657	216,319	0,108	0,125
-274,643	-200,000	-0,023	0,122
-273,628	543,562	-0,027	0,046
-272,613	441,932	-0,095	0,151
-271,599	-29,626	0,049	0,020
-270,584	592,182	0,064	0,116
-269,570	38,002	-0,060	0,038
-268,555	-200,000	-0,022	-0,074
-267,540	741,108	-0,033	-0,064
-266,526	-200,000	-0,004	0,059
-265,511	70,451	0,093	-0,070
-264,497	-200,000	0,020	0,123
-263,482	99,622	-0,021	0,018
-262,467	201,466	-0,107	0,120
-261,453	-200,000	0,018	0,236
-260,438	336,275	-0,069	-0,097
-259,424	-200,000	-0,007	-0,116
-258,409	104,548	-0,125	0,107
-257,395	-145,113	0,082	-0,005
-256,380	-106,791	-0,052	-0,008
-255,365	40,234	0,043	0,028
-254,351	800,000	0,035	-0,100
-253,336	-200,000	-0,023	0,193
-252,322	-118,446	-0,050	0,006
-251,307	29,986	0,096	0,059
-250,292	-200,000	-0,009	0,035
-249,278	800,000	0,028	0,085
-248,263	-200,000	-0,005	0,148
-247,249	-200,000	0,017	0,109
-246,234	246,675	-0,021	-0,026
-245,219	114,170	-0,057	-0,051
-244,205	109,452	0,026	-0,022
-243,190	-77,191	-0,092	0,023
-242,176	389,024	0,053	0,079
-241,161	96,433	-0,012	-0,010
-240,146	800,000	-0,043	-0,129
-239,132	-65,370	-0,078	-0,023
-238,117	44,902	-0,104	-0,069
-237,103	-200,000	0,009	-0,037
-236,088	-200,000	-0,007	0,109
-235,073	-47,410	0,071	0,025
-234,059	-144,623	-0,063	-0,004
-233,044	68,927	-0,057	-0,042
-232,030	-27,866	0,100	0,042
-231,015	-54,451	0,143	-0,047
-230,000	-120,355	0,025	0,003
-228,986	-200,000	-0,013	-0,079
-227,971	126,962	0,040	-0,036
-226,957	-200,000	0,041	0,153
-225,942	-25,901	-0,044	-0,019
-224,927	7,463	-0,087	-0,047
-223,913	218,173	-0,051	0,059
-222,898	-200,000	0,048	-0,200
-221,884	-200,000	0,019	0,116
-220,869	183,666	0,096	0,102
-219,855	-35,525	-0,058	0,023
-218,840	110,085	-0,088	-0,077
-217,825	-183,532	0,101	-0,001
-216,811	133,252	-0,094	-0,088
-215,796	-84,456	0,014	-0,003
-214,782	238,005	-0,059	0,071
-213,767	400,818	0,105	0,160
-212,752	-21,993	0,131	0,057
-211,738	-60,782	0,120	-0,036
-210,723	35,401	0,026	-0,017
-209,709	-200,000	-0,008	-0,085
-208,694	-128,414	-0,049	0,005
-207,679	-200,000	0,016	0,116
-206,665	800,000	-0,068	0,147
-205,650	100,937	-0,019	0,016
-204,636	-10,337	-0,120	0,057
-203,621	-43,869	0,016	0,006
-202,606	-200,000	-0,012	0,143
-201,592	144,283	-0,027	0,026
-200,577	429,910	0,033	-0,052
-199,563	228,626	0,048	0,056
-198,548	-200,000	0,010	0,099
-197,533	-200,000	-0,013	0,081
-196,519	-161,798	0,042	-0,002
-195,504	11,976	0,068	-0,037
-194,490	800,000	-0,003	-0,006
-193,475	751,585	0,037	0,073
-192,460	-200,000	-0,003	-0,146
-191,446	-104,826	0,094	0,016
-190,431	-200,000	-0,011	0,049
-189,417	593,990	-0,042	-0,075
-188,402	800,000	0,023	0,060
-187,387	800,000	0,021	-0,054
-186,373	-200,000	-0,001	-0,032
-185,358	-200,000	0,006	-0,028
-184,344	196,241	-0,032	0,036
-183,329	-200,000	0,015	0,102
-182,315	-200,000	0,033	0,134
-181,300	-6,419	-0,112	-0,055
-180,285	-200,000	0,022	0,095
-179,271	74,672	-0,066	-0,050
-178,256	-200,000	-0,006	0,029
-177,242	32,683	-0,038	-0,024
-176,227	800,000	0,056	0,162
-175,212	437,702	0,024	0,038
-174,198	800,000	0,025	0,056
-173,183	386,002	-0,039	-0,058
-172,169	57,133	-0,099	-0,069
-171,154	800,000	0,012	0,025
-170,139	-200,000	-0,007	0,178
-169,125	-160,215	0,038	-0,001
-168,110	-23,076	0,175	0,075
-167,096	800,000	-0,035	-0,074
-166,081	94,952	0,043	-0,035
-165,066	-112,068	-0,072	-0,010
-164,052	-200,000	-0,009	-0,087
-163,037	800,000	0,024	-0,063
-162,023	-92,939	0,074	0,015
-161,008	800,000	-0,047	0,121
-159,993	-200,000	0,016	-0,130
-158,979	52,447	-0,032	-0,022
-157,964	-29,402	-0,072	-0,029
-156,950	-200,000	0,030	-0,138
-155,935	-80,214	0,063	0,015
-154,920	20,015	-0,102	0,059
-153,906	546,718	-0,054	-0,093
-152,891	106,004	0,085	0,072
-151,877	800,000	0,024	0,063
-150,862	62,636	-0,087	-0,063
-149,847	75,597	-0,131	-0,099
-148,833	-200,000	0,065	0,207
-147,818	162,426	0,183	0,185
-146,804	263,846	-0,026	0,033
-145,789	81,725	0,041	-0,032
-144,775	800,000	-0,030	0,075
-143,760	269,043	-0,085	-0,108
-142,745	-95,884	0,016	0,003
-141,731	-44,696	-0,101	0,036
-140,716	50,992	0,021	0,014
-139,702	47,222	0,060	0,040
-138,687	-52,535	0,044	-0,014
-137,672	-200,000	0,052	-0,195
-136,658	-95,795	-0,034	-0,006
-135,643	-122,996	-0,065	-0,007
-134,629	205,883	-0,077	-0,087
-133,614	-200,000	0,035	-0,148
-132,599	-97,547	0,205	0,038
-131,585	-200,000	0,015	-0,050
-130,570	127,162	-0,056	-0,051
-129,556	145,371	0,140	-0,135
-128,541	800,000	-0,033	-0,081
-127,526	414,035	0,021	0,033
-126,512	-200,000	-0,017	-0,116
-125,497	447,591	0,057	-0,091
-124,483	103,436	-0,115	0,097
-123,468	-200,000	0,011	0,066
-122,453	-94,123	-0,112	-0,022
-121,439	800,000	-0,043	0,128
-120,424	-200,000	-0,016	-0,080
