DTS Sentinel unit serial number:	SN410029Multiplexer serial number:	ORYXHardware model number:	OX2-SRSoftware version number:	ORYX F/W v4,00 Oryx Data Collector v3.7.2.0data status	okinstallation	B5 Nyhavnadifferential loss correction	single-endedforward channel	channel 2reverse channel	N/Adate	2023/12/13time	17:42:13forward acquisition time	300,00reverse acquisition time	0,00gamma	499,1914k internal	0,3158k external	0,3158temperature offset calibration	1,0000default loss term (dB/km)	0,3820temperature slope calibration	1,0000multiplexer offset coefficient	1,0000multiplexer slope coefficient	1,0000fibre end	0,00T internal ref (°C)	13,54T ext. ref 1 (°C)	-3,80T ext. ref 2 (°C)	-3,91length (m)	temperature (°C)	Stokes	anti-Stokes-744,400	-200,000	-0,013	0,122
-743,385	-127,924	-0,374	-0,039
-742,371	-48,803	0,206	0,072
-741,356	-103,064	-0,269	-0,046
-740,342	-143,092	0,186	-0,013
-739,327	-77,839	-0,273	-0,069
-738,312	-1,469	0,147	0,076
-737,298	-134,948	-0,353	0,031
-736,283	-86,153	0,091	0,020
-735,269	-180,360	-0,270	0,004
-734,254	-200,000	-0,025	0,112
-733,239	-54,099	-0,448	-0,149
-732,225	-22,030	0,211	0,094
-731,210	191,605	0,052	0,057
-730,196	-110,167	0,142	0,022
-729,181	-65,494	-0,070	0,021
-728,167	-200,000	-0,006	0,079
-727,152	181,945	-0,013	-0,015
-726,137	-200,000	-0,014	-0,060
-725,123	-200,000	0,016	-0,125
-724,108	666,297	-0,030	-0,058
-723,094	93,737	-0,087	-0,073
-722,079	-66,983	-0,137	-0,039
-721,064	74,352	-0,154	0,119
-720,050	-124,134	-0,102	0,012
-719,035	-200,000	0,004	-0,028
-718,021	406,924	-0,052	-0,081
-717,006	-200,000	-0,002	-0,252
-715,991	-143,606	-0,106	-0,007
-714,977	-156,345	-0,042	0,002
-713,962	-200,000	0,009	0,205
-712,948	-92,050	0,090	0,019
-711,933	177,144	0,039	-0,042
-710,918	-99,786	0,038	-0,007
-709,904	-115,528	-0,082	0,011
-708,889	112,914	-0,036	-0,032
-707,875	30,302	0,064	0,040
-706,860	14,645	0,045	0,026
-705,845	800,000	0,042	-0,097
-704,831	-17,597	-0,017	-0,008
-703,816	-5,935	-0,042	-0,021
-702,802	800,000	0,028	-0,061
-701,787	276,664	-0,031	-0,040
-700,772	-41,867	-0,193	-0,072
-699,758	255,241	-0,033	0,042
-698,743	760,464	-0,065	0,131
-697,729	-200,000	0,002	-0,057
-696,714	-200,000	0,002	0,022
-695,699	800,000	-0,031	0,075
-694,685	26,353	-0,123	-0,076
-693,670	-32,558	-0,069	-0,028
-692,656	-137,021	0,110	0,009
-691,641	29,140	0,180	0,112
-690,627	661,924	-0,018	0,035
-689,612	391,003	-0,057	0,088
-688,597	-41,328	-0,117	0,044
-687,583	26,087	0,029	-0,018
-686,568	800,000	-0,032	-0,072
-685,554	-200,000	-0,033	-0,121
-684,539	800,000	-0,021	0,060
-683,524	-119,575	0,049	-0,006
-682,510	141,197	-0,099	0,096
-681,495	800,000	-0,021	0,062
-680,481	800,000	0,012	-0,025
-679,466	127,349	-0,085	-0,079
-678,451	-39,173	-0,030	0,011
-677,437	742,784	-0,030	-0,060
-676,422	-200,000	0,022	-0,071
-675,408	21,405	0,080	-0,047
-674,393	5,009	-0,039	-0,021
-673,378	25,771	0,022	0,014
-672,364	-200,000	0,035	-0,130
-671,349	789,286	0,037	0,075
-670,335	-200,000	-0,019	-0,072
-669,320	800,000	-0,025	0,055
-668,305	-200,000	0,015	0,064
-667,291	-200,000	-0,015	-0,081
-666,276	86,265	-0,027	-0,022
-665,262	-106,999	0,049	-0,008
-664,247	-200,000	0,037	-0,170
-663,232	-178,872	-0,110	-0,002
-662,218	551,013	0,059	-0,105
-661,203	-69,442	-0,066	0,019
-660,189	76,174	-0,050	-0,039
-659,174	6,958	-0,123	-0,067
-658,159	146,094	-0,050	0,049
-657,145	398,032	0,039	-0,060
-656,130	526,181	0,040	-0,069
-655,116	-108,873	0,205	0,032
-654,101	464,452	-0,046	-0,077
-653,086	-200,000	0,009	-0,053
-652,072	-91,596	-0,074	0,015
-651,057	-57,055	0,057	0,018
-650,043	-40,827	-0,100	-0,038
-649,028	-200,000	0,014	0,065
-648,014	-20,084	0,081	-0,036
-646,999	800,000	0,042	0,095
-645,984	-178,121	-0,118	-0,002
-644,970	-76,231	0,122	0,031
-643,955	800,000	0,115	-0,280
-642,941	-24,992	-0,069	0,030
-641,926	328,495	0,041	0,058
-640,911	800,000	-0,022	-0,050
-639,897	34,608	0,064	-0,041
-638,882	-25,775	-0,007	0,003
-637,868	-97,290	0,180	0,034
-636,853	-171,951	-0,049	-0,001
-635,838	800,000	0,047	-0,100
-634,824	77,885	-0,072	0,056
-633,809	13,952	0,064	-0,037
-632,795	800,000	0,048	-0,118
-631,780	800,000	0,024	0,056
-630,765	-84,616	-0,097	0,022
-629,751	800,000	0,025	0,053
-628,736	405,670	-0,019	-0,030
-627,722	16,155	-0,060	-0,035
-626,707	-77,204	0,157	-0,040
-625,692	67,327	0,010	0,008
-624,678	-81,801	-0,109	-0,026
-623,663	-55,655	0,054	-0,018
-622,649	-88,932	-0,019	0,004
-621,634	-0,135	-0,120	-0,062
-620,619	800,000	-0,083	-0,212
-619,605	280,417	-0,070	-0,092
-618,590	-123,704	0,174	-0,020
-617,576	-37,648	-0,123	0,048
-616,561	-29,772	0,103	0,043
-615,546	800,000	-0,012	0,029
-614,532	-91,397	-0,021	0,004
-613,517	0,080	0,087	-0,045
-612,503	-200,000	-0,005	0,059
-611,488	19,288	0,090	0,053
-610,474	182,127	-0,068	0,074
-609,459	-200,000	-0,004	-0,069
-608,444	-200,000	0,006	0,083
-607,430	28,240	-0,073	0,045
-606,415	800,000	0,030	0,078
-605,401	94,992	-0,065	-0,054
-604,386	-109,370	0,207	-0,032
-603,371	800,000	0,053	0,111
-602,357	-92,353	-0,077	0,016
-601,342	-200,000	-0,003	0,073
-600,328	-34,037	0,037	-0,015
-599,313	43,224	0,085	-0,057
-598,298	-117,420	0,072	-0,009
-597,284	-24,217	0,145	0,063
-596,269	-138,076	-0,058	0,005
-595,255	-149,052	0,163	-0,009
-594,240	-200,000	0,008	-0,123
-593,225	-200,000	-0,014	-0,143
-592,211	-9,215	-0,181	-0,088
-591,196	-119,878	0,086	-0,011
-590,182	111,670	-0,061	-0,054
-589,167	800,000	-0,011	0,033
-588,152	136,797	-0,152	0,146
-587,138	-137,938	-0,179	0,014
-586,123	-152,847	-0,117	0,006
-585,109	-200,000	0,001	-0,093
-584,094	471,347	-0,012	0,020
-583,079	800,000	0,058	0,162
-582,065	422,073	0,025	-0,039
-581,050	89,228	-0,100	0,082
-580,036	135,442	-0,076	-0,073
-579,021	-170,931	-0,253	0,006
-578,006	36,896	0,080	0,052
-576,992	800,000	0,010	0,028
-575,977	-144,449	-0,093	-0,006
-574,963	-144,770	0,138	-0,009
-573,948	28,253	-0,044	0,027
-572,934	800,000	0,033	0,096
-571,919	-200,000	-0,003	-0,042
-570,904	273,448	-0,093	-0,121
-569,890	800,000	0,046	-0,136
-568,875	91,172	0,092	0,075
-567,861	0,778	0,124	-0,065
-566,846	72,474	-0,038	-0,029
-565,831	-72,576	-0,100	0,027
-564,817	-9,568	0,076	-0,037
-563,802	-200,000	-0,012	-0,182
-562,788	301,531	-0,028	-0,038
-561,773	-81,901	-0,117	0,028
-560,758	-200,000	0,007	0,068
-559,744	-34,567	-0,029	-0,012
-558,729	-200,000	-0,027	0,136
-557,715	98,793	0,010	-0,008
-556,700	-92,698	-0,074	-0,015
-555,685	-200,000	-0,010	-0,068
-554,671	-200,000	-0,001	-0,132
-553,656	195,365	0,057	0,064
-552,642	800,000	-0,031	-0,062
-551,627	-92,466	-0,072	-0,015
-550,612	800,000	-0,027	0,073
-549,598	-200,000	-0,018	-0,122
-548,583	-70,736	-0,107	-0,029
-547,569	83,472	-0,079	-0,063
-546,554	-60,080	0,188	0,058
-545,539	91,720	-0,035	0,029
-544,525	-117,976	-0,109	-0,014
-543,510	-200,000	0,060	-0,198
-542,496	-88,436	-0,131	0,028
-541,481	526,730	0,061	-0,105
-540,466	-200,000	-0,016	-0,059
-539,452	-200,000	0,004	0,122
-538,437	87,307	0,044	-0,036
-537,423	-49,184	-0,018	-0,006
-536,408	-98,746	-0,111	0,020
-535,393	-124,468	-0,103	0,012
-534,379	160,359	0,059	0,060
-533,364	193,475	0,050	-0,056
-532,350	-143,172	0,060	0,004
-531,335	800,000	0,042	-0,096
-530,321	735,757	-0,028	0,055
-529,306	800,000	-0,038	0,090
-528,291	-200,000	-0,016	-0,056
-527,277	237,572	-0,043	-0,052
-526,262	102,564	0,108	0,093
-525,248	-99,837	0,035	-0,006
-524,233	357,372	0,048	0,070
-523,218	-17,645	-0,074	-0,034
-522,204	241,048	-0,114	-0,139
-521,189	800,000	-0,032	-0,084
-520,175	413,081	-0,042	-0,065
-519,160	-200,000	0,004	-0,092
-518,145	-200,000	0,072	-0,000
-517,131	55,063	0,056	-0,039
-516,116	77,270	0,112	0,087
-515,102	-106,178	0,041	-0,007
-514,087	295,793	-0,037	-0,050
-513,072	174,719	0,017	0,018
-512,058	-50,906	-0,043	0,015
-511,043	47,993	0,011	0,008
-510,029	-200,000	-0,036	-0,173
-509,014	-57,201	-0,110	-0,035
-507,999	640,399	-0,072	-0,134
-506,985	26,664	-0,174	-0,106
-505,970	-200,000	-0,008	-0,059
-504,956	-200,000	-0,011	-0,090
-503,941	562,161	0,058	-0,102
-502,926	400,350	0,058	0,088
-501,912	82,969	0,108	0,086
-500,897	-200,000	-0,032	0,111
-499,883	-88,977	0,027	0,006
-498,868	55,052	0,060	0,042
-497,853	6,893	0,033	-0,018
-496,839	-177,136	0,113	-0,002
-495,824	-200,000	0,011	-0,125
-494,810	35,897	-0,088	0,057
-493,795	222,400	0,049	0,058
-492,781	-92,443	-0,084	0,017
-491,766	69,696	0,050	-0,038
-490,751	155,767	-0,096	0,097
-489,737	11,807	-0,034	0,019
-488,722	-200,000	-0,025	-0,147
-487,708	472,255	0,026	-0,042
-486,693	258,979	0,075	-0,094
-485,678	89,693	-0,041	-0,033
-484,664	8,128	-0,136	-0,074
-483,649	54,111	-0,030	0,021
-482,635	-72,179	-0,089	0,024
-481,620	210,440	0,035	0,040
-480,605	-61,805	-0,046	0,014
-479,591	260,719	0,096	0,121
-478,576	501,476	-0,017	0,030
-477,562	268,631	0,027	0,034
-476,547	330,593	0,020	0,028
-475,532	33,907	-0,021	-0,013
-474,518	-1,736	0,102	0,052
-473,503	-47,403	0,027	-0,009
-472,489	-200,000	-0,003	0,104
-471,474	-95,136	-0,046	0,009
-470,459	367,751	-0,024	-0,036
-469,445	-200,000	0,033	-0,112
-468,430	195,148	-0,112	-0,124
-467,416	-69,240	0,146	0,041
-466,401	-146,886	-0,107	0,007
-465,386	-1,586	0,075	-0,038
-464,372	800,000	-0,022	0,071
-463,357	-166,245	-0,019	0,001
-462,343	-10,720	-0,148	-0,071
-461,328	-159,672	-0,050	0,002
-460,313	60,648	-0,051	0,036
-459,299	-117,594	-0,098	0,013
-458,284	251,832	0,057	-0,071
-457,270	800,000	-0,051	0,106
-456,255	-49,003	0,013	0,005
-455,241	265,148	0,038	-0,048
-454,226	-94,590	-0,022	0,004
-453,211	-78,670	0,106	0,026
-452,197	800,000	0,053	-0,109
-451,182	-200,000	0,011	0,081
-450,168	-116,479	0,058	0,008
-449,153	5,421	-0,137	0,074
-448,138	800,000	0,033	-0,090
-447,124	433,482	-0,051	-0,081
-446,109	-200,000	-0,032	0,111
-445,095	-92,822	-0,056	-0,011
-444,080	402,451	0,066	0,102
-443,065	43,967	0,014	0,009
-442,051	-200,000	-0,033	0,112
-441,036	460,129	-0,073	-0,118
-440,022	-63,437	0,024	0,007
-439,007	-141,895	-0,111	-0,008
-437,992	45,349	0,051	-0,035
-436,978	220,299	0,106	0,124
-435,963	-17,270	0,164	0,075
-434,949	800,000	-0,044	-0,108
-433,934	800,000	-0,062	-0,166
-432,919	-30,269	0,029	0,012
-431,905	70,192	-0,035	0,027
-430,890	-200,000	0,004	0,101
-429,876	11,051	0,041	-0,023
-428,861	800,000	-0,051	-0,137
-427,846	40,262	0,115	0,075
-426,832	386,438	0,028	0,043
-425,817	-11,547	0,136	0,065
-424,803	482,616	-0,020	-0,033
-423,788	-51,436	0,022	0,008
-422,773	25,138	-0,071	0,043
-421,759	800,000	-0,037	0,098
-420,744	57,050	-0,036	0,026
-419,730	-92,993	-0,108	-0,022
-418,715	512,495	-0,019	0,033
-417,701	-70,773	0,117	-0,032
-416,686	800,000	0,012	0,034
-415,671	-97,189	0,176	0,033
-414,657	800,000	0,014	0,034
-413,642	-137,886	-0,095	-0,008
-412,628	-200,000	-0,007	-0,034
-411,613	-200,000	0,012	0,128
-410,598	-7,990	0,148	0,073
-409,584	-28,819	0,085	0,035
-408,569	800,000	-0,037	-0,116
-407,555	-200,000	-0,026	0,133
-406,540	79,346	0,123	-0,096
-405,525	187,849	0,063	-0,069
-404,511	274,986	-0,068	0,088
-403,496	800,000	-0,082	0,169
-402,482	-41,865	-0,064	-0,024
-401,467	-142,797	0,115	0,008
-400,452	445,342	0,037	-0,060
-399,438	-112,972	-0,127	0,018
-398,423	-83,262	0,079	0,018
-397,409	299,814	-0,066	-0,089
-396,394	-200,000	-0,010	-0,049
-395,379	-200,000	0,007	0,076
-394,365	658,867	-0,035	0,066
-393,350	800,000	0,044	0,141
-392,336	247,617	-0,015	0,018
-391,321	268,240	-0,030	0,038
-390,306	-200,000	-0,040	0,156
-389,292	-130,722	-0,092	0,009
-388,277	313,902	0,048	-0,066
-387,263	236,914	-0,116	-0,139
-386,248	-200,000	0,017	0,085
-385,233	-83,043	-0,036	0,008
-384,219	-110,932	0,183	0,027
-383,204	676,719	0,043	-0,082
-382,190	-200,000	0,019	-0,071
-381,175	130,579	0,028	0,026
-380,160	-200,000	-0,020	-0,093
-379,146	-200,000	0,006	0,069
-378,131	-104,543	0,097	-0,016
-377,117	12,858	0,062	0,034
-376,102	-200,000	0,040	-0,146
-375,088	800,000	-0,032	-0,084
-374,073	-200,000	0,014	0,138
-373,058	-18,917	0,043	0,019
-372,044	-96,741	0,068	-0,013
-371,029	376,306	0,089	0,133
-370,015	800,000	0,026	0,078
-369,000	-64,817	0,038	0,011
-367,985	26,738	0,047	-0,028
-366,971	-87,710	-0,040	-0,009
-365,956	375,132	0,017	0,025
-364,942	-111,057	0,023	0,003
-363,927	215,596	0,085	-0,098
-362,912	-200,000	-0,016	-0,057
-361,898	-200,000	0,026	0,181
-360,883	704,204	-0,014	-0,027
-359,869	-200,000	-0,009	-0,110
-358,854	-200,000	-0,008	0,076
-357,839	51,750	-0,091	0,063
-356,825	-200,000	0,041	0,142
-355,810	-200,000	-0,000	0,064
-354,796	-71,983	-0,015	0,004
-353,781	372,522	-0,011	-0,017
-352,766	329,431	-0,080	-0,113
-351,752	800,000	-0,034	-0,104
-350,737	-200,000	-0,017	-0,064
-349,723	14,256	0,049	0,028
-348,708	-200,000	-0,015	0,091
-347,693	-126,623	-0,048	-0,005
-346,679	-200,000	-0,006	-0,066
-345,664	-2,602	-0,088	-0,044
-344,650	-200,000	0,018	-0,091
-343,635	123,281	-0,037	-0,034
-342,620	-200,000	0,001	0,137
-341,606	-35,143	-0,029	-0,011
-340,591	167,403	0,150	0,155
-339,577	-77,756	-0,144	-0,036
-338,562	-142,927	0,141	-0,010
-337,548	-64,767	0,054	0,016
-336,533	-200,000	-0,002	0,116
-335,518	800,000	0,021	0,060
-334,504	390,755	-0,041	0,062
-333,489	-92,660	-0,083	-0,017
-332,475	-200,000	0,024	-0,186
-331,460	-200,000	0,003	-0,019
-330,445	-69,218	-0,055	0,015
-329,431	800,000	0,063	-0,127
-328,416	-200,000	0,002	-0,090
-327,402	740,200	-0,080	0,157
-326,387	-114,389	-0,159	-0,022
-325,372	632,452	-0,019	-0,035
-324,358	145,368	0,139	-0,135
-323,343	-11,898	0,040	0,019
-322,329	-200,000	0,009	-0,055
-321,314	-200,000	0,010	-0,066
-320,299	-200,000	-0,002	-0,039
-319,285	-200,000	-0,005	0,034
-318,270	161,919	-0,026	-0,026
-317,256	-200,000	0,046	-0,170
-316,241	800,000	-0,029	-0,068
-315,226	46,918	0,066	-0,045
-314,212	17,909	-0,065	-0,037
-313,197	274,703	0,093	0,120
-312,183	563,053	-0,048	0,085
-311,168	313,010	0,050	0,068
-310,153	-8,725	-0,041	0,020
-309,139	-200,000	0,014	-0,139
-308,124	-200,000	0,002	-0,021
-307,110	800,000	0,025	-0,065
-306,095	800,000	-0,035	0,101
-305,080	800,000	-0,034	0,081
-304,066	-200,000	-0,011	0,108
-303,051	800,000	-0,041	-0,100
-302,037	800,000	-0,055	0,137
-301,022	-4,283	0,006	-0,003
-300,008	-194,815	0,068	0,000
-298,993	12,898	0,025	-0,014
-297,978	-70,199	0,047	0,013
-296,964	332,289	-0,010	-0,014
-295,949	-200,000	-0,011	-0,080
-294,935	-90,403	-0,136	-0,028
-293,920	758,818	0,015	-0,030
-292,905	22,494	-0,059	-0,035
-291,891	283,712	-0,066	0,086
-290,876	95,598	-0,062	0,051
-289,862	79,767	-0,121	-0,094
-288,847	-56,745	-0,017	-0,005
-287,832	495,916	-0,028	-0,047
-286,818	-200,000	-0,003	0,022
-285,803	-200,000	-0,009	0,092
-284,789	550,651	0,094	0,164
-283,774	58,780	-0,092	0,065
-282,759	-113,269	0,078	0,011
-281,745	-68,703	0,055	-0,015
-280,730	87,758	-0,087	-0,070
-279,716	10,539	-0,113	0,062
-278,701	-200,000	-0,000	0,165
-277,686	-45,309	0,103	0,037
-276,672	-103,573	0,037	0,006
-275,657	112,376	-0,014	-0,012
-274,643	227,936	-0,051	0,060
-273,628	800,000	-0,056	-0,159
-272,613	-74,956	0,004	-0,001
-271,599	-200,000	0,048	0,228
-270,584	-97,153	0,019	-0,004
-269,570	149,505	0,066	0,065
-268,555	398,149	-0,061	0,093
-267,540	-200,000	-0,015	-0,121
-266,526	-62,312	-0,094	-0,028
-265,511	129,204	-0,041	-0,038
-264,497	85,713	0,057	0,045
-263,482	-4,398	0,126	0,063
-262,467	-200,000	0,044	0,150
-261,453	-200,000	-0,024	-0,101
-260,438	-200,000	0,020	-0,071
-259,424	-200,000	0,006	-0,049
-258,409	341,988	-0,056	-0,079
-257,395	-116,860	-0,113	-0,015
-256,380	800,000	0,030	0,060
-255,365	-200,000	-0,001	0,022
-254,351	-200,000	0,009	-0,043
-253,336	423,719	0,079	0,124
-252,322	10,948	0,080	0,044
-251,307	26,894	0,024	0,015
-250,292	55,581	0,045	0,032
-249,278	-200,000	-0,013	0,059
-248,263	-133,477	-0,039	-0,004
-247,249	-44,577	-0,016	0,006
-246,234	800,000	-0,025	0,058
-245,219	800,000	-0,022	0,046
-244,205	70,789	-0,095	-0,071
-243,190	-200,000	0,014	0,049
-242,176	797,618	0,003	0,006
-241,161	-88,820	0,119	0,025
-240,146	161,247	0,069	0,070
-239,132	-51,144	-0,109	0,037
-238,117	-200,000	0,006	-0,079
-237,103	-200,000	-0,021	-0,103
-236,088	-79,251	0,210	0,051
-235,073	38,412	0,089	-0,057
-234,059	22,152	-0,040	-0,024
-233,044	416,608	0,016	0,025
-232,030	-197,624	-0,136	0,001
-231,015	-90,891	-0,139	-0,029
-230,000	800,000	-0,047	-0,148
-228,986	314,260	-0,084	-0,115
-227,971	-200,000	0,005	-0,084
-226,957	10,376	0,093	0,051
-225,942	-200,000	0,022	-0,082
-224,927	97,474	0,059	0,049
-223,913	-200,000	0,030	-0,143
-222,898	-200,000	-0,011	-0,097
-221,884	-200,000	-0,019	0,086
-220,869	22,026	0,133	0,078
-219,855	675,576	-0,038	0,072
-218,840	-200,000	0,018	-0,066
-217,825	-4,789	-0,087	0,043
-216,811	327,023	0,040	-0,055
-215,796	575,258	-0,039	0,068
-214,782	-200,000	0,000	0,079
-213,767	800,000	0,052	0,106
-212,752	364,016	0,073	-0,106
-211,738	201,127	-0,049	0,055
-210,723	355,798	0,031	-0,045
-209,709	84,362	-0,036	0,028
-208,694	130,164	0,033	-0,030
-207,679	800,000	0,009	-0,025
-206,665	800,000	-0,040	0,118
-205,650	-130,696	-0,081	-0,008
-204,636	3,678	0,173	0,091
-203,621	-68,000	-0,088	-0,025
-202,606	-85,818	-0,108	0,024
-201,592	161,687	0,082	-0,083
-200,577	-97,692	0,061	0,011
-199,563	5,638	-0,053	0,028
-198,548	-160,811	0,212	0,008
-197,533	-200,000	0,027	0,133
-196,519	-59,939	0,021	-0,006
-195,504	-200,000	0,051	-0,190
-194,490	-76,744	0,016	0,004
-193,475	-200,000	-0,024	0,097
-192,460	-200,000	0,011	0,064
-191,446	653,234	0,021	0,040
-190,431	325,752	0,050	0,069
-189,417	800,000	-0,009	-0,019
-188,402	-5,168	0,101	0,050
-187,387	87,114	-0,062	-0,050
-186,373	-133,046	-0,060	0,005
-185,358	800,000	0,072	-0,172
-184,344	-200,000	0,010	0,072
-183,329	800,000	0,100	0,214
-182,315	-200,000	0,002	-0,013
-181,300	-200,000	-0,029	-0,145
-180,285	63,775	0,030	-0,022
-179,271	40,542	-0,054	0,035
-178,256	-200,000	-0,001	-0,127
-177,242	800,000	-0,030	0,061
-176,227	-200,000	-0,022	0,090
-175,212	-103,445	-0,010	0,002
-174,198	52,114	0,093	-0,064
-173,183	-104,690	-0,256	0,042
-172,169	188,237	0,026	-0,028
-171,154	-200,000	0,001	0,206
-170,139	-200,000	0,028	-0,092
-169,125	364,909	-0,023	-0,034
-168,110	-29,225	0,047	-0,019
-167,096	-106,766	0,154	0,024
-166,081	800,000	0,075	-0,160
-165,066	-91,394	-0,073	-0,015
-164,052	77,967	-0,053	0,040
-163,037	-108,576	-0,069	0,011
-162,023	800,000	-0,048	0,101
-161,008	24,276	0,087	0,051
-159,993	-117,760	0,102	-0,013
-158,979	165,082	-0,057	0,058
-157,964	189,615	-0,070	0,075
-156,950	-82,328	-0,043	0,010
-155,935	-79,695	0,051	-0,012
-154,920	-105,351	-0,056	-0,009
-153,906	-8,514	0,062	0,030
-152,891	800,000	-0,025	0,068
-151,877	137,304	-0,143	0,135
-150,862	157,558	0,040	0,040
-149,847	457,908	0,097	-0,156
-148,833	-9,391	-0,104	0,050
-147,818	-55,993	-0,097	-0,031
-146,804	-200,000	0,053	0,190
-145,789	800,000	-0,009	0,019
-144,775	365,024	-0,050	0,073
-143,760	-157,599	0,124	-0,005
-142,745	-200,000	0,011	-0,113
-141,731	48,117	0,038	0,025
-140,716	-200,000	-0,026	-0,084
-139,702	121,247	0,082	0,074
-138,687	-200,000	0,002	-0,019
-137,672	-176,535	0,092	0,002
-136,658	-70,229	-0,098	0,027
-135,643	800,000	0,021	0,047
-134,629	-200,000	0,025	0,103
-133,614	226,501	0,074	0,086
-132,599	-200,000	0,023	0,234
-131,585	800,000	-0,070	0,215
-130,570	-200,000	-0,001	0,039
-129,556	-144,002	-0,095	0,006
-128,541	-2,946	0,059	-0,029
-127,526	800,000	-0,029	0,071
-126,512	89,340	0,125	0,100
-125,497	-6,903	0,061	0,030
-124,483	280,174	0,012	0,015
-123,468	502,351	-0,045	0,075
-122,453	291,111	-0,049	0,065
-121,439	91,346	-0,035	0,029
-120,424	-6,748	-0,073	-0,036
-119,410	-136,893	-0,101	0,008
-118,395	800,000	-0,043	0,085
