DTS Sentinel unit serial number:	SN410029Multiplexer serial number:	ORYXHardware model number:	OX2-SRSoftware version number:	ORYX F/W v4,00 Oryx Data Collector v3.7.2.0data status	okinstallation	B5 Nyhavnadifferential loss correction	single-endedforward channel	channel 2reverse channel	N/Adate	2023/12/12time	07:02:13forward acquisition time	300,00reverse acquisition time	0,00gamma	499,1914k internal	0,3157k external	0,3157temperature offset calibration	1,0000default loss term (dB/km)	0,3820temperature slope calibration	1,0000multiplexer offset coefficient	1,0000multiplexer slope coefficient	1,0000fibre end	0,00T internal ref (°C)	15,19T ext. ref 1 (°C)	-1,12T ext. ref 2 (°C)	-1,40length (m)	temperature (°C)	Stokes	anti-Stokes-744,400	268,297	0,067	-0,087
-743,385	-119,050	-0,333	0,042
-742,371	-200,000	0,049	0,205
-741,356	-177,831	-0,241	-0,004
-740,342	-200,000	0,011	0,091
-739,327	2,361	-0,277	0,147
-738,312	30,494	0,056	0,035
-737,298	-107,494	-0,333	-0,053
-736,283	800,000	-0,009	-0,025
-735,269	-100,141	-0,153	0,028
-734,254	138,437	0,164	-0,159
-733,239	-26,127	-0,500	-0,216
-732,225	-20,871	0,127	0,057
-731,210	516,904	-0,055	0,095
-730,196	800,000	-0,015	0,044
-729,181	227,190	-0,049	0,058
-728,167	575,742	0,036	-0,065
-727,152	362,963	-0,062	0,092
-726,137	-105,965	-0,125	0,021
-725,123	208,279	-0,106	-0,122
-724,108	245,467	-0,099	-0,123
-723,094	-200,000	-0,016	-0,115
-722,079	-87,851	-0,178	-0,039
-721,064	46,435	0,052	-0,035
-720,050	-200,000	-0,012	-0,116
-719,035	-16,276	-0,124	0,058
-718,021	176,706	0,054	-0,057
-717,006	-200,000	-0,036	-0,132
-715,991	295,909	0,064	-0,086
-714,977	53,733	-0,087	-0,061
-713,962	494,342	-0,091	0,154
-712,948	101,460	-0,074	-0,064
-711,933	-39,016	0,070	-0,027
-710,918	-200,000	0,013	-0,088
-709,904	-200,000	0,004	-0,134
-708,889	-200,000	0,009	-0,161
-707,875	-137,400	0,034	0,003
-706,860	124,442	0,154	-0,143
-705,845	-200,000	-0,001	-0,182
-704,831	-200,000	-0,024	0,114
-703,816	267,055	-0,108	0,139
-702,802	181,011	-0,054	0,058
-701,787	-117,181	0,096	-0,013
-700,772	-79,570	-0,100	-0,025
-699,758	-200,000	0,004	-0,095
-698,743	800,000	0,014	0,036
-697,729	800,000	-0,042	-0,096
-696,714	217,286	0,037	0,043
-695,699	-48,929	-0,049	-0,017
-694,685	-119,262	0,054	0,007
-693,670	238,907	0,085	-0,104
-692,656	547,371	0,019	0,034
-691,641	-200,000	-0,018	0,112
-690,627	-200,000	0,027	-0,132
-689,612	-98,141	0,121	0,023
-688,597	-2,566	-0,110	0,057
-687,583	412,167	-0,055	-0,086
-686,568	-200,000	0,001	0,109
-685,554	-32,565	-0,183	0,075
-684,539	800,000	0,041	0,089
-683,524	84,707	-0,097	0,078
-682,510	-43,120	-0,050	-0,018
-681,495	190,253	-0,063	0,070
-680,481	201,332	-0,043	0,049
-679,466	-100,522	-0,078	0,014
-678,451	689,430	0,044	0,085
-677,437	-39,199	-0,020	0,008
-676,422	800,000	0,049	0,141
-675,408	86,467	0,023	0,019
-674,393	800,000	0,030	-0,071
-673,378	687,561	-0,089	-0,173
-672,364	-51,370	-0,167	-0,057
-671,349	670,012	0,015	-0,029
-670,335	-200,000	0,012	-0,069
-669,320	800,000	0,012	0,026
-668,305	-80,199	-0,036	0,009
-667,291	39,924	0,029	-0,019
-666,276	-200,000	0,014	-0,049
-665,262	-26,023	0,055	-0,024
-664,247	0,271	-0,199	-0,104
-663,232	-2,973	-0,127	0,065
-662,218	-9,457	0,039	0,019
-661,203	175,480	-0,013	0,014
-660,189	800,000	-0,034	-0,090
-659,174	-40,258	0,061	0,023
-658,159	-200,000	0,011	-0,064
-657,145	-200,000	-0,005	-0,171
-656,130	-200,000	0,008	-0,045
-655,116	-117,737	-0,051	-0,007
-654,101	73,408	0,065	0,050
-653,086	-200,000	-0,008	-0,092
-652,072	-47,141	-0,058	0,021
-651,057	543,696	-0,107	-0,188
-650,043	135,683	-0,124	-0,118
-649,028	279,389	-0,021	0,028
-648,014	-65,360	0,053	0,016
-646,999	-73,518	-0,099	0,026
-645,984	-200,000	-0,017	-0,100
-644,970	800,000	-0,038	-0,118
-643,955	-10,737	-0,043	-0,021
-642,941	-114,409	-0,159	-0,022
-641,926	-22,703	-0,079	-0,035
-640,911	2,835	0,026	-0,014
-639,897	-200,000	-0,007	0,036
-638,882	-38,455	-0,030	-0,011
-637,868	-83,001	-0,101	0,024
-636,853	-112,460	0,143	-0,021
-635,838	-77,302	0,116	0,029
-634,824	253,072	-0,135	-0,170
-633,809	-40,223	0,136	0,052
-632,795	-200,000	0,026	-0,103
-631,780	-9,311	-0,107	0,053
-630,765	-193,679	-0,175	0,001
-629,751	-46,198	-0,050	0,018
-628,736	33,272	-0,194	0,124
-627,722	800,000	0,045	0,109
-626,707	800,000	-0,020	-0,066
-625,692	33,733	-0,019	0,012
-624,678	4,140	-0,151	-0,081
-623,663	225,716	-0,044	0,052
-622,649	-91,396	-0,102	-0,021
-621,634	-36,437	-0,115	0,045
-620,619	261,174	-0,040	0,051
-619,605	311,077	0,095	0,130
-618,590	-166,568	0,123	-0,004
-617,576	800,000	-0,009	-0,024
-616,561	800,000	-0,031	0,079
-615,546	96,600	0,031	-0,026
-614,532	117,690	-0,171	-0,155
-613,517	-200,000	-0,004	-0,036
-612,503	721,132	0,049	0,095
-611,488	-160,719	-0,137	-0,005
-610,474	66,311	0,073	0,055
-609,459	800,000	0,045	-0,109
-608,444	-153,411	0,034	0,002
-607,430	800,000	-0,012	-0,037
-606,415	125,724	-0,131	-0,122
-605,401	800,000	0,026	-0,082
-604,386	13,467	-0,014	0,008
-603,371	-52,747	-0,073	0,025
-602,357	39,688	-0,038	0,025
-601,342	800,000	-0,005	0,015
-600,328	171,880	0,008	-0,008
-599,313	-200,000	0,005	-0,020
-598,298	66,229	0,096	0,071
-597,284	239,851	0,040	0,049
-596,269	800,000	-0,011	-0,028
-595,255	-200,000	0,004	0,076
-594,240	148,940	-0,074	-0,073
-593,225	51,976	-0,114	-0,080
-592,211	141,081	-0,095	-0,092
-591,196	800,000	-0,045	-0,144
-590,182	-50,757	0,035	0,012
-589,167	203,155	0,042	-0,048
-588,152	326,744	0,011	0,015
-587,138	-99,236	-0,102	0,019
-586,123	-55,233	-0,031	0,010
-585,109	-200,000	-0,141	0,000
-584,094	-59,618	-0,038	0,012
-583,079	689,489	0,035	-0,067
-582,065	-20,557	-0,042	-0,019
-581,050	55,607	-0,054	0,038
-580,036	800,000	-0,024	-0,063
-579,021	-200,000	0,225	-0,000
-578,006	-200,000	-0,017	-0,143
-576,992	34,519	-0,122	-0,078
-575,977	-78,992	-0,072	0,018
-574,963	1,911	0,109	0,057
-573,948	458,168	0,046	-0,075
-572,934	-183,499	-0,111	-0,001
-571,919	-200,000	-0,006	-0,029
-570,904	18,318	-0,075	0,044
-569,890	75,337	0,005	0,004
-568,875	-78,922	0,056	0,014
-567,861	1,524	0,112	0,059
-566,846	89,828	-0,022	0,018
-565,831	279,914	0,155	0,203
-564,817	139,731	-0,085	-0,082
-563,802	-200,000	-0,004	-0,142
-562,788	-200,000	-0,042	-0,148
-561,773	14,505	-0,061	-0,035
-560,758	212,329	-0,081	-0,093
-559,744	-200,000	-0,003	-0,027
-558,729	-200,000	-0,030	-0,115
-557,715	800,000	0,036	-0,094
-556,700	152,642	-0,067	-0,067
-555,685	-106,547	-0,183	0,030
-554,671	-58,274	0,094	0,030
-553,656	-200,000	-0,019	0,250
-552,642	-3,521	-0,055	0,028
-551,627	-200,000	0,008	0,132
-550,612	397,288	-0,073	-0,112
-549,598	301,803	-0,060	-0,081
-548,583	-182,491	0,030	-0,000
-547,569	288,156	0,049	0,065
-546,554	142,433	0,035	-0,034
-545,539	240,570	0,077	-0,094
-544,525	-7,965	-0,052	-0,025
-543,510	-200,000	-0,004	-0,036
-542,496	-104,725	-0,249	0,042
-541,481	-200,000	0,005	-0,077
-540,466	35,368	0,105	-0,067
-539,452	29,371	-0,073	-0,046
-538,437	-8,146	0,078	0,038
-537,423	800,000	-0,011	0,025
-536,408	-200,000	0,008	-0,037
-535,393	-200,000	0,012	0,068
-534,379	27,075	0,056	-0,034
-533,364	-148,443	-0,119	0,007
-532,350	-200,000	-0,018	0,088
-531,335	-200,000	-0,008	-0,046
-530,321	-79,481	-0,005	0,001
-529,306	-123,832	-0,081	-0,009
-528,291	117,360	0,055	-0,049
-527,277	338,951	-0,061	-0,087
-526,262	-200,000	-0,037	0,136
-525,248	21,416	0,060	0,035
-524,233	-200,000	0,009	0,156
-523,218	-153,447	0,134	0,007
-522,204	-57,243	-0,098	-0,031
-521,189	-200,000	0,008	-0,077
-520,175	29,600	-0,108	-0,067
-519,160	800,000	-0,057	-0,116
-518,145	-72,900	-0,082	0,022
-517,131	14,268	0,030	0,017
-516,116	673,699	0,013	-0,026
-515,102	-90,411	0,053	0,011
-514,087	-135,006	-0,113	-0,010
-513,072	-76,728	0,009	-0,002
-512,058	-98,307	-0,111	0,021
-511,043	-91,182	0,069	-0,014
-510,029	24,432	0,137	0,083
-509,014	800,000	0,040	0,108
-507,999	-200,000	-0,011	0,127
-506,985	800,000	-0,078	-0,163
-505,970	-112,172	-0,042	-0,006
-504,956	394,348	0,041	-0,063
-503,941	399,236	-0,064	-0,098
-502,926	209,381	-0,146	0,168
-501,912	-9,835	0,050	-0,024
-500,897	234,472	-0,110	-0,133
-499,883	507,967	-0,031	-0,054
-498,868	-200,000	0,000	-0,043
-497,853	467,953	-0,043	-0,071
-496,839	386,331	-0,055	0,083
-495,824	97,441	0,170	0,142
-494,810	-200,000	-0,025	0,101
-493,795	114,285	0,081	-0,072
-492,781	134,292	0,063	-0,060
-491,766	-49,970	-0,065	0,022
-490,751	800,000	0,038	-0,086
-489,737	699,628	-0,040	-0,076
-488,722	143,539	0,044	-0,043
-487,708	347,570	0,026	0,037
-486,693	508,181	-0,056	-0,095
-485,678	242,177	0,035	-0,043
-484,664	-200,000	-0,007	-0,079
-483,649	-110,911	-0,101	0,015
-482,635	111,909	0,015	-0,013
-481,620	-200,000	0,001	-0,029
-480,605	800,000	-0,042	0,125
-479,591	-16,621	0,007	0,003
-478,576	-182,796	0,102	-0,001
-477,562	-200,000	0,005	-0,055
-476,547	800,000	-0,020	-0,050
-475,532	-6,761	0,080	0,040
-474,518	-200,000	0,009	-0,071
-473,503	111,873	-0,053	0,046
-472,489	14,368	0,057	0,032
-471,474	-93,208	-0,065	-0,013
-470,459	56,106	0,017	0,012
-469,445	-200,000	-0,021	-0,115
-468,430	-20,890	-0,161	0,071
-467,416	363,269	0,058	0,086
-466,401	-200,000	-0,025	0,099
-465,386	-64,459	0,054	0,016
-464,372	-34,513	-0,076	-0,030
-463,357	-200,000	-0,011	-0,058
-462,343	33,430	-0,179	-0,113
-461,328	-200,000	-0,027	0,088
-460,313	29,334	-0,110	0,068
-459,299	211,477	0,148	0,170
-458,284	194,342	0,067	0,074
-457,270	293,812	0,052	0,069
-456,255	-56,672	0,060	0,019
-455,241	-200,000	-0,003	0,066
-454,226	50,609	-0,052	-0,036
-453,211	90,120	0,062	0,050
-452,197	212,326	0,027	0,031
-451,182	711,884	0,010	-0,020
-450,168	-184,039	-0,035	0,000
-449,153	68,048	-0,028	-0,021
-448,138	91,760	-0,090	0,073
-447,124	-200,000	0,042	-0,148
-446,109	-43,394	-0,164	0,060
-445,095	-122,850	0,081	-0,009
-444,080	-200,000	-0,010	-0,102
-443,065	-94,550	0,061	-0,012
-442,051	780,344	-0,051	0,102
-441,036	800,000	-0,060	-0,170
-440,022	-200,000	-0,011	0,035
-439,007	-100,307	0,104	0,019
-437,992	83,608	0,092	0,073
-436,978	462,243	0,037	-0,060
-435,963	233,533	0,074	0,089
-434,949	800,000	-0,032	0,082
-433,934	-18,895	-0,081	-0,036
-432,919	40,860	0,154	0,101
-431,905	104,331	-0,028	0,024
-430,890	-200,000	-0,003	0,023
-429,876	331,011	0,077	0,109
-428,861	-136,470	0,148	-0,012
-427,846	-8,430	0,052	0,025
-426,832	19,916	0,082	-0,048
-425,817	800,000	-0,020	-0,051
-424,803	408,986	0,073	-0,113
-423,788	74,118	0,054	0,041
-422,773	800,000	-0,009	0,025
-421,759	108,976	-0,005	-0,004
-420,744	182,968	-0,073	0,078
-419,730	32,187	0,051	-0,032
-418,715	111,425	0,033	-0,029
-417,701	268,736	0,047	0,060
-416,686	-200,000	0,002	0,108
-415,671	800,000	-0,045	0,128
-414,657	-64,918	0,111	0,033
-413,642	181,627	0,039	-0,041
-412,628	-200,000	0,017	-0,164
-411,613	-4,841	-0,066	0,033
-410,598	-100,555	-0,031	-0,005
-409,584	260,713	-0,008	-0,010
-408,569	389,584	-0,050	0,076
-407,555	552,616	-0,043	0,076
-406,540	84,334	-0,067	0,054
-405,525	-87,507	0,148	-0,032
-404,511	312,946	0,009	0,012
-403,496	88,420	0,077	-0,062
-402,482	-47,477	-0,084	-0,029
-401,467	800,000	0,050	-0,136
-400,452	-101,936	0,184	-0,032
-399,438	128,378	0,008	-0,007
-398,423	-200,000	-0,012	-0,077
-397,409	218,158	0,024	-0,028
-396,394	800,000	-0,037	-0,100
-395,379	157,836	0,070	0,070
-394,365	-200,000	0,003	-0,075
-393,350	336,199	-0,040	0,056
-392,336	-200,000	0,017	0,068
-391,321	448,688	0,033	-0,052
-390,306	800,000	0,015	-0,036
-389,292	34,924	-0,091	-0,058
-388,277	9,023	0,093	0,051
-387,263	119,189	0,029	-0,026
-386,248	-200,000	0,005	0,077
-385,233	398,952	0,042	-0,064
-384,219	92,485	0,106	-0,087
-383,204	-200,000	0,016	-0,068
-382,190	800,000	-0,003	0,009
-381,175	24,569	-0,023	0,014
-380,160	-60,706	0,074	0,023
-379,146	-200,000	-0,007	0,034
-378,131	-200,000	-0,007	0,045
-377,117	124,846	0,078	-0,072
-376,102	48,460	0,129	0,088
-375,088	-128,906	0,086	-0,009
-374,073	-34,048	0,027	0,011
-373,058	-200,000	0,011	-0,126
-372,044	29,663	-0,004	0,002
-371,029	-3,450	-0,027	0,014
-370,015	-6,047	0,033	0,016
-369,000	-200,000	-0,011	0,063
-367,985	127,160	0,090	-0,083
-366,971	-114,992	0,171	-0,023
-365,956	57,611	0,080	-0,057
-364,942	800,000	0,034	0,078
-363,927	-200,000	0,005	0,115
-362,912	735,497	-0,052	0,102
-361,898	-200,000	0,004	0,102
-360,883	-200,000	0,012	-0,069
-359,869	800,000	-0,029	-0,067
-358,854	-21,538	-0,082	-0,036
-357,839	-200,000	-0,007	0,102
-356,825	-29,504	0,092	0,038
-355,810	800,000	0,031	-0,093
-354,796	-36,083	-0,098	-0,038
-353,781	548,249	-0,063	0,111
-352,766	-74,352	-0,078	0,020
-351,752	185,302	-0,032	0,034
-350,737	-200,000	0,001	0,009
-349,723	-74,435	0,116	-0,030
-348,708	-200,000	-0,018	0,097
-347,693	-200,000	0,035	-0,127
-346,679	-71,153	-0,054	0,015
-345,664	-200,000	0,022	0,111
-344,650	157,007	-0,088	-0,088
-343,635	800,000	0,006	0,015
-342,620	-200,000	-0,008	0,059
-341,606	560,237	0,013	0,022
-340,591	-200,000	0,049	0,000
-339,577	-83,487	-0,109	-0,025
-338,562	-67,976	0,030	-0,008
-337,548	800,000	-0,059	-0,130
-336,533	-34,408	0,210	0,083
-335,518	79,007	-0,140	0,109
-334,504	564,745	0,069	0,121
-333,489	-153,105	0,008	-0,000
-332,475	-75,649	-0,046	-0,012
-331,460	-41,693	-0,101	-0,037
-330,445	209,269	0,084	-0,096
-329,431	120,244	0,050	-0,045
-328,416	800,000	0,041	0,086
-327,402	753,985	0,019	0,037
-326,387	-3,277	-0,052	-0,026
-325,372	-154,284	-0,039	0,002
-324,358	-200,000	-0,065	-0,255
-323,343	-200,000	0,013	-0,104
-322,329	800,000	0,019	0,040
-321,314	-73,365	0,038	-0,010
-320,299	-178,653	0,094	-0,002
-319,285	-200,000	-0,012	-0,059
-318,270	-200,000	-0,004	-0,161
-317,256	-200,000	-0,005	0,137
-316,241	-64,961	0,059	-0,017
-315,226	-154,724	-0,104	0,005
-314,212	122,348	-0,036	-0,033
-313,197	384,099	0,065	0,097
-312,183	-152,624	0,176	-0,009
-311,168	48,494	-0,074	-0,050
-310,153	-200,000	-0,012	-0,115
-309,139	-200,000	-0,019	0,134
-308,124	-200,000	0,033	-0,130
-307,110	143,925	0,122	0,118
-306,095	42,650	-0,153	0,101
-305,080	-136,970	-0,059	-0,005
-304,066	-144,173	0,045	0,003
-303,051	193,919	-0,041	0,045
-302,037	290,435	0,018	0,023
-301,022	-50,645	-0,070	0,024
-300,008	-99,345	0,066	0,012
-298,993	448,665	0,049	-0,078
-297,978	146,846	0,079	0,077
-296,964	800,000	-0,042	0,095
-295,949	-199,313	-0,083	0,000
-294,935	-200,000	0,015	-0,123
-293,920	647,555	0,053	-0,098
-292,905	-200,000	0,008	0,056
-291,891	185,300	0,098	0,105
-290,876	408,420	-0,069	0,106
-289,862	648,162	-0,034	0,063
-288,847	248,363	0,074	0,091
-287,832	-41,903	-0,047	-0,017
-286,818	-200,000	0,004	-0,083
-285,803	168,500	-0,060	0,062
-284,789	273,632	0,139	0,178
-283,774	-141,294	0,196	0,014
-282,759	-53,939	0,059	-0,019
-281,745	-200,000	0,009	-0,087
-280,730	251,462	-0,059	-0,072
-279,716	-41,678	0,184	-0,068
-278,701	-111,539	-0,096	0,014
-277,686	-130,657	0,200	0,019
-276,672	800,000	-0,065	0,150
-275,657	-133,548	0,100	-0,009
-274,643	-22,458	-0,104	-0,046
-273,628	-200,000	0,005	-0,017
-272,613	-176,972	-0,113	-0,002
-271,599	-149,072	0,117	0,007
-270,584	135,654	0,090	-0,085
-269,570	-9,691	0,061	-0,029
-268,555	-200,000	-0,021	-0,106
-267,540	-200,000	0,003	-0,082
-266,526	-58,849	-0,102	0,032
-265,511	39,219	0,046	0,030
-264,497	-78,427	0,051	0,013
-263,482	-27,657	0,205	0,086
-262,467	-200,000	0,010	-0,038
-261,453	77,283	0,090	0,069
-260,438	-169,045	0,101	-0,003
-259,424	800,000	-0,012	-0,035
-258,409	99,742	-0,034	0,029
-257,395	12,309	-0,119	0,066
-256,380	-188,610	0,079	0,001
-255,365	800,000	-0,040	0,102
-254,351	61,323	0,138	0,099
-253,336	-77,394	-0,096	0,024
-252,322	-200,000	-0,014	-0,135
-251,307	540,677	0,044	0,076
-250,292	-1,064	0,071	0,036
-249,278	-18,129	-0,035	-0,016
-248,263	171,274	0,069	0,072
-247,249	-200,000	0,038	0,139
-246,234	196,499	-0,105	-0,116
-245,219	-200,000	0,000	-0,059
-244,205	-124,979	-0,010	0,001
-243,190	800,000	0,018	0,047
-242,176	-200,000	-0,004	0,059
-241,161	-69,710	-0,044	-0,012
-240,146	-65,895	0,110	0,032
-239,132	-164,753	-0,128	0,004
-238,117	292,375	-0,083	0,109
-237,103	800,000	-0,019	-0,059
-236,088	800,000	0,055	-0,120
-235,073	-200,000	-0,024	0,188
-234,059	224,113	0,062	0,073
-233,044	-18,678	0,104	0,047
-232,030	800,000	0,038	-0,084
-231,015	-89,020	-0,154	-0,033
-230,000	-72,206	0,030	-0,008
-228,986	485,818	-0,026	-0,043
-227,971	-80,748	0,076	-0,018
-226,957	-13,565	0,054	0,025
-225,942	800,000	0,053	0,133
-224,927	-200,000	-0,025	-0,124
-223,913	-200,000	0,027	-0,100
-222,898	-200,000	-0,022	-0,129
-221,884	-130,272	0,064	0,006
-220,869	205,835	0,034	0,038
-219,855	36,191	-0,037	-0,024
-218,840	800,000	0,083	0,174
-217,825	-200,000	-0,003	0,014
-216,811	366,522	-0,042	-0,061
-215,796	-200,000	-0,003	-0,127
-214,782	366,268	0,057	-0,084
-213,767	-64,482	0,093	-0,027
-212,752	414,619	0,121	0,187
-211,738	102,328	-0,079	-0,067
-210,723	213,449	0,041	0,047
-209,709	-59,839	-0,189	-0,058
-208,694	-108,835	-0,019	0,003
-207,679	-50,489	0,114	-0,039
-206,665	-200,000	-0,010	0,103
-205,650	-200,000	0,026	0,120
-204,636	-200,000	0,001	0,086
-203,621	37,233	0,082	0,052
-202,606	87,833	-0,129	0,103
-201,592	-35,556	-0,046	0,018
-200,577	-104,686	-0,086	-0,014
-199,563	-200,000	0,005	-0,108
-198,548	-107,726	0,062	-0,010
-197,533	-200,000	0,067	0,241
-196,519	-200,000	0,008	0,178
-195,504	20,315	-0,119	-0,069
-194,490	135,090	-0,083	-0,078
-193,475	-200,000	-0,011	-0,096
-192,460	235,777	-0,034	-0,041
-191,446	133,314	0,052	0,049
-190,431	55,561	0,099	0,069
-189,417	800,000	0,043	0,123
-188,402	105,338	0,024	0,020
-187,387	-12,703	-0,148	-0,069
-186,373	121,705	-0,060	-0,054
-185,358	590,444	0,146	0,260
-184,344	-33,761	-0,068	0,027
-183,329	-200,000	-0,130	0,000
-182,315	-148,710	0,082	0,005
-181,300	-200,000	-0,008	-0,036
-180,285	704,191	-0,044	0,085
-179,271	144,218	-0,064	0,061
-178,256	-200,000	0,005	0,057
-177,242	-200,000	0,007	-0,047
-176,227	-200,000	-0,013	0,050
-175,212	45,537	-0,029	-0,019
-174,198	-19,641	0,172	0,076
-173,183	-98,702	-0,114	-0,021
-172,169	615,532	-0,004	0,008
-171,154	-58,636	0,071	-0,022
-170,139	-200,000	-0,024	0,126
-169,125	-200,000	0,020	0,107
-168,110	-60,081	0,142	0,043
-167,096	-147,680	0,045	-0,003
-166,081	800,000	-0,068	-0,179
-165,066	-200,000	0,018	-0,137
-164,052	322,902	-0,089	-0,122
-163,037	-25,981	0,054	-0,023
-162,023	-200,000	-0,010	-0,097
-161,008	-200,000	-0,018	-0,254
-159,993	22,987	0,084	-0,050
-158,979	112,321	-0,044	-0,039
-157,964	-56,192	0,118	-0,038
-156,950	150,541	-0,089	0,087
-155,935	-60,532	-0,112	0,034
-154,920	110,020	-0,062	0,054
-153,906	-133,706	0,040	0,004
-152,891	138,266	-0,130	-0,123
-151,877	529,152	0,029	-0,049
-150,862	259,686	-0,067	0,083
-149,847	66,524	-0,131	-0,096
-148,833	-200,000	0,013	0,079
-147,818	-152,402	0,135	0,007
-146,804	55,339	-0,091	0,063
-145,789	800,000	-0,043	-0,105
-144,775	-115,298	0,124	0,017
-143,760	575,361	0,030	-0,052
-142,745	470,130	-0,057	-0,093
-141,731	-200,000	-0,023	0,092
-140,716	800,000	-0,072	0,149
-139,702	-200,000	-0,021	-0,126
-138,687	115,250	-0,060	-0,053
-137,672	-200,000	0,020	-0,094
-136,658	184,823	-0,032	0,034
-135,643	3,840	0,118	0,062
-134,629	-200,000	-0,000	0,022
-133,614	180,395	-0,207	0,219
-132,599	800,000	0,048	0,127
-131,585	162,642	0,038	-0,038
-130,570	-120,853	0,047	0,006
-129,556	-110,454	-0,189	-0,028
-128,541	-109,525	-0,144	0,022
-127,526	107,794	-0,053	-0,046
-126,512	45,356	-0,063	-0,042
-125,497	800,000	-0,005	0,017
-124,483	-72,803	-0,038	-0,010
-123,468	352,321	-0,027	-0,039
-122,453	-200,000	-0,029	-0,151
-121,439	800,000	-0,037	-0,078
-120,424	694,960	-0,052	-0,099
