DTS Sentinel unit serial number:	SN410029Multiplexer serial number:	ORYXHardware model number:	OX2-SRSoftware version number:	ORYX F/W v4,00 Oryx Data Collector v3.7.2.0data status	okinstallation	B5 Nyhavnadifferential loss correction	single-endedforward channel	channel 2reverse channel	N/Adate	2023/12/11time	19:42:13forward acquisition time	300,00reverse acquisition time	0,00gamma	499,1914k internal	0,3159k external	0,3159temperature offset calibration	1,0000default loss term (dB/km)	0,3820temperature slope calibration	1,0000multiplexer offset coefficient	1,0000multiplexer slope coefficient	1,0000fibre end	0,00T internal ref (°C)	15,74T ext. ref 1 (°C)	0,03T ext. ref 2 (°C)	-0,20length (m)	temperature (°C)	Stokes	anti-Stokes-744,400	-109,188	0,134	-0,021
-743,385	-87,348	-0,290	0,064
-742,371	51,481	0,074	0,051
-741,356	-62,804	-0,219	0,067
-740,342	-73,148	0,112	-0,030
-739,327	-77,928	-0,375	0,095
-738,312	-57,335	0,102	0,033
-737,298	-103,827	-0,301	-0,051
-736,283	-74,162	0,081	-0,022
-735,269	-120,501	-0,303	-0,037
-734,254	11,929	0,094	0,053
-733,239	28,630	-0,307	-0,191
-732,225	-49,404	0,157	0,055
-731,210	-200,000	-0,005	0,152
-730,196	-86,354	0,137	0,031
-729,181	-54,535	-0,134	0,044
-728,167	-44,621	-0,011	-0,004
-727,152	419,859	0,044	-0,069
-726,137	-200,000	-0,005	0,039
-725,123	43,394	-0,124	-0,083
-724,108	-200,000	-0,040	-0,270
-723,094	-200,000	-0,005	-0,047
-722,079	-200,000	-0,014	-0,053
-721,064	-200,000	0,018	-0,091
-720,050	-152,722	-0,097	-0,005
-719,035	184,670	0,106	0,115
-718,021	-200,000	-0,014	-0,103
-717,006	-158,012	-0,068	0,003
-715,991	71,635	-0,093	-0,071
-714,977	-200,000	-0,001	0,093
-713,962	649,621	0,034	-0,064
-712,948	800,000	-0,046	-0,136
-711,933	535,743	-0,045	0,079
-710,918	229,707	-0,022	0,026
-709,904	-35,957	-0,132	0,052
-708,889	-200,000	-0,002	0,109
-707,875	-200,000	-0,008	0,027
-706,860	324,921	0,048	-0,067
-705,845	-161,264	0,078	-0,003
-704,831	-200,000	0,010	0,115
-703,816	-90,135	-0,102	-0,022
-702,802	-75,372	-0,159	-0,041
-701,787	800,000	-0,031	-0,098
-700,772	476,699	0,111	-0,185
-699,758	113,716	-0,061	0,054
-698,743	321,021	-0,019	0,026
-697,729	15,676	0,169	-0,097
-696,714	209,135	-0,045	-0,052
-695,699	358,571	-0,030	-0,045
-694,685	-200,000	-0,031	0,134
-693,670	800,000	-0,048	-0,104
-692,656	-200,000	-0,012	-0,081
-691,641	201,999	-0,036	-0,041
-690,627	-200,000	0,007	0,058
-689,612	-200,000	-0,000	0,078
-688,597	172,996	-0,101	0,107
-687,583	-97,988	-0,174	-0,033
-686,568	-200,000	0,002	0,074
-685,554	-139,697	-0,020	-0,002
-684,539	116,531	-0,073	0,066
-683,524	-200,000	0,017	-0,072
-682,510	-62,264	-0,099	-0,030
-681,495	-161,659	-0,055	0,002
-680,481	-179,482	0,021	-0,000
-679,466	0,290	-0,099	-0,052
-678,451	125,985	0,077	0,072
-677,437	43,471	0,082	0,055
-676,422	800,000	0,037	0,097
-675,408	-200,000	-0,030	-0,151
-674,393	296,409	0,059	-0,080
-673,378	361,032	-0,006	0,009
-672,364	-82,643	-0,066	0,016
-671,349	-23,255	-0,063	0,028
-670,335	-200,000	0,008	0,043
-669,320	-79,148	0,157	0,039
-668,305	223,125	0,039	-0,046
-667,291	-152,291	-0,041	0,002
-666,276	-70,070	-0,179	-0,050
-665,262	-200,000	0,018	-0,066
-664,247	368,239	-0,088	-0,132
-663,232	135,463	0,043	-0,041
-662,218	171,036	-0,066	0,070
-661,203	-182,652	-0,081	0,001
-660,189	-92,243	-0,108	0,022
-659,174	78,559	0,067	-0,052
-658,159	-200,000	-0,017	-0,078
-657,145	627,867	-0,102	-0,191
-656,130	237,245	-0,082	-0,100
-655,116	68,867	0,092	0,069
-654,101	-115,161	-0,155	-0,021
-653,086	96,901	0,064	-0,053
-652,072	58,455	0,040	-0,029
-651,057	-200,000	0,126	0,000
-650,043	800,000	-0,044	-0,136
-649,028	-200,000	-0,008	0,061
-648,014	210,099	-0,075	0,086
-646,999	800,000	0,009	-0,028
-645,984	-200,000	0,004	0,085
-644,970	-200,000	-0,018	-0,108
-643,955	645,004	0,124	-0,233
-642,941	-34,611	-0,073	-0,029
-641,926	204,201	0,011	-0,013
-640,911	594,771	0,013	-0,023
-639,897	-184,731	-0,084	0,001
-638,882	-28,893	-0,100	0,042
-637,868	-107,511	0,108	0,017
-636,853	-91,909	-0,116	-0,024
-635,838	-161,400	0,104	0,004
-634,824	682,018	-0,045	-0,086
-633,809	730,175	-0,043	-0,084
-632,795	-134,151	0,115	0,010
-631,780	-48,223	-0,015	-0,005
-630,765	-200,000	0,022	0,072
-629,751	-141,084	-0,128	0,009
-628,736	-20,649	0,119	0,053
-627,722	-200,000	0,025	-0,149
-626,707	-8,281	-0,027	-0,013
-625,692	260,044	0,038	0,048
-624,678	-200,000	0,008	0,146
-623,663	-80,681	0,082	0,020
-622,649	-29,484	-0,181	-0,076
-621,634	126,870	-0,027	-0,025
-620,619	-103,650	-0,152	-0,026
-619,605	-200,000	0,003	0,061
-618,590	-24,034	-0,076	0,033
-617,576	-76,305	0,081	-0,021
-616,561	712,640	-0,031	0,061
-615,546	-200,000	0,008	-0,073
-614,532	299,871	-0,021	0,029
-613,517	169,589	-0,066	-0,069
-612,503	-200,000	0,022	-0,077
-611,488	-139,856	0,159	0,012
-610,474	-200,000	0,053	0,180
-609,459	59,377	-0,064	-0,046
-608,444	181,150	-0,093	-0,100
-607,430	-200,000	0,035	-0,165
-606,415	389,655	0,042	-0,064
-605,401	-200,000	0,004	0,060
-604,386	-200,000	-0,007	-0,026
-603,371	-181,911	0,009	-0,000
-602,357	26,396	0,029	0,018
-601,342	800,000	0,007	0,021
-600,328	800,000	0,039	-0,125
-599,313	-200,000	0,012	-0,100
-598,298	-107,380	0,039	0,006
-597,284	103,514	0,045	0,039
-596,269	-200,000	-0,008	-0,175
-595,255	-145,713	0,132	0,009
-594,240	-166,311	-0,135	0,004
-593,225	315,450	-0,097	-0,135
-592,211	226,988	-0,158	-0,188
-591,196	308,282	-0,061	-0,084
-590,182	800,000	0,025	-0,059
-589,167	-182,585	0,040	0,001
-588,152	29,702	0,025	-0,015
-587,138	150,867	-0,072	-0,071
-586,123	192,379	0,091	-0,100
-585,109	-200,000	0,021	-0,118
-584,094	800,000	-0,049	-0,106
-583,079	146,311	0,109	0,107
-582,065	-11,102	-0,028	0,014
-581,050	790,264	0,010	0,019
-580,036	695,679	0,024	0,047
-579,021	800,000	-0,054	-0,155
-578,006	-158,711	-0,096	0,004
-576,992	-20,656	-0,008	-0,003
-575,977	-200,000	-0,007	-0,033
-574,963	-200,000	-0,024	0,081
-573,948	-200,000	0,006	0,085
-572,934	-200,000	0,012	0,086
-571,919	560,583	0,081	-0,144
-570,904	-89,633	0,060	0,013
-569,890	-200,000	-0,008	0,063
-568,875	47,019	0,023	-0,016
-567,861	-56,396	-0,028	0,009
-566,846	-177,620	-0,074	0,001
-565,831	-9,627	-0,042	-0,021
-564,817	-200,000	-0,008	-0,055
-563,802	106,691	0,079	-0,068
-562,788	212,481	-0,063	-0,073
-561,773	46,166	-0,049	0,033
-560,758	800,000	-0,031	0,098
-559,744	-200,000	0,019	0,066
-558,729	-71,829	-0,018	0,005
-557,715	309,773	-0,050	-0,069
-556,700	391,416	-0,024	-0,037
-555,685	357,349	0,086	0,125
-554,671	117,435	0,117	-0,105
-553,656	-200,000	0,005	-0,072
-552,642	14,021	0,071	0,040
-551,627	490,210	0,050	0,084
-550,612	-200,000	-0,009	0,075
-549,598	-152,954	0,023	0,001
-548,583	40,394	0,061	0,040
-547,569	120,124	0,058	0,053
-546,554	800,000	-0,031	-0,090
-545,539	-119,657	0,042	0,005
-544,525	39,822	-0,094	0,062
-543,510	-200,000	-0,005	0,100
-542,496	232,750	-0,041	-0,049
-541,481	306,354	0,067	0,091
-540,466	-200,000	-0,013	0,068
-539,452	800,000	-0,009	0,021
-538,437	-200,000	0,002	0,097
-537,423	-125,624	0,121	0,013
-536,408	132,418	0,123	-0,116
-535,393	-14,040	-0,081	0,038
-534,379	-114,352	0,061	-0,009
-533,364	-92,602	-0,150	-0,031
-532,350	-200,000	-0,013	0,133
-531,335	800,000	-0,033	0,081
-530,321	455,197	0,043	0,070
-529,306	-127,272	-0,016	-0,002
-528,291	-125,380	-0,197	-0,022
-527,277	103,269	-0,051	0,044
-526,262	-46,788	-0,108	-0,038
-525,248	246,832	0,100	-0,124
-524,233	-68,598	0,122	0,034
-523,218	-200,000	-0,001	-0,096
-522,204	800,000	-0,053	0,112
-521,189	800,000	-0,040	-0,115
-520,175	693,733	0,019	0,036
-519,160	-200,000	-0,010	0,037
-518,145	800,000	-0,020	0,047
-517,131	-200,000	-0,024	0,128
-516,116	-200,000	-0,000	0,121
-515,102	-139,673	-0,162	0,012
-514,087	-200,000	0,004	-0,036
-513,072	105,894	0,032	0,027
-512,058	291,975	-0,069	-0,091
-511,043	80,724	-0,029	0,023
-510,029	36,934	0,069	0,044
-509,014	176,157	-0,095	-0,100
-507,999	370,506	-0,013	0,020
-506,985	531,843	-0,029	-0,050
-505,970	-200,000	-0,008	-0,061
-504,956	800,000	-0,065	-0,133
-503,941	49,015	0,072	0,049
-502,926	-200,000	0,008	0,056
-501,912	634,189	-0,047	0,087
-500,897	-39,388	-0,096	0,037
-499,883	117,544	-0,083	-0,075
-498,868	800,000	-0,038	0,110
-497,853	-200,000	0,002	0,122
-496,839	183,425	0,059	-0,064
-495,824	36,170	0,094	0,060
-494,810	800,000	-0,023	0,062
-493,795	-8,242	-0,055	0,027
-492,781	-43,265	0,099	-0,036
-491,766	286,481	0,081	0,107
-490,751	147,765	0,039	0,039
-489,737	124,636	-0,070	0,064
-488,722	-42,873	0,194	0,071
-487,708	-200,000	-0,009	0,067
-486,693	185,644	-0,052	-0,056
-485,678	-200,000	0,008	-0,054
-484,664	183,382	-0,073	-0,079
-483,649	-200,000	-0,010	-0,097
-482,635	800,000	0,070	0,196
-481,620	298,071	-0,022	0,030
-480,605	31,078	-0,070	-0,043
-479,591	800,000	0,023	0,053
-478,576	-77,780	-0,078	-0,020
-477,562	26,824	0,074	-0,045
-476,547	101,453	-0,127	-0,108
-475,532	800,000	-0,058	0,161
-474,518	-22,986	-0,056	0,025
-473,503	-200,000	-0,039	0,140
-472,489	19,781	0,081	0,048
-471,474	800,000	0,057	-0,118
-470,459	84,319	-0,011	0,009
-469,445	-200,000	-0,004	0,028
-468,430	312,845	0,028	-0,039
-467,416	167,801	0,047	0,049
-466,401	-74,402	-0,048	0,013
-465,386	-200,000	0,015	-0,090
-464,372	-24,833	-0,069	-0,030
-463,357	-98,334	-0,093	-0,017
-462,343	-154,613	-0,161	-0,008
-461,328	-200,000	0,010	-0,081
-460,313	-27,959	0,059	0,025
-459,299	88,277	0,072	0,058
-458,284	-200,000	0,007	0,109
-457,270	35,617	0,050	0,032
-456,255	-142,628	-0,124	0,009
-455,241	143,098	-0,066	0,064
-454,226	223,054	-0,042	-0,049
-453,211	-200,000	0,029	0,105
-452,197	88,616	0,117	0,094
-451,182	105,663	0,074	0,063
-450,168	-24,296	-0,053	-0,023
-449,153	-200,000	-0,042	-0,145
-448,138	23,727	-0,034	0,020
-447,124	-189,925	-0,015	-0,000
-446,109	93,083	-0,105	-0,086
-445,095	800,000	0,024	0,049
-444,080	349,729	-0,063	0,091
-443,065	553,068	-0,029	0,050
-442,051	229,650	-0,044	0,053
-441,036	-20,133	-0,085	0,038
-440,022	211,537	0,030	-0,034
-439,007	-28,111	0,039	-0,016
-437,992	38,464	0,150	-0,097
-436,978	800,000	-0,040	0,121
-435,963	-80,912	0,066	0,016
-434,949	75,041	0,010	0,008
-433,934	-23,875	-0,093	-0,040
-432,919	800,000	-0,006	0,015
-431,905	232,647	-0,047	-0,057
-430,890	-200,000	0,002	-0,012
-429,876	-90,716	-0,020	0,004
-428,861	98,168	-0,036	-0,030
-427,846	176,479	-0,031	-0,033
-426,832	711,408	-0,052	-0,100
-425,817	-200,000	-0,005	0,060
-424,803	258,938	0,033	0,041
-423,788	329,903	-0,021	0,029
-422,773	-68,550	0,077	-0,022
-421,759	-100,719	0,072	0,013
-420,744	800,000	-0,014	0,033
-419,730	221,538	-0,030	-0,035
-418,715	-71,712	-0,200	-0,054
-417,701	-94,806	-0,060	-0,012
-416,686	-200,000	0,011	-0,139
-415,671	-68,915	-0,141	0,039
-414,657	-32,185	0,022	-0,009
-413,642	46,365	-0,041	0,027
-412,628	391,331	0,081	-0,122
-411,613	38,038	0,010	0,006
-410,598	119,600	-0,104	-0,094
-409,584	65,383	0,063	-0,046
-408,569	-200,000	0,002	-0,074
-407,555	-200,000	0,016	0,057
-406,540	167,055	0,071	-0,073
-405,525	-200,000	-0,008	0,033
-404,511	181,791	0,034	0,036
-403,496	-93,693	0,144	0,029
-402,482	-200,000	-0,001	0,020
-401,467	-105,460	0,127	0,021
-400,452	-62,678	-0,109	-0,033
-399,438	-200,000	0,017	-0,126
-398,423	800,000	-0,029	0,077
-397,409	-200,000	0,026	0,144
-396,394	188,856	-0,055	-0,060
-395,379	800,000	-0,016	-0,033
-394,365	115,651	-0,055	-0,049
-393,350	-200,000	-0,000	0,047
-392,336	118,223	-0,051	-0,046
-391,321	-56,125	-0,136	0,044
-390,306	114,979	0,082	-0,073
-389,292	-118,481	0,049	-0,006
-388,277	-200,000	-0,008	-0,079
-387,263	-200,000	0,034	0,121
-386,248	-200,000	0,014	-0,091
-385,233	800,000	0,005	0,013
-384,219	-200,000	-0,027	-0,155
-383,204	346,886	-0,073	-0,104
-382,190	8,947	0,029	-0,016
-381,175	223,569	0,029	-0,034
-380,160	-95,552	0,022	0,004
-379,146	800,000	-0,015	0,046
-378,131	413,981	0,018	0,028
-377,117	-141,268	0,046	-0,003
-376,102	-200,000	-0,013	-0,097
-375,088	-200,000	0,017	-0,062
-374,073	38,591	0,063	0,041
-373,058	226,581	0,076	-0,089
-372,044	686,931	0,071	0,135
-371,029	800,000	0,028	0,058
-370,015	682,930	0,013	0,025
-369,000	74,725	-0,077	-0,059
-367,985	514,461	-0,061	-0,104
-366,971	290,362	0,064	0,084
-365,956	83,715	0,108	0,086
-364,942	687,301	0,054	0,102
-363,927	111,858	0,030	-0,026
-362,912	614,923	0,096	0,175
-361,898	207,848	-0,042	0,047
-360,883	800,000	0,026	0,060
-359,869	-165,921	-0,064	-0,002
-358,854	-132,853	-0,078	0,007
-357,839	90,598	0,053	-0,043
-356,825	800,000	-0,061	0,129
-355,810	800,000	0,051	0,132
-354,796	12,184	-0,091	0,051
-353,781	-61,769	0,072	-0,022
-352,766	-146,952	-0,146	0,009
-351,752	-200,000	0,006	0,066
-350,737	-142,750	-0,073	0,005
-349,723	439,548	0,113	0,179
-348,708	-86,449	0,041	0,009
-347,693	800,000	0,031	-0,094
-346,679	-200,000	0,056	-0,189
-345,664	-123,865	0,021	0,002
-344,650	-17,393	-0,061	-0,028
-343,635	219,555	-0,021	0,025
-342,620	-36,696	0,114	-0,044
-341,606	160,070	0,068	0,068
-340,591	-200,000	0,001	0,061
-339,577	130,570	-0,033	0,031
-338,562	-139,183	-0,096	-0,007
-337,548	297,865	-0,021	0,028
-336,533	18,335	0,069	-0,040
-335,518	-200,000	0,011	-0,047
-334,504	-193,460	-0,128	-0,001
-333,489	615,190	-0,074	0,135
-332,475	800,000	-0,031	-0,083
-331,460	76,986	-0,082	-0,063
-330,445	97,465	0,123	-0,103
-329,431	415,156	0,087	-0,135
-328,416	800,000	-0,045	0,116
-327,402	-50,426	0,077	-0,026
-326,387	188,062	-0,048	-0,052
-325,372	162,756	-0,074	-0,075
-324,358	-200,000	-0,001	0,023
-323,343	187,043	0,118	-0,128
-322,329	800,000	-0,049	-0,112
-321,314	-3,530	0,072	0,036
-320,299	-156,899	0,030	-0,001
-319,285	-94,919	-0,051	0,010
-318,270	-200,000	-0,012	-0,042
-317,256	800,000	0,049	-0,113
-316,241	-56,748	-0,129	-0,041
-315,226	73,477	0,044	-0,034
-314,212	-200,000	-0,011	0,171
-313,197	74,425	-0,035	-0,026
-312,183	305,538	0,021	0,029
-311,168	152,174	-0,014	-0,014
-310,153	144,130	0,073	-0,071
-309,139	42,706	-0,097	-0,064
-308,124	268,085	0,047	0,060
-307,110	-200,000	0,052	0,169
-306,095	-64,010	-0,033	0,010
-305,080	-200,000	-0,008	0,255
-304,066	-34,024	-0,093	0,037
-303,051	-200,000	-0,017	0,080
-302,037	-67,623	0,055	0,015
-301,022	-52,964	-0,056	-0,019
-300,008	-136,320	0,132	0,011
-298,993	-14,076	-0,073	-0,034
-297,978	-200,000	-0,027	-0,184
-296,964	800,000	-0,022	0,063
-295,949	-17,760	0,013	0,006
-294,935	-149,851	0,101	-0,006
-293,920	-200,000	0,001	-0,071
-292,905	9,034	0,125	0,068
-291,891	1,045	-0,037	-0,019
-290,876	532,855	0,080	-0,138
-289,862	185,953	-0,090	-0,097
-288,847	50,021	0,074	0,051
-287,832	224,951	-0,070	-0,082
-286,818	-44,921	-0,094	0,034
-285,803	298,461	-0,053	0,070
-284,789	-200,000	0,015	0,093
-283,774	406,674	0,030	0,047
-282,759	800,000	0,051	0,142
-281,745	-21,461	0,117	-0,052
-280,730	800,000	-0,060	-0,138
-279,716	-200,000	0,023	-0,113
-278,701	145,717	0,078	0,076
-277,686	390,764	0,076	0,114
-276,672	138,969	-0,122	0,116
-275,657	186,128	0,026	-0,028
-274,643	483,083	-0,090	-0,148
-273,628	19,361	-0,054	0,031
-272,613	-174,287	-0,069	-0,001
-271,599	800,000	-0,026	0,082
-270,584	-146,581	0,026	0,002
-269,570	800,000	-0,052	0,151
-268,555	476,912	-0,053	0,087
-267,540	247,592	0,023	-0,029
-266,526	800,000	-0,031	-0,080
-265,511	-5,621	-0,037	-0,018
-264,497	69,758	-0,036	0,027
-263,482	-9,466	0,127	0,061
-262,467	181,693	-0,119	0,127
-261,453	-40,422	0,173	0,065
-260,438	-143,193	0,082	-0,006
-259,424	3,763	-0,111	0,059
-258,409	800,000	-0,064	-0,201
-257,395	140,658	0,078	-0,075
-256,380	170,810	0,100	0,104
-255,365	-200,000	0,014	0,050
-254,351	545,623	-0,034	0,059
-253,336	-200,000	-0,013	0,113
-252,322	800,000	-0,051	-0,119
-251,307	101,935	0,053	-0,044
-250,292	624,019	-0,015	-0,027
-249,278	-103,426	0,070	0,012
-248,263	84,264	-0,051	0,040
-247,249	-61,553	0,029	0,009
-246,234	-76,956	0,050	0,013
-245,219	800,000	0,055	-0,115
-244,205	8,555	0,113	-0,061
-243,190	61,635	-0,083	0,059
-242,176	314,849	0,057	-0,078
-241,161	391,302	0,039	-0,059
-240,146	-200,000	0,007	0,057
-239,132	333,985	0,066	0,093
-238,117	-51,388	0,144	0,048
-237,103	243,749	0,103	-0,125
-236,088	143,000	0,070	-0,068
-235,073	102,873	0,106	-0,090
-234,059	-72,135	-0,035	-0,009
-233,044	677,463	0,087	-0,165
-232,030	158,279	0,056	0,056
-231,015	-111,891	0,063	0,009
-230,000	-200,000	-0,021	0,089
-228,986	800,000	-0,026	-0,082
-227,971	-200,000	-0,004	-0,061
-226,957	-192,256	0,061	0,000
-225,942	486,626	0,064	0,106
-224,927	-88,287	0,066	0,014
-223,913	800,000	-0,033	0,103
-222,898	270,080	-0,057	0,072
-221,884	-78,469	-0,100	-0,025
-220,869	-164,609	0,208	0,007
-219,855	-200,000	-0,009	0,045
-218,840	-75,433	0,121	0,031
-217,825	-200,000	0,012	-0,040
-216,811	39,524	-0,014	-0,009
-215,796	224,319	-0,021	-0,024
-214,782	-44,490	0,008	0,003
-213,767	484,797	-0,027	0,045
-212,752	-145,164	0,064	-0,004
-211,738	800,000	0,011	0,029
-210,723	800,000	-0,031	0,095
-209,709	51,189	0,066	-0,045
-208,694	103,397	-0,011	-0,010
-207,679	68,049	-0,090	0,066
-206,665	-41,584	0,195	0,072
-205,650	-200,000	0,002	0,197
-204,636	-131,893	-0,042	-0,004
-203,621	354,771	-0,018	0,026
-202,606	22,015	-0,014	-0,008
-201,592	-143,731	-0,117	-0,008
-200,577	800,000	0,014	0,044
-199,563	-200,000	0,019	-0,207
-198,548	800,000	0,029	0,086
-197,533	-11,200	-0,101	-0,048
-196,519	-96,914	0,235	0,044
-195,504	-116,140	-0,073	-0,010
-194,490	-125,043	-0,228	0,025
-193,475	-200,000	-0,023	-0,176
-192,460	800,000	0,019	0,057
-191,446	57,410	-0,077	-0,054
-190,431	-179,088	0,248	-0,004
-189,417	-89,622	0,120	-0,025
-188,402	-123,869	0,079	-0,009
-187,387	-29,575	-0,033	0,013
-186,373	223,427	-0,060	-0,070
-185,358	331,449	-0,045	0,063
-184,344	409,487	0,038	0,059
-183,329	164,043	0,063	0,064
-182,315	301,626	0,033	0,044
-181,300	-21,678	0,032	0,014
-180,285	285,540	0,023	0,030
-179,271	800,000	-0,079	-0,198
-178,256	546,685	0,062	-0,107
-177,242	800,000	0,017	0,049
-176,227	-7,661	-0,063	-0,031
-175,212	86,180	0,068	0,054
-174,198	-85,126	0,153	0,034
-173,183	45,388	-0,070	0,046
-172,169	-28,477	-0,223	-0,092
-171,154	567,773	0,045	-0,080
-170,139	122,954	-0,011	0,010
-169,125	-200,000	-0,008	-0,043
-168,110	327,130	-0,046	0,063
-167,096	800,000	-0,049	0,141
-166,081	317,575	-0,103	-0,140
-165,066	81,947	-0,053	0,042
-164,052	284,314	0,108	-0,140
-163,037	-200,000	0,027	-0,148
-162,023	800,000	0,038	0,077
-161,008	61,736	-0,134	0,096
-159,993	559,145	-0,036	0,063
-158,979	47,291	0,115	0,077
-157,964	800,000	-0,027	0,062
-156,950	276,429	-0,072	-0,093
-155,935	-125,869	-0,098	-0,010
-154,920	8,550	-0,040	0,022
-153,906	-8,689	0,126	-0,061
-152,891	77,620	-0,033	-0,026
-151,877	141,905	0,107	0,103
-150,862	-191,189	-0,103	0,001
-149,847	-200,000	-0,010	-0,047
-148,833	43,947	-0,068	0,045
-147,818	335,185	-0,076	0,107
-146,804	-200,000	0,006	-0,041
-145,789	-164,717	-0,016	0,001
-144,775	-12,746	-0,063	-0,030
-143,760	298,399	0,095	-0,126
-142,745	-200,000	-0,014	-0,151
-141,731	-200,000	0,021	0,132
-140,716	-200,000	0,002	-0,128
-139,702	-200,000	0,004	0,112
-138,687	-40,673	-0,131	0,049
-137,672	-200,000	0,016	-0,077
-136,658	206,606	-0,031	-0,034
-135,643	132,216	0,041	-0,038
-134,629	21,918	0,104	0,061
-133,614	-200,000	-0,010	-0,113
-132,599	104,025	0,044	-0,037
-131,585	350,853	-0,008	0,011
-130,570	-40,368	0,089	0,033
-129,556	-200,000	-0,008	0,186
-128,541	-31,101	-0,041	0,017
-127,526	-100,915	-0,076	0,013
-126,512	-200,000	-0,006	0,078
-125,497	174,594	0,082	-0,086
-124,483	800,000	-0,055	0,160
-123,468	800,000	0,045	0,097
-122,453	16,887	0,192	0,109
-121,439	-200,000	-0,016	-0,151
-120,424	224,325	0,032	-0,037
-119,410	800,000	0,029	0,090
