DTS Sentinel unit serial number:	SN410029Multiplexer serial number:	ORYXHardware model number:	OX2-SRSoftware version number:	ORYX F/W v4,00 Oryx Data Collector v3.7.2.0data status	okinstallation	B5 Nyhavnadifferential loss correction	single-endedforward channel	channel 2reverse channel	N/Adate	2023/12/11time	17:17:13forward acquisition time	300,00reverse acquisition time	0,00gamma	499,1914k internal	0,3163k external	0,3163temperature offset calibration	1,0000default loss term (dB/km)	0,3820temperature slope calibration	1,0000multiplexer offset coefficient	1,0000multiplexer slope coefficient	1,0000fibre end	0,00T internal ref (°C)	14,59T ext. ref 1 (°C)	-0,65T ext. ref 2 (°C)	-0,87length (m)	temperature (°C)	Stokes	anti-Stokes-744,400	101,090	0,081	-0,069
-743,385	-135,589	-0,233	0,020
-742,371	117,056	0,022	0,020
-741,356	-22,754	-0,232	0,103
-740,342	-200,000	0,001	0,087
-739,327	-92,541	-0,295	0,060
-738,312	-44,406	0,021	-0,008
-737,298	-80,818	-0,305	-0,074
-736,283	26,557	0,077	-0,047
-735,269	-121,008	-0,158	-0,019
-734,254	-133,246	0,082	0,008
-733,239	-10,623	-0,559	-0,271
-732,225	75,879	0,121	0,094
-731,210	-200,000	0,008	0,158
-730,196	162,119	0,096	0,099
-729,181	21,523	-0,126	-0,075
-728,167	-98,941	0,148	0,027
-727,152	191,741	-0,030	-0,033
-726,137	197,955	-0,066	-0,075
-725,123	800,000	0,045	-0,111
-724,108	388,708	-0,060	-0,092
-723,094	-68,561	-0,119	-0,034
-722,079	-200,000	0,004	-0,081
-721,064	-200,000	0,040	-0,193
-720,050	64,815	0,036	-0,026
-719,035	-60,682	-0,096	0,030
-718,021	268,263	0,083	-0,107
-717,006	30,463	-0,114	0,072
-715,991	370,561	-0,076	-0,113
-714,977	800,000	0,072	-0,173
-713,962	-68,119	0,164	-0,047
-712,948	-200,000	0,023	0,155
-711,933	-40,117	0,058	0,022
-710,918	-0,129	0,074	0,039
-709,904	-140,622	-0,082	0,006
-708,889	-55,742	0,090	-0,029
-707,875	800,000	-0,069	0,176
-706,860	171,147	0,189	0,199
-705,845	-125,994	-0,100	-0,011
-704,831	-66,225	-0,105	-0,031
-703,816	67,680	0,054	0,040
-702,802	-200,000	-0,004	-0,109
-701,787	-200,000	-0,045	-0,192
-700,772	-7,449	0,066	-0,033
-699,758	40,130	-0,028	-0,019
-698,743	-5,700	0,075	0,038
-697,729	800,000	0,026	0,071
-696,714	800,000	-0,015	0,032
-695,699	172,752	-0,069	0,073
-694,685	800,000	-0,058	-0,179
-693,670	800,000	-0,017	-0,037
-692,656	800,000	0,025	-0,057
-691,641	85,967	0,093	-0,075
-690,627	800,000	0,043	-0,097
-689,612	-155,795	-0,070	0,003
-688,597	800,000	0,024	0,078
-687,583	98,687	0,051	0,043
-686,568	-98,192	-0,088	0,016
-685,554	-22,252	0,105	-0,046
-684,539	-51,624	-0,029	0,010
-683,524	-71,819	0,055	0,015
-682,510	-117,546	-0,109	0,014
-681,495	455,078	0,039	0,063
-680,481	800,000	-0,045	0,109
-679,466	-170,860	-0,186	-0,005
-678,451	-44,132	-0,066	-0,024
-677,437	-129,197	0,035	-0,003
-676,422	70,331	0,041	-0,031
-675,408	-200,000	-0,017	-0,098
-674,393	154,098	-0,073	0,073
-673,378	-200,000	-0,013	-0,175
-672,364	-200,000	0,001	-0,064
-671,349	800,000	0,009	-0,029
-670,335	509,532	0,054	0,093
-669,320	57,470	0,058	0,041
-668,305	800,000	0,020	0,058
-667,291	-81,211	-0,081	0,019
-666,276	-116,107	0,085	-0,011
-665,262	-200,000	0,048	0,170
-664,247	-200,000	0,011	-0,125
-663,232	800,000	0,049	-0,119
-662,218	800,000	0,044	0,128
-661,203	-200,000	0,028	0,115
-660,189	-106,659	0,071	-0,011
-659,174	-73,393	0,066	0,017
-658,159	800,000	-0,025	0,067
-657,145	97,419	-0,048	-0,040
-656,130	120,798	-0,103	-0,094
-655,116	392,008	0,054	-0,082
-654,101	149,963	0,002	0,002
-653,086	-89,175	-0,010	0,002
-652,072	-200,000	-0,002	-0,102
-651,057	260,351	-0,065	-0,082
-650,043	106,940	0,133	0,116
-649,028	172,176	0,110	0,116
-648,014	138,517	0,050	0,048
-646,999	50,511	-0,107	0,074
-645,984	192,316	0,008	0,009
-644,970	80,997	-0,067	-0,053
-643,955	800,000	0,056	-0,150
-642,941	655,692	0,033	0,063
-641,926	800,000	0,070	0,174
-640,911	-117,896	0,043	-0,006
-639,897	225,600	-0,038	0,045
-638,882	-110,157	0,070	-0,011
-637,868	779,641	0,012	-0,023
-636,853	729,239	-0,060	-0,117
-635,838	-200,000	0,003	-0,078
-634,824	800,000	0,005	-0,017
-633,809	45,339	-0,030	-0,020
-632,795	84,830	0,183	0,147
-631,780	800,000	0,018	0,039
-630,765	-91,939	0,044	0,009
-629,751	-200,000	-0,000	-0,101
-628,736	54,378	0,021	-0,015
-627,722	611,876	-0,008	-0,015
-626,707	-2,498	0,051	0,026
-625,692	-108,528	0,183	-0,028
-624,678	-166,916	-0,113	0,003
-623,663	800,000	-0,061	-0,145
-622,649	-66,963	-0,053	-0,015
-621,634	-37,260	-0,125	0,049
-620,619	371,032	-0,083	-0,124
-619,605	-200,000	0,011	0,092
-618,590	800,000	0,018	0,040
-617,576	800,000	0,063	0,137
-616,561	431,766	0,085	-0,135
-615,546	11,125	-0,069	-0,039
-614,532	-70,318	-0,008	0,002
-613,517	-154,456	-0,095	0,005
-612,503	-200,000	-0,043	0,179
-611,488	105,693	-0,061	0,053
-610,474	-108,094	-0,102	0,016
-609,459	-36,292	0,043	-0,017
-608,444	800,000	0,037	0,089
-607,430	296,105	0,021	-0,028
-606,415	800,000	0,037	-0,106
-605,401	55,082	0,111	-0,078
-604,386	34,169	0,103	0,065
-603,371	-200,000	0,006	0,058
-602,357	218,995	0,085	-0,099
-601,342	662,816	0,021	0,040
-600,328	-200,000	0,021	-0,071
-599,313	561,039	-0,052	-0,092
-598,298	-128,300	-0,024	-0,003
-597,284	800,000	0,033	-0,084
-596,269	183,068	-0,103	-0,111
-595,255	-29,697	0,055	-0,023
-594,240	23,016	0,041	0,025
-593,225	397,884	0,033	0,050
-592,211	-116,380	-0,031	-0,004
-591,196	106,456	-0,067	0,058
-590,182	45,199	0,037	0,025
-589,167	-145,773	-0,097	0,006
-588,152	-200,000	-0,003	0,181
-587,138	-57,633	-0,102	-0,032
-586,123	64,413	-0,098	-0,072
-585,109	-87,053	-0,079	-0,017
-584,094	-101,330	0,081	-0,014
-583,079	800,000	0,065	0,162
-582,065	800,000	0,047	0,112
-581,050	-22,861	0,119	0,052
-580,036	134,730	-0,120	-0,114
-579,021	584,453	-0,026	-0,046
-578,006	-87,420	0,158	0,035
-576,992	-42,447	-0,032	0,012
-575,977	234,956	-0,026	-0,031
-574,963	-15,992	-0,114	-0,053
-573,948	207,978	0,058	-0,067
-572,934	140,102	-0,088	-0,085
-571,919	800,000	0,006	-0,013
-570,904	73,619	0,053	-0,041
-569,890	797,561	-0,033	-0,067
-568,875	-200,000	-0,011	-0,075
-567,861	800,000	-0,023	-0,064
-566,846	-200,000	-0,001	0,111
-565,831	-200,000	0,013	0,120
-564,817	-200,000	-0,003	0,032
-563,802	-109,300	-0,107	-0,016
-562,788	296,851	0,056	-0,076
-561,773	83,810	-0,027	-0,022
-560,758	800,000	0,039	0,086
-559,744	75,863	0,038	0,030
-558,729	-41,426	-0,096	0,036
-557,715	800,000	0,030	-0,094
-556,700	107,108	0,037	-0,032
-555,685	-132,516	0,028	0,003
-554,671	14,862	0,044	-0,025
-553,656	-200,000	-0,006	0,077
-552,642	-139,203	0,044	-0,003
-551,627	-162,880	-0,169	0,006
-550,612	203,723	0,034	-0,038
-549,598	107,550	-0,048	-0,042
-548,583	193,122	-0,058	0,065
-547,569	800,000	-0,015	-0,034
-546,554	6,920	0,043	-0,023
-545,539	164,562	0,064	0,066
-544,525	-200,000	0,057	0,200
-543,510	-46,511	-0,103	0,037
-542,496	249,380	-0,063	-0,079
-541,481	196,955	0,070	-0,078
-540,466	-118,534	0,065	-0,008
-539,452	105,158	-0,017	-0,015
-538,437	384,105	-0,031	-0,047
-537,423	100,859	-0,100	-0,085
-536,408	-200,000	0,039	-0,141
-535,393	93,308	-0,169	0,140
-534,379	59,054	-0,052	0,037
-533,364	-200,000	0,002	0,067
-532,350	-20,125	0,049	0,022
-531,335	-200,000	0,016	0,113
-530,321	-25,164	0,012	0,005
-529,306	-200,000	0,005	-0,095
-528,291	53,051	-0,050	-0,035
-527,277	-83,985	-0,113	-0,026
-526,262	800,000	-0,035	-0,078
-525,248	-200,000	-0,009	0,046
-524,233	795,897	0,074	0,149
-523,218	-47,060	0,046	-0,016
-522,204	131,500	-0,052	0,049
-521,189	800,000	0,005	0,011
-520,175	29,049	0,099	0,061
-519,160	-51,465	-0,109	0,037
-518,145	-200,000	-0,004	-0,055
-517,131	-45,612	0,045	-0,016
-516,116	-115,063	-0,033	-0,004
-515,102	-200,000	-0,191	-0,000
-514,087	165,510	0,020	-0,021
-513,072	158,716	-0,158	-0,160
-512,058	-64,046	-0,107	0,032
-511,043	-200,000	0,004	0,057
-510,029	93,532	0,033	0,028
-509,014	-120,309	-0,131	-0,016
-507,999	800,000	-0,028	0,074
-506,985	146,465	-0,064	-0,063
-505,970	156,527	-0,089	-0,090
-504,956	140,865	-0,120	-0,116
-503,941	-17,268	-0,027	0,013
-502,926	-56,532	-0,100	-0,032
-501,912	155,404	0,027	-0,027
-500,897	-200,000	-0,006	0,084
-499,883	46,741	-0,025	0,017
-498,868	211,872	-0,119	-0,137
-497,853	800,000	0,034	-0,080
-496,839	663,486	0,012	0,023
-495,824	-200,000	0,022	-0,079
-494,810	-25,919	-0,073	0,031
-493,795	800,000	0,047	0,130
-492,781	-200,000	-0,002	-0,096
-491,766	-200,000	0,013	-0,103
-490,751	519,414	-0,013	-0,022
-489,737	252,289	-0,010	-0,012
-488,722	-200,000	0,009	0,110
-487,708	146,459	0,119	0,116
-486,693	-200,000	0,041	0,137
-485,678	-77,607	-0,046	-0,012
-484,664	-200,000	-0,009	0,084
-483,649	-16,289	-0,014	-0,007
-482,635	-200,000	-0,025	-0,108
-481,620	-200,000	0,007	-0,069
-480,605	235,997	-0,031	-0,037
-479,591	-200,000	0,009	0,090
-478,576	800,000	-0,015	0,047
-477,562	8,160	-0,085	-0,047
-476,547	68,103	0,044	-0,033
-475,532	125,343	-0,110	-0,101
-474,518	82,609	0,092	-0,073
-473,503	-200,000	0,013	-0,045
-472,489	-52,771	0,038	0,013
-471,474	529,078	0,030	0,051
-470,459	197,163	-0,016	0,017
-469,445	800,000	-0,066	-0,162
-468,430	110,062	-0,185	-0,161
-467,416	300,821	-0,082	0,111
-466,401	179,791	0,111	-0,119
-465,386	405,098	0,049	0,076
-464,372	800,000	0,054	0,133
-463,357	66,868	0,015	-0,011
-462,343	617,317	-0,041	0,076
-461,328	-99,949	0,048	-0,009
-460,313	196,111	0,103	0,114
-459,299	-118,380	-0,025	-0,003
-458,284	-13,056	0,055	-0,026
-457,270	25,870	-0,138	-0,084
-456,255	-120,313	-0,078	-0,010
-455,241	-120,319	-0,050	-0,006
-454,226	416,897	0,039	0,061
-453,211	800,000	0,040	-0,082
-452,197	-47,615	-0,124	0,044
-451,182	522,236	0,016	0,028
-450,168	-190,730	0,110	0,001
-449,153	-39,954	0,096	0,036
-448,138	59,323	-0,056	0,040
-447,124	-172,319	0,031	-0,001
-446,109	-30,805	-0,020	-0,008
-445,095	-3,602	0,167	0,084
-444,080	406,035	0,037	0,057
-443,065	312,055	-0,071	0,097
-442,051	-104,674	0,066	-0,011
-441,036	399,766	0,012	0,018
-440,022	800,000	-0,035	-0,080
-439,007	150,130	-0,084	-0,083
-437,992	80,368	0,016	0,012
-436,978	800,000	-0,027	0,057
-435,963	721,656	0,095	0,185
-434,949	113,853	-0,037	-0,033
-433,934	800,000	-0,054	-0,141
-432,919	800,000	0,033	0,068
-431,905	-200,000	0,008	-0,131
-430,890	95,984	-0,038	0,032
-429,876	-50,327	0,137	0,047
-428,861	-200,000	0,043	0,175
-427,846	7,041	-0,111	0,060
-426,832	157,370	0,064	0,065
-425,817	16,225	0,066	0,038
-424,803	104,834	-0,024	0,021
-423,788	402,696	0,062	-0,094
-422,773	157,736	0,059	-0,059
-421,759	800,000	0,054	0,161
-420,744	113,215	-0,086	-0,076
-419,730	-200,000	-0,016	0,141
-418,715	-200,000	-0,003	-0,047
-417,701	800,000	0,025	0,056
-416,686	-22,639	0,071	0,031
-415,671	-117,270	0,037	0,005
-414,657	-200,000	0,003	-0,038
-413,642	-200,000	-0,014	0,130
-412,628	800,000	-0,033	-0,068
-411,613	800,000	-0,010	-0,023
-410,598	177,549	-0,063	0,067
-409,584	-200,000	-0,005	0,097
-408,569	-200,000	0,015	-0,062
-407,555	-200,000	-0,002	-0,170
-406,540	-200,000	0,014	-0,089
-405,525	18,206	-0,065	-0,037
-404,511	-200,000	0,001	0,092
-403,496	-96,606	-0,006	0,001
-402,482	-200,000	-0,013	0,067
-401,467	-17,773	0,121	-0,055
-400,452	-93,867	-0,018	-0,004
-399,438	33,178	0,109	-0,069
-398,423	-48,563	-0,109	-0,038
-397,409	-200,000	-0,026	-0,098
-396,394	-46,829	-0,076	0,027
-395,379	694,921	-0,070	-0,133
-394,365	76,919	-0,084	0,064
-393,350	-129,843	-0,078	0,008
-392,336	114,550	0,083	0,074
-391,321	800,000	-0,026	0,075
-390,306	46,090	-0,141	-0,094
-389,292	-58,384	-0,083	-0,026
-388,277	-126,804	-0,053	-0,006
-387,263	-200,000	0,038	-0,144
-386,248	346,926	0,058	0,083
-385,233	109,206	0,095	-0,083
-384,219	636,971	-0,027	0,049
-383,204	77,801	-0,020	-0,016
-382,190	-148,502	0,090	0,005
-381,175	-60,966	-0,069	-0,021
-380,160	-200,000	0,002	-0,095
-379,146	-200,000	-0,005	0,122
-378,131	-18,781	-0,102	0,046
-377,117	-82,544	-0,093	-0,022
-376,102	-5,797	0,029	0,014
-375,088	289,944	0,050	-0,065
-374,073	-68,222	-0,071	-0,020
-373,058	-200,000	-0,027	0,100
-372,044	-200,000	-0,010	0,048
-371,029	-13,036	0,056	0,026
-370,015	-87,846	0,078	0,017
-369,000	-200,000	-0,023	-0,118
-367,985	-200,000	0,002	-0,094
-366,971	286,736	0,081	-0,107
-365,956	392,694	-0,048	0,073
-364,942	-200,000	0,033	0,112
-363,927	-200,000	0,002	0,023
-362,912	-200,000	0,004	0,070
-361,898	-200,000	-0,027	0,087
-360,883	471,302	-0,021	-0,034
-359,869	275,171	-0,075	-0,096
-358,854	-152,188	-0,064	0,003
-357,839	-200,000	-0,005	0,030
-356,825	215,105	0,064	0,073
-355,810	203,430	0,039	-0,043
-354,796	-200,000	0,009	-0,195
-353,781	-179,884	-0,097	-0,001
-352,766	-41,591	-0,051	0,019
-351,752	113,410	0,090	-0,079
-350,737	39,158	0,074	0,048
-349,723	-18,096	0,083	0,037
-348,708	20,586	0,045	-0,026
-347,693	471,609	-0,041	0,067
-346,679	-109,718	0,064	0,010
-345,664	-10,870	-0,155	-0,074
-344,650	-200,000	-0,012	0,083
-343,635	324,931	0,016	0,022
-342,620	-200,000	0,018	-0,100
-341,606	-200,000	0,021	0,128
-340,591	-8,209	0,031	-0,015
-339,577	664,391	0,062	-0,116
-338,562	800,000	0,033	-0,091
-337,548	-33,059	-0,023	-0,009
-336,533	-91,228	0,072	0,015
-335,518	-200,000	0,005	-0,091
-334,504	353,303	-0,032	-0,046
-333,489	180,217	-0,073	0,078
-332,475	165,423	-0,035	-0,036
-331,460	-200,000	-0,003	0,189
-330,445	800,000	0,033	0,066
-329,431	156,259	0,036	0,036
-328,416	-2,782	0,012	-0,006
-327,402	309,454	-0,010	-0,014
-326,387	58,652	0,117	-0,083
-325,372	2,626	-0,072	-0,038
-324,358	80,557	-0,072	0,056
-323,343	-92,156	-0,139	-0,028
-322,329	61,052	0,067	0,048
-321,314	-1,171	0,045	0,023
-320,299	-158,613	0,166	0,007
-319,285	62,389	-0,075	0,054
-318,270	-32,601	-0,051	0,020
-317,256	327,530	0,070	-0,097
-316,241	-200,000	-0,006	-0,069
-315,226	-77,127	-0,023	0,006
-314,212	125,314	0,120	0,110
-313,197	-69,552	0,074	-0,020
-312,183	-200,000	0,015	-0,062
-311,168	-53,127	0,061	-0,020
-310,153	-200,000	-0,022	-0,125
-309,139	-200,000	-0,017	-0,067
-308,124	-25,162	0,074	-0,031
-307,110	193,993	0,043	-0,048
-306,095	-17,758	-0,038	-0,017
-305,080	-31,757	0,110	-0,045
-304,066	-19,186	-0,050	-0,022
-303,051	-200,000	-0,019	-0,070
-302,037	-75,639	-0,074	-0,019
-301,022	-100,989	0,057	0,010
-300,008	13,436	0,043	0,024
-298,993	232,231	0,102	0,121
-297,978	10,673	0,015	0,008
-296,964	-144,865	-0,151	0,010
-295,949	-200,000	-0,008	-0,027
-294,935	800,000	0,020	-0,044
-293,920	-200,000	-0,016	0,054
-292,905	-124,973	0,046	0,005
-291,891	304,376	-0,045	0,060
-290,876	800,000	-0,010	0,028
-289,862	404,916	-0,050	-0,076
-288,847	91,508	-0,106	-0,086
-287,832	-131,007	0,110	-0,011
-286,818	47,159	0,101	0,068
-285,803	10,483	0,024	0,013
-284,789	-129,469	0,135	-0,013
-283,774	28,239	0,056	0,034
-282,759	-200,000	0,004	0,050
-281,745	6,734	-0,252	0,135
-280,730	-96,059	0,084	0,016
-279,716	-69,486	0,129	0,036
-278,701	-157,807	0,124	0,005
-277,686	-200,000	-0,030	-0,142
-276,672	-200,000	0,039	0,147
-275,657	-134,002	0,049	-0,004
-274,643	191,919	-0,056	0,061
-273,628	297,302	-0,004	0,006
-272,613	167,342	-0,060	-0,062
-271,599	147,363	0,066	-0,064
-270,584	327,083	-0,050	-0,069
-269,570	365,353	0,023	0,034
-268,555	-200,000	0,002	-0,046
-267,540	-176,485	0,008	-0,000
-266,526	573,250	-0,047	-0,084
-265,511	-128,106	-0,050	-0,005
-264,497	498,640	-0,031	0,052
-263,482	92,710	0,144	-0,118
-262,467	800,000	0,059	0,134
-261,453	-200,000	-0,002	-0,046
-260,438	21,039	-0,077	-0,045
-259,424	-200,000	-0,005	-0,069
-258,409	6,723	-0,127	-0,068
-257,395	-200,000	0,026	0,104
-256,380	800,000	0,027	-0,067
-255,365	-200,000	-0,012	-0,076
-254,351	-200,000	0,004	0,113
-253,336	129,328	-0,041	0,038
-252,322	-127,429	-0,070	0,007
-251,307	88,742	-0,027	0,022
-250,292	800,000	0,025	0,056
-249,278	-1,811	0,084	0,042
-248,263	-200,000	0,018	0,087
-247,249	-72,697	-0,011	-0,003
-246,234	-69,556	-0,055	-0,015
-245,219	588,776	-0,101	0,180
-244,205	339,420	-0,036	-0,050
-243,190	-200,000	-0,014	0,050
-242,176	-200,000	-0,030	-0,106
-241,161	-94,220	-0,126	0,025
-240,146	-183,022	0,038	0,000
-239,132	-200,000	0,024	-0,088
-238,117	-133,420	-0,063	-0,006
-237,103	79,009	-0,013	0,010
-236,088	-200,000	0,023	0,127
-235,073	-200,000	0,026	0,102
-234,059	-200,000	0,023	0,153
-233,044	-200,000	0,024	0,117
-232,030	-79,697	0,073	0,018
-231,015	-200,000	-0,027	0,145
-230,000	244,086	0,029	-0,035
-228,986	663,503	-0,103	-0,192
-227,971	-172,137	0,154	0,004
-226,957	-71,260	-0,048	-0,013
-225,942	-19,926	0,099	0,044
-224,927	18,670	-0,074	-0,042
-223,913	-73,819	-0,195	-0,051
-222,898	212,003	-0,027	-0,031
-221,884	211,801	-0,050	-0,056
-220,869	-72,972	0,142	0,037
-219,855	-24,265	-0,116	-0,050
-218,840	101,083	-0,015	0,012
-217,825	800,000	-0,031	0,071
-216,811	-200,000	-0,014	0,131
-215,796	353,876	0,008	0,012
-214,782	-129,290	0,030	0,003
-213,767	-200,000	-0,017	-0,069
-212,752	374,137	0,093	0,136
-211,738	-200,000	-0,011	-0,057
-210,723	28,454	-0,066	-0,040
-209,709	24,043	0,190	0,113
-208,694	12,519	-0,037	0,020
-207,679	203,810	-0,038	-0,042
-206,665	-47,219	-0,047	0,016
-205,650	204,701	0,077	0,086
-204,636	-95,407	0,140	-0,027
-203,621	170,957	-0,051	-0,053
-202,606	-107,723	0,158	-0,025
-201,592	286,187	-0,147	-0,191
-200,577	800,000	0,050	-0,132
-199,563	-63,115	0,040	0,012
-198,548	131,358	0,118	0,109
-197,533	-102,293	0,083	0,014
-196,519	681,172	-0,101	0,190
-195,504	45,068	0,151	-0,100
-194,490	-84,527	-0,127	0,029
-193,475	342,144	0,022	-0,031
-192,460	343,658	0,036	0,051
-191,446	8,734	0,105	0,057
-190,431	-121,275	-0,032	0,004
-189,417	-119,753	0,037	-0,004
-188,402	174,716	0,039	-0,041
-187,387	-200,000	-0,008	-0,207
-186,373	62,529	-0,123	-0,088
-185,358	-63,957	0,074	0,022
-184,344	-21,311	-0,050	0,022
-183,329	-121,084	-0,087	0,010
-182,315	-78,230	0,032	-0,008
-181,300	800,000	-0,056	0,116
-180,285	-200,000	0,018	-0,110
-179,271	-200,000	0,008	-0,166
-178,256	94,417	0,111	-0,091
-177,242	181,553	0,140	0,148
-176,227	-200,000	0,002	0,095
-175,212	257,233	0,052	-0,064
-174,198	-200,000	-0,004	0,028
-173,183	800,000	0,043	-0,103
-172,169	499,135	0,039	0,065
-171,154	-182,878	-0,141	0,002
-170,139	-200,000	-0,019	0,069
-169,125	47,235	0,075	-0,050
-168,110	227,293	-0,080	-0,094
-167,096	300,522	0,047	-0,063
-166,081	-105,514	0,096	0,016
-165,066	346,330	-0,048	-0,068
-164,052	800,000	0,063	-0,161
-163,037	-64,302	0,126	0,037
-162,023	-70,764	0,088	0,024
-161,008	-200,000	0,007	-0,029
-159,993	125,003	0,011	-0,010
-158,979	-192,028	0,039	0,000
-157,964	439,592	-0,036	0,057
-156,950	-200,000	-0,024	0,150
-155,935	-86,862	0,116	0,025
-154,920	393,072	0,071	0,106
-153,906	800,000	-0,021	0,066
-152,891	545,747	-0,055	-0,095
-151,877	202,299	-0,056	-0,063
-150,862	167,393	-0,053	0,054
-149,847	464,235	-0,038	0,062
-148,833	-18,252	-0,154	0,069
-147,818	-200,000	0,024	0,139
-146,804	14,493	0,091	0,051
-145,789	-200,000	-0,002	-0,014
-144,775	-35,338	0,097	-0,038
-143,760	261,386	0,014	0,017
-142,745	183,142	0,045	0,047
-141,731	-21,677	-0,060	0,026
-140,716	273,680	0,042	0,054
-139,702	-200,000	-0,020	0,075
-138,687	-200,000	-0,023	0,085
-137,672	80,775	0,113	0,087
-136,658	-99,279	-0,125	-0,023
-135,643	-116,820	-0,179	0,023
-134,629	-90,969	-0,026	0,005
-133,614	641,164	0,020	-0,037
-132,599	-200,000	0,006	0,051
-131,585	800,000	-0,008	0,017
-130,570	-33,898	0,062	0,024
-129,556	198,881	-0,024	-0,027
-128,541	800,000	-0,063	-0,133
-127,526	342,497	0,073	-0,102
-126,512	25,154	-0,016	-0,009
-125,497	-40,952	0,214	0,079
-124,483	133,596	-0,054	-0,050
-123,468	89,865	-0,086	-0,069
-122,453	365,664	0,039	-0,056
-121,439	31,444	-0,073	-0,045
-120,424	43,878	0,059	-0,039
-119,410	-151,406	0,161	-0,008
-118,395	-200,000	0,040	0,203
