DTS Sentinel unit serial number:	SN410029Multiplexer serial number:	ORYXHardware model number:	OX2-SRSoftware version number:	ORYX F/W v4,00 Oryx Data Collector v3.7.2.0data status	okinstallation	B5 Nyhavnadifferential loss correction	single-endedforward channel	channel 2reverse channel	N/Adate	2023/12/13time	13:27:13forward acquisition time	300,00reverse acquisition time	0,00gamma	499,1914k internal	0,3161k external	0,3161temperature offset calibration	1,0000default loss term (dB/km)	0,3820temperature slope calibration	1,0000multiplexer offset coefficient	1,0000multiplexer slope coefficient	1,0000fibre end	0,00T internal ref (°C)	14,59T ext. ref 1 (°C)	-1,25T ext. ref 2 (°C)	-1,52length (m)	temperature (°C)	Stokes	anti-Stokes-744,400	-200,000	-0,004	0,046
-743,385	-107,466	-0,236	0,038
-742,371	64,198	0,090	0,067
-741,356	-85,741	-0,258	-0,058
-740,342	181,815	-0,060	-0,065
-739,327	-82,002	-0,291	-0,069
-738,312	-116,857	0,187	-0,025
-737,298	-96,156	-0,280	0,054
-736,283	404,501	0,046	0,071
-735,269	-168,584	-0,274	0,008
-734,254	-174,861	0,157	-0,003
-733,239	-107,140	-0,546	-0,088
-732,225	800,000	0,067	0,156
-731,210	-89,853	-0,070	0,015
-730,196	-116,173	-0,046	-0,006
-729,181	187,728	-0,062	-0,068
-728,167	40,678	-0,065	0,043
-727,152	524,679	0,046	-0,080
-726,137	-122,881	0,021	-0,002
-725,123	-57,899	-0,081	-0,026
-724,108	-93,614	-0,074	0,015
-723,094	1,586	-0,073	-0,038
-722,079	70,331	-0,034	-0,026
-721,064	134,719	-0,103	-0,098
-720,050	-200,000	0,023	-0,083
-719,035	-200,000	0,020	-0,129
-718,021	52,427	0,027	-0,019
-717,006	800,000	-0,042	0,125
-715,991	223,301	-0,126	-0,150
-714,977	-200,000	-0,014	-0,109
-713,962	800,000	-0,032	0,073
-712,948	51,451	0,135	0,094
-711,933	11,622	-0,121	0,068
-710,918	-72,048	-0,130	0,035
-709,904	-200,000	0,029	-0,110
-708,889	-67,621	-0,170	-0,049
-707,875	-105,105	-0,035	-0,006
-706,860	-135,351	-0,106	-0,009
-705,845	-200,000	-0,021	-0,092
-704,831	-86,499	0,064	-0,014
-703,816	-200,000	-0,032	-0,108
-702,802	-37,711	0,041	-0,016
-701,787	514,737	-0,083	-0,142
-700,772	-200,000	-0,029	-0,133
-699,758	334,114	-0,019	0,027
-698,743	-73,408	0,156	0,042
-697,729	488,157	0,072	-0,121
-696,714	-46,671	0,040	0,014
-695,699	800,000	-0,042	0,109
-694,685	-200,000	-0,014	-0,058
-693,670	800,000	-0,078	-0,226
-692,656	792,588	0,020	-0,041
-691,641	-42,187	0,129	0,048
-690,627	304,216	0,038	0,052
-689,612	-134,835	0,063	-0,006
-688,597	145,811	0,004	0,004
-687,583	-63,421	0,114	-0,034
-686,568	198,207	-0,025	-0,029
-685,554	-125,893	-0,063	-0,007
-684,539	23,598	0,085	-0,052
-683,524	97,000	0,078	0,066
-682,510	-112,495	-0,107	-0,016
-681,495	-200,000	-0,019	0,088
-680,481	361,658	0,002	-0,003
-679,466	14,519	-0,175	-0,100
-678,451	-60,200	0,052	-0,016
-677,437	27,139	0,169	0,104
-676,422	19,616	0,124	0,073
-675,408	416,124	-0,032	0,050
-674,393	-200,000	-0,003	0,031
-673,378	508,493	-0,022	-0,038
-672,364	-200,000	0,003	-0,049
-671,349	200,633	-0,082	0,093
-670,335	-55,864	0,020	0,007
-669,320	271,306	0,061	-0,079
-668,305	6,335	0,172	-0,094
-667,291	99,610	-0,018	0,015
-666,276	-200,000	-0,012	-0,058
-665,262	-181,952	-0,083	-0,001
-664,247	800,000	0,042	-0,093
-663,232	-168,828	-0,034	-0,001
-662,218	-200,000	0,017	0,110
-661,203	507,359	0,074	0,126
-660,189	281,505	-0,054	-0,071
-659,174	324,871	-0,054	-0,075
-658,159	800,000	-0,039	-0,117
-657,145	800,000	-0,044	-0,091
-656,130	217,210	0,092	0,108
-655,116	800,000	0,014	-0,040
-654,101	-200,000	-0,010	0,128
-653,086	685,871	-0,064	0,123
-652,072	-56,293	-0,106	0,034
-651,057	12,705	-0,052	-0,030
-650,043	561,334	-0,051	-0,090
-649,028	-200,000	-0,002	0,006
-648,014	607,333	0,045	0,083
-646,999	362,738	0,019	-0,027
-645,984	12,910	-0,011	-0,006
-644,970	800,000	-0,033	-0,092
-643,955	-200,000	-0,044	-0,202
-642,941	192,878	-0,065	-0,072
-641,926	800,000	0,026	-0,080
-640,911	800,000	-0,024	0,061
-639,897	64,968	-0,008	0,006
-638,882	226,352	-0,035	-0,042
-637,868	685,593	-0,045	0,087
-636,853	-200,000	0,012	-0,149
-635,838	87,846	0,036	0,029
-634,824	-200,000	0,014	-0,114
-633,809	800,000	-0,052	0,145
-632,795	456,572	-0,019	0,031
-631,780	-60,207	0,191	0,059
-630,765	-200,000	0,000	-0,117
-629,751	45,237	-0,101	0,068
-628,736	114,322	0,051	0,045
-627,722	-96,177	0,131	-0,025
-626,707	-200,000	-0,011	0,070
-625,692	538,643	0,091	0,159
-624,678	-133,678	-0,069	-0,006
-623,663	-200,000	-0,021	-0,148
-622,649	-24,118	-0,080	0,035
-621,634	235,348	0,029	-0,035
-620,619	142,763	0,079	-0,077
-619,605	-52,281	0,149	0,050
-618,590	800,000	-0,062	0,193
-617,576	393,705	-0,060	0,091
-616,561	90,061	0,043	-0,035
-615,546	-17,617	-0,104	0,048
-614,532	-158,049	-0,149	-0,006
-613,517	593,866	0,032	-0,058
-612,503	-44,245	-0,150	-0,055
-611,488	800,000	-0,019	0,054
-610,474	-49,810	0,024	0,008
-609,459	800,000	-0,029	-0,084
-608,444	-162,002	-0,100	-0,004
-607,430	-66,530	0,077	0,022
-606,415	-75,116	-0,071	0,019
-605,401	-200,000	-0,003	0,089
-604,386	-50,907	0,077	-0,026
-603,371	36,996	0,035	0,023
-602,357	800,000	-0,019	0,042
-601,342	-200,000	-0,033	0,129
-600,328	41,014	0,058	0,039
-599,313	-177,091	0,135	-0,002
-598,298	-113,755	-0,078	-0,011
-597,284	348,637	0,087	0,125
-596,269	-49,568	-0,055	-0,019
-595,255	-200,000	-0,030	-0,229
-594,240	-200,000	-0,034	-0,124
-593,225	800,000	-0,033	-0,071
-592,211	431,449	0,014	0,023
-591,196	82,367	-0,042	0,033
-590,182	591,525	0,006	0,011
-589,167	800,000	0,036	0,106
-588,152	15,013	-0,103	-0,059
-587,138	800,000	0,025	0,068
-586,123	-200,000	-0,009	-0,053
-585,109	109,146	0,040	0,035
-584,094	581,342	0,138	-0,248
-583,079	100,218	-0,050	-0,043
-582,065	-80,767	0,070	-0,017
-581,050	800,000	-0,025	0,066
-580,036	-200,000	-0,014	-0,131
-579,021	-9,296	0,147	0,071
-578,006	203,029	0,075	-0,085
-576,992	-200,000	-0,006	-0,099
-575,977	800,000	0,047	0,113
-574,963	11,398	-0,024	0,014
-573,948	-25,743	-0,041	-0,017
-572,934	-200,000	-0,005	0,029
-571,919	271,290	-0,068	-0,088
-570,904	800,000	0,040	-0,092
-569,890	-137,440	-0,056	-0,005
-568,875	149,644	0,033	0,033
-567,861	19,896	-0,116	0,068
-566,846	569,879	0,028	-0,051
-565,831	-200,000	0,004	-0,086
-564,817	212,040	-0,084	-0,097
-563,802	-52,469	0,124	-0,042
-562,788	-27,491	-0,161	-0,068
-561,773	-160,539	-0,080	-0,003
-560,758	-81,900	0,049	-0,012
-559,744	-200,000	-0,028	0,098
-558,729	-57,579	-0,124	-0,040
-557,715	535,602	0,056	-0,097
-556,700	-200,000	-0,019	0,064
-555,685	4,254	-0,094	-0,050
-554,671	800,000	0,033	-0,088
-553,656	420,662	-0,030	-0,046
-552,642	-139,020	0,024	0,002
-551,627	-200,000	-0,013	0,081
-550,612	-111,440	-0,044	0,007
-549,598	-200,000	-0,010	-0,105
-548,583	-61,154	0,121	0,037
-547,569	800,000	-0,078	-0,159
-546,554	315,471	0,026	0,036
-545,539	422,955	-0,017	0,027
-544,525	-200,000	-0,020	-0,080
-543,510	206,284	-0,115	-0,131
-542,496	286,143	-0,034	-0,045
-541,481	698,398	0,029	0,056
-540,466	-29,562	-0,144	0,060
-539,452	-100,145	0,069	0,012
-538,437	-7,503	0,070	-0,034
-537,423	-200,000	0,037	0,150
-536,408	36,344	0,088	-0,057
-535,393	-165,261	-0,129	0,004
-534,379	48,756	-0,121	0,083
-533,364	583,429	0,012	-0,021
-532,350	214,718	-0,045	0,053
-531,335	522,214	-0,051	0,088
-530,321	4,903	-0,021	-0,011
-529,306	-143,340	0,132	0,009
-528,291	14,578	-0,131	-0,074
-527,277	800,000	-0,073	-0,201
-526,262	-200,000	0,016	0,136
-525,248	-200,000	0,011	0,134
-524,233	59,025	-0,078	0,056
-523,218	624,040	-0,016	0,030
-522,204	800,000	0,032	0,078
-521,189	29,848	-0,142	-0,088
-520,175	217,868	-0,034	-0,040
-519,160	51,479	-0,085	-0,059
-518,145	222,050	-0,064	0,076
-517,131	470,869	0,097	0,161
-516,116	-116,927	0,050	0,007
-515,102	-200,000	0,002	0,154
-514,087	26,529	0,061	-0,037
-513,072	-200,000	0,002	-0,083
-512,058	800,000	-0,045	-0,109
-511,043	37,305	-0,193	0,125
-510,029	800,000	-0,020	-0,044
-509,014	800,000	0,032	0,097
-507,999	800,000	-0,031	-0,066
-506,985	105,583	0,074	-0,063
-505,970	-200,000	0,040	-0,166
-504,956	800,000	-0,020	-0,051
-503,941	50,921	-0,093	0,064
-502,926	364,360	-0,100	0,147
-501,912	121,056	0,078	-0,071
-500,897	-31,712	-0,030	-0,012
-499,883	33,850	0,108	-0,068
-498,868	41,991	-0,063	-0,042
-497,853	33,974	-0,159	-0,101
-496,839	201,272	0,121	-0,136
-495,824	800,000	-0,033	-0,107
-494,810	54,277	-0,063	-0,044
-493,795	329,046	0,040	-0,056
-492,781	800,000	-0,014	0,040
-491,766	107,086	0,027	-0,024
-490,751	329,718	-0,036	-0,051
-489,737	525,635	0,016	0,027
-488,722	800,000	0,045	0,135
-487,708	474,943	-0,115	0,190
-486,693	467,014	0,080	0,131
-485,678	361,374	-0,093	0,137
-484,664	69,985	-0,053	0,040
-483,649	92,554	-0,112	0,092
-482,635	200,563	0,084	0,095
-481,620	-90,152	-0,136	0,029
-480,605	62,466	0,086	0,062
-479,591	-188,859	0,054	-0,000
-478,576	59,700	-0,101	0,072
-477,562	169,044	0,035	-0,036
-476,547	-99,992	-0,082	0,015
-475,532	229,487	0,065	-0,078
-474,518	793,156	-0,078	-0,158
-473,503	269,268	-0,032	-0,041
-472,489	-64,325	0,034	0,010
-471,474	666,300	0,099	-0,188
-470,459	209,312	-0,107	0,122
-469,445	-75,571	-0,085	-0,022
-468,430	-200,000	0,030	-0,127
-467,416	-64,539	0,136	0,040
-466,401	-200,000	0,010	0,096
-465,386	57,597	0,117	0,083
-464,372	800,000	-0,051	-0,114
-463,357	236,229	-0,033	-0,039
-462,343	-200,000	-0,020	-0,067
-461,328	64,460	-0,069	-0,051
-460,313	-120,179	-0,091	0,011
-459,299	-200,000	0,010	-0,133
-458,284	-200,000	0,031	-0,101
-457,270	-200,000	0,025	0,114
-456,255	-200,000	0,007	0,108
-455,241	-200,000	0,047	0,170
-454,226	-86,125	0,111	0,025
-453,211	-114,907	-0,038	0,005
-452,197	-55,940	-0,061	-0,020
-451,182	-200,000	-0,007	0,201
-450,168	-167,738	-0,063	-0,002
-449,153	19,521	0,144	-0,084
-448,138	-132,822	-0,126	0,012
-447,124	84,250	-0,066	-0,053
-446,109	-200,000	0,005	0,034
-445,095	800,000	0,033	0,097
-444,080	152,658	0,036	0,036
-443,065	800,000	-0,006	-0,012
-442,051	-200,000	-0,002	0,023
-441,036	-17,104	-0,127	-0,058
-440,022	325,707	-0,055	-0,077
-439,007	-200,000	-0,024	-0,175
-437,992	-189,181	0,020	0,000
-436,978	800,000	0,089	0,190
-435,963	-79,764	0,033	-0,008
-434,949	-33,524	0,082	-0,033
-433,934	143,629	-0,091	-0,088
-432,919	-14,369	-0,193	-0,090
-431,905	54,022	0,068	-0,047
-430,890	102,348	0,086	0,073
-429,876	-165,107	0,074	0,002
-428,861	229,582	0,046	-0,055
-427,846	-200,000	-0,020	0,116
-426,832	40,743	-0,068	-0,045
-425,817	-200,000	0,029	-0,096
-424,803	226,378	0,009	-0,011
-423,788	50,658	-0,070	0,048
-422,773	142,457	0,043	0,042
-421,759	164,709	0,085	-0,088
-420,744	-200,000	0,034	-0,176
-419,730	800,000	-0,035	0,093
-418,715	-105,563	-0,079	-0,013
-417,701	105,000	0,102	0,088
-416,686	85,181	-0,030	0,024
-415,671	6,379	-0,081	0,044
-414,657	-150,043	-0,065	0,004
-413,642	-113,022	0,085	0,012
-412,628	-200,000	0,007	-0,051
-411,613	285,431	-0,063	-0,083
-410,598	-44,767	-0,082	0,029
-409,584	102,433	0,078	0,066
-408,569	139,544	-0,009	-0,008
-407,555	-200,000	0,010	0,072
-406,540	163,641	-0,090	-0,092
-405,525	771,218	-0,065	-0,130
-404,511	800,000	0,022	-0,054
-403,496	-82,521	0,032	0,007
-402,482	800,000	0,072	-0,230
-401,467	-106,007	0,063	-0,010
-400,452	800,000	-0,045	0,103
-399,438	-200,000	-0,020	-0,108
-398,423	118,363	-0,052	-0,046
-397,409	-200,000	0,019	-0,122
-396,394	-128,829	-0,055	0,006
-395,379	-54,994	0,072	-0,024
-394,365	-47,655	-0,071	0,025
-393,350	-200,000	-0,019	0,141
-392,336	29,934	0,089	0,055
-391,321	81,953	-0,050	0,039
-390,306	265,528	-0,048	0,060
-389,292	-200,000	-0,005	0,029
-388,277	-114,156	-0,067	-0,009
-387,263	-58,136	-0,024	-0,008
-386,248	-200,000	-0,029	0,167
-385,233	800,000	0,030	-0,080
-384,219	23,601	0,017	-0,010
-383,204	800,000	-0,053	-0,166
-382,190	190,774	-0,021	-0,023
-381,175	146,895	-0,011	-0,011
-380,160	-44,923	0,140	-0,050
-379,146	-200,000	-0,052	0,171
-378,131	-24,734	0,081	0,035
-377,117	107,269	0,129	0,111
-376,102	1,992	-0,035	0,018
-375,088	800,000	0,032	-0,089
-374,073	72,179	-0,171	-0,129
-373,058	144,902	0,055	-0,053
-372,044	-200,000	0,002	-0,069
-371,029	100,792	-0,017	-0,014
-370,015	292,611	0,029	0,038
-369,000	101,557	-0,023	0,019
-367,985	-200,000	-0,016	-0,060
-366,971	126,745	0,028	0,025
-365,956	-200,000	-0,016	0,079
-364,942	-107,381	0,110	0,017
-363,927	665,772	-0,019	0,036
-362,912	257,367	-0,056	-0,070
-361,898	-200,000	-0,006	0,064
-360,883	-79,806	-0,137	-0,033
-359,869	-74,637	-0,105	-0,027
-358,854	-16,099	0,076	0,035
-357,839	452,425	0,038	-0,061
-356,825	242,581	-0,017	0,020
-355,810	-200,000	-0,003	0,085
-354,796	156,715	-0,063	-0,063
-353,781	-79,442	-0,078	0,019
-352,766	341,016	0,015	-0,022
-351,752	-200,000	0,002	-0,050
-350,737	58,716	-0,057	-0,040
-349,723	-46,417	0,036	0,013
-348,708	800,000	-0,003	-0,007
-347,693	657,002	-0,063	-0,117
-346,679	106,622	0,041	-0,036
-345,664	-71,233	-0,138	-0,037
-344,650	-200,000	0,009	-0,106
-343,635	154,137	0,042	-0,042
-342,620	-118,922	-0,095	-0,012
-341,606	-80,640	0,063	0,015
-340,591	180,824	-0,037	-0,039
-339,577	-200,000	-0,002	-0,040
-338,562	291,037	0,043	-0,057
-337,548	276,212	-0,026	0,034
-336,533	-200,000	-0,012	-0,051
-335,518	-200,000	0,002	-0,010
-334,504	-141,375	-0,023	-0,002
-333,489	52,940	0,185	-0,128
-332,475	700,437	0,054	0,103
-331,460	87,968	-0,058	-0,047
-330,445	-141,472	0,135	0,010
-329,431	640,236	-0,030	-0,056
-328,416	-190,023	0,159	0,001
-327,402	120,208	0,032	0,028
-326,387	-76,196	-0,065	-0,016
-325,372	-200,000	0,021	-0,071
-324,358	-137,303	-0,093	0,008
-323,343	268,163	-0,010	-0,013
-322,329	431,772	0,030	0,048
-321,314	553,870	0,047	0,083
-320,299	-200,000	-0,024	0,127
-319,285	-71,865	-0,153	0,041
-318,270	-66,738	0,110	0,031
-317,256	30,393	-0,135	-0,083
-316,241	-53,089	-0,068	-0,022
-315,226	-200,000	0,015	-0,084
-314,212	-200,000	0,011	-0,092
-313,197	196,820	0,128	0,141
-312,183	-200,000	-0,013	0,100
-311,168	203,314	-0,029	-0,032
-310,153	-57,414	-0,122	-0,039
-309,139	86,569	0,046	-0,037
-308,124	59,151	0,030	-0,022
-307,110	-200,000	-0,015	0,068
-306,095	53,079	-0,063	-0,044
-305,080	-78,086	-0,072	0,018
-304,066	-81,855	0,036	0,008
-303,051	-114,480	-0,082	-0,011
-302,037	-200,000	-0,013	-0,074
-301,022	310,483	0,058	-0,079
-300,008	-200,000	0,042	0,267
-298,993	158,238	0,058	0,058
-297,978	317,964	0,031	-0,043
-296,964	50,369	0,079	0,054
-295,949	-12,768	-0,085	0,040
-294,935	-5,549	0,090	0,045
-293,920	123,393	-0,043	0,039
-292,905	-200,000	-0,015	-0,076
-291,891	-48,433	0,148	-0,051
-290,876	800,000	-0,033	0,080
-289,862	-83,922	-0,042	0,010
-288,847	181,922	-0,105	-0,112
-287,832	-200,000	0,032	0,171
-286,818	-15,297	0,034	-0,016
-285,803	121,459	-0,079	-0,072
-284,789	124,200	-0,021	-0,019
-283,774	800,000	-0,028	-0,060
-282,759	-91,638	-0,055	0,011
-281,745	-73,458	0,164	0,043
-280,730	219,635	0,067	-0,078
-279,716	123,539	-0,046	-0,042
-278,701	-103,336	0,203	-0,034
-277,686	-50,627	0,132	-0,045
-276,672	-119,959	0,057	-0,007
-275,657	-200,000	-0,001	-0,157
-274,643	210,845	0,050	-0,057
-273,628	24,590	-0,033	0,020
-272,613	651,542	0,026	-0,049
-271,599	-43,537	0,129	-0,047
-270,584	-36,185	-0,104	-0,040
-269,570	85,536	-0,097	-0,077
-268,555	-200,000	0,028	-0,112
-267,540	-70,024	-0,077	0,021
-266,526	-200,000	0,020	-0,122
-265,511	-61,487	-0,093	-0,028
-264,497	111,909	0,023	-0,020
-263,482	190,475	0,076	0,083
-262,467	370,373	-0,023	0,034
-261,453	429,273	0,085	0,133
-260,438	659,289	0,048	0,090
-259,424	-83,326	-0,149	-0,034
-258,409	-200,000	-0,018	-0,082
-257,395	220,267	0,117	-0,136
-256,380	-186,271	0,060	0,001
-255,365	-134,261	0,078	0,007
-254,351	326,476	-0,044	0,061
-253,336	-200,000	0,018	-0,063
-252,322	75,715	-0,066	-0,050
-251,307	165,702	-0,008	0,009
-250,292	800,000	-0,009	0,023
-249,278	288,300	-0,055	-0,072
-248,263	93,220	0,114	0,093
-247,249	111,633	-0,066	0,057
-246,234	-50,514	0,092	-0,031
-245,219	-200,000	0,001	0,055
-244,205	-200,000	-0,007	-0,056
-243,190	15,427	0,053	-0,030
-242,176	-128,726	-0,029	-0,003
-241,161	800,000	-0,038	0,121
-240,146	800,000	0,043	0,110
-239,132	800,000	0,014	0,031
-238,117	-200,000	-0,002	-0,135
-237,103	-200,000	0,014	-0,048
-236,088	-57,232	0,099	0,031
-235,073	800,000	-0,052	0,141
-234,059	-200,000	-0,014	0,046
-233,044	0,568	-0,035	0,018
-232,030	-200,000	0,006	-0,132
-231,015	-6,802	-0,098	0,048
-230,000	-63,098	-0,060	-0,018
-228,986	-90,102	0,040	0,008
-227,971	-200,000	0,020	0,098
-226,957	-70,760	-0,031	0,008
-225,942	143,739	-0,106	0,102
-224,927	-4,947	0,095	0,047
-223,913	-200,000	0,026	0,118
-222,898	56,203	0,109	-0,076
-221,884	-93,139	0,064	0,013
-220,869	-46,594	0,136	-0,048
-219,855	275,328	0,041	-0,052
-218,840	-16,756	-0,063	-0,029
-217,825	800,000	0,020	0,054
-216,811	-78,958	-0,087	0,021
-215,796	332,405	-0,034	-0,048
-214,782	-162,696	0,116	-0,004
-213,767	-44,999	0,069	0,025
-212,752	800,000	0,039	0,109
-211,738	42,526	0,042	-0,027
-210,723	-79,978	0,018	-0,004
-209,709	-46,623	0,083	0,029
-208,694	-148,337	0,029	-0,002
-207,679	345,483	-0,085	-0,120
-206,665	141,407	0,090	0,086
-205,650	-200,000	-0,010	0,114
-204,636	-76,029	0,109	0,027
-203,621	726,045	0,036	0,069
-202,606	-2,608	-0,072	-0,036
-201,592	-200,000	0,000	0,099
-200,577	-200,000	-0,004	-0,146
-199,563	-200,000	-0,008	-0,056
-198,548	-86,713	0,213	0,047
-197,533	-193,565	0,102	0,001
-196,519	216,424	0,019	0,022
-195,504	-200,000	-0,005	0,090
-194,490	-65,090	0,042	0,012
-193,475	-0,032	-0,027	-0,014
-192,460	434,822	0,033	-0,052
-191,446	-56,089	-0,134	-0,043
-190,431	-69,464	0,100	0,027
-189,417	-67,780	-0,016	0,004
-188,402	369,625	0,054	0,079
-187,387	-200,000	-0,015	0,151
-186,373	-200,000	0,017	0,121
-185,358	-200,000	0,028	-0,112
-184,344	-200,000	0,047	0,167
-183,329	36,379	0,080	0,051
-182,315	-200,000	-0,004	0,053
-181,300	82,628	0,118	0,092
-180,285	74,987	-0,094	0,072
-179,271	394,093	0,100	0,150
-178,256	-200,000	-0,024	-0,113
-177,242	-82,497	-0,092	-0,021
-176,227	-200,000	0,001	0,025
-175,212	800,000	-0,008	0,024
-174,198	-200,000	-0,037	0,189
-173,183	-100,455	-0,071	0,012
-172,169	391,347	0,065	-0,098
-171,154	-46,084	-0,068	0,024
-170,139	488,635	0,035	0,058
-169,125	553,616	-0,065	0,113
-168,110	800,000	-0,062	0,142
-167,096	607,841	-0,074	0,134
-166,081	-144,788	0,085	-0,006
-165,066	98,479	0,059	0,049
-164,052	-51,197	0,125	-0,042
-163,037	-200,000	0,009	0,047
-162,023	-44,091	0,160	0,058
-161,008	-88,630	0,116	0,025
-159,993	779,252	0,106	0,211
-158,979	-200,000	-0,017	0,111
-157,964	67,184	0,101	0,074
-156,950	-10,567	-0,030	-0,014
-155,935	-43,638	-0,097	-0,035
-154,920	-67,193	0,149	0,042
-153,906	235,307	0,075	-0,089
-152,891	800,000	-0,042	-0,106
-151,877	-200,000	-0,009	-0,048
-150,862	-200,000	-0,001	-0,083
-149,847	263,251	-0,084	-0,105
-148,833	-111,179	0,103	-0,015
-147,818	-200,000	-0,006	-0,021
-146,804	-33,442	-0,007	0,003
-145,789	214,574	-0,082	0,094
-144,775	-47,671	-0,087	0,030
-143,760	-87,118	-0,048	-0,011
-142,745	684,375	-0,047	-0,088
-141,731	252,491	0,092	-0,113
-140,716	800,000	0,029	0,085
-139,702	-80,556	0,028	0,007
-138,687	160,420	-0,124	0,125
-137,672	-200,000	0,015	0,093
-136,658	800,000	-0,070	-0,140
-135,643	800,000	-0,040	-0,098
-134,629	-200,000	-0,008	0,039
-133,614	409,835	0,046	0,071
-132,599	-192,058	0,203	0,001
-131,585	-200,000	-0,003	0,198
-130,570	-200,000	-0,007	0,135
-129,556	611,994	-0,061	0,111
-128,541	-200,000	0,002	-0,013
-127,526	800,000	0,019	-0,051
-126,512	-2,492	0,144	0,072
-125,497	-200,000	0,001	0,137
-124,483	75,422	-0,028	0,021
-123,468	-200,000	0,012	-0,119
-122,453	-200,000	-0,008	-0,092
-121,439	-117,483	0,082	-0,011
-120,424	-200,000	0,015	-0,054
