DTS Sentinel unit serial number:	SN410029Multiplexer serial number:	ORYXHardware model number:	OX2-SRSoftware version number:	ORYX F/W v4,00 Oryx Data Collector v3.7.2.0data status	okinstallation	B5 Nyhavnadifferential loss correction	single-endedforward channel	channel 2reverse channel	N/Adate	2023/12/11time	23:47:13forward acquisition time	300,00reverse acquisition time	0,00gamma	499,1914k internal	0,3155k external	0,3155temperature offset calibration	1,0000default loss term (dB/km)	0,3820temperature slope calibration	1,0000multiplexer offset coefficient	1,0000multiplexer slope coefficient	1,0000fibre end	0,00T internal ref (°C)	16,21T ext. ref 1 (°C)	-0,11T ext. ref 2 (°C)	-0,38length (m)	temperature (°C)	Stokes	anti-Stokes-744,400	-75,267	0,152	-0,040
-743,385	-174,018	-0,360	0,008
-742,371	-73,804	0,107	0,029
-741,356	-121,950	-0,286	0,034
-740,342	62,651	0,163	-0,120
-739,327	-62,549	-0,316	-0,096
-738,312	-200,000	-0,020	0,096
-737,298	-120,705	-0,446	-0,055
-736,283	34,967	-0,069	-0,045
-735,269	-200,000	-0,315	-0,001
-734,254	225,552	0,043	0,052
-733,239	-84,907	-0,360	-0,083
-732,225	-47,908	0,170	-0,060
-731,210	-200,000	-0,035	0,174
-730,196	-12,923	0,015	0,007
-729,181	-7,770	-0,067	0,033
-728,167	532,241	0,127	-0,222
-727,152	-200,000	0,010	0,053
-726,137	800,000	-0,057	-0,148
-725,123	-167,284	-0,028	0,001
-724,108	800,000	-0,043	-0,111
-723,094	-77,267	-0,193	-0,049
-722,079	21,777	-0,015	-0,009
-721,064	-200,000	0,008	-0,090
-720,050	195,852	0,062	0,069
-719,035	-200,000	0,014	-0,116
-718,021	20,556	-0,068	-0,041
-717,006	-200,000	-0,011	-0,176
-715,991	-95,828	-0,181	-0,035
-714,977	800,000	-0,021	0,044
-713,962	-42,982	0,006	0,002
-712,948	736,054	0,024	0,048
-711,933	-92,707	0,093	0,019
-710,918	-15,544	-0,107	-0,050
-709,904	-61,723	0,086	-0,026
-708,889	800,000	0,024	-0,060
-707,875	-200,000	0,008	-0,026
-706,860	390,304	0,007	0,010
-705,845	-200,000	-0,021	0,197
-704,831	-200,000	0,006	0,129
-703,816	109,103	-0,039	0,034
-702,802	-200,000	0,002	-0,154
-701,787	-200,000	-0,000	0,045
-700,772	-79,975	-0,085	-0,021
-699,758	8,770	0,071	-0,039
-698,743	-149,167	-0,079	0,005
-697,729	-200,000	-0,002	0,016
-696,714	-18,010	-0,076	-0,035
-695,699	-200,000	0,007	-0,098
-694,685	-31,322	-0,164	-0,068
-693,670	6,073	-0,071	-0,039
-692,656	-200,000	0,012	-0,127
-691,641	34,211	0,104	-0,067
-690,627	-76,565	-0,056	-0,014
-689,612	800,000	-0,007	0,022
-688,597	800,000	-0,051	-0,112
-687,583	-46,536	-0,160	0,058
-686,568	377,386	-0,078	-0,118
-685,554	-200,000	-0,028	-0,224
-684,539	-200,000	-0,009	0,072
-683,524	-200,000	0,000	0,066
-682,510	70,567	0,026	0,020
-681,495	-200,000	-0,020	0,115
-680,481	45,485	-0,158	-0,107
-679,466	-64,632	-0,052	-0,015
-678,451	-72,627	0,155	0,042
-677,437	237,316	0,043	0,052
-676,422	-158,345	0,107	0,004
-675,408	800,000	0,030	-0,065
-674,393	243,697	-0,063	-0,078
-673,378	-200,000	-0,030	-0,114
-672,364	-200,000	-0,002	-0,113
-671,349	-62,819	0,006	0,002
-670,335	2,941	-0,130	0,069
-669,320	205,023	-0,035	-0,040
-668,305	-39,488	-0,052	-0,020
-667,291	-60,830	-0,110	0,034
-666,276	800,000	-0,032	-0,070
-665,262	-200,000	0,023	-0,076
-664,247	-46,096	0,136	0,049
-663,232	-200,000	-0,002	0,013
-662,218	800,000	-0,020	0,044
-661,203	49,717	0,074	0,051
-660,189	800,000	0,019	0,043
-659,174	-124,091	0,105	0,012
-658,159	57,537	-0,137	-0,098
-657,145	800,000	0,042	0,086
-656,130	-45,777	-0,050	0,018
-655,116	-97,949	-0,139	-0,026
-654,101	-56,291	0,076	-0,025
-653,086	64,830	0,088	-0,066
-652,072	103,792	-0,082	0,070
-651,057	306,344	-0,029	-0,039
-650,043	-164,450	-0,047	-0,002
-649,028	174,213	-0,041	-0,044
-648,014	56,110	0,045	0,032
-646,999	580,827	0,023	0,042
-645,984	25,104	-0,108	-0,066
-644,970	-200,000	-0,006	-0,055
-643,955	175,397	-0,061	-0,065
-642,941	-200,000	0,000	0,055
-641,926	-90,051	0,066	-0,014
-640,911	-195,020	0,060	-0,000
-639,897	-200,000	-0,002	0,188
-638,882	93,993	-0,125	-0,104
-637,868	-47,320	0,132	-0,047
-636,853	-127,902	-0,063	-0,007
-635,838	-200,000	-0,022	-0,120
-634,824	10,517	0,083	-0,046
-633,809	800,000	0,014	0,029
-632,795	-39,020	0,109	0,042
-631,780	119,093	-0,150	-0,137
-630,765	-200,000	0,011	-0,063
-629,751	142,362	-0,046	-0,045
-628,736	-200,000	-0,032	-0,108
-627,722	-138,399	0,048	-0,004
-626,707	800,000	-0,044	0,097
-625,692	119,286	-0,068	0,062
-624,678	168,194	-0,044	-0,047
-623,663	-4,642	-0,238	-0,120
-622,649	159,146	0,030	-0,030
-621,634	-200,000	0,024	-0,134
-620,619	800,000	-0,019	-0,052
-619,605	53,244	0,098	0,069
-618,590	-93,889	-0,032	-0,006
-617,576	-200,000	-0,003	-0,016
-616,561	-200,000	0,001	-0,081
-615,546	113,333	0,054	-0,048
-614,532	82,510	-0,089	-0,071
-613,517	-94,372	-0,090	0,018
-612,503	-200,000	-0,019	0,092
-611,488	-200,000	0,018	0,097
-610,474	647,928	-0,017	0,032
-609,459	-42,024	-0,076	-0,028
-608,444	-7,829	-0,069	0,034
-607,430	28,340	0,089	-0,055
-606,415	-55,395	0,133	0,043
-605,401	-159,042	-0,071	0,003
-604,386	343,798	0,045	-0,065
-603,371	-200,000	-0,044	-0,210
-602,357	787,950	-0,028	-0,056
-601,342	-132,243	-0,028	-0,003
-600,328	170,324	-0,110	-0,116
-599,313	-200,000	-0,002	0,100
-598,298	-130,328	-0,122	0,012
-597,284	-94,322	0,014	0,003
-596,269	-200,000	0,012	-0,083
-595,255	453,058	0,029	0,047
-594,240	224,175	-0,075	0,088
-593,225	53,917	-0,019	0,014
-592,211	-72,762	0,045	-0,012
-591,196	129,286	-0,047	0,044
-590,182	-200,000	-0,011	-0,088
-589,167	-108,104	0,154	0,024
-588,152	142,988	0,107	0,104
-587,138	209,448	0,112	-0,129
-586,123	800,000	0,051	-0,122
-585,109	800,000	-0,023	0,069
-584,094	61,598	-0,095	0,069
-583,079	800,000	-0,027	0,063
-582,065	-4,959	-0,052	-0,026
-581,050	-200,000	-0,012	0,046
-580,036	-175,879	-0,068	-0,001
-579,021	800,000	0,038	-0,114
-578,006	800,000	-0,077	-0,209
-576,992	173,030	0,035	0,037
-575,977	-45,362	0,147	0,053
-574,963	-35,314	0,145	0,058
-573,948	-67,258	-0,028	-0,008
-572,934	-89,865	-0,007	-0,001
-571,919	89,904	-0,044	0,036
-570,904	-200,000	0,024	0,084
-569,890	-200,000	-0,002	0,007
-568,875	-55,578	0,117	0,038
-567,861	13,854	-0,083	0,047
-566,846	-53,538	0,050	0,017
-565,831	-200,000	0,038	0,124
-564,817	-35,635	-0,076	-0,030
-563,802	800,000	-0,047	-0,121
-562,788	-200,000	0,023	-0,110
-561,773	564,328	0,065	-0,117
-560,758	-188,923	0,121	0,001
-559,744	357,365	0,017	-0,025
-558,729	-200,000	-0,001	0,100
-557,715	319,415	0,057	-0,079
-556,700	3,280	0,058	-0,031
-555,685	59,298	-0,089	-0,064
-554,671	532,450	0,033	-0,058
-553,656	255,142	-0,110	0,138
-552,642	-150,118	0,074	-0,004
-551,627	-82,568	-0,144	-0,034
-550,612	-132,160	-0,101	-0,009
-549,598	-160,606	-0,135	0,005
-548,583	-200,000	-0,013	-0,159
-547,569	-160,499	-0,084	-0,003
-546,554	-108,160	-0,026	0,004
-545,539	-131,851	-0,059	-0,006
-544,525	32,424	-0,019	0,012
-543,510	800,000	-0,012	0,038
-542,496	52,304	0,047	0,033
-541,481	-200,000	0,009	-0,058
-540,466	321,118	0,057	-0,080
-539,452	-200,000	0,014	-0,097
-538,437	-112,509	0,079	0,011
-537,423	-200,000	-0,019	0,093
-536,408	423,579	-0,034	0,054
-535,393	800,000	0,009	-0,024
-534,379	-200,000	-0,021	-0,098
-533,364	800,000	-0,030	0,065
-532,350	361,434	0,099	0,146
-531,335	1,795	0,123	0,065
-530,321	800,000	-0,036	0,105
-529,306	-170,327	-0,125	-0,003
-528,291	800,000	-0,021	-0,060
-527,277	-200,000	-0,009	-0,069
-526,262	90,225	-0,064	0,052
-525,248	-200,000	0,016	0,198
-524,233	-44,839	-0,029	0,011
-523,218	8,390	0,100	0,055
-522,204	-43,135	0,137	-0,050
-521,189	800,000	-0,009	-0,027
-520,175	21,568	0,093	-0,055
-519,160	668,056	0,034	0,064
-518,145	-200,000	0,023	0,129
-517,131	-93,144	-0,101	0,020
-516,116	-182,734	-0,020	-0,000
-515,102	-13,709	0,019	-0,009
-514,087	-200,000	-0,007	-0,106
-513,072	114,073	0,069	-0,062
-512,058	79,158	-0,052	0,041
-511,043	26,914	0,082	-0,050
-510,029	-75,152	-0,099	0,026
-509,014	-122,270	0,084	0,010
-507,999	9,531	0,122	0,067
-506,985	-52,176	0,037	0,012
-505,970	-200,000	0,018	-0,077
-504,956	-151,163	-0,068	0,004
-503,941	79,624	-0,095	-0,075
-502,926	-72,417	-0,099	-0,026
-501,912	-200,000	-0,006	0,023
-500,897	139,957	0,024	0,023
-499,883	-200,000	-0,044	-0,144
-498,868	56,213	0,055	0,039
-497,853	273,443	0,097	-0,125
-496,839	-67,736	0,060	-0,017
-495,824	19,741	-0,037	0,022
-494,810	-113,534	0,204	0,029
-493,795	-7,469	0,070	-0,034
-492,781	123,344	0,035	-0,032
-491,766	-162,501	-0,050	-0,002
-490,751	327,841	-0,136	-0,191
-489,737	-48,416	0,078	0,027
-488,722	-200,000	0,007	-0,041
-487,708	-200,000	0,070	0,314
-486,693	800,000	0,035	0,076
-485,678	353,344	0,050	-0,072
-484,664	52,723	-0,066	-0,046
-483,649	17,117	-0,037	-0,022
-482,635	166,977	0,142	0,147
-481,620	-131,036	0,114	0,011
-480,605	-35,132	-0,115	-0,045
-479,591	800,000	0,057	-0,180
-478,576	-116,460	-0,053	-0,007
-477,562	-155,103	0,051	-0,002
-476,547	71,293	-0,101	-0,077
-475,532	-41,529	-0,091	-0,034
-474,518	-67,386	0,246	-0,070
-473,503	191,831	0,022	0,024
-472,489	800,000	0,030	-0,085
-471,474	-124,838	-0,050	0,006
-470,459	-17,082	0,045	0,021
-469,445	799,101	0,108	-0,218
-468,430	-85,822	-0,116	-0,026
-467,416	277,109	-0,020	0,026
-466,401	103,112	0,034	0,029
-465,386	-88,042	0,038	-0,008
-464,372	742,764	0,072	0,142
-463,357	626,658	-0,064	-0,119
-462,343	-21,291	-0,109	-0,048
-461,328	800,000	-0,025	0,068
-460,313	-8,192	0,084	0,041
-459,299	51,519	-0,011	0,008
-458,284	800,000	0,042	-0,088
-457,270	-200,000	0,009	0,115
-456,255	40,411	0,020	0,013
-455,241	136,087	-0,023	-0,022
-454,226	58,703	-0,108	-0,077
-453,211	269,262	0,073	-0,094
-452,197	615,446	-0,039	-0,071
-451,182	275,917	0,075	0,097
-450,168	254,945	-0,066	-0,082
-449,153	800,000	-0,063	-0,127
-448,138	800,000	-0,061	0,153
-447,124	632,120	-0,042	0,078
-446,109	-194,404	-0,151	0,001
-445,095	800,000	0,045	0,105
-444,080	591,597	-0,010	-0,018
-443,065	163,655	0,041	-0,043
-442,051	-43,896	-0,111	0,040
-441,036	-3,265	-0,096	0,049
-440,022	164,157	0,046	0,047
-439,007	-200,000	0,006	0,051
-437,992	360,746	0,099	0,145
-436,978	141,568	-0,096	0,093
-435,963	-100,372	-0,054	-0,010
-434,949	2,604	0,049	0,026
-433,934	800,000	0,029	-0,074
-432,919	755,907	0,055	0,109
-431,905	139,999	0,103	-0,099
-430,890	205,699	-0,091	-0,103
-429,876	-200,000	0,017	-0,114
-428,861	213,107	0,039	-0,045
-427,846	120,171	-0,069	-0,062
-426,832	240,643	0,041	0,050
-425,817	475,661	-0,058	-0,095
-424,803	93,139	-0,030	-0,024
-423,788	-83,977	0,078	0,018
-422,773	361,874	0,055	0,081
-421,759	-89,472	0,080	0,017
-420,744	-110,366	0,065	-0,010
-419,730	108,745	0,013	0,012
-418,715	-9,887	-0,147	0,071
-417,701	536,203	0,072	-0,126
-416,686	-12,462	0,096	-0,045
-415,671	771,474	0,097	0,193
-414,657	539,441	0,067	0,116
-413,642	-86,037	0,070	0,016
-412,628	11,895	0,035	0,019
-411,613	-15,210	-0,121	0,056
-410,598	-107,614	0,201	0,032
-409,584	54,625	0,096	-0,067
-408,569	-82,284	0,205	0,048
-407,555	43,905	-0,084	-0,056
-406,540	155,398	-0,026	0,026
-405,525	771,525	0,052	0,104
-404,511	107,527	-0,022	0,019
-403,496	-153,382	0,076	-0,004
-402,482	294,847	0,063	0,084
-401,467	87,682	-0,034	-0,028
-400,452	-93,161	0,064	0,013
-399,438	-61,774	-0,057	0,017
-398,423	569,455	-0,029	-0,051
-397,409	-200,000	0,020	-0,077
-396,394	45,805	0,053	0,036
-395,379	-200,000	-0,022	-0,078
-394,365	-86,085	0,124	0,028
-393,350	375,766	-0,044	0,065
-392,336	-122,651	-0,134	-0,016
-391,321	20,229	0,076	0,045
-390,306	198,756	-0,102	0,113
-389,292	800,000	-0,035	0,082
-388,277	-200,000	0,024	0,093
-387,263	48,785	0,109	0,074
-386,248	-200,000	-0,021	0,142
-385,233	-38,624	0,053	0,020
-384,219	-92,645	-0,039	-0,008
-383,204	622,781	0,117	-0,216
-382,190	681,735	0,048	0,091
-381,175	800,000	0,050	-0,142
-380,160	142,762	0,114	-0,110
-379,146	-141,706	-0,075	-0,005
-378,131	800,000	-0,014	-0,031
-377,117	33,251	0,123	0,077
-376,102	-41,654	0,086	-0,032
-375,088	-166,218	-0,089	0,003
-374,073	-1,468	-0,071	-0,036
-373,058	21,865	0,094	0,056
-372,044	-200,000	0,010	0,081
-371,029	-26,884	0,148	0,063
-370,015	-200,000	0,018	-0,071
-369,000	34,540	-0,104	-0,066
-367,985	-123,436	-0,221	0,025
-366,971	-35,546	-0,038	-0,015
-365,956	149,496	-0,097	0,096
-364,942	-200,000	0,002	0,100
-363,927	800,000	0,034	0,092
-362,912	-200,000	0,003	-0,030
-361,898	-81,866	-0,119	-0,028
-360,883	-200,000	0,008	-0,034
-359,869	158,980	-0,124	-0,125
-358,854	354,120	0,118	0,171
-357,839	-200,000	0,039	0,206
-356,825	120,244	0,138	0,124
-355,810	-62,154	0,056	0,017
-354,796	-89,851	-0,067	0,014
-353,781	272,957	-0,081	0,104
-352,766	800,000	0,016	0,047
-351,752	-116,915	0,059	-0,008
-350,737	-65,769	0,178	-0,051
-349,723	-119,892	0,153	-0,019
-348,708	-200,000	-0,018	-0,087
-347,693	-200,000	0,007	-0,035
-346,679	800,000	0,034	-0,082
-345,664	-9,048	-0,081	-0,039
-344,650	701,222	0,022	0,043
-343,635	-14,799	0,046	-0,021
-342,620	-200,000	0,002	0,191
-341,606	-200,000	0,003	-0,105
-340,591	99,361	0,111	0,093
-339,577	471,762	0,057	-0,094
-338,562	-200,000	0,002	-0,117
-337,548	294,720	-0,045	0,060
-336,533	-200,000	-0,048	0,156
-335,518	800,000	0,005	-0,011
-334,504	94,065	0,006	0,005
-333,489	33,405	0,025	0,016
-332,475	240,750	-0,089	-0,107
-331,460	-200,000	-0,011	-0,049
-330,445	-200,000	0,002	0,025
-329,431	104,920	0,026	0,022
-328,416	363,866	-0,046	0,068
-327,402	-157,427	0,046	-0,002
-326,387	800,000	-0,023	-0,069
-325,372	-41,296	-0,132	0,049
-324,358	-112,156	-0,146	-0,021
-323,343	-200,000	0,002	0,115
-322,329	310,577	0,053	-0,072
-321,314	800,000	0,046	0,107
-320,299	168,597	-0,059	0,061
-319,285	-158,624	0,025	0,001
-318,270	800,000	0,015	0,035
-317,256	-0,143	-0,075	0,039
-316,241	800,000	0,022	-0,065
-315,226	-64,686	-0,100	-0,029
-314,212	6,375	0,122	0,066
-313,197	201,270	0,082	0,091
-312,183	171,610	-0,081	0,085
-311,168	23,756	-0,168	-0,100
-310,153	-50,796	-0,036	0,012
-309,139	-200,000	0,010	-0,094
-308,124	-41,193	0,157	-0,059
-307,110	800,000	0,039	-0,104
-306,095	-200,000	0,001	0,034
-305,080	-111,522	-0,079	-0,011
-304,066	277,667	0,039	0,051
-303,051	-200,000	-0,001	-0,012
-302,037	302,702	-0,124	-0,167
-301,022	708,102	0,073	0,140
-300,008	388,786	0,087	0,132
-298,993	175,297	-0,045	0,048
-297,978	206,560	0,038	0,043
-296,964	464,808	-0,071	0,115
-295,949	-51,015	0,037	-0,012
-294,935	-30,290	-0,086	-0,035
-293,920	108,083	-0,066	0,057
-292,905	800,000	0,030	0,080
-291,891	32,261	-0,064	-0,040
-290,876	163,489	-0,052	0,053
-289,862	-87,056	0,116	0,025
-288,847	-200,000	-0,002	-0,088
-287,832	-200,000	0,002	0,103
-286,818	412,178	0,079	0,122
-285,803	66,237	0,033	0,024
-284,789	-200,000	-0,003	0,091
-283,774	561,794	0,033	-0,059
-282,759	367,939	0,033	0,048
-281,745	-139,823	0,077	-0,006
-280,730	348,692	-0,058	-0,083
-279,716	-10,690	-0,048	0,023
-278,701	134,935	0,058	0,054
-277,686	-200,000	0,002	0,032
-276,672	-200,000	-0,013	0,077
-275,657	760,623	-0,024	0,048
-274,643	596,145	0,041	-0,073
-273,628	-144,231	-0,042	0,003
-272,613	357,175	-0,057	0,083
-271,599	-200,000	-0,012	0,070
-270,584	-200,000	0,013	-0,058
-269,570	83,884	0,029	0,023
-268,555	-86,233	-0,072	-0,016
-267,540	800,000	-0,035	-0,095
-266,526	-70,879	-0,061	0,017
-265,511	800,000	-0,038	0,106
-264,497	86,839	-0,080	-0,064
-263,482	94,660	-0,057	0,047
-262,467	-130,549	-0,094	0,009
-261,453	548,039	-0,011	0,020
-260,438	-200,000	-0,000	-0,012
-259,424	-200,000	-0,004	0,053
-258,409	-182,684	-0,062	-0,001
-257,395	643,033	-0,046	0,086
-256,380	69,085	0,023	0,017
-255,365	305,020	0,094	-0,127
-254,351	175,533	0,042	0,044
-253,336	-16,819	-0,059	-0,027
-252,322	-200,000	0,005	-0,078
-251,307	-200,000	0,001	-0,070
-250,292	-200,000	0,005	-0,088
-249,278	800,000	-0,033	0,089
-248,263	-148,884	0,117	-0,007
-247,249	-200,000	0,009	0,093
-246,234	-200,000	-0,021	-0,172
-245,219	403,605	-0,064	0,098
-244,205	-120,384	0,160	-0,019
-243,190	39,588	-0,076	-0,049
-242,176	39,904	0,070	0,045
-241,161	501,979	0,046	-0,078
-240,146	-200,000	0,025	0,139
-239,132	46,497	-0,021	0,014
-238,117	-19,515	-0,095	0,042
-237,103	-81,761	0,075	-0,018
-236,088	-200,000	-0,001	-0,115
-235,073	113,117	0,061	-0,054
-234,059	-200,000	0,017	0,087
-233,044	302,499	-0,076	-0,101
-232,030	45,035	-0,083	-0,055
-231,015	-66,197	-0,163	0,047
-230,000	-200,000	-0,015	-0,122
-228,986	-52,241	-0,038	0,013
-227,971	-183,864	0,060	0,001
-226,957	173,100	0,073	0,076
-225,942	74,893	-0,088	-0,067
-224,927	-129,151	0,079	0,008
-223,913	70,935	0,056	-0,042
-222,898	248,398	0,122	-0,150
-221,884	-50,249	-0,033	0,011
-220,869	-39,534	-0,046	0,017
-219,855	44,655	0,046	-0,031
-218,840	-4,045	-0,068	-0,034
-217,825	-54,471	-0,124	-0,040
-216,811	-124,329	0,077	-0,009
-215,796	-138,463	-0,129	-0,010
-214,782	-55,815	-0,086	-0,028
-213,767	-200,000	0,020	-0,066
-212,752	105,681	0,091	-0,078
-211,738	-66,566	-0,037	0,011
-210,723	183,785	0,049	0,053
-209,709	-200,000	0,002	0,093
-208,694	7,522	-0,021	0,011
-207,679	-200,000	-0,022	-0,115
-206,665	40,449	0,068	-0,044
-205,650	431,752	-0,027	0,042
-204,636	-37,211	0,105	0,040
-203,621	800,000	-0,035	-0,091
-202,606	75,750	-0,111	-0,085
-201,592	-83,048	-0,093	0,022
-200,577	94,732	0,039	0,032
-199,563	375,031	-0,048	-0,071
-198,548	-89,247	0,025	0,005
-197,533	800,000	0,040	0,096
-196,519	0,844	0,138	0,071
-195,504	48,349	-0,075	-0,051
-194,490	269,388	0,065	0,083
-193,475	-115,712	-0,142	-0,019
-192,460	190,671	-0,042	-0,046
-191,446	-126,110	0,190	0,020
-190,431	-200,000	0,033	0,164
-189,417	-200,000	-0,029	-0,117
-188,402	-33,385	-0,009	0,004
-187,387	-4,380	-0,189	0,094
-186,373	-200,000	-0,004	-0,036
-185,358	-123,352	-0,006	-0,001
-184,344	-200,000	0,023	0,093
-183,329	188,708	0,011	0,012
-182,315	628,431	-0,066	-0,121
-181,300	-200,000	0,008	0,047
-180,285	-8,236	-0,187	-0,090
-179,271	153,395	-0,024	-0,024
-178,256	312,344	-0,007	0,010
-177,242	181,916	0,033	-0,035
-176,227	-74,582	0,033	0,009
-175,212	585,500	0,015	0,026
-174,198	546,204	-0,026	0,045
-173,183	-200,000	0,018	0,097
-172,169	-163,632	-0,078	-0,003
-171,154	-200,000	-0,009	-0,139
-170,139	-200,000	-0,005	0,043
-169,125	480,613	0,021	-0,035
-168,110	-64,192	-0,105	0,031
-167,096	-76,766	-0,097	-0,024
-166,081	-5,183	0,068	0,034
-165,066	-200,000	-0,010	-0,140
-164,052	-167,834	-0,144	-0,004
-163,037	-200,000	0,025	-0,108
-162,023	-45,686	0,096	0,034
-161,008	800,000	0,033	0,080
-159,993	132,576	-0,031	-0,029
-158,979	-48,020	0,027	-0,009
-157,964	12,248	0,012	-0,007
-156,950	-200,000	0,007	-0,078
-155,935	214,225	-0,036	-0,041
-154,920	405,823	-0,075	0,115
-153,906	-200,000	-0,031	0,132
-152,891	191,120	-0,031	0,034
-151,877	442,494	-0,054	-0,085
-150,862	18,155	-0,085	-0,049
-149,847	-200,000	0,013	0,061
-148,833	-200,000	-0,009	0,144
-147,818	239,118	0,032	0,039
-146,804	-61,477	0,056	0,017
-145,789	800,000	-0,018	0,055
-144,775	-38,444	-0,178	0,068
-143,760	-200,000	0,001	-0,102
-142,745	-200,000	-0,024	-0,078
-141,731	181,302	0,105	-0,111
-140,716	-200,000	0,001	0,010
-139,702	-200,000	0,008	0,036
-138,687	-200,000	0,001	0,123
-137,672	-200,000	-0,002	0,066
-136,658	-165,773	-0,137	0,004
-135,643	-200,000	0,031	-0,131
-134,629	143,082	0,078	-0,075
-133,614	-70,354	0,039	0,011
-132,599	356,003	-0,039	0,056
-131,585	86,242	-0,074	0,059
-130,570	522,180	-0,011	0,018
-129,556	-200,000	-0,005	-0,025
-128,541	385,740	0,044	-0,066
-127,526	580,883	0,084	-0,149
-126,512	522,553	0,049	-0,083
-125,497	800,000	-0,036	-0,105
-124,483	272,683	-0,024	0,030
-123,468	2,704	-0,068	0,036
-122,453	59,015	-0,110	-0,078
-121,439	800,000	0,093	-0,194
-120,424	358,820	0,064	-0,092
-119,410	-50,059	0,098	-0,033
