DTS Sentinel unit serial number:	SN410029Multiplexer serial number:	ORYXHardware model number:	OX2-SRSoftware version number:	ORYX F/W v4,00 Oryx Data Collector v3.7.2.0data status	okinstallation	B5 Nyhavnadifferential loss correction	single-endedforward channel	channel 2reverse channel	N/Adate	2023/12/12time	22:42:13forward acquisition time	300,00reverse acquisition time	0,00gamma	499,1914k internal	0,3158k external	0,3158temperature offset calibration	1,0000default loss term (dB/km)	0,3820temperature slope calibration	1,0000multiplexer offset coefficient	1,0000multiplexer slope coefficient	1,0000fibre end	0,00T internal ref (°C)	14,61T ext. ref 1 (°C)	-1,95T ext. ref 2 (°C)	-2,27length (m)	temperature (°C)	Stokes	anti-Stokes-744,400	-135,865	0,067	0,006
-743,385	-98,209	-0,243	0,046
-742,371	294,897	0,035	0,047
-741,356	19,588	-0,166	0,098
-740,342	43,306	0,113	0,076
-739,327	-82,471	-0,281	0,067
-738,312	-125,388	0,061	0,007
-737,298	-149,315	-0,449	-0,026
-736,283	-11,811	0,196	0,094
-735,269	-81,681	-0,237	0,057
-734,254	-14,225	0,032	-0,015
-733,239	-0,876	-0,486	-0,253
-732,225	-31,853	0,095	0,039
-731,210	-80,208	0,085	-0,021
-730,196	-44,421	0,112	0,041
-729,181	-51,757	-0,120	-0,041
-728,167	-200,000	0,010	-0,076
-727,152	-200,000	-0,013	-0,141
-726,137	800,000	-0,037	0,078
-725,123	-66,439	-0,115	-0,034
-724,108	185,204	0,061	-0,066
-723,094	10,105	0,062	0,035
-722,079	331,851	-0,060	-0,086
-721,064	-200,000	0,020	-0,099
-720,050	147,590	0,058	-0,058
-719,035	800,000	-0,021	0,058
-718,021	529,096	0,019	0,033
-717,006	-30,680	0,038	-0,016
-715,991	110,975	-0,103	-0,091
-714,977	800,000	-0,071	-0,195
-713,962	413,828	0,083	-0,130
-712,948	800,000	-0,071	0,167
-711,933	-200,000	0,026	0,119
-710,918	53,844	-0,114	0,081
-709,904	-200,000	-0,028	0,138
-708,889	-200,000	-0,003	-0,077
-707,875	-22,883	-0,098	-0,043
-706,860	800,000	-0,020	0,047
-705,845	-200,000	0,023	-0,076
-704,831	319,793	0,055	0,078
-703,816	-200,000	-0,002	0,104
-702,802	531,472	-0,040	0,070
-701,787	-200,000	0,018	-0,157
-700,772	-21,009	0,014	0,006
-699,758	-200,000	0,002	-0,028
-698,743	6,523	0,091	0,050
-697,729	-102,809	-0,103	0,018
-696,714	123,784	0,059	-0,055
-695,699	800,000	-0,076	-0,190
-694,685	-57,758	-0,094	-0,030
-693,670	-200,000	0,015	-0,127
-692,656	800,000	-0,024	-0,057
-691,641	176,334	-0,115	-0,123
-690,627	109,139	0,020	0,018
-689,612	-200,000	-0,028	0,099
-688,597	220,364	0,021	-0,025
-687,583	244,984	-0,054	-0,067
-686,568	-40,182	-0,037	-0,014
-685,554	-200,000	0,010	0,087
-684,539	-126,346	0,012	-0,001
-683,524	-200,000	0,012	0,130
-682,510	800,000	0,013	0,038
-681,495	-200,000	0,011	-0,049
-680,481	31,233	-0,046	0,029
-679,466	103,899	-0,055	-0,047
-678,451	-158,384	-0,130	-0,005
-677,437	16,678	0,061	-0,035
-676,422	-61,453	0,106	0,033
-675,408	90,938	-0,026	-0,021
-674,393	-200,000	0,024	-0,092
-673,378	-200,000	0,015	-0,110
-672,364	-79,816	-0,144	-0,035
-671,349	-12,337	-0,074	0,035
-670,335	-142,668	0,126	-0,009
-669,320	800,000	-0,008	-0,016
-668,305	-5,388	0,064	-0,032
-667,291	-71,452	-0,157	0,043
-666,276	-104,146	0,075	0,013
-665,262	13,109	-0,043	-0,024
-664,247	800,000	-0,048	0,150
-663,232	-200,000	0,002	0,031
-662,218	154,411	0,048	-0,048
-661,203	141,129	-0,059	0,057
-660,189	-200,000	-0,033	0,109
-659,174	-200,000	0,008	0,077
-658,159	-72,993	-0,092	0,025
-657,145	-58,850	-0,169	0,053
-656,130	378,125	0,028	0,042
-655,116	116,205	0,037	-0,033
-654,101	-200,000	-0,006	0,095
-653,086	260,879	-0,053	-0,068
-652,072	-200,000	0,010	-0,115
-651,057	94,626	-0,023	-0,020
-650,043	-144,268	-0,103	-0,007
-649,028	-9,878	-0,033	0,016
-648,014	229,085	-0,029	-0,035
-646,999	-200,000	0,034	0,116
-645,984	94,104	-0,038	0,031
-644,970	309,053	0,063	0,087
-643,955	246,265	0,069	-0,085
-642,941	23,778	-0,098	0,059
-641,926	-22,887	-0,060	-0,026
-640,911	-39,734	0,089	-0,034
-639,897	-200,000	0,051	-0,190
-638,882	-111,655	0,074	0,011
-637,868	-200,000	0,009	-0,144
-636,853	-142,527	-0,193	-0,014
-635,838	-200,000	0,020	-0,107
-634,824	-83,857	-0,094	-0,022
-633,809	-200,000	-0,002	-0,030
-632,795	97,960	-0,024	-0,020
-631,780	466,442	-0,047	0,078
-630,765	213,075	-0,043	-0,050
-629,751	-143,499	-0,037	0,003
-628,736	800,000	-0,037	-0,085
-627,722	229,505	-0,019	-0,022
-626,707	-82,700	0,046	-0,011
-625,692	-166,752	0,154	-0,005
-624,678	176,130	-0,057	0,061
-623,663	475,515	-0,088	0,146
-622,649	-14,106	-0,052	0,024
-621,634	36,170	-0,215	-0,139
-620,619	800,000	0,045	-0,106
-619,605	147,566	-0,062	-0,061
-618,590	237,836	0,043	-0,052
-617,576	-200,000	-0,053	0,216
-616,561	423,080	-0,062	0,098
-615,546	43,691	-0,027	-0,018
-614,532	283,935	-0,077	-0,101
-613,517	-108,056	-0,156	0,025
-612,503	-135,992	0,169	0,014
-611,488	-135,138	0,030	-0,003
-610,474	25,671	0,060	0,037
-609,459	545,990	0,029	-0,052
-608,444	62,398	0,157	-0,115
-607,430	395,517	-0,008	0,012
-606,415	800,000	-0,054	0,125
-605,401	16,308	0,065	0,038
-604,386	800,000	0,011	-0,028
-603,371	684,985	0,029	-0,056
-602,357	100,960	-0,056	0,047
-601,342	800,000	0,022	0,059
-600,328	361,048	-0,044	0,065
-599,313	-193,062	-0,096	0,001
-598,298	254,416	0,071	0,089
-597,284	33,936	-0,114	-0,073
-596,269	-200,000	0,008	0,122
-595,255	-71,596	0,145	0,039
-594,240	-135,798	-0,181	-0,015
-593,225	-139,024	-0,027	0,002
-592,211	-53,477	-0,085	-0,028
-591,196	54,187	0,103	0,073
-590,182	151,401	0,058	-0,058
-589,167	43,705	-0,031	0,021
-588,152	-95,417	0,132	0,026
-587,138	-200,000	0,001	0,110
-586,123	94,129	-0,069	0,057
-585,109	-91,654	0,035	0,007
-584,094	46,051	0,138	0,094
-583,079	84,136	0,076	0,061
-582,065	133,717	0,054	-0,051
-581,050	-94,075	-0,047	-0,009
-580,036	-200,000	0,013	0,050
-579,021	-200,000	-0,003	-0,011
-578,006	-55,212	0,091	0,030
-576,992	-11,982	-0,173	-0,083
-575,977	-132,166	0,136	0,013
-574,963	212,574	0,049	0,057
-573,948	303,410	0,030	-0,040
-572,934	29,243	-0,067	-0,042
-571,919	-158,112	-0,082	0,003
-570,904	126,181	0,103	0,096
-569,890	-200,000	-0,002	-0,071
-568,875	-58,478	-0,072	0,023
-567,861	-77,992	-0,115	0,029
-566,846	243,723	0,060	-0,074
-565,831	-200,000	0,002	0,122
-564,817	-200,000	-0,005	-0,078
-563,802	-200,000	-0,030	0,108
-562,788	-20,791	0,090	-0,040
-561,773	-163,649	0,060	0,002
-560,758	-11,769	-0,082	0,039
-559,744	-200,000	-0,014	-0,156
-558,729	106,202	-0,040	0,035
-557,715	800,000	-0,077	0,191
-556,700	-200,000	-0,006	0,049
-555,685	800,000	0,053	-0,168
-554,671	243,770	0,106	-0,130
-553,656	607,149	-0,021	0,039
-552,642	-87,664	0,086	-0,019
-551,627	-200,000	-0,040	-0,147
-550,612	-118,856	0,076	0,010
-549,598	75,795	-0,150	0,116
-548,583	382,318	-0,082	-0,124
-547,569	600,749	0,053	0,097
-546,554	448,533	0,036	-0,057
-545,539	-50,750	0,060	0,020
-544,525	672,879	0,016	-0,030
-543,510	-142,527	-0,127	0,009
-542,496	800,000	0,058	-0,119
-541,481	-77,611	0,091	0,023
-540,466	-7,564	-0,099	-0,049
-539,452	-200,000	0,017	0,061
-538,437	382,832	-0,038	0,057
-537,423	-52,764	0,063	-0,021
-536,408	-33,842	-0,054	-0,022
-535,393	350,321	0,025	-0,036
-534,379	800,000	-0,053	-0,161
-533,364	106,421	0,125	-0,108
-532,350	112,396	0,084	0,074
-531,335	50,294	0,094	0,065
-530,321	24,457	0,085	-0,051
-529,306	767,859	-0,056	0,113
-528,291	-43,325	0,061	-0,022
-527,277	63,046	0,138	-0,101
-526,262	800,000	-0,005	-0,011
-525,248	-200,000	-0,005	-0,017
-524,233	125,268	-0,060	0,055
-523,218	800,000	-0,019	-0,050
-522,204	207,371	-0,054	0,062
-521,189	124,517	0,021	-0,020
-520,175	89,055	0,112	-0,091
-519,160	-58,918	-0,150	0,047
-518,145	-185,969	0,068	0,001
-517,131	179,052	0,036	0,038
-516,116	591,539	-0,043	0,079
-515,102	-71,749	0,061	0,017
-514,087	-200,000	-0,007	-0,106
-513,072	134,263	-0,082	-0,077
-512,058	800,000	-0,053	-0,146
-511,043	-200,000	-0,004	-0,193
-510,029	182,563	0,111	0,119
-509,014	276,043	0,009	-0,012
-507,999	88,231	0,083	0,068
-506,985	-45,847	-0,061	-0,022
-505,970	76,528	-0,023	-0,018
-504,956	439,179	-0,095	-0,152
-503,941	176,158	-0,182	-0,193
-502,926	41,106	0,107	0,070
-501,912	-81,351	-0,056	-0,013
-500,897	800,000	-0,041	0,111
-499,883	-8,881	-0,126	-0,061
-498,868	-200,000	-0,010	-0,125
-497,853	-107,862	-0,079	0,012
-496,839	-34,717	0,128	0,051
-495,824	-180,331	-0,068	-0,001
-494,810	9,772	0,244	0,134
-493,795	-84,601	-0,064	0,015
-492,781	249,917	0,050	-0,062
-491,766	665,088	-0,018	0,034
-490,751	147,208	-0,050	-0,049
-489,737	-200,000	0,032	0,166
-488,722	-200,000	0,002	0,055
-487,708	-195,745	0,050	-0,000
-486,693	-200,000	0,074	0,239
-485,678	-86,850	-0,138	0,031
-484,664	-53,491	-0,101	-0,033
-483,649	122,350	-0,083	-0,075
-482,635	-200,000	-0,029	-0,102
-481,620	404,465	-0,007	-0,011
-480,605	129,417	0,077	0,071
-479,591	-163,667	-0,107	-0,004
-478,576	-46,573	-0,045	0,016
-477,562	-200,000	-0,005	-0,041
-476,547	-75,924	-0,109	-0,028
-475,532	-8,224	0,038	-0,019
-474,518	-200,000	0,015	0,059
-473,503	-200,000	-0,012	0,095
-472,489	708,949	-0,024	0,047
-471,474	-139,902	-0,115	0,009
-470,459	-200,000	0,000	-0,137
-469,445	99,661	-0,139	-0,118
-468,430	-200,000	0,013	-0,072
-467,416	571,250	0,020	-0,035
-466,401	800,000	0,057	0,133
-465,386	-35,719	0,098	-0,038
-464,372	-200,000	-0,017	0,059
-463,357	-71,837	-0,030	-0,008
-462,343	800,000	-0,006	0,015
-461,328	110,356	0,026	-0,023
-460,313	-18,543	0,036	-0,016
-459,299	-42,605	0,067	-0,025
-458,284	-200,000	-0,011	-0,067
-457,270	78,185	0,072	-0,056
-456,255	32,208	0,083	-0,052
-455,241	152,851	-0,042	0,041
-454,226	-56,692	-0,062	-0,020
-453,211	800,000	-0,056	0,122
-452,197	7,667	0,038	0,021
-451,182	-119,136	-0,066	-0,008
-450,168	-38,592	0,043	0,016
-449,153	-16,000	-0,040	-0,018
-448,138	116,594	0,028	-0,025
-447,124	-38,209	0,108	0,041
-446,109	-131,413	0,035	-0,003
-445,095	-200,000	-0,003	0,137
-444,080	800,000	-0,023	0,068
-443,065	-200,000	-0,004	-0,018
-442,051	-125,555	-0,113	-0,012
-441,036	-55,559	-0,112	0,036
-440,022	539,472	0,043	-0,074
-439,007	110,742	-0,040	0,035
-437,992	25,223	-0,144	0,087
-436,978	-200,000	0,015	0,151
-435,963	-103,474	0,094	0,016
-434,949	94,026	0,016	-0,013
-433,934	-103,605	-0,087	0,015
-432,919	8,732	-0,105	0,057
-431,905	-139,320	0,038	0,003
-430,890	224,274	0,056	-0,066
-429,876	384,122	-0,075	0,113
-428,861	86,433	0,115	0,093
-427,846	-200,000	0,011	0,046
-426,832	-31,653	0,063	0,025
-425,817	659,551	-0,066	-0,124
-424,803	-40,046	0,095	-0,036
-423,788	-93,968	0,102	0,020
-422,773	163,678	-0,034	0,035
-421,759	4,569	0,068	-0,036
-420,744	800,000	0,038	-0,102
-419,730	658,167	-0,061	0,115
-418,715	800,000	0,041	-0,091
-417,701	-84,619	-0,092	-0,021
-416,686	-200,000	-0,025	0,160
-415,671	111,915	0,058	-0,051
-414,657	-200,000	-0,012	0,118
-413,642	-110,515	0,033	0,005
-412,628	45,347	0,108	0,072
-411,613	93,861	0,096	0,079
-410,598	721,399	0,033	-0,065
-409,584	161,186	0,102	0,104
-408,569	-34,288	0,059	0,024
-407,555	-166,912	-0,051	0,002
-406,540	800,000	0,008	-0,024
-405,525	655,992	-0,037	-0,069
-404,511	165,528	0,082	-0,084
-403,496	18,099	-0,107	-0,062
-402,482	800,000	-0,028	-0,057
-401,467	178,083	0,113	-0,120
-400,452	756,612	-0,014	0,028
-399,438	248,895	0,004	0,005
-398,423	29,927	-0,089	0,055
-397,409	90,014	-0,113	-0,091
-396,394	-200,000	0,034	-0,156
-395,379	589,702	-0,060	-0,108
-394,365	-97,024	-0,098	0,019
-393,350	-50,907	0,124	0,042
-392,336	-200,000	0,004	-0,027
-391,321	18,168	0,023	0,013
-390,306	-200,000	-0,019	-0,063
-389,292	5,607	-0,111	-0,060
-388,277	70,905	-0,038	-0,029
-387,263	6,746	0,109	0,059
-386,248	800,000	0,061	0,150
-385,233	-200,000	-0,011	0,105
-384,219	-15,618	0,064	0,029
-383,204	-141,211	-0,029	0,002
-382,190	-200,000	-0,022	0,127
-381,175	66,154	0,034	-0,025
-380,160	-200,000	0,009	0,040
-379,146	-200,000	0,011	0,046
-378,131	-16,579	-0,040	-0,019
-377,117	96,347	-0,017	0,014
-376,102	-178,969	0,119	0,002
-375,088	-164,367	0,155	0,005
-374,073	1,311	-0,034	-0,018
-373,058	89,120	-0,024	-0,019
-372,044	-51,078	-0,068	-0,023
-371,029	-200,000	0,004	0,076
-370,015	140,529	-0,068	-0,065
-369,000	92,252	0,007	0,005
-367,985	53,905	-0,044	0,031
-366,971	-200,000	0,003	0,040
-365,956	-95,384	-0,036	-0,007
-364,942	511,551	-0,037	-0,062
-363,927	147,709	0,092	0,090
-362,912	-200,000	-0,009	0,177
-361,898	800,000	-0,125	-0,311
-360,883	-200,000	-0,007	-0,074
-359,869	-147,618	-0,062	-0,004
-358,854	37,296	0,150	0,096
-357,839	238,141	0,079	0,096
-356,825	239,246	-0,093	-0,113
-355,810	225,570	0,112	0,132
-354,796	731,318	0,037	0,072
-353,781	-200,000	-0,012	-0,117
-352,766	-200,000	-0,010	0,048
-351,752	-200,000	-0,002	0,034
-350,737	800,000	0,033	0,103
-349,723	-113,433	-0,082	-0,011
-348,708	-53,819	-0,126	-0,041
-347,693	-200,000	-0,010	-0,049
-346,679	16,072	-0,080	0,046
-345,664	-136,699	0,092	0,008
-344,650	800,000	0,017	-0,044
-343,635	-124,473	0,170	0,019
-342,620	-49,461	-0,081	0,028
-341,606	-186,494	-0,146	0,001
-340,591	800,000	0,009	-0,029
-339,577	-186,649	-0,047	-0,000
-338,562	-200,000	-0,014	-0,209
-337,548	628,280	0,044	-0,080
-336,533	113,980	0,027	0,024
-335,518	488,653	0,012	0,021
-334,504	119,784	-0,043	0,039
-333,489	617,661	0,061	0,112
-332,475	158,178	-0,034	-0,034
-331,460	-81,967	0,065	-0,015
-330,445	-126,690	-0,099	-0,010
-329,431	-200,000	0,014	-0,096
-328,416	116,234	0,096	0,085
-327,402	676,490	0,045	0,085
-326,387	33,341	0,105	-0,066
-325,372	-63,100	0,107	0,032
-324,358	-46,700	-0,169	-0,060
-323,343	137,654	0,124	0,118
-322,329	459,831	0,067	0,108
-321,314	-200,000	-0,008	0,138
-320,299	21,049	0,043	0,025
-319,285	428,954	0,043	0,068
-318,270	280,034	-0,016	0,020
-317,256	800,000	0,035	0,095
-316,241	-200,000	-0,018	-0,080
-315,226	800,000	0,027	0,060
-314,212	162,240	0,102	0,104
-313,197	-200,000	-0,008	-0,087
-312,183	-200,000	0,022	-0,082
-311,168	155,495	0,044	0,043
-310,153	800,000	-0,033	0,073
-309,139	-200,000	0,013	0,087
-308,124	68,074	0,020	-0,015
-307,110	-200,000	0,025	-0,121
-306,095	800,000	0,022	0,052
-305,080	-200,000	0,016	0,102
-304,066	-200,000	0,012	0,102
-303,051	44,732	0,092	0,061
-302,037	-99,943	-0,104	0,019
-301,022	-200,000	0,005	-0,143
-300,008	107,243	0,124	0,106
-298,993	39,125	0,101	-0,066
-297,978	344,799	0,068	0,097
-296,964	130,095	-0,027	-0,025
-295,949	-70,978	-0,083	0,022
-294,935	-46,611	-0,086	0,030
-293,920	-113,715	-0,089	-0,012
-292,905	478,012	0,062	0,103
-291,891	-200,000	-0,022	0,080
-290,876	-33,921	-0,145	0,057
-289,862	-15,423	0,130	-0,060
-288,847	-5,465	-0,058	-0,029
-287,832	-138,327	0,108	-0,009
-286,818	800,000	-0,035	0,090
-285,803	-81,701	0,093	0,022
-284,789	-107,231	0,137	0,022
-283,774	506,683	0,041	-0,069
-282,759	-87,715	-0,080	0,017
-281,745	-200,000	-0,002	-0,083
-280,730	667,615	0,021	-0,039
-279,716	800,000	0,072	-0,144
-278,701	-200,000	0,009	-0,130
-277,686	800,000	-0,016	0,047
-276,672	158,035	0,064	0,064
-275,657	145,763	-0,077	-0,074
-274,643	12,048	0,070	-0,039
-273,628	-93,622	0,119	0,024
-272,613	-123,002	0,023	0,003
-271,599	-16,293	0,094	-0,043
-270,584	-63,413	-0,028	0,008
-269,570	515,743	0,029	-0,049
-268,555	-200,000	0,005	-0,041
-267,540	-44,720	-0,128	0,046
-266,526	109,145	0,059	-0,051
-265,511	110,955	0,005	-0,004
-264,497	434,278	0,024	0,038
-263,482	800,000	-0,006	-0,017
-262,467	-200,000	0,011	-0,092
-261,453	-200,000	-0,025	0,101
-260,438	1,972	-0,077	-0,040
-259,424	-148,954	-0,128	0,007
-258,409	-21,539	-0,120	-0,053
-257,395	-200,000	0,002	-0,027
-256,380	280,027	0,085	0,110
-255,365	113,603	-0,027	0,023
-254,351	100,150	-0,058	-0,049
-253,336	-34,549	-0,147	-0,058
-252,322	-200,000	-0,015	-0,064
-251,307	-200,000	0,017	-0,144
-250,292	-67,101	0,058	-0,016
-249,278	2,894	-0,023	0,012
-248,263	68,274	0,079	0,059
-247,249	800,000	-0,052	0,114
-246,234	-200,000	-0,024	-0,091
-245,219	430,747	-0,068	-0,107
-244,205	142,792	0,052	0,050
-243,190	64,488	0,109	-0,080
-242,176	16,602	0,043	0,025
-241,161	-200,000	0,019	-0,156
-240,146	62,481	0,076	-0,055
-239,132	201,687	0,036	0,040
-238,117	-200,000	-0,016	0,104
-237,103	-87,617	-0,107	-0,023
-236,088	323,182	0,082	0,113
-235,073	50,320	0,053	-0,036
-234,059	-76,926	0,058	0,015
-233,044	-200,000	0,014	-0,097
-232,030	-27,353	-0,040	0,017
-231,015	167,414	0,047	0,048
-230,000	-200,000	-0,044	-0,173
-228,986	62,421	-0,067	0,048
-227,971	-65,016	-0,113	-0,033
-226,957	86,014	-0,104	0,082
-225,942	221,355	0,072	0,083
-224,927	-200,000	0,118	-0,000
-223,913	468,029	-0,032	0,052
-222,898	-87,499	-0,077	-0,017
-221,884	800,000	0,026	0,076
-220,869	7,409	0,053	-0,028
-219,855	-44,928	0,077	0,028
-218,840	800,000	-0,014	-0,038
-217,825	295,524	-0,054	-0,072
-216,811	0,982	-0,206	-0,106
-215,796	603,867	0,051	0,091
-214,782	-134,922	0,078	0,007
-213,767	-101,311	-0,094	0,016
-212,752	800,000	0,015	-0,042
-211,738	-118,990	-0,035	-0,004
-210,723	800,000	0,037	0,084
-209,709	800,000	0,014	-0,031
-208,694	61,244	-0,035	0,025
-207,679	-105,650	-0,086	0,014
-206,665	23,420	-0,056	-0,033
-205,650	-200,000	-0,006	0,035
-204,636	16,886	0,059	-0,033
-203,621	-74,551	-0,127	-0,033
-202,606	662,897	-0,053	-0,099
-201,592	-116,699	0,071	0,009
-200,577	194,590	-0,087	-0,095
-199,563	142,774	-0,028	-0,027
-198,548	733,480	0,031	-0,060
-197,533	-106,547	0,111	-0,018
-196,519	-162,798	0,034	0,001
-195,504	800,000	-0,032	0,066
-194,490	-94,406	-0,144	-0,028
-193,475	800,000	-0,021	-0,061
-192,460	-70,730	-0,112	0,030
-191,446	321,891	0,015	-0,021
-190,431	-196,817	0,069	0,000
-189,417	800,000	-0,026	0,067
-188,402	677,857	0,030	0,056
-187,387	-12,366	0,059	-0,028
-186,373	-93,059	-0,061	0,012
-185,358	6,979	-0,053	0,029
-184,344	800,000	0,029	-0,090
-183,329	-200,000	0,014	0,252
-182,315	122,415	0,170	0,153
-181,300	64,801	-0,073	-0,053
-180,285	800,000	0,022	-0,048
-179,271	-111,432	0,134	-0,019
-178,256	109,547	-0,111	0,096
-177,242	693,095	-0,023	-0,043
-176,227	408,114	0,085	-0,131
-175,212	800,000	0,062	0,132
-174,198	631,865	0,039	-0,071
-173,183	-67,511	0,112	0,031
-172,169	-121,508	-0,169	-0,020
-171,154	508,202	0,005	0,008
-170,139	390,421	0,062	0,094
-169,125	-156,590	0,097	-0,004
-168,110	-119,627	-0,167	-0,021
-167,096	-200,000	0,003	-0,018
-166,081	38,011	-0,185	-0,118
-165,066	-22,173	-0,078	-0,034
-164,052	313,751	0,062	-0,084
-163,037	800,000	0,036	-0,081
-162,023	-200,000	-0,036	0,159
-161,008	284,172	0,056	0,073
-159,993	-200,000	-0,001	0,036
-158,979	-186,755	-0,139	0,001
-157,964	-200,000	0,024	-0,219
-156,950	261,389	-0,128	-0,160
-155,935	-138,937	0,041	-0,003
-154,920	255,087	0,036	-0,045
-153,906	-50,708	0,082	0,028
-152,891	-183,570	-0,102	-0,001
-151,877	689,588	0,040	-0,077
-150,862	19,175	-0,034	0,020
-149,847	-200,000	0,038	-0,137
-148,833	-200,000	-0,004	-0,102
-147,818	-200,000	0,020	-0,070
-146,804	102,962	0,055	-0,046
-145,789	-23,769	-0,104	0,045
-144,775	-200,000	0,026	0,094
-143,760	800,000	-0,016	0,044
-142,745	800,000	-0,053	-0,128
-141,731	75,733	-0,069	0,052
-140,716	254,672	0,095	-0,118
-139,702	171,204	0,016	0,016
-138,687	-61,815	-0,065	0,019
-137,672	-96,052	0,075	-0,014
-136,658	800,000	0,044	0,112
-135,643	-200,000	-0,007	0,047
-134,629	80,597	-0,078	-0,060
-133,614	-82,867	0,163	-0,038
-132,599	-20,877	0,105	0,046
-131,585	318,693	0,054	0,074
-130,570	-200,000	-0,001	0,051
-129,556	-200,000	0,008	-0,115
-128,541	-200,000	-0,001	0,014
-127,526	-40,000	-0,129	-0,048
-126,512	297,796	0,021	-0,028
-125,497	107,843	0,049	-0,042
-124,483	143,187	-0,123	0,118
-123,468	-56,351	-0,157	0,050
-122,453	-200,000	0,003	-0,089
-121,439	15,216	-0,025	0,014
-120,424	800,000	-0,044	0,107
-119,410	318,328	-0,050	0,068
-118,395	314,235	0,020	-0,027
