DTS Sentinel unit serial number:	SN410029Multiplexer serial number:	ORYXHardware model number:	OX2-SRSoftware version number:	ORYX F/W v4,00 Oryx Data Collector v3.7.2.0data status	okinstallation	B5 Nyhavnadifferential loss correction	single-endedforward channel	channel 2reverse channel	N/Adate	2023/12/12time	04:02:13forward acquisition time	300,00reverse acquisition time	0,00gamma	499,1914k internal	0,3156k external	0,3156temperature offset calibration	1,0000default loss term (dB/km)	0,3820temperature slope calibration	1,0000multiplexer offset coefficient	1,0000multiplexer slope coefficient	1,0000fibre end	0,00T internal ref (°C)	15,58T ext. ref 1 (°C)	-0,84T ext. ref 2 (°C)	-1,12length (m)	temperature (°C)	Stokes	anti-Stokes-744,400	312,928	0,034	-0,048
-743,385	-128,502	-0,379	0,039
-742,371	-200,000	0,016	0,069
-741,356	-167,635	-0,311	-0,009
-740,342	-53,718	0,079	-0,026
-739,327	-85,523	-0,270	0,062
-738,312	-22,346	0,034	-0,015
-737,298	-171,971	-0,312	-0,007
-736,283	-81,467	0,205	-0,049
-735,269	-100,119	-0,197	0,036
-734,254	-200,000	-0,008	0,028
-733,239	4,175	-0,541	-0,291
-732,225	-152,961	0,120	0,006
-731,210	408,549	-0,086	0,135
-730,196	-107,196	0,090	-0,014
-729,181	91,921	0,064	-0,053
-728,167	-43,240	-0,116	0,043
-727,152	460,322	-0,057	-0,094
-726,137	-23,742	-0,077	-0,034
-725,123	248,541	-0,075	-0,094
-724,108	-200,000	0,007	-0,109
-723,094	246,359	-0,061	0,076
-722,079	380,007	-0,068	-0,104
-721,064	1,666	0,040	0,021
-720,050	615,401	-0,020	0,037
-719,035	-84,870	0,054	0,012
-718,021	800,000	-0,009	0,022
-717,006	229,451	-0,088	-0,106
-715,991	-200,000	0,011	-0,055
-714,977	-200,000	0,013	-0,093
-713,962	-144,041	-0,143	0,010
-712,948	228,931	0,114	-0,137
-711,933	-200,000	0,025	-0,119
-710,918	-46,090	-0,069	0,025
-709,904	-200,000	0,019	0,089
-708,889	-200,000	0,033	-0,119
-707,875	-200,000	-0,036	-0,147
-706,860	289,838	-0,010	0,014
-705,845	-15,727	-0,110	-0,051
-704,831	-200,000	0,005	0,042
-703,816	800,000	-0,022	0,053
-702,802	86,660	-0,030	-0,024
-701,787	-75,859	0,124	-0,032
-700,772	47,918	-0,064	-0,044
-699,758	-169,509	0,144	-0,004
-698,743	-182,527	-0,026	0,000
-697,729	159,442	0,067	0,069
-696,714	800,000	0,036	0,086
-695,699	-200,000	0,015	-0,172
-694,685	-47,790	0,161	-0,057
-693,670	108,441	-0,109	0,095
-692,656	-162,729	0,170	-0,006
-691,641	5,530	0,053	-0,029
-690,627	-200,000	0,008	-0,104
-689,612	-37,509	-0,077	-0,030
-688,597	40,407	0,074	-0,049
-687,583	206,192	-0,039	-0,045
-686,568	-120,212	-0,250	-0,031
-685,554	-200,000	-0,015	-0,119
-684,539	-200,000	0,010	-0,142
-683,524	-200,000	0,026	-0,134
-682,510	518,950	-0,038	0,066
-681,495	51,307	-0,095	0,066
-680,481	-200,000	0,003	-0,071
-679,466	-135,652	-0,090	0,008
-678,451	-153,995	0,044	0,002
-677,437	-200,000	0,028	0,137
-676,422	-120,010	0,050	-0,006
-675,408	-200,000	-0,016	0,072
-674,393	120,333	-0,074	0,067
-673,378	385,843	-0,090	0,137
-672,364	257,293	-0,040	0,051
-671,349	266,780	-0,072	-0,092
-670,335	-200,000	0,042	-0,157
-669,320	-67,587	0,083	-0,024
-668,305	-33,294	0,065	0,026
-667,291	800,000	-0,055	-0,133
-666,276	800,000	0,052	-0,152
-665,262	437,896	0,067	-0,108
-664,247	-151,831	0,089	-0,005
-663,232	-200,000	-0,020	-0,162
-662,218	-200,000	-0,014	-0,051
-661,203	-147,309	-0,070	0,004
-660,189	800,000	0,006	0,016
-659,174	78,879	-0,102	-0,080
-658,159	137,862	-0,091	-0,087
-657,145	-20,869	-0,112	-0,050
-656,130	-200,000	0,002	-0,048
-655,116	-22,852	0,033	-0,015
-654,101	-73,400	0,046	-0,012
-653,086	-200,000	-0,002	-0,126
-652,072	800,000	-0,013	0,037
-651,057	800,000	-0,049	-0,123
-650,043	246,322	-0,093	-0,115
-649,028	51,585	-0,068	-0,048
-648,014	-37,819	0,077	0,030
-646,999	-200,000	-0,006	-0,066
-645,984	-15,971	0,031	-0,015
-644,970	800,000	0,011	-0,030
-643,955	-78,386	-0,161	0,040
-642,941	-182,667	-0,123	0,002
-641,926	-124,239	0,014	-0,002
-640,911	-0,426	-0,033	-0,017
-639,897	222,627	-0,059	-0,069
-638,882	261,782	-0,091	0,116
-637,868	75,154	0,071	-0,055
-636,853	800,000	-0,108	-0,250
-635,838	-200,000	0,015	-0,064
-634,824	-200,000	0,026	-0,100
-633,809	-46,685	0,041	-0,015
-632,795	-141,803	0,110	-0,008
-631,780	13,438	0,072	0,041
-630,765	83,148	0,072	-0,057
-629,751	-127,960	0,080	-0,008
-628,736	145,614	-0,040	-0,039
-627,722	-35,212	-0,097	-0,038
-626,707	800,000	-0,016	-0,044
-625,692	800,000	-0,019	0,042
-624,678	31,699	-0,078	-0,049
-623,663	-102,877	0,104	-0,018
-622,649	519,620	-0,022	-0,038
-621,634	800,000	-0,015	-0,031
-620,619	274,836	0,029	-0,038
-619,605	800,000	0,058	-0,148
-618,590	-111,526	-0,204	-0,030
-617,576	-113,017	0,086	0,012
-616,561	205,406	0,048	0,055
-615,546	-200,000	0,010	0,129
-614,532	-26,196	0,072	-0,031
-613,517	-200,000	-0,019	0,120
-612,503	-200,000	-0,014	-0,111
-611,488	57,940	-0,103	0,074
-610,474	-45,392	0,073	-0,026
-609,459	-200,000	-0,021	0,086
-608,444	-200,000	-0,018	-0,104
-607,430	188,094	0,131	-0,143
-606,415	-58,541	-0,039	0,012
-605,401	74,227	-0,041	-0,032
-604,386	280,473	0,074	0,097
-603,371	-200,000	-0,013	0,056
-602,357	108,238	-0,030	0,026
-601,342	-200,000	0,015	-0,141
-600,328	-200,000	0,013	-0,079
-599,313	305,285	-0,089	-0,122
-598,298	324,775	0,035	0,049
-597,284	-134,926	0,059	0,005
-596,269	800,000	0,051	-0,112
-595,255	-200,000	0,017	-0,151
-594,240	-200,000	0,010	0,069
-593,225	-112,372	-0,090	-0,013
-592,211	800,000	-0,012	-0,029
-591,196	216,445	-0,058	0,068
-590,182	-200,000	0,004	0,042
-589,167	52,102	0,070	-0,049
-588,152	800,000	0,010	0,025
-587,138	-16,134	-0,052	-0,024
-586,123	23,616	-0,073	-0,044
-585,109	-91,565	-0,030	-0,006
-584,094	-62,617	0,127	0,038
-583,079	-200,000	-0,016	0,161
-582,065	-72,474	-0,039	0,011
-581,050	-200,000	0,045	0,187
-580,036	773,779	0,034	-0,069
-579,021	800,000	-0,032	0,065
-578,006	786,758	-0,053	0,107
-576,992	800,000	-0,008	0,024
-575,977	143,674	-0,075	0,073
-574,963	-189,460	0,206	-0,002
-573,948	-113,283	-0,093	-0,013
-572,934	95,897	0,045	0,037
-571,919	26,708	0,052	-0,032
-570,904	59,831	-0,070	0,051
-569,890	800,000	-0,038	-0,098
-568,875	800,000	0,041	-0,120
-567,861	327,270	-0,071	0,101
-566,846	545,203	0,030	0,052
-565,831	39,179	-0,041	0,027
-564,817	800,000	0,042	0,096
-563,802	-200,000	-0,023	-0,092
-562,788	-200,000	0,007	0,028
-561,773	19,374	0,041	0,024
-560,758	-200,000	0,023	0,127
-559,744	-200,000	-0,044	0,146
-558,729	685,209	0,074	-0,142
-557,715	-200,000	-0,006	-0,097
-556,700	-131,694	0,170	0,016
-555,685	-27,129	0,023	0,010
-554,671	-159,069	-0,074	-0,003
-553,656	-111,314	-0,058	-0,009
-552,642	59,451	0,096	0,069
-551,627	-0,357	-0,066	0,034
-550,612	279,283	0,060	-0,079
-549,598	800,000	-0,059	0,190
-548,583	-70,355	0,111	0,031
-547,569	435,363	-0,063	-0,100
-546,554	130,458	-0,046	-0,044
-545,539	800,000	0,035	0,103
-544,525	-200,000	-0,042	-0,138
-543,510	800,000	-0,047	-0,102
-542,496	800,000	-0,013	-0,027
-541,481	268,212	0,133	-0,171
-540,466	290,749	-0,045	-0,060
-539,452	-9,826	0,070	-0,034
-538,437	150,533	0,089	0,089
-537,423	-55,401	-0,063	0,021
-536,408	107,414	-0,069	0,060
-535,393	241,642	0,020	-0,024
-534,379	-200,000	0,013	-0,114
-533,364	214,202	-0,093	0,107
-532,350	-62,993	0,054	0,016
-531,335	80,683	-0,101	0,079
-530,321	216,569	-0,027	0,031
-529,306	800,000	-0,030	0,074
-528,291	-42,470	-0,120	-0,044
-527,277	800,000	-0,008	-0,020
-526,262	-120,477	0,063	0,008
-525,248	800,000	0,010	-0,028
-524,233	800,000	0,076	0,167
-523,218	67,954	-0,103	-0,077
-522,204	-200,000	0,027	0,136
-521,189	800,000	0,017	-0,053
-520,175	-200,000	-0,002	-0,013
-519,160	-66,362	-0,075	-0,022
-518,145	142,679	-0,029	-0,028
-517,131	107,527	-0,075	0,065
-516,116	279,767	-0,069	-0,090
-515,102	-200,000	-0,023	-0,153
-514,087	-200,000	-0,015	-0,093
-513,072	800,000	-0,052	-0,137
-512,058	111,722	-0,057	-0,051
-511,043	180,982	-0,033	0,036
-510,029	467,182	0,069	-0,114
-509,014	800,000	-0,022	0,063
-507,999	-200,000	-0,004	-0,037
-506,985	432,733	-0,090	-0,144
-505,970	-92,126	-0,067	-0,014
-504,956	-200,000	-0,013	0,113
-503,941	-92,914	0,155	0,031
-502,926	318,603	-0,059	-0,081
-501,912	-200,000	0,017	-0,125
-500,897	95,099	0,022	-0,018
-499,883	761,419	-0,049	-0,098
-498,868	67,909	-0,093	0,069
-497,853	371,602	-0,066	-0,098
-496,839	-148,231	0,140	-0,008
-495,824	-57,747	-0,039	0,012
-494,810	-119,698	0,087	0,011
-493,795	-200,000	0,006	0,046
-492,781	800,000	0,019	-0,056
-491,766	-200,000	-0,000	-0,061
-490,751	160,551	-0,028	-0,029
-489,737	147,402	0,077	0,076
-488,722	-154,774	0,102	0,005
-487,708	-185,639	0,139	-0,001
-486,693	-141,256	0,035	0,003
-485,678	37,639	-0,081	-0,052
-484,664	-62,414	-0,142	0,043
-483,649	-200,000	0,006	-0,022
-482,635	-200,000	-0,012	0,046
-481,620	-200,000	-0,000	0,064
-480,605	52,657	0,044	0,031
-479,591	-200,000	0,008	-0,048
-478,576	800,000	0,006	0,014
-477,562	-10,746	-0,091	0,044
-476,547	-177,646	0,062	0,001
-475,532	-154,178	-0,017	-0,001
-474,518	236,937	0,045	0,055
-473,503	-200,000	0,017	0,182
-472,489	565,062	-0,051	0,091
-471,474	800,000	0,031	0,079
-470,459	40,336	0,021	0,014
-469,445	205,886	-0,061	0,070
-468,430	525,142	0,043	0,074
-467,416	75,132	0,169	0,130
-466,401	58,006	-0,050	0,036
-465,386	-200,000	0,003	0,062
-464,372	-200,000	-0,006	0,132
-463,357	58,485	-0,076	-0,054
-462,343	345,840	-0,030	0,043
-461,328	408,423	-0,066	-0,102
-460,313	58,540	-0,049	0,035
-459,299	-30,360	0,094	-0,039
-458,284	-162,451	0,070	-0,002
-457,270	8,528	0,061	0,033
-456,255	-200,000	0,004	0,149
-455,241	267,107	-0,032	0,041
-454,226	112,730	-0,019	-0,017
-453,211	518,176	-0,013	0,022
-452,197	225,023	0,076	0,089
-451,182	-119,796	-0,115	-0,014
-450,168	9,285	0,117	-0,064
-449,153	-81,730	-0,161	0,038
-448,138	-200,000	0,004	-0,031
-447,124	-200,000	-0,005	-0,018
-446,109	29,971	-0,009	0,006
-445,095	-200,000	-0,023	0,093
-444,080	-200,000	-0,006	0,075
-443,065	-72,696	-0,049	0,013
-442,051	43,215	-0,039	-0,026
-441,036	238,409	0,020	0,024
-440,022	-200,000	-0,009	0,089
-439,007	-54,385	-0,060	0,020
-437,992	800,000	0,023	-0,047
-436,978	336,244	0,058	-0,082
-435,963	800,000	0,091	-0,284
-434,949	259,270	-0,030	-0,038
-433,934	123,352	0,109	-0,099
-432,919	800,000	0,041	0,130
-431,905	215,154	0,017	0,020
-430,890	800,000	0,041	0,115
-429,876	20,439	0,022	-0,013
-428,861	64,004	0,129	-0,095
-427,846	-152,928	0,113	0,006
-426,832	-168,370	-0,083	0,002
-425,817	429,706	0,042	-0,066
-424,803	762,928	0,036	-0,072
-423,788	-82,365	0,205	-0,048
-422,773	22,971	0,147	0,087
-421,759	-66,603	0,103	0,029
-420,744	800,000	0,075	-0,183
-419,730	-63,346	0,133	0,040
-418,715	271,166	0,029	-0,038
-417,701	-200,000	-0,004	0,024
-416,686	800,000	0,072	-0,164
-415,671	800,000	-0,029	-0,086
-414,657	653,241	0,049	-0,092
-413,642	272,128	-0,009	-0,012
-412,628	44,942	-0,023	-0,015
-411,613	800,000	-0,014	-0,045
-410,598	-64,435	0,130	-0,038
-409,584	166,562	0,065	0,067
-408,569	-115,890	-0,076	0,010
-407,555	-200,000	0,036	0,157
-406,540	-200,000	-0,021	0,106
-405,525	-200,000	-0,018	-0,184
-404,511	691,677	0,048	-0,092
-403,496	-132,423	-0,032	-0,003
-402,482	79,804	0,042	-0,033
-401,467	-200,000	0,001	0,042
-400,452	-200,000	0,025	0,111
-399,438	-200,000	-0,009	0,220
-398,423	-200,000	-0,002	0,009
-397,409	-200,000	-0,014	-0,096
-396,394	-142,790	-0,113	-0,008
-395,379	130,776	0,021	-0,020
-394,365	-200,000	-0,010	-0,062
-393,350	170,126	0,054	0,056
-392,336	-29,899	0,082	-0,034
-391,321	274,022	0,044	-0,057
-390,306	-79,980	-0,068	-0,016
-389,292	-29,209	0,062	-0,026
-388,277	78,995	0,027	0,021
-387,263	800,000	-0,071	0,174
-386,248	-17,164	0,089	0,041
-385,233	-42,572	0,051	-0,019
-384,219	-117,700	-0,106	0,014
-383,204	94,288	-0,088	-0,073
-382,190	-30,240	-0,067	-0,028
-381,175	38,878	0,062	0,040
-380,160	800,000	-0,055	0,118
-379,146	3,660	-0,043	0,023
-378,131	58,808	-0,107	0,076
-377,117	298,945	0,055	-0,074
-376,102	-9,445	0,066	-0,032
-375,088	126,950	-0,068	0,063
-374,073	358,567	-0,103	0,150
-373,058	72,205	-0,003	-0,003
-372,044	-42,726	0,083	-0,031
-371,029	209,953	-0,043	0,049
-370,015	800,000	-0,048	0,114
-369,000	-114,601	0,078	0,011
-367,985	50,581	-0,034	-0,023
-366,971	372,495	0,102	-0,151
-365,956	-19,425	-0,079	-0,035
-364,942	45,389	0,038	-0,026
-363,927	740,171	0,022	0,044
-362,912	76,386	-0,117	0,090
-361,898	-48,952	0,047	0,016
-360,883	62,441	0,090	0,066
-359,869	-9,383	0,037	0,018
-358,854	-88,836	-0,071	0,015
-357,839	800,000	0,023	-0,050
-356,825	-52,818	0,121	0,040
-355,810	10,845	-0,038	0,021
-354,796	-66,304	0,095	0,027
-353,781	97,316	-0,100	-0,084
-352,766	453,911	-0,025	-0,040
-351,752	81,542	0,056	-0,044
-350,737	363,052	0,030	0,045
-349,723	-3,788	0,102	-0,051
-348,708	186,360	-0,064	0,070
-347,693	-106,657	-0,140	-0,022
-346,679	-14,751	0,078	-0,036
-345,664	-101,200	-0,081	0,014
-344,650	-200,000	0,004	0,043
-343,635	103,359	0,101	0,086
-342,620	800,000	0,033	0,092
-341,606	-130,055	-0,074	-0,007
-340,591	800,000	-0,038	-0,086
-339,577	101,671	-0,091	-0,077
-338,562	179,286	0,044	0,047
-337,548	430,269	-0,061	-0,096
-336,533	800,000	0,014	-0,034
-335,518	307,484	0,023	-0,031
-334,504	560,640	0,044	0,078
-333,489	256,505	-0,120	-0,150
-332,475	-200,000	-0,018	-0,112
-331,460	800,000	-0,033	-0,101
-330,445	-200,000	-0,005	-0,087
-329,431	-57,519	0,103	-0,033
-328,416	-3,476	0,050	-0,025
-327,402	-200,000	-0,014	-0,048
-326,387	-92,227	-0,099	-0,020
-325,372	-86,851	-0,150	0,033
-324,358	104,970	-0,057	0,049
-323,343	-66,083	0,067	0,019
-322,329	-200,000	-0,009	0,087
-321,314	-10,295	-0,016	0,008
-320,299	580,499	-0,032	-0,058
-319,285	-90,583	-0,044	0,009
-318,270	-101,989	0,097	0,017
-317,256	2,892	-0,062	0,033
-316,241	-200,000	-0,003	0,049
-315,226	217,134	-0,024	0,028
-314,212	2,785	0,113	0,059
-313,197	800,000	-0,030	0,080
-312,183	800,000	0,010	-0,025
-311,168	-200,000	-0,015	0,096
-310,153	194,245	-0,040	0,044
-309,139	-69,223	0,139	-0,039
-308,124	-9,323	0,043	-0,021
-307,110	-164,692	-0,071	0,002
-306,095	145,360	0,053	-0,051
-305,080	-181,297	-0,030	-0,000
-304,066	198,678	-0,081	0,090
-303,051	800,000	-0,041	0,112
-302,037	-50,618	-0,200	-0,068
-301,022	405,510	-0,103	0,158
-300,008	-200,000	0,020	0,108
-298,993	36,689	0,068	-0,043
-297,978	74,522	-0,095	-0,073
-296,964	-200,000	0,025	-0,100
-295,949	423,461	-0,058	-0,090
-294,935	-21,405	-0,041	-0,018
-293,920	-54,835	-0,028	0,009
-292,905	-200,000	0,001	0,086
-291,891	378,760	0,066	0,098
-290,876	103,656	-0,023	-0,019
-289,862	734,859	-0,039	0,075
-288,847	-137,782	0,126	-0,010
-287,832	-200,000	-0,001	-0,068
-286,818	-200,000	0,015	-0,057
-285,803	132,181	0,098	0,092
-284,789	544,566	0,043	-0,075
-283,774	-200,000	0,033	0,107
-282,759	149,855	0,068	-0,067
-281,745	-200,000	0,006	-0,066
-280,730	-131,248	-0,206	0,020
-279,716	14,509	0,071	0,040
-278,701	115,499	0,066	-0,058
-277,686	-200,000	-0,023	0,158
-276,672	-200,000	-0,020	0,207
-275,657	-110,616	0,090	-0,013
-274,643	413,438	-0,031	-0,048
-273,628	428,656	0,018	-0,029
-272,613	800,000	-0,030	0,067
-271,599	800,000	0,062	0,137
-270,584	-118,840	0,107	0,013
-269,570	800,000	-0,026	0,083
-268,555	-84,477	0,115	0,026
-267,540	-200,000	-0,032	-0,139
-266,526	-23,045	0,077	-0,033
-265,511	800,000	-0,028	0,072
-264,497	587,881	0,038	-0,069
-263,482	800,000	0,033	0,103
-262,467	93,728	-0,067	0,055
-261,453	236,219	-0,091	0,109
-260,438	667,733	0,043	-0,080
-259,424	-200,000	-0,036	-0,176
-258,409	-200,000	-0,022	-0,085
-257,395	166,043	-0,064	-0,066
-256,380	174,771	0,068	0,071
-255,365	94,078	0,040	-0,033
-254,351	-200,000	0,002	-0,008
-253,336	-124,153	0,149	0,017
-252,322	22,201	-0,152	-0,089
-251,307	-200,000	0,009	-0,120
-250,292	-44,715	0,039	-0,014
-249,278	-12,526	-0,144	-0,068
-248,263	4,393	0,028	0,015
-247,249	354,198	-0,010	0,014
-246,234	559,100	-0,076	-0,133
-245,219	-200,000	-0,004	0,022
-244,205	-200,000	-0,001	-0,015
-243,190	800,000	-0,036	0,092
-242,176	800,000	0,013	0,028
-241,161	163,023	0,045	-0,046
-240,146	377,207	-0,076	0,112
-239,132	220,958	0,061	-0,071
-238,117	140,201	0,011	0,010
-237,103	-200,000	0,011	-0,059
-236,088	513,778	-0,033	0,056
-235,073	800,000	0,045	0,122
-234,059	-79,855	0,028	0,007
-233,044	781,570	0,033	0,065
-232,030	-62,576	-0,133	0,040
-231,015	405,204	-0,061	0,093
-230,000	800,000	-0,010	-0,028
-228,986	232,592	-0,052	0,062
-227,971	800,000	-0,027	0,084
-226,957	205,842	0,071	0,080
-225,942	-200,000	0,015	0,146
-224,927	191,815	-0,095	0,104
-223,913	671,995	-0,080	-0,151
-222,898	120,667	-0,083	0,074
-221,884	-44,999	-0,154	-0,055
-220,869	347,265	0,065	-0,093
-219,855	283,659	-0,015	0,019
-218,840	-200,000	0,013	0,118
-217,825	-7,176	0,118	0,058
-216,811	-183,743	0,116	0,001
-215,796	34,209	0,019	0,012
-214,782	-79,382	-0,071	0,017
-213,767	-177,656	0,077	0,001
-212,752	-73,148	0,011	-0,003
-211,738	681,267	0,026	0,049
-210,723	-200,000	-0,006	-0,073
-209,709	123,703	0,050	-0,045
-208,694	240,704	-0,059	-0,072
-207,679	398,187	0,041	0,063
-206,665	800,000	-0,037	-0,097
-205,650	184,879	0,032	0,034
-204,636	225,226	0,025	0,029
-203,621	166,689	0,020	0,020
-202,606	35,932	-0,029	0,018
-201,592	-200,000	-0,007	-0,038
-200,577	-200,000	-0,016	-0,114
-199,563	423,569	-0,007	0,010
-198,548	-200,000	0,007	0,066
-197,533	-13,838	0,048	0,022
-196,519	15,166	0,159	0,090
-195,504	30,778	-0,104	-0,064
-194,490	800,000	-0,049	-0,146
-193,475	-88,261	-0,092	-0,020
-192,460	9,646	0,044	-0,024
-191,446	468,679	0,058	-0,095
-190,431	-200,000	-0,003	0,038
-189,417	433,207	0,052	0,082
-188,402	-200,000	-0,032	-0,149
-187,387	-200,000	-0,011	-0,055
-186,373	49,478	-0,166	-0,113
-185,358	-27,874	-0,170	0,071
-184,344	392,220	0,093	0,140
-183,329	-200,000	0,004	0,077
-182,315	504,725	-0,021	0,036
-181,300	800,000	-0,046	-0,105
-180,285	161,169	0,023	-0,023
-179,271	-196,199	-0,174	-0,001
-178,256	751,475	-0,034	-0,067
-177,242	77,591	0,078	0,060
-176,227	41,901	0,034	0,022
-175,212	58,433	0,154	0,109
-174,198	184,025	-0,091	-0,098
-173,183	260,764	-0,038	0,048
-172,169	240,612	-0,056	0,068
-171,154	-200,000	0,002	-0,042
-170,139	-81,675	-0,101	-0,024
-169,125	800,000	0,041	0,105
-168,110	-82,032	-0,107	0,025
-167,096	-92,247	-0,019	0,004
-166,081	466,630	-0,083	-0,135
-165,066	-84,427	0,073	-0,016
-164,052	9,060	0,128	-0,070
-163,037	312,997	-0,121	-0,164
-162,023	-97,766	0,105	0,019
-161,008	-200,000	-0,016	-0,051
-159,993	800,000	-0,036	0,093
-158,979	-18,738	0,072	-0,032
-157,964	-200,000	-0,006	0,040
-156,950	-200,000	-0,012	0,055
-155,935	117,930	0,082	-0,073
-154,920	-27,142	-0,047	-0,020
-153,906	746,860	0,033	-0,065
-152,891	252,165	0,060	0,074
-151,877	67,403	0,073	0,053
-150,862	-19,697	-0,167	-0,074
-149,847	379,761	0,013	0,020
-148,833	-158,472	-0,040	0,002
-147,818	-104,088	0,140	-0,023
-146,804	-36,664	0,018	-0,007
-145,789	800,000	0,016	0,040
-144,775	-200,000	0,014	0,064
-143,760	-43,022	0,094	0,034
-142,745	101,378	-0,035	0,029
-141,731	-200,000	0,001	0,178
-140,716	43,068	0,170	0,112
-139,702	-200,000	0,032	0,190
-138,687	-200,000	-0,032	0,181
-137,672	-200,000	-0,005	-0,018
-136,658	-146,116	0,075	0,005
-135,643	703,253	-0,029	0,055
-134,629	-200,000	0,027	-0,141
-133,614	658,267	0,055	-0,103
-132,599	-200,000	0,031	-0,117
-131,585	-200,000	-0,001	-0,090
-130,570	800,000	0,038	0,117
-129,556	368,922	-0,047	-0,068
-128,541	-176,059	-0,117	0,002
-127,526	-154,876	-0,069	0,003
-126,512	-60,692	0,057	-0,017
-125,497	800,000	0,040	0,085
-124,483	391,678	0,061	0,092
-123,468	-123,319	0,091	-0,010
-122,453	-116,301	-0,123	-0,016
-121,439	-42,117	-0,090	-0,033
-120,424	670,336	0,009	-0,017
-119,410	-200,000	0,009	0,115
