DTS Sentinel unit serial number:	SN410029Multiplexer serial number:	ORYXHardware model number:	OX2-SRSoftware version number:	ORYX F/W v4,00 Oryx Data Collector v3.7.2.0data status	okinstallation	B5 Nyhavnadifferential loss correction	single-endedforward channel	channel 2reverse channel	N/Adate	2023/12/13time	17:17:13forward acquisition time	300,00reverse acquisition time	0,00gamma	499,1914k internal	0,3159k external	0,3159temperature offset calibration	1,0000default loss term (dB/km)	0,3820temperature slope calibration	1,0000multiplexer offset coefficient	1,0000multiplexer slope coefficient	1,0000fibre end	0,00T internal ref (°C)	14,00T ext. ref 1 (°C)	-3,39T ext. ref 2 (°C)	-3,48length (m)	temperature (°C)	Stokes	anti-Stokes-744,400	-187,300	0,143	0,001
-743,385	-62,029	-0,244	0,075
-742,371	-63,889	0,227	0,068
-741,356	-160,770	-0,269	-0,010
-740,342	-200,000	0,001	0,032
-739,327	-111,338	-0,402	0,060
-738,312	-125,188	0,119	0,013
-737,298	-150,474	-0,261	0,015
-736,283	170,422	0,127	0,134
-735,269	-110,919	-0,285	0,043
-734,254	142,279	0,131	0,128
-733,239	-44,682	-0,451	-0,165
-732,225	-133,620	0,280	0,025
-731,210	800,000	0,043	0,129
-730,196	-60,811	0,060	-0,019
-729,181	-200,000	0,001	-0,065
-728,167	643,573	-0,025	0,047
-727,152	63,867	0,045	0,034
-726,137	-200,000	0,017	-0,163
-725,123	-110,263	-0,087	0,013
-724,108	-200,000	-0,001	-0,120
-723,094	-4,641	-0,183	-0,092
-722,079	-31,341	-0,078	0,032
-721,064	234,348	0,085	0,103
-720,050	239,553	0,060	-0,073
-719,035	-59,397	-0,019	-0,006
-718,021	-110,550	0,085	-0,013
-717,006	139,855	-0,100	-0,097
-715,991	800,000	-0,018	-0,041
-714,977	5,336	0,043	-0,023
-713,962	-200,000	0,023	-0,184
-712,948	318,718	0,056	0,079
-711,933	-31,674	0,011	-0,005
-710,918	-78,314	-0,113	0,028
-709,904	-160,570	0,100	0,004
-708,889	-75,864	-0,117	0,030
-707,875	619,937	-0,071	-0,132
-706,860	36,611	0,184	-0,119
-705,845	566,377	-0,020	0,037
-704,831	165,366	0,086	-0,089
-703,816	178,650	-0,054	0,058
-702,802	800,000	-0,099	-0,213
-701,787	-200,000	0,022	-0,114
-700,772	543,615	0,080	-0,141
-699,758	800,000	0,067	-0,204
-698,743	628,310	0,041	-0,076
-697,729	-61,084	0,047	-0,014
-696,714	-200,000	0,005	0,096
-695,699	-26,245	0,090	0,039
-694,685	713,775	-0,036	-0,071
-693,670	244,818	-0,018	-0,022
-692,656	287,074	-0,028	0,037
-691,641	502,045	-0,034	-0,058
-690,627	-162,297	-0,047	-0,002
-689,612	-200,000	-0,021	-0,085
-688,597	-54,210	-0,073	0,024
-687,583	800,000	0,022	-0,063
-686,568	32,974	0,019	-0,012
-685,554	21,862	0,036	-0,022
-684,539	377,719	-0,024	0,037
-683,524	-143,469	0,039	-0,003
-682,510	-166,327	0,023	0,001
-681,495	368,474	-0,015	-0,022
-680,481	27,385	-0,007	-0,004
-679,466	114,770	0,061	-0,054
-678,451	-200,000	0,023	-0,138
-677,437	800,000	-0,011	-0,028
-676,422	-45,785	-0,070	0,025
-675,408	-200,000	0,013	0,233
-674,393	83,002	-0,112	-0,090
-673,378	175,960	0,042	-0,045
-672,364	-100,098	-0,152	0,028
-671,349	800,000	-0,025	-0,071
-670,335	30,201	0,095	0,060
-669,320	800,000	-0,021	-0,067
-668,305	-200,000	0,026	0,156
-667,291	-85,897	-0,145	-0,033
-666,276	245,150	-0,080	-0,099
-665,262	-102,348	-0,126	0,022
-664,247	-105,112	-0,059	0,010
-663,232	45,488	0,077	-0,052
-662,218	-174,920	-0,126	0,003
-661,203	-176,573	-0,100	-0,002
-660,189	3,473	-0,168	0,090
-659,174	-200,000	-0,007	-0,087
-658,159	-49,935	-0,131	-0,045
-657,145	-200,000	-0,026	-0,117
-656,130	153,513	-0,162	-0,163
-655,116	736,951	0,029	-0,056
-654,101	-81,149	0,063	0,015
-653,086	26,021	-0,057	0,035
-652,072	334,046	-0,043	-0,062
-651,057	800,000	0,034	-0,098
-650,043	-99,709	0,091	-0,017
-649,028	-200,000	-0,016	0,064
-648,014	-39,199	0,056	0,022
-646,999	-63,401	-0,014	0,004
-645,984	-62,505	-0,032	0,010
-644,970	357,856	-0,091	-0,134
-643,955	-200,000	0,003	-0,111
-642,941	218,154	-0,049	0,057
-641,926	242,290	0,061	0,076
-640,911	463,568	0,078	-0,128
-639,897	-146,987	-0,154	-0,010
-638,882	-15,246	-0,103	-0,048
-637,868	-50,971	-0,033	0,011
-636,853	-200,000	0,013	0,123
-635,838	319,319	0,059	-0,082
-634,824	-97,439	-0,167	0,032
-633,809	-200,000	-0,004	0,074
-632,795	800,000	0,021	0,060
-631,780	800,000	-0,013	0,030
-630,765	38,282	-0,039	-0,026
-629,751	256,171	0,032	0,040
-628,736	-200,000	0,011	-0,137
-627,722	-200,000	0,009	-0,088
-626,707	487,671	0,024	0,041
-625,692	-200,000	0,015	0,107
-624,678	67,926	0,045	-0,033
-623,663	-200,000	-0,017	0,058
-622,649	-130,786	-0,097	-0,009
-621,634	-200,000	-0,005	-0,031
-620,619	-78,268	-0,057	0,014
-619,605	-200,000	-0,000	-0,055
-618,590	411,812	0,049	0,076
-617,576	166,816	0,045	0,047
-616,561	-54,623	0,061	-0,020
-615,546	621,541	-0,085	-0,157
-614,532	-200,000	-0,031	-0,108
-613,517	-69,981	-0,120	0,033
-612,503	70,001	0,163	0,124
-611,488	84,047	0,025	0,020
-610,474	365,458	-0,096	0,142
-609,459	133,352	0,081	0,076
-608,444	263,973	-0,109	0,139
-607,430	-120,722	-0,080	0,010
-606,415	-200,000	0,034	-0,132
-605,401	-12,212	-0,087	0,042
-604,386	-200,000	-0,005	0,032
-603,371	26,571	0,090	0,055
-602,357	-116,528	0,131	-0,018
-601,342	-14,782	-0,091	0,043
-600,328	76,421	-0,149	0,115
-599,313	9,778	0,028	-0,015
-598,298	473,434	-0,076	-0,127
-597,284	-200,000	0,023	0,106
-596,269	111,746	-0,074	0,066
-595,255	-200,000	0,035	0,123
-594,240	-165,074	0,223	0,007
-593,225	-200,000	0,010	-0,124
-592,211	-200,000	0,003	-0,110
-591,196	28,062	0,105	0,065
-590,182	525,714	-0,029	-0,049
-589,167	-200,000	0,004	0,241
-588,152	-79,883	-0,024	0,006
-587,138	138,559	0,051	0,049
-586,123	110,020	0,058	0,051
-585,109	-200,000	-0,005	-0,033
-584,094	800,000	0,008	-0,019
-583,079	-46,111	0,053	0,019
-582,065	-200,000	0,020	0,102
-581,050	-200,000	0,013	0,056
-580,036	154,276	0,033	-0,033
-579,021	-200,000	-0,007	-0,044
-578,006	-200,000	0,009	-0,032
-576,992	-200,000	0,002	0,021
-575,977	67,622	-0,142	-0,106
-574,963	260,771	0,036	0,046
-573,948	-200,000	-0,001	-0,037
-572,934	-200,000	0,031	-0,164
-571,919	800,000	0,018	-0,054
-570,904	-116,711	-0,130	0,017
-569,890	-200,000	-0,001	-0,163
-568,875	800,000	-0,020	0,061
-567,861	725,742	0,046	-0,090
-566,846	-200,000	-0,039	0,135
-565,831	115,112	0,021	-0,018
-564,817	115,052	0,032	-0,029
-563,802	-89,628	-0,059	-0,013
-562,788	-99,373	-0,115	-0,021
-561,773	-70,124	0,100	0,028
-560,758	120,136	0,144	0,131
-559,744	-79,837	0,098	0,024
-558,729	31,290	-0,098	-0,062
-557,715	-108,209	-0,150	-0,024
-556,700	-200,000	-0,013	-0,079
-555,685	-88,738	0,065	0,014
-554,671	202,286	0,110	0,124
-553,656	-200,000	-0,023	0,101
-552,642	136,847	-0,040	-0,038
-551,627	165,866	-0,014	-0,014
-550,612	800,000	-0,002	0,004
-549,598	800,000	-0,020	0,047
-548,583	-24,625	0,073	-0,032
-547,569	-139,294	-0,039	0,003
-546,554	-186,806	0,104	-0,001
-545,539	-74,032	0,029	-0,008
-544,525	800,000	0,042	0,121
-543,510	-43,215	-0,088	0,032
-542,496	-8,880	-0,095	-0,046
-541,481	-121,779	0,015	0,002
-540,466	-69,585	0,027	0,007
-539,452	-121,781	0,053	0,006
-538,437	-64,679	0,068	-0,020
-537,423	-130,123	0,046	0,005
-536,408	515,299	-0,041	-0,070
-535,393	366,560	0,032	0,048
-534,379	176,538	-0,079	0,084
-533,364	149,189	-0,113	0,112
-532,350	-6,478	0,077	-0,038
-531,335	-76,985	-0,114	0,029
-530,321	800,000	0,030	-0,096
-529,306	51,901	0,019	0,013
-528,291	-75,624	-0,122	0,031
-527,277	800,000	0,074	-0,182
-526,262	-200,000	-0,006	-0,040
-525,248	-148,182	0,123	0,007
-524,233	-76,241	-0,114	0,029
-523,218	-200,000	0,022	-0,072
-522,204	-200,000	0,012	-0,154
-521,189	-79,405	-0,098	-0,024
-520,175	53,694	0,033	-0,023
-519,160	-200,000	-0,011	0,153
-518,145	-127,909	0,125	-0,013
-517,131	-200,000	0,006	0,034
-516,116	347,046	0,056	0,080
-515,102	337,873	0,026	-0,037
-514,087	28,098	-0,104	-0,064
-513,072	30,618	-0,087	0,054
-512,058	-200,000	0,003	-0,026
-511,043	71,689	0,053	0,040
-510,029	-200,000	0,004	0,043
-509,014	513,364	0,022	-0,038
-507,999	800,000	0,010	-0,029
-506,985	278,785	-0,041	-0,053
-505,970	-200,000	-0,005	-0,166
-504,956	-89,791	-0,117	-0,025
-503,941	69,302	-0,027	0,020
-502,926	304,508	-0,047	-0,064
-501,912	-200,000	0,027	-0,104
-500,897	671,558	-0,036	0,068
-499,883	-24,719	-0,067	-0,029
-498,868	-200,000	-0,003	-0,136
-497,853	-200,000	0,018	0,093
-496,839	-200,000	-0,037	0,142
-495,824	100,749	0,155	0,132
-494,810	285,640	0,058	0,076
-493,795	-200,000	0,017	0,149
-492,781	113,754	0,054	-0,048
-491,766	139,427	-0,130	-0,125
-490,751	-110,222	0,058	0,009
-489,737	-200,000	-0,018	0,095
-488,722	45,006	0,055	-0,037
-487,708	800,000	0,008	-0,017
-486,693	-200,000	0,078	0,000
-485,678	-200,000	0,011	-0,069
-484,664	35,649	0,051	-0,033
-483,649	-200,000	0,019	-0,122
-482,635	-200,000	0,017	0,061
-481,620	11,051	0,086	0,048
-480,605	20,759	-0,026	-0,016
-479,591	79,356	0,079	0,062
-478,576	-200,000	0,021	0,144
-477,562	-200,000	0,002	-0,105
-476,547	283,677	-0,025	0,033
-475,532	255,334	0,053	-0,067
-474,518	-105,448	0,120	0,020
-473,503	-83,576	-0,152	0,035
-472,489	-94,887	0,132	0,026
-471,474	-166,257	-0,031	-0,001
-470,459	-200,000	0,011	-0,092
-469,445	315,948	-0,041	0,056
-468,430	-41,417	-0,109	-0,041
-467,416	-176,733	-0,087	-0,002
-466,401	465,566	-0,046	0,076
-465,386	-200,000	-0,004	-0,088
-464,372	800,000	0,051	-0,111
-463,357	-68,331	-0,103	0,029
-462,343	55,402	-0,070	-0,049
-461,328	54,751	0,043	0,030
-460,313	-89,354	-0,059	-0,013
-459,299	305,167	0,054	0,074
-458,284	163,673	0,072	0,074
-457,270	-200,000	0,001	-0,038
-456,255	800,000	0,031	-0,086
-455,241	-200,000	-0,030	-0,153
-454,226	-85,507	-0,178	-0,040
-453,211	13,328	0,070	-0,039
-452,197	-200,000	0,007	-0,038
-451,182	147,957	0,050	0,049
-450,168	-25,728	0,100	0,043
-449,153	-57,534	0,065	-0,021
-448,138	356,132	0,045	-0,065
-447,124	-200,000	0,028	-0,095
-446,109	-200,000	0,025	0,141
-445,095	-124,497	0,054	0,006
-444,080	173,105	0,037	0,039
-443,065	702,856	-0,006	0,012
-442,051	-200,000	-0,010	-0,086
-441,036	-200,000	0,010	-0,109
-440,022	-200,000	0,026	0,121
-439,007	-70,670	0,049	-0,013
-437,992	-200,000	-0,012	0,046
-436,978	-200,000	-0,007	0,030
-435,963	480,369	-0,081	0,133
-434,949	64,596	-0,043	0,032
-433,934	38,307	-0,052	-0,033
-432,919	185,178	0,020	0,022
-431,905	31,333	0,027	-0,017
-430,890	-200,000	0,003	0,076
-429,876	168,367	0,096	0,099
-428,861	-102,906	0,017	0,003
-427,846	-68,640	-0,115	-0,032
-426,832	298,262	-0,011	-0,015
-425,817	201,040	-0,147	0,165
-424,803	237,926	-0,048	0,058
-423,788	800,000	-0,010	-0,025
-422,773	-200,000	-0,013	-0,075
-421,759	800,000	-0,082	-0,182
-420,744	800,000	-0,016	-0,039
-419,730	-200,000	0,015	-0,058
-418,715	318,282	0,075	-0,104
-417,701	-164,451	0,010	0,000
-416,686	72,558	0,090	0,068
-415,671	-130,232	0,114	-0,011
-414,657	-181,642	-0,098	0,001
-413,642	484,053	0,033	-0,056
-412,628	-31,853	-0,153	-0,062
-411,613	65,427	-0,138	0,102
-410,598	-56,323	-0,069	-0,022
-409,584	800,000	-0,021	-0,059
-408,569	-200,000	-0,009	0,115
-407,555	-200,000	-0,028	0,239
-406,540	135,424	-0,027	-0,025
-405,525	212,711	-0,077	0,088
-404,511	-200,000	-0,005	0,030
-403,496	-200,000	0,002	-0,041
-402,482	-200,000	0,025	0,093
-401,467	-106,915	0,055	0,009
-400,452	800,000	0,033	0,068
-399,438	165,159	0,034	-0,035
-398,423	271,541	-0,044	0,056
-397,409	-200,000	-0,028	-0,115
-396,394	800,000	-0,020	-0,046
-395,379	562,452	0,037	-0,066
-394,365	800,000	0,062	-0,150
-393,350	-49,844	0,004	0,001
-392,336	-200,000	-0,006	0,109
-391,321	387,644	-0,069	0,104
-390,306	-6,249	-0,087	0,043
-389,292	-16,713	0,017	-0,008
-388,277	-200,000	0,006	0,113
-387,263	376,180	-0,041	-0,061
-386,248	-200,000	-0,032	0,185
-385,233	41,178	0,050	-0,033
-384,219	503,450	0,034	-0,058
-383,204	-81,988	-0,115	-0,027
-382,190	163,905	-0,062	0,063
-381,175	-45,002	0,036	0,013
-380,160	-69,894	-0,155	-0,043
-379,146	800,000	-0,042	0,133
-378,131	-154,672	0,101	0,005
-377,117	23,504	-0,042	0,025
-376,102	-130,040	-0,057	0,006
-375,088	75,263	-0,022	-0,017
-374,073	-44,135	0,117	-0,042
-373,058	-158,319	0,213	0,009
-372,044	719,657	-0,047	0,091
-371,029	165,108	0,088	-0,090
-370,015	-200,000	-0,029	-0,101
-369,000	-111,983	-0,059	0,009
-367,985	258,832	0,030	-0,038
-366,971	800,000	-0,023	0,060
-365,956	-200,000	0,015	0,116
-364,942	91,087	0,016	-0,013
-363,927	800,000	-0,008	-0,019
-362,912	-46,535	-0,126	0,045
-361,898	130,185	0,020	0,018
-360,883	488,564	0,026	0,043
-359,869	353,472	0,003	0,004
-358,854	26,025	0,091	0,055
-357,839	-200,000	0,004	0,062
-356,825	51,721	-0,084	0,058
-355,810	90,012	-0,073	0,059
-354,796	62,463	-0,048	-0,035
-353,781	109,645	0,076	0,066
-352,766	800,000	-0,022	0,068
-351,752	800,000	0,023	-0,058
-350,737	42,454	0,117	0,077
-349,723	-25,991	-0,089	-0,038
-348,708	256,505	0,067	0,083
-347,693	-5,107	0,070	-0,035
-346,679	35,942	-0,085	-0,054
-345,664	123,777	-0,023	-0,021
-344,650	42,095	0,072	0,047
-343,635	-200,000	-0,002	0,095
-342,620	245,600	0,035	-0,042
-341,606	298,278	0,017	-0,023
-340,591	392,201	0,008	-0,013
-339,577	-71,811	-0,101	0,027
-338,562	0,264	0,128	-0,066
-337,548	181,018	-0,019	0,020
-336,533	156,384	0,146	0,147
-335,518	-27,717	0,117	-0,049
-334,504	-13,719	-0,035	0,016
-333,489	-47,970	0,050	-0,017
-332,475	-200,000	0,009	-0,110
-331,460	-43,739	-0,107	0,039
-330,445	-84,122	-0,037	-0,009
-329,431	-200,000	0,046	0,161
-328,416	-16,346	0,162	-0,074
-327,402	-4,874	0,064	0,032
-326,387	-86,060	-0,105	-0,023
-325,372	-200,000	-0,021	0,146
-324,358	-200,000	-0,006	0,107
-323,343	-105,981	-0,100	0,016
-322,329	-200,000	-0,013	-0,144
-321,314	-79,927	0,071	-0,017
-320,299	647,573	0,022	0,040
-319,285	-62,859	-0,061	0,018
-318,270	25,259	-0,026	-0,016
-317,256	-76,426	-0,058	-0,015
-316,241	-200,000	0,002	-0,081
-315,226	98,563	0,048	0,040
-314,212	-130,414	-0,126	-0,012
-313,197	535,745	0,026	-0,046
-312,183	-102,602	-0,083	0,014
-311,168	-43,127	-0,068	-0,025
-310,153	-200,000	-0,029	-0,109
-309,139	-43,871	0,090	0,033
-308,124	106,918	0,073	0,063
-307,110	-166,078	0,030	0,001
-306,095	-24,344	0,111	-0,048
-305,080	557,351	-0,088	-0,154
-304,066	64,897	-0,114	-0,083
-303,051	-200,000	0,016	-0,142
-302,037	800,000	-0,042	-0,125
-301,022	-176,804	0,118	-0,002
-300,008	800,000	0,012	0,030
-298,993	-69,935	0,112	-0,031
-297,978	238,578	-0,069	0,084
-296,964	-21,590	0,145	0,064
-295,949	-200,000	-0,016	-0,105
-294,935	-200,000	-0,007	-0,127
-293,920	-62,053	0,129	0,039
-292,905	-200,000	-0,027	-0,092
-291,891	-117,324	0,115	0,015
-290,876	-200,000	0,012	0,118
-289,862	-200,000	0,030	-0,105
-288,847	-64,163	-0,224	-0,066
-287,832	-200,000	-0,000	0,066
-286,818	-143,478	0,096	0,007
-285,803	800,000	0,027	0,083
-284,789	305,475	0,011	-0,015
-283,774	161,741	-0,035	-0,035
-282,759	-170,109	0,092	0,002
-281,745	364,531	-0,076	0,111
-280,730	-96,338	0,113	0,021
-279,716	800,000	0,031	-0,081
-278,701	264,096	0,075	0,094
-277,686	313,218	0,047	0,064
-276,672	-27,612	-0,010	-0,004
-275,657	800,000	-0,061	0,133
-274,643	-200,000	0,005	-0,066
-273,628	-200,000	0,025	0,110
-272,613	800,000	0,025	-0,063
-271,599	-177,653	0,127	-0,002
-270,584	800,000	0,143	-0,300
-269,570	800,000	-0,042	-0,127
-268,555	41,532	-0,078	-0,051
-267,540	-200,000	-0,012	-0,062
-266,526	-144,037	0,122	0,008
-265,511	800,000	-0,025	-0,051
-264,497	-200,000	0,004	0,017
-263,482	-75,860	0,138	-0,035
-262,467	-14,506	0,034	-0,016
-261,453	602,586	-0,064	0,116
-260,438	202,728	0,011	-0,013
-259,424	91,778	-0,141	-0,115
-258,409	-168,806	0,039	-0,001
-257,395	-200,000	0,012	0,058
-256,380	-200,000	0,023	0,091
-255,365	-200,000	-0,006	0,061
-254,351	271,821	-0,090	-0,115
-253,336	295,375	0,034	-0,045
-252,322	-200,000	-0,003	-0,030
-251,307	-200,000	-0,009	-0,045
-250,292	259,803	-0,062	-0,078
-249,278	800,000	-0,034	0,089
-248,263	-200,000	-0,040	0,219
-247,249	-126,280	0,066	0,007
-246,234	303,776	-0,095	-0,128
-245,219	-200,000	-0,009	-0,080
-244,205	-200,000	-0,009	0,039
-243,190	800,000	-0,012	-0,027
-242,176	-200,000	-0,008	-0,080
-241,161	-200,000	-0,014	-0,121
-240,146	635,072	0,024	-0,045
-239,132	800,000	-0,032	-0,096
-238,117	94,199	-0,121	-0,099
-237,103	-42,952	-0,080	0,029
-236,088	-149,396	0,062	0,004
-235,073	-103,671	0,039	-0,007
-234,059	-110,682	0,133	0,020
-233,044	55,823	-0,108	-0,075
-232,030	32,271	-0,016	0,010
-231,015	473,842	0,022	-0,037
-230,000	-34,759	-0,050	0,020
-228,986	54,753	0,114	-0,079
-227,971	-200,000	-0,016	0,122
-226,957	-139,068	0,133	0,010
-225,942	-56,050	0,037	0,012
-224,927	283,648	0,103	-0,133
-223,913	296,238	0,040	-0,053
-222,898	-140,698	-0,053	0,004
-221,884	60,890	0,097	0,070
-220,869	404,711	-0,024	0,037
-219,855	72,809	0,070	0,053
-218,840	258,321	0,076	0,094
-217,825	53,324	-0,087	0,060
-216,811	503,667	0,034	-0,057
-215,796	116,204	-0,089	0,079
-214,782	131,855	-0,119	0,110
-213,767	-200,000	0,018	0,099
-212,752	10,383	0,130	-0,071
-211,738	-167,110	-0,171	-0,005
-210,723	315,790	-0,051	0,070
-209,709	-6,342	0,083	0,041
-208,694	800,000	-0,033	-0,088
-207,679	-200,000	0,010	-0,089
-206,665	-168,917	0,106	-0,003
-205,650	-111,447	0,107	-0,016
-204,636	56,580	0,102	-0,071
-203,621	-200,000	0,023	-0,075
-202,606	189,242	-0,102	-0,110
-201,592	312,801	-0,096	0,130
-200,577	354,185	0,037	-0,053
-199,563	23,497	-0,079	0,047
-198,548	800,000	0,038	0,103
-197,533	159,270	0,084	0,085
-196,519	-96,653	0,075	-0,014
-195,504	189,347	-0,062	0,068
-194,490	-200,000	0,029	-0,093
-193,475	279,517	0,100	-0,130
-192,460	71,129	0,035	-0,026
-191,446	344,368	0,092	-0,130
-190,431	-0,295	-0,033	-0,017
-189,417	-32,798	-0,152	-0,061
-188,402	-200,000	0,014	-0,061
-187,387	259,236	-0,059	0,073
-186,373	-19,067	0,100	0,045
-185,358	800,000	-0,023	0,065
-184,344	-200,000	-0,007	0,052
-183,329	21,008	0,081	0,047
-182,315	-6,113	0,046	0,022
-181,300	-130,816	-0,093	0,009
-180,285	683,541	-0,031	-0,059
-179,271	41,250	0,064	-0,042
-178,256	335,631	-0,031	-0,043
-177,242	-198,863	-0,097	0,000
-176,227	164,315	-0,047	0,048
-175,212	322,773	-0,082	0,113
-174,198	9,293	-0,172	0,093
-173,183	800,000	-0,085	-0,187
-172,169	359,201	-0,056	-0,082
-171,154	567,613	0,051	-0,090
-170,139	-200,000	-0,000	0,092
-169,125	800,000	0,016	-0,045
-168,110	-200,000	0,028	0,091
-167,096	-116,580	0,075	-0,010
-166,081	-107,074	-0,108	0,017
-165,066	309,956	0,073	-0,099
-164,052	-68,573	0,055	-0,015
-163,037	169,756	-0,049	-0,050
-162,023	261,986	-0,068	0,085
-161,008	-163,045	-0,106	0,004
-159,993	217,625	-0,075	0,086
-158,979	-128,548	-0,081	0,008
-157,964	-200,000	0,015	0,142
-156,950	-200,000	0,016	-0,171
-155,935	-200,000	-0,005	0,036
-154,920	-200,000	0,008	-0,056
-153,906	126,399	0,094	-0,086
-152,891	-126,066	-0,088	-0,009
-151,877	25,156	0,086	0,051
-150,862	150,070	-0,045	0,044
-149,847	-200,000	-0,004	0,046
-148,833	346,728	0,022	0,032
-147,818	20,454	-0,025	0,014
-146,804	800,000	0,029	0,083
-145,789	-200,000	-0,017	-0,057
-144,775	-64,920	-0,128	0,037
-143,760	-122,221	-0,056	0,006
-142,745	540,067	0,069	-0,119
-141,731	-78,269	0,046	-0,011
-140,716	-200,000	0,037	-0,182
-139,702	13,567	-0,022	0,012
-138,687	9,776	0,067	0,036
-137,672	466,332	0,028	0,045
-136,658	-74,692	-0,098	0,025
-135,643	-200,000	-0,022	0,089
-134,629	334,211	-0,029	0,041
-133,614	304,340	-0,057	0,077
-132,599	231,759	-0,082	0,096
-131,585	6,939	0,067	-0,036
-130,570	-52,910	-0,073	-0,024
-129,556	-200,000	-0,008	-0,154
-128,541	800,000	-0,036	-0,113
-127,526	800,000	-0,024	-0,055
-126,512	63,035	0,126	0,091
-125,497	800,000	0,035	0,088
-124,483	60,468	-0,083	0,059
-123,468	58,832	0,092	0,065
-122,453	11,824	-0,120	0,066
-121,439	213,998	-0,024	-0,027
-120,424	8,594	0,072	-0,039
-119,410	800,000	0,049	-0,101
