DTS Sentinel unit serial number:	SN410029Multiplexer serial number:	ORYXHardware model number:	OX2-SRSoftware version number:	ORYX F/W v4,00 Oryx Data Collector v3.7.2.0data status	okinstallation	B5 Nyhavnadifferential loss correction	single-endedforward channel	channel 2reverse channel	N/Adate	2023/12/11time	22:37:13forward acquisition time	300,00reverse acquisition time	0,00gamma	499,1914k internal	0,3156k external	0,3156temperature offset calibration	1,0000default loss term (dB/km)	0,3820temperature slope calibration	1,0000multiplexer offset coefficient	1,0000multiplexer slope coefficient	1,0000fibre end	0,00T internal ref (°C)	16,31T ext. ref 1 (°C)	0,11T ext. ref 2 (°C)	-0,17length (m)	temperature (°C)	Stokes	anti-Stokes-744,400	336,653	-0,044	-0,063
-743,385	-76,248	-0,277	0,071
-742,371	800,000	0,049	0,118
-741,356	226,080	-0,184	0,221
-740,342	-61,282	0,149	0,046
-739,327	-134,616	-0,261	-0,023
-738,312	-85,098	0,107	0,024
-737,298	-77,953	-0,293	0,074
-736,283	108,469	0,105	0,092
-735,269	73,412	-0,192	0,148
-734,254	154,157	0,045	-0,046
-733,239	1,262	-0,389	-0,205
-732,225	-154,505	0,129	-0,006
-731,210	122,418	0,149	0,137
-730,196	43,463	-0,102	-0,069
-729,181	800,000	-0,029	0,092
-728,167	157,805	-0,057	0,058
-727,152	-54,810	-0,175	-0,058
-726,137	-24,488	-0,088	-0,038
-725,123	-159,270	-0,197	-0,008
-724,108	-169,520	-0,126	-0,003
-723,094	-200,000	-0,002	-0,095
-722,079	125,504	-0,085	-0,079
-721,064	-200,000	0,005	-0,023
-720,050	38,613	0,055	-0,036
-719,035	-200,000	0,004	0,042
-718,021	97,154	-0,040	-0,034
-717,006	206,645	0,048	0,056
-715,991	48,485	0,117	0,081
-714,977	-22,425	-0,117	-0,052
-713,962	-180,236	-0,099	-0,001
-712,948	-200,000	0,010	0,151
-711,933	-200,000	0,001	-0,012
-710,918	800,000	-0,071	-0,162
-709,904	575,528	-0,056	-0,102
-708,889	-138,761	-0,051	-0,004
-707,875	-133,897	-0,180	0,016
-706,860	800,000	0,040	-0,097
-705,845	800,000	0,031	-0,079
-704,831	54,574	0,118	-0,084
-703,816	593,822	-0,048	0,088
-702,802	573,328	0,039	0,070
-701,787	153,986	-0,135	-0,137
-700,772	-43,308	0,120	-0,045
-699,758	-79,858	-0,053	-0,013
-698,743	800,000	-0,061	-0,138
-697,729	178,251	-0,068	0,073
-696,714	-30,827	-0,142	0,059
-695,699	59,470	0,020	-0,014
-694,685	-184,245	-0,026	0,000
-693,670	36,491	-0,027	-0,017
-692,656	-200,000	0,018	0,158
-691,641	567,533	-0,008	0,015
-690,627	-200,000	0,018	0,110
-689,612	800,000	-0,043	0,123
-688,597	620,288	0,061	-0,113
-687,583	-200,000	0,017	-0,146
-686,568	29,461	-0,128	0,080
-685,554	-200,000	-0,009	0,092
-684,539	62,822	-0,016	-0,011
-683,524	12,420	-0,039	0,022
-682,510	-153,307	-0,049	-0,002
-681,495	-200,000	-0,008	0,057
-680,481	237,789	-0,062	-0,076
-679,466	103,264	-0,202	-0,174
-678,451	-200,000	-0,024	0,200
-677,437	-89,375	-0,012	-0,003
-676,422	-200,000	0,028	0,105
-675,408	800,000	-0,046	0,115
-674,393	44,041	0,054	-0,036
-673,378	-200,000	-0,028	-0,141
-672,364	-200,000	-0,018	0,135
-671,349	-200,000	-0,014	0,071
-670,335	319,907	-0,043	-0,060
-669,320	800,000	-0,028	-0,090
-668,305	-113,312	-0,074	-0,011
-667,291	800,000	0,024	-0,072
-666,276	-200,000	0,007	0,037
-665,262	136,368	-0,088	-0,084
-664,247	-22,745	-0,085	-0,038
-663,232	37,026	-0,026	0,017
-662,218	-38,266	0,067	0,026
-661,203	-200,000	-0,002	0,041
-660,189	251,226	0,041	0,052
-659,174	82,084	-0,126	-0,100
-658,159	-54,065	-0,089	-0,030
-657,145	800,000	-0,053	-0,162
-656,130	-157,426	-0,095	-0,004
-655,116	-41,823	-0,137	0,051
-654,101	-47,781	-0,038	0,014
-653,086	-53,198	-0,086	0,029
-652,072	-200,000	0,003	-0,066
-651,057	466,376	-0,027	-0,045
-650,043	-200,000	-0,018	-0,139
-649,028	-200,000	-0,006	-0,087
-648,014	800,000	0,053	0,114
-646,999	-200,000	-0,013	0,137
-645,984	-22,273	-0,079	-0,035
-644,970	-200,000	0,030	-0,115
-643,955	-2,934	-0,115	0,059
-642,941	107,235	-0,057	-0,050
-641,926	800,000	0,062	0,147
-640,911	335,235	-0,034	0,048
-639,897	-200,000	-0,016	-0,159
-638,882	-200,000	-0,013	0,174
-637,868	217,688	0,013	-0,015
-636,853	800,000	-0,048	-0,149
-635,838	55,801	0,034	-0,024
-634,824	54,399	0,099	0,070
-633,809	-45,812	0,084	-0,030
-632,795	800,000	-0,012	-0,035
-631,780	-200,000	0,025	0,093
-630,765	-49,054	-0,011	0,004
-629,751	-200,000	0,009	-0,036
-628,736	152,387	-0,108	-0,109
-627,722	90,802	0,008	-0,007
-626,707	800,000	0,005	0,012
-625,692	-179,703	-0,062	0,001
-624,678	-200,000	0,006	-0,080
-623,663	319,608	0,036	-0,050
-622,649	251,565	-0,026	-0,032
-621,634	-192,495	-0,047	0,000
-620,619	-200,000	-0,043	-0,154
-619,605	66,519	-0,015	-0,011
-618,590	-86,890	0,023	-0,005
-617,576	800,000	0,048	0,105
-616,561	139,372	0,040	0,038
-615,546	265,931	-0,066	-0,085
-614,532	292,434	-0,056	-0,075
-613,517	-118,094	-0,017	-0,002
-612,503	-200,000	-0,014	0,058
-611,488	68,767	-0,079	-0,060
-610,474	-200,000	-0,061	-0,206
-609,459	800,000	-0,008	0,018
-608,444	800,000	0,065	-0,197
-607,430	196,094	0,043	-0,048
-606,415	-6,506	0,094	-0,047
-605,401	-200,000	-0,002	0,141
-604,386	243,540	-0,062	0,076
-603,371	-51,537	-0,086	0,029
-602,357	30,939	0,100	0,063
-601,342	546,618	0,066	-0,117
-600,328	-27,245	-0,082	-0,035
-599,313	-25,018	0,122	-0,053
-598,298	53,116	0,065	0,045
-597,284	73,235	0,063	-0,048
-596,269	-27,259	0,010	-0,004
-595,255	248,697	-0,079	0,099
-594,240	-200,000	-0,017	-0,076
-593,225	555,315	-0,039	-0,069
-592,211	172,525	0,088	-0,093
-591,196	-190,082	-0,097	-0,001
-590,182	-40,951	-0,116	-0,044
-589,167	-134,696	-0,138	-0,012
-588,152	79,365	0,020	-0,016
-587,138	-200,000	0,010	0,141
-586,123	-200,000	-0,019	-0,130
-585,109	-200,000	-0,008	-0,098
-584,094	-200,000	-0,013	0,186
-583,079	-200,000	-0,034	-0,163
-582,065	-200,000	-0,013	-0,144
-581,050	800,000	-0,043	0,125
-580,036	36,682	0,253	-0,163
-579,021	71,440	0,067	0,051
-578,006	611,563	0,009	0,017
-576,992	-58,392	-0,068	0,022
-575,977	-71,906	-0,050	-0,014
-574,963	-200,000	-0,018	-0,131
-573,948	66,044	-0,175	-0,130
-572,934	62,658	-0,069	0,050
-571,919	800,000	0,048	-0,100
-570,904	800,000	-0,064	-0,133
-569,890	97,315	-0,041	0,034
-568,875	294,661	0,014	0,019
-567,861	-32,316	0,127	-0,052
-566,846	800,000	0,050	0,133
-565,831	165,885	-0,068	0,071
-564,817	498,014	-0,079	-0,133
-563,802	-116,144	-0,115	-0,016
-562,788	56,529	-0,148	0,105
-561,773	88,152	-0,058	0,047
-560,758	0,364	0,078	0,041
-559,744	-200,000	-0,012	0,127
-558,729	19,592	0,075	0,044
-557,715	16,618	0,125	-0,072
-556,700	-52,999	-0,115	-0,039
-555,685	143,986	-0,116	-0,114
-554,671	137,067	-0,074	-0,071
-553,656	384,465	-0,045	-0,069
-552,642	187,061	-0,061	-0,067
-551,627	-85,655	-0,227	0,051
-550,612	426,081	0,013	0,021
-549,598	-1,102	0,051	-0,026
-548,583	54,277	-0,046	-0,033
-547,569	-200,000	0,003	-0,043
-546,554	-90,255	0,053	0,011
-545,539	159,488	0,108	0,111
-544,525	-100,790	0,096	-0,017
-543,510	-112,718	-0,014	0,002
-542,496	1,998	-0,221	-0,116
-541,481	-4,100	-0,022	-0,011
-540,466	-90,899	0,114	0,024
-539,452	-34,289	-0,071	0,028
-538,437	206,797	0,074	-0,085
-537,423	40,571	-0,074	-0,049
-536,408	-200,000	0,004	-0,107
-535,393	800,000	-0,026	-0,072
-534,379	9,222	-0,119	-0,066
-533,364	85,817	0,066	-0,053
-532,350	-151,955	-0,062	-0,003
-531,335	26,057	-0,030	0,018
-530,321	131,087	-0,090	0,085
-529,306	-153,701	-0,115	-0,006
-528,291	663,799	0,034	-0,064
-527,277	178,893	-0,011	-0,012
-526,262	-71,117	-0,144	-0,039
-525,248	-72,137	0,119	0,032
-524,233	380,976	-0,038	0,057
-523,218	282,918	0,077	-0,101
-522,204	-45,648	-0,178	-0,064
-521,189	-200,000	-0,001	-0,069
-520,175	-200,000	-0,004	-0,050
-519,160	-138,316	-0,059	0,005
-518,145	341,810	0,120	0,171
-517,131	716,753	0,027	-0,052
-516,116	-200,000	-0,038	0,233
-515,102	-103,942	0,120	-0,020
-514,087	-200,000	-0,010	-0,100
-513,072	-94,679	-0,079	-0,016
-512,058	-200,000	0,016	-0,119
-511,043	598,990	0,064	-0,117
-510,029	37,163	-0,038	0,025
-509,014	116,101	0,134	-0,120
-507,999	-200,000	0,000	-0,063
-506,985	376,227	-0,096	-0,144
-505,970	192,323	-0,131	-0,145
-504,956	-161,640	-0,211	-0,008
-503,941	302,835	-0,034	0,045
-502,926	800,000	0,075	0,186
-501,912	-200,000	-0,037	0,128
-500,897	-200,000	-0,019	-0,062
-499,883	54,993	0,097	0,068
-498,868	-200,000	0,015	-0,097
-497,853	800,000	0,052	-0,117
-496,839	204,785	-0,077	0,087
-495,824	-200,000	0,014	0,069
-494,810	56,871	-0,060	0,043
-493,795	239,927	0,060	-0,073
-492,781	243,434	-0,063	-0,077
-491,766	-3,404	-0,012	0,006
-490,751	-25,490	0,049	0,021
-489,737	6,975	-0,101	-0,055
-488,722	69,784	-0,066	0,050
-487,708	-200,000	0,006	0,126
-486,693	800,000	0,057	0,159
-485,678	52,515	0,075	-0,052
-484,664	227,257	-0,083	0,098
-483,649	26,852	-0,080	-0,049
-482,635	353,146	0,052	0,076
-481,620	-67,958	-0,062	-0,018
-480,605	46,284	0,150	0,102
-479,591	-99,311	-0,059	0,011
-478,576	-200,000	-0,028	-0,091
-477,562	448,420	0,034	-0,054
-476,547	800,000	-0,053	-0,116
-475,532	-200,000	-0,016	0,086
-474,518	463,898	0,009	0,015
-473,503	217,031	0,055	0,064
-472,489	-200,000	-0,001	0,118
-471,474	160,163	0,108	-0,110
-470,459	800,000	-0,016	-0,036
-469,445	200,830	-0,103	-0,115
-468,430	-102,019	0,080	-0,014
-467,416	800,000	-0,030	0,076
-466,401	-200,000	0,036	0,141
-465,386	-200,000	0,002	0,057
-464,372	172,494	0,025	0,026
-463,357	50,100	0,057	0,039
-462,343	574,976	-0,069	-0,123
-461,328	-200,000	0,004	-0,112
-460,313	48,943	-0,041	-0,028
-459,299	77,151	0,059	-0,046
-458,284	-86,008	0,051	-0,011
-457,270	466,245	0,042	0,068
-456,255	-200,000	0,001	-0,067
-455,241	129,466	0,103	-0,096
-454,226	289,492	-0,026	0,035
-453,211	201,359	0,076	0,086
-452,197	160,789	0,115	0,117
-451,182	-196,711	0,043	0,000
-450,168	227,108	-0,052	-0,061
-449,153	800,000	0,032	-0,065
-448,138	-66,375	0,036	0,010
-447,124	310,234	0,022	0,031
-446,109	-16,795	-0,091	-0,042
-445,095	59,580	0,062	0,044
-444,080	384,687	0,064	0,096
-443,065	498,018	0,070	0,118
-442,051	-154,089	-0,139	-0,007
-441,036	-163,596	-0,151	-0,005
-440,022	23,000	-0,040	-0,024
-439,007	183,746	0,051	-0,055
-437,992	18,833	0,068	-0,040
-436,978	-200,000	-0,015	0,054
-435,963	-200,000	0,008	0,086
-434,949	-119,876	-0,106	-0,013
-433,934	-127,637	-0,134	-0,014
-432,919	212,831	0,064	0,074
-431,905	800,000	-0,056	0,121
-430,890	-71,851	0,148	0,040
-429,876	-129,394	0,046	0,005
-428,861	-71,652	0,181	0,049
-427,846	294,839	-0,052	0,069
-426,832	-84,135	0,051	0,012
-425,817	342,815	0,030	-0,042
-424,803	-164,907	-0,081	0,003
-423,788	-84,869	0,023	-0,005
-422,773	-200,000	0,020	-0,155
-421,759	800,000	0,038	0,102
-420,744	-200,000	0,029	-0,132
-419,730	-200,000	0,010	-0,046
-418,715	800,000	-0,037	-0,091
-417,701	300,705	-0,017	-0,023
-416,686	482,248	-0,029	0,048
-415,671	800,000	0,040	0,084
-414,657	800,000	0,051	0,105
-413,642	184,336	0,013	0,014
-412,628	-141,639	-0,166	-0,012
-411,613	-109,391	0,016	0,002
-410,598	800,000	0,010	0,024
-409,584	-200,000	-0,002	0,036
-408,569	800,000	0,039	0,122
-407,555	47,969	0,086	-0,059
-406,540	-200,000	-0,007	-0,031
-405,525	-146,994	0,048	0,003
-404,511	-200,000	-0,041	-0,169
-403,496	82,603	0,020	0,016
-402,482	-12,755	0,023	-0,011
-401,467	-200,000	-0,004	0,069
-400,452	445,455	0,022	0,035
-399,438	-200,000	0,014	0,100
-398,423	86,964	-0,052	-0,042
-397,409	-17,174	-0,002	-0,001
-396,394	116,899	0,077	-0,069
-395,379	144,303	0,101	0,099
-394,365	37,260	-0,049	0,032
-393,350	-109,632	0,094	-0,014
-392,336	-85,980	-0,094	0,021
-391,321	534,578	0,072	-0,125
-390,306	-95,256	0,119	-0,023
-389,292	-139,648	0,079	-0,006
-388,277	371,622	0,008	-0,012
-387,263	634,305	0,058	0,108
-386,248	618,876	0,039	-0,072
-385,233	-200,000	0,000	-0,028
-384,219	-116,558	-0,078	-0,010
-383,204	755,920	-0,038	-0,076
-382,190	432,327	-0,082	-0,130
-381,175	-200,000	0,031	-0,124
-380,160	-68,793	-0,020	0,005
-379,146	186,122	-0,032	0,035
-378,131	96,683	0,050	-0,042
-377,117	800,000	-0,020	0,056
-376,102	-200,000	-0,024	0,135
-375,088	48,043	0,082	-0,056
-374,073	256,646	0,077	0,096
-373,058	-200,000	0,004	0,022
-372,044	-200,000	-0,014	-0,070
-371,029	319,315	0,094	0,130
-370,015	-159,409	0,141	-0,006
-369,000	184,780	-0,073	0,079
-367,985	333,917	-0,088	-0,124
-366,971	-200,000	0,009	-0,052
-365,956	161,935	0,053	-0,054
-364,942	-34,862	0,035	-0,014
-363,927	-148,373	0,136	0,008
-362,912	-70,673	-0,184	-0,050
-361,898	-200,000	-0,002	-0,103
-360,883	-23,452	-0,102	-0,044
-359,869	47,821	-0,060	0,041
-358,854	-140,561	0,080	0,006
-357,839	261,224	0,050	0,063
-356,825	800,000	-0,043	0,093
-355,810	71,495	0,016	-0,012
-354,796	69,087	-0,146	-0,109
-353,781	58,489	-0,114	0,081
-352,766	-48,656	0,065	-0,022
-351,752	2,158	0,085	-0,044
-350,737	78,363	0,075	-0,058
-349,723	-200,000	-0,008	0,040
-348,708	-137,792	0,062	-0,005
-347,693	356,201	-0,035	0,051
-346,679	-200,000	-0,010	-0,055
-345,664	55,604	-0,076	0,054
-344,650	-96,931	0,097	0,018
-343,635	358,187	0,059	0,085
-342,620	800,000	0,041	0,112
-341,606	800,000	-0,033	0,091
-340,591	220,896	-0,083	0,097
-339,577	-200,000	0,005	-0,029
-338,562	-52,336	-0,106	-0,035
-337,548	41,530	0,079	-0,052
-336,533	800,000	0,023	0,047
-335,518	800,000	-0,047	0,136
-334,504	-120,861	-0,082	-0,010
-333,489	-200,000	-0,017	0,076
-332,475	42,908	0,033	0,022
-331,460	92,975	0,078	0,064
-330,445	-200,000	0,012	0,044
-329,431	334,306	0,080	-0,112
-328,416	268,047	-0,066	-0,084
-327,402	613,221	0,069	0,125
-326,387	395,990	-0,028	0,042
-325,372	169,620	0,070	-0,072
-324,358	166,208	0,091	-0,094
-323,343	-200,000	-0,021	-0,132
-322,329	48,229	-0,141	0,095
-321,314	-102,560	0,109	0,019
-320,299	-200,000	-0,030	-0,101
-319,285	-99,612	-0,035	0,006
-318,270	-200,000	0,008	0,104
-317,256	-200,000	0,012	0,084
-316,241	-61,388	0,080	0,024
-315,226	-150,263	-0,133	0,007
-314,212	-126,368	0,129	-0,014
-313,197	100,381	0,040	0,034
-312,183	155,827	0,065	-0,065
-311,168	-12,861	-0,061	0,029
-310,153	-200,000	0,008	0,056
-309,139	144,561	-0,075	-0,072
-308,124	170,035	0,039	0,040
-307,110	-28,653	0,136	0,057
-306,095	-200,000	0,011	0,065
-305,080	800,000	0,025	0,068
-304,066	-38,287	-0,152	0,058
-303,051	202,339	0,035	-0,040
-302,037	155,499	-0,075	-0,075
-301,022	800,000	0,016	0,044
-300,008	-200,000	-0,018	-0,066
-298,993	-15,944	0,047	-0,022
-297,978	-14,876	0,117	0,054
-296,964	-183,068	0,076	0,001
-295,949	188,408	-0,081	0,088
-294,935	392,670	-0,015	-0,023
-293,920	337,446	0,018	-0,026
-292,905	-200,000	0,017	0,060
-291,891	800,000	0,034	0,081
-290,876	800,000	0,037	0,079
-289,862	-146,105	-0,096	0,006
-288,847	-200,000	-0,032	-0,123
-287,832	-106,736	-0,147	-0,023
-286,818	800,000	-0,056	0,150
-285,803	54,321	0,072	0,050
-284,789	-152,452	-0,108	-0,006
-283,774	-84,407	-0,050	0,011
-282,759	113,252	0,037	0,033
-281,745	171,337	-0,057	-0,059
-280,730	-102,702	0,111	-0,019
-279,716	77,969	-0,085	-0,066
-278,701	21,750	0,066	-0,039
-277,686	-166,005	0,093	0,003
-276,672	74,836	-0,092	0,070
-275,657	99,223	-0,030	0,025
-274,643	-200,000	0,016	-0,148
-273,628	-200,000	-0,007	-0,101
-272,613	331,939	-0,069	-0,096
-271,599	211,884	0,060	0,069
-270,584	800,000	0,030	0,062
-269,570	-69,491	-0,054	0,015
-268,555	800,000	0,038	0,106
-267,540	338,943	-0,057	0,080
-266,526	-102,751	-0,120	-0,020
-265,511	-24,939	0,157	-0,067
-264,497	106,181	-0,076	0,065
-263,482	-72,910	-0,107	0,028
-262,467	-67,157	0,010	-0,003
-261,453	131,704	0,020	0,018
-260,438	262,892	-0,074	-0,093
-259,424	-104,590	0,109	-0,018
-258,409	486,944	0,059	-0,097
-257,395	-3,324	0,083	0,041
-256,380	134,672	-0,015	0,014
-255,365	-72,899	0,027	0,007
-254,351	220,897	0,027	0,031
-253,336	729,267	0,040	-0,077
-252,322	415,418	-0,074	-0,115
-251,307	73,389	-0,081	-0,061
-250,292	-200,000	0,001	-0,118
-249,278	-200,000	-0,018	0,147
-248,263	218,440	-0,022	0,026
-247,249	800,000	0,021	0,050
-246,234	-121,287	-0,039	0,005
-245,219	-200,000	0,019	0,087
-244,205	-200,000	0,003	-0,052
-243,190	-200,000	0,014	-0,050
-242,176	150,123	0,023	0,023
-241,161	208,185	0,081	0,092
-240,146	800,000	0,070	0,146
-239,132	-122,904	-0,178	0,021
-238,117	337,336	0,027	0,038
-237,103	-200,000	-0,007	-0,071
-236,088	446,138	-0,054	0,087
-235,073	696,909	-0,033	-0,063
-234,059	435,739	-0,033	0,052
-233,044	433,713	-0,084	0,133
-232,030	800,000	-0,022	-0,059
-231,015	362,295	0,029	-0,043
-230,000	659,051	-0,042	-0,079
-228,986	181,272	0,042	-0,045
-227,971	790,076	-0,048	0,095
-226,957	-37,408	0,091	-0,035
-225,942	-172,280	-0,095	0,002
-224,927	-39,575	0,031	-0,012
-223,913	-23,795	-0,036	-0,016
-222,898	-51,078	0,141	-0,047
-221,884	741,810	0,008	0,016
-220,869	-33,737	0,086	0,034
-219,855	-123,396	0,111	0,013
-218,840	-113,580	0,040	0,006
-217,825	128,785	0,036	0,033
-216,811	-200,000	0,011	0,090
-215,796	800,000	0,035	0,110
-214,782	-8,803	-0,097	-0,047
-213,767	466,390	-0,044	-0,072
-212,752	-200,000	-0,011	0,227
-211,738	177,388	0,041	0,043
-210,723	249,918	0,035	-0,043
-209,709	-200,000	-0,009	-0,143
-208,694	-13,752	-0,122	-0,057
-207,679	206,538	0,067	0,076
-206,665	-78,672	0,156	-0,038
-205,650	-3,508	0,032	-0,016
-204,636	11,810	0,156	0,086
-203,621	111,259	0,088	0,077
-202,606	-162,327	-0,172	0,006
-201,592	-45,228	-0,103	0,037
-200,577	800,000	-0,032	-0,078
-199,563	-200,000	0,015	-0,093
-198,548	-97,374	0,062	-0,012
-197,533	800,000	0,038	0,086
-196,519	-200,000	-0,005	-0,060
-195,504	-187,028	0,079	-0,001
-194,490	229,745	-0,045	0,053
-193,475	104,164	0,093	-0,079
-192,460	619,370	-0,019	0,034
-191,446	153,288	-0,071	0,070
-190,431	800,000	0,062	0,142
-189,417	800,000	-0,026	0,068
-188,402	-200,000	-0,010	0,087
-187,387	800,000	0,017	0,034
-186,373	-134,816	-0,042	-0,004
-185,358	68,860	-0,080	0,059
-184,344	97,871	0,035	0,029
-183,329	169,292	0,073	0,075
-182,315	800,000	-0,037	0,079
-181,300	83,518	0,074	-0,058
-180,285	-200,000	-0,007	-0,070
-179,271	559,620	-0,036	-0,063
-178,256	-200,000	-0,027	0,103
-177,242	800,000	0,065	0,187
-176,227	-109,252	0,160	-0,024
-175,212	-200,000	0,011	-0,155
-174,198	-26,722	-0,068	-0,028
-173,183	-40,018	-0,038	-0,014
-172,169	-200,000	0,016	0,160
-171,154	747,959	-0,018	0,035
-170,139	420,445	0,056	0,087
-169,125	41,167	0,018	0,011
-168,110	-200,000	0,004	-0,068
-167,096	45,828	0,099	-0,066
-166,081	-200,000	-0,031	-0,143
-165,066	398,402	-0,034	0,051
-164,052	-112,950	-0,099	-0,014
-163,037	-9,001	-0,040	-0,019
-162,023	643,994	0,063	0,116
-161,008	42,750	-0,010	0,006
-159,993	-153,596	0,044	-0,002
-158,979	24,545	0,062	-0,037
-157,964	-36,729	-0,078	0,030
-156,950	800,000	0,030	-0,093
-155,935	-200,000	-0,014	-0,050
-154,920	474,994	0,070	0,115
-153,906	139,884	0,136	0,129
-152,891	-138,540	0,095	0,007
-151,877	-128,971	0,029	0,003
-150,862	-200,000	-0,015	-0,053
-149,847	800,000	-0,032	0,074
-148,833	-200,000	0,017	-0,056
-147,818	123,043	0,147	0,133
-146,804	-53,409	0,127	0,042
-145,789	93,810	0,061	0,050
-144,775	183,165	0,019	-0,020
-143,760	-161,924	0,010	0,000
-142,745	-139,842	0,060	0,005
-141,731	-133,169	0,068	-0,006
-140,716	-118,833	-0,043	0,005
-139,702	-46,115	0,117	-0,041
-138,687	174,885	0,021	-0,022
-137,672	800,000	0,036	-0,085
-136,658	262,152	-0,045	0,057
-135,643	800,000	0,027	-0,072
-134,629	-89,420	0,142	0,030
-133,614	396,038	-0,039	0,059
-132,599	89,216	-0,057	-0,046
-131,585	224,086	0,039	0,045
-130,570	-127,231	-0,178	0,018
-129,556	467,953	-0,038	0,061
-128,541	-157,997	-0,111	0,005
-127,526	-133,706	-0,059	-0,005
-126,512	-200,000	0,004	-0,080
-125,497	-30,217	-0,071	0,029
-124,483	-12,708	-0,053	0,025
-123,468	800,000	-0,039	0,098
-122,453	-79,522	0,107	-0,026
-121,439	47,703	-0,084	0,057
-120,424	-200,000	0,023	-0,079
-119,410	800,000	-0,010	-0,029
