DTS Sentinel unit serial number:	SN410029Multiplexer serial number:	ORYXHardware model number:	OX2-SRSoftware version number:	ORYX F/W v4,00 Oryx Data Collector v3.7.2.0data status	okinstallation	B5 Nyhavnadifferential loss correction	single-endedforward channel	channel 2reverse channel	N/Adate	2023/12/13time	22:12:13forward acquisition time	300,00reverse acquisition time	0,00gamma	499,1914k internal	0,3154k external	0,3154temperature offset calibration	1,0000default loss term (dB/km)	0,3820temperature slope calibration	1,0000multiplexer offset coefficient	1,0000multiplexer slope coefficient	1,0000fibre end	0,00T internal ref (°C)	9,52T ext. ref 1 (°C)	-7,14T ext. ref 2 (°C)	-7,19length (m)	temperature (°C)	Stokes	anti-Stokes-744,400	800,000	0,091	0,189
-743,385	-75,363	-0,273	0,071
-742,371	39,697	0,147	0,097
-741,356	-91,653	-0,338	-0,070
-740,342	168,384	0,072	0,076
-739,327	-14,932	-0,331	-0,156
-738,312	800,000	0,010	0,033
-737,298	-58,843	-0,476	-0,151
-736,283	169,166	0,069	-0,073
-735,269	-24,793	-0,221	-0,097
-734,254	-200,000	0,019	0,195
-733,239	27,708	-0,467	-0,290
-732,225	130,609	0,250	0,237
-731,210	-200,000	0,024	0,125
-730,196	-4,283	0,068	0,035
-729,181	-25,496	-0,164	0,071
-728,167	-94,408	-0,016	-0,003
-727,152	800,000	0,030	-0,085
-726,137	-43,953	-0,097	-0,036
-725,123	800,000	-0,056	-0,141
-724,108	-0,801	-0,127	-0,066
-723,094	-31,976	-0,140	-0,058
-722,079	378,448	0,022	0,033
-721,064	259,408	0,031	-0,040
-720,050	800,000	-0,056	0,116
-719,035	-200,000	-0,011	-0,040
-718,021	-159,189	-0,074	-0,003
-717,006	770,308	-0,071	-0,143
-715,991	363,069	-0,090	-0,134
-714,977	203,248	-0,082	-0,094
-713,962	72,193	-0,075	0,058
-712,948	117,519	0,122	-0,110
-711,933	167,521	0,049	0,051
-710,918	70,444	-0,108	-0,082
-709,904	725,860	-0,018	0,036
-708,889	-35,288	-0,112	-0,045
-707,875	354,448	-0,067	-0,098
-706,860	-2,311	-0,145	-0,075
-705,845	147,654	-0,061	0,060
-704,831	-20,057	0,133	0,060
-703,816	-200,000	-0,019	0,098
-702,802	650,559	0,042	0,079
-701,787	-122,551	-0,093	0,011
-700,772	-168,732	-0,096	0,003
-699,758	2,929	-0,039	-0,021
-698,743	221,647	-0,020	0,023
-697,729	602,908	0,018	0,034
-696,714	-200,000	0,012	0,070
-695,699	-2,821	-0,074	-0,038
-694,685	89,739	0,091	0,075
-693,670	-25,125	-0,066	-0,029
-692,656	-200,000	0,002	-0,100
-691,641	170,401	-0,059	-0,062
-690,627	115,608	-0,054	0,049
-689,612	-200,000	0,003	-0,073
-688,597	16,158	-0,025	0,014
-687,583	266,127	-0,031	-0,040
-686,568	-200,000	-0,014	-0,075
-685,554	800,000	-0,030	0,083
-684,539	-53,017	-0,090	-0,030
-683,524	129,041	-0,083	0,078
-682,510	-163,184	-0,142	-0,005
-681,495	-200,000	-0,004	-0,091
-680,481	43,671	0,051	0,034
-679,466	103,353	-0,117	0,101
-678,451	562,006	-0,027	0,049
-677,437	324,031	0,042	-0,059
-676,422	-157,936	-0,072	0,003
-675,408	800,000	-0,055	0,159
-674,393	-26,172	0,168	-0,072
-673,378	-32,794	-0,098	-0,040
-672,364	-132,792	-0,078	-0,007
-671,349	-129,605	-0,245	-0,025
-670,335	-59,877	0,187	0,058
-669,320	107,953	-0,058	0,051
-668,305	800,000	-0,009	-0,021
-667,291	413,332	-0,062	0,097
-666,276	9,094	-0,064	0,035
-665,262	-200,000	-0,007	0,061
-664,247	-87,766	-0,207	0,046
-663,232	-117,655	0,100	0,013
-662,218	-178,534	0,145	0,002
-661,203	-91,398	0,096	0,020
-660,189	-200,000	-0,006	0,038
-659,174	800,000	-0,023	0,060
-658,159	-200,000	0,014	-0,119
-657,145	112,613	-0,095	-0,085
-656,130	-61,028	0,017	0,005
-655,116	325,060	0,074	-0,105
-654,101	-200,000	0,010	-0,039
-653,086	-200,000	0,015	-0,194
-652,072	440,805	-0,100	-0,161
-651,057	-65,445	0,087	-0,026
-650,043	1,137	0,061	0,032
-649,028	800,000	0,040	-0,103
-648,014	-185,602	0,043	0,000
-646,999	313,372	0,049	-0,068
-645,984	442,009	0,058	-0,093
-644,970	7,958	-0,113	-0,062
-643,955	-16,917	0,049	-0,023
-642,941	452,538	0,086	-0,140
-641,926	352,300	0,042	-0,061
-640,911	91,414	-0,055	-0,045
-639,897	19,774	-0,056	0,033
-638,882	384,430	0,038	0,058
-637,868	14,259	0,097	0,055
-636,853	58,562	-0,119	0,086
-635,838	-8,972	-0,086	-0,042
-634,824	-200,000	0,027	-0,174
-633,809	-200,000	-0,006	0,061
-632,795	154,205	-0,101	0,102
-631,780	196,486	0,137	-0,154
-630,765	360,947	-0,020	0,030
-629,751	-92,862	-0,065	-0,013
-628,736	-200,000	0,016	0,084
-627,722	800,000	-0,038	0,116
-626,707	-200,000	0,011	0,060
-625,692	-200,000	0,013	0,138
-624,678	-119,260	-0,098	-0,012
-623,663	-200,000	-0,023	-0,120
-622,649	-170,414	-0,034	-0,001
-621,634	-138,310	0,016	-0,001
-620,619	-200,000	0,029	-0,115
-619,605	-200,000	-0,008	0,053
-618,590	415,656	-0,040	0,063
-617,576	-200,000	0,031	-0,134
-616,561	-200,000	-0,021	0,138
-615,546	-200,000	0,021	0,126
-614,532	-200,000	0,005	-0,138
-613,517	-200,000	0,010	-0,151
-612,503	399,039	0,066	0,102
-611,488	29,400	-0,044	-0,028
-610,474	800,000	0,030	-0,086
-609,459	12,432	-0,152	-0,086
-608,444	-200,000	0,001	0,097
-607,430	-200,000	-0,015	-0,051
-606,415	275,303	-0,053	0,069
-605,401	204,901	-0,044	0,051
-604,386	-144,099	0,073	-0,005
-603,371	121,580	-0,043	0,040
-602,357	292,924	0,105	-0,141
-601,342	800,000	-0,062	-0,131
-600,328	97,716	0,026	-0,022
-599,313	522,803	0,057	-0,098
-598,298	31,990	-0,145	0,091
-597,284	96,978	0,130	-0,109
-596,269	-53,224	0,052	0,018
-595,255	-47,187	-0,258	-0,092
-594,240	19,769	-0,138	-0,081
-593,225	485,006	-0,029	0,048
-592,211	111,616	-0,073	0,065
-591,196	-62,381	0,021	0,006
-590,182	-141,107	0,108	0,008
-589,167	69,506	-0,074	0,056
-588,152	800,000	0,062	-0,141
-587,138	101,613	-0,026	0,022
-586,123	295,404	0,075	-0,101
-585,109	346,465	-0,030	-0,043
-584,094	800,000	0,017	-0,052
-583,079	57,138	0,057	0,041
-582,065	4,116	-0,055	-0,030
-581,050	189,391	-0,032	0,035
-580,036	490,409	-0,019	-0,031
-579,021	-151,128	0,119	-0,006
-578,006	85,902	0,011	-0,009
-576,992	357,019	-0,058	-0,085
-575,977	-179,669	0,050	0,001
-574,963	413,505	-0,076	0,119
-573,948	140,397	-0,057	-0,055
-572,934	-39,478	-0,075	0,029
-571,919	-127,636	-0,128	0,013
-570,904	90,524	0,101	-0,083
-569,890	15,074	0,159	-0,091
-568,875	800,000	-0,064	0,190
-567,861	800,000	-0,059	0,124
-566,846	32,606	0,055	-0,035
-565,831	-145,247	0,028	0,002
-564,817	-132,170	-0,056	0,005
-563,802	15,392	0,049	-0,028
-562,788	-200,000	-0,030	-0,149
-561,773	320,822	-0,014	0,020
-560,758	246,559	0,118	0,146
-559,744	-114,276	-0,133	0,019
-558,729	83,818	-0,048	-0,038
-557,715	-86,482	-0,129	-0,029
-556,700	-200,000	0,002	-0,107
-555,685	25,240	0,003	0,002
-554,671	116,852	0,023	0,020
-553,656	242,287	0,112	0,137
-552,642	-200,000	-0,005	0,091
-551,627	800,000	0,032	0,067
-550,612	31,106	-0,035	0,022
-549,598	-200,000	0,007	-0,114
-548,583	-200,000	-0,004	-0,090
-547,569	-5,343	0,115	0,057
-546,554	341,511	-0,060	0,086
-545,539	22,478	-0,076	-0,046
-544,525	619,594	0,082	0,152
-543,510	800,000	-0,047	0,099
-542,496	-22,534	-0,098	0,043
-541,481	114,385	-0,044	-0,039
-540,466	-200,000	-0,006	0,024
-539,452	-200,000	-0,014	0,047
-538,437	106,319	0,100	-0,087
-537,423	-14,679	0,076	0,035
-536,408	-30,522	-0,061	0,025
-535,393	-74,092	-0,095	0,025
-534,379	-131,072	-0,090	0,009
-533,364	-92,297	0,115	-0,024
-532,350	387,398	0,101	0,153
-531,335	-200,000	0,004	-0,090
-530,321	147,252	0,061	0,060
-529,306	-67,621	-0,132	0,037
-528,291	800,000	-0,058	-0,129
-527,277	-200,000	-0,001	0,041
-526,262	-44,773	-0,044	0,016
-525,248	16,859	0,053	0,030
-524,233	-26,783	0,069	-0,030
-523,218	-126,347	0,131	-0,014
-522,204	-17,236	0,047	-0,021
-521,189	800,000	-0,042	0,105
-520,175	-200,000	-0,018	-0,083
-519,160	192,515	-0,068	0,075
-518,145	77,646	0,120	0,093
-517,131	30,149	-0,093	0,058
-516,116	-91,769	0,095	0,019
-515,102	62,938	0,100	0,073
-514,087	-22,697	-0,037	-0,016
-513,072	13,891	-0,120	-0,068
-512,058	80,429	0,118	0,093
-511,043	52,063	0,064	-0,045
-510,029	-200,000	-0,006	0,060
-509,014	-200,000	0,018	0,087
-507,999	-13,435	-0,096	-0,046
-506,985	-200,000	0,025	-0,094
-505,970	27,925	-0,050	0,031
-504,956	-200,000	0,003	-0,099
-503,941	49,951	0,113	0,078
-502,926	8,758	-0,140	0,077
-501,912	-200,000	0,064	0,000
-500,897	441,237	0,046	0,074
-499,883	49,985	-0,021	0,015
-498,868	392,800	-0,057	-0,087
-497,853	-200,000	-0,005	0,039
-496,839	800,000	0,032	0,096
-495,824	45,182	0,060	-0,041
-494,810	597,972	-0,015	-0,028
-493,795	-200,000	-0,002	-0,062
-492,781	15,386	-0,154	0,088
-491,766	-143,389	0,210	-0,014
-490,751	-200,000	0,022	-0,122
-489,737	19,602	0,022	-0,013
-488,722	24,223	0,046	-0,028
-487,708	-200,000	-0,000	0,217
-486,693	540,076	0,039	-0,067
-485,678	800,000	0,053	0,128
-484,664	235,537	0,126	0,152
-483,649	-43,950	0,075	-0,027
-482,635	-87,205	-0,101	-0,022
-481,620	6,837	0,037	-0,020
-480,605	17,443	0,060	0,035
-479,591	-16,379	0,028	0,013
-478,576	-200,000	0,006	0,042
-477,562	464,242	-0,040	0,065
-476,547	-200,000	-0,051	-0,182
-475,532	115,659	-0,110	0,099
-474,518	800,000	-0,017	0,048
-473,503	-200,000	-0,015	0,087
-472,489	215,879	0,089	0,103
-471,474	-200,000	0,022	0,075
-470,459	79,712	-0,072	0,056
-469,445	-50,838	0,114	-0,039
-468,430	800,000	-0,003	0,007
-467,416	-200,000	0,005	0,065
-466,401	-200,000	-0,007	-0,040
-465,386	-27,983	0,106	-0,045
-464,372	800,000	0,022	-0,065
-463,357	24,188	0,045	-0,027
-462,343	289,319	-0,085	-0,113
-461,328	57,142	0,027	-0,019
-460,313	-200,000	-0,002	0,137
-459,299	-103,162	-0,062	0,011
-458,284	-200,000	-0,005	-0,073
-457,270	-3,317	0,031	-0,016
-456,255	525,201	0,029	0,050
-455,241	-70,358	0,040	-0,011
-454,226	800,000	-0,019	0,053
-453,211	361,058	-0,072	-0,105
-452,197	-200,000	0,001	0,036
-451,182	48,064	0,033	0,023
-450,168	-107,562	0,132	-0,021
-449,153	-200,000	0,017	0,124
-448,138	800,000	-0,050	-0,123
-447,124	344,294	-0,068	-0,097
-446,109	-200,000	0,007	0,088
-445,095	-72,644	-0,066	-0,018
-444,080	800,000	0,040	0,115
-443,065	800,000	-0,081	0,181
-442,051	213,298	-0,055	0,063
-441,036	182,949	-0,062	-0,067
-440,022	-200,000	0,011	-0,077
-439,007	15,236	-0,080	-0,046
-437,992	-8,667	0,158	0,077
-436,978	-161,340	0,153	-0,006
-435,963	-61,518	-0,127	-0,039
-434,949	282,972	-0,085	0,112
-433,934	747,676	0,045	-0,089
-432,919	-117,527	-0,073	0,010
-431,905	135,150	0,056	0,053
-430,890	-130,071	-0,064	-0,006
-429,876	-149,879	-0,050	0,003
-428,861	-66,634	0,090	0,026
-427,846	-200,000	0,004	0,114
-426,832	-166,742	-0,083	-0,002
-425,817	-200,000	0,008	0,078
-424,803	-121,127	0,117	0,014
-423,788	-19,046	0,059	-0,027
-422,773	-14,347	0,033	0,015
-421,759	-55,831	-0,153	0,049
-420,744	-200,000	0,000	0,084
-419,730	-200,000	0,006	0,143
-418,715	-145,042	0,044	0,003
-417,701	347,744	0,091	0,131
-416,686	-200,000	0,009	0,096
-415,671	-1,203	-0,088	0,045
-414,657	-50,446	0,110	-0,038
-413,642	-200,000	-0,017	0,127
-412,628	557,995	0,031	0,055
-411,613	-97,950	-0,094	0,018
-410,598	-30,620	-0,059	-0,024
-409,584	-200,000	-0,009	-0,043
-408,569	689,448	0,082	0,157
-407,555	-7,358	0,084	0,041
-406,540	-73,642	0,083	-0,022
-405,525	56,646	0,044	-0,031
-404,511	290,094	-0,112	-0,148
-403,496	456,359	-0,030	0,049
-402,482	195,771	0,054	-0,060
-401,467	31,870	0,074	0,046
-400,452	-118,419	-0,094	-0,012
-399,438	69,282	0,134	-0,101
-398,423	127,184	-0,072	-0,067
-397,409	800,000	0,008	-0,016
-396,394	-47,094	-0,123	-0,044
-395,379	236,629	-0,035	-0,042
-394,365	288,900	0,066	-0,087
-393,350	800,000	0,083	-0,176
-392,336	-54,002	0,115	0,038
-391,321	800,000	0,021	0,044
-390,306	183,479	0,130	-0,141
-389,292	-200,000	0,016	-0,082
-388,277	800,000	0,012	-0,034
-387,263	67,879	0,055	0,041
-386,248	-47,397	0,122	0,043
-385,233	42,792	-0,053	0,035
-384,219	-42,428	-0,049	0,018
-383,204	-68,063	-0,094	-0,027
-382,190	9,630	0,090	0,050
-381,175	-200,000	0,024	-0,131
-380,160	800,000	0,042	0,094
-379,146	148,466	-0,057	-0,056
-378,131	-102,550	-0,112	0,019
-377,117	425,771	0,011	0,018
-376,102	69,601	-0,126	0,094
-375,088	800,000	-0,030	-0,069
-374,073	-74,250	0,022	-0,006
-373,058	-200,000	-0,011	0,053
-372,044	-200,000	-0,008	0,098
-371,029	331,377	0,030	0,042
-370,015	-178,483	0,042	0,001
-369,000	-200,000	0,020	-0,101
-367,985	109,998	-0,114	-0,099
-366,971	800,000	0,049	0,101
-365,956	800,000	-0,050	0,125
-364,942	301,239	0,031	0,042
-363,927	-61,342	0,173	-0,053
-362,912	800,000	-0,040	-0,094
-361,898	-54,611	-0,071	0,023
-360,883	-200,000	-0,014	-0,164
-359,869	129,200	-0,108	-0,101
-358,854	-117,649	0,086	0,011
-357,839	13,246	-0,147	0,083
-356,825	-200,000	0,013	0,057
-355,810	-30,744	-0,072	-0,029
-354,796	434,046	0,082	-0,130
-353,781	691,095	0,064	-0,123
-352,766	-55,738	0,073	0,024
-351,752	-109,550	0,119	-0,018
-350,737	-200,000	0,019	0,088
-349,723	-99,668	-0,025	-0,004
-348,708	-23,196	-0,024	-0,011
-347,693	1,767	-0,008	0,004
-346,679	152,274	-0,069	-0,069
-345,664	-113,427	0,127	-0,018
-344,650	-200,000	0,000	-0,123
-343,635	254,320	0,065	-0,081
-342,620	-142,739	-0,107	-0,007
-341,606	44,397	-0,115	0,077
-340,591	66,700	-0,090	-0,066
-339,577	2,240	0,082	-0,043
-338,562	-96,100	-0,041	-0,008
-337,548	527,452	0,053	0,092
-336,533	175,635	0,051	0,054
-335,518	800,000	-0,015	-0,039
-334,504	-91,272	-0,060	0,012
-333,489	800,000	0,032	-0,085
-332,475	-200,000	0,009	-0,130
-331,460	510,552	-0,025	-0,042
-330,445	800,000	0,072	0,211
-329,431	249,338	-0,035	0,043
-328,416	-200,000	0,015	-0,071
-327,402	117,844	-0,036	-0,032
-326,387	-200,000	-0,043	-0,190
-325,372	-145,168	0,059	-0,004
-324,358	263,059	-0,039	0,050
-323,343	84,328	-0,063	0,050
-322,329	-117,333	0,125	0,016
-321,314	252,356	0,023	-0,028
-320,299	-94,105	0,036	0,007
-319,285	-200,000	-0,013	-0,142
-318,270	75,196	0,034	0,026
-317,256	-31,615	-0,019	-0,008
-316,241	-200,000	-0,008	0,066
-315,226	422,650	0,082	0,128
-314,212	-70,271	0,084	0,023
-313,197	64,833	0,094	-0,069
-312,183	-200,000	0,034	0,121
-311,168	-102,274	-0,111	-0,019
-310,153	121,256	-0,086	-0,078
-309,139	-121,666	-0,040	-0,005
-308,124	-141,149	-0,066	-0,005
-307,110	174,249	0,057	-0,060
-306,095	88,989	-0,014	0,012
-305,080	-88,986	0,166	-0,035
-304,066	-52,966	-0,082	0,027
-303,051	-62,237	0,067	0,020
-302,037	146,640	0,076	-0,074
-301,022	124,441	-0,058	-0,053
-300,008	-107,131	0,033	-0,005
-298,993	-29,805	0,132	-0,054
-297,978	800,000	0,044	0,101
-296,964	177,347	-0,056	0,059
-295,949	-16,047	0,037	-0,017
-294,935	-59,072	-0,144	-0,045
-293,920	53,087	-0,080	-0,056
-292,905	234,462	0,078	0,093
-291,891	-62,135	-0,058	0,017
-290,876	-96,266	-0,153	0,029
-289,862	-200,000	0,009	-0,035
-288,847	-132,065	-0,140	-0,013
-287,832	-200,000	0,003	-0,140
-286,818	800,000	0,028	0,083
-285,803	-200,000	0,003	0,075
-284,789	-98,039	0,077	0,014
-283,774	94,354	-0,105	-0,087
-282,759	-93,198	0,105	-0,021
-281,745	30,966	-0,113	-0,070
-280,730	457,698	-0,011	-0,018
-279,716	-200,000	-0,017	0,088
-278,701	-88,944	-0,033	-0,007
-277,686	-25,541	0,127	0,054
-276,672	-200,000	-0,007	-0,106
-275,657	64,207	-0,158	0,115
-274,643	-38,393	0,083	0,032
-273,628	431,501	-0,020	-0,031
-272,613	-200,000	0,027	0,104
-271,599	-200,000	0,003	-0,017
-270,584	-31,768	0,082	0,033
-269,570	510,366	0,072	0,122
-268,555	275,195	-0,038	-0,048
-267,540	277,244	0,074	0,096
-266,526	84,512	-0,119	0,094
-265,511	551,041	-0,032	-0,057
-264,497	-200,000	-0,014	-0,199
-263,482	76,676	-0,005	-0,004
-262,467	-200,000	-0,001	0,016
-261,453	-200,000	0,011	0,110
-260,438	-200,000	0,032	-0,114
-259,424	-159,953	-0,050	-0,002
-258,409	800,000	0,031	0,088
-257,395	800,000	-0,010	-0,030
-256,380	800,000	-0,033	0,073
-255,365	5,723	-0,036	0,019
-254,351	130,728	-0,015	-0,014
-253,336	230,908	0,033	-0,039
-252,322	52,895	-0,083	0,057
-251,307	9,753	-0,035	-0,019
-250,292	-171,514	-0,053	-0,001
-249,278	-3,516	0,071	-0,035
-248,263	779,423	-0,027	0,055
-247,249	-200,000	-0,021	0,076
-246,234	66,597	-0,015	0,011
-245,219	-41,188	0,038	-0,014
-244,205	-32,382	-0,159	-0,064
-243,190	-143,867	0,223	-0,015
-242,176	96,556	0,077	0,064
-241,161	-200,000	0,012	0,127
-240,146	-77,037	-0,082	0,020
-239,132	-200,000	-0,012	0,068
-238,117	-29,853	-0,043	-0,018
-237,103	-200,000	-0,012	0,074
-236,088	126,630	-0,138	-0,127
-235,073	-17,093	-0,056	-0,025
-234,059	800,000	-0,028	0,078
-233,044	800,000	-0,032	-0,087
-232,030	800,000	0,057	0,146
-231,015	164,975	0,019	0,019
-230,000	800,000	-0,025	0,069
-228,986	532,311	0,051	-0,087
-227,971	-200,000	0,020	-0,122
-226,957	781,172	0,053	0,106
-225,942	-129,201	-0,031	-0,003
-224,927	800,000	-0,052	-0,138
-223,913	-200,000	-0,015	-0,062
-222,898	-93,042	0,082	-0,016
-221,884	-200,000	-0,031	-0,110
-220,869	487,717	0,046	-0,076
-219,855	-132,548	-0,031	-0,003
-218,840	-200,000	0,006	0,104
-217,825	1,095	-0,060	0,031
-216,811	-99,418	-0,165	0,030
-215,796	26,135	0,036	0,021
-214,782	92,797	-0,069	-0,056
-213,767	800,000	-0,055	-0,121
-212,752	-182,237	0,157	0,002
-211,738	800,000	-0,007	-0,023
-210,723	-200,000	-0,003	0,012
-209,709	-200,000	0,024	0,092
-208,694	-200,000	-0,003	-0,086
-207,679	-67,909	-0,125	-0,035
-206,665	483,340	0,033	0,055
-205,650	-105,848	0,063	0,010
-204,636	113,957	0,106	0,093
-203,621	-86,889	-0,124	0,027
-202,606	411,723	0,046	0,071
-201,592	166,845	0,026	-0,027
-200,577	437,421	0,060	-0,095
-199,563	-169,925	0,117	0,003
-198,548	-143,092	0,117	0,008
-197,533	800,000	0,023	0,061
-196,519	800,000	-0,053	0,109
-195,504	310,339	-0,088	-0,119
-194,490	41,885	-0,085	-0,055
-193,475	64,987	-0,031	0,022
-192,460	344,143	-0,078	-0,111
-191,446	-19,619	0,009	0,004
-190,431	800,000	-0,013	0,028
-189,417	244,248	-0,068	-0,083
-188,402	800,000	-0,063	-0,146
-187,387	-59,397	-0,085	-0,026
-186,373	34,540	-0,049	0,031
-185,358	800,000	0,033	0,102
-184,344	-200,000	-0,014	0,075
-183,329	-15,612	0,020	-0,009
-182,315	28,815	0,056	-0,034
-181,300	29,629	-0,064	-0,039
-180,285	-5,406	-0,118	-0,058
-179,271	-22,885	-0,056	-0,024
-178,256	-20,045	-0,153	-0,068
-177,242	262,928	0,073	-0,092
-176,227	151,438	0,086	0,085
-175,212	364,352	0,065	0,095
-174,198	42,975	-0,104	-0,068
-173,183	-38,879	0,095	-0,036
-172,169	800,000	-0,031	0,093
-171,154	-200,000	0,038	-0,153
-170,139	800,000	0,029	-0,087
-169,125	192,206	0,074	0,081
-168,110	207,004	0,030	-0,034
-167,096	-59,853	-0,055	-0,017
-166,081	-178,826	0,073	-0,001
-165,066	-70,620	0,140	0,038
-164,052	84,038	-0,139	0,109
-163,037	17,848	0,036	-0,021
-162,023	284,308	0,009	0,011
-161,008	489,555	-0,022	-0,037
-159,993	603,661	0,042	-0,077
-158,979	-33,037	-0,068	0,027
-157,964	800,000	0,029	-0,073
-156,950	-200,000	-0,036	-0,119
-155,935	-105,327	0,184	-0,030
-154,920	-64,789	-0,030	0,009
-153,906	-28,976	0,038	-0,016
-152,891	17,844	0,032	0,018
-151,877	760,585	-0,032	-0,063
-150,862	-193,256	-0,151	-0,001
-149,847	-173,652	-0,035	-0,001
-148,833	146,675	0,029	0,028
-147,818	38,890	0,053	0,034
-146,804	182,948	0,022	-0,023
-145,789	-200,000	0,013	0,057
-144,775	-200,000	0,006	-0,228
-143,760	-200,000	0,019	-0,087
-142,745	303,606	-0,080	-0,107
-141,731	-8,878	-0,059	0,029
-140,716	125,929	0,033	0,030
-139,702	800,000	0,052	0,164
-138,687	206,713	-0,125	0,140
-137,672	-200,000	-0,007	0,147
-136,658	-200,000	0,010	0,074
-135,643	-15,985	0,071	0,033
-134,629	-8,001	-0,059	-0,029
-133,614	-158,861	0,214	0,009
-132,599	-200,000	-0,005	-0,071
-131,585	258,388	0,065	0,081
-130,570	388,209	0,074	-0,111
-129,556	52,869	-0,025	0,017
-128,541	104,833	-0,035	-0,030
-127,526	-160,281	0,071	0,003
-126,512	-55,794	0,120	0,038
-125,497	244,063	-0,044	-0,054
-124,483	-99,516	0,062	0,011
-123,468	36,767	0,114	-0,072
-122,453	800,000	-0,098	-0,222
-121,439	5,334	0,063	-0,033
-120,424	7,199	-0,093	-0,050
-119,410	800,000	0,012	-0,034
-118,395	-200,000	0,014	-0,064
