DTS Sentinel unit serial number:	SN410029Multiplexer serial number:	ORYXHardware model number:	OX2-SRSoftware version number:	ORYX F/W v4,00 Oryx Data Collector v3.7.2.0data status	okinstallation	B5 Nyhavnadifferential loss correction	single-endedforward channel	channel 2reverse channel	N/Adate	2023/12/12time	22:02:13forward acquisition time	300,00reverse acquisition time	0,00gamma	499,1914k internal	0,3158k external	0,3158temperature offset calibration	1,0000default loss term (dB/km)	0,3820temperature slope calibration	1,0000multiplexer offset coefficient	1,0000multiplexer slope coefficient	1,0000fibre end	0,00T internal ref (°C)	14,76T ext. ref 1 (°C)	-1,87T ext. ref 2 (°C)	-2,18length (m)	temperature (°C)	Stokes	anti-Stokes-744,400	800,000	-0,026	0,071
-743,385	-47,045	-0,394	0,141
-742,371	-9,423	0,277	0,136
-741,356	-119,746	-0,255	0,032
-740,342	-17,313	0,116	-0,053
-739,327	-59,772	-0,359	0,113
-738,312	36,137	0,166	0,107
-737,298	-125,049	-0,394	-0,044
-736,283	-157,378	0,029	-0,001
-735,269	-128,983	-0,311	0,032
-734,254	-152,975	0,057	-0,003
-733,239	-106,063	-0,574	-0,094
-732,225	332,052	0,159	0,227
-731,210	144,432	-0,034	0,033
-730,196	-200,000	-0,013	0,085
-729,181	800,000	-0,070	0,153
-728,167	21,091	-0,048	-0,029
-727,152	19,131	-0,153	-0,090
-726,137	-137,469	-0,186	-0,015
-725,123	800,000	-0,025	-0,066
-724,108	-148,352	-0,067	0,004
-723,094	256,515	-0,089	-0,112
-722,079	-83,701	0,033	-0,008
-721,064	-17,131	-0,121	-0,056
-720,050	-137,413	0,087	0,007
-719,035	60,287	-0,099	-0,072
-718,021	800,000	-0,015	0,048
-717,006	-200,000	0,020	-0,066
-715,991	-127,021	-0,109	0,012
-714,977	-65,087	-0,206	-0,061
-713,962	-151,861	-0,103	-0,005
-712,948	48,649	0,062	0,043
-711,933	609,824	-0,019	-0,036
-710,918	800,000	-0,014	0,042
-709,904	800,000	-0,026	0,057
-708,889	415,777	-0,078	-0,123
-707,875	103,409	-0,135	-0,117
-706,860	132,736	0,041	-0,039
-705,845	2,296	0,049	-0,026
-704,831	-200,000	0,006	0,096
-703,816	-125,922	-0,101	-0,011
-702,802	800,000	-0,038	-0,084
-701,787	-116,623	-0,226	-0,030
-700,772	-200,000	-0,000	-0,089
-699,758	-200,000	0,015	-0,112
-698,743	-200,000	0,008	0,086
-697,729	239,017	0,043	-0,053
-696,714	734,590	-0,054	0,108
-695,699	460,617	0,020	0,033
-694,685	-134,227	-0,095	0,008
-693,670	-23,566	-0,042	0,018
-692,656	-104,738	0,035	-0,006
-691,641	92,446	0,099	-0,082
-690,627	-200,000	-0,006	-0,037
-689,612	616,999	-0,089	-0,165
-688,597	163,495	-0,059	-0,061
-687,583	-200,000	-0,005	-0,016
-686,568	-196,710	-0,146	0,001
-685,554	5,007	0,049	-0,026
-684,539	800,000	-0,036	-0,083
-683,524	534,165	-0,074	-0,129
-682,510	-160,776	0,159	0,006
-681,495	56,682	-0,076	0,054
-680,481	-55,548	-0,083	-0,027
-679,466	-147,596	-0,018	0,001
-678,451	116,880	0,086	0,078
-677,437	364,952	0,057	-0,085
-676,422	-200,000	-0,023	0,121
-675,408	-200,000	0,044	-0,200
-674,393	-200,000	-0,004	0,066
-673,378	-200,000	-0,021	-0,082
-672,364	-200,000	-0,008	-0,118
-671,349	515,030	0,012	0,020
-670,335	-92,226	-0,007	-0,001
-669,320	-200,000	-0,012	-0,101
-668,305	295,740	-0,057	-0,077
-667,291	-15,527	-0,060	-0,028
-666,276	-122,073	-0,133	0,016
-665,262	581,055	-0,061	-0,110
-664,247	-137,204	-0,066	-0,005
-663,232	-10,541	0,051	-0,025
-662,218	-200,000	0,043	0,154
-661,203	800,000	0,017	-0,048
-660,189	-200,000	-0,010	-0,093
-659,174	162,467	-0,099	-0,102
-658,159	-172,323	0,050	-0,001
-657,145	-139,999	-0,071	0,005
-656,130	-200,000	-0,022	-0,110
-655,116	102,877	-0,054	-0,047
-654,101	348,375	0,029	-0,042
-653,086	-109,640	-0,091	-0,014
-652,072	-200,000	-0,023	-0,166
-651,057	74,157	0,104	-0,080
-650,043	672,585	0,023	-0,045
-649,028	43,960	-0,126	-0,085
-648,014	607,903	0,038	-0,071
-646,999	-92,771	-0,029	-0,006
-645,984	180,777	0,033	0,036
-644,970	-200,000	-0,018	0,059
-643,955	17,318	-0,081	0,047
-642,941	24,322	-0,046	0,028
-641,926	4,565	-0,064	-0,034
-640,911	152,825	-0,068	-0,068
-639,897	312,458	0,046	-0,064
-638,882	-200,000	0,007	-0,043
-637,868	590,176	0,010	0,018
-636,853	-200,000	-0,017	0,171
-635,838	302,808	-0,040	0,054
-634,824	-200,000	-0,025	-0,097
-633,809	-200,000	0,005	0,104
-632,795	-113,809	-0,053	-0,007
-631,780	-200,000	-0,011	-0,074
-630,765	-96,455	0,066	-0,013
-629,751	-50,959	-0,064	-0,022
-628,736	368,896	-0,053	-0,079
-627,722	-200,000	-0,010	-0,087
-626,707	-200,000	-0,004	0,039
-625,692	481,546	0,023	0,039
-624,678	33,498	0,057	0,036
-623,663	-10,802	-0,037	0,018
-622,649	359,108	-0,022	-0,032
-621,634	-52,636	-0,093	0,031
-620,619	-127,714	-0,122	0,013
-619,605	-111,453	-0,039	0,006
-618,590	-12,651	-0,158	-0,075
-617,576	163,886	-0,016	0,017
-616,561	-200,000	-0,005	-0,157
-615,546	-190,051	-0,184	-0,001
-614,532	220,947	0,044	-0,052
-613,517	800,000	0,034	-0,100
-612,503	800,000	0,051	-0,106
-611,488	-156,379	0,097	0,004
-610,474	497,321	-0,040	0,067
-609,459	-90,786	0,137	-0,029
-608,444	11,858	0,062	0,035
-607,430	39,869	-0,086	-0,056
-606,415	-11,142	0,078	-0,037
-605,401	-200,000	0,027	-0,126
-604,386	159,478	-0,067	0,068
-603,371	-145,914	0,132	0,008
-602,357	-200,000	-0,009	-0,073
-601,342	25,036	-0,082	-0,050
-600,328	-145,139	-0,093	0,006
-599,313	70,188	0,005	-0,004
-598,298	-109,565	0,108	0,017
-597,284	274,670	0,072	-0,093
-596,269	-83,213	-0,089	-0,021
-595,255	-200,000	-0,014	-0,111
-594,240	498,944	-0,069	-0,117
-593,225	53,197	-0,045	-0,032
-592,211	800,000	-0,065	-0,134
-591,196	229,380	0,092	-0,110
-590,182	-24,083	-0,151	0,066
-589,167	-109,895	0,103	0,016
-588,152	800,000	-0,041	0,092
-587,138	157,116	-0,047	0,048
-586,123	75,297	-0,203	-0,157
-585,109	253,625	0,072	-0,091
-584,094	160,955	0,015	0,015
-583,079	-160,766	0,103	0,004
-582,065	-200,000	-0,003	-0,050
-581,050	112,667	-0,060	-0,053
-580,036	-200,000	-0,003	-0,069
-579,021	-200,000	0,001	-0,056
-578,006	-103,734	-0,027	-0,005
-576,992	800,000	-0,022	0,068
-575,977	-200,000	0,029	0,099
-574,963	-71,836	0,164	0,044
-573,948	335,913	-0,015	0,021
-572,934	-200,000	0,003	-0,025
-571,919	210,209	-0,140	-0,161
-570,904	40,014	0,081	-0,054
-569,890	-200,000	0,007	-0,079
-568,875	-30,912	0,049	0,020
-567,861	68,051	0,035	0,026
-566,846	665,982	-0,072	0,138
-565,831	69,923	-0,134	-0,101
-564,817	-200,000	-0,008	-0,029
-563,802	255,495	0,063	-0,079
-562,788	5,701	-0,171	0,092
-561,773	-200,000	-0,006	-0,029
-560,758	118,517	-0,082	0,074
-559,744	403,048	0,075	0,115
-558,729	-12,519	0,069	-0,033
-557,715	-200,000	0,007	0,039
-556,700	800,000	-0,053	-0,164
-555,685	582,929	0,031	-0,055
-554,671	148,858	0,079	0,078
-553,656	800,000	-0,037	-0,119
-552,642	-200,000	0,015	0,063
-551,627	-76,682	0,085	-0,022
-550,612	-200,000	-0,016	0,184
-549,598	2,295	-0,042	0,022
-548,583	113,262	0,075	-0,067
-547,569	-200,000	0,005	-0,079
-546,554	800,000	0,027	0,077
-545,539	700,742	0,074	0,142
-544,525	-85,565	0,105	-0,024
-543,510	-137,340	-0,101	0,008
-542,496	-126,457	-0,065	0,007
-541,481	-200,000	-0,028	-0,124
-540,466	17,377	-0,175	-0,101
-539,452	800,000	-0,077	0,177
-538,437	121,472	0,079	-0,072
-537,423	161,389	-0,041	0,042
-536,408	148,334	-0,086	-0,085
-535,393	50,778	-0,106	-0,074
-534,379	-200,000	0,012	-0,081
-533,364	-200,000	0,042	-0,147
-532,350	-122,035	0,046	0,005
-531,335	-109,897	-0,115	0,018
-530,321	528,535	0,027	0,047
-529,306	-147,914	-0,062	0,004
-528,291	45,728	-0,092	-0,062
-527,277	-121,792	0,126	0,015
-526,262	157,205	-0,083	0,084
-525,248	800,000	-0,045	-0,134
-524,233	800,000	-0,020	0,064
-523,218	-37,722	0,106	-0,041
-522,204	210,091	-0,067	-0,077
-521,189	-98,115	-0,046	-0,009
-520,175	-70,801	0,100	-0,027
-519,160	312,439	-0,123	-0,170
-518,145	503,370	0,037	0,063
-517,131	800,000	0,045	0,105
-516,116	-76,780	0,151	0,038
-515,102	-200,000	-0,002	-0,037
-514,087	-115,193	-0,154	-0,021
-513,072	-200,000	0,002	-0,094
-512,058	22,153	0,129	-0,077
-511,043	800,000	-0,033	0,069
-510,029	-5,976	0,065	-0,032
-509,014	82,217	-0,093	-0,074
-507,999	156,773	-0,101	-0,102
-506,985	800,000	0,037	-0,081
-505,970	225,488	-0,041	0,049
-504,956	-200,000	-0,006	-0,027
-503,941	-151,732	0,046	-0,002
-502,926	456,958	-0,033	-0,054
-501,912	-200,000	-0,006	0,111
-500,897	437,091	-0,074	-0,118
-499,883	762,974	-0,027	0,055
-498,868	238,850	0,026	-0,032
-497,853	-200,000	-0,011	-0,100
-496,839	-56,528	0,054	0,017
-495,824	90,629	0,033	-0,027
-494,810	-200,000	0,005	0,103
-493,795	-47,917	-0,067	-0,023
-492,781	61,039	-0,201	-0,146
-491,766	-200,000	-0,013	-0,051
-490,751	266,488	-0,029	0,037
-489,737	-3,918	0,098	-0,050
-488,722	179,797	-0,067	0,072
-487,708	390,353	0,086	0,130
-486,693	311,736	-0,031	0,043
-485,678	281,933	-0,070	-0,092
-484,664	62,153	0,066	0,048
-483,649	213,621	0,046	-0,053
-482,635	-68,063	0,068	-0,019
-481,620	800,000	-0,024	0,058
-480,605	-99,468	-0,085	0,015
-479,591	-8,648	0,065	-0,032
-478,576	800,000	0,036	0,102
-477,562	-185,317	-0,112	0,001
-476,547	157,752	-0,112	-0,113
-475,532	45,549	0,106	-0,071
-474,518	800,000	0,100	0,216
-473,503	-200,000	0,012	0,047
-472,489	-131,259	0,122	-0,012
-471,474	160,860	-0,012	0,012
-470,459	-64,313	0,040	-0,012
-469,445	-200,000	0,034	0,146
-468,430	800,000	-0,077	-0,172
-467,416	318,842	0,075	0,104
-466,401	-200,000	0,017	-0,078
-465,386	129,117	-0,029	-0,027
-464,372	-63,527	-0,122	0,036
-463,357	240,373	-0,038	0,046
-462,343	-74,785	-0,109	-0,028
-461,328	23,603	-0,030	0,018
-460,313	333,033	0,124	0,175
-459,299	10,975	0,058	-0,032
-458,284	14,769	0,142	-0,081
-457,270	-15,247	0,011	0,005
-456,255	336,819	0,033	0,047
-455,241	800,000	-0,082	-0,198
-454,226	-42,206	0,087	0,032
-453,211	117,840	-0,131	-0,117
-452,197	-200,000	0,018	0,227
-451,182	35,649	0,038	0,024
-450,168	101,780	0,024	0,020
-449,153	28,822	-0,037	0,023
-448,138	-16,595	-0,101	-0,047
-447,124	-154,133	-0,012	0,001
-446,109	60,865	0,132	0,095
-445,095	-84,469	-0,046	0,010
-444,080	-165,285	0,083	0,003
-443,065	138,775	-0,122	0,117
-442,051	-48,311	0,044	0,015
-441,036	-145,793	0,084	0,005
-440,022	-200,000	-0,040	-0,159
-439,007	-121,139	-0,017	-0,002
-437,992	-168,984	0,118	0,003
-436,978	-65,819	-0,106	0,031
-435,963	-200,000	0,019	0,142
-434,949	800,000	0,003	-0,006
-433,934	-32,011	-0,089	0,036
-432,919	800,000	-0,045	-0,101
-431,905	-194,005	0,199	-0,001
-430,890	572,171	0,013	0,024
-429,876	55,243	0,053	0,037
-428,861	-139,460	0,147	0,011
-427,846	25,446	0,043	0,026
-426,832	800,000	-0,016	-0,036
-425,817	-200,000	0,014	-0,085
-424,803	-53,080	-0,026	-0,009
-423,788	343,156	-0,007	-0,011
-422,773	-81,928	0,039	0,009
-421,759	-200,000	0,010	0,051
-420,744	94,771	0,060	0,050
-419,730	38,004	0,072	0,047
-418,715	800,000	-0,058	-0,138
-417,701	197,284	-0,063	0,070
-416,686	-200,000	0,002	0,033
-415,671	-15,642	0,089	0,041
-414,657	-200,000	-0,012	0,105
-413,642	-75,949	0,115	0,029
-412,628	14,227	0,088	0,050
-411,613	800,000	0,056	0,125
-410,598	-36,227	-0,069	-0,027
-409,584	-25,843	0,106	-0,045
-408,569	800,000	-0,020	-0,065
-407,555	-200,000	-0,030	0,143
-406,540	138,043	0,102	0,097
-405,525	-200,000	-0,004	0,178
-404,511	-7,218	-0,020	-0,010
-403,496	162,429	0,041	-0,041
-402,482	-200,000	-0,001	-0,138
-401,467	-200,000	0,006	0,081
-400,452	-78,708	0,024	0,006
-399,438	45,826	0,050	0,034
-398,423	-89,992	-0,161	-0,034
-397,409	-67,666	-0,049	0,014
-396,394	123,032	-0,094	-0,086
-395,379	170,880	-0,034	-0,036
-394,365	28,506	0,085	0,052
-393,350	-55,325	-0,072	0,023
-392,336	274,585	-0,029	0,038
-391,321	465,210	0,060	0,097
-390,306	800,000	0,045	0,111
-389,292	283,802	0,082	0,107
-388,277	558,667	-0,038	-0,068
-387,263	-200,000	0,027	-0,085
-386,248	293,107	-0,048	-0,063
-385,233	366,541	-0,038	-0,056
-384,219	38,168	0,042	-0,027
-383,204	-0,501	-0,092	-0,047
-382,190	-200,000	-0,014	-0,139
-381,175	676,709	-0,038	0,072
-380,160	-200,000	-0,007	0,097
-379,146	-136,269	0,171	0,014
-378,131	-200,000	0,001	0,176
-377,117	-200,000	-0,029	0,131
-376,102	-55,979	-0,113	0,036
-375,088	800,000	0,020	0,044
-374,073	-200,000	0,029	0,107
-373,058	32,389	0,114	-0,071
-372,044	16,634	-0,041	-0,024
-371,029	-1,703	0,138	0,070
-370,015	-18,350	0,059	-0,027
-369,000	-200,000	0,036	-0,115
-367,985	-200,000	-0,016	0,134
-366,971	-18,890	0,117	0,053
-365,956	-83,867	0,120	-0,028
-364,942	-33,962	0,068	-0,027
-363,927	-200,000	0,006	0,119
-362,912	-82,386	0,087	-0,020
-361,898	-200,000	0,001	-0,054
-360,883	-98,991	-0,115	-0,021
-359,869	272,291	0,042	0,054
-358,854	-105,049	0,067	0,011
-357,839	502,962	0,029	-0,050
-356,825	800,000	0,025	-0,057
-355,810	32,486	-0,084	0,052
-354,796	-32,569	-0,109	-0,044
-353,781	91,939	-0,056	-0,046
-352,766	-119,975	0,032	-0,004
-351,752	-72,500	0,084	0,022
-350,737	-144,377	0,018	-0,001
-349,723	133,462	-0,071	0,066
-348,708	-200,000	0,006	0,155
-347,693	8,943	-0,053	0,029
-346,679	14,161	0,033	-0,018
-345,664	-42,555	-0,109	-0,040
-344,650	28,303	0,122	-0,074
-343,635	480,651	-0,018	0,030
-342,620	17,781	-0,061	0,035
-341,606	221,091	0,019	0,022
-340,591	299,934	-0,071	-0,095
-339,577	-109,443	-0,024	-0,004
-338,562	-122,885	0,074	-0,009
-337,548	-200,000	0,008	-0,043
-336,533	544,448	0,091	0,158
-335,518	45,455	0,137	-0,092
-334,504	800,000	-0,003	0,010
-333,489	92,796	-0,082	0,067
-332,475	399,296	0,012	0,019
-331,460	85,492	-0,059	-0,047
-330,445	39,436	0,078	-0,051
-329,431	384,367	0,073	0,109
-328,416	73,610	0,051	0,038
-327,402	800,000	0,066	0,147
-326,387	-200,000	-0,035	0,139
-325,372	-84,757	-0,144	0,033
-324,358	379,714	-0,021	-0,031
-323,343	9,865	-0,062	-0,034
-322,329	411,544	-0,055	0,085
-321,314	-200,000	-0,023	0,083
-320,299	-164,499	0,091	0,003
-319,285	-200,000	0,010	0,131
-318,270	800,000	0,066	-0,168
-317,256	800,000	-0,046	-0,126
-316,241	800,000	0,039	-0,081
-315,226	-108,438	-0,050	-0,008
-314,212	-36,337	0,009	0,004
-313,197	800,000	-0,032	0,082
-312,183	35,319	-0,087	0,055
-311,168	800,000	-0,034	-0,070
-310,153	-36,106	0,124	-0,048
-309,139	142,656	-0,097	0,093
-308,124	-50,018	0,029	0,010
-307,110	-49,375	-0,086	0,029
-306,095	-200,000	0,001	0,011
-305,080	-200,000	-0,026	0,128
-304,066	-200,000	-0,012	0,045
-303,051	-47,628	-0,087	-0,030
-302,037	253,087	0,116	-0,144
-301,022	-81,096	-0,260	0,062
-300,008	-200,000	-0,018	-0,085
-298,993	-200,000	0,014	-0,046
-297,978	-200,000	-0,013	0,069
-296,964	114,788	0,120	-0,106
-295,949	476,995	-0,054	0,089
-294,935	370,931	0,065	-0,096
-293,920	-121,532	-0,109	0,013
-292,905	800,000	0,036	0,096
-291,891	79,890	0,104	-0,081
-290,876	147,680	-0,105	0,103
-289,862	14,214	0,072	-0,040
-288,847	501,919	-0,028	0,047
-287,832	-37,547	-0,140	-0,054
-286,818	36,272	0,054	-0,035
-285,803	262,808	-0,081	0,102
-284,789	-200,000	-0,006	-0,042
-283,774	558,281	-0,042	0,074
-282,759	800,000	0,044	0,111
-281,745	-5,062	-0,044	0,022
-280,730	-134,022	-0,132	0,012
-279,716	-20,956	-0,041	0,018
-278,701	-200,000	-0,005	0,015
-277,686	-200,000	-0,018	0,068
-276,672	800,000	-0,033	0,097
-275,657	46,752	-0,112	0,075
-274,643	225,177	-0,014	-0,017
-273,628	800,000	-0,039	-0,090
-272,613	349,670	0,066	-0,095
-271,599	470,484	0,033	0,054
-270,584	119,253	-0,013	-0,012
-269,570	-200,000	0,044	-0,157
-268,555	-200,000	-0,014	0,066
-267,540	-71,182	-0,092	-0,025
-266,526	-84,017	0,026	-0,006
-265,511	-69,372	0,120	0,033
-264,497	-141,699	0,061	-0,004
-263,482	-162,698	-0,102	-0,004
-262,467	-85,795	0,112	0,025
-261,453	-114,428	0,083	0,011
-260,438	116,317	-0,065	0,057
-259,424	-65,484	-0,179	0,052
-258,409	-120,644	-0,079	-0,010
-257,395	-145,210	-0,047	-0,003
-256,380	-42,062	0,110	-0,041
-255,365	104,595	-0,039	0,033
-254,351	-78,940	0,035	-0,008
-253,336	-200,000	-0,014	-0,081
-252,322	-200,000	-0,009	-0,046
-251,307	-59,365	-0,048	-0,015
-250,292	800,000	-0,045	0,097
-249,278	800,000	0,048	0,101
-248,263	800,000	-0,039	0,117
-247,249	-200,000	-0,045	0,192
-246,234	-200,000	-0,029	-0,181
-245,219	-123,454	-0,075	-0,009
-244,205	350,506	0,044	0,063
-243,190	-94,644	0,082	-0,016
-242,176	-142,979	-0,059	-0,004
-241,161	800,000	-0,030	0,090
-240,146	14,404	0,181	-0,102
-239,132	-200,000	0,007	-0,053
-238,117	536,886	0,079	-0,136
-237,103	-31,000	0,127	0,052
-236,088	800,000	0,055	0,145
-235,073	-54,513	-0,079	0,026
-234,059	567,640	0,035	0,061
-233,044	76,037	0,043	0,033
-232,030	-200,000	0,026	-0,122
-231,015	165,521	-0,129	-0,132
-230,000	-200,000	-0,018	-0,124
-228,986	259,573	-0,037	-0,047
-227,971	59,692	0,124	0,088
-226,957	-89,085	0,150	-0,032
-225,942	-139,144	-0,037	0,003
-224,927	-51,634	0,078	0,026
-223,913	212,926	-0,030	0,035
-222,898	725,270	0,026	-0,051
-221,884	-128,485	-0,071	0,007
-220,869	800,000	-0,040	0,110
-219,855	-129,939	-0,095	-0,009
-218,840	664,782	-0,050	0,094
-217,825	-83,230	-0,024	0,006
-216,811	112,276	-0,032	0,028
-215,796	-200,000	-0,026	0,152
-214,782	697,190	0,059	-0,112
-213,767	-120,422	-0,061	-0,007
-212,752	528,769	0,055	0,094
-211,738	13,959	0,058	-0,032
-210,723	-159,683	0,151	-0,006
-209,709	-200,000	0,016	-0,090
-208,694	78,991	0,068	-0,053
-207,679	-140,917	-0,010	-0,001
-206,665	-169,506	-0,100	-0,003
-205,650	800,000	0,022	0,047
-204,636	-191,315	0,133	-0,001
-203,621	143,345	-0,024	-0,023
-202,606	-200,000	-0,024	0,149
-201,592	-200,000	0,024	0,088
-200,577	-107,032	0,040	0,006
-199,563	-200,000	0,019	-0,124
-198,548	756,043	-0,009	0,017
-197,533	44,616	0,149	0,099
-196,519	182,144	0,028	-0,030
-195,504	-23,398	0,096	0,042
-194,490	-159,459	-0,228	0,009
-193,475	-200,000	-0,002	0,103
-192,460	-39,832	0,076	-0,028
-191,446	-11,108	0,132	-0,063
-190,431	-119,459	0,101	-0,013
-189,417	-129,026	0,160	-0,016
-188,402	126,763	0,043	-0,039
-187,387	-182,807	0,031	-0,000
-186,373	-42,444	0,049	-0,018
-185,358	-0,393	0,062	-0,032
-184,344	-145,445	0,068	0,004
-183,329	70,502	0,063	0,047
-182,315	800,000	-0,037	0,113
-181,300	800,000	-0,020	-0,060
-180,285	276,904	-0,056	-0,071
-179,271	-200,000	0,015	-0,047
-178,256	-200,000	0,001	-0,103
-177,242	72,675	-0,073	-0,055
-176,227	86,962	0,125	-0,100
-175,212	800,000	0,039	0,099
-174,198	235,902	0,027	0,032
-173,183	800,000	-0,008	-0,017
-172,169	800,000	-0,035	-0,086
-171,154	-93,270	0,037	-0,007
-170,139	-139,685	0,159	0,012
-169,125	-200,000	0,010	-0,039
-168,110	3,440	-0,127	0,066
-167,096	-200,000	0,005	-0,108
-166,081	312,444	-0,135	-0,183
-165,066	-61,248	0,018	0,005
-164,052	-200,000	0,033	0,167
-163,037	-102,932	0,090	-0,015
-162,023	555,896	-0,025	0,044
-161,008	48,209	0,055	0,037
-159,993	95,210	-0,117	0,096
-158,979	-122,357	-0,099	0,011
-157,964	27,300	0,044	0,027
-156,950	173,563	0,093	-0,097
-155,935	227,379	-0,060	-0,070
-154,920	-200,000	-0,007	-0,103
-153,906	-60,816	0,012	-0,004
-152,891	78,136	-0,066	0,050
-151,877	4,840	-0,036	-0,019
-150,862	-65,308	-0,105	-0,030
-149,847	-200,000	0,002	-0,060
-148,833	800,000	-0,048	-0,108
-147,818	36,320	0,060	0,038
-146,804	38,492	-0,150	0,096
-145,789	-200,000	-0,007	0,068
-144,775	-3,700	0,077	0,038
-143,760	67,347	-0,062	-0,046
-142,745	141,121	-0,098	-0,093
-141,731	800,000	-0,059	0,163
-140,716	192,572	0,028	-0,030
-139,702	-78,198	0,136	0,033
-138,687	-57,489	-0,164	0,052
-137,672	286,878	0,042	0,055
-136,658	-200,000	0,019	0,108
-135,643	800,000	-0,025	-0,055
-134,629	-200,000	-0,016	0,059
-133,614	-59,412	-0,054	0,017
-132,599	-8,184	-0,065	0,031
-131,585	107,408	0,110	0,094
-130,570	800,000	0,021	-0,059
-129,556	274,309	0,096	-0,122
-128,541	630,197	-0,043	-0,079
-127,526	264,766	-0,127	0,160
-126,512	-76,638	0,087	-0,022
-125,497	109,738	0,065	-0,056
-124,483	-200,000	-0,040	0,184
-123,468	110,673	-0,038	-0,033
-122,453	183,239	-0,038	-0,040
-121,439	-200,000	0,019	-0,104
-120,424	-200,000	-0,038	-0,211
