DTS Sentinel unit serial number:	SN410029Multiplexer serial number:	ORYXHardware model number:	OX2-SRSoftware version number:	ORYX F/W v4,00 Oryx Data Collector v3.7.2.0data status	okinstallation	B5 Nyhavnadifferential loss correction	single-endedforward channel	channel 2reverse channel	N/Adate	2023/12/13time	07:02:13forward acquisition time	300,00reverse acquisition time	0,00gamma	499,1914k internal	0,3160k external	0,3160temperature offset calibration	1,0000default loss term (dB/km)	0,3820temperature slope calibration	1,0000multiplexer offset coefficient	1,0000multiplexer slope coefficient	1,0000fibre end	0,00T internal ref (°C)	13,73T ext. ref 1 (°C)	-2,70T ext. ref 2 (°C)	-2,99length (m)	temperature (°C)	Stokes	anti-Stokes-744,400	-65,334	0,133	0,039
-743,385	-67,605	-0,248	0,071
-742,371	-11,103	0,082	0,040
-741,356	-193,317	-0,320	0,002
-740,342	800,000	-0,010	0,022
-739,327	-171,723	-0,376	-0,009
-738,312	-200,000	-0,013	-0,113
-737,298	-33,578	-0,248	-0,100
-736,283	-200,000	-0,023	-0,184
-735,269	3,474	-0,109	-0,058
-734,254	409,474	-0,091	-0,142
-733,239	-65,803	-0,356	-0,104
-732,225	-131,149	0,295	0,029
-731,210	87,899	-0,112	0,092
-730,196	-16,367	-0,087	-0,040
-729,181	-70,513	-0,003	-0,001
-728,167	-200,000	0,002	0,103
-727,152	364,757	-0,062	-0,092
-726,137	-97,209	-0,029	0,006
-725,123	-200,000	-0,012	-0,136
-724,108	142,417	-0,042	-0,041
-723,094	547,175	-0,028	-0,049
-722,079	230,280	-0,010	-0,012
-721,064	-200,000	-0,002	-0,067
-720,050	229,341	0,125	-0,150
-719,035	-83,488	-0,058	0,014
-718,021	800,000	-0,023	0,060
-717,006	52,443	-0,090	0,063
-715,991	-200,000	-0,010	-0,234
-714,977	60,026	-0,056	-0,040
-713,962	60,300	-0,067	0,049
-712,948	248,314	0,063	-0,078
-711,933	68,824	0,051	-0,039
-710,918	510,129	-0,092	0,159
-709,904	14,165	-0,137	-0,078
-708,889	251,773	-0,122	-0,153
-707,875	-200,000	-0,011	-0,068
-706,860	-200,000	0,004	-0,065
-705,845	90,739	0,052	0,043
-704,831	-64,390	0,057	0,017
-703,816	122,450	-0,122	-0,112
-702,802	396,102	-0,023	0,036
-701,787	177,131	0,086	-0,092
-700,772	800,000	0,022	-0,050
-699,758	-200,000	-0,007	-0,032
-698,743	498,509	0,062	-0,106
-697,729	27,855	0,092	-0,057
-696,714	-37,438	-0,042	0,017
-695,699	685,257	0,067	-0,130
-694,685	627,854	-0,028	-0,052
-693,670	333,879	0,035	-0,050
-692,656	-76,001	0,117	-0,030
-691,641	30,661	0,059	0,037
-690,627	-148,511	-0,039	-0,002
-689,612	800,000	0,022	-0,053
-688,597	208,447	0,079	-0,091
-687,583	143,492	-0,061	-0,059
-686,568	-200,000	0,020	0,085
-685,554	326,000	-0,070	-0,098
-684,539	800,000	-0,013	-0,034
-683,524	-200,000	0,031	-0,134
-682,510	112,168	-0,059	-0,052
-681,495	-200,000	-0,001	-0,054
-680,481	800,000	-0,059	-0,157
-679,466	-67,535	-0,066	-0,019
-678,451	174,912	-0,090	-0,096
-677,437	219,923	-0,030	-0,035
-676,422	-200,000	0,007	0,035
-675,408	-150,147	-0,055	-0,003
-674,393	49,726	-0,049	0,034
-673,378	-200,000	0,010	-0,076
-672,364	10,016	-0,015	0,008
-671,349	-200,000	-0,045	-0,199
-670,335	-200,000	0,013	-0,096
-669,320	-17,828	-0,064	0,030
-668,305	88,102	0,066	-0,054
-667,291	-200,000	-0,006	-0,162
-666,276	-200,000	-0,018	-0,151
-665,262	314,532	0,015	-0,021
-664,247	-200,000	-0,019	-0,091
-663,232	108,808	0,050	0,044
-662,218	-200,000	0,020	0,075
-661,203	-131,326	0,032	0,003
-660,189	-76,088	-0,095	0,024
-659,174	403,936	0,056	0,086
-658,159	26,815	-0,162	-0,099
-657,145	398,174	-0,085	-0,131
-656,130	-46,654	0,178	-0,064
-655,116	-200,000	0,004	0,033
-654,101	-45,649	-0,079	0,029
-653,086	787,603	0,035	0,071
-652,072	298,490	-0,052	0,070
-651,057	53,488	-0,166	-0,117
-650,043	-200,000	-0,021	-0,111
-649,028	-63,911	-0,131	-0,039
-648,014	-33,721	-0,026	0,011
-646,999	-32,894	0,178	-0,072
-645,984	-135,690	-0,051	-0,004
-644,970	800,000	-0,041	0,093
-643,955	23,262	-0,098	0,059
-642,941	800,000	0,029	-0,066
-641,926	800,000	-0,020	0,045
-640,911	17,140	0,070	0,041
-639,897	-200,000	-0,004	-0,032
-638,882	-78,790	-0,088	-0,022
-637,868	166,291	0,031	-0,033
-636,853	469,791	0,010	-0,016
-635,838	-200,000	-0,002	0,012
-634,824	-70,188	-0,022	0,006
-633,809	800,000	0,025	0,081
-632,795	181,238	0,004	0,004
-631,780	681,419	-0,034	-0,065
-630,765	800,000	0,087	-0,185
-629,751	-93,383	-0,038	0,008
-628,736	-200,000	-0,018	-0,124
-627,722	266,847	-0,074	-0,095
-626,707	-109,818	-0,243	0,037
-625,692	800,000	0,020	-0,065
-624,678	-78,275	-0,102	-0,026
-623,663	-100,566	-0,034	0,006
-622,649	-107,901	0,084	0,013
-621,634	-95,237	-0,062	0,012
-620,619	81,752	-0,099	0,078
-619,605	-200,000	-0,025	0,101
-618,590	-134,070	0,044	-0,004
-617,576	-200,000	0,011	-0,115
-616,561	-200,000	0,018	0,121
-615,546	517,810	-0,038	-0,065
-614,532	-27,793	-0,124	0,053
-613,517	-200,000	0,023	0,155
-612,503	314,481	-0,052	0,072
-611,488	69,691	0,050	-0,038
-610,474	102,606	0,026	-0,022
-609,459	800,000	0,088	-0,184
-608,444	-200,000	-0,017	-0,157
-607,430	800,000	-0,038	-0,103
-606,415	-89,546	0,026	-0,005
-605,401	163,607	-0,032	0,033
-604,386	-118,200	0,117	-0,015
-603,371	-200,000	0,015	0,101
-602,357	800,000	-0,037	-0,093
-601,342	-200,000	-0,022	-0,105
-600,328	27,814	0,051	-0,031
-599,313	84,184	0,064	-0,052
-598,298	-134,447	0,150	0,013
-597,284	531,202	0,052	-0,091
-596,269	-46,904	0,073	0,026
-595,255	591,105	-0,027	0,050
-594,240	75,675	-0,118	-0,091
-593,225	67,141	-0,057	-0,042
-592,211	-200,000	-0,003	-0,146
-591,196	34,615	-0,027	-0,017
-590,182	52,571	0,019	0,013
-589,167	-124,599	0,067	0,008
-588,152	34,271	-0,173	-0,110
-587,138	-200,000	-0,003	-0,030
-586,123	141,106	-0,116	-0,113
-585,109	71,154	0,030	-0,023
-584,094	-69,993	-0,056	-0,015
-583,079	-101,315	0,150	0,027
-582,065	604,826	0,024	0,044
-581,050	229,906	0,066	-0,079
-580,036	163,919	-0,104	-0,108
-579,021	350,165	-0,045	-0,065
-578,006	-148,033	0,036	-0,002
-576,992	-200,000	0,006	-0,110
-575,977	-11,481	0,109	0,052
-574,963	-91,255	0,043	-0,009
-573,948	-1,713	0,102	-0,052
-572,934	800,000	-0,033	-0,087
-571,919	-200,000	0,008	-0,088
-570,904	186,873	-0,018	-0,020
-569,890	-49,030	-0,067	-0,023
-568,875	-200,000	0,009	0,096
-567,861	40,294	-0,039	-0,026
-566,846	-23,012	0,074	-0,033
-565,831	8,644	0,117	-0,064
-564,817	-62,416	-0,144	-0,043
-563,802	-78,005	-0,130	0,033
-562,788	-16,047	-0,037	0,017
-561,773	800,000	0,029	0,060
-560,758	354,793	-0,036	-0,053
-559,744	-152,745	-0,063	-0,003
-558,729	-50,674	0,053	-0,018
-557,715	35,752	-0,060	-0,038
-556,700	-44,683	0,056	-0,020
-555,685	-44,183	0,108	-0,039
-554,671	-200,000	-0,001	0,049
-553,656	29,010	-0,074	0,046
-552,642	800,000	0,011	0,029
-551,627	-136,522	0,130	-0,011
-550,612	498,083	-0,069	0,117
-549,598	-173,612	-0,188	0,004
-548,583	62,892	-0,017	-0,012
-547,569	627,119	0,033	0,062
-546,554	-35,619	-0,154	-0,061
-545,539	148,891	0,127	-0,126
-544,525	260,546	-0,076	-0,096
-543,510	591,662	-0,048	-0,087
-542,496	-200,000	0,003	-0,027
-541,481	258,778	-0,072	0,091
-540,466	-20,572	0,043	-0,019
-539,452	124,795	0,067	0,062
-538,437	-200,000	0,019	-0,110
-537,423	-184,929	0,118	0,001
-536,408	800,000	-0,016	-0,035
-535,393	280,520	-0,087	-0,113
-534,379	-63,582	-0,064	0,019
-533,364	-26,047	-0,021	-0,009
-532,350	-163,376	-0,116	0,004
-531,335	-200,000	0,003	-0,018
-530,321	492,060	-0,064	0,108
-529,306	-200,000	0,031	0,106
-528,291	-170,984	0,028	-0,001
-527,277	-120,443	-0,068	-0,008
-526,262	800,000	-0,032	-0,074
-525,248	86,544	0,076	0,061
-524,233	-81,822	0,028	-0,007
-523,218	155,413	0,028	0,029
-522,204	-40,743	0,020	-0,007
-521,189	-114,916	0,022	0,003
-520,175	186,769	-0,077	0,084
-519,160	-200,000	0,006	-0,066
-518,145	-109,080	0,050	0,008
-517,131	2,349	0,138	0,073
-516,116	-28,739	-0,088	0,037
-515,102	800,000	0,056	0,136
-514,087	-114,442	0,075	-0,010
-513,072	800,000	-0,030	-0,080
-512,058	212,919	0,016	-0,018
-511,043	-39,354	-0,022	-0,008
-510,029	-158,034	-0,027	-0,001
-509,014	-200,000	-0,003	0,013
-507,999	40,820	-0,033	0,022
-506,985	-176,717	-0,043	0,001
-505,970	-200,000	-0,001	-0,199
-504,956	296,125	-0,057	-0,077
-503,941	215,479	0,046	-0,054
-502,926	4,488	0,044	-0,024
-501,912	800,000	0,046	0,121
-500,897	-165,077	0,150	0,005
-499,883	88,469	0,028	-0,022
-498,868	376,112	-0,012	-0,018
-497,853	-141,674	0,162	0,012
-496,839	-145,923	0,055	-0,004
-495,824	80,560	0,072	0,056
-494,810	189,969	0,033	0,036
-493,795	51,343	-0,093	-0,065
-492,781	800,000	0,026	-0,075
-491,766	-89,514	-0,038	-0,008
-490,751	-170,639	-0,193	0,005
-489,737	-200,000	-0,002	-0,038
-488,722	628,739	0,019	0,035
-487,708	-53,560	-0,082	-0,027
-486,693	258,728	0,021	0,027
-485,678	800,000	-0,062	0,127
-484,664	-200,000	0,003	0,054
-483,649	111,065	0,035	0,031
-482,635	5,722	0,019	0,010
-481,620	43,839	-0,082	-0,054
-480,605	142,191	-0,106	-0,103
-479,591	128,907	-0,026	-0,024
-478,576	45,753	-0,065	0,044
-477,562	-200,000	-0,012	-0,125
-476,547	545,944	-0,026	0,046
-475,532	-200,000	0,029	-0,163
-474,518	-98,728	-0,163	0,030
-473,503	800,000	-0,061	0,123
-472,489	30,256	-0,092	0,057
-471,474	74,056	-0,064	0,049
-470,459	-200,000	0,025	0,087
-469,445	135,627	-0,092	0,088
-468,430	-176,347	0,089	0,002
-467,416	-200,000	-0,007	0,077
-466,401	201,897	0,068	0,076
-465,386	264,401	0,093	0,119
-464,372	800,000	-0,030	0,067
-463,357	607,311	0,022	-0,040
-462,343	52,738	-0,057	0,039
-461,328	-177,279	-0,070	-0,001
-460,313	800,000	-0,045	-0,105
-459,299	-145,752	0,016	0,001
-458,284	-200,000	-0,011	-0,046
-457,270	-106,547	-0,151	0,024
-456,255	-110,353	-0,207	-0,031
-455,241	-200,000	-0,008	-0,077
-454,226	-200,000	0,026	-0,142
-453,211	694,413	-0,042	-0,080
-452,197	-96,173	0,230	-0,044
-451,182	-27,497	0,139	0,059
-450,168	800,000	0,006	0,013
-449,153	-128,853	0,034	-0,003
-448,138	99,502	0,054	-0,046
-447,124	-3,765	-0,094	0,047
-446,109	-147,884	0,117	-0,007
-445,095	300,223	-0,015	-0,021
-444,080	800,000	0,068	0,144
-443,065	27,388	-0,122	0,075
-442,051	-200,000	-0,017	-0,087
-441,036	-200,000	-0,017	-0,068
-440,022	-102,712	-0,141	0,024
-439,007	485,633	0,069	-0,114
-437,992	-200,000	0,013	-0,046
-436,978	-58,293	0,026	-0,008
-435,963	-19,413	-0,052	0,023
-434,949	800,000	-0,047	-0,101
-433,934	94,897	-0,094	0,078
-432,919	64,113	-0,040	0,029
-431,905	79,739	-0,078	-0,061
-430,890	425,665	-0,104	0,164
-429,876	-200,000	0,038	0,222
-428,861	-200,000	-0,025	0,111
-427,846	147,976	0,089	-0,088
-426,832	-146,702	-0,093	0,006
-425,817	380,463	-0,075	-0,112
-424,803	147,499	-0,076	-0,075
-423,788	51,753	-0,045	-0,031
-422,773	141,447	-0,067	0,065
-421,759	-173,586	0,158	0,003
-420,744	453,038	-0,033	-0,054
-419,730	63,902	-0,169	0,123
-418,715	-124,684	-0,129	0,014
-417,701	-200,000	0,002	-0,026
-416,686	-200,000	-0,011	-0,123
-415,671	-10,542	-0,082	0,040
-414,657	-200,000	-0,014	0,068
-413,642	133,463	0,097	0,091
-412,628	192,846	-0,039	-0,043
-411,613	800,000	-0,033	-0,099
-410,598	-87,173	0,057	0,013
-409,584	325,410	-0,091	0,126
-408,569	20,594	-0,104	0,061
-407,555	285,673	-0,013	-0,017
-406,540	219,739	-0,093	-0,109
-405,525	72,403	-0,119	-0,090
-404,511	-200,000	0,010	0,038
-403,496	-99,986	-0,043	0,008
-402,482	800,000	-0,051	-0,148
-401,467	-112,503	-0,039	0,006
-400,452	-200,000	-0,008	-0,047
-399,438	800,000	0,027	-0,066
-398,423	-200,000	0,021	0,082
-397,409	303,515	0,028	0,038
-396,394	-200,000	-0,007	0,036
-395,379	-12,247	-0,012	-0,006
-394,365	-133,290	0,120	-0,011
-393,350	-33,514	0,099	0,040
-392,336	-200,000	-0,004	0,157
-391,321	-24,814	-0,051	0,022
-390,306	22,400	0,113	-0,067
-389,292	-138,003	-0,109	-0,009
-388,277	-69,473	0,144	-0,040
-387,263	800,000	0,015	0,035
-386,248	17,661	0,034	-0,020
-385,233	-109,911	-0,153	-0,023
-384,219	800,000	0,056	-0,121
-383,204	-69,009	-0,144	0,040
-382,190	32,981	-0,081	0,051
-381,175	-200,000	-0,017	0,125
-380,160	-129,398	0,012	-0,001
-379,146	292,276	0,044	-0,058
-378,131	362,451	0,067	-0,099
-377,117	-200,000	-0,022	0,129
-376,102	-20,893	-0,053	0,024
-375,088	105,080	-0,056	-0,048
-374,073	800,000	-0,028	-0,081
-373,058	184,230	0,069	0,074
-372,044	7,360	0,137	0,074
-371,029	800,000	-0,036	0,085
-370,015	-57,600	0,048	-0,015
-369,000	67,708	0,093	0,069
-367,985	-200,000	0,006	0,100
-366,971	85,493	-0,052	-0,041
-365,956	6,764	0,085	-0,046
-364,942	800,000	-0,031	0,076
-363,927	800,000	0,082	0,166
-362,912	-0,358	-0,089	0,046
-361,898	470,736	0,045	-0,073
-360,883	800,000	-0,077	-0,186
-359,869	-111,440	-0,076	-0,011
-358,854	-200,000	-0,024	-0,117
-357,839	-52,486	-0,073	0,024
-356,825	-62,164	0,198	0,060
-355,810	74,888	-0,086	0,066
-354,796	-157,971	0,080	0,003
-353,781	209,038	0,060	-0,068
-352,766	800,000	0,008	-0,025
-351,752	360,278	0,102	0,149
-350,737	-114,782	0,062	-0,008
-349,723	-200,000	0,020	-0,079
-348,708	164,196	-0,040	-0,041
-347,693	59,118	0,010	0,007
-346,679	-112,520	-0,136	-0,019
-345,664	800,000	-0,029	-0,067
-344,650	212,647	0,032	-0,036
-343,635	110,314	-0,032	-0,028
-342,620	-200,000	-0,005	0,131
-341,606	92,721	0,120	0,098
-340,591	-120,361	-0,257	-0,031
-339,577	340,978	0,050	-0,071
-338,562	626,081	0,020	-0,036
-337,548	-67,666	0,023	0,007
-336,533	377,694	-0,075	0,111
-335,518	179,901	0,085	0,090
-334,504	193,117	0,123	0,135
-333,489	272,117	0,032	0,041
-332,475	-200,000	-0,007	0,045
-331,460	231,720	0,058	-0,068
-330,445	180,536	0,069	0,074
-329,431	152,911	0,080	0,080
-328,416	280,110	0,075	-0,098
-327,402	-159,117	-0,004	0,000
-326,387	-75,221	-0,132	0,034
-325,372	-87,413	0,158	0,035
-324,358	46,628	-0,059	0,040
-323,343	62,498	-0,061	-0,044
-322,329	144,073	0,066	-0,063
-321,314	-170,062	0,105	0,003
-320,299	800,000	0,060	0,187
-319,285	-24,614	-0,139	-0,060
-318,270	-200,000	-0,004	0,020
-317,256	800,000	-0,074	-0,182
-316,241	489,902	0,126	-0,210
-315,226	-51,786	0,026	-0,009
-314,212	96,096	-0,159	0,132
-313,197	212,014	0,052	0,059
-312,183	-12,917	-0,132	-0,062
-311,168	-147,563	0,094	-0,006
-310,153	800,000	0,049	0,101
-309,139	800,000	0,035	-0,081
-308,124	-175,930	0,102	-0,002
-307,110	197,195	0,060	0,066
-306,095	72,739	0,111	0,084
-305,080	800,000	0,003	-0,007
-304,066	-200,000	-0,014	-0,134
-303,051	-17,890	0,155	-0,070
-302,037	800,000	-0,020	-0,050
-301,022	96,197	-0,139	-0,115
-300,008	-200,000	0,012	0,086
-298,993	107,934	0,015	0,013
-297,978	-200,000	0,008	0,168
-296,964	60,693	-0,061	0,044
-295,949	-141,649	0,117	-0,008
-294,935	800,000	-0,035	-0,095
-293,920	21,365	0,153	-0,090
-292,905	21,687	0,068	0,040
-291,891	-200,000	0,008	0,034
-290,876	-200,000	-0,034	0,132
-289,862	-200,000	-0,011	-0,096
-288,847	313,071	0,063	-0,086
-287,832	-7,699	0,124	-0,061
-286,818	-7,295	0,036	0,018
-285,803	800,000	0,058	0,144
-284,789	800,000	0,071	0,173
-283,774	-46,658	0,154	0,054
-282,759	179,502	0,037	-0,039
-281,745	286,079	0,008	-0,011
-280,730	-39,598	0,159	0,060
-279,716	-200,000	0,009	-0,042
-278,701	126,190	-0,132	0,121
-277,686	800,000	-0,018	0,041
-276,672	70,679	0,069	-0,051
-275,657	211,490	-0,076	0,087
-274,643	-142,017	-0,054	-0,004
-273,628	91,288	0,092	-0,075
-272,613	-200,000	0,004	-0,028
-271,599	-200,000	0,010	-0,045
-270,584	-200,000	-0,024	0,177
-269,570	-127,965	-0,023	0,002
-268,555	800,000	-0,036	0,105
-267,540	-200,000	0,009	-0,074
-266,526	-200,000	-0,013	-0,069
-265,511	758,329	0,016	-0,031
-264,497	331,753	0,088	0,123
-263,482	-107,981	0,070	0,011
-262,467	215,392	0,096	0,110
-261,453	152,743	-0,057	0,056
-260,438	-77,565	-0,030	-0,007
-259,424	-200,000	0,000	-0,030
-258,409	237,237	0,027	0,032
-257,395	-60,742	-0,082	0,025
-256,380	-200,000	0,004	-0,053
-255,365	-200,000	-0,020	0,072
-254,351	375,802	0,074	0,109
-253,336	-200,000	-0,009	-0,033
-252,322	-200,000	0,016	0,072
-251,307	448,587	0,038	0,060
-250,292	-200,000	0,016	-0,119
-249,278	-200,000	0,005	0,053
-248,263	-200,000	0,038	0,124
-247,249	-200,000	0,014	0,107
-246,234	800,000	0,028	-0,074
-245,219	-95,055	0,030	0,006
-244,205	-80,009	-0,169	0,041
-243,190	-200,000	-0,010	-0,069
-242,176	785,543	-0,066	0,131
-241,161	313,593	-0,042	0,057
-240,146	7,099	0,038	0,021
-239,132	33,806	-0,051	-0,032
-238,117	-200,000	-0,018	0,130
-237,103	800,000	0,054	0,144
-236,088	800,000	0,011	0,026
-235,073	11,166	0,165	-0,091
-234,059	166,465	0,052	-0,053
-233,044	59,614	-0,081	0,057
-232,030	-200,000	-0,001	0,113
-231,015	35,812	-0,066	-0,042
-230,000	-200,000	0,042	0,144
-228,986	3,643	0,026	0,013
-227,971	-162,230	0,057	0,002
-226,957	-50,239	0,129	0,044
-225,942	-9,463	0,131	0,063
-224,927	-200,000	-0,003	0,016
-223,913	-0,855	-0,022	0,011
-222,898	-75,069	0,112	0,029
-221,884	303,248	-0,058	-0,077
-220,869	118,140	0,116	-0,103
-219,855	-200,000	-0,003	0,159
-218,840	-116,058	0,079	-0,011
-217,825	196,427	-0,008	0,009
-216,811	76,098	-0,060	-0,046
-215,796	-200,000	-0,035	-0,170
-214,782	-200,000	-0,015	-0,080
-213,767	-38,636	0,040	0,015
-212,752	-200,000	0,001	-0,093
-211,738	-154,404	-0,049	-0,002
-210,723	337,044	-0,012	0,017
-209,709	83,914	-0,085	0,067
-208,694	405,616	-0,068	-0,103
-207,679	132,697	-0,106	0,099
-206,665	-27,646	0,114	-0,047
-205,650	800,000	-0,023	-0,064
-204,636	-196,484	0,108	-0,001
-203,621	49,241	0,049	0,033
-202,606	-134,635	0,016	-0,001
-201,592	-200,000	0,001	-0,027
-200,577	-38,994	-0,142	0,053
-199,563	181,983	0,037	-0,039
-198,548	8,325	-0,030	-0,016
-197,533	497,320	0,111	0,184
-196,519	348,748	-0,084	0,120
-195,504	23,487	0,078	-0,046
-194,490	111,282	0,051	-0,044
-193,475	-111,715	-0,127	0,018
-192,460	-174,936	0,029	0,001
-191,446	-200,000	-0,005	-0,040
-190,431	530,684	0,038	0,065
-189,417	-200,000	0,001	0,088
-188,402	800,000	-0,030	-0,080
-187,387	800,000	-0,056	0,142
-186,373	427,802	0,042	0,065
-185,358	19,459	-0,098	-0,057
-184,344	-200,000	0,008	-0,076
-183,329	43,714	0,120	-0,079
-182,315	603,372	0,023	-0,042
-181,300	-200,000	0,014	-0,142
-180,285	-101,212	-0,052	0,009
-179,271	134,463	-0,052	0,049
-178,256	724,458	-0,055	0,106
-177,242	-200,000	-0,034	0,121
-176,227	800,000	0,016	0,041
-175,212	800,000	-0,045	-0,125
-174,198	381,636	-0,107	0,158
-173,183	-13,588	0,060	-0,028
-172,169	-200,000	0,039	-0,189
-171,154	-200,000	-0,003	-0,162
-170,139	-109,255	0,113	-0,017
-169,125	-25,658	0,070	-0,029
-168,110	-200,000	0,008	-0,169
-167,096	-58,284	0,068	-0,021
-166,081	800,000	0,019	0,052
-165,066	-200,000	0,020	-0,182
-164,052	-200,000	0,001	0,032
-163,037	227,803	0,083	-0,097
-162,023	217,476	0,069	-0,080
-161,008	-200,000	0,013	0,060
-159,993	-29,199	-0,060	-0,025
-158,979	-78,319	0,059	0,015
-157,964	-200,000	0,050	0,190
-156,950	427,355	0,012	0,018
-155,935	-200,000	0,015	-0,049
-154,920	-200,000	-0,036	0,123
-153,906	-135,707	0,160	-0,013
-152,891	-33,236	-0,145	0,058
-151,877	553,964	0,013	-0,023
-150,862	-200,000	0,017	-0,120
-149,847	311,831	-0,068	-0,093
-148,833	121,456	0,060	0,054
-147,818	83,697	0,041	0,032
-146,804	8,682	0,126	0,068
-145,789	99,126	-0,059	0,049
-144,775	686,428	0,021	-0,041
-143,760	-200,000	-0,012	-0,079
-142,745	800,000	-0,035	-0,076
-141,731	435,850	0,106	-0,166
-140,716	-9,946	-0,035	0,017
-139,702	56,454	0,100	0,070
-138,687	164,576	-0,008	-0,009
-137,672	74,616	-0,111	-0,084
-136,658	-200,000	-0,003	-0,026
-135,643	-200,000	-0,008	-0,030
-134,629	116,928	-0,060	-0,053
-133,614	-200,000	-0,002	0,062
-132,599	71,679	-0,011	0,008
-131,585	19,193	0,058	0,033
-130,570	-95,822	-0,177	-0,034
-129,556	-200,000	0,002	-0,085
-128,541	800,000	-0,045	-0,094
-127,526	28,778	0,116	-0,070
-126,512	-200,000	0,013	0,074
-125,497	-56,809	0,117	-0,037
-124,483	143,326	-0,027	-0,026
-123,468	125,951	-0,050	-0,046
-122,453	39,250	0,026	0,017
-121,439	800,000	-0,079	-0,168
-120,424	-200,000	-0,021	-0,134
