DTS Sentinel unit serial number:	SN410029Multiplexer serial number:	ORYXHardware model number:	OX2-SRSoftware version number:	ORYX F/W v4,00 Oryx Data Collector v3.7.2.0data status	okinstallation	B5 Nyhavnadifferential loss correction	single-endedforward channel	channel 2reverse channel	N/Adate	2023/12/14time	00:47:13forward acquisition time	300,00reverse acquisition time	0,00gamma	499,1914k internal	0,3155k external	0,3155temperature offset calibration	1,0000default loss term (dB/km)	0,3820temperature slope calibration	1,0000multiplexer offset coefficient	1,0000multiplexer slope coefficient	1,0000fibre end	0,00T internal ref (°C)	8,67T ext. ref 1 (°C)	-7,21T ext. ref 2 (°C)	-7,22length (m)	temperature (°C)	Stokes	anti-Stokes-744,400	800,000	-0,062	0,127
-743,385	-80,922	-0,335	-0,081
-742,371	-71,948	0,132	0,036
-741,356	-90,011	-0,295	-0,063
-740,342	116,353	0,162	0,146
-739,327	-78,100	-0,312	-0,079
-738,312	36,275	0,104	0,068
-737,298	-33,257	-0,410	-0,167
-736,283	-26,638	0,032	-0,014
-735,269	-14,850	-0,309	-0,146
-734,254	20,945	0,169	0,101
-733,239	40,757	-0,459	-0,305
-732,225	140,017	0,188	0,183
-731,210	-200,000	0,007	0,107
-730,196	2,910	0,089	-0,048
-729,181	179,623	-0,070	-0,076
-728,167	453,039	0,004	0,007
-727,152	358,527	-0,070	-0,103
-726,137	-91,095	-0,101	-0,021
-725,123	125,685	-0,066	-0,062
-724,108	-171,181	-0,108	0,003
-723,094	-200,000	-0,015	-0,165
-722,079	38,750	-0,096	-0,063
-721,064	2,618	0,124	0,066
-720,050	-200,000	-0,001	0,043
-719,035	-58,283	-0,130	-0,041
-718,021	-3,902	-0,077	-0,039
-717,006	415,855	-0,093	-0,147
-715,991	68,115	-0,101	-0,076
-714,977	-190,844	-0,250	-0,002
-713,962	24,743	0,095	-0,058
-712,948	-200,000	0,013	0,101
-711,933	-132,717	-0,140	-0,013
-710,918	-80,282	-0,107	0,026
-709,904	112,507	-0,037	-0,033
-708,889	-165,999	0,072	0,002
-707,875	-11,511	-0,138	0,067
-706,860	30,892	0,072	-0,045
-705,845	19,818	0,138	0,082
-704,831	120,274	-0,086	-0,079
-703,816	-129,870	0,103	0,010
-702,802	-200,000	-0,002	-0,009
-701,787	800,000	-0,022	-0,058
-700,772	289,157	-0,090	-0,121
-699,758	800,000	-0,021	0,049
-698,743	301,521	0,056	-0,076
-697,729	53,371	0,076	0,053
-696,714	-200,000	0,012	0,054
-695,699	-100,899	-0,137	-0,024
-694,685	33,579	0,070	-0,045
-693,670	-200,000	0,019	-0,075
-692,656	-19,986	0,126	-0,057
-691,641	242,253	-0,034	0,042
-690,627	747,298	0,068	0,137
-689,612	387,176	0,077	0,118
-688,597	294,016	-0,047	-0,063
-687,583	-73,133	-0,041	-0,011
-686,568	104,628	-0,038	-0,033
-685,554	800,000	-0,069	0,175
-684,539	800,000	0,011	0,027
-683,524	-124,942	0,043	-0,005
-682,510	183,885	-0,034	0,038
-681,495	-200,000	0,036	0,139
-680,481	550,489	-0,024	0,042
-679,466	800,000	-0,055	-0,144
-678,451	731,960	0,015	-0,030
-677,437	-200,000	-0,004	0,025
-676,422	767,005	-0,031	0,061
-675,408	-200,000	-0,027	-0,190
-674,393	-200,000	0,011	0,040
-673,378	531,894	0,035	0,061
-672,364	55,489	-0,073	0,052
-671,349	245,527	0,070	-0,086
-670,335	-200,000	-0,013	0,065
-669,320	-59,240	-0,090	0,028
-668,305	79,888	-0,037	0,029
-667,291	800,000	-0,021	0,064
-666,276	154,477	-0,097	-0,098
-665,262	-133,746	-0,147	0,013
-664,247	646,209	0,032	0,060
-663,232	-200,000	-0,007	-0,042
-662,218	191,816	0,030	-0,033
-661,203	800,000	0,008	-0,021
-660,189	-115,824	-0,092	0,013
-659,174	-75,569	-0,038	0,010
-658,159	-200,000	-0,003	-0,129
-657,145	-10,701	-0,127	-0,062
-656,130	309,655	0,084	0,116
-655,116	800,000	0,030	0,074
-654,101	-200,000	0,003	-0,121
-653,086	66,175	0,095	-0,071
-652,072	-63,938	-0,107	-0,032
-651,057	1,558	-0,096	-0,051
-650,043	800,000	-0,021	0,053
-649,028	120,180	0,049	0,045
-648,014	-200,000	0,001	0,027
-646,999	-175,367	0,139	0,003
-645,984	260,685	0,039	0,049
-644,970	481,220	-0,073	-0,123
-643,955	-94,193	-0,091	-0,018
-642,941	-200,000	0,014	-0,053
-641,926	23,145	-0,070	-0,042
-640,911	-200,000	0,043	-0,156
-639,897	-200,000	0,030	0,107
-638,882	-133,150	0,064	0,006
-637,868	148,448	-0,111	0,111
-636,853	278,511	-0,039	-0,051
-635,838	800,000	-0,041	-0,131
-634,824	6,978	-0,144	0,079
-633,809	800,000	0,019	0,050
-632,795	-200,000	0,025	0,107
-631,780	800,000	-0,044	0,121
-630,765	100,791	-0,039	0,033
-629,751	562,536	-0,089	-0,159
-628,736	-156,861	-0,138	-0,006
-627,722	800,000	0,007	0,016
-626,707	-1,811	0,103	0,053
-625,692	-12,507	-0,138	0,066
-624,678	-163,209	-0,073	0,003
-623,663	250,747	-0,066	0,083
-622,649	-13,399	-0,108	0,051
-621,634	181,271	0,030	0,032
-620,619	655,018	0,063	-0,119
-619,605	-84,154	0,073	0,017
-618,590	-49,265	-0,011	-0,004
-617,576	245,721	-0,086	0,106
-616,561	-68,794	0,091	0,026
-615,546	-200,000	-0,005	-0,096
-614,532	316,325	-0,117	-0,163
-613,517	-94,895	-0,061	-0,012
-612,503	369,592	0,106	-0,158
-611,488	-66,235	0,069	0,020
-610,474	107,441	-0,060	-0,053
-609,459	-138,700	0,154	0,012
-608,444	69,228	-0,072	-0,054
-607,430	51,910	-0,035	-0,024
-606,415	-118,224	-0,123	-0,016
-605,401	28,502	-0,063	0,039
-604,386	4,761	0,100	-0,054
-603,371	13,019	-0,048	0,027
-602,357	-200,000	0,002	-0,063
-601,342	-200,000	-0,005	-0,055
-600,328	170,893	-0,070	-0,074
-599,313	-200,000	-0,012	-0,240
-598,298	150,078	-0,077	-0,077
-597,284	464,095	0,031	-0,052
-596,269	136,160	0,035	0,034
-595,255	-200,000	0,001	0,111
-594,240	132,905	-0,053	-0,050
-593,225	60,472	-0,104	-0,075
-592,211	800,000	-0,008	0,026
-591,196	108,691	-0,086	-0,075
-590,182	-53,262	-0,097	0,032
-589,167	62,886	-0,040	0,029
-588,152	-200,000	-0,009	0,102
-587,138	115,944	0,061	-0,055
-586,123	-9,768	-0,130	-0,063
-585,109	184,355	-0,058	-0,063
-584,094	-200,000	0,007	0,103
-583,079	-106,227	0,079	0,013
-582,065	330,605	0,072	0,102
-581,050	557,595	-0,051	-0,091
-580,036	800,000	-0,024	0,066
-579,021	-78,538	-0,263	-0,066
-578,006	-200,000	0,023	-0,091
-576,992	92,115	-0,124	0,103
-575,977	-106,798	0,076	0,012
-574,963	800,000	-0,039	0,085
-573,948	255,687	0,081	0,102
-572,934	140,712	-0,080	0,078
-571,919	13,236	-0,101	0,057
-570,904	-200,000	-0,012	0,066
-569,890	111,998	-0,056	0,049
-568,875	-7,516	-0,044	-0,022
-567,861	-200,000	0,001	-0,077
-566,846	-200,000	-0,000	0,080
-565,831	800,000	-0,072	0,150
-564,817	207,083	0,026	0,029
-563,802	800,000	-0,045	0,132
-562,788	-166,112	0,090	0,003
-561,773	800,000	0,037	-0,075
-560,758	-200,000	0,022	0,135
-559,744	71,882	0,062	0,047
-558,729	800,000	0,033	-0,090
-557,715	-200,000	0,022	-0,099
-556,700	295,734	-0,110	-0,148
-555,685	-93,009	-0,186	-0,038
-554,671	-50,227	0,203	0,070
-553,656	218,708	-0,024	-0,028
-552,642	-28,303	-0,081	-0,034
-551,627	-200,000	0,001	0,055
-550,612	138,996	-0,065	0,063
-549,598	-11,644	-0,089	0,043
-548,583	-200,000	-0,004	-0,122
-547,569	326,820	0,067	-0,094
-546,554	83,582	0,085	0,068
-545,539	197,938	0,035	0,039
-544,525	1,897	0,097	0,051
-543,510	107,148	0,032	0,028
-542,496	392,967	-0,094	-0,144
-541,481	322,345	0,024	-0,033
-540,466	-91,567	-0,063	0,013
-539,452	-47,972	0,121	0,043
-538,437	343,722	0,066	0,095
-537,423	-37,826	-0,142	0,055
-536,408	39,708	-0,108	0,071
-535,393	-4,564	0,030	0,015
-534,379	-200,000	0,003	-0,017
-533,364	-200,000	-0,011	-0,042
-532,350	54,533	0,051	-0,036
-531,335	-12,268	-0,063	0,030
-530,321	-34,427	0,138	0,055
-529,306	-101,212	-0,051	0,009
-528,291	-200,000	-0,010	-0,050
-527,277	800,000	0,016	0,033
-526,262	-116,495	0,085	-0,011
-525,248	-82,493	0,040	0,009
-524,233	74,408	0,129	-0,099
-523,218	145,902	-0,084	0,082
-522,204	800,000	0,033	0,100
-521,189	-76,871	-0,092	-0,023
-520,175	-25,448	0,052	-0,023
-519,160	51,580	0,036	0,025
-518,145	-108,286	0,055	-0,009
-517,131	800,000	-0,043	0,101
-516,116	-89,695	0,083	-0,018
-515,102	71,337	-0,067	0,051
-514,087	-35,694	0,115	-0,046
-513,072	92,785	-0,136	-0,112
-512,058	-200,000	0,011	-0,079
-511,043	-143,145	0,167	0,012
-510,029	-131,222	-0,100	0,010
-509,014	-105,785	0,081	-0,013
-507,999	423,316	-0,023	-0,037
-506,985	523,385	-0,026	-0,045
-505,970	262,098	0,018	0,023
-504,956	86,223	-0,029	-0,023
-503,941	-200,000	0,005	0,040
-502,926	702,185	-0,016	0,032
-501,912	-7,594	0,170	0,084
-500,897	556,845	0,049	-0,087
-499,883	-51,274	0,022	-0,007
-498,868	298,510	-0,089	0,120
-497,853	-200,000	-0,002	-0,062
-496,839	535,182	0,047	-0,081
-495,824	136,026	-0,058	-0,055
-494,810	-43,442	-0,040	-0,015
-493,795	800,000	0,022	-0,046
-492,781	800,000	0,031	-0,076
-491,766	-200,000	-0,006	0,036
-490,751	786,619	-0,012	-0,024
-489,737	164,538	0,022	0,022
-488,722	124,623	0,074	0,068
-487,708	80,570	-0,060	0,047
-486,693	224,776	0,084	-0,100
-485,678	-200,000	0,001	0,081
-484,664	-166,335	0,024	-0,001
-483,649	800,000	0,031	0,081
-482,635	-10,886	-0,135	-0,065
-481,620	23,756	0,041	-0,025
-480,605	-121,947	-0,030	-0,004
-479,591	-48,763	0,076	0,027
-478,576	75,943	-0,063	0,048
-477,562	-104,432	0,051	0,009
-476,547	-121,620	-0,027	-0,003
-475,532	3,470	0,030	0,016
-474,518	-200,000	0,034	0,132
-473,503	369,008	-0,089	0,132
-472,489	-146,758	0,053	0,003
-471,474	-142,698	-0,108	-0,008
-470,459	187,564	-0,013	0,014
-469,445	59,615	-0,085	-0,061
-468,430	-9,329	0,088	-0,043
-467,416	-49,937	0,017	-0,006
-466,401	-125,845	0,076	-0,008
-465,386	-76,458	0,136	0,035
-464,372	266,381	-0,014	-0,017
-463,357	405,229	-0,011	-0,017
-462,343	-75,967	-0,031	-0,008
-461,328	-200,000	-0,020	0,072
-460,313	278,950	-0,020	-0,026
-459,299	84,647	0,118	0,094
-458,284	133,293	0,043	-0,041
-457,270	154,854	-0,024	0,024
-456,255	-200,000	0,015	-0,069
-455,241	44,400	-0,097	-0,065
-454,226	151,709	-0,039	-0,039
-453,211	-200,000	-0,003	-0,012
-452,197	20,479	0,040	-0,024
-451,182	209,208	0,044	0,050
-450,168	-200,000	0,015	-0,101
-449,153	227,131	-0,030	0,036
-448,138	128,178	-0,096	-0,089
-447,124	-200,000	-0,023	-0,089
-446,109	210,006	0,079	0,091
-445,095	800,000	0,051	-0,137
-444,080	-200,000	-0,039	0,136
-443,065	4,145	0,020	-0,010
-442,051	800,000	0,034	-0,085
-441,036	-71,257	-0,090	-0,024
-440,022	-33,872	0,124	0,050
-439,007	800,000	0,035	-0,075
-437,992	-200,000	0,032	0,193
-436,978	-200,000	-0,003	0,014
-435,963	-48,127	-0,095	-0,033
-434,949	2,040	0,054	0,028
-433,934	69,692	-0,059	-0,044
-432,919	617,900	-0,001	-0,001
-431,905	-30,249	-0,046	0,019
-430,890	-89,991	0,060	0,013
-429,876	-93,587	0,068	0,014
-428,861	-83,503	-0,187	0,043
-427,846	800,000	0,084	-0,183
-426,832	-200,000	0,020	0,072
-425,817	-130,440	-0,032	0,003
-424,803	-5,413	-0,027	0,014
-423,788	588,337	-0,012	-0,021
-422,773	-50,883	0,137	0,046
-421,759	-54,163	0,111	0,037
-420,744	12,433	-0,080	0,045
-419,730	80,106	0,038	-0,030
-418,715	460,915	0,026	0,043
-417,701	-200,000	0,009	-0,043
-416,686	-58,542	0,064	-0,020
-415,671	-200,000	-0,039	0,000
-414,657	692,671	0,027	-0,051
-413,642	-200,000	0,003	-0,068
-412,628	66,394	0,076	-0,056
-411,613	-117,398	-0,073	-0,009
-410,598	-200,000	-0,007	-0,061
-409,584	-106,280	0,011	-0,002
-408,569	800,000	0,048	0,115
-407,555	-200,000	0,005	-0,020
-406,540	-200,000	0,013	0,043
-405,525	-117,237	0,092	0,012
-404,511	-200,000	-0,009	0,076
-403,496	430,833	0,024	-0,038
-402,482	-116,042	0,107	-0,014
-401,467	-200,000	0,001	-0,008
-400,452	176,090	-0,100	0,106
-399,438	161,445	-0,122	0,124
-398,423	349,942	0,080	-0,115
-397,409	-200,000	0,009	-0,094
-396,394	-145,639	0,063	0,004
-395,379	718,980	-0,030	0,059
-394,365	-200,000	-0,022	0,145
-393,350	403,205	-0,056	0,086
-392,336	800,000	-0,008	-0,017
-391,321	47,073	-0,035	-0,023
-390,306	737,207	-0,049	-0,096
-389,292	-167,882	0,028	0,001
-388,277	-135,290	-0,116	-0,010
-387,263	-109,079	0,160	0,025
-386,248	-117,114	0,066	0,009
-385,233	-21,492	-0,063	0,028
-384,219	670,988	0,024	-0,046
-383,204	-200,000	-0,007	-0,124
-382,190	-200,000	-0,027	0,118
-381,175	-34,216	-0,014	-0,005
-380,160	-10,526	0,082	0,039
-379,146	211,397	0,100	0,115
-378,131	204,322	0,044	-0,049
-377,117	-102,996	0,065	0,011
-376,102	291,250	-0,103	-0,137
-375,088	47,982	-0,044	0,030
-374,073	256,735	0,066	0,082
-373,058	-102,341	-0,088	-0,015
-372,044	-200,000	-0,001	0,019
-371,029	-200,000	0,008	0,035
-370,015	800,000	-0,047	-0,149
-369,000	41,374	-0,136	-0,090
-367,985	800,000	-0,054	-0,131
-366,971	-200,000	-0,001	0,061
-365,956	-25,514	0,055	0,024
-364,942	214,812	0,064	-0,074
-363,927	234,579	-0,026	-0,031
-362,912	57,961	-0,111	0,079
-361,898	-59,506	0,139	-0,043
-360,883	-65,249	-0,071	0,021
-359,869	-79,806	0,065	-0,016
-358,854	74,442	0,042	0,032
-357,839	800,000	0,031	0,063
-356,825	-200,000	0,006	0,084
-355,810	2,878	-0,050	-0,027
-354,796	-200,000	-0,001	-0,215
-353,781	800,000	-0,037	-0,087
-352,766	708,180	0,009	-0,018
-351,752	800,000	0,019	-0,039
-350,737	800,000	0,028	-0,075
-349,723	-16,075	-0,123	0,057
-348,708	-123,742	0,142	0,016
-347,693	38,688	-0,022	-0,014
-346,679	-200,000	-0,021	-0,177
-345,664	791,031	-0,033	-0,066
-344,650	27,913	-0,060	-0,037
-343,635	-60,191	-0,106	-0,033
-342,620	-1,544	-0,098	0,050
-341,606	338,757	-0,013	-0,019
-340,591	-71,641	-0,043	0,011
-339,577	-21,378	-0,095	-0,042
-338,562	-200,000	0,033	-0,146
-337,548	168,149	0,156	-0,162
-336,533	223,670	0,045	-0,053
-335,518	136,595	-0,032	0,030
-334,504	-200,000	-0,015	-0,064
-333,489	800,000	-0,041	0,108
-332,475	-200,000	-0,001	-0,139
-331,460	-200,000	0,010	-0,086
-330,445	60,316	-0,063	-0,045
-329,431	800,000	0,025	-0,073
-328,416	-51,457	0,058	0,020
-327,402	-169,578	0,073	0,002
-326,387	800,000	-0,027	-0,060
-325,372	-11,837	-0,097	-0,046
-324,358	191,664	0,059	0,064
-323,343	-200,000	-0,000	-0,041
-322,329	800,000	-0,014	0,043
-321,314	62,114	0,062	0,045
-320,299	633,850	0,065	0,120
-319,285	186,556	-0,070	-0,075
-318,270	-200,000	-0,004	0,110
-317,256	-78,404	-0,076	-0,019
-316,241	-200,000	0,012	-0,091
-315,226	101,108	0,107	0,091
-314,212	-200,000	-0,006	0,098
-313,197	-200,000	0,017	0,121
-312,183	-20,082	0,060	-0,027
-311,168	-200,000	0,002	0,035
-310,153	-87,304	0,103	0,022
-309,139	-48,786	-0,108	-0,038
-308,124	-70,163	-0,080	-0,022
-307,110	-161,839	0,103	-0,004
-306,095	-95,676	0,055	-0,011
-305,080	-154,224	-0,111	-0,005
-304,066	318,951	0,053	-0,073
-303,051	133,955	-0,067	-0,063
-302,037	-200,000	-0,007	-0,082
-301,022	47,923	-0,081	0,055
-300,008	800,000	0,048	-0,108
-298,993	36,307	0,059	-0,038
-297,978	800,000	0,102	0,211
-296,964	72,996	0,067	0,050
-295,949	-200,000	-0,012	-0,087
-294,935	800,000	0,043	-0,092
-293,920	144,888	-0,021	-0,020
-292,905	-200,000	0,006	0,021
-291,891	800,000	0,041	0,111
-290,876	244,772	-0,095	0,116
-289,862	-50,648	0,057	-0,019
-288,847	-200,000	-0,044	-0,145
-287,832	-70,565	0,128	-0,035
-286,818	521,628	-0,047	0,081
-285,803	-200,000	0,020	0,121
-284,789	53,083	0,062	0,043
-283,774	-62,941	0,109	-0,033
-282,759	-200,000	-0,003	-0,090
-281,745	16,421	-0,143	-0,082
-280,730	109,540	-0,105	-0,091
-279,716	21,431	0,042	0,025
-278,701	-22,591	0,069	0,030
-277,686	800,000	-0,056	0,125
-276,672	339,298	0,065	0,093
-275,657	-5,890	-0,083	0,041
-274,643	-10,019	-0,096	-0,046
-273,628	800,000	-0,027	-0,082
-272,613	167,709	0,053	-0,055
-271,599	523,996	0,028	-0,048
-270,584	800,000	-0,029	-0,060
-269,570	-68,948	0,152	0,042
-268,555	800,000	-0,035	0,091
-267,540	106,906	-0,074	0,064
-266,526	-37,896	-0,143	0,055
-265,511	-152,250	-0,073	-0,004
-264,497	-39,685	0,056	-0,021
-263,482	31,222	-0,043	-0,026
-262,467	-200,000	-0,019	-0,112
-261,453	800,000	-0,021	0,064
-260,438	336,719	-0,046	0,065
-259,424	375,782	-0,004	0,005
-258,409	73,019	0,046	-0,035
-257,395	137,625	-0,040	0,038
-256,380	-107,614	0,109	0,017
-255,365	-140,595	-0,068	-0,005
-254,351	-103,096	-0,024	-0,004
-253,336	240,875	0,040	-0,049
-252,322	800,000	0,067	-0,139
-251,307	-92,925	0,087	-0,017
-250,292	104,410	0,074	0,063
-249,278	800,000	0,035	-0,107
-248,263	433,197	-0,022	0,034
-247,249	127,535	0,079	0,073
-246,234	-0,227	-0,150	-0,077
-245,219	-200,000	-0,017	-0,058
-244,205	-123,285	0,116	0,013
-243,190	2,231	-0,030	0,016
-242,176	-77,097	-0,024	0,006
-241,161	334,861	0,040	0,056
-240,146	9,520	0,087	0,048
-239,132	330,158	-0,036	0,050
-238,117	-200,000	0,025	-0,092
-237,103	225,516	0,129	0,152
-236,088	-92,936	0,041	0,008
-235,073	800,000	-0,040	0,087
-234,059	154,080	-0,093	0,092
-233,044	-34,547	0,113	0,045
-232,030	800,000	0,021	-0,048
-231,015	800,000	0,031	0,095
-230,000	268,876	-0,008	0,011
-228,986	800,000	-0,012	-0,037
-227,971	469,812	0,035	0,057
-226,957	723,712	0,043	0,082
-225,942	800,000	0,039	-0,088
-224,927	800,000	0,038	-0,090
-223,913	4,630	0,044	0,023
-222,898	-101,778	-0,023	-0,004
-221,884	-119,059	-0,077	0,010
-220,869	127,797	0,073	-0,067
-219,855	-6,782	-0,101	-0,050
-218,840	91,173	-0,049	0,040
-217,825	81,245	0,113	0,088
-216,811	28,558	-0,154	0,094
-215,796	63,292	0,074	-0,054
-214,782	-13,456	-0,072	-0,034
-213,767	16,464	0,102	0,058
-212,752	-81,377	-0,027	0,006
-211,738	219,805	0,051	-0,059
-210,723	-200,000	-0,029	-0,110
-209,709	-85,422	-0,123	-0,027
-208,694	800,000	0,010	-0,031
-207,679	-200,000	-0,000	0,057
-206,665	16,935	0,020	0,011
-205,650	-57,154	0,046	-0,015
-204,636	-112,268	-0,112	0,016
-203,621	-200,000	0,006	0,059
-202,606	-41,167	0,046	0,017
-201,592	170,439	-0,079	-0,082
-200,577	-145,817	-0,033	0,002
-199,563	-113,434	0,087	0,012
-198,548	-112,376	-0,039	0,006
-197,533	177,829	0,016	0,017
-196,519	-100,338	0,151	-0,027
-195,504	800,000	-0,064	0,174
-194,490	-48,899	-0,073	0,025
-193,475	800,000	0,015	-0,032
-192,460	-155,441	0,195	-0,009
-191,446	9,692	0,155	0,085
-190,431	-64,630	0,070	0,020
-189,417	-200,000	0,061	0,211
-188,402	22,050	0,052	0,031
-187,387	2,308	0,104	0,054
-186,373	252,861	-0,102	0,126
-185,358	-100,532	-0,089	-0,016
-184,344	98,398	0,086	-0,072
-183,329	-126,355	0,142	0,015
-182,315	284,852	0,025	-0,033
-181,300	800,000	-0,024	-0,071
-180,285	653,663	0,030	0,057
-179,271	2,576	-0,064	0,033
-178,256	-114,984	-0,069	0,009
-177,242	-72,936	0,157	0,041
-176,227	177,929	0,062	0,065
-175,212	82,617	-0,081	-0,063
-174,198	-200,000	0,005	0,071
-173,183	148,270	-0,069	-0,067
-172,169	14,423	0,043	-0,024
-171,154	800,000	-0,044	-0,109
-170,139	800,000	-0,058	0,143
-169,125	-200,000	0,024	0,103
-168,110	-200,000	-0,013	0,101
-167,096	150,451	-0,067	0,066
-166,081	-200,000	0,017	0,069
-165,066	-200,000	-0,029	-0,179
-164,052	-200,000	0,009	-0,118
-163,037	800,000	-0,011	0,035
-162,023	800,000	0,052	0,157
-161,008	-172,722	0,012	-0,000
-159,993	-200,000	0,026	-0,176
-158,979	-200,000	0,009	-0,039
-157,964	51,965	-0,055	-0,037
-156,950	-76,863	0,130	-0,032
-155,935	78,945	-0,069	0,053
-154,920	-99,408	-0,072	0,013
-153,906	-200,000	0,006	0,060
-152,891	439,189	-0,046	0,073
-151,877	541,550	0,045	0,078
-150,862	-200,000	-0,002	0,073
-149,847	-200,000	0,027	-0,131
-148,833	800,000	0,025	0,062
-147,818	719,181	-0,029	0,055
-146,804	70,481	-0,086	-0,064
-145,789	362,971	0,023	0,034
-144,775	102,392	0,086	-0,073
-143,760	-200,000	0,005	0,037
-142,745	608,425	-0,089	-0,161
-141,731	35,728	-0,114	-0,072
-140,716	-200,000	-0,012	-0,061
-139,702	-200,000	0,025	0,133
-138,687	523,604	0,074	0,126
-137,672	13,726	-0,056	0,031
-136,658	800,000	-0,029	0,070
-135,643	208,899	0,084	0,095
-134,629	199,717	0,061	-0,067
-133,614	-82,961	0,127	-0,029
-132,599	350,327	-0,071	0,101
-131,585	800,000	0,022	0,049
-130,570	13,903	0,058	0,033
-129,556	-79,433	-0,058	-0,014
-128,541	138,810	-0,061	0,058
-127,526	-17,758	-0,079	-0,035
-126,512	-200,000	0,024	0,079
-125,497	485,599	0,039	0,065
-124,483	781,576	-0,057	-0,112
-123,468	33,404	-0,074	-0,046
-122,453	54,391	-0,021	-0,014
-121,439	178,195	0,040	-0,042
-120,424	-200,000	0,014	0,089
-119,410	800,000	0,047	0,117
-118,395	82,462	0,096	0,075
