DTS Sentinel unit serial number:	SN410029Multiplexer serial number:	ORYXHardware model number:	OX2-SRSoftware version number:	ORYX F/W v4,00 Oryx Data Collector v3.7.2.0data status	okinstallation	B5 Nyhavnadifferential loss correction	single-endedforward channel	channel 2reverse channel	N/Adate	2023/12/14time	04:07:13forward acquisition time	300,00reverse acquisition time	0,00gamma	499,1914k internal	0,3157k external	0,3157temperature offset calibration	1,0000default loss term (dB/km)	0,3820temperature slope calibration	1,0000multiplexer offset coefficient	1,0000multiplexer slope coefficient	1,0000fibre end	0,00T internal ref (°C)	8,00T ext. ref 1 (°C)	-8,45T ext. ref 2 (°C)	-8,54length (m)	temperature (°C)	Stokes	anti-Stokes-744,400	-182,859	0,029	-0,000
-743,385	0,684	-0,448	-0,235
-742,371	475,518	0,118	0,197
-741,356	-2,170	-0,219	-0,113
-740,342	393,023	0,081	0,124
-739,327	-156,692	-0,381	0,017
-738,312	74,588	0,056	-0,043
-737,298	-107,847	-0,302	0,048
-736,283	155,603	0,195	0,199
-735,269	-140,982	-0,245	-0,018
-734,254	159,329	0,075	0,077
-733,239	18,131	-0,638	-0,374
-732,225	-91,743	0,192	0,040
-731,210	410,745	-0,050	-0,078
-730,196	191,001	-0,061	0,067
-729,181	-51,513	-0,021	0,007
-728,167	-64,695	0,068	-0,020
-727,152	-200,000	0,024	0,126
-726,137	378,635	-0,070	-0,106
-725,123	79,892	-0,103	0,081
-724,108	130,139	0,090	-0,085
-723,094	42,780	-0,024	0,016
-722,079	-70,099	0,040	0,011
-721,064	70,905	-0,093	-0,071
-720,050	-200,000	-0,010	0,106
-719,035	34,211	0,056	0,036
-718,021	800,000	0,042	-0,117
-717,006	800,000	-0,014	0,033
-715,991	92,770	-0,162	-0,135
-714,977	800,000	-0,044	-0,124
-713,962	-200,000	0,026	-0,246
-712,948	-200,000	-0,005	-0,028
-711,933	762,204	-0,081	0,162
-710,918	18,855	-0,032	-0,019
-709,904	-165,216	0,036	0,001
-708,889	766,725	-0,080	-0,161
-707,875	126,252	-0,084	0,078
-706,860	-35,389	0,076	0,030
-705,845	800,000	-0,017	0,047
-704,831	643,556	0,079	0,148
-703,816	-200,000	-0,008	-0,134
-702,802	798,953	0,037	-0,075
-701,787	800,000	0,039	-0,090
-700,772	-200,000	-0,032	-0,110
-699,758	-200,000	-0,015	-0,193
-698,743	-58,095	0,163	0,052
-697,729	-200,000	0,000	0,109
-696,714	5,408	-0,043	0,023
-695,699	800,000	-0,022	0,064
-694,685	-31,074	-0,192	-0,079
-693,670	229,643	-0,078	-0,093
-692,656	-79,952	0,157	-0,039
-691,641	365,582	-0,061	-0,091
-690,627	-156,519	-0,171	0,008
-689,612	-200,000	-0,012	0,107
-688,597	-25,199	-0,142	-0,062
-687,583	-200,000	0,004	-0,054
-686,568	-200,000	-0,004	-0,048
-685,554	-114,051	-0,069	-0,010
-684,539	-26,915	0,075	-0,032
-683,524	-31,885	-0,079	-0,033
-682,510	-88,051	0,065	0,014
-681,495	-200,000	-0,013	0,131
-680,481	-123,159	-0,104	-0,012
-679,466	-200,000	0,005	-0,130
-678,451	-132,625	0,157	0,015
-677,437	41,400	-0,031	-0,021
-676,422	-101,167	-0,079	-0,014
-675,408	81,761	0,092	0,073
-674,393	50,191	-0,110	0,076
-673,378	-78,944	0,055	0,014
-672,364	5,619	0,082	0,044
-671,349	62,653	-0,109	0,080
-670,335	128,066	-0,148	-0,138
-669,320	-155,476	0,034	0,002
-668,305	800,000	-0,020	0,054
-667,291	224,531	-0,025	0,030
-666,276	458,742	-0,016	-0,026
-665,262	-81,901	-0,038	-0,009
-664,247	377,872	0,014	0,021
-663,232	-200,000	0,005	-0,048
-662,218	255,626	-0,016	0,020
-661,203	269,268	-0,043	-0,056
-660,189	-62,209	-0,065	0,020
-659,174	-121,493	0,203	-0,025
-658,159	-60,683	-0,119	-0,037
-657,145	-200,000	0,007	-0,115
-656,130	-175,074	-0,037	-0,001
-655,116	217,108	-0,123	0,145
-654,101	535,280	-0,026	-0,045
-653,086	73,316	-0,148	-0,114
-652,072	-200,000	-0,000	-0,064
-651,057	-117,503	-0,111	-0,015
-650,043	150,155	-0,042	0,041
-649,028	800,000	0,037	-0,084
-648,014	128,777	-0,053	0,050
-646,999	-200,000	0,001	0,162
-645,984	800,000	0,026	0,075
-644,970	-48,391	0,126	0,044
-643,955	-200,000	0,000	0,028
-642,941	335,095	-0,028	-0,040
-641,926	68,792	-0,120	-0,091
-640,911	59,947	0,103	0,075
-639,897	-200,000	0,004	0,197
-638,882	20,977	0,034	0,020
-637,868	-69,275	-0,083	0,023
-636,853	-23,788	-0,056	0,025
-635,838	-200,000	0,017	0,057
-634,824	236,077	-0,051	0,062
-633,809	135,550	0,010	0,009
-632,795	-73,008	0,111	0,030
-631,780	258,365	0,073	0,092
-630,765	-109,326	-0,092	0,014
-629,751	34,817	-0,068	0,044
-628,736	478,072	-0,023	-0,039
-627,722	13,501	-0,100	-0,057
-626,707	800,000	0,035	-0,081
-625,692	-89,917	0,124	0,026
-624,678	554,703	-0,048	-0,085
-623,663	-123,172	-0,074	-0,009
-622,649	-200,000	0,004	-0,097
-621,634	-16,757	-0,118	-0,055
-620,619	141,506	-0,032	-0,031
-619,605	800,000	-0,104	-0,224
-618,590	-61,620	0,122	-0,037
-617,576	-118,885	-0,131	0,017
-616,561	114,710	-0,036	0,032
-615,546	-180,963	-0,112	-0,002
-614,532	-200,000	-0,005	-0,016
-613,517	488,506	0,015	-0,026
-612,503	197,787	-0,061	-0,068
-611,488	-40,251	0,248	-0,094
-610,474	367,268	-0,061	0,090
-609,459	-16,252	0,020	-0,009
-608,444	-129,331	-0,124	-0,012
-607,430	-117,688	-0,083	-0,011
-606,415	-152,313	-0,121	-0,006
-605,401	800,000	-0,033	0,101
-604,386	-69,828	0,098	0,027
-603,371	800,000	0,073	0,172
-602,357	555,963	0,073	0,130
-601,342	-78,178	-0,084	-0,021
-600,328	-162,428	-0,153	0,005
-599,313	37,094	0,061	0,040
-598,298	-58,689	-0,105	-0,033
-597,284	-200,000	-0,005	0,041
-596,269	800,000	-0,034	0,078
-595,255	238,072	0,037	0,045
-594,240	-200,000	-0,003	-0,017
-593,225	-200,000	-0,013	-0,090
-592,211	-87,334	-0,079	-0,017
-591,196	239,009	0,066	0,080
-590,182	-36,764	-0,102	-0,040
-589,167	800,000	-0,021	0,059
-588,152	123,104	0,020	-0,018
-587,138	163,828	-0,040	-0,041
-586,123	-200,000	0,002	-0,091
-585,109	-81,226	0,107	-0,026
-584,094	-89,841	-0,174	-0,037
-583,079	-200,000	-0,019	0,065
-582,065	-48,055	0,117	0,041
-581,050	800,000	-0,017	0,052
-580,036	395,828	0,029	0,044
-579,021	-121,395	-0,222	0,027
-578,006	800,000	-0,028	-0,076
-576,992	800,000	-0,032	0,070
-575,977	-200,000	-0,029	-0,145
-574,963	428,323	-0,002	-0,003
-573,948	-101,529	-0,046	-0,008
-572,934	-66,730	0,054	0,016
-571,919	91,877	-0,111	-0,091
-570,904	20,432	0,098	-0,058
-569,890	-12,139	-0,161	0,077
-568,875	345,549	0,094	-0,135
-567,861	-200,000	-0,001	0,075
-566,846	-200,000	0,002	0,107
-565,831	135,543	0,127	0,121
-564,817	215,683	-0,037	-0,043
-563,802	-200,000	0,015	-0,065
-562,788	301,296	-0,029	0,040
-561,773	14,620	0,082	-0,047
-560,758	-200,000	0,009	0,030
-559,744	-200,000	-0,020	0,070
-558,729	-51,942	-0,062	-0,021
-557,715	310,028	-0,067	0,092
-556,700	27,158	-0,007	0,004
-555,685	-44,274	-0,052	-0,019
-554,671	250,975	-0,055	-0,069
-553,656	219,725	0,052	-0,061
-552,642	43,903	0,015	0,010
-551,627	-40,609	0,086	0,033
-550,612	-200,000	-0,030	-0,138
-549,598	231,074	-0,056	-0,067
-548,583	-33,243	-0,055	-0,022
-547,569	571,730	0,024	-0,042
-546,554	97,755	0,100	-0,084
-545,539	-200,000	-0,051	-0,218
-544,525	355,486	-0,062	0,091
-543,510	-115,328	0,128	0,018
-542,496	4,177	-0,146	-0,078
-541,481	-78,197	0,011	0,003
-540,466	640,847	-0,010	0,019
-539,452	90,381	0,068	-0,055
-538,437	-200,000	-0,017	0,081
-537,423	153,489	-0,079	0,079
-536,408	-200,000	-0,009	0,066
-535,393	259,381	-0,096	-0,122
-534,379	-200,000	0,022	-0,078
-533,364	166,946	0,028	-0,029
-532,350	-56,960	-0,073	-0,023
-531,335	-60,276	0,091	-0,028
-530,321	-200,000	-0,009	0,149
-529,306	800,000	-0,053	0,123
-528,291	-200,000	-0,006	-0,101
-527,277	89,073	0,024	0,020
-526,262	581,185	-0,064	-0,115
-525,248	538,194	-0,027	0,046
-524,233	-83,840	0,018	0,004
-523,218	689,511	-0,068	0,130
-522,204	-113,454	0,088	-0,012
-521,189	-200,000	0,011	-0,046
-520,175	275,845	-0,073	-0,095
-519,160	181,173	-0,065	-0,070
-518,145	800,000	0,045	0,091
-517,131	-117,298	0,165	-0,022
-516,116	375,950	-0,061	0,091
-515,102	-32,786	0,037	-0,015
-514,087	-106,238	0,182	0,030
-513,072	-0,259	-0,082	0,042
-512,058	-95,733	-0,035	-0,007
-511,043	-7,686	-0,128	0,063
-510,029	95,882	0,105	0,087
-509,014	59,352	0,047	0,034
-507,999	-15,341	-0,144	-0,067
-506,985	-2,901	0,091	-0,046
-505,970	38,407	0,039	-0,025
-504,956	800,000	-0,044	-0,141
-503,941	54,491	0,023	0,016
-502,926	116,069	0,079	0,070
-501,912	-89,400	0,143	0,030
-500,897	-94,613	-0,052	-0,010
-499,883	-147,704	-0,185	0,011
-498,868	617,158	-0,010	0,019
-497,853	-1,092	-0,066	0,034
-496,839	800,000	0,049	-0,116
-495,824	584,095	0,035	-0,064
-494,810	478,103	-0,029	0,048
-493,795	-129,012	0,025	-0,002
-492,781	-86,391	-0,204	0,045
-491,766	-86,194	0,154	0,034
-490,751	46,716	-0,163	0,110
-489,737	257,033	0,033	0,041
-488,722	-200,000	-0,016	0,097
-487,708	-200,000	0,002	0,167
-486,693	1,434	-0,084	-0,044
-485,678	409,204	0,080	-0,124
-484,664	224,216	-0,068	-0,080
-483,649	407,746	0,070	-0,108
-482,635	-79,278	-0,159	0,039
-481,620	-200,000	-0,008	0,027
-480,605	800,000	0,005	0,013
-479,591	-0,781	-0,093	-0,048
-478,576	-87,662	-0,052	-0,011
-477,562	153,208	0,017	-0,017
-476,547	62,948	-0,089	0,065
-475,532	-11,973	0,030	0,014
-474,518	-200,000	-0,019	0,097
-473,503	611,537	0,027	0,050
-472,489	-200,000	-0,004	0,068
-471,474	-200,000	-0,004	0,135
-470,459	-15,947	0,049	0,023
-469,445	310,753	-0,062	0,085
-468,430	645,034	-0,012	-0,022
-467,416	165,768	-0,020	-0,020
-466,401	-105,130	-0,136	-0,022
-465,386	800,000	-0,030	-0,076
-464,372	104,691	-0,108	-0,093
-463,357	800,000	-0,023	-0,055
-462,343	-200,000	-0,020	-0,111
-461,328	-82,803	-0,049	-0,011
-460,313	-200,000	-0,026	-0,094
-459,299	-200,000	0,010	-0,044
-458,284	-104,292	-0,002	-0,000
-457,270	21,131	0,142	0,084
-456,255	378,924	0,063	-0,095
-455,241	-200,000	0,022	-0,148
-454,226	52,162	-0,051	-0,036
-453,211	650,519	0,039	0,073
-452,197	-40,153	0,154	0,058
-451,182	-59,742	-0,063	-0,020
-450,168	-173,003	0,017	0,000
-449,153	401,241	-0,049	0,075
-448,138	-67,701	-0,158	-0,045
-447,124	732,069	-0,039	-0,077
-446,109	-200,000	0,005	-0,110
-445,095	8,846	0,119	-0,065
-444,080	674,486	0,043	0,083
-443,065	311,967	-0,054	0,073
-442,051	133,778	-0,119	0,113
-441,036	-200,000	-0,010	-0,054
-440,022	800,000	-0,062	0,140
-439,007	800,000	-0,015	0,049
-437,992	632,501	0,010	0,019
-436,978	-28,591	0,132	0,055
-435,963	-25,174	-0,092	-0,040
-434,949	237,234	0,097	0,118
-433,934	-200,000	-0,025	-0,081
-432,919	-45,574	0,013	0,005
-431,905	-62,547	0,119	-0,036
-430,890	-33,431	0,135	-0,054
-429,876	-90,728	0,060	0,012
-428,861	800,000	0,030	-0,097
-427,846	22,007	-0,028	0,017
-426,832	-200,000	0,016	0,122
-425,817	-200,000	0,007	-0,034
-424,803	73,382	0,097	-0,074
-423,788	47,396	0,010	0,007
-422,773	-49,925	0,038	-0,013
-421,759	12,378	0,090	0,050
-420,744	-101,895	0,088	0,015
-419,730	138,676	-0,108	-0,103
-418,715	-200,000	0,009	-0,081
-417,701	635,616	-0,016	-0,031
-416,686	84,902	-0,043	-0,034
-415,671	-69,684	0,100	0,028
-414,657	-64,526	0,085	0,025
-413,642	800,000	0,010	0,022
-412,628	106,785	-0,036	-0,031
-411,613	343,317	-0,085	-0,121
-410,598	-200,000	-0,030	-0,223
-409,584	-200,000	-0,001	0,072
-408,569	-200,000	-0,019	0,081
-407,555	-200,000	-0,005	0,023
-406,540	-75,015	-0,098	-0,025
-405,525	-38,969	-0,053	-0,020
-404,511	763,564	0,045	-0,090
-403,496	14,573	0,134	-0,076
-402,482	-200,000	0,001	-0,069
-401,467	47,082	-0,051	0,035
-400,452	-11,671	-0,041	-0,020
-399,438	5,877	0,048	-0,026
-398,423	-200,000	-0,043	-0,151
-397,409	800,000	0,041	0,115
-396,394	-200,000	0,012	-0,060
-395,379	113,264	0,071	-0,062
-394,365	33,113	0,072	-0,045
-393,350	-200,000	0,011	-0,095
-392,336	-200,000	-0,008	-0,037
-391,321	800,000	-0,031	-0,086
-390,306	-163,184	-0,041	0,001
-389,292	-200,000	0,018	-0,113
-388,277	-3,822	0,065	-0,033
-387,263	52,843	0,118	0,082
-386,248	-34,993	0,164	0,065
-385,233	-100,105	-0,184	0,033
-384,219	-54,168	-0,054	-0,018
-383,204	8,015	0,070	0,038
-382,190	0,136	-0,174	-0,090
-381,175	217,653	-0,017	-0,019
-380,160	-84,863	0,052	0,012
-379,146	-200,000	-0,020	0,095
-378,131	52,889	-0,115	0,080
-377,117	131,963	0,094	0,088
-376,102	-65,460	-0,162	0,047
-375,088	-200,000	0,001	0,011
-374,073	-27,076	-0,051	0,022
-373,058	193,721	-0,024	-0,027
-372,044	-92,191	0,141	0,029
-371,029	-118,503	0,085	0,011
-370,015	-200,000	-0,008	0,202
-369,000	800,000	-0,082	0,211
-367,985	254,025	-0,013	0,017
-366,971	51,818	0,049	-0,034
-365,956	362,219	0,036	0,053
-364,942	10,166	0,157	0,086
-363,927	800,000	0,104	0,221
-362,912	189,522	0,022	0,024
-361,898	-8,858	-0,106	-0,052
-360,883	185,712	-0,057	0,062
-359,869	774,568	-0,027	-0,053
-358,854	471,365	0,098	-0,161
-357,839	38,157	0,081	0,052
-356,825	800,000	-0,043	0,087
-355,810	85,056	0,085	0,068
-354,796	800,000	-0,031	-0,093
-353,781	-200,000	0,020	-0,084
-352,766	-11,255	-0,099	-0,047
-351,752	74,129	0,090	0,069
-350,737	556,774	-0,090	0,159
-349,723	270,370	-0,061	0,078
-348,708	223,713	0,018	0,021
-347,693	-18,064	0,031	-0,014
-346,679	-3,431	0,096	-0,049
-345,664	357,636	0,073	-0,106
-344,650	-200,000	0,010	0,147
-343,635	-45,849	-0,079	0,028
-342,620	164,849	0,060	0,062
-341,606	124,938	0,057	-0,052
-340,591	-159,740	0,073	0,003
-339,577	56,054	-0,098	-0,069
-338,562	-182,719	0,089	0,001
-337,548	9,194	0,041	0,023
-336,533	-78,128	0,127	0,031
-335,518	-200,000	0,017	0,115
-334,504	-121,655	0,149	-0,018
-333,489	-117,776	0,097	-0,013
-332,475	83,670	0,056	0,044
-331,460	-101,473	-0,057	0,010
-330,445	-76,826	-0,163	-0,041
-329,431	-108,414	0,100	-0,016
-328,416	62,697	0,112	0,081
-327,402	160,637	0,079	0,081
-326,387	630,121	-0,021	-0,039
-325,372	-200,000	0,030	-0,098
-324,358	800,000	0,036	-0,095
-323,343	277,288	-0,028	-0,036
-322,329	-13,778	0,029	-0,013
-321,314	391,057	0,036	0,054
-320,299	800,000	-0,003	0,009
-319,285	142,270	0,044	0,042
-318,270	125,058	0,073	-0,067
-317,256	305,910	-0,098	-0,133
-316,241	-200,000	0,004	-0,061
-315,226	-67,850	-0,195	0,055
-314,212	-93,849	0,179	-0,035
-313,197	8,967	0,044	-0,024
-312,183	-16,178	-0,030	0,014
-311,168	-93,118	-0,126	0,025
-310,153	142,413	0,029	0,027
-309,139	-45,807	0,062	0,022
-308,124	-200,000	-0,012	0,056
-307,110	-89,327	0,094	0,020
-306,095	-148,142	0,149	0,009
-305,080	379,905	-0,066	0,098
-304,066	683,429	-0,016	-0,030
-303,051	22,090	-0,055	-0,032
-302,037	27,690	-0,140	-0,085
-301,022	800,000	-0,021	0,056
-300,008	276,707	0,073	-0,094
-298,993	-149,321	-0,057	-0,003
-297,978	-200,000	0,016	0,108
-296,964	140,178	-0,136	0,130
-295,949	-200,000	-0,001	-0,044
-294,935	604,549	0,010	-0,018
-293,920	112,997	-0,015	-0,013
-292,905	328,931	0,115	-0,161
-291,891	-117,456	0,163	-0,021
-290,876	800,000	0,041	0,114
-289,862	422,105	-0,079	0,123
-288,847	1,235	-0,197	-0,102
-287,832	643,071	-0,015	-0,028
-286,818	-3,301	-0,070	-0,035
-285,803	175,920	0,091	-0,096
-284,789	94,409	0,166	-0,137
-283,774	-200,000	0,011	0,108
-282,759	422,163	0,047	-0,073
-281,745	338,349	0,057	-0,081
-280,730	-200,000	0,147	0,000
-279,716	-57,195	-0,110	0,035
-278,701	-129,731	0,100	0,010
-277,686	-79,212	0,028	-0,007
-276,672	180,320	-0,063	0,067
-275,657	-46,224	-0,058	0,021
-274,643	27,558	-0,112	-0,068
-273,628	58,483	-0,008	-0,005
-272,613	-76,245	0,135	-0,034
-271,599	-30,082	0,130	0,053
-270,584	154,215	0,090	0,089
-269,570	800,000	0,014	0,037
-268,555	-200,000	0,010	-0,047
-267,540	-74,577	-0,180	-0,046
-266,526	391,839	0,023	-0,035
-265,511	41,521	-0,052	-0,034
-264,497	-110,319	0,154	0,023
-263,482	15,379	0,109	-0,061
-262,467	32,099	0,124	0,078
-261,453	105,332	-0,045	0,038
-260,438	99,847	0,027	0,023
-259,424	-200,000	-0,004	-0,086
-258,409	-200,000	-0,008	-0,028
-257,395	-129,080	-0,057	0,006
-256,380	527,228	0,015	-0,025
-255,365	-139,885	-0,071	-0,005
-254,351	257,263	-0,065	0,081
-253,336	-51,694	-0,053	0,018
-252,322	-200,000	0,013	-0,045
-251,307	143,337	-0,060	-0,058
-250,292	-182,084	0,073	-0,001
-249,278	-10,876	0,057	0,027
-248,263	223,416	-0,084	0,098
-247,249	-200,000	-0,026	0,110
-246,234	-85,899	0,130	-0,029
-245,219	-45,534	-0,009	-0,003
-244,205	-200,000	0,014	-0,101
-243,190	44,984	0,102	0,068
-242,176	-200,000	0,051	-0,168
-241,161	9,560	-0,039	-0,021
-240,146	164,199	-0,066	0,068
-239,132	-200,000	0,007	-0,059
-238,117	16,428	-0,066	0,038
-237,103	106,958	0,050	-0,043
-236,088	-52,248	-0,188	0,063
-235,073	88,306	-0,024	-0,019
-234,059	108,655	0,091	-0,079
-233,044	571,594	-0,095	0,168
-232,030	800,000	0,071	0,183
-231,015	-115,011	-0,073	0,010
-230,000	800,000	0,030	-0,073
-228,986	-95,952	0,140	0,027
-227,971	-200,000	-0,041	-0,142
-226,957	62,030	-0,129	0,093
-225,942	-200,000	0,024	0,114
-224,927	-57,668	0,048	0,015
-223,913	-104,104	-0,149	-0,025
-222,898	63,087	0,099	0,071
-221,884	44,843	0,094	-0,063
-220,869	-200,000	0,001	0,067
-219,855	-200,000	0,010	0,040
-218,840	-200,000	-0,010	0,060
-217,825	800,000	0,050	-0,122
-216,811	-200,000	-0,005	0,092
-215,796	-200,000	-0,009	-0,030
-214,782	-24,473	0,107	-0,046
-213,767	800,000	0,017	0,039
-212,752	-59,685	0,152	0,047
-211,738	800,000	-0,055	0,147
-210,723	-200,000	0,009	0,099
-209,709	32,014	-0,072	-0,045
-208,694	-75,279	-0,088	-0,023
-207,679	-200,000	-0,015	0,093
-206,665	711,579	0,018	0,034
-205,650	51,506	0,057	0,039
-204,636	-179,084	0,099	0,002
-203,621	-88,257	-0,090	0,019
-202,606	119,115	-0,086	-0,077
-201,592	-200,000	-0,010	-0,117
-200,577	-73,396	0,062	-0,016
-199,563	-200,000	0,015	0,134
-198,548	54,393	0,100	-0,069
-197,533	-200,000	0,000	0,148
-196,519	-115,861	0,218	-0,029
-195,504	-154,925	-0,182	-0,009
-194,490	-122,564	-0,081	-0,009
-193,475	129,492	0,096	-0,089
-192,460	-200,000	-0,026	-0,101
-191,446	-74,057	0,073	0,019
-190,431	360,268	0,093	0,135
-189,417	-92,706	0,132	0,026
-188,402	397,635	-0,011	-0,016
-187,387	-126,920	-0,107	-0,011
-186,373	-200,000	-0,039	-0,167
-185,358	161,369	0,033	0,033
-184,344	3,599	0,195	0,102
-183,329	-95,831	-0,205	-0,039
-182,315	800,000	0,053	-0,153
-181,300	-126,626	0,057	0,006
-180,285	115,902	0,008	-0,007
-179,271	-200,000	0,010	-0,116
-178,256	-200,000	-0,003	0,019
-177,242	800,000	-0,042	0,094
-176,227	545,940	-0,032	-0,056
-175,212	225,323	0,057	0,066
-174,198	-200,000	-0,038	0,145
-173,183	494,734	0,036	-0,060
-172,169	3,033	0,069	-0,036
-171,154	-44,882	-0,139	0,050
-170,139	563,689	0,037	-0,065
-169,125	326,583	0,117	-0,162
-168,110	-79,678	-0,052	-0,012
-167,096	259,468	-0,102	-0,127
-166,081	170,777	-0,018	0,019
-165,066	-43,347	-0,011	0,004
-164,052	-200,000	-0,043	-0,157
-163,037	800,000	0,026	0,060
-162,023	186,461	-0,052	0,056
-161,008	92,632	0,030	0,024
-159,993	-69,022	-0,093	-0,026
-158,979	97,111	-0,125	-0,103
-157,964	-66,035	0,034	0,010
-156,950	76,498	-0,026	-0,020
-155,935	-116,743	-0,038	0,005
-154,920	446,074	-0,024	0,038
-153,906	-89,572	0,115	-0,024
-152,891	800,000	-0,088	-0,182
-151,877	-200,000	-0,013	0,057
-150,862	399,473	0,092	0,139
-149,847	1,494	-0,146	-0,075
-148,833	-200,000	-0,024	-0,115
-147,818	167,319	0,023	0,024
-146,804	289,088	-0,039	-0,051
-145,789	252,076	0,011	-0,014
-144,775	162,037	-0,096	-0,097
-143,760	-200,000	-0,000	-0,142
-142,745	332,587	0,042	-0,059
-141,731	60,777	0,018	-0,013
-140,716	21,355	0,087	0,051
-139,702	-166,183	0,031	0,001
-138,687	-200,000	0,010	0,055
-137,672	82,484	-0,064	0,050
-136,658	-200,000	0,014	-0,094
-135,643	121,753	-0,061	-0,055
-134,629	-54,028	0,105	0,034
-133,614	-44,618	0,075	0,027
-132,599	217,570	0,048	0,056
-131,585	228,176	0,082	0,097
-130,570	-1,133	0,103	0,052
-129,556	-101,780	-0,117	-0,020
-128,541	770,299	0,073	-0,144
-127,526	82,059	-0,058	-0,045
-126,512	-42,800	0,147	-0,053
-125,497	-101,633	0,075	-0,013
-124,483	-111,671	0,034	0,005
-123,468	-84,257	-0,051	-0,011
-122,453	29,917	0,117	-0,072
-121,439	800,000	-0,079	-0,161
-120,424	800,000	-0,043	-0,090
-119,410	-38,641	-0,065	0,025
-118,395	-200,000	-0,009	0,037
