DTS Sentinel unit serial number:	SN410029Multiplexer serial number:	ORYXHardware model number:	OX2-SRSoftware version number:	ORYX F/W v4,00 Oryx Data Collector v3.7.2.0data status	okinstallation	B5 Nyhavnadifferential loss correction	single-endedforward channel	channel 2reverse channel	N/Adate	2023/12/12time	22:07:13forward acquisition time	300,00reverse acquisition time	0,00gamma	499,1914k internal	0,3158k external	0,3158temperature offset calibration	1,0000default loss term (dB/km)	0,3820temperature slope calibration	1,0000multiplexer offset coefficient	1,0000multiplexer slope coefficient	1,0000fibre end	0,00T internal ref (°C)	14,74T ext. ref 1 (°C)	-1,89T ext. ref 2 (°C)	-2,20length (m)	temperature (°C)	Stokes	anti-Stokes-744,400	800,000	-0,021	-0,054
-743,385	-169,702	-0,241	0,006
-742,371	-35,013	0,094	-0,038
-741,356	-92,136	-0,172	0,035
-740,342	-29,164	0,157	0,066
-739,327	-82,418	-0,298	0,071
-738,312	-200,000	-0,008	0,079
-737,298	-128,561	-0,248	0,026
-736,283	-200,000	-0,014	-0,178
-735,269	-98,175	-0,257	0,048
-734,254	800,000	0,048	-0,120
-733,239	-95,930	-0,503	-0,098
-732,225	-51,172	0,205	0,070
-731,210	-200,000	-0,020	0,090
-730,196	800,000	-0,017	-0,036
-729,181	123,441	-0,048	-0,044
-728,167	-6,223	-0,063	0,032
-727,152	249,910	-0,033	0,041
-726,137	62,345	-0,121	-0,089
-725,123	-34,754	0,093	0,037
-724,108	-71,928	-0,120	0,033
-723,094	-127,089	-0,164	-0,017
-722,079	-82,984	-0,049	0,012
-721,064	435,921	0,014	0,023
-720,050	39,392	0,032	-0,021
-719,035	-49,094	-0,156	0,055
-718,021	-30,747	-0,051	0,021
-717,006	554,188	0,071	-0,126
-715,991	800,000	0,016	-0,038
-714,977	301,296	-0,078	-0,106
-713,962	-152,835	-0,213	-0,011
-712,948	800,000	0,036	0,079
-711,933	-3,095	0,069	0,035
-710,918	-79,679	-0,116	0,029
-709,904	46,044	0,104	0,071
-708,889	-200,000	-0,014	-0,169
-707,875	194,940	-0,113	-0,126
-706,860	800,000	-0,050	-0,145
-705,845	-75,262	0,170	-0,044
-704,831	21,624	0,051	0,031
-703,816	-89,192	-0,059	0,013
-702,802	-84,175	-0,067	-0,015
-701,787	-102,378	0,145	-0,025
-700,772	557,503	-0,044	-0,079
-699,758	30,650	-0,062	-0,039
-698,743	13,270	-0,091	-0,051
-697,729	800,000	0,054	-0,121
-696,714	323,005	0,049	0,069
-695,699	253,143	0,026	0,033
-694,685	157,587	0,077	-0,079
-693,670	800,000	0,004	-0,013
-692,656	127,518	0,035	-0,032
-691,641	-200,000	0,047	-0,176
-690,627	220,213	-0,008	0,009
-689,612	-65,921	-0,064	-0,019
-688,597	800,000	0,038	0,116
-687,583	160,686	-0,029	-0,030
-686,568	20,434	0,043	-0,026
-685,554	-146,157	-0,121	-0,008
-684,539	-34,790	0,035	-0,014
-683,524	90,617	0,080	0,066
-682,510	-200,000	0,004	0,012
-681,495	-25,339	-0,092	0,040
-680,481	-92,492	-0,086	0,018
-679,466	90,359	-0,077	0,064
-678,451	474,737	0,027	0,044
-677,437	-52,948	-0,096	0,032
-676,422	-200,000	-0,024	0,126
-675,408	-56,599	-0,086	0,028
-674,393	-200,000	-0,011	0,082
-673,378	109,021	-0,031	0,027
-672,364	-77,930	-0,082	0,021
-671,349	-61,297	0,053	0,016
-670,335	476,913	-0,085	0,142
-669,320	-200,000	0,029	-0,129
-668,305	-93,349	0,059	-0,012
-667,291	800,000	-0,028	0,058
-666,276	-62,831	-0,132	-0,040
-665,262	42,293	-0,202	-0,135
-664,247	105,965	-0,076	0,066
-663,232	-96,798	-0,111	0,021
-662,218	-200,000	-0,010	0,191
-661,203	18,805	0,010	-0,006
-660,189	-129,991	-0,045	0,004
-659,174	-108,792	0,073	0,011
-658,159	-200,000	0,005	-0,042
-657,145	-43,361	0,095	0,035
-656,130	-34,940	0,062	0,025
-655,116	501,978	0,098	-0,167
-654,101	-200,000	0,001	0,151
-653,086	38,088	0,071	0,046
-652,072	-200,000	-0,015	-0,057
-651,057	151,955	-0,117	-0,117
-650,043	156,372	0,057	0,057
-649,028	-47,185	-0,160	0,057
-648,014	116,550	0,045	-0,040
-646,999	-50,002	0,052	-0,018
-645,984	-138,630	0,064	-0,005
-644,970	800,000	0,027	-0,066
-643,955	-112,064	-0,165	0,024
-642,941	-200,000	-0,007	0,135
-641,926	228,995	0,068	0,082
-640,911	241,898	0,098	0,120
-639,897	800,000	-0,048	0,123
-638,882	-127,793	0,128	-0,013
-637,868	-116,232	-0,073	0,010
-636,853	800,000	0,050	-0,111
-635,838	395,541	-0,068	-0,104
-634,824	57,240	-0,057	-0,041
-633,809	93,655	0,061	-0,050
-632,795	505,523	-0,068	-0,117
-631,780	-0,993	0,076	0,039
-630,765	-80,899	-0,136	-0,033
-629,751	53,435	-0,089	0,063
-628,736	-200,000	-0,038	-0,263
-627,722	800,000	0,025	-0,073
-626,707	414,599	-0,068	-0,106
-625,692	-31,375	0,106	-0,043
-624,678	123,301	0,059	-0,054
-623,663	408,443	-0,027	0,042
-622,649	-4,456	-0,115	0,058
-621,634	-53,056	-0,049	0,016
-620,619	-76,565	0,075	0,019
-619,605	-34,236	0,072	-0,029
-618,590	-200,000	0,005	0,076
-617,576	-200,000	0,000	-0,002
-616,561	320,208	0,044	-0,062
-615,546	-24,584	0,087	-0,038
-614,532	-31,143	-0,089	-0,037
-613,517	83,295	0,091	-0,073
-612,503	154,545	0,057	-0,058
-611,488	89,246	0,135	0,110
-610,474	800,000	0,058	0,122
-609,459	-115,244	-0,086	-0,012
-608,444	-200,000	0,031	0,152
-607,430	-7,794	-0,098	-0,048
-606,415	-200,000	-0,006	-0,040
-605,401	-95,898	-0,071	-0,014
-604,386	800,000	-0,053	0,118
-603,371	-200,000	0,002	-0,056
-602,357	-143,185	-0,078	-0,005
-601,342	-63,603	-0,107	-0,032
-600,328	66,301	0,083	-0,062
-599,313	800,000	-0,056	-0,129
-598,298	800,000	0,019	0,045
-597,284	800,000	0,026	-0,068
-596,269	13,446	-0,128	0,072
-595,255	-115,288	0,139	-0,019
-594,240	-6,502	-0,058	0,029
-593,225	393,607	-0,058	0,089
-592,211	343,892	-0,085	-0,122
-591,196	-200,000	0,012	0,046
-590,182	-200,000	0,027	0,100
-589,167	385,967	0,074	0,112
-588,152	-27,227	-0,168	-0,071
-587,138	-200,000	0,003	-0,036
-586,123	-23,402	-0,105	-0,046
-585,109	41,647	-0,072	-0,048
-584,094	-46,945	-0,099	-0,035
-583,079	-124,276	0,149	0,017
-582,065	-17,619	0,064	0,029
-581,050	-52,040	0,030	0,010
-580,036	-37,853	-0,027	0,010
-579,021	-73,700	-0,072	-0,019
-578,006	108,170	-0,175	-0,153
-576,992	800,000	-0,017	0,037
-575,977	-15,406	0,093	-0,044
-574,963	687,360	0,045	0,087
-573,948	367,171	0,107	0,158
-572,934	-200,000	-0,100	0,000
-571,919	-148,504	0,134	-0,008
-570,904	-95,127	-0,101	0,020
-569,890	-200,000	-0,018	-0,123
-568,875	159,208	0,140	0,143
-567,861	-165,888	-0,080	0,002
-566,846	249,417	-0,012	0,015
-565,831	40,764	0,034	-0,023
-564,817	-101,997	-0,067	0,012
-563,802	800,000	0,038	0,087
-562,788	261,177	-0,023	0,030
-561,773	800,000	0,044	-0,104
-560,758	-200,000	0,008	-0,072
-559,744	-90,243	-0,092	-0,019
-558,729	800,000	0,055	-0,125
-557,715	18,968	-0,126	-0,074
-556,700	-200,000	-0,019	-0,104
-555,685	-8,611	0,039	-0,019
-554,671	256,052	-0,024	0,030
-553,656	619,992	-0,026	0,048
-552,642	639,518	-0,063	0,118
-551,627	293,231	0,100	-0,134
-550,612	545,481	-0,053	-0,093
-549,598	666,308	-0,118	-0,224
-548,583	388,916	0,031	0,047
-547,569	800,000	0,037	-0,111
-546,554	65,310	0,025	0,018
-545,539	-122,828	0,089	0,010
-544,525	-200,000	0,008	0,144
-543,510	351,188	0,027	0,039
-542,496	32,946	-0,109	-0,069
-541,481	75,688	-0,093	0,072
-540,466	654,708	0,014	0,027
-539,452	-109,407	0,097	0,015
-538,437	800,000	0,048	0,123
-537,423	-200,000	0,019	0,102
-536,408	380,285	-0,036	-0,054
-535,393	-5,576	-0,056	-0,028
-534,379	-110,505	-0,149	0,022
-533,364	-0,891	-0,096	0,050
-532,350	-146,911	-0,036	-0,002
-531,335	93,549	-0,077	-0,064
-530,321	431,448	-0,082	0,130
-529,306	-200,000	0,020	0,101
-528,291	-16,593	-0,076	0,035
-527,277	-200,000	0,002	-0,077
-526,262	800,000	0,029	0,069
-525,248	-63,407	-0,102	-0,030
-524,233	605,724	-0,010	-0,018
-523,218	461,001	0,060	0,097
-522,204	626,885	-0,080	0,149
-521,189	146,640	-0,059	-0,058
-520,175	-168,414	0,117	-0,003
-519,160	800,000	-0,009	-0,018
-518,145	-56,566	-0,086	0,028
-517,131	79,086	0,094	-0,073
-516,116	-200,000	0,015	-0,137
-515,102	409,446	-0,044	0,068
-514,087	-200,000	0,000	0,057
-513,072	-25,998	-0,065	-0,028
-512,058	800,000	-0,021	0,047
-511,043	83,748	0,037	0,029
-510,029	-200,000	-0,030	0,114
-509,014	225,312	0,070	-0,083
-507,999	-30,543	0,106	-0,044
-506,985	800,000	-0,032	-0,090
-505,970	-200,000	0,005	-0,084
-504,956	73,676	-0,070	-0,053
-503,941	-41,285	-0,169	-0,063
-502,926	205,093	0,050	0,057
-501,912	800,000	-0,059	-0,133
-500,897	-84,005	0,038	-0,009
-499,883	116,435	-0,023	-0,021
-498,868	41,306	-0,060	0,040
-497,853	703,493	0,039	0,076
-496,839	61,630	-0,047	-0,034
-495,824	-23,846	-0,071	0,031
-494,810	242,699	-0,080	0,098
-493,795	157,357	0,055	0,056
-492,781	-29,105	-0,029	-0,012
-491,766	-69,830	-0,096	0,027
-490,751	43,898	-0,009	-0,006
-489,737	800,000	0,013	0,040
-488,722	95,604	0,067	-0,056
-487,708	72,274	-0,128	0,098
-486,693	421,524	0,056	0,088
-485,678	-200,000	0,014	0,059
-484,664	58,737	-0,049	0,035
-483,649	73,654	-0,021	0,016
-482,635	284,909	0,046	-0,060
-481,620	169,761	0,033	0,035
-480,605	-200,000	0,028	0,097
-479,591	547,492	0,072	0,126
-478,576	800,000	-0,047	0,112
-477,562	11,483	-0,052	-0,029
-476,547	800,000	-0,028	-0,072
-475,532	-200,000	0,006	0,028
-474,518	321,071	-0,044	0,061
-473,503	-93,141	0,122	-0,025
-472,489	-200,000	-0,003	-0,051
-471,474	17,169	-0,034	0,020
-470,459	717,906	0,046	-0,089
-469,445	-200,000	-0,045	-0,172
-468,430	800,000	-0,049	0,121
-467,416	-200,000	0,004	0,039
-466,401	-200,000	0,010	-0,068
-465,386	800,000	0,023	0,049
-464,372	-73,763	-0,023	-0,006
-463,357	399,562	-0,021	-0,032
-462,343	-51,089	-0,125	0,043
-461,328	-140,212	-0,022	-0,002
-460,313	-200,000	0,028	-0,127
-459,299	800,000	-0,028	-0,079
-458,284	39,588	0,081	0,053
-457,270	57,743	0,156	-0,111
-456,255	363,294	0,023	0,033
-455,241	116,675	0,083	0,074
-454,226	-92,060	0,066	-0,014
-453,211	120,128	0,079	-0,072
-452,197	-41,887	0,084	0,031
-451,182	800,000	-0,086	0,212
-450,168	133,817	0,049	0,046
-449,153	24,653	0,059	0,036
-448,138	55,517	0,039	-0,027
-447,124	-200,000	-0,037	-0,139
-446,109	390,448	-0,063	-0,096
-445,095	-78,960	-0,048	0,012
-444,080	-200,000	0,003	0,057
-443,065	-200,000	0,000	-0,045
-442,051	-84,824	-0,161	0,036
-441,036	-200,000	0,007	0,074
-440,022	-200,000	-0,022	0,106
-439,007	65,451	-0,159	0,117
-437,992	339,888	0,053	0,076
-436,978	-200,000	-0,008	-0,069
-435,963	-200,000	-0,006	0,033
-434,949	64,073	0,033	-0,024
-433,934	246,947	-0,034	0,042
-432,919	321,028	0,038	-0,052
-431,905	-122,350	0,086	0,010
-430,890	180,476	0,171	0,183
-429,876	134,324	-0,053	0,050
-428,861	-57,612	-0,070	0,022
-427,846	52,777	-0,095	-0,066
-426,832	301,316	0,060	-0,081
-425,817	125,961	-0,106	-0,098
-424,803	-106,293	-0,174	-0,028
-423,788	348,961	0,087	-0,125
-422,773	336,497	-0,067	-0,095
-421,759	9,216	0,048	-0,026
-420,744	175,370	-0,012	0,012
-419,730	-200,000	0,007	-0,041
-418,715	-27,883	-0,095	0,040
-417,701	-79,070	0,121	0,030
-416,686	330,598	0,031	0,044
-415,671	-103,914	0,111	-0,019
-414,657	-130,353	0,063	-0,006
-413,642	144,667	0,121	0,118
-412,628	180,880	-0,064	-0,068
-411,613	-200,000	-0,020	-0,117
-410,598	32,653	0,044	0,028
-409,584	800,000	-0,026	0,080
-408,569	-110,545	-0,059	0,009
-407,555	142,440	0,112	-0,108
-406,540	-137,416	0,008	0,001
-405,525	318,802	-0,076	-0,104
-404,511	106,770	-0,072	-0,062
-403,496	68,261	-0,054	-0,040
-402,482	448,927	0,131	-0,211
-401,467	-58,855	0,110	-0,034
-400,452	115,733	0,033	-0,030
-399,438	160,954	0,059	-0,060
-398,423	-90,810	-0,069	-0,014
-397,409	101,750	-0,048	0,040
-396,394	-104,224	-0,095	-0,016
-395,379	21,735	0,114	-0,068
-394,365	800,000	-0,012	0,027
-393,350	-200,000	0,006	0,026
-392,336	-20,196	-0,029	-0,013
-391,321	651,895	0,079	-0,148
-390,306	-200,000	0,001	0,036
-389,292	-62,352	0,057	0,017
-388,277	800,000	-0,040	-0,115
-387,263	121,862	-0,065	-0,059
-386,248	68,625	0,097	0,072
-385,233	782,536	0,018	-0,037
-384,219	-200,000	-0,016	-0,084
-383,204	-152,322	0,037	0,002
-382,190	338,264	-0,023	0,033
-381,175	491,692	0,151	0,252
-380,160	-200,000	0,021	0,092
-379,146	-73,585	0,028	0,007
-378,131	381,051	0,026	-0,038
-377,117	-200,000	-0,001	0,090
-376,102	-68,612	0,063	0,018
-375,088	199,902	0,061	0,068
-374,073	-107,649	-0,051	-0,008
-373,058	113,034	-0,067	-0,059
-372,044	61,541	-0,015	-0,011
-371,029	800,000	0,016	0,042
-370,015	99,094	0,017	-0,014
-369,000	246,620	-0,007	-0,009
-367,985	-18,051	-0,108	-0,049
-366,971	800,000	-0,066	0,145
-365,956	-200,000	0,022	0,076
-364,942	-200,000	0,007	0,030
-363,927	596,033	0,018	0,032
-362,912	-49,673	0,039	0,013
-361,898	800,000	0,029	-0,068
-360,883	-4,238	0,067	0,034
-359,869	-33,925	0,030	0,012
-358,854	-200,000	0,009	0,031
-357,839	-100,432	0,096	-0,017
-356,825	661,561	0,001	0,003
-355,810	-112,517	-0,085	-0,012
-354,796	-187,087	-0,081	-0,001
-353,781	-50,388	-0,027	-0,009
-352,766	263,530	0,052	0,066
-351,752	-39,119	0,085	-0,032
-350,737	87,074	0,086	0,069
-349,723	-163,995	0,079	0,003
-348,708	-3,278	-0,046	0,023
-347,693	-81,764	-0,134	0,032
-346,679	2,356	-0,059	-0,031
-345,664	506,294	-0,024	-0,040
-344,650	800,000	0,014	0,044
-343,635	638,166	0,046	0,085
-342,620	362,409	0,070	0,103
-341,606	800,000	0,029	0,062
-340,591	-200,000	0,019	-0,155
-339,577	-30,103	0,048	0,020
-338,562	800,000	0,017	0,051
-337,548	97,905	-0,032	-0,027
-336,533	147,499	-0,049	0,048
-335,518	800,000	-0,034	0,069
-334,504	120,722	-0,115	-0,104
-333,489	-200,000	0,029	0,123
-332,475	411,241	-0,052	-0,081
-331,460	-52,764	0,031	-0,010
-330,445	800,000	0,056	-0,114
-329,431	168,238	0,071	-0,073
-328,416	800,000	-0,082	0,192
-327,402	29,538	-0,081	0,050
-326,387	19,963	-0,054	0,032
-325,372	-200,000	-0,021	0,135
-324,358	-183,498	0,029	-0,000
-323,343	134,841	0,080	-0,075
-322,329	-103,730	0,036	0,006
-321,314	-55,796	-0,074	-0,024
-320,299	39,268	0,065	0,042
-319,285	-0,979	-0,123	-0,063
-318,270	323,902	0,083	-0,115
-317,256	-200,000	0,011	-0,116
-316,241	-13,903	-0,101	0,047
-315,226	81,645	0,081	0,063
-314,212	252,603	-0,053	0,066
-313,197	81,449	0,152	-0,119
-312,183	-200,000	0,005	-0,116
-311,168	249,387	-0,101	0,125
-310,153	800,000	0,037	-0,088
-309,139	387,116	-0,085	0,128
-308,124	-200,000	-0,033	0,106
-307,110	-169,106	0,089	-0,002
-306,095	-128,834	0,016	-0,002
-305,080	800,000	-0,009	-0,026
-304,066	-200,000	0,010	0,067
-303,051	3,247	0,122	0,064
-302,037	-200,000	0,034	-0,142
-301,022	-80,619	-0,059	-0,014
-300,008	39,124	0,062	0,040
-298,993	800,000	0,016	0,048
-297,978	-200,000	0,010	-0,041
-296,964	112,024	-0,062	0,054
-295,949	60,975	-0,082	0,059
-294,935	240,509	-0,059	-0,072
-293,920	-83,670	0,137	-0,031
-292,905	-13,802	0,070	0,033
-291,891	647,936	0,064	-0,119
-290,876	-75,710	0,225	-0,057
-289,862	-166,164	-0,069	-0,002
-288,847	-200,000	-0,005	-0,173
-287,832	276,231	-0,025	0,033
-286,818	-51,515	-0,085	-0,029
-285,803	420,547	-0,093	-0,145
-284,789	22,439	0,161	-0,095
-283,774	-144,988	0,064	-0,004
-282,759	-200,000	-0,002	-0,014
-281,745	404,865	-0,082	-0,126
-280,730	202,574	0,070	-0,078
-279,716	49,836	-0,103	0,070
-278,701	800,000	0,044	0,123
-277,686	45,599	0,074	0,050
-276,672	158,629	0,048	0,048
-275,657	-200,000	0,026	-0,102
-274,643	62,048	-0,081	0,058
-273,628	480,367	-0,053	-0,088
-272,613	800,000	0,041	0,096
-271,599	39,626	0,099	0,064
-270,584	35,053	0,173	0,110
-269,570	-200,000	0,013	0,129
-268,555	-103,382	0,028	-0,005
-267,540	-5,984	0,059	-0,029
-266,526	-200,000	-0,011	-0,041
-265,511	-124,626	-0,048	-0,005
-264,497	-97,934	0,041	-0,008
-263,482	800,000	0,002	0,004
-262,467	235,728	0,066	-0,078
-261,453	-116,338	-0,212	-0,028
-260,438	11,457	0,031	0,017
-259,424	-27,371	-0,036	-0,015
-258,409	-200,000	0,046	-0,176
-257,395	-120,350	-0,105	0,013
-256,380	1,381	0,233	0,121
-255,365	-75,880	0,080	0,020
-254,351	800,000	-0,027	-0,067
-253,336	-200,000	0,022	-0,090
-252,322	-200,000	0,017	-0,059
-251,307	217,018	0,023	-0,026
-250,292	800,000	0,035	-0,081
-249,278	-200,000	-0,010	0,071
-248,263	-2,192	0,061	-0,031
-247,249	-200,000	-0,002	-0,110
-246,234	46,990	0,089	0,060
-245,219	189,930	-0,150	-0,163
-244,205	147,328	0,070	-0,068
-243,190	35,007	0,066	-0,042
-242,176	800,000	-0,063	0,181
-241,161	-73,995	0,145	-0,038
-240,146	195,153	0,090	-0,099
-239,132	17,014	0,106	-0,060
-238,117	561,449	-0,058	-0,103
-237,103	337,482	0,043	-0,060
-236,088	-97,888	-0,080	0,015
-235,073	800,000	0,023	0,053
-234,059	70,238	-0,130	-0,097
-233,044	-200,000	-0,010	-0,057
-232,030	-200,000	-0,009	0,136
-231,015	375,053	0,028	0,042
-230,000	671,040	0,066	-0,123
-228,986	5,961	-0,040	0,021
-227,971	38,090	-0,097	-0,062
-226,957	70,969	0,056	0,042
-225,942	-157,412	0,089	0,004
-224,927	-79,103	-0,100	0,024
-223,913	-200,000	-0,007	-0,152
-222,898	-137,681	-0,128	0,010
-221,884	-200,000	0,001	-0,080
-220,869	139,934	0,201	0,191
-219,855	-117,493	-0,021	-0,003
-218,840	800,000	0,017	0,041
-217,825	800,000	0,033	-0,081
-216,811	-148,642	0,154	0,009
-215,796	800,000	0,015	-0,030
-214,782	-200,000	-0,045	0,178
-213,767	-200,000	-0,001	0,010
-212,752	242,430	0,076	0,092
-211,738	-98,624	-0,043	-0,008
-210,723	15,333	-0,068	0,038
-209,709	253,825	-0,034	-0,042
-208,694	-200,000	-0,010	-0,034
-207,679	89,762	0,057	0,046
-206,665	-40,091	-0,039	-0,015
-205,650	351,937	0,044	0,063
-204,636	-200,000	0,031	0,111
-203,621	106,319	0,057	0,049
-202,606	21,995	-0,125	0,074
-201,592	445,722	-0,031	0,049
-200,577	-66,308	-0,079	-0,023
-199,563	-45,552	-0,071	0,025
-198,548	775,040	0,065	0,128
-197,533	800,000	0,073	0,192
-196,519	629,605	-0,068	0,124
-195,504	-200,000	-0,032	-0,140
-194,490	-200,000	0,003	0,026
-193,475	-133,835	0,083	0,007
-192,460	121,299	-0,073	-0,066
-191,446	140,558	0,085	-0,081
-190,431	423,728	0,020	-0,032
-189,417	251,864	-0,058	0,071
-188,402	25,770	-0,108	0,065
-187,387	800,000	0,015	-0,043
-186,373	-97,147	0,114	0,021
-185,358	-164,946	-0,098	-0,003
-184,344	-179,677	0,146	0,002
-183,329	71,457	0,027	0,020
-182,315	-200,000	0,006	0,094
-181,300	10,108	-0,092	-0,050
-180,285	344,176	0,016	0,023
-179,271	-200,000	0,030	-0,118
-178,256	-200,000	-0,037	-0,223
-177,242	-200,000	0,019	-0,084
-176,227	42,750	0,137	0,090
-175,212	-200,000	0,021	0,141
-174,198	-99,067	-0,134	0,024
-173,183	-101,385	-0,111	0,019
-172,169	387,060	-0,038	-0,057
-171,154	-18,370	-0,134	0,060
-170,139	449,616	0,044	0,070
-169,125	287,352	0,089	0,116
-168,110	42,789	0,100	0,066
-167,096	-200,000	-0,000	0,098
-166,081	313,036	0,020	0,027
-165,066	2,189	-0,144	-0,075
-164,052	-200,000	0,002	0,072
-163,037	48,795	-0,072	-0,049
-162,023	466,554	-0,089	0,145
-161,008	800,000	-0,053	-0,124
-159,993	-67,803	0,071	-0,020
-158,979	81,648	-0,058	0,045
-157,964	-200,000	0,020	-0,075
-156,950	-56,431	0,090	-0,029
-155,935	506,661	0,046	-0,077
-154,920	-105,731	0,087	0,014
-153,906	-200,000	-0,023	0,095
-152,891	22,861	-0,069	-0,041
-151,877	167,711	0,104	-0,107
-150,862	800,000	-0,036	0,112
-149,847	-26,893	-0,047	-0,020
-148,833	42,401	0,021	0,014
-147,818	563,547	0,071	0,124
-146,804	800,000	0,035	0,093
-145,789	800,000	0,063	0,139
-144,775	53,971	0,028	0,020
-143,760	164,318	-0,072	-0,073
-142,745	-200,000	0,027	-0,124
-141,731	118,741	0,071	0,063
-140,716	415,632	-0,100	0,153
-139,702	-115,422	0,110	-0,015
-138,687	-200,000	0,007	0,196
-137,672	-99,099	0,085	-0,015
-136,658	800,000	-0,020	-0,059
-135,643	-200,000	0,017	-0,093
-134,629	-150,488	0,083	-0,005
-133,614	-200,000	0,002	-0,119
-132,599	708,233	-0,029	-0,055
-131,585	-200,000	-0,014	-0,077
-130,570	758,692	0,024	0,047
-129,556	178,397	-0,066	0,070
-128,541	-200,000	-0,017	-0,190
-127,526	162,561	-0,029	0,030
-126,512	85,471	0,046	-0,036
-125,497	49,952	-0,060	0,040
-124,483	-42,651	-0,022	0,008
-123,468	539,605	0,051	0,087
-122,453	117,554	-0,111	0,098
-121,439	166,181	-0,030	-0,030
-120,424	431,746	0,070	0,109
-119,410	-199,731	0,051	0,000
-118,395	279,541	-0,037	-0,047
-117,380	-116,580	0,066	-0,009
