DTS Sentinel unit serial number:	SN410029Multiplexer serial number:	ORYXHardware model number:	OX2-SRSoftware version number:	ORYX F/W v4,00 Oryx Data Collector v3.7.2.0data status	okinstallation	B5 Nyhavnadifferential loss correction	single-endedforward channel	channel 2reverse channel	N/Adate	2023/12/12time	17:22:13forward acquisition time	300,00reverse acquisition time	0,00gamma	499,1914k internal	0,3156k external	0,3156temperature offset calibration	1,0000default loss term (dB/km)	0,3820temperature slope calibration	1,0000multiplexer offset coefficient	1,0000multiplexer slope coefficient	1,0000fibre end	0,00T internal ref (°C)	15,73T ext. ref 1 (°C)	-0,84T ext. ref 2 (°C)	-1,16length (m)	temperature (°C)	Stokes	anti-Stokes-744,400	96,370	0,073	0,061
-743,385	-141,997	-0,195	0,014
-742,371	-134,078	0,173	0,016
-741,356	147,634	-0,076	-0,075
-740,342	140,093	-0,111	0,108
-739,327	-156,414	-0,279	0,013
-738,312	76,298	0,071	-0,055
-737,298	-115,893	-0,269	-0,037
-736,283	-36,999	0,267	0,105
-735,269	27,043	-0,266	0,164
-734,254	-102,179	0,123	-0,022
-733,239	-44,509	-0,440	-0,162
-732,225	-132,317	0,145	-0,014
-731,210	-200,000	-0,007	0,039
-730,196	55,445	0,078	-0,055
-729,181	300,649	0,075	-0,103
-728,167	-116,724	-0,117	-0,016
-727,152	-128,557	0,061	-0,006
-726,137	-97,033	-0,111	0,021
-725,123	63,979	0,034	0,025
-724,108	685,344	-0,069	-0,133
-723,094	-147,625	-0,039	-0,002
-722,079	-18,467	-0,076	0,035
-721,064	-73,858	-0,131	-0,035
-720,050	35,489	0,071	-0,046
-719,035	800,000	0,009	0,023
-718,021	11,416	-0,052	0,029
-717,006	82,711	-0,104	-0,083
-715,991	-10,702	-0,081	0,039
-714,977	-190,434	-0,114	-0,001
-713,962	153,404	-0,072	-0,072
-712,948	-168,609	0,127	-0,003
-711,933	-200,000	0,024	-0,077
-710,918	800,000	-0,053	0,116
-709,904	-165,971	-0,123	0,004
-708,889	69,706	0,025	0,019
-707,875	800,000	-0,022	-0,055
-706,860	171,157	0,043	0,046
-705,845	-87,350	0,165	-0,037
-704,831	800,000	0,018	0,051
-703,816	-200,000	-0,014	-0,056
-702,802	-81,546	0,130	-0,031
-701,787	428,067	-0,041	0,065
-700,772	-200,000	-0,002	-0,120
-699,758	-140,439	-0,098	-0,007
-698,743	800,000	-0,035	0,108
-697,729	-18,056	0,036	0,017
-696,714	511,404	0,010	-0,017
-695,699	116,391	-0,046	-0,042
-694,685	800,000	0,034	-0,100
-693,670	-200,000	0,013	-0,100
-692,656	240,116	-0,135	-0,166
-691,641	-147,760	0,183	0,011
-690,627	-200,000	0,027	0,165
-689,612	-200,000	-0,006	0,081
-688,597	-200,000	-0,013	-0,086
-687,583	-200,000	-0,027	-0,109
-686,568	-192,138	-0,138	0,001
-685,554	-86,737	-0,050	0,011
-684,539	800,000	-0,007	-0,016
-683,524	47,466	-0,103	0,070
-682,510	-15,749	0,097	0,046
-681,495	218,278	-0,082	0,096
-680,481	-200,000	-0,034	-0,131
-679,466	-200,000	-0,030	-0,101
-678,451	-140,393	-0,064	0,005
-677,437	-200,000	-0,001	0,040
-676,422	11,637	0,086	0,048
-675,408	704,751	-0,033	0,064
-674,393	329,472	0,038	-0,054
-673,378	-109,587	-0,063	-0,010
-672,364	-133,810	-0,046	-0,004
-671,349	800,000	0,031	0,072
-670,335	-200,000	-0,022	0,149
-669,320	10,026	-0,102	0,057
-668,305	115,156	-0,010	0,009
-667,291	800,000	-0,041	0,103
-666,276	90,278	0,113	0,093
-665,262	-80,771	-0,151	0,037
-664,247	800,000	-0,031	-0,086
-663,232	-200,000	-0,044	-0,161
-662,218	722,776	-0,046	-0,090
-661,203	800,000	-0,051	-0,107
-660,189	-200,000	-0,031	-0,123
-659,174	-200,000	-0,013	-0,172
-658,159	-200,000	-0,010	-0,054
-657,145	800,000	0,028	0,061
-656,130	-132,199	-0,117	-0,011
-655,116	-200,000	0,019	0,111
-654,101	66,830	-0,104	-0,078
-653,086	-200,000	-0,033	-0,159
-652,072	-200,000	-0,003	-0,023
-651,057	198,968	0,023	-0,026
-650,043	91,090	-0,079	0,065
-649,028	124,830	0,074	0,069
-648,014	404,261	0,080	0,124
-646,999	247,675	0,051	0,064
-645,984	427,982	0,043	-0,069
-644,970	-200,000	-0,013	-0,075
-643,955	-90,102	-0,127	-0,027
-642,941	220,138	-0,065	-0,077
-641,926	-130,069	-0,046	-0,005
-640,911	542,259	0,049	-0,087
-639,897	94,084	0,111	-0,092
-638,882	78,018	-0,045	0,035
-637,868	-200,000	0,023	0,100
-636,853	-83,611	-0,022	-0,005
-635,838	-106,551	-0,136	-0,022
-634,824	246,570	0,039	0,049
-633,809	6,765	0,117	0,064
-632,795	156,725	0,061	-0,062
-631,780	183,294	-0,065	0,070
-630,765	616,742	-0,021	-0,038
-629,751	-200,000	0,016	0,105
-628,736	-200,000	0,019	-0,120
-627,722	48,638	-0,042	-0,029
-626,707	-169,540	-0,037	0,001
-625,692	-64,427	-0,111	-0,033
-624,678	127,931	-0,068	0,063
-623,663	-74,918	-0,193	-0,050
-622,649	-35,669	-0,038	-0,015
-621,634	-60,466	-0,107	-0,033
-620,619	-200,000	-0,041	-0,163
-619,605	800,000	0,031	0,100
-618,590	-101,761	-0,128	0,022
-617,576	800,000	-0,068	0,149
-616,561	153,853	-0,067	-0,068
-615,546	800,000	0,005	-0,015
-614,532	87,780	-0,037	-0,030
-613,517	-102,825	-0,163	-0,028
-612,503	73,024	-0,067	0,052
-611,488	800,000	0,016	0,036
-610,474	-200,000	0,017	0,156
-609,459	113,232	-0,117	-0,104
-608,444	-200,000	-0,012	0,078
-607,430	238,567	0,071	0,087
-606,415	-99,143	-0,126	-0,023
-605,401	310,938	-0,086	-0,118
-604,386	231,252	-0,061	-0,073
-603,371	-200,000	-0,001	0,082
-602,357	-200,000	-0,001	-0,011
-601,342	501,539	-0,014	0,024
-600,328	-143,679	-0,085	-0,006
-599,313	-200,000	-0,023	-0,081
-598,298	-117,646	-0,078	-0,010
-597,284	89,617	0,055	-0,045
-596,269	-200,000	0,019	0,066
-595,255	205,143	0,040	-0,046
-594,240	136,186	-0,116	-0,111
-593,225	132,347	-0,145	0,137
-592,211	-112,946	0,030	0,004
-591,196	-88,074	-0,108	0,024
-590,182	66,655	0,030	0,022
-589,167	-78,788	-0,163	0,040
-588,152	-22,257	0,135	0,060
-587,138	800,000	-0,036	-0,106
-586,123	-107,163	-0,111	-0,018
-585,109	-200,000	0,022	-0,127
-584,094	663,751	-0,058	-0,109
-583,079	-128,060	-0,023	-0,002
-582,065	145,813	0,041	-0,040
-581,050	-24,410	-0,053	0,023
-580,036	-41,883	-0,156	0,058
-579,021	-200,000	-0,025	0,131
-578,006	800,000	-0,050	-0,154
-576,992	800,000	0,064	-0,156
-575,977	-69,165	-0,073	-0,020
-574,963	388,690	0,015	0,023
-573,948	46,293	-0,118	-0,080
-572,934	493,571	-0,061	-0,103
-571,919	-145,997	-0,117	0,007
-570,904	211,596	-0,025	-0,029
-569,890	42,319	0,087	-0,058
-568,875	-131,607	0,109	-0,010
-567,861	348,122	-0,035	0,051
-566,846	91,393	-0,090	-0,074
-565,831	-77,486	-0,024	-0,006
-564,817	263,877	-0,029	-0,037
-563,802	-64,770	-0,101	-0,030
-562,788	-200,000	0,046	-0,189
-561,773	800,000	-0,028	-0,073
-560,758	-182,687	0,152	-0,002
-559,744	800,000	-0,002	-0,005
-558,729	-146,301	-0,073	0,005
-557,715	-200,000	0,005	0,051
-556,700	-117,177	-0,137	0,018
-555,685	51,231	-0,085	0,059
-554,671	800,000	-0,014	-0,028
-553,656	59,645	0,020	-0,014
-552,642	85,340	0,122	0,098
-551,627	413,214	-0,043	-0,068
-550,612	625,626	0,038	-0,071
-549,598	-200,000	-0,015	-0,102
-548,583	-200,000	-0,009	-0,059
-547,569	-200,000	-0,001	0,031
-546,554	386,729	0,036	0,055
-545,539	-118,400	0,082	0,010
-544,525	-200,000	0,008	0,079
-543,510	-200,000	-0,025	-0,148
-542,496	-111,546	-0,097	0,014
-541,481	17,298	-0,081	0,047
-540,466	-200,000	0,003	-0,072
-539,452	-200,000	0,002	-0,090
-538,437	-200,000	0,013	-0,198
-537,423	-91,795	-0,082	-0,017
-536,408	-173,105	-0,073	0,002
-535,393	800,000	-0,031	-0,063
-534,379	572,918	-0,048	-0,085
-533,364	175,915	0,075	-0,080
-532,350	557,196	-0,045	-0,080
-531,335	-56,174	0,006	-0,002
-530,321	484,271	0,049	-0,082
-529,306	-25,685	-0,139	0,060
-528,291	-39,803	-0,072	-0,028
-527,277	69,881	-0,100	0,075
-526,262	198,669	0,054	0,060
-525,248	-200,000	0,020	0,101
-524,233	800,000	0,016	0,038
-523,218	-49,421	0,133	-0,046
-522,204	-70,446	-0,103	0,028
-521,189	-200,000	-0,005	-0,034
-520,175	-74,242	0,098	0,026
-519,160	-172,174	-0,004	0,000
-518,145	-160,165	-0,095	-0,004
-517,131	-114,581	0,053	0,007
-516,116	-171,106	0,177	0,004
-515,102	800,000	0,021	-0,045
-514,087	-92,998	0,129	-0,026
-513,072	-200,000	0,016	-0,079
-512,058	226,770	0,139	-0,165
-511,043	-194,579	-0,037	-0,000
-510,029	-113,094	0,104	0,015
-509,014	-26,582	0,014	0,006
-507,999	296,864	-0,078	0,105
-506,985	22,936	-0,203	-0,121
-505,970	794,366	-0,032	0,065
-504,956	-200,000	0,002	0,052
-503,941	800,000	-0,035	0,084
-502,926	15,461	-0,031	-0,018
-501,912	-29,324	0,133	0,055
-500,897	263,762	0,147	-0,188
-499,883	132,775	-0,093	-0,088
-498,868	795,902	0,060	-0,121
-497,853	-200,000	0,015	-0,192
-496,839	353,373	0,022	-0,032
-495,824	-185,437	0,072	-0,001
-494,810	99,644	0,136	0,115
-493,795	-131,323	-0,127	-0,012
-492,781	-95,477	0,112	0,022
-491,766	800,000	-0,028	0,078
-490,751	310,907	0,147	-0,202
-489,737	20,760	0,035	-0,021
-488,722	-25,889	0,061	-0,026
-487,708	41,943	-0,041	0,027
-486,693	99,245	0,064	0,054
-485,678	190,815	-0,040	0,044
-484,664	53,486	-0,076	-0,053
-483,649	-6,400	0,047	-0,024
-482,635	20,354	0,146	0,086
-481,620	-94,919	-0,080	0,016
-480,605	267,506	0,052	-0,066
-479,591	-200,000	-0,000	0,016
-478,576	153,876	0,064	0,064
-477,562	-107,348	0,043	0,007
-476,547	60,840	0,023	0,017
-475,532	-200,000	0,020	0,140
-474,518	-3,852	-0,034	-0,017
-473,503	800,000	0,019	0,060
-472,489	108,835	0,059	0,052
-471,474	-63,490	-0,104	0,031
-470,459	-117,318	-0,029	-0,004
-469,445	800,000	0,019	-0,058
-468,430	-200,000	-0,033	0,128
-467,416	-200,000	0,014	-0,062
-466,401	188,927	0,045	0,049
-465,386	162,386	0,029	-0,030
-464,372	800,000	0,035	0,082
-463,357	-156,045	0,030	0,001
-462,343	-93,491	-0,146	-0,029
-461,328	-200,000	-0,023	-0,146
-460,313	-86,554	0,062	0,014
-459,299	-200,000	-0,052	0,215
-458,284	-200,000	0,008	0,158
-457,270	-200,000	0,003	-0,088
-456,255	-49,619	-0,046	-0,016
-455,241	19,411	-0,065	-0,038
-454,226	-164,976	-0,071	-0,002
-453,211	-105,680	-0,027	-0,004
-452,197	800,000	-0,075	0,174
-451,182	-93,353	0,060	-0,012
-450,168	-15,386	-0,153	0,071
-449,153	259,949	-0,096	0,121
-448,138	755,915	0,021	0,041
-447,124	350,944	-0,034	0,050
-446,109	-200,000	-0,017	0,059
-445,095	77,196	0,109	0,084
-444,080	90,163	0,110	-0,089
-443,065	23,527	0,070	0,042
-442,051	-16,800	-0,126	0,058
-441,036	-6,381	-0,078	0,039
-440,022	-89,972	-0,231	0,049
-439,007	154,326	0,102	0,102
-437,992	-68,399	0,122	0,034
-436,978	-200,000	-0,019	0,077
-435,963	-72,467	0,078	-0,021
-434,949	188,694	-0,071	0,078
-433,934	-200,000	-0,005	0,061
-432,919	738,773	0,047	-0,092
-431,905	664,019	0,046	0,087
-430,890	-52,913	0,120	0,040
-429,876	-55,574	0,038	-0,012
-428,861	102,156	-0,062	0,053
-427,846	22,456	0,138	0,082
-426,832	6,628	-0,076	-0,041
-425,817	-43,165	-0,078	-0,029
-424,803	484,112	0,032	0,053
-423,788	-44,909	0,063	-0,023
-422,773	157,502	0,065	-0,065
-421,759	145,922	-0,009	-0,008
-420,744	-120,309	0,109	0,013
-419,730	-200,000	-0,017	-0,059
-418,715	-96,446	-0,124	0,024
-417,701	-79,178	-0,081	0,020
-416,686	-75,572	0,112	-0,029
-415,671	666,797	0,020	-0,038
-414,657	-91,760	-0,016	0,003
-413,642	34,905	0,043	-0,027
-412,628	-200,000	-0,005	-0,045
-411,613	54,375	-0,110	-0,077
-410,598	-200,000	0,010	-0,053
-409,584	-200,000	0,004	0,073
-408,569	-200,000	0,031	0,272
-407,555	346,781	0,032	0,046
-406,540	120,616	-0,070	-0,064
-405,525	-200,000	0,012	0,062
-404,511	192,876	0,041	0,045
-403,496	50,796	0,158	0,109
-402,482	42,704	-0,129	0,085
-401,467	800,000	0,031	0,070
-400,452	355,312	-0,030	0,044
-399,438	-121,203	0,017	-0,002
-398,423	-90,935	-0,040	-0,008
-397,409	773,873	-0,070	-0,140
-396,394	-138,153	-0,108	0,009
-395,379	5,941	-0,051	-0,027
-394,365	800,000	0,060	0,150
-393,350	99,403	0,160	0,135
-392,336	-31,398	0,109	0,044
-391,321	-200,000	0,024	-0,084
-390,306	-200,000	0,006	-0,041
-389,292	62,169	-0,067	-0,049
-388,277	-200,000	0,001	0,107
-387,263	325,389	0,123	0,172
-386,248	704,533	-0,023	-0,044
-385,233	-200,000	0,005	0,191
-384,219	-61,880	-0,079	0,024
-383,204	-18,515	-0,043	0,020
-382,190	41,354	-0,150	-0,098
-381,175	61,163	-0,054	0,039
-380,160	800,000	-0,026	0,071
-379,146	156,532	0,019	0,019
-378,131	127,621	0,067	0,062
-377,117	-200,000	0,034	-0,122
-376,102	89,678	-0,059	0,048
-375,088	-68,740	0,109	-0,031
-374,073	-200,000	0,008	0,096
-373,058	-117,543	0,057	0,007
-372,044	69,954	-0,119	0,089
-371,029	-41,339	-0,100	-0,037
-370,015	57,212	-0,019	-0,014
-369,000	12,369	-0,135	-0,076
-367,985	45,295	-0,058	-0,039
-366,971	48,531	-0,061	-0,041
-365,956	-200,000	-0,001	0,088
-364,942	302,644	0,058	0,078
-363,927	800,000	-0,027	0,064
-362,912	345,245	-0,041	0,059
-361,898	225,980	-0,044	-0,052
-360,883	-200,000	0,010	0,069
-359,869	44,161	-0,101	-0,067
-358,854	-114,982	-0,030	0,004
-357,839	800,000	-0,017	0,035
-356,825	-125,155	0,090	0,010
-355,810	800,000	-0,022	-0,068
-354,796	-200,000	0,026	0,091
-353,781	116,443	0,060	0,054
-352,766	-91,607	-0,134	0,028
-351,752	-200,000	-0,016	0,055
-350,737	-200,000	-0,028	0,134
-349,723	26,130	0,043	-0,026
-348,708	235,347	0,099	-0,120
-347,693	-99,207	-0,082	0,015
-346,679	800,000	-0,048	-0,108
-345,664	33,116	-0,075	0,047
-344,650	-13,181	0,049	0,023
-343,635	-92,938	0,175	-0,035
-342,620	70,986	-0,169	0,127
-341,606	106,711	0,028	-0,024
-340,591	-93,638	-0,137	-0,027
-339,577	800,000	0,018	-0,042
-338,562	-200,000	0,009	-0,038
-337,548	-200,000	0,024	-0,186
-336,533	-9,280	0,092	-0,045
-335,518	736,637	-0,054	0,106
-334,504	487,358	-0,086	-0,143
-333,489	702,615	-0,022	-0,043
-332,475	-51,061	-0,114	0,039
-331,460	-200,000	0,005	-0,035
-330,445	-200,000	0,021	-0,101
-329,431	-32,807	0,162	-0,065
-328,416	-200,000	-0,016	0,102
-327,402	-89,610	0,144	-0,030
-326,387	481,514	0,026	-0,044
-325,372	614,586	-0,012	-0,022
-324,358	319,144	-0,069	0,096
-323,343	-59,233	-0,044	0,014
-322,329	800,000	0,043	-0,097
-321,314	800,000	0,026	0,069
-320,299	664,110	0,036	0,067
-319,285	174,783	0,060	-0,063
-318,270	-200,000	-0,003	0,097
-317,256	-197,125	-0,139	0,001
-316,241	759,119	-0,040	0,079
-315,226	-14,084	0,095	0,044
-314,212	-71,447	0,074	-0,020
-313,197	-142,251	0,162	0,011
-312,183	800,000	-0,021	-0,052
-311,168	-200,000	-0,004	-0,085
-310,153	-200,000	0,000	0,101
-309,139	-40,275	-0,118	-0,044
-308,124	-200,000	0,014	-0,067
-307,110	43,510	0,194	0,129
-306,095	-200,000	-0,008	-0,106
-305,080	800,000	0,030	-0,072
-304,066	-200,000	-0,003	0,178
-303,051	473,857	-0,050	0,082
-302,037	294,524	-0,077	-0,102
-301,022	443,956	0,046	-0,074
-300,008	-178,386	0,124	-0,002
-298,993	-200,000	0,004	0,055
-297,978	-122,175	0,052	-0,006
-296,964	-76,981	0,224	-0,056
-295,949	143,726	-0,050	0,048
-294,935	-132,736	-0,076	-0,007
-293,920	149,971	0,081	-0,079
-292,905	-106,794	-0,050	-0,008
-291,891	99,644	-0,051	0,042
-290,876	316,446	0,056	-0,077
-289,862	-129,348	0,156	0,016
-288,847	37,636	0,076	-0,049
-287,832	-48,959	0,097	0,034
-286,818	195,509	0,079	-0,087
-285,803	-200,000	0,036	-0,120
-284,789	41,348	0,110	0,072
-283,774	-3,881	-0,113	-0,056
-282,759	236,090	0,024	0,028
-281,745	-48,444	-0,085	-0,030
-280,730	800,000	-0,049	-0,143
-279,716	-200,000	-0,002	0,125
-278,701	-200,000	0,005	-0,059
-277,686	4,946	-0,093	-0,050
-276,672	-95,725	0,121	0,023
-275,657	800,000	0,023	0,068
-274,643	44,248	0,054	-0,036
-273,628	-191,267	-0,046	0,000
-272,613	-73,373	0,121	0,032
-271,599	323,764	0,079	0,109
-270,584	-200,000	0,018	0,089
-269,570	-28,231	0,052	0,022
-268,555	287,739	0,018	-0,024
-267,540	-200,000	-0,023	0,082
-266,526	170,973	-0,050	-0,052
-265,511	24,254	0,129	-0,077
-264,497	-200,000	0,003	0,046
-263,482	-200,000	-0,031	-0,116
-262,467	800,000	0,015	0,039
-261,453	135,530	0,140	0,132
-260,438	478,164	0,081	-0,134
-259,424	-38,957	-0,097	-0,037
-258,409	-153,736	0,163	0,008
-257,395	-200,000	0,011	-0,055
-256,380	-137,603	0,047	0,004
-255,365	315,923	-0,043	0,058
-254,351	-200,000	0,013	-0,074
-253,336	-109,515	0,141	-0,021
-252,322	-26,927	-0,117	0,049
-251,307	-3,276	-0,134	-0,067
-250,292	800,000	-0,017	0,047
-249,278	-200,000	-0,001	0,007
-248,263	-181,650	0,101	0,001
-247,249	141,065	-0,039	0,038
-246,234	163,058	-0,013	-0,013
-245,219	-95,941	0,088	-0,017
-244,205	-200,000	-0,033	-0,207
-243,190	467,757	-0,040	0,066
-242,176	11,031	0,082	-0,045
-241,161	-36,147	0,049	0,019
-240,146	800,000	0,058	0,126
-239,132	800,000	-0,044	0,107
-238,117	-200,000	0,029	-0,112
-237,103	253,287	-0,031	-0,038
-236,088	60,766	-0,077	0,055
-235,073	800,000	0,062	0,180
-234,059	-200,000	0,011	0,074
-233,044	-81,772	0,096	0,023
-232,030	-200,000	0,006	-0,047
-231,015	77,471	-0,049	0,038
-230,000	-200,000	-0,079	0,000
-228,986	-119,973	0,078	0,010
-227,971	-200,000	0,011	-0,079
-226,957	-107,976	-0,098	-0,015
-225,942	-200,000	0,024	0,090
-224,927	-200,000	0,014	0,072
-223,913	-200,000	-0,002	0,018
-222,898	-43,064	0,091	-0,033
-221,884	-4,674	-0,069	-0,034
-220,869	179,294	0,126	-0,134
-219,855	22,887	0,197	0,116
-218,840	-200,000	0,030	0,134
-217,825	52,431	-0,092	-0,064
-216,811	115,658	0,091	0,080
-215,796	800,000	0,009	-0,020
-214,782	18,054	0,097	0,056
-213,767	133,505	0,006	-0,006
-212,752	-200,000	0,003	0,046
-211,738	800,000	0,033	0,074
-210,723	-96,381	-0,114	-0,022
-209,709	800,000	-0,022	-0,062
-208,694	478,178	-0,049	-0,081
-207,679	563,297	0,038	-0,067
-206,665	800,000	-0,014	-0,043
-205,650	76,917	0,107	-0,082
-204,636	-108,808	0,146	0,022
-203,621	402,084	0,041	-0,062
-202,606	-181,667	0,017	0,000
-201,592	107,460	-0,070	-0,060
-200,577	-1,008	0,085	-0,043
-199,563	295,399	-0,054	0,072
-198,548	-67,337	0,058	-0,016
-197,533	370,936	-0,018	-0,026
-196,519	800,000	0,036	0,079
-195,504	119,447	0,028	-0,025
-194,490	182,858	-0,026	-0,028
-193,475	-96,333	0,069	-0,013
-192,460	-200,000	0,019	-0,107
-191,446	-200,000	-0,017	-0,085
-190,431	-20,426	0,043	0,019
-189,417	-200,000	-0,002	-0,095
-188,402	407,090	-0,099	-0,151
-187,387	351,290	-0,051	0,072
-186,373	800,000	-0,045	-0,116
-185,358	-4,597	-0,076	-0,038
-184,344	279,901	0,053	-0,069
-183,329	-67,227	-0,107	0,030
-182,315	-128,404	0,050	-0,005
-181,300	181,070	-0,126	-0,134
-180,285	-200,000	0,023	0,097
-179,271	140,062	0,072	0,068
-178,256	223,461	-0,034	-0,040
-177,242	118,846	0,036	0,032
-176,227	137,582	0,039	0,037
-175,212	-181,672	-0,149	0,002
-174,198	105,907	0,167	0,142
-173,183	426,826	-0,027	0,043
-172,169	-200,000	-0,012	-0,063
-171,154	-2,735	0,035	0,018
-170,139	800,000	0,053	-0,147
-169,125	649,478	0,067	0,124
-168,110	-146,343	0,110	0,007
-167,096	164,255	-0,076	-0,077
-166,081	642,556	0,022	-0,041
-165,066	11,785	0,103	0,057
-164,052	-118,575	0,027	-0,003
-163,037	130,770	0,052	0,048
-162,023	158,110	-0,085	0,085
-161,008	356,240	0,038	0,054
-159,993	800,000	0,035	-0,071
-158,979	800,000	0,028	-0,080
-157,964	-200,000	-0,018	0,061
-156,950	23,850	0,040	0,024
-155,935	-200,000	0,002	-0,088
-154,920	-200,000	0,036	0,162
-153,906	-200,000	0,000	-0,014
-152,891	185,385	-0,014	0,016
-151,877	800,000	0,040	0,115
-150,862	-200,000	0,002	-0,080
-149,847	633,463	0,033	-0,061
-148,833	-120,854	-0,125	-0,015
-147,818	-200,000	0,016	-0,106
-146,804	-200,000	0,004	0,057
-145,789	-200,000	-0,055	0,185
-144,775	-51,821	-0,100	-0,033
-143,760	-70,082	0,037	-0,010
-142,745	800,000	-0,031	-0,072
-141,731	187,400	0,015	0,017
-140,716	-118,667	0,175	0,022
-139,702	800,000	0,028	0,080
-138,687	-113,859	0,118	0,016
-137,672	-200,000	0,015	0,142
-136,658	314,432	0,028	-0,038
-135,643	2,237	-0,038	0,020
-134,629	24,310	-0,079	0,047
-133,614	-89,510	0,077	0,016
-132,599	-200,000	-0,004	0,091
-131,585	-200,000	-0,015	0,103
-130,570	-173,101	-0,086	-0,002
-129,556	126,302	-0,110	-0,101
-128,541	349,049	-0,030	-0,043
-127,526	-184,268	-0,047	0,001
-126,512	222,449	-0,076	0,088
-125,497	-160,285	0,040	0,002
-124,483	-181,319	-0,068	0,001
-123,468	-200,000	0,023	0,125
-122,453	80,561	-0,067	-0,052
-121,439	-120,376	-0,081	-0,010
-120,424	-61,889	0,105	0,031
