DTS Sentinel unit serial number:	SN410029Multiplexer serial number:	ORYXHardware model number:	OX2-SRSoftware version number:	ORYX F/W v4,00 Oryx Data Collector v3.7.2.0data status	okinstallation	B5 Nyhavnadifferential loss correction	single-endedforward channel	channel 2reverse channel	N/Adate	2023/12/12time	21:22:13forward acquisition time	300,00reverse acquisition time	0,00gamma	499,1914k internal	0,3157k external	0,3157temperature offset calibration	1,0000default loss term (dB/km)	0,3820temperature slope calibration	1,0000multiplexer offset coefficient	1,0000multiplexer slope coefficient	1,0000fibre end	0,00T internal ref (°C)	14,93T ext. ref 1 (°C)	-1,71T ext. ref 2 (°C)	-2,01length (m)	temperature (°C)	Stokes	anti-Stokes-744,400	329,651	0,038	-0,054
-743,385	-15,928	-0,397	0,185
-742,371	780,195	0,071	0,145
-741,356	-56,492	-0,290	0,094
-740,342	-106,370	0,183	-0,030
-739,327	-113,116	-0,312	0,045
-738,312	170,128	-0,058	-0,061
-737,298	-61,187	-0,295	-0,091
-736,283	279,121	0,049	-0,064
-735,269	-148,976	-0,384	0,022
-734,254	102,410	0,054	0,046
-733,239	-157,964	-0,357	-0,015
-732,225	-98,684	0,208	0,039
-731,210	108,049	0,078	-0,068
-730,196	56,294	-0,177	-0,127
-729,181	126,240	0,023	0,022
-728,167	-92,326	0,095	-0,020
-727,152	-200,000	0,019	-0,070
-726,137	800,000	-0,048	-0,153
-725,123	106,121	-0,116	-0,101
-724,108	-200,000	0,030	-0,144
-723,094	700,828	0,044	0,086
-722,079	-36,926	-0,117	-0,046
-721,064	-11,898	-0,059	-0,028
-720,050	146,767	0,100	-0,099
-719,035	-34,393	-0,082	0,033
-718,021	-200,000	-0,005	-0,039
-717,006	765,145	0,081	-0,164
-715,991	-94,283	-0,110	-0,022
-714,977	88,602	0,074	-0,061
-713,962	-112,785	-0,113	-0,016
-712,948	-200,000	-0,029	0,114
-711,933	-200,000	-0,006	0,050
-710,918	-23,459	-0,044	0,019
-709,904	-156,736	-0,109	0,005
-708,889	391,256	-0,081	-0,125
-707,875	141,794	-0,169	-0,165
-706,860	218,855	0,097	-0,114
-705,845	491,400	-0,016	0,027
-704,831	800,000	-0,047	0,130
-703,816	-200,000	-0,006	-0,048
-702,802	233,733	-0,036	0,044
-701,787	796,232	-0,052	-0,107
-700,772	33,881	0,134	-0,086
-699,758	-200,000	0,014	-0,141
-698,743	-43,798	-0,139	-0,051
-697,729	-200,000	0,020	0,150
-696,714	-4,078	-0,070	-0,035
-695,699	-116,189	-0,086	-0,012
-694,685	449,221	0,047	-0,076
-693,670	189,418	-0,067	-0,074
-692,656	470,800	-0,052	-0,086
-691,641	69,962	0,016	-0,012
-690,627	-54,903	0,081	0,027
-689,612	-129,332	-0,065	-0,007
-688,597	94,132	0,067	-0,056
-687,583	-132,880	-0,083	0,008
-686,568	151,283	-0,020	0,021
-685,554	464,932	0,041	-0,068
-684,539	-132,817	-0,316	0,029
-683,524	69,358	0,005	-0,004
-682,510	800,000	0,022	0,069
-681,495	232,517	-0,041	-0,050
-680,481	-180,828	-0,127	-0,002
-679,466	-127,958	0,059	-0,006
-678,451	265,388	-0,024	-0,031
-677,437	8,562	0,019	0,010
-676,422	224,951	-0,047	0,056
-675,408	-164,400	-0,148	-0,005
-674,393	-200,000	-0,005	-0,031
-673,378	-5,089	-0,072	-0,036
-672,364	80,971	0,031	-0,025
-671,349	-33,297	-0,032	-0,013
-670,335	-200,000	0,004	0,118
-669,320	800,000	-0,010	0,028
-668,305	800,000	0,042	-0,127
-667,291	-98,668	-0,118	-0,022
-666,276	132,708	0,060	0,057
-665,262	-200,000	0,003	-0,052
-664,247	27,471	-0,026	-0,016
-663,232	-200,000	-0,003	-0,043
-662,218	155,099	0,069	0,070
-661,203	271,475	0,046	0,060
-660,189	-200,000	0,012	0,063
-659,174	28,718	-0,165	-0,102
-658,159	-34,572	0,148	-0,059
-657,145	289,521	-0,072	0,096
-656,130	215,705	0,050	-0,058
-655,116	800,000	0,035	0,074
-654,101	259,798	-0,146	0,185
-653,086	-101,700	-0,093	0,016
-652,072	44,662	-0,054	0,037
-651,057	-63,251	-0,216	0,065
-650,043	224,580	-0,037	0,044
-649,028	-39,683	-0,174	-0,067
-648,014	800,000	0,060	-0,143
-646,999	285,886	-0,081	-0,108
-645,984	-177,952	-0,075	0,001
-644,970	-32,773	0,059	-0,024
-643,955	217,567	-0,067	-0,079
-642,941	-134,113	-0,109	-0,010
-641,926	315,604	0,046	-0,064
-640,911	249,615	-0,135	0,168
-639,897	-200,000	0,012	0,106
-638,882	279,899	0,040	0,053
-637,868	217,324	-0,018	-0,021
-636,853	471,014	-0,030	-0,049
-635,838	79,358	0,027	-0,021
-634,824	-121,321	0,083	-0,010
-633,809	209,097	0,049	-0,056
-632,795	-37,731	-0,104	-0,040
-631,780	122,803	0,100	-0,092
-630,765	-88,579	-0,099	-0,021
-629,751	-144,742	-0,063	0,004
-628,736	462,242	-0,031	-0,051
-627,722	501,875	-0,054	-0,092
-626,707	800,000	0,034	-0,098
-625,692	164,964	-0,060	-0,062
-624,678	-200,000	-0,014	0,068
-623,663	-161,691	-0,111	0,004
-622,649	301,283	-0,109	-0,147
-621,634	-36,149	-0,134	-0,053
-620,619	800,000	-0,068	0,150
-619,605	-200,000	-0,006	-0,069
-618,590	302,137	0,055	0,075
-617,576	-200,000	-0,014	0,106
-616,561	-52,925	-0,142	0,048
-615,546	718,820	-0,019	0,036
-614,532	-155,215	-0,041	0,002
-613,517	177,376	-0,108	-0,116
-612,503	-75,896	-0,155	-0,040
-611,488	-200,000	-0,002	0,069
-610,474	-130,744	0,041	-0,004
-609,459	-200,000	0,002	-0,080
-608,444	71,453	-0,033	0,025
-607,430	39,419	-0,071	-0,047
-606,415	18,509	-0,083	-0,049
-605,401	713,681	0,034	-0,066
-604,386	34,163	0,073	0,047
-603,371	800,000	0,022	-0,054
-602,357	-38,968	-0,070	-0,027
-601,342	-0,307	0,043	-0,023
-600,328	-200,000	-0,020	-0,064
-599,313	-200,000	-0,016	-0,060
-598,298	46,046	0,151	-0,102
-597,284	800,000	0,028	-0,089
-596,269	-129,142	0,156	-0,016
-595,255	503,255	0,045	0,076
-594,240	-200,000	0,005	0,097
-593,225	44,534	-0,071	-0,048
-592,211	-200,000	-0,022	-0,152
-591,196	139,613	-0,114	-0,110
-590,182	66,571	-0,064	0,048
-589,167	264,962	-0,078	0,100
-588,152	-127,101	0,079	-0,008
-587,138	10,780	-0,080	-0,045
-586,123	-123,716	-0,177	0,020
-585,109	-200,000	0,003	-0,087
-584,094	288,838	-0,077	-0,102
-583,079	39,894	-0,060	-0,040
-582,065	290,768	0,033	-0,044
-581,050	-50,037	0,093	-0,032
-580,036	-93,064	0,080	-0,016
-579,021	-200,000	0,021	-0,101
-578,006	201,830	-0,028	0,031
-576,992	92,055	-0,067	-0,055
-575,977	278,964	0,143	0,187
-574,963	-4,297	-0,056	0,028
-573,948	-38,002	0,126	-0,049
-572,934	264,939	0,022	-0,028
-571,919	202,968	-0,095	0,108
-570,904	800,000	0,032	0,073
-569,890	-200,000	-0,009	-0,126
-568,875	-200,000	-0,006	0,025
-567,861	-78,360	0,094	-0,023
-566,846	593,016	0,058	0,105
-565,831	59,960	0,061	-0,044
-564,817	66,174	0,100	-0,075
-563,802	159,189	0,013	-0,014
-562,788	-32,044	-0,105	0,043
-561,773	800,000	0,017	0,047
-560,758	800,000	0,021	-0,052
-559,744	-200,000	-0,001	0,098
-558,729	-112,458	0,058	0,008
-557,715	-200,000	0,002	-0,050
-556,700	800,000	0,015	-0,047
-555,685	214,273	-0,112	0,130
-554,671	10,388	0,073	-0,041
-553,656	-83,339	0,041	0,009
-552,642	-200,000	-0,022	0,089
-551,627	-102,922	-0,105	-0,018
-550,612	800,000	0,028	-0,086
-549,598	430,809	-0,031	-0,049
-548,583	-200,000	-0,022	0,089
-547,569	70,725	0,028	0,021
-546,554	634,826	0,057	0,105
-545,539	103,524	0,050	-0,043
-544,525	800,000	0,002	0,005
-543,510	82,091	0,096	0,076
-542,496	-200,000	0,008	-0,110
-541,481	-200,000	-0,039	-0,290
-540,466	-84,608	-0,273	-0,062
-539,452	-200,000	0,044	0,178
-538,437	1,561	0,101	0,053
-537,423	-106,236	-0,103	-0,017
-536,408	800,000	0,015	0,030
-535,393	-92,878	0,019	0,004
-534,379	390,897	-0,040	-0,061
-533,364	10,558	0,049	-0,027
-532,350	-91,314	0,023	0,005
-531,335	20,658	0,151	0,089
-530,321	133,409	0,077	0,073
-529,306	7,988	-0,085	0,046
-528,291	298,157	-0,078	-0,105
-527,277	586,469	-0,111	-0,200
-526,262	-87,488	0,153	0,033
-525,248	312,076	-0,019	-0,026
-524,233	-200,000	-0,009	0,059
-523,218	10,916	0,023	0,013
-522,204	165,793	0,073	-0,075
-521,189	-200,000	0,013	-0,051
-520,175	196,607	0,055	0,061
-519,160	480,730	-0,071	0,119
-518,145	-118,745	0,064	0,008
-517,131	-200,000	-0,001	0,156
-516,116	800,000	0,020	0,057
-515,102	67,579	-0,090	-0,067
-514,087	-57,252	-0,018	0,006
-513,072	22,384	-0,016	0,010
-512,058	-105,696	0,053	-0,009
-511,043	-75,856	0,060	-0,015
-510,029	-200,000	0,004	0,060
-509,014	-14,137	0,046	0,021
-507,999	-35,277	0,095	0,038
-506,985	800,000	0,042	-0,101
-505,970	-177,065	-0,054	0,001
-504,956	28,642	-0,065	-0,040
-503,941	98,315	-0,048	-0,040
-502,926	207,214	0,035	0,040
-501,912	-42,952	0,150	0,055
-500,897	425,956	-0,057	0,091
-499,883	800,000	0,041	-0,127
-498,868	423,735	0,082	-0,130
-497,853	-200,000	-0,005	-0,043
-496,839	800,000	0,026	0,055
-495,824	208,721	0,010	-0,012
-494,810	479,549	-0,068	0,113
-493,795	25,717	0,090	0,055
-492,781	536,921	0,016	-0,029
-491,766	53,670	-0,158	-0,110
-490,751	485,999	0,018	-0,030
-489,737	-200,000	-0,038	0,139
-488,722	376,246	-0,047	-0,070
-487,708	-59,208	0,107	0,033
-486,693	800,000	-0,036	-0,113
-485,678	-28,517	-0,061	-0,026
-484,664	579,016	0,046	-0,083
-483,649	500,411	-0,103	-0,175
-482,635	37,350	0,026	-0,017
-481,620	190,512	-0,047	0,051
-480,605	-35,874	0,051	0,020
-479,591	-103,934	0,129	-0,022
-478,576	-200,000	-0,017	0,147
-477,562	-111,655	0,046	0,007
-476,547	-200,000	-0,003	-0,145
-475,532	699,823	0,100	-0,192
-474,518	-15,806	0,165	0,076
-473,503	-79,946	-0,032	-0,008
-472,489	364,488	-0,045	-0,066
-471,474	-200,000	-0,041	0,181
-470,459	-93,496	-0,123	0,025
-469,445	800,000	0,071	-0,157
-468,430	494,523	0,014	0,024
-467,416	-4,404	0,119	-0,060
-466,401	-200,000	-0,007	0,133
-465,386	-45,270	0,076	-0,027
-464,372	-44,900	-0,112	-0,041
-463,357	-102,883	0,044	-0,008
-462,343	410,356	-0,031	-0,048
-461,328	271,013	0,046	-0,059
-460,313	-74,014	0,102	0,027
-459,299	-159,570	-0,123	-0,005
-458,284	515,193	-0,079	-0,136
-457,270	326,373	0,071	0,099
-456,255	-96,828	0,073	0,014
-455,241	462,349	-0,091	-0,148
-454,226	-27,668	-0,133	-0,056
-453,211	240,390	0,056	0,068
-452,197	11,481	-0,068	0,038
-451,182	-183,668	0,028	-0,000
-450,168	295,397	0,037	-0,050
-449,153	-200,000	0,017	0,105
-448,138	-200,000	-0,048	-0,156
-447,124	800,000	-0,009	-0,023
-446,109	39,413	0,037	0,024
-445,095	-18,721	-0,020	-0,009
-444,080	800,000	0,035	0,088
-443,065	-200,000	0,006	0,046
-442,051	-200,000	0,026	0,183
-441,036	-200,000	0,011	0,067
-440,022	31,511	-0,200	-0,125
-439,007	73,523	0,091	-0,069
-437,992	110,546	0,127	-0,111
-436,978	82,562	-0,038	-0,030
-435,963	-168,175	-0,133	-0,004
-434,949	12,923	-0,053	-0,030
-433,934	-107,966	-0,143	0,022
-432,919	-168,162	0,081	0,002
-431,905	73,467	-0,108	-0,082
-430,890	398,950	0,090	0,138
-429,876	-4,754	0,104	0,052
-428,861	707,573	-0,028	0,053
-427,846	-200,000	-0,011	0,084
-426,832	-7,921	0,038	-0,018
-425,817	-200,000	-0,009	0,035
-424,803	54,297	-0,130	-0,091
-423,788	-105,011	-0,099	0,016
-422,773	800,000	0,021	0,064
-421,759	-70,115	0,148	0,041
-420,744	101,943	0,073	-0,062
-419,730	-61,732	-0,071	0,021
-418,715	-200,000	-0,020	-0,089
-417,701	-74,829	0,073	-0,019
-416,686	90,642	0,070	-0,057
-415,671	-81,376	-0,113	0,027
-414,657	314,019	0,070	0,096
-413,642	-98,389	-0,074	-0,014
-412,628	-200,000	-0,019	-0,174
-411,613	689,752	-0,057	-0,109
-410,598	-40,674	0,100	-0,038
-409,584	96,766	0,076	0,063
-408,569	-90,465	-0,065	-0,014
-407,555	-23,366	0,104	0,045
-406,540	-200,000	-0,002	0,109
-405,525	120,573	-0,057	0,051
-404,511	396,703	-0,067	-0,102
-403,496	-155,953	-0,076	0,003
-402,482	-163,117	0,113	0,004
-401,467	544,949	-0,071	-0,125
-400,452	73,673	-0,136	0,103
-399,438	-144,222	0,061	-0,004
-398,423	518,838	-0,055	0,094
-397,409	-200,000	-0,024	-0,078
-396,394	-200,000	0,002	-0,143
-395,379	-200,000	0,007	-0,048
-394,365	-65,647	-0,063	0,018
-393,350	211,844	0,043	0,050
-392,336	-30,870	0,141	0,058
-391,321	-55,643	0,127	0,041
-390,306	-138,203	0,060	0,005
-389,292	800,000	-0,085	-0,183
-388,277	-200,000	-0,038	0,135
-387,263	173,687	0,073	-0,077
-386,248	708,859	0,066	0,127
-385,233	-200,000	0,003	-0,036
-384,219	-128,862	-0,169	0,017
-383,204	368,370	0,017	0,025
-382,190	-200,000	-0,007	-0,107
-381,175	-200,000	-0,010	0,144
-380,160	66,887	0,094	-0,070
-379,146	-200,000	0,016	0,062
-378,131	-200,000	-0,021	0,100
-377,117	-25,390	0,077	0,033
-376,102	-200,000	-0,023	0,122
-375,088	165,306	-0,049	-0,051
-374,073	-200,000	-0,009	-0,043
-373,058	800,000	0,095	0,225
-372,044	-92,595	0,061	0,012
-371,029	116,044	0,137	0,122
-370,015	800,000	0,011	0,036
-369,000	-29,089	-0,123	0,051
-367,985	-81,515	0,073	-0,017
-366,971	-92,059	-0,160	0,032
-365,956	-34,254	0,039	0,015
-364,942	-200,000	0,006	-0,113
-363,927	-32,220	0,063	0,025
-362,912	-200,000	0,007	0,048
-361,898	172,755	-0,125	0,131
-360,883	160,926	0,002	-0,002
-359,869	800,000	0,036	0,077
-358,854	225,372	0,140	0,164
-357,839	-52,798	0,124	0,041
-356,825	800,000	-0,053	0,114
-355,810	-200,000	0,030	0,132
-354,796	-200,000	-0,011	-0,085
-353,781	100,471	-0,085	0,072
-352,766	32,016	0,034	-0,021
-351,752	-200,000	-0,006	-0,093
-350,737	82,163	-0,025	0,020
-349,723	10,772	0,156	0,086
-348,708	12,256	-0,066	0,037
-347,693	105,139	-0,055	0,047
-346,679	591,507	0,038	-0,068
-345,664	800,000	0,034	-0,081
-344,650	26,816	0,034	0,021
-343,635	194,790	-0,042	0,047
-342,620	-99,920	0,052	0,009
-341,606	-117,657	0,207	0,027
-340,591	-146,575	-0,045	0,003
-339,577	-51,860	0,071	-0,024
-338,562	226,556	-0,075	-0,089
-337,548	15,117	-0,140	-0,079
-336,533	39,915	0,194	0,126
-335,518	-200,000	-0,022	-0,102
-334,504	-200,000	0,002	0,097
-333,489	52,801	-0,089	0,062
-332,475	-84,200	-0,104	-0,024
-331,460	432,685	-0,007	0,011
-330,445	33,404	-0,105	0,066
-329,431	30,256	-0,066	-0,041
-328,416	-68,982	0,109	-0,030
-327,402	24,037	0,052	-0,031
-326,387	-38,792	0,101	0,038
-325,372	800,000	0,014	-0,031
-324,358	34,939	-0,137	0,087
-323,343	800,000	0,015	0,045
-322,329	-200,000	0,015	-0,118
-321,314	794,680	0,050	0,099
-320,299	372,140	0,055	0,081
-319,285	-27,320	-0,058	0,024
-318,270	-21,019	0,033	-0,015
-317,256	-200,000	0,000	-0,056
-316,241	-0,752	0,055	-0,028
-315,226	-53,787	0,233	0,077
-314,212	-94,774	-0,028	0,005
-313,197	244,304	0,054	0,066
-312,183	217,011	0,061	0,071
-311,168	757,184	-0,046	-0,090
-310,153	-100,565	0,042	0,007
-309,139	-117,321	-0,068	-0,009
-308,124	-28,860	0,074	-0,031
-307,110	-86,118	-0,100	-0,022
-306,095	532,230	0,041	-0,070
-305,080	104,562	0,051	-0,044
-304,066	-32,802	-0,113	0,045
-303,051	-200,000	0,003	-0,063
-302,037	-120,582	-0,036	0,004
-301,022	528,837	0,042	0,073
-300,008	-200,000	0,012	0,050
-298,993	-53,658	0,095	-0,031
-297,978	-44,951	-0,108	0,039
-296,964	4,383	0,031	-0,016
-295,949	-119,421	-0,068	-0,008
-294,935	-141,433	0,072	-0,005
-293,920	32,119	0,105	-0,066
-292,905	460,599	-0,036	0,059
-291,891	800,000	-0,014	0,042
-290,876	539,328	0,020	-0,035
-289,862	-154,850	-0,060	0,003
-288,847	800,000	-0,029	-0,091
-287,832	-182,841	-0,170	-0,002
-286,818	-136,385	0,073	0,006
-285,803	548,673	0,077	0,134
-284,789	800,000	-0,029	0,071
-283,774	158,991	0,035	-0,035
-282,759	-54,238	0,212	0,069
-281,745	-132,238	-0,033	0,003
-280,730	53,208	-0,087	-0,060
-279,716	-200,000	0,002	-0,059
-278,701	135,208	0,149	0,140
-277,686	-200,000	0,009	-0,127
-276,672	800,000	0,059	-0,169
-275,657	275,090	-0,059	0,076
-274,643	41,815	-0,071	-0,046
-273,628	224,096	0,083	0,098
-272,613	-43,902	0,028	0,010
-271,599	383,746	-0,050	-0,075
-270,584	-11,058	-0,080	0,038
-269,570	-93,665	0,060	-0,012
-268,555	-200,000	-0,013	0,139
-267,540	-59,534	0,038	0,012
-266,526	-200,000	0,004	0,052
-265,511	800,000	0,034	-0,102
-264,497	311,404	0,067	0,091
-263,482	-28,058	0,180	0,075
-262,467	64,254	-0,088	-0,064
-261,453	-14,531	-0,039	0,018
-260,438	-200,000	-0,017	0,205
-259,424	-200,000	-0,014	0,177
-258,409	-200,000	0,013	0,061
-257,395	-200,000	0,018	0,104
-256,380	62,527	0,083	0,060
-255,365	12,298	0,083	-0,046
-254,351	24,564	0,091	-0,054
-253,336	158,759	-0,013	0,013
-252,322	-44,139	-0,096	-0,035
-251,307	-43,775	0,105	0,038
-250,292	215,078	0,048	-0,055
-249,278	800,000	0,036	-0,091
-248,263	118,968	-0,064	-0,057
-247,249	-128,198	-0,040	0,004
-246,234	397,369	-0,048	-0,073
-245,219	620,186	0,056	-0,102
-244,205	510,400	-0,028	0,048
-243,190	800,000	-0,018	-0,041
-242,176	275,885	-0,067	-0,087
-241,161	306,526	0,026	-0,035
-240,146	-4,415	0,094	-0,047
-239,132	-200,000	0,002	0,008
-238,117	-104,716	-0,030	0,005
-237,103	-55,288	0,091	-0,029
-236,088	-49,756	-0,062	0,021
-235,073	73,072	0,120	-0,091
-234,059	-0,451	-0,080	0,041
-233,044	-74,450	-0,104	-0,027
-232,030	-137,172	-0,084	0,007
-231,015	2,577	-0,053	0,028
-230,000	113,649	0,085	0,075
-228,986	-200,000	0,002	0,040
-227,971	78,489	-0,083	0,064
-226,957	-200,000	-0,004	-0,015
-225,942	-188,463	0,038	-0,000
-224,927	-37,780	0,117	0,045
-223,913	145,740	-0,084	-0,082
-222,898	-200,000	-0,016	-0,078
-221,884	415,763	-0,062	0,096
-220,869	800,000	0,008	-0,020
-219,855	800,000	-0,041	0,100
-218,840	800,000	-0,031	0,065
-217,825	800,000	-0,032	0,064
-216,811	800,000	0,024	0,064
-215,796	325,976	0,028	0,039
-214,782	430,234	0,047	0,073
-213,767	308,772	-0,038	-0,052
-212,752	782,940	0,047	0,093
-211,738	-200,000	0,003	0,093
-210,723	86,712	0,083	0,066
-209,709	-200,000	0,004	0,087
-208,694	-0,424	-0,099	0,051
-207,679	234,655	-0,017	0,020
-206,665	-200,000	-0,016	0,065
-205,650	79,291	-0,085	0,065
-204,636	-37,319	0,055	-0,021
-203,621	32,689	0,147	0,091
-202,606	585,951	0,070	-0,124
-201,592	-92,910	-0,104	-0,021
-200,577	-200,000	-0,024	0,086
-199,563	1,339	-0,244	0,126
-198,548	-177,421	0,149	0,003
-197,533	11,460	-0,159	-0,088
-196,519	267,078	0,082	-0,103
-195,504	800,000	-0,041	-0,091
-194,490	147,548	0,133	-0,129
-193,475	800,000	-0,048	-0,102
-192,460	-200,000	0,011	-0,159
-191,446	4,302	-0,060	0,032
-190,431	-72,099	0,058	-0,015
-189,417	-43,111	-0,090	0,033
-188,402	52,176	-0,053	0,036
-187,387	208,607	-0,078	-0,089
-186,373	792,723	-0,012	0,025
-185,358	349,761	-0,038	-0,055
-184,344	-200,000	0,000	0,003
-183,329	800,000	0,057	-0,123
-182,315	-200,000	-0,026	-0,104
-181,300	-200,000	-0,008	0,044
-180,285	-54,574	-0,189	0,061
-179,271	-35,950	0,081	-0,032
-178,256	-200,000	-0,001	0,018
-177,242	246,981	-0,051	0,063
-176,227	800,000	0,026	0,065
-175,212	-200,000	0,012	-0,048
-174,198	-21,069	-0,070	-0,031
-173,183	273,979	-0,084	0,107
-172,169	-78,535	0,119	-0,029
-171,154	69,998	-0,076	-0,056
-170,139	-149,543	0,119	-0,007
-169,125	-200,000	0,029	0,098
-168,110	-44,213	-0,086	-0,031
-167,096	-52,285	0,138	0,046
-166,081	124,752	-0,061	0,056
-165,066	-6,815	-0,169	-0,083
-164,052	800,000	-0,032	0,092
-163,037	54,461	0,045	-0,031
-162,023	-81,156	0,029	-0,007
-161,008	187,324	-0,008	0,008
-159,993	-120,912	-0,049	0,006
-158,979	800,000	-0,044	0,119
-157,964	-200,000	0,039	-0,176
-156,950	292,539	0,121	-0,159
-155,935	39,172	0,130	-0,084
-154,920	-200,000	-0,054	0,183
-153,906	44,041	0,071	0,047
-152,891	283,639	-0,053	0,069
-151,877	425,371	-0,062	-0,097
-150,862	231,771	0,040	-0,047
-149,847	800,000	-0,051	-0,123
-148,833	-200,000	-0,008	0,122
-147,818	-169,275	-0,042	-0,001
-146,804	-200,000	0,015	-0,075
-145,789	-51,446	-0,048	-0,016
-144,775	800,000	0,025	-0,075
-143,760	-27,800	-0,060	-0,025
-142,745	42,695	0,050	-0,033
-141,731	-19,782	-0,097	-0,043
-140,716	222,930	-0,046	-0,054
-139,702	-200,000	0,009	-0,054
-138,687	2,181	0,047	0,024
-137,672	122,802	-0,080	-0,072
-136,658	800,000	0,027	0,071
-135,643	7,486	-0,095	0,051
-134,629	-18,498	-0,098	0,044
-133,614	-58,625	0,056	0,017
-132,599	206,396	0,054	-0,061
-131,585	-200,000	-0,029	0,099
-130,570	-200,000	-0,019	-0,063
-129,556	6,692	-0,060	-0,032
-128,541	-200,000	-0,007	0,024
-127,526	-53,636	-0,138	0,045
-126,512	-200,000	-0,001	0,061
-125,497	401,829	0,064	-0,098
-124,483	602,918	-0,034	-0,060
-123,468	-13,198	0,133	0,062
-122,453	75,890	-0,069	0,052
-121,439	800,000	-0,021	-0,051
-120,424	-200,000	-0,002	0,062
-119,410	800,000	-0,004	-0,011
-118,395	55,015	-0,039	0,027
