DTS Sentinel unit serial number:	SN410029Multiplexer serial number:	ORYXHardware model number:	OX2-SRSoftware version number:	ORYX F/W v4,00 Oryx Data Collector v3.7.2.0data status	okinstallation	B5 Nyhavnadifferential loss correction	single-endedforward channel	channel 2reverse channel	N/Adate	2023/12/12time	07:32:13forward acquisition time	300,00reverse acquisition time	0,00gamma	499,1914k internal	0,3158k external	0,3158temperature offset calibration	1,0000default loss term (dB/km)	0,3820temperature slope calibration	1,0000multiplexer offset coefficient	1,0000multiplexer slope coefficient	1,0000fibre end	0,00T internal ref (°C)	15,14T ext. ref 1 (°C)	-1,15T ext. ref 2 (°C)	-1,45length (m)	temperature (°C)	Stokes	anti-Stokes-744,400	67,367	0,113	0,085
-743,385	-133,575	-0,253	0,023
-742,371	32,177	0,144	0,092
-741,356	-69,289	-0,141	0,040
-740,342	800,000	0,052	0,162
-739,327	-144,850	-0,235	-0,016
-738,312	-73,484	0,150	0,040
-737,298	-136,497	-0,332	0,028
-736,283	144,590	0,155	0,152
-735,269	-79,234	-0,255	0,063
-734,254	-113,255	0,101	-0,014
-733,239	-11,350	-0,545	-0,264
-732,225	58,710	0,215	0,155
-731,210	-104,052	0,120	0,020
-730,196	42,438	0,012	-0,008
-729,181	406,597	-0,042	0,066
-728,167	143,894	0,046	0,045
-727,152	329,780	0,060	0,085
-726,137	319,289	-0,013	0,018
-725,123	-31,809	-0,056	0,023
-724,108	-200,000	0,038	-0,140
-723,094	-28,740	-0,179	-0,076
-722,079	81,991	0,017	0,013
-721,064	-32,042	0,065	-0,027
-720,050	-89,310	-0,034	-0,007
-719,035	751,084	0,034	-0,067
-718,021	35,119	0,050	-0,032
-717,006	-148,707	-0,156	0,009
-715,991	-142,201	-0,076	-0,005
-714,977	-79,605	-0,092	-0,023
-713,962	-112,084	0,160	-0,023
-712,948	79,105	0,111	-0,088
-711,933	2,867	-0,042	0,022
-710,918	302,216	0,084	0,115
-709,904	800,000	-0,033	-0,081
-708,889	365,727	-0,022	-0,032
-707,875	-118,095	-0,094	0,012
-706,860	286,679	0,031	-0,042
-705,845	-31,736	0,031	0,013
-704,831	403,123	-0,011	0,017
-703,816	111,261	-0,080	-0,071
-702,802	800,000	0,062	0,136
-701,787	-121,972	-0,075	-0,009
-700,772	447,752	0,015	0,024
-699,758	800,000	-0,019	0,057
-698,743	-29,488	0,088	-0,037
-697,729	148,728	-0,056	0,056
-696,714	-139,104	0,135	0,011
-695,699	-56,699	-0,113	-0,036
-694,685	-1,106	-0,081	0,042
-693,670	298,972	-0,031	0,042
-692,656	-32,594	0,002	-0,001
-691,641	800,000	-0,037	-0,075
-690,627	-200,000	0,011	0,055
-689,612	-56,933	0,134	0,043
-688,597	-91,325	-0,139	0,029
-687,583	-200,000	-0,002	-0,023
-686,568	25,961	0,041	0,025
-685,554	112,559	0,139	-0,124
-684,539	-16,017	-0,085	-0,040
-683,524	-200,000	0,000	0,024
-682,510	-49,628	0,097	0,034
-681,495	-11,269	0,080	-0,039
-680,481	48,756	-0,067	-0,046
-679,466	800,000	-0,031	-0,093
-678,451	-65,543	-0,023	0,007
-677,437	-200,000	-0,019	-0,066
-676,422	106,599	-0,123	0,108
-675,408	70,612	-0,102	-0,078
-674,393	46,853	-0,079	-0,054
-673,378	47,883	-0,120	-0,082
-672,364	-27,928	-0,054	-0,023
-671,349	466,160	-0,042	-0,069
-670,335	-200,000	-0,015	0,056
-669,320	-200,000	0,014	-0,113
-668,305	294,334	0,075	0,101
-667,291	800,000	-0,027	0,071
-666,276	-50,923	-0,098	0,033
-665,262	62,294	0,084	-0,062
-664,247	-57,442	-0,116	-0,037
-663,232	-19,525	0,046	-0,021
-662,218	-93,484	-0,097	0,020
-661,203	800,000	0,077	0,202
-660,189	287,589	-0,032	-0,043
-659,174	288,025	0,017	0,022
-658,159	83,088	-0,051	0,041
-657,145	-0,870	0,085	-0,044
-656,130	-87,926	0,075	-0,017
-655,116	800,000	-0,029	-0,063
-654,101	372,513	0,013	-0,020
-653,086	-200,000	0,019	0,104
-652,072	-200,000	0,003	0,090
-651,057	-122,125	-0,152	-0,018
-650,043	28,100	-0,071	0,044
-649,028	-200,000	-0,010	-0,051
-648,014	-43,422	0,139	0,051
-646,999	-200,000	0,004	0,044
-645,984	-14,139	-0,056	0,026
-644,970	-200,000	0,018	-0,094
-643,955	5,728	-0,068	0,037
-642,941	-200,000	0,003	-0,123
-641,926	800,000	-0,025	-0,052
-640,911	800,000	0,010	-0,025
-639,897	47,215	0,120	-0,082
-638,882	306,869	0,022	-0,030
-637,868	-147,295	-0,102	0,006
-636,853	432,832	-0,050	-0,081
-635,838	151,235	-0,050	0,050
-634,824	45,181	0,039	0,026
-633,809	85,146	0,056	0,045
-632,795	-96,343	0,125	-0,024
-631,780	-79,773	-0,146	0,036
-630,765	-200,000	-0,024	-0,143
-629,751	-200,000	-0,005	-0,082
-628,736	-130,324	-0,099	0,010
-627,722	-2,386	-0,100	-0,051
-626,707	-200,000	-0,006	0,078
-625,692	228,189	0,065	-0,077
-624,678	359,829	0,076	-0,112
-623,663	343,482	-0,067	-0,096
-622,649	-200,000	0,009	-0,128
-621,634	238,467	-0,034	-0,042
-620,619	332,923	-0,029	0,042
-619,605	-200,000	0,011	0,075
-618,590	800,000	-0,030	0,085
-617,576	-51,945	0,096	0,033
-616,561	27,849	0,101	-0,063
-615,546	30,712	-0,176	-0,111
-614,532	98,714	-0,058	-0,049
-613,517	659,155	0,037	-0,070
-612,503	-200,000	0,000	0,016
-611,488	-200,000	0,034	0,152
-610,474	800,000	-0,023	-0,057
-609,459	800,000	0,061	-0,126
-608,444	-85,402	0,079	-0,018
-607,430	-200,000	0,016	-0,113
-606,415	418,362	-0,085	0,134
-605,401	-200,000	0,005	-0,086
-604,386	-200,000	0,000	-0,029
-603,371	800,000	0,029	0,078
-602,357	-123,508	-0,090	0,010
-601,342	-102,154	-0,137	0,024
-600,328	-200,000	0,009	0,059
-599,313	263,329	-0,049	-0,063
-598,298	-200,000	0,041	0,136
-597,284	-53,414	0,067	-0,022
-596,269	-200,000	-0,002	-0,023
-595,255	-13,150	-0,126	-0,060
-594,240	-98,230	-0,135	-0,025
-593,225	212,950	0,061	-0,071
-592,211	-200,000	-0,002	-0,045
-591,196	-144,121	-0,081	-0,005
-590,182	37,093	-0,112	0,072
-589,167	-110,840	0,013	-0,002
-588,152	240,533	0,072	0,088
-587,138	-200,000	-0,005	0,036
-586,123	161,633	0,117	-0,120
-585,109	800,000	-0,014	-0,043
-584,094	-34,640	-0,115	0,046
-583,079	506,410	0,009	0,015
-582,065	-200,000	-0,012	-0,077
-581,050	-4,602	0,117	-0,059
-580,036	800,000	0,052	-0,119
-579,021	-51,690	0,084	0,029
-578,006	74,273	-0,066	-0,051
-576,992	-200,000	0,020	-0,087
-575,977	-74,844	0,080	0,021
-574,963	331,798	-0,060	0,085
-573,948	20,088	0,097	0,057
-572,934	-80,034	-0,056	0,014
-571,919	708,446	0,035	-0,068
-570,904	-200,000	-0,018	-0,141
-569,890	-128,209	-0,113	-0,012
-568,875	-53,834	-0,104	0,034
-567,861	-200,000	-0,020	0,091
-566,846	-168,517	-0,240	-0,007
-565,831	800,000	0,025	-0,066
-564,817	-200,000	0,016	-0,121
-563,802	285,998	-0,033	-0,044
-562,788	-200,000	-0,020	0,104
-561,773	-73,163	0,149	0,040
-560,758	29,253	-0,075	0,046
-559,744	-200,000	-0,003	0,088
-558,729	800,000	-0,069	0,161
-557,715	-200,000	0,005	-0,080
-556,700	-56,501	-0,130	-0,042
-555,685	399,011	-0,058	0,089
-554,671	-17,786	-0,194	-0,089
-553,656	-102,535	0,067	0,012
-552,642	197,495	0,132	0,148
-551,627	-50,715	0,071	-0,024
-550,612	10,614	0,095	-0,053
-549,598	517,500	-0,087	-0,149
-548,583	-200,000	-0,012	0,141
-547,569	-200,000	-0,022	-0,081
-546,554	63,143	0,128	0,094
-545,539	306,371	0,111	0,152
-544,525	87,744	0,125	0,102
-543,510	93,688	-0,079	-0,066
-542,496	800,000	0,068	-0,155
-541,481	-200,000	-0,016	-0,157
-540,466	800,000	-0,028	-0,059
-539,452	-200,000	0,009	-0,041
-538,437	88,994	0,071	-0,058
-537,423	800,000	0,053	0,128
-536,408	-123,205	-0,097	-0,011
-535,393	361,749	0,084	-0,124
-534,379	-200,000	0,004	0,073
-533,364	-72,468	-0,154	-0,041
-532,350	-50,051	0,030	0,010
-531,335	-116,411	0,062	0,008
-530,321	312,613	0,036	0,050
-529,306	498,769	-0,060	0,102
-528,291	-27,584	-0,058	0,025
-527,277	331,910	0,053	-0,075
-526,262	-5,153	0,141	-0,071
-525,248	95,062	0,094	0,078
-524,233	-200,000	0,022	0,143
-523,218	483,783	-0,054	0,089
-522,204	800,000	-0,037	-0,084
-521,189	-200,000	-0,014	-0,063
-520,175	-200,000	-0,015	-0,129
-519,160	83,628	0,008	-0,006
-518,145	89,613	0,057	-0,046
-517,131	56,817	-0,070	0,050
-516,116	567,930	0,088	0,156
-515,102	288,246	-0,019	-0,025
-514,087	-200,000	-0,004	0,057
-513,072	-200,000	0,001	-0,052
-512,058	-78,097	-0,112	0,028
-511,043	-200,000	-0,015	0,192
-510,029	-200,000	-0,019	0,121
-509,014	115,840	0,049	-0,044
-507,999	399,903	-0,063	-0,096
-506,985	134,504	0,045	-0,042
-505,970	-200,000	-0,016	-0,070
-504,956	-101,901	0,079	-0,014
-503,941	-200,000	-0,006	-0,053
-502,926	-71,503	0,058	-0,016
-501,912	800,000	-0,014	0,043
-500,897	17,488	0,047	-0,027
-499,883	800,000	-0,036	0,107
-498,868	95,865	0,014	-0,012
-497,853	-53,287	-0,082	0,027
-496,839	289,601	-0,093	0,123
-495,824	-21,471	0,118	0,052
-494,810	-200,000	0,016	-0,130
-493,795	-99,616	0,112	-0,020
-492,781	-200,000	-0,000	0,131
-491,766	-29,391	0,091	-0,038
-490,751	-199,464	-0,151	0,001
-489,737	-124,504	0,024	0,003
-488,722	800,000	-0,011	-0,025
-487,708	10,194	0,071	0,039
-486,693	800,000	-0,032	0,095
-485,678	782,112	0,057	-0,115
-484,664	126,905	-0,073	0,068
-483,649	38,163	-0,046	-0,030
-482,635	248,676	-0,033	-0,041
-481,620	800,000	-0,031	0,101
-480,605	15,084	-0,101	0,057
-479,591	800,000	0,067	-0,182
-478,576	-146,885	-0,157	-0,010
-477,562	-200,000	0,008	0,098
-476,547	-3,401	0,077	0,039
-475,532	-200,000	0,001	0,072
-474,518	800,000	0,023	0,053
-473,503	800,000	-0,014	0,041
-472,489	532,875	0,076	0,131
-471,474	630,417	0,037	-0,069
-470,459	-72,599	0,063	-0,017
-469,445	-200,000	0,012	-0,082
-468,430	800,000	-0,085	-0,182
-467,416	-200,000	0,006	0,075
-466,401	174,152	-0,046	0,049
-465,386	262,988	0,067	-0,085
-464,372	-200,000	-0,025	-0,093
-463,357	-98,208	-0,079	-0,015
-462,343	-200,000	0,000	-0,080
-461,328	103,344	0,033	-0,029
-460,313	570,234	0,012	-0,021
-459,299	589,847	0,049	-0,089
-458,284	-152,875	-0,083	0,004
-457,270	-18,037	0,081	0,037
-456,255	-120,774	-0,069	0,008
-455,241	-39,070	-0,038	-0,015
-454,226	-200,000	-0,009	-0,074
-453,211	800,000	0,014	-0,037
-452,197	7,711	0,092	0,050
-451,182	-200,000	-0,029	-0,117
-450,168	-200,000	-0,025	0,086
-449,153	-200,000	0,004	0,054
-448,138	165,163	0,076	-0,079
-447,124	-75,641	-0,101	0,026
-446,109	641,670	-0,030	0,055
-445,095	74,328	0,080	-0,061
-444,080	-200,000	-0,016	-0,057
-443,065	800,000	0,037	0,098
-442,051	800,000	-0,028	0,080
-441,036	-200,000	-0,002	-0,035
-440,022	-171,766	0,027	-0,001
-439,007	116,153	0,067	0,060
-437,992	800,000	-0,030	0,091
-436,978	40,527	-0,192	0,125
-435,963	242,693	0,083	0,101
-434,949	306,324	-0,012	0,016
-433,934	91,553	-0,116	-0,095
-432,919	-37,346	0,144	-0,056
-431,905	-59,534	0,094	-0,029
-430,890	800,000	0,014	-0,033
-429,876	800,000	-0,026	-0,056
-428,861	346,328	-0,024	-0,035
-427,846	-200,000	0,007	0,066
-426,832	-79,703	-0,045	0,011
-425,817	-22,338	0,154	0,068
-424,803	-33,056	-0,066	-0,027
-423,788	-200,000	0,020	-0,071
-422,773	59,503	0,058	0,041
-421,759	-71,234	0,162	-0,044
-420,744	362,264	-0,039	0,058
-419,730	800,000	0,044	0,102
-418,715	21,610	-0,053	0,031
-417,701	-59,649	0,081	0,025
-416,686	75,299	-0,030	0,023
-415,671	367,896	0,011	0,016
-414,657	800,000	0,064	0,141
-413,642	-200,000	-0,011	0,037
-412,628	800,000	-0,010	0,025
-411,613	-200,000	0,003	-0,107
-410,598	411,394	-0,111	-0,172
-409,584	-86,521	-0,124	0,027
-408,569	199,410	0,100	0,111
-407,555	800,000	0,091	0,250
-406,540	-33,142	0,074	-0,030
-405,525	-98,966	0,170	0,031
-404,511	-59,399	0,102	0,032
-403,496	140,627	0,052	-0,050
-402,482	-6,385	-0,019	0,010
-401,467	-200,000	0,015	0,061
-400,452	-200,000	0,043	0,160
-399,438	800,000	-0,038	-0,085
-398,423	5,844	-0,179	-0,096
-397,409	47,801	-0,052	-0,035
-396,394	1,289	0,078	-0,040
-395,379	-30,094	0,074	-0,030
-394,365	40,108	0,136	0,089
-393,350	293,145	0,106	0,141
-392,336	-87,570	-0,035	0,008
-391,321	268,033	0,081	0,104
-390,306	35,947	0,077	0,049
-389,292	800,000	0,047	-0,119
-388,277	800,000	0,026	-0,080
-387,263	800,000	0,014	0,042
-386,248	322,597	0,064	0,088
-385,233	253,097	0,061	0,076
-384,219	47,433	0,041	-0,028
-383,204	49,026	-0,068	-0,046
-382,190	-143,530	-0,062	-0,004
-381,175	-29,971	-0,028	0,011
-380,160	-44,736	0,085	-0,031
-379,146	-200,000	-0,008	-0,104
-378,131	-200,000	-0,007	0,072
-377,117	-67,109	-0,176	-0,050
-376,102	343,434	0,044	0,062
-375,088	-117,960	-0,132	0,017
-374,073	135,625	0,050	-0,047
-373,058	-6,482	-0,036	0,018
-372,044	800,000	-0,060	-0,124
-371,029	-90,681	0,176	0,037
-370,015	-177,527	0,099	-0,002
-369,000	-27,143	-0,136	0,057
-367,985	-200,000	0,009	-0,063
-366,971	-200,000	0,022	-0,092
-365,956	654,503	0,062	0,117
-364,942	-200,000	0,011	0,049
-363,927	155,670	-0,057	-0,057
-362,912	234,217	0,105	0,125
-361,898	-200,000	0,020	0,183
-360,883	800,000	-0,038	-0,087
-359,869	-200,000	0,018	-0,163
-358,854	-200,000	0,016	-0,110
-357,839	93,985	-0,078	-0,064
-356,825	-200,000	-0,005	0,143
-355,810	-192,052	0,113	0,001
-354,796	74,578	-0,095	-0,072
-353,781	-87,320	-0,061	-0,013
-352,766	-15,904	0,087	-0,040
-351,752	633,748	-0,012	0,023
-350,737	101,514	-0,021	0,018
-349,723	800,000	0,020	0,048
-348,708	-135,907	0,042	-0,004
-347,693	-200,000	-0,021	0,078
-346,679	785,533	0,038	-0,076
-345,664	800,000	0,019	0,054
-344,650	530,409	0,041	-0,070
-343,635	134,173	0,085	0,080
-342,620	214,679	0,039	-0,045
-341,606	-84,911	0,071	0,016
-340,591	194,029	0,072	0,079
-339,577	-121,178	-0,104	0,012
-338,562	-200,000	0,034	-0,109
-337,548	-3,399	-0,062	0,031
-336,533	170,037	0,136	0,141
-335,518	800,000	-0,010	-0,031
-334,504	486,809	0,042	0,069
-333,489	-48,912	-0,081	0,028
-332,475	-58,071	-0,130	-0,041
-331,460	-105,918	-0,089	0,014
-330,445	-71,735	-0,100	0,027
-329,431	333,935	-0,070	0,098
-328,416	120,571	0,062	0,056
-327,402	-200,000	0,007	-0,075
-326,387	-107,446	-0,093	0,015
-325,372	800,000	0,021	-0,050
-324,358	-200,000	-0,009	-0,074
-323,343	14,002	-0,149	0,084
-322,329	-200,000	0,004	-0,030
-321,314	177,665	0,117	-0,124
-320,299	59,557	0,113	0,081
-319,285	-19,700	0,079	-0,035
-318,270	120,156	0,058	-0,052
-317,256	800,000	-0,042	-0,102
-316,241	-95,724	-0,131	-0,025
-315,226	-130,088	0,126	0,012
-314,212	-35,000	-0,048	0,019
-313,197	-54,541	0,094	0,031
-312,183	-200,000	0,040	0,131
-311,168	-42,944	-0,039	0,014
-310,153	119,873	0,008	-0,007
-309,139	-200,000	0,001	0,026
-308,124	30,383	0,048	0,029
-307,110	-101,698	-0,050	0,009
-306,095	-75,220	0,008	0,002
-305,080	-200,000	0,022	0,127
-304,066	-153,696	0,039	-0,002
-303,051	-200,000	0,008	-0,093
-302,037	75,129	0,027	0,021
-301,022	-139,596	-0,127	-0,010
-300,008	800,000	0,042	0,085
-298,993	437,693	-0,070	0,110
-297,978	-158,822	-0,139	0,006
-296,964	162,927	0,073	0,074
-295,949	800,000	-0,068	-0,156
-294,935	10,930	-0,029	0,016
-293,920	24,323	-0,099	-0,059
-292,905	82,760	0,052	-0,041
-291,891	617,785	-0,012	0,023
-290,876	69,595	0,104	-0,078
-289,862	-107,408	-0,078	-0,012
-288,847	52,942	-0,067	0,046
-287,832	800,000	-0,025	-0,061
-286,818	-200,000	-0,005	0,084
-285,803	102,385	0,110	-0,093
-284,789	800,000	-0,016	0,046
-283,774	-200,000	0,021	0,070
-282,759	-119,264	-0,049	-0,006
-281,745	194,881	-0,078	0,086
-280,730	230,628	-0,019	0,023
-279,716	-200,000	-0,022	0,109
-278,701	-85,401	0,120	-0,027
-277,686	-71,939	-0,107	-0,028
-276,672	72,921	-0,044	0,033
-275,657	-200,000	-0,000	0,020
-274,643	5,359	-0,112	0,060
-273,628	-33,936	0,054	-0,021
-272,613	103,058	-0,008	-0,007
-271,599	205,477	0,029	0,033
-270,584	-200,000	-0,024	0,170
-269,570	519,868	-0,093	0,158
-268,555	-200,000	-0,007	0,036
-267,540	65,434	-0,073	-0,054
-266,526	-200,000	0,010	-0,121
-265,511	553,478	0,019	-0,033
-264,497	-138,951	0,142	-0,011
-263,482	-200,000	0,026	0,121
-262,467	204,890	0,012	0,013
-261,453	800,000	-0,073	0,163
-260,438	800,000	-0,017	-0,043
-259,424	-2,451	-0,028	0,014
-258,409	800,000	-0,009	0,024
-257,395	-113,241	0,063	-0,009
-256,380	98,887	-0,081	0,068
-255,365	-200,000	0,012	0,156
-254,351	200,363	0,108	0,121
-253,336	-48,082	-0,089	-0,031
-252,322	-104,257	-0,069	-0,011
-251,307	-200,000	-0,093	-0,000
-250,292	-106,068	-0,118	0,019
-249,278	800,000	0,056	0,123
-248,263	-200,000	-0,015	0,084
-247,249	-121,562	0,141	0,017
-246,234	-103,305	-0,121	-0,020
-245,219	-65,117	-0,095	-0,028
-244,205	-49,896	0,018	-0,006
-243,190	91,008	0,069	-0,056
-242,176	-0,687	-0,141	-0,072
-241,161	72,385	0,092	-0,069
-240,146	146,324	-0,082	0,080
-239,132	58,823	-0,023	0,016
-238,117	800,000	-0,037	0,077
-237,103	12,841	-0,033	0,018
-236,088	263,185	0,044	-0,056
-235,073	-153,059	0,091	0,005
-234,059	616,061	-0,044	-0,079
-233,044	105,978	0,084	0,072
-232,030	50,667	0,053	-0,036
-231,015	-200,000	-0,006	-0,086
-230,000	435,824	-0,024	-0,039
-228,986	-46,204	-0,115	-0,041
-227,971	289,216	-0,034	-0,045
-226,957	-200,000	0,008	-0,063
-225,942	800,000	-0,068	0,140
-224,927	744,735	0,034	0,066
-223,913	-87,475	-0,114	-0,025
-222,898	151,279	0,010	-0,010
-221,884	-124,192	0,187	-0,021
-220,869	800,000	0,013	-0,033
-219,855	-51,703	0,023	-0,008
-218,840	153,060	0,090	-0,089
-217,825	800,000	-0,058	-0,127
-216,811	588,675	0,042	-0,074
-215,796	210,688	-0,111	-0,127
-214,782	423,409	-0,026	0,040
-213,767	800,000	-0,020	-0,059
-212,752	188,490	-0,059	0,064
-211,738	-96,318	0,192	0,036
-210,723	270,191	0,052	-0,066
-209,709	800,000	0,035	-0,089
-208,694	25,122	-0,122	-0,073
-207,679	114,047	-0,160	0,140
-206,665	78,100	0,097	-0,074
-205,650	507,550	0,035	-0,059
-204,636	-57,023	0,028	0,009
-203,621	273,036	0,104	0,133
-202,606	-107,276	-0,049	0,008
-201,592	554,557	0,052	-0,090
-200,577	-200,000	0,003	0,051
-199,563	-200,000	0,006	0,079
-198,548	62,955	0,025	0,018
-197,533	-200,000	0,008	0,082
-196,519	-117,793	0,066	-0,008
-195,504	-200,000	-0,003	-0,016
-194,490	-110,608	-0,090	-0,013
-193,475	-13,732	0,116	-0,054
-192,460	800,000	-0,024	-0,076
-191,446	84,193	-0,103	-0,081
-190,431	-200,000	0,021	0,078
-189,417	800,000	0,030	0,079
-188,402	-72,466	-0,153	0,041
-187,387	-73,879	0,117	-0,030
-186,373	-140,473	0,114	-0,008
-185,358	800,000	0,053	-0,121
-184,344	529,644	-0,043	0,073
-183,329	103,919	0,017	-0,014
-182,315	442,378	-0,043	-0,068
-181,300	117,011	-0,062	-0,055
-180,285	20,274	-0,085	-0,049
-179,271	-200,000	-0,031	-0,109
-178,256	-80,894	-0,087	0,021
-177,242	5,483	0,039	0,021
-176,227	373,337	-0,035	0,051
-175,212	-200,000	-0,003	0,052
-174,198	-124,895	-0,095	0,010
-173,183	-12,621	-0,081	0,038
-172,169	588,142	-0,045	-0,080
-171,154	196,766	0,067	-0,074
-170,139	39,124	0,122	0,079
-169,125	-27,222	-0,024	-0,010
-168,110	800,000	0,037	-0,114
-167,096	-1,726	0,155	-0,079
-166,081	800,000	-0,068	-0,155
-165,066	-200,000	-0,034	-0,127
-164,052	800,000	-0,047	0,141
-163,037	108,906	0,062	0,054
-162,023	28,005	-0,075	-0,045
-161,008	244,532	0,037	0,045
-159,993	51,697	0,085	0,058
-158,979	-146,543	0,044	0,003
-157,964	3,841	-0,142	-0,074
-156,950	-101,797	-0,131	0,023
-155,935	424,082	0,060	-0,093
-154,920	89,010	-0,050	-0,040
-153,906	-90,023	0,136	0,028
-152,891	590,624	0,038	-0,068
-151,877	571,927	0,031	0,055
-150,862	44,522	-0,010	-0,007
-149,847	-18,599	-0,155	0,069
-148,833	177,836	0,091	0,096
-147,818	-8,078	-0,064	0,031
-146,804	37,881	-0,026	-0,016
-145,789	-39,223	-0,032	0,012
-144,775	299,042	-0,071	0,094
-143,760	737,025	-0,060	-0,116
-142,745	35,951	-0,165	0,104
-141,731	-23,460	0,058	0,025
-140,716	291,751	0,054	0,071
-139,702	-0,034	-0,097	-0,050
-138,687	261,323	0,029	0,036
-137,672	5,150	-0,094	-0,050
-136,658	-200,000	-0,014	-0,136
-135,643	-200,000	-0,009	-0,072
-134,629	81,288	0,070	0,055
-133,614	720,445	0,015	-0,030
-132,599	6,831	0,118	0,063
-131,585	800,000	0,030	0,076
-130,570	142,241	-0,114	0,109
-129,556	-200,000	0,019	-0,089
-128,541	800,000	-0,052	-0,113
-127,526	-200,000	0,029	-0,162
-126,512	-200,000	0,003	0,126
-125,497	39,562	0,092	0,059
-124,483	-200,000	0,030	0,170
-123,468	-38,270	0,117	-0,044
-122,453	-200,000	-0,017	0,079
-121,439	800,000	0,043	-0,117
-120,424	783,620	-0,007	0,014
-119,410	-93,434	-0,073	-0,014
-118,395	23,803	0,020	-0,012
