DTS Sentinel unit serial number:	SN410029Multiplexer serial number:	ORYXHardware model number:	OX2-SRSoftware version number:	ORYX F/W v4,00 Oryx Data Collector v3.7.2.0data status	okinstallation	B5 Nyhavnadifferential loss correction	single-endedforward channel	channel 2reverse channel	N/Adate	2023/12/11time	22:12:13forward acquisition time	300,00reverse acquisition time	0,00gamma	499,1914k internal	0,3155k external	0,3155temperature offset calibration	1,0000default loss term (dB/km)	0,3820temperature slope calibration	1,0000multiplexer offset coefficient	1,0000multiplexer slope coefficient	1,0000fibre end	0,00T internal ref (°C)	16,31T ext. ref 1 (°C)	0,13T ext. ref 2 (°C)	-0,10length (m)	temperature (°C)	Stokes	anti-Stokes-744,400	170,266	0,083	0,087
-743,385	-11,239	-0,198	0,096
-742,371	800,000	0,035	0,098
-741,356	-98,565	-0,274	0,051
-740,342	3,237	0,154	0,083
-739,327	-168,215	-0,313	0,009
-738,312	-18,845	-0,076	-0,035
-737,298	-110,448	-0,200	0,030
-736,283	67,438	0,079	-0,059
-735,269	-118,048	-0,334	0,044
-734,254	48,288	-0,093	0,064
-733,239	-42,250	-0,461	-0,173
-732,225	1,732	0,044	-0,023
-731,210	-200,000	0,010	0,093
-730,196	-120,367	-0,119	0,015
-729,181	-53,067	-0,099	-0,033
-728,167	-136,892	-0,066	0,006
-727,152	-25,463	0,071	0,031
-726,137	-115,570	-0,113	-0,016
-725,123	58,660	-0,095	-0,068
-724,108	20,129	-0,101	-0,060
-723,094	-48,289	-0,123	0,043
-722,079	159,263	-0,023	0,024
-721,064	-200,000	-0,045	0,155
-720,050	-200,000	-0,008	0,173
-719,035	-60,512	-0,183	0,057
-718,021	800,000	-0,025	0,067
-717,006	-3,777	-0,081	-0,041
-715,991	800,000	0,052	-0,151
-714,977	-200,000	-0,018	-0,124
-713,962	-25,773	-0,117	-0,051
-712,948	-38,663	0,087	-0,034
-711,933	-57,609	0,069	0,022
-710,918	160,301	-0,040	0,042
-709,904	64,673	-0,043	0,032
-708,889	-84,632	-0,045	0,010
-707,875	11,739	-0,127	0,072
-706,860	-48,193	0,037	-0,013
-705,845	-103,372	0,081	0,014
-704,831	-86,678	0,045	-0,010
-703,816	-12,675	-0,109	0,052
-702,802	499,496	0,010	-0,018
-701,787	-84,276	-0,027	-0,006
-700,772	369,163	0,014	0,021
-699,758	-200,000	-0,022	-0,072
-698,743	-200,000	-0,006	-0,046
-697,729	24,482	-0,088	0,054
-696,714	800,000	0,012	0,032
-695,699	268,008	-0,061	-0,079
-694,685	800,000	0,051	-0,113
-693,670	-200,000	-0,006	-0,094
-692,656	88,040	-0,072	-0,059
-691,641	-200,000	0,002	0,079
-690,627	-170,783	-0,021	-0,001
-689,612	10,442	-0,100	0,056
-688,597	-200,000	0,003	0,076
-687,583	290,573	-0,005	-0,007
-686,568	513,358	0,003	0,005
-685,554	690,147	-0,038	0,075
-684,539	575,799	-0,061	-0,109
-683,524	-200,000	-0,018	-0,146
-682,510	-91,744	-0,109	0,023
-681,495	-200,000	-0,005	0,080
-680,481	34,927	-0,079	-0,051
-679,466	800,000	0,021	-0,053
-678,451	143,421	-0,108	-0,106
-677,437	-73,297	-0,072	-0,019
-676,422	211,818	0,094	0,110
-675,408	-10,191	0,088	0,043
-674,393	-44,420	-0,082	0,030
-673,378	50,742	0,056	-0,039
-672,364	23,034	-0,115	-0,069
-671,349	286,022	-0,061	-0,081
-670,335	674,383	0,012	-0,023
-669,320	-19,586	0,034	0,016
-668,305	469,766	-0,014	0,022
-667,291	-200,000	-0,004	-0,106
-666,276	309,690	-0,062	-0,085
-665,262	127,693	0,027	0,026
-664,247	283,094	-0,035	-0,047
-663,232	480,263	0,029	-0,048
-662,218	658,182	0,073	-0,138
-661,203	-200,000	-0,001	0,100
-660,189	-200,000	0,027	-0,090
-659,174	-60,621	-0,101	-0,031
-658,159	107,151	0,028	0,024
-657,145	800,000	-0,050	-0,125
-656,130	73,953	0,063	0,048
-655,116	-96,400	-0,029	-0,006
-654,101	599,844	-0,033	0,060
-653,086	-200,000	-0,032	-0,114
-652,072	-176,951	-0,100	-0,002
-651,057	-6,532	0,156	0,078
-650,043	-200,000	0,001	-0,129
-649,028	148,881	0,032	-0,032
-648,014	-50,598	-0,155	-0,053
-646,999	-200,000	-0,024	0,199
-645,984	-200,000	-0,009	-0,032
-644,970	-114,577	-0,047	-0,007
-643,955	-200,000	-0,002	-0,040
-642,941	-54,813	-0,067	-0,022
-641,926	-89,943	-0,003	-0,001
-640,911	-200,000	0,013	-0,055
-639,897	78,397	-0,109	0,085
-638,882	-141,971	-0,012	0,001
-637,868	-200,000	-0,039	0,145
-636,853	-200,000	-0,045	0,164
-635,838	48,270	-0,056	-0,038
-634,824	117,673	0,097	-0,087
-633,809	-200,000	0,017	-0,129
-632,795	84,879	-0,058	-0,046
-631,780	-172,767	-0,087	0,002
-630,765	-61,234	-0,107	0,033
-629,751	235,766	0,048	-0,059
-628,736	145,446	-0,023	0,023
-627,722	-200,000	-0,022	0,082
-626,707	-41,033	0,053	-0,020
-625,692	111,290	-0,042	-0,037
-624,678	98,584	-0,075	-0,063
-623,663	152,767	0,115	0,115
-622,649	341,240	0,098	-0,141
-621,634	800,000	0,043	-0,139
-620,619	-12,086	0,045	0,022
-619,605	23,243	-0,125	-0,075
-618,590	-105,217	-0,074	0,012
-617,576	80,700	0,033	-0,026
-616,561	800,000	0,015	0,036
-615,546	800,000	-0,005	0,014
-614,532	17,445	-0,058	-0,034
-613,517	48,375	-0,066	-0,045
-612,503	172,042	0,055	-0,058
-611,488	-83,482	0,071	-0,017
-610,474	-200,000	0,004	-0,210
-609,459	271,727	0,035	0,045
-608,444	800,000	-0,025	-0,055
-607,430	-140,698	-0,041	0,003
-606,415	84,197	0,099	0,079
-605,401	-200,000	-0,040	-0,131
-604,386	-200,000	-0,002	-0,008
-603,371	126,726	0,069	-0,064
-602,357	-164,194	-0,114	0,004
-601,342	156,574	0,064	-0,065
-600,328	96,560	-0,030	-0,025
-599,313	429,159	-0,102	-0,163
-598,298	306,173	-0,063	-0,086
-597,284	413,175	-0,092	-0,144
-596,269	800,000	-0,064	0,133
-595,255	-108,432	-0,013	0,002
-594,240	120,006	0,038	-0,034
-593,225	661,176	-0,033	0,062
-592,211	-86,010	-0,049	-0,011
-591,196	-200,000	-0,004	-0,128
-590,182	564,647	0,039	0,070
-589,167	-200,000	-0,003	-0,046
-588,152	800,000	-0,034	-0,082
-587,138	-79,462	-0,067	0,016
-586,123	168,888	-0,020	-0,021
-585,109	619,419	0,067	-0,125
-584,094	447,245	-0,069	-0,112
-583,079	154,821	0,047	0,047
-582,065	207,774	-0,074	0,085
-581,050	800,000	0,039	0,086
-580,036	-127,441	0,096	-0,010
-579,021	800,000	-0,019	-0,048
-578,006	-38,073	0,054	-0,021
-576,992	-76,476	-0,183	-0,047
-575,977	-97,008	-0,057	-0,011
-574,963	-73,859	-0,058	0,015
-573,948	-112,654	-0,063	0,009
-572,934	189,836	-0,081	-0,089
-571,919	324,931	0,097	0,136
-570,904	800,000	-0,031	0,066
-569,890	-200,000	-0,003	-0,073
-568,875	389,783	0,092	0,141
-567,861	125,927	-0,033	0,030
-566,846	-200,000	0,001	0,195
-565,831	-200,000	0,043	0,155
-564,817	-200,000	-0,004	-0,122
-563,802	-200,000	0,018	-0,073
-562,788	-38,186	-0,011	0,004
-561,773	-124,970	-0,180	0,020
-560,758	800,000	-0,023	0,063
-559,744	-200,000	-0,000	0,122
-558,729	-200,000	0,005	0,072
-557,715	529,655	0,024	0,041
-556,700	-152,059	0,012	-0,001
-555,685	-200,000	0,012	-0,058
-554,671	228,694	0,045	0,054
-553,656	-200,000	-0,030	-0,155
-552,642	800,000	-0,041	0,095
-551,627	99,221	0,071	-0,060
-550,612	538,312	0,064	-0,112
-549,598	-200,000	-0,010	-0,058
-548,583	274,043	-0,060	-0,078
-547,569	682,604	-0,013	0,025
-546,554	-10,601	0,089	0,043
-545,539	125,319	-0,078	-0,072
-544,525	-167,980	0,030	-0,001
-543,510	101,536	0,092	0,079
-542,496	-200,000	-0,001	0,011
-541,481	-18,234	0,088	-0,040
-540,466	-0,671	-0,052	0,027
-539,452	800,000	-0,035	0,076
-538,437	383,630	0,037	0,056
-537,423	638,422	-0,063	-0,117
-536,408	-200,000	-0,034	-0,132
-535,393	126,132	0,023	0,021
-534,379	-29,661	-0,042	0,017
-533,364	96,075	-0,034	0,029
-532,350	-37,191	0,102	0,040
-531,335	-32,637	0,066	-0,027
-530,321	-10,630	0,065	0,032
-529,306	246,475	-0,033	0,041
-528,291	-111,589	-0,150	-0,022
-527,277	-200,000	0,011	-0,058
-526,262	525,282	-0,030	-0,052
-525,248	-88,986	-0,035	0,007
-524,233	-31,337	0,122	0,050
-523,218	-66,146	-0,070	-0,020
-522,204	696,799	0,044	-0,085
-521,189	-200,000	-0,018	-0,091
-520,175	110,888	-0,121	-0,107
-519,160	800,000	0,027	-0,066
-518,145	-200,000	-0,003	-0,084
-517,131	39,280	-0,109	-0,071
-516,116	-200,000	0,024	0,121
-515,102	800,000	0,014	0,042
-514,087	-200,000	-0,022	-0,191
-513,072	-0,335	0,154	-0,080
-512,058	-200,000	0,033	0,153
-511,043	452,200	-0,007	0,011
-510,029	800,000	0,065	-0,157
-509,014	800,000	0,052	0,126
-507,999	672,182	0,051	0,098
-506,985	166,709	-0,059	-0,061
-505,970	224,465	-0,097	-0,115
-504,956	231,894	0,044	-0,052
-503,941	-200,000	-0,039	-0,155
-502,926	-16,918	-0,082	-0,038
-501,912	800,000	0,022	-0,047
-500,897	-48,723	-0,123	0,043
-499,883	-49,483	-0,039	0,013
-498,868	77,809	-0,088	-0,068
-497,853	800,000	-0,078	0,167
-496,839	-200,000	-0,014	0,103
-495,824	40,168	-0,055	0,036
-494,810	180,695	0,090	0,096
-493,795	800,000	0,054	0,117
-492,781	-20,666	-0,088	0,040
-491,766	-101,849	-0,122	-0,021
-490,751	278,445	-0,067	0,087
-489,737	-26,541	0,109	0,046
-488,722	-200,000	-0,013	0,053
-487,708	36,355	0,060	-0,038
-486,693	800,000	0,023	-0,054
-485,678	-79,009	0,102	-0,025
-484,664	-85,830	-0,130	0,029
-483,649	294,746	-0,094	0,125
-482,635	-117,943	0,062	0,008
-481,620	800,000	0,067	0,215
-480,605	84,470	0,117	-0,094
-479,591	-63,524	0,131	-0,039
-478,576	-10,426	0,166	-0,080
-477,562	57,508	-0,046	-0,033
-476,547	146,050	-0,138	-0,135
-475,532	-116,276	-0,038	0,005
-474,518	800,000	-0,029	-0,065
-473,503	-45,569	0,033	-0,012
-472,489	116,298	0,021	-0,019
-471,474	389,999	-0,021	-0,032
-470,459	-66,307	0,073	0,021
-469,445	-20,489	-0,075	0,034
-468,430	-20,922	-0,113	-0,050
-467,416	800,000	-0,019	0,043
-466,401	44,007	0,023	-0,016
-465,386	-12,823	0,060	0,028
-464,372	-174,117	0,046	-0,001
-463,357	103,085	-0,049	-0,042
-462,343	-58,663	-0,107	-0,034
-461,328	-2,592	0,028	0,014
-460,313	-200,000	-0,031	-0,172
-459,299	85,327	0,104	-0,083
-458,284	147,466	0,049	-0,048
-457,270	16,134	0,068	-0,039
-456,255	-191,936	0,079	0,001
-455,241	-200,000	0,024	0,169
-454,226	503,502	-0,021	0,036
-453,211	-96,592	-0,040	-0,008
-452,197	74,837	-0,034	0,026
-451,182	58,641	0,103	0,074
-450,168	800,000	-0,030	-0,064
-449,153	729,278	0,017	0,034
-448,138	-58,548	-0,149	-0,047
-447,124	-139,741	-0,124	-0,009
-446,109	-112,211	0,064	-0,009
-445,095	-200,000	-0,008	0,062
-444,080	100,447	-0,076	0,064
-443,065	307,462	-0,040	0,054
-442,051	45,888	-0,012	0,008
-441,036	217,562	-0,052	0,060
-440,022	800,000	-0,027	-0,057
-439,007	142,897	0,135	-0,131
-437,992	-200,000	-0,002	0,098
-436,978	-69,301	-0,107	-0,030
-435,963	134,654	0,043	0,041
-434,949	57,887	-0,167	0,119
-433,934	-109,444	-0,072	0,011
-432,919	-200,000	-0,004	-0,119
-431,905	-138,747	-0,098	-0,008
-430,890	-200,000	0,002	-0,074
-429,876	41,395	-0,024	0,016
-428,861	-133,014	-0,078	0,007
-427,846	649,721	-0,044	-0,083
-426,832	800,000	0,025	-0,073
-425,817	-66,179	0,088	-0,025
-424,803	-200,000	0,031	-0,155
-423,788	68,543	0,076	-0,056
-422,773	31,249	0,160	0,100
-421,759	-69,250	0,188	-0,052
-420,744	-200,000	-0,016	-0,074
-419,730	-200,000	0,018	-0,129
-418,715	31,641	-0,095	-0,060
-417,701	-153,281	0,117	-0,006
-416,686	800,000	0,031	-0,072
-415,671	421,775	0,045	-0,070
-414,657	-24,977	-0,140	0,060
-413,642	190,550	-0,028	0,030
-412,628	-200,000	-0,017	-0,063
-411,613	800,000	0,028	-0,070
-410,598	800,000	0,026	0,054
-409,584	-200,000	0,003	-0,100
-408,569	21,452	0,066	-0,039
-407,555	182,864	0,039	-0,042
-406,540	-115,149	-0,081	0,011
-405,525	-159,160	-0,024	0,001
-404,511	-200,000	0,029	-0,120
-403,496	-200,000	0,010	-0,086
-402,482	800,000	0,014	-0,044
-401,467	100,637	0,072	0,061
-400,452	118,384	0,106	-0,095
-399,438	105,095	0,057	-0,049
-398,423	307,256	-0,027	-0,036
-397,409	761,160	-0,065	-0,129
-396,394	-200,000	0,012	0,112
-395,379	64,281	-0,025	-0,018
-394,365	3,187	0,169	0,089
-393,350	-200,000	0,018	0,107
-392,336	-64,379	0,042	0,012
-391,321	450,073	-0,071	-0,115
-390,306	335,290	0,005	0,006
-389,292	-200,000	-0,015	-0,094
-388,277	585,242	0,039	0,069
-387,263	667,378	-0,019	-0,035
-386,248	-46,125	0,106	0,038
-385,233	800,000	-0,036	-0,079
-384,219	-61,219	0,025	0,008
-383,204	-118,690	-0,110	0,014
-382,190	800,000	0,009	-0,025
-381,175	-200,000	0,038	-0,133
-380,160	30,191	0,112	0,069
-379,146	16,695	0,059	0,034
-378,131	738,554	0,055	0,107
-377,117	-200,000	0,013	0,136
-376,102	256,925	-0,051	0,064
-375,088	-200,000	-0,014	0,101
-374,073	-200,000	-0,006	-0,079
-373,058	800,000	-0,052	-0,109
-372,044	-42,862	0,080	-0,029
-371,029	-200,000	0,030	-0,104
-370,015	-151,100	0,059	0,003
-369,000	-200,000	-0,034	0,196
-367,985	225,946	0,034	-0,040
-366,971	159,781	0,036	0,037
-365,956	18,359	-0,018	0,011
-364,942	-76,862	0,087	0,022
-363,927	312,118	0,052	0,072
-362,912	-156,807	-0,093	-0,004
-361,898	369,128	0,044	0,066
-360,883	85,853	-0,033	0,026
-359,869	147,631	-0,095	-0,093
-358,854	-67,562	-0,090	0,026
-357,839	-200,000	-0,015	-0,055
-356,825	-1,608	0,152	0,078
-355,810	-200,000	0,000	0,027
-354,796	800,000	0,069	-0,165
-353,781	-45,038	0,038	0,014
-352,766	800,000	0,046	0,118
-351,752	-96,709	0,143	0,027
-350,737	800,000	-0,045	0,102
-349,723	150,729	-0,066	0,065
-348,708	82,644	0,113	-0,089
-347,693	11,098	0,071	0,039
-346,679	800,000	-0,020	-0,063
-345,664	413,286	0,112	-0,174
-344,650	-15,388	-0,143	0,066
-343,635	-0,425	-0,050	-0,026
-342,620	-200,000	-0,005	0,076
-341,606	-69,356	0,100	0,028
-340,591	-129,747	0,058	-0,006
-339,577	-21,363	-0,056	-0,025
-338,562	-18,720	-0,015	-0,007
-337,548	573,100	0,076	-0,135
-336,533	-200,000	0,028	0,092
-335,518	233,446	0,058	0,069
-334,504	563,955	0,055	-0,098
-333,489	-200,000	0,009	0,056
-332,475	327,678	-0,019	0,026
-331,460	161,475	0,069	0,071
-330,445	724,258	0,048	0,093
-329,431	198,616	-0,013	0,015
-328,416	-200,000	0,016	-0,053
-327,402	101,193	0,016	0,014
-326,387	-200,000	-0,002	0,007
-325,372	128,810	0,075	0,069
-324,358	60,103	0,073	-0,053
-323,343	-200,000	0,006	-0,149
-322,329	-93,067	0,036	0,007
-321,314	-200,000	0,014	0,000
-320,299	-54,356	-0,096	0,032
-319,285	-14,047	0,013	-0,006
-318,270	800,000	-0,021	-0,042
-317,256	-200,000	-0,019	-0,165
-316,241	-133,778	0,034	-0,003
-315,226	-158,585	0,137	0,006
-314,212	-17,792	0,094	0,042
-313,197	-108,337	-0,045	0,007
-312,183	-200,000	-0,016	0,113
-311,168	193,011	0,109	-0,119
-310,153	-61,652	-0,130	-0,039
-309,139	371,594	0,059	0,087
-308,124	-37,286	0,033	0,013
-307,110	-200,000	-0,008	-0,088
-306,095	63,055	-0,119	0,087
-305,080	3,256	-0,078	0,041
-304,066	319,827	-0,019	-0,026
-303,051	-200,000	-0,010	-0,098
-302,037	88,322	0,036	0,029
-301,022	-200,000	0,003	0,032
-300,008	60,411	-0,128	-0,091
-298,993	-115,155	0,125	-0,017
-297,978	53,387	0,085	0,059
-296,964	-74,557	-0,064	-0,017
-295,949	-124,480	-0,111	-0,012
-294,935	-200,000	0,004	0,055
-293,920	96,301	-0,072	0,060
-292,905	-80,871	-0,138	0,033
-291,891	0,139	0,240	0,124
-290,876	-200,000	0,008	0,028
-289,862	72,348	0,106	-0,080
-288,847	-127,941	-0,068	-0,007
-287,832	-200,000	0,020	-0,086
-286,818	-173,905	0,094	0,002
-285,803	-166,124	0,097	0,003
-284,789	-200,000	0,026	0,114
-283,774	86,487	0,051	-0,041
-282,759	274,602	0,011	0,014
-281,745	35,448	-0,086	-0,054
-280,730	800,000	-0,097	-0,199
-279,716	800,000	0,045	-0,135
-278,701	-200,000	-0,024	-0,097
-277,686	124,972	0,060	0,055
-276,672	324,758	-0,054	-0,075
-275,657	-141,584	0,044	0,003
-274,643	-44,212	-0,076	0,027
-273,628	-83,478	-0,110	0,025
-272,613	481,659	0,048	-0,079
-271,599	22,908	0,112	0,067
-270,584	-200,000	-0,015	0,160
-269,570	800,000	-0,071	0,179
-268,555	46,037	0,087	-0,059
-267,540	22,717	-0,014	-0,009
-266,526	800,000	-0,002	-0,005
-265,511	800,000	-0,043	-0,120
-264,497	41,689	0,131	0,086
-263,482	-82,732	-0,006	-0,001
-262,467	-87,821	0,083	-0,018
-261,453	800,000	-0,017	-0,042
-260,438	58,381	-0,026	-0,018
-259,424	360,050	-0,083	0,121
-258,409	800,000	0,018	-0,054
-257,395	-153,832	0,086	-0,004
-256,380	639,444	-0,056	-0,104
-255,365	800,000	0,031	-0,083
-254,351	-26,820	0,091	0,038
-253,336	-200,000	0,010	0,044
-252,322	-98,743	-0,226	-0,041
-251,307	-200,000	0,019	-0,120
-250,292	485,254	-0,020	-0,034
-249,278	149,216	0,127	0,125
-248,263	-200,000	-0,003	-0,088
-247,249	26,114	0,070	0,042
-246,234	-129,927	0,087	0,009
-245,219	566,882	-0,053	-0,094
-244,205	-12,643	-0,132	0,062
-243,190	800,000	0,029	-0,067
-242,176	-200,000	-0,012	-0,051
-241,161	-105,780	-0,090	0,015
-240,146	-147,466	0,032	-0,002
-239,132	-200,000	-0,028	-0,091
-238,117	629,595	-0,026	0,047
-237,103	-200,000	-0,044	0,147
-236,088	101,757	-0,097	0,082
-235,073	800,000	0,043	0,100
-234,059	-200,000	0,020	0,105
-233,044	-200,000	0,000	0,004
-232,030	-200,000	0,006	0,022
-231,015	-61,516	0,063	-0,019
-230,000	800,000	-0,038	-0,093
-228,986	-6,354	0,075	-0,037
-227,971	-51,198	-0,021	0,007
-226,957	800,000	-0,019	0,058
-225,942	-200,000	0,019	0,128
-224,927	-114,956	0,040	-0,006
-223,913	-200,000	0,019	-0,086
-222,898	-181,042	0,007	-0,000
-221,884	800,000	0,088	0,205
-220,869	-126,581	-0,073	-0,008
-219,855	21,157	0,065	-0,038
-218,840	715,269	0,043	-0,082
-217,825	496,659	0,069	0,115
-216,811	207,676	-0,042	-0,047
-215,796	223,704	-0,067	-0,078
-214,782	154,427	0,023	0,023
-213,767	301,133	0,106	0,141
-212,752	66,248	0,066	0,048
-211,738	505,359	-0,063	0,106
-210,723	15,380	-0,017	0,010
-209,709	-88,210	-0,112	-0,024
-208,694	65,751	0,038	0,028
-207,679	800,000	-0,016	-0,049
-206,665	322,593	0,007	-0,009
-205,650	-200,000	-0,040	0,134
-204,636	222,129	0,057	0,066
-203,621	-200,000	0,011	-0,037
-202,606	800,000	0,023	-0,052
-201,592	-65,976	-0,226	-0,065
-200,577	-200,000	0,021	0,113
-199,563	-64,983	0,096	0,028
-198,548	46,284	0,044	0,029
-197,533	-200,000	-0,001	0,088
-196,519	221,632	-0,031	0,036
-195,504	-200,000	-0,026	0,127
-194,490	-200,000	-0,038	0,186
-193,475	-27,554	-0,119	0,050
-192,460	35,573	-0,038	-0,024
-191,446	35,242	0,079	0,050
-190,431	800,000	0,022	0,060
-189,417	35,890	0,057	-0,036
-188,402	-200,000	-0,021	0,101
-187,387	-200,000	0,005	-0,027
-186,373	442,238	-0,039	0,061
-185,358	122,396	-0,077	0,069
-184,344	800,000	0,013	0,031
-183,329	207,692	-0,071	0,080
-182,315	386,484	0,122	0,182
-181,300	-77,338	0,133	0,033
-180,285	139,484	-0,049	-0,047
-179,271	800,000	-0,068	0,138
-178,256	158,111	0,037	0,037
-177,242	-15,410	0,134	0,062
-176,227	-64,406	0,109	0,032
-175,212	532,170	0,051	0,088
-174,198	492,956	0,029	-0,049
-173,183	-200,000	0,009	-0,058
-172,169	-65,097	-0,088	-0,025
-171,154	116,860	-0,032	0,029
-170,139	800,000	-0,053	0,136
-169,125	-44,248	0,060	0,022
-168,110	-200,000	0,024	0,135
-167,096	800,000	-0,019	0,046
-166,081	-91,494	0,084	0,017
-165,066	19,397	-0,170	-0,098
-164,052	-82,194	0,112	0,026
-163,037	-107,762	-0,132	-0,021
-162,023	800,000	-0,074	0,170
-161,008	-200,000	-0,001	0,054
-159,993	-53,596	-0,093	0,030
-158,979	-137,264	-0,135	0,011
-157,964	78,828	0,119	0,092
-156,950	-47,364	-0,011	0,004
-155,935	-64,765	-0,096	0,028
-154,920	165,685	0,038	-0,039
-153,906	13,169	-0,030	0,017
-152,891	-91,353	-0,038	-0,008
-151,877	-200,000	0,014	0,106
-150,862	-86,773	-0,094	-0,021
-149,847	239,921	-0,029	-0,035
-148,833	-19,548	-0,130	0,058
-147,818	-200,000	0,003	0,044
-146,804	-200,000	0,004	0,015
-145,789	800,000	0,017	0,044
-144,775	627,882	0,065	-0,119
-143,760	-200,000	0,003	-0,061
-142,745	477,573	0,058	0,094
-141,731	311,959	0,073	-0,099
-140,716	21,485	0,106	0,062
-139,702	35,528	-0,045	-0,028
-138,687	97,631	0,042	0,034
-137,672	-72,733	-0,145	0,038
-136,658	95,868	-0,150	0,123
-135,643	76,620	-0,030	0,023
-134,629	-168,802	0,102	0,003
-133,614	40,996	0,081	0,052
-132,599	29,350	-0,057	0,035
-131,585	-118,225	-0,024	-0,003
-130,570	51,227	-0,053	-0,036
-129,556	-88,006	-0,124	0,027
-128,541	32,795	0,058	0,036
-127,526	800,000	-0,048	0,103
-126,512	-200,000	0,018	0,067
-125,497	-200,000	-0,018	-0,104
-124,483	198,030	-0,063	0,069
-123,468	32,609	0,117	0,073
-122,453	106,154	-0,105	-0,089
-121,439	800,000	-0,025	-0,067
-120,424	77,475	0,119	-0,091
-119,410	147,915	0,055	-0,054
