DTS Sentinel unit serial number:	SN410029Multiplexer serial number:	ORYXHardware model number:	OX2-SRSoftware version number:	ORYX F/W v4,00 Oryx Data Collector v3.7.2.0data status	okinstallation	B5 Nyhavnadifferential loss correction	single-endedforward channel	channel 2reverse channel	N/Adate	2023/12/12time	12:47:13forward acquisition time	300,00reverse acquisition time	0,00gamma	499,1914k internal	0,3158k external	0,3158temperature offset calibration	1,0000default loss term (dB/km)	0,3820temperature slope calibration	1,0000multiplexer offset coefficient	1,0000multiplexer slope coefficient	1,0000fibre end	0,00T internal ref (°C)	15,40T ext. ref 1 (°C)	-0,48T ext. ref 2 (°C)	-0,73length (m)	temperature (°C)	Stokes	anti-Stokes-744,400	201,403	0,024	0,028
-743,385	-144,729	-0,263	0,018
-742,371	-69,375	0,223	0,063
-741,356	-141,883	-0,270	0,020
-740,342	118,597	0,062	0,057
-739,327	-139,420	-0,128	0,010
-738,312	-64,225	0,095	-0,028
-737,298	-124,573	-0,248	0,028
-736,283	7,037	0,110	-0,060
-735,269	23,474	-0,172	-0,104
-734,254	-200,000	-0,006	0,148
-733,239	-76,548	-0,390	-0,100
-732,225	28,082	0,137	0,085
-731,210	800,000	-0,044	0,115
-730,196	-193,327	0,009	0,000
-729,181	103,483	-0,053	0,046
-728,167	-83,188	-0,083	-0,020
-727,152	-113,551	-0,041	0,006
-726,137	160,504	-0,079	-0,081
-725,123	72,735	-0,080	-0,062
-724,108	800,000	-0,057	-0,137
-723,094	-63,927	-0,133	-0,040
-722,079	800,000	-0,057	-0,127
-721,064	21,399	-0,074	-0,044
-720,050	100,809	0,050	-0,043
-719,035	238,441	-0,028	-0,035
-718,021	-23,523	-0,169	0,075
-717,006	-138,585	-0,091	-0,007
-715,991	359,342	0,066	-0,097
-714,977	158,754	-0,108	-0,110
-713,962	-153,085	-0,114	-0,006
-712,948	-200,000	0,025	0,127
-711,933	-200,000	-0,035	-0,138
-710,918	10,670	-0,059	-0,033
-709,904	-104,100	-0,116	0,020
-708,889	159,159	-0,135	-0,138
-707,875	-200,000	-0,002	-0,147
-706,860	85,493	0,029	-0,023
-705,845	38,503	0,113	-0,074
-704,831	800,000	0,004	-0,011
-703,816	-53,084	-0,095	0,032
-702,802	50,865	0,045	-0,031
-701,787	239,574	-0,057	0,070
-700,772	103,432	0,049	0,042
-699,758	-200,000	-0,036	-0,190
-698,743	400,101	-0,035	0,055
-697,729	800,000	0,042	0,114
-696,714	-200,000	0,002	0,155
-695,699	-57,061	-0,112	-0,036
-694,685	800,000	0,052	-0,135
-693,670	-89,444	-0,128	-0,027
-692,656	-85,745	0,118	0,027
-691,641	227,950	0,023	0,027
-690,627	-200,000	0,017	0,135
-689,612	67,915	0,141	0,106
-688,597	461,593	-0,038	-0,062
-687,583	800,000	0,037	-0,084
-686,568	-69,403	0,094	0,026
-685,554	350,114	-0,024	-0,035
-684,539	-21,228	0,027	-0,012
-683,524	-77,431	-0,121	0,031
-682,510	22,889	-0,033	0,020
-681,495	-66,654	-0,181	0,052
-680,481	-80,007	-0,155	-0,038
-679,466	110,334	0,052	-0,046
-678,451	-80,669	-0,136	0,033
-677,437	357,394	-0,023	-0,034
-676,422	-93,035	-0,085	-0,017
-675,408	77,949	0,072	0,056
-674,393	800,000	0,021	-0,061
-673,378	-135,197	-0,027	0,002
-672,364	-16,726	-0,099	-0,046
-671,349	171,065	0,069	0,072
-670,335	-138,461	0,060	-0,005
-669,320	-200,000	0,035	0,142
-668,305	-99,980	-0,123	0,022
-667,291	-29,065	-0,153	-0,064
-666,276	11,182	0,074	-0,042
-665,262	273,022	-0,016	0,021
-664,247	800,000	-0,019	0,047
-663,232	164,115	-0,024	0,025
-662,218	-200,000	0,029	-0,102
-661,203	-200,000	-0,004	-0,021
-660,189	506,789	0,041	0,070
-659,174	188,690	-0,126	-0,139
-658,159	-200,000	-0,015	0,076
-657,145	-200,000	-0,003	0,027
-656,130	-200,000	0,016	0,065
-655,116	800,000	0,031	-0,083
-654,101	-99,624	0,051	-0,009
-653,086	-43,504	-0,011	0,004
-652,072	420,304	0,048	0,076
-651,057	76,736	-0,065	-0,051
-650,043	107,162	-0,072	0,062
-649,028	-1,768	-0,129	-0,066
-648,014	-34,561	-0,042	-0,017
-646,999	-200,000	-0,000	-0,037
-645,984	800,000	0,033	0,103
-644,970	800,000	0,031	0,070
-643,955	-200,000	0,024	-0,120
-642,941	-106,095	-0,083	-0,014
-641,926	-200,000	-0,011	-0,071
-640,911	-106,531	-0,013	-0,002
-639,897	-38,193	0,103	0,040
-638,882	-200,000	0,007	-0,041
-637,868	148,016	0,030	0,030
-636,853	160,540	0,056	-0,057
-635,838	800,000	-0,019	-0,046
-634,824	-51,702	0,120	0,041
-633,809	1,600	-0,136	0,071
-632,795	-54,631	0,099	0,033
-631,780	79,057	-0,081	0,064
-630,765	149,531	0,019	-0,019
-629,751	-8,621	-0,118	0,058
-628,736	578,263	0,034	-0,061
-627,722	170,959	0,056	-0,059
-626,707	-200,000	0,019	0,146
-625,692	-200,000	0,019	-0,068
-624,678	550,174	0,049	0,086
-623,663	181,795	-0,104	-0,113
-622,649	-140,091	-0,160	0,012
-621,634	51,771	0,044	0,031
-620,619	-85,110	-0,108	0,025
-619,605	-101,000	0,008	0,001
-618,590	-32,972	0,097	-0,039
-617,576	799,536	-0,076	-0,154
-616,561	-64,108	-0,100	-0,030
-615,546	-147,208	-0,101	0,006
-614,532	-200,000	0,033	-0,181
-613,517	-200,000	-0,011	-0,198
-612,503	134,406	0,044	-0,042
-611,488	-83,064	0,066	-0,015
-610,474	800,000	0,015	0,033
-609,459	-200,000	-0,004	0,114
-608,444	115,318	-0,077	0,069
-607,430	134,108	0,093	-0,088
-606,415	356,342	-0,076	-0,112
-605,401	486,624	-0,046	-0,077
-604,386	577,120	0,046	-0,082
-603,371	-200,000	-0,003	0,063
-602,357	86,302	-0,141	-0,114
-601,342	-27,001	-0,034	-0,014
-600,328	347,378	0,042	0,061
-599,313	16,482	-0,140	-0,081
-598,298	-136,542	0,142	-0,012
-597,284	557,309	0,047	0,084
-596,269	498,846	-0,063	0,106
-595,255	800,000	-0,052	0,124
-594,240	800,000	-0,057	-0,159
-593,225	129,368	-0,096	-0,090
-592,211	-200,000	0,000	0,046
-591,196	-200,000	-0,030	-0,161
-590,182	-200,000	-0,010	-0,041
-589,167	170,882	-0,054	-0,057
-588,152	-76,555	-0,078	-0,020
-587,138	800,000	0,024	0,077
-586,123	-106,742	-0,111	-0,018
-585,109	181,821	0,017	-0,018
-584,094	-36,110	-0,008	-0,003
-583,079	112,202	0,051	0,045
-582,065	-200,000	0,020	0,127
-581,050	-200,000	-0,002	0,025
-580,036	-200,000	-0,023	0,086
-579,021	212,469	-0,053	0,062
-578,006	-200,000	-0,034	-0,113
-576,992	-200,000	0,023	0,229
-575,977	-62,981	0,162	-0,049
-574,963	272,244	-0,029	-0,038
-573,948	447,289	0,049	0,079
-572,934	-200,000	-0,006	-0,190
-571,919	-200,000	0,004	-0,092
-570,904	527,747	0,043	-0,074
-569,890	800,000	-0,053	0,119
-568,875	-200,000	-0,031	0,102
-567,861	-22,192	-0,111	0,049
-566,846	-200,000	-0,001	0,082
-565,831	-200,000	-0,022	-0,117
-564,817	800,000	-0,018	-0,038
-563,802	-148,685	0,014	0,001
-562,788	717,680	-0,019	-0,037
-561,773	-27,013	0,101	-0,043
-560,758	-200,000	-0,009	0,037
-559,744	7,102	0,066	0,036
-558,729	122,628	-0,057	-0,052
-557,715	30,831	-0,113	0,071
-556,700	-200,000	0,010	-0,059
-555,685	-107,511	0,112	0,018
-554,671	-47,597	0,132	0,047
-553,656	-1,590	0,075	0,038
-552,642	101,219	-0,109	0,092
-551,627	153,726	0,035	-0,035
-550,612	-10,436	-0,073	0,035
-549,598	-200,000	-0,024	-0,085
-548,583	787,703	-0,017	0,034
-547,569	-200,000	-0,006	-0,023
-546,554	-128,530	0,154	0,016
-545,539	-118,135	-0,137	-0,018
-544,525	295,306	-0,036	-0,048
-543,510	-200,000	0,002	0,037
-542,496	-150,035	-0,078	-0,004
-541,481	110,247	-0,075	-0,065
-540,466	448,575	-0,041	-0,066
-539,452	95,099	0,094	0,078
-538,437	95,637	0,043	0,036
-537,423	-200,000	-0,007	-0,098
-536,408	82,326	-0,046	-0,037
-535,393	117,759	-0,013	-0,012
-534,379	30,541	0,153	-0,096
-533,364	-0,143	-0,027	0,014
-532,350	121,988	0,055	0,050
-531,335	237,671	-0,126	0,153
-530,321	-7,116	0,152	0,075
-529,306	82,445	0,100	0,079
-528,291	-200,000	-0,006	0,198
-527,277	-23,827	-0,075	0,033
-526,262	71,245	0,039	0,030
-525,248	-200,000	-0,028	-0,094
-524,233	-95,204	-0,041	0,008
-523,218	-111,325	0,106	0,016
-522,204	800,000	0,031	0,085
-521,189	-200,000	0,003	-0,011
-520,175	44,222	-0,140	-0,094
-519,160	162,744	0,089	0,092
-518,145	-0,140	0,059	0,031
-517,131	438,620	0,021	-0,033
-516,116	191,320	-0,087	0,096
-515,102	180,657	-0,080	0,086
-514,087	42,333	0,121	0,080
-513,072	20,680	0,098	-0,058
-512,058	-200,000	0,022	0,082
-511,043	-200,000	0,004	0,034
-510,029	-200,000	-0,015	0,082
-509,014	-200,000	-0,004	-0,025
-507,999	625,060	-0,060	0,111
-506,985	-38,476	0,038	0,015
-505,970	748,853	-0,032	-0,064
-504,956	-200,000	-0,032	0,130
-503,941	210,188	0,042	0,048
-502,926	-200,000	0,001	0,059
-501,912	32,210	-0,094	0,059
-500,897	70,283	0,094	-0,071
-499,883	800,000	0,026	0,073
-498,868	-193,211	-0,096	-0,001
-497,853	319,260	-0,068	0,094
-496,839	172,404	-0,042	-0,044
-495,824	-200,000	0,000	0,087
-494,810	-43,251	0,093	-0,034
-493,795	62,610	-0,090	0,065
-492,781	305,796	-0,051	-0,070
-491,766	269,609	0,054	-0,070
-490,751	-200,000	0,016	-0,148
-489,737	-130,870	0,077	-0,007
-488,722	-200,000	0,002	-0,030
-487,708	265,058	-0,073	-0,092
-486,693	33,197	-0,107	0,067
-485,678	800,000	0,046	0,125
-484,664	-49,085	-0,028	0,010
-483,649	46,735	-0,081	-0,055
-482,635	-200,000	0,007	-0,103
-481,620	132,987	0,093	-0,088
-480,605	-200,000	-0,037	-0,123
-479,591	-200,000	-0,030	-0,150
-478,576	411,815	-0,044	0,068
-477,562	-79,068	0,026	0,006
-476,547	-200,000	0,006	0,019
-475,532	-200,000	0,017	0,059
-474,518	155,225	-0,097	0,097
-473,503	-200,000	-0,001	0,068
-472,489	-200,000	-0,002	0,071
-471,474	465,504	-0,063	0,104
-470,459	450,176	-0,126	-0,204
-469,445	272,796	0,063	-0,081
-468,430	-200,000	-0,015	0,082
-467,416	-118,613	-0,136	0,017
-466,401	-200,000	0,011	0,041
-465,386	-124,409	0,093	0,010
-464,372	-126,333	-0,070	0,008
-463,357	800,000	0,042	-0,124
-462,343	-200,000	0,006	0,111
-461,328	-200,000	0,035	0,164
-460,313	-200,000	0,022	-0,103
-459,299	-200,000	0,007	0,038
-458,284	-138,006	0,038	0,003
-457,270	-83,508	-0,045	0,010
-456,255	-186,661	0,048	0,000
-455,241	84,242	0,021	0,017
-454,226	800,000	-0,027	0,077
-453,211	-161,304	-0,124	-0,005
-452,197	-107,433	0,120	-0,019
-451,182	486,422	-0,055	-0,092
-450,168	-200,000	0,021	0,187
-449,153	457,697	-0,056	-0,091
-448,138	-165,417	-0,181	0,006
-447,124	800,000	-0,029	-0,067
-446,109	-200,000	-0,001	0,126
-445,095	141,063	0,083	0,080
-444,080	86,833	-0,034	0,027
-443,065	-128,448	-0,095	0,010
-442,051	-200,000	0,005	-0,109
-441,036	-200,000	0,003	-0,143
-440,022	146,621	0,010	0,010
-439,007	-200,000	0,002	-0,111
-437,992	224,102	-0,071	0,083
-436,978	-200,000	-0,006	-0,040
-435,963	-75,412	-0,066	-0,017
-434,949	-34,122	-0,076	-0,030
-433,934	-200,000	0,009	-0,114
-432,919	351,738	0,025	0,037
-431,905	112,586	0,053	0,047
-430,890	-200,000	0,001	0,135
-429,876	800,000	0,079	0,162
-428,861	122,901	-0,087	0,079
-427,846	-59,299	0,057	-0,018
-426,832	800,000	0,020	-0,062
-425,817	-200,000	-0,002	0,025
-424,803	-166,230	-0,041	-0,001
-423,788	254,707	0,084	0,105
-422,773	-99,308	0,064	0,012
-421,759	13,004	0,149	0,084
-420,744	490,609	0,066	-0,110
-419,730	-200,000	0,027	0,109
-418,715	-58,299	-0,119	0,037
-417,701	800,000	-0,052	-0,135
-416,686	345,498	-0,040	-0,057
-415,671	-200,000	-0,011	-0,083
-414,657	68,704	0,094	-0,070
-413,642	-68,228	0,062	-0,017
-412,628	-164,451	0,141	0,005
-411,613	34,655	-0,072	-0,045
-410,598	108,092	0,072	-0,063
-409,584	165,615	0,051	-0,052
-408,569	-172,027	0,087	0,002
-407,555	-127,341	0,039	-0,004
-406,540	-137,681	-0,096	-0,008
-405,525	160,480	-0,061	0,061
-404,511	196,536	0,073	-0,081
-403,496	-200,000	-0,029	0,146
-402,482	-147,738	0,224	-0,013
-401,467	800,000	0,043	0,124
-400,452	-200,000	0,028	-0,117
-399,438	110,104	0,156	0,136
-398,423	212,006	0,013	0,015
-397,409	151,480	-0,061	-0,060
-396,394	71,969	-0,012	0,009
-395,379	-58,628	0,081	-0,025
-394,365	800,000	0,070	-0,145
-393,350	-135,079	0,018	0,002
-392,336	244,313	0,102	-0,125
-391,321	255,207	0,063	0,079
-390,306	-200,000	-0,001	0,022
-389,292	193,212	-0,113	-0,124
-388,277	-200,000	-0,024	-0,085
-387,263	208,512	-0,052	0,059
-386,248	-54,197	-0,105	-0,035
-385,233	-200,000	0,004	0,019
-384,219	51,142	-0,027	-0,019
-383,204	98,144	-0,128	-0,107
-382,190	800,000	0,016	0,033
-381,175	515,520	-0,073	-0,124
-380,160	-200,000	0,003	0,142
-379,146	-154,754	-0,033	0,002
-378,131	-78,685	0,190	0,047
-377,117	-200,000	-0,013	0,071
-376,102	-160,504	0,061	0,002
-375,088	-179,357	-0,100	0,002
-374,073	-12,495	0,072	-0,034
-373,058	-53,320	0,115	-0,038
-372,044	577,000	-0,045	0,081
-371,029	-200,000	-0,010	0,089
-370,015	159,899	0,045	0,046
-369,000	800,000	-0,060	0,145
-367,985	244,249	-0,059	-0,072
-366,971	502,560	-0,092	-0,156
-365,956	-77,233	0,033	0,008
-364,942	74,389	0,003	0,002
-363,927	84,705	-0,133	0,106
-362,912	-200,000	0,024	0,080
-361,898	-200,000	-0,027	-0,106
-360,883	3,447	-0,077	-0,041
-359,869	764,299	0,023	-0,045
-358,854	-200,000	0,030	0,119
-357,839	304,882	0,037	0,050
-356,825	84,269	0,104	0,083
-355,810	800,000	0,100	0,213
-354,796	-129,010	-0,069	-0,007
-353,781	-73,874	0,046	0,012
-352,766	800,000	0,021	-0,052
-351,752	126,812	0,071	0,065
-350,737	275,776	0,114	0,147
-349,723	-64,827	0,172	0,050
-348,708	313,499	-0,070	-0,095
-347,693	315,456	-0,049	0,067
-346,679	-200,000	0,000	-0,069
-345,664	-31,589	0,037	-0,015
-344,650	523,011	-0,034	0,058
-343,635	800,000	-0,042	0,097
-342,620	-192,865	0,092	0,001
-341,606	29,469	0,116	-0,071
-340,591	405,273	0,073	0,112
-339,577	325,879	0,046	0,064
-338,562	-200,000	-0,012	-0,083
-337,548	800,000	0,026	-0,065
-336,533	84,655	0,095	-0,076
-335,518	-200,000	0,000	0,129
-334,504	-200,000	0,005	0,085
-333,489	-133,293	-0,129	0,012
-332,475	800,000	0,024	-0,070
-331,460	14,710	0,061	0,035
-330,445	-87,526	-0,026	0,006
-329,431	800,000	-0,008	-0,023
-328,416	-139,563	-0,020	0,002
-327,402	-3,739	0,096	-0,048
-326,387	414,155	-0,021	-0,033
-325,372	-75,282	-0,107	0,027
-324,358	-88,772	0,078	0,017
-323,343	-200,000	-0,060	-0,211
-322,329	212,628	0,053	-0,060
-321,314	326,104	0,055	-0,077
-320,299	-131,621	0,054	0,005
-319,285	438,148	0,071	0,113
-318,270	104,812	-0,024	0,020
-317,256	-62,831	-0,074	-0,022
-316,241	800,000	0,001	0,003
-315,226	339,998	0,058	-0,082
-314,212	-182,310	0,078	-0,001
-313,197	-200,000	0,009	-0,055
-312,183	44,695	0,040	-0,027
-311,168	64,642	0,061	-0,044
-310,153	254,346	0,057	0,071
-309,139	800,000	0,045	-0,094
-308,124	-58,049	-0,023	-0,007
-307,110	-80,934	0,117	-0,028
-306,095	-119,912	0,085	0,010
-305,080	339,888	-0,027	0,038
-304,066	37,914	0,076	-0,049
-303,051	2,140	-0,131	-0,068
-302,037	-200,000	0,004	-0,023
-301,022	-105,686	0,094	-0,015
-300,008	131,204	-0,091	0,084
-298,993	-32,496	0,097	0,039
-297,978	-200,000	0,007	0,089
-296,964	-200,000	0,002	0,095
-295,949	114,331	0,080	0,071
-294,935	-66,915	-0,093	0,027
-293,920	307,730	0,075	0,102
-292,905	40,244	-0,150	0,097
-291,891	-25,073	0,106	0,045
-290,876	800,000	-0,015	0,035
-289,862	-200,000	-0,020	-0,089
-288,847	49,722	0,098	-0,067
-287,832	-200,000	-0,006	0,024
-286,818	-200,000	-0,022	-0,128
-285,803	-123,984	0,089	0,010
-284,789	4,080	0,140	-0,074
-283,774	800,000	-0,045	0,095
-282,759	-200,000	0,010	-0,064
-281,745	-200,000	0,011	0,040
-280,730	55,113	-0,075	0,053
-279,716	-67,020	0,001	-0,000
-278,701	-52,195	0,091	-0,030
-277,686	-200,000	0,027	0,180
-276,672	-142,276	0,165	-0,012
-275,657	39,625	-0,064	0,042
-274,643	800,000	-0,029	-0,063
-273,628	-52,485	-0,057	-0,019
-272,613	78,655	0,052	0,040
-271,599	-139,361	-0,060	0,005
-270,584	-200,000	-0,027	-0,127
-269,570	407,217	-0,088	0,134
-268,555	50,904	-0,044	0,030
-267,540	-108,700	-0,102	0,016
-266,526	-176,984	-0,130	-0,002
-265,511	-200,000	0,015	-0,081
-264,497	129,904	0,072	0,067
-263,482	800,000	0,022	-0,066
-262,467	-200,000	-0,021	0,177
-261,453	-161,659	-0,043	0,002
-260,438	-200,000	-0,010	-0,041
-259,424	-183,202	0,179	-0,002
-258,409	388,365	-0,079	0,119
-257,395	64,256	0,022	-0,016
-256,380	71,884	-0,160	-0,120
-255,365	203,046	-0,034	0,038
-254,351	-38,703	0,136	-0,052
-253,336	210,918	0,054	-0,061
-252,322	515,747	-0,031	-0,052
-251,307	-200,000	-0,011	0,093
-250,292	543,923	-0,058	0,100
-249,278	426,431	0,026	-0,040
-248,263	-132,238	0,064	-0,006
-247,249	81,774	-0,090	-0,071
-246,234	-140,671	-0,014	-0,001
-245,219	-156,207	-0,028	0,001
-244,205	-54,468	-0,117	0,038
-243,190	22,156	0,107	0,063
-242,176	-174,877	-0,128	0,003
-241,161	-91,037	-0,089	-0,018
-240,146	8,441	-0,105	-0,057
-239,132	497,471	0,073	-0,122
-238,117	-24,315	0,081	0,035
-237,103	-200,000	-0,005	-0,146
-236,088	-63,456	0,040	-0,012
-235,073	299,295	0,071	0,095
-234,059	11,755	-0,023	0,012
-233,044	579,180	-0,024	-0,042
-232,030	800,000	0,024	-0,061
-231,015	64,203	-0,063	0,046
-230,000	-161,810	0,011	0,000
-228,986	491,431	-0,042	-0,070
-227,971	-200,000	-0,005	-0,066
-226,957	-43,644	0,148	-0,054
-225,942	444,911	-0,005	-0,008
-224,927	-200,000	0,205	-0,000
-223,913	800,000	-0,015	0,038
-222,898	-200,000	0,012	-0,111
-221,884	125,392	0,048	-0,044
-220,869	481,372	0,022	-0,036
-219,855	-44,721	-0,014	0,005
-218,840	800,000	0,021	0,044
-217,825	-108,642	0,066	-0,010
-216,811	-200,000	0,016	-0,220
-215,796	-142,311	0,105	-0,007
-214,782	800,000	-0,051	-0,105
-213,767	580,087	-0,014	0,024
-212,752	-12,892	0,021	-0,010
-211,738	249,155	0,035	-0,042
-210,723	800,000	0,004	-0,009
-209,709	800,000	-0,018	-0,047
-208,694	800,000	0,050	-0,148
-207,679	-200,000	-0,013	-0,050
-206,665	-71,064	0,125	-0,034
-205,650	-19,565	0,076	-0,034
-204,636	39,118	-0,156	-0,100
-203,621	115,278	0,028	-0,025
-202,606	-79,205	-0,117	-0,028
-201,592	76,423	-0,080	-0,061
-200,577	158,776	-0,167	-0,167
-199,563	445,211	0,018	0,029
-198,548	-80,446	0,150	0,036
-197,533	-200,000	-0,007	0,039
-196,519	-200,000	0,005	0,051
-195,504	663,598	-0,070	0,131
-194,490	-80,269	-0,096	-0,023
-193,475	364,768	-0,031	-0,045
-192,460	132,238	0,052	-0,049
-191,446	146,851	-0,126	0,122
-190,431	-200,000	-0,017	0,059
-189,417	-2,154	-0,070	0,035
-188,402	-86,034	0,162	0,036
-187,387	193,632	-0,077	-0,084
-186,373	-200,000	0,015	0,104
-185,358	-82,513	0,054	-0,012
-184,344	17,875	-0,031	0,018
-183,329	42,823	0,027	-0,018
-182,315	-102,670	-0,026	0,004
-181,300	-107,459	-0,167	-0,026
-180,285	800,000	0,029	-0,074
-179,271	-9,223	0,049	0,024
-178,256	800,000	-0,083	0,179
-177,242	-200,000	0,000	0,168
-176,227	-200,000	0,005	0,028
-175,212	-200,000	-0,003	-0,109
-174,198	-152,777	-0,061	0,003
-173,183	-110,552	-0,152	-0,022
-172,169	375,567	0,056	-0,082
-171,154	-45,429	0,035	0,012
-170,139	-115,579	-0,080	0,011
-169,125	-200,000	-0,045	0,234
-168,110	144,606	0,038	-0,037
-167,096	277,937	0,021	0,027
-166,081	-61,441	-0,144	-0,043
-165,066	576,453	-0,041	-0,072
-164,052	-12,075	-0,079	0,037
-163,037	-70,899	0,034	-0,009
-162,023	158,392	0,012	-0,012
-161,008	800,000	0,042	-0,110
-159,993	-147,395	-0,078	0,005
-158,979	-6,698	0,153	-0,075
-157,964	-155,294	-0,212	-0,010
-156,950	170,832	-0,060	0,062
-155,935	68,335	0,138	-0,102
-154,920	67,922	0,058	0,043
-153,906	-200,000	-0,013	-0,152
-152,891	800,000	-0,085	0,178
-151,877	124,749	-0,041	0,037
-150,862	-149,736	0,007	0,000
-149,847	-112,201	-0,138	0,020
-148,833	397,395	-0,013	0,019
-147,818	-71,110	-0,091	-0,025
-146,804	-85,211	-0,102	-0,023
-145,789	294,189	0,049	0,065
-144,775	192,654	-0,048	0,053
-143,760	79,183	0,068	-0,052
-142,745	124,664	-0,165	-0,149
-141,731	144,769	-0,099	-0,095
-140,716	-88,703	0,117	0,025
-139,702	-117,818	0,116	0,015
-138,687	67,968	-0,032	-0,024
-137,672	800,000	0,013	-0,027
-136,658	-200,000	-0,012	-0,079
-135,643	-200,000	0,024	-0,202
-134,629	-8,338	0,106	-0,051
-133,614	-52,196	0,072	-0,024
-132,599	800,000	-0,029	0,060
-131,585	800,000	-0,029	0,079
-130,570	-31,006	0,117	-0,047
-129,556	183,568	0,076	-0,081
-128,541	-105,649	0,097	0,016
-127,526	100,710	0,067	-0,056
-126,512	-200,000	0,025	0,145
-125,497	65,867	-0,092	0,067
-124,483	545,185	0,056	-0,097
-123,468	-73,821	-0,110	0,029
-122,453	112,598	-0,112	0,097
-121,439	-141,050	0,114	-0,008
-120,424	43,396	-0,154	-0,101
-119,410	300,014	0,061	0,081
