DTS Sentinel unit serial number:	SN410029Multiplexer serial number:	ORYXHardware model number:	OX2-SRSoftware version number:	ORYX F/W v4,00 Oryx Data Collector v3.7.2.0data status	okinstallation	B5 Nyhavnadifferential loss correction	single-endedforward channel	channel 2reverse channel	N/Adate	2023/12/13time	02:02:13forward acquisition time	300,00reverse acquisition time	0,00gamma	499,1914k internal	0,3159k external	0,3159temperature offset calibration	1,0000default loss term (dB/km)	0,3820temperature slope calibration	1,0000multiplexer offset coefficient	1,0000multiplexer slope coefficient	1,0000fibre end	0,00T internal ref (°C)	14,05T ext. ref 1 (°C)	-2,41T ext. ref 2 (°C)	-2,72length (m)	temperature (°C)	Stokes	anti-Stokes-744,400	22,866	0,106	-0,064
-743,385	-117,676	-0,334	-0,044
-742,371	-62,362	0,179	0,055
-741,356	-132,324	-0,222	-0,021
-740,342	-170,571	0,130	-0,003
-739,327	6,001	-0,434	0,236
-738,312	-100,696	0,027	-0,005
-737,298	-129,990	-0,261	0,026
-736,283	-62,043	0,154	-0,047
-735,269	51,721	-0,226	-0,158
-734,254	-79,061	0,093	-0,023
-733,239	-81,947	-0,393	-0,094
-732,225	-106,255	0,153	-0,025
-731,210	18,891	-0,113	0,067
-730,196	588,099	-0,057	-0,103
-729,181	-41,556	-0,097	-0,037
-728,167	-33,355	0,100	-0,041
-727,152	-53,865	-0,034	0,011
-726,137	800,000	-0,042	-0,113
-725,123	-52,767	-0,123	0,042
-724,108	-58,184	-0,073	-0,023
-723,094	-14,220	-0,134	0,064
-722,079	15,979	-0,027	-0,015
-721,064	284,908	-0,027	0,036
-720,050	760,447	-0,029	-0,058
-719,035	278,199	0,089	0,117
-718,021	309,825	-0,014	0,020
-717,006	800,000	0,052	-0,114
-715,991	225,130	-0,044	-0,052
-714,977	94,256	0,027	-0,023
-713,962	-36,552	-0,068	0,027
-712,948	800,000	-0,050	0,150
-711,933	-200,000	-0,011	-0,102
-710,918	-69,607	0,064	0,018
-709,904	-44,673	-0,066	-0,024
-708,889	242,006	-0,019	0,023
-707,875	-98,818	-0,161	-0,030
-706,860	285,616	-0,062	0,082
-705,845	-60,276	-0,074	-0,023
-704,831	-13,127	0,051	-0,024
-703,816	-200,000	-0,005	-0,044
-702,802	20,738	-0,108	0,064
-701,787	173,454	-0,047	0,050
-700,772	-70,781	-0,156	-0,043
-699,758	800,000	-0,016	0,044
-698,743	-200,000	-0,002	0,049
-697,729	276,295	0,055	0,073
-696,714	249,940	-0,052	0,065
-695,699	-200,000	0,008	0,072
-694,685	448,041	-0,041	-0,066
-693,670	-100,958	-0,102	0,018
-692,656	65,857	0,104	-0,077
-691,641	126,022	-0,166	-0,154
-690,627	264,184	-0,054	-0,070
-689,612	39,532	-0,070	0,046
-688,597	-11,996	0,126	0,060
-687,583	346,200	-0,013	0,019
-686,568	-112,389	-0,220	-0,032
-685,554	-200,000	0,039	-0,239
-684,539	-94,984	0,054	-0,011
-683,524	334,220	0,006	0,009
-682,510	800,000	0,030	0,083
-681,495	-68,208	-0,087	0,025
-680,481	-200,000	0,014	-0,094
-679,466	800,000	0,010	-0,025
-678,451	451,787	-0,028	0,046
-677,437	195,936	-0,063	-0,071
-676,422	17,308	0,008	0,004
-675,408	-130,283	0,038	0,004
-674,393	435,540	-0,028	0,044
-673,378	-200,000	0,010	-0,109
-672,364	496,942	0,073	-0,123
-671,349	-49,732	0,027	-0,009
-670,335	-62,995	-0,120	-0,036
-669,320	-63,149	-0,091	0,027
-668,305	-92,547	0,070	-0,014
-667,291	335,027	-0,052	-0,074
-666,276	800,000	-0,038	-0,099
-665,262	-64,580	-0,050	0,015
-664,247	-200,000	0,023	-0,134
-663,232	388,696	0,057	-0,087
-662,218	181,402	-0,157	0,170
-661,203	413,182	-0,036	-0,056
-660,189	-200,000	-0,015	-0,126
-659,174	800,000	0,027	0,085
-658,159	10,079	0,097	0,054
-657,145	800,000	0,042	-0,088
-656,130	-103,860	0,048	-0,008
-655,116	800,000	-0,038	0,091
-654,101	-137,637	0,200	-0,016
-653,086	-200,000	-0,009	-0,068
-652,072	-200,000	-0,007	0,046
-651,057	800,000	-0,022	-0,048
-650,043	-93,287	-0,089	0,018
-649,028	362,780	-0,045	0,067
-648,014	-89,755	-0,071	0,015
-646,999	-200,000	0,023	0,085
-645,984	141,271	0,078	-0,076
-644,970	79,329	-0,072	-0,057
-643,955	-50,185	-0,094	-0,032
-642,941	12,554	-0,037	-0,021
-641,926	152,035	0,034	0,034
-640,911	-200,000	0,005	-0,016
-639,897	-62,801	-0,019	-0,006
-638,882	431,802	-0,021	0,034
-637,868	-169,993	0,059	-0,002
-636,853	-162,682	-0,132	-0,005
-635,838	-36,379	-0,040	-0,016
-634,824	547,724	0,038	0,067
-633,809	249,558	0,058	0,073
-632,795	70,661	-0,012	0,009
-631,780	100,042	0,051	0,043
-630,765	75,765	-0,024	-0,019
-629,751	280,318	-0,078	0,103
-628,736	-23,939	-0,027	-0,012
-627,722	-200,000	-0,011	-0,077
-626,707	-106,899	-0,122	-0,020
-625,692	9,151	0,046	0,025
-624,678	315,751	-0,029	-0,041
-623,663	-146,775	0,055	-0,003
-622,649	-38,896	-0,090	-0,035
-621,634	-89,249	0,141	-0,030
-620,619	512,053	0,074	-0,127
-619,605	779,391	-0,049	0,099
-618,590	642,525	-0,010	-0,019
-617,576	3,231	-0,091	-0,048
-616,561	140,141	0,028	0,027
-615,546	-118,903	-0,074	0,009
-614,532	-113,940	0,065	-0,009
-613,517	121,169	-0,074	-0,067
-612,503	218,859	-0,092	-0,108
-611,488	-54,202	-0,089	-0,029
-610,474	400,640	-0,062	0,095
-609,459	-63,234	0,130	0,039
-608,444	800,000	0,015	-0,033
-607,430	-36,755	-0,102	0,040
-606,415	62,167	0,160	-0,117
-605,401	-200,000	0,005	-0,029
-604,386	136,707	0,045	-0,043
-603,371	-1,051	-0,121	-0,063
-602,357	340,480	-0,060	-0,086
-601,342	-165,022	-0,101	0,003
-600,328	-50,034	-0,035	-0,012
-599,313	210,432	-0,083	0,096
-598,298	-200,000	-0,031	-0,166
-597,284	-31,080	-0,187	0,077
-596,269	-200,000	-0,009	0,034
-595,255	15,291	-0,100	-0,057
-594,240	-200,000	0,022	-0,087
-593,225	122,577	0,070	0,064
-592,211	-63,775	-0,157	-0,047
-591,196	800,000	0,063	0,145
-590,182	-153,390	0,061	-0,003
-589,167	-106,118	0,092	-0,015
-588,152	93,784	-0,110	0,091
-587,138	29,204	-0,184	-0,114
-586,123	-200,000	-0,019	-0,116
-585,109	-7,646	-0,069	-0,034
-584,094	22,625	-0,049	-0,029
-583,079	-137,517	0,209	-0,017
-582,065	1,210	-0,073	0,038
-581,050	-200,000	0,004	-0,017
-580,036	-200,000	-0,019	0,080
-579,021	-172,348	0,043	-0,001
-578,006	-133,630	-0,125	-0,011
-576,992	-200,000	0,003	0,144
-575,977	800,000	-0,022	-0,057
-574,963	202,988	0,087	0,099
-573,948	128,162	0,086	0,080
-572,934	-200,000	0,015	-0,055
-571,919	-200,000	-0,022	-0,184
-570,904	-2,897	-0,126	-0,064
-569,890	24,809	0,058	-0,035
-568,875	275,469	0,040	0,052
-567,861	38,604	0,059	0,039
-566,846	-93,299	-0,008	-0,002
-565,831	-200,000	0,014	-0,052
-564,817	-62,049	-0,152	0,046
-563,802	334,848	0,041	-0,059
-562,788	534,596	-0,031	-0,054
-561,773	-200,000	0,000	0,085
-560,758	26,714	-0,044	0,027
-559,744	106,140	0,072	-0,062
-558,729	-121,908	0,042	-0,005
-557,715	-200,000	-0,010	-0,072
-556,700	13,525	-0,071	0,040
-555,685	-65,698	0,145	-0,042
-554,671	-19,717	-0,090	0,041
-553,656	-83,115	0,085	0,020
-552,642	-200,000	-0,016	0,057
-551,627	36,687	0,193	-0,125
-550,612	-200,000	-0,025	0,090
-549,598	37,716	-0,074	-0,048
-548,583	503,906	-0,073	-0,124
-547,569	-63,842	0,039	-0,011
-546,554	-200,000	-0,010	-0,104
-545,539	86,964	0,082	-0,066
-544,525	31,690	0,082	-0,052
-543,510	800,000	-0,045	-0,107
-542,496	800,000	-0,039	-0,088
-541,481	271,970	-0,094	-0,121
-540,466	29,390	0,125	0,078
-539,452	800,000	0,044	-0,099
-538,437	174,090	0,092	0,097
-537,423	-34,997	0,009	-0,003
-536,408	-200,000	-0,008	-0,025
-535,393	419,765	-0,085	0,134
-534,379	723,956	-0,015	0,029
-533,364	118,482	0,046	-0,042
-532,350	177,095	0,108	-0,115
-531,335	210,917	-0,106	0,122
-530,321	-5,575	0,048	0,024
-529,306	-200,000	0,022	-0,104
-528,291	284,448	-0,033	0,044
-527,277	800,000	-0,018	-0,050
-526,262	147,057	0,023	0,022
-525,248	-14,089	0,048	-0,022
-524,233	44,529	0,174	0,117
-523,218	-127,480	-0,074	-0,008
-522,204	-88,549	-0,119	-0,026
-521,189	-200,000	-0,004	0,082
-520,175	83,496	-0,202	-0,161
-519,160	55,076	0,093	-0,065
-518,145	-128,081	0,100	-0,010
-517,131	323,856	-0,072	0,100
-516,116	-175,382	0,171	0,003
-515,102	800,000	-0,040	-0,102
-514,087	-103,073	-0,145	0,025
-513,072	662,728	-0,037	-0,071
-512,058	-200,000	0,032	0,113
-511,043	127,028	0,060	-0,055
-510,029	800,000	-0,036	-0,086
-509,014	-62,498	0,206	0,062
-507,999	52,643	-0,024	-0,017
-506,985	120,378	0,050	0,045
-505,970	800,000	-0,048	-0,142
-504,956	428,278	-0,081	-0,128
-503,941	-108,199	-0,091	-0,014
-502,926	800,000	-0,012	-0,032
-501,912	133,297	-0,024	0,023
-500,897	800,000	0,024	-0,049
-499,883	-200,000	-0,012	-0,061
-498,868	86,469	-0,090	-0,073
-497,853	146,215	-0,084	0,082
-496,839	121,865	-0,065	0,059
-495,824	-200,000	0,017	0,072
-494,810	-101,379	-0,068	0,012
-493,795	61,952	-0,040	0,029
-492,781	157,326	0,101	0,102
-491,766	171,673	-0,063	-0,066
-490,751	-200,000	0,003	-0,151
-489,737	196,938	0,045	-0,050
-488,722	-145,961	0,097	-0,006
-487,708	-200,000	0,008	0,070
-486,693	175,010	0,099	0,105
-485,678	411,729	-0,005	-0,008
-484,664	-120,632	-0,107	0,013
-483,649	-76,757	-0,064	0,016
-482,635	-54,621	0,038	0,013
-481,620	646,201	0,075	0,141
-480,605	297,952	-0,045	0,061
-479,591	314,202	-0,052	0,072
-478,576	-200,000	0,010	0,034
-477,562	18,950	0,023	-0,013
-476,547	-200,000	0,015	0,050
-475,532	28,125	-0,140	-0,086
-474,518	-56,535	0,104	0,033
-473,503	133,922	-0,030	0,029
-472,489	-118,738	0,023	-0,003
-471,474	-55,549	0,018	-0,006
-470,459	800,000	0,018	-0,043
-469,445	109,256	-0,055	0,048
-468,430	-136,975	-0,084	0,007
-467,416	-200,000	0,019	-0,077
-466,401	343,571	0,066	0,095
-465,386	135,754	0,082	-0,078
-464,372	42,004	-0,181	0,120
-463,357	455,408	-0,036	-0,058
-462,343	66,175	0,061	-0,045
-461,328	-200,000	0,004	0,019
-460,313	-146,565	-0,045	0,003
-459,299	-200,000	0,039	0,176
-458,284	225,718	0,103	0,122
-457,270	-119,093	0,023	-0,003
-456,255	117,868	-0,078	-0,070
-455,241	-191,065	-0,088	0,001
-454,226	363,545	0,069	-0,102
-453,211	-200,000	0,000	0,097
-452,197	106,095	0,094	0,082
-451,182	49,807	0,072	-0,050
-450,168	691,976	0,052	-0,101
-449,153	221,889	0,059	0,069
-448,138	-200,000	0,009	0,046
-447,124	30,733	0,040	0,025
-446,109	260,488	0,036	-0,046
-445,095	165,831	0,040	-0,041
-444,080	282,531	0,027	0,036
-443,065	-71,124	-0,058	0,016
-442,051	319,654	-0,078	-0,108
-441,036	576,043	0,051	-0,092
-440,022	-62,495	-0,108	0,033
-439,007	6,591	0,050	0,027
-437,992	-43,733	-0,080	0,029
-436,978	81,863	0,087	0,069
-435,963	253,576	-0,056	0,069
-434,949	340,113	-0,013	0,019
-433,934	-164,791	-0,100	0,003
-432,919	195,581	0,053	-0,058
-431,905	-114,811	-0,091	-0,013
-430,890	-75,152	-0,060	-0,016
-429,876	196,668	0,100	-0,111
-428,861	323,963	-0,018	-0,025
-427,846	403,790	-0,046	-0,071
-426,832	-22,410	0,068	-0,030
-425,817	-112,718	-0,094	-0,014
-424,803	624,460	0,073	-0,134
-423,788	120,058	0,120	0,109
-422,773	52,511	-0,045	0,031
-421,759	-83,476	0,066	-0,015
-420,744	108,618	0,166	0,144
-419,730	-180,284	-0,030	-0,000
-418,715	-200,000	0,008	-0,032
-417,701	-200,000	0,031	-0,114
-416,686	800,000	0,013	0,028
-415,671	800,000	-0,034	-0,068
-414,657	-8,838	0,082	-0,040
-413,642	-200,000	-0,013	0,161
-412,628	71,801	-0,065	-0,049
-411,613	176,921	-0,040	0,042
-410,598	-26,581	-0,009	-0,004
-409,584	526,466	-0,018	-0,032
-408,569	-200,000	0,002	0,085
-407,555	-40,245	0,088	0,033
-406,540	-34,590	0,112	0,044
-405,525	800,000	-0,039	-0,086
-404,511	170,624	0,085	0,089
-403,496	572,150	0,020	-0,035
-402,482	-34,221	0,064	-0,026
-401,467	-82,251	0,079	0,018
-400,452	-200,000	0,001	-0,104
-399,438	800,000	-0,033	0,080
-398,423	199,247	-0,045	-0,050
-397,409	-200,000	-0,019	0,125
-396,394	800,000	0,002	0,006
-395,379	131,492	-0,032	0,029
-394,365	513,653	0,004	-0,007
-393,350	164,186	0,081	0,083
-392,336	43,004	0,101	0,067
-391,321	-200,000	-0,012	-0,129
-390,306	221,140	0,016	-0,019
-389,292	-95,736	-0,172	0,033
-388,277	800,000	0,035	-0,100
-387,263	32,068	0,129	0,081
-386,248	800,000	0,029	0,074
-385,233	268,176	-0,038	0,048
-384,219	-141,860	0,059	0,004
-383,204	-50,516	-0,061	0,021
-382,190	-102,673	-0,147	0,025
-381,175	-200,000	-0,020	-0,073
-380,160	753,855	-0,008	-0,017
-379,146	23,408	0,054	0,032
-378,131	-200,000	-0,045	0,209
-377,117	-145,244	-0,145	0,009
-376,102	28,485	-0,061	-0,037
-375,088	-158,919	-0,120	-0,005
-374,073	-60,875	0,020	-0,006
-373,058	55,808	-0,066	0,046
-372,044	-45,998	0,065	0,023
-371,029	757,474	0,099	0,196
-370,015	347,401	0,031	0,044
-369,000	165,837	0,037	0,038
-367,985	-200,000	0,016	-0,082
-366,971	736,630	0,051	-0,100
-365,956	-75,971	0,080	-0,020
-364,942	-76,440	0,040	0,010
-363,927	-21,289	-0,019	0,008
-362,912	-46,027	0,110	0,039
-361,898	57,272	-0,047	-0,034
-360,883	-178,483	-0,018	0,000
-359,869	800,000	0,048	-0,150
-358,854	-200,000	0,002	-0,057
-357,839	-29,153	0,147	-0,061
-356,825	-80,915	-0,159	-0,038
-355,810	800,000	0,068	0,150
-354,796	800,000	-0,018	0,048
-353,781	-200,000	0,027	-0,112
-352,766	-200,000	-0,008	-0,057
-351,752	-62,921	-0,098	-0,029
-350,737	-157,068	0,129	0,006
-349,723	-133,520	-0,040	0,004
-348,708	-144,843	-0,130	0,009
-347,693	-200,000	-0,020	0,078
-346,679	579,359	0,048	-0,086
-345,664	-113,087	0,080	-0,011
-344,650	800,000	0,035	0,070
-343,635	800,000	-0,022	0,068
-342,620	-77,793	0,108	0,027
-341,606	636,612	0,092	0,169
-340,591	384,590	0,002	-0,003
-339,577	800,000	-0,079	-0,175
-338,562	41,420	-0,038	-0,025
-337,548	-200,000	0,012	-0,068
-336,533	275,575	0,039	-0,051
-335,518	800,000	0,051	0,129
-334,504	-41,818	0,062	-0,023
-333,489	296,776	0,051	-0,068
-332,475	-42,845	0,095	0,035
-331,460	-200,000	-0,014	0,053
-330,445	-103,668	0,065	-0,011
-329,431	-200,000	-0,016	-0,113
-328,416	-200,000	-0,002	0,022
-327,402	219,097	0,078	0,091
-326,387	-160,248	-0,185	0,007
-325,372	-68,252	-0,087	-0,024
-324,358	-68,800	-0,107	0,030
-323,343	800,000	-0,046	-0,142
-322,329	-117,276	-0,183	0,024
-321,314	-54,102	0,143	-0,047
-320,299	-200,000	-0,004	-0,110
-319,285	195,656	-0,090	-0,100
-318,270	62,558	-0,060	-0,043
-317,256	478,204	-0,062	0,103
-316,241	800,000	0,065	-0,130
-315,226	-170,357	0,048	0,001
-314,212	75,299	-0,036	-0,027
-313,197	800,000	-0,037	0,093
-312,183	-57,489	0,095	0,030
-311,168	-59,280	-0,058	-0,018
-310,153	-39,539	-0,089	0,034
-309,139	12,521	-0,035	0,020
-308,124	32,115	0,070	0,043
-307,110	292,025	0,042	0,056
-306,095	310,951	0,074	-0,100
-305,080	-147,370	0,164	-0,010
-304,066	-200,000	-0,015	-0,067
-303,051	-106,450	-0,100	-0,016
-302,037	174,380	0,037	0,039
-301,022	-200,000	0,008	0,037
-300,008	-200,000	0,010	0,064
-298,993	46,502	0,018	0,012
-297,978	668,399	0,050	0,093
-296,964	112,825	-0,051	-0,044
-295,949	750,376	-0,037	-0,072
-294,935	800,000	0,037	-0,086
-293,920	128,966	0,033	-0,030
-292,905	-122,357	0,090	-0,010
-291,891	-77,138	0,107	-0,027
-290,876	451,156	0,050	-0,080
-289,862	192,393	-0,022	-0,024
-288,847	161,393	-0,012	0,012
-287,832	-8,451	-0,091	-0,044
-286,818	199,905	0,031	-0,035
-285,803	-69,084	-0,068	0,019
-284,789	116,653	0,100	0,089
-283,774	121,305	0,141	0,127
-282,759	800,000	-0,035	-0,080
-281,745	221,463	0,061	-0,071
-280,730	-105,229	-0,087	-0,014
-279,716	-200,000	0,045	0,157
-278,701	239,709	-0,038	0,046
-277,686	133,454	0,110	0,103
-276,672	-62,076	0,123	0,037
-275,657	343,310	0,010	0,014
-274,643	-121,851	-0,079	-0,009
-273,628	187,860	0,058	-0,063
-272,613	-27,730	-0,197	-0,082
-271,599	251,733	0,027	-0,033
-270,584	-10,163	0,026	0,013
-269,570	8,498	0,089	0,048
-268,555	160,079	-0,078	-0,079
-267,540	465,485	0,052	0,085
-266,526	-200,000	0,001	0,057
-265,511	67,401	0,023	-0,017
-264,497	-40,309	0,077	0,029
-263,482	-200,000	0,021	0,099
-262,467	20,611	0,019	0,011
-261,453	800,000	0,016	0,039
-260,438	217,317	0,099	-0,115
-259,424	-200,000	0,007	0,036
-258,409	-109,236	0,092	-0,014
-257,395	800,000	-0,037	-0,107
-256,380	-200,000	0,025	0,099
-255,365	-200,000	0,038	0,135
-254,351	81,391	-0,070	0,055
-253,336	420,736	-0,028	-0,043
-252,322	-200,000	-0,031	-0,174
-251,307	-38,450	-0,029	0,011
-250,292	-30,794	0,016	0,006
-249,278	208,970	0,017	-0,019
-248,263	612,311	-0,031	-0,057
-247,249	363,592	0,047	0,069
-246,234	800,000	0,051	0,111
-245,219	-7,829	-0,041	-0,020
-244,205	186,949	-0,081	0,087
-243,190	-200,000	0,022	0,076
-242,176	-200,000	0,030	0,108
-241,161	34,337	-0,130	0,082
-240,146	800,000	0,013	0,034
-239,132	89,654	0,106	-0,085
-238,117	283,279	-0,066	-0,086
-237,103	-70,853	-0,102	0,028
-236,088	800,000	-0,029	0,058
-235,073	10,196	0,052	-0,029
-234,059	-200,000	-0,011	0,052
-233,044	5,877	0,061	0,033
-232,030	74,532	0,079	-0,060
-231,015	132,600	-0,093	-0,087
-230,000	800,000	-0,005	-0,012
-228,986	213,122	-0,008	0,009
-227,971	609,321	0,082	-0,149
-226,957	-200,000	-0,022	0,128
-225,942	-41,586	0,159	0,059
-224,927	2,232	0,068	0,035
-223,913	72,801	-0,150	-0,113
-222,898	-200,000	0,012	-0,061
-221,884	-163,657	-0,081	0,003
-220,869	128,393	-0,026	0,024
-219,855	-200,000	0,002	0,130
-218,840	-130,482	0,119	0,011
-217,825	-104,238	0,136	0,023
-216,811	349,956	-0,070	-0,100
-215,796	293,130	0,080	-0,105
-214,782	-200,000	-0,007	-0,092
-213,767	-200,000	0,003	-0,085
-212,752	-200,000	0,006	-0,121
-211,738	800,000	-0,009	-0,027
-210,723	190,453	0,055	0,060
-209,709	136,155	-0,164	-0,154
-208,694	-200,000	0,015	0,063
-207,679	-200,000	-0,006	0,135
-206,665	-80,352	-0,022	0,005
-205,650	694,592	0,075	0,142
-204,636	246,067	0,035	0,043
-203,621	-200,000	-0,025	0,198
-202,606	-95,842	0,103	0,020
-201,592	-81,897	-0,134	-0,031
-200,577	800,000	0,030	0,069
-199,563	-200,000	-0,009	-0,064
-198,548	-114,260	-0,046	-0,006
-197,533	-40,462	-0,034	0,013
-196,519	17,912	-0,104	0,060
-195,504	-200,000	-0,001	-0,033
-194,490	-125,432	-0,163	0,018
-193,475	213,637	-0,041	-0,047
-192,460	-30,447	0,093	-0,038
-191,446	126,137	0,019	-0,017
-190,431	800,000	0,062	0,174
-189,417	178,417	-0,029	-0,030
-188,402	-73,849	0,014	0,004
-187,387	-44,678	-0,091	-0,033
-186,373	152,393	0,038	0,038
-185,358	171,651	-0,097	-0,100
-184,344	-113,029	0,114	0,016
-183,329	800,000	-0,028	0,069
-182,315	-200,000	0,005	-0,041
-181,300	-112,121	-0,104	-0,015
-180,285	4,995	-0,048	0,025
-179,271	-116,550	0,101	0,013
-178,256	93,898	0,029	-0,024
-177,242	-200,000	0,021	0,085
-176,227	800,000	-0,028	0,086
-175,212	-92,513	0,140	0,028
-174,198	526,236	-0,057	0,097
-173,183	537,607	0,035	0,060
-172,169	800,000	-0,032	-0,065
-171,154	257,586	0,093	0,116
-170,139	-200,000	0,007	-0,041
-169,125	161,822	0,029	-0,029
-168,110	-200,000	-0,152	-0,000
-167,096	-200,000	-0,007	-0,186
-166,081	-200,000	0,029	0,108
-165,066	-51,035	-0,032	-0,011
-164,052	-1,947	-0,042	0,021
-163,037	-40,880	0,116	-0,043
-162,023	-200,000	0,004	0,065
-161,008	-200,000	-0,012	0,045
-159,993	-103,234	-0,119	0,020
-158,979	800,000	-0,088	-0,201
-157,964	148,871	-0,025	0,025
-156,950	-200,000	-0,021	0,097
-155,935	-6,426	0,134	0,065
-154,920	193,219	-0,048	-0,053
-153,906	-200,000	0,025	0,124
-152,891	-42,190	-0,047	-0,017
-151,877	800,000	-0,054	-0,130
-150,862	-200,000	0,025	-0,101
-149,847	-200,000	0,034	-0,126
-148,833	-200,000	0,003	-0,087
-147,818	-200,000	0,006	0,056
-146,804	800,000	0,045	-0,090
-145,789	-49,285	0,061	-0,021
-144,775	-79,796	0,032	0,008
-143,760	56,025	-0,049	-0,034
-142,745	800,000	-0,062	-0,186
-141,731	39,396	0,113	0,073
-140,716	8,385	-0,073	0,039
-139,702	119,023	0,048	-0,043
-138,687	800,000	-0,044	0,131
-137,672	-200,000	0,023	-0,113
-136,658	319,232	-0,029	-0,040
-135,643	-29,552	-0,066	0,027
-134,629	157,584	0,088	0,088
-133,614	11,809	0,105	0,058
-132,599	-200,000	-0,004	-0,038
-131,585	139,585	-0,070	0,067
-130,570	451,086	0,025	-0,040
-129,556	-137,114	-0,088	0,007
-128,541	-200,000	0,017	-0,067
-127,526	-200,000	-0,000	-0,045
-126,512	511,766	0,019	0,032
-125,497	-80,414	0,147	0,035
-124,483	4,003	0,028	0,015
-123,468	-51,022	-0,027	-0,009
-122,453	44,057	0,080	0,053
-121,439	800,000	-0,018	-0,051
-120,424	800,000	0,015	-0,040
-119,410	402,327	-0,019	-0,029
