DTS Sentinel unit serial number:	SN410029Multiplexer serial number:	ORYXHardware model number:	OX2-SRSoftware version number:	ORYX F/W v4,00 Oryx Data Collector v3.7.2.0data status	okinstallation	B5 Nyhavnadifferential loss correction	single-endedforward channel	channel 2reverse channel	N/Adate	2023/12/14time	14:37:13forward acquisition time	300,00reverse acquisition time	0,00gamma	499,1914k internal	0,3157k external	0,3157temperature offset calibration	1,0000default loss term (dB/km)	0,3820temperature slope calibration	1,0000multiplexer offset coefficient	1,0000multiplexer slope coefficient	1,0000fibre end	0,00T internal ref (°C)	8,00T ext. ref 1 (°C)	-8,09T ext. ref 2 (°C)	-8,15length (m)	temperature (°C)	Stokes	anti-Stokes-744,400	-55,122	0,122	0,040
-743,385	-159,894	-0,321	-0,013
-742,371	800,000	0,070	0,162
-741,356	-136,634	-0,340	0,029
-740,342	-85,347	0,146	0,033
-739,327	-96,844	-0,407	-0,078
-738,312	-40,894	0,205	0,078
-737,298	31,436	-0,379	-0,239
-736,283	-140,786	0,203	0,015
-735,269	-149,524	-0,408	-0,023
-734,254	11,431	0,211	0,119
-733,239	-0,778	-0,586	-0,305
-732,225	41,466	0,166	0,111
-731,210	578,961	0,031	0,057
-730,196	-200,000	-0,015	-0,049
-729,181	800,000	0,004	0,009
-728,167	475,055	-0,060	-0,100
-727,152	561,411	0,024	0,043
-726,137	-52,169	-0,063	-0,022
-725,123	-76,369	-0,122	-0,032
-724,108	179,116	-0,053	-0,057
-723,094	-200,000	-0,030	-0,144
-722,079	-28,552	-0,147	-0,062
-721,064	231,867	-0,098	-0,119
-720,050	672,276	0,023	-0,045
-719,035	-200,000	-0,003	0,041
-718,021	-88,613	0,149	0,032
-717,006	-120,515	-0,096	0,012
-715,991	-58,439	-0,027	-0,009
-714,977	-167,786	-0,080	0,002
-713,962	9,161	0,018	0,010
-712,948	-142,873	-0,149	0,010
-711,933	37,209	0,091	0,059
-710,918	775,324	-0,041	0,083
-709,904	-60,484	-0,127	0,039
-708,889	-34,131	0,116	-0,047
-707,875	-5,651	-0,021	-0,011
-706,860	37,235	0,092	0,060
-705,845	-1,521	0,044	-0,023
-704,831	375,967	0,104	0,157
-703,816	196,554	-0,069	-0,078
-702,802	210,741	0,023	-0,027
-701,787	154,410	-0,111	-0,112
-700,772	-90,618	0,041	0,009
-699,758	-60,781	0,083	-0,026
-698,743	-102,732	-0,084	0,015
-697,729	197,947	0,055	0,062
-696,714	-200,000	0,019	-0,080
-695,699	11,548	-0,046	0,026
-694,685	147,143	-0,050	-0,049
-693,670	800,000	-0,034	-0,073
-692,656	-5,463	-0,091	-0,046
-691,641	-200,000	0,008	0,212
-690,627	-200,000	0,007	0,121
-689,612	49,678	0,069	0,048
-688,597	382,524	0,066	-0,099
-687,583	604,338	0,039	-0,071
-686,568	-87,874	-0,130	-0,029
-685,554	21,009	0,057	0,034
-684,539	173,650	-0,025	0,027
-683,524	211,045	0,067	-0,077
-682,510	258,772	-0,049	0,063
-681,495	-83,134	-0,098	0,023
-680,481	-173,233	-0,079	0,002
-679,466	-200,000	-0,023	0,132
-678,451	252,378	-0,057	-0,071
-677,437	767,298	0,077	-0,155
-676,422	313,912	-0,139	0,193
-675,408	-200,000	0,007	-0,026
-674,393	-123,935	-0,078	-0,009
-673,378	-6,062	0,094	0,047
-672,364	-91,521	0,093	-0,019
-671,349	276,715	-0,063	0,083
-670,335	800,000	0,025	-0,069
-669,320	-200,000	-0,016	-0,059
-668,305	-69,035	0,046	0,013
-667,291	-70,474	-0,078	0,022
-666,276	-9,931	0,080	0,039
-665,262	-200,000	0,010	-0,050
-664,247	152,832	-0,073	-0,074
-663,232	-200,000	-0,025	-0,128
-662,218	-200,000	0,048	0,178
-661,203	-200,000	-0,002	0,082
-660,189	-143,208	0,056	-0,004
-659,174	-134,133	-0,038	0,003
-658,159	-43,330	-0,120	-0,044
-657,145	660,321	-0,036	0,069
-656,130	217,906	0,007	0,008
-655,116	-141,203	0,140	0,010
-654,101	-65,902	0,124	0,036
-653,086	618,540	0,043	0,080
-652,072	-48,961	-0,075	0,026
-651,057	12,260	-0,198	-0,112
-650,043	-200,000	0,009	-0,070
-649,028	-1,498	-0,055	0,028
-648,014	-200,000	-0,016	0,070
-646,999	-67,779	0,024	-0,007
-645,984	-200,000	0,013	0,081
-644,970	800,000	-0,037	0,097
-643,955	-79,086	0,034	-0,008
-642,941	-200,000	-0,006	-0,024
-641,926	-200,000	0,004	-0,064
-640,911	89,048	0,046	0,038
-639,897	-61,114	0,128	0,039
-638,882	-113,922	-0,103	-0,015
-637,868	-200,000	0,010	-0,072
-636,853	-200,000	0,002	-0,039
-635,838	-200,000	-0,029	-0,122
-634,824	740,157	-0,090	-0,179
-633,809	-200,000	-0,013	0,098
-632,795	166,040	-0,064	0,067
-631,780	92,574	0,049	-0,040
-630,765	56,397	-0,082	-0,058
-629,751	-195,510	0,083	0,000
-628,736	0,529	-0,038	-0,020
-627,722	-200,000	0,002	0,044
-626,707	-30,632	-0,073	-0,030
-625,692	-101,661	0,072	0,013
-624,678	70,160	-0,052	-0,039
-623,663	793,154	-0,032	-0,065
-622,649	-200,000	-0,011	-0,055
-621,634	203,687	0,053	-0,061
-620,619	-200,000	0,003	0,079
-619,605	758,937	0,039	-0,077
-618,590	-4,341	0,102	-0,051
-617,576	-86,524	-0,041	-0,009
-616,561	-1,247	-0,099	0,051
-615,546	448,639	-0,010	0,015
-614,532	-62,085	-0,052	0,016
-613,517	800,000	-0,031	0,094
-612,503	-200,000	0,001	0,021
-611,488	337,754	-0,037	0,053
-610,474	53,807	-0,061	-0,043
-609,459	-54,277	0,062	-0,021
-608,444	-100,372	-0,048	-0,009
-607,430	87,271	-0,035	0,028
-606,415	351,159	0,019	-0,028
-605,401	-200,000	0,003	-0,072
-604,386	-169,968	0,045	0,001
-603,371	267,093	0,056	-0,072
-602,357	800,000	-0,026	-0,082
-601,342	389,261	-0,088	-0,135
-600,328	60,113	-0,104	-0,075
-599,313	-40,009	-0,138	0,052
-598,298	285,587	0,062	0,082
-597,284	633,482	-0,057	-0,106
-596,269	-200,000	0,009	0,158
-595,255	800,000	-0,036	0,101
-594,240	-200,000	-0,014	-0,085
-593,225	-69,535	0,142	0,040
-592,211	-200,000	-0,023	-0,156
-591,196	158,914	0,100	-0,102
-590,182	-200,000	0,010	-0,046
-589,167	-200,000	-0,007	-0,080
-588,152	12,943	-0,034	-0,019
-587,138	-55,409	-0,029	0,009
-586,123	-200,000	-0,017	-0,098
-585,109	191,203	0,101	0,112
-584,094	-33,723	0,123	0,050
-583,079	-200,000	0,012	-0,092
-582,065	754,050	-0,060	0,120
-581,050	33,446	0,017	-0,011
-580,036	142,986	-0,048	-0,047
-579,021	-158,405	0,067	0,003
-578,006	-200,000	-0,001	-0,080
-576,992	-81,416	0,056	0,013
-575,977	607,680	0,050	0,092
-574,963	-138,881	0,102	0,008
-573,948	-200,000	0,001	0,157
-572,934	1,771	-0,145	0,076
-571,919	548,044	0,067	-0,118
-570,904	-37,012	-0,099	-0,039
-569,890	-200,000	0,008	0,066
-568,875	-200,000	0,017	0,062
-567,861	40,809	-0,156	-0,103
-566,846	800,000	0,071	0,167
-565,831	84,714	0,053	-0,043
-564,817	800,000	0,003	-0,007
-563,802	-200,000	0,031	-0,146
-562,788	632,559	-0,028	-0,052
-561,773	-89,256	0,087	-0,019
-560,758	148,865	0,068	0,067
-559,744	316,527	-0,018	0,025
-558,729	45,213	-0,053	-0,036
-557,715	-82,918	0,100	0,024
-556,700	-200,000	0,008	0,132
-555,685	-200,000	0,012	-0,159
-554,671	-108,197	-0,127	-0,020
-553,656	181,570	0,087	-0,093
-552,642	469,809	0,048	0,080
-551,627	-26,903	0,091	0,039
-550,612	-156,488	0,065	-0,003
-549,598	-200,000	0,026	0,120
-548,583	16,956	-0,071	-0,041
-547,569	-200,000	-0,005	-0,046
-546,554	147,162	0,124	0,123
-545,539	800,000	-0,061	0,181
-544,525	-161,078	-0,080	-0,003
-543,510	-7,861	-0,088	-0,043
-542,496	-88,535	-0,142	0,031
-541,481	33,209	-0,064	-0,040
-540,466	110,075	0,059	0,052
-539,452	800,000	-0,031	-0,091
-538,437	-131,492	0,259	-0,025
-537,423	-153,323	-0,126	-0,006
-536,408	44,601	-0,121	-0,081
-535,393	-200,000	0,019	0,073
-534,379	800,000	0,032	0,080
-533,364	102,078	-0,125	-0,107
-532,350	800,000	0,037	0,091
-531,335	800,000	0,027	0,062
-530,321	800,000	0,023	0,055
-529,306	266,907	0,053	-0,068
-528,291	198,015	-0,017	-0,019
-527,277	-200,000	0,001	0,004
-526,262	44,313	-0,049	0,033
-525,248	70,027	0,077	0,058
-524,233	122,334	-0,079	0,072
-523,218	-200,000	-0,001	0,036
-522,204	100,594	-0,045	-0,038
-521,189	800,000	0,024	0,070
-520,175	244,467	-0,050	-0,061
-519,160	-200,000	-0,002	-0,105
-518,145	-37,454	0,112	-0,043
-517,131	480,672	0,079	0,132
-516,116	-78,585	0,211	0,052
-515,102	64,546	-0,141	-0,104
-514,087	-98,904	-0,059	-0,011
-513,072	432,328	0,086	0,136
-512,058	-200,000	-0,030	-0,099
-511,043	64,338	0,088	-0,065
-510,029	103,406	0,131	0,112
-509,014	-200,000	-0,031	0,126
-507,999	118,224	0,085	-0,077
-506,985	215,288	-0,094	-0,110
-505,970	800,000	-0,028	-0,091
-504,956	-127,770	-0,035	-0,004
-503,941	371,569	-0,083	0,123
-502,926	31,432	0,107	-0,067
-501,912	-9,813	-0,064	0,031
-500,897	38,464	0,099	-0,064
-499,883	-99,260	-0,082	0,015
-498,868	-40,194	-0,200	-0,076
-497,853	578,574	-0,026	-0,047
-496,839	-200,000	-0,012	-0,089
-495,824	620,362	-0,086	0,158
-494,810	-200,000	0,010	-0,077
-493,795	90,948	0,028	-0,023
-492,781	-62,724	0,102	-0,031
-491,766	329,597	-0,010	-0,014
-490,751	-200,000	-0,010	-0,095
-489,737	-200,000	0,009	-0,132
-488,722	149,547	-0,072	0,071
-487,708	-200,000	-0,007	-0,139
-486,693	800,000	0,010	-0,028
-485,678	-200,000	-0,002	-0,171
-484,664	-200,000	0,013	-0,137
-483,649	-200,000	0,017	-0,112
-482,635	-200,000	-0,002	0,041
-481,620	-112,374	-0,168	-0,024
-480,605	74,328	0,080	0,061
-479,591	-92,258	-0,052	0,011
-478,576	88,062	0,016	-0,013
-477,562	-0,609	0,074	-0,038
-476,547	102,790	0,116	-0,099
-475,532	-200,000	0,008	0,100
-474,518	-36,443	0,051	-0,020
-473,503	558,584	0,064	0,113
-472,489	401,966	0,047	-0,072
-471,474	-38,174	-0,068	-0,026
-470,459	-81,592	0,051	0,012
-469,445	17,251	0,080	0,046
-468,430	-157,677	-0,155	-0,007
-467,416	-170,132	0,149	-0,004
-466,401	800,000	-0,056	0,120
-465,386	24,758	0,032	-0,019
-464,372	-200,000	0,013	0,050
-463,357	93,470	0,010	-0,008
-462,343	-200,000	0,019	-0,088
-461,328	727,746	0,061	-0,118
-460,313	-200,000	0,018	-0,161
-459,299	6,408	-0,117	-0,063
-458,284	-200,000	0,012	0,047
-457,270	-200,000	-0,006	0,153
-456,255	123,604	0,016	0,015
-455,241	-200,000	0,007	-0,028
-454,226	148,039	-0,008	-0,008
-453,211	-151,495	0,146	-0,008
-452,197	146,212	0,139	0,136
-451,182	60,191	0,129	0,093
-450,168	-17,715	-0,107	0,049
-449,153	45,988	-0,118	-0,079
-448,138	-200,000	0,007	-0,058
-447,124	800,000	0,030	0,092
-446,109	513,980	-0,031	-0,053
-445,095	230,026	-0,042	-0,051
-444,080	457,060	-0,017	-0,028
-443,065	-200,000	-0,025	0,167
-442,051	-200,000	-0,004	-0,053
-441,036	-127,377	0,059	0,006
-440,022	92,365	-0,131	-0,108
-439,007	187,694	0,116	-0,127
-437,992	-3,948	-0,040	0,020
-436,978	-200,000	0,058	0,231
-435,963	800,000	0,043	0,086
-434,949	553,889	0,080	0,141
-433,934	-144,893	-0,161	0,011
-432,919	206,605	0,041	0,047
-431,905	139,303	0,027	-0,026
-430,890	-33,921	-0,253	0,101
-429,876	219,307	-0,069	0,081
-428,861	-128,127	0,074	-0,008
-427,846	27,736	-0,193	-0,118
-426,832	-200,000	-0,006	-0,089
-425,817	-200,000	0,012	-0,052
-424,803	-47,420	-0,057	-0,020
-423,788	800,000	0,034	-0,085
-422,773	-80,481	0,159	-0,038
-421,759	-127,759	-0,154	-0,016
-420,744	-51,254	0,096	-0,032
-419,730	-77,292	-0,097	-0,024
-418,715	-95,735	-0,070	-0,013
-417,701	-174,366	0,107	-0,002
-416,686	-200,000	0,017	0,090
-415,671	-129,773	0,028	-0,003
-414,657	-61,246	0,086	-0,026
-413,642	-200,000	-0,001	-0,063
-412,628	800,000	-0,041	0,096
-411,613	-200,000	0,004	0,016
-410,598	-69,269	-0,080	0,022
-409,584	-19,565	0,162	-0,073
-408,569	33,876	-0,026	0,017
-407,555	800,000	0,053	-0,145
-406,540	134,141	0,072	0,068
-405,525	-66,977	-0,073	-0,021
-404,511	8,697	0,044	0,024
-403,496	-200,000	0,003	0,043
-402,482	-66,791	-0,040	-0,011
-401,467	-200,000	0,005	-0,033
-400,452	-200,000	0,032	0,139
-399,438	-23,054	-0,102	0,045
-398,423	-200,000	0,035	0,130
-397,409	800,000	0,069	0,186
-396,394	16,076	0,058	-0,033
-395,379	151,477	0,090	-0,089
-394,365	-73,553	0,059	0,015
-393,350	399,861	0,046	0,071
-392,336	-136,645	0,018	0,002
-391,321	-200,000	-0,009	0,030
-390,306	291,117	-0,037	-0,049
-389,292	800,000	-0,046	-0,149
-388,277	-200,000	-0,016	0,124
-387,263	20,662	0,021	0,012
-386,248	-200,000	0,008	0,092
-385,233	-117,713	-0,076	0,010
-384,219	800,000	-0,025	-0,077
-383,204	27,310	0,041	-0,025
-382,190	-200,000	0,008	-0,115
-381,175	800,000	0,047	0,096
-380,160	330,682	0,095	0,133
-379,146	40,897	-0,104	-0,068
-378,131	-1,758	0,033	-0,017
-377,117	129,624	-0,038	-0,036
-376,102	-200,000	-0,028	-0,169
-375,088	160,032	-0,053	-0,054
-374,073	-27,817	-0,095	0,040
-373,058	-28,528	0,042	-0,017
-372,044	-9,104	-0,039	0,019
-371,029	375,181	0,040	0,059
-370,015	157,340	-0,065	-0,065
-369,000	47,874	0,030	-0,020
-367,985	-200,000	-0,045	-0,178
-366,971	-75,779	0,032	-0,008
-365,956	800,000	0,026	-0,072
-364,942	-200,000	-0,008	0,115
-363,927	-33,417	-0,067	-0,027
-362,912	655,592	0,074	-0,140
-361,898	156,657	-0,047	-0,047
-360,883	534,095	-0,060	0,104
-359,869	503,906	0,044	-0,075
-358,854	590,310	-0,057	-0,102
-357,839	-31,633	0,105	-0,043
-356,825	510,770	-0,050	0,084
-355,810	21,163	-0,094	0,055
-354,796	-86,878	-0,061	-0,013
-353,781	-200,000	0,008	-0,035
-352,766	-101,764	0,110	0,019
-351,752	411,461	-0,068	0,105
-350,737	120,634	0,101	0,091
-349,723	301,203	-0,078	-0,105
-348,708	-43,971	-0,038	0,014
-347,693	800,000	0,017	0,048
-346,679	-56,824	-0,097	-0,031
-345,664	41,050	-0,150	-0,098
-344,650	351,032	-0,031	-0,044
-343,635	165,317	0,049	0,050
-342,620	800,000	0,043	0,105
-341,606	243,584	-0,035	0,042
-340,591	-38,027	0,058	0,022
-339,577	800,000	-0,055	0,146
-338,562	-85,655	-0,136	-0,030
-337,548	800,000	0,046	-0,130
-336,533	-200,000	-0,013	0,072
-335,518	48,477	-0,041	0,028
-334,504	-0,233	-0,034	-0,018
-333,489	-200,000	0,007	-0,113
-332,475	-40,820	-0,048	0,018
-331,460	44,245	-0,082	0,055
-330,445	-1,383	-0,112	0,057
-329,431	57,503	-0,046	-0,033
-328,416	-200,000	0,010	-0,059
-327,402	-40,466	-0,076	0,029
-326,387	293,049	0,038	0,051
-325,372	13,335	-0,187	-0,105
-324,358	48,648	0,119	-0,081
-323,343	-200,000	-0,015	-0,085
-322,329	800,000	0,040	0,098
-321,314	231,272	0,111	0,132
-320,299	465,852	-0,029	0,047
-319,285	-200,000	-0,031	-0,110
-318,270	-115,926	-0,120	0,016
-317,256	-73,349	-0,057	0,015
-316,241	-200,000	-0,026	-0,099
-315,226	442,998	-0,030	-0,048
-314,212	800,000	0,024	0,067
-313,197	-119,077	-0,095	0,012
-312,183	683,988	-0,049	0,094
-311,168	226,919	-0,067	-0,079
-310,153	196,320	-0,030	-0,033
-309,139	-36,161	0,026	0,010
-308,124	-200,000	0,007	-0,063
-307,110	-17,007	0,018	0,008
-306,095	218,296	0,072	0,083
-305,080	800,000	0,019	-0,059
-304,066	-179,925	-0,103	-0,002
-303,051	331,536	-0,034	0,048
-302,037	-144,410	0,054	-0,004
-301,022	-200,000	0,037	0,158
-300,008	-177,343	-0,021	-0,000
-298,993	-200,000	0,026	0,111
-297,978	-200,000	-0,016	0,132
-296,964	-200,000	0,011	0,047
-295,949	800,000	-0,022	-0,068
-294,935	-73,399	-0,079	0,021
-293,920	-200,000	-0,040	0,136
-292,905	800,000	-0,021	-0,045
-291,891	769,355	-0,034	-0,067
-290,876	-200,000	0,014	0,050
-289,862	-3,512	-0,087	0,044
-288,847	800,000	-0,019	-0,056
-287,832	-200,000	-0,001	-0,133
-286,818	25,428	-0,077	-0,046
-285,803	-200,000	-0,017	-0,063
-284,789	800,000	0,018	0,046
-283,774	-29,911	0,115	-0,047
-282,759	-200,000	0,007	-0,100
-281,745	-153,287	-0,217	0,011
-280,730	-200,000	-0,016	-0,249
-279,716	-158,814	-0,087	0,004
-278,701	-98,372	0,016	0,003
-277,686	800,000	0,036	0,075
-276,672	800,000	-0,048	0,121
-275,657	800,000	0,041	0,084
-274,643	430,030	-0,064	-0,101
-273,628	800,000	-0,043	-0,088
-272,613	-19,898	0,047	-0,021
-271,599	54,870	0,120	0,084
-270,584	800,000	0,072	0,165
-269,570	126,548	0,114	0,105
-268,555	800,000	-0,047	-0,124
-267,540	800,000	-0,035	0,094
-266,526	-200,000	-0,033	0,158
-265,511	-200,000	-0,009	0,033
-264,497	14,162	0,049	0,027
-263,482	413,106	0,069	0,107
-262,467	76,928	0,114	0,087
-261,453	-200,000	0,001	-0,071
-260,438	17,436	-0,082	-0,047
-259,424	203,226	0,023	-0,026
-258,409	800,000	-0,072	-0,148
-257,395	268,059	-0,080	0,102
-256,380	800,000	0,048	0,100
-255,365	139,311	0,053	-0,050
-254,351	68,835	0,064	-0,048
-253,336	800,000	0,041	0,115
-252,322	353,829	0,024	0,035
-251,307	409,280	0,075	-0,115
-250,292	800,000	0,049	0,118
-249,278	1,005	0,220	0,114
-248,263	-2,537	0,090	0,045
-247,249	128,786	0,074	0,068
-246,234	93,490	0,045	-0,037
-245,219	-200,000	0,019	-0,090
-244,205	94,090	-0,097	-0,079
-243,190	-200,000	0,010	0,082
-242,176	-200,000	0,009	0,137
-241,161	-1,835	0,145	-0,073
-240,146	134,377	0,092	-0,086
-239,132	-161,996	-0,086	-0,003
-238,117	33,624	0,081	-0,051
-237,103	92,342	-0,073	-0,060
-236,088	-27,835	-0,086	-0,036
-235,073	303,041	0,084	0,113
-234,059	-200,000	0,003	0,046
-233,044	800,000	-0,036	0,077
-232,030	494,037	-0,016	0,026
-231,015	-111,260	0,111	0,016
-230,000	-148,683	-0,065	-0,004
-228,986	-182,647	0,062	-0,001
-227,971	-200,000	-0,030	0,127
-226,957	-200,000	0,029	-0,139
-225,942	-200,000	0,013	-0,113
-224,927	191,755	0,045	-0,049
-223,913	500,642	0,008	-0,014
-222,898	325,704	0,043	0,060
-221,884	52,225	-0,077	0,053
-220,869	800,000	-0,070	0,193
-219,855	-53,065	-0,025	0,008
-218,840	439,124	0,063	0,100
-217,825	271,894	0,025	-0,032
-216,811	-61,105	0,051	-0,016
-215,796	100,006	0,041	-0,034
-214,782	96,679	0,080	0,066
-213,767	-25,387	-0,064	0,027
-212,752	-151,184	0,145	-0,008
-211,738	64,076	-0,041	0,029
-210,723	265,301	0,020	0,026
-209,709	-137,986	-0,037	0,003
-208,694	623,450	-0,053	-0,097
-207,679	-91,474	0,165	0,034
-206,665	800,000	0,055	0,150
-205,650	-200,000	0,014	0,112
-204,636	-200,000	-0,023	0,103
-203,621	75,146	-0,053	0,040
-202,606	22,887	-0,113	-0,067
-201,592	-200,000	-0,004	0,077
-200,577	32,209	0,087	-0,054
-199,563	-17,403	-0,088	0,040
-198,548	-25,852	0,030	-0,013
-197,533	51,821	-0,139	0,095
-196,519	-54,562	0,031	-0,010
-195,504	725,322	0,051	-0,099
-194,490	-0,521	0,081	-0,042
-193,475	26,846	0,008	-0,005
-192,460	-200,000	-0,024	0,147
-191,446	519,785	0,037	0,064
-190,431	-200,000	-0,010	0,044
-189,417	-30,435	0,128	0,052
-188,402	-200,000	-0,017	0,151
-187,387	-200,000	0,001	-0,060
-186,373	-108,048	0,020	-0,003
-185,358	800,000	0,043	-0,114
-184,344	800,000	0,025	0,070
-183,329	393,684	0,026	0,040
-182,315	112,824	-0,048	-0,042
-181,300	-200,000	0,005	-0,036
-180,285	-46,960	-0,073	-0,025
-179,271	800,000	-0,060	-0,172
-178,256	-81,959	0,035	0,008
-177,242	-102,939	0,056	0,010
-176,227	-200,000	-0,008	0,048
-175,212	-13,395	-0,061	-0,028
-174,198	-80,761	0,088	0,021
-173,183	-200,000	0,001	-0,100
-172,169	32,355	-0,093	-0,058
-171,154	-200,000	0,030	-0,139
-170,139	-95,461	0,043	0,008
-169,125	15,997	-0,049	-0,028
-168,110	543,191	-0,056	0,097
-167,096	-200,000	-0,021	-0,174
-166,081	-92,078	0,058	0,012
-165,066	800,000	0,022	0,052
-164,052	-99,433	0,025	0,004
-163,037	-67,227	0,059	-0,017
-162,023	471,490	0,044	0,071
-161,008	-99,463	-0,067	0,012
-159,993	-200,000	0,000	0,043
-158,979	-200,000	-0,007	-0,066
-157,964	155,691	0,054	-0,053
-156,950	-143,592	-0,050	-0,003
-155,935	-200,000	0,013	-0,080
-154,920	106,660	0,016	-0,013
-153,906	-135,734	0,086	-0,007
-152,891	124,676	-0,046	-0,041
-151,877	-150,965	-0,166	-0,009
-150,862	504,725	0,118	-0,197
-149,847	218,642	-0,097	0,112
-148,833	-11,368	0,077	-0,036
-147,818	-200,000	0,009	0,128
-146,804	360,829	0,103	0,148
-145,789	800,000	-0,008	0,024
-144,775	188,979	0,053	-0,057
-143,760	316,904	-0,041	0,056
-142,745	-200,000	0,019	-0,190
-141,731	-200,000	-0,019	0,149
-140,716	-52,322	0,086	-0,028
-139,702	-81,952	-0,083	0,019
-138,687	59,601	-0,015	-0,011
-137,672	-200,000	-0,026	-0,156
-136,658	800,000	0,029	-0,066
-135,643	-11,755	-0,201	-0,095
-134,629	409,618	-0,050	0,077
-133,614	737,909	-0,025	-0,048
-132,599	-82,047	-0,094	-0,022
-131,585	213,386	-0,101	0,116
-130,570	46,160	0,032	0,021
-129,556	-130,091	-0,214	0,021
-128,541	295,923	-0,064	-0,084
-127,526	28,915	0,110	-0,067
-126,512	800,000	-0,042	-0,101
-125,497	800,000	0,038	0,100
-124,483	-65,830	-0,111	0,032
-123,468	-200,000	-0,003	-0,050
-122,453	-159,392	0,057	-0,002
-121,439	-7,060	0,100	0,049
-120,424	106,500	-0,027	0,023
-119,410	-200,000	0,001	-0,046
