DTS Sentinel unit serial number:	SN410029Multiplexer serial number:	ORYXHardware model number:	OX2-SRSoftware version number:	ORYX F/W v4,00 Oryx Data Collector v3.7.2.0data status	okinstallation	B5 Nyhavnadifferential loss correction	single-endedforward channel	channel 2reverse channel	N/Adate	2023/12/13time	12:32:13forward acquisition time	300,00reverse acquisition time	0,00gamma	499,1914k internal	0,3161k external	0,3161temperature offset calibration	1,0000default loss term (dB/km)	0,3820temperature slope calibration	1,0000multiplexer offset coefficient	1,0000multiplexer slope coefficient	1,0000fibre end	0,00T internal ref (°C)	14,14T ext. ref 1 (°C)	-1,68T ext. ref 2 (°C)	-1,98length (m)	temperature (°C)	Stokes	anti-Stokes-744,400	13,798	-0,063	0,036
-743,385	-189,803	-0,211	0,002
-742,371	-88,295	0,233	-0,051
-741,356	-109,551	-0,237	0,036
-740,342	-200,000	0,001	0,094
-739,327	-166,417	-0,318	-0,010
-738,312	147,803	0,016	-0,016
-737,298	-139,441	-0,192	0,015
-736,283	70,217	0,104	0,079
-735,269	-156,504	-0,257	0,012
-734,254	65,327	0,086	0,064
-733,239	-169,741	-0,465	-0,012
-732,225	-200,000	0,086	0,341
-731,210	-135,976	-0,066	-0,006
-730,196	115,255	0,031	0,028
-729,181	386,198	0,027	-0,041
-728,167	8,782	-0,025	-0,014
-727,152	256,109	0,052	-0,066
-726,137	-131,351	-0,178	0,017
-725,123	-142,395	0,063	0,005
-724,108	-200,000	0,008	-0,094
-723,094	-67,279	-0,112	-0,032
-722,079	-54,213	-0,077	-0,026
-721,064	-200,000	-0,001	0,067
-720,050	-67,548	0,021	0,006
-719,035	541,813	0,018	-0,031
-718,021	-39,454	-0,107	0,041
-717,006	-200,000	0,005	-0,120
-715,991	-78,948	-0,033	-0,008
-714,977	357,127	-0,073	0,107
-713,962	-200,000	0,001	0,097
-712,948	382,093	0,034	-0,052
-711,933	-200,000	-0,019	0,102
-710,918	800,000	-0,072	0,155
-709,904	27,915	0,077	0,048
-708,889	-128,576	-0,061	0,006
-707,875	-200,000	-0,004	-0,095
-706,860	-0,547	0,047	0,024
-705,845	-54,140	0,077	-0,026
-704,831	162,420	-0,051	0,053
-703,816	-200,000	0,024	-0,080
-702,802	129,143	-0,078	-0,074
-701,787	800,000	-0,049	-0,142
-700,772	-200,000	-0,026	-0,104
-699,758	-36,684	-0,079	0,031
-698,743	-11,290	0,102	-0,049
-697,729	-64,144	0,114	0,034
-696,714	466,506	-0,071	0,117
-695,699	-200,000	0,023	-0,078
-694,685	50,329	-0,151	-0,105
-693,670	800,000	-0,068	-0,163
-692,656	124,103	-0,045	-0,041
-691,641	800,000	0,019	-0,058
-690,627	-172,246	0,145	0,003
-689,612	290,102	-0,045	-0,060
-688,597	394,945	-0,017	0,027
-687,583	-200,000	0,002	0,163
-686,568	-54,292	-0,117	0,039
-685,554	-200,000	-0,033	-0,110
-684,539	-116,280	-0,122	-0,016
-683,524	218,568	0,030	0,035
-682,510	379,969	-0,041	0,061
-681,495	56,526	0,090	-0,064
-680,481	-61,000	-0,108	-0,033
-679,466	-200,000	0,000	-0,073
-678,451	-200,000	-0,039	-0,127
-677,437	800,000	0,047	0,126
-676,422	-87,664	0,128	0,028
-675,408	2,731	-0,048	0,026
-674,393	334,215	-0,105	0,150
-673,378	-26,972	0,038	0,016
-672,364	-200,000	-0,020	-0,106
-671,349	-200,000	0,003	-0,060
-670,335	237,885	-0,085	-0,104
-669,320	-112,349	-0,064	0,009
-668,305	-108,476	-0,073	-0,011
-667,291	123,302	-0,094	-0,086
-666,276	-200,000	0,026	0,101
-665,262	307,142	-0,095	-0,130
-664,247	-200,000	0,019	0,196
-663,232	287,436	0,117	-0,156
-662,218	-45,060	-0,078	-0,028
-661,203	569,758	0,021	0,038
-660,189	70,986	0,053	-0,040
-659,174	3,288	-0,162	0,086
-658,159	152,241	-0,113	-0,114
-657,145	34,647	0,150	-0,096
-656,130	-200,000	0,007	0,077
-655,116	486,727	-0,037	-0,062
-654,101	-25,140	-0,094	0,041
-653,086	44,127	0,055	0,037
-652,072	-110,645	-0,101	-0,015
-651,057	113,466	-0,100	-0,089
-650,043	800,000	0,037	-0,080
-649,028	-124,918	0,060	0,007
-648,014	341,870	-0,104	-0,149
-646,999	78,130	-0,050	-0,039
-645,984	623,631	0,076	0,141
-644,970	800,000	0,014	-0,030
-643,955	-200,000	-0,001	-0,036
-642,941	250,151	-0,046	-0,057
-641,926	-200,000	0,009	-0,061
-640,911	800,000	0,018	0,039
-639,897	800,000	-0,026	0,063
-638,882	-67,421	0,042	-0,012
-637,868	39,226	0,102	0,067
-636,853	347,467	0,037	-0,054
-635,838	800,000	-0,041	-0,112
-634,824	63,954	-0,125	-0,092
-633,809	-200,000	0,004	0,045
-632,795	-32,347	-0,071	0,029
-631,780	55,795	-0,095	0,067
-630,765	800,000	0,035	0,090
-629,751	54,433	0,058	-0,041
-628,736	-200,000	0,011	-0,105
-627,722	162,692	-0,045	0,046
-626,707	-80,058	-0,116	-0,028
-625,692	-200,000	0,016	-0,089
-624,678	13,843	-0,057	0,032
-623,663	29,569	-0,051	-0,032
-622,649	52,851	-0,044	-0,030
-621,634	343,539	-0,044	0,064
-620,619	226,810	-0,098	0,117
-619,605	29,616	0,025	-0,015
-618,590	152,947	-0,035	-0,036
-617,576	17,756	0,047	-0,027
-616,561	-200,000	0,014	0,094
-615,546	800,000	-0,026	-0,070
-614,532	42,457	-0,133	0,089
-613,517	572,944	0,053	-0,095
-612,503	452,214	0,083	0,134
-611,488	-200,000	-0,002	0,101
-610,474	654,881	0,044	-0,084
-609,459	800,000	-0,028	-0,068
-608,444	199,681	-0,032	0,036
-607,430	-200,000	0,012	-0,085
-606,415	-200,000	0,008	0,031
-605,401	-39,353	0,060	0,023
-604,386	-200,000	-0,031	0,156
-603,371	109,658	-0,048	-0,042
-602,357	-14,692	-0,118	0,055
-601,342	-200,000	0,009	-0,099
-600,328	187,498	-0,095	0,104
-599,313	-134,032	0,116	0,010
-598,298	-200,000	-0,000	0,033
-597,284	371,996	-0,026	0,038
-596,269	-177,937	0,072	-0,001
-595,255	242,860	-0,012	-0,014
-594,240	-95,468	-0,121	0,024
-593,225	369,016	-0,056	-0,083
-592,211	800,000	-0,014	0,039
-591,196	31,342	-0,134	0,084
-590,182	47,073	-0,037	0,025
-589,167	-200,000	-0,001	0,005
-588,152	800,000	0,041	0,093
-587,138	132,692	0,078	-0,074
-586,123	800,000	-0,058	-0,125
-585,109	800,000	0,013	-0,029
-584,094	-63,165	-0,069	0,021
-583,079	-200,000	0,011	0,065
-582,065	800,000	0,034	-0,091
-581,050	-172,067	-0,056	0,001
-580,036	-200,000	-0,000	-0,125
-579,021	-82,843	-0,121	-0,028
-578,006	159,377	-0,051	-0,052
-576,992	-76,052	-0,061	0,016
-575,977	-174,129	0,277	0,006
-574,963	137,054	0,093	0,089
-573,948	229,019	0,058	-0,069
-572,934	207,250	0,072	-0,082
-571,919	288,964	-0,031	-0,042
-570,904	407,515	0,038	0,059
-569,890	-133,517	0,114	0,010
-568,875	-6,107	0,061	-0,030
-567,861	697,963	0,038	-0,074
-566,846	40,339	0,136	0,089
-565,831	-65,000	-0,074	0,022
-564,817	-200,000	0,007	-0,051
-563,802	-200,000	-0,063	-0,260
-562,788	-85,711	-0,142	0,032
-561,773	7,041	0,007	0,004
-560,758	1,363	-0,114	0,059
-559,744	0,522	-0,076	0,040
-558,729	175,532	-0,017	-0,018
-557,715	-200,000	-0,012	0,068
-556,700	36,711	-0,074	0,048
-555,685	-200,000	-0,004	-0,170
-554,671	-200,000	-0,024	-0,178
-553,656	-200,000	0,059	-0,224
-552,642	699,468	-0,032	0,062
-551,627	-74,503	-0,115	0,030
-550,612	-200,000	-0,027	0,090
-549,598	-81,410	-0,077	-0,018
-548,583	-116,389	-0,020	0,003
-547,569	204,087	0,046	0,052
-546,554	279,546	-0,024	0,031
-545,539	-200,000	-0,014	-0,081
-544,525	-13,383	-0,062	0,029
-543,510	-200,000	-0,010	-0,041
-542,496	-200,000	0,024	-0,206
-541,481	275,915	0,117	-0,152
-540,466	167,348	-0,057	-0,059
-539,452	-14,715	-0,097	-0,046
-538,437	-120,526	0,091	0,011
-537,423	-200,000	-0,015	-0,057
-536,408	-200,000	-0,007	0,123
-535,393	311,101	0,017	0,024
-534,379	100,381	-0,109	-0,093
-533,364	800,000	0,070	-0,146
-532,350	183,257	0,110	0,119
-531,335	-200,000	-0,013	0,093
-530,321	-200,000	0,000	0,109
-529,306	800,000	-0,051	-0,138
-528,291	800,000	0,040	-0,111
-527,277	79,083	-0,107	-0,084
-526,262	43,140	-0,086	0,057
-525,248	-200,000	-0,158	0,000
-524,233	-20,859	0,078	0,035
-523,218	69,206	-0,035	-0,027
-522,204	-196,803	0,117	-0,001
-521,189	710,084	-0,053	-0,104
-520,175	716,443	-0,051	-0,099
-519,160	266,137	-0,094	0,120
-518,145	-72,158	-0,017	0,005
-517,131	177,477	0,069	-0,073
-516,116	800,000	0,037	0,079
-515,102	506,365	-0,018	0,031
-514,087	39,745	0,002	0,002
-513,072	-58,816	-0,159	-0,050
-512,058	-8,734	0,011	0,005
-511,043	-181,495	-0,082	0,001
-510,029	246,873	0,075	-0,093
-509,014	-69,818	0,040	0,011
-507,999	-126,724	0,065	-0,007
-506,985	-17,552	-0,188	-0,086
-505,970	577,526	0,072	-0,128
-504,956	17,274	0,008	-0,005
-503,941	607,744	-0,054	-0,099
-502,926	-85,148	0,109	-0,025
-501,912	-200,000	-0,015	0,100
-500,897	-65,115	0,033	0,010
-499,883	144,846	-0,149	0,146
-498,868	-81,289	-0,048	-0,011
-497,853	227,868	-0,112	-0,133
-496,839	179,904	0,082	0,088
-495,824	113,713	-0,145	0,128
-494,810	-198,146	0,011	0,000
-493,795	417,931	0,042	-0,065
-492,781	-200,000	-0,030	0,113
-491,766	-200,000	0,007	-0,054
-490,751	613,220	-0,039	-0,071
-489,737	167,285	0,088	0,091
-488,722	96,871	0,039	-0,032
-487,708	800,000	-0,031	0,071
-486,693	112,957	0,056	-0,049
-485,678	-56,217	-0,103	-0,033
-484,664	-200,000	0,007	0,073
-483,649	183,382	-0,111	0,119
-482,635	-128,858	0,106	-0,011
-481,620	-40,004	0,044	-0,017
-480,605	330,924	0,071	0,101
-479,591	225,956	0,076	0,090
-478,576	7,882	-0,152	0,083
-477,562	800,000	0,096	-0,205
-476,547	41,214	0,048	0,031
-475,532	-23,490	0,060	0,026
-474,518	7,377	0,065	-0,035
-473,503	145,559	-0,050	0,048
-472,489	39,721	0,151	-0,099
-471,474	-200,000	0,002	-0,077
-470,459	-167,979	0,087	0,002
-469,445	800,000	0,027	0,059
-468,430	80,119	-0,075	-0,058
-467,416	-200,000	0,013	0,062
-466,401	800,000	-0,011	0,030
-465,386	-200,000	0,025	0,125
-464,372	-155,562	0,029	-0,001
-463,357	236,042	-0,104	0,126
-462,343	-46,768	0,022	-0,008
-461,328	-200,000	0,003	0,053
-460,313	-123,684	0,089	-0,010
-459,299	735,962	0,079	0,155
-458,284	84,410	0,048	0,038
-457,270	33,663	-0,024	-0,015
-456,255	485,001	-0,022	-0,037
-455,241	28,236	-0,066	-0,040
-454,226	800,000	-0,038	0,097
-453,211	448,946	0,033	-0,053
-452,197	291,140	-0,035	-0,046
-451,182	-166,775	0,051	0,002
-450,168	800,000	-0,045	0,127
-449,153	-85,505	0,117	0,026
-448,138	-93,042	-0,072	-0,014
-447,124	-200,000	0,016	-0,149
-446,109	76,181	-0,091	-0,070
-445,095	800,000	-0,030	-0,068
-444,080	-52,298	0,062	0,021
-443,065	233,836	-0,030	0,036
-442,051	41,578	-0,026	0,017
-441,036	556,801	0,021	0,037
-440,022	-200,000	0,003	0,047
-439,007	354,400	0,054	0,079
-437,992	-107,940	0,094	0,015
-436,978	-200,000	-0,003	0,131
-435,963	-179,640	0,136	-0,002
-434,949	324,876	-0,015	0,021
-433,934	-174,292	-0,045	0,001
-432,919	355,780	-0,111	-0,161
-431,905	-41,968	0,102	0,038
-430,890	568,390	-0,089	0,159
-429,876	121,271	0,018	-0,017
-428,861	-122,497	0,094	-0,011
-427,846	-35,627	-0,094	0,037
-426,832	-150,976	0,164	-0,009
-425,817	87,114	-0,141	-0,113
-424,803	68,889	-0,062	-0,046
-423,788	767,445	0,004	-0,008
-422,773	735,853	0,063	0,124
-421,759	294,410	0,079	0,105
-420,744	295,028	-0,066	-0,087
-419,730	52,314	-0,054	0,037
-418,715	-200,000	-0,044	-0,143
-417,701	-160,511	0,052	-0,002
-416,686	44,297	0,133	0,088
-415,671	-200,000	0,025	-0,146
-414,657	458,618	0,096	-0,156
-413,642	-41,525	0,151	-0,056
-412,628	189,518	-0,102	0,112
-411,613	84,365	0,038	0,030
-410,598	487,863	-0,036	-0,060
-409,584	-200,000	0,015	-0,086
-408,569	294,032	0,032	-0,042
-407,555	-66,052	0,046	-0,013
-406,540	-101,934	-0,065	0,011
-405,525	136,846	0,092	-0,088
-404,511	-76,025	0,091	-0,023
-403,496	-200,000	-0,015	-0,130
-402,482	-14,121	0,120	-0,056
-401,467	21,678	0,099	0,059
-400,452	-200,000	-0,001	0,130
-399,438	268,241	-0,088	0,113
-398,423	-200,000	-0,017	0,126
-397,409	800,000	0,021	0,046
-396,394	800,000	-0,015	-0,032
-395,379	-110,331	-0,152	0,023
-394,365	122,385	0,049	0,044
-393,350	171,015	-0,059	0,061
-392,336	800,000	0,047	0,096
-391,321	732,075	0,039	-0,076
-390,306	-85,031	0,091	-0,021
-389,292	-98,552	0,186	-0,034
-388,277	800,000	-0,040	-0,082
-387,263	800,000	0,023	0,059
-386,248	40,365	0,105	0,069
-385,233	-200,000	-0,027	-0,105
-384,219	800,000	-0,029	-0,064
-383,204	-145,261	-0,148	0,010
-382,190	800,000	-0,014	-0,031
-381,175	-148,590	0,106	-0,006
-380,160	201,026	-0,052	-0,058
-379,146	95,030	0,162	0,134
-378,131	-200,000	0,018	0,116
-377,117	98,782	0,049	-0,041
-376,102	180,160	-0,116	0,123
-375,088	-2,926	0,065	-0,033
-374,073	15,409	0,094	0,053
-373,058	-200,000	0,007	0,100
-372,044	-142,516	0,174	0,012
-371,029	362,839	0,038	0,056
-370,015	800,000	-0,014	0,042
-369,000	-200,000	0,018	-0,061
-367,985	154,865	-0,035	-0,035
-366,971	-200,000	-0,017	0,062
-365,956	-200,000	0,003	-0,136
-364,942	53,430	-0,040	-0,028
-363,927	24,291	0,059	0,035
-362,912	-8,007	-0,040	0,020
-361,898	800,000	0,014	0,039
-360,883	-200,000	0,017	0,069
-359,869	257,083	-0,089	-0,111
-358,854	510,009	0,049	0,084
-357,839	221,979	0,059	0,069
-356,825	-200,000	0,019	-0,144
-355,810	343,452	0,022	0,031
-354,796	-72,379	-0,018	0,005
-353,781	-200,000	-0,012	0,050
-352,766	-200,000	0,026	0,121
-351,752	-70,607	0,084	0,023
-350,737	800,000	0,049	0,146
-349,723	-200,000	0,006	-0,045
-348,708	-200,000	-0,016	0,076
-347,693	800,000	-0,027	-0,073
-346,679	645,164	-0,070	-0,130
-345,664	562,883	-0,028	-0,050
-344,650	-200,000	0,015	-0,097
-343,635	800,000	0,032	0,074
-342,620	79,305	0,033	-0,026
-341,606	36,084	-0,095	0,061
-340,591	-40,874	-0,140	-0,052
-339,577	41,254	0,044	-0,029
-338,562	385,174	-0,034	0,052
-337,548	588,584	-0,021	-0,038
-336,533	-200,000	-0,015	0,103
-335,518	800,000	0,051	0,133
-334,504	-200,000	0,006	0,113
-333,489	328,205	0,026	-0,037
-332,475	800,000	-0,010	0,021
-331,460	-200,000	0,017	-0,096
-330,445	800,000	-0,024	-0,072
-329,431	-60,280	-0,107	-0,033
-328,416	60,333	-0,020	-0,014
-327,402	-84,632	0,115	0,026
-326,387	800,000	-0,050	-0,137
-325,372	727,825	-0,048	0,093
-324,358	7,796	-0,115	0,062
-323,343	599,083	0,016	-0,029
-322,329	-200,000	0,035	-0,136
-321,314	800,000	0,034	-0,074
-320,299	-200,000	0,008	0,029
-319,285	76,311	0,024	0,019
-318,270	38,563	-0,073	0,047
-317,256	-92,713	0,089	0,018
-316,241	800,000	0,021	-0,053
-315,226	-128,586	0,100	0,010
-314,212	474,467	0,006	0,010
-313,197	-200,000	-0,008	0,095
-312,183	7,102	0,148	0,080
-311,168	19,067	-0,176	-0,102
-310,153	-0,029	-0,122	0,063
-309,139	-200,000	-0,014	0,118
-308,124	176,605	0,063	0,066
-307,110	229,934	0,090	-0,107
-306,095	-200,000	-0,007	0,071
-305,080	-122,147	-0,005	0,001
-304,066	-81,153	-0,064	-0,015
-303,051	-78,665	0,027	0,007
-302,037	-103,990	-0,167	-0,028
-301,022	439,230	-0,064	-0,101
-300,008	152,134	0,125	0,124
-298,993	654,896	0,025	-0,046
-297,978	43,976	0,102	0,068
-296,964	589,963	-0,055	-0,099
-295,949	-17,893	0,112	0,050
-294,935	-200,000	-0,009	-0,112
-293,920	78,007	-0,014	-0,011
-292,905	26,611	0,079	-0,048
-291,891	179,770	-0,072	-0,077
-290,876	85,383	-0,050	-0,040
-289,862	452,034	-0,035	-0,056
-288,847	-34,190	-0,119	-0,047
-287,832	435,402	-0,058	0,091
-286,818	251,394	0,058	-0,072
-285,803	690,653	-0,024	-0,046
-284,789	457,800	0,059	0,095
-283,774	240,905	0,075	0,091
-282,759	-200,000	-0,002	-0,008
-281,745	-200,000	-0,011	0,117
-280,730	-200,000	-0,002	0,061
-279,716	-188,171	-0,053	-0,000
-278,701	800,000	0,021	-0,056
-277,686	-40,853	-0,040	0,015
-276,672	-200,000	0,024	-0,089
-275,657	-3,039	-0,067	0,034
-274,643	-200,000	0,001	0,075
-273,628	107,245	-0,047	-0,040
-272,613	-200,000	0,025	-0,090
-271,599	350,465	-0,039	-0,056
-270,584	36,025	0,076	0,048
-269,570	800,000	-0,010	0,028
-268,555	266,198	0,021	-0,027
-267,540	800,000	-0,039	-0,113
-266,526	-200,000	-0,010	-0,080
-265,511	-38,408	0,161	-0,061
-264,497	-96,716	-0,101	0,019
-263,482	44,487	0,006	-0,004
-262,467	-88,942	-0,071	-0,015
-261,453	-65,347	0,115	-0,033
-260,438	-84,751	-0,133	-0,030
-259,424	-106,503	0,023	-0,004
-258,409	-200,000	0,021	-0,130
-257,395	-200,000	-0,001	0,124
-256,380	550,579	0,079	0,137
-255,365	-200,000	0,010	0,098
-254,351	-90,449	0,024	0,005
-253,336	-200,000	0,019	-0,065
-252,322	500,571	0,081	-0,136
-251,307	137,274	-0,030	-0,028
-250,292	-31,696	0,112	0,045
-249,278	-200,000	0,009	0,051
-248,263	-200,000	-0,018	-0,075
-247,249	65,502	0,069	-0,051
-246,234	800,000	-0,003	-0,008
-245,219	-200,000	-0,002	-0,094
-244,205	-200,000	-0,005	0,095
-243,190	-200,000	-0,011	-0,183
-242,176	9,057	0,037	0,020
-241,161	554,473	-0,070	-0,122
-240,146	-200,000	-0,008	0,098
-239,132	-100,549	-0,171	-0,030
-238,117	530,337	-0,016	-0,027
-237,103	128,564	-0,022	-0,020
-236,088	-58,787	0,078	-0,024
-235,073	-200,000	-0,004	0,180
-234,059	-101,477	0,054	-0,009
-233,044	-200,000	-0,010	0,043
-232,030	-67,668	0,128	-0,036
-231,015	247,577	0,045	-0,055
-230,000	94,180	0,075	0,062
-228,986	97,713	-0,028	0,024
-227,971	-78,069	-0,071	0,017
-226,957	-200,000	-0,009	-0,071
-225,942	-57,630	0,035	0,011
-224,927	-91,178	0,091	0,019
-223,913	22,646	0,041	0,024
-222,898	73,570	-0,011	-0,008
-221,884	418,356	0,115	0,178
-220,869	-148,477	0,113	0,007
-219,855	-200,000	-0,021	0,142
-218,840	-200,000	-0,017	0,161
-217,825	-18,566	-0,065	0,029
-216,811	155,811	0,039	0,039
-215,796	-111,137	-0,128	0,019
-214,782	120,579	0,061	-0,055
-213,767	61,680	0,005	0,004
-212,752	95,634	0,083	-0,069
-211,738	-200,000	-0,015	-0,109
-210,723	800,000	-0,061	0,139
-209,709	130,599	-0,177	-0,164
-208,694	800,000	0,011	-0,028
-207,679	-52,928	0,056	-0,018
-206,665	26,028	0,071	-0,042
-205,650	-37,141	-0,035	-0,014
-204,636	241,887	0,106	0,128
-203,621	85,134	-0,155	-0,122
-202,606	800,000	0,017	-0,045
-201,592	202,159	-0,122	-0,136
-200,577	53,844	0,053	0,037
-199,563	-161,484	0,024	-0,001
-198,548	505,304	-0,017	-0,029
-197,533	224,176	-0,031	-0,037
-196,519	635,419	0,067	0,122
-195,504	-85,638	-0,095	-0,021
-194,490	-66,665	-0,054	-0,015
-193,475	42,061	-0,104	-0,068
-192,460	31,555	0,121	-0,075
-191,446	-200,000	-0,017	0,070
-190,431	-111,731	0,115	0,017
-189,417	689,372	-0,095	0,181
-188,402	234,242	-0,062	-0,074
-187,387	174,706	-0,068	-0,071
-186,373	-52,666	-0,123	-0,041
-185,358	-200,000	-0,037	0,183
-184,344	379,655	0,082	0,121
-183,329	-200,000	0,005	0,078
-182,315	-200,000	-0,034	0,107
-181,300	695,418	-0,091	0,173
-180,285	447,137	0,013	0,021
-179,271	800,000	-0,017	0,045
-178,256	-200,000	0,010	0,083
-177,242	86,283	-0,138	-0,109
-176,227	-159,067	0,034	0,001
-175,212	-163,509	0,187	0,006
-174,198	-200,000	0,010	0,045
-173,183	-75,386	-0,026	-0,007
-172,169	-108,381	-0,175	0,027
-171,154	-33,683	-0,064	0,025
-170,139	-130,236	0,092	-0,009
-169,125	800,000	0,057	0,117
-168,110	-125,894	-0,024	-0,003
-167,096	104,890	0,051	-0,043
-166,081	302,377	-0,103	0,138
-165,066	-114,726	0,166	-0,023
-164,052	-91,072	0,065	-0,013
-163,037	88,348	-0,118	0,094
-162,023	540,611	0,082	0,141
-161,008	-165,496	0,032	-0,001
-159,993	166,241	-0,132	-0,135
-158,979	54,439	0,093	-0,064
-157,964	63,983	0,051	-0,037
-156,950	297,717	-0,034	-0,045
-155,935	-137,302	0,266	0,021
-154,920	31,667	-0,067	-0,041
-153,906	0,878	-0,071	-0,036
-152,891	800,000	-0,026	-0,077
-151,877	-200,000	0,013	0,062
-150,862	474,566	-0,068	-0,111
-149,847	122,821	-0,073	-0,066
-148,833	800,000	-0,019	0,058
-147,818	369,742	0,098	0,143
-146,804	60,008	0,148	0,105
-145,789	-127,295	0,028	0,003
-144,775	-200,000	-0,000	-0,201
-143,760	317,015	0,047	0,064
-142,745	543,064	-0,076	-0,131
-141,731	460,982	0,035	-0,056
-140,716	690,650	0,016	0,030
-139,702	-200,000	-0,005	0,176
-138,687	-31,616	0,087	0,035
-137,672	12,101	-0,041	-0,023
-136,658	-38,279	0,075	-0,028
-135,643	31,415	-0,092	0,057
-134,629	564,150	0,044	0,077
-133,614	-19,464	0,095	0,042
-132,599	219,210	0,019	0,022
-131,585	96,482	0,138	0,114
-130,570	242,685	-0,070	0,084
-129,556	-70,008	0,117	-0,032
-128,541	13,584	-0,083	-0,046
-127,526	107,068	-0,083	-0,071
-126,512	185,103	0,081	0,086
-125,497	-71,613	-0,093	-0,025
-124,483	-106,613	0,132	0,021
-123,468	0,848	0,091	-0,047
-122,453	317,208	-0,060	0,081
-121,439	403,887	-0,031	0,048
-120,424	235,882	0,020	0,024
-119,410	103,870	0,108	0,091
-118,395	513,495	0,094	0,158
