DTS Sentinel unit serial number:	SN410029Multiplexer serial number:	ORYXHardware model number:	OX2-SRSoftware version number:	ORYX F/W v4,00 Oryx Data Collector v3.7.2.0data status	okinstallation	B5 Nyhavnadifferential loss correction	single-endedforward channel	channel 2reverse channel	N/Adate	2023/12/14time	01:22:13forward acquisition time	300,00reverse acquisition time	0,00gamma	499,1914k internal	0,3155k external	0,3155temperature offset calibration	1,0000default loss term (dB/km)	0,3820temperature slope calibration	1,0000multiplexer offset coefficient	1,0000multiplexer slope coefficient	1,0000fibre end	0,00T internal ref (°C)	8,70T ext. ref 1 (°C)	-7,18T ext. ref 2 (°C)	-7,19length (m)	temperature (°C)	Stokes	anti-Stokes-744,400	-34,535	0,042	0,017
-743,385	39,757	-0,310	-0,205
-742,371	-200,000	0,009	0,154
-741,356	-148,375	-0,310	-0,018
-740,342	668,301	0,118	0,227
-739,327	-169,660	-0,454	-0,012
-738,312	-46,296	0,202	-0,073
-737,298	30,104	-0,356	-0,223
-736,283	-84,127	0,131	-0,030
-735,269	-69,001	-0,345	-0,097
-734,254	-148,676	0,131	-0,008
-733,239	-2,052	-0,552	-0,285
-732,225	-122,656	0,145	0,017
-731,210	-200,000	-0,003	0,084
-730,196	-200,000	0,010	0,080
-729,181	800,000	0,043	-0,091
-728,167	800,000	-0,061	-0,165
-727,152	-74,954	0,113	0,030
-726,137	800,000	-0,032	-0,079
-725,123	-200,000	-0,008	-0,045
-724,108	-149,745	-0,092	-0,005
-723,094	-200,000	0,002	-0,092
-722,079	340,256	-0,081	-0,117
-721,064	699,524	0,051	0,100
-720,050	1,180	0,111	-0,059
-719,035	57,615	0,028	-0,020
-718,021	713,142	0,053	-0,105
-717,006	73,420	-0,097	-0,074
-715,991	-200,000	0,012	-0,142
-714,977	-200,000	0,003	-0,141
-713,962	223,972	0,011	-0,014
-712,948	-200,000	0,015	-0,108
-711,933	-58,118	0,166	0,053
-710,918	337,198	-0,071	0,101
-709,904	-106,219	-0,052	0,008
-708,889	-56,517	-0,075	-0,024
-707,875	800,000	-0,010	0,024
-706,860	-45,969	0,105	0,038
-705,845	-200,000	-0,010	-0,070
-704,831	800,000	-0,030	-0,071
-703,816	140,674	-0,051	-0,050
-702,802	349,533	-0,053	-0,078
-701,787	-200,000	0,035	-0,121
-700,772	156,359	0,091	-0,093
-699,758	648,190	-0,086	-0,163
-698,743	591,979	0,039	0,071
-697,729	-200,000	-0,016	0,074
-696,714	-169,834	-0,125	0,003
-695,699	-62,463	-0,141	0,043
-694,685	251,914	-0,024	-0,031
-693,670	398,273	-0,070	0,109
-692,656	-64,922	0,094	0,028
-691,641	-53,585	-0,117	-0,039
-690,627	-28,915	0,068	-0,029
-689,612	117,626	-0,127	0,115
-688,597	-200,000	-0,022	-0,195
-687,583	-57,296	-0,086	0,028
-686,568	-200,000	0,013	-0,045
-685,554	-92,730	-0,092	-0,019
-684,539	20,436	0,060	-0,036
-683,524	-18,398	0,182	0,083
-682,510	128,828	-0,083	-0,078
-681,495	340,611	-0,067	-0,096
-680,481	87,259	-0,138	0,113
-679,466	800,000	-0,023	-0,057
-678,451	471,088	0,061	-0,101
-677,437	17,488	0,100	-0,058
-676,422	715,550	0,043	-0,085
-675,408	-200,000	0,010	-0,062
-674,393	380,822	0,038	0,057
-673,378	-67,183	-0,154	-0,044
-672,364	-200,000	0,023	-0,147
-671,349	33,014	0,026	-0,016
-670,335	-200,000	-0,017	-0,194
-669,320	44,900	0,069	0,047
-668,305	-95,525	0,093	0,018
-667,291	800,000	0,036	-0,102
-666,276	-200,000	0,020	-0,072
-665,262	-200,000	-0,001	-0,029
-664,247	800,000	0,009	-0,025
-663,232	30,665	-0,045	0,028
-662,218	218,026	-0,030	0,035
-661,203	800,000	0,023	-0,050
-660,189	313,769	-0,085	-0,117
-659,174	800,000	0,023	-0,049
-658,159	-150,112	-0,081	-0,005
-657,145	-147,585	0,031	0,002
-656,130	113,366	-0,023	-0,020
-655,116	-41,335	-0,037	-0,014
-654,101	800,000	0,038	-0,088
-653,086	-94,269	-0,073	-0,015
-652,072	268,208	-0,049	-0,063
-651,057	-135,683	-0,021	0,002
-650,043	47,933	0,074	0,051
-649,028	800,000	0,009	0,028
-648,014	800,000	-0,061	0,184
-646,999	531,572	-0,045	0,079
-645,984	741,268	-0,059	-0,117
-644,970	103,131	-0,100	0,086
-643,955	595,217	-0,052	0,095
-642,941	213,133	0,080	-0,093
-641,926	-200,000	-0,059	-0,200
-640,911	-18,580	0,182	-0,083
-639,897	-200,000	-0,008	-0,036
-638,882	-200,000	0,006	-0,051
-637,868	-176,327	-0,098	-0,002
-636,853	800,000	-0,027	-0,083
-635,838	-18,660	-0,127	0,058
-634,824	800,000	-0,041	-0,115
-633,809	280,631	0,038	-0,050
-632,795	16,964	0,041	-0,024
-631,780	800,000	0,062	0,174
-630,765	-109,500	-0,070	-0,011
-629,751	-28,767	-0,061	-0,026
-628,736	-49,863	-0,055	-0,019
-627,722	8,588	0,071	-0,039
-626,707	800,000	-0,032	0,082
-625,692	208,267	-0,043	0,050
-624,678	607,421	-0,025	0,046
-623,663	-56,938	-0,081	-0,026
-622,649	-57,536	-0,042	0,014
-621,634	-200,000	-0,021	-0,108
-620,619	-14,693	-0,093	-0,044
-619,605	800,000	0,042	0,109
-618,590	-79,111	-0,086	0,021
-617,576	415,366	0,049	0,076
-616,561	-200,000	0,017	-0,065
-615,546	9,718	-0,023	-0,013
-614,532	-200,000	0,005	-0,035
-613,517	-19,106	-0,152	-0,069
-612,503	-27,151	0,122	0,052
-611,488	-200,000	0,009	0,056
-610,474	174,356	0,039	0,041
-609,459	497,179	-0,045	0,077
-608,444	-31,995	-0,146	0,060
-607,430	569,318	0,098	-0,175
-606,415	-122,039	0,058	-0,007
-605,401	-200,000	-0,102	-0,000
-604,386	18,890	0,168	-0,098
-603,371	425,410	0,020	0,031
-602,357	86,442	-0,109	-0,088
-601,342	287,534	-0,047	-0,062
-600,328	716,228	-0,023	-0,045
-599,313	341,885	0,068	-0,098
-598,298	-200,000	-0,028	-0,096
-597,284	-135,302	0,083	-0,007
-596,269	-101,449	0,030	-0,005
-595,255	126,607	0,052	0,049
-594,240	159,424	0,062	0,063
-593,225	-33,450	-0,104	0,042
-592,211	-200,000	0,025	-0,103
-591,196	800,000	-0,054	-0,126
-590,182	-57,030	0,149	0,048
-589,167	-200,000	-0,003	-0,072
-588,152	561,053	0,015	-0,026
-587,138	113,495	-0,112	-0,100
-586,123	800,000	-0,069	-0,145
-585,109	37,069	-0,022	-0,014
-584,094	800,000	-0,029	0,085
-583,079	-200,000	-0,019	0,079
-582,065	731,595	0,010	0,019
-581,050	186,731	0,069	0,075
-580,036	-157,393	0,136	0,006
-579,021	-154,044	-0,084	0,004
-578,006	-200,000	0,010	-0,046
-576,992	75,711	-0,036	-0,028
-575,977	422,867	0,076	0,120
-574,963	-177,498	0,234	0,004
-573,948	15,464	-0,070	-0,040
-572,934	-150,588	-0,092	0,005
-571,919	269,660	0,026	-0,033
-570,904	161,684	-0,053	-0,055
-569,890	-200,000	-0,013	-0,064
-568,875	800,000	-0,011	0,029
-567,861	-200,000	-0,002	-0,019
-566,846	-24,677	-0,010	0,005
-565,831	-48,154	-0,073	0,026
-564,817	800,000	-0,030	0,066
-563,802	-200,000	-0,008	-0,093
-562,788	28,065	-0,089	0,055
-561,773	37,494	0,053	0,035
-560,758	-200,000	0,015	0,052
-559,744	-30,371	0,223	0,092
-558,729	163,087	0,053	0,055
-557,715	-92,345	-0,098	0,020
-556,700	800,000	-0,028	-0,070
-555,685	16,447	0,069	-0,040
-554,671	-178,755	0,060	-0,001
-553,656	2,250	0,048	-0,025
-552,642	5,319	0,140	-0,075
-551,627	69,401	-0,142	0,107
-550,612	-165,585	-0,048	-0,002
-549,598	-34,507	-0,009	0,004
-548,583	800,000	0,063	-0,130
-547,569	428,401	-0,062	-0,099
-546,554	98,920	-0,093	-0,078
-545,539	800,000	-0,047	0,101
-544,525	-200,000	-0,026	0,090
-543,510	-65,807	0,012	-0,004
-542,496	178,184	0,088	0,094
-541,481	-121,577	0,033	0,004
-540,466	115,487	-0,008	-0,007
-539,452	70,236	0,093	0,071
-538,437	-200,000	-0,004	0,031
-537,423	-200,000	-0,033	0,107
-536,408	20,570	-0,050	0,029
-535,393	-200,000	0,003	0,065
-534,379	-143,977	-0,143	0,010
-533,364	-85,462	-0,070	-0,016
-532,350	160,426	-0,016	0,016
-531,335	-87,696	0,021	-0,005
-530,321	54,842	-0,038	0,027
-529,306	-67,792	-0,096	0,027
-528,291	101,391	-0,036	-0,030
-527,277	-121,385	-0,151	-0,018
-526,262	-71,840	0,120	-0,033
-525,248	121,705	-0,021	0,020
-524,233	-54,698	-0,084	0,028
-523,218	-70,838	0,163	-0,045
-522,204	161,659	-0,066	-0,068
-521,189	54,409	0,028	-0,019
-520,175	-200,000	0,008	-0,183
-519,160	800,000	0,030	-0,085
-518,145	800,000	0,064	0,150
-517,131	516,703	0,035	0,061
-516,116	539,797	0,064	0,113
-515,102	-153,389	0,029	-0,001
-514,087	-154,884	0,034	0,002
-513,072	-151,143	0,027	0,001
-512,058	489,505	0,028	0,047
-511,043	800,000	-0,007	-0,022
-510,029	-200,000	0,009	-0,095
-509,014	800,000	-0,042	0,098
-507,999	-200,000	-0,044	0,161
-506,985	-90,832	-0,089	-0,019
-505,970	-73,463	0,183	-0,048
-504,956	-156,884	-0,075	-0,003
-503,941	731,875	0,014	0,027
-502,926	193,497	0,064	-0,071
-501,912	-200,000	0,015	0,080
-500,897	-200,000	0,010	-0,060
-499,883	-200,000	-0,043	-0,222
-498,868	-89,199	-0,147	-0,031
-497,853	775,219	0,060	-0,120
-496,839	-44,838	0,040	-0,015
-495,824	-5,714	0,070	0,035
-494,810	800,000	-0,039	0,084
-493,795	94,047	0,057	-0,048
-492,781	250,383	-0,056	-0,069
-491,766	-30,883	-0,095	-0,039
-490,751	31,686	0,095	-0,060
-489,737	800,000	0,012	-0,031
-488,722	8,415	0,072	0,039
-487,708	-127,622	-0,073	-0,008
-486,693	26,442	0,023	0,014
-485,678	36,237	0,114	-0,073
-484,664	29,325	-0,050	-0,031
-483,649	-195,448	0,145	-0,001
-482,635	-97,496	-0,144	-0,027
-481,620	-59,396	0,056	0,018
-480,605	702,287	0,061	0,118
-479,591	-200,000	0,039	0,147
-478,576	2,180	-0,044	-0,023
-477,562	75,583	0,073	0,056
-476,547	-200,000	0,001	0,021
-475,532	800,000	0,011	0,028
-474,518	-200,000	0,018	-0,062
-473,503	337,091	0,054	0,077
-472,489	800,000	0,025	-0,078
-471,474	-200,000	-0,018	-0,071
-470,459	-102,960	-0,077	-0,013
-469,445	145,423	-0,093	-0,091
-468,430	-200,000	0,025	-0,112
-467,416	-161,615	0,197	-0,007
-466,401	-200,000	0,009	0,045
-465,386	-165,596	0,049	0,002
-464,372	-80,437	-0,094	0,023
-463,357	-200,000	-0,017	0,072
-462,343	-120,074	-0,123	0,015
-461,328	214,973	0,055	-0,064
-460,313	5,878	-0,025	-0,014
-459,299	-111,524	0,115	0,017
-458,284	322,016	0,048	0,068
-457,270	-200,000	0,000	0,210
-456,255	-200,000	0,009	0,078
-455,241	-31,235	0,088	0,036
-454,226	-200,000	0,012	0,089
-453,211	-103,064	0,055	0,009
-452,197	55,282	0,073	0,052
-451,182	84,153	-0,052	-0,041
-450,168	-174,370	-0,050	-0,001
-449,153	305,356	-0,078	-0,106
-448,138	16,732	-0,044	-0,026
-447,124	-55,839	0,024	0,008
-446,109	49,187	0,110	-0,075
-445,095	566,731	0,027	0,048
-444,080	-59,877	0,072	-0,022
-443,065	800,000	-0,072	0,147
-442,051	379,761	-0,041	-0,062
-441,036	-200,000	-0,006	-0,029
-440,022	-20,488	0,078	0,035
-439,007	96,356	0,061	0,051
-437,992	136,468	0,055	-0,052
-436,978	-136,390	0,046	0,004
-435,963	-97,796	-0,107	0,020
-434,949	66,268	-0,037	-0,028
-433,934	-159,598	0,075	0,003
-432,919	-200,000	-0,013	0,161
-431,905	164,126	-0,084	-0,086
-430,890	459,473	0,040	-0,065
-429,876	53,786	-0,016	0,011
-428,861	446,060	-0,070	0,112
-427,846	-200,000	0,020	-0,118
-426,832	-200,000	0,008	-0,093
-425,817	-124,866	-0,094	-0,010
-424,803	49,974	0,010	-0,007
-423,788	337,007	0,063	-0,089
-422,773	-200,000	0,008	0,143
-421,759	7,363	0,072	0,039
-420,744	800,000	0,030	-0,086
-419,730	352,901	-0,059	0,086
-418,715	-35,535	0,086	0,034
-417,701	-200,000	0,006	0,077
-416,686	30,399	0,064	-0,040
-415,671	52,434	-0,014	0,010
-414,657	-200,000	-0,032	0,114
-413,642	18,313	-0,090	0,052
-412,628	-200,000	-0,050	-0,161
-411,613	514,657	-0,078	-0,133
-410,598	800,000	-0,006	-0,013
-409,584	60,719	0,064	0,046
-408,569	800,000	0,033	0,088
-407,555	-126,149	0,153	-0,016
-406,540	713,125	0,062	0,121
-405,525	-25,393	-0,067	-0,029
-404,511	-200,000	-0,011	0,148
-403,496	395,880	0,008	0,012
-402,482	73,123	-0,045	-0,035
-401,467	-11,747	0,168	-0,080
-400,452	181,090	-0,106	-0,114
-399,438	116,623	0,092	0,082
-398,423	-48,626	-0,087	0,030
-397,409	280,313	-0,080	-0,104
-396,394	-200,000	-0,003	-0,057
-395,379	800,000	-0,033	0,081
-394,365	432,054	-0,057	-0,090
-393,350	272,300	-0,005	-0,006
-392,336	592,396	0,077	0,139
-391,321	-79,604	0,048	-0,012
-390,306	83,349	-0,073	-0,058
-389,292	-5,515	-0,044	0,022
-388,277	-200,000	-0,002	-0,007
-387,263	800,000	-0,006	-0,018
-386,248	800,000	0,031	0,096
-385,233	-200,000	-0,004	-0,088
-384,219	65,428	0,072	-0,053
-383,204	-200,000	-0,002	-0,096
-382,190	41,989	0,082	-0,054
-381,175	224,711	-0,010	0,012
-380,160	-200,000	0,034	-0,124
-379,146	-200,000	-0,004	0,026
-378,131	-36,175	0,074	0,029
-377,117	2,405	-0,070	-0,037
-376,102	540,703	0,095	-0,165
-375,088	800,000	-0,028	-0,076
-374,073	-200,000	-0,002	-0,067
-373,058	71,892	0,064	-0,049
-372,044	-200,000	0,000	0,027
-371,029	240,882	-0,022	0,027
-370,015	800,000	0,010	0,026
-369,000	-133,405	0,022	-0,002
-367,985	264,877	0,051	-0,064
-366,971	57,703	0,115	-0,081
-365,956	-89,386	-0,069	0,015
-364,942	-85,381	0,118	-0,027
-363,927	800,000	0,027	-0,070
-362,912	-7,495	-0,027	-0,013
-361,898	340,787	-0,086	0,122
-360,883	375,721	-0,062	0,092
-359,869	-200,000	-0,014	-0,068
-358,854	-25,839	0,128	-0,054
-357,839	149,687	0,039	-0,039
-356,825	-47,378	-0,031	0,011
-355,810	-46,174	0,043	0,015
-354,796	-200,000	-0,006	0,031
-353,781	110,308	0,130	-0,114
-352,766	7,259	-0,150	-0,081
-351,752	800,000	-0,044	-0,136
-350,737	310,504	0,036	0,050
-349,723	-8,197	-0,069	0,033
-348,708	-101,654	-0,070	0,012
-347,693	148,429	0,120	0,118
-346,679	-39,015	-0,194	0,074
-345,664	800,000	-0,047	-0,108
-344,650	-50,709	-0,094	-0,032
-343,635	-200,000	-0,054	-0,193
-342,620	-79,799	-0,124	-0,030
-341,606	-200,000	-0,005	0,089
-340,591	-200,000	0,014	-0,115
-339,577	17,653	0,029	0,017
-338,562	66,912	0,069	0,051
-337,548	-200,000	-0,047	-0,154
-336,533	-129,500	0,017	0,002
-335,518	208,435	0,148	0,168
-334,504	-200,000	-0,007	0,108
-333,489	490,065	-0,012	0,020
-332,475	171,571	-0,103	-0,108
-331,460	391,005	0,060	-0,090
-330,445	42,569	0,111	-0,073
-329,431	-32,343	0,023	-0,009
-328,416	782,847	-0,018	0,037
-327,402	192,626	-0,067	-0,073
-326,387	-56,250	0,155	0,050
-325,372	-200,000	-0,057	-0,227
-324,358	-114,650	0,036	-0,005
-323,343	-158,980	-0,051	-0,002
-322,329	-144,626	0,083	-0,005
-321,314	89,956	-0,098	0,080
-320,299	69,955	-0,065	-0,049
-319,285	-100,799	-0,149	-0,026
-318,270	59,416	0,047	-0,034
-317,256	-200,000	-0,003	0,043
-316,241	530,026	-0,038	0,065
-315,226	119,820	0,052	0,047
-314,212	-200,000	0,035	0,223
-313,197	85,738	0,062	-0,050
-312,183	-92,590	0,087	0,018
-311,168	-73,616	-0,085	-0,022
-310,153	-200,000	-0,018	-0,104
-309,139	44,498	-0,074	-0,049
-308,124	-22,815	0,070	0,031
-307,110	-184,751	-0,105	-0,001
-306,095	-134,385	0,061	0,005
-305,080	226,767	-0,097	0,114
-304,066	210,912	-0,118	0,134
-303,051	-76,458	-0,089	-0,023
-302,037	-118,762	-0,151	0,019
-301,022	-200,000	0,009	0,053
-300,008	-54,588	0,054	0,018
-298,993	-200,000	0,026	0,086
-297,978	-59,100	-0,169	0,053
-296,964	-90,336	-0,016	-0,003
-295,949	800,000	-0,084	-0,176
-294,935	105,301	0,065	0,055
-293,920	-168,308	0,183	-0,005
-292,905	-65,106	-0,188	0,055
-291,891	-34,755	0,149	0,059
-290,876	800,000	-0,037	0,078
-289,862	-200,000	-0,011	-0,105
-288,847	-200,000	-0,010	-0,078
-287,832	-44,980	0,127	-0,046
-286,818	295,901	-0,036	0,047
-285,803	271,397	-0,055	0,070
-284,789	-200,000	0,002	0,059
-283,774	-200,000	0,048	-0,173
-282,759	22,960	0,036	0,021
-281,745	-200,000	0,006	-0,077
-280,730	-81,890	-0,018	-0,004
-279,716	-47,778	0,057	0,020
-278,701	-48,830	-0,047	-0,016
-277,686	-200,000	-0,007	0,162
-276,672	-158,029	0,155	-0,006
-275,657	-131,838	-0,096	0,009
-274,643	182,768	-0,142	0,152
-273,628	81,104	-0,114	-0,089
-272,613	635,807	-0,024	-0,045
-271,599	-200,000	-0,005	0,077
-270,584	-3,450	-0,071	-0,036
-269,570	-6,811	0,148	-0,073
-268,555	-200,000	0,002	-0,077
-267,540	800,000	-0,028	-0,074
-266,526	-84,112	-0,038	0,009
-265,511	800,000	0,020	-0,061
-264,497	749,596	0,056	-0,111
-263,482	-200,000	0,136	-0,000
-262,467	135,692	-0,053	-0,050
-261,453	119,954	-0,067	-0,060
-260,438	708,545	-0,076	-0,147
-259,424	800,000	-0,076	-0,186
-258,409	152,086	-0,081	0,081
-257,395	-200,000	-0,023	0,083
-256,380	9,452	0,054	-0,030
-255,365	-13,242	0,072	0,034
-254,351	165,554	-0,045	0,046
-253,336	-5,104	-0,135	0,067
-252,322	-45,262	0,114	0,041
-251,307	-129,935	-0,036	0,004
-250,292	119,480	-0,026	-0,023
-249,278	231,555	0,097	0,115
-248,263	-102,647	0,094	-0,016
-247,249	800,000	0,038	-0,106
-246,234	-200,000	0,018	-0,107
-245,219	-200,000	-0,012	-0,052
-244,205	-142,667	0,211	-0,015
-243,190	234,112	0,095	0,113
-242,176	44,225	0,060	0,040
-241,161	-200,000	-0,002	0,153
-240,146	800,000	-0,047	0,146
-239,132	-90,290	-0,066	-0,014
-238,117	365,425	-0,066	-0,096
-237,103	-94,602	0,099	0,019
-236,088	108,583	0,059	-0,051
-235,073	800,000	0,027	-0,070
-234,059	382,243	-0,002	-0,003
-233,044	311,203	-0,082	0,111
-232,030	-200,000	0,008	0,047
-231,015	-200,000	-0,000	0,068
-230,000	653,003	0,035	-0,065
-228,986	-157,000	-0,031	-0,001
-227,971	262,544	0,071	0,089
-226,957	-200,000	0,019	0,072
-225,942	-200,000	0,001	0,122
-224,927	-200,000	-0,025	0,135
-223,913	800,000	0,004	-0,011
-222,898	-1,860	0,084	-0,043
-221,884	66,369	0,095	0,069
-220,869	36,410	-0,112	0,072
-219,855	-157,475	0,177	0,008
-218,840	149,124	-0,063	0,062
-217,825	672,838	-0,067	0,126
-216,811	80,424	-0,038	0,030
-215,796	-67,453	-0,091	0,026
-214,782	-200,000	-0,020	0,065
-213,767	421,776	-0,031	0,048
-212,752	101,239	0,147	0,124
-211,738	800,000	0,009	0,029
-210,723	-47,904	-0,021	-0,007
-209,709	-123,144	-0,083	0,010
-208,694	100,448	-0,132	0,111
-207,679	800,000	-0,033	-0,106
-206,665	-200,000	-0,008	0,226
-205,650	-54,055	0,073	-0,024
-204,636	800,000	-0,016	-0,035
-203,621	205,159	-0,079	0,089
-202,606	-192,005	-0,008	0,000
-201,592	-80,342	-0,136	0,033
-200,577	-200,000	-0,017	-0,087
-199,563	-28,937	0,050	0,021
-198,548	51,509	0,010	0,007
-197,533	92,991	0,117	-0,096
-196,519	-75,501	0,083	-0,021
-195,504	-183,614	0,134	-0,002
-194,490	-15,918	-0,051	-0,023
-193,475	50,889	-0,079	-0,054
-192,460	101,366	0,077	-0,065
-191,446	167,312	0,064	0,066
-190,431	595,840	-0,021	-0,037
-189,417	89,907	-0,014	-0,011
-188,402	181,820	-0,033	0,035
-187,387	278,034	-0,103	-0,133
-186,373	146,182	-0,054	-0,053
-185,358	260,194	0,072	-0,089
-184,344	-142,035	0,037	-0,003
-183,329	-200,000	0,024	-0,155
-182,315	-200,000	0,014	-0,066
-181,300	795,186	0,066	-0,131
-180,285	-94,106	-0,081	0,016
-179,271	-200,000	-0,035	-0,128
-178,256	-200,000	0,022	-0,080
-177,242	-56,847	0,045	-0,014
-176,227	135,081	0,064	0,060
-175,212	800,000	-0,051	0,121
-174,198	800,000	-0,049	0,131
-173,183	-75,535	0,032	0,008
-172,169	-163,384	-0,133	-0,004
-171,154	-18,843	-0,075	0,033
-170,139	787,335	0,050	0,099
-169,125	10,736	0,099	0,054
-168,110	406,337	0,059	0,090
-167,096	192,871	-0,036	-0,039
-166,081	-200,000	0,005	0,037
-165,066	219,429	-0,135	0,156
-164,052	-33,934	-0,092	-0,036
-163,037	-200,000	0,011	-0,041
-162,023	1,225	0,043	-0,022
-161,008	509,714	0,080	0,134
-159,993	730,537	0,018	-0,035
-158,979	-38,760	0,028	0,010
-157,964	-100,890	-0,045	-0,008
-156,950	-160,876	-0,029	0,001
-155,935	217,432	0,009	0,010
-154,920	-200,000	0,000	0,177
-153,906	-24,482	0,210	0,090
-152,891	310,123	-0,114	0,154
-151,877	-200,000	0,007	-0,082
-150,862	395,695	0,048	-0,073
-149,847	0,744	-0,116	-0,060
-148,833	170,650	0,092	-0,095
-147,818	406,346	0,015	0,024
-146,804	-200,000	0,026	-0,082
-145,789	-200,000	0,012	0,118
-144,775	800,000	-0,022	-0,050
-143,760	-200,000	-0,007	-0,029
-142,745	-63,556	0,021	0,006
-141,731	-10,949	0,101	0,048
-140,716	485,688	0,051	-0,085
-139,702	-200,000	-0,007	0,026
-138,687	-111,729	-0,129	0,019
-137,672	-200,000	-0,001	-0,011
-136,658	-200,000	-0,018	-0,074
-135,643	-168,544	-0,038	-0,001
-134,629	208,866	0,087	-0,099
-133,614	413,490	0,078	0,120
-132,599	-200,000	0,034	0,139
-131,585	-200,000	-0,034	-0,122
-130,570	-11,973	-0,045	-0,021
-129,556	7,987	-0,031	-0,017
-128,541	149,950	-0,028	-0,027
-127,526	-200,000	0,008	-0,115
-126,512	-200,000	0,017	-0,067
-125,497	-200,000	-0,030	0,174
-124,483	-200,000	0,004	-0,057
-123,468	369,430	-0,070	-0,102
-122,453	-36,926	-0,021	-0,008
-121,439	169,843	0,005	-0,005
-120,424	-200,000	0,013	-0,262
