DTS Sentinel unit serial number:	SN410029Multiplexer serial number:	ORYXHardware model number:	OX2-SRSoftware version number:	ORYX F/W v4,00 Oryx Data Collector v3.7.2.0data status	okinstallation	B5 Nyhavnadifferential loss correction	single-endedforward channel	channel 2reverse channel	N/Adate	2023/12/12time	21:12:13forward acquisition time	300,00reverse acquisition time	0,00gamma	499,1914k internal	0,3158k external	0,3158temperature offset calibration	1,0000default loss term (dB/km)	0,3820temperature slope calibration	1,0000multiplexer offset coefficient	1,0000multiplexer slope coefficient	1,0000fibre end	0,00T internal ref (°C)	14,99T ext. ref 1 (°C)	-1,68T ext. ref 2 (°C)	-2,01length (m)	temperature (°C)	Stokes	anti-Stokes-744,400	-200,000	0,005	-0,107
-743,385	-143,533	-0,265	0,018
-742,371	794,950	0,055	0,113
-741,356	-38,963	-0,298	-0,115
-740,342	14,115	0,221	0,126
-739,327	2,460	-0,160	-0,085
-738,312	-140,886	-0,030	0,002
-737,298	-91,214	-0,398	-0,083
-736,283	800,000	0,037	0,078
-735,269	-85,287	-0,320	0,073
-734,254	-200,000	-0,018	0,125
-733,239	-37,335	-0,440	-0,172
-732,225	-50,619	0,096	-0,033
-731,210	-96,769	0,053	0,010
-730,196	397,163	-0,060	-0,092
-729,181	-200,000	0,021	-0,081
-728,167	-200,000	-0,003	0,129
-727,152	-107,503	0,109	0,017
-726,137	-51,048	-0,119	0,041
-725,123	-126,729	0,060	-0,006
-724,108	-121,340	-0,122	-0,015
-723,094	295,735	0,064	-0,087
-722,079	-200,000	-0,049	-0,255
-721,064	-200,000	0,013	-0,043
-720,050	-200,000	-0,001	0,051
-719,035	-200,000	0,029	0,097
-718,021	311,685	-0,008	0,010
-717,006	-200,000	-0,022	-0,168
-715,991	800,000	-0,041	-0,110
-714,977	-94,514	-0,124	0,025
-713,962	84,636	-0,067	-0,054
-712,948	-21,199	0,251	-0,113
-711,933	-200,000	0,003	-0,059
-710,918	800,000	-0,076	-0,156
-709,904	-44,530	0,180	-0,066
-708,889	800,000	-0,026	-0,081
-707,875	-25,114	-0,180	-0,078
-706,860	20,693	0,103	-0,061
-705,845	199,241	0,033	0,037
-704,831	202,853	-0,069	0,078
-703,816	800,000	-0,044	0,102
-702,802	800,000	-0,013	0,040
-701,787	800,000	-0,044	-0,106
-700,772	55,733	-0,135	-0,096
-699,758	-200,000	-0,006	-0,050
-698,743	-22,601	0,034	0,015
-697,729	67,023	0,052	-0,039
-696,714	20,991	0,073	0,043
-695,699	6,292	-0,082	0,044
-694,685	-200,000	0,036	-0,139
-693,670	84,123	0,071	-0,057
-692,656	-76,792	-0,066	-0,017
-691,641	-200,000	-0,014	-0,057
-690,627	105,238	0,064	-0,055
-689,612	17,799	-0,051	-0,030
-688,597	-200,000	-0,013	0,081
-687,583	-48,209	0,024	-0,008
-686,568	413,259	-0,097	-0,152
-685,554	30,089	-0,037	-0,023
-684,539	-1,256	0,149	0,077
-683,524	-6,225	0,031	0,016
-682,510	-141,719	-0,111	-0,008
-681,495	60,250	0,039	-0,028
-680,481	22,415	0,025	-0,015
-679,466	-125,820	-0,120	-0,013
-678,451	112,241	-0,089	-0,079
-677,437	664,090	0,065	-0,125
-676,422	170,902	0,050	-0,053
-675,408	-200,000	-0,025	0,087
-674,393	800,000	0,038	-0,117
-673,378	800,000	-0,059	-0,175
-672,364	-94,435	-0,036	-0,007
-671,349	780,105	0,063	-0,128
-670,335	-200,000	-0,012	-0,041
-669,320	-200,000	-0,000	0,008
-668,305	394,627	0,059	-0,091
-667,291	-2,333	-0,188	-0,097
-666,276	512,315	-0,109	-0,187
-665,262	-200,000	-0,004	0,033
-664,247	40,991	-0,147	-0,098
-663,232	800,000	0,029	-0,081
-662,218	654,939	-0,055	0,105
-661,203	-102,849	0,050	-0,009
-660,189	189,380	-0,043	0,047
-659,174	-15,961	-0,119	-0,055
-658,159	794,884	0,079	-0,160
-657,145	110,617	0,120	-0,106
-656,130	93,491	0,125	0,104
-655,116	-108,616	-0,110	-0,017
-654,101	800,000	0,038	-0,102
-653,086	24,942	0,035	0,021
-652,072	-200,000	0,015	-0,154
-651,057	677,159	-0,102	-0,195
-650,043	-200,000	-0,050	-0,173
-649,028	-67,826	0,063	0,018
-648,014	30,778	0,101	0,064
-646,999	-200,000	-0,007	0,033
-645,984	319,784	0,050	-0,069
-644,970	262,414	-0,105	-0,133
-643,955	-200,000	-0,024	0,091
-642,941	-200,000	0,005	-0,074
-641,926	-200,000	0,027	-0,096
-640,911	-32,743	-0,118	-0,048
-639,897	800,000	0,094	0,217
-638,882	-99,702	0,039	0,007
-637,868	544,290	0,021	0,037
-636,853	-200,000	0,022	-0,203
-635,838	-136,761	0,083	0,007
-634,824	583,577	-0,099	0,180
-633,809	-200,000	-0,001	0,013
-632,795	3,851	0,108	-0,058
-631,780	800,000	0,027	0,058
-630,765	-200,000	-0,009	0,054
-629,751	142,294	-0,129	0,126
-628,736	-153,663	-0,061	-0,003
-627,722	-110,109	-0,098	0,015
-626,707	-80,584	0,150	0,036
-625,692	-9,534	0,091	0,044
-624,678	264,386	0,045	-0,058
-623,663	-84,338	0,098	0,023
-622,649	14,217	-0,104	-0,059
-621,634	0,791	-0,165	0,086
-620,619	33,703	-0,015	-0,009
-619,605	685,792	0,049	0,094
-618,590	-57,711	-0,143	0,046
-617,576	77,040	0,122	0,095
-616,561	48,089	-0,112	0,076
-615,546	-200,000	-0,007	-0,053
-614,532	437,529	-0,014	-0,023
-613,517	-43,995	-0,042	-0,015
-612,503	406,512	-0,025	-0,038
-611,488	800,000	0,037	-0,086
-610,474	-32,555	-0,062	0,025
-609,459	12,669	0,115	-0,065
-608,444	-112,214	-0,098	-0,014
-607,430	-200,000	0,013	-0,137
-606,415	-72,521	0,170	0,046
-605,401	-76,795	-0,087	0,022
-604,386	-200,000	-0,001	0,052
-603,371	-56,527	-0,098	0,032
-602,357	16,041	-0,097	0,056
-601,342	4,531	-0,062	0,033
-600,328	-51,968	0,028	0,010
-599,313	-118,488	-0,146	0,019
-598,298	-200,000	0,008	-0,167
-597,284	478,586	-0,058	-0,096
-596,269	-200,000	0,005	0,119
-595,255	-60,747	-0,105	-0,032
-594,240	-200,000	0,005	-0,096
-593,225	-103,246	0,076	-0,013
-592,211	549,014	-0,021	-0,036
-591,196	-200,000	-0,008	0,081
-590,182	0,461	0,107	0,056
-589,167	541,591	-0,063	0,110
-588,152	94,272	0,108	-0,090
-587,138	-200,000	0,017	-0,081
-586,123	-124,530	0,056	-0,006
-585,109	104,467	0,024	-0,021
-584,094	141,419	0,025	0,024
-583,079	44,977	0,080	-0,054
-582,065	-200,000	-0,010	0,096
-581,050	417,586	0,039	0,062
-580,036	-42,060	-0,064	-0,024
-579,021	-200,000	0,034	-0,147
-578,006	517,754	-0,092	-0,158
-576,992	288,454	-0,025	-0,033
-575,977	56,698	-0,092	-0,065
-574,963	234,336	-0,039	-0,047
-573,948	419,864	-0,035	0,055
-572,934	78,986	0,104	0,081
-571,919	218,136	-0,014	-0,016
-570,904	41,398	-0,034	0,023
-569,890	-92,709	-0,015	0,003
-568,875	800,000	-0,014	-0,032
-567,861	-200,000	0,013	0,111
-566,846	223,402	-0,121	0,144
-565,831	800,000	-0,052	-0,112
-564,817	110,675	-0,038	-0,034
-563,802	221,466	-0,042	-0,050
-562,788	291,013	-0,016	-0,022
-561,773	-67,439	-0,046	-0,013
-560,758	323,418	-0,043	0,060
-559,744	171,510	0,051	0,053
-558,729	32,006	0,093	0,059
-557,715	44,428	-0,063	-0,042
-556,700	153,697	0,049	-0,049
-555,685	800,000	-0,054	-0,158
-554,671	-200,000	0,002	-0,027
-553,656	-200,000	-0,015	0,064
-552,642	753,080	0,049	0,096
-551,627	-200,000	0,009	0,031
-550,612	-200,000	-0,023	-0,084
-549,598	404,342	0,033	0,051
-548,583	198,005	-0,037	0,042
-547,569	-200,000	-0,045	0,167
-546,554	-200,000	-0,002	-0,073
-545,539	-77,873	0,062	0,016
-544,525	5,368	-0,112	-0,060
-543,510	-200,000	-0,033	-0,136
-542,496	-200,000	0,008	-0,067
-541,481	16,986	-0,168	-0,097
-540,466	-17,527	-0,053	-0,024
-539,452	21,136	0,126	-0,075
-538,437	-200,000	-0,001	0,029
-537,423	-154,360	0,094	-0,005
-536,408	19,269	-0,046	0,027
-535,393	-200,000	-0,016	0,098
-534,379	-200,000	0,037	-0,254
-533,364	116,295	-0,054	0,048
-532,350	-18,684	-0,162	0,074
-531,335	244,463	0,059	-0,073
-530,321	-11,501	0,060	-0,029
-529,306	-33,864	-0,040	-0,016
-528,291	52,960	-0,064	-0,045
-527,277	800,000	-0,049	-0,110
-526,262	106,236	-0,058	0,051
-525,248	-106,517	0,059	-0,009
-524,233	2,043	-0,049	-0,026
-523,218	170,624	-0,040	-0,042
-522,204	96,222	-0,046	-0,039
-521,189	-89,518	-0,152	-0,032
-520,175	800,000	0,032	-0,072
-519,160	-13,074	0,012	0,006
-518,145	800,000	-0,060	-0,149
-517,131	800,000	-0,023	0,067
-516,116	-200,000	-0,012	0,041
-515,102	-200,000	-0,008	-0,030
-514,087	-151,028	0,060	-0,003
-513,072	170,624	-0,143	-0,150
-512,058	237,357	-0,043	-0,053
-511,043	-200,000	-0,013	-0,052
-510,029	800,000	0,029	0,060
-509,014	147,329	0,100	0,098
-507,999	541,919	-0,042	-0,073
-506,985	-200,000	0,008	-0,093
-505,970	800,000	0,008	-0,022
-504,956	458,049	-0,098	-0,160
-503,941	-200,000	0,006	0,025
-502,926	173,609	0,034	0,036
-501,912	403,617	0,095	0,147
-500,897	737,578	-0,050	0,099
-499,883	213,100	0,108	0,124
-498,868	389,153	0,016	-0,024
-497,853	-200,000	0,017	-0,104
-496,839	28,381	0,151	-0,093
-495,824	114,631	0,098	0,087
-494,810	42,361	0,075	0,049
-493,795	-87,853	0,113	-0,025
-492,781	157,743	-0,062	-0,063
-491,766	-200,000	-0,017	0,126
-490,751	-200,000	-0,025	0,178
-489,737	-150,508	0,026	-0,001
-488,722	-73,157	-0,035	0,009
-487,708	-88,494	0,205	0,044
-486,693	695,198	0,027	-0,052
-485,678	800,000	0,046	-0,099
-484,664	92,234	0,035	-0,028
-483,649	171,607	0,039	0,040
-482,635	-83,513	-0,106	0,025
-481,620	800,000	0,030	0,065
-480,605	358,676	-0,037	0,054
-479,591	167,611	0,078	-0,081
-478,576	-200,000	-0,005	-0,039
-477,562	-200,000	0,010	-0,050
-476,547	-200,000	-0,004	0,099
-475,532	-17,359	0,088	-0,040
-474,518	241,487	0,003	0,004
-473,503	128,949	-0,026	0,024
-472,489	-200,000	-0,009	-0,039
-471,474	-200,000	0,041	0,139
-470,459	-200,000	0,024	-0,144
-469,445	800,000	0,067	-0,137
-468,430	800,000	-0,050	-0,135
-467,416	-200,000	-0,009	0,089
-466,401	800,000	-0,028	0,067
-465,386	-45,160	0,113	0,041
-464,372	-35,369	0,068	-0,027
-463,357	-27,627	-0,141	0,060
-462,343	-13,056	-0,110	-0,052
-461,328	159,129	0,086	-0,087
-460,313	53,477	0,101	0,070
-459,299	-133,591	0,025	0,002
-458,284	-200,000	-0,040	0,156
-457,270	203,810	-0,066	0,075
-456,255	5,386	0,027	-0,014
-455,241	-20,736	-0,084	-0,038
-454,226	-165,121	-0,120	0,004
-453,211	-102,979	0,184	-0,032
-452,197	505,416	0,023	0,038
-451,182	102,580	-0,071	0,060
-450,168	30,770	0,188	0,117
-449,153	-61,998	0,064	-0,019
-448,138	145,673	-0,085	-0,083
-447,124	494,680	-0,046	0,078
-446,109	476,175	0,020	-0,033
-445,095	-92,410	-0,073	-0,015
-444,080	393,131	0,092	0,140
-443,065	-48,265	0,114	0,040
-442,051	-200,000	0,003	-0,063
-441,036	-87,752	-0,177	-0,039
-440,022	-122,985	-0,039	-0,005
-439,007	-148,353	-0,176	0,010
-437,992	-200,000	-0,005	0,073
-436,978	-25,531	0,158	0,068
-435,963	-21,473	0,014	-0,006
-434,949	800,000	-0,013	0,042
-433,934	449,659	0,031	-0,051
-432,919	-200,000	-0,015	-0,100
-431,905	-200,000	-0,012	-0,214
-430,890	535,208	0,056	0,097
-429,876	800,000	-0,039	-0,081
-428,861	534,826	0,105	0,183
-427,846	455,602	-0,052	0,084
-426,832	800,000	0,038	0,107
-425,817	-105,593	0,107	-0,017
-424,803	112,030	-0,060	-0,052
-423,788	-167,102	0,086	0,002
-422,773	-200,000	-0,000	0,020
-421,759	-200,000	0,006	0,056
-420,744	570,700	-0,118	0,210
-419,730	350,959	0,018	0,026
-418,715	-200,000	0,009	0,212
-417,701	-44,747	-0,079	-0,029
-416,686	-18,497	-0,005	0,002
-415,671	-99,039	0,086	0,016
-414,657	625,248	0,022	-0,041
-413,642	-200,000	-0,000	0,034
-412,628	305,261	-0,037	0,050
-411,613	-200,000	-0,013	0,050
-410,598	-126,080	-0,092	0,010
-409,584	-116,573	0,123	-0,016
-408,569	-111,491	-0,119	0,017
-407,555	-200,000	-0,023	0,133
-406,540	-18,249	-0,019	-0,009
-405,525	-165,257	-0,082	-0,003
-404,511	-92,470	0,086	-0,017
-403,496	29,568	-0,057	-0,035
-402,482	309,213	-0,083	0,113
-401,467	1,095	-0,061	0,032
-400,452	-200,000	0,015	-0,132
-399,438	800,000	-0,010	0,026
-398,423	-97,041	-0,085	0,016
-397,409	84,186	0,087	-0,069
-396,394	7,752	-0,161	-0,088
-395,379	556,330	0,057	0,100
-394,365	-200,000	-0,008	-0,039
-393,350	-175,447	-0,078	-0,002
-392,336	17,921	-0,079	0,046
-391,321	-144,682	0,010	-0,001
-390,306	800,000	0,038	-0,086
-389,292	-57,860	-0,060	-0,019
-388,277	-200,000	0,002	-0,087
-387,263	-200,000	-0,006	0,088
-386,248	800,000	-0,013	0,034
-385,233	-200,000	0,018	0,086
-384,219	83,412	-0,114	0,090
-383,204	-65,691	-0,018	-0,005
-382,190	-31,511	-0,058	0,023
-381,175	-200,000	0,004	0,046
-380,160	25,220	-0,057	-0,035
-379,146	245,941	0,059	0,073
-378,131	-12,522	0,099	-0,047
-377,117	-134,720	-0,054	-0,005
-376,102	77,821	-0,017	0,013
-375,088	-200,000	0,039	0,157
-374,073	800,000	0,014	-0,035
-373,058	68,738	0,102	-0,076
-372,044	-90,476	0,105	0,022
-371,029	-200,000	-0,044	0,212
-370,015	-200,000	0,006	-0,065
-369,000	-179,646	0,119	-0,002
-367,985	486,273	-0,114	-0,190
-366,971	-158,604	-0,134	-0,005
-365,956	-200,000	-0,014	-0,086
-364,942	-63,478	-0,046	0,014
-363,927	-200,000	-0,013	0,201
-362,912	438,167	0,035	0,056
-361,898	-101,489	-0,107	-0,019
-360,883	63,912	-0,225	-0,164
-359,869	800,000	0,043	0,108
-358,854	267,409	0,023	-0,030
-357,839	-200,000	0,021	-0,071
-356,825	239,517	0,026	0,031
-355,810	149,829	0,075	-0,074
-354,796	-137,418	-0,149	-0,012
-353,781	44,177	-0,134	-0,089
-352,766	-98,338	0,124	-0,023
-351,752	-49,967	0,077	0,026
-350,737	565,297	-0,060	0,107
-349,723	89,476	-0,139	0,113
-348,708	800,000	0,046	0,130
-347,693	-102,490	-0,037	-0,006
-346,679	-32,378	-0,010	-0,004
-345,664	-13,455	-0,115	-0,054
-344,650	-23,396	0,154	-0,067
-343,635	96,800	0,028	-0,024
-342,620	587,990	0,067	-0,120
-341,606	-46,133	0,097	-0,035
-340,591	139,232	0,043	0,041
-339,577	-109,754	-0,063	0,009
-338,562	-40,066	0,121	-0,045
-337,548	180,034	-0,024	-0,026
-336,533	-30,731	-0,056	0,023
-335,518	630,842	0,069	0,128
-334,504	-37,240	0,056	-0,022
-333,489	447,304	-0,050	-0,080
-332,475	-129,254	0,008	0,001
-331,460	196,239	-0,095	0,105
-330,445	-200,000	0,018	-0,094
-329,431	55,506	-0,079	0,055
-328,416	507,575	0,070	0,118
-327,402	800,000	0,054	0,117
-326,387	19,415	0,105	-0,061
-325,372	117,266	-0,084	0,075
-324,358	-200,000	0,015	-0,074
-323,343	-200,000	-0,011	-0,195
-322,329	173,220	0,100	-0,105
-321,314	-200,000	0,009	-0,131
-320,299	-112,787	-0,020	-0,003
-319,285	-65,999	0,045	0,013
-318,270	43,918	-0,030	0,020
-317,256	-200,000	0,020	0,079
-316,241	71,491	-0,125	-0,094
-315,226	386,395	0,107	0,161
-314,212	-50,021	0,096	0,033
-313,197	638,882	-0,023	0,043
-312,183	191,670	0,103	0,113
-311,168	800,000	0,026	0,055
-310,153	-200,000	-0,023	-0,117
-309,139	205,046	0,046	-0,051
-308,124	217,669	-0,035	0,041
-307,110	-200,000	0,038	-0,138
-306,095	77,666	0,100	-0,077
-305,080	-137,210	0,157	-0,013
-304,066	-6,300	-0,052	0,026
-303,051	592,290	0,016	0,029
-302,037	655,207	-0,023	-0,043
-301,022	-7,562	0,071	-0,035
-300,008	-35,526	-0,030	0,012
-298,993	-78,317	0,060	-0,015
-297,978	-115,487	-0,140	0,019
-296,964	-92,158	0,077	0,016
-295,949	-123,383	0,177	-0,020
-294,935	145,866	-0,089	-0,087
-293,920	151,121	0,101	-0,099
-292,905	-182,150	0,073	0,001
-291,891	-43,098	0,029	-0,011
-290,876	800,000	0,073	-0,159
-289,862	800,000	-0,085	0,205
-288,847	800,000	0,044	-0,093
-287,832	-38,574	-0,069	0,026
-286,818	84,935	-0,032	0,025
-285,803	22,745	0,024	0,014
-284,789	-91,115	0,061	-0,013
-283,774	-200,000	0,025	-0,094
-282,759	182,817	-0,035	-0,037
-281,745	-200,000	-0,003	0,086
-280,730	-68,482	-0,130	-0,036
-279,716	-35,224	-0,057	-0,022
-278,701	-200,000	0,010	-0,088
-277,686	800,000	0,062	-0,159
-276,672	-51,143	-0,084	0,028
-275,657	110,597	0,031	0,027
-274,643	-0,039	-0,084	0,043
-273,628	-118,187	-0,078	0,010
-272,613	-78,166	0,083	-0,021
-271,599	-200,000	0,004	-0,025
-270,584	138,521	-0,040	-0,038
-269,570	79,100	0,091	0,070
-268,555	800,000	0,012	-0,027
-267,540	-37,870	0,082	0,032
-266,526	-118,517	-0,067	0,009
-265,511	58,646	0,036	0,026
-264,497	-200,000	-0,018	0,082
-263,482	-3,266	0,137	0,069
-262,467	107,213	0,030	-0,026
-261,453	-200,000	-0,009	0,078
-260,438	-200,000	0,005	-0,117
-259,424	-79,064	-0,004	0,001
-258,409	-200,000	-0,026	-0,147
-257,395	60,456	0,100	-0,072
-256,380	56,843	0,036	-0,025
-255,365	231,348	0,032	-0,038
-254,351	800,000	0,066	0,145
-253,336	444,624	0,045	0,072
-252,322	800,000	-0,044	-0,095
-251,307	0,589	-0,091	0,047
-250,292	-101,740	0,170	0,030
-249,278	111,823	0,052	0,045
-248,263	59,083	-0,036	-0,026
-247,249	-200,000	0,012	-0,050
-246,234	-200,000	0,001	-0,008
-245,219	-16,419	-0,140	-0,064
-244,205	320,612	-0,084	-0,115
-243,190	800,000	-0,072	-0,169
-242,176	800,000	0,063	0,132
-241,161	186,524	-0,079	0,086
-240,146	89,646	-0,020	0,016
-239,132	258,636	-0,033	0,042
-238,117	558,799	0,019	0,034
-237,103	12,328	-0,146	-0,081
-236,088	800,000	-0,034	-0,106
-235,073	-38,559	0,099	-0,038
-234,059	225,782	0,099	0,116
-233,044	800,000	-0,023	-0,051
-232,030	-200,000	-0,017	0,083
-231,015	-200,000	0,005	0,025
-230,000	-200,000	0,056	-0,202
-228,986	-81,477	-0,124	0,029
-227,971	114,670	0,036	-0,031
-226,957	-98,879	0,077	-0,014
-225,942	-78,057	-0,149	-0,037
-224,927	-95,501	-0,083	0,016
-223,913	151,896	-0,077	-0,076
-222,898	-58,116	0,081	0,025
-221,884	800,000	-0,018	-0,058
-220,869	-35,203	0,020	-0,008
-219,855	18,162	-0,013	0,007
-218,840	178,668	0,035	-0,036
-217,825	474,753	-0,058	0,095
-216,811	95,104	-0,110	0,090
-215,796	-63,808	-0,189	-0,056
-214,782	638,735	0,068	0,126
-213,767	-18,928	-0,051	-0,023
-212,752	-109,293	0,135	0,020
-211,738	209,832	0,066	0,075
-210,723	-51,621	0,092	-0,031
-209,709	-200,000	-0,028	0,125
-208,694	800,000	0,048	-0,123
-207,679	360,394	0,066	0,096
-206,665	-119,697	-0,133	-0,016
-205,650	-10,666	0,133	-0,063
-204,636	-200,000	0,006	0,113
-203,621	-47,560	0,036	0,013
-202,606	-117,121	-0,069	0,009
-201,592	800,000	-0,020	-0,056
-200,577	55,302	-0,016	-0,011
-199,563	-200,000	0,018	-0,147
-198,548	355,527	-0,063	-0,090
-197,533	66,628	0,095	-0,070
-196,519	-200,000	-0,023	-0,097
-195,504	-59,605	-0,084	0,026
-194,490	-170,691	0,062	0,002
-193,475	-34,561	-0,068	-0,027
-192,460	-200,000	-0,009	0,035
-191,446	204,962	-0,094	0,105
-190,431	-11,364	0,125	-0,059
-189,417	-123,651	0,096	0,011
-188,402	-200,000	-0,003	0,091
-187,387	59,341	0,017	0,012
-186,373	567,932	0,054	-0,095
-185,358	-200,000	-0,006	-0,050
-184,344	-200,000	0,003	0,054
-183,329	-129,342	0,034	0,003
-182,315	13,612	-0,091	0,051
-181,300	-200,000	-0,002	-0,055
-180,285	800,000	0,057	-0,141
-179,271	54,268	0,021	-0,014
-178,256	-200,000	0,004	-0,055
-177,242	558,137	-0,033	0,058
-176,227	211,825	0,041	0,047
-175,212	-110,539	0,106	-0,016
-174,198	402,588	0,027	0,041
-173,183	-200,000	-0,020	0,066
-172,169	800,000	-0,019	0,040
-171,154	-200,000	-0,021	-0,133
-170,139	287,908	0,088	0,115
-169,125	157,749	0,065	-0,065
-168,110	-59,744	-0,003	-0,001
-167,096	-200,000	0,017	0,070
-166,081	-200,000	0,002	0,041
-165,066	-50,442	-0,075	0,025
-164,052	-200,000	0,030	0,117
-163,037	-21,093	0,219	-0,096
-162,023	-152,203	-0,076	0,004
-161,008	316,484	0,037	0,050
-159,993	429,696	-0,068	0,106
-158,979	467,374	-0,041	-0,067
-157,964	800,000	0,022	-0,067
-156,950	-64,447	-0,096	-0,028
-155,935	103,396	0,107	0,091
-154,920	-200,000	0,002	0,034
-153,906	800,000	-0,047	0,115
-152,891	165,447	0,127	0,129
-151,877	494,877	0,022	-0,036
-150,862	-200,000	0,035	-0,111
-149,847	-51,867	0,041	-0,014
-148,833	-200,000	0,000	-0,141
-147,818	445,286	-0,043	0,069
-146,804	-200,000	-0,015	0,121
-145,789	-52,645	0,111	0,037
-144,775	428,430	0,095	-0,149
-143,760	-200,000	-0,011	0,092
-142,745	288,300	-0,034	0,044
-141,731	-74,032	-0,090	-0,023
-140,716	800,000	0,055	-0,146
-139,702	-103,598	0,118	0,020
-138,687	-169,170	0,115	0,003
-137,672	-42,835	-0,034	-0,012
-136,658	206,269	0,020	-0,022
-135,643	-6,362	0,021	-0,010
-134,629	-158,095	0,047	-0,002
-133,614	-200,000	-0,000	0,105
-132,599	-125,183	-0,065	0,007
-131,585	800,000	0,030	-0,094
-130,570	-15,991	0,156	-0,071
-129,556	-200,000	-0,000	-0,014
-128,541	100,422	-0,110	-0,092
-127,526	-200,000	0,013	-0,236
-126,512	-33,693	0,069	-0,027
-125,497	47,734	-0,028	0,019
-124,483	-200,000	-0,033	0,139
-123,468	626,611	-0,044	0,081
-122,453	134,642	-0,130	0,122
-121,439	677,720	-0,020	0,037
-120,424	-15,033	0,117	-0,054
