DTS Sentinel unit serial number:	SN410029Multiplexer serial number:	ORYXHardware model number:	OX2-SRSoftware version number:	ORYX F/W v4,00 Oryx Data Collector v3.7.2.0data status	okinstallation	B5 Nyhavnadifferential loss correction	single-endedforward channel	channel 2reverse channel	N/Adate	2023/12/14time	07:27:13forward acquisition time	300,00reverse acquisition time	0,00gamma	499,1914k internal	0,3159k external	0,3159temperature offset calibration	1,0000default loss term (dB/km)	0,3820temperature slope calibration	1,0000multiplexer offset coefficient	1,0000multiplexer slope coefficient	1,0000fibre end	0,00T internal ref (°C)	7,18T ext. ref 1 (°C)	-9,27T ext. ref 2 (°C)	-9,35length (m)	temperature (°C)	Stokes	anti-Stokes-744,400	5,739	0,222	0,120
-743,385	-147,194	-0,453	-0,028
-742,371	104,883	0,152	0,132
-741,356	-31,936	-0,393	-0,161
-740,342	-65,230	0,230	0,068
-739,327	-108,986	-0,477	-0,074
-738,312	-197,716	0,103	-0,000
-737,298	-191,369	-0,429	0,003
-736,283	-88,413	0,138	0,030
-735,269	7,508	-0,341	-0,187
-734,254	36,359	0,182	0,118
-733,239	-66,490	-0,607	-0,176
-732,225	-26,423	0,361	0,155
-731,210	776,199	-0,028	-0,057
-730,196	-92,336	-0,057	0,012
-729,181	-134,228	-0,122	0,011
-728,167	-106,282	0,019	0,003
-727,152	37,504	-0,010	0,006
-726,137	262,851	-0,085	-0,109
-725,123	105,498	-0,148	-0,129
-724,108	535,244	0,043	-0,075
-723,094	408,452	-0,037	-0,057
-722,079	630,845	-0,072	-0,134
-721,064	-200,000	-0,003	-0,099
-720,050	15,992	-0,215	-0,124
-719,035	800,000	-0,012	0,029
-718,021	-200,000	0,001	-0,058
-717,006	-198,888	-0,107	0,000
-715,991	4,925	0,051	-0,027
-714,977	448,542	-0,047	-0,077
-713,962	73,199	-0,073	0,056
-712,948	47,807	0,083	-0,057
-711,933	-22,254	0,071	0,032
-710,918	-131,748	0,131	0,013
-709,904	22,742	-0,108	-0,065
-708,889	117,316	-0,025	-0,022
-707,875	411,583	-0,038	0,060
-706,860	-200,000	0,036	-0,138
-705,845	-200,000	0,017	-0,063
-704,831	29,834	-0,085	-0,053
-703,816	-200,000	0,002	-0,073
-702,802	706,724	-0,064	-0,125
-701,787	401,486	0,026	-0,040
-700,772	-93,072	-0,115	0,023
-699,758	152,212	-0,068	-0,068
-698,743	86,626	0,052	-0,042
-697,729	204,558	0,088	0,101
-696,714	-200,000	-0,021	-0,091
-695,699	-200,000	-0,035	-0,157
-694,685	-200,000	0,034	-0,113
-693,670	-92,813	-0,030	-0,006
-692,656	442,309	-0,019	-0,031
-691,641	-90,946	0,073	-0,015
-690,627	419,111	0,022	-0,034
-689,612	234,271	-0,053	0,065
-688,597	-70,216	0,053	-0,015
-687,583	-157,011	-0,093	-0,004
-686,568	-26,447	0,101	-0,043
-685,554	-69,463	-0,103	0,029
-684,539	-200,000	-0,003	0,032
-683,524	-50,038	-0,047	0,016
-682,510	800,000	0,039	-0,093
-681,495	261,936	-0,020	-0,026
-680,481	-80,988	-0,049	0,012
-679,466	278,729	-0,096	-0,127
-678,451	108,299	0,082	0,072
-677,437	714,675	-0,043	0,084
-676,422	-100,032	-0,028	0,005
-675,408	-200,000	0,027	-0,104
-674,393	-200,000	0,012	0,047
-673,378	-200,000	-0,013	-0,087
-672,364	-200,000	-0,010	0,052
-671,349	800,000	0,056	-0,177
-670,335	31,521	0,095	-0,060
-669,320	250,706	0,115	0,144
-668,305	625,407	0,076	0,142
-667,291	800,000	-0,014	0,035
-666,276	800,000	-0,047	-0,128
-665,262	-200,000	-0,006	-0,044
-664,247	286,880	0,077	-0,103
-663,232	434,123	0,013	-0,021
-662,218	304,936	-0,083	-0,113
-661,203	163,292	0,101	0,104
-660,189	219,226	-0,054	-0,064
-659,174	-200,000	0,011	-0,043
-658,159	69,940	-0,117	-0,089
-657,145	-200,000	0,006	-0,107
-656,130	-5,226	0,043	0,022
-655,116	-74,455	0,090	-0,024
-654,101	36,386	-0,090	0,058
-653,086	-194,284	-0,147	0,001
-652,072	-200,000	-0,013	0,071
-651,057	-148,561	0,106	-0,006
-650,043	-61,408	-0,107	-0,033
-649,028	800,000	0,070	-0,192
-648,014	286,803	0,085	-0,112
-646,999	-200,000	0,001	0,063
-645,984	3,859	-0,068	0,037
-644,970	101,868	-0,049	-0,042
-643,955	800,000	0,036	-0,115
-642,941	753,060	-0,035	-0,070
-641,926	800,000	0,043	-0,093
-640,911	710,304	0,116	0,225
-639,897	800,000	0,053	0,122
-638,882	-200,000	0,005	0,108
-637,868	-159,924	-0,099	-0,004
-636,853	45,954	-0,083	-0,056
-635,838	-102,265	-0,071	-0,012
-634,824	-8,576	0,055	0,027
-633,809	-200,000	0,003	0,041
-632,795	320,010	0,054	0,075
-631,780	-200,000	-0,006	-0,062
-630,765	-87,142	0,067	-0,015
-629,751	-46,414	0,034	0,012
-628,736	-52,974	-0,130	-0,044
-627,722	204,684	0,028	-0,032
-626,707	211,375	0,098	0,114
-625,692	-200,000	-0,009	0,106
-624,678	139,003	-0,139	0,134
-623,663	-200,000	-0,040	-0,152
-622,649	-93,045	-0,008	0,002
-621,634	467,612	-0,023	0,038
-620,619	271,594	-0,020	-0,026
-619,605	336,305	0,058	0,083
-618,590	46,655	-0,065	-0,045
-617,576	-104,042	-0,040	0,007
-616,561	-120,927	0,034	0,004
-615,546	-31,069	-0,112	-0,046
-614,532	-200,000	-0,064	-0,259
-613,517	130,567	-0,016	-0,015
-612,503	271,575	-0,086	0,112
-611,488	75,090	0,175	0,135
-610,474	48,244	0,020	-0,014
-609,459	54,489	0,101	-0,071
-608,444	-70,726	-0,119	-0,033
-607,430	-200,000	-0,005	-0,085
-606,415	117,322	-0,084	-0,076
-605,401	800,000	-0,027	-0,056
-604,386	208,637	-0,096	0,110
-603,371	-200,000	-0,028	0,096
-602,357	666,547	0,039	0,075
-601,342	-53,942	-0,227	0,075
-600,328	800,000	0,028	-0,075
-599,313	247,337	-0,136	-0,169
-598,298	495,345	0,037	-0,063
-597,284	-159,862	0,082	0,003
-596,269	2,947	-0,099	-0,053
-595,255	425,362	0,070	0,110
-594,240	800,000	0,038	-0,090
-593,225	-120,703	0,100	-0,012
-592,211	800,000	0,032	-0,089
-591,196	318,096	0,030	0,041
-590,182	-126,754	0,032	-0,003
-589,167	-200,000	-0,002	0,057
-588,152	-48,427	0,129	-0,045
-587,138	800,000	0,041	0,128
-586,123	509,253	-0,077	0,131
-585,109	-115,251	0,068	0,009
-584,094	800,000	0,045	0,098
-583,079	-107,291	-0,055	-0,009
-582,065	-83,217	-0,103	0,024
-581,050	-200,000	-0,013	0,063
-580,036	50,343	-0,096	-0,066
-579,021	64,785	-0,058	-0,043
-578,006	-121,085	-0,052	-0,006
-576,992	-200,000	-0,023	-0,119
-575,977	479,272	0,091	0,151
-574,963	-200,000	0,032	0,224
-573,948	-200,000	0,033	0,111
-572,934	181,727	-0,077	-0,083
-571,919	-200,000	0,007	-0,142
-570,904	10,633	-0,096	-0,053
-569,890	184,834	-0,036	-0,039
-568,875	26,842	-0,029	0,018
-567,861	76,528	0,077	0,060
-566,846	259,096	-0,019	0,024
-565,831	82,875	-0,042	-0,033
-564,817	108,134	0,096	-0,084
-563,802	-8,034	-0,064	-0,032
-562,788	199,467	-0,011	-0,012
-561,773	-200,000	0,003	0,097
-560,758	544,509	0,066	0,115
-559,744	195,824	-0,075	0,084
-558,729	-121,755	0,089	-0,011
-557,715	800,000	0,021	-0,045
-556,700	54,143	-0,187	-0,131
-555,685	-54,916	-0,045	0,015
-554,671	-200,000	0,013	-0,045
-553,656	-200,000	-0,018	-0,081
-552,642	24,383	0,091	0,055
-551,627	203,609	-0,124	-0,140
-550,612	-119,943	0,069	0,009
-549,598	139,373	-0,056	-0,054
-548,583	405,495	-0,052	-0,081
-547,569	6,785	-0,044	-0,024
-546,554	20,289	0,106	-0,062
-545,539	492,894	0,069	0,116
-544,525	-200,000	0,010	-0,070
-543,510	271,913	-0,058	0,075
-542,496	122,543	0,080	0,073
-541,481	-15,390	0,086	0,040
-540,466	325,329	0,035	-0,049
-539,452	-153,051	0,030	-0,002
-538,437	95,386	0,104	0,086
-537,423	-105,885	-0,058	0,009
-536,408	-200,000	-0,028	-0,108
-535,393	203,886	-0,094	-0,106
-534,379	-175,726	-0,091	-0,002
-533,364	-200,000	0,037	-0,137
-532,350	-110,687	-0,088	0,013
-531,335	668,600	0,051	0,097
-530,321	44,262	-0,114	0,077
-529,306	238,679	0,037	-0,045
-528,291	-200,000	0,044	-0,148
-527,277	-200,000	-0,033	-0,124
-526,262	16,393	-0,053	-0,031
-525,248	154,580	-0,040	0,040
-524,233	-166,893	0,111	-0,003
-523,218	-200,000	0,021	0,104
-522,204	50,845	-0,037	-0,025
-521,189	10,822	-0,049	0,027
-520,175	-200,000	0,010	0,038
-519,160	47,512	-0,073	0,050
-518,145	-200,000	-0,005	0,041
-517,131	-97,195	0,124	0,024
-516,116	-67,537	0,074	-0,021
-515,102	4,050	0,100	-0,053
-514,087	-35,661	0,103	-0,040
-513,072	-101,549	-0,054	-0,010
-512,058	420,040	0,027	-0,042
-511,043	800,000	-0,039	-0,094
-510,029	-83,913	0,090	0,021
-509,014	115,712	0,056	0,050
-507,999	-121,003	0,146	0,018
-506,985	83,005	-0,099	0,079
-505,970	-164,419	-0,069	0,002
-504,956	800,000	-0,041	0,116
-503,941	-117,448	-0,140	0,018
-502,926	-63,164	0,060	-0,018
-501,912	-200,000	0,006	0,048
-500,897	-3,087	0,043	0,022
-499,883	89,554	-0,174	-0,141
-498,868	524,128	-0,059	-0,101
-497,853	-63,336	0,064	0,019
-496,839	-37,039	0,122	-0,047
-495,824	155,317	0,061	-0,061
-494,810	109,563	-0,045	0,039
-493,795	-88,484	0,082	0,018
-492,781	-59,597	-0,050	-0,016
-491,766	-104,790	-0,070	-0,012
-490,751	-91,667	-0,220	-0,045
-489,737	-110,511	0,038	-0,006
-488,722	15,651	0,029	-0,017
-487,708	800,000	0,041	-0,108
-486,693	-24,248	0,021	0,009
-485,678	800,000	-0,069	0,186
-484,664	246,862	-0,021	-0,026
-483,649	52,968	-0,083	-0,058
-482,635	-66,502	0,060	-0,017
-481,620	800,000	-0,013	0,032
-480,605	14,403	0,087	0,049
-479,591	-200,000	-0,024	0,088
-478,576	535,936	-0,066	-0,115
-477,562	800,000	-0,011	-0,032
-476,547	44,655	0,052	-0,035
-475,532	-99,366	0,093	-0,017
-474,518	800,000	0,024	0,053
-473,503	475,276	0,095	0,157
-472,489	116,695	0,070	0,062
-471,474	-110,134	-0,064	0,010
-470,459	244,551	0,066	0,081
-469,445	288,657	-0,051	0,068
-468,430	271,946	-0,028	0,036
-467,416	-59,313	0,070	-0,022
-466,401	800,000	-0,020	0,047
-465,386	-160,323	-0,048	-0,002
-464,372	-50,816	-0,077	-0,026
-463,357	735,728	-0,025	0,049
-462,343	182,084	-0,076	-0,082
-461,328	156,104	0,090	-0,090
-460,313	-165,135	0,088	0,003
-459,299	-200,000	0,016	0,115
-458,284	800,000	0,024	-0,062
-457,270	-200,000	0,022	0,094
-456,255	-200,000	-0,000	0,009
-455,241	6,259	0,091	0,049
-454,226	800,000	-0,052	-0,117
-453,211	-20,505	-0,030	-0,013
-452,197	-200,000	-0,000	-0,091
-451,182	132,084	0,076	-0,071
-450,168	-200,000	-0,014	-0,062
-449,153	-200,000	0,007	0,065
-448,138	79,333	0,064	-0,050
-447,124	-22,665	-0,101	-0,044
-446,109	-200,000	0,007	-0,080
-445,095	800,000	-0,010	0,031
-444,080	-112,079	-0,034	0,005
-443,065	-200,000	-0,002	-0,028
-442,051	-200,000	0,034	-0,170
-441,036	-200,000	-0,016	-0,156
-440,022	144,608	-0,057	-0,056
-439,007	-200,000	0,015	-0,150
-437,992	-1,109	0,114	0,059
-436,978	-83,359	-0,164	0,038
-435,963	165,799	0,028	0,029
-434,949	260,612	-0,125	-0,157
-433,934	-33,935	0,093	-0,037
-432,919	116,189	-0,124	-0,111
-431,905	-35,547	0,076	-0,030
-430,890	-2,723	0,036	-0,018
-429,876	240,771	0,047	0,058
-428,861	65,735	-0,006	0,004
-427,846	-119,226	0,172	0,022
-426,832	-200,000	-0,006	-0,091
-425,817	-76,610	-0,026	-0,006
-424,803	9,931	0,116	0,064
-423,788	-165,811	-0,141	-0,004
-422,773	72,630	-0,064	0,048
-421,759	-8,804	0,106	0,051
-420,744	269,062	0,045	0,058
-419,730	-200,000	0,020	-0,159
-418,715	-200,000	0,019	-0,140
-417,701	-128,138	0,089	0,009
-416,686	347,118	-0,064	0,092
-415,671	-63,779	0,114	-0,034
-414,657	800,000	-0,052	0,162
-413,642	-29,326	-0,108	-0,045
-412,628	-18,510	-0,061	0,028
-411,613	800,000	0,045	0,095
-410,598	80,333	-0,126	-0,098
-409,584	20,062	0,127	0,074
-408,569	-200,000	0,009	0,030
-407,555	800,000	0,015	-0,035
-406,540	-200,000	-0,030	-0,116
-405,525	-200,000	-0,004	-0,064
-404,511	108,995	-0,066	0,058
-403,496	-66,522	-0,102	-0,029
-402,482	-200,000	0,010	-0,054
-401,467	133,258	0,191	0,179
-400,452	-200,000	-0,011	0,150
-399,438	-53,156	0,110	0,036
-398,423	116,360	0,028	-0,025
-397,409	115,570	-0,061	0,054
-396,394	-46,731	-0,038	-0,013
-395,379	800,000	0,061	0,135
-394,365	-200,000	0,026	0,094
-393,350	163,214	0,097	0,099
-392,336	-72,075	0,084	0,023
-391,321	302,205	-0,051	0,069
-390,306	107,705	-0,073	0,063
-389,292	-200,000	0,000	-0,073
-388,277	-150,982	-0,154	0,008
-387,263	-70,641	0,051	0,014
-386,248	-200,000	0,028	0,092
-385,233	67,428	-0,043	0,032
-384,219	318,464	0,034	-0,047
-383,204	377,472	-0,029	-0,043
-382,190	-200,000	-0,015	-0,051
-381,175	800,000	-0,059	0,129
-380,160	-200,000	0,007	-0,115
-379,146	800,000	-0,030	-0,063
-378,131	-62,586	0,024	0,007
-377,117	-200,000	0,010	-0,089
-376,102	-200,000	-0,014	0,056
-375,088	-200,000	0,020	-0,089
-374,073	-133,629	-0,149	0,013
-373,058	-35,779	0,033	-0,013
-372,044	705,958	-0,073	0,140
-371,029	326,732	0,110	0,154
-370,015	584,969	-0,033	0,058
-369,000	374,939	0,007	-0,010
-367,985	-149,416	0,196	0,011
-366,971	-145,366	-0,094	0,006
-365,956	4,293	0,067	0,035
-364,942	-79,451	0,119	-0,029
-363,927	124,915	-0,107	-0,098
-362,912	65,902	-0,147	0,108
-361,898	278,985	0,063	-0,081
-360,883	32,353	-0,037	0,023
-359,869	-118,922	-0,075	0,009
-358,854	189,755	-0,025	-0,027
-357,839	194,377	-0,054	-0,060
-356,825	365,691	0,057	0,083
-355,810	-25,050	-0,067	0,029
-354,796	-53,323	0,076	-0,025
-353,781	800,000	0,018	-0,053
-352,766	66,793	-0,039	0,029
-351,752	-151,334	0,103	0,005
-350,737	-107,449	-0,071	0,011
-349,723	203,930	0,119	0,133
-348,708	-200,000	-0,023	0,079
-347,693	-50,560	0,122	-0,041
-346,679	-200,000	-0,019	-0,068
-345,664	-140,441	-0,093	0,007
-344,650	-2,090	-0,085	0,043
-343,635	-2,871	0,047	0,024
-342,620	-200,000	-0,007	0,051
-341,606	-200,000	0,003	0,106
-340,591	96,268	0,008	-0,007
-339,577	800,000	0,024	-0,066
-338,562	-107,891	0,073	0,011
-337,548	486,167	-0,038	-0,063
-336,533	-5,531	0,164	-0,081
-335,518	-1,797	0,062	-0,031
-334,504	-200,000	-0,007	-0,038
-333,489	-56,678	-0,074	-0,024
-332,475	25,438	-0,077	-0,046
-331,460	800,000	0,020	0,041
-330,445	-55,836	-0,050	-0,016
-329,431	-33,197	0,108	-0,043
-328,416	-104,578	0,102	0,017
-327,402	-200,000	0,012	0,164
-326,387	-70,791	0,203	0,055
-325,372	-184,704	-0,125	-0,001
-324,358	-200,000	-0,005	0,000
-323,343	93,908	-0,096	0,078
-322,329	-200,000	0,004	0,038
-321,314	-200,000	-0,010	0,059
-320,299	-200,000	-0,012	0,055
-319,285	257,792	-0,084	0,105
-318,270	-16,428	0,101	0,046
-317,256	-11,735	-0,056	0,027
-316,241	-119,827	0,128	-0,016
-315,226	-200,000	0,003	0,032
-314,212	258,952	-0,052	-0,065
-313,197	-200,000	0,003	0,087
-312,183	-200,000	0,021	0,101
-311,168	-200,000	0,007	-0,047
-310,153	-200,000	-0,005	-0,029
-309,139	11,268	0,044	-0,024
-308,124	-200,000	0,011	-0,046
-307,110	-200,000	0,016	-0,101
-306,095	-200,000	0,025	0,150
-305,080	-200,000	-0,034	-0,131
-304,066	-200,000	-0,011	-0,068
-303,051	21,521	-0,051	-0,030
-302,037	242,031	-0,018	0,022
-301,022	111,587	0,103	0,090
-300,008	183,198	-0,039	0,042
-298,993	107,221	0,080	0,069
-297,978	-8,253	-0,112	0,054
-296,964	-73,128	0,090	-0,024
-295,949	-200,000	-0,030	-0,112
-294,935	136,346	0,020	-0,019
-293,920	-9,397	-0,093	0,045
-292,905	-117,828	0,111	0,014
-291,891	800,000	0,029	-0,072
-290,876	-81,051	-0,098	0,023
-289,862	-200,000	0,000	-0,043
-288,847	76,614	-0,048	-0,037
-287,832	-145,465	-0,040	0,003
-286,818	99,080	-0,030	0,025
-285,803	220,237	0,052	-0,060
-284,789	-200,000	-0,014	0,080
-283,774	800,000	-0,049	0,131
-282,759	800,000	-0,064	0,203
-281,745	475,415	-0,066	-0,108
-280,730	-200,000	-0,004	-0,068
-279,716	-200,000	0,025	-0,109
-278,701	-200,000	-0,020	-0,078
-277,686	-200,000	0,052	0,183
-276,672	-134,238	0,032	-0,003
-275,657	-86,427	-0,013	0,003
-274,643	588,312	0,047	-0,084
-273,628	267,130	-0,096	-0,122
-272,613	800,000	0,034	0,076
-271,599	52,246	0,101	-0,069
-270,584	800,000	-0,021	-0,047
-269,570	73,939	0,178	-0,135
-268,555	-60,269	-0,047	0,014
-267,540	165,112	-0,096	-0,098
-266,526	54,662	0,046	0,032
-265,511	-200,000	-0,016	0,085
-264,497	-25,704	0,131	0,056
-263,482	800,000	0,054	0,143
-262,467	-74,171	0,045	0,012
-261,453	24,324	0,022	0,013
-260,438	-2,807	0,142	-0,072
-259,424	-200,000	-0,007	-0,065
-258,409	-200,000	-0,017	-0,105
-257,395	473,317	-0,053	0,087
-256,380	-120,070	-0,136	-0,017
-255,365	181,715	0,014	-0,015
-254,351	-200,000	0,012	0,095
-253,336	-71,894	-0,063	0,017
-252,322	123,969	-0,055	-0,050
-251,307	99,682	0,100	0,083
-250,292	7,995	-0,069	0,037
-249,278	-200,000	-0,004	-0,053
-248,263	-110,049	0,052	-0,008
-247,249	-105,230	0,077	0,013
-246,234	618,787	0,060	-0,109
-245,219	73,629	-0,150	-0,114
-244,205	-200,000	-0,019	0,076
-243,190	163,035	-0,060	-0,061
-242,176	138,189	0,073	0,070
-241,161	-200,000	-0,002	0,070
-240,146	7,741	0,030	-0,016
-239,132	800,000	-0,063	0,127
-238,117	-89,446	-0,096	-0,020
-237,103	550,272	0,010	0,017
-236,088	-200,000	0,043	-0,168
-235,073	-200,000	0,017	-0,129
-234,059	-62,534	0,182	-0,054
-233,044	-200,000	0,007	0,036
-232,030	-135,007	-0,152	-0,013
-231,015	-200,000	-0,015	0,108
-230,000	227,170	-0,027	0,032
-228,986	399,678	-0,055	0,083
-227,971	-1,840	0,104	0,053
-226,957	279,062	-0,060	0,077
-225,942	800,000	-0,028	-0,064
-224,927	-200,000	-0,014	-0,071
-223,913	-143,038	-0,151	-0,010
-222,898	-27,247	-0,072	-0,030
-221,884	-200,000	-0,001	0,027
-220,869	126,452	0,022	-0,020
-219,855	-64,696	-0,099	-0,029
-218,840	-200,000	0,028	0,164
-217,825	-59,892	0,060	0,019
-216,811	-123,810	-0,078	-0,009
-215,796	-200,000	-0,004	-0,070
-214,782	-105,315	-0,025	-0,004
-213,767	-130,608	-0,056	-0,005
-212,752	-116,278	0,194	-0,026
-211,738	263,258	0,010	0,013
-210,723	-145,149	-0,117	-0,008
-209,709	-200,000	0,013	0,050
-208,694	59,175	-0,107	-0,076
-207,679	-200,000	0,010	-0,048
-206,665	-150,375	-0,116	0,006
-205,650	-128,819	0,104	0,010
-204,636	800,000	0,025	-0,051
-203,621	281,429	0,033	-0,042
-202,606	-74,631	0,034	-0,009
-201,592	59,350	0,200	-0,142
-200,577	-200,000	0,006	-0,022
-199,563	180,876	-0,068	-0,072
-198,548	-200,000	-0,007	0,022
-197,533	800,000	-0,023	0,056
-196,519	363,750	0,060	0,087
-195,504	-200,000	0,011	0,052
-194,490	-200,000	0,002	-0,050
-193,475	437,610	-0,031	0,049
-192,460	-31,339	0,017	-0,007
-191,446	-90,792	0,064	-0,013
-190,431	73,688	0,078	-0,059
-189,417	206,287	0,030	-0,034
-188,402	114,391	0,056	-0,049
-187,387	-200,000	-0,039	0,165
-186,373	-104,553	0,134	0,022
-185,358	12,942	0,114	-0,063
-184,344	-15,984	-0,074	-0,034
-183,329	421,278	-0,062	0,095
-182,315	238,146	0,074	0,089
-181,300	127,348	0,107	-0,098
-180,285	-87,248	-0,127	-0,028
-179,271	157,543	0,094	-0,094
-178,256	-104,899	0,030	-0,005
-177,242	522,004	-0,056	0,095
-176,227	32,538	0,064	0,040
-175,212	332,128	-0,073	0,102
-174,198	-125,764	-0,078	-0,008
-173,183	-14,236	-0,019	0,009
-172,169	-200,000	-0,014	-0,109
-171,154	343,967	0,043	-0,061
-170,139	-30,117	0,028	-0,011
-169,125	41,733	0,084	0,055
-168,110	38,474	-0,138	-0,089
-167,096	239,224	0,083	-0,100
-166,081	-200,000	-0,022	-0,105
-165,066	-108,032	-0,037	0,006
-164,052	-41,678	-0,080	0,029
-163,037	-47,418	0,127	0,044
-162,023	800,000	-0,026	0,081
-161,008	95,182	-0,072	0,059
-159,993	-111,740	0,055	0,008
-158,979	-200,000	-0,002	-0,045
-157,964	-200,000	0,011	0,043
-156,950	-14,481	-0,137	0,063
-155,935	152,941	-0,038	-0,037
-154,920	626,396	0,032	-0,058
-153,906	-200,000	0,035	0,113
-152,891	-149,600	-0,195	0,011
-151,877	193,946	0,063	-0,068
-150,862	-53,055	0,115	0,038
-149,847	-92,608	0,097	-0,019
-148,833	-200,000	-0,011	-0,127
-147,818	36,490	0,135	0,085
-146,804	-200,000	-0,007	0,082
-145,789	-200,000	-0,034	0,128
-144,775	-45,944	-0,120	-0,043
-143,760	79,561	0,130	-0,100
-142,745	-55,991	-0,051	0,016
-141,731	20,488	-0,023	-0,014
-140,716	72,633	0,099	-0,075
-139,702	-200,000	0,043	0,146
-138,687	-60,424	0,052	-0,016
-137,672	101,873	0,015	-0,013
-136,658	161,366	-0,076	0,076
-135,643	136,003	0,071	-0,066
-134,629	-200,000	-0,021	-0,088
-133,614	119,127	0,098	0,087
-132,599	299,164	0,090	0,120
-131,585	378,928	-0,037	-0,055
-130,570	127,311	-0,092	-0,084
-129,556	21,063	0,012	-0,007
-128,541	-200,000	0,010	-0,152
-127,526	34,397	0,070	-0,044
-126,512	-200,000	-0,026	-0,125
-125,497	800,000	0,013	-0,030
-124,483	-200,000	-0,004	-0,136
-123,468	-146,678	-0,087	-0,005
-122,453	141,920	-0,016	0,015
-121,439	87,402	-0,076	-0,060
-120,424	-4,657	0,031	-0,015
