DTS Sentinel unit serial number:	SN410029Multiplexer serial number:	ORYXHardware model number:	OX2-SRSoftware version number:	ORYX F/W v4,00 Oryx Data Collector v3.7.2.0data status	okinstallation	B5 Nyhavnadifferential loss correction	single-endedforward channel	channel 2reverse channel	N/Adate	2023/12/13time	09:02:13forward acquisition time	300,00reverse acquisition time	0,00gamma	499,1914k internal	0,3161k external	0,3161temperature offset calibration	1,0000default loss term (dB/km)	0,3820temperature slope calibration	1,0000multiplexer offset coefficient	1,0000multiplexer slope coefficient	1,0000fibre end	0,00T internal ref (°C)	13,65T ext. ref 1 (°C)	-2,72T ext. ref 2 (°C)	-3,03length (m)	temperature (°C)	Stokes	anti-Stokes-744,400	146,189	0,070	0,069
-743,385	-135,309	-0,360	0,031
-742,371	38,762	0,094	0,062
-741,356	-129,958	-0,248	-0,025
-740,342	272,702	0,140	0,182
-739,327	-69,452	-0,242	-0,068
-738,312	-73,242	0,165	0,044
-737,298	-101,354	-0,310	-0,055
-736,283	-153,918	0,186	-0,009
-735,269	-73,672	-0,191	-0,051
-734,254	-32,349	0,158	0,065
-733,239	-81,128	-0,549	-0,133
-732,225	4,996	0,103	0,056
-731,210	-200,000	0,029	0,150
-730,196	118,944	0,036	0,033
-729,181	-127,442	-0,267	0,028
-728,167	-22,095	0,040	-0,018
-727,152	-44,613	-0,187	-0,068
-726,137	-200,000	-0,001	-0,069
-725,123	565,755	-0,081	-0,146
-724,108	-115,209	-0,089	-0,012
-723,094	53,641	-0,082	-0,058
-722,079	800,000	0,013	0,041
-721,064	-53,277	0,129	-0,043
-720,050	-1,497	-0,072	-0,037
-719,035	8,127	-0,232	-0,128
-718,021	-121,221	0,042	-0,005
-717,006	-200,000	-0,019	-0,148
-715,991	182,303	-0,040	-0,044
-714,977	372,447	0,080	0,120
-713,962	-153,122	-0,085	-0,004
-712,948	-200,000	-0,002	0,014
-711,933	-69,214	0,151	-0,042
-710,918	196,741	-0,125	-0,140
-709,904	215,330	-0,012	-0,013
-708,889	133,724	-0,086	-0,082
-707,875	-45,782	-0,127	0,046
-706,860	800,000	0,016	0,032
-705,845	131,390	0,022	-0,021
-704,831	-200,000	0,002	0,039
-703,816	54,234	-0,103	-0,073
-702,802	-200,000	0,021	-0,093
-701,787	-200,000	-0,028	-0,142
-700,772	696,120	0,041	-0,080
-699,758	-167,634	0,090	-0,003
-698,743	800,000	-0,029	0,084
-697,729	800,000	-0,023	0,071
-696,714	-200,000	0,019	0,089
-695,699	-200,000	0,009	0,046
-694,685	-14,350	-0,025	0,012
-693,670	193,088	-0,059	-0,066
-692,656	-200,000	-0,016	0,081
-691,641	-200,000	0,018	-0,108
-690,627	-129,004	0,056	0,006
-689,612	-127,385	0,008	-0,001
-688,597	-12,710	-0,041	0,019
-687,583	-200,000	0,015	0,061
-686,568	800,000	0,030	0,070
-685,554	99,171	-0,055	0,047
-684,539	800,000	0,026	0,072
-683,524	258,668	0,056	0,071
-682,510	-200,000	-0,007	0,154
-681,495	-200,000	0,001	0,019
-680,481	-45,222	-0,082	-0,030
-679,466	-193,442	-0,139	-0,001
-678,451	-200,000	-0,012	-0,050
-677,437	61,883	0,037	-0,027
-676,422	331,754	0,050	0,071
-675,408	-73,323	-0,031	0,008
-674,393	800,000	-0,041	-0,084
-673,378	-126,527	-0,112	-0,012
-672,364	437,256	-0,030	-0,049
-671,349	28,472	-0,066	0,041
-670,335	-25,336	0,155	0,067
-669,320	-200,000	0,028	-0,120
-668,305	-200,000	0,006	0,052
-667,291	-200,000	0,026	-0,092
-666,276	-103,931	0,036	-0,006
-665,262	258,003	0,040	-0,051
-664,247	-126,790	0,144	-0,015
-663,232	-200,000	0,015	0,130
-662,218	-69,693	-0,105	0,029
-661,203	-200,000	-0,016	-0,061
-660,189	254,266	-0,049	0,062
-659,174	-160,514	-0,034	0,001
-658,159	-200,000	-0,004	-0,044
-657,145	441,129	-0,099	-0,160
-656,130	573,727	-0,040	-0,071
-655,116	-200,000	0,027	0,090
-654,101	-200,000	-0,020	0,127
-653,086	-46,591	-0,118	0,042
-652,072	800,000	-0,035	-0,102
-651,057	800,000	-0,032	-0,066
-650,043	-200,000	0,038	-0,148
-649,028	123,308	0,027	-0,025
-648,014	-57,136	-0,114	0,037
-646,999	208,706	-0,034	0,039
-645,984	-6,997	-0,048	0,024
-644,970	-20,248	-0,059	-0,027
-643,955	-117,057	-0,123	0,016
-642,941	-200,000	0,013	0,061
-641,926	-110,796	-0,074	0,011
-640,911	-200,000	0,016	0,094
-639,897	176,861	0,040	-0,042
-638,882	-89,724	-0,034	-0,007
-637,868	-154,545	0,065	0,003
-636,853	-26,916	-0,054	0,023
-635,838	9,090	-0,045	-0,025
-634,824	-22,939	-0,075	0,033
-633,809	-133,992	-0,033	0,003
-632,795	236,868	0,098	0,119
-631,780	-91,070	-0,121	-0,025
-630,765	-200,000	0,001	0,185
-629,751	161,220	-0,021	0,021
-628,736	56,920	-0,060	-0,043
-627,722	800,000	-0,075	-0,171
-626,707	15,196	0,118	-0,068
-625,692	165,365	0,038	0,039
-624,678	64,489	-0,045	-0,033
-623,663	800,000	-0,022	0,070
-622,649	99,662	-0,067	-0,057
-621,634	-200,000	-0,002	-0,170
-620,619	-200,000	-0,025	-0,090
-619,605	326,826	0,036	0,051
-618,590	-63,371	0,056	0,017
-617,576	153,939	-0,075	0,076
-616,561	385,255	0,069	0,105
-615,546	21,486	-0,172	0,102
-614,532	55,120	-0,121	-0,085
-613,517	621,444	0,025	-0,047
-612,503	-63,611	0,070	-0,021
-611,488	59,648	0,125	-0,090
-610,474	-200,000	-0,003	-0,025
-609,459	243,687	0,061	-0,075
-608,444	-200,000	-0,036	-0,133
-607,430	771,339	-0,089	0,178
-606,415	800,000	-0,051	-0,117
-605,401	-22,008	0,020	0,009
-604,386	364,527	0,110	-0,162
-603,371	-87,757	-0,089	-0,019
-602,357	718,521	-0,110	-0,216
-601,342	-200,000	-0,021	0,124
-600,328	-48,982	0,062	-0,022
-599,313	226,899	0,083	-0,099
-598,298	311,554	0,093	0,128
-597,284	232,761	-0,069	0,083
-596,269	-160,683	-0,068	0,003
-595,255	130,473	-0,065	0,061
-594,240	-79,691	-0,041	0,010
-593,225	-200,000	-0,012	-0,099
-592,211	800,000	0,035	0,096
-591,196	-200,000	-0,028	0,183
-590,182	-20,787	0,069	-0,031
-589,167	355,002	0,031	0,046
-588,152	-200,000	0,037	-0,134
-587,138	486,730	-0,043	-0,071
-586,123	501,529	-0,040	0,068
-585,109	-200,000	-0,031	-0,136
-584,094	-109,067	0,143	-0,022
-583,079	-200,000	-0,013	0,112
-582,065	-200,000	0,022	0,146
-581,050	-199,985	0,154	-0,001
-580,036	102,057	-0,047	-0,040
-579,021	800,000	0,035	-0,092
-578,006	166,896	0,102	0,106
-576,992	-39,165	-0,081	-0,031
-575,977	-104,484	0,055	-0,009
-574,963	-200,000	-0,015	0,081
-573,948	-200,000	0,010	-0,106
-572,934	502,821	0,060	0,102
-571,919	-80,687	-0,004	-0,001
-570,904	662,934	0,031	0,059
-569,890	-155,967	-0,052	-0,002
-568,875	-200,000	-0,001	-0,008
-567,861	-115,245	0,053	-0,007
-566,846	-200,000	0,003	-0,129
-565,831	-32,878	0,094	-0,038
-564,817	483,434	0,075	0,124
-563,802	-119,667	-0,067	0,008
-562,788	433,476	0,035	-0,055
-561,773	36,485	-0,025	0,016
-560,758	800,000	-0,028	0,089
-559,744	-200,000	0,004	0,036
-558,729	50,060	-0,101	0,069
-557,715	-34,124	-0,092	-0,037
-556,700	-200,000	0,038	-0,123
-555,685	800,000	0,052	-0,117
-554,671	50,792	-0,128	0,088
-553,656	80,126	0,064	0,050
-552,642	800,000	0,055	-0,133
-551,627	-114,858	-0,100	0,014
-550,612	800,000	0,052	-0,105
-549,598	13,752	0,010	0,006
-548,583	62,007	-0,095	0,069
-547,569	-200,000	-0,045	-0,191
-546,554	-200,000	-0,011	-0,136
-545,539	-200,000	0,034	-0,179
-544,525	-200,000	-0,002	-0,183
-543,510	169,254	-0,039	-0,041
-542,496	-200,000	-0,033	0,106
-541,481	-200,000	-0,021	0,070
-540,466	800,000	0,017	0,050
-539,452	-33,947	0,098	-0,039
-538,437	-200,000	-0,003	-0,072
-537,423	82,019	-0,051	-0,040
-536,408	732,506	0,015	0,029
-535,393	-158,262	-0,090	0,004
-534,379	-37,865	-0,066	0,026
-533,364	-200,000	0,000	-0,090
-532,350	-200,000	0,003	0,056
-531,335	-200,000	0,005	-0,024
-530,321	-92,275	0,089	-0,018
-529,306	800,000	0,029	0,061
-528,291	66,427	-0,105	-0,078
-527,277	-15,052	0,026	-0,012
-526,262	800,000	0,036	0,097
-525,248	-69,078	0,193	-0,054
-524,233	-120,974	0,019	0,002
-523,218	56,143	0,010	-0,007
-522,204	800,000	0,040	0,108
-521,189	478,544	0,058	0,097
-520,175	-200,000	0,008	0,027
-519,160	75,821	-0,032	-0,025
-518,145	-42,814	-0,069	0,026
-517,131	800,000	0,010	0,029
-516,116	-51,752	0,097	0,033
-515,102	800,000	-0,051	0,132
-514,087	128,777	-0,039	-0,036
-513,072	800,000	0,039	-0,123
-512,058	386,652	-0,065	-0,098
-511,043	84,418	-0,039	-0,031
-510,029	27,839	0,160	-0,098
-509,014	-200,000	0,003	0,090
-507,999	-82,109	-0,083	0,020
-506,985	800,000	-0,040	-0,100
-505,970	-11,479	0,045	0,021
-504,956	-200,000	0,092	-0,000
-503,941	-200,000	-0,044	0,177
-502,926	112,210	0,022	0,019
-501,912	117,670	0,041	0,037
-500,897	-200,000	-0,004	-0,020
-499,883	79,731	-0,117	-0,092
-498,868	-200,000	0,001	-0,111
-497,853	-59,717	-0,127	-0,039
-496,839	480,922	0,020	-0,032
-495,824	-181,559	-0,016	-0,000
-494,810	-200,000	0,024	0,081
-493,795	139,916	0,031	-0,030
-492,781	-151,279	-0,137	-0,007
-491,766	-21,113	-0,155	-0,069
-490,751	259,113	-0,039	-0,049
-489,737	-150,148	0,107	-0,006
-488,722	800,000	0,047	-0,101
-487,708	800,000	0,039	0,106
-486,693	157,676	0,090	0,091
-485,678	-25,546	0,017	-0,007
-484,664	-94,608	-0,136	0,027
-483,649	39,265	-0,066	0,043
-482,635	-99,931	0,095	-0,017
-481,620	286,994	0,047	0,062
-480,605	157,245	0,033	-0,033
-479,591	-72,637	0,171	0,046
-478,576	800,000	-0,052	-0,110
-477,562	86,642	-0,052	-0,042
-476,547	-113,602	-0,080	-0,011
-475,532	47,711	-0,052	-0,035
-474,518	-200,000	0,001	-0,045
-473,503	-140,046	0,103	-0,008
-472,489	256,276	0,076	0,095
-471,474	-200,000	0,003	0,061
-470,459	69,843	-0,022	0,017
-469,445	-200,000	0,006	-0,141
-468,430	-0,204	0,025	-0,013
-467,416	136,739	-0,065	0,062
-466,401	800,000	0,038	0,119
-465,386	244,286	0,029	0,036
-464,372	495,470	0,057	0,095
-463,357	-200,000	0,006	-0,073
-462,343	-12,947	0,080	-0,038
-461,328	800,000	0,040	-0,082
-460,313	-200,000	-0,025	-0,199
-459,299	-200,000	-0,001	-0,004
-458,284	-69,302	0,090	-0,025
-457,270	184,194	0,094	0,101
-456,255	-73,445	-0,015	-0,004
-455,241	-148,915	0,028	0,002
-454,226	-200,000	-0,001	-0,027
-453,211	800,000	0,021	0,048
-452,197	800,000	-0,031	-0,071
-451,182	336,075	0,085	0,121
-450,168	-139,307	-0,011	-0,001
-449,153	-8,811	0,087	-0,043
-448,138	258,066	-0,049	-0,062
-447,124	439,559	-0,026	-0,042
-446,109	800,000	0,013	-0,036
-445,095	10,020	0,117	-0,064
-444,080	-200,000	0,039	0,181
-443,065	-200,000	0,004	0,028
-442,051	800,000	-0,007	-0,020
-441,036	-200,000	0,012	0,157
-440,022	800,000	0,018	0,037
-439,007	-200,000	-0,016	-0,061
-437,992	12,789	0,036	0,020
-436,978	251,628	0,090	0,111
-435,963	-55,986	-0,054	-0,017
-434,949	-61,052	-0,137	0,042
-433,934	101,284	-0,040	-0,033
-432,919	800,000	-0,039	-0,100
-431,905	524,324	-0,069	-0,118
-430,890	-200,000	0,011	0,038
-429,876	-4,626	0,066	-0,033
-428,861	-200,000	-0,041	0,150
-427,846	-119,250	0,052	-0,007
-426,832	181,575	0,062	-0,066
-425,817	-200,000	0,033	-0,156
-424,803	374,156	-0,048	-0,072
-423,788	-155,167	-0,106	-0,005
-422,773	78,607	0,071	-0,055
-421,759	-54,733	0,078	-0,025
-420,744	-200,000	-0,047	0,209
-419,730	-22,341	-0,105	0,046
-418,715	800,000	-0,027	0,055
-417,701	800,000	-0,029	0,082
-416,686	-200,000	0,022	0,087
-415,671	800,000	0,067	0,175
-414,657	-60,905	0,196	0,060
-413,642	125,573	0,087	0,080
-412,628	573,997	-0,081	-0,144
-411,613	10,255	0,048	0,027
-410,598	-200,000	-0,026	-0,129
-409,584	109,119	0,081	-0,070
-408,569	101,890	0,045	-0,039
-407,555	1,750	0,109	-0,057
-406,540	-200,000	-0,012	0,071
-405,525	-13,408	-0,077	-0,036
-404,511	800,000	0,029	0,079
-403,496	373,554	-0,079	-0,118
-402,482	-200,000	-0,008	0,051
-401,467	63,675	0,021	0,015
-400,452	800,000	0,034	0,087
-399,438	-129,498	-0,054	0,005
-398,423	-17,970	-0,125	-0,057
-397,409	800,000	-0,014	0,037
-396,394	356,501	-0,100	-0,146
-395,379	442,988	-0,076	-0,121
-394,365	104,962	0,100	0,085
-393,350	-138,014	0,057	0,005
-392,336	-200,000	0,008	-0,105
-391,321	601,758	-0,029	-0,053
-390,306	-65,725	-0,069	-0,020
-389,292	372,955	0,024	0,035
-388,277	122,426	-0,076	-0,069
-387,263	-7,019	0,133	0,066
-386,248	487,318	0,067	-0,112
-385,233	58,075	0,029	0,021
-384,219	-52,082	0,055	0,018
-383,204	-155,109	0,079	0,004
-382,190	-200,000	-0,013	-0,113
-381,175	151,723	-0,033	-0,032
-380,160	201,696	-0,059	-0,066
-379,146	-200,000	0,005	-0,025
-378,131	-62,182	-0,084	0,025
-377,117	-141,244	-0,163	0,012
-376,102	106,281	-0,087	-0,074
-375,088	-200,000	-0,017	0,056
-374,073	-200,000	-0,017	-0,060
-373,058	672,623	-0,032	-0,061
-372,044	-67,491	0,055	-0,016
-371,029	132,518	0,083	0,078
-370,015	-200,000	-0,003	0,059
-369,000	324,653	0,033	0,046
-367,985	321,515	0,069	-0,095
-366,971	105,821	0,125	-0,107
-365,956	426,710	0,068	-0,106
-364,942	455,896	0,012	-0,019
-363,927	258,492	0,054	0,068
-362,912	-22,649	-0,107	-0,047
-361,898	-200,000	-0,014	-0,138
-360,883	494,887	-0,064	0,107
-359,869	296,917	0,058	-0,078
-358,854	498,787	0,020	-0,033
-357,839	-200,000	0,022	-0,076
-356,825	-200,000	0,008	-0,053
-355,810	-87,004	-0,074	0,016
-354,796	-200,000	-0,030	-0,126
-353,781	-36,104	0,032	-0,012
-352,766	43,141	-0,081	-0,053
-351,752	-200,000	0,041	0,152
-350,737	-130,526	-0,040	0,004
-349,723	800,000	0,006	0,014
-348,708	-132,876	0,007	-0,001
-347,693	-54,759	0,103	0,034
-346,679	-200,000	0,011	0,100
-345,664	7,477	-0,056	0,030
-344,650	42,935	0,035	-0,023
-343,635	800,000	-0,078	0,181
-342,620	-40,559	0,210	0,079
-341,606	57,531	0,052	-0,037
-340,591	-131,397	-0,099	-0,009
-339,577	-108,169	-0,110	0,017
-338,562	-37,962	-0,063	-0,024
-337,548	82,934	0,057	0,045
-336,533	88,998	0,060	-0,048
-335,518	37,235	0,043	0,028
-334,504	-200,000	-0,029	0,109
-333,489	432,830	-0,066	0,103
-332,475	-200,000	-0,027	-0,120
-331,460	-20,840	0,080	-0,035
-330,445	-200,000	-0,070	0,226
-329,431	-200,000	-0,014	0,121
-328,416	-40,703	0,129	0,048
-327,402	800,000	0,044	-0,126
-326,387	-24,508	0,121	0,052
-325,372	-47,436	-0,027	-0,010
-324,358	800,000	0,047	-0,133
-323,343	3,683	0,074	-0,039
-322,329	-87,329	0,083	0,018
-321,314	-200,000	0,025	-0,120
-320,299	-107,179	-0,097	0,015
-319,285	95,572	-0,053	0,044
-318,270	-125,603	-0,091	0,010
-317,256	-34,349	-0,100	-0,039
-316,241	112,463	-0,125	-0,109
-315,226	266,408	-0,109	0,138
-314,212	24,333	-0,054	-0,032
-313,197	27,201	-0,025	-0,015
-312,183	516,040	0,014	0,024
-311,168	800,000	0,036	-0,081
-310,153	-200,000	-0,004	-0,135
-309,139	-200,000	-0,010	-0,135
-308,124	-200,000	-0,008	-0,094
-307,110	53,581	0,038	0,027
-306,095	800,000	-0,020	0,059
-305,080	145,470	0,080	0,077
-304,066	61,364	0,078	-0,056
-303,051	-40,024	-0,059	0,022
-302,037	-200,000	-0,026	-0,133
-301,022	316,318	0,015	0,020
-300,008	-133,792	0,068	-0,006
-298,993	-200,000	0,012	0,114
-297,978	-40,931	-0,079	0,030
-296,964	13,603	-0,114	-0,064
-295,949	475,798	0,047	0,077
-294,935	800,000	0,065	0,135
-293,920	35,819	-0,093	0,059
-292,905	-126,515	0,090	0,010
-291,891	52,254	0,137	-0,095
-290,876	55,031	0,104	-0,073
-289,862	208,302	-0,150	0,170
-288,847	-106,000	-0,110	0,018
-287,832	228,857	-0,076	-0,090
-286,818	-136,917	0,127	-0,010
-285,803	37,078	0,017	0,011
-284,789	155,092	0,025	0,025
-283,774	800,000	-0,037	0,113
-282,759	800,000	-0,076	-0,187
-281,745	-144,286	-0,044	-0,003
-280,730	-63,453	-0,140	-0,041
-279,716	-120,000	0,073	0,009
-278,701	622,537	0,071	-0,131
-277,686	190,001	0,152	0,165
-276,672	-200,000	-0,036	-0,123
-275,657	-128,978	0,044	0,004
-274,643	-200,000	0,003	-0,057
-273,628	259,453	-0,032	0,040
-272,613	-200,000	-0,006	0,067
-271,599	-180,458	-0,015	0,000
-270,584	469,719	-0,046	-0,075
-269,570	-91,689	0,051	0,010
-268,555	378,451	0,070	-0,104
-267,540	-71,972	-0,129	-0,034
-266,526	409,150	0,057	-0,088
-265,511	610,015	-0,038	0,069
-264,497	177,749	-0,045	-0,048
-263,482	540,642	0,066	0,114
-262,467	-46,615	0,070	0,025
-261,453	242,433	-0,045	0,054
-260,438	-200,000	-0,014	-0,146
-259,424	65,140	-0,101	-0,073
-258,409	50,400	0,137	0,093
-257,395	39,830	-0,116	0,075
-256,380	100,142	0,113	0,094
-255,365	304,558	0,090	-0,120
-254,351	115,229	0,013	0,011
-253,336	-93,368	0,037	-0,007
-252,322	432,056	0,039	0,061
-251,307	-139,699	0,118	-0,009
-250,292	301,910	0,075	0,101
-249,278	-200,000	-0,006	0,099
-248,263	731,397	-0,035	0,067
-247,249	-200,000	0,039	0,233
-246,234	-200,000	-0,004	0,078
-245,219	-200,000	-0,016	0,109
-244,205	411,722	-0,050	-0,077
-243,190	278,509	0,035	-0,045
-242,176	-200,000	-0,016	0,068
-241,161	87,681	0,054	0,044
-240,146	-35,245	0,115	0,045
-239,132	202,078	-0,036	0,040
-238,117	669,635	-0,016	0,030
-237,103	-200,000	0,018	-0,121
-236,088	362,036	0,021	-0,030
-235,073	-200,000	0,011	0,092
-234,059	-200,000	-0,046	0,162
-233,044	429,630	0,034	0,053
-232,030	-200,000	-0,009	0,116
-231,015	-156,814	-0,154	0,007
-230,000	-159,895	0,017	0,001
-228,986	-200,000	0,010	-0,156
-227,971	215,581	-0,034	-0,039
-226,957	282,692	-0,076	0,099
-225,942	252,590	0,130	0,160
-224,927	-46,959	-0,119	0,042
-223,913	800,000	-0,016	-0,047
-222,898	40,607	-0,119	-0,078
-221,884	-200,000	0,003	0,018
-220,869	4,716	0,053	0,028
-219,855	51,629	0,029	-0,020
-218,840	286,478	0,059	0,077
-217,825	39,257	-0,028	0,018
-216,811	800,000	-0,031	-0,068
-215,796	124,515	-0,073	0,066
-214,782	-68,258	0,109	0,030
-213,767	-200,000	-0,033	0,143
-212,752	800,000	-0,023	0,057
-211,738	-200,000	0,028	-0,116
-210,723	-94,286	-0,088	0,017
-209,709	-41,169	0,020	0,008
-208,694	800,000	-0,013	0,033
-207,679	-26,046	0,140	-0,059
-206,665	-200,000	0,021	0,133
-205,650	41,712	-0,063	0,041
-204,636	633,269	-0,053	0,098
-203,621	195,963	-0,121	0,133
-202,606	-200,000	0,004	-0,014
-201,592	-200,000	-0,021	-0,100
-200,577	266,501	-0,046	-0,058
-199,563	-122,393	0,043	0,005
-198,548	-200,000	-0,039	-0,126
-197,533	-200,000	0,004	0,063
-196,519	-200,000	-0,018	-0,126
-195,504	-123,707	-0,102	-0,012
-194,490	-66,527	-0,094	-0,027
-193,475	-200,000	-0,013	-0,063
-192,460	32,162	0,073	0,045
-191,446	800,000	-0,016	-0,034
-190,431	-200,000	-0,003	0,087
-189,417	-91,609	0,049	0,010
-188,402	-200,000	-0,038	0,130
-187,387	9,436	-0,045	-0,025
-186,373	-200,000	-0,019	-0,146
-185,358	-50,995	0,094	0,032
-184,344	800,000	-0,051	0,142
-183,329	-145,142	0,205	-0,013
-182,315	-35,261	0,130	0,051
-181,300	-139,176	0,079	-0,006
-180,285	-151,450	-0,109	-0,006
-179,271	167,943	-0,050	0,051
-178,256	-85,778	0,092	-0,020
-177,242	-55,290	0,068	-0,022
-176,227	246,589	-0,035	-0,043
-175,212	-65,043	-0,042	0,012
-174,198	-200,000	0,004	0,062
-173,183	41,509	-0,107	-0,070
-172,169	-31,216	-0,111	0,045
-171,154	571,658	-0,083	-0,146
-170,139	171,221	0,076	0,078
-169,125	249,815	-0,043	0,053
-168,110	800,000	-0,058	0,140
-167,096	4,267	-0,085	-0,045
-166,081	161,206	-0,044	-0,044
-165,066	-137,577	0,084	-0,007
-164,052	-70,925	-0,088	-0,024
-163,037	-200,000	0,007	0,035
-162,023	121,674	0,069	0,062
-161,008	12,753	0,074	-0,041
-159,993	-70,856	0,080	-0,021
-158,979	561,227	-0,090	-0,158
-157,964	-200,000	-0,015	-0,158
-156,950	98,916	0,059	0,049
-155,935	-200,000	0,006	0,057
-154,920	737,076	-0,037	0,072
-153,906	-200,000	-0,004	0,254
-152,891	800,000	-0,048	-0,103
-151,877	-200,000	0,029	0,169
-150,862	3,605	0,088	-0,046
-149,847	95,777	0,091	-0,075
-148,833	240,408	-0,048	0,058
-147,818	-200,000	0,012	0,069
-146,804	220,157	0,049	-0,056
-145,789	512,596	-0,032	0,054
-144,775	1,414	0,120	-0,062
-143,760	-132,168	-0,097	0,009
-142,745	800,000	0,058	0,117
-141,731	-61,655	-0,074	0,022
-140,716	-39,388	0,071	-0,027
-139,702	-40,893	0,128	0,047
-138,687	326,461	-0,069	0,096
-137,672	-62,259	-0,030	-0,009
-136,658	-200,000	-0,005	-0,055
-135,643	-200,000	-0,001	0,032
-134,629	25,466	-0,090	0,054
-133,614	800,000	-0,041	0,118
-132,599	21,426	0,108	0,063
-131,585	-200,000	-0,021	0,078
-130,570	-149,303	0,167	-0,009
-129,556	44,938	0,047	-0,031
-128,541	-200,000	0,014	-0,079
-127,526	800,000	0,039	-0,089
-126,512	-81,885	-0,037	-0,009
-125,497	-200,000	-0,000	0,077
-124,483	265,927	-0,010	-0,013
-123,468	-107,112	0,203	0,032
-122,453	228,871	-0,051	0,060
-121,439	-10,484	-0,006	-0,003
-120,424	-200,000	-0,022	0,086
