DTS Sentinel unit serial number:	SN410029Multiplexer serial number:	ORYXHardware model number:	OX2-SRSoftware version number:	ORYX F/W v4,00 Oryx Data Collector v3.7.2.0data status	okinstallation	B5 Nyhavnadifferential loss correction	single-endedforward channel	channel 2reverse channel	N/Adate	2023/12/13time	14:37:13forward acquisition time	300,00reverse acquisition time	0,00gamma	499,1914k internal	0,3160k external	0,3160temperature offset calibration	1,0000default loss term (dB/km)	0,3820temperature slope calibration	1,0000multiplexer offset coefficient	1,0000multiplexer slope coefficient	1,0000fibre end	0,00T internal ref (°C)	14,98T ext. ref 1 (°C)	-1,28T ext. ref 2 (°C)	-1,57length (m)	temperature (°C)	Stokes	anti-Stokes-744,400	34,507	0,082	0,053
-743,385	-131,226	-0,361	-0,035
-742,371	-65,146	0,058	-0,017
-741,356	25,276	-0,313	0,191
-740,342	188,837	0,098	-0,109
-739,327	-105,248	-0,335	0,056
-738,312	-40,129	0,051	0,019
-737,298	-159,201	-0,278	-0,011
-736,283	-89,014	0,122	0,026
-735,269	45,629	-0,169	-0,115
-734,254	-144,562	0,158	0,011
-733,239	-30,871	-0,321	-0,133
-732,225	110,667	0,095	-0,084
-731,210	581,747	0,042	-0,077
-730,196	800,000	-0,011	0,034
-729,181	-200,000	0,006	-0,089
-728,167	-77,051	-0,008	0,002
-727,152	-118,520	-0,053	0,007
-726,137	422,233	-0,081	-0,129
-725,123	92,128	-0,072	-0,060
-724,108	-200,000	-0,024	-0,110
-723,094	-200,000	-0,006	-0,136
-722,079	16,178	-0,166	-0,096
-721,064	800,000	0,024	-0,072
-720,050	800,000	0,043	-0,121
-719,035	-26,713	0,010	-0,004
-718,021	601,793	-0,067	-0,122
-717,006	-140,036	0,068	0,005
-715,991	735,136	0,028	0,055
-714,977	142,408	-0,067	-0,065
-713,962	13,458	-0,048	-0,027
-712,948	800,000	-0,030	-0,085
-711,933	77,547	0,042	-0,033
-710,918	800,000	-0,036	-0,084
-709,904	58,568	-0,092	-0,067
-708,889	-3,121	-0,164	-0,084
-707,875	477,966	-0,046	0,077
-706,860	-120,550	0,066	0,008
-705,845	-43,750	-0,196	-0,072
-704,831	800,000	-0,032	0,094
-703,816	251,392	-0,026	-0,032
-702,802	34,692	-0,128	-0,082
-701,787	162,517	-0,078	-0,081
-700,772	-49,311	0,081	0,028
-699,758	-98,059	-0,043	-0,008
-698,743	-68,238	0,035	0,010
-697,729	-200,000	-0,003	0,075
-696,714	0,029	-0,085	-0,044
-695,699	659,825	0,031	-0,058
-694,685	48,550	-0,111	0,076
-693,670	86,207	-0,087	-0,070
-692,656	-8,407	-0,061	0,030
-691,641	85,393	-0,052	0,042
-690,627	61,429	0,090	0,066
-689,612	-66,090	-0,034	-0,010
-688,597	-200,000	-0,003	0,062
-687,583	324,119	-0,114	-0,160
-686,568	-200,000	-0,027	-0,105
-685,554	-153,071	-0,070	0,004
-684,539	-136,574	0,178	0,015
-683,524	774,175	0,052	-0,104
-682,510	-129,083	-0,058	-0,006
-681,495	375,845	-0,040	-0,060
-680,481	-200,000	-0,020	0,089
-679,466	-113,069	-0,063	-0,009
-678,451	48,616	-0,079	0,054
-677,437	57,082	-0,087	-0,062
-676,422	800,000	-0,021	0,055
-675,408	145,042	0,087	0,085
-674,393	800,000	-0,007	-0,021
-673,378	-200,000	-0,040	-0,164
-672,364	59,280	-0,145	-0,105
-671,349	-82,875	-0,164	0,039
-670,335	15,620	0,075	-0,043
-669,320	268,199	-0,011	-0,014
-668,305	-200,000	-0,001	-0,124
-667,291	-200,000	0,012	-0,088
-666,276	58,165	-0,039	0,028
-665,262	-6,038	-0,083	0,041
-664,247	163,599	0,130	-0,134
-663,232	77,799	-0,038	-0,030
-662,218	-79,010	0,074	-0,018
-661,203	-124,240	-0,063	0,007
-660,189	63,951	0,025	0,018
-659,174	-88,531	0,078	-0,017
-658,159	-117,176	-0,168	0,022
-657,145	302,327	0,082	0,111
-656,130	-199,678	0,053	-0,000
-655,116	-122,784	-0,025	-0,003
-654,101	-200,000	-0,025	0,084
-653,086	-136,225	0,133	-0,011
-652,072	208,440	0,055	-0,063
-651,057	800,000	-0,031	-0,091
-650,043	800,000	-0,025	-0,055
-649,028	-200,000	0,029	0,127
-648,014	-200,000	-0,028	-0,098
-646,999	800,000	0,083	0,198
-645,984	91,043	0,043	0,036
-644,970	800,000	0,008	-0,018
-643,955	621,393	-0,093	-0,173
-642,941	-92,651	-0,169	0,034
-641,926	-200,000	-0,014	-0,061
-640,911	246,570	0,025	-0,031
-639,897	-72,233	0,113	0,030
-638,882	282,734	-0,042	0,055
-637,868	32,447	-0,138	0,087
-636,853	368,131	-0,081	-0,121
-635,838	-53,133	-0,127	0,043
-634,824	800,000	0,058	0,130
-633,809	29,804	0,180	0,112
-632,795	-81,618	-0,094	-0,023
-631,780	-8,045	0,144	-0,071
-630,765	-99,734	-0,088	0,016
-629,751	22,995	0,122	-0,073
-628,736	-200,000	-0,011	0,112
-627,722	-103,486	-0,216	0,037
-626,707	-98,391	0,140	0,026
-625,692	-19,848	0,128	-0,058
-624,678	561,980	-0,013	0,023
-623,663	1,426	0,089	0,047
-622,649	318,383	-0,055	-0,077
-621,634	800,000	-0,015	-0,049
-620,619	384,749	0,026	-0,039
-619,605	-166,472	0,076	0,002
-618,590	-200,000	0,015	0,166
-617,576	113,665	0,053	0,047
-616,561	-200,000	-0,023	0,143
-615,546	159,848	0,075	0,076
-614,532	354,889	0,019	0,028
-613,517	-200,000	-0,013	0,081
-612,503	-13,998	-0,044	0,021
-611,488	377,428	0,052	-0,079
-610,474	13,719	-0,094	-0,053
-609,459	-200,000	-0,014	-0,056
-608,444	-28,355	-0,078	-0,033
-607,430	-72,843	-0,072	0,019
-606,415	684,332	-0,067	0,128
-605,401	-12,691	-0,032	0,015
-604,386	69,829	-0,085	-0,064
-603,371	35,939	-0,091	0,059
-602,357	800,000	0,031	0,077
-601,342	-200,000	-0,002	-0,063
-600,328	-200,000	-0,010	-0,045
-599,313	-39,275	-0,072	-0,028
-598,298	-42,254	0,062	0,023
-597,284	9,568	-0,037	-0,021
-596,269	-200,000	-0,007	-0,051
-595,255	46,281	0,047	0,032
-594,240	228,051	-0,095	0,113
-593,225	-71,221	-0,045	0,012
-592,211	-200,000	-0,032	-0,114
-591,196	800,000	-0,028	0,058
-590,182	-90,223	-0,044	-0,009
-589,167	128,931	0,105	0,098
-588,152	-77,797	0,036	0,009
-587,138	-29,360	-0,136	-0,057
-586,123	-123,979	-0,029	-0,003
-585,109	-189,791	-0,104	-0,001
-584,094	-200,000	0,006	0,071
-583,079	-4,212	0,099	0,050
-582,065	-29,513	0,101	0,042
-581,050	800,000	-0,030	-0,094
-580,036	-133,504	0,068	-0,006
-579,021	385,325	0,031	-0,047
-578,006	-200,000	-0,008	-0,157
-576,992	658,904	0,090	-0,170
-575,977	571,489	-0,062	0,110
-574,963	83,245	0,033	-0,026
-573,948	-200,000	-0,045	-0,150
-572,934	-86,186	-0,066	-0,015
-571,919	13,477	0,111	-0,063
-570,904	531,725	0,013	0,023
-569,890	-33,964	-0,086	0,035
-568,875	-95,283	0,165	0,032
-567,861	188,397	0,054	0,059
-566,846	-200,000	-0,009	0,040
-565,831	-200,000	-0,026	0,131
-564,817	-36,742	0,110	0,043
-563,802	-200,000	0,049	-0,161
-562,788	800,000	0,028	-0,075
-561,773	38,173	-0,034	0,022
-560,758	-200,000	-0,013	0,090
-559,744	-27,761	0,141	0,060
-558,729	372,107	-0,005	-0,008
-557,715	-91,645	0,039	-0,008
-556,700	-200,000	-0,012	-0,109
-555,685	-200,000	-0,045	-0,151
-554,671	674,249	-0,059	0,113
-553,656	-200,000	-0,001	-0,044
-552,642	-27,713	0,030	-0,013
-551,627	96,976	-0,076	0,064
-550,612	73,493	-0,123	0,094
-549,598	-83,650	0,163	-0,038
-548,583	29,924	0,041	0,025
-547,569	-200,000	-0,012	-0,089
-546,554	292,110	0,063	0,084
-545,539	30,990	-0,095	0,059
-544,525	800,000	-0,040	0,085
-543,510	91,172	-0,051	-0,042
-542,496	168,538	0,031	0,032
-541,481	508,458	-0,051	0,087
-540,466	-31,560	-0,118	0,048
-539,452	800,000	0,015	0,039
-538,437	-76,209	0,022	0,006
-537,423	26,873	0,137	-0,084
-536,408	181,759	-0,042	-0,045
-535,393	39,617	-0,149	-0,098
-534,379	148,680	-0,081	-0,080
-533,364	-200,000	0,006	-0,028
-532,350	-200,000	-0,011	0,111
-531,335	-59,110	0,152	0,048
-530,321	330,549	0,078	0,110
-529,306	-51,923	-0,086	-0,029
-528,291	-7,618	-0,120	0,059
-527,277	-200,000	0,006	-0,026
-526,262	-200,000	-0,034	-0,126
-525,248	58,255	0,052	-0,037
-524,233	221,683	-0,031	-0,036
-523,218	800,000	0,022	0,049
-522,204	-200,000	0,006	-0,029
-521,189	-95,049	-0,127	-0,025
-520,175	-2,299	-0,018	0,009
-519,160	88,052	-0,062	-0,050
-518,145	48,701	0,086	0,059
-517,131	45,719	0,061	0,041
-516,116	94,822	0,057	-0,048
-515,102	-200,000	-0,025	-0,130
-514,087	-68,990	-0,113	-0,032
-513,072	142,575	-0,052	-0,051
-512,058	800,000	-0,013	0,032
-511,043	184,414	0,029	-0,032
-510,029	-23,728	-0,123	-0,054
-509,014	481,755	0,030	0,050
-507,999	253,260	-0,110	0,138
-506,985	-31,734	-0,060	-0,025
-505,970	800,000	0,027	0,063
-504,956	138,292	-0,050	-0,048
-503,941	800,000	-0,037	0,095
-502,926	363,296	-0,069	0,101
-501,912	-105,092	-0,069	0,011
-500,897	-32,316	-0,116	-0,047
-499,883	-53,817	-0,090	0,030
-498,868	-200,000	-0,028	-0,132
-497,853	800,000	0,018	0,043
-496,839	-147,162	-0,056	-0,003
-495,824	-200,000	0,001	0,103
-494,810	-166,585	0,054	-0,002
-493,795	-72,914	-0,029	-0,008
-492,781	-200,000	-0,006	0,049
-491,766	-83,930	-0,138	0,032
-490,751	-200,000	0,010	0,043
-489,737	-200,000	-0,017	-0,098
-488,722	591,654	-0,024	-0,043
-487,708	-200,000	0,024	0,136
-486,693	-143,637	-0,066	0,005
-485,678	637,621	-0,028	-0,052
-484,664	-200,000	0,027	-0,113
-483,649	-163,189	0,018	-0,001
-482,635	-57,102	-0,071	0,023
-481,620	-82,215	0,053	0,013
-480,605	70,181	0,120	0,090
-479,591	-25,580	0,195	-0,084
-478,576	-200,000	0,001	0,073
-477,562	30,596	0,077	0,048
-476,547	-26,587	-0,101	-0,043
-475,532	-171,266	-0,037	0,001
-474,518	51,565	0,057	-0,040
-473,503	-26,051	0,071	-0,030
-472,489	-200,000	-0,029	0,138
-471,474	-200,000	0,026	0,142
-470,459	354,869	0,080	-0,117
-469,445	-200,000	0,008	-0,071
-468,430	-200,000	-0,010	-0,099
-467,416	-200,000	0,053	-0,184
-466,401	-200,000	-0,011	0,050
-465,386	98,263	0,091	0,076
-464,372	-124,743	0,073	0,008
-463,357	683,158	0,015	0,030
-462,343	-200,000	0,010	-0,058
-461,328	39,086	0,034	0,022
-460,313	-200,000	0,013	0,201
-459,299	148,025	0,147	0,145
-458,284	419,313	0,065	0,102
-457,270	-38,910	-0,053	-0,020
-456,255	116,271	0,017	-0,015
-455,241	-25,868	-0,154	-0,066
-454,226	-21,787	0,027	-0,012
-453,211	-200,000	0,018	0,099
-452,197	70,119	0,112	-0,084
-451,182	128,229	0,152	0,141
-450,168	-7,661	0,054	0,027
-449,153	-47,343	-0,032	0,011
-448,138	167,523	-0,035	0,036
-447,124	32,525	-0,068	-0,043
-446,109	-200,000	0,004	-0,023
-445,095	0,062	0,115	-0,059
-444,080	193,626	-0,019	-0,021
-443,065	53,678	0,031	-0,022
-442,051	-60,836	-0,097	-0,030
-441,036	71,868	-0,041	-0,031
-440,022	17,941	0,088	-0,051
-439,007	-63,872	-0,161	0,048
-437,992	149,768	-0,072	0,071
-436,978	800,000	0,028	0,089
-435,963	-157,695	-0,048	-0,002
-434,949	113,490	-0,088	0,078
-433,934	242,037	-0,068	-0,083
-432,919	-47,481	0,060	0,021
-431,905	738,262	0,048	-0,093
-430,890	-200,000	-0,012	-0,076
-429,876	154,896	0,174	0,174
-428,861	112,175	-0,044	0,039
-427,846	778,164	-0,056	-0,111
-426,832	-17,741	-0,072	-0,033
-425,817	130,421	-0,055	0,051
-424,803	194,165	0,059	0,066
-423,788	71,142	0,012	-0,009
-422,773	76,244	-0,075	0,058
-421,759	114,286	0,105	-0,093
-420,744	-101,676	0,110	0,019
-419,730	277,285	-0,136	0,176
-418,715	160,910	-0,067	0,068
-417,701	800,000	0,019	0,058
-416,686	-0,101	0,112	0,058
-415,671	-200,000	-0,017	0,066
-414,657	-195,077	-0,056	-0,000
-413,642	-67,183	-0,148	0,042
-412,628	94,504	-0,050	-0,041
-411,613	41,022	0,058	-0,038
-410,598	-200,000	0,008	-0,059
-409,584	145,393	-0,052	-0,050
-408,569	135,583	-0,108	0,102
-407,555	-36,589	0,036	0,014
-406,540	135,139	0,058	-0,055
-405,525	419,221	-0,060	0,094
-404,511	800,000	0,019	0,045
-403,496	-117,386	-0,202	-0,026
-402,482	80,402	0,020	0,015
-401,467	-99,657	0,142	0,026
-400,452	146,845	0,048	0,047
-399,438	-200,000	0,027	0,116
-398,423	-155,573	-0,108	-0,005
-397,409	-56,324	-0,118	-0,038
-396,394	800,000	0,067	-0,144
-395,379	-200,000	0,006	-0,072
-394,365	250,019	-0,055	0,068
-393,350	-97,429	-0,103	-0,019
-392,336	588,605	0,044	0,080
-391,321	-87,988	-0,127	-0,027
-390,306	672,647	-0,030	-0,057
-389,292	-200,000	0,003	-0,084
-388,277	-200,000	0,014	-0,057
-387,263	293,495	0,060	0,080
-386,248	800,000	0,012	0,030
-385,233	85,904	0,093	0,074
-384,219	-84,102	0,108	0,025
-383,204	46,594	-0,040	-0,027
-382,190	654,094	0,042	-0,078
-381,175	-126,394	-0,078	0,008
-380,160	-143,597	0,062	-0,004
-379,146	286,200	0,082	0,107
-378,131	138,155	-0,038	0,036
-377,117	-34,148	0,141	-0,056
-376,102	675,988	-0,040	-0,076
-375,088	16,136	0,134	-0,076
-374,073	45,307	-0,049	-0,033
-373,058	-93,785	0,018	-0,004
-372,044	123,714	-0,069	-0,063
-371,029	77,145	0,102	-0,078
-370,015	-15,392	-0,028	-0,013
-369,000	-133,954	-0,035	0,003
-367,985	-35,615	-0,071	0,028
-366,971	-200,000	-0,022	-0,082
-365,956	-141,774	-0,088	0,006
-364,942	67,039	-0,102	0,075
-363,927	6,699	-0,084	0,045
-362,912	277,493	-0,023	-0,030
-361,898	-200,000	0,031	-0,137
-360,883	26,239	0,029	0,018
-359,869	-200,000	0,045	-0,173
-358,854	-5,118	0,098	-0,049
-357,839	-200,000	-0,000	-0,005
-356,825	800,000	-0,047	0,094
-355,810	-200,000	0,003	0,067
-354,796	89,679	0,028	-0,023
-353,781	52,611	0,103	0,071
-352,766	-20,927	0,026	-0,011
-351,752	351,345	-0,028	0,040
-350,737	800,000	0,036	0,102
-349,723	800,000	0,036	0,079
-348,708	30,160	-0,115	0,071
-347,693	40,947	0,066	-0,043
-346,679	-17,146	0,032	-0,015
-345,664	-124,634	0,091	-0,010
-344,650	-33,243	0,075	-0,030
-343,635	138,684	-0,045	0,043
-342,620	-145,076	0,073	-0,005
-341,606	272,520	-0,026	-0,033
-340,591	800,000	-0,044	-0,116
-339,577	-200,000	-0,017	0,066
-338,562	226,708	0,098	-0,115
-337,548	800,000	-0,023	-0,062
-336,533	171,688	-0,086	-0,090
-335,518	284,441	0,036	0,047
-334,504	10,601	-0,112	0,061
-333,489	-148,284	-0,010	0,001
-332,475	474,003	-0,045	-0,074
-331,460	102,755	0,119	-0,101
-330,445	-106,438	0,212	0,034
-329,431	145,702	0,055	-0,053
-328,416	-171,549	0,184	0,004
-327,402	132,249	-0,100	-0,093
-326,387	-200,000	0,008	-0,049
-325,372	55,005	-0,074	-0,052
-324,358	53,196	-0,064	-0,044
-323,343	-200,000	0,002	-0,149
-322,329	798,956	-0,026	0,053
-321,314	-200,000	-0,002	-0,042
-320,299	-200,000	0,003	0,083
-319,285	-200,000	0,014	-0,068
-318,270	-77,198	-0,033	0,008
-317,256	800,000	-0,040	-0,106
-316,241	480,084	-0,027	-0,044
-315,226	-185,939	0,060	-0,001
-314,212	-22,477	0,061	-0,027
-313,197	-200,000	-0,028	0,161
-312,183	800,000	0,049	0,151
-311,168	209,398	-0,021	-0,023
-310,153	-200,000	-0,009	-0,145
-309,139	800,000	-0,019	0,045
-308,124	-69,315	-0,039	-0,011
-307,110	800,000	0,021	0,047
-306,095	-200,000	-0,005	0,072
-305,080	-185,389	-0,042	0,000
-304,066	-200,000	-0,040	-0,158
-303,051	527,810	0,020	0,034
-302,037	75,103	-0,058	-0,044
-301,022	35,929	0,096	-0,061
-300,008	108,524	-0,050	0,043
-298,993	361,077	-0,026	-0,038
-297,978	119,818	-0,078	0,070
-296,964	800,000	0,081	0,195
-295,949	-127,104	-0,058	0,006
-294,935	800,000	0,010	0,029
-293,920	800,000	0,022	-0,059
-292,905	28,632	0,144	0,088
-291,891	-43,922	-0,042	-0,015
-290,876	800,000	0,020	-0,049
-289,862	-24,242	-0,070	-0,030
-288,847	191,949	0,083	-0,090
-287,832	-200,000	0,004	-0,035
-286,818	-200,000	-0,000	0,048
-285,803	92,552	-0,027	0,022
-284,789	-191,499	0,126	0,001
-283,774	-112,014	0,121	-0,017
-282,759	-124,045	-0,132	-0,015
-281,745	-200,000	-0,003	0,093
-280,730	-86,337	0,034	0,008
-279,716	44,952	0,022	0,015
-278,701	-50,035	-0,126	-0,043
-277,686	364,316	-0,050	0,073
-276,672	204,701	-0,018	0,020
-275,657	-34,317	-0,089	-0,035
-274,643	-82,596	-0,043	0,010
-273,628	280,611	0,053	0,068
-272,613	284,706	-0,120	-0,157
-271,599	-200,000	0,002	0,039
-270,584	163,382	-0,012	-0,012
-269,570	-200,000	0,002	-0,015
-268,555	-200,000	0,003	-0,057
-267,540	136,366	0,142	-0,134
-266,526	99,536	-0,062	-0,052
-265,511	-83,616	-0,094	0,022
-264,497	800,000	-0,006	-0,015
-263,482	32,779	-0,049	0,031
-262,467	210,494	0,063	-0,071
-261,453	-200,000	-0,015	0,113
-260,438	235,720	-0,059	-0,071
-259,424	372,058	-0,030	0,044
-258,409	162,666	0,040	-0,041
-257,395	37,635	-0,102	-0,065
-256,380	28,583	-0,040	0,024
-255,365	-200,000	-0,036	-0,140
-254,351	800,000	0,062	0,139
-253,336	269,441	-0,040	0,050
-252,322	620,395	-0,058	0,105
-251,307	-124,057	0,098	0,011
-250,292	800,000	-0,020	0,062
-249,278	-189,334	-0,065	0,001
-248,263	-88,216	0,082	0,018
-247,249	-98,562	0,218	-0,040
-246,234	-200,000	-0,002	-0,078
-245,219	89,472	0,100	0,081
-244,205	423,325	0,030	-0,047
-243,190	750,941	-0,058	0,113
-242,176	-200,000	-0,035	0,135
-241,161	-78,489	-0,051	0,012
-240,146	115,452	0,029	-0,025
-239,132	-200,000	0,014	-0,075
-238,117	4,937	0,210	-0,111
-237,103	-200,000	0,019	-0,086
-236,088	-200,000	-0,009	-0,073
-235,073	-200,000	-0,003	-0,024
-234,059	217,689	0,011	-0,013
-233,044	70,519	0,123	0,092
-232,030	-200,000	-0,015	-0,136
-231,015	464,324	-0,088	-0,142
-230,000	800,000	0,048	0,132
-228,986	-89,951	-0,095	0,020
-227,971	124,092	0,050	-0,046
-226,957	-114,543	0,111	0,015
-225,942	-200,000	-0,011	0,097
-224,927	-71,902	0,009	-0,002
-223,913	-120,000	-0,097	-0,012
-222,898	-46,040	0,096	-0,034
-221,884	14,716	-0,142	-0,080
-220,869	327,189	0,077	0,106
-219,855	-73,784	0,112	0,029
-218,840	-122,778	-0,136	-0,016
-217,825	164,620	-0,057	-0,058
-216,811	159,402	-0,035	-0,035
-215,796	-200,000	-0,026	-0,172
-214,782	-200,000	0,030	-0,154
-213,767	-120,788	0,043	-0,005
-212,752	601,864	0,011	0,020
-211,738	-200,000	0,002	-0,141
-210,723	669,500	-0,016	-0,029
-209,709	259,310	0,016	-0,020
-208,694	223,447	-0,056	-0,066
-207,679	34,774	0,087	-0,055
-206,665	800,000	-0,039	-0,093
-205,650	142,461	0,014	-0,013
-204,636	-23,951	-0,125	0,054
-203,621	-17,846	0,010	-0,005
-202,606	800,000	0,047	-0,108
-201,592	226,675	-0,100	0,117
-200,577	-162,585	0,121	-0,004
-199,563	-28,518	0,034	0,014
-198,548	-72,492	0,171	0,045
-197,533	-200,000	-0,030	-0,105
-196,519	-73,054	0,156	0,041
-195,504	-200,000	-0,006	0,100
-194,490	-98,551	-0,033	-0,006
-193,475	-85,886	-0,068	0,015
-192,460	-92,449	0,171	-0,034
-191,446	27,176	-0,042	0,025
-190,431	38,537	0,119	0,076
-189,417	800,000	-0,009	0,028
-188,402	-42,873	-0,022	-0,008
-187,387	-114,268	-0,058	0,008
-186,373	127,046	-0,041	0,037
-185,358	-149,008	0,039	-0,002
-184,344	62,342	0,183	0,131
-183,329	-200,000	0,032	0,149
-182,315	-37,440	0,096	0,037
-181,300	-157,668	-0,125	-0,005
-180,285	-200,000	0,016	0,138
-179,271	-35,344	-0,100	-0,039
-178,256	-58,425	0,032	-0,010
-177,242	4,302	0,060	-0,032
-176,227	800,000	-0,013	-0,033
-175,212	-0,513	-0,070	-0,036
-174,198	-200,000	-0,008	-0,098
-173,183	319,897	0,055	-0,075
-172,169	142,701	-0,055	0,052
-171,154	-200,000	0,006	0,049
-170,139	481,250	-0,013	0,022
-169,125	68,900	0,070	0,052
-168,110	105,056	0,045	-0,038
-167,096	800,000	-0,012	0,026
-166,081	46,790	0,052	0,035
-165,066	41,712	0,113	-0,074
-164,052	-200,000	-0,035	-0,152
-163,037	800,000	-0,028	0,087
-162,023	-200,000	-0,099	0,000
-161,008	-2,575	0,096	0,048
-159,993	58,410	-0,063	0,045
-158,979	-138,454	-0,099	-0,008
-157,964	800,000	0,054	-0,157
-156,950	800,000	-0,025	-0,078
-155,935	733,380	0,015	0,029
-154,920	139,149	0,088	-0,084
-153,906	-200,000	-0,019	0,083
-152,891	77,896	-0,056	-0,043
-151,877	-200,000	-0,020	-0,071
-150,862	800,000	-0,025	-0,059
-149,847	-18,097	0,106	-0,048
-148,833	38,668	0,095	-0,061
-147,818	398,688	0,064	-0,096
-146,804	-96,965	0,119	-0,022
-145,789	-88,198	0,093	0,020
-144,775	33,215	0,129	-0,080
-143,760	-120,918	-0,095	0,011
-142,745	112,061	0,109	-0,095
-141,731	-200,000	-0,003	0,143
-140,716	241,707	0,111	0,134
-139,702	16,032	-0,038	0,021
-138,687	153,319	0,036	0,036
-137,672	-122,026	-0,137	-0,016
-136,658	-169,956	0,076	-0,002
-135,643	327,429	-0,100	-0,138
-134,629	-42,846	0,158	0,057
-133,614	-200,000	0,019	0,110
-132,599	-17,147	0,062	0,028
-131,585	66,514	-0,067	0,049
-130,570	800,000	-0,036	-0,091
-129,556	311,613	0,143	-0,194
-128,541	-17,392	-0,029	-0,013
-127,526	143,710	-0,048	0,046
-126,512	800,000	0,070	0,156
-125,497	2,803	0,052	0,027
-124,483	7,679	0,033	0,018
-123,468	800,000	0,052	-0,116
-122,453	124,083	-0,117	-0,106
-121,439	800,000	-0,016	0,035
-120,424	-11,756	-0,073	0,034
-119,410	-103,633	0,190	0,032
