DTS Sentinel unit serial number:	SN410029Multiplexer serial number:	ORYXHardware model number:	OX2-SRSoftware version number:	ORYX F/W v4,00 Oryx Data Collector v3.7.2.0data status	okinstallation	B5 Nyhavnadifferential loss correction	single-endedforward channel	channel 2reverse channel	N/Adate	2023/12/12time	00:27:13forward acquisition time	300,00reverse acquisition time	0,00gamma	499,1914k internal	0,3156k external	0,3156temperature offset calibration	1,0000default loss term (dB/km)	0,3820temperature slope calibration	1,0000multiplexer offset coefficient	1,0000multiplexer slope coefficient	1,0000fibre end	0,00T internal ref (°C)	16,11T ext. ref 1 (°C)	-0,30T ext. ref 2 (°C)	-0,59length (m)	temperature (°C)	Stokes	anti-Stokes-744,400	-103,904	0,142	-0,024
-743,385	-48,368	-0,389	-0,137
-742,371	740,614	0,053	0,105
-741,356	-97,362	-0,400	0,076
-740,342	-100,919	0,108	0,019
-739,327	-129,912	-0,345	0,034
-738,312	-144,324	0,131	0,009
-737,298	-41,516	-0,186	-0,070
-736,283	-67,140	0,163	0,047
-735,269	7,756	-0,223	0,123
-734,254	72,375	0,134	0,103
-733,239	37,095	-0,545	-0,355
-732,225	-129,069	0,271	-0,028
-731,210	-94,528	-0,088	0,018
-730,196	-15,862	0,095	0,045
-729,181	800,000	-0,014	-0,041
-728,167	-200,000	0,006	-0,081
-727,152	339,436	-0,054	-0,078
-726,137	17,755	-0,186	-0,109
-725,123	205,026	-0,118	-0,135
-724,108	-100,455	-0,147	-0,027
-723,094	173,731	-0,074	-0,079
-722,079	117,949	0,054	0,049
-721,064	800,000	-0,048	-0,121
-720,050	107,335	0,103	0,090
-719,035	397,227	-0,072	-0,112
-718,021	99,815	-0,039	0,034
-717,006	-200,000	0,006	-0,114
-715,991	-100,047	-0,070	0,013
-714,977	91,649	-0,093	-0,077
-713,962	-200,000	-0,016	-0,125
-712,948	14,377	-0,099	-0,057
-711,933	719,094	0,051	0,101
-710,918	-200,000	-0,008	0,054
-709,904	-200,000	0,004	-0,053
-708,889	-200,000	0,002	0,036
-707,875	39,762	-0,132	-0,087
-706,860	-84,269	0,076	0,017
-705,845	293,422	0,068	0,092
-704,831	800,000	-0,008	0,020
-703,816	236,143	-0,089	-0,108
-702,802	623,963	-0,143	-0,267
-701,787	167,572	0,073	-0,077
-700,772	-64,386	-0,189	-0,056
-699,758	431,782	0,065	-0,105
-698,743	-107,692	0,115	0,018
-697,729	3,012	0,026	-0,014
-696,714	800,000	0,015	0,039
-695,699	-200,000	-0,020	-0,099
-694,685	0,984	-0,032	0,017
-693,670	335,465	-0,032	0,045
-692,656	-189,187	0,027	-0,000
-691,641	-36,404	0,193	0,076
-690,627	800,000	0,037	0,110
-689,612	-200,000	0,005	0,054
-688,597	800,000	-0,054	-0,143
-687,583	-17,448	-0,081	-0,038
-686,568	-200,000	-0,023	0,111
-685,554	579,479	0,068	-0,123
-684,539	-200,000	0,012	-0,062
-683,524	-123,013	0,120	-0,014
-682,510	81,443	-0,117	0,093
-681,495	144,065	0,126	-0,123
-680,481	31,214	-0,140	-0,088
-679,466	800,000	0,018	-0,049
-678,451	800,000	0,034	0,093
-677,437	-144,818	-0,069	0,005
-676,422	2,012	0,147	0,078
-675,408	-161,790	-0,071	0,003
-674,393	-200,000	-0,005	0,023
-673,378	-43,418	0,023	0,009
-672,364	277,871	-0,089	-0,117
-671,349	114,091	-0,011	-0,010
-670,335	800,000	0,050	-0,132
-669,320	-200,000	-0,009	-0,067
-668,305	800,000	-0,029	0,090
-667,291	800,000	0,048	0,120
-666,276	133,838	-0,096	-0,092
-665,262	24,559	-0,089	0,054
-664,247	-37,714	-0,055	0,021
-663,232	-20,013	0,144	-0,065
-662,218	-94,131	-0,076	0,015
-661,203	-77,383	0,150	0,038
-660,189	9,761	-0,086	0,048
-659,174	23,430	-0,019	-0,011
-658,159	-200,000	0,014	0,064
-657,145	299,928	-0,055	-0,075
-656,130	106,920	0,010	0,009
-655,116	-31,419	-0,060	-0,025
-654,101	77,203	0,045	0,035
-653,086	-47,784	0,068	-0,024
-652,072	20,902	-0,195	-0,116
-651,057	237,129	0,037	-0,046
-650,043	-200,000	-0,020	0,097
-649,028	68,305	-0,126	0,095
-648,014	-171,765	0,114	0,003
-646,999	800,000	0,014	0,032
-645,984	800,000	0,015	0,040
-644,970	781,113	-0,075	-0,151
-643,955	98,040	-0,077	-0,065
-642,941	800,000	0,070	-0,143
-641,926	-200,000	-0,010	0,080
-640,911	-9,612	-0,163	0,080
-639,897	54,454	0,107	0,076
-638,882	209,898	-0,143	-0,165
-637,868	122,759	-0,097	-0,089
-636,853	-104,919	-0,057	-0,010
-635,838	800,000	0,014	0,029
-634,824	373,722	-0,026	-0,039
-633,809	268,037	-0,046	0,059
-632,795	353,743	-0,056	-0,081
-631,780	800,000	-0,021	-0,064
-630,765	9,055	0,115	0,064
-629,751	95,153	-0,102	0,085
-628,736	624,467	-0,100	-0,185
-627,722	393,595	-0,069	-0,105
-626,707	800,000	0,032	0,098
-625,692	-35,107	-0,066	-0,026
-624,678	-79,918	-0,072	-0,018
-623,663	69,394	0,065	0,049
-622,649	-157,905	-0,153	0,007
-621,634	800,000	-0,040	0,111
-620,619	-200,000	-0,017	-0,072
-619,605	451,305	0,047	-0,077
-618,590	-200,000	0,005	-0,065
-617,576	-3,115	-0,054	0,028
-616,561	-200,000	-0,008	0,139
-615,546	-57,832	0,018	-0,006
-614,532	800,000	0,024	-0,078
-613,517	-200,000	-0,006	-0,040
-612,503	-200,000	-0,026	0,091
-611,488	-90,771	0,055	-0,011
-610,474	800,000	0,035	-0,095
-609,459	31,485	0,034	-0,021
-608,444	-200,000	-0,005	0,162
-607,430	-37,842	0,129	0,050
-606,415	-17,029	-0,086	-0,039
-605,401	-101,825	-0,039	0,007
-604,386	800,000	-0,015	0,038
-603,371	335,931	0,011	-0,015
-602,357	-15,071	0,059	-0,028
-601,342	-200,000	-0,038	-0,133
-600,328	-47,868	-0,086	-0,030
-599,313	-200,000	-0,040	-0,163
-598,298	-102,259	-0,096	-0,017
-597,284	-83,602	0,077	0,018
-596,269	-148,419	0,079	0,005
-595,255	-27,862	-0,077	0,033
-594,240	58,391	-0,055	-0,039
-593,225	32,941	-0,078	-0,049
-592,211	-54,797	-0,041	0,013
-591,196	800,000	-0,020	-0,042
-590,182	800,000	-0,015	-0,033
-589,167	800,000	0,063	0,130
-588,152	-200,000	0,008	-0,040
-587,138	68,695	-0,232	0,174
-586,123	800,000	0,008	-0,024
-585,109	141,567	0,066	-0,064
-584,094	-0,905	-0,059	0,030
-583,079	800,000	-0,054	0,148
-582,065	102,499	0,069	0,059
-581,050	-200,000	-0,014	0,084
-580,036	-78,184	-0,148	0,037
-579,021	-63,074	0,037	-0,011
-578,006	-200,000	-0,016	-0,097
-576,992	-49,971	0,135	0,047
-575,977	698,877	0,025	0,048
-574,963	-109,586	-0,081	-0,012
-573,948	451,578	0,011	0,018
-572,934	800,000	0,008	-0,020
-571,919	466,978	0,053	-0,087
-570,904	-6,281	0,058	0,029
-569,890	800,000	-0,001	-0,002
-568,875	236,284	-0,060	-0,073
-567,861	800,000	0,038	0,121
-566,846	-200,000	-0,058	-0,203
-565,831	177,261	-0,047	0,050
-564,817	140,692	0,043	0,042
-563,802	-43,862	-0,189	0,069
-562,788	800,000	0,007	-0,014
-561,773	-47,135	0,042	-0,015
-560,758	115,611	-0,110	0,099
-559,744	-139,948	0,039	-0,003
-558,729	-40,529	0,067	-0,025
-557,715	135,939	-0,061	-0,059
-556,700	114,329	-0,070	-0,063
-555,685	800,000	-0,029	-0,087
-554,671	-40,042	0,117	-0,044
-553,656	202,434	0,130	-0,147
-552,642	-156,369	-0,048	-0,002
-551,627	800,000	0,031	-0,081
-550,612	-200,000	-0,035	-0,138
-549,598	-49,640	-0,050	0,017
-548,583	-138,987	-0,059	-0,005
-547,569	283,304	-0,071	-0,094
-546,554	21,552	0,067	-0,040
-545,539	-200,000	-0,022	0,139
-544,525	-44,362	0,065	0,024
-543,510	246,529	-0,062	-0,076
-542,496	20,740	-0,126	-0,074
-541,481	109,252	-0,128	-0,112
-540,466	-27,484	-0,022	0,009
-539,452	-200,000	-0,010	0,046
-538,437	-200,000	-0,015	0,062
-537,423	-200,000	-0,000	-0,075
-536,408	-76,022	-0,079	-0,020
-535,393	-109,019	-0,085	-0,013
-534,379	800,000	-0,011	-0,029
-533,364	63,896	0,011	-0,008
-532,350	79,447	0,101	-0,079
-531,335	-90,861	-0,063	0,013
-530,321	-108,001	-0,082	-0,013
-529,306	212,857	0,040	-0,047
-528,291	-55,586	-0,106	0,035
-527,277	94,339	0,144	-0,119
-526,262	16,569	-0,047	-0,027
-525,248	-127,894	-0,070	-0,007
-524,233	-52,204	0,053	-0,018
-523,218	-81,362	-0,043	0,010
-522,204	800,000	0,044	-0,106
-521,189	125,291	-0,127	0,117
-520,175	-42,552	-0,045	-0,017
-519,160	-109,691	0,042	-0,006
-518,145	-2,642	0,039	0,020
-517,131	-34,519	0,035	-0,014
-516,116	800,000	0,016	0,039
-515,102	27,545	-0,072	0,044
-514,087	-39,550	0,079	-0,030
-513,072	285,630	-0,075	-0,099
-512,058	-200,000	-0,032	-0,123
-511,043	800,000	0,023	-0,070
-510,029	800,000	0,024	0,054
-509,014	-115,876	0,087	0,012
-507,999	-136,898	-0,176	0,015
-506,985	-45,365	-0,140	-0,051
-505,970	416,211	0,031	-0,049
-504,956	243,245	-0,122	-0,150
-503,941	21,560	-0,057	-0,034
-502,926	4,049	0,207	0,110
-501,912	-200,000	-0,032	0,121
-500,897	217,039	-0,048	0,056
-499,883	-200,000	-0,010	0,054
-498,868	-7,349	0,183	0,090
-497,853	-121,294	-0,132	-0,016
-496,839	-30,597	-0,056	0,023
-495,824	-19,567	0,043	0,020
-494,810	-167,328	0,080	0,002
-493,795	-200,000	0,016	0,115
-492,781	11,382	-0,042	0,023
-491,766	800,000	0,027	0,060
-490,751	332,594	0,049	-0,070
-489,737	-104,917	0,024	-0,004
-488,722	265,100	-0,039	0,050
-487,708	-135,237	0,104	0,009
-486,693	-200,000	-0,023	0,078
-485,678	-124,479	0,100	0,011
-484,664	737,678	-0,072	-0,142
-483,649	-200,000	-0,009	-0,160
-482,635	-168,257	0,064	0,002
-481,620	800,000	0,064	0,146
-480,605	81,908	-0,051	0,040
-479,591	-93,089	0,096	-0,019
-478,576	73,589	0,063	-0,048
-477,562	-48,082	0,084	-0,029
-476,547	305,186	0,029	-0,040
-475,532	741,277	-0,029	-0,057
-474,518	261,906	0,102	-0,129
-473,503	-5,101	0,057	-0,029
-472,489	800,000	0,058	0,134
-471,474	-200,000	-0,022	-0,077
-470,459	179,672	-0,061	0,065
-469,445	-47,897	-0,134	0,047
-468,430	800,000	-0,027	-0,080
-467,416	-114,754	0,115	0,016
-466,401	536,536	0,041	-0,071
-465,386	-200,000	0,004	0,015
-464,372	634,798	0,025	-0,047
-463,357	800,000	0,028	-0,079
-462,343	-200,000	0,003	-0,046
-461,328	800,000	-0,044	0,111
-460,313	-130,396	0,042	0,004
-459,299	800,000	0,024	0,050
-458,284	100,678	0,148	0,125
-457,270	47,969	-0,119	0,081
-456,255	800,000	-0,024	-0,071
-455,241	226,695	-0,130	-0,154
-454,226	775,090	-0,026	0,052
-453,211	-200,000	0,027	0,114
-452,197	-97,024	-0,109	0,021
-451,182	197,383	0,116	0,129
-450,168	397,981	-0,036	-0,056
-449,153	-158,951	-0,159	0,006
-448,138	-200,000	0,002	-0,110
-447,124	-97,275	0,093	0,018
-446,109	800,000	-0,078	0,172
-445,095	11,948	0,018	-0,010
-444,080	543,813	0,040	0,070
-443,065	-200,000	0,004	0,014
-442,051	376,584	0,045	-0,068
-441,036	800,000	0,048	-0,132
-440,022	385,961	-0,073	-0,110
-439,007	-110,136	0,122	-0,018
-437,992	141,770	0,063	-0,061
-436,978	246,414	0,081	0,100
-435,963	800,000	0,019	0,044
-434,949	-200,000	-0,035	-0,188
-433,934	-103,964	0,116	-0,020
-432,919	-200,000	-0,007	0,046
-431,905	-94,578	0,012	0,002
-430,890	109,039	0,040	-0,035
-429,876	-200,000	0,011	0,079
-428,861	-200,000	-0,024	0,171
-427,846	91,295	0,087	0,071
-426,832	-99,755	-0,066	0,012
-425,817	247,809	0,018	0,023
-424,803	225,443	0,037	-0,044
-423,788	-0,293	-0,056	0,029
-422,773	65,176	-0,084	-0,062
-421,759	-200,000	-0,004	0,065
-420,744	-200,000	0,027	-0,179
-419,730	-140,017	0,068	-0,005
-418,715	-200,000	-0,017	0,090
-417,701	638,730	0,085	-0,158
-416,686	106,648	0,069	-0,059
-415,671	-141,274	-0,076	0,006
-414,657	-200,000	-0,002	0,189
-413,642	-200,000	0,013	0,136
-412,628	77,068	-0,075	-0,058
-411,613	-24,542	-0,119	0,052
-410,598	141,662	0,135	-0,130
-409,584	-84,294	0,060	-0,014
-408,569	-74,098	-0,073	0,019
-407,555	-94,383	0,100	0,020
-406,540	394,879	-0,058	0,089
-405,525	-97,176	-0,069	-0,013
-404,511	-128,557	0,075	0,008
-403,496	-200,000	-0,019	-0,220
-402,482	-13,894	0,082	-0,038
-401,467	-200,000	0,006	0,071
-400,452	151,988	-0,090	0,089
-399,438	614,741	0,020	0,036
-398,423	-41,353	-0,113	-0,042
-397,409	800,000	-0,017	0,051
-396,394	-200,000	-0,013	-0,051
-395,379	652,582	-0,042	-0,079
-394,365	353,708	-0,024	0,035
-393,350	800,000	0,053	0,135
-392,336	160,602	0,081	0,082
-391,321	473,065	-0,127	-0,209
-390,306	-200,000	0,009	-0,120
-389,292	-160,135	0,052	-0,002
-388,277	800,000	0,065	-0,197
-387,263	741,633	-0,039	0,076
-386,248	-200,000	0,026	0,155
-385,233	464,121	0,071	0,116
-384,219	147,296	-0,040	0,040
-383,204	130,224	0,029	0,027
-382,190	-37,118	0,060	-0,023
-381,175	800,000	-0,041	0,102
-380,160	286,106	0,052	-0,068
-379,146	800,000	-0,087	0,195
-378,131	30,404	-0,064	0,039
-377,117	800,000	0,039	0,095
-376,102	606,974	-0,024	0,044
-375,088	444,402	-0,094	0,151
-374,073	346,358	0,009	-0,012
-373,058	-200,000	-0,002	0,139
-372,044	-200,000	-0,024	-0,116
-371,029	554,547	0,052	0,091
-370,015	451,216	-0,017	0,027
-369,000	-200,000	-0,007	-0,032
-367,985	584,296	0,066	-0,118
-366,971	-29,604	0,178	-0,073
-365,956	800,000	-0,030	0,065
-364,942	-50,709	0,092	-0,031
-363,927	-150,831	0,160	-0,009
-362,912	-183,601	-0,153	0,002
-361,898	151,771	0,057	0,057
-360,883	800,000	0,031	-0,064
-359,869	-92,182	-0,171	-0,035
-358,854	-19,147	-0,085	0,038
-357,839	-41,525	0,055	-0,020
-356,825	510,344	0,091	0,154
-355,810	-200,000	-0,011	0,077
-354,796	71,834	0,100	0,076
-353,781	800,000	-0,051	-0,134
-352,766	-62,672	-0,083	0,025
-351,752	-77,249	0,024	-0,006
-350,737	800,000	0,011	0,031
-349,723	-200,000	0,033	0,122
-348,708	107,459	-0,068	0,059
-347,693	-200,000	-0,007	0,095
-346,679	-200,000	-0,006	0,105
-345,664	-153,748	-0,126	-0,006
-344,650	105,518	0,039	0,033
-343,635	36,417	0,072	-0,046
-342,620	-38,807	-0,099	-0,038
-341,606	274,755	-0,036	-0,047
-340,591	109,714	0,062	0,054
-339,577	-200,000	0,018	0,087
-338,562	-95,428	0,019	-0,004
-337,548	-79,473	0,100	0,024
-336,533	800,000	0,004	-0,008
-335,518	59,696	-0,095	-0,068
-334,504	310,643	-0,037	0,050
-333,489	800,000	0,035	-0,074
-332,475	-77,152	0,087	-0,022
-331,460	-200,000	-0,030	-0,137
-330,445	628,468	0,002	0,004
-329,431	-112,001	0,057	0,008
-328,416	164,111	0,055	0,056
-327,402	-200,000	0,002	-0,070
-326,387	-53,158	-0,068	0,022
-325,372	-152,142	-0,092	-0,005
-324,358	-3,474	-0,013	-0,007
-323,343	-127,648	0,168	-0,017
-322,329	-126,931	0,142	-0,015
-321,314	-200,000	-0,004	-0,086
-320,299	143,807	-0,145	0,140
-319,285	800,000	-0,041	0,100
-318,270	-0,801	0,101	0,052
-317,256	-200,000	-0,015	0,162
-316,241	-200,000	-0,018	-0,157
-315,226	31,264	-0,073	0,045
-314,212	-9,246	0,045	-0,022
-313,197	-108,276	-0,039	0,006
-312,183	800,000	0,074	0,157
-311,168	-34,692	0,023	0,009
-310,153	-65,349	-0,114	-0,033
-309,139	-200,000	-0,003	0,071
-308,124	-200,000	0,008	0,101
-307,110	2,074	0,006	0,003
-306,095	800,000	-0,019	-0,052
-305,080	-112,187	-0,088	0,013
-304,066	148,990	-0,048	0,047
-303,051	118,820	-0,143	-0,128
-302,037	-200,000	0,006	-0,078
-301,022	528,787	0,055	-0,095
-300,008	272,379	-0,006	-0,007
-298,993	-19,967	0,154	0,069
-297,978	-200,000	0,030	-0,105
-296,964	-45,699	0,058	-0,021
-295,949	397,446	0,025	0,038
-294,935	533,802	-0,031	0,053
-293,920	0,288	0,145	-0,075
-292,905	-200,000	-0,033	0,241
-291,891	-132,214	0,177	0,016
-290,876	167,644	0,077	0,080
-289,862	-200,000	-0,017	0,102
-288,847	777,980	0,011	-0,022
-287,832	-200,000	-0,019	-0,076
-286,818	-194,606	0,076	0,000
-285,803	800,000	0,070	-0,177
-284,789	493,191	0,057	0,096
-283,774	371,280	0,035	0,052
-282,759	273,583	-0,047	0,061
-281,745	201,820	-0,131	-0,147
-280,730	-41,172	-0,051	-0,019
-279,716	-60,279	0,116	-0,036
-278,701	70,332	-0,050	-0,037
-277,686	-121,952	0,187	0,022
-276,672	-144,989	-0,050	-0,003
-275,657	469,410	0,012	0,019
-274,643	800,000	0,058	-0,118
-273,628	391,281	-0,061	0,092
-272,613	-171,363	0,141	0,003
-271,599	800,000	0,038	-0,107
-270,584	-95,338	0,111	0,021
-269,570	-23,533	0,050	-0,022
-268,555	-42,916	-0,094	-0,034
-267,540	-200,000	-0,002	-0,098
-266,526	-200,000	-0,001	0,036
-265,511	-200,000	0,013	0,070
-264,497	-200,000	-0,007	-0,024
-263,482	-200,000	0,001	-0,115
-262,467	800,000	0,056	0,122
-261,453	800,000	0,027	-0,084
-260,438	-200,000	-0,003	-0,017
-259,424	45,560	0,060	-0,040
-258,409	-105,587	-0,172	0,028
-257,395	-3,353	-0,022	0,011
-256,380	-32,618	0,103	-0,041
-255,365	-200,000	-0,028	0,103
-254,351	-200,000	-0,010	0,059
-253,336	-200,000	0,001	-0,165
-252,322	299,296	-0,073	-0,098
-251,307	-144,949	0,013	-0,001
-250,292	-133,803	0,093	0,008
-249,278	66,472	0,097	0,072
-248,263	-55,518	0,071	0,023
-247,249	-75,807	-0,033	0,008
-246,234	-68,829	0,031	-0,009
-245,219	267,394	-0,035	-0,044
-244,205	800,000	-0,047	-0,149
-243,190	-200,000	0,052	-0,219
-242,176	-100,173	0,110	0,020
-241,161	430,258	-0,039	-0,061
-240,146	-113,912	-0,047	-0,006
-239,132	-31,375	-0,022	0,009
-238,117	357,282	-0,046	-0,066
-237,103	173,852	-0,054	0,057
-236,088	16,933	-0,073	0,042
-235,073	7,044	0,007	-0,004
-234,059	96,147	0,067	-0,056
-233,044	-164,766	-0,107	-0,003
-232,030	-200,000	0,030	-0,119
-231,015	127,289	-0,054	0,050
-230,000	10,930	-0,100	-0,055
-228,986	156,482	0,069	-0,069
-227,971	-132,064	0,128	0,012
-226,957	25,691	0,169	0,101
-225,942	-48,343	-0,073	-0,025
-224,927	-200,000	0,006	0,022
-223,913	800,000	0,034	-0,074
-222,898	-9,872	-0,104	0,050
-221,884	24,507	0,171	-0,102
-220,869	800,000	0,009	-0,024
-219,855	-102,212	0,176	0,030
-218,840	800,000	0,052	-0,142
-217,825	455,106	0,017	-0,027
-216,811	36,628	-0,056	0,036
-215,796	87,219	0,086	-0,069
-214,782	82,495	-0,028	0,022
-213,767	88,418	0,072	-0,058
-212,752	-53,111	-0,115	-0,038
-211,738	-57,530	0,073	-0,023
-210,723	230,023	-0,023	0,027
-209,709	-82,275	-0,031	0,007
-208,694	800,000	-0,001	-0,002
-207,679	35,176	0,043	-0,027
-206,665	800,000	0,018	0,039
-205,650	-200,000	-0,015	0,077
-204,636	-200,000	0,013	0,071
-203,621	11,819	-0,136	0,075
-202,606	-200,000	-0,002	-0,051
-201,592	387,936	-0,093	-0,139
-200,577	35,030	-0,102	-0,064
-199,563	27,632	0,099	0,060
-198,548	-177,689	0,017	-0,000
-197,533	-200,000	-0,031	0,131
-196,519	-200,000	-0,014	0,101
-195,504	124,661	-0,124	0,113
-194,490	25,689	-0,051	-0,031
-193,475	800,000	0,018	-0,036
-192,460	115,864	0,153	0,135
-191,446	800,000	0,019	0,050
-190,431	-200,000	0,025	-0,115
-189,417	347,143	0,015	0,021
-188,402	13,501	0,100	0,056
-187,387	-98,696	-0,133	-0,024
-186,373	-91,538	-0,080	-0,016
-185,358	-200,000	-0,035	0,216
-184,344	-117,815	0,073	0,009
-183,329	-52,811	0,099	-0,033
-182,315	-200,000	0,008	0,065
-181,300	-200,000	-0,025	-0,084
-180,285	123,697	0,042	-0,038
-179,271	17,439	-0,080	-0,046
-178,256	-89,500	-0,065	-0,014
-177,242	-200,000	-0,004	0,143
-176,227	294,041	0,095	0,126
-175,212	319,461	0,066	-0,091
-174,198	-56,057	-0,040	-0,013
-173,183	352,431	-0,010	0,015
-172,169	800,000	0,013	-0,030
-171,154	800,000	0,018	-0,045
-170,139	800,000	-0,020	0,048
-169,125	-200,000	-0,012	0,173
-168,110	153,519	-0,012	0,012
-167,096	800,000	0,042	-0,086
-166,081	-161,234	0,075	-0,003
-165,066	-200,000	-0,023	-0,078
-164,052	-75,739	0,113	0,029
-163,037	10,456	-0,095	0,052
-162,023	611,846	0,115	0,208
-161,008	-200,000	0,008	0,165
-159,993	-200,000	-0,005	0,066
-158,979	-40,106	-0,058	0,022
-157,964	800,000	0,024	-0,068
-156,950	242,873	-0,114	0,138
-155,935	-200,000	-0,004	-0,125
-154,920	630,595	0,041	0,076
-153,906	191,066	0,068	0,073
-152,891	-84,374	-0,076	-0,017
-151,877	-105,778	-0,111	-0,018
-150,862	-30,481	-0,024	0,010
-149,847	133,247	0,118	-0,110
-148,833	-200,000	-0,012	0,212
-147,818	1,659	0,106	0,055
-146,804	-36,999	0,108	0,042
-145,789	14,528	0,082	0,046
-144,775	-200,000	0,004	-0,044
-143,760	148,597	-0,041	-0,040
-142,745	800,000	-0,019	-0,047
-141,731	38,633	-0,078	0,050
-140,716	-200,000	0,004	0,143
-139,702	674,064	0,103	0,194
-138,687	-127,184	-0,073	-0,008
-137,672	800,000	-0,043	0,102
-136,658	-175,169	-0,073	-0,001
-135,643	-142,432	-0,105	-0,007
-134,629	634,764	-0,030	-0,055
-133,614	-62,706	0,145	-0,043
-132,599	-16,251	-0,090	0,041
-131,585	338,691	0,042	-0,059
-130,570	-119,690	-0,156	-0,019
-129,556	-200,000	0,004	-0,071
-128,541	276,270	-0,042	-0,053
-127,526	-200,000	0,000	0,023
-126,512	-200,000	0,017	-0,131
-125,497	438,437	0,077	0,122
-124,483	-160,363	-0,108	-0,004
-123,468	348,668	-0,046	-0,066
-122,453	461,166	-0,069	0,111
-121,439	-25,201	0,097	-0,041
-120,424	-200,000	-0,019	0,098
-119,410	-69,226	-0,084	0,023
