DTS Sentinel unit serial number:	SN410029Multiplexer serial number:	ORYXHardware model number:	OX2-SRSoftware version number:	ORYX F/W v4,00 Oryx Data Collector v3.7.2.0data status	okinstallation	B5 Nyhavnadifferential loss correction	single-endedforward channel	channel 2reverse channel	N/Adate	2023/12/13time	06:27:13forward acquisition time	300,00reverse acquisition time	0,00gamma	499,1914k internal	0,3160k external	0,3160temperature offset calibration	1,0000default loss term (dB/km)	0,3820temperature slope calibration	1,0000multiplexer offset coefficient	1,0000multiplexer slope coefficient	1,0000fibre end	0,00T internal ref (°C)	13,76T ext. ref 1 (°C)	-2,72T ext. ref 2 (°C)	-3,03length (m)	temperature (°C)	Stokes	anti-Stokes-744,400	-38,315	0,157	-0,061
-743,385	-24,270	-0,269	-0,118
-742,371	-67,154	0,255	0,073
-741,356	-87,526	-0,343	0,076
-740,342	-20,441	0,059	-0,026
-739,327	-132,715	-0,286	0,027
-738,312	70,777	0,118	0,090
-737,298	-57,694	-0,409	-0,131
-736,283	-19,582	0,165	0,075
-735,269	-60,612	-0,239	-0,074
-734,254	-48,879	0,066	-0,023
-733,239	-48,577	-0,519	-0,183
-732,225	-153,402	0,106	0,005
-731,210	-200,000	-0,013	0,182
-730,196	-200,000	-0,046	-0,153
-729,181	150,489	-0,088	-0,088
-728,167	800,000	0,021	0,059
-727,152	-200,000	0,002	-0,043
-726,137	-200,000	-0,053	-0,188
-725,123	603,338	-0,018	-0,034
-724,108	204,185	-0,163	-0,187
-723,094	19,993	-0,048	0,028
-722,079	597,973	0,069	-0,127
-721,064	-115,429	-0,034	0,005
-720,050	488,315	0,092	-0,156
-719,035	756,375	0,030	0,061
-718,021	800,000	-0,021	0,047
-717,006	-157,224	-0,125	0,005
-715,991	-185,530	0,087	-0,001
-714,977	-179,818	-0,066	-0,001
-713,962	613,384	-0,030	0,056
-712,948	-58,883	-0,204	0,064
-711,933	-9,726	0,019	-0,009
-710,918	-200,000	-0,045	-0,184
-709,904	-200,000	-0,009	-0,051
-708,889	362,198	-0,064	-0,094
-707,875	549,910	0,028	-0,050
-706,860	97,501	-0,112	0,095
-705,845	785,583	0,041	0,082
-704,831	95,478	-0,040	0,033
-703,816	165,089	-0,066	-0,069
-702,802	-200,000	-0,024	-0,127
-701,787	13,966	-0,109	-0,062
-700,772	120,041	-0,077	-0,070
-699,758	554,916	0,028	0,050
-698,743	-200,000	0,006	-0,031
-697,729	800,000	-0,022	0,059
-696,714	800,000	0,065	-0,200
-695,699	-7,157	0,147	-0,073
-694,685	201,338	-0,054	0,061
-693,670	-200,000	0,001	0,107
-692,656	-200,000	0,007	0,091
-691,641	-200,000	0,008	0,044
-690,627	-200,000	-0,009	-0,058
-689,612	-200,000	-0,028	0,149
-688,597	-200,000	-0,003	-0,080
-687,583	52,829	-0,126	0,089
-686,568	60,423	-0,105	-0,076
-685,554	670,002	0,046	-0,087
-684,539	549,081	-0,064	-0,112
-683,524	-200,000	0,035	0,152
-682,510	304,083	0,036	-0,050
-681,495	14,175	-0,020	-0,011
-680,481	-200,000	-0,005	-0,201
-679,466	-40,159	-0,064	0,024
-678,451	800,000	-0,049	-0,131
-677,437	800,000	0,027	-0,071
-676,422	-138,363	0,088	-0,007
-675,408	-200,000	0,016	0,065
-674,393	578,888	-0,035	0,063
-673,378	-74,582	-0,080	0,021
-672,364	-69,761	-0,049	0,014
-671,349	179,525	-0,085	-0,091
-670,335	-148,539	-0,078	-0,005
-669,320	800,000	0,017	0,045
-668,305	230,872	-0,083	-0,099
-667,291	122,635	-0,051	-0,047
-666,276	680,984	0,027	0,052
-665,262	-200,000	-0,012	-0,124
-664,247	655,198	0,023	-0,044
-663,232	140,135	0,118	-0,114
-662,218	-200,000	0,046	0,174
-661,203	51,149	-0,025	0,017
-660,189	77,107	-0,126	-0,098
-659,174	11,911	-0,040	0,022
-658,159	707,990	-0,009	0,017
-657,145	-29,089	-0,056	0,024
-656,130	800,000	-0,044	0,091
-655,116	170,022	0,025	0,026
-654,101	-104,805	0,107	0,018
-653,086	800,000	-0,031	-0,089
-652,072	-200,000	0,012	-0,180
-651,057	-200,000	-0,003	-0,035
-650,043	-65,880	0,025	-0,007
-649,028	-100,595	-0,130	-0,023
-648,014	-10,922	0,069	0,034
-646,999	-200,000	-0,012	-0,098
-645,984	1,015	-0,048	-0,025
-644,970	-131,275	-0,031	0,003
-643,955	-200,000	0,030	0,155
-642,941	-80,243	-0,048	-0,012
-641,926	213,820	-0,095	-0,111
-640,911	-108,570	0,090	0,014
-639,897	553,796	0,013	0,023
-638,882	540,828	0,056	-0,098
-637,868	58,996	-0,065	0,047
-636,853	-153,381	0,069	0,003
-635,838	587,235	-0,046	-0,083
-634,824	497,212	0,086	0,145
-633,809	-69,208	0,036	0,010
-632,795	-159,261	-0,110	0,004
-631,780	60,902	0,053	-0,039
-630,765	142,951	0,073	0,071
-629,751	330,727	-0,047	-0,067
-628,736	800,000	0,067	-0,186
-627,722	-95,654	0,063	0,012
-626,707	-200,000	-0,012	0,084
-625,692	557,957	0,024	0,043
-624,678	-34,367	-0,190	0,076
-623,663	-86,357	0,026	0,006
-622,649	-32,186	-0,149	0,061
-621,634	-200,000	0,044	-0,157
-620,619	-200,000	-0,020	-0,106
-619,605	-54,232	-0,120	-0,040
-618,590	327,961	-0,067	0,095
-617,576	-200,000	0,038	0,142
-616,561	800,000	-0,035	0,098
-615,546	800,000	-0,019	-0,041
-614,532	54,696	-0,132	-0,093
-613,517	74,795	-0,093	-0,072
-612,503	296,818	-0,088	0,119
-611,488	-66,485	-0,032	-0,009
-610,474	144,481	-0,066	-0,065
-609,459	25,489	-0,067	0,041
-608,444	-200,000	0,027	-0,138
-607,430	-200,000	0,026	0,158
-606,415	265,332	0,059	-0,076
-605,401	-149,074	0,094	0,005
-604,386	298,111	0,073	-0,098
-603,371	-200,000	-0,016	0,110
-602,357	-200,000	-0,007	-0,080
-601,342	92,057	-0,101	-0,083
-600,328	800,000	0,078	-0,170
-599,313	179,300	-0,123	-0,132
-598,298	-200,000	0,015	-0,093
-597,284	-200,000	0,002	-0,016
-596,269	-14,343	0,088	-0,041
-595,255	-200,000	0,011	-0,164
-594,240	322,069	-0,048	-0,066
-593,225	732,372	-0,073	-0,143
-592,211	277,110	-0,038	-0,050
-591,196	-200,000	0,018	0,062
-590,182	-127,497	-0,058	0,006
-589,167	20,059	0,101	-0,059
-588,152	-64,234	-0,096	-0,028
-587,138	800,000	-0,012	0,028
-586,123	-71,956	0,039	0,010
-585,109	-62,234	-0,157	-0,048
-584,094	-39,597	0,179	0,068
-583,079	-98,504	0,014	-0,003
-582,065	-200,000	-0,007	-0,050
-581,050	800,000	-0,074	-0,183
-580,036	800,000	-0,050	0,103
-579,021	-71,293	-0,113	0,031
-578,006	800,000	-0,058	-0,123
-576,992	147,308	-0,086	0,085
-575,977	45,381	-0,080	0,054
-574,963	1,348	0,127	0,066
-573,948	148,379	-0,098	0,097
-572,934	89,495	-0,032	0,026
-571,919	-200,000	0,009	-0,110
-570,904	-98,964	-0,035	-0,006
-569,890	-200,000	0,035	-0,150
-568,875	-41,894	-0,105	0,039
-567,861	-155,282	0,114	0,005
-566,846	-94,572	0,132	0,026
-565,831	-200,000	-0,047	-0,167
-564,817	231,326	0,053	-0,063
-563,802	455,391	-0,028	-0,045
-562,788	-124,404	0,113	-0,013
-561,773	-15,906	-0,114	-0,053
-560,758	398,677	-0,035	-0,053
-559,744	426,179	0,043	0,068
-558,729	-200,000	0,034	-0,132
-557,715	312,320	-0,066	-0,091
-556,700	-74,478	-0,015	-0,004
-555,685	345,315	0,044	-0,063
-554,671	-112,601	-0,133	-0,019
-553,656	800,000	0,002	0,007
-552,642	215,351	0,081	-0,094
-551,627	491,443	0,044	0,074
-550,612	198,865	-0,053	0,060
-549,598	-200,000	0,014	-0,146
-548,583	8,145	0,081	-0,044
-547,569	-200,000	0,010	-0,060
-546,554	-106,182	-0,090	-0,015
-545,539	285,549	0,060	-0,080
-544,525	331,539	0,074	0,105
-543,510	-200,000	-0,023	-0,106
-542,496	124,883	-0,128	-0,117
-541,481	-15,958	0,059	-0,027
-540,466	-175,341	0,057	-0,001
-539,452	11,784	0,071	-0,039
-538,437	294,089	0,037	0,050
-537,423	-127,667	-0,061	0,006
-536,408	399,942	0,076	-0,118
-535,393	-121,979	-0,093	-0,011
-534,379	150,133	-0,085	0,084
-533,364	-113,165	0,070	0,010
-532,350	-200,000	-0,005	-0,115
-531,335	800,000	0,038	0,082
-530,321	11,293	0,026	-0,014
-529,306	800,000	0,035	-0,085
-528,291	158,267	0,109	-0,110
-527,277	-31,975	0,083	0,034
-526,262	-90,603	-0,040	0,008
-525,248	-36,398	-0,070	-0,027
-524,233	474,297	0,016	-0,026
-523,218	221,405	-0,042	0,049
-522,204	800,000	0,006	0,014
-521,189	-65,480	0,125	0,037
-520,175	800,000	-0,051	-0,124
-519,160	144,867	0,053	0,052
-518,145	666,225	0,017	0,033
-517,131	-200,000	0,005	0,096
-516,116	-128,328	0,085	0,009
-515,102	-46,136	0,126	0,045
-514,087	-80,017	-0,115	-0,028
-513,072	-200,000	-0,030	-0,218
-512,058	-200,000	-0,008	-0,112
-511,043	-35,027	-0,100	0,040
-510,029	-200,000	0,012	-0,080
-509,014	800,000	0,044	0,097
-507,999	-200,000	0,011	0,053
-506,985	-200,000	0,014	0,057
-505,970	186,261	-0,054	-0,059
-504,956	297,448	0,057	-0,076
-503,941	-69,531	0,124	0,035
-502,926	-200,000	0,004	0,078
-501,912	-55,360	0,053	0,017
-500,897	-200,000	-0,011	0,061
-499,883	-124,171	0,022	0,002
-498,868	-139,826	-0,099	0,008
-497,853	3,112	-0,153	-0,081
-496,839	381,634	-0,020	-0,030
-495,824	-151,221	0,082	0,004
-494,810	800,000	-0,006	-0,019
-493,795	138,447	-0,052	-0,050
-492,781	6,544	0,140	-0,075
-491,766	-200,000	-0,017	-0,123
-490,751	-61,538	0,031	0,009
-489,737	-6,731	-0,090	-0,045
-488,722	800,000	-0,051	-0,127
-487,708	800,000	-0,011	-0,024
-486,693	-10,076	0,151	0,073
-485,678	39,995	0,095	0,062
-484,664	135,852	-0,099	-0,094
-483,649	247,837	-0,020	-0,024
-482,635	-200,000	0,023	-0,128
-481,620	162,431	-0,109	0,111
-480,605	182,483	0,026	0,028
-479,591	-63,333	0,105	0,031
-478,576	-96,413	0,084	-0,016
-477,562	-85,117	-0,116	-0,026
-476,547	69,770	0,049	-0,037
-475,532	-200,000	-0,028	-0,124
-474,518	142,326	-0,178	-0,172
-473,503	-74,526	0,167	-0,044
-472,489	800,000	0,024	0,069
-471,474	-71,689	-0,124	-0,034
-470,459	13,763	-0,151	-0,085
-469,445	610,528	0,050	-0,091
-468,430	-200,000	-0,032	-0,117
-467,416	-200,000	-0,001	-0,058
-466,401	39,478	-0,068	0,045
-465,386	-83,497	0,108	-0,025
-464,372	-149,389	0,082	0,005
-463,357	190,529	0,034	0,037
-462,343	-200,000	0,015	0,063
-461,328	800,000	-0,009	-0,018
-460,313	159,753	0,054	0,055
-459,299	505,461	-0,045	0,076
-458,284	-200,000	-0,025	0,139
-457,270	-87,273	0,045	0,010
-456,255	-28,041	-0,079	0,033
-455,241	800,000	-0,020	-0,061
-454,226	182,450	0,012	0,013
-453,211	27,773	-0,139	0,085
-452,197	-77,258	0,094	0,024
-451,182	-147,485	-0,165	-0,010
-450,168	69,435	0,118	-0,089
-449,153	-156,824	0,016	0,001
-448,138	-200,000	-0,000	0,062
-447,124	506,592	-0,013	-0,021
-446,109	-200,000	-0,004	0,015
-445,095	-200,000	-0,000	-0,093
-444,080	-84,618	0,161	0,037
-443,065	22,956	-0,053	-0,032
-442,051	-200,000	-0,008	-0,055
-441,036	-200,000	0,031	-0,102
-440,022	83,905	-0,022	-0,018
-439,007	-88,613	0,013	-0,003
-437,992	-70,974	0,262	0,071
-436,978	661,815	0,060	0,112
-435,963	-200,000	0,014	0,145
-434,949	-84,006	-0,105	0,024
-433,934	-200,000	0,021	-0,074
-432,919	99,798	0,038	-0,032
-431,905	-138,766	-0,064	0,005
-430,890	-200,000	0,014	0,058
-429,876	-26,159	-0,093	0,040
-428,861	182,246	0,053	-0,057
-427,846	12,985	-0,111	-0,062
-426,832	-81,379	-0,081	-0,019
-425,817	-10,327	-0,045	-0,022
-424,803	-200,000	-0,032	0,120
-423,788	57,876	0,030	-0,021
-422,773	122,233	-0,084	0,077
-421,759	299,001	0,065	0,088
-420,744	64,283	-0,071	-0,052
-419,730	154,090	-0,049	-0,049
-418,715	42,987	-0,125	-0,083
-417,701	-63,405	0,078	-0,023
-416,686	-26,229	0,060	-0,026
-415,671	114,741	0,041	-0,036
-414,657	-129,618	-0,049	-0,005
-413,642	-200,000	0,019	-0,081
-412,628	132,039	0,100	-0,094
-411,613	73,446	-0,089	-0,067
-410,598	-19,939	0,062	0,028
-409,584	107,894	0,024	-0,021
-408,569	-148,287	0,156	-0,009
-407,555	266,593	-0,103	0,131
-406,540	43,144	0,012	0,008
-405,525	800,000	0,028	0,078
-404,511	-200,000	0,021	-0,217
-403,496	800,000	-0,026	-0,061
-402,482	800,000	0,038	0,096
-401,467	-200,000	0,003	0,020
-400,452	800,000	-0,048	0,147
-399,438	685,476	-0,057	0,110
-398,423	262,893	-0,030	-0,038
-397,409	800,000	-0,029	-0,069
-396,394	8,972	0,032	0,018
-395,379	-18,902	0,053	-0,024
-394,365	800,000	0,017	0,054
-393,350	-200,000	0,017	-0,090
-392,336	-200,000	0,006	-0,037
-391,321	193,251	0,026	0,028
-390,306	11,685	0,086	-0,048
-389,292	82,356	-0,092	0,072
-388,277	-195,447	0,033	0,000
-387,263	-200,000	0,007	0,097
-386,248	243,925	0,039	-0,048
-385,233	-30,105	0,027	0,011
-384,219	-107,412	0,052	0,008
-383,204	800,000	-0,016	-0,052
-382,190	480,964	-0,074	-0,122
-381,175	-163,225	0,091	-0,003
-380,160	-200,000	0,001	0,012
-379,146	-77,146	-0,014	-0,004
-378,131	800,000	0,042	0,106
-377,117	800,000	-0,057	-0,137
-376,102	46,548	0,128	-0,086
-375,088	-200,000	-0,044	-0,169
-374,073	-200,000	0,002	-0,022
-373,058	222,972	0,078	-0,091
-372,044	266,854	0,059	0,074
-371,029	-160,346	0,175	0,007
-370,015	298,396	-0,122	0,163
-369,000	77,481	-0,019	-0,015
-367,985	319,947	-0,084	-0,116
-366,971	800,000	0,043	-0,112
-365,956	-200,000	-0,011	0,049
-364,942	-200,000	-0,004	0,133
-363,927	-200,000	-0,010	0,181
-362,912	545,921	0,052	0,090
-361,898	-24,123	-0,147	-0,064
-360,883	-200,000	-0,016	-0,055
-359,869	-200,000	-0,011	0,068
-358,854	472,886	0,060	-0,098
-357,839	188,521	0,080	0,087
-356,825	-200,000	-0,002	0,151
-355,810	800,000	0,043	0,135
-354,796	421,723	-0,042	-0,066
-353,781	706,551	0,064	-0,124
-352,766	327,113	-0,061	0,085
-351,752	283,156	0,090	0,118
-350,737	-69,406	-0,131	0,036
-349,723	-200,000	0,014	0,044
-348,708	200,670	-0,133	-0,149
-347,693	800,000	-0,025	0,055
-346,679	86,572	-0,147	-0,118
-345,664	-129,714	0,064	0,006
-344,650	-102,095	0,068	0,012
-343,635	-200,000	0,003	0,024
-342,620	-22,205	0,094	0,041
-341,606	800,000	0,019	0,040
-340,591	800,000	-0,025	-0,054
-339,577	-29,491	0,049	0,020
-338,562	-200,000	-0,004	0,027
-337,548	-200,000	-0,005	0,135
-336,533	-200,000	0,007	0,144
-335,518	0,902	0,056	-0,029
-334,504	614,419	0,083	0,152
-333,489	-27,488	-0,043	0,018
-332,475	-101,267	0,045	0,008
-331,460	-200,000	0,035	-0,154
-330,445	-62,381	-0,090	-0,027
-329,431	800,000	-0,012	-0,029
-328,416	-155,705	-0,043	0,002
-327,402	-68,470	0,086	0,024
-326,387	800,000	0,048	-0,113
-325,372	-200,000	-0,033	-0,133
-324,358	-200,000	0,014	-0,091
-323,343	28,404	0,128	-0,078
-322,329	202,746	0,043	0,048
-321,314	575,009	0,006	-0,010
-320,299	-200,000	-0,013	0,074
-319,285	-93,330	-0,053	0,011
-318,270	40,963	0,077	0,050
-317,256	179,461	0,064	0,068
-316,241	427,333	-0,085	0,133
-315,226	344,022	0,068	0,097
-314,212	255,956	-0,103	0,129
-313,197	321,775	0,079	-0,109
-312,183	-54,306	0,137	0,045
-311,168	250,621	0,037	0,046
-310,153	148,128	-0,138	0,135
-309,139	1,303	-0,026	-0,013
-308,124	58,259	-0,085	0,061
-307,110	-75,273	-0,109	0,028
-306,095	487,360	-0,026	0,042
-305,080	-200,000	0,008	0,118
-304,066	-6,944	0,056	0,027
-303,051	800,000	-0,023	0,062
-302,037	11,672	0,256	0,142
-301,022	177,279	-0,015	-0,015
-300,008	35,450	0,101	-0,064
-298,993	20,947	0,111	0,065
-297,978	-77,234	-0,114	0,029
-296,964	50,552	-0,111	0,076
-295,949	208,411	-0,064	-0,073
-294,935	-78,525	0,122	-0,030
-293,920	18,955	-0,099	-0,057
-292,905	-200,000	-0,028	0,092
-291,891	159,010	0,043	0,043
-290,876	-41,414	0,036	-0,013
-289,862	-97,914	-0,098	0,018
-288,847	-200,000	-0,003	-0,040
-287,832	-200,000	-0,026	0,107
-286,818	-200,000	-0,039	0,164
-285,803	102,082	0,070	0,060
-284,789	-27,844	0,058	0,024
-283,774	152,169	-0,038	0,037
-282,759	-7,439	-0,146	-0,071
-281,745	800,000	0,029	-0,060
-280,730	-37,954	-0,024	-0,009
-279,716	602,354	0,042	-0,076
-278,701	92,817	0,082	0,067
-277,686	-20,269	0,049	-0,022
-276,672	-192,345	0,091	0,001
-275,657	341,309	-0,058	0,082
-274,643	800,000	0,008	-0,016
-273,628	-61,338	-0,066	-0,020
-272,613	800,000	0,073	0,153
-271,599	-15,797	0,107	0,049
-270,584	698,489	-0,045	0,085
-269,570	-200,000	-0,006	-0,022
-268,555	116,922	0,022	-0,019
-267,540	541,718	0,049	-0,085
-266,526	800,000	-0,002	-0,004
-265,511	13,370	-0,093	-0,052
-264,497	-24,664	0,007	0,003
-263,482	-200,000	-0,029	0,226
-262,467	800,000	-0,007	0,018
-261,453	458,626	-0,048	0,077
-260,438	103,644	0,067	-0,057
-259,424	378,921	-0,020	-0,030
-258,409	-80,694	-0,093	-0,022
-257,395	238,935	0,063	0,076
-256,380	-176,516	0,069	0,001
-255,365	-86,100	-0,203	0,045
-254,351	-81,480	-0,049	-0,011
-253,336	77,532	0,048	0,037
-252,322	125,764	-0,068	-0,062
-251,307	36,893	0,131	0,084
-250,292	-43,567	0,100	-0,036
-249,278	575,947	0,023	0,041
-248,263	785,318	-0,037	0,073
-247,249	92,393	0,021	-0,017
-246,234	-57,942	-0,073	0,023
-245,219	-77,147	-0,079	-0,020
-244,205	381,148	-0,055	-0,082
-243,190	-200,000	0,065	0,000
-242,176	-200,000	-0,010	-0,137
-241,161	-25,906	0,193	0,082
-240,146	800,000	0,052	0,153
-239,132	99,486	0,034	-0,028
-238,117	-12,022	-0,078	-0,037
-237,103	-12,964	-0,090	0,042
-236,088	50,138	-0,011	-0,008
-235,073	-200,000	0,003	0,078
-234,059	415,593	-0,050	0,078
-233,044	-53,817	0,122	0,040
-232,030	39,246	-0,150	0,097
-231,015	634,055	0,080	0,148
-230,000	-15,177	-0,075	-0,035
-228,986	-132,827	0,040	-0,004
-227,971	329,459	0,042	-0,059
-226,957	800,000	0,050	0,159
-225,942	166,013	0,182	0,186
-224,927	-200,000	0,009	0,079
-223,913	348,701	-0,043	-0,061
-222,898	800,000	-0,077	-0,204
-221,884	-200,000	-0,000	-0,055
-220,869	234,449	-0,051	-0,061
-219,855	511,807	0,004	0,006
-218,840	143,512	-0,115	-0,110
-217,825	518,022	0,038	-0,064
-216,811	40,157	-0,041	-0,027
-215,796	264,667	0,107	0,135
-214,782	-200,000	0,015	0,112
-213,767	793,600	0,063	0,127
-212,752	-178,511	-0,054	0,001
-211,738	-39,974	-0,077	0,029
-210,723	333,183	-0,078	-0,109
-209,709	116,269	0,086	0,076
-208,694	291,504	-0,111	-0,146
-207,679	800,000	-0,025	-0,062
-206,665	-140,969	0,199	-0,015
-205,650	9,859	0,081	-0,044
-204,636	-200,000	0,014	-0,100
-203,621	-200,000	-0,004	0,054
-202,606	-118,593	0,062	-0,008
-201,592	-15,178	-0,057	0,026
-200,577	25,267	-0,081	0,049
-199,563	-59,106	0,134	-0,041
-198,548	254,375	0,038	0,047
-197,533	-200,000	0,029	0,145
-196,519	800,000	0,029	0,061
-195,504	120,222	-0,056	-0,050
-194,490	261,322	0,052	0,065
-193,475	-200,000	-0,004	-0,018
-192,460	800,000	-0,028	0,089
-191,446	-92,712	0,116	0,023
-190,431	278,006	-0,061	0,078
-189,417	-200,000	-0,035	0,118
-188,402	-200,000	0,004	0,029
-187,387	-200,000	0,007	0,047
-186,373	-200,000	-0,027	0,114
-185,358	-200,000	0,027	0,087
-184,344	-200,000	-0,011	0,066
-183,329	800,000	-0,034	0,091
-182,315	1,486	-0,074	0,038
-181,300	-34,443	0,117	0,046
-180,285	362,475	-0,019	-0,027
-179,271	636,304	-0,108	-0,199
-178,256	-200,000	0,004	0,029
-177,242	129,571	0,080	0,074
-176,227	-200,000	-0,019	0,074
-175,212	718,589	-0,059	0,114
-174,198	800,000	0,022	-0,046
-173,183	-44,795	-0,111	-0,040
-172,169	702,423	-0,024	0,046
-171,154	107,274	-0,109	-0,093
-170,139	10,840	-0,117	-0,064
-169,125	-104,659	-0,080	0,013
-168,110	13,646	0,052	-0,029
-167,096	306,906	0,057	-0,077
-166,081	-40,886	0,061	-0,023
-165,066	800,000	-0,026	0,070
-164,052	-200,000	0,012	0,144
-163,037	162,182	0,068	0,069
-162,023	287,606	0,046	0,060
-161,008	-200,000	0,007	0,023
-159,993	800,000	0,041	0,095
-158,979	-84,093	0,072	-0,016
-157,964	273,927	-0,097	-0,124
-156,950	-159,151	0,061	0,002
-155,935	-200,000	-0,037	-0,127
-154,920	338,757	-0,047	-0,066
-153,906	-48,781	0,081	0,028
-152,891	68,643	-0,144	0,106
-151,877	800,000	0,008	-0,024
-150,862	212,142	-0,039	0,044
-149,847	61,921	-0,125	0,090
-148,833	-200,000	0,025	0,161
-147,818	189,666	0,084	0,091
-146,804	192,883	0,048	-0,052
-145,789	-65,635	-0,056	-0,016
-144,775	179,651	0,111	0,117
-143,760	-41,702	-0,165	-0,061
-142,745	-30,367	-0,169	-0,069
-141,731	56,727	0,079	-0,055
-140,716	-110,013	-0,102	0,015
-139,702	-70,907	0,061	-0,016
-138,687	-200,000	0,002	-0,011
-137,672	-70,000	-0,185	-0,050
-136,658	-67,590	-0,059	0,016
-135,643	77,446	-0,047	-0,036
-134,629	521,682	0,046	-0,079
-133,614	-138,293	0,093	0,007
-132,599	-200,000	-0,004	0,105
-131,585	60,196	0,101	-0,071
-130,570	-22,417	-0,095	0,041
-129,556	-106,013	-0,067	-0,011
-128,541	-200,000	-0,004	-0,085
-127,526	-200,000	-0,027	0,180
-126,512	75,545	-0,044	-0,033
-125,497	800,000	0,057	0,139
-124,483	800,000	-0,073	0,160
-123,468	-73,912	-0,128	-0,033
-122,453	564,153	0,067	-0,117
-121,439	72,425	0,015	0,011
-120,424	-156,846	-0,064	0,003
-119,410	-200,000	0,016	-0,143
