DTS Sentinel unit serial number:	SN410029Multiplexer serial number:	ORYXHardware model number:	OX2-SRSoftware version number:	ORYX F/W v4,00 Oryx Data Collector v3.7.2.0data status	okinstallation	B5 Nyhavnadifferential loss correction	single-endedforward channel	channel 2reverse channel	N/Adate	2023/12/12time	00:52:13forward acquisition time	300,00reverse acquisition time	0,00gamma	499,1914k internal	0,3156k external	0,3156temperature offset calibration	1,0000default loss term (dB/km)	0,3820temperature slope calibration	1,0000multiplexer offset coefficient	1,0000multiplexer slope coefficient	1,0000fibre end	0,00T internal ref (°C)	16,02T ext. ref 1 (°C)	-0,40T ext. ref 2 (°C)	-0,67length (m)	temperature (°C)	Stokes	anti-Stokes-744,400	-200,000	-0,014	0,066
-743,385	-160,679	-0,275	-0,011
-742,371	401,338	0,033	0,051
-741,356	-0,148	-0,272	0,143
-740,342	318,735	0,098	0,137
-739,327	246,879	-0,188	0,234
-738,312	273,225	0,087	0,114
-737,298	-125,824	-0,226	0,025
-736,283	-83,159	0,055	-0,013
-735,269	-9,060	-0,269	0,132
-734,254	202,921	0,036	0,042
-733,239	9,310	-0,409	-0,227
-732,225	-169,110	0,234	0,006
-731,210	13,148	0,079	0,045
-730,196	471,402	-0,040	-0,066
-729,181	-64,737	-0,131	0,039
-728,167	-200,000	-0,024	-0,094
-727,152	403,072	-0,024	-0,037
-726,137	800,000	0,062	-0,130
-725,123	299,828	-0,040	0,054
-724,108	-60,392	-0,055	-0,017
-723,094	-123,680	-0,081	-0,009
-722,079	44,463	-0,117	0,079
-721,064	161,804	0,026	-0,026
-720,050	116,049	-0,043	0,039
-719,035	800,000	0,032	-0,080
-718,021	11,634	-0,060	-0,034
-717,006	-200,000	0,007	0,078
-715,991	169,013	-0,059	-0,062
-714,977	800,000	-0,040	-0,117
-713,962	181,428	0,104	-0,113
-712,948	398,739	-0,034	-0,052
-711,933	-131,657	0,060	-0,006
-710,918	-85,674	0,035	-0,008
-709,904	269,780	0,104	0,135
-708,889	260,461	-0,036	0,045
-707,875	-200,000	-0,046	-0,162
-706,860	95,550	-0,059	-0,049
-705,845	800,000	0,026	0,078
-704,831	347,770	-0,076	0,111
-703,816	-200,000	-0,009	0,040
-702,802	20,074	-0,118	0,070
-701,787	-85,041	-0,063	0,014
-700,772	268,665	-0,068	-0,088
-699,758	504,206	-0,043	-0,073
-698,743	-200,000	0,090	-0,000
-697,729	58,269	0,105	0,076
-696,714	257,082	0,058	0,074
-695,699	-51,041	-0,065	0,022
-694,685	800,000	0,037	-0,113
-693,670	564,978	-0,045	-0,081
-692,656	-200,000	0,011	0,063
-691,641	224,531	-0,052	-0,062
-690,627	-76,219	-0,191	-0,049
-689,612	-78,733	0,037	-0,009
-688,597	-48,328	-0,097	-0,034
-687,583	-200,000	0,059	-0,216
-686,568	193,540	-0,038	0,042
-685,554	136,553	-0,006	0,005
-684,539	45,754	0,149	0,101
-683,524	138,710	0,103	0,099
-682,510	-200,000	-0,053	-0,179
-681,495	-200,000	0,001	-0,007
-680,481	-30,241	-0,020	0,008
-679,466	225,796	-0,056	-0,066
-678,451	800,000	0,043	-0,108
-677,437	82,146	-0,061	-0,048
-676,422	156,139	0,006	-0,006
-675,408	74,424	0,040	-0,031
-674,393	638,154	0,008	0,015
-673,378	-200,000	-0,025	-0,112
-672,364	-75,827	-0,143	-0,037
-671,349	800,000	0,002	0,005
-670,335	-200,000	0,003	0,114
-669,320	16,077	-0,057	0,033
-668,305	529,669	-0,040	0,070
-667,291	-200,000	-0,010	0,064
-666,276	33,580	0,115	-0,073
-665,262	-37,855	-0,124	-0,048
-664,247	-200,000	0,005	0,110
-663,232	-128,628	-0,080	-0,008
-662,218	-56,725	0,035	0,011
-661,203	8,205	-0,032	0,018
-660,189	93,454	0,079	-0,066
-659,174	-23,530	-0,190	0,083
-658,159	-200,000	-0,014	-0,145
-657,145	-129,355	-0,208	-0,021
-656,130	151,165	-0,125	0,125
-655,116	-103,368	0,118	0,020
-654,101	211,855	-0,085	0,098
-653,086	763,301	-0,034	0,067
-652,072	-200,000	0,004	0,085
-651,057	-39,559	0,048	0,018
-650,043	800,000	0,021	-0,064
-649,028	65,130	0,058	-0,043
-648,014	229,631	0,065	0,078
-646,999	149,952	0,039	-0,038
-645,984	-51,449	0,161	0,055
-644,970	800,000	-0,035	-0,095
-643,955	-200,000	0,006	-0,055
-642,941	-200,000	-0,016	-0,089
-641,926	-61,011	-0,066	0,020
-640,911	125,266	0,036	0,033
-639,897	103,999	0,059	-0,051
-638,882	-116,296	-0,092	-0,012
-637,868	-167,688	-0,106	0,003
-636,853	-200,000	0,004	0,017
-635,838	-28,970	-0,168	0,070
-634,824	-200,000	-0,015	0,053
-633,809	417,254	-0,029	0,045
-632,795	100,002	0,028	0,024
-631,780	-96,394	-0,102	0,020
-630,765	-200,000	-0,024	-0,084
-629,751	26,527	-0,093	-0,057
-628,736	-97,805	-0,146	-0,027
-627,722	-200,000	0,013	-0,089
-626,707	-39,140	-0,042	-0,016
-625,692	39,292	0,077	-0,051
-624,678	323,934	-0,033	0,047
-623,663	8,048	0,088	-0,048
-622,649	172,416	-0,051	-0,054
-621,634	69,405	-0,026	0,020
-620,619	-0,117	0,039	0,020
-619,605	145,476	-0,047	-0,046
-618,590	39,800	0,069	0,046
-617,576	-107,627	-0,034	-0,005
-616,561	239,271	-0,022	-0,027
-615,546	-105,365	-0,112	-0,018
-614,532	-177,488	-0,143	0,003
-613,517	-176,139	-0,052	0,001
-612,503	126,139	0,050	-0,046
-611,488	-75,899	-0,070	0,018
-610,474	80,316	0,089	0,071
-609,459	56,958	0,110	-0,079
-608,444	321,870	-0,080	0,112
-607,430	-200,000	-0,000	0,004
-606,415	-43,457	0,042	0,015
-605,401	-16,107	0,062	-0,029
-604,386	0,801	-0,048	0,025
-603,371	30,191	-0,077	-0,048
-602,357	550,899	0,051	-0,090
-601,342	204,751	-0,037	0,042
-600,328	800,000	-0,011	-0,034
-599,313	-147,044	-0,100	0,006
-598,298	90,075	-0,050	-0,041
-597,284	-52,924	-0,083	0,028
-596,269	-98,051	-0,099	-0,019
-595,255	-200,000	0,023	0,076
-594,240	247,256	0,015	0,019
-593,225	-77,426	-0,094	-0,024
-592,211	72,279	-0,109	-0,083
-591,196	-21,061	0,059	-0,027
-590,182	800,000	-0,025	-0,066
-589,167	-200,000	0,017	-0,063
-588,152	-200,000	-0,013	0,078
-587,138	485,885	-0,044	-0,074
-586,123	-100,630	0,109	0,019
-585,109	123,417	-0,220	-0,202
-584,094	102,225	0,019	-0,016
-583,079	-135,187	0,093	-0,008
-582,065	0,404	0,027	0,014
-581,050	-200,000	-0,008	0,115
-580,036	-90,282	0,039	0,008
-579,021	-2,643	-0,102	0,052
-578,006	98,485	-0,045	0,038
-576,992	-200,000	0,006	-0,025
-575,977	359,517	0,084	0,123
-574,963	429,778	0,032	0,051
-573,948	412,169	-0,047	-0,073
-572,934	-188,607	0,121	-0,001
-571,919	-200,000	0,007	-0,116
-570,904	-115,850	0,147	-0,020
-569,890	-200,000	0,024	0,138
-568,875	73,736	0,074	0,057
-567,861	-11,986	0,152	0,073
-566,846	-15,860	-0,078	-0,036
-565,831	167,470	-0,033	0,035
-564,817	110,308	0,083	-0,073
-563,802	729,687	-0,017	0,034
-562,788	-59,599	-0,093	0,029
-561,773	65,993	0,105	-0,078
-560,758	-200,000	-0,003	0,100
-559,744	512,654	-0,034	0,058
-558,729	-76,440	-0,098	-0,025
-557,715	-44,412	0,044	0,016
-556,700	-200,000	-0,009	0,082
-555,685	149,681	0,061	-0,061
-554,671	115,412	-0,110	0,098
-553,656	-200,000	-0,008	-0,113
-552,642	800,000	0,036	0,095
-551,627	269,311	-0,090	0,116
-550,612	-200,000	0,012	0,199
-549,598	-34,001	-0,067	-0,027
-548,583	-116,412	0,095	0,013
-547,569	-111,217	0,062	-0,009
-546,554	-35,552	-0,029	0,012
-545,539	139,357	0,102	0,099
-544,525	-200,000	0,010	-0,044
-543,510	-109,020	-0,053	-0,008
-542,496	-36,731	0,043	0,017
-541,481	161,706	-0,119	0,122
-540,466	312,568	0,006	0,008
-539,452	449,743	0,040	0,065
-538,437	268,413	0,038	-0,049
-537,423	-40,089	0,041	0,015
-536,408	178,924	-0,015	-0,016
-535,393	702,750	-0,036	-0,070
-534,379	800,000	0,063	-0,157
-533,364	233,280	-0,063	-0,076
-532,350	74,081	0,029	0,022
-531,335	326,297	0,045	0,063
-530,321	-200,000	0,005	-0,143
-529,306	-200,000	0,004	0,049
-528,291	-24,761	-0,061	-0,027
-527,277	-200,000	0,004	-0,029
-526,262	-200,000	-0,008	-0,038
-525,248	21,957	-0,110	0,066
-524,233	-20,579	-0,071	-0,032
-523,218	-200,000	0,041	0,166
-522,204	-200,000	0,005	0,125
-521,189	-50,606	-0,110	0,038
-520,175	89,913	0,058	0,048
-519,160	153,661	0,069	0,070
-518,145	-82,180	0,141	-0,033
-517,131	246,755	-0,086	0,106
-516,116	606,904	0,063	-0,115
-515,102	252,284	0,027	-0,033
-514,087	94,392	-0,052	-0,043
-513,072	24,886	-0,067	0,040
-512,058	-200,000	0,027	-0,129
-511,043	-200,000	-0,002	0,014
-510,029	169,697	0,021	-0,022
-509,014	2,530	0,130	0,069
-507,999	800,000	0,031	-0,093
-506,985	17,097	0,091	0,052
-505,970	-140,536	-0,052	0,004
-504,956	-196,556	-0,165	0,001
-503,941	-8,099	-0,065	-0,032
-502,926	49,398	0,088	-0,061
-501,912	212,603	0,012	-0,014
-500,897	800,000	0,042	0,091
-499,883	-86,244	-0,057	-0,013
-498,868	-200,000	0,007	-0,067
-497,853	-86,183	-0,043	0,010
-496,839	800,000	0,020	-0,060
-495,824	-200,000	-0,017	0,109
-494,810	126,060	-0,055	0,051
-493,795	28,716	-0,088	0,054
-492,781	578,298	0,067	-0,119
-491,766	155,463	-0,117	-0,117
-490,751	-27,709	0,046	0,020
-489,737	-127,750	-0,052	-0,005
-488,722	104,277	0,058	-0,049
-487,708	-5,827	0,189	0,094
-486,693	438,307	0,013	0,021
-485,678	-164,736	0,037	0,001
-484,664	286,123	-0,095	-0,126
-483,649	-37,416	-0,116	-0,045
-482,635	800,000	0,031	-0,088
-481,620	-76,356	-0,087	0,022
-480,605	-200,000	0,014	0,095
-479,591	-6,684	-0,047	-0,023
-478,576	800,000	-0,036	-0,085
-477,562	196,000	-0,034	-0,037
-476,547	684,828	-0,024	0,047
-475,532	153,041	0,119	0,118
-474,518	389,605	-0,048	0,072
-473,503	-200,000	-0,001	0,070
-472,489	-200,000	0,016	0,071
-471,474	-200,000	0,013	0,078
-470,459	-34,276	0,063	0,025
-469,445	-200,000	-0,011	-0,102
-468,430	-127,324	-0,029	0,003
-467,416	419,231	0,058	-0,090
-466,401	-200,000	-0,018	-0,088
-465,386	-41,348	0,058	-0,022
-464,372	394,968	0,057	0,087
-463,357	-24,708	-0,167	0,072
-462,343	-200,000	-0,018	-0,078
-461,328	-138,248	0,062	-0,005
-460,313	-200,000	0,021	0,087
-459,299	-133,547	0,141	-0,013
-458,284	-42,111	-0,070	-0,026
-457,270	354,675	0,048	0,071
-456,255	338,026	0,019	0,026
-455,241	57,475	-0,061	-0,044
-454,226	-191,430	0,065	0,000
-453,211	800,000	0,021	-0,062
-452,197	311,720	0,072	0,098
-451,182	-200,000	0,023	0,191
-450,168	242,848	0,135	0,166
-449,153	-34,274	-0,114	-0,045
-448,138	-200,000	-0,008	-0,140
-447,124	-48,598	-0,039	0,014
-446,109	136,311	-0,117	-0,111
-445,095	89,270	0,095	0,077
-444,080	-200,000	0,012	0,192
-443,065	103,675	0,057	0,049
-442,051	162,048	0,032	0,033
-441,036	348,442	-0,069	-0,099
-440,022	-200,000	-0,027	-0,212
-439,007	-200,000	0,009	-0,127
-437,992	115,636	-0,039	0,035
-436,978	-200,000	0,007	0,062
-435,963	-96,218	-0,020	-0,004
-434,949	-200,000	-0,001	0,030
-433,934	13,869	-0,033	0,019
-432,919	-156,044	0,112	-0,005
-431,905	-23,428	0,079	-0,035
-430,890	-200,000	-0,003	-0,097
-429,876	381,897	-0,051	0,077
-428,861	39,996	0,118	-0,077
-427,846	-200,000	0,016	0,142
-426,832	-124,214	-0,033	0,004
-425,817	-200,000	0,002	-0,131
-424,803	-87,291	0,069	0,015
-423,788	-200,000	0,013	0,047
-422,773	-200,000	0,004	-0,022
-421,759	-200,000	0,004	-0,104
-420,744	-200,000	-0,002	0,021
-419,730	127,583	0,094	-0,087
-418,715	128,763	-0,030	-0,028
-417,701	-200,000	0,028	-0,137
-416,686	-28,553	0,073	0,031
-415,671	-2,658	0,080	-0,041
-414,657	-12,351	-0,072	-0,034
-413,642	-200,000	0,012	-0,054
-412,628	544,999	0,035	-0,061
-411,613	-47,171	0,045	-0,016
-410,598	554,559	0,060	0,105
-409,584	-46,797	0,018	-0,006
-408,569	-147,489	0,068	0,004
-407,555	152,915	0,111	-0,111
-406,540	-96,316	-0,126	0,024
-405,525	31,657	-0,093	-0,058
-404,511	-70,050	0,147	0,041
-403,496	204,153	-0,034	0,039
-402,482	310,616	-0,064	0,088
-401,467	-200,000	-0,027	0,204
-400,452	-200,000	0,021	-0,093
-399,438	375,881	-0,048	0,071
-398,423	-130,430	-0,092	-0,009
-397,409	-200,000	0,017	-0,155
-396,394	-176,910	-0,047	-0,001
-395,379	107,888	-0,134	0,116
-394,365	49,790	0,074	0,050
-393,350	387,814	0,026	0,039
-392,336	381,293	0,032	0,048
-391,321	-29,313	0,078	0,032
-390,306	8,439	-0,074	0,040
-389,292	2,005	-0,081	0,042
-388,277	-200,000	0,012	0,072
-387,263	-200,000	0,013	-0,090
-386,248	37,698	-0,056	0,036
-385,233	-200,000	0,001	-0,163
-384,219	178,760	-0,029	0,031
-383,204	24,828	-0,083	0,050
-382,190	30,677	0,102	-0,064
-381,175	85,052	-0,101	-0,080
-380,160	-17,079	0,117	0,053
-379,146	356,482	-0,056	0,081
-378,131	-40,401	-0,177	0,067
-377,117	-200,000	-0,006	0,096
-376,102	800,000	0,006	0,018
-375,088	-92,742	-0,062	0,013
-374,073	66,650	-0,129	0,096
-373,058	730,247	0,026	-0,051
-372,044	4,645	-0,071	0,038
-371,029	-140,426	0,112	-0,008
-370,015	-53,852	-0,129	0,042
-369,000	73,616	-0,075	0,057
-367,985	-27,478	-0,035	0,015
-366,971	-10,624	-0,078	-0,038
-365,956	-170,813	0,203	-0,005
-364,942	800,000	-0,010	-0,023
-363,927	-84,804	0,153	-0,035
-362,912	454,039	-0,043	-0,070
-361,898	65,657	-0,056	-0,041
-360,883	635,495	-0,015	-0,028
-359,869	149,351	-0,084	-0,083
-358,854	-200,000	0,002	-0,011
-357,839	800,000	-0,082	-0,167
-356,825	556,263	0,027	0,048
-355,810	-25,509	0,094	-0,040
-354,796	-200,000	0,033	-0,114
-353,781	-11,563	-0,047	-0,023
-352,766	578,639	0,048	-0,085
-351,752	9,722	0,034	-0,018
-350,737	113,385	0,046	0,041
-349,723	-156,220	0,027	0,001
-348,708	-200,000	0,010	0,045
-347,693	-200,000	-0,012	-0,064
-346,679	-200,000	0,005	-0,025
-345,664	79,127	-0,070	-0,055
-344,650	22,527	-0,043	0,026
-343,635	156,058	0,052	0,052
-342,620	800,000	-0,040	0,103
-341,606	21,809	-0,126	0,075
-340,591	-200,000	-0,005	0,032
-339,577	104,356	0,044	0,037
-338,562	8,146	-0,145	-0,079
-337,548	359,910	0,091	-0,133
-336,533	800,000	-0,064	0,151
-335,518	422,346	0,057	-0,089
-334,504	13,845	0,118	0,067
-333,489	-200,000	-0,005	0,025
-332,475	198,057	0,092	-0,103
-331,460	800,000	0,025	-0,064
-330,445	800,000	-0,056	-0,116
-329,431	-76,496	-0,056	0,014
-328,416	35,872	-0,040	-0,025
-327,402	132,632	0,072	-0,067
-326,387	-50,728	-0,066	0,022
-325,372	800,000	-0,022	0,058
-324,358	566,437	-0,061	-0,109
-323,343	338,093	-0,027	0,039
-322,329	-200,000	0,020	0,103
-321,314	108,006	-0,027	0,023
-320,299	95,120	-0,157	0,130
-319,285	-200,000	-0,011	-0,132
-318,270	-200,000	0,030	-0,098
-317,256	-200,000	0,006	0,091
-316,241	217,938	-0,028	0,032
-315,226	-18,696	0,207	-0,093
-314,212	363,891	0,053	-0,078
-313,197	338,371	-0,061	0,087
-312,183	267,036	-0,059	0,075
-311,168	-200,000	0,025	0,117
-310,153	800,000	-0,072	0,146
-309,139	383,206	0,008	-0,012
-308,124	201,057	0,061	0,068
-307,110	-153,278	0,076	0,004
-306,095	-7,339	0,062	0,031
-305,080	800,000	-0,016	0,047
-304,066	64,319	0,066	-0,048
-303,051	91,381	0,043	-0,035
-302,037	-40,973	0,093	-0,035
-301,022	124,356	-0,115	-0,105
-300,008	-200,000	-0,007	0,089
-298,993	-200,000	0,011	-0,065
-297,978	-200,000	0,017	-0,124
-296,964	800,000	0,030	0,072
-295,949	-151,441	0,044	-0,002
-294,935	800,000	-0,033	0,081
-293,920	-76,155	-0,020	0,005
-292,905	-72,089	0,080	0,022
-291,891	-9,647	0,145	0,070
-290,876	672,334	-0,055	0,105
-289,862	-200,000	-0,004	0,048
-288,847	318,925	-0,043	0,060
-287,832	48,172	-0,116	-0,078
-286,818	-129,603	0,040	-0,004
-285,803	-14,505	0,140	0,065
-284,789	-47,590	0,056	-0,019
-283,774	346,627	-0,046	-0,066
-282,759	544,145	0,014	-0,025
-281,745	689,503	-0,055	0,104
-280,730	283,937	0,041	-0,054
-279,716	32,530	-0,023	0,014
-278,701	-92,543	0,100	0,020
-277,686	-67,649	0,037	-0,011
-276,672	-32,572	0,070	-0,028
-275,657	143,411	0,050	0,049
-274,643	129,719	0,048	0,045
-273,628	-156,835	-0,046	-0,002
-272,613	-200,000	0,001	0,093
-271,599	-94,776	-0,028	-0,005
-270,584	800,000	-0,021	0,064
-269,570	590,408	-0,023	0,041
-268,555	61,247	-0,034	-0,024
-267,540	800,000	-0,020	0,059
-266,526	-200,000	-0,001	0,020
-265,511	-73,868	-0,018	-0,005
-264,497	-200,000	-0,003	-0,011
-263,482	262,388	0,052	-0,065
-262,467	800,000	0,071	0,152
-261,453	800,000	0,034	-0,100
-260,438	-200,000	0,023	-0,102
-259,424	282,315	-0,131	-0,171
-258,409	800,000	0,009	-0,020
-257,395	-200,000	-0,008	0,052
-256,380	800,000	0,024	0,059
-255,365	-200,000	0,005	-0,032
-254,351	275,515	0,120	0,154
-253,336	800,000	-0,034	0,093
-252,322	225,730	0,045	0,053
-251,307	-200,000	-0,010	-0,078
-250,292	58,473	-0,131	-0,093
-249,278	32,388	0,047	0,029
-248,263	800,000	0,043	0,093
-247,249	106,154	-0,092	-0,079
-246,234	-200,000	-0,014	-0,055
-245,219	111,659	0,088	-0,076
-244,205	256,478	-0,071	-0,089
-243,190	36,898	0,090	-0,057
-242,176	-54,996	-0,021	-0,007
-241,161	800,000	0,021	-0,066
-240,146	-123,910	-0,089	0,010
-239,132	-200,000	0,018	-0,199
-238,117	11,546	-0,089	0,049
-237,103	-124,766	0,062	-0,007
-236,088	-26,890	0,080	-0,034
-235,073	-84,475	0,115	0,026
-234,059	765,125	0,029	0,058
-233,044	-56,013	-0,065	0,021
-232,030	281,073	-0,017	-0,022
-231,015	135,002	-0,067	-0,063
-230,000	390,356	0,049	0,073
-228,986	-200,000	0,010	0,064
-227,971	-137,466	0,205	0,017
-226,957	16,815	0,038	-0,022
-225,942	800,000	0,021	-0,049
-224,927	-147,263	-0,104	0,006
-223,913	-110,557	-0,141	-0,021
-222,898	-126,196	0,057	-0,006
-221,884	548,015	0,044	-0,077
-220,869	789,809	-0,023	-0,046
-219,855	-9,254	-0,073	-0,035
-218,840	125,980	-0,084	0,077
-217,825	-73,361	0,106	-0,028
-216,811	-59,999	-0,147	-0,045
-215,796	8,034	-0,099	-0,054
-214,782	-152,019	0,132	0,007
-213,767	-200,000	-0,001	-0,055
-212,752	118,280	0,026	-0,023
-211,738	-116,333	0,034	0,004
-210,723	-200,000	-0,049	0,186
-209,709	122,734	0,010	0,009
-208,694	-200,000	-0,039	-0,172
-207,679	800,000	0,045	-0,136
-206,665	-44,524	0,060	0,022
-205,650	-200,000	-0,008	-0,160
-204,636	223,858	0,050	0,059
-203,621	-200,000	-0,001	0,027
-202,606	-108,692	0,103	-0,016
-201,592	-131,862	-0,064	-0,006
-200,577	-200,000	-0,007	0,118
-199,563	-200,000	0,148	0,000
-198,548	68,980	0,040	-0,030
-197,533	22,274	0,075	-0,044
-196,519	800,000	0,031	0,066
-195,504	33,467	-0,067	0,042
-194,490	355,059	-0,057	-0,083
-193,475	-97,791	-0,121	0,022
-192,460	800,000	-0,051	-0,118
-191,446	800,000	0,025	-0,061
-190,431	-200,000	-0,014	0,160
-189,417	-200,000	0,002	-0,043
-188,402	13,020	-0,067	0,037
-187,387	-109,771	-0,038	0,006
-186,373	-200,000	0,000	-0,175
-185,358	255,999	-0,053	-0,066
-184,344	94,206	0,093	0,076
-183,329	468,051	-0,076	0,124
-182,315	457,110	0,076	-0,122
-181,300	-97,801	-0,113	0,021
-180,285	-200,000	0,019	-0,104
-179,271	364,667	-0,048	0,070
-178,256	363,639	0,080	-0,116
-177,242	-200,000	0,010	0,099
-176,227	-200,000	-0,010	0,091
-175,212	800,000	-0,048	0,132
-174,198	-50,298	-0,042	-0,014
-173,183	109,725	0,043	-0,037
-172,169	800,000	-0,071	0,172
-171,154	-200,000	0,007	-0,067
-170,139	190,327	0,085	0,092
-169,125	-39,576	0,012	-0,005
-168,110	-152,342	0,075	0,004
-167,096	800,000	-0,013	-0,035
-166,081	156,743	-0,024	-0,024
-165,066	-136,638	0,036	0,003
-164,052	-92,311	-0,017	-0,003
-163,037	133,445	-0,029	0,027
-162,023	-2,060	0,206	0,104
-161,008	-33,683	0,159	-0,063
-159,993	-76,402	-0,127	-0,032
-158,979	-200,000	0,004	0,028
-157,964	-200,000	-0,004	-0,093
-156,950	-200,000	-0,010	0,063
-155,935	-200,000	-0,013	-0,052
-154,920	-90,484	0,050	-0,010
-153,906	458,871	0,028	0,045
-152,891	800,000	-0,059	0,133
-151,877	-200,000	-0,022	0,132
-150,862	800,000	-0,009	-0,019
-149,847	249,286	0,055	0,068
-148,833	-200,000	0,018	0,102
-147,818	-41,528	0,118	0,044
-146,804	333,028	0,039	-0,055
-145,789	11,580	0,081	0,045
-144,775	-200,000	0,037	-0,119
-143,760	458,103	-0,036	0,058
-142,745	-151,437	-0,117	-0,006
-141,731	230,233	0,042	-0,050
-140,716	-200,000	0,018	0,063
-139,702	800,000	-0,003	-0,008
-138,687	-87,457	-0,103	0,022
-137,672	313,099	0,048	0,065
-136,658	267,863	-0,064	0,081
-135,643	158,639	-0,037	-0,037
-134,629	-78,030	0,055	-0,014
-133,614	-160,218	0,122	0,005
-132,599	800,000	-0,016	-0,045
-131,585	-134,824	-0,032	-0,003
-130,570	178,311	-0,126	0,132
-129,556	-200,000	-0,003	-0,067
-128,541	-49,821	-0,051	-0,017
-127,526	151,342	-0,015	-0,015
-126,512	800,000	0,033	-0,092
-125,497	-15,188	0,103	-0,047
-124,483	281,097	-0,073	-0,094
-123,468	48,856	0,049	-0,033
-122,453	153,251	-0,147	-0,145
-121,439	-200,000	-0,021	-0,123
-120,424	-48,681	0,090	0,031
-119,410	-25,740	0,081	-0,034
-118,395	800,000	0,032	0,089
