DTS Sentinel unit serial number:	SN410029Multiplexer serial number:	ORYXHardware model number:	OX2-SRSoftware version number:	ORYX F/W v4,00 Oryx Data Collector v3.7.2.0data status	okinstallation	B5 Nyhavnadifferential loss correction	single-endedforward channel	channel 2reverse channel	N/Adate	2023/12/12time	01:47:13forward acquisition time	300,00reverse acquisition time	0,00gamma	499,1914k internal	0,3156k external	0,3156temperature offset calibration	1,0000default loss term (dB/km)	0,3820temperature slope calibration	1,0000multiplexer offset coefficient	1,0000multiplexer slope coefficient	1,0000fibre end	0,00T internal ref (°C)	15,87T ext. ref 1 (°C)	-0,61T ext. ref 2 (°C)	-0,87length (m)	temperature (°C)	Stokes	anti-Stokes-744,400	-29,171	0,066	0,028
-743,385	17,706	-0,165	-0,096
-742,371	127,129	0,031	-0,029
-741,356	-82,010	-0,278	0,067
-740,342	-123,633	0,079	0,009
-739,327	-40,018	-0,198	0,076
-738,312	371,578	0,009	-0,014
-737,298	5,721	-0,115	0,062
-736,283	254,760	0,078	0,098
-735,269	-123,383	-0,245	0,028
-734,254	358,896	0,071	0,105
-733,239	-91,938	-0,309	-0,064
-732,225	-180,374	0,165	0,002
-731,210	800,000	0,075	0,164
-730,196	800,000	-0,026	-0,073
-729,181	800,000	-0,046	0,096
-728,167	-86,572	0,091	-0,020
-727,152	-200,000	-0,016	-0,098
-726,137	800,000	-0,040	-0,129
-725,123	800,000	0,050	-0,144
-724,108	609,815	-0,027	-0,050
-723,094	71,525	-0,037	-0,028
-722,079	-12,327	0,028	-0,014
-721,064	-200,000	0,035	-0,146
-720,050	-200,000	0,001	-0,016
-719,035	105,878	-0,039	0,034
-718,021	-200,000	-0,043	-0,193
-717,006	-200,000	-0,013	-0,096
-715,991	800,000	-0,037	-0,104
-714,977	-105,520	-0,129	-0,021
-713,962	388,501	-0,035	-0,054
-712,948	358,331	-0,114	-0,168
-711,933	-90,430	0,142	-0,030
-710,918	35,358	0,029	-0,019
-709,904	205,287	-0,089	-0,102
-708,889	800,000	0,039	-0,116
-707,875	380,893	-0,035	-0,053
-706,860	510,811	-0,017	-0,028
-705,845	184,158	0,075	-0,082
-704,831	-24,967	-0,070	-0,030
-703,816	-200,000	-0,018	0,073
-702,802	-58,608	-0,132	-0,042
-701,787	-96,087	-0,032	0,006
-700,772	-200,000	0,016	0,071
-699,758	393,523	0,157	-0,241
-698,743	225,910	0,065	-0,077
-697,729	231,957	-0,118	-0,143
-696,714	180,693	-0,034	-0,037
-695,699	131,636	-0,029	-0,027
-694,685	-200,000	-0,001	0,011
-693,670	-147,857	-0,048	-0,003
-692,656	187,883	-0,064	-0,070
-691,641	800,000	0,022	0,066
-690,627	-200,000	-0,010	0,049
-689,612	320,431	0,053	-0,074
-688,597	614,422	-0,023	0,043
-687,583	30,198	0,035	0,022
-686,568	-164,037	-0,006	0,000
-685,554	-200,000	0,007	0,072
-684,539	307,040	-0,093	0,128
-683,524	666,099	0,011	0,022
-682,510	35,208	0,021	0,014
-681,495	-10,732	0,073	-0,035
-680,481	16,613	-0,051	0,030
-679,466	52,114	0,048	-0,034
-678,451	-34,616	0,094	-0,038
-677,437	155,313	0,026	0,027
-676,422	-51,361	-0,031	0,010
-675,408	29,113	0,053	-0,033
-674,393	-160,351	-0,112	-0,004
-673,378	800,000	-0,067	-0,141
-672,364	-10,045	-0,148	-0,072
-671,349	-105,484	-0,178	-0,029
-670,335	-200,000	0,021	0,086
-669,320	161,431	-0,065	-0,067
-668,305	-38,605	0,055	-0,021
-667,291	218,354	-0,064	0,075
-666,276	40,749	-0,103	0,068
-665,262	252,524	-0,097	0,122
-664,247	-200,000	-0,024	-0,109
-663,232	665,008	-0,028	-0,054
-662,218	-200,000	0,000	0,071
-661,203	-200,000	0,005	-0,108
-660,189	-11,351	-0,023	-0,011
-659,174	74,964	-0,109	-0,084
-658,159	153,071	-0,109	-0,109
-657,145	716,388	-0,082	-0,161
-656,130	-108,126	0,065	-0,010
-655,116	121,682	0,011	-0,010
-654,101	254,491	-0,033	0,042
-653,086	-22,585	-0,092	-0,041
-652,072	181,071	0,049	0,053
-651,057	-200,000	-0,003	0,037
-650,043	131,123	-0,100	-0,094
-649,028	-70,340	-0,185	-0,051
-648,014	-200,000	-0,008	-0,068
-646,999	120,550	-0,088	-0,081
-645,984	-200,000	-0,007	-0,049
-644,970	-200,000	-0,013	0,044
-643,955	49,371	-0,090	0,062
-642,941	-200,000	0,016	-0,193
-641,926	-81,601	0,079	0,019
-640,911	637,658	0,047	0,088
-639,897	348,049	0,037	-0,053
-638,882	143,610	-0,042	-0,041
-637,868	-68,935	-0,170	0,048
-636,853	216,549	0,067	-0,078
-635,838	800,000	0,019	0,059
-634,824	653,214	-0,034	-0,065
-633,809	114,197	0,054	-0,048
-632,795	-50,697	-0,065	-0,022
-631,780	-93,798	-0,131	-0,026
-630,765	-77,935	0,017	0,004
-629,751	257,284	-0,118	-0,149
-628,736	800,000	-0,064	-0,155
-627,722	-52,473	0,081	-0,027
-626,707	157,209	0,081	0,082
-625,692	634,495	-0,013	0,024
-624,678	25,097	0,023	-0,014
-623,663	88,037	-0,064	0,052
-622,649	800,000	0,015	-0,032
-621,634	-28,570	-0,038	-0,016
-620,619	-200,000	-0,021	-0,123
-619,605	-57,768	0,057	-0,018
-618,590	22,411	0,084	-0,050
-617,576	800,000	-0,013	-0,028
-616,561	-43,969	0,125	-0,046
-615,546	800,000	-0,047	-0,131
-614,532	411,954	0,068	0,106
-613,517	27,414	-0,135	-0,083
-612,503	22,245	0,005	-0,003
-611,488	534,896	0,077	-0,134
-610,474	-93,491	0,083	-0,017
-609,459	274,739	-0,047	0,062
-608,444	-37,343	-0,130	0,051
-607,430	-53,496	-0,035	0,012
-606,415	-9,625	-0,087	0,042
-605,401	49,185	-0,069	-0,047
-604,386	-200,000	0,021	-0,071
-603,371	-175,507	0,076	0,001
-602,357	446,996	-0,097	-0,158
-601,342	-102,165	0,147	-0,026
-600,328	-200,000	0,004	0,103
-599,313	692,676	-0,144	-0,279
-598,298	-182,008	0,047	0,001
-597,284	-57,264	0,033	0,011
-596,269	342,508	0,046	0,066
-595,255	661,078	-0,035	-0,066
-594,240	649,314	0,096	-0,180
-593,225	517,309	0,072	-0,123
-592,211	-29,796	0,056	0,023
-591,196	200,347	0,042	0,047
-590,182	800,000	-0,054	-0,166
-589,167	24,039	0,087	-0,052
-588,152	-196,908	-0,044	0,000
-587,138	33,289	0,064	0,041
-586,123	785,182	-0,047	-0,095
-585,109	-136,052	0,049	-0,004
-584,094	-200,000	-0,004	-0,030
-583,079	-200,000	-0,004	0,064
-582,065	78,252	0,016	0,012
-581,050	-200,000	0,001	0,039
-580,036	118,880	-0,036	0,033
-579,021	206,440	-0,052	-0,060
-578,006	223,403	-0,149	-0,176
-576,992	208,408	0,065	-0,074
-575,977	-200,000	0,005	0,037
-574,963	168,070	-0,056	0,059
-573,948	-200,000	-0,004	-0,029
-572,934	-200,000	-0,031	0,119
-571,919	6,621	0,049	0,027
-570,904	-190,000	-0,173	0,001
-569,890	-54,777	-0,089	-0,029
-568,875	800,000	0,007	-0,018
-567,861	158,072	-0,052	-0,052
-566,846	-43,320	-0,036	-0,013
-565,831	-91,794	0,183	0,038
-564,817	-200,000	0,005	0,042
-563,802	18,790	-0,079	-0,046
-562,788	-167,578	-0,060	0,002
-561,773	-200,000	-0,000	-0,086
-560,758	-47,333	-0,069	0,024
-559,744	164,924	-0,046	0,047
-558,729	-22,834	0,037	-0,016
-557,715	260,528	-0,032	0,040
-556,700	-77,048	-0,143	-0,036
-555,685	-3,563	0,055	-0,028
-554,671	177,075	0,052	0,055
-553,656	265,989	-0,054	0,069
-552,642	800,000	-0,025	0,067
-551,627	-200,000	0,023	0,087
-550,612	800,000	-0,008	0,020
-549,598	-200,000	-0,008	-0,053
-548,583	404,886	-0,085	-0,132
-547,569	368,044	0,092	-0,136
-546,554	204,998	0,052	0,059
-545,539	800,000	0,019	-0,039
-544,525	-200,000	0,002	-0,146
-543,510	99,121	0,057	0,048
-542,496	-200,000	0,010	0,043
-541,481	-68,364	-0,107	-0,030
-540,466	268,647	-0,078	-0,101
-539,452	98,303	0,024	-0,020
-538,437	371,051	0,059	-0,088
-537,423	-123,359	0,231	-0,027
-536,408	216,581	0,016	-0,018
-535,393	658,450	0,040	0,075
-534,379	31,212	0,122	-0,077
-533,364	-5,592	-0,082	-0,041
-532,350	-80,652	0,198	-0,048
-531,335	70,149	-0,069	-0,052
-530,321	800,000	0,020	0,055
-529,306	-200,000	0,028	-0,122
-528,291	-200,000	-0,027	-0,138
-527,277	87,506	-0,099	-0,080
-526,262	-155,041	0,022	0,001
-525,248	77,050	-0,165	0,128
-524,233	535,490	0,041	0,071
-523,218	453,818	0,051	0,082
-522,204	641,062	0,018	-0,034
-521,189	-200,000	-0,011	0,077
-520,175	371,449	0,003	-0,004
-519,160	-200,000	0,003	0,108
-518,145	-135,431	0,049	0,004
-517,131	434,491	0,067	0,108
-516,116	-110,592	0,053	0,008
-515,102	326,973	-0,050	-0,071
-514,087	800,000	0,053	0,161
-513,072	421,137	0,034	-0,053
-512,058	800,000	-0,007	0,015
-511,043	-200,000	0,020	0,077
-510,029	800,000	-0,021	-0,055
-509,014	542,228	0,013	-0,024
-507,999	543,485	-0,049	-0,086
-506,985	283,306	0,094	0,123
-505,970	800,000	-0,046	0,107
-504,956	685,400	0,068	-0,130
-503,941	11,555	0,072	0,040
-502,926	12,730	-0,074	-0,042
-501,912	146,981	-0,078	0,077
-500,897	12,338	0,150	0,084
-499,883	-200,000	0,000	-0,050
-498,868	200,624	-0,068	0,077
-497,853	309,654	-0,051	-0,070
-496,839	437,778	-0,024	-0,038
-495,824	-16,257	0,045	0,021
-494,810	-200,000	0,017	-0,093
-493,795	-81,595	0,089	-0,021
-492,781	61,289	-0,108	-0,078
-491,766	691,752	-0,032	0,062
-490,751	-200,000	-0,004	-0,095
-489,737	-200,000	0,026	0,215
-488,722	116,350	0,046	0,041
-487,708	-142,142	-0,112	0,008
-486,693	167,853	0,121	0,126
-485,678	352,295	-0,063	-0,091
-484,664	199,840	0,105	0,118
-483,649	309,150	-0,044	0,061
-482,635	-146,480	-0,141	0,009
-481,620	-68,974	0,132	0,037
-480,605	152,193	-0,048	0,048
-479,591	16,754	0,058	-0,033
-478,576	433,258	-0,032	0,051
-477,562	800,000	-0,031	-0,068
-476,547	78,164	-0,116	0,090
-475,532	175,747	0,093	0,099
-474,518	800,000	-0,025	0,057
-473,503	-133,032	0,078	0,007
-472,489	800,000	0,018	0,055
-471,474	726,097	-0,097	0,189
-470,459	-42,912	0,086	0,032
-469,445	-137,080	-0,061	-0,005
-468,430	154,837	0,037	0,037
-467,416	-60,365	-0,132	-0,041
-466,401	13,868	-0,045	0,025
-465,386	-200,000	-0,020	0,106
-464,372	-47,447	0,107	0,038
-463,357	-36,726	-0,054	0,021
-462,343	375,402	-0,097	-0,145
-461,328	-200,000	-0,002	0,040
-460,313	-56,773	-0,042	-0,014
-459,299	-10,206	-0,073	-0,035
-458,284	5,024	0,198	0,106
-457,270	218,755	0,032	-0,038
-456,255	-66,268	0,051	0,015
-455,241	460,566	0,053	-0,086
-454,226	162,493	0,088	-0,090
-453,211	0,001	0,038	-0,019
-452,197	289,418	-0,036	0,048
-451,182	-136,122	-0,016	0,001
-450,168	144,410	0,020	0,019
-449,153	-10,333	0,096	0,046
-448,138	-200,000	0,006	-0,044
-447,124	-200,000	-0,014	0,084
-446,109	-200,000	0,021	0,109
-445,095	83,884	-0,081	-0,064
-444,080	800,000	0,016	0,048
-443,065	9,272	-0,153	-0,084
-442,051	800,000	-0,046	-0,094
-441,036	-200,000	0,025	-0,134
-440,022	-90,097	-0,042	-0,009
-439,007	141,976	-0,091	-0,087
-437,992	84,983	0,044	0,035
-436,978	-74,773	-0,034	0,009
-435,963	-182,485	0,166	-0,002
-434,949	197,477	-0,069	0,077
-433,934	-200,000	-0,007	-0,062
-432,919	800,000	-0,012	-0,035
-431,905	213,829	0,030	-0,035
-430,890	-161,002	0,138	0,005
-429,876	-200,000	0,034	0,123
-428,861	800,000	-0,035	-0,086
-427,846	-74,790	0,022	-0,006
-426,832	-200,000	-0,000	-0,113
-425,817	-95,676	0,092	0,018
-424,803	-89,945	0,141	0,030
-423,788	-200,000	-0,017	0,065
-422,773	-200,000	0,018	0,059
-421,759	29,951	-0,014	-0,009
-420,744	800,000	-0,041	0,112
-419,730	22,894	-0,115	0,069
-418,715	117,036	0,056	-0,050
-417,701	-159,334	0,059	0,002
-416,686	20,998	-0,043	0,026
-415,671	-14,313	0,160	0,075
-414,657	-5,633	-0,029	0,015
-413,642	3,635	0,103	0,054
-412,628	-200,000	-0,005	0,040
-411,613	17,110	-0,114	0,066
-410,598	800,000	-0,037	0,099
-409,584	800,000	0,009	-0,027
-408,569	-94,922	0,060	-0,012
-407,555	87,237	-0,049	0,040
-406,540	0,927	0,085	-0,044
-405,525	-76,774	-0,112	0,028
-404,511	-200,000	0,023	-0,126
-403,496	790,752	0,006	0,011
-402,482	-81,416	0,076	-0,018
-401,467	-95,694	-0,018	0,003
-400,452	138,648	0,101	0,097
-399,438	-69,298	0,079	-0,022
-398,423	-200,000	0,011	-0,090
-397,409	258,568	0,055	0,069
-396,394	161,599	-0,007	-0,007
-395,379	-82,429	0,046	-0,011
-394,365	-200,000	0,003	0,021
-393,350	-200,000	-0,003	-0,016
-392,336	177,111	-0,040	-0,042
-391,321	-15,692	0,084	0,039
-390,306	227,823	-0,055	-0,065
-389,292	-200,000	-0,016	-0,082
-388,277	116,962	0,105	-0,094
-387,263	-31,777	-0,122	0,049
-386,248	-200,000	0,018	0,112
-385,233	-122,073	0,120	-0,014
-384,219	62,130	-0,017	-0,012
-383,204	15,553	0,140	-0,080
-382,190	-49,725	-0,081	0,028
-381,175	128,559	0,087	0,080
-380,160	-147,338	0,069	0,004
-379,146	178,064	-0,080	-0,085
-378,131	-15,701	0,199	0,092
-377,117	211,831	0,041	0,047
-376,102	724,600	-0,054	-0,105
-375,088	-200,000	0,003	-0,176
-374,073	-0,456	-0,073	0,037
-373,058	800,000	-0,017	-0,049
-372,044	-67,540	0,216	-0,061
-371,029	-200,000	-0,023	0,100
-370,015	-200,000	-0,023	0,110
-369,000	412,591	-0,013	-0,021
-367,985	800,000	0,023	-0,052
-366,971	-148,952	-0,051	-0,003
-365,956	-23,656	0,134	-0,058
-364,942	-200,000	-0,010	0,196
-363,927	-6,285	-0,022	0,011
-362,912	90,610	0,114	0,093
-361,898	239,564	-0,069	-0,084
-360,883	-22,722	-0,049	0,022
-359,869	3,582	0,129	-0,068
-358,854	-200,000	0,023	0,082
-357,839	-36,606	0,031	-0,012
-356,825	-76,907	0,117	-0,029
-355,810	-200,000	-0,018	-0,103
-354,796	19,341	-0,097	-0,056
-353,781	-96,043	-0,048	0,009
-352,766	632,890	0,038	-0,070
-351,752	-37,061	-0,125	0,049
-350,737	-200,000	-0,043	0,146
-349,723	38,655	-0,042	-0,027
-348,708	-143,795	-0,078	-0,005
-347,693	-45,985	0,216	0,077
-346,679	-200,000	0,009	-0,054
-345,664	800,000	0,024	0,049
-344,650	-24,351	-0,065	-0,028
-343,635	12,681	-0,087	-0,049
-342,620	369,837	0,039	0,058
-341,606	117,422	0,128	0,115
-340,591	-186,194	-0,135	0,001
-339,577	353,919	-0,064	0,093
-338,562	-12,187	-0,116	0,055
-337,548	-8,807	0,096	-0,046
-336,533	-36,214	-0,089	0,035
-335,518	800,000	-0,027	0,062
-334,504	482,064	-0,022	-0,037
-333,489	800,000	0,019	-0,047
-332,475	560,866	0,023	-0,041
-331,460	800,000	-0,018	0,046
-330,445	201,005	0,082	-0,091
-329,431	-200,000	0,002	-0,036
-328,416	352,591	0,070	0,101
-327,402	585,651	-0,054	0,097
-326,387	-20,002	-0,022	0,010
-325,372	303,768	-0,074	0,100
-324,358	-169,811	-0,072	-0,002
-323,343	-200,000	0,001	-0,107
-322,329	-17,322	-0,049	0,022
-321,314	357,481	0,036	0,052
-320,299	-200,000	-0,002	-0,073
-319,285	52,743	0,116	-0,080
-318,270	22,744	-0,117	-0,069
-317,256	-200,000	0,044	0,228
-316,241	275,922	0,050	-0,065
-315,226	47,627	0,063	0,042
-314,212	65,987	0,088	0,065
-313,197	-15,093	-0,086	-0,040
-312,183	-136,246	0,043	0,004
-311,168	388,558	0,024	0,036
-310,153	800,000	-0,033	-0,080
-309,139	-200,000	-0,015	-0,050
-308,124	-51,610	0,072	0,024
-307,110	-200,000	0,005	-0,107
-306,095	-40,831	-0,050	-0,019
-305,080	609,304	-0,074	0,134
-304,066	-103,418	0,045	-0,008
-303,051	326,168	-0,021	-0,029
-302,037	45,218	0,018	0,012
-301,022	-118,480	0,108	0,014
-300,008	-11,795	0,062	0,029
-298,993	504,509	-0,027	0,046
-297,978	-125,471	0,043	0,005
-296,964	-126,168	0,093	-0,010
-295,949	387,287	-0,083	-0,124
-294,935	64,998	0,200	-0,146
-293,920	800,000	0,041	0,090
-292,905	536,776	0,060	0,104
-291,891	137,368	-0,078	0,074
-290,876	-118,803	0,085	0,011
-289,862	-200,000	-0,002	-0,128
-288,847	-200,000	0,026	0,122
-287,832	-200,000	-0,011	0,045
-286,818	87,419	0,035	-0,028
-285,803	-200,000	-0,010	0,061
-284,789	-200,000	0,011	-0,066
-283,774	-200,000	-0,027	0,124
-282,759	272,280	0,027	-0,035
-281,745	-200,000	-0,007	0,067
-280,730	-6,754	-0,092	0,045
-279,716	-14,313	-0,014	-0,006
-278,701	175,369	0,026	-0,027
-277,686	206,621	0,079	-0,090
-276,672	426,715	0,057	0,089
-275,657	-12,869	-0,035	0,016
-274,643	137,387	-0,037	-0,035
-273,628	-200,000	0,045	-0,169
-272,613	-158,637	0,084	0,003
-271,599	800,000	0,055	0,158
-270,584	555,373	0,051	0,089
-269,570	38,555	0,050	0,032
-268,555	-200,000	0,005	-0,070
-267,540	12,642	-0,078	-0,044
-266,526	625,131	-0,057	0,104
-265,511	-200,000	0,037	-0,119
-264,497	25,988	0,080	-0,048
-263,482	-200,000	0,005	-0,112
-262,467	-30,594	-0,067	0,027
-261,453	75,840	-0,085	0,065
-260,438	-200,000	0,012	0,105
-259,424	-143,522	-0,119	0,008
-258,409	-48,052	-0,071	-0,025
-257,395	800,000	0,061	-0,138
-256,380	-80,998	-0,073	0,017
-255,365	-200,000	0,012	-0,085
-254,351	-96,050	-0,051	0,010
-253,336	800,000	-0,015	-0,043
-252,322	438,173	0,044	-0,069
-251,307	-200,000	-0,020	-0,175
-250,292	236,852	-0,076	0,091
-249,278	253,657	-0,049	0,060
-248,263	-70,811	0,094	-0,025
-247,249	255,218	0,045	-0,056
-246,234	118,333	-0,098	0,088
-245,219	298,845	-0,106	-0,141
-244,205	-200,000	-0,044	-0,226
-243,190	-34,866	-0,034	-0,014
-242,176	190,974	-0,030	0,033
-241,161	258,655	0,053	-0,066
-240,146	-200,000	-0,008	0,102
-239,132	62,015	-0,138	0,100
-238,117	-92,480	-0,044	-0,009
-237,103	19,947	-0,140	-0,081
-236,088	132,677	-0,057	0,053
-235,073	800,000	0,027	0,071
-234,059	537,090	-0,030	0,051
-233,044	-200,000	-0,021	0,084
-232,030	800,000	-0,023	-0,053
-231,015	123,126	0,072	0,065
-230,000	-99,402	-0,097	-0,018
-228,986	800,000	0,020	-0,048
-227,971	-22,864	0,017	-0,007
-226,957	-200,000	0,013	0,056
-225,942	207,342	-0,027	0,031
-224,927	124,395	-0,026	-0,024
-223,913	800,000	-0,035	0,077
-222,898	800,000	-0,026	-0,079
-221,884	800,000	0,031	-0,084
-220,869	-200,000	0,009	0,065
-219,855	504,790	-0,094	0,157
-218,840	-131,819	0,103	0,010
-217,825	-105,254	-0,118	0,019
-216,811	600,805	-0,051	-0,092
-215,796	800,000	-0,044	-0,089
-214,782	-50,161	-0,086	-0,029
-213,767	39,478	-0,064	-0,041
-212,752	-33,349	0,108	0,043
-211,738	275,994	-0,057	0,073
-210,723	741,714	-0,026	0,050
-209,709	543,773	-0,049	0,086
-208,694	140,106	0,055	0,052
-207,679	-66,279	0,063	-0,018
-206,665	-162,655	0,164	0,006
-205,650	402,725	0,006	0,009
-204,636	49,146	-0,069	0,047
-203,621	-200,000	0,033	0,199
-202,606	-121,579	-0,064	-0,008
-201,592	-145,677	-0,100	0,006
-200,577	800,000	0,035	-0,100
-199,563	98,327	0,064	0,053
-198,548	-17,781	0,139	0,063
-197,533	280,150	0,051	0,066
-196,519	273,143	-0,144	0,184
-195,504	800,000	-0,044	0,128
-194,490	-200,000	-0,018	-0,102
-193,475	52,080	0,076	-0,052
-192,460	371,864	0,054	0,080
-191,446	61,805	0,114	0,082
-190,431	-36,472	-0,056	0,021
-189,417	168,230	0,092	-0,095
-188,402	-74,223	-0,092	-0,024
-187,387	-55,613	-0,108	-0,035
-186,373	-99,452	0,127	-0,023
-185,358	-200,000	-0,203	0,000
-184,344	-36,820	-0,083	0,032
-183,329	800,000	0,052	-0,153
-182,315	-200,000	0,008	-0,077
-181,300	-188,908	-0,099	0,001
-180,285	-200,000	0,007	-0,052
-179,271	800,000	0,004	-0,012
-178,256	-77,315	0,083	-0,021
-177,242	100,943	-0,120	0,101
-176,227	-200,000	0,040	0,147
-175,212	-200,000	-0,010	0,096
-174,198	37,310	-0,059	0,038
-173,183	-200,000	0,014	0,048
-172,169	30,367	0,062	-0,038
-171,154	8,572	0,115	-0,062
-170,139	-137,561	0,081	-0,006
-169,125	-63,618	-0,061	0,018
-168,110	-137,749	0,023	0,002
-167,096	-154,610	0,128	0,006
-166,081	-200,000	-0,014	0,071
-165,066	800,000	0,022	-0,068
-164,052	-200,000	0,038	0,196
-163,037	140,773	-0,016	-0,015
-162,023	-118,587	-0,067	0,008
-161,008	143,824	0,014	-0,013
-159,993	76,127	-0,172	0,131
-158,979	800,000	0,051	-0,133
-157,964	-101,265	-0,150	-0,026
-156,950	139,409	0,047	0,045
-155,935	-200,000	-0,004	0,050
-154,920	-200,000	-0,007	0,113
-153,906	25,796	-0,065	0,039
-152,891	210,223	-0,120	-0,135
-151,877	168,641	-0,046	-0,047
-150,862	108,956	-0,037	0,032
-149,847	-92,464	0,046	0,009
-148,833	-200,000	-0,018	0,098
-147,818	525,367	0,025	0,043
-146,804	-128,885	-0,024	-0,002
-145,789	112,098	0,133	0,116
-144,775	557,802	-0,046	-0,080
-143,760	131,174	-0,047	-0,043
-142,745	74,468	-0,074	0,056
-141,731	-200,000	0,021	-0,104
-140,716	58,530	0,079	-0,056
-139,702	-90,670	0,092	0,019
-138,687	-127,398	0,163	0,017
-137,672	192,924	0,077	0,084
-136,658	-41,275	-0,092	-0,034
-135,643	380,129	-0,008	-0,012
-134,629	300,475	-0,035	-0,047
-133,614	-200,000	-0,044	0,140
-132,599	-200,000	0,170	0,000
-131,585	9,936	0,046	0,025
-130,570	-69,305	0,102	-0,028
-129,556	225,886	0,084	-0,098
-128,541	-200,000	-0,009	-0,119
-127,526	800,000	0,019	-0,048
-126,512	-91,537	-0,025	-0,005
-125,497	-163,625	0,110	0,004
-124,483	-158,013	-0,037	-0,002
-123,468	-49,500	-0,150	0,051
-122,453	800,000	-0,028	0,060
-121,439	-200,000	0,006	-0,034
-120,424	372,293	0,051	0,074
-119,410	103,085	0,098	0,083
