DTS Sentinel unit serial number:	SN410029Multiplexer serial number:	ORYXHardware model number:	OX2-SRSoftware version number:	ORYX F/W v4,00 Oryx Data Collector v3.7.2.0data status	okinstallation	B5 Nyhavnadifferential loss correction	single-endedforward channel	channel 2reverse channel	N/Adate	2023/12/14time	12:42:13forward acquisition time	300,00reverse acquisition time	0,00gamma	499,1914k internal	0,3158k external	0,3158temperature offset calibration	1,0000default loss term (dB/km)	0,3820temperature slope calibration	1,0000multiplexer offset coefficient	1,0000multiplexer slope coefficient	1,0000fibre end	0,00T internal ref (°C)	7,91T ext. ref 1 (°C)	-7,51T ext. ref 2 (°C)	-7,53length (m)	temperature (°C)	Stokes	anti-Stokes-744,400	117,762	0,097	0,088
-743,385	-146,396	-0,415	-0,026
-742,371	-157,628	0,206	-0,009
-741,356	-134,128	-0,286	-0,026
-740,342	-33,905	0,160	0,065
-739,327	43,511	-0,265	-0,178
-738,312	98,720	0,055	-0,047
-737,298	-102,444	-0,337	-0,059
-736,283	27,131	0,070	0,043
-735,269	-76,950	-0,338	-0,086
-734,254	429,703	0,103	0,164
-733,239	-26,383	-0,521	-0,224
-732,225	-148,908	0,362	-0,021
-731,210	-18,413	-0,115	0,053
-730,196	-200,000	0,010	-0,074
-729,181	793,949	-0,056	-0,114
-728,167	-153,003	-0,056	-0,003
-727,152	207,172	-0,047	-0,054
-726,137	-200,000	-0,021	-0,080
-725,123	235,980	-0,028	-0,034
-724,108	502,007	0,025	-0,043
-723,094	-61,103	-0,118	-0,037
-722,079	237,429	-0,071	0,087
-721,064	276,957	0,049	-0,065
-720,050	-37,753	-0,097	-0,038
-719,035	400,699	-0,087	-0,134
-718,021	-28,423	-0,018	0,008
-717,006	-22,294	-0,059	-0,026
-715,991	800,000	0,020	-0,046
-714,977	800,000	-0,057	-0,121
-713,962	-77,372	-0,129	-0,033
-712,948	-99,541	0,098	-0,018
-711,933	800,000	-0,025	-0,051
-710,918	800,000	0,024	-0,051
-709,904	492,135	-0,113	-0,191
-708,889	-152,469	-0,156	0,008
-707,875	265,958	-0,065	-0,084
-706,860	38,747	0,068	0,044
-705,845	800,000	0,026	0,058
-704,831	-200,000	-0,006	0,035
-703,816	-200,000	-0,009	-0,115
-702,802	-200,000	-0,013	-0,064
-701,787	476,948	0,042	-0,069
-700,772	647,005	0,035	-0,066
-699,758	-200,000	-0,001	-0,023
-698,743	-49,433	0,077	0,027
-697,729	-200,000	0,034	-0,167
-696,714	-23,589	0,067	-0,029
-695,699	-22,370	0,070	-0,031
-694,685	-116,755	-0,178	0,024
-693,670	-58,031	0,055	-0,017
-692,656	-59,163	-0,075	0,024
-691,641	0,992	0,037	0,020
-690,627	23,860	0,175	-0,106
-689,612	-200,000	0,013	-0,055
-688,597	180,547	0,096	-0,104
-687,583	-200,000	0,035	-0,166
-686,568	-200,000	0,025	-0,175
-685,554	-200,000	0,015	-0,136
-684,539	426,084	0,088	-0,140
-683,524	-200,000	-0,025	0,081
-682,510	-152,213	-0,026	-0,001
-681,495	168,017	-0,061	-0,064
-680,481	230,923	-0,105	-0,127
-679,466	-128,111	-0,035	-0,004
-678,451	172,795	0,083	-0,088
-677,437	-2,768	-0,118	-0,060
-676,422	-200,000	-0,008	-0,027
-675,408	-200,000	0,003	-0,072
-674,393	86,489	0,057	-0,046
-673,378	412,924	-0,063	-0,100
-672,364	185,542	-0,059	-0,065
-671,349	-95,957	-0,083	0,016
-670,335	-72,506	-0,135	0,036
-669,320	615,510	-0,021	0,039
-668,305	-200,000	-0,003	0,023
-667,291	170,398	0,082	0,086
-666,276	-200,000	0,005	-0,082
-665,262	162,706	0,039	-0,041
-664,247	172,624	-0,098	0,104
-663,232	328,139	-0,006	0,008
-662,218	-139,151	0,163	-0,013
-661,203	-200,000	0,013	-0,072
-660,189	149,098	-0,038	-0,038
-659,174	-83,557	-0,223	-0,052
-658,159	276,067	-0,089	0,117
-657,145	214,743	-0,087	0,102
-656,130	99,694	0,088	-0,075
-655,116	66,630	0,091	0,068
-654,101	800,000	-0,063	0,133
-653,086	-128,998	0,069	-0,007
-652,072	-34,605	0,066	0,026
-651,057	667,926	-0,110	-0,211
-650,043	-200,000	-0,026	-0,152
-649,028	-200,000	-0,022	-0,113
-648,014	120,226	0,066	0,060
-646,999	155,282	-0,078	0,078
-645,984	-135,414	-0,024	0,002
-644,970	-60,945	-0,121	0,037
-643,955	-200,000	-0,008	-0,059
-642,941	-200,000	-0,024	-0,157
-641,926	-200,000	-0,017	-0,067
-640,911	-131,441	0,157	-0,015
-639,897	133,493	0,072	0,068
-638,882	-22,675	0,139	-0,061
-637,868	46,827	-0,039	0,026
-636,853	-200,000	-0,032	-0,158
-635,838	-125,027	-0,193	0,022
-634,824	605,233	-0,010	0,019
-633,809	800,000	0,037	-0,115
-632,795	-200,000	-0,032	-0,187
-631,780	291,826	0,009	-0,012
-630,765	78,179	-0,153	0,120
-629,751	68,270	-0,111	-0,083
-628,736	272,612	0,029	-0,038
-627,722	-200,000	0,011	0,054
-626,707	-200,000	-0,001	0,103
-625,692	-200,000	-0,007	0,062
-624,678	-56,075	-0,101	0,033
-623,663	-167,624	0,077	0,002
-622,649	145,857	0,109	0,107
-621,634	308,692	-0,069	-0,094
-620,619	-200,000	0,008	-0,028
-619,605	71,935	-0,014	-0,010
-618,590	800,000	0,048	-0,117
-617,576	561,717	-0,025	-0,044
-616,561	180,244	-0,043	-0,046
-615,546	145,339	0,116	-0,114
-614,532	-200,000	-0,020	-0,072
-613,517	-49,104	0,110	-0,039
-612,503	12,994	-0,097	0,055
-611,488	-200,000	-0,016	0,082
-610,474	-28,372	-0,056	-0,024
-609,459	800,000	-0,003	-0,009
-608,444	-200,000	0,005	-0,022
-607,430	9,651	-0,165	0,092
-606,415	606,961	0,060	0,111
-605,401	-200,000	-0,021	-0,088
-604,386	-108,380	0,107	-0,017
-603,371	800,000	-0,028	0,066
-602,357	-112,872	-0,094	0,013
-601,342	28,521	0,100	-0,062
-600,328	-140,088	-0,105	0,008
-599,313	-40,161	-0,139	0,053
-598,298	800,000	0,027	0,067
-597,284	-200,000	0,038	0,170
-596,269	800,000	-0,007	-0,017
-595,255	550,881	0,034	0,060
-594,240	-71,222	0,116	0,032
-593,225	89,451	-0,018	0,015
-592,211	339,490	-0,026	0,037
-591,196	153,732	-0,026	-0,026
-590,182	-67,054	0,112	-0,032
-589,167	-152,294	0,195	-0,010
-588,152	110,375	-0,088	-0,077
-587,138	458,303	-0,065	0,106
-586,123	68,716	-0,062	-0,046
-585,109	403,919	-0,028	-0,043
-584,094	7,103	-0,062	-0,034
-583,079	-200,000	-0,032	0,118
-582,065	268,379	-0,034	0,044
-581,050	-200,000	-0,020	-0,085
-580,036	376,543	0,084	-0,126
-579,021	126,057	0,139	-0,128
-578,006	115,552	-0,030	0,027
-576,992	398,494	0,054	-0,083
-575,977	58,963	-0,089	0,064
-574,963	-200,000	-0,018	0,162
-573,948	85,532	0,062	-0,050
-572,934	800,000	0,009	-0,023
-571,919	188,124	0,138	-0,151
-570,904	-60,175	-0,054	-0,017
-569,890	800,000	0,013	0,042
-568,875	-200,000	-0,039	0,128
-567,861	800,000	-0,023	-0,052
-566,846	407,720	0,050	0,078
-565,831	8,475	-0,090	0,049
-564,817	505,732	-0,087	-0,148
-563,802	-3,729	-0,048	-0,025
-562,788	800,000	-0,010	-0,022
-561,773	-30,863	0,098	-0,040
-560,758	32,307	-0,032	-0,020
-559,744	48,758	0,052	-0,035
-558,729	62,176	0,016	0,012
-557,715	127,565	-0,085	-0,079
-556,700	800,000	0,024	0,050
-555,685	-36,649	-0,090	0,035
-554,671	-200,000	0,002	-0,062
-553,656	-96,645	0,137	-0,026
-552,642	-24,812	-0,038	-0,016
-551,627	-166,841	0,061	0,002
-550,612	96,014	-0,066	0,055
-549,598	-35,228	0,115	-0,046
-548,583	-121,243	-0,208	-0,025
-547,569	-200,000	0,003	0,024
-546,554	-75,069	0,084	0,022
-545,539	-123,722	0,056	-0,006
-544,525	5,352	-0,116	0,063
-543,510	101,805	-0,022	-0,019
-542,496	-53,677	-0,072	-0,024
-541,481	370,466	0,059	0,087
-540,466	800,000	0,082	0,176
-539,452	694,673	0,011	0,021
-538,437	800,000	0,005	0,014
-537,423	-99,285	0,126	0,023
-536,408	34,130	0,047	0,030
-535,393	-191,048	-0,054	0,000
-534,379	490,430	-0,035	-0,060
-533,364	70,717	0,084	-0,063
-532,350	-70,966	-0,040	-0,011
-531,335	-200,000	-0,044	0,194
-530,321	241,802	-0,118	-0,145
-529,306	800,000	-0,040	-0,085
-528,291	-200,000	-0,013	-0,060
-527,277	-200,000	0,003	-0,081
-526,262	318,492	-0,107	-0,148
-525,248	-200,000	0,025	-0,085
-524,233	357,535	0,067	0,099
-523,218	254,232	0,102	0,128
-522,204	-95,532	0,036	-0,007
-521,189	-87,611	-0,144	-0,031
-520,175	-200,000	0,002	0,037
-519,160	-200,000	-0,003	-0,013
-518,145	-129,563	0,039	-0,004
-517,131	-144,913	-0,100	0,007
-516,116	-200,000	-0,003	0,024
-515,102	10,447	0,112	-0,062
-514,087	197,334	-0,072	-0,081
-513,072	51,231	-0,091	-0,063
-512,058	-40,820	-0,087	0,033
-511,043	-200,000	-0,016	0,181
-510,029	-200,000	0,008	0,054
-509,014	534,682	0,081	0,140
-507,999	800,000	-0,024	0,066
-506,985	-200,000	0,030	-0,099
-505,970	-57,286	-0,088	-0,028
-504,956	800,000	-0,039	-0,080
-503,941	108,615	0,058	0,051
-502,926	-200,000	-0,011	0,069
-501,912	-200,000	0,030	-0,125
-500,897	800,000	-0,024	0,056
-499,883	-200,000	-0,008	-0,032
-498,868	206,325	-0,031	0,036
-497,853	-1,838	0,099	-0,051
-496,839	470,433	0,117	0,193
-495,824	631,366	0,088	0,164
-494,810	494,538	0,010	-0,017
-493,795	23,820	-0,100	-0,060
-492,781	-15,602	0,043	-0,020
-491,766	250,844	-0,072	0,089
-490,751	800,000	0,043	-0,102
-489,737	493,950	0,072	-0,120
-488,722	-66,655	0,088	-0,025
-487,708	-13,052	0,061	0,029
-486,693	-200,000	0,015	-0,071
-485,678	-41,737	-0,045	-0,017
-484,664	-134,677	0,056	0,005
-483,649	-200,000	0,021	0,072
-482,635	131,994	-0,092	-0,086
-481,620	-33,960	0,047	0,019
-480,605	-200,000	-0,011	0,124
-479,591	800,000	0,046	0,109
-478,576	-200,000	-0,005	-0,038
-477,562	-162,442	-0,056	0,002
-476,547	159,872	0,030	-0,031
-475,532	-22,998	0,136	0,060
-474,518	20,350	-0,126	0,074
-473,503	-35,629	0,153	-0,060
-472,489	-200,000	-0,007	-0,024
-471,474	186,579	0,110	0,119
-470,459	-200,000	-0,007	-0,060
-469,445	43,736	-0,073	0,048
-468,430	800,000	-0,022	-0,055
-467,416	9,991	0,072	-0,040
-466,401	-200,000	0,006	-0,145
-465,386	-40,181	0,109	-0,041
-464,372	-200,000	0,005	-0,072
-463,357	-200,000	0,003	0,066
-462,343	800,000	-0,069	-0,157
-461,328	739,525	0,047	0,093
-460,313	-200,000	-0,024	0,134
-459,299	607,328	-0,022	-0,040
-458,284	-200,000	-0,007	0,139
-457,270	-26,199	-0,100	0,043
-456,255	43,493	0,028	-0,019
-455,241	800,000	0,014	-0,031
-454,226	-135,687	-0,073	-0,006
-453,211	-200,000	0,020	-0,178
-452,197	108,104	0,165	-0,143
-451,182	-13,373	-0,140	-0,066
-450,168	-12,333	-0,109	0,052
-449,153	800,000	-0,060	0,146
-448,138	-98,686	0,046	-0,008
-447,124	-125,144	0,066	0,007
-446,109	-116,335	-0,082	0,011
-445,095	-32,704	0,006	-0,002
-444,080	-47,720	0,145	0,051
-443,065	215,281	0,041	-0,048
-442,051	-200,000	-0,035	-0,196
-441,036	145,175	0,054	0,052
-440,022	-200,000	-0,006	-0,046
-439,007	284,453	0,040	-0,053
-437,992	209,743	-0,028	-0,032
-436,978	-200,000	-0,004	-0,015
-435,963	-162,403	0,104	-0,004
-434,949	69,295	0,063	-0,047
-433,934	165,638	0,039	0,040
-432,919	-200,000	-0,000	0,026
-431,905	-192,204	0,091	0,001
-430,890	-200,000	0,013	-0,076
-429,876	-200,000	0,018	0,106
-428,861	187,611	0,043	-0,047
-427,846	420,428	0,063	-0,098
-426,832	800,000	0,038	-0,090
-425,817	-24,541	-0,173	-0,075
-424,803	-28,378	-0,073	0,031
-423,788	91,956	0,073	0,060
-422,773	666,474	-0,055	-0,104
-421,759	295,426	0,028	0,037
-420,744	-105,956	-0,104	-0,017
-419,730	35,714	-0,115	0,073
-418,715	-70,564	-0,296	-0,081
-417,701	31,504	0,125	0,078
-416,686	800,000	0,062	0,171
-415,671	261,531	0,022	-0,027
-414,657	132,543	0,101	0,095
-413,642	380,042	0,048	0,072
-412,628	475,043	0,025	0,041
-411,613	601,046	-0,025	0,046
-410,598	800,000	-0,058	-0,116
-409,584	-111,190	-0,022	0,003
-408,569	-64,858	0,068	0,020
-407,555	800,000	-0,030	0,088
-406,540	126,390	0,072	-0,066
-405,525	-173,215	-0,048	0,001
-404,511	477,018	-0,104	-0,173
-403,496	800,000	-0,030	-0,089
-402,482	-15,620	0,054	-0,025
-401,467	-200,000	0,022	-0,108
-400,452	-200,000	0,017	0,095
-399,438	-152,957	0,078	-0,004
-398,423	380,358	-0,087	-0,131
-397,409	545,287	-0,026	0,045
-396,394	-200,000	-0,019	-0,075
-395,379	800,000	0,056	0,119
-394,365	-67,075	-0,097	0,028
-393,350	800,000	0,054	0,174
-392,336	-17,940	0,050	0,023
-391,321	-200,000	-0,007	-0,133
-390,306	-34,581	-0,089	0,035
-389,292	-200,000	-0,009	-0,189
-388,277	63,835	0,139	-0,102
-387,263	135,336	0,076	-0,072
-386,248	53,365	0,109	-0,076
-385,233	163,352	0,051	-0,052
-384,219	-200,000	0,026	-0,123
-383,204	-200,000	-0,007	-0,183
-382,190	-200,000	0,009	-0,055
-381,175	-153,157	-0,046	-0,002
-380,160	-200,000	0,026	-0,149
-379,146	-200,000	-0,005	0,101
-378,131	-31,563	0,045	0,018
-377,117	-97,420	0,120	-0,022
-376,102	488,029	-0,047	-0,078
-375,088	328,102	0,018	0,025
-374,073	149,051	-0,121	0,119
-373,058	-200,000	-0,022	-0,096
-372,044	-42,003	0,109	0,040
-371,029	-96,596	0,042	0,008
-370,015	-41,379	-0,068	0,025
-369,000	-164,583	-0,126	0,004
-367,985	104,086	-0,016	-0,014
-366,971	-17,129	-0,041	-0,019
-365,956	124,812	0,093	0,085
-364,942	184,766	-0,044	0,048
-363,927	-107,476	0,050	0,008
-362,912	800,000	0,019	0,052
-361,898	250,735	-0,014	0,017
-360,883	35,934	-0,112	0,071
-359,869	66,934	-0,050	-0,037
-358,854	800,000	0,022	0,046
-357,839	800,000	0,059	-0,185
-356,825	-200,000	-0,006	0,117
-355,810	26,570	0,084	-0,051
-354,796	272,696	0,081	-0,104
-353,781	45,406	0,148	-0,099
-352,766	332,359	-0,030	-0,043
-351,752	70,439	0,037	-0,028
-350,737	-36,606	0,125	0,049
-349,723	94,027	0,098	0,080
-348,708	214,308	-0,087	0,101
-347,693	800,000	0,002	0,007
-346,679	3,499	-0,100	0,053
-345,664	-200,000	-0,001	0,052
-344,650	125,157	0,111	0,101
-343,635	53,673	0,054	0,038
-342,620	-55,947	0,092	0,030
-341,606	-22,850	-0,098	0,043
-340,591	800,000	-0,052	-0,105
-339,577	800,000	0,034	-0,069
-338,562	-200,000	-0,002	-0,125
-337,548	-154,583	0,054	-0,003
-336,533	138,605	0,087	0,083
-335,518	28,081	-0,021	0,013
-334,504	354,639	0,020	-0,029
-333,489	800,000	0,027	0,066
-332,475	-179,894	-0,116	-0,002
-331,460	-74,354	-0,122	0,032
-330,445	-102,839	0,027	-0,005
-329,431	212,905	0,067	0,077
-328,416	800,000	0,043	0,091
-327,402	-200,000	-0,010	0,057
-326,387	-45,617	-0,010	-0,003
-325,372	-200,000	-0,015	-0,141
-324,358	8,523	-0,060	0,032
-323,343	-55,278	0,054	-0,017
-322,329	181,483	-0,040	0,043
-321,314	800,000	-0,020	0,062
-320,299	467,131	-0,049	0,080
-319,285	34,796	-0,078	0,050
-318,270	-0,188	0,065	-0,034
-317,256	-200,000	-0,030	-0,109
-316,241	2,362	0,087	0,045
-315,226	-192,927	0,089	0,001
-314,212	176,063	-0,095	0,100
-313,197	800,000	-0,040	-0,085
-312,183	-105,466	-0,208	-0,034
-311,168	-18,494	0,084	-0,038
-310,153	63,724	0,103	-0,075
-309,139	-63,347	0,137	0,041
-308,124	-200,000	-0,025	-0,086
-307,110	343,922	0,035	-0,050
-306,095	-118,779	-0,037	0,005
-305,080	294,375	-0,114	0,151
-304,066	-69,253	0,091	-0,025
-303,051	-161,284	-0,056	0,002
-302,037	111,739	0,135	-0,118
-301,022	800,000	0,029	-0,059
-300,008	109,428	-0,144	0,125
-298,993	800,000	0,041	0,121
-297,978	-97,256	0,102	0,019
-296,964	-200,000	-0,013	0,000
-295,949	207,215	-0,122	-0,138
-294,935	-200,000	0,027	-0,093
-293,920	103,273	-0,078	0,066
-292,905	-200,000	0,018	0,072
-291,891	-32,078	-0,089	-0,036
-290,876	342,690	0,065	0,093
-289,862	-4,481	-0,051	0,026
-288,847	48,427	0,096	0,065
-287,832	123,991	-0,105	0,096
-286,818	-8,461	0,133	-0,065
-285,803	800,000	0,043	0,106
-284,789	5,089	-0,072	0,038
-283,774	51,948	-0,078	0,053
-282,759	-200,000	-0,003	-0,174
-281,745	-9,920	-0,083	-0,040
-280,730	449,885	-0,017	-0,027
-279,716	-24,067	0,063	0,027
-278,701	800,000	-0,055	-0,157
-277,686	-0,100	0,056	-0,029
-276,672	-120,588	0,016	-0,002
-275,657	-200,000	-0,014	0,065
-274,643	326,178	-0,027	-0,038
-273,628	21,143	-0,080	-0,047
-272,613	-113,491	-0,086	0,012
-271,599	-20,633	-0,071	0,031
-270,584	-200,000	-0,008	0,143
-269,570	54,830	-0,041	0,029
-268,555	426,339	0,093	-0,145
-267,540	-10,248	-0,140	-0,067
-266,526	-87,883	-0,018	-0,004
-265,511	800,000	0,061	-0,146
-264,497	-36,758	-0,058	0,022
-263,482	542,473	0,059	0,102
-262,467	-200,000	0,011	0,143
-261,453	800,000	0,039	0,100
-260,438	800,000	-0,091	0,219
-259,424	22,411	-0,136	0,080
-258,409	40,417	0,046	0,030
-257,395	-27,916	0,110	0,046
-256,380	800,000	0,049	0,142
-255,365	161,924	0,006	-0,006
-254,351	55,658	-0,099	-0,069
-253,336	-200,000	0,014	0,075
-252,322	95,139	-0,042	-0,035
-251,307	-16,657	-0,107	0,049
-250,292	-200,000	0,020	0,145
-249,278	-200,000	-0,004	0,020
-248,263	-200,000	-0,023	0,082
-247,249	-200,000	0,006	0,124
-246,234	-107,244	-0,055	-0,009
-245,219	125,446	-0,092	-0,084
-244,205	-200,000	0,006	-0,074
-243,190	-122,496	0,127	-0,015
-242,176	78,739	-0,061	-0,047
-241,161	-200,000	-0,001	-0,003
-240,146	464,856	0,052	-0,085
-239,132	-200,000	0,002	0,063
-238,117	-146,044	-0,046	-0,003
-237,103	389,785	-0,057	-0,085
-236,088	490,245	0,072	0,119
-235,073	648,795	0,042	0,078
-234,059	-33,570	-0,119	-0,047
-233,044	-200,000	0,008	-0,137
-232,030	-200,000	-0,019	0,063
-231,015	-200,000	0,002	-0,147
-230,000	800,000	-0,112	-0,283
-228,986	114,606	0,100	-0,088
-227,971	-102,671	-0,009	-0,001
-226,957	90,083	0,140	0,113
-225,942	800,000	-0,054	0,123
-224,927	-80,735	-0,121	0,029
-223,913	237,188	0,108	0,129
-222,898	-200,000	0,029	-0,117
-221,884	800,000	-0,039	0,091
-220,869	-31,107	0,108	0,044
-219,855	-200,000	0,005	0,106
-218,840	607,385	-0,086	0,155
-217,825	-80,420	0,086	-0,021
-216,811	2,796	-0,050	0,026
-215,796	800,000	-0,029	-0,069
-214,782	-112,769	-0,051	-0,007
-213,767	-200,000	0,000	0,076
-212,752	135,034	0,064	-0,060
-211,738	-58,008	0,074	-0,023
-210,723	-200,000	-0,026	0,192
-209,709	-24,532	0,077	0,033
-208,694	800,000	-0,035	-0,079
-207,679	-172,869	0,011	0,000
-206,665	-200,000	0,008	0,126
-205,650	-200,000	0,030	0,166
-204,636	-107,719	0,100	0,016
-203,621	-200,000	0,008	0,108
-202,606	384,928	0,094	-0,141
-201,592	-60,743	-0,094	0,029
-200,577	-200,000	0,007	0,025
-199,563	-8,565	-0,070	-0,034
-198,548	-74,358	0,197	0,051
-197,533	-200,000	0,007	-0,086
-196,519	-200,000	-0,078	-0,000
-195,504	85,371	-0,093	-0,073
-194,490	15,811	-0,146	0,083
-193,475	-58,601	-0,040	0,012
-192,460	-19,449	-0,030	0,013
-191,446	414,954	0,099	-0,152
-190,431	-200,000	0,023	-0,096
-189,417	-177,453	-0,077	0,001
-188,402	11,652	-0,099	0,054
-187,387	-200,000	0,008	-0,041
-186,373	800,000	-0,047	-0,120
-185,358	24,128	0,055	0,032
-184,344	-23,749	0,047	0,020
-183,329	-154,336	-0,092	-0,004
-182,315	-77,367	0,090	-0,022
-181,300	371,643	0,047	0,069
-180,285	-40,247	-0,134	0,050
-179,271	-82,404	-0,063	-0,015
-178,256	-200,000	-0,004	-0,041
-177,242	-148,702	0,094	0,005
-176,227	-200,000	0,020	0,077
-175,212	-59,927	-0,133	0,041
-174,198	-86,684	0,055	-0,012
-173,183	53,467	0,060	0,042
-172,169	-200,000	-0,004	0,046
-171,154	70,509	0,053	-0,039
-170,139	53,816	0,055	-0,038
-169,125	-10,369	-0,068	0,033
-168,110	323,565	0,079	0,109
-167,096	-47,996	-0,068	0,024
-166,081	171,313	-0,028	0,029
-165,066	282,057	-0,054	0,070
-164,052	226,778	-0,040	0,046
-163,037	800,000	-0,019	0,047
-162,023	-42,956	-0,070	-0,026
-161,008	800,000	0,021	-0,048
-159,993	-130,124	-0,085	-0,008
-158,979	-91,447	0,065	0,013
-157,964	-21,430	0,044	0,019
-156,950	53,645	0,058	-0,040
-155,935	-74,736	0,014	-0,004
-154,920	511,253	0,021	0,035
-153,906	-0,390	0,059	-0,030
-152,891	800,000	0,047	-0,096
-151,877	-154,746	-0,068	0,003
-150,862	49,287	-0,090	-0,061
-149,847	162,809	-0,011	0,011
-148,833	800,000	0,037	-0,114
-147,818	-200,000	-0,002	0,039
-146,804	338,982	0,029	0,041
-145,789	800,000	0,067	-0,197
-144,775	286,825	-0,055	-0,072
-143,760	469,214	-0,022	-0,036
-142,745	-200,000	0,027	-0,130
-141,731	-200,000	0,004	0,013
-140,716	800,000	0,034	0,103
-139,702	405,671	0,050	-0,076
-138,687	-128,837	0,097	-0,010
-137,672	17,181	0,043	0,025
-136,658	197,985	-0,043	-0,047
-135,643	800,000	0,040	-0,116
-134,629	470,224	-0,035	0,056
-133,614	-200,000	0,032	-0,154
-132,599	494,505	0,022	-0,037
-131,585	-23,559	0,067	-0,029
-130,570	-191,667	-0,198	-0,001
-129,556	-142,625	-0,082	0,006
-128,541	-200,000	0,022	-0,205
-127,526	-131,292	0,145	-0,014
-126,512	403,718	-0,048	0,073
-125,497	-43,276	0,032	-0,011
-124,483	-137,487	-0,067	-0,005
-123,468	150,685	-0,036	-0,035
-122,453	168,620	-0,181	-0,186
-121,439	-200,000	-0,009	0,033
-120,424	-187,437	0,112	-0,001
