DTS Sentinel unit serial number:	SN410029Multiplexer serial number:	ORYXHardware model number:	OX2-SRSoftware version number:	ORYX F/W v4,00 Oryx Data Collector v3.7.2.0data status	okinstallation	B5 Nyhavnadifferential loss correction	single-endedforward channel	channel 2reverse channel	N/Adate	2023/12/12time	18:17:13forward acquisition time	300,00reverse acquisition time	0,00gamma	499,1914k internal	0,3156k external	0,3156temperature offset calibration	1,0000default loss term (dB/km)	0,3820temperature slope calibration	1,0000multiplexer offset coefficient	1,0000multiplexer slope coefficient	1,0000fibre end	0,00T internal ref (°C)	15,62T ext. ref 1 (°C)	-0,84T ext. ref 2 (°C)	-1,14length (m)	temperature (°C)	Stokes	anti-Stokes-744,400	71,692	0,128	0,098
-743,385	-71,532	-0,379	0,104
-742,371	184,075	0,111	0,121
-741,356	-174,523	-0,353	0,007
-740,342	-200,000	-0,004	0,055
-739,327	-73,328	-0,218	0,058
-738,312	400,474	-0,069	-0,107
-737,298	-139,377	-0,287	-0,022
-736,283	-200,000	0,024	0,090
-735,269	-10,031	-0,181	0,088
-734,254	-200,000	-0,010	-0,103
-733,239	-25,788	-0,400	-0,173
-732,225	-91,722	0,171	-0,036
-731,210	800,000	-0,047	0,101
-730,196	-113,158	0,124	-0,018
-729,181	-102,777	-0,051	-0,009
-728,167	57,918	-0,028	0,020
-727,152	-200,000	0,011	0,078
-726,137	313,096	-0,070	-0,097
-725,123	800,000	-0,039	-0,081
-724,108	0,965	-0,095	-0,050
-723,094	-200,000	0,012	-0,150
-722,079	11,562	-0,072	0,041
-721,064	800,000	0,049	-0,121
-720,050	25,357	-0,101	-0,062
-719,035	-200,000	-0,002	0,075
-718,021	-44,311	0,085	-0,031
-717,006	42,164	-0,034	-0,023
-715,991	-14,976	-0,095	-0,045
-714,977	-200,000	0,016	-0,103
-713,962	16,936	-0,120	-0,070
-712,948	-163,516	-0,074	-0,003
-711,933	800,000	0,042	0,085
-710,918	-108,176	-0,069	-0,011
-709,904	247,201	-0,081	-0,100
-708,889	-14,468	-0,087	-0,041
-707,875	-140,209	-0,148	-0,011
-706,860	-200,000	-0,007	-0,080
-705,845	-84,052	0,096	-0,022
-704,831	255,507	0,097	0,122
-703,816	636,261	0,032	0,061
-702,802	56,602	-0,129	0,092
-701,787	-41,785	0,054	-0,020
-700,772	800,000	0,046	-0,108
-699,758	-121,635	-0,056	0,007
-698,743	-200,000	0,004	0,078
-697,729	19,913	-0,096	-0,057
-696,714	-107,363	-0,116	0,019
-695,699	-200,000	-0,012	0,061
-694,685	244,358	-0,045	-0,056
-693,670	-200,000	0,005	-0,173
-692,656	-200,000	0,006	-0,044
-691,641	800,000	-0,042	0,115
-690,627	-200,000	-0,001	0,023
-689,612	347,573	-0,068	-0,099
-688,597	-3,308	0,055	0,028
-687,583	-107,528	-0,163	-0,026
-686,568	181,165	-0,023	-0,024
-685,554	358,250	-0,049	-0,072
-684,539	149,945	0,097	0,097
-683,524	775,362	-0,032	0,066
-682,510	-200,000	-0,008	0,070
-681,495	141,532	-0,032	-0,031
-680,481	-200,000	-0,020	-0,118
-679,466	-169,480	-0,051	-0,001
-678,451	95,114	-0,133	-0,111
-677,437	-159,498	0,114	-0,005
-676,422	-15,683	0,041	-0,019
-675,408	800,000	-0,047	0,109
-674,393	38,859	-0,026	-0,017
-673,378	-200,000	-0,020	-0,087
-672,364	800,000	-0,028	0,072
-671,349	26,074	0,033	-0,020
-670,335	-66,212	-0,042	-0,012
-669,320	-200,000	0,006	0,131
-668,305	-200,000	0,010	0,054
-667,291	157,195	-0,021	0,021
-666,276	277,799	-0,056	0,074
-665,262	61,966	-0,055	-0,040
-664,247	33,805	-0,139	0,089
-663,232	-200,000	-0,056	0,000
-662,218	759,332	-0,067	0,135
-661,203	-200,000	0,018	0,114
-660,189	-150,564	0,063	0,004
-659,174	153,854	-0,058	0,058
-658,159	-115,259	0,016	0,002
-657,145	800,000	-0,037	-0,077
-656,130	624,482	0,051	0,094
-655,116	800,000	0,029	-0,066
-654,101	800,000	-0,026	0,068
-653,086	85,441	0,078	-0,063
-652,072	-200,000	0,006	0,022
-651,057	-114,600	-0,081	0,011
-650,043	-200,000	0,037	-0,161
-649,028	257,513	0,044	0,055
-648,014	-200,000	-0,001	0,028
-646,999	-68,754	0,103	0,029
-645,984	423,020	-0,016	0,026
-644,970	-200,000	-0,020	0,092
-643,955	-200,000	-0,002	-0,047
-642,941	-154,107	-0,171	-0,008
-641,926	-200,000	-0,026	-0,113
-640,911	33,839	0,085	-0,054
-639,897	-200,000	0,009	0,102
-638,882	-8,008	-0,043	0,021
-637,868	115,808	-0,058	-0,052
-636,853	-75,044	0,074	-0,019
-635,838	23,038	-0,193	-0,116
-634,824	800,000	-0,047	-0,116
-633,809	-78,705	0,133	-0,033
-632,795	-107,238	0,164	0,026
-631,780	396,806	-0,042	-0,065
-630,765	287,785	-0,064	-0,086
-629,751	169,894	-0,096	0,101
-628,736	-96,326	-0,133	-0,026
-627,722	-78,654	0,025	0,006
-626,707	-200,000	-0,021	0,081
-625,692	280,213	0,128	0,169
-624,678	204,686	-0,041	0,047
-623,663	-200,000	-0,018	0,064
-622,649	-200,000	-0,028	-0,091
-621,634	-122,372	-0,092	-0,011
-620,619	114,698	-0,082	-0,074
-619,605	108,434	0,091	-0,080
-618,590	-200,000	-0,015	-0,062
-617,576	-200,000	-0,022	-0,082
-616,561	351,838	0,014	-0,020
-615,546	679,577	-0,097	0,186
-614,532	74,837	-0,065	0,050
-613,517	-41,313	-0,020	-0,007
-612,503	34,114	-0,091	0,058
-611,488	-109,523	-0,067	-0,010
-610,474	362,130	0,032	-0,047
-609,459	480,595	0,043	-0,072
-608,444	800,000	-0,051	-0,113
-607,430	-135,062	0,079	-0,007
-606,415	-200,000	-0,027	-0,121
-605,401	-200,000	0,026	-0,102
-604,386	-200,000	0,004	0,087
-603,371	51,969	-0,056	-0,039
-602,357	-7,572	0,135	0,067
-601,342	732,853	-0,065	0,127
-600,328	-200,000	0,004	-0,021
-599,313	42,016	-0,075	-0,050
-598,298	95,538	-0,106	-0,089
-597,284	43,121	0,073	0,049
-596,269	211,314	-0,070	-0,081
-595,255	117,831	0,108	0,098
-594,240	-200,000	-0,025	-0,144
-593,225	-200,000	-0,031	-0,153
-592,211	-10,907	-0,117	-0,056
-591,196	128,479	-0,050	0,047
-590,182	43,363	0,096	0,064
-589,167	-200,000	0,009	-0,161
-588,152	-27,858	-0,107	0,045
-587,138	800,000	-0,008	-0,019
-586,123	742,844	0,035	-0,070
-585,109	216,247	-0,045	-0,052
-584,094	-200,000	0,015	-0,174
-583,079	-82,830	-0,179	-0,042
-582,065	-200,000	0,017	-0,058
-581,050	-34,490	-0,035	-0,014
-580,036	-26,942	0,031	-0,013
-579,021	-55,000	-0,117	-0,038
-578,006	312,617	-0,121	-0,167
-576,992	-107,726	-0,063	0,010
-575,977	-97,493	-0,046	-0,009
-574,963	-40,253	0,057	0,022
-573,948	59,532	-0,069	0,050
-572,934	-30,931	0,145	-0,060
-571,919	-172,549	-0,065	-0,001
-570,904	-200,000	0,003	0,009
-569,890	425,622	0,023	0,037
-568,875	-200,000	0,003	-0,039
-567,861	-124,862	-0,092	0,010
-566,846	73,130	0,101	0,077
-565,831	800,000	0,038	0,100
-564,817	-79,666	-0,187	0,046
-563,802	-200,000	0,020	-0,142
-562,788	261,609	-0,049	-0,063
-561,773	10,624	-0,098	0,054
-560,758	248,873	-0,124	-0,154
-559,744	21,076	-0,020	0,012
-558,729	-200,000	-0,022	0,079
-557,715	-9,143	0,100	0,049
-556,700	-154,966	-0,101	0,005
-555,685	370,178	0,040	-0,059
-554,671	-156,232	-0,087	-0,004
-553,656	58,513	0,051	-0,036
-552,642	800,000	0,025	0,073
-551,627	-56,530	0,046	0,015
-550,612	-178,681	-0,155	0,003
-549,598	-121,595	0,081	0,010
-548,583	199,010	-0,019	0,021
-547,569	-200,000	0,028	0,249
-546,554	800,000	-0,003	0,007
-545,539	95,978	-0,043	0,036
-544,525	-89,578	-0,102	-0,022
-543,510	-200,000	-0,014	-0,076
-542,496	-123,240	-0,208	-0,024
-541,481	-200,000	0,007	-0,176
-540,466	-119,178	0,134	-0,017
-539,452	800,000	0,046	-0,119
-538,437	254,133	0,131	0,164
-537,423	37,998	0,047	0,031
-536,408	-114,021	0,024	-0,003
-535,393	174,270	-0,105	-0,111
-534,379	329,003	0,027	-0,037
-533,364	378,411	0,078	0,118
-532,350	-144,182	-0,084	0,006
-531,335	165,296	0,064	-0,067
-530,321	-200,000	0,004	0,042
-529,306	-77,921	0,014	-0,004
-528,291	99,414	-0,069	-0,058
-527,277	800,000	0,045	-0,133
-526,262	313,120	0,059	-0,081
-525,248	322,500	-0,036	0,050
-524,233	18,294	0,108	0,063
-523,218	121,837	0,048	0,043
-522,204	45,237	-0,101	0,068
-521,189	576,017	-0,046	-0,082
-520,175	-77,380	-0,047	0,012
-519,160	117,569	-0,076	0,068
-518,145	73,714	0,050	-0,038
-517,131	-49,667	0,103	-0,036
-516,116	95,339	-0,044	0,036
-515,102	125,502	0,043	-0,039
-514,087	130,619	-0,044	0,042
-513,072	-77,934	-0,103	0,026
-512,058	800,000	-0,017	0,039
-511,043	-44,499	-0,046	0,017
-510,029	-86,555	0,043	-0,010
-509,014	-134,953	0,067	0,006
-507,999	217,724	-0,060	0,070
-506,985	707,509	0,022	0,044
-505,970	464,905	-0,105	-0,172
-504,956	167,328	0,051	0,053
-503,941	-28,547	0,111	-0,046
-502,926	79,618	0,123	0,096
-501,912	415,864	0,047	-0,073
-500,897	629,419	0,046	0,085
-499,883	175,901	-0,050	0,053
-498,868	-200,000	-0,027	0,101
-497,853	-63,615	-0,108	0,032
-496,839	800,000	0,034	0,089
-495,824	-95,193	0,093	-0,018
-494,810	-48,622	-0,067	0,023
-493,795	113,188	-0,022	-0,020
-492,781	-4,024	-0,081	0,041
-491,766	-200,000	0,006	-0,127
-490,751	-101,896	-0,112	-0,019
-489,737	800,000	0,049	-0,143
-488,722	34,194	0,094	0,060
-487,708	-168,397	0,128	-0,004
-486,693	-200,000	-0,013	0,096
-485,678	-200,000	-0,008	0,030
-484,664	-200,000	-0,022	0,198
-483,649	-108,153	-0,075	0,012
-482,635	-200,000	0,030	0,159
-481,620	54,217	-0,028	-0,020
-480,605	-200,000	0,032	-0,122
-479,591	31,483	-0,069	-0,043
-478,576	800,000	0,029	0,086
-477,562	-200,000	0,013	0,043
-476,547	165,487	0,045	-0,046
-475,532	110,530	-0,046	-0,041
-474,518	-200,000	0,007	-0,141
-473,503	-75,402	-0,013	-0,003
-472,489	152,315	0,083	-0,082
-471,474	267,580	0,051	0,065
-470,459	-72,130	-0,059	-0,016
-469,445	-24,766	-0,078	-0,034
-468,430	-200,000	0,000	-0,102
-467,416	-95,672	0,030	-0,006
-466,401	-200,000	0,001	0,121
-465,386	-166,942	-0,102	-0,003
-464,372	800,000	0,003	-0,006
-463,357	-200,000	-0,003	-0,026
-462,343	-109,412	-0,174	0,027
-461,328	214,359	-0,031	-0,036
-460,313	-200,000	0,012	-0,041
-459,299	-1,026	0,159	0,082
-458,284	-95,942	0,099	-0,019
-457,270	288,681	-0,061	-0,081
-456,255	548,219	0,023	-0,040
-455,241	-200,000	0,006	-0,081
-454,226	-200,000	-0,006	-0,078
-453,211	411,861	0,039	-0,061
-452,197	-200,000	-0,021	0,145
-451,182	-101,165	0,160	-0,028
-450,168	8,034	0,059	-0,032
-449,153	-200,000	-0,009	0,090
-448,138	-62,817	-0,072	0,022
-447,124	800,000	0,047	0,147
-446,109	800,000	-0,042	-0,110
-445,095	-117,006	-0,101	-0,013
-444,080	251,711	-0,068	-0,085
-443,065	-200,000	-0,002	-0,083
-442,051	800,000	0,032	0,069
-441,036	-200,000	0,015	-0,139
-440,022	122,544	0,059	-0,054
-439,007	187,808	0,072	0,078
-437,992	800,000	0,059	0,132
-436,978	36,743	-0,040	-0,026
-435,963	36,573	-0,062	0,040
-434,949	569,528	-0,054	-0,096
-433,934	-22,017	-0,029	-0,013
-432,919	497,058	-0,050	0,085
-431,905	-2,650	-0,047	-0,024
-430,890	185,672	-0,061	-0,066
-429,876	-143,279	0,103	0,007
-428,861	526,105	0,027	0,047
-427,846	157,838	0,015	0,015
-426,832	-97,949	-0,082	-0,015
-425,817	439,258	-0,036	0,057
-424,803	-200,000	0,021	-0,109
-423,788	800,000	-0,018	-0,057
-422,773	-200,000	0,016	-0,082
-421,759	-200,000	0,009	0,097
-420,744	-22,051	0,037	-0,016
-419,730	-26,667	-0,113	-0,048
-418,715	389,625	-0,028	0,043
-417,701	-49,571	0,112	-0,039
-416,686	53,907	0,028	-0,020
-415,671	800,000	0,029	-0,070
-414,657	32,993	-0,077	0,048
-413,642	-105,314	-0,063	-0,010
-412,628	-166,310	-0,095	0,003
-411,613	388,722	0,026	0,039
-410,598	800,000	0,034	0,094
-409,584	649,432	0,068	0,128
-408,569	122,274	0,096	0,087
-407,555	-200,000	0,006	-0,152
-406,540	-120,515	-0,120	-0,015
-405,525	236,287	-0,101	0,122
-404,511	415,163	-0,003	-0,005
-403,496	638,153	-0,067	0,125
-402,482	13,583	0,107	-0,061
-401,467	-200,000	-0,004	-0,031
-400,452	800,000	-0,021	0,052
-399,438	786,002	0,086	0,173
-398,423	-154,790	0,099	-0,005
-397,409	428,338	-0,051	-0,080
-396,394	-200,000	-0,010	-0,130
-395,379	-53,820	0,151	-0,050
-394,365	198,330	-0,083	-0,092
-393,350	-47,547	-0,023	0,008
-392,336	800,000	0,032	0,073
-391,321	-171,689	-0,067	0,002
-390,306	-200,000	0,013	0,174
-389,292	95,469	-0,124	0,103
-388,277	17,057	0,037	-0,021
-387,263	-18,234	0,107	0,049
-386,248	23,405	-0,012	-0,007
-385,233	194,791	-0,049	0,054
-384,219	51,279	-0,060	0,042
-383,204	779,907	-0,044	0,088
-382,190	-131,249	-0,124	-0,012
-381,175	225,753	0,030	-0,036
-380,160	136,698	0,099	-0,094
-379,146	-200,000	-0,018	0,074
-378,131	-200,000	-0,010	0,061
-377,117	-33,443	0,078	0,031
-376,102	-109,661	0,148	-0,022
-375,088	-200,000	-0,008	-0,038
-374,073	-21,935	0,091	-0,040
-373,058	-104,201	0,044	-0,007
-372,044	-5,556	0,068	0,034
-371,029	-5,443	-0,121	0,060
-370,015	112,957	0,142	-0,125
-369,000	270,337	0,058	-0,074
-367,985	202,010	-0,118	-0,132
-366,971	-200,000	-0,034	-0,136
-365,956	26,228	0,044	-0,026
-364,942	274,708	0,042	0,054
-363,927	68,878	-0,033	-0,024
-362,912	182,069	0,058	-0,062
-361,898	-142,875	-0,136	-0,009
-360,883	800,000	-0,048	-0,100
-359,869	-200,000	0,022	0,099
-358,854	800,000	0,029	0,058
-357,839	-188,204	0,078	0,001
-356,825	88,893	-0,019	-0,015
-355,810	69,137	0,071	-0,053
-354,796	-32,654	-0,011	0,004
-353,781	-200,000	0,037	-0,150
-352,766	356,025	-0,036	-0,052
-351,752	-200,000	-0,045	-0,176
-350,737	74,155	0,075	0,057
-349,723	129,977	0,054	0,050
-348,708	329,425	0,051	0,072
-347,693	607,160	0,078	0,141
-346,679	245,449	-0,110	0,135
-345,664	282,827	0,029	0,038
-344,650	424,915	0,045	-0,071
-343,635	-13,924	-0,217	0,101
-342,620	730,794	0,038	0,074
-341,606	-57,063	0,138	-0,044
-340,591	21,351	-0,016	0,010
-339,577	-200,000	-0,020	-0,073
-338,562	800,000	-0,043	-0,129
-337,548	-200,000	-0,017	0,085
-336,533	-164,294	-0,144	-0,005
-335,518	31,377	0,097	0,061
-334,504	-75,306	0,091	0,023
-333,489	-200,000	-0,001	-0,045
-332,475	-34,430	-0,059	-0,023
-331,460	-200,000	-0,017	0,119
-330,445	-60,123	-0,028	0,008
-329,431	-200,000	-0,005	-0,056
-328,416	-200,000	0,005	-0,061
-327,402	87,704	-0,045	-0,036
-326,387	36,462	-0,059	-0,038
-325,372	-200,000	0,030	-0,137
-324,358	-143,366	-0,056	0,004
-323,343	-200,000	0,001	-0,112
-322,329	90,477	0,095	-0,077
-321,314	800,000	-0,031	0,070
-320,299	-200,000	-0,011	0,106
-319,285	184,576	0,065	0,070
-318,270	-53,197	0,084	-0,028
-317,256	800,000	-0,046	-0,144
-316,241	257,709	-0,017	-0,021
-315,226	-77,108	-0,027	-0,007
-314,212	-119,117	0,019	-0,002
-313,197	800,000	0,044	0,106
-312,183	800,000	-0,022	0,053
-311,168	-168,723	0,091	-0,002
-310,153	-45,919	-0,062	-0,022
-309,139	-200,000	-0,001	0,073
-308,124	-200,000	0,004	0,063
-307,110	137,196	0,143	0,136
-306,095	-27,775	0,099	0,041
-305,080	-200,000	0,018	0,108
-304,066	-38,755	-0,065	0,025
-303,051	-10,106	0,104	-0,050
-302,037	-200,000	-0,019	-0,143
-301,022	-76,826	0,068	-0,017
-300,008	-200,000	-0,001	0,046
-298,993	-200,000	0,036	0,116
-297,978	-91,368	0,039	-0,008
-296,964	-200,000	-0,005	-0,227
-295,949	105,285	0,041	0,035
-294,935	-65,583	-0,058	0,017
-293,920	147,171	0,069	0,068
-292,905	314,359	-0,038	-0,052
-291,891	-51,242	0,083	0,028
-290,876	-87,468	0,129	0,028
-289,862	800,000	-0,041	0,128
-288,847	-200,000	-0,000	0,071
-287,832	226,131	-0,088	-0,103
-286,818	113,048	-0,070	-0,061
-285,803	163,331	-0,014	0,014
-284,789	-59,351	0,040	0,012
-283,774	-66,792	0,104	0,030
-282,759	45,752	0,093	0,062
-281,745	-200,000	0,007	-0,090
-280,730	-200,000	0,001	-0,043
-279,716	-200,000	-0,017	-0,119
-278,701	-84,178	0,035	0,008
-277,686	0,388	0,025	-0,013
-276,672	800,000	0,066	0,144
-275,657	41,869	0,122	0,080
-274,643	6,695	-0,078	0,042
-273,628	-200,000	-0,009	-0,063
-272,613	-200,000	0,006	0,062
-271,599	-102,978	-0,085	-0,015
-270,584	-200,000	-0,015	-0,071
-269,570	48,285	-0,086	0,058
-268,555	-200,000	0,002	0,072
-267,540	-13,904	-0,092	0,043
-266,526	293,264	-0,074	-0,098
-265,511	-85,287	0,073	-0,016
-264,497	114,062	-0,045	0,040
-263,482	-26,549	0,070	-0,030
-262,467	-200,000	0,009	0,034
-261,453	-12,701	-0,029	-0,013
-260,438	78,550	-0,050	0,038
-259,424	-45,687	0,059	0,021
-258,409	-16,380	0,107	-0,049
-257,395	-200,000	0,011	0,048
-256,380	-51,245	-0,065	-0,022
-255,365	-73,660	0,096	-0,025
-254,351	-58,636	0,012	-0,004
-253,336	-200,000	0,010	0,081
-252,322	10,970	0,123	-0,068
-251,307	800,000	-0,043	-0,123
-250,292	-200,000	0,013	-0,084
-249,278	-182,787	0,063	0,001
-248,263	127,787	0,178	0,164
-247,249	-200,000	-0,017	0,178
-246,234	-200,000	-0,002	0,036
-245,219	382,728	0,075	0,111
-244,205	128,114	0,112	0,103
-243,190	36,762	0,113	-0,072
-242,176	75,776	-0,042	0,032
-241,161	-22,451	0,177	-0,077
-240,146	399,494	-0,049	-0,075
-239,132	399,139	-0,056	-0,085
-238,117	-200,000	0,035	-0,122
-237,103	-61,174	-0,082	-0,025
-236,088	-5,027	0,068	0,034
-235,073	784,007	-0,040	-0,080
-234,059	-101,268	0,116	0,020
-233,044	-200,000	0,000	0,012
-232,030	-55,658	0,017	0,005
-231,015	398,497	0,021	-0,032
-230,000	-200,000	-0,014	0,051
-228,986	-200,000	0,002	-0,030
-227,971	800,000	0,037	0,116
-226,957	-139,272	0,140	0,011
-225,942	-106,412	-0,069	-0,011
-224,927	360,557	0,028	0,041
-223,913	241,768	-0,030	-0,037
-222,898	51,220	-0,151	-0,103
-221,884	-200,000	0,034	0,149
-220,869	-4,890	0,089	0,044
-219,855	-200,000	-0,018	0,126
-218,840	105,355	-0,051	-0,044
-217,825	127,150	-0,055	0,051
-216,811	19,775	0,050	-0,029
-215,796	99,579	-0,020	0,016
-214,782	-54,822	-0,128	0,042
-213,767	-200,000	0,022	0,100
-212,752	381,754	0,103	0,153
-211,738	120,420	0,044	0,040
-210,723	329,695	-0,058	0,080
-209,709	-14,220	-0,099	-0,046
-208,694	99,817	-0,050	-0,042
-207,679	800,000	0,017	-0,042
-206,665	308,447	0,101	0,136
-205,650	-155,955	0,023	-0,001
-204,636	-61,336	-0,061	0,018
-203,621	331,016	0,094	0,131
-202,606	-200,000	-0,013	0,082
-201,592	-32,184	-0,142	0,057
-200,577	-200,000	-0,022	-0,105
-199,563	394,124	0,010	-0,016
-198,548	-14,933	-0,081	0,037
-197,533	-12,332	0,034	-0,016
-196,519	516,346	0,035	0,059
-195,504	800,000	0,062	0,138
-194,490	149,315	0,120	0,117
-193,475	221,202	-0,047	0,055
-192,460	-200,000	0,031	-0,154
-191,446	22,267	-0,021	0,012
-190,431	-88,553	0,078	-0,017
-189,417	-200,000	0,008	0,140
-188,402	-200,000	0,003	-0,064
-187,387	-200,000	0,001	-0,035
-186,373	19,387	-0,127	-0,073
-185,358	-93,851	-0,134	-0,026
-184,344	49,251	0,056	-0,038
-183,329	-200,000	0,014	0,094
-182,315	745,338	0,070	0,137
-181,300	217,403	-0,039	0,045
-180,285	-200,000	0,014	-0,059
-179,271	579,670	-0,055	-0,097
-178,256	45,878	-0,123	0,082
-177,242	-200,000	-0,033	-0,107
-176,227	-138,680	0,031	-0,002
-175,212	-152,186	-0,011	0,001
-174,198	87,493	-0,032	-0,025
-173,183	107,696	0,127	0,109
-172,169	-56,855	-0,114	0,036
-171,154	708,714	0,070	-0,134
-170,139	85,137	0,103	-0,082
-169,125	-190,440	0,049	0,000
-168,110	800,000	-0,021	0,044
-167,096	-83,110	-0,055	-0,013
-166,081	-21,122	-0,099	-0,044
-165,066	800,000	-0,007	-0,019
-164,052	-127,951	-0,097	0,010
-163,037	75,814	0,058	0,044
-162,023	-29,055	0,146	-0,060
-161,008	-200,000	0,020	-0,074
-159,993	18,736	-0,104	-0,060
-158,979	302,597	-0,034	-0,045
-157,964	-188,949	0,033	-0,000
-156,950	-185,230	0,134	-0,001
-155,935	-144,509	0,093	-0,006
-154,920	-59,806	-0,059	-0,018
-153,906	-2,900	-0,027	0,014
-152,891	148,306	0,107	0,104
-151,877	-57,231	0,111	0,035
-150,862	554,032	-0,034	0,060
-149,847	127,900	-0,052	0,048
-148,833	277,965	0,039	0,051
-147,818	-52,559	0,083	-0,027
-146,804	800,000	0,036	0,086
-145,789	-153,703	0,041	-0,002
-144,775	5,778	0,061	-0,032
-143,760	-20,615	0,079	-0,035
-142,745	-82,723	-0,060	-0,014
-141,731	245,551	0,042	0,051
-140,716	192,329	0,086	-0,094
-139,702	-98,930	-0,017	0,003
-138,687	-200,000	-0,002	0,028
-137,672	123,667	0,034	-0,031
-136,658	141,588	-0,080	0,076
-135,643	3,131	-0,044	-0,023
-134,629	-200,000	-0,037	-0,223
-133,614	15,667	-0,020	0,011
-132,599	64,727	0,033	0,024
-131,585	-27,557	0,043	0,018
-130,570	-136,829	-0,068	-0,006
-129,556	-200,000	-0,041	-0,169
-128,541	-68,734	0,136	-0,038
-127,526	-58,222	0,039	-0,012
-126,512	-68,527	0,070	0,019
-125,497	-8,813	0,039	-0,019
-124,483	187,802	0,039	-0,042
-123,468	-200,000	-0,032	-0,111
-122,453	800,000	-0,027	-0,057
-121,439	16,277	-0,116	0,066
-120,424	648,356	0,061	-0,112
