DTS Sentinel unit serial number:	SN410029Multiplexer serial number:	ORYXHardware model number:	OX2-SRSoftware version number:	ORYX F/W v4,00 Oryx Data Collector v3.7.2.0data status	okinstallation	B5 Nyhavnadifferential loss correction	single-endedforward channel	channel 2reverse channel	N/Adate	2023/12/12time	16:47:13forward acquisition time	300,00reverse acquisition time	0,00gamma	499,1914k internal	0,3156k external	0,3156temperature offset calibration	1,0000default loss term (dB/km)	0,3820temperature slope calibration	1,0000multiplexer offset coefficient	1,0000multiplexer slope coefficient	1,0000fibre end	0,00T internal ref (°C)	15,81T ext. ref 1 (°C)	-0,74T ext. ref 2 (°C)	-1,04length (m)	temperature (°C)	Stokes	anti-Stokes-744,400	-105,828	0,117	0,019
-743,385	-157,368	-0,301	0,013
-742,371	-200,000	0,020	0,102
-741,356	-112,954	-0,335	-0,048
-740,342	-177,060	0,100	0,002
-739,327	-162,055	-0,261	-0,010
-738,312	-133,968	-0,049	0,004
-737,298	-155,808	-0,488	-0,023
-736,283	-33,292	0,063	0,026
-735,269	-55,176	-0,311	0,103
-734,254	-127,569	0,094	0,010
-733,239	-70,707	-0,473	-0,131
-732,225	32,723	0,117	0,075
-731,210	-200,000	0,014	0,064
-730,196	-200,000	-0,006	-0,079
-729,181	33,065	-0,039	-0,025
-728,167	480,370	-0,059	-0,099
-727,152	-34,478	-0,125	0,050
-726,137	631,687	0,020	-0,037
-725,123	-200,000	-0,024	-0,084
-724,108	-52,912	-0,062	-0,021
-723,094	-200,000	-0,005	-0,068
-722,079	-63,024	0,061	0,018
-721,064	-58,390	0,012	-0,004
-720,050	-55,692	-0,086	0,028
-719,035	-104,989	-0,035	0,006
-718,021	-200,000	0,001	0,083
-717,006	-130,257	-0,070	0,007
-715,991	101,994	0,050	-0,043
-714,977	199,063	0,074	0,083
-713,962	-61,258	-0,073	0,023
-712,948	19,946	0,055	-0,033
-711,933	-200,000	0,038	-0,194
-710,918	508,088	-0,038	0,065
-709,904	735,239	-0,039	-0,078
-708,889	-30,498	-0,112	0,047
-707,875	161,472	-0,109	-0,112
-706,860	-200,000	0,020	0,095
-705,845	-87,318	0,069	0,015
-704,831	800,000	0,007	-0,017
-703,816	511,161	0,010	0,016
-702,802	207,071	-0,079	-0,091
-701,787	-200,000	0,001	-0,133
-700,772	131,388	-0,038	-0,036
-699,758	204,016	0,092	-0,105
-698,743	-71,387	-0,080	0,022
-697,729	-30,287	-0,039	-0,016
-696,714	-77,673	-0,116	-0,029
-695,699	491,064	-0,057	0,096
-694,685	-153,015	-0,189	-0,010
-693,670	326,070	0,042	-0,059
-692,656	-200,000	-0,019	-0,136
-691,641	16,044	0,033	-0,019
-690,627	315,377	-0,046	0,063
-689,612	800,000	0,035	-0,099
-688,597	-200,000	-0,034	0,110
-687,583	-123,446	-0,076	-0,009
-686,568	647,050	0,033	0,061
-685,554	800,000	-0,020	-0,050
-684,539	-200,000	0,008	-0,139
-683,524	47,093	0,057	0,039
-682,510	-40,410	0,064	-0,024
-681,495	-146,830	-0,115	0,007
-680,481	-200,000	0,025	-0,097
-679,466	-1,031	0,079	-0,041
-678,451	-90,355	-0,080	0,017
-677,437	-200,000	0,035	-0,180
-676,422	-200,000	-0,020	0,077
-675,408	330,060	0,022	0,032
-674,393	800,000	-0,016	-0,048
-673,378	375,561	0,060	-0,090
-672,364	-39,222	-0,060	-0,023
-671,349	800,000	-0,034	-0,105
-670,335	800,000	-0,040	-0,083
-669,320	-71,038	0,106	-0,029
-668,305	29,174	-0,061	-0,038
-667,291	108,859	-0,093	0,082
-666,276	0,851	-0,080	-0,042
-665,262	-200,000	-0,020	-0,180
-664,247	-155,792	0,056	0,003
-663,232	-83,502	-0,034	0,008
-662,218	-161,865	-0,015	-0,001
-661,203	-200,000	-0,005	0,066
-660,189	-30,639	0,030	-0,012
-659,174	47,532	-0,112	-0,077
-658,159	-39,552	-0,061	0,023
-657,145	-124,943	-0,128	-0,014
-656,130	-9,928	0,043	-0,021
-655,116	-170,439	0,115	0,003
-654,101	-200,000	0,003	0,139
-653,086	-200,000	0,009	-0,086
-652,072	156,646	-0,050	-0,050
-651,057	498,494	-0,059	-0,101
-650,043	435,414	0,051	-0,081
-649,028	8,236	-0,089	-0,049
-648,014	-75,284	0,051	0,013
-646,999	41,258	0,047	-0,031
-645,984	789,966	0,093	0,188
-644,970	800,000	-0,006	-0,012
-643,955	215,891	0,002	0,003
-642,941	76,210	-0,040	0,031
-641,926	-141,274	0,068	-0,005
-640,911	194,252	0,038	0,043
-639,897	166,601	-0,034	0,035
-638,882	800,000	0,039	0,086
-637,868	-68,911	-0,135	0,038
-636,853	-15,236	0,052	0,024
-635,838	144,132	-0,076	-0,074
-634,824	800,000	-0,017	-0,054
-633,809	-118,047	0,109	0,014
-632,795	-200,000	-0,013	-0,047
-631,780	-200,000	-0,017	-0,155
-630,765	800,000	-0,046	-0,121
-629,751	46,155	-0,147	-0,100
-628,736	67,530	-0,115	-0,086
-627,722	-200,000	0,020	0,066
-626,707	-49,381	-0,084	-0,029
-625,692	-200,000	0,002	0,080
-624,678	-200,000	-0,003	0,020
-623,663	214,094	0,042	-0,049
-622,649	-150,564	0,139	-0,008
-621,634	29,739	-0,154	0,096
-620,619	800,000	0,040	-0,098
-619,605	-92,695	0,037	0,008
-618,590	-86,112	0,158	0,035
-617,576	71,284	-0,062	0,047
-616,561	288,223	-0,080	-0,107
-615,546	-167,591	-0,147	0,004
-614,532	-200,000	0,006	-0,151
-613,517	-180,111	-0,114	-0,002
-612,503	-2,948	-0,114	0,058
-611,488	298,804	-0,049	0,067
-610,474	-200,000	0,082	0,000
-609,459	-200,000	-0,001	0,114
-608,444	-86,247	-0,037	0,008
-607,430	-200,000	0,004	0,015
-606,415	-79,113	0,070	-0,017
-605,401	32,642	-0,063	0,040
-604,386	-79,786	0,077	0,019
-603,371	-50,826	0,159	0,055
-602,357	667,317	-0,061	-0,115
-601,342	-160,105	-0,124	0,005
-600,328	-200,000	-0,034	-0,208
-599,313	-200,000	-0,001	-0,067
-598,298	44,903	0,087	0,059
-597,284	125,745	0,097	0,090
-596,269	582,621	0,077	-0,139
-595,255	52,361	0,101	0,070
-594,240	521,894	-0,068	-0,118
-593,225	76,044	0,058	0,045
-592,211	-116,986	-0,169	0,022
-591,196	86,088	0,100	0,081
-590,182	115,647	-0,102	-0,091
-589,167	4,611	0,075	-0,040
-588,152	505,837	0,026	0,045
-587,138	52,703	0,024	-0,017
-586,123	800,000	0,008	-0,021
-585,109	153,831	-0,165	-0,165
-584,094	-200,000	-0,020	0,115
-583,079	-62,432	0,079	-0,024
-582,065	-200,000	-0,014	-0,085
-581,050	52,129	0,098	0,068
-580,036	192,000	-0,078	0,086
-579,021	-200,000	-0,024	-0,085
-578,006	74,604	-0,060	-0,046
-576,992	-200,000	0,019	-0,075
-575,977	-200,000	-0,003	0,029
-574,963	-66,953	0,066	0,019
-573,948	-45,778	-0,156	-0,056
-572,934	31,156	0,099	0,062
-571,919	800,000	0,021	-0,049
-570,904	-59,695	-0,094	0,029
-569,890	405,780	0,034	0,053
-568,875	-145,669	-0,065	-0,004
-567,861	248,326	-0,070	0,086
-566,846	-200,000	0,019	-0,067
-565,831	-24,463	-0,121	-0,052
-564,817	800,000	0,028	-0,066
-563,802	152,727	-0,065	0,065
-562,788	452,489	-0,057	0,092
-561,773	508,453	0,058	0,099
-560,758	7,511	0,072	0,040
-559,744	800,000	-0,046	-0,122
-558,729	104,906	-0,140	-0,121
-557,715	199,617	-0,073	0,082
-556,700	-200,000	0,005	-0,191
-555,685	800,000	0,014	0,038
-554,671	-200,000	-0,016	0,164
-553,656	-200,000	0,008	0,030
-552,642	284,306	-0,047	-0,062
-551,627	-200,000	-0,025	0,138
-550,612	655,438	-0,049	-0,092
-549,598	49,086	0,066	-0,045
-548,583	128,534	-0,054	0,051
-547,569	83,596	-0,101	0,080
-546,554	800,000	0,034	0,104
-545,539	-52,937	0,082	-0,027
-544,525	-200,000	-0,000	0,063
-543,510	60,454	0,033	0,024
-542,496	-176,491	0,058	0,001
-541,481	-142,682	-0,100	-0,007
-540,466	334,161	-0,061	0,087
-539,452	800,000	0,039	-0,093
-538,437	-200,000	-0,020	-0,142
-537,423	-130,606	-0,123	-0,012
-536,408	800,000	0,020	0,050
-535,393	25,938	-0,078	0,047
-534,379	482,064	0,093	-0,156
-533,364	214,784	-0,138	-0,160
-532,350	-33,151	-0,185	0,075
-531,335	-2,369	0,074	0,038
-530,321	-32,618	0,148	-0,060
-529,306	-200,000	0,012	0,078
-528,291	-163,394	0,038	-0,001
-527,277	800,000	-0,020	0,064
-526,262	-200,000	-0,015	-0,064
-525,248	-48,996	0,071	-0,025
-524,233	-72,791	0,098	-0,026
-523,218	798,127	-0,036	-0,072
-522,204	-32,690	0,038	-0,015
-521,189	333,342	0,070	-0,099
-520,175	51,876	-0,116	-0,081
-519,160	-23,451	-0,106	0,046
-518,145	800,000	0,033	0,068
-517,131	-134,273	0,102	0,009
-516,116	364,871	-0,026	0,038
-515,102	647,711	-0,033	-0,062
-514,087	800,000	-0,042	-0,127
-513,072	-60,632	0,111	0,034
-512,058	800,000	0,056	0,139
-511,043	453,729	-0,008	0,013
-510,029	-200,000	-0,016	0,136
-509,014	800,000	0,026	0,070
-507,999	-200,000	-0,008	-0,080
-506,985	366,851	-0,065	0,096
-505,970	126,879	-0,055	-0,051
-504,956	-17,312	0,065	-0,030
-503,941	15,816	0,066	-0,038
-502,926	241,057	-0,034	-0,041
-501,912	275,425	0,078	0,101
-500,897	115,930	-0,054	0,048
-499,883	-55,928	-0,092	-0,030
-498,868	367,532	-0,027	-0,039
-497,853	107,857	0,078	-0,068
-496,839	-68,839	0,046	-0,013
-495,824	26,093	0,075	-0,045
-494,810	800,000	0,056	-0,149
-493,795	27,562	0,121	0,074
-492,781	-200,000	-0,019	-0,070
-491,766	13,084	-0,094	-0,053
-490,751	55,074	-0,058	-0,041
-489,737	24,538	0,123	0,074
-488,722	-138,984	-0,097	-0,008
-487,708	-32,010	0,034	-0,014
-486,693	-200,000	0,018	0,073
-485,678	-21,271	-0,069	-0,030
-484,664	-200,000	0,025	0,140
-483,649	-158,105	0,054	-0,002
-482,635	239,814	-0,020	-0,024
-481,620	-149,470	0,093	-0,005
-480,605	-150,660	0,029	0,002
-479,591	748,575	0,069	0,137
-478,576	800,000	0,021	-0,066
-477,562	-200,000	0,017	0,065
-476,547	564,310	-0,038	-0,068
-475,532	-200,000	-0,016	-0,062
-474,518	-200,000	0,021	0,140
-473,503	162,612	0,029	0,030
-472,489	103,921	-0,059	0,051
-471,474	134,235	-0,074	0,070
-470,459	-200,000	0,033	-0,109
-469,445	92,613	-0,135	-0,111
-468,430	1,839	0,089	0,047
-467,416	51,570	0,092	0,064
-466,401	-27,034	0,097	-0,041
-465,386	800,000	0,038	-0,091
-464,372	-99,541	-0,114	-0,021
-463,357	-129,125	0,020	-0,002
-462,343	800,000	-0,047	-0,106
-461,328	-149,850	-0,033	0,002
-460,313	-200,000	0,001	0,067
-459,299	667,958	-0,062	0,118
-458,284	41,627	0,051	0,034
-457,270	-200,000	0,050	0,188
-456,255	-97,162	0,084	0,016
-455,241	102,893	-0,053	-0,045
-454,226	369,896	-0,111	0,165
-453,211	114,759	-0,015	0,014
-452,197	116,380	0,169	0,151
-451,182	63,865	-0,062	0,046
-450,168	-200,000	-0,002	0,122
-449,153	800,000	0,035	0,090
-448,138	-146,421	0,025	0,002
-447,124	203,263	-0,053	0,060
-446,109	-200,000	-0,018	-0,074
-445,095	-168,403	0,047	-0,001
-444,080	-5,595	0,050	-0,025
-443,065	800,000	0,026	0,079
-442,051	168,766	0,076	-0,079
-441,036	368,760	0,045	-0,066
-440,022	4,905	-0,072	-0,038
-439,007	-105,482	0,094	0,015
-437,992	248,361	0,075	0,093
-436,978	-77,818	0,008	-0,002
-435,963	328,264	0,045	0,063
-434,949	-200,000	-0,005	0,120
-433,934	-131,557	0,038	-0,004
-432,919	-29,512	-0,095	-0,040
-431,905	530,942	-0,041	-0,071
-430,890	-200,000	-0,012	0,111
-429,876	-75,427	0,123	0,032
-428,861	-138,916	-0,057	0,004
-427,846	-49,910	-0,084	0,029
-426,832	-192,598	-0,065	0,000
-425,817	0,608	-0,125	-0,065
-424,803	-200,000	0,018	-0,085
-423,788	15,379	0,159	0,091
-422,773	208,686	0,058	0,066
-421,759	-49,811	0,077	0,027
-420,744	-59,528	0,056	-0,017
-419,730	-198,436	0,047	0,000
-418,715	-200,000	0,048	-0,189
-417,701	-200,000	-0,016	-0,087
-416,686	800,000	0,040	0,085
-415,671	43,004	-0,018	-0,012
-414,657	119,986	0,114	0,103
-413,642	-200,000	-0,009	-0,116
-412,628	800,000	0,025	-0,067
-411,613	388,809	-0,066	0,100
-410,598	17,073	-0,091	0,052
-409,584	-115,684	-0,141	0,019
-408,569	-182,335	0,049	0,001
-407,555	-191,106	0,070	0,001
-406,540	-26,411	-0,142	0,060
-405,525	11,171	0,028	-0,015
-404,511	80,863	-0,166	-0,130
-403,496	234,480	0,090	0,108
-402,482	800,000	0,018	0,055
-401,467	-200,000	0,024	0,210
-400,452	-200,000	-0,022	0,106
-399,438	82,408	-0,113	0,089
-398,423	-200,000	0,039	-0,177
-397,409	10,442	0,006	-0,004
-396,394	478,368	0,058	0,096
-395,379	-64,264	0,092	0,027
-394,365	526,188	0,058	-0,099
-393,350	-197,881	0,134	-0,001
-392,336	5,201	0,080	-0,043
-391,321	-66,397	0,059	0,017
-390,306	-200,000	-0,031	-0,146
-389,292	753,051	-0,023	-0,045
-388,277	800,000	-0,021	0,055
-387,263	19,431	-0,110	0,064
-386,248	-200,000	-0,006	-0,102
-385,233	-144,519	0,145	0,010
-384,219	-57,676	0,123	0,039
-383,204	800,000	0,028	-0,082
-382,190	188,211	-0,048	0,052
-381,175	32,722	0,087	-0,054
-380,160	-13,788	0,083	-0,039
-379,146	800,000	-0,021	-0,045
-378,131	-49,082	0,105	0,036
-377,117	-200,000	-0,023	-0,077
-376,102	71,725	-0,097	-0,073
-375,088	-200,000	-0,005	-0,061
-374,073	112,427	0,040	0,035
-373,058	391,719	0,039	0,060
-372,044	800,000	-0,020	0,047
-371,029	-62,127	0,038	0,012
-370,015	-173,642	0,087	-0,002
-369,000	18,416	-0,179	-0,104
-367,985	800,000	-0,031	0,085
-366,971	-128,387	-0,119	0,012
-365,956	337,664	0,050	-0,071
-364,942	57,771	-0,056	0,040
-363,927	800,000	0,043	0,111
-362,912	800,000	0,020	0,051
-361,898	-200,000	0,001	-0,120
-360,883	161,242	-0,145	-0,148
-359,869	646,085	0,034	0,064
-358,854	-40,773	0,115	-0,043
-357,839	3,346	0,011	0,006
-356,825	-9,013	-0,057	-0,028
-355,810	-200,000	-0,049	-0,181
-354,796	174,391	-0,028	-0,030
-353,781	-200,000	-0,015	0,083
-352,766	345,573	-0,071	-0,101
-351,752	-8,026	0,078	0,038
-350,737	-124,320	0,120	0,013
-349,723	-200,000	0,001	0,081
-348,708	-200,000	-0,045	-0,221
-347,693	732,407	-0,044	0,086
-346,679	193,596	-0,046	-0,050
-345,664	-81,611	-0,028	0,007
-344,650	-15,987	0,035	0,016
-343,635	11,494	-0,088	-0,049
-342,620	-200,000	-0,008	0,070
-341,606	-200,000	0,037	0,128
-340,591	-169,445	-0,086	0,002
-339,577	177,027	-0,109	-0,115
-338,562	-35,678	-0,125	0,049
-337,548	218,785	0,054	-0,063
-336,533	-186,209	0,123	0,001
-335,518	-119,440	0,143	0,018
-334,504	-87,757	-0,118	-0,026
-333,489	68,236	0,100	-0,075
-332,475	74,648	0,045	-0,034
-331,460	800,000	0,024	-0,069
-330,445	-148,043	-0,135	-0,008
-329,431	800,000	-0,036	-0,073
-328,416	-200,000	0,015	0,091
-327,402	62,982	-0,048	-0,035
-326,387	-0,092	0,117	-0,060
-325,372	-200,000	-0,166	-0,000
-324,358	-200,000	0,006	0,096
-323,343	-200,000	-0,017	-0,107
-322,329	800,000	0,027	0,079
-321,314	728,288	0,023	-0,044
-320,299	605,772	-0,086	0,156
-319,285	445,651	0,090	-0,144
-318,270	-200,000	-0,006	0,035
-317,256	40,465	-0,051	0,033
-316,241	-82,949	-0,049	-0,011
-315,226	-200,000	0,024	0,077
-314,212	800,000	-0,016	-0,043
-313,197	-4,937	-0,023	0,011
-312,183	77,482	0,080	-0,061
-311,168	-63,906	-0,119	0,035
-310,153	-13,257	-0,076	-0,035
-309,139	-157,822	-0,082	-0,003
-308,124	-200,000	-0,010	-0,062
-307,110	15,088	-0,017	0,010
-306,095	-200,000	-0,028	-0,113
-305,080	-200,000	-0,032	0,151
-304,066	800,000	-0,012	-0,025
-303,051	-99,918	-0,029	-0,005
-302,037	255,294	-0,005	-0,006
-301,022	-33,211	0,042	0,017
-300,008	66,235	0,082	0,060
-298,993	37,504	0,112	-0,072
-297,978	800,000	-0,076	-0,162
-296,964	-200,000	0,014	0,204
-295,949	22,961	0,022	-0,013
-294,935	157,634	0,045	-0,045
-293,920	-200,000	0,015	-0,118
-292,905	-134,357	0,144	-0,013
-291,891	-18,187	0,131	0,059
-290,876	444,083	0,053	0,085
-289,862	121,909	0,043	-0,039
-288,847	800,000	-0,069	-0,215
-287,832	-38,361	-0,088	0,034
-286,818	-200,000	0,003	-0,163
-285,803	-200,000	-0,023	0,116
-284,789	189,442	-0,102	-0,111
-283,774	800,000	0,048	-0,113
-282,759	800,000	0,052	-0,121
-281,745	-200,000	-0,007	0,072
-280,730	-77,378	0,041	0,010
-279,716	-68,267	-0,102	0,028
-278,701	-51,560	0,099	0,033
-277,686	-24,145	0,109	-0,047
-276,672	-200,000	0,001	-0,012
-275,657	-200,000	0,025	0,109
-274,643	-200,000	0,026	-0,117
-273,628	235,634	-0,088	-0,105
-272,613	-200,000	-0,008	0,053
-271,599	125,690	0,083	-0,076
-270,584	-181,459	0,164	0,002
-269,570	-200,000	0,034	0,206
-268,555	800,000	0,055	0,135
-267,540	85,173	0,070	-0,056
-266,526	800,000	-0,040	-0,092
-265,511	35,261	0,085	0,054
-264,497	68,998	-0,091	0,068
-263,482	800,000	-0,069	0,152
-262,467	-23,292	-0,052	0,022
-261,453	788,782	-0,074	0,148
-260,438	-39,921	0,048	0,018
-259,424	249,627	0,122	-0,150
-258,409	109,856	-0,124	0,108
-257,395	233,891	-0,037	-0,044
-256,380	13,817	-0,012	-0,007
-255,365	451,105	-0,064	0,103
-254,351	-200,000	0,013	-0,077
-253,336	711,684	-0,036	-0,070
-252,322	19,780	0,114	-0,066
-251,307	-11,454	-0,122	-0,058
-250,292	532,816	-0,036	0,062
-249,278	-200,000	-0,001	0,121
-248,263	800,000	-0,003	-0,008
-247,249	-200,000	-0,002	0,061
-246,234	10,892	-0,079	-0,043
-245,219	-200,000	0,007	-0,098
-244,205	100,393	-0,028	-0,024
-243,190	192,019	0,042	-0,046
-242,176	800,000	0,030	-0,090
-241,161	27,668	-0,005	-0,003
-240,146	-12,649	-0,127	0,060
-239,132	-91,478	-0,014	0,003
-238,117	-101,917	-0,075	-0,013
-237,103	128,503	-0,058	-0,054
-236,088	-200,000	-0,019	-0,124
-235,073	-41,500	0,135	0,050
-234,059	-34,063	0,076	-0,030
-233,044	-21,880	0,073	0,032
-232,030	21,622	-0,173	0,102
-231,015	800,000	-0,032	0,087
-230,000	-115,016	-0,063	-0,009
-228,986	-57,595	-0,041	-0,013
-227,971	-200,000	0,002	0,030
-226,957	-72,204	0,023	0,006
-225,942	-152,005	0,058	-0,003
-224,927	-200,000	-0,004	-0,036
-223,913	445,567	-0,055	-0,088
-222,898	-38,901	-0,072	0,027
-221,884	-36,892	0,100	-0,039
-220,869	-29,322	0,077	0,032
-219,855	457,066	0,043	0,069
-218,840	159,598	0,106	0,107
-217,825	250,951	0,033	0,040
-216,811	58,188	0,115	-0,081
-215,796	-200,000	0,001	-0,045
-214,782	17,884	0,015	0,009
-213,767	159,474	0,103	-0,103
-212,752	800,000	-0,035	0,080
-211,738	132,194	0,060	-0,055
-210,723	-134,689	0,112	0,010
-209,709	800,000	0,041	-0,116
-208,694	-161,129	0,024	-0,001
-207,679	-200,000	0,003	-0,043
-206,665	279,332	0,099	-0,128
-205,650	-98,699	0,075	-0,014
-204,636	63,699	-0,061	0,044
-203,621	800,000	-0,080	0,165
-202,606	298,451	-0,009	-0,011
-201,592	27,506	-0,105	0,064
-200,577	-1,784	-0,038	0,019
-199,563	-89,356	0,095	0,020
-198,548	118,263	0,046	0,041
-197,533	800,000	-0,061	0,159
-196,519	-134,829	-0,138	0,012
-195,504	604,622	-0,098	0,177
-194,490	171,564	0,041	-0,042
-193,475	-200,000	-0,010	-0,132
-192,460	-200,000	-0,002	0,043
-191,446	-106,827	-0,119	0,019
-190,431	-88,761	0,136	0,029
-189,417	-46,006	0,052	0,018
-188,402	-200,000	-0,018	0,058
-187,387	-199,963	-0,094	-0,000
-186,373	-69,455	0,093	0,026
-185,358	101,333	0,065	0,055
-184,344	-75,895	-0,039	-0,010
-183,329	79,966	0,104	-0,081
-182,315	41,067	0,101	0,066
-181,300	118,003	-0,095	-0,085
-180,285	134,390	-0,099	-0,092
-179,271	559,558	-0,057	0,099
-178,256	-20,048	-0,132	0,059
-177,242	800,000	0,031	0,076
-176,227	-200,000	-0,010	0,101
-175,212	-200,000	-0,037	0,125
-174,198	-200,000	-0,011	0,080
-173,183	-200,000	-0,029	-0,129
-172,169	-166,057	-0,024	0,001
-171,154	59,994	-0,049	0,035
-170,139	-200,000	0,004	-0,027
-169,125	339,253	0,015	0,021
-168,110	-81,434	0,100	0,024
-167,096	-200,000	-0,007	-0,034
-166,081	-200,000	0,026	-0,110
-165,066	-200,000	0,014	-0,117
-164,052	800,000	0,020	-0,046
-163,037	800,000	0,015	-0,033
-162,023	404,359	0,027	0,041
-161,008	261,679	0,058	0,073
-159,993	84,764	0,169	0,133
-158,979	-38,057	-0,153	0,058
-157,964	-177,215	-0,029	0,001
-156,950	50,121	-0,103	-0,070
-155,935	-200,000	-0,005	0,149
-154,920	58,191	-0,118	-0,083
-153,906	-3,054	0,056	-0,028
-152,891	-200,000	0,026	-0,099
-151,877	-20,613	0,094	-0,041
-150,862	550,381	-0,057	-0,099
-149,847	-86,420	0,086	0,019
-148,833	800,000	-0,033	-0,090
-147,818	800,000	-0,016	-0,042
-146,804	-69,017	-0,096	0,027
-145,789	-200,000	-0,006	-0,023
-144,775	568,407	0,047	-0,083
-143,760	-130,933	-0,155	-0,015
-142,745	800,000	-0,029	-0,067
-141,731	-200,000	-0,014	-0,135
-140,716	16,101	0,130	-0,074
-139,702	-107,285	0,100	-0,016
-138,687	466,337	-0,040	-0,065
-137,672	76,748	0,130	-0,099
-136,658	197,774	-0,095	-0,104
-135,643	800,000	0,049	-0,101
-134,629	338,331	0,039	0,055
-133,614	-200,000	0,026	0,183
-132,599	-142,978	-0,080	0,006
-131,585	112,801	0,161	0,140
-130,570	-200,000	-0,116	0,000
-129,556	-110,808	-0,019	-0,003
-128,541	74,127	-0,020	-0,015
-127,526	157,467	-0,023	-0,022
-126,512	134,548	-0,044	-0,041
-125,497	-200,000	-0,006	0,109
-124,483	800,000	-0,025	0,053
-123,468	-200,000	-0,026	0,147
-122,453	800,000	-0,031	-0,062
-121,439	79,430	0,006	-0,004
-120,424	165,469	-0,077	0,079
-119,410	-200,000	-0,020	0,107
