DTS Sentinel unit serial number:	SN410029Multiplexer serial number:	ORYXHardware model number:	OX2-SRSoftware version number:	ORYX F/W v4,00 Oryx Data Collector v3.7.2.0data status	okinstallation	B5 Nyhavnadifferential loss correction	single-endedforward channel	channel 2reverse channel	N/Adate	2023/12/13time	06:32:13forward acquisition time	300,00reverse acquisition time	0,00gamma	499,1914k internal	0,3160k external	0,3160temperature offset calibration	1,0000default loss term (dB/km)	0,3820temperature slope calibration	1,0000multiplexer offset coefficient	1,0000multiplexer slope coefficient	1,0000fibre end	0,00T internal ref (°C)	13,76T ext. ref 1 (°C)	-2,71T ext. ref 2 (°C)	-3,04length (m)	temperature (°C)	Stokes	anti-Stokes-744,400	800,000	0,026	0,059
-743,385	-92,979	-0,236	-0,048
-742,371	47,911	0,128	0,088
-741,356	31,017	-0,244	0,154
-740,342	-47,646	0,133	-0,047
-739,327	-95,958	-0,361	-0,070
-738,312	-85,063	0,124	0,028
-737,298	-60,348	-0,396	-0,123
-736,283	-57,946	0,207	0,066
-735,269	117,963	-0,127	0,115
-734,254	-103,223	0,132	-0,023
-733,239	21,346	-0,386	-0,231
-732,225	14,989	0,086	-0,049
-731,210	619,750	0,028	0,051
-730,196	87,110	-0,062	-0,051
-729,181	-151,927	-0,109	-0,006
-728,167	113,829	-0,023	-0,021
-727,152	-111,852	-0,144	-0,021
-726,137	-200,000	-0,012	-0,158
-725,123	64,116	0,103	-0,077
-724,108	50,263	-0,122	-0,085
-723,094	501,507	-0,086	-0,147
-722,079	116,862	-0,150	-0,135
-721,064	780,154	-0,060	-0,120
-720,050	-17,862	-0,054	-0,025
-719,035	800,000	-0,036	-0,089
-718,021	365,707	-0,012	-0,017
-717,006	27,812	-0,161	-0,100
-715,991	-10,313	-0,147	-0,072
-714,977	800,000	-0,079	0,220
-713,962	-104,975	0,087	-0,015
-712,948	228,021	-0,091	0,109
-711,933	-200,000	-0,001	0,046
-710,918	-76,852	-0,034	-0,009
-709,904	800,000	0,080	-0,172
-708,889	398,151	-0,130	-0,201
-707,875	577,821	0,073	-0,133
-706,860	-99,063	-0,134	-0,025
-705,845	-200,000	-0,044	-0,145
-704,831	800,000	-0,022	-0,056
-703,816	-114,581	0,105	-0,015
-702,802	-200,000	0,032	0,000
-701,787	647,485	-0,077	-0,145
-700,772	-200,000	0,002	-0,099
-699,758	-200,000	-0,018	-0,196
-698,743	-200,000	0,004	-0,102
-697,729	464,322	0,045	-0,073
-696,714	-103,743	-0,048	0,008
-695,699	460,070	-0,070	-0,115
-694,685	-118,909	-0,094	-0,012
-693,670	-56,609	-0,071	-0,023
-692,656	53,509	0,041	-0,029
-691,641	-5,448	-0,069	-0,035
-690,627	127,537	0,061	-0,057
-689,612	800,000	-0,057	-0,130
-688,597	800,000	-0,038	-0,097
-687,583	30,316	-0,149	0,093
-686,568	80,791	-0,056	0,044
-685,554	-103,485	0,070	-0,012
-684,539	475,047	0,031	0,052
-683,524	800,000	0,034	0,096
-682,510	-106,600	0,128	0,021
-681,495	-200,000	-0,000	-0,138
-680,481	-200,000	-0,014	0,057
-679,466	-49,318	0,018	-0,006
-678,451	240,806	0,055	0,067
-677,437	327,655	-0,045	0,063
-676,422	94,673	-0,019	0,016
-675,408	800,000	-0,069	0,180
-674,393	173,493	-0,057	-0,061
-673,378	27,945	-0,036	-0,022
-672,364	124,629	-0,120	-0,111
-671,349	552,612	-0,098	-0,174
-670,335	800,000	0,039	-0,120
-669,320	-200,000	-0,022	-0,073
-668,305	-65,609	-0,069	0,020
-667,291	212,246	-0,053	-0,062
-666,276	16,733	-0,132	0,077
-665,262	-200,000	0,002	-0,161
-664,247	-21,550	-0,071	-0,032
-663,232	254,719	0,069	0,087
-662,218	371,208	0,040	0,059
-661,203	11,286	-0,053	0,030
-660,189	283,052	-0,114	0,150
-659,174	401,691	-0,038	-0,059
-658,159	-6,791	0,103	-0,051
-657,145	-35,456	-0,085	0,034
-656,130	800,000	-0,026	-0,075
-655,116	393,435	0,006	-0,010
-654,101	795,696	0,038	-0,077
-653,086	248,007	-0,081	-0,101
-652,072	151,939	-0,079	-0,079
-651,057	8,781	0,041	0,023
-650,043	72,407	-0,053	-0,041
-649,028	-200,000	-0,038	-0,194
-648,014	800,000	-0,009	0,020
-646,999	-200,000	-0,009	-0,131
-645,984	598,033	-0,009	-0,017
-644,970	-200,000	-0,009	-0,065
-643,955	-7,027	-0,081	-0,040
-642,941	16,448	-0,068	-0,039
-641,926	800,000	-0,055	0,122
-640,911	-200,000	-0,020	-0,085
-639,897	-200,000	-0,021	0,108
-638,882	-44,049	-0,109	-0,040
-637,868	11,249	0,021	-0,012
-636,853	-11,549	-0,073	0,035
-635,838	-30,147	-0,056	-0,023
-634,824	194,606	0,038	0,043
-633,809	7,390	-0,085	0,047
-632,795	50,814	0,039	0,027
-631,780	800,000	0,034	-0,087
-630,765	202,389	-0,132	0,150
-629,751	42,316	0,062	0,041
-628,736	-200,000	0,018	-0,092
-627,722	-86,949	-0,117	0,026
-626,707	62,004	0,104	-0,076
-625,692	-200,000	-0,006	-0,057
-624,678	341,354	-0,037	-0,054
-623,663	-200,000	-0,003	-0,052
-622,649	75,047	-0,094	-0,073
-621,634	274,070	-0,126	-0,164
-620,619	-200,000	-0,020	-0,184
-619,605	-132,232	0,038	-0,004
-618,590	252,889	0,096	0,120
-617,576	660,768	0,048	0,091
-616,561	-32,418	0,062	0,025
-615,546	-200,000	-0,019	0,118
-614,532	-59,562	-0,060	0,019
-613,517	446,244	-0,072	-0,117
-612,503	68,545	0,061	0,046
-611,488	-200,000	0,182	0,000
-610,474	117,394	-0,118	-0,106
-609,459	51,217	0,021	-0,015
-608,444	-173,256	-0,048	0,001
-607,430	-200,000	-0,007	0,055
-606,415	476,225	-0,030	-0,051
-605,401	296,186	-0,075	0,100
-604,386	116,104	0,046	-0,042
-603,371	-156,511	0,052	-0,002
-602,357	62,550	0,117	0,085
-601,342	-92,796	0,084	-0,017
-600,328	43,552	-0,027	0,018
-599,313	800,000	-0,024	0,061
-598,298	23,787	-0,023	0,014
-597,284	-29,268	0,092	-0,039
-596,269	522,371	-0,040	0,070
-595,255	436,505	0,021	-0,034
-594,240	5,886	-0,104	-0,056
-593,225	-2,725	-0,030	-0,015
-592,211	695,719	-0,038	-0,074
-591,196	-47,296	0,097	0,034
-590,182	-200,000	-0,013	0,048
-589,167	800,000	-0,071	0,204
-588,152	32,420	0,035	-0,022
-587,138	-126,895	-0,090	0,010
-586,123	-200,000	0,032	0,104
-585,109	171,048	-0,126	-0,132
-584,094	800,000	-0,014	0,041
-583,079	-111,297	0,004	0,001
-582,065	127,246	0,078	-0,072
-581,050	-82,126	-0,038	0,009
-580,036	47,076	-0,085	0,058
-579,021	48,157	-0,113	-0,077
-578,006	-200,000	0,045	-0,169
-576,992	-200,000	-0,038	0,135
-575,977	-95,688	0,057	0,011
-574,963	-163,622	0,052	0,002
-573,948	-200,000	0,013	-0,083
-572,934	299,351	-0,062	0,084
-571,919	-200,000	-0,028	0,135
-570,904	-200,000	-0,006	0,095
-569,890	-20,270	0,085	-0,038
-568,875	355,569	0,025	0,036
-567,861	-200,000	-0,007	0,137
-566,846	782,382	0,090	0,182
-565,831	102,917	0,041	-0,035
-564,817	-200,000	0,006	-0,027
-563,802	-153,802	-0,126	0,006
-562,788	800,000	-0,033	-0,103
-561,773	-200,000	-0,031	-0,129
-560,758	-89,773	0,120	-0,025
-559,744	-86,771	0,080	-0,018
-558,729	-200,000	0,001	0,091
-557,715	800,000	0,035	0,098
-556,700	467,183	-0,076	-0,125
-555,685	282,533	-0,065	-0,086
-554,671	800,000	-0,038	0,081
-553,656	-200,000	-0,007	-0,045
-552,642	250,848	-0,023	0,029
-551,627	-93,208	-0,055	-0,011
-550,612	416,124	0,038	-0,060
-549,598	651,458	-0,097	-0,182
-548,583	-200,000	0,014	-0,156
-547,569	42,460	0,058	-0,039
-546,554	-65,298	-0,108	-0,031
-545,539	260,822	0,065	-0,082
-544,525	73,812	-0,066	-0,050
-543,510	254,876	0,037	0,047
-542,496	-130,447	-0,124	0,012
-541,481	112,285	0,077	-0,068
-540,466	599,542	0,045	-0,082
-539,452	800,000	-0,026	0,055
-538,437	-135,438	-0,178	0,015
-537,423	-200,000	-0,017	0,066
-536,408	-16,443	-0,106	-0,049
-535,393	-80,752	-0,058	-0,014
-534,379	-200,000	-0,003	0,110
-533,364	37,543	-0,093	-0,060
-532,350	800,000	-0,019	0,039
-531,335	21,054	-0,049	0,029
-530,321	-200,000	0,017	0,055
-529,306	-200,000	0,026	-0,141
-528,291	-116,194	0,108	-0,015
-527,277	199,994	0,097	-0,109
-526,262	-157,095	0,043	0,002
-525,248	-127,092	0,120	-0,013
-524,233	-48,091	0,088	-0,031
-523,218	-52,279	0,089	0,030
-522,204	-27,104	-0,109	0,046
-521,189	-18,136	0,141	-0,064
-520,175	-46,773	-0,110	-0,039
-519,160	-200,000	-0,003	-0,082
-518,145	-185,714	0,077	-0,001
-517,131	800,000	0,064	-0,159
-516,116	-122,836	0,125	-0,015
-515,102	800,000	0,023	-0,073
-514,087	121,931	-0,091	0,083
-513,072	-200,000	0,002	0,020
-512,058	-200,000	0,010	-0,108
-511,043	-95,092	0,096	0,019
-510,029	376,697	0,010	-0,014
-509,014	188,951	0,102	0,112
-507,999	353,261	-0,037	0,053
-506,985	-100,196	0,086	0,016
-505,970	800,000	-0,032	-0,068
-504,956	20,647	-0,094	-0,056
-503,941	53,534	0,091	-0,064
-502,926	393,353	-0,089	0,135
-501,912	-131,132	0,081	-0,008
-500,897	-200,000	0,021	-0,079
-499,883	65,794	0,101	-0,074
-498,868	-125,230	-0,044	-0,005
-497,853	-200,000	-0,003	-0,026
-496,839	113,766	0,090	-0,079
-495,824	479,165	0,054	0,089
-494,810	-47,937	0,133	-0,047
-493,795	-200,000	-0,002	0,078
-492,781	-200,000	0,001	-0,035
-491,766	94,114	-0,101	-0,083
-490,751	-200,000	-0,011	-0,120
-489,737	-19,458	0,014	-0,006
-488,722	97,438	0,101	0,084
-487,708	-159,077	0,084	-0,003
-486,693	-200,000	0,015	0,117
-485,678	149,950	-0,062	0,061
-484,664	800,000	-0,024	0,072
-483,649	-200,000	0,001	-0,021
-482,635	165,162	0,009	0,009
-481,620	47,603	0,068	-0,046
-480,605	-87,665	0,074	0,016
-479,591	-27,288	0,079	0,033
-478,576	-1,456	0,065	-0,034
-477,562	-74,842	-0,101	0,026
-476,547	643,366	0,065	-0,122
-475,532	-49,801	0,098	-0,034
-474,518	-105,642	0,037	-0,006
-473,503	11,372	0,126	0,070
-472,489	-200,000	0,017	0,089
-471,474	-200,000	-0,002	0,007
-470,459	-200,000	0,000	-0,004
-469,445	133,666	-0,061	0,057
-468,430	80,802	-0,152	0,119
-467,416	800,000	-0,046	-0,127
-466,401	-62,407	-0,016	-0,005
-465,386	-35,324	0,106	0,042
-464,372	761,593	0,053	0,106
-463,357	4,462	-0,146	-0,078
-462,343	-163,879	-0,092	-0,003
-461,328	-100,861	0,026	0,005
-460,313	28,615	-0,068	-0,042
-459,299	-123,842	0,092	0,010
-458,284	-109,256	0,091	0,014
-457,270	-114,960	-0,046	-0,006
-456,255	-3,699	-0,059	-0,030
-455,241	85,814	0,041	-0,033
-454,226	324,011	-0,040	-0,056
-453,211	-85,369	0,071	0,016
-452,197	-200,000	0,002	-0,116
-451,182	-200,000	0,018	-0,110
-450,168	282,316	0,026	-0,033
-449,153	180,059	-0,115	-0,123
-448,138	118,936	0,040	-0,036
-447,124	128,155	-0,097	-0,090
-446,109	249,718	-0,028	-0,034
-445,095	124,395	-0,074	-0,068
-444,080	71,013	0,099	0,075
-443,065	-200,000	-0,006	0,040
-442,051	800,000	0,061	-0,123
-441,036	-49,077	-0,072	-0,025
-440,022	-77,423	0,150	-0,038
-439,007	-66,193	-0,066	0,019
-437,992	107,471	-0,151	-0,131
-436,978	-200,000	-0,026	0,148
-435,963	726,563	0,109	0,213
-434,949	-58,834	-0,062	0,019
-433,934	-200,000	-0,002	-0,061
-432,919	137,465	0,083	-0,079
-431,905	716,452	0,040	-0,078
-430,890	-200,000	-0,016	-0,062
-429,876	-56,372	0,039	0,013
-428,861	70,696	0,083	-0,062
-427,846	-200,000	0,021	0,090
-426,832	160,216	0,033	0,034
-425,817	800,000	-0,054	-0,145
-424,803	-118,511	-0,083	-0,011
-423,788	-128,146	-0,056	-0,006
-422,773	-101,572	0,166	0,029
-421,759	-200,000	0,014	-0,172
-420,744	132,803	-0,058	0,055
-419,730	800,000	0,051	-0,163
-418,715	144,647	-0,121	-0,117
-417,701	-200,000	-0,035	0,152
-416,686	344,860	0,051	-0,074
-415,671	-200,000	-0,019	0,140
-414,657	-200,000	0,034	0,214
-413,642	348,438	0,107	0,153
-412,628	44,959	-0,049	0,033
-411,613	-31,647	-0,061	0,025
-410,598	-158,772	-0,072	0,003
-409,584	340,631	0,026	-0,037
-408,569	-200,000	-0,026	0,107
-407,555	82,375	0,048	0,038
-406,540	-51,699	0,075	0,025
-405,525	543,911	-0,060	0,105
-404,511	800,000	0,020	0,050
-403,496	-32,891	-0,011	0,005
-402,482	800,000	-0,018	0,048
-401,467	-0,132	0,035	0,018
-400,452	800,000	0,028	0,057
-399,438	166,216	-0,078	0,080
-398,423	800,000	0,018	0,046
-397,409	-200,000	0,014	-0,072
-396,394	47,450	0,048	0,033
-395,379	-71,062	0,059	0,016
-394,365	40,395	-0,038	0,025
-393,350	482,027	-0,031	0,052
-392,336	-24,403	-0,051	-0,022
-391,321	-130,789	-0,054	-0,005
-390,306	-58,221	0,008	0,003
-389,292	471,581	-0,056	-0,092
-388,277	-122,163	0,188	-0,022
-387,263	-200,000	-0,001	-0,047
-386,248	12,985	0,087	0,049
-385,233	-97,147	-0,164	0,031
-384,219	-200,000	0,030	0,099
-383,204	114,380	0,046	0,041
-382,190	-200,000	-0,013	0,083
-381,175	-47,066	-0,118	-0,042
-380,160	98,172	0,079	0,066
-379,146	-200,000	0,012	0,062
-378,131	-11,826	0,085	0,040
-377,117	680,041	-0,079	-0,149
-376,102	-117,252	-0,137	-0,018
-375,088	5,971	-0,082	-0,044
-374,073	391,101	0,102	-0,154
-373,058	77,949	-0,072	0,055
-372,044	-200,000	-0,021	0,104
-371,029	26,917	0,049	-0,030
-370,015	136,292	0,039	-0,037
-369,000	36,966	-0,121	-0,078
-367,985	26,708	0,183	-0,111
-366,971	-200,000	-0,033	-0,112
-365,956	-175,233	0,074	0,001
-364,942	758,548	0,052	0,104
-363,927	140,077	0,026	0,025
-362,912	-43,006	-0,058	0,021
-361,898	105,152	-0,047	-0,040
-360,883	301,629	0,026	0,035
-359,869	-156,007	0,169	-0,008
-358,854	-200,000	-0,011	-0,057
-357,839	-200,000	-0,014	0,153
-356,825	800,000	-0,037	0,094
-355,810	-127,513	-0,149	-0,016
-354,796	800,000	0,011	0,023
-353,781	-200,000	0,002	-0,072
-352,766	176,313	-0,054	-0,057
-351,752	-33,654	-0,150	0,060
-350,737	145,080	0,024	0,024
-349,723	-43,907	0,096	-0,035
-348,708	-200,000	-0,013	-0,062
-347,693	-59,751	0,068	0,021
-346,679	800,000	-0,017	-0,046
-345,664	-168,374	-0,101	-0,003
-344,650	285,053	0,048	0,063
-343,635	20,313	0,141	0,083
-342,620	71,346	0,106	-0,080
-341,606	10,518	0,072	-0,040
-340,591	51,103	0,069	-0,047
-339,577	-159,508	0,242	-0,010
-338,562	-133,631	0,107	-0,010
-337,548	24,717	-0,050	0,030
-336,533	-81,642	0,137	-0,032
-335,518	-200,000	-0,013	0,076
-334,504	499,479	-0,079	0,132
-333,489	438,084	-0,031	-0,049
-332,475	515,459	-0,088	-0,150
-331,460	-200,000	0,001	0,035
-330,445	91,338	-0,064	0,052
-329,431	-3,733	0,035	0,017
-328,416	771,997	-0,071	0,142
-327,402	797,498	-0,024	0,049
-326,387	800,000	0,031	-0,063
-325,372	-126,199	-0,187	-0,020
-324,358	-118,182	-0,084	0,011
-323,343	-157,728	0,050	0,002
-322,329	-200,000	-0,017	0,069
-321,314	4,877	-0,051	0,027
-320,299	78,462	0,113	0,088
-319,285	800,000	0,048	0,124
-318,270	18,039	-0,179	0,103
-317,256	-200,000	-0,020	-0,135
-316,241	-52,931	-0,079	-0,026
-315,226	24,635	-0,028	-0,017
-314,212	-200,000	0,002	0,050
-313,197	-66,889	0,131	0,037
-312,183	201,825	0,116	0,130
-311,168	-54,473	0,114	0,037
-310,153	-64,223	-0,146	-0,043
-309,139	800,000	-0,032	0,074
-308,124	-200,000	0,003	0,033
-307,110	-129,924	0,048	-0,005
-306,095	138,456	0,112	-0,107
-305,080	162,116	0,081	0,082
-304,066	-184,926	-0,138	-0,002
-303,051	-161,681	-0,031	-0,001
-302,037	70,635	0,104	0,078
-301,022	-45,320	-0,060	0,021
-300,008	800,000	0,059	0,168
-298,993	-45,342	0,065	0,023
-297,978	-27,765	0,132	0,055
-296,964	-200,000	-0,037	0,125
-295,949	-99,050	-0,149	-0,027
-294,935	589,276	0,048	-0,085
-293,920	-200,000	0,001	0,054
-292,905	-34,567	-0,088	-0,035
-291,891	712,297	-0,000	-0,001
-290,876	-200,000	-0,003	-0,076
-289,862	-54,567	-0,059	0,019
-288,847	-200,000	0,014	-0,073
-287,832	-200,000	0,003	0,023
-286,818	-131,873	-0,058	0,005
-285,803	358,243	0,060	0,087
-284,789	-200,000	0,008	0,032
-283,774	-200,000	-0,000	0,074
-282,759	57,306	0,026	-0,019
-281,745	201,577	-0,028	-0,032
-280,730	-2,394	0,041	0,021
-279,716	3,818	0,067	0,035
-278,701	312,811	0,060	-0,082
-277,686	-187,722	-0,136	0,001
-276,672	-200,000	-0,004	0,026
-275,657	16,402	0,061	0,035
-274,643	800,000	0,055	-0,115
-273,628	-200,000	-0,010	-0,073
-272,613	-193,291	-0,130	0,001
-271,599	190,519	0,076	0,083
-270,584	43,129	-0,085	0,056
-269,570	87,823	0,074	-0,059
-268,555	800,000	-0,015	-0,033
-267,540	589,339	0,023	0,041
-266,526	382,227	0,016	-0,025
-265,511	-155,650	0,068	0,003
-264,497	-200,000	0,007	-0,085
-263,482	-200,000	-0,002	0,059
-262,467	-200,000	0,030	-0,105
-261,453	-200,000	0,004	0,124
-260,438	-51,073	0,104	-0,035
-259,424	800,000	-0,039	-0,112
-258,409	-118,397	-0,032	-0,004
-257,395	-3,924	-0,082	0,041
-256,380	-55,137	0,168	-0,054
-255,365	283,400	0,104	0,135
-254,351	-200,000	-0,005	0,052
-253,336	182,043	0,021	-0,023
-252,322	-126,953	0,083	-0,009
-251,307	796,274	0,028	0,056
-250,292	-144,492	-0,230	-0,015
-249,278	192,597	0,103	-0,112
-248,263	16,051	0,081	0,046
-247,249	111,076	-0,069	0,060
-246,234	800,000	-0,047	-0,141
-245,219	-200,000	0,014	0,101
-244,205	5,640	0,070	0,038
-243,190	-200,000	-0,013	-0,053
-242,176	-200,000	0,015	-0,107
-241,161	-10,172	0,041	-0,019
-240,146	-200,000	0,032	0,126
-239,132	343,388	-0,087	-0,124
-238,117	800,000	-0,034	-0,078
-237,103	-200,000	0,003	-0,076
-236,088	1,555	-0,103	-0,054
-235,073	663,201	0,057	0,106
-234,059	-67,928	0,069	-0,019
-233,044	196,954	0,017	0,019
-232,030	-89,652	0,037	-0,008
-231,015	399,807	-0,100	-0,152
-230,000	479,381	-0,058	-0,095
-228,986	10,160	0,116	0,064
-227,971	-200,000	0,005	-0,086
-226,957	393,097	-0,034	-0,051
-225,942	-54,140	-0,123	0,040
-224,927	800,000	0,023	-0,058
-223,913	162,502	0,023	-0,024
-222,898	-27,604	-0,214	-0,089
-221,884	43,180	-0,074	0,049
-220,869	15,045	-0,101	-0,057
-219,855	-145,107	0,063	-0,004
-218,840	192,297	-0,085	0,092
-217,825	56,232	0,060	0,042
-216,811	-171,394	-0,157	-0,004
-215,796	101,205	0,072	-0,061
-214,782	-28,131	-0,052	-0,022
-213,767	269,383	0,040	0,051
-212,752	-34,101	0,120	0,047
-211,738	-200,000	0,018	-0,061
-210,723	36,983	-0,055	-0,035
-209,709	71,589	0,059	-0,044
-208,694	-60,457	-0,157	-0,048
-207,679	273,450	0,042	-0,054
-206,665	207,158	-0,110	-0,124
-205,650	698,934	-0,039	0,075
-204,636	-200,000	-0,032	0,112
-203,621	-200,000	0,012	-0,103
-202,606	-124,324	0,107	-0,012
-201,592	-200,000	-0,026	-0,107
-200,577	800,000	0,103	-0,212
-199,563	-159,835	-0,084	0,003
-198,548	204,443	0,111	0,124
-197,533	476,978	0,008	-0,013
-196,519	-115,181	0,070	0,009
-195,504	-96,639	0,082	-0,016
-194,490	-200,000	0,034	0,109
-193,475	-200,000	0,020	-0,099
-192,460	38,330	-0,043	0,027
-191,446	800,000	0,042	-0,084
-190,431	-200,000	0,013	0,096
-189,417	39,069	0,081	0,052
-188,402	375,888	-0,041	0,060
-187,387	250,629	-0,051	-0,063
-186,373	-200,000	-0,007	0,150
-185,358	277,087	-0,060	-0,077
-184,344	-200,000	-0,020	0,075
-183,329	327,853	0,042	0,058
-182,315	-200,000	-0,012	0,099
-181,300	800,000	-0,015	0,045
-180,285	-200,000	0,009	0,033
-179,271	-69,377	-0,115	0,032
-178,256	-9,781	0,074	0,035
-177,242	54,189	0,042	0,029
-176,227	-200,000	0,009	0,104
-175,212	-166,451	-0,108	-0,003
-174,198	-200,000	-0,007	0,179
-173,183	-200,000	0,003	-0,014
-172,169	-95,760	-0,054	0,010
-171,154	745,127	-0,072	0,139
-170,139	-200,000	0,014	0,060
-169,125	-34,810	-0,139	0,054
-168,110	-200,000	0,038	0,162
-167,096	-200,000	-0,016	0,078
-166,081	-102,817	0,086	-0,015
-165,066	-72,395	-0,090	0,024
-164,052	286,154	-0,083	0,108
-163,037	800,000	-0,021	0,045
-162,023	-36,709	0,179	0,069
-161,008	-200,000	-0,003	0,058
-159,993	12,279	-0,089	-0,049
-158,979	-200,000	-0,009	-0,044
-157,964	174,770	0,061	0,064
-156,950	-46,023	-0,095	0,034
-155,935	800,000	0,035	-0,095
-154,920	95,193	-0,028	0,023
-153,906	296,840	-0,070	-0,093
-152,891	-200,000	0,013	-0,107
-151,877	-121,049	0,138	0,016
-150,862	-67,438	0,073	-0,020
-149,847	121,173	0,114	-0,103
-148,833	-130,276	-0,099	-0,010
-147,818	341,578	0,051	0,072
-146,804	9,704	0,122	-0,066
-145,789	256,886	0,040	-0,049
-144,775	-7,610	0,056	-0,027
-143,760	800,000	0,053	-0,154
-142,745	40,434	0,022	0,014
-141,731	294,342	0,036	-0,048
-140,716	348,944	-0,077	-0,110
-139,702	112,560	-0,075	-0,065
-138,687	-32,594	-0,047	0,019
-137,672	-163,142	-0,107	0,004
-136,658	-7,961	-0,037	-0,018
-135,643	-1,587	0,144	-0,073
-134,629	-143,955	0,062	-0,004
-133,614	-200,000	0,037	0,140
-132,599	-200,000	-0,011	0,061
-131,585	-170,056	0,038	0,001
-130,570	280,087	0,037	-0,047
-129,556	-184,371	-0,054	0,001
-128,541	-115,015	-0,051	-0,007
-127,526	392,758	0,063	0,095
-126,512	180,492	0,051	-0,054
-125,497	-43,766	0,134	-0,048
-124,483	800,000	0,024	-0,074
-123,468	800,000	0,039	-0,107
-122,453	-200,000	0,015	0,052
-121,439	-120,777	-0,099	0,012
-120,424	-29,963	0,027	-0,011
-119,410	147,335	0,092	-0,089
