DTS Sentinel unit serial number:	SN410029Multiplexer serial number:	ORYXHardware model number:	OX2-SRSoftware version number:	ORYX F/W v4,00 Oryx Data Collector v3.7.2.0data status	okinstallation	B5 Nyhavnadifferential loss correction	single-endedforward channel	channel 2reverse channel	N/Adate	2023/12/11time	15:52:13forward acquisition time	300,00reverse acquisition time	0,00gamma	499,1914k internal	0,3165k external	0,3165temperature offset calibration	1,0000default loss term (dB/km)	0,3820temperature slope calibration	1,0000multiplexer offset coefficient	1,0000multiplexer slope coefficient	1,0000fibre end	0,00T internal ref (°C)	13,59T ext. ref 1 (°C)	-1,52T ext. ref 2 (°C)	-1,64length (m)	temperature (°C)	Stokes	anti-Stokes-744,400	-102,148	0,077	0,013
-743,385	-151,420	-0,292	0,016
-742,371	-125,151	0,132	-0,015
-741,356	-53,987	-0,261	0,087
-740,342	12,119	0,295	0,167
-739,327	-171,943	-0,373	-0,009
-738,312	355,171	0,102	-0,150
-737,298	-98,815	-0,283	0,052
-736,283	309,260	-0,003	-0,004
-735,269	-25,546	-0,369	0,160
-734,254	286,781	0,063	-0,084
-733,239	14,929	-0,488	-0,280
-732,225	800,000	0,045	0,114
-731,210	183,334	-0,080	0,087
-730,196	103,883	0,054	-0,047
-729,181	34,977	-0,155	-0,099
-728,167	-200,000	-0,003	-0,100
-727,152	-200,000	-0,009	-0,090
-726,137	106,775	0,100	-0,087
-725,123	-38,318	-0,083	0,032
-724,108	726,855	-0,076	-0,150
-723,094	-200,000	0,030	-0,118
-722,079	573,877	-0,055	-0,098
-721,064	-200,000	-0,002	0,067
-720,050	800,000	-0,004	0,011
-719,035	-200,000	0,019	-0,075
-718,021	371,239	-0,082	-0,122
-717,006	-200,000	-0,025	-0,083
-715,991	115,176	-0,119	0,107
-714,977	558,926	-0,011	0,020
-713,962	794,820	-0,024	0,048
-712,948	38,691	-0,070	-0,046
-711,933	-62,291	0,121	0,037
-710,918	-76,383	0,179	0,046
-709,904	-200,000	0,031	-0,179
-708,889	-123,231	-0,031	0,004
-707,875	0,884	-0,121	-0,064
-706,860	164,867	-0,066	-0,069
-705,845	6,033	0,104	0,056
-704,831	-86,719	0,133	-0,030
-703,816	357,821	0,042	-0,062
-702,802	320,237	0,026	-0,037
-701,787	-200,000	0,002	-0,080
-700,772	-8,245	-0,147	0,072
-699,758	173,162	0,034	-0,036
-698,743	175,361	0,061	0,065
-697,729	800,000	0,045	0,134
-696,714	-10,909	-0,122	-0,059
-695,699	114,650	-0,096	-0,086
-694,685	-200,000	0,027	-0,126
-693,670	-86,792	-0,130	0,029
-692,656	800,000	-0,036	0,112
-691,641	-132,017	-0,085	-0,008
-690,627	-104,591	0,120	-0,020
-689,612	-99,189	-0,114	-0,021
-688,597	127,604	0,090	-0,084
-687,583	-200,000	0,004	-0,049
-686,568	-151,965	-0,110	-0,006
-685,554	-68,984	0,092	0,026
-684,539	-4,614	0,056	0,029
-683,524	724,613	-0,059	-0,115
-682,510	-200,000	-0,007	0,094
-681,495	800,000	-0,043	0,116
-680,481	800,000	0,039	-0,091
-679,466	55,671	-0,116	-0,082
-678,451	7,796	0,037	0,020
-677,437	-200,000	0,014	0,104
-676,422	201,718	0,091	-0,103
-675,408	-200,000	0,013	0,043
-674,393	237,544	-0,030	-0,036
-673,378	57,193	-0,131	0,094
-672,364	280,170	0,017	-0,023
-671,349	-30,115	-0,034	0,014
-670,335	800,000	-0,041	-0,095
-669,320	800,000	0,050	-0,139
-668,305	-132,994	-0,147	0,014
-667,291	2,993	-0,061	0,032
-666,276	-200,000	0,017	-0,130
-665,262	361,382	-0,087	-0,128
-664,247	-200,000	0,013	-0,043
-663,232	-8,674	-0,093	-0,046
-662,218	800,000	0,024	0,067
-661,203	-49,189	0,120	0,042
-660,189	542,650	-0,010	-0,017
-659,174	-110,619	-0,131	0,020
-658,159	370,902	-0,094	-0,140
-657,145	35,898	0,083	-0,054
-656,130	-200,000	-0,007	0,086
-655,116	33,820	0,117	0,074
-654,101	120,177	0,056	0,051
-653,086	166,226	-0,029	0,030
-652,072	99,072	-0,132	0,112
-651,057	107,475	-0,083	-0,073
-650,043	58,600	-0,072	-0,052
-649,028	140,277	-0,114	0,110
-648,014	-68,388	0,107	-0,030
-646,999	-32,080	0,066	0,027
-645,984	-200,000	0,006	-0,042
-644,970	27,980	-0,082	-0,050
-643,955	222,204	-0,010	0,012
-642,941	-200,000	-0,007	-0,082
-641,926	800,000	0,015	-0,042
-640,911	-42,600	-0,082	0,030
-639,897	800,000	-0,047	0,104
-638,882	604,630	0,019	0,035
-637,868	43,786	-0,077	-0,052
-636,853	140,080	-0,055	-0,053
-635,838	-200,000	-0,018	-0,062
-634,824	771,084	0,109	-0,219
-633,809	-68,173	0,064	-0,018
-632,795	190,689	-0,089	0,098
-631,780	-200,000	-0,004	0,148
-630,765	-200,000	-0,006	-0,079
-629,751	-200,000	-0,026	-0,128
-628,736	445,416	-0,102	-0,165
-627,722	-60,014	0,092	-0,029
-626,707	-161,537	0,094	-0,003
-625,692	-36,996	0,046	0,018
-624,678	127,223	0,093	-0,087
-623,663	-42,938	-0,090	-0,033
-622,649	1,867	0,082	-0,043
-621,634	-200,000	-0,009	0,082
-620,619	-200,000	-0,014	0,102
-619,605	53,000	0,032	0,022
-618,590	-13,420	0,094	0,044
-617,576	10,586	-0,028	0,016
-616,561	424,211	0,044	0,069
-615,546	44,945	0,024	-0,016
-614,532	64,988	-0,197	-0,146
-613,517	620,654	0,035	-0,065
-612,503	-200,000	0,007	-0,321
-611,488	20,425	-0,083	0,049
-610,474	-200,000	0,012	0,076
-609,459	800,000	-0,013	-0,028
-608,444	-57,882	0,029	0,009
-607,430	-200,000	0,006	-0,026
-606,415	-122,299	-0,201	-0,024
-605,401	-1,971	-0,073	-0,037
-604,386	-18,666	0,036	0,016
-603,371	-2,244	0,113	0,058
-602,357	800,000	0,002	0,005
-601,342	40,485	0,027	0,018
-600,328	-144,055	-0,095	0,006
-599,313	800,000	-0,024	0,059
-598,298	46,807	-0,089	-0,061
-597,284	101,941	0,046	-0,039
-596,269	354,594	0,059	0,087
-595,255	185,179	0,024	0,026
-594,240	48,999	-0,098	-0,067
-593,225	-148,977	-0,136	0,008
-592,211	800,000	0,045	-0,101
-591,196	-200,000	0,019	-0,062
-590,182	-174,408	-0,046	0,001
-589,167	-75,976	0,089	-0,023
-588,152	-200,000	-0,008	0,045
-587,138	-69,331	0,031	0,009
-586,123	-182,966	-0,061	-0,001
-585,109	-19,234	-0,147	-0,066
-584,094	800,000	0,022	-0,058
-583,079	-108,436	0,030	-0,005
-582,065	95,977	-0,042	-0,035
-581,050	-56,560	0,063	-0,020
-580,036	-45,192	-0,090	-0,032
-579,021	-147,708	0,062	-0,004
-578,006	292,998	0,021	0,028
-576,992	-124,043	-0,072	0,008
-575,977	-200,000	-0,008	-0,098
-574,963	729,511	0,040	-0,079
-573,948	800,000	0,014	-0,042
-572,934	80,555	0,067	-0,053
-571,919	-95,383	-0,044	-0,009
-570,904	93,617	-0,054	-0,044
-569,890	442,290	-0,036	-0,057
-568,875	-56,697	-0,145	0,047
-567,861	-63,707	0,062	-0,018
-566,846	-106,322	0,182	0,029
-565,831	-118,871	-0,049	-0,006
-564,817	-44,659	-0,144	0,052
-563,802	86,021	-0,049	0,039
-562,788	-34,386	0,094	-0,037
-561,773	1,019	-0,040	0,021
-560,758	146,445	0,063	0,062
-559,744	800,000	0,026	0,076
-558,729	70,968	-0,147	0,111
-557,715	-38,608	-0,093	0,036
-556,700	71,654	-0,072	-0,054
-555,685	107,510	0,063	-0,055
-554,671	-11,937	-0,057	0,027
-553,656	163,565	0,113	0,116
-552,642	246,352	0,048	-0,059
-551,627	-183,860	0,097	0,001
-550,612	800,000	-0,046	-0,099
-549,598	-200,000	-0,034	-0,133
-548,583	225,853	0,095	0,113
-547,569	-200,000	0,002	0,122
-546,554	-200,000	-0,004	0,078
-545,539	-80,101	0,118	-0,029
-544,525	-200,000	0,023	0,087
-543,510	643,622	0,038	-0,071
-542,496	-74,951	-0,094	-0,024
-541,481	49,381	0,126	-0,086
-540,466	800,000	0,036	-0,095
-539,452	-183,133	0,024	0,000
-538,437	58,218	0,123	0,088
-537,423	800,000	-0,036	0,105
-536,408	759,182	-0,029	-0,057
-535,393	800,000	-0,082	-0,185
-534,379	800,000	0,077	-0,209
-533,364	-27,726	0,047	-0,020
-532,350	800,000	-0,020	0,052
-531,335	68,880	0,160	0,120
-530,321	-200,000	0,059	0,243
-529,306	-200,000	0,017	0,244
-528,291	-200,000	-0,020	0,066
-527,277	-84,076	-0,042	0,010
-526,262	279,286	0,022	0,028
-525,248	208,054	0,066	-0,075
-524,233	-200,000	-0,008	0,143
-523,218	-82,145	-0,240	0,057
-522,204	-200,000	0,040	0,138
-521,189	-9,170	-0,049	0,024
-520,175	90,367	0,087	-0,071
-519,160	277,591	0,014	-0,018
-518,145	195,110	0,031	-0,035
-517,131	46,994	0,093	-0,063
-516,116	72,625	0,093	-0,070
-515,102	-154,953	0,092	-0,004
-514,087	41,056	0,022	0,015
-513,072	-200,000	0,051	-0,181
-512,058	-28,539	0,055	0,023
-511,043	800,000	0,012	0,030
-510,029	284,246	0,074	-0,097
-509,014	-141,664	0,104	-0,007
-507,999	296,043	-0,051	0,068
-506,985	-112,452	-0,145	0,021
-505,970	-200,000	-0,010	-0,079
-504,956	-200,000	-0,010	0,071
-503,941	-87,097	-0,052	-0,012
-502,926	-200,000	0,024	-0,096
-501,912	8,665	0,060	-0,033
-500,897	800,000	0,020	0,054
-499,883	800,000	-0,045	0,105
-498,868	-55,066	0,054	-0,018
-497,853	229,237	-0,090	-0,107
-496,839	-124,825	-0,076	-0,008
-495,824	-99,325	-0,071	0,013
-494,810	-35,315	-0,030	0,012
-493,795	-83,059	0,059	0,014
-492,781	-10,524	0,062	0,030
-491,766	58,724	-0,029	0,021
-490,751	800,000	-0,012	-0,036
-489,737	-200,000	0,003	0,016
-488,722	-170,086	0,108	-0,003
-487,708	-38,505	0,041	0,016
-486,693	-79,704	0,168	0,041
-485,678	-200,000	0,013	0,161
-484,664	-106,104	-0,045	-0,007
-483,649	119,240	-0,102	-0,092
-482,635	-200,000	0,009	-0,051
-481,620	800,000	0,015	0,035
-480,605	-200,000	-0,004	0,142
-479,591	-200,000	0,000	-0,102
-478,576	-200,000	0,003	-0,022
-477,562	28,749	-0,044	0,027
-476,547	-200,000	0,024	-0,153
-475,532	586,880	0,059	0,105
-474,518	763,980	0,058	0,115
-473,503	177,170	0,116	0,123
-472,489	-14,464	-0,042	0,019
-471,474	78,900	0,048	-0,038
-470,459	63,448	0,017	-0,012
-469,445	462,057	0,071	-0,116
-468,430	-88,676	0,129	-0,028
-467,416	93,698	0,101	0,083
-466,401	-23,302	0,136	0,059
-465,386	-124,708	-0,050	-0,006
-464,372	-200,000	-0,000	0,022
-463,357	-135,416	-0,052	0,004
-462,343	-136,860	-0,122	-0,010
-461,328	238,093	0,082	-0,099
-460,313	800,000	-0,057	0,120
-459,299	-90,999	0,119	-0,025
-458,284	-200,000	0,008	-0,051
-457,270	-93,758	0,088	0,017
-456,255	-200,000	-0,011	0,097
-455,241	277,690	0,070	0,091
-454,226	477,569	0,074	-0,123
-453,211	-200,000	-0,013	0,213
-452,197	-195,159	0,218	0,001
-451,182	-200,000	-0,013	0,041
-450,168	-20,208	0,039	-0,018
-449,153	581,220	0,042	-0,075
-448,138	-200,000	0,005	-0,111
-447,124	83,880	-0,105	-0,083
-446,109	372,097	-0,021	-0,031
-445,095	-200,000	0,043	0,216
-444,080	-49,076	0,070	0,024
-443,065	281,889	0,043	0,057
-442,051	35,711	-0,035	0,022
-441,036	54,447	0,053	0,037
-440,022	-141,240	-0,145	-0,011
-439,007	342,261	-0,048	0,068
-437,992	176,287	0,078	0,083
-436,978	-73,235	0,137	-0,036
-435,963	293,095	0,059	0,078
-434,949	-200,000	-0,028	-0,125
-433,934	-200,000	0,046	0,000
-432,919	-128,628	0,102	0,010
-431,905	800,000	-0,042	-0,117
-430,890	-16,493	0,137	-0,063
-429,876	800,000	-0,041	-0,104
-428,861	229,889	0,024	-0,029
-427,846	-200,000	-0,029	-0,104
-426,832	-44,353	-0,160	-0,058
-425,817	419,971	-0,059	-0,092
-424,803	800,000	0,025	-0,056
-423,788	-54,017	-0,035	-0,012
-422,773	-49,607	0,149	-0,051
-421,759	-36,348	-0,021	-0,008
-420,744	44,225	0,074	-0,049
-419,730	-168,204	0,146	-0,004
-418,715	726,155	-0,059	-0,115
-417,701	-71,197	-0,178	0,048
-416,686	-120,382	0,173	-0,021
-415,671	87,180	0,068	0,054
-414,657	-50,770	-0,163	-0,055
-413,642	-200,000	0,014	-0,156
-412,628	95,664	-0,024	-0,020
-411,613	-200,000	0,003	0,075
-410,598	-125,828	0,019	0,002
-409,584	118,647	0,023	-0,021
-408,569	-200,000	0,001	0,083
-407,555	-61,565	0,154	-0,047
-406,540	-200,000	0,003	-0,123
-405,525	65,165	0,077	-0,056
-404,511	-200,000	0,000	0,063
-403,496	14,670	-0,044	-0,025
-402,482	-120,912	-0,051	0,006
-401,467	-200,000	0,008	-0,106
-400,452	258,835	0,011	0,014
-399,438	175,807	0,020	0,021
-398,423	-33,072	-0,095	0,038
-397,409	-200,000	-0,022	0,102
-396,394	-46,135	-0,083	-0,029
-395,379	-8,132	0,017	0,009
-394,365	471,034	-0,093	-0,152
-393,350	-73,943	0,105	-0,027
-392,336	-200,000	0,009	0,086
-391,321	-200,000	0,011	-0,050
-390,306	704,541	-0,025	0,049
-389,292	241,241	0,043	-0,053
-388,277	800,000	-0,033	0,091
-387,263	269,572	0,058	-0,074
-386,248	7,924	0,124	0,067
-385,233	-174,461	-0,105	0,002
-384,219	259,744	-0,080	-0,101
-383,204	-200,000	-0,015	-0,067
-382,190	-52,709	-0,110	0,037
-381,175	800,000	0,003	0,009
-380,160	-54,381	0,205	-0,067
-379,146	800,000	-0,034	0,107
-378,131	-98,889	-0,139	-0,025
-377,117	320,874	0,090	-0,125
-376,102	460,114	0,016	-0,026
-375,088	188,149	-0,033	-0,036
-374,073	-60,119	-0,060	0,018
-373,058	23,517	0,106	-0,063
-372,044	-28,948	0,029	-0,012
-371,029	-97,203	-0,024	-0,005
-370,015	-55,418	-0,104	-0,034
-369,000	252,080	-0,133	-0,164
-367,985	-95,937	-0,151	-0,029
-366,971	48,814	-0,042	-0,028
-365,956	-1,957	0,024	-0,012
-364,942	20,321	0,092	0,054
-363,927	-113,131	0,015	-0,002
-362,912	-55,334	-0,047	0,015
-361,898	214,688	-0,080	0,091
-360,883	-200,000	0,003	-0,061
-359,869	800,000	0,030	-0,063
-358,854	77,241	0,085	0,066
-357,839	136,774	-0,052	-0,050
-356,825	-200,000	0,004	0,049
-355,810	-200,000	0,014	0,164
-354,796	-200,000	0,011	-0,066
-353,781	116,093	-0,029	0,026
-352,766	157,617	-0,042	0,042
-351,752	-148,591	0,065	0,004
-350,737	-99,109	0,088	-0,016
-349,723	-105,993	0,082	0,013
-348,708	-84,128	-0,105	0,024
-347,693	20,396	0,062	-0,036
-346,679	-32,914	-0,049	-0,020
-345,664	128,520	0,098	-0,091
-344,650	209,701	-0,036	-0,041
-343,635	203,225	-0,040	0,044
-342,620	-200,000	0,007	0,058
-341,606	402,836	0,065	-0,099
-340,591	800,000	-0,038	0,116
-339,577	676,082	-0,013	-0,025
-338,562	800,000	-0,023	0,070
-337,548	800,000	0,008	-0,019
-336,533	-200,000	0,015	0,097
-335,518	18,188	-0,006	-0,003
-334,504	-200,000	-0,004	0,096
-333,489	225,167	-0,025	-0,029
-332,475	-2,571	-0,056	0,028
-331,460	-200,000	0,007	-0,038
-330,445	800,000	0,042	-0,085
-329,431	-21,554	-0,119	-0,052
-328,416	97,931	0,016	-0,013
-327,402	-200,000	0,002	-0,039
-326,387	407,622	-0,106	0,162
-325,372	127,786	0,067	-0,061
-324,358	-200,000	-0,009	-0,073
-323,343	-77,421	0,020	0,005
-322,329	192,825	0,085	0,093
-321,314	-180,792	-0,059	-0,001
-320,299	188,446	0,079	0,086
-319,285	196,788	0,020	-0,022
-318,270	-100,246	-0,149	-0,027
-317,256	16,202	-0,121	0,069
-316,241	42,614	-0,009	0,006
-315,226	-200,000	-0,015	0,142
-314,212	523,730	-0,089	0,153
-313,197	800,000	0,014	0,034
-312,183	111,918	-0,051	0,044
-311,168	-200,000	0,025	0,131
-310,153	-27,419	-0,094	-0,039
-309,139	358,863	-0,039	-0,056
-308,124	-53,670	-0,080	0,026
-307,110	-200,000	0,036	0,189
-306,095	142,948	0,056	0,054
-305,080	9,890	-0,162	0,089
-304,066	800,000	0,016	-0,051
-303,051	-189,012	0,066	0,001
-302,037	-84,820	-0,113	-0,026
-301,022	-200,000	-0,001	-0,046
-300,008	800,000	0,019	0,049
-298,993	189,795	0,039	-0,042
-297,978	20,411	0,055	0,032
-296,964	405,469	-0,038	-0,057
-295,949	141,494	0,148	-0,142
-294,935	-12,690	-0,017	0,008
-293,920	-76,041	0,110	0,028
-292,905	-72,356	0,107	0,028
-291,891	-22,134	-0,145	0,063
-290,876	76,885	0,033	0,025
-289,862	348,634	-0,068	-0,097
-288,847	-200,000	0,017	0,056
-287,832	800,000	-0,029	-0,083
-286,818	-200,000	0,000	-0,167
-285,803	-109,844	-0,141	-0,021
-284,789	-200,000	0,013	0,077
-283,774	51,366	-0,025	0,017
-282,759	-200,000	-0,024	-0,107
-281,745	262,960	-0,041	0,051
-280,730	61,891	-0,075	-0,054
-279,716	-163,031	0,103	0,004
-278,701	195,781	0,019	-0,021
-277,686	-200,000	-0,010	0,039
-276,672	120,779	0,026	-0,023
-275,657	-47,073	-0,081	-0,028
-274,643	46,362	0,062	-0,041
-273,628	-200,000	-0,009	-0,087
-272,613	67,716	-0,069	-0,051
-271,599	3,074	-0,010	-0,005
-270,584	-200,000	-0,005	-0,032
-269,570	-200,000	-0,005	-0,055
-268,555	18,354	0,092	-0,053
-267,540	49,296	-0,073	0,050
-266,526	622,635	-0,052	-0,096
-265,511	-56,666	0,173	0,055
-264,497	800,000	-0,040	0,084
-263,482	63,508	0,042	0,030
-262,467	424,941	-0,050	-0,078
-261,453	397,865	-0,084	-0,128
-260,438	369,047	-0,077	-0,113
-259,424	-34,710	-0,065	0,025
-258,409	-0,540	-0,044	0,022
-257,395	-200,000	0,031	0,123
-256,380	-200,000	0,022	0,101
-255,365	7,164	0,033	-0,018
-254,351	-14,360	-0,047	0,022
-253,336	800,000	0,019	-0,058
-252,322	219,165	-0,087	0,101
-251,307	800,000	0,063	0,159
-250,292	-124,717	-0,109	-0,012
-249,278	346,439	-0,078	0,111
-248,263	-45,317	0,041	-0,015
-247,249	-41,503	0,030	-0,011
-246,234	800,000	-0,042	-0,126
-245,219	800,000	0,015	-0,039
-244,205	231,864	-0,128	-0,152
-243,190	-162,361	0,041	-0,001
-242,176	117,045	-0,063	0,056
-241,161	565,629	-0,017	0,030
-240,146	221,934	-0,037	0,043
-239,132	-200,000	0,014	0,057
-238,117	-200,000	0,011	0,059
-237,103	-200,000	-0,010	0,044
-236,088	26,455	0,060	-0,036
-235,073	800,000	0,042	0,099
-234,059	-200,000	-0,022	-0,114
-233,044	-97,242	-0,060	-0,011
-232,030	0,903	-0,035	0,018
-231,015	800,000	-0,047	0,125
-230,000	-200,000	-0,015	0,133
-228,986	-200,000	0,059	0,190
-227,971	615,208	-0,032	-0,058
-226,957	-200,000	-0,011	-0,079
-225,942	313,898	0,073	0,100
-224,927	-200,000	0,003	-0,011
-223,913	159,124	0,063	-0,063
-222,898	-75,062	-0,152	-0,039
-221,884	94,996	-0,085	-0,069
-220,869	-200,000	-0,007	0,100
-219,855	336,240	0,038	0,054
-218,840	-200,000	-0,026	0,149
-217,825	64,034	0,008	0,006
-216,811	515,594	0,060	0,101
-215,796	8,197	0,032	-0,017
-214,782	131,391	-0,088	-0,081
-213,767	800,000	0,045	-0,102
-212,752	-64,005	0,104	0,030
-211,738	376,159	0,032	0,048
-210,723	800,000	-0,011	-0,024
-209,709	-54,664	-0,144	-0,047
-208,694	-123,584	0,075	-0,008
-207,679	-200,000	0,006	-0,191
-206,665	126,938	0,060	-0,055
-205,650	-200,000	-0,023	-0,082
-204,636	91,676	0,068	-0,055
-203,621	-46,983	0,049	0,017
-202,606	71,129	-0,103	0,077
-201,592	177,238	-0,005	0,006
-200,577	-131,483	-0,110	0,010
-199,563	256,611	-0,083	0,103
-198,548	-44,684	0,075	0,027
-197,533	-50,484	-0,233	-0,079
-196,519	12,640	0,072	-0,040
-195,504	-200,000	-0,034	0,118
-194,490	800,000	-0,014	-0,040
-193,475	-200,000	0,001	-0,121
-192,460	147,720	-0,019	-0,018
-191,446	-20,655	0,051	-0,022
-190,431	-200,000	0,008	0,063
-189,417	120,962	-0,079	-0,071
-188,402	800,000	-0,048	-0,122
-187,387	-31,292	0,028	0,011
-186,373	62,054	-0,034	-0,024
-185,358	-200,000	0,046	0,225
-184,344	109,919	0,016	0,014
-183,329	98,889	0,080	0,067
-182,315	134,760	-0,077	0,072
-181,300	-200,000	0,020	0,102
-180,285	-8,997	0,065	-0,031
-179,271	800,000	-0,026	0,079
-178,256	-200,000	-0,019	0,106
-177,242	-64,260	0,059	0,017
-176,227	-106,987	0,096	-0,015
-175,212	-157,834	0,047	0,002
-174,198	-93,915	-0,095	0,019
-173,183	-56,988	-0,111	-0,035
-172,169	-200,000	-0,018	0,206
-171,154	-27,954	-0,030	-0,013
-170,139	-91,789	-0,021	0,004
-169,125	800,000	0,009	-0,028
-168,110	472,216	0,004	0,006
-167,096	-113,622	-0,069	0,010
-166,081	17,472	-0,043	-0,025
-165,066	-200,000	0,018	-0,099
-164,052	-160,903	0,075	0,003
-163,037	271,020	-0,045	0,057
-162,023	91,799	-0,038	0,030
-161,008	-50,745	0,156	0,053
-159,993	-200,000	-0,008	-0,033
-158,979	14,764	-0,117	0,066
-157,964	-80,862	-0,082	0,019
-156,950	54,229	0,097	0,067
-155,935	-87,929	0,088	0,019
-154,920	800,000	0,048	0,148
-153,906	-200,000	0,023	0,120
-152,891	800,000	-0,019	-0,038
-151,877	-137,993	-0,081	-0,006
-150,862	400,759	-0,065	-0,098
-149,847	48,491	0,066	0,044
-148,833	800,000	0,036	-0,073
-147,818	594,214	-0,065	-0,116
-146,804	-56,587	0,027	-0,009
-145,789	30,476	0,107	0,066
-144,775	102,142	0,039	0,033
-143,760	744,218	0,036	-0,069
-142,745	-200,000	0,015	-0,127
-141,731	-200,000	0,013	0,134
-140,716	-200,000	-0,023	-0,128
-139,702	45,452	0,130	0,086
-138,687	75,100	-0,072	-0,055
-137,672	-31,785	0,033	0,013
-136,658	-200,000	-0,025	-0,107
-135,643	94,763	0,100	-0,082
-134,629	24,693	-0,079	0,047
-133,614	-29,941	-0,018	0,008
-132,599	-31,849	0,125	0,050
-131,585	-200,000	0,001	0,090
-130,570	580,742	-0,025	-0,045
-129,556	61,135	-0,156	-0,111
-128,541	81,674	-0,076	0,059
-127,526	-125,588	-0,107	-0,011
-126,512	186,379	0,063	-0,067
-125,497	253,889	-0,043	0,052
-124,483	-21,877	-0,047	0,021
-123,468	44,826	0,111	0,073
-122,453	540,723	-0,095	-0,162
-121,439	492,336	-0,064	-0,105
-120,424	-5,572	-0,106	0,052
-119,410	49,373	0,048	0,032
-118,395	800,000	-0,025	0,059
