DTS Sentinel unit serial number:	SN410029Multiplexer serial number:	ORYXHardware model number:	OX2-SRSoftware version number:	ORYX F/W v4,00 Oryx Data Collector v3.7.2.0data status	okinstallation	B5 Nyhavnadifferential loss correction	single-endedforward channel	channel 2reverse channel	N/Adate	2023/12/13time	12:57:13forward acquisition time	300,00reverse acquisition time	0,00gamma	499,1914k internal	0,3161k external	0,3161temperature offset calibration	1,0000default loss term (dB/km)	0,3820temperature slope calibration	1,0000multiplexer offset coefficient	1,0000multiplexer slope coefficient	1,0000fibre end	0,00T internal ref (°C)	14,32T ext. ref 1 (°C)	-1,44T ext. ref 2 (°C)	-1,68length (m)	temperature (°C)	Stokes	anti-Stokes-744,400	-51,547	0,114	-0,039
-743,385	-200,000	-0,178	0,000
-742,371	78,498	0,040	-0,031
-741,356	-102,554	-0,288	-0,050
-740,342	-18,112	0,108	0,050
-739,327	-86,255	-0,312	0,070
-738,312	-200,000	-0,005	0,086
-737,298	-55,987	-0,262	-0,085
-736,283	179,196	0,080	0,086
-735,269	-119,878	-0,387	-0,049
-734,254	-148,828	0,170	-0,010
-733,239	-9,314	-0,547	-0,268
-732,225	-95,053	0,241	0,048
-731,210	-200,000	-0,002	0,127
-730,196	8,734	-0,068	-0,038
-729,181	84,786	-0,152	-0,122
-728,167	517,985	-0,016	0,028
-727,152	306,652	-0,048	-0,066
-726,137	239,546	0,071	-0,087
-725,123	-130,279	-0,140	-0,014
-724,108	138,943	-0,146	-0,141
-723,094	37,715	-0,146	-0,095
-722,079	247,548	-0,126	0,158
-721,064	-41,169	0,077	-0,029
-720,050	-24,647	0,006	0,002
-719,035	300,968	-0,043	0,059
-718,021	-28,796	-0,020	-0,008
-717,006	-1,213	-0,233	-0,121
-715,991	542,979	-0,019	0,034
-714,977	-200,000	-0,005	0,015
-713,962	-5,567	-0,121	0,061
-712,948	800,000	-0,013	-0,031
-711,933	230,556	-0,071	0,086
-710,918	800,000	0,026	-0,057
-709,904	-200,000	0,002	0,063
-708,889	423,160	-0,087	-0,138
-707,875	86,472	-0,095	-0,077
-706,860	800,000	-0,027	-0,067
-705,845	26,678	0,051	-0,031
-704,831	-128,162	0,070	-0,007
-703,816	58,156	0,071	-0,051
-702,802	-129,384	-0,031	-0,003
-701,787	25,437	-0,039	0,024
-700,772	-200,000	-0,014	0,048
-699,758	278,518	-0,025	0,033
-698,743	37,639	0,085	-0,055
-697,729	-200,000	-0,007	-0,032
-696,714	-150,630	-0,011	0,001
-695,699	307,866	0,051	0,070
-694,685	433,154	-0,099	-0,158
-693,670	143,990	-0,077	-0,075
-692,656	-200,000	-0,024	0,123
-691,641	-200,000	-0,024	-0,094
-690,627	35,001	-0,085	-0,055
-689,612	-160,392	0,055	0,002
-688,597	365,524	0,041	-0,061
-687,583	-28,542	-0,104	0,044
-686,568	-200,000	0,009	0,035
-685,554	-87,384	-0,158	0,035
-684,539	30,129	0,091	-0,057
-683,524	-90,693	-0,043	-0,009
-682,510	-200,000	-0,010	-0,125
-681,495	75,408	-0,113	-0,088
-680,481	-82,183	-0,142	-0,034
-679,466	43,034	-0,048	-0,032
-678,451	800,000	-0,029	-0,065
-677,437	-200,000	0,022	0,176
-676,422	31,374	0,057	0,036
-675,408	32,566	-0,007	0,004
-674,393	-200,000	-0,030	-0,116
-673,378	179,758	-0,016	-0,017
-672,364	1,775	-0,096	-0,051
-671,349	-141,949	0,154	0,011
-670,335	-200,000	0,024	-0,129
-669,320	-200,000	0,016	0,113
-668,305	134,265	-0,037	0,035
-667,291	-200,000	0,011	0,040
-666,276	-101,234	-0,148	0,026
-665,262	150,810	-0,136	-0,136
-664,247	-200,000	-0,011	-0,104
-663,232	522,746	0,067	-0,116
-662,218	36,653	-0,123	-0,079
-661,203	433,341	0,057	0,091
-660,189	-153,851	-0,008	0,000
-659,174	104,643	-0,120	-0,104
-658,159	800,000	0,026	0,058
-657,145	300,564	0,091	-0,123
-656,130	51,865	-0,047	-0,033
-655,116	-200,000	-0,020	0,080
-654,101	-200,000	0,011	-0,104
-653,086	-61,169	0,064	0,020
-652,072	-157,786	-0,098	0,004
-651,057	232,037	-0,097	-0,117
-650,043	-43,189	-0,111	-0,041
-649,028	-101,431	0,139	-0,025
-648,014	223,553	-0,017	-0,020
-646,999	-124,529	0,100	0,011
-645,984	93,654	0,068	0,057
-644,970	95,826	0,037	-0,031
-643,955	187,457	-0,052	0,056
-642,941	91,174	-0,141	-0,116
-641,926	-10,326	-0,154	0,074
-640,911	800,000	0,066	0,148
-639,897	-59,030	-0,061	-0,019
-638,882	-12,184	0,055	-0,026
-637,868	-173,460	-0,049	0,001
-636,853	52,130	-0,014	-0,010
-635,838	-158,030	0,068	0,003
-634,824	-52,707	-0,083	0,028
-633,809	455,825	0,033	0,055
-632,795	576,339	0,033	0,060
-631,780	-22,409	0,086	-0,038
-630,765	753,241	0,007	-0,014
-629,751	550,872	-0,070	-0,124
-628,736	-200,000	-0,014	-0,065
-627,722	-151,757	-0,072	-0,004
-626,707	14,468	0,105	0,060
-625,692	-41,668	-0,050	0,019
-624,678	632,350	0,033	0,062
-623,663	564,400	-0,065	-0,117
-622,649	-65,507	-0,019	-0,006
-621,634	-76,979	-0,022	0,006
-620,619	-200,000	-0,012	-0,118
-619,605	-200,000	-0,007	-0,112
-618,590	36,036	0,120	-0,077
-617,576	296,523	-0,039	-0,052
-616,561	-200,000	-0,011	0,175
-615,546	19,092	-0,151	0,089
-614,532	800,000	0,022	-0,055
-613,517	-200,000	-0,019	0,093
-612,503	94,775	-0,060	0,050
-611,488	-200,000	-0,083	0,280
-610,474	67,509	0,113	-0,084
-609,459	17,861	0,021	-0,012
-608,444	95,828	-0,065	-0,054
-607,430	800,000	0,017	-0,046
-606,415	-4,970	-0,064	0,032
-605,401	-0,906	0,071	-0,037
-604,386	-37,305	0,096	0,037
-603,371	73,568	0,043	0,033
-602,357	-200,000	-0,022	-0,087
-601,342	-193,483	-0,121	0,001
-600,328	-70,711	-0,055	-0,015
-599,313	800,000	0,021	-0,063
-598,298	-136,138	-0,099	0,008
-597,284	800,000	0,023	0,047
-596,269	147,465	-0,095	-0,093
-595,255	123,271	0,095	-0,088
-594,240	800,000	0,042	-0,093
-593,225	-17,036	-0,117	-0,054
-592,211	-141,236	0,080	0,006
-591,196	-74,612	0,113	0,030
-590,182	-42,592	-0,118	-0,044
-589,167	-200,000	-0,006	0,033
-588,152	80,067	-0,076	-0,060
-587,138	225,343	-0,036	-0,042
-586,123	-132,586	-0,097	-0,009
-585,109	-70,909	0,036	-0,010
-584,094	153,813	-0,047	0,047
-583,079	-27,047	0,087	0,037
-582,065	496,212	-0,011	0,019
-581,050	800,000	-0,002	-0,004
-580,036	-76,060	0,006	-0,001
-579,021	8,124	0,028	-0,015
-578,006	800,000	0,017	0,039
-576,992	204,325	0,019	0,022
-575,977	-200,000	-0,056	0,000
-574,963	87,615	0,007	-0,006
-573,948	-70,048	0,163	-0,045
-572,934	30,669	-0,031	0,020
-571,919	160,583	-0,126	-0,128
-570,904	91,395	-0,065	0,053
-569,890	-79,574	0,068	-0,017
-568,875	800,000	0,031	0,080
-567,861	800,000	0,043	-0,104
-566,846	503,807	-0,013	-0,023
-565,831	515,967	-0,035	0,059
-564,817	431,941	0,040	-0,064
-563,802	-110,534	-0,067	0,010
-562,788	-157,125	-0,054	0,002
-561,773	-15,062	0,224	-0,105
-560,758	800,000	0,022	0,068
-559,744	-51,942	-0,092	-0,031
-558,729	126,567	-0,052	-0,049
-557,715	64,949	0,053	-0,039
-556,700	-200,000	0,011	-0,189
-555,685	-51,751	-0,075	-0,025
-554,671	343,299	0,069	0,100
-553,656	129,129	0,046	0,043
-552,642	652,017	-0,059	0,111
-551,627	-80,920	0,024	-0,006
-550,612	502,048	0,012	-0,020
-549,598	-200,000	-0,007	-0,042
-548,583	800,000	-0,044	-0,099
-547,569	-200,000	0,045	-0,168
-546,554	-200,000	-0,010	0,091
-545,539	-125,694	0,111	0,012
-544,525	299,941	0,045	0,060
-543,510	-200,000	0,036	0,176
-542,496	-32,291	-0,059	-0,024
-541,481	-132,678	-0,171	-0,016
-540,466	-38,893	-0,040	-0,015
-539,452	-149,195	0,087	-0,005
-538,437	537,302	-0,051	0,089
-537,423	7,022	-0,074	-0,040
-536,408	-86,178	-0,045	0,010
-535,393	-200,000	-0,026	-0,212
-534,379	651,610	0,036	-0,069
-533,364	-200,000	0,037	-0,150
-532,350	89,047	0,113	0,092
-531,335	-200,000	0,008	0,059
-530,321	118,302	0,059	0,053
-529,306	-200,000	-0,006	-0,040
-528,291	174,655	-0,108	0,114
-527,277	451,298	0,059	-0,095
-526,262	276,945	-0,095	-0,124
-525,248	686,837	0,015	0,028
-524,233	-200,000	0,004	0,088
-523,218	-200,000	-0,009	0,052
-522,204	21,373	-0,149	-0,088
-521,189	1,641	-0,062	-0,033
-520,175	522,372	-0,049	-0,084
-519,160	22,377	-0,011	-0,006
-518,145	-200,000	-0,012	-0,066
-517,131	222,155	-0,009	0,011
-516,116	-200,000	0,008	0,080
-515,102	-200,000	0,013	0,068
-514,087	-200,000	0,003	-0,088
-513,072	800,000	0,013	0,043
-512,058	-200,000	-0,005	0,017
-511,043	421,349	0,047	0,074
-510,029	-22,430	0,132	0,058
-509,014	251,512	-0,032	-0,039
-507,999	-200,000	0,002	-0,033
-506,985	-113,990	0,044	0,006
-505,970	443,598	-0,104	0,166
-504,956	301,832	0,019	0,026
-503,941	-78,830	-0,056	-0,014
-502,926	394,019	0,043	0,066
-501,912	397,644	-0,045	0,069
-500,897	-186,655	0,101	-0,001
-499,883	291,507	-0,040	-0,053
-498,868	-200,000	0,010	0,044
-497,853	-200,000	0,017	0,116
-496,839	-90,128	0,080	0,017
-495,824	-54,649	0,128	-0,042
-494,810	-76,480	-0,187	0,048
-493,795	-66,636	0,199	-0,057
-492,781	45,507	-0,013	0,008
-491,766	59,440	-0,050	-0,036
-490,751	-63,067	0,032	-0,009
-489,737	13,321	-0,071	-0,040
-488,722	-200,000	-0,002	0,103
-487,708	-200,000	-0,008	0,030
-486,693	800,000	-0,092	0,230
-485,678	-28,706	0,066	-0,028
-484,664	-76,259	0,040	-0,010
-483,649	-200,000	-0,006	0,041
-482,635	800,000	-0,028	-0,071
-481,620	-118,686	0,079	-0,010
-480,605	800,000	-0,021	0,045
-479,591	-173,324	-0,024	0,001
-478,576	-42,537	0,026	0,010
-477,562	-85,006	-0,165	0,037
-476,547	71,692	-0,027	0,020
-475,532	-175,507	-0,049	0,001
-474,518	195,769	0,075	-0,083
-473,503	9,610	0,079	-0,044
-472,489	800,000	0,036	0,079
-471,474	-200,000	-0,006	0,113
-470,459	-110,159	-0,133	-0,020
-469,445	359,716	-0,011	-0,017
-468,430	281,430	-0,060	-0,079
-467,416	-4,467	-0,077	0,039
-466,401	45,028	0,110	0,074
-465,386	273,637	-0,038	0,049
-464,372	-200,000	0,017	0,069
-463,357	-76,459	0,075	0,019
-462,343	12,096	-0,010	0,006
-461,328	747,031	-0,050	-0,098
-460,313	-19,004	0,036	0,016
-459,299	-131,613	0,099	0,009
-458,284	-40,424	0,133	0,050
-457,270	88,881	0,078	0,063
-456,255	-200,000	-0,002	0,008
-455,241	270,129	-0,022	-0,028
-454,226	-200,000	0,018	-0,163
-453,211	-149,398	-0,089	-0,005
-452,197	-200,000	0,018	0,095
-451,182	71,427	-0,080	0,061
-450,168	800,000	0,051	0,109
-449,153	800,000	0,050	-0,107
-448,138	-88,542	0,119	0,026
-447,124	160,410	-0,073	-0,074
-446,109	197,972	0,017	0,019
-445,095	-200,000	0,025	0,108
-444,080	-38,181	-0,065	-0,025
-443,065	-16,366	0,085	0,039
-442,051	69,086	-0,088	-0,066
-441,036	-38,189	-0,157	0,060
-440,022	-122,801	-0,148	0,017
-439,007	-200,000	0,027	-0,140
-437,992	800,000	-0,070	-0,151
-436,978	-200,000	-0,004	0,098
-435,963	-200,000	0,019	-0,092
-434,949	-200,000	0,013	-0,097
-433,934	800,000	-0,015	-0,045
-432,919	-54,754	0,100	-0,033
-431,905	17,814	0,090	0,052
-430,890	-117,702	0,082	0,011
-429,876	587,231	-0,038	-0,068
-428,861	-143,611	0,072	-0,005
-427,846	126,276	-0,098	0,090
-426,832	194,125	0,105	-0,115
-425,817	127,253	0,082	-0,076
-424,803	-200,000	0,007	0,023
-423,788	-200,000	-0,000	-0,070
-422,773	408,531	0,035	0,053
-421,759	-53,854	0,058	-0,019
-420,744	-66,994	-0,109	0,031
-419,730	-200,000	-0,011	-0,079
-418,715	-3,774	0,040	-0,020
-417,701	-12,298	-0,130	-0,061
-416,686	261,769	-0,029	0,037
-415,671	-154,155	0,144	-0,007
-414,657	751,493	-0,060	0,118
-413,642	147,613	-0,007	0,007
-412,628	-200,000	0,014	-0,069
-411,613	389,217	-0,034	-0,051
-410,598	559,309	-0,035	-0,062
-409,584	800,000	-0,051	-0,119
-408,569	287,979	-0,039	0,051
-407,555	800,000	0,053	0,141
-406,540	136,700	-0,092	0,088
-405,525	-112,886	-0,126	0,018
-404,511	800,000	-0,027	-0,063
-403,496	-0,613	-0,145	0,075
-402,482	-0,562	0,190	-0,098
-401,467	-200,000	0,016	0,110
-400,452	-193,999	0,127	0,001
-399,438	98,605	0,091	-0,076
-398,423	-20,566	0,082	-0,037
-397,409	800,000	0,036	-0,110
-396,394	48,236	0,024	0,016
-395,379	-11,611	0,139	0,066
-394,365	800,000	-0,023	0,068
-393,350	-200,000	-0,034	0,134
-392,336	577,811	0,081	-0,144
-391,321	-200,000	0,000	-0,007
-390,306	17,678	-0,115	0,066
-389,292	188,801	0,063	-0,068
-388,277	30,728	-0,025	-0,015
-387,263	27,176	0,015	-0,009
-386,248	-16,440	0,036	-0,017
-385,233	57,001	0,089	0,063
-384,219	800,000	0,027	-0,083
-383,204	149,496	-0,120	-0,118
-382,190	21,647	-0,070	-0,041
-381,175	130,715	0,040	-0,038
-380,160	-86,220	0,130	-0,029
-379,146	-90,939	0,066	-0,014
-378,131	127,019	-0,037	0,034
-377,117	-172,149	-0,148	-0,003
-376,102	548,192	0,070	0,121
-375,088	545,287	-0,063	0,109
-374,073	492,660	-0,019	-0,031
-373,058	45,742	-0,090	0,060
-372,044	-200,000	-0,005	0,019
-371,029	82,131	0,172	0,136
-370,015	561,555	-0,028	0,049
-369,000	4,184	-0,059	-0,031
-367,985	-200,000	-0,009	-0,148
-366,971	-195,686	-0,014	0,000
-365,956	-90,756	-0,208	-0,043
-364,942	-142,718	0,166	-0,012
-363,927	-200,000	0,018	0,096
-362,912	-200,000	-0,006	0,074
-361,898	800,000	-0,036	0,073
-360,883	-114,785	0,125	-0,017
-359,869	-200,000	0,018	-0,159
-358,854	-58,762	0,119	-0,037
-357,839	-15,387	0,166	0,077
-356,825	552,462	-0,035	0,061
-355,810	273,615	-0,047	-0,061
-354,796	800,000	-0,034	-0,081
-353,781	628,408	-0,038	0,069
-352,766	20,408	-0,109	-0,064
-351,752	508,730	0,044	-0,075
-350,737	800,000	0,013	0,026
-349,723	-200,000	0,001	-0,005
-348,708	366,370	-0,056	-0,082
-347,693	-200,000	-0,005	-0,033
-346,679	800,000	0,004	0,008
-345,664	-51,743	0,138	0,046
-344,650	800,000	0,013	0,028
-343,635	45,513	-0,069	-0,046
-342,620	-116,214	0,156	0,021
-341,606	399,732	0,057	-0,087
-340,591	90,342	-0,127	-0,103
-339,577	109,216	0,067	0,058
-338,562	-66,283	-0,151	-0,043
-337,548	-200,000	0,008	-0,046
-336,533	-90,664	-0,049	0,010
-335,518	10,828	0,094	0,052
-334,504	-200,000	-0,009	0,081
-333,489	800,000	-0,015	-0,035
-332,475	174,721	-0,062	-0,065
-331,460	-200,000	-0,020	-0,078
-330,445	-50,431	-0,079	-0,027
-329,431	-200,000	0,001	-0,041
-328,416	-200,000	0,019	0,094
-327,402	16,760	0,065	0,037
-326,387	-200,000	0,003	0,111
-325,372	-11,790	-0,123	-0,058
-324,358	-200,000	-0,005	0,168
-323,343	-52,462	-0,096	0,032
-322,329	800,000	0,054	-0,140
-321,314	403,017	0,035	-0,054
-320,299	-88,977	0,108	-0,023
-319,285	4,575	-0,068	0,036
-318,270	303,552	0,026	-0,035
-317,256	225,896	-0,090	-0,105
-316,241	-200,000	0,015	-0,056
-315,226	-200,000	-0,013	0,143
-314,212	478,644	-0,058	0,095
-313,197	540,476	0,032	0,056
-312,183	800,000	-0,022	0,059
-311,168	-65,277	-0,133	0,039
-310,153	-200,000	0,006	0,068
-309,139	-200,000	0,005	0,068
-308,124	-57,993	-0,094	0,029
-307,110	-200,000	-0,033	0,144
-306,095	268,267	0,053	0,067
-305,080	-139,957	0,030	0,002
-304,066	313,900	-0,024	0,033
-303,051	156,486	-0,028	-0,028
-302,037	-1,572	-0,080	-0,041
-301,022	-158,208	0,086	-0,004
-300,008	-109,636	0,106	-0,016
-298,993	800,000	-0,029	-0,080
-297,978	264,425	-0,046	-0,058
-296,964	-200,000	0,036	-0,143
-295,949	-200,000	0,011	-0,080
-294,935	96,497	-0,142	-0,118
-293,920	331,770	0,029	-0,040
-292,905	26,076	0,041	0,025
-291,891	33,875	0,040	0,025
-290,876	800,000	-0,076	0,160
-289,862	-108,855	-0,163	0,025
-288,847	347,587	0,090	-0,128
-287,832	-200,000	0,024	-0,128
-286,818	219,367	0,071	-0,082
-285,803	-200,000	-0,029	0,121
-284,789	63,690	0,061	-0,044
-283,774	-179,547	-0,117	0,002
-282,759	-63,401	-0,181	-0,053
-281,745	-70,579	-0,095	-0,026
-280,730	-149,100	-0,017	0,001
-279,716	-8,002	0,056	0,027
-278,701	-200,000	0,006	0,049
-277,686	628,752	-0,043	0,079
-276,672	-200,000	0,025	0,108
-275,657	-200,000	-0,005	0,024
-274,643	65,211	-0,029	0,021
-273,628	800,000	-0,038	-0,113
-272,613	-200,000	-0,005	0,042
-271,599	37,953	0,069	0,044
-270,584	56,591	-0,070	0,049
-269,570	532,991	-0,084	0,145
-268,555	627,671	0,009	-0,017
-267,540	14,923	0,069	0,039
-266,526	344,041	0,043	-0,061
-265,511	-57,407	-0,069	0,022
-264,497	-200,000	0,048	-0,156
-263,482	-136,061	0,113	-0,009
-262,467	382,270	0,010	0,015
-261,453	-21,863	-0,118	0,051
-260,438	-122,941	-0,123	0,014
-259,424	147,098	-0,094	-0,091
-258,409	-200,000	-0,006	0,056
-257,395	-200,000	0,010	-0,059
-256,380	238,287	0,125	0,150
-255,365	-152,061	-0,009	-0,000
-254,351	800,000	-0,029	0,091
-253,336	-200,000	-0,022	0,103
-252,322	-200,000	0,040	-0,166
-251,307	438,937	-0,054	-0,086
-250,292	9,251	0,074	0,040
-249,278	45,861	0,116	-0,077
-248,263	-98,581	0,051	0,009
-247,249	800,000	-0,038	0,082
-246,234	422,781	-0,064	0,100
-245,219	122,523	-0,040	-0,036
-244,205	46,796	-0,046	-0,031
-243,190	-200,000	0,002	0,013
-242,176	110,522	0,066	0,058
-241,161	234,661	0,055	0,065
-240,146	-200,000	-0,023	-0,095
-239,132	800,000	-0,041	0,095
-238,117	543,709	-0,062	-0,107
-237,103	-52,077	0,027	0,009
-236,088	-16,720	-0,035	0,016
-235,073	-200,000	-0,013	0,070
-234,059	-70,363	-0,023	0,006
-233,044	-37,901	0,013	-0,005
-232,030	800,000	0,042	-0,112
-231,015	-200,000	-0,004	-0,079
-230,000	78,217	-0,012	0,009
-228,986	112,267	0,027	0,024
-227,971	800,000	0,003	0,009
-226,957	-102,589	0,098	-0,017
-225,942	531,727	-0,018	-0,031
-224,927	800,000	-0,081	0,162
-223,913	39,410	-0,046	0,030
-222,898	-200,000	-0,040	0,135
-221,884	800,000	-0,054	-0,131
-220,869	98,964	-0,095	-0,079
-219,855	139,994	0,138	-0,131
-218,840	-63,677	-0,095	0,028
-217,825	-44,844	-0,042	0,015
-216,811	800,000	0,060	-0,178
-215,796	-112,869	-0,066	0,009
-214,782	-200,000	0,013	0,070
-213,767	-25,510	0,161	0,068
-212,752	221,741	0,045	0,053
-211,738	-200,000	0,013	0,057
-210,723	-57,835	-0,130	0,041
-209,709	-70,157	-0,019	-0,005
-208,694	800,000	0,068	0,137
-207,679	800,000	-0,040	-0,106
-206,665	-135,813	0,157	-0,013
-205,650	274,210	-0,045	-0,057
-204,636	482,133	0,068	0,112
-203,621	14,777	0,077	0,043
-202,606	617,714	0,079	0,144
-201,592	-200,000	0,017	-0,068
-200,577	449,318	0,028	-0,044
-199,563	-60,911	0,152	-0,046
-198,548	608,193	0,029	-0,052
-197,533	-200,000	0,026	0,207
-196,519	-140,874	0,127	0,009
-195,504	202,088	0,203	0,226
-194,490	139,464	-0,041	0,039
-193,475	-200,000	0,006	0,084
-192,460	216,074	0,061	0,070
-191,446	60,915	0,030	0,022
-190,431	358,637	-0,080	-0,116
-189,417	9,187	0,145	-0,079
-188,402	13,230	-0,110	0,061
-187,387	800,000	-0,005	0,015
-186,373	142,349	-0,057	-0,054
-185,358	271,886	0,011	-0,014
-184,344	-200,000	-0,000	-0,054
-183,329	167,388	0,050	-0,051
-182,315	-200,000	-0,029	-0,153
-181,300	-200,000	0,008	0,046
-180,285	-101,826	-0,067	-0,011
-179,271	74,322	-0,062	-0,047
-178,256	-38,872	-0,044	-0,017
-177,242	-200,000	-0,004	-0,025
-176,227	-50,490	0,110	-0,037
-175,212	-99,219	0,059	-0,011
-174,198	-200,000	-0,004	-0,017
-173,183	273,811	-0,098	-0,126
-172,169	800,000	0,075	0,166
-171,154	-200,000	0,017	-0,087
-170,139	-93,725	-0,063	-0,012
-169,125	-52,394	0,042	0,014
-168,110	38,069	0,105	-0,067
-167,096	52,445	0,139	-0,096
-166,081	800,000	0,017	-0,047
-165,066	800,000	0,028	-0,064
-164,052	-200,000	-0,006	-0,026
-163,037	-11,027	0,106	0,050
-162,023	274,317	-0,064	-0,082
-161,008	62,467	0,077	0,056
-159,993	148,278	-0,022	-0,021
-158,979	-34,803	-0,170	0,067
-157,964	105,276	0,086	0,073
-156,950	172,350	-0,038	0,039
-155,935	351,732	-0,038	-0,054
-154,920	-200,000	-0,038	0,155
-153,906	800,000	0,039	0,085
-152,891	31,476	-0,062	0,038
-151,877	227,429	-0,016	0,019
-150,862	-126,014	-0,096	0,010
-149,847	-32,159	-0,110	-0,044
-148,833	22,630	0,120	0,071
-147,818	17,672	0,042	-0,024
-146,804	14,012	0,059	0,033
-145,789	186,719	0,047	0,050
-144,775	-25,384	0,051	-0,022
-143,760	134,043	0,092	-0,086
-142,745	429,166	-0,034	-0,053
-141,731	-200,000	-0,037	0,155
-140,716	5,075	0,138	0,073
-139,702	108,466	0,062	-0,053
-138,687	-200,000	0,005	0,090
-137,672	-140,546	0,146	0,011
-136,658	-200,000	-0,005	0,023
-135,643	762,660	0,065	-0,128
-134,629	-200,000	0,019	-0,136
-133,614	-200,000	-0,003	0,086
-132,599	800,000	0,000	-0,001
-131,585	-200,000	-0,006	0,073
-130,570	545,137	-0,044	-0,077
-129,556	488,087	-0,044	-0,072
-128,541	-200,000	-0,003	-0,065
-127,526	-200,000	0,002	-0,190
-126,512	440,548	0,072	-0,113
-125,497	-179,331	0,016	-0,000
-124,483	-200,000	0,017	-0,055
-123,468	-66,140	-0,092	0,026
-122,453	-55,270	0,083	-0,027
-121,439	747,915	0,033	0,064
-120,424	375,146	-0,113	-0,166
-119,410	-163,381	-0,081	-0,003
