DTS Sentinel unit serial number:	SN410029Multiplexer serial number:	ORYXHardware model number:	OX2-SRSoftware version number:	ORYX F/W v4,00 Oryx Data Collector v3.7.2.0data status	okinstallation	B5 Nyhavnadifferential loss correction	single-endedforward channel	channel 2reverse channel	N/Adate	2023/12/12time	04:32:13forward acquisition time	300,00reverse acquisition time	0,00gamma	499,1914k internal	0,3157k external	0,3157temperature offset calibration	1,0000default loss term (dB/km)	0,3820temperature slope calibration	1,0000multiplexer offset coefficient	1,0000multiplexer slope coefficient	1,0000fibre end	0,00T internal ref (°C)	15,50T ext. ref 1 (°C)	-0,92T ext. ref 2 (°C)	-1,22length (m)	temperature (°C)	Stokes	anti-Stokes-744,400	34,701	-0,037	0,024
-743,385	-148,529	-0,210	0,012
-742,371	800,000	0,093	-0,198
-741,356	19,772	-0,255	0,151
-740,342	34,196	0,158	0,101
-739,327	-154,530	-0,335	0,016
-738,312	-200,000	-0,021	0,114
-737,298	-149,919	-0,283	-0,016
-736,283	-122,872	0,147	-0,017
-735,269	-81,353	-0,379	0,091
-734,254	224,515	0,094	0,112
-733,239	-200,000	-0,442	0,001
-732,225	152,552	0,082	0,083
-731,210	498,858	0,053	0,091
-730,196	-4,560	-0,080	-0,041
-729,181	87,669	0,061	0,050
-728,167	242,892	-0,051	-0,063
-727,152	-200,000	-0,003	0,021
-726,137	-78,389	-0,175	-0,044
-725,123	-200,000	-0,032	-0,157
-724,108	-193,229	-0,111	-0,001
-723,094	-77,300	0,093	-0,024
-722,079	800,000	-0,039	-0,097
-721,064	800,000	0,036	-0,083
-720,050	-12,919	0,067	-0,032
-719,035	-5,984	-0,143	-0,072
-718,021	363,463	-0,030	-0,045
-717,006	800,000	-0,011	-0,026
-715,991	110,713	-0,136	-0,121
-714,977	357,029	-0,066	0,097
-713,962	253,027	-0,070	0,088
-712,948	-200,000	0,008	-0,108
-711,933	530,950	0,037	0,065
-710,918	-111,941	-0,079	-0,012
-709,904	-105,943	-0,098	-0,016
-708,889	401,483	-0,070	-0,109
-707,875	-0,080	-0,122	-0,064
-706,860	800,000	0,036	0,109
-705,845	-200,000	0,005	0,064
-704,831	194,897	-0,063	0,070
-703,816	-200,000	-0,012	-0,098
-702,802	278,248	-0,078	-0,102
-701,787	-40,236	-0,064	-0,024
-700,772	-100,045	0,068	0,012
-699,758	-76,253	-0,121	-0,031
-698,743	-200,000	-0,015	0,064
-697,729	77,109	0,066	0,052
-696,714	-27,206	0,040	-0,017
-695,699	169,776	-0,062	-0,065
-694,685	-39,041	-0,134	-0,052
-693,670	-200,000	-0,023	-0,130
-692,656	-3,749	0,054	0,028
-691,641	-38,829	-0,058	-0,023
-690,627	-200,000	0,002	0,017
-689,612	109,604	-0,074	-0,065
-688,597	800,000	-0,064	-0,141
-687,583	165,753	0,048	0,050
-686,568	-27,176	-0,061	-0,026
-685,554	4,854	-0,060	0,032
-684,539	-110,135	-0,059	0,009
-683,524	-41,962	-0,061	-0,023
-682,510	-23,596	-0,036	-0,016
-681,495	270,692	0,026	0,033
-680,481	-66,477	-0,059	0,017
-679,466	-200,000	0,016	0,172
-678,451	250,654	-0,078	-0,097
-677,437	618,801	-0,068	-0,126
-676,422	48,108	0,143	-0,098
-675,408	257,639	-0,044	-0,056
-674,393	800,000	-0,037	0,096
-673,378	-32,523	0,082	-0,033
-672,364	800,000	-0,020	-0,046
-671,349	-200,000	0,013	-0,060
-670,335	159,142	-0,030	0,030
-669,320	-39,992	0,015	-0,006
-668,305	-200,000	0,006	0,070
-667,291	-200,000	0,009	0,030
-666,276	284,123	-0,025	-0,032
-665,262	-83,874	-0,050	0,012
-664,247	-19,539	-0,152	0,069
-663,232	289,995	0,043	-0,058
-662,218	40,170	0,059	0,039
-661,203	-59,563	0,066	-0,021
-660,189	365,830	-0,058	-0,086
-659,174	104,243	-0,016	-0,014
-658,159	-200,000	-0,019	0,065
-657,145	-172,280	-0,129	-0,003
-656,130	-82,418	-0,063	0,015
-655,116	105,158	-0,076	0,066
-654,101	-157,397	-0,014	-0,001
-653,086	60,334	-0,115	0,084
-652,072	25,516	-0,049	0,030
-651,057	-31,682	-0,052	-0,021
-650,043	147,804	-0,044	0,043
-649,028	153,052	-0,026	-0,026
-648,014	-57,619	0,129	-0,041
-646,999	-200,000	-0,011	0,081
-645,984	-200,000	-0,031	0,124
-644,970	104,158	0,066	0,057
-643,955	421,518	-0,035	-0,055
-642,941	800,000	-0,026	0,058
-641,926	800,000	0,045	0,100
-640,911	-20,615	0,051	-0,023
-639,897	-47,089	0,037	0,013
-638,882	-30,603	0,118	0,049
-637,868	7,544	0,087	-0,047
-636,853	-74,464	0,049	-0,013
-635,838	248,589	-0,027	-0,034
-634,824	161,234	0,062	0,063
-633,809	207,409	0,047	-0,054
-632,795	217,351	0,044	0,051
-631,780	-200,000	0,026	0,105
-630,765	-200,000	0,008	-0,030
-629,751	304,480	-0,105	0,144
-628,736	443,535	0,041	-0,066
-627,722	-70,758	0,076	0,021
-626,707	800,000	0,058	0,120
-625,692	51,078	0,081	0,056
-624,678	760,729	0,055	-0,111
-623,663	-200,000	0,024	0,122
-622,649	-74,864	-0,170	0,045
-621,634	-80,732	-0,044	-0,011
-620,619	-19,978	0,215	0,097
-619,605	-114,206	0,045	-0,006
-618,590	-200,000	0,021	0,125
-617,576	-200,000	0,009	0,050
-616,561	311,213	0,073	0,100
-615,546	49,394	-0,058	-0,040
-614,532	297,546	-0,088	-0,119
-613,517	-102,066	-0,093	0,016
-612,503	-200,000	0,011	-0,078
-611,488	800,000	0,021	0,065
-610,474	501,324	-0,010	0,018
-609,459	318,712	0,031	0,043
-608,444	-200,000	-0,003	-0,067
-607,430	-14,585	0,049	-0,023
-606,415	-200,000	0,030	-0,118
-605,401	800,000	0,015	0,047
-604,386	36,675	0,041	-0,027
-603,371	-4,459	0,046	0,023
-602,357	2,424	0,045	-0,024
-601,342	170,914	-0,064	-0,067
-600,328	-200,000	-0,022	-0,116
-599,313	-19,045	-0,185	-0,084
-598,298	332,719	0,022	-0,031
-597,284	119,508	0,121	0,110
-596,269	-200,000	0,002	-0,029
-595,255	121,977	-0,034	0,031
-594,240	456,195	-0,078	-0,127
-593,225	165,660	-0,077	-0,080
-592,211	82,932	-0,143	0,114
-591,196	-200,000	0,014	0,048
-590,182	-149,867	-0,074	0,004
-589,167	-164,380	-0,047	0,002
-588,152	692,474	0,053	-0,101
-587,138	800,000	-0,046	0,094
-586,123	-131,279	-0,146	0,014
-585,109	-101,423	-0,068	-0,012
-584,094	8,442	0,105	0,057
-583,079	347,915	0,026	-0,038
-582,065	-133,899	0,122	0,011
-581,050	203,836	0,065	-0,074
-580,036	69,804	0,032	0,024
-579,021	19,084	-0,069	0,041
-578,006	800,000	-0,039	-0,088
-576,992	-156,286	0,114	-0,005
-575,977	-200,000	-0,008	0,158
-574,963	64,929	-0,086	0,064
-573,948	637,952	-0,058	-0,108
-572,934	800,000	-0,031	0,084
-571,919	-200,000	0,000	0,087
-570,904	15,259	-0,027	-0,016
-569,890	297,078	-0,053	-0,071
-568,875	-200,000	0,000	0,010
-567,861	-14,890	0,145	0,068
-566,846	394,782	-0,019	0,028
-565,831	-200,000	0,014	0,084
-564,817	-200,000	-0,024	0,101
-563,802	800,000	0,013	-0,039
-562,788	178,971	-0,113	-0,121
-561,773	231,842	0,018	-0,022
-560,758	-200,000	-0,013	0,136
-559,744	-51,668	0,057	-0,019
-558,729	-200,000	-0,019	-0,110
-557,715	-9,361	0,109	-0,053
-556,700	578,978	-0,014	-0,025
-555,685	-30,555	-0,161	-0,067
-554,671	182,623	0,052	0,057
-553,656	-200,000	0,003	0,065
-552,642	800,000	0,055	0,131
-551,627	-200,000	-0,001	-0,030
-550,612	658,278	0,050	0,095
-549,598	-200,000	-0,013	-0,152
-548,583	149,103	-0,095	-0,094
-547,569	-200,000	0,023	0,075
-546,554	295,007	0,035	0,047
-545,539	215,537	0,052	0,061
-544,525	800,000	-0,008	-0,018
-543,510	211,718	0,069	-0,079
-542,496	234,075	0,009	-0,011
-541,481	148,457	-0,035	0,034
-540,466	800,000	0,022	0,057
-539,452	-200,000	0,004	-0,044
-538,437	-37,707	0,067	-0,026
-537,423	21,121	-0,050	0,029
-536,408	485,625	-0,039	-0,066
-535,393	36,590	0,036	-0,023
-534,379	800,000	0,002	-0,005
-533,364	-200,000	0,001	-0,014
-532,350	-62,200	0,026	-0,008
-531,335	512,162	0,034	-0,059
-530,321	572,010	0,073	-0,130
-529,306	-200,000	0,040	-0,146
-528,291	-106,507	-0,026	-0,004
-527,277	-54,264	0,015	0,005
-526,262	233,974	-0,057	0,069
-525,248	173,261	0,105	0,111
-524,233	373,693	0,033	-0,049
-523,218	-200,000	0,007	-0,026
-522,204	-200,000	-0,008	-0,094
-521,189	474,178	-0,035	0,058
-520,175	-200,000	0,011	0,154
-519,160	-200,000	0,034	0,121
-518,145	-114,245	-0,045	-0,006
-517,131	415,330	0,052	0,081
-516,116	125,027	-0,132	-0,121
-515,102	-86,564	-0,037	0,008
-514,087	-200,000	-0,014	0,076
-513,072	27,680	0,051	0,031
-512,058	-92,097	0,078	0,016
-511,043	119,775	-0,052	0,047
-510,029	-13,725	0,150	0,071
-509,014	-82,961	0,116	0,027
-507,999	270,124	-0,055	-0,071
-506,985	95,431	0,083	0,069
-505,970	800,000	-0,018	0,041
-504,956	-118,395	-0,072	0,009
-503,941	-200,000	-0,002	0,098
-502,926	800,000	0,027	0,063
-501,912	12,272	-0,032	0,018
-500,897	320,783	-0,043	-0,060
-499,883	-200,000	-0,024	-0,104
-498,868	-37,314	-0,152	-0,059
-497,853	-175,668	0,010	-0,000
-496,839	-46,728	-0,025	0,009
-495,824	177,119	0,035	-0,037
-494,810	-200,000	0,016	-0,088
-493,795	-200,000	-0,002	0,093
-492,781	604,925	-0,054	-0,098
-491,766	209,812	-0,037	0,042
-490,751	-200,000	-0,004	-0,085
-489,737	394,821	0,025	-0,037
-488,722	-57,170	0,111	-0,035
-487,708	-200,000	-0,005	0,074
-486,693	-200,000	0,020	0,109
-485,678	-21,331	-0,059	0,026
-484,664	287,471	0,027	-0,036
-483,649	800,000	0,005	0,014
-482,635	-88,507	-0,073	-0,016
-481,620	21,787	-0,038	-0,023
-480,605	-76,134	0,132	0,034
-479,591	-200,000	0,013	0,186
-478,576	-200,000	-0,089	0,000
-477,562	288,034	-0,105	0,140
-476,547	-11,228	0,103	0,049
-475,532	74,766	-0,016	0,012
-474,518	-57,984	-0,072	0,023
-473,503	311,329	0,049	-0,067
-472,489	-120,827	-0,091	0,011
-471,474	-154,226	0,104	-0,005
-470,459	-200,000	-0,006	-0,062
-469,445	-49,706	-0,091	-0,031
-468,430	-200,000	-0,043	-0,173
-467,416	-200,000	-0,010	-0,177
-466,401	278,782	-0,073	0,095
-465,386	-139,405	0,119	0,009
-464,372	-118,609	0,029	0,004
-463,357	-51,888	-0,071	0,024
-462,343	-200,000	-0,005	-0,111
-461,328	-118,347	0,172	0,022
-460,313	-135,779	-0,167	-0,014
-459,299	16,151	0,084	-0,048
-458,284	462,304	0,061	0,100
-457,270	-116,851	0,142	0,019
-456,255	519,548	-0,064	-0,109
-455,241	-200,000	-0,004	-0,133
-454,226	-12,016	-0,003	-0,001
-453,211	277,734	0,045	-0,059
-452,197	800,000	0,044	0,103
-451,182	615,089	0,018	0,032
-450,168	-200,000	0,009	0,056
-449,153	-21,123	-0,099	-0,044
-448,138	-200,000	0,020	-0,174
-447,124	-16,216	0,022	-0,010
-446,109	-37,197	0,025	0,010
-445,095	-118,089	0,173	0,022
-444,080	-200,000	-0,006	-0,057
-443,065	-103,152	0,144	0,025
-442,051	-66,544	-0,073	-0,021
-441,036	-73,348	-0,113	-0,030
-440,022	-200,000	-0,008	-0,142
-439,007	43,877	0,036	0,024
-437,992	-200,000	0,016	0,132
-436,978	96,473	0,098	0,082
-435,963	40,406	-0,036	-0,023
-434,949	-81,274	-0,106	0,025
-433,934	227,141	-0,058	-0,068
-432,919	108,246	0,048	-0,042
-431,905	-200,000	-0,000	0,004
-430,890	-68,975	0,171	-0,048
-429,876	800,000	0,009	-0,027
-428,861	-25,396	-0,131	0,056
-427,846	36,355	-0,047	0,030
-426,832	341,179	-0,082	-0,117
-425,817	524,239	-0,052	-0,090
-424,803	-22,972	0,159	-0,069
-423,788	56,641	-0,036	0,026
-422,773	-154,602	0,102	0,005
-421,759	-200,000	-0,011	0,135
-420,744	736,321	-0,040	0,079
-419,730	-41,920	-0,048	0,018
-418,715	800,000	-0,010	0,030
-417,701	341,733	0,065	0,093
-416,686	800,000	-0,038	-0,083
-415,671	-31,242	0,152	0,062
-414,657	800,000	-0,049	0,151
-413,642	-200,000	-0,018	0,079
-412,628	800,000	-0,020	0,059
-411,613	-200,000	0,005	-0,039
-410,598	384,474	0,028	0,042
-409,584	-126,846	0,047	-0,005
-408,569	-122,167	0,204	0,024
-407,555	-200,000	-0,001	0,120
-406,540	61,631	-0,056	0,041
-405,525	-113,628	-0,139	0,020
-404,511	-101,002	0,075	-0,013
-403,496	-74,097	-0,032	0,008
-402,482	146,937	-0,019	0,018
-401,467	800,000	0,047	0,104
-400,452	-200,000	0,015	0,059
-399,438	-11,009	0,040	0,019
-398,423	52,532	0,048	-0,033
-397,409	-200,000	0,006	0,027
-396,394	-200,000	0,009	0,076
-395,379	31,606	-0,035	0,022
-394,365	-200,000	0,037	-0,145
-393,350	-7,364	-0,049	-0,024
-392,336	73,465	-0,129	-0,098
-391,321	800,000	-0,015	0,034
-390,306	800,000	0,052	-0,124
-389,292	229,507	-0,075	0,089
-388,277	-82,220	0,074	0,017
-387,263	-200,000	-0,020	-0,087
-386,248	97,399	0,026	-0,021
-385,233	36,274	0,035	0,022
-384,219	4,712	-0,056	0,030
-383,204	-200,000	0,001	0,080
-382,190	-50,348	-0,172	-0,059
-381,175	-27,456	0,032	-0,013
-380,160	419,789	0,045	-0,070
-379,146	800,000	-0,039	0,122
-378,131	-89,119	0,113	0,024
-377,117	498,855	-0,098	-0,165
-376,102	-200,000	-0,004	0,013
-375,088	-60,699	-0,148	0,045
-374,073	48,589	0,089	-0,060
-373,058	355,534	0,076	0,110
-372,044	115,384	0,041	0,037
-371,029	-200,000	0,013	-0,042
-370,015	-162,821	-0,047	0,002
-369,000	141,706	-0,128	-0,123
-367,985	-200,000	-0,014	-0,103
-366,971	297,413	-0,059	-0,078
-365,956	64,200	-0,078	0,057
-364,942	111,283	0,072	0,063
-363,927	-79,166	-0,117	-0,029
-362,912	-169,712	-0,078	0,002
-361,898	-164,532	-0,068	0,002
-360,883	-64,696	-0,148	-0,043
-359,869	-132,822	0,107	-0,010
-358,854	-41,765	0,044	0,016
-357,839	-200,000	-0,015	-0,121
-356,825	265,122	0,010	-0,013
-355,810	-200,000	-0,007	-0,031
-354,796	-200,000	0,003	0,142
-353,781	-30,296	-0,061	-0,025
-352,766	72,909	-0,102	0,077
-351,752	427,736	-0,062	0,098
-350,737	-98,466	0,118	0,022
-349,723	800,000	0,047	-0,104
-348,708	800,000	0,038	0,085
-347,693	-109,175	-0,103	0,016
-346,679	248,874	-0,090	-0,111
-345,664	75,792	-0,028	-0,021
-344,650	631,643	-0,062	-0,114
-343,635	238,816	0,077	-0,093
-342,620	3,659	-0,032	0,017
-341,606	156,706	0,020	-0,020
-340,591	-115,051	-0,051	-0,007
-339,577	800,000	0,046	-0,128
-338,562	-85,758	0,054	-0,012
-337,548	52,951	-0,081	0,056
-336,533	229,402	0,109	0,129
-335,518	-200,000	0,024	0,139
-334,504	304,638	0,025	0,034
-333,489	21,205	-0,151	0,088
-332,475	-169,274	0,051	-0,001
-331,460	-140,514	-0,053	0,004
-330,445	-200,000	0,017	-0,074
-329,431	-112,053	0,110	0,016
-328,416	800,000	-0,025	0,077
-327,402	-145,234	0,022	0,001
-326,387	800,000	-0,043	-0,105
-325,372	234,174	0,081	-0,097
-324,358	211,780	0,034	-0,039
-323,343	576,829	0,050	-0,090
-322,329	-200,000	0,011	0,076
-321,314	-200,000	-0,025	0,081
-320,299	-200,000	0,030	0,144
-319,285	193,389	0,140	0,153
-318,270	-36,314	-0,053	-0,021
-317,256	378,485	-0,080	0,120
-316,241	691,488	-0,042	0,081
-315,226	174,031	0,086	-0,090
-314,212	-200,000	0,008	-0,041
-313,197	-116,797	0,031	0,004
-312,183	-200,000	-0,010	0,087
-311,168	168,396	0,020	0,021
-310,153	241,399	-0,046	-0,056
-309,139	60,500	-0,053	0,038
-308,124	-76,168	0,091	0,023
-307,110	800,000	-0,029	-0,084
-306,095	-87,732	0,051	0,011
-305,080	456,852	-0,035	-0,056
-304,066	-200,000	-0,034	-0,112
-303,051	511,130	-0,080	-0,136
-302,037	-200,000	0,008	-0,148
-301,022	-66,944	-0,128	-0,036
-300,008	63,305	-0,121	0,088
-298,993	783,390	0,083	0,165
-297,978	-200,000	0,007	-0,026
-296,964	128,535	0,015	-0,013
-295,949	-200,000	0,002	0,096
-294,935	392,097	-0,049	-0,075
-293,920	-200,000	-0,040	0,162
-292,905	-85,307	0,054	-0,012
-291,891	-200,000	-0,003	-0,100
-290,876	-79,027	-0,214	-0,052
-289,862	-82,940	0,062	-0,014
-288,847	800,000	-0,031	0,085
-287,832	800,000	-0,036	0,110
-286,818	-37,057	-0,040	-0,016
-285,803	800,000	0,055	-0,148
-284,789	-125,370	-0,015	0,002
-283,774	-200,000	-0,022	-0,084
-282,759	160,932	0,031	-0,032
-281,745	-110,642	0,040	-0,006
-280,730	589,065	-0,015	-0,027
-279,716	-200,000	-0,031	-0,141
-278,701	-91,120	-0,027	0,006
-277,686	6,147	0,106	0,057
-276,672	-200,000	-0,040	-0,130
-275,657	-56,280	-0,120	-0,038
-274,643	-4,464	-0,100	-0,050
-273,628	-54,706	-0,155	-0,050
-272,613	-200,000	0,030	0,097
-271,599	-200,000	-0,002	0,022
-270,584	-69,687	0,063	0,017
-269,570	206,996	-0,082	-0,092
-268,555	-41,960	0,071	0,026
-267,540	-128,182	0,098	-0,010
-266,526	-200,000	0,001	0,070
-265,511	222,711	-0,049	0,057
-264,497	432,964	0,074	0,116
-263,482	219,495	-0,060	0,069
-262,467	-200,000	-0,006	0,186
-261,453	-61,280	0,104	-0,032
-260,438	221,752	-0,034	0,040
-259,424	388,486	-0,011	0,017
-258,409	-1,998	-0,122	-0,062
-257,395	64,645	0,095	0,069
-256,380	-200,000	-0,002	0,053
-255,365	-104,699	0,093	0,015
-254,351	187,318	-0,130	-0,141
-253,336	-166,745	0,083	0,002
-252,322	800,000	-0,027	0,061
-251,307	118,183	0,087	0,078
-250,292	800,000	0,014	0,028
-249,278	121,036	0,180	-0,162
-248,263	-200,000	0,014	0,077
-247,249	191,307	-0,006	0,007
-246,234	29,308	-0,078	-0,048
-245,219	-109,776	0,132	0,020
-244,205	189,310	0,061	-0,066
-243,190	733,064	-0,029	-0,056
-242,176	17,188	0,060	0,034
-241,161	-83,289	-0,155	0,036
-240,146	13,738	0,124	-0,069
-239,132	800,000	0,013	0,036
-238,117	218,199	-0,053	-0,061
-237,103	69,588	-0,100	-0,074
-236,088	800,000	-0,022	-0,063
-235,073	-200,000	0,025	-0,112
-234,059	81,466	-0,060	-0,047
-233,044	16,136	-0,040	-0,023
-232,030	-200,000	-0,007	-0,044
-231,015	-200,000	0,013	0,060
-230,000	-59,232	-0,088	-0,027
-228,986	11,074	0,026	0,014
-227,971	-94,889	-0,163	0,032
-226,957	-200,000	0,016	0,088
-225,942	116,964	-0,098	-0,087
-224,927	323,509	-0,043	-0,059
-223,913	-200,000	-0,001	-0,005
-222,898	86,441	0,064	-0,051
-221,884	800,000	-0,044	0,121
-220,869	-100,904	0,185	-0,032
-219,855	186,321	-0,069	-0,074
-218,840	800,000	-0,033	-0,082
-217,825	-149,392	0,059	-0,003
-216,811	-35,029	-0,089	0,035
-215,796	662,423	-0,045	-0,084
-214,782	-32,688	-0,087	0,035
-213,767	-200,000	-0,000	-0,141
-212,752	246,403	0,015	-0,018
-211,738	-150,993	0,054	-0,003
-210,723	-0,589	-0,185	0,094
-209,709	-68,671	0,034	-0,009
-208,694	-143,239	0,062	0,004
-207,679	-107,003	-0,099	-0,016
-206,665	70,399	-0,083	0,062
-205,650	123,807	0,165	0,150
-204,636	326,761	-0,053	0,074
-203,621	109,996	0,119	0,103
-202,606	800,000	0,042	-0,107
-201,592	-155,416	-0,062	0,003
-200,577	-45,831	0,052	-0,018
-199,563	710,586	0,072	-0,139
-198,548	36,739	0,103	-0,065
-197,533	323,739	-0,102	0,141
-196,519	120,380	0,037	-0,033
-195,504	297,980	-0,084	-0,112
-194,490	-200,000	-0,011	-0,138
-193,475	227,744	-0,053	-0,062
-192,460	515,383	0,035	-0,059
-191,446	800,000	0,047	0,105
-190,431	800,000	-0,037	0,100
-189,417	-103,848	-0,090	0,015
-188,402	-200,000	-0,011	0,056
-187,387	-200,000	0,040	-0,153
-186,373	800,000	-0,040	-0,088
-185,358	800,000	-0,021	-0,047
-184,344	35,506	0,083	-0,053
-183,329	-146,773	-0,047	-0,003
-182,315	-81,014	-0,007	0,002
-181,300	800,000	0,023	-0,049
-180,285	210,366	-0,057	0,065
-179,271	800,000	0,038	0,091
-178,256	55,366	-0,121	0,084
-177,242	-90,551	0,095	0,020
-176,227	487,940	0,079	-0,130
-175,212	386,085	0,014	0,021
-174,198	-153,182	0,042	-0,002
-173,183	-200,000	0,016	-0,065
-172,169	-64,172	-0,090	-0,026
-171,154	28,206	0,044	-0,027
-170,139	289,455	-0,076	0,099
-169,125	-200,000	0,036	0,143
-168,110	-200,000	-0,016	0,126
-167,096	-30,755	0,031	-0,012
-166,081	197,277	-0,057	-0,062
-165,066	800,000	0,054	-0,144
-164,052	173,477	0,113	0,117
-163,037	-1,684	0,066	-0,033
-162,023	800,000	-0,058	-0,135
-161,008	-200,000	-0,014	0,135
-159,993	-15,557	-0,068	-0,031
-158,979	-15,423	-0,088	-0,040
-157,964	-200,000	0,001	-0,030
-156,950	-200,000	-0,029	-0,147
-155,935	29,985	0,079	0,049
-154,920	300,475	-0,079	-0,106
-153,906	-105,462	0,126	-0,020
-152,891	-97,018	0,152	0,028
-151,877	-200,000	-0,017	0,083
-150,862	745,225	-0,044	-0,086
-149,847	-200,000	0,002	-0,040
-148,833	-150,612	0,118	0,006
-147,818	-200,000	-0,006	0,067
-146,804	108,874	0,080	0,069
-145,789	340,972	0,077	0,108
-144,775	342,217	-0,062	0,088
-143,760	278,041	0,010	-0,013
-142,745	207,076	-0,087	-0,098
-141,731	-133,953	0,036	0,003
-140,716	-67,122	0,042	0,012
-139,702	800,000	-0,013	0,031
-138,687	176,426	-0,036	-0,038
-137,672	29,267	-0,129	-0,079
-136,658	-200,000	-0,010	0,047
-135,643	-200,000	0,009	0,048
-134,629	66,218	0,069	0,050
-133,614	266,858	-0,046	-0,057
-132,599	800,000	0,063	-0,131
-131,585	604,088	-0,039	0,070
-130,570	-85,120	-0,062	0,014
-129,556	-84,003	0,117	-0,027
-128,541	800,000	-0,023	0,058
-127,526	320,019	0,043	-0,059
-126,512	20,080	0,102	-0,059
-125,497	144,672	-0,062	-0,060
-124,483	64,998	0,059	0,043
-123,468	-200,000	-0,004	-0,085
-122,453	-132,409	-0,150	0,014
-121,439	212,794	0,055	-0,063
-120,424	-105,520	0,078	0,013
