DTS Sentinel unit serial number:	SN410029Multiplexer serial number:	ORYXHardware model number:	OX2-SRSoftware version number:	ORYX F/W v4,00 Oryx Data Collector v3.7.2.0data status	okinstallation	B5 Nyhavnadifferential loss correction	single-endedforward channel	channel 2reverse channel	N/Adate	2023/12/14time	15:57:13forward acquisition time	300,00reverse acquisition time	0,00gamma	499,1914k internal	0,3157k external	0,3157temperature offset calibration	1,0000default loss term (dB/km)	0,3820temperature slope calibration	1,0000multiplexer offset coefficient	1,0000multiplexer slope coefficient	1,0000fibre end	0,00T internal ref (°C)	7,90T ext. ref 1 (°C)	-7,92T ext. ref 2 (°C)	-7,96length (m)	temperature (°C)	Stokes	anti-Stokes-744,400	142,009	0,116	0,113
-743,385	-67,994	-0,456	-0,130
-742,371	-129,575	0,185	-0,019
-741,356	-140,985	-0,350	-0,026
-740,342	800,000	0,131	0,268
-739,327	-153,723	-0,409	0,020
-738,312	-200,000	0,044	0,223
-737,298	-76,517	-0,337	-0,087
-736,283	-68,915	0,228	0,064
-735,269	-200,000	-0,329	-0,001
-734,254	82,471	0,099	0,079
-733,239	86,782	-0,439	-0,357
-732,225	83,597	0,177	0,142
-731,210	235,542	-0,013	-0,015
-730,196	497,995	-0,063	-0,107
-729,181	25,047	0,041	0,025
-728,167	-200,000	0,041	-0,227
-727,152	-200,000	-0,009	0,041
-726,137	202,480	0,034	-0,039
-725,123	-113,470	-0,130	0,019
-724,108	-200,000	0,012	-0,211
-723,094	51,533	-0,207	-0,145
-722,079	-200,000	-0,005	-0,099
-721,064	-200,000	-0,025	-0,169
-720,050	8,906	-0,139	0,077
-719,035	-59,462	-0,095	-0,030
-718,021	800,000	-0,030	-0,065
-717,006	-200,000	0,003	0,042
-715,991	-168,790	-0,031	-0,001
-714,977	800,000	0,022	-0,061
-713,962	-83,300	-0,054	0,013
-712,948	-82,502	0,093	-0,022
-711,933	-200,000	-0,000	-0,038
-710,918	-112,863	0,113	0,016
-709,904	-200,000	0,027	-0,156
-708,889	800,000	-0,050	-0,108
-707,875	152,067	-0,080	0,080
-706,860	-200,000	-0,002	-0,076
-705,845	533,908	0,024	0,042
-704,831	-14,250	0,091	0,043
-703,816	115,695	-0,021	0,019
-702,802	-200,000	0,003	0,079
-701,787	428,107	-0,047	-0,075
-700,772	800,000	-0,023	-0,071
-699,758	46,850	-0,010	-0,007
-698,743	-58,397	0,074	0,023
-697,729	800,000	-0,027	0,059
-696,714	-110,144	-0,113	0,017
-695,699	-200,000	-0,023	0,091
-694,685	-38,922	0,034	0,013
-693,670	-200,000	0,016	-0,089
-692,656	-96,777	-0,112	0,021
-691,641	800,000	-0,085	-0,184
-690,627	-117,129	-0,050	0,007
-689,612	-200,000	-0,003	-0,013
-688,597	800,000	0,024	-0,051
-687,583	184,833	-0,082	-0,090
-686,568	141,691	-0,062	-0,060
-685,554	117,374	-0,204	-0,184
-684,539	-88,823	0,101	0,022
-683,524	-125,279	-0,115	0,013
-682,510	178,680	0,042	0,045
-681,495	-129,087	-0,052	-0,005
-680,481	-128,867	0,107	-0,011
-679,466	98,713	-0,152	-0,129
-678,451	737,700	-0,052	-0,102
-677,437	323,446	0,075	-0,105
-676,422	-10,971	-0,126	-0,061
-675,408	773,921	-0,050	0,100
-674,393	800,000	-0,096	0,209
-673,378	381,616	-0,037	-0,056
-672,364	-48,093	-0,100	0,035
-671,349	-123,965	-0,110	-0,013
-670,335	-73,338	-0,078	-0,021
-669,320	800,000	-0,040	-0,105
-668,305	-143,051	0,032	0,002
-667,291	768,663	-0,051	-0,103
-666,276	108,883	-0,077	-0,067
-665,262	226,218	-0,011	-0,013
-664,247	-200,000	-0,003	-0,203
-663,232	-200,000	0,007	-0,128
-662,218	531,300	0,072	0,125
-661,203	-103,208	0,085	-0,015
-660,189	16,008	-0,090	0,052
-659,174	800,000	0,027	-0,067
-658,159	-96,117	-0,112	-0,022
-657,145	-200,000	0,003	0,042
-656,130	-200,000	0,015	0,128
-655,116	-200,000	-0,020	-0,188
-654,101	800,000	-0,041	-0,104
-653,086	-70,307	0,029	-0,008
-652,072	-95,990	-0,126	0,024
-651,057	-43,532	-0,142	-0,052
-650,043	253,404	-0,050	-0,062
-649,028	800,000	-0,013	-0,036
-648,014	80,298	0,006	0,004
-646,999	-200,000	-0,042	0,194
-645,984	252,947	-0,010	0,013
-644,970	136,434	-0,105	0,101
-643,955	800,000	-0,010	0,028
-642,941	-200,000	0,005	-0,069
-641,926	211,104	-0,066	-0,076
-640,911	314,989	0,039	0,055
-639,897	73,015	-0,049	0,038
-638,882	-200,000	-0,019	-0,103
-637,868	-30,844	-0,191	-0,079
-636,853	-200,000	0,029	-0,115
-635,838	634,149	0,032	-0,060
-634,824	-53,877	0,066	-0,022
-633,809	-117,528	-0,027	-0,003
-632,795	-200,000	0,018	0,083
-631,780	800,000	-0,053	0,117
-630,765	-43,960	-0,161	-0,059
-629,751	176,557	-0,070	0,075
-628,736	-10,773	-0,111	-0,054
-627,722	71,364	0,037	0,028
-626,707	174,271	0,037	-0,039
-625,692	360,107	0,051	0,075
-624,678	-200,000	-0,001	0,046
-623,663	800,000	0,023	-0,072
-622,649	-200,000	0,010	-0,038
-621,634	590,889	-0,066	-0,121
-620,619	345,354	-0,040	0,057
-619,605	800,000	0,058	0,130
-618,590	-53,060	0,146	0,049
-617,576	-200,000	0,002	-0,061
-616,561	191,496	-0,083	0,092
-615,546	124,430	0,038	-0,035
-614,532	-142,757	0,089	-0,006
-613,517	-200,000	0,030	-0,103
-612,503	87,132	-0,098	-0,080
-611,488	-43,107	0,096	0,036
-610,474	174,403	-0,045	0,048
-609,459	-131,457	0,137	-0,013
-608,444	3,598	-0,138	0,073
-607,430	800,000	-0,039	-0,116
-606,415	-88,561	-0,130	0,028
-605,401	-200,000	-0,009	-0,085
-604,386	518,960	0,002	0,003
-603,371	75,935	-0,031	-0,024
-602,357	800,000	-0,020	-0,042
-601,342	-30,075	0,100	-0,042
-600,328	174,285	-0,058	0,062
-599,313	251,626	0,053	-0,066
-598,298	36,717	0,012	-0,008
-597,284	-138,972	-0,093	-0,007
-596,269	800,000	0,058	-0,132
-595,255	800,000	0,073	0,170
-594,240	800,000	0,022	-0,061
-593,225	3,584	-0,058	-0,031
-592,211	47,757	-0,058	0,040
-591,196	800,000	-0,092	-0,215
-590,182	236,308	0,057	-0,069
-589,167	27,178	-0,060	0,037
-588,152	800,000	0,061	-0,157
-587,138	-200,000	-0,019	-0,107
-586,123	-4,925	-0,102	0,051
-585,109	-17,928	-0,099	-0,045
-584,094	-200,000	0,023	-0,147
-583,079	-200,000	0,003	0,058
-582,065	-9,838	-0,134	0,065
-581,050	-200,000	-0,022	-0,087
-580,036	-46,378	0,108	-0,039
-579,021	-15,021	-0,096	0,045
-578,006	4,630	-0,070	0,037
-576,992	-200,000	0,016	0,296
-575,977	222,867	-0,034	-0,040
-574,963	-200,000	0,019	0,116
-573,948	-200,000	-0,008	0,096
-572,934	-147,649	-0,171	0,010
-571,919	800,000	-0,018	-0,041
-570,904	599,902	0,040	-0,073
-569,890	-15,023	-0,005	-0,002
-568,875	-88,809	-0,101	-0,022
-567,861	24,766	0,166	-0,101
-566,846	168,046	0,085	-0,089
-565,831	-19,589	0,102	0,046
-564,817	276,583	-0,103	-0,134
-563,802	257,085	-0,031	0,038
-562,788	-97,916	-0,084	-0,016
-561,773	-92,395	0,079	-0,016
-560,758	232,736	0,137	0,165
-559,744	-200,000	0,138	0,000
-558,729	-200,000	0,003	-0,074
-557,715	-200,000	-0,036	-0,131
-556,700	232,671	0,036	-0,043
-555,685	-200,000	-0,002	0,052
-554,671	-200,000	0,027	0,142
-553,656	-200,000	0,020	0,075
-552,642	-80,013	0,059	0,014
-551,627	-75,275	-0,074	0,019
-550,612	800,000	-0,027	-0,060
-549,598	10,657	-0,166	-0,092
-548,583	-147,511	-0,081	0,005
-547,569	-25,481	0,057	-0,024
-546,554	-158,970	0,068	0,003
-545,539	0,887	0,110	0,057
-544,525	167,557	-0,143	-0,149
-543,510	-55,881	-0,034	-0,011
-542,496	800,000	-0,038	-0,087
-541,481	800,000	-0,087	-0,180
-540,466	-200,000	-0,011	-0,111
-539,452	317,176	0,028	0,039
-538,437	136,118	0,051	0,049
-537,423	-73,949	0,005	0,001
-536,408	-144,457	-0,104	-0,007
-535,393	800,000	0,010	-0,026
-534,379	-57,056	-0,189	-0,061
-533,364	800,000	-0,045	-0,099
-532,350	96,995	0,077	0,064
-531,335	-120,328	-0,124	-0,015
-530,321	221,710	0,090	0,106
-529,306	69,963	0,054	0,041
-528,291	-125,613	-0,065	-0,007
-527,277	183,223	-0,109	-0,118
-526,262	-200,000	-0,016	-0,093
-525,248	800,000	0,066	-0,147
-524,233	538,995	-0,068	0,118
-523,218	-200,000	-0,003	0,099
-522,204	-200,000	-0,020	0,187
-521,189	330,620	-0,100	-0,141
-520,175	-68,082	-0,065	-0,018
-519,160	-130,041	-0,011	0,001
-518,145	107,370	0,100	0,087
-517,131	-17,170	0,115	0,053
-516,116	81,168	-0,091	0,072
-515,102	16,090	0,111	0,064
-514,087	42,455	-0,067	0,044
-513,072	36,325	-0,039	0,025
-512,058	-97,556	0,115	-0,022
-511,043	800,000	0,043	-0,121
-510,029	800,000	-0,040	0,110
-509,014	-90,852	0,179	0,037
-507,999	800,000	0,025	0,057
-506,985	49,626	0,072	0,049
-505,970	800,000	0,049	-0,148
-504,956	572,531	0,042	-0,076
-503,941	386,649	0,048	0,072
-502,926	89,043	0,023	-0,019
-501,912	-137,777	0,070	0,006
-500,897	-200,000	0,006	0,046
-499,883	-131,371	-0,031	-0,003
-498,868	-9,864	-0,171	-0,083
-497,853	-96,000	0,073	0,014
-496,839	-177,220	0,044	0,001
-495,824	-169,282	0,109	0,003
-494,810	406,250	0,060	0,093
-493,795	29,881	0,106	-0,066
-492,781	-93,777	-0,126	0,025
-491,766	-68,323	0,103	0,029
-490,751	-71,625	-0,127	-0,034
-489,737	175,353	-0,118	-0,125
-488,722	129,274	0,046	-0,043
-487,708	800,000	0,089	0,204
-486,693	-200,000	-0,047	-0,191
-485,678	-125,740	-0,107	-0,012
-484,664	191,114	-0,108	0,119
-483,649	333,465	0,033	0,046
-482,635	-85,425	0,038	0,009
-481,620	-117,497	-0,065	-0,008
-480,605	-73,639	0,104	-0,027
-479,591	232,184	-0,102	0,122
-478,576	-137,145	-0,105	-0,009
-477,562	-136,291	-0,107	-0,009
-476,547	-87,175	0,108	0,024
-475,532	219,539	-0,075	-0,088
-474,518	-200,000	-0,029	0,122
-473,503	-47,764	0,032	0,011
-472,489	-200,000	0,028	0,102
-471,474	-200,000	0,015	0,189
-470,459	127,210	-0,053	0,049
-469,445	-200,000	-0,001	0,086
-468,430	-100,800	0,032	0,006
-467,416	99,756	0,069	-0,058
-466,401	800,000	-0,028	0,073
-465,386	-200,000	0,026	-0,096
-464,372	-164,386	-0,077	0,003
-463,357	260,672	0,054	0,069
-462,343	-200,000	-0,024	-0,078
-461,328	-200,000	-0,012	-0,111
-460,313	776,257	0,020	0,040
-459,299	18,013	0,063	0,036
-458,284	-200,000	0,006	0,073
-457,270	247,194	0,072	-0,089
-456,255	-200,000	-0,026	-0,240
-455,241	741,048	0,056	-0,110
-454,226	-147,983	-0,046	0,003
-453,211	172,251	-0,078	-0,082
-452,197	-76,252	0,183	0,047
-451,182	35,676	-0,058	0,037
-450,168	-54,046	0,160	0,053
-449,153	271,882	-0,096	0,123
-448,138	-200,000	0,006	-0,029
-447,124	616,944	0,063	-0,115
-446,109	5,974	-0,096	-0,052
-445,095	-200,000	-0,014	0,159
-444,080	-73,132	0,112	0,030
-443,065	-116,964	-0,091	-0,012
-442,051	-68,984	-0,086	-0,024
-441,036	220,631	0,034	0,040
-440,022	800,000	-0,035	-0,086
-439,007	-111,617	0,046	0,007
-437,992	148,148	0,104	-0,102
-436,978	-34,481	0,137	-0,054
-435,963	18,421	0,033	-0,019
-434,949	-200,000	0,009	0,055
-433,934	-48,688	0,020	0,007
-432,919	654,182	-0,076	0,143
-431,905	800,000	-0,032	-0,069
-430,890	617,280	0,033	0,061
-429,876	17,010	-0,156	0,090
-428,861	-200,000	-0,004	0,079
-427,846	800,000	0,030	-0,094
-426,832	800,000	0,039	0,090
-425,817	-86,198	0,120	-0,027
-424,803	-43,286	0,064	0,023
-423,788	-72,911	-0,055	0,015
-422,773	-200,000	-0,013	0,060
-421,759	-65,304	0,107	-0,031
-420,744	800,000	0,023	-0,050
-419,730	52,356	0,102	-0,071
-418,715	308,090	0,015	-0,021
-417,701	-21,508	0,017	0,007
-416,686	65,966	-0,056	0,041
-415,671	-167,746	0,072	-0,002
-414,657	-8,722	0,057	0,028
-413,642	-200,000	0,014	-0,058
-412,628	-53,749	0,135	0,045
-411,613	-49,519	0,120	0,041
-410,598	-200,000	-0,013	-0,065
-409,584	-90,642	-0,014	0,003
-408,569	800,000	0,043	-0,129
-407,555	-130,221	0,022	-0,002
-406,540	-200,000	0,008	0,103
-405,525	800,000	0,024	0,069
-404,511	136,228	-0,053	0,050
-403,496	339,140	-0,085	-0,120
-402,482	-145,550	0,088	-0,006
-401,467	-53,932	0,159	0,052
-400,452	384,718	-0,042	-0,063
-399,438	-200,000	-0,021	-0,116
-398,423	199,505	0,089	0,099
-397,409	800,000	-0,030	0,068
-396,394	1,123	-0,043	-0,022
-395,379	161,027	0,080	0,081
-394,365	378,431	0,036	-0,053
-393,350	-3,414	-0,081	0,041
-392,336	800,000	0,063	0,152
-391,321	65,671	-0,062	0,046
-390,306	-83,937	0,031	0,007
-389,292	136,492	-0,022	0,021
-388,277	9,544	-0,065	0,035
-387,263	800,000	0,043	0,104
-386,248	168,397	0,143	0,148
-385,233	88,545	-0,058	-0,047
-384,219	3,690	-0,166	-0,088
-383,204	94,785	0,076	0,062
-382,190	796,059	-0,058	0,116
-381,175	3,167	0,050	0,026
-380,160	-34,334	0,127	-0,050
-379,146	-88,480	0,045	0,010
-378,131	-200,000	0,006	-0,037
-377,117	-29,298	-0,185	0,077
-376,102	15,483	-0,065	0,037
-375,088	-40,345	-0,130	0,049
-374,073	800,000	-0,049	-0,146
-373,058	-8,514	0,145	0,070
-372,044	157,518	-0,083	0,083
-371,029	-133,544	0,061	-0,005
-370,015	143,448	0,053	0,052
-369,000	-50,738	-0,076	0,026
-367,985	-200,000	0,002	-0,008
-366,971	-200,000	0,010	-0,041
-365,956	-74,659	0,075	0,020
-364,942	-36,387	0,153	0,059
-363,927	21,071	0,093	0,055
-362,912	-21,980	0,084	0,037
-361,898	323,489	-0,066	-0,092
-360,883	-178,379	-0,132	0,002
-359,869	-148,107	-0,050	0,003
-358,854	239,744	-0,024	-0,029
-357,839	46,637	0,133	0,089
-356,825	445,127	-0,062	0,100
-355,810	800,000	-0,034	-0,105
-354,796	-200,000	0,023	-0,170
-353,781	-5,414	-0,015	-0,007
-352,766	800,000	0,032	0,077
-351,752	33,395	0,062	-0,039
-350,737	800,000	0,018	0,037
-349,723	156,582	0,092	-0,092
-348,708	800,000	0,001	0,004
-347,693	70,105	0,046	-0,034
-346,679	-81,895	-0,041	0,010
-345,664	-95,509	-0,123	0,024
-344,650	706,403	0,020	0,039
-343,635	-144,938	0,182	-0,012
-342,620	58,793	0,081	-0,057
-341,606	-200,000	0,007	0,161
-340,591	800,000	0,041	0,092
-339,577	-92,761	-0,143	0,029
-338,562	-187,583	0,147	-0,001
-337,548	71,641	0,084	0,064
-336,533	-200,000	0,005	0,034
-335,518	75,777	0,078	0,060
-334,504	156,191	-0,020	-0,020
-333,489	183,329	0,029	-0,031
-332,475	100,966	0,102	0,086
-331,460	-200,000	0,006	-0,080
-330,445	150,374	-0,013	-0,013
-329,431	-200,000	0,002	0,081
-328,416	-200,000	-0,009	-0,032
-327,402	5,842	0,059	-0,031
-326,387	214,261	0,085	0,098
-325,372	800,000	-0,039	0,097
-324,358	-66,370	-0,113	0,032
-323,343	4,297	-0,069	0,036
-322,329	-161,216	-0,052	-0,002
-321,314	-200,000	-0,002	0,078
-320,299	-200,000	-0,006	0,094
-319,285	800,000	0,033	-0,089
-318,270	-134,556	-0,068	-0,006
-317,256	219,587	0,072	-0,083
-316,241	425,689	-0,114	-0,179
-315,226	23,511	-0,092	-0,054
-314,212	800,000	0,020	0,051
-313,197	-158,779	0,070	-0,003
-312,183	800,000	0,007	0,018
-311,168	800,000	0,033	-0,104
-310,153	-35,040	0,036	-0,014
-309,139	119,839	-0,027	-0,024
-308,124	-78,624	0,042	-0,010
-307,110	644,629	-0,027	0,050
-306,095	6,018	0,133	-0,071
-305,080	-200,000	-0,064	-0,227
-304,066	342,417	0,111	-0,158
-303,051	-200,000	0,003	-0,100
-302,037	-200,000	-0,008	-0,037
-301,022	-98,739	-0,120	-0,022
-300,008	-42,912	0,030	0,011
-298,993	-74,181	0,013	-0,003
-297,978	410,396	0,082	0,127
-296,964	159,753	-0,086	-0,087
-295,949	-200,000	-0,021	-0,125
-294,935	473,321	-0,098	-0,161
-293,920	-80,684	-0,120	-0,029
-292,905	-200,000	-0,019	0,091
-291,891	264,915	0,086	0,109
-290,876	-200,000	0,004	0,032
-289,862	111,984	0,069	0,061
-288,847	800,000	-0,046	-0,109
-287,832	14,725	-0,017	-0,009
-286,818	800,000	0,049	0,138
-285,803	-25,849	-0,094	-0,040
-284,789	-148,531	-0,097	-0,006
-283,774	-23,181	0,053	0,023
-282,759	-102,980	0,054	-0,009
-281,745	786,101	-0,030	-0,060
-280,730	800,000	0,017	-0,043
-279,716	207,369	-0,075	-0,085
-278,701	23,226	0,048	-0,028
-277,686	120,440	-0,080	0,072
-276,672	152,125	-0,085	-0,084
-275,657	40,304	0,146	-0,095
-274,643	-200,000	-0,006	-0,110
-273,628	771,839	-0,019	-0,038
-272,613	-200,000	0,029	-0,134
-271,599	-200,000	-0,008	0,090
-270,584	116,088	0,024	-0,021
-269,570	33,737	0,045	-0,028
-268,555	-200,000	-0,002	-0,041
-267,540	800,000	-0,030	-0,070
-266,526	800,000	-0,033	-0,073
-265,511	-200,000	0,005	-0,020
-264,497	-200,000	-0,012	-0,062
-263,482	138,265	0,142	0,135
-262,467	-200,000	0,023	0,104
-261,453	-200,000	-0,002	-0,093
-260,438	-22,555	0,053	-0,023
-259,424	93,334	-0,120	0,098
-258,409	236,061	0,037	0,044
-257,395	-200,000	-0,006	0,064
-256,380	223,491	0,043	0,050
-255,365	-133,382	-0,147	-0,013
-254,351	-81,180	0,057	-0,014
-253,336	90,555	0,036	-0,029
-252,322	363,003	-0,051	-0,075
-251,307	-120,857	0,095	-0,011
-250,292	-200,000	0,009	-0,049
-249,278	387,448	-0,013	0,020
-248,263	-117,677	0,179	0,023
-247,249	68,268	0,071	-0,052
-246,234	-176,921	-0,131	0,002
-245,219	-200,000	-0,001	-0,123
-244,205	800,000	-0,070	0,221
-243,190	-200,000	-0,049	0,163
-242,176	800,000	-0,011	-0,028
-241,161	800,000	0,055	0,153
-240,146	463,198	0,051	0,083
-239,132	800,000	0,055	0,147
-238,117	99,574	-0,027	0,023
-237,103	45,534	0,058	0,039
-236,088	-139,973	0,142	0,011
-235,073	-83,489	-0,075	0,017
-234,059	-133,653	0,065	0,006
-233,044	-200,000	-0,001	-0,087
-232,030	60,502	-0,164	0,117
-231,015	-200,000	-0,015	0,050
-230,000	-200,000	-0,016	-0,143
-228,986	-122,510	-0,098	-0,011
-227,971	33,998	-0,052	-0,033
-226,957	800,000	-0,061	0,136
-225,942	800,000	0,050	0,124
-224,927	-102,863	-0,125	0,021
-223,913	800,000	-0,051	-0,122
-222,898	-54,790	-0,144	-0,047
-221,884	21,884	0,120	-0,070
-220,869	-176,619	0,100	-0,002
-219,855	141,639	0,045	0,043
-218,840	-57,908	0,146	0,046
-217,825	-76,589	-0,080	-0,020
-216,811	-57,660	-0,052	-0,016
-215,796	-200,000	-0,009	-0,058
-214,782	-114,804	-0,077	-0,011
-213,767	-200,000	-0,059	0,191
-212,752	-200,000	-0,006	0,023
-211,738	-200,000	0,018	0,066
-210,723	-200,000	0,000	-0,121
-209,709	207,234	-0,042	0,047
-208,694	17,308	-0,096	0,055
-207,679	-200,000	-0,002	0,070
-206,665	706,561	-0,023	0,043
-205,650	-55,547	0,120	0,039
-204,636	-107,765	-0,054	0,008
-203,621	800,000	0,009	0,021
-202,606	800,000	-0,034	-0,073
-201,592	800,000	0,056	-0,127
-200,577	800,000	0,017	-0,035
-199,563	279,253	-0,071	0,091
-198,548	-7,807	-0,067	-0,033
-197,533	367,582	0,025	-0,037
-196,519	-115,620	0,096	-0,013
-195,504	734,746	0,050	-0,096
-194,490	306,262	-0,065	-0,088
-193,475	-193,724	0,115	-0,001
-192,460	29,761	-0,054	-0,033
-191,446	300,976	0,034	-0,045
-190,431	-200,000	0,001	0,090
-189,417	-43,795	-0,064	0,023
-188,402	-46,880	0,070	0,025
-187,387	-200,000	-0,013	-0,069
-186,373	-200,000	0,022	0,071
-185,358	800,000	0,026	-0,079
-184,344	-3,036	-0,058	0,029
-183,329	800,000	0,043	0,109
-182,315	-30,121	-0,052	0,021
-181,300	-76,242	-0,127	0,032
-180,285	581,014	-0,041	0,073
-179,271	89,796	0,038	0,030
-178,256	82,889	-0,104	-0,082
-177,242	216,702	-0,101	-0,116
-176,227	-64,042	0,177	0,052
-175,212	95,411	0,077	0,063
-174,198	-162,493	-0,109	0,004
-173,183	29,018	-0,051	-0,031
-172,169	364,577	-0,049	-0,072
-171,154	-118,549	-0,151	0,019
-170,139	493,974	0,072	0,119
-169,125	13,015	0,062	0,035
-168,110	424,517	0,059	-0,093
-167,096	168,258	0,110	-0,113
-166,081	335,961	-0,040	-0,057
-165,066	765,808	-0,018	0,036
-164,052	2,558	-0,087	0,045
-163,037	274,199	0,096	-0,122
-162,023	-14,698	0,075	-0,035
-161,008	800,000	0,048	-0,135
-159,993	800,000	0,057	0,138
-158,979	800,000	0,012	0,031
-157,964	800,000	0,045	-0,103
-156,950	-195,184	-0,075	0,000
-155,935	161,167	-0,085	-0,086
-154,920	220,425	-0,033	0,038
-153,906	-200,000	-0,003	0,191
-152,891	118,938	-0,100	0,089
-151,877	-200,000	-0,034	0,137
-150,862	17,979	0,073	0,042
-149,847	-200,000	0,026	-0,083
-148,833	193,314	0,041	-0,045
-147,818	-7,960	0,113	0,055
-146,804	15,057	0,028	-0,016
-145,789	460,750	-0,036	0,058
-144,775	478,603	0,037	0,061
-143,760	285,854	-0,047	0,062
-142,745	148,509	-0,090	-0,088
-141,731	-200,000	0,006	-0,029
-140,716	-77,536	0,083	0,021
-139,702	-200,000	-0,011	0,090
-138,687	-38,792	0,010	-0,004
-137,672	800,000	-0,028	-0,078
-136,658	-200,000	0,010	-0,072
-135,643	800,000	0,040	0,091
-134,629	74,612	-0,113	-0,086
-133,614	14,986	0,037	-0,021
-132,599	133,529	-0,126	0,117
-131,585	223,671	0,042	-0,049
-130,570	18,022	-0,046	0,026
-129,556	138,342	0,098	0,093
-128,541	-200,000	0,018	-0,058
-127,526	800,000	-0,055	-0,124
-126,512	-200,000	-0,003	-0,131
-125,497	800,000	0,075	-0,193
-124,483	30,977	0,097	0,060
-123,468	-81,299	-0,015	-0,004
-122,453	-200,000	-0,019	-0,137
-121,439	528,832	-0,040	-0,069
-120,424	-126,534	-0,040	0,004
-119,410	18,189	0,108	-0,062
