DTS Sentinel unit serial number:	SN410029Multiplexer serial number:	ORYXHardware model number:	OX2-SRSoftware version number:	ORYX F/W v4,00 Oryx Data Collector v3.7.2.0data status	okinstallation	B5 Nyhavnadifferential loss correction	single-endedforward channel	channel 2reverse channel	N/Adate	2023/12/12time	18:02:13forward acquisition time	300,00reverse acquisition time	0,00gamma	499,1914k internal	0,3157k external	0,3157temperature offset calibration	1,0000default loss term (dB/km)	0,3820temperature slope calibration	1,0000multiplexer offset coefficient	1,0000multiplexer slope coefficient	1,0000fibre end	0,00T internal ref (°C)	15,65T ext. ref 1 (°C)	-0,77T ext. ref 2 (°C)	-1,08length (m)	temperature (°C)	Stokes	anti-Stokes-744,400	446,921	0,044	-0,072
-743,385	-83,551	-0,269	0,063
-742,371	-111,342	0,248	0,037
-741,356	-104,290	-0,248	-0,042
-740,342	-200,000	0,008	0,112
-739,327	-97,211	-0,290	0,055
-738,312	-67,780	0,102	-0,029
-737,298	-108,253	-0,341	0,054
-736,283	-200,000	-0,009	-0,030
-735,269	-118,063	-0,170	0,022
-734,254	-41,478	0,147	0,056
-733,239	-59,120	-0,507	-0,160
-732,225	2,474	0,201	0,107
-731,210	152,788	-0,070	0,071
-730,196	-123,445	-0,019	0,002
-729,181	-44,084	0,046	0,017
-728,167	139,286	0,070	-0,068
-727,152	28,300	-0,127	-0,079
-726,137	503,952	-0,066	0,113
-725,123	-88,933	-0,049	0,011
-724,108	159,376	-0,068	0,070
-723,094	-200,000	0,006	-0,147
-722,079	149,998	-0,078	-0,078
-721,064	-68,966	0,138	-0,039
-720,050	-200,000	-0,001	0,121
-719,035	-112,932	0,075	0,011
-718,021	-80,871	-0,190	-0,046
-717,006	-200,000	-0,002	-0,015
-715,991	626,400	-0,081	-0,152
-714,977	-200,000	-0,005	0,059
-713,962	800,000	-0,053	-0,120
-712,948	-98,408	-0,060	-0,011
-711,933	79,471	0,111	0,087
-710,918	-57,838	0,098	0,032
-709,904	-72,862	-0,179	-0,048
-708,889	-200,000	0,019	-0,063
-707,875	-134,354	-0,160	-0,014
-706,860	-64,550	-0,047	-0,014
-705,845	-200,000	-0,005	0,069
-704,831	-200,000	-0,013	0,075
-703,816	20,401	0,046	0,027
-702,802	-8,621	-0,094	-0,046
-701,787	-200,000	0,019	-0,080
-700,772	145,762	-0,070	-0,069
-699,758	-101,880	0,065	-0,012
-698,743	-182,857	0,140	0,002
-697,729	-84,937	-0,043	-0,010
-696,714	262,078	-0,050	0,064
-695,699	-200,000	-0,022	-0,086
-694,685	-115,838	-0,168	-0,023
-693,670	462,465	0,065	-0,107
-692,656	-200,000	0,000	-0,020
-691,641	77,084	0,127	0,099
-690,627	-25,317	0,067	0,029
-689,612	-51,297	-0,153	-0,052
-688,597	29,814	-0,137	-0,086
-687,583	800,000	-0,072	-0,189
-686,568	-200,000	-0,017	-0,082
-685,554	229,072	-0,065	-0,078
-684,539	-119,507	-0,105	-0,013
-683,524	200,104	0,055	0,062
-682,510	147,014	-0,024	-0,024
-681,495	-200,000	0,024	-0,079
-680,481	-15,507	-0,150	0,070
-679,466	96,562	-0,093	-0,078
-678,451	19,147	-0,137	0,081
-677,437	-200,000	-0,009	-0,078
-676,422	-9,960	-0,068	-0,033
-675,408	-200,000	0,002	0,086
-674,393	139,465	-0,107	-0,104
-673,378	-200,000	0,007	-0,057
-672,364	800,000	-0,032	-0,099
-671,349	800,000	0,032	-0,103
-670,335	800,000	-0,035	0,108
-669,320	-200,000	0,003	0,016
-668,305	11,756	0,078	0,044
-667,291	-200,000	0,007	0,154
-666,276	-57,287	0,128	0,041
-665,262	14,770	-0,055	0,031
-664,247	-200,000	0,048	-0,155
-663,232	32,886	-0,023	-0,015
-662,218	24,981	0,038	-0,023
-661,203	6,451	-0,078	0,043
-660,189	-200,000	-0,003	0,192
-659,174	174,714	-0,035	-0,037
-658,159	547,054	-0,052	-0,093
-657,145	-101,057	-0,074	-0,013
-656,130	65,243	0,124	0,092
-655,116	356,822	0,012	-0,017
-654,101	-200,000	-0,020	0,128
-653,086	-74,753	0,068	-0,018
-652,072	239,843	0,058	0,072
-651,057	35,568	-0,045	0,029
-650,043	-200,000	-0,004	-0,113
-649,028	-200,000	0,004	-0,065
-648,014	412,678	-0,054	-0,084
-646,999	-95,790	0,032	0,006
-645,984	4,927	0,060	-0,032
-644,970	-32,420	-0,115	-0,047
-643,955	-84,212	-0,146	-0,034
-642,941	-200,000	0,005	0,025
-641,926	-200,000	-0,014	0,126
-640,911	65,140	0,076	0,056
-639,897	107,788	-0,054	-0,048
-638,882	-75,881	0,106	-0,027
-637,868	-200,000	0,007	-0,103
-636,853	26,595	-0,065	-0,040
-635,838	800,000	0,038	0,080
-634,824	-15,848	-0,170	-0,079
-633,809	256,949	0,042	0,053
-632,795	-200,000	-0,007	-0,038
-631,780	800,000	-0,021	0,046
-630,765	110,040	0,026	-0,023
-629,751	-200,000	-0,039	-0,153
-628,736	250,624	-0,118	-0,147
-627,722	-160,709	-0,066	-0,003
-626,707	306,728	-0,043	-0,059
-625,692	-200,000	-0,000	-0,097
-624,678	-17,364	0,092	0,043
-623,663	-200,000	-0,001	0,134
-622,649	800,000	-0,037	0,078
-621,634	-16,261	-0,081	0,038
-620,619	-200,000	0,034	-0,138
-619,605	800,000	-0,046	-0,113
-618,590	62,571	-0,085	-0,062
-617,576	800,000	-0,041	0,100
-616,561	413,045	-0,054	0,084
-615,546	411,828	0,027	0,043
-614,532	-200,000	0,004	-0,047
-613,517	-102,172	-0,153	0,027
-612,503	-200,000	0,013	-0,060
-611,488	208,732	-0,127	-0,146
-610,474	-200,000	-0,014	0,068
-609,459	-200,000	0,013	-0,048
-608,444	-200,000	0,004	0,035
-607,430	321,260	-0,016	-0,023
-606,415	-200,000	-0,031	-0,177
-605,401	51,619	0,110	-0,077
-604,386	-122,098	-0,083	0,010
-603,371	176,739	0,058	0,062
-602,357	-200,000	0,042	0,161
-601,342	281,515	0,010	0,014
-600,328	-123,244	-0,119	0,014
-599,313	39,762	0,118	-0,077
-598,298	454,264	0,093	-0,151
-597,284	-59,008	0,123	-0,039
-596,269	80,845	-0,046	0,036
-595,255	-105,856	-0,150	-0,025
-594,240	-12,122	-0,058	0,028
-593,225	15,322	0,011	-0,006
-592,211	605,798	-0,014	-0,026
-591,196	-81,344	-0,060	-0,014
-590,182	120,221	-0,145	0,132
-589,167	-200,000	-0,001	-0,047
-588,152	-200,000	-0,004	0,066
-587,138	450,394	0,091	-0,147
-586,123	-200,000	0,017	-0,095
-585,109	-17,221	-0,150	-0,069
-584,094	-200,000	-0,015	-0,052
-583,079	8,155	0,022	0,012
-582,065	121,004	0,015	0,013
-581,050	399,450	-0,042	0,064
-580,036	-18,600	0,070	0,032
-579,021	224,446	-0,061	-0,073
-578,006	-200,000	-0,011	-0,047
-576,992	545,211	-0,048	0,084
-575,977	362,840	0,039	-0,058
-574,963	-126,765	0,111	-0,012
-573,948	800,000	-0,039	0,081
-572,934	800,000	-0,051	-0,111
-571,919	148,745	-0,081	-0,080
-570,904	278,642	-0,141	-0,185
-569,890	800,000	0,046	-0,137
-568,875	132,323	-0,104	0,098
-567,861	-81,739	0,149	0,035
-566,846	454,355	0,085	-0,138
-565,831	-150,026	0,134	-0,008
-564,817	-60,858	0,134	0,041
-563,802	182,029	-0,077	-0,083
-562,788	-9,813	-0,075	0,037
-561,773	-200,000	-0,019	-0,089
-560,758	119,470	-0,025	0,023
-559,744	-200,000	0,009	-0,057
-558,729	-200,000	-0,011	0,041
-557,715	-168,044	0,008	0,000
-556,700	-171,737	-0,024	-0,001
-555,685	-18,842	-0,100	-0,045
-554,671	-159,114	-0,034	0,001
-553,656	-200,000	0,010	-0,107
-552,642	87,534	0,052	0,042
-551,627	-102,374	-0,150	0,026
-550,612	243,276	-0,089	0,109
-549,598	-124,495	0,153	0,017
-548,583	513,229	0,027	-0,047
-547,569	-200,000	-0,009	0,083
-546,554	-126,568	0,122	-0,013
-545,539	800,000	0,017	0,049
-544,525	127,840	0,031	-0,029
-543,510	-108,576	0,065	0,010
-542,496	-200,000	0,003	-0,013
-541,481	6,972	-0,040	0,022
-540,466	-83,346	0,091	-0,021
-539,452	109,442	0,037	0,032
-538,437	-200,000	-0,000	0,077
-537,423	800,000	-0,028	0,060
-536,408	100,654	-0,091	0,077
-535,393	800,000	0,042	0,092
-534,379	-2,628	-0,132	0,068
-533,364	147,472	-0,135	-0,133
-532,350	166,210	0,078	-0,081
-531,335	-71,582	0,052	-0,014
-530,321	89,315	0,142	-0,115
-529,306	-200,000	-0,041	-0,155
-528,291	-38,162	-0,023	0,009
-527,277	6,728	-0,164	-0,089
-526,262	-11,721	0,152	-0,073
-525,248	800,000	0,015	-0,034
-524,233	706,054	0,062	0,121
-523,218	-200,000	0,010	0,060
-522,204	800,000	0,037	0,100
-521,189	-165,625	-0,020	-0,001
-520,175	31,899	0,097	-0,061
-519,160	-190,963	-0,056	-0,000
-518,145	63,574	0,020	-0,015
-517,131	-29,133	0,047	0,020
-516,116	471,880	-0,057	0,094
-515,102	-148,798	0,187	0,011
-514,087	136,263	0,023	0,022
-513,072	-200,000	-0,005	0,024
-512,058	-200,000	0,025	-0,082
-511,043	800,000	0,013	-0,035
-510,029	-200,000	0,010	0,081
-509,014	-26,961	0,030	-0,013
-507,999	-200,000	0,005	0,245
-506,985	-200,000	0,000	0,079
-505,970	244,636	-0,066	0,081
-504,956	-67,412	-0,013	0,004
-503,941	-119,828	0,050	0,006
-502,926	-200,000	0,017	0,105
-501,912	-112,758	-0,027	-0,004
-500,897	169,304	0,026	-0,028
-499,883	333,765	-0,057	-0,081
-498,868	-100,835	-0,112	-0,020
-497,853	-7,085	0,117	-0,058
-496,839	-33,205	0,068	0,027
-495,824	800,000	-0,029	0,076
-494,810	-200,000	0,006	0,147
-493,795	-60,221	-0,038	-0,012
-492,781	-200,000	-0,013	0,041
-491,766	-27,956	-0,083	0,035
-490,751	165,789	-0,039	0,041
-489,737	-72,605	0,087	0,023
-488,722	-132,224	0,043	0,004
-487,708	125,817	0,048	0,045
-486,693	-200,000	0,010	0,202
-485,678	-200,000	0,000	0,159
-484,664	182,228	-0,024	0,026
-483,649	263,972	-0,047	-0,060
-482,635	-63,317	0,178	-0,053
-481,620	-31,366	0,037	-0,015
-480,605	800,000	-0,054	0,121
-479,591	-200,000	0,026	0,087
-478,576	106,854	-0,102	0,089
-477,562	800,000	-0,014	0,037
-476,547	279,701	-0,060	-0,078
-475,532	-60,388	-0,166	-0,051
-474,518	165,331	-0,109	0,112
-473,503	-131,719	0,152	-0,014
-472,489	-200,000	0,008	-0,068
-471,474	-129,820	-0,054	-0,005
-470,459	276,492	-0,018	-0,023
-469,445	-200,000	-0,003	0,024
-468,430	65,607	-0,045	-0,033
-467,416	-179,362	0,095	0,001
-466,401	103,637	0,019	-0,016
-465,386	583,843	-0,087	0,156
-464,372	-71,824	0,074	0,020
-463,357	-112,480	0,123	0,018
-462,343	160,943	0,011	0,011
-461,328	-95,090	-0,099	-0,019
-460,313	-103,009	-0,067	0,011
-459,299	-28,673	0,132	0,055
-458,284	800,000	-0,038	-0,119
-457,270	-200,000	-0,004	-0,044
-456,255	-200,000	-0,018	-0,131
-455,241	245,901	-0,090	-0,110
-454,226	509,723	-0,082	0,139
-453,211	-200,000	-0,015	0,088
-452,197	632,969	0,061	0,114
-451,182	800,000	0,031	-0,083
-450,168	92,933	0,174	0,143
-449,153	-57,470	0,041	0,013
-448,138	-200,000	-0,010	-0,054
-447,124	-141,862	0,071	-0,005
-446,109	-73,755	0,180	-0,047
-445,095	800,000	0,040	0,083
-444,080	242,796	0,026	0,032
-443,065	-54,832	0,119	-0,039
-442,051	-200,000	0,000	0,072
-441,036	-46,953	-0,056	-0,020
-440,022	284,941	0,037	0,048
-439,007	-200,000	0,010	0,078
-437,992	95,662	-0,101	-0,084
-436,978	24,452	0,076	0,046
-435,963	-127,862	0,052	-0,005
-434,949	231,995	-0,026	0,032
-433,934	56,060	-0,071	-0,050
-432,919	78,353	-0,082	0,064
-431,905	231,807	-0,055	-0,066
-430,890	-2,466	0,056	0,028
-429,876	-200,000	0,026	0,127
-428,861	-70,945	0,153	0,042
-427,846	205,310	-0,036	-0,040
-426,832	370,519	-0,079	-0,117
-425,817	-41,416	0,109	-0,041
-424,803	800,000	-0,046	-0,111
-423,788	-200,000	-0,056	0,214
-422,773	800,000	-0,055	0,169
-421,759	800,000	-0,044	0,127
-420,744	427,273	-0,076	0,120
-419,730	131,014	-0,096	-0,090
-418,715	55,396	-0,021	-0,015
-417,701	-34,843	0,074	0,029
-416,686	-27,208	-0,114	0,048
-415,671	15,478	0,144	-0,082
-414,657	51,455	0,102	-0,070
-413,642	800,000	0,032	0,100
-412,628	729,343	-0,060	-0,117
-411,613	19,719	0,052	-0,030
-410,598	3,649	0,055	-0,029
-409,584	89,978	0,069	0,056
-408,569	-200,000	-0,024	0,140
-407,555	-200,000	0,017	0,131
-406,540	35,507	-0,016	0,010
-405,525	-200,000	0,006	-0,058
-404,511	129,420	0,045	-0,042
-403,496	-81,820	0,127	0,030
-402,482	430,630	0,018	-0,028
-401,467	304,895	0,039	-0,052
-400,452	0,978	0,065	0,034
-399,438	-66,715	-0,103	-0,029
-398,423	-200,000	-0,025	-0,100
-397,409	-23,982	0,084	-0,036
-396,394	327,024	-0,137	-0,191
-395,379	16,969	0,042	-0,024
-394,365	119,780	0,079	0,071
-393,350	-139,706	0,051	-0,004
-392,336	-200,000	0,004	0,131
-391,321	128,255	-0,087	0,081
-390,306	-200,000	-0,013	-0,042
-389,292	-76,419	0,017	0,004
-388,277	107,599	0,115	0,099
-387,263	-2,398	-0,072	-0,037
-386,248	-200,000	0,006	-0,071
-385,233	74,732	-0,087	-0,066
-384,219	2,849	0,058	-0,030
-383,204	697,617	-0,094	-0,181
-382,190	-98,273	0,053	-0,010
-381,175	800,000	-0,033	0,077
-380,160	-33,755	0,205	-0,082
-379,146	90,086	-0,056	-0,046
-378,131	-200,000	0,059	-0,222
-377,117	111,504	-0,081	0,071
-376,102	99,119	-0,120	0,101
-375,088	170,077	-0,143	-0,149
-374,073	-200,000	-0,019	-0,221
-373,058	-29,378	0,075	-0,031
-372,044	42,689	-0,043	-0,029
-371,029	-80,028	-0,115	0,028
-370,015	-200,000	0,011	-0,073
-369,000	-171,097	-0,058	-0,001
-367,985	800,000	-0,046	-0,095
-366,971	800,000	0,017	0,037
-365,956	800,000	0,032	0,090
-364,942	64,661	-0,106	0,078
-363,927	214,895	0,024	-0,027
-362,912	319,933	0,041	-0,056
-361,898	-51,057	0,034	-0,011
-360,883	800,000	0,070	-0,143
-359,869	-78,644	-0,077	0,019
-358,854	-133,501	0,168	0,015
-357,839	253,282	-0,074	0,092
-356,825	-31,747	0,155	-0,063
-355,810	309,826	-0,085	-0,115
-354,796	94,446	-0,059	-0,049
-353,781	-175,642	-0,153	-0,003
-352,766	48,658	0,080	-0,054
-351,752	69,348	-0,074	-0,055
-350,737	-200,000	0,018	-0,079
-349,723	94,184	0,038	-0,031
-348,708	389,907	-0,047	0,070
-347,693	381,487	-0,073	-0,108
-346,679	800,000	-0,022	0,071
-345,664	-200,000	-0,024	-0,103
-344,650	-58,076	0,042	0,013
-343,635	-200,000	0,032	-0,102
-342,620	-200,000	-0,033	-0,170
-341,606	31,796	-0,075	-0,047
-340,591	-200,000	0,018	0,097
-339,577	-89,827	-0,081	0,017
-338,562	-117,480	-0,055	0,007
-337,548	-200,000	-0,023	-0,123
-336,533	-66,004	0,133	-0,038
-335,518	-94,028	-0,036	-0,007
-334,504	381,701	-0,036	0,054
-333,489	-200,000	0,011	-0,049
-332,475	-141,999	-0,064	0,005
-331,460	800,000	-0,031	-0,097
-330,445	-200,000	0,008	0,045
-329,431	-73,165	0,134	-0,035
-328,416	-50,210	0,042	0,014
-327,402	800,000	-0,008	0,017
-326,387	800,000	-0,010	0,026
-325,372	-200,000	-0,002	-0,083
-324,358	36,700	0,048	0,030
-323,343	79,320	0,028	-0,022
-322,329	-58,741	0,027	0,008
-321,314	11,129	0,061	0,034
-320,299	-200,000	-0,035	0,181
-319,285	-145,978	-0,141	0,009
-318,270	800,000	-0,043	0,106
-317,256	800,000	0,074	0,195
-316,241	104,376	-0,055	-0,047
-315,226	-18,167	0,063	-0,029
-314,212	-168,040	0,272	-0,008
-313,197	-95,252	0,076	0,015
-312,183	114,309	0,093	-0,082
-311,168	-200,000	0,042	-0,153
-310,153	119,515	-0,124	-0,111
-309,139	400,947	-0,019	0,028
-308,124	384,702	0,007	0,011
-307,110	-25,452	-0,046	-0,019
-306,095	-129,704	0,045	-0,004
-305,080	-200,000	-0,003	0,076
-304,066	166,912	0,077	0,079
-303,051	-56,828	-0,085	0,027
-302,037	-200,000	0,005	-0,147
-301,022	70,089	0,069	-0,052
-300,008	800,000	0,069	0,145
-298,993	320,480	-0,067	0,093
-297,978	190,604	0,047	-0,052
-296,964	-157,407	-0,030	0,001
-295,949	-102,984	-0,131	0,022
-294,935	43,807	0,090	0,059
-293,920	-200,000	-0,007	0,072
-292,905	39,006	0,008	0,005
-291,891	-130,752	0,095	-0,009
-290,876	128,727	-0,077	0,072
-289,862	451,234	-0,031	-0,050
-288,847	-116,942	-0,047	0,006
-287,832	-200,000	0,039	0,194
-286,818	207,776	0,140	-0,159
-285,803	-200,000	-0,023	-0,088
-284,789	140,830	0,081	0,078
-283,774	782,360	0,033	0,066
-282,759	-200,000	-0,017	-0,073
-281,745	464,325	-0,039	0,063
-280,730	25,352	-0,092	0,055
-279,716	50,480	-0,126	-0,086
-278,701	-79,080	-0,034	0,008
-277,686	268,054	0,092	0,116
-276,672	13,440	-0,067	-0,038
-275,657	212,299	0,021	-0,024
-274,643	69,310	0,044	0,033
-273,628	-86,116	-0,159	-0,035
-272,613	-153,548	0,108	-0,005
-271,599	-25,317	-0,263	0,112
-270,584	33,874	0,068	0,043
-269,570	19,065	0,174	0,101
-268,555	53,240	0,016	-0,011
-267,540	90,006	-0,036	-0,029
-266,526	130,996	-0,032	-0,030
-265,511	-101,192	0,089	-0,016
-264,497	-163,237	0,083	-0,003
-263,482	-66,446	0,048	-0,014
-262,467	-200,000	-0,008	0,047
-261,453	-200,000	-0,002	-0,034
-260,438	-147,929	-0,097	-0,006
-259,424	-72,934	-0,076	-0,020
-258,409	17,415	0,047	-0,027
-257,395	84,011	0,047	-0,037
-256,380	800,000	-0,014	-0,042
-255,365	-102,165	0,122	0,021
-254,351	-14,531	-0,078	0,036
-253,336	800,000	0,026	0,056
-252,322	-200,000	0,007	-0,123
-251,307	800,000	0,013	-0,040
-250,292	-200,000	-0,016	0,141
-249,278	772,821	0,072	0,142
-248,263	-200,000	-0,013	0,071
-247,249	-200,000	0,004	-0,087
-246,234	-23,208	0,103	-0,045
-245,219	800,000	-0,032	0,088
-244,205	427,318	0,015	0,023
-243,190	-131,627	0,108	-0,010
-242,176	-200,000	0,019	0,124
-241,161	-200,000	0,005	-0,087
-240,146	-62,128	-0,130	0,039
-239,132	800,000	-0,030	-0,070
-238,117	800,000	0,026	-0,063
-237,103	75,154	-0,084	-0,064
-236,088	53,803	-0,057	0,039
-235,073	800,000	0,062	0,138
-234,059	762,668	0,031	0,061
-233,044	78,404	-0,089	-0,069
-232,030	-138,604	0,073	0,006
-231,015	-8,800	0,090	-0,043
-230,000	-2,347	0,052	-0,026
-228,986	61,206	0,057	0,041
-227,971	-192,406	0,086	-0,001
-226,957	151,733	0,144	-0,142
-225,942	-176,982	0,068	-0,001
-224,927	-113,720	0,150	-0,021
-223,913	173,618	0,028	0,029
-222,898	181,337	0,015	0,016
-221,884	-103,301	-0,183	-0,031
-220,869	239,505	0,102	0,123
-219,855	158,230	0,047	0,047
-218,840	-70,486	0,082	0,022
-217,825	800,000	-0,045	0,104
-216,811	-66,769	0,011	0,003
-215,796	-200,000	0,004	0,156
-214,782	14,185	0,114	0,064
-213,767	-200,000	-0,004	0,028
-212,752	311,738	-0,017	-0,024
-211,738	-63,289	0,153	-0,045
-210,723	800,000	0,033	0,079
-209,709	409,819	-0,049	0,075
-208,694	84,999	-0,126	-0,099
-207,679	10,897	0,044	-0,024
-206,665	800,000	-0,036	0,082
-205,650	800,000	-0,054	0,135
-204,636	-200,000	0,019	-0,076
-203,621	800,000	-0,049	0,114
-202,606	-148,299	-0,117	0,007
-201,592	-139,665	-0,123	-0,009
-200,577	800,000	0,021	-0,055
-199,563	-37,524	-0,047	-0,018
-198,548	378,772	-0,028	0,041
-197,533	-71,580	0,113	-0,030
-196,519	36,079	-0,064	0,040
-195,504	35,771	-0,082	-0,052
-194,490	-200,000	-0,024	-0,100
-193,475	-116,841	-0,065	0,009
-192,460	800,000	-0,049	-0,112
-191,446	14,770	0,150	0,084
-190,431	34,985	0,050	0,031
-189,417	-70,616	0,061	0,017
-188,402	-16,014	-0,087	-0,040
-187,387	-9,197	0,121	-0,058
-186,373	-200,000	-0,002	0,058
-185,358	-200,000	0,001	-0,036
-184,344	800,000	-0,015	-0,030
-183,329	-63,516	-0,031	-0,009
-182,315	193,962	0,119	-0,130
-181,300	800,000	0,042	-0,095
-180,285	222,604	-0,041	-0,048
-179,271	42,087	-0,092	-0,060
-178,256	-200,000	-0,032	-0,120
-177,242	800,000	-0,017	0,042
-176,227	-200,000	-0,048	0,194
-175,212	287,697	0,007	0,009
-174,198	-168,056	-0,074	-0,002
-173,183	800,000	0,042	0,123
-172,169	41,211	-0,133	0,087
-171,154	-80,009	-0,029	-0,007
-170,139	-48,792	-0,029	0,010
-169,125	-76,178	-0,080	-0,020
-168,110	-139,517	0,045	-0,003
-167,096	-26,732	-0,064	0,027
-166,081	-200,000	-0,006	0,088
-165,066	-125,403	-0,058	0,006
-164,052	-200,000	0,003	-0,058
-163,037	-200,000	0,025	-0,088
-162,023	276,556	-0,049	-0,063
-161,008	-12,890	0,048	0,023
-159,993	113,963	0,145	0,127
-158,979	61,015	0,052	0,037
-157,964	-145,125	-0,204	-0,013
-156,950	-200,000	0,002	0,033
-155,935	-34,707	-0,016	0,006
-154,920	214,240	-0,083	0,095
-153,906	546,097	0,019	-0,032
-152,891	9,275	0,108	0,059
-151,877	-2,617	0,023	0,012
-150,862	-53,837	-0,060	0,020
-149,847	320,526	-0,037	-0,051
-148,833	438,828	0,025	0,039
-147,818	-200,000	-0,023	-0,134
-146,804	-200,000	-0,042	0,140
-145,789	-147,369	0,070	-0,004
-144,775	-200,000	0,031	-0,121
-143,760	-113,299	-0,148	-0,021
-142,745	800,000	0,049	-0,155
-141,731	-200,000	0,003	-0,014
-140,716	448,607	0,059	0,094
-139,702	177,824	0,059	0,062
-138,687	-93,307	0,124	0,024
-137,672	-200,000	-0,034	-0,132
-136,658	268,398	-0,084	-0,107
-135,643	37,792	0,047	-0,030
-134,629	-200,000	0,025	0,093
-133,614	-200,000	0,028	0,099
-132,599	-23,850	-0,044	0,019
-131,585	-200,000	0,011	0,056
-130,570	130,394	-0,120	-0,111
-129,556	-111,336	0,086	0,012
-128,541	310,481	-0,004	-0,005
-127,526	-131,701	0,043	-0,004
-126,512	-24,883	0,031	-0,013
-125,497	-80,815	0,089	0,021
-124,483	-200,000	0,000	-0,034
-123,468	474,031	0,010	0,016
-122,453	-200,000	0,030	-0,195
-121,439	800,000	-0,039	-0,083
-120,424	-155,723	0,104	0,005
