DTS Sentinel unit serial number:	SN410029Multiplexer serial number:	ORYXHardware model number:	OX2-SRSoftware version number:	ORYX F/W v4,00 Oryx Data Collector v3.7.2.0data status	okinstallation	B5 Nyhavnadifferential loss correction	single-endedforward channel	channel 2reverse channel	N/Adate	2023/12/13time	10:27:13forward acquisition time	300,00reverse acquisition time	0,00gamma	499,1914k internal	0,3160k external	0,3160temperature offset calibration	1,0000default loss term (dB/km)	0,3820temperature slope calibration	1,0000multiplexer offset coefficient	1,0000multiplexer slope coefficient	1,0000fibre end	0,00T internal ref (°C)	13,64T ext. ref 1 (°C)	-2,71T ext. ref 2 (°C)	-3,02length (m)	temperature (°C)	Stokes	anti-Stokes-744,400	-12,783	0,121	0,058
-743,385	-121,998	-0,285	-0,034
-742,371	36,926	0,122	0,079
-741,356	-116,496	-0,240	0,032
-740,342	-200,000	0,012	0,136
-739,327	-114,347	-0,320	-0,045
-738,312	16,656	0,073	0,043
-737,298	-145,771	-0,462	0,030
-736,283	257,861	0,090	-0,114
-735,269	-34,278	-0,357	0,144
-734,254	800,000	0,059	-0,131
-733,239	-25,572	-0,513	-0,222
-732,225	-117,132	0,199	0,026
-731,210	-36,624	-0,116	-0,046
-730,196	198,325	0,072	-0,082
-729,181	354,926	-0,077	-0,114
-728,167	800,000	0,027	0,062
-727,152	-200,000	0,016	0,075
-726,137	-31,741	-0,073	-0,030
-725,123	-200,000	-0,023	-0,147
-724,108	121,042	-0,100	-0,092
-723,094	450,587	-0,053	-0,087
-722,079	141,618	0,103	-0,100
-721,064	119,885	-0,046	-0,042
-720,050	229,219	0,038	-0,046
-719,035	-72,008	0,089	-0,024
-718,021	-40,224	-0,183	-0,070
-717,006	246,630	0,002	0,002
-715,991	-109,375	-0,111	-0,017
-714,977	800,000	-0,053	-0,131
-713,962	-96,813	-0,205	-0,039
-712,948	800,000	-0,061	0,162
-711,933	289,267	0,071	0,095
-710,918	-200,000	0,011	0,067
-709,904	178,904	0,059	0,064
-708,889	-136,603	-0,155	-0,013
-707,875	50,574	-0,118	0,082
-706,860	308,147	0,046	0,063
-705,845	172,386	-0,026	0,028
-704,831	-162,228	-0,099	0,004
-703,816	-200,000	-0,030	-0,209
-702,802	800,000	-0,070	-0,161
-701,787	220,167	-0,114	-0,134
-700,772	-200,000	0,007	-0,181
-699,758	-63,412	0,171	0,051
-698,743	135,295	0,038	0,037
-697,729	-45,311	-0,013	-0,005
-696,714	-72,194	0,115	-0,031
-695,699	621,886	-0,022	-0,040
-694,685	-68,205	-0,050	-0,014
-693,670	-26,300	0,138	-0,059
-692,656	186,331	-0,064	0,071
-691,641	-67,211	0,239	-0,069
-690,627	-200,000	-0,038	0,135
-689,612	-149,327	0,107	-0,006
-688,597	-60,771	-0,084	-0,026
-687,583	133,817	0,045	0,042
-686,568	668,408	-0,027	-0,052
-685,554	800,000	0,011	0,035
-684,539	-200,000	0,021	0,093
-683,524	159,871	-0,037	0,038
-682,510	112,909	-0,074	0,066
-681,495	-200,000	-0,014	-0,047
-680,481	-80,678	0,039	0,010
-679,466	137,587	-0,111	0,106
-678,451	-81,886	0,063	0,015
-677,437	-200,000	0,005	-0,169
-676,422	527,397	-0,023	-0,039
-675,408	-147,914	-0,078	0,005
-674,393	227,787	-0,104	-0,124
-673,378	9,889	0,053	-0,029
-672,364	58,084	-0,092	-0,066
-671,349	90,417	-0,078	-0,064
-670,335	94,048	0,074	0,062
-669,320	-200,000	-0,019	-0,060
-668,305	-16,895	-0,069	0,032
-667,291	-200,000	-0,004	0,017
-666,276	-133,205	0,138	-0,013
-665,262	252,106	-0,054	-0,068
-664,247	30,603	0,047	-0,029
-663,232	-146,047	-0,107	-0,007
-662,218	-200,000	-0,031	0,126
-661,203	-42,664	-0,086	0,032
-660,189	-80,256	0,077	0,019
-659,174	77,691	-0,083	-0,064
-658,159	270,298	-0,070	-0,091
-657,145	-96,164	-0,108	0,021
-656,130	-190,194	0,030	0,000
-655,116	200,789	-0,071	0,080
-654,101	800,000	-0,021	0,052
-653,086	136,239	0,021	-0,020
-652,072	-55,313	-0,088	0,029
-651,057	-200,000	-0,007	-0,074
-650,043	-200,000	-0,011	-0,135
-649,028	420,702	0,029	-0,045
-648,014	72,982	-0,097	0,074
-646,999	151,855	0,111	0,111
-645,984	11,220	0,004	0,002
-644,970	740,605	-0,043	0,085
-643,955	738,823	-0,020	-0,039
-642,941	800,000	-0,038	-0,107
-641,926	15,781	-0,122	-0,070
-640,911	-200,000	0,016	0,157
-639,897	-146,645	0,024	0,002
-638,882	800,000	0,025	0,059
-637,868	-200,000	0,018	-0,065
-636,853	-68,820	-0,076	-0,021
-635,838	-54,045	-0,047	-0,016
-634,824	204,044	-0,014	0,016
-633,809	-118,934	-0,080	-0,010
-632,795	-200,000	0,013	0,060
-631,780	-34,779	0,119	-0,047
-630,765	-200,000	-0,022	-0,146
-629,751	-146,362	-0,068	-0,004
-628,736	421,914	-0,024	0,037
-627,722	294,498	-0,128	0,172
-626,707	-200,000	-0,027	0,102
-625,692	87,714	0,096	0,078
-624,678	-11,480	-0,102	-0,049
-623,663	582,028	-0,036	-0,065
-622,649	-200,000	-0,002	0,069
-621,634	514,396	-0,021	-0,036
-620,619	-155,345	-0,145	0,007
-619,605	68,418	-0,030	0,022
-618,590	207,102	0,114	0,130
-617,576	-200,000	0,015	0,152
-616,561	500,189	-0,052	-0,088
-615,546	-200,000	-0,042	-0,163
-614,532	-77,169	-0,021	-0,005
-613,517	0,437	-0,086	0,045
-612,503	190,596	0,039	-0,044
-611,488	322,218	0,033	0,046
-610,474	-200,000	0,001	-0,006
-609,459	-200,000	0,015	0,111
-608,444	-200,000	0,018	-0,084
-607,430	662,799	-0,031	-0,058
-606,415	-143,135	-0,075	-0,005
-605,401	-153,294	-0,190	0,010
-604,386	104,886	0,058	-0,050
-603,371	538,200	-0,047	0,081
-602,357	-200,000	0,003	-0,050
-601,342	163,035	0,084	-0,086
-600,328	-200,000	0,009	-0,081
-599,313	800,000	0,005	0,017
-598,298	110,025	0,066	-0,058
-597,284	800,000	-0,036	-0,098
-596,269	-32,625	0,017	0,007
-595,255	108,000	0,133	-0,116
-594,240	-89,705	-0,128	0,027
-593,225	-111,406	0,028	0,004
-592,211	-121,031	-0,132	-0,016
-591,196	-200,000	-0,012	-0,081
-590,182	-44,977	-0,128	0,046
-589,167	-84,224	-0,037	-0,009
-588,152	-67,967	0,005	-0,001
-587,138	-108,681	-0,031	-0,005
-586,123	-200,000	-0,003	-0,061
-585,109	-200,000	-0,021	-0,108
-584,094	-200,000	-0,014	-0,139
-583,079	36,246	-0,073	0,047
-582,065	239,893	0,090	0,110
-581,050	-200,000	0,011	0,130
-580,036	-22,407	0,152	0,067
-579,021	-163,680	-0,109	0,004
-578,006	-200,000	-0,007	-0,068
-576,992	-128,271	-0,141	0,014
-575,977	-7,283	-0,195	0,097
-574,963	-62,252	0,091	0,028
-573,948	309,325	0,070	-0,096
-572,934	-200,000	-0,009	-0,154
-571,919	352,305	-0,065	-0,094
-570,904	800,000	-0,063	0,160
-569,890	31,029	-0,030	-0,019
-568,875	-200,000	0,009	0,066
-567,861	144,147	0,064	0,062
-566,846	-200,000	0,013	-0,079
-565,831	-200,000	-0,032	0,133
-564,817	-200,000	-0,008	0,029
-563,802	-57,415	-0,057	0,018
-562,788	800,000	-0,032	0,081
-561,773	-200,000	0,033	-0,118
-560,758	446,047	-0,023	-0,037
-559,744	579,965	0,028	-0,050
-558,729	-59,527	-0,027	0,008
-557,715	-200,000	-0,010	-0,064
-556,700	-100,962	-0,156	0,028
-555,685	-84,089	0,126	-0,029
-554,671	-55,503	0,110	0,036
-553,656	642,406	0,014	0,026
-552,642	16,634	-0,097	-0,056
-551,627	-27,679	-0,060	0,025
-550,612	-53,155	-0,016	0,005
-549,598	-56,186	0,137	-0,044
-548,583	2,597	0,144	0,076
-547,569	-66,983	0,073	-0,021
-546,554	51,017	0,029	0,020
-545,539	-200,000	0,022	-0,118
-544,525	173,402	0,064	0,067
-543,510	-120,637	-0,106	-0,013
-542,496	-129,923	-0,081	-0,008
-541,481	-43,176	0,052	-0,019
-540,466	226,121	-0,056	-0,067
-539,452	161,965	-0,061	-0,063
-538,437	800,000	-0,024	-0,065
-537,423	-132,406	0,089	0,008
-536,408	80,395	0,065	-0,051
-535,393	-200,000	0,011	-0,134
-534,379	-200,000	0,017	-0,140
-533,364	413,071	-0,032	0,050
-532,350	94,905	0,148	-0,123
-531,335	-136,118	0,078	0,007
-530,321	47,103	-0,072	0,049
-529,306	239,074	-0,025	-0,031
-528,291	224,372	-0,074	0,088
-527,277	-107,147	0,050	-0,008
-526,262	495,878	0,055	-0,093
-525,248	377,860	-0,066	0,099
-524,233	528,755	0,054	0,094
-523,218	-48,947	0,091	-0,032
-522,204	800,000	-0,060	0,156
-521,189	233,585	-0,009	0,011
-520,175	28,409	-0,058	-0,036
-519,160	800,000	0,015	0,038
-518,145	-88,406	0,071	0,015
-517,131	213,127	-0,108	0,125
-516,116	19,257	0,072	0,042
-515,102	101,753	-0,078	0,066
-514,087	-74,022	0,083	0,022
-513,072	800,000	-0,029	0,071
-512,058	-161,873	0,104	-0,004
-511,043	-200,000	-0,018	-0,151
-510,029	141,661	-0,044	0,042
-509,014	402,630	0,077	0,119
-507,999	-200,000	-0,012	-0,102
-506,985	800,000	-0,051	-0,137
-505,970	786,487	-0,032	0,064
-504,956	34,379	-0,104	-0,066
-503,941	-32,824	-0,107	0,043
-502,926	219,990	-0,069	0,081
-501,912	31,414	0,032	0,020
-500,897	-7,962	-0,055	0,027
-499,883	105,964	0,041	0,035
-498,868	-58,225	-0,108	-0,034
-497,853	800,000	-0,005	-0,012
-496,839	-130,731	0,226	-0,022
-495,824	27,149	-0,056	0,034
-494,810	143,911	-0,037	-0,036
-493,795	-134,037	0,018	0,002
-492,781	66,438	0,048	-0,036
-491,766	432,709	-0,049	-0,079
-490,751	-98,562	-0,060	0,011
-489,737	-200,000	-0,004	0,106
-488,722	-200,000	0,029	-0,117
-487,708	57,338	0,120	-0,085
-486,693	-200,000	-0,003	0,084
-485,678	800,000	0,015	0,035
-484,664	-63,004	0,042	-0,013
-483,649	327,316	-0,047	0,065
-482,635	-66,920	0,040	0,011
-481,620	37,665	0,082	-0,053
-480,605	107,749	-0,109	-0,095
-479,591	-200,000	-0,001	-0,031
-478,576	-200,000	0,006	-0,020
-477,562	591,857	-0,077	0,139
-476,547	333,637	-0,048	-0,068
-475,532	33,741	-0,067	-0,043
-474,518	-200,000	0,028	0,130
-473,503	-49,111	0,132	0,046
-472,489	-200,000	-0,002	0,079
-471,474	33,811	0,086	-0,055
-470,459	-200,000	-0,051	-0,196
-469,445	-200,000	-0,031	-0,141
-468,430	800,000	0,048	-0,099
-467,416	-186,383	0,055	0,001
-466,401	176,020	0,041	0,043
-465,386	-200,000	0,004	0,163
-464,372	-91,768	0,166	0,034
-463,357	-200,000	0,021	-0,105
-462,343	800,000	-0,044	-0,129
-461,328	100,853	-0,103	-0,087
-460,313	800,000	-0,023	0,053
-459,299	-200,000	-0,036	0,129
-458,284	63,952	0,055	0,041
-457,270	787,350	-0,050	-0,101
-456,255	132,994	-0,106	-0,100
-455,241	-53,067	0,004	0,001
-454,226	800,000	-0,041	-0,115
-453,211	800,000	-0,031	-0,083
-452,197	242,288	-0,009	0,011
-451,182	1,210	-0,020	0,011
-450,168	-200,000	-0,000	-0,068
-449,153	-200,000	0,002	-0,216
-448,138	-20,576	-0,122	-0,054
-447,124	-200,000	0,005	-0,069
-446,109	-79,845	0,092	-0,022
-445,095	22,190	0,143	0,085
-444,080	-91,736	0,099	-0,020
-443,065	800,000	0,044	0,120
-442,051	5,122	0,100	0,053
-441,036	431,163	-0,067	-0,105
-440,022	-200,000	-0,014	-0,192
-439,007	716,219	0,019	-0,037
-437,992	-17,062	0,131	-0,060
-436,978	408,312	0,054	0,083
-435,963	-200,000	0,031	0,149
-434,949	-63,630	0,077	-0,023
-433,934	800,000	0,005	-0,013
-432,919	-200,000	-0,004	0,035
-431,905	312,911	-0,010	-0,014
-430,890	59,236	0,149	-0,106
-429,876	-156,101	0,089	-0,004
-428,861	800,000	0,038	-0,107
-427,846	17,867	-0,116	-0,067
-426,832	57,885	-0,107	-0,076
-425,817	-25,611	-0,099	-0,042
-424,803	-200,000	-0,009	-0,040
-423,788	-200,000	-0,015	-0,071
-422,773	66,661	-0,056	0,041
-421,759	0,393	0,063	-0,033
-420,744	111,242	-0,063	-0,056
-419,730	35,998	-0,039	-0,025
-418,715	73,801	-0,087	-0,066
-417,701	-200,000	0,005	-0,058
-416,686	-200,000	-0,023	0,102
-415,671	-50,355	-0,041	-0,014
-414,657	290,717	-0,017	-0,023
-413,642	55,252	0,060	0,042
-412,628	74,024	-0,114	-0,087
-411,613	1,788	-0,087	-0,045
-410,598	145,323	0,068	0,066
-409,584	-200,000	0,009	0,059
-408,569	-63,428	0,094	0,028
-407,555	-200,000	0,008	0,106
-406,540	377,649	0,007	-0,011
-405,525	-130,123	-0,106	0,010
-404,511	-162,457	-0,086	0,003
-403,496	49,937	0,048	0,033
-402,482	-44,805	0,091	0,033
-401,467	-85,108	0,051	0,011
-400,452	-200,000	0,014	0,087
-399,438	-200,000	-0,024	0,134
-398,423	53,240	-0,083	0,058
-397,409	800,000	-0,017	0,039
-396,394	58,284	-0,125	-0,089
-395,379	738,820	0,019	-0,037
-394,365	235,880	0,112	0,135
-393,350	54,668	-0,086	-0,060
-392,336	-108,552	0,060	0,009
-391,321	-132,061	-0,038	0,004
-390,306	-200,000	-0,044	0,143
-389,292	800,000	-0,032	0,065
-388,277	-78,046	-0,082	-0,020
-387,263	-5,434	0,074	0,037
-386,248	467,925	-0,073	-0,119
-385,233	-200,000	0,013	-0,088
-384,219	-200,000	-0,011	0,107
-383,204	-108,843	0,123	0,019
-382,190	-76,122	-0,124	-0,032
-381,175	-152,949	-0,099	-0,005
-380,160	35,688	0,106	0,068
-379,146	317,310	-0,032	0,044
-378,131	182,276	-0,027	0,029
-377,117	511,786	0,040	-0,068
-376,102	-5,748	0,041	0,020
-375,088	-200,000	0,019	-0,120
-374,073	800,000	0,023	-0,069
-373,058	339,277	-0,051	0,072
-372,044	-36,678	0,149	0,058
-371,029	-87,907	0,054	0,012
-370,015	-132,506	0,154	-0,014
-369,000	493,832	-0,055	-0,093
-367,985	-200,000	0,003	-0,107
-366,971	419,442	0,048	-0,075
-365,956	216,019	0,055	-0,064
-364,942	49,229	0,099	0,067
-363,927	107,577	-0,060	0,051
-362,912	-84,943	0,112	-0,025
-361,898	-43,829	-0,059	-0,021
-360,883	-22,468	-0,052	-0,023
-359,869	109,460	-0,110	-0,096
-358,854	800,000	-0,062	-0,126
-357,839	134,622	0,064	0,060
-356,825	129,922	0,081	0,076
-355,810	497,683	0,057	0,096
-354,796	6,438	-0,038	-0,020
-353,781	56,268	-0,111	-0,078
-352,766	122,113	0,092	-0,084
-351,752	800,000	-0,020	-0,043
-350,737	-200,000	0,040	0,139
-349,723	66,541	0,057	0,042
-348,708	88,631	-0,101	0,081
-347,693	14,214	0,102	-0,057
-346,679	-52,021	-0,050	-0,017
-345,664	0,821	-0,049	0,025
-344,650	800,000	0,035	0,101
-343,635	-60,886	0,096	0,029
-342,620	-71,526	0,170	-0,046
-341,606	84,444	0,126	0,100
-340,591	-200,000	0,003	0,094
-339,577	-200,000	0,015	-0,119
-338,562	-8,142	-0,060	-0,029
-337,548	168,606	0,068	0,071
-336,533	-99,053	-0,098	0,018
-335,518	-156,753	0,082	0,004
-334,504	-37,999	0,222	0,085
-333,489	-15,275	-0,146	-0,067
-332,475	-200,000	-0,004	0,080
-331,460	-123,637	0,050	0,006
-330,445	-200,000	0,018	0,084
-329,431	-27,496	0,040	0,017
-328,416	-46,533	-0,107	-0,038
-327,402	-26,716	0,067	-0,028
-326,387	-200,000	0,010	0,119
-325,372	41,675	-0,106	0,069
-324,358	677,897	-0,039	-0,073
-323,343	800,000	-0,081	-0,187
-322,329	-99,849	0,117	-0,021
-321,314	411,963	-0,051	-0,079
-320,299	466,857	-0,034	0,056
-319,285	-101,075	0,117	0,021
-318,270	-27,629	-0,026	-0,011
-317,256	-79,537	0,029	0,007
-316,241	321,987	-0,061	-0,084
-315,226	-200,000	0,042	-0,142
-314,212	-118,400	0,102	0,013
-313,197	199,829	0,048	-0,053
-312,183	199,270	0,030	0,033
-311,168	-17,662	-0,141	-0,064
-310,153	296,527	0,041	0,055
-309,139	142,312	0,092	-0,089
-308,124	-48,285	-0,003	-0,001
-307,110	-2,033	0,081	0,041
-306,095	7,179	-0,036	0,020
-305,080	-24,657	-0,029	-0,012
-304,066	29,889	-0,033	0,020
-303,051	800,000	-0,044	-0,117
-302,037	-200,000	0,024	-0,147
-301,022	-200,000	0,010	-0,129
-300,008	-109,564	0,084	-0,013
-298,993	282,346	0,022	0,029
-297,978	300,506	-0,091	0,122
-296,964	490,285	-0,026	0,043
-295,949	151,472	-0,049	-0,048
-294,935	-200,000	0,005	0,066
-293,920	-200,000	0,032	0,175
-292,905	431,258	-0,048	-0,076
-291,891	-200,000	-0,017	0,124
-290,876	210,104	-0,038	0,044
-289,862	4,035	-0,037	-0,020
-288,847	114,855	-0,068	-0,060
-287,832	-185,159	0,027	0,000
-286,818	-200,000	0,014	0,049
-285,803	348,317	0,040	0,057
-284,789	-200,000	0,007	0,168
-283,774	91,141	-0,110	0,089
-282,759	-200,000	-0,010	0,088
-281,745	218,005	-0,040	0,047
-280,730	48,306	0,070	-0,047
-279,716	-200,000	0,001	0,013
-278,701	-200,000	0,000	-0,065
-277,686	-128,855	0,127	0,013
-276,672	800,000	-0,019	0,059
-275,657	-100,169	-0,224	-0,040
-274,643	-123,204	0,033	0,004
-273,628	-200,000	0,001	0,041
-272,613	138,401	-0,067	-0,064
-271,599	525,108	-0,036	-0,062
-270,584	747,420	0,060	-0,117
-269,570	-200,000	0,035	0,000
-268,555	-200,000	-0,004	0,043
-267,540	-200,000	-0,009	-0,054
-266,526	-200,000	0,002	-0,120
-265,511	-200,000	0,011	0,120
-264,497	-27,277	-0,027	0,011
-263,482	800,000	0,035	0,101
-262,467	335,598	0,074	0,103
-261,453	-22,318	0,065	0,028
-260,438	-200,000	-0,002	-0,084
-259,424	800,000	-0,033	-0,098
-258,409	68,259	-0,116	-0,086
-257,395	-200,000	0,001	-0,069
-256,380	-153,629	-0,040	0,002
-255,365	800,000	0,034	0,072
-254,351	-200,000	0,002	0,099
-253,336	-46,137	-0,144	-0,051
-252,322	-200,000	0,010	0,130
-251,307	-42,748	-0,106	-0,039
-250,292	-200,000	-0,002	0,074
-249,278	-45,463	0,122	0,044
-248,263	220,675	0,072	0,084
-247,249	214,721	0,042	0,048
-246,234	-145,344	-0,082	-0,005
-245,219	-51,575	0,078	-0,026
-244,205	-167,479	0,024	0,001
-243,190	-200,000	-0,008	-0,059
-242,176	38,250	0,126	0,081
-241,161	216,404	0,097	0,112
-240,146	-200,000	0,007	0,027
-239,132	29,731	0,102	0,062
-238,117	-200,000	-0,008	-0,059
-237,103	-200,000	0,012	-0,045
-236,088	-140,038	-0,085	-0,006
-235,073	-200,000	0,018	0,241
-234,059	97,069	-0,007	-0,005
-233,044	142,641	0,048	0,046
-232,030	150,682	0,014	0,014
-231,015	351,618	-0,061	0,087
-230,000	61,401	0,062	-0,044
-228,986	-34,925	-0,076	0,030
-227,971	-76,856	0,094	0,024
-226,957	44,517	-0,016	-0,011
-225,942	295,689	0,058	0,076
-224,927	62,400	0,057	0,041
-223,913	-188,868	-0,124	-0,001
-222,898	41,883	-0,068	-0,044
-221,884	-116,201	-0,064	0,008
-220,869	-200,000	-0,000	0,077
-219,855	228,204	0,103	0,121
-218,840	-41,337	0,093	-0,034
-217,825	-200,000	0,000	0,093
-216,811	-167,276	0,128	0,004
-215,796	-45,464	-0,147	-0,052
-214,782	800,000	0,017	0,050
-213,767	334,162	0,040	-0,056
-212,752	-200,000	0,010	0,036
-211,738	16,372	0,101	0,057
-210,723	8,867	0,038	-0,021
-209,709	-200,000	-0,124	0,000
-208,694	25,532	-0,070	-0,042
-207,679	-200,000	-0,001	-0,196
-206,665	-160,917	-0,054	0,002
-205,650	800,000	-0,038	0,121
-204,636	8,677	0,097	0,052
-203,621	-116,230	0,070	0,009
-202,606	-200,000	0,045	-0,168
-201,592	800,000	0,065	-0,130
-200,577	294,929	-0,033	0,044
-199,563	632,565	0,026	0,048
-198,548	800,000	-0,039	-0,104
-197,533	279,721	0,083	0,108
-196,519	800,000	-0,046	-0,101
-195,504	-200,000	0,007	-0,033
-194,490	288,169	0,038	-0,050
-193,475	485,454	-0,044	0,073
-192,460	256,031	-0,060	-0,074
-191,446	-42,951	-0,042	-0,015
-190,431	-200,000	0,004	-0,128
-189,417	-200,000	-0,025	0,098
-188,402	-128,299	-0,138	-0,014
-187,387	-200,000	-0,005	-0,122
-186,373	-33,291	0,063	0,025
-185,358	-54,335	-0,074	-0,024
-184,344	221,009	0,048	-0,056
-183,329	114,444	0,110	0,096
-182,315	96,787	-0,059	0,049
-181,300	21,608	0,037	0,022
-180,285	-59,089	-0,137	0,042
-179,271	36,978	0,065	0,041
-178,256	419,809	0,018	0,027
-177,242	32,561	-0,055	0,034
-176,227	25,605	0,178	0,106
-175,212	30,991	0,093	0,057
-174,198	-54,457	-0,200	0,065
-173,183	52,477	-0,106	-0,073
-172,169	195,212	0,074	-0,081
-171,154	-200,000	-0,000	0,040
-170,139	0,051	0,032	0,016
-169,125	214,652	0,070	0,080
-168,110	-200,000	0,003	0,053
-167,096	-58,832	0,064	0,020
-166,081	-57,060	0,099	-0,031
-165,066	-200,000	-0,009	0,034
-164,052	127,342	-0,061	0,056
-163,037	-154,129	0,158	0,008
-162,023	105,938	-0,011	0,010
-161,008	-200,000	0,000	-0,058
-159,993	800,000	-0,013	-0,032
-158,979	800,000	-0,036	0,110
-157,964	-181,728	-0,046	0,001
-156,950	-200,000	-0,008	-0,120
-155,935	128,257	-0,043	0,040
-154,920	-114,332	-0,032	0,004
-153,906	800,000	0,024	0,068
-152,891	-200,000	-0,004	0,036
-151,877	800,000	-0,028	0,089
-150,862	-200,000	-0,021	-0,156
-149,847	225,919	-0,051	-0,060
-148,833	585,733	-0,019	0,034
-147,818	354,091	0,012	0,017
-146,804	-200,000	0,028	0,145
-145,789	800,000	-0,032	-0,094
-144,775	-200,000	0,002	-0,082
-143,760	130,655	-0,046	-0,043
-142,745	207,246	0,026	-0,030
-141,731	19,388	-0,050	0,029
-140,716	-200,000	0,000	-0,093
-139,702	-36,867	-0,026	-0,010
-138,687	5,778	0,039	0,020
-137,672	75,036	-0,062	-0,047
-136,658	-200,000	-0,002	0,022
-135,643	-42,330	-0,078	-0,029
-134,629	491,913	-0,034	0,057
-133,614	-63,323	-0,099	0,029
-132,599	33,102	-0,088	0,055
-131,585	-106,889	0,044	0,007
-130,570	-42,154	-0,114	-0,042
-129,556	-200,000	0,008	0,186
-128,541	123,991	-0,082	-0,074
-127,526	4,179	-0,015	-0,008
-126,512	-200,000	-0,011	0,049
-125,497	-200,000	-0,012	0,157
-124,483	-200,000	0,018	0,144
-123,468	-200,000	0,007	-0,060
-122,453	-200,000	-0,016	-0,113
-121,439	-200,000	0,039	-0,156
-120,424	-200,000	-0,038	-0,131
-119,410	-200,000	0,012	0,082
