DTS Sentinel unit serial number:	SN410029Multiplexer serial number:	ORYXHardware model number:	OX2-SRSoftware version number:	ORYX F/W v4,00 Oryx Data Collector v3.7.2.0data status	okinstallation	B5 Nyhavnadifferential loss correction	single-endedforward channel	channel 2reverse channel	N/Adate	2023/12/14time	19:07:13forward acquisition time	300,00reverse acquisition time	0,00gamma	499,1914k internal	0,3156k external	0,3156temperature offset calibration	1,0000default loss term (dB/km)	0,3820temperature slope calibration	1,0000multiplexer offset coefficient	1,0000multiplexer slope coefficient	1,0000fibre end	0,00T internal ref (°C)	8,75T ext. ref 1 (°C)	-5,99T ext. ref 2 (°C)	-6,06length (m)	temperature (°C)	Stokes	anti-Stokes-744,400	-24,231	0,103	0,045
-743,385	-128,999	-0,358	0,037
-742,371	-61,244	0,271	0,084
-741,356	-51,647	-0,392	-0,134
-740,342	-115,363	0,177	-0,024
-739,327	-1,569	-0,433	-0,224
-738,312	-200,000	0,133	0,000
-737,298	-97,419	-0,393	-0,075
-736,283	-188,253	0,094	-0,001
-735,269	117,004	-0,197	-0,179
-734,254	301,648	0,105	0,143
-733,239	-19,546	-0,626	-0,285
-732,225	-66,053	0,326	0,095
-731,210	-200,000	-0,033	0,196
-730,196	-200,000	0,001	-0,234
-729,181	-200,000	-0,009	-0,101
-728,167	-80,447	-0,094	-0,023
-727,152	-1,449	-0,073	-0,038
-726,137	-111,359	-0,042	-0,006
-725,123	-150,102	-0,123	0,007
-724,108	-52,133	-0,129	0,044
-723,094	-7,549	-0,089	-0,044
-722,079	-200,000	-0,001	-0,091
-721,064	474,329	0,046	-0,078
-720,050	466,334	-0,015	0,025
-719,035	689,089	0,029	0,057
-718,021	-200,000	-0,006	-0,046
-717,006	-25,266	-0,197	-0,086
-715,991	31,628	-0,026	0,017
-714,977	-24,419	-0,035	-0,015
-713,962	261,256	0,028	-0,035
-712,948	-69,910	-0,055	0,015
-711,933	800,000	0,042	0,125
-710,918	-55,257	-0,097	0,032
-709,904	-52,784	-0,072	-0,024
-708,889	62,450	-0,176	-0,129
-707,875	-4,480	-0,170	0,086
-706,860	-29,985	0,093	-0,039
-705,845	335,668	0,027	-0,039
-704,831	800,000	-0,033	0,103
-703,816	-166,657	0,058	0,002
-702,802	-200,000	0,013	-0,185
-701,787	373,066	-0,100	-0,150
-700,772	-99,960	-0,094	-0,017
-699,758	15,010	0,082	-0,047
-698,743	-104,033	0,116	0,020
-697,729	592,441	0,079	0,145
-696,714	800,000	0,010	-0,023
-695,699	-200,000	-0,002	0,012
-694,685	781,237	-0,035	-0,072
-693,670	800,000	0,051	-0,117
-692,656	92,637	-0,038	-0,031
-691,641	156,845	0,030	-0,030
-690,627	277,898	-0,108	0,143
-689,612	-45,004	0,041	0,015
-688,597	800,000	0,017	-0,047
-687,583	308,096	-0,036	0,049
-686,568	117,073	-0,065	-0,059
-685,554	-142,143	-0,081	0,006
-684,539	361,880	0,063	-0,094
-683,524	214,706	-0,052	-0,061
-682,510	-107,181	-0,058	-0,009
-681,495	-200,000	-0,022	-0,109
-680,481	800,000	-0,035	0,112
-679,466	13,882	-0,208	-0,119
-678,451	-200,000	0,002	-0,029
-677,437	275,896	-0,056	0,073
-676,422	691,115	0,063	0,121
-675,408	-200,000	-0,010	-0,067
-674,393	263,447	-0,044	0,057
-673,378	655,382	-0,053	-0,100
-672,364	-87,173	-0,120	0,027
-671,349	-200,000	-0,015	-0,098
-670,335	-200,000	-0,011	-0,060
-669,320	-32,728	0,169	-0,069
-668,305	-9,082	-0,116	0,057
-667,291	429,900	0,049	0,078
-666,276	-84,619	-0,213	-0,049
-665,262	-95,240	-0,033	-0,006
-664,247	-53,564	-0,097	-0,032
-663,232	192,346	0,082	-0,091
-662,218	-94,236	-0,114	0,023
-661,203	-200,000	0,031	0,115
-660,189	-200,000	-0,057	0,214
-659,174	79,606	-0,119	-0,093
-658,159	22,896	0,081	-0,049
-657,145	-100,372	-0,248	0,045
-656,130	-139,084	0,091	-0,007
-655,116	129,248	0,069	-0,065
-654,101	443,519	-0,066	0,106
-653,086	-200,000	-0,003	0,057
-652,072	96,512	0,089	0,075
-651,057	-130,051	-0,065	-0,006
-650,043	6,168	-0,055	-0,030
-649,028	-98,602	0,233	-0,043
-648,014	800,000	0,075	0,170
-646,999	-200,000	0,003	0,050
-645,984	172,184	-0,107	-0,113
-644,970	121,601	-0,027	0,025
-643,955	710,735	0,082	-0,161
-642,941	-133,245	-0,107	-0,010
-641,926	336,625	-0,031	-0,044
-640,911	199,609	0,121	-0,136
-639,897	161,336	0,046	0,047
-638,882	204,024	0,033	-0,038
-637,868	-37,070	-0,148	-0,058
-636,853	-200,000	-0,020	-0,235
-635,838	-200,000	-0,009	-0,161
-634,824	-200,000	-0,021	-0,076
-633,809	-80,677	0,084	0,020
-632,795	185,711	0,059	-0,065
-631,780	800,000	0,053	0,134
-630,765	145,705	0,064	-0,063
-629,751	18,722	-0,052	-0,031
-628,736	422,300	0,072	0,114
-627,722	800,000	0,008	0,017
-626,707	55,293	-0,132	-0,093
-625,692	55,016	0,082	-0,058
-624,678	26,761	-0,044	-0,027
-623,663	-37,733	0,127	-0,049
-622,649	-70,833	-0,094	0,026
-621,634	12,785	-0,052	0,029
-620,619	120,515	-0,095	-0,086
-619,605	198,250	0,020	0,022
-618,590	-61,791	-0,037	-0,011
-617,576	-200,000	0,001	-0,005
-616,561	-142,283	-0,089	-0,006
-615,546	118,485	0,106	-0,096
-614,532	-144,484	-0,060	-0,004
-613,517	197,278	0,013	-0,015
-612,503	-47,854	0,032	-0,011
-611,488	-128,594	0,099	0,010
-610,474	-200,000	0,007	-0,057
-609,459	239,355	0,017	0,021
-608,444	174,024	-0,088	-0,093
-607,430	578,287	-0,055	-0,098
-606,415	7,399	-0,128	-0,070
-605,401	800,000	0,022	0,060
-604,386	327,987	0,076	0,107
-603,371	-55,841	-0,063	0,021
-602,357	47,665	-0,119	0,081
-601,342	-81,711	-0,037	-0,009
-600,328	452,129	0,046	-0,074
-599,313	42,996	-0,028	-0,019
-598,298	800,000	0,019	0,043
-597,284	-200,000	0,018	0,092
-596,269	-200,000	-0,017	-0,193
-595,255	800,000	-0,032	0,080
-594,240	76,898	-0,085	-0,066
-593,225	357,081	0,071	-0,103
-592,211	-61,698	-0,127	-0,039
-591,196	-74,886	-0,024	0,006
-590,182	-135,330	-0,097	-0,008
-589,167	179,069	0,120	0,129
-588,152	800,000	-0,051	0,105
-587,138	-200,000	0,018	0,110
-586,123	257,799	-0,100	-0,127
-585,109	69,559	0,006	-0,005
-584,094	251,057	-0,052	0,066
-583,079	52,342	-0,075	0,052
-582,065	34,546	0,149	-0,095
-581,050	555,639	0,064	0,113
-580,036	-37,238	-0,081	0,032
-579,021	95,700	-0,042	0,035
-578,006	-97,011	-0,030	-0,006
-576,992	-200,000	-0,016	-0,090
-575,977	-200,000	-0,022	0,088
-574,963	224,840	-0,049	0,058
-573,948	740,198	0,027	0,053
-572,934	-47,306	-0,163	0,058
-571,919	75,713	-0,061	-0,047
-570,904	800,000	-0,020	0,048
-569,890	21,025	0,106	0,063
-568,875	-169,670	0,113	0,003
-567,861	-83,668	0,060	0,014
-566,846	17,238	0,169	-0,098
-565,831	349,865	0,106	-0,154
-564,817	-62,370	-0,041	0,012
-563,802	-200,000	0,016	0,062
-562,788	657,496	0,035	0,066
-561,773	-89,362	-0,145	-0,031
-560,758	800,000	-0,039	0,107
-559,744	-200,000	0,001	-0,015
-558,729	800,000	0,049	-0,154
-557,715	72,488	-0,082	-0,063
-556,700	-158,127	-0,151	0,006
-555,685	535,747	-0,052	-0,092
-554,671	722,607	0,071	-0,140
-553,656	800,000	-0,032	0,090
-552,642	-4,045	-0,083	-0,042
-551,627	-43,109	0,096	0,035
-550,612	38,810	0,045	-0,029
-549,598	800,000	-0,079	-0,170
-548,583	659,247	-0,020	0,037
-547,569	290,731	0,114	-0,152
-546,554	230,476	-0,040	-0,048
-545,539	-84,708	0,095	-0,022
-544,525	-66,309	0,059	-0,017
-543,510	-200,000	-0,031	0,118
-542,496	800,000	0,048	0,110
-541,481	260,491	-0,070	-0,089
-540,466	-63,495	0,097	0,029
-539,452	84,840	-0,038	0,030
-538,437	79,009	0,029	-0,023
-537,423	421,728	0,015	0,023
-536,408	800,000	-0,025	-0,062
-535,393	-50,273	-0,132	0,045
-534,379	-152,885	-0,184	-0,009
-533,364	65,260	0,038	0,028
-532,350	-200,000	-0,006	0,110
-531,335	67,391	0,085	0,064
-530,321	214,180	0,073	0,085
-529,306	0,439	0,027	0,014
-528,291	251,560	0,024	-0,030
-527,277	764,448	0,057	-0,114
-526,262	-200,000	-0,013	-0,052
-525,248	-200,000	-0,019	-0,067
-524,233	23,412	-0,058	-0,035
-523,218	4,148	-0,146	0,078
-522,204	44,628	0,160	0,107
-521,189	-90,764	-0,082	0,017
-520,175	84,750	0,040	-0,032
-519,160	113,894	-0,049	-0,043
-518,145	124,637	0,076	0,070
-517,131	-114,825	0,062	-0,009
-516,116	800,000	-0,017	0,052
-515,102	36,104	-0,033	0,021
-514,087	473,702	-0,037	-0,062
-513,072	-200,000	0,017	0,056
-512,058	-20,525	-0,071	0,032
-511,043	-119,905	0,190	0,024
-510,029	149,311	-0,066	-0,065
-509,014	-200,000	0,021	0,133
-507,999	56,853	-0,044	-0,031
-506,985	111,916	-0,106	0,093
-505,970	75,691	-0,101	0,078
-504,956	-98,334	0,103	-0,019
-503,941	-121,586	-0,041	0,005
-502,926	-200,000	0,000	0,114
-501,912	660,794	-0,057	-0,108
-500,897	-200,000	0,013	0,063
-499,883	800,000	0,008	-0,018
-498,868	-121,685	-0,099	0,012
-497,853	637,207	-0,036	0,068
-496,839	-32,809	0,039	-0,016
-495,824	-138,156	-0,065	-0,005
-494,810	187,810	0,078	0,085
-493,795	-21,396	0,108	0,048
-492,781	-143,230	-0,056	0,004
-491,766	-200,000	0,001	0,006
-490,751	-25,794	-0,127	0,054
-489,737	-200,000	-0,026	-0,127
-488,722	265,932	0,044	0,056
-487,708	-152,293	0,090	0,005
-486,693	-97,142	0,148	-0,028
-485,678	7,518	-0,136	-0,074
-484,664	-200,000	-0,056	0,000
-483,649	-12,492	-0,110	-0,052
-482,635	48,790	0,036	0,025
-481,620	106,052	0,067	0,058
-480,605	483,006	-0,054	0,089
-479,591	268,018	0,065	0,083
-478,576	-200,000	0,023	-0,162
-477,562	800,000	0,044	-0,139
-476,547	62,531	-0,070	-0,051
-475,532	-200,000	-0,011	-0,097
-474,518	248,066	0,074	0,092
-473,503	-200,000	0,010	-0,094
-472,489	-113,129	0,150	-0,021
-471,474	800,000	0,020	-0,057
-470,459	800,000	-0,071	-0,159
-469,445	-200,000	-0,002	-0,041
-468,430	-151,330	0,097	0,005
-467,416	-57,466	-0,023	0,007
-466,401	8,734	-0,047	0,026
-465,386	-166,362	0,050	-0,001
-464,372	-109,384	-0,080	-0,012
-463,357	-200,000	0,016	-0,122
-462,343	-108,156	0,029	-0,005
-461,328	800,000	0,043	0,108
-460,313	57,930	-0,108	0,077
-459,299	1,967	0,116	0,061
-458,284	800,000	-0,047	-0,102
-457,270	800,000	0,023	0,059
-456,255	-170,737	-0,114	-0,003
-455,241	800,000	0,020	-0,049
-454,226	-200,000	0,013	0,088
-453,211	-200,000	0,009	0,072
-452,197	-90,233	-0,041	0,009
-451,182	410,203	0,025	-0,038
-450,168	-136,720	0,075	-0,006
-449,153	-119,986	-0,104	-0,013
-448,138	27,780	-0,030	-0,019
-447,124	800,000	-0,075	-0,183
-446,109	-145,722	0,091	0,006
-445,095	657,410	0,026	0,049
-444,080	144,289	-0,057	0,056
-443,065	-39,358	-0,106	0,040
-442,051	-81,222	0,018	0,004
-441,036	87,285	-0,044	-0,036
-440,022	-200,000	-0,173	-0,001
-439,007	-200,000	0,043	0,160
-437,992	-200,000	-0,015	0,077
-436,978	-102,214	0,045	-0,008
-435,963	135,213	0,017	-0,016
-434,949	-43,786	-0,069	0,025
-433,934	187,091	-0,027	0,029
-432,919	69,240	-0,094	-0,070
-431,905	-166,060	0,107	0,003
-430,890	221,011	0,097	-0,114
-429,876	-14,215	0,096	-0,045
-428,861	125,320	-0,040	0,037
-427,846	31,943	-0,072	-0,045
-426,832	19,826	0,143	-0,083
-425,817	-24,096	-0,173	-0,075
-424,803	800,000	-0,032	0,094
-423,788	-115,073	0,060	-0,008
-422,773	-200,000	0,002	0,041
-421,759	269,269	-0,050	0,064
-420,744	-66,320	-0,082	-0,024
-419,730	-32,628	-0,127	-0,051
-418,715	-200,000	0,008	-0,036
-417,701	189,024	-0,080	-0,087
-416,686	800,000	0,023	0,070
-415,671	-200,000	-0,027	0,109
-414,657	-140,518	0,019	0,001
-413,642	-151,372	-0,033	0,002
-412,628	215,991	-0,019	0,022
-411,613	-200,000	0,019	-0,096
-410,598	-200,000	-0,014	-0,049
-409,584	-43,815	0,135	0,049
-408,569	338,434	0,085	0,121
-407,555	-30,300	-0,076	0,031
-406,540	-200,000	-0,014	-0,051
-405,525	-200,000	0,007	0,024
-404,511	-200,000	-0,025	-0,126
-403,496	800,000	0,025	-0,068
-402,482	800,000	-0,011	0,024
-401,467	-42,185	0,146	-0,054
-400,452	-200,000	0,009	0,059
-399,438	77,181	0,121	-0,093
-398,423	800,000	-0,028	0,066
-397,409	12,523	0,018	-0,010
-396,394	11,600	0,077	-0,043
-395,379	-85,302	0,116	-0,026
-394,365	-17,567	0,041	0,019
-393,350	21,997	0,093	0,055
-392,336	-145,081	0,146	-0,009
-391,321	-49,895	-0,040	0,014
-390,306	5,266	-0,136	-0,073
-389,292	-200,000	0,024	0,110
-388,277	-119,848	-0,096	0,012
-387,263	-51,856	0,038	0,013
-386,248	422,181	0,080	0,125
-385,233	800,000	-0,049	0,103
-384,219	800,000	-0,004	0,011
-383,204	-200,000	-0,011	-0,120
-382,190	-200,000	-0,001	-0,057
-381,175	95,042	-0,082	0,068
-380,160	97,274	0,098	0,082
-379,146	-137,132	0,090	-0,007
-378,131	-142,249	0,056	-0,004
-377,117	677,148	0,031	0,058
-376,102	281,754	-0,072	0,094
-375,088	-200,000	0,068	0,000
-374,073	45,082	-0,095	0,064
-373,058	39,539	0,074	0,048
-372,044	-200,000	0,010	0,177
-371,029	297,320	-0,091	0,122
-370,015	-48,283	0,147	-0,051
-369,000	701,609	0,038	0,072
-367,985	281,645	0,018	-0,023
-366,971	-133,618	0,113	-0,010
-365,956	-114,225	0,091	0,013
-364,942	193,927	0,078	-0,086
-363,927	-0,227	-0,077	-0,040
-362,912	-38,725	-0,084	-0,032
-361,898	86,995	-0,062	-0,050
-360,883	-9,689	-0,102	-0,049
-359,869	-35,858	-0,101	0,040
-358,854	-200,000	-0,015	-0,054
-357,839	210,980	0,106	0,121
-356,825	800,000	-0,018	-0,054
-355,810	799,225	-0,034	0,068
-354,796	402,272	-0,008	-0,012
-353,781	156,430	0,030	0,030
-352,766	800,000	-0,034	-0,091
-351,752	800,000	0,060	-0,174
-350,737	-39,350	0,080	0,030
-349,723	252,382	-0,076	0,095
-348,708	-200,000	0,012	0,054
-347,693	-165,379	-0,038	-0,001
-346,679	594,925	-0,081	-0,146
-345,664	301,114	-0,059	-0,079
-344,650	137,237	0,026	0,024
-343,635	684,655	0,031	-0,059
-342,620	395,781	-0,004	-0,006
-341,606	800,000	-0,013	-0,027
-340,591	364,458	0,072	-0,105
-339,577	-53,654	-0,138	0,045
-338,562	-58,450	-0,138	-0,043
-337,548	-117,377	0,056	0,007
-336,533	-68,326	0,102	-0,029
-335,518	-200,000	-0,010	-0,045
-334,504	800,000	-0,014	0,029
-333,489	257,791	-0,063	0,079
-332,475	17,399	-0,049	0,028
-331,460	678,241	0,061	0,115
-330,445	554,375	-0,066	0,116
-329,431	-150,005	-0,053	0,003
-328,416	-79,622	0,132	-0,032
-327,402	-29,751	0,123	-0,051
-326,387	-57,409	-0,018	-0,006
-325,372	659,106	-0,057	0,107
-324,358	226,213	-0,016	-0,018
-323,343	767,234	-0,050	-0,099
-322,329	-200,000	-0,022	0,078
-321,314	-73,472	-0,064	-0,017
-320,299	-61,168	0,123	-0,037
-319,285	-2,874	-0,071	-0,036
-318,270	-144,287	-0,120	-0,008
-317,256	244,502	0,081	-0,099
-316,241	-83,859	-0,031	-0,007
-315,226	-200,000	-0,033	0,129
-314,212	-25,501	0,182	0,078
-313,197	-55,110	0,129	0,042
-312,183	-111,124	-0,070	-0,010
-311,168	346,652	0,026	-0,038
-310,153	488,367	-0,059	-0,099
-309,139	306,831	0,048	0,065
-308,124	-200,000	-0,014	0,046
-307,110	800,000	0,018	-0,042
-306,095	37,217	-0,048	0,030
-305,080	-29,099	0,018	0,007
-304,066	-171,662	-0,073	-0,002
-303,051	-141,458	-0,072	0,005
-302,037	800,000	-0,028	0,068
-301,022	151,768	0,039	0,038
-300,008	-43,984	0,092	-0,033
-298,993	-130,686	0,068	-0,007
-297,978	39,922	0,120	-0,078
-296,964	471,917	0,045	0,074
-295,949	88,922	-0,077	0,062
-294,935	800,000	0,087	-0,257
-293,920	-99,208	-0,242	-0,044
-292,905	553,656	0,048	0,084
-291,891	-200,000	-0,012	0,050
-290,876	800,000	-0,062	0,151
-289,862	-57,317	0,077	0,024
-288,847	800,000	-0,014	-0,035
-287,832	130,752	0,120	-0,111
-286,818	-200,000	0,008	0,033
-285,803	-17,452	-0,029	0,013
-284,789	800,000	-0,078	-0,160
-283,774	-173,507	0,142	0,003
-282,759	-106,810	0,164	-0,026
-281,745	585,575	0,051	0,091
-280,730	800,000	-0,059	0,138
-279,716	67,108	0,118	0,087
-278,701	-95,675	0,051	-0,010
-277,686	-200,000	0,015	0,087
-276,672	-200,000	0,036	0,120
-275,657	-49,330	-0,108	0,037
-274,643	-200,000	0,033	0,110
-273,628	-108,629	-0,225	0,035
-272,613	-200,000	-0,013	-0,073
-271,599	-195,091	0,180	-0,001
-270,584	674,933	0,085	0,161
-269,570	38,471	0,012	0,008
-268,555	56,515	0,070	0,049
-267,540	-36,543	0,122	-0,047
-266,526	317,422	-0,093	-0,128
-265,511	217,515	0,033	-0,038
-264,497	82,888	0,175	-0,138
-263,482	195,112	-0,031	0,034
-262,467	-30,301	-0,101	0,041
-261,453	-200,000	-0,007	0,171
-260,438	800,000	0,013	-0,040
-259,424	272,286	0,026	-0,034
-258,409	284,850	-0,097	-0,127
-257,395	-200,000	0,030	-0,148
-256,380	-95,973	0,152	0,029
-255,365	366,305	0,067	0,098
-254,351	800,000	0,022	0,051
-253,336	-92,441	0,094	0,019
-252,322	18,940	-0,173	-0,100
-251,307	-39,128	-0,061	-0,023
-250,292	91,411	-0,072	0,058
-249,278	-52,110	0,148	0,049
-248,263	800,000	-0,042	-0,108
-247,249	594,176	-0,039	-0,071
-246,234	-59,542	0,106	0,033
-245,219	170,991	-0,048	-0,049
-244,205	-200,000	-0,005	-0,087
-243,190	177,526	-0,071	0,075
-242,176	-5,759	0,064	-0,032
-241,161	19,974	-0,007	0,004
-240,146	211,959	-0,114	0,130
-239,132	151,970	0,081	0,080
-238,117	-200,000	-0,014	-0,078
-237,103	250,680	-0,052	-0,064
-236,088	331,290	-0,053	-0,075
-235,073	-125,936	0,130	-0,014
-234,059	-69,823	0,071	-0,019
-233,044	-200,000	-0,015	0,104
-232,030	769,186	0,020	0,040
-231,015	521,719	-0,058	-0,098
-230,000	800,000	0,021	-0,048
-228,986	35,436	0,170	-0,108
-227,971	446,021	-0,067	0,107
-226,957	154,841	0,129	0,128
-225,942	-200,000	-0,016	0,101
-224,927	121,777	-0,115	0,104
-223,913	-200,000	-0,014	0,072
-222,898	-97,827	0,033	-0,006
-221,884	-64,368	-0,121	-0,035
-220,869	-200,000	-0,004	0,080
-219,855	140,092	-0,070	-0,066
-218,840	55,235	-0,184	0,128
-217,825	674,108	0,029	0,055
-216,811	-200,000	0,012	-0,048
-215,796	783,299	0,034	-0,068
-214,782	-99,321	-0,118	0,021
-213,767	-200,000	-0,007	0,093
-212,752	-129,792	-0,063	-0,006
-211,738	-17,604	0,071	0,032
-210,723	-200,000	0,019	-0,085
-209,709	234,357	0,089	-0,107
-208,694	204,264	-0,065	0,073
-207,679	-65,607	-0,170	-0,049
-206,665	-200,000	0,012	0,087
-205,650	800,000	-0,046	0,106
-204,636	-9,223	0,045	0,022
-203,621	96,225	0,014	0,011
-202,606	765,233	0,053	-0,105
-201,592	10,707	-0,093	0,051
-200,577	-11,310	0,021	-0,010
-199,563	-133,465	-0,042	0,004
-198,548	-91,929	0,146	0,030
-197,533	-200,000	-0,037	-0,149
-196,519	-38,133	0,124	-0,047
-195,504	-35,736	0,030	-0,012
-194,490	127,133	-0,112	-0,103
-193,475	-29,792	0,055	-0,022
-192,460	11,273	-0,106	-0,059
-191,446	499,434	-0,012	-0,021
-190,431	534,613	0,053	-0,091
-189,417	-131,003	-0,034	0,003
-188,402	-15,821	-0,117	0,054
-187,387	-200,000	-0,007	-0,044
-186,373	800,000	-0,026	-0,079
-185,358	-200,000	-0,000	0,047
-184,344	-131,602	0,015	0,001
-183,329	800,000	0,037	0,091
-182,315	-200,000	0,040	0,175
-181,300	-200,000	0,000	0,079
-180,285	-139,020	0,132	0,010
-179,271	53,812	0,053	-0,036
-178,256	-91,301	-0,081	0,017
-177,242	356,539	-0,074	0,106
-176,227	149,049	-0,015	-0,014
-175,212	-200,000	0,017	0,080
-174,198	-57,641	0,094	-0,030
-173,183	-200,000	0,030	0,125
-172,169	-167,057	-0,026	-0,001
-171,154	-200,000	0,033	-0,137
-170,139	244,225	-0,051	0,062
-169,125	-67,203	-0,063	0,018
-168,110	415,516	0,068	-0,106
-167,096	-16,747	-0,114	-0,052
-166,081	-200,000	-0,039	0,148
-165,066	-200,000	-0,000	-0,013
-164,052	-24,173	0,176	-0,075
-163,037	-200,000	-0,026	-0,117
-162,023	-200,000	0,008	0,173
-161,008	-26,166	-0,013	0,005
-159,993	-42,587	-0,086	-0,032
-158,979	467,873	-0,107	-0,174
-157,964	-35,929	-0,052	-0,020
-156,950	685,723	-0,016	-0,030
-155,935	282,959	0,100	0,130
-154,920	-95,073	-0,087	-0,017
-153,906	527,778	0,087	0,149
-152,891	-43,848	0,106	-0,038
-151,877	563,518	-0,043	-0,075
-150,862	-200,000	0,009	-0,094
-149,847	-148,004	-0,154	0,009
-148,833	-200,000	-0,012	0,120
-147,818	73,327	-0,027	-0,020
-146,804	493,411	-0,037	-0,061
-145,789	164,663	-0,019	0,019
-144,775	-26,907	-0,074	0,031
-143,760	-77,494	0,063	0,016
-142,745	-10,557	-0,097	-0,046
-141,731	-60,634	0,067	-0,020
-140,716	10,745	0,081	0,044
-139,702	-64,595	0,062	0,018
-138,687	-200,000	0,008	0,060
-137,672	-200,000	-0,009	0,070
-136,658	-135,552	-0,113	0,010
-135,643	-124,472	-0,135	-0,015
-134,629	299,064	0,028	0,037
-133,614	-200,000	-0,041	0,160
-132,599	782,140	-0,034	-0,068
-131,585	-200,000	0,002	0,012
-130,570	-40,260	0,196	0,073
-129,556	-84,117	-0,156	-0,035
-128,541	-200,000	0,046	-0,164
-127,526	59,207	-0,061	0,043
-126,512	-200,000	0,002	-0,023
-125,497	105,462	0,014	0,012
-124,483	-200,000	-0,010	0,069
-123,468	800,000	-0,033	0,069
-122,453	159,241	-0,105	-0,105
-121,439	268,704	-0,055	-0,070
-120,424	-76,854	-0,151	-0,038
-119,410	197,781	0,017	0,019
