DTS Sentinel unit serial number:	SN410029Multiplexer serial number:	ORYXHardware model number:	OX2-SRSoftware version number:	ORYX F/W v4,00 Oryx Data Collector v3.7.2.0data status	okinstallation	B5 Nyhavnadifferential loss correction	single-endedforward channel	channel 2reverse channel	N/Adate	2023/12/13time	19:42:13forward acquisition time	300,00reverse acquisition time	0,00gamma	499,1914k internal	0,3159k external	0,3159temperature offset calibration	1,0000default loss term (dB/km)	0,3820temperature slope calibration	1,0000multiplexer offset coefficient	1,0000multiplexer slope coefficient	1,0000fibre end	0,00T internal ref (°C)	11,48T ext. ref 1 (°C)	-5,64T ext. ref 2 (°C)	-5,70length (m)	temperature (°C)	Stokes	anti-Stokes-744,400	-156,609	0,176	0,008
-743,385	-188,707	-0,273	-0,002
-742,371	-151,431	0,099	0,005
-741,356	-182,177	-0,347	-0,005
-740,342	68,246	0,113	0,085
-739,327	-124,911	-0,398	-0,045
-738,312	-108,388	0,170	0,027
-737,298	-139,401	-0,351	-0,027
-736,283	-81,309	0,167	-0,040
-735,269	-74,881	-0,347	-0,091
-734,254	-92,894	0,193	0,039
-733,239	-21,636	-0,501	-0,224
-732,225	210,105	0,083	0,096
-731,210	-188,517	-0,101	-0,001
-730,196	-151,397	-0,022	-0,001
-729,181	-108,173	-0,086	-0,014
-728,167	-200,000	0,019	-0,065
-727,152	47,960	-0,137	-0,094
-726,137	-124,615	0,050	-0,006
-725,123	299,181	-0,032	-0,043
-724,108	209,894	0,041	0,048
-723,094	-200,000	0,023	-0,075
-722,079	56,553	0,056	0,040
-721,064	-200,000	0,020	0,078
-720,050	-25,604	-0,055	0,024
-719,035	382,415	-0,081	-0,123
-718,021	-200,000	0,016	-0,106
-717,006	800,000	-0,025	-0,066
-715,991	800,000	0,040	-0,100
-714,977	644,373	-0,049	-0,092
-713,962	29,011	-0,077	-0,048
-712,948	533,221	0,087	-0,153
-711,933	112,881	-0,075	0,067
-710,918	89,172	0,019	0,015
-709,904	30,145	-0,075	0,047
-708,889	96,523	-0,072	0,061
-707,875	366,064	0,040	-0,059
-706,860	800,000	0,031	0,073
-705,845	96,791	0,068	0,057
-704,831	-200,000	-0,007	0,040
-703,816	-9,019	0,016	-0,008
-702,802	91,295	-0,151	-0,125
-701,787	244,322	-0,065	-0,080
-700,772	198,144	-0,077	0,087
-699,758	45,371	0,068	-0,046
-698,743	774,657	-0,077	0,156
-697,729	-111,872	0,087	-0,013
-696,714	159,379	0,031	0,032
-695,699	271,715	-0,046	0,059
-694,685	-200,000	-0,020	-0,114
-693,670	-107,099	-0,043	-0,007
-692,656	800,000	0,037	-0,099
-691,641	542,856	0,062	-0,110
-690,627	-13,456	-0,088	-0,042
-689,612	-127,878	-0,134	0,014
-688,597	-179,013	0,029	-0,000
-687,583	-32,250	-0,088	0,036
-686,568	800,000	-0,036	-0,087
-685,554	800,000	0,032	0,072
-684,539	568,631	0,021	-0,038
-683,524	-6,994	-0,146	-0,072
-682,510	212,905	0,041	-0,048
-681,495	-82,864	0,047	-0,011
-680,481	221,604	0,054	-0,064
-679,466	-29,435	-0,070	0,029
-678,451	800,000	-0,033	0,093
-677,437	-52,831	0,108	-0,036
-676,422	223,181	0,108	-0,129
-675,408	582,720	0,065	-0,117
-674,393	-200,000	-0,004	-0,014
-673,378	-152,982	0,077	0,004
-672,364	757,239	-0,020	-0,041
-671,349	-200,000	0,063	-0,213
-670,335	-200,000	0,004	-0,033
-669,320	-200,000	0,003	-0,063
-668,305	142,741	-0,051	-0,050
-667,291	-200,000	-0,006	0,088
-666,276	-12,689	0,100	0,048
-665,262	554,108	-0,049	0,086
-664,247	800,000	0,056	-0,173
-663,232	-200,000	-0,010	-0,082
-662,218	-94,754	0,135	-0,027
-661,203	-200,000	0,012	0,074
-660,189	322,008	-0,068	0,095
-659,174	-75,544	-0,177	-0,046
-658,159	-153,512	-0,022	-0,001
-657,145	-200,000	-0,005	0,061
-656,130	141,730	-0,076	0,074
-655,116	5,169	0,121	-0,065
-654,101	800,000	0,030	-0,061
-653,086	274,062	0,025	-0,032
-652,072	-168,722	-0,177	0,005
-651,057	-67,630	0,074	-0,021
-650,043	226,275	-0,103	-0,123
-649,028	1,931	-0,156	0,082
-648,014	160,643	0,053	-0,055
-646,999	-110,623	0,028	0,004
-645,984	-133,953	-0,059	0,005
-644,970	800,000	-0,007	0,022
-643,955	-200,000	0,021	-0,085
-642,941	-150,534	-0,084	0,005
-641,926	16,355	0,058	0,034
-640,911	-56,414	0,103	0,033
-639,897	-200,000	0,000	0,056
-638,882	-200,000	0,012	-0,048
-637,868	136,567	-0,106	-0,101
-636,853	-106,653	-0,104	-0,017
-635,838	88,797	-0,101	-0,082
-634,824	510,506	-0,046	0,079
-633,809	164,495	-0,046	-0,047
-632,795	-200,000	0,013	-0,155
-631,780	82,734	-0,068	-0,055
-630,765	81,306	0,090	-0,071
-629,751	-55,325	-0,111	0,036
-628,736	51,986	-0,085	0,060
-627,722	-200,000	-0,001	-0,052
-626,707	-200,000	0,004	-0,086
-625,692	186,921	0,064	0,070
-624,678	-200,000	0,005	0,027
-623,663	494,089	0,023	-0,038
-622,649	-200,000	-0,016	0,106
-621,634	-200,000	-0,005	0,040
-620,619	800,000	-0,080	-0,180
-619,605	-200,000	-0,010	-0,291
-618,590	61,002	-0,052	-0,038
-617,576	112,471	-0,049	0,044
-616,561	199,327	-0,071	-0,080
-615,546	-123,729	0,039	0,005
-614,532	-200,000	0,010	-0,137
-613,517	-200,000	-0,004	-0,076
-612,503	-147,097	-0,144	0,009
-611,488	-16,250	0,057	0,026
-610,474	-30,177	-0,204	0,085
-609,459	800,000	-0,011	-0,027
-608,444	106,371	-0,093	0,081
-607,430	193,478	-0,059	-0,065
-606,415	800,000	-0,051	-0,141
-605,401	-200,000	0,096	0,000
-604,386	-147,148	0,072	-0,004
-603,371	141,176	-0,067	0,065
-602,357	-134,478	-0,012	-0,001
-601,342	143,423	0,101	-0,099
-600,328	303,733	-0,126	-0,172
-599,313	160,731	-0,070	0,071
-598,298	229,885	-0,061	0,073
-597,284	154,653	-0,036	0,037
-596,269	90,094	0,121	0,099
-595,255	5,592	0,110	-0,060
-594,240	422,327	-0,073	-0,115
-593,225	-200,000	0,006	-0,128
-592,211	42,269	-0,073	0,048
-591,196	60,089	0,071	-0,051
-590,182	-200,000	0,006	0,120
-589,167	150,355	0,044	0,043
-588,152	800,000	0,036	0,082
-587,138	-200,000	0,030	-0,112
-586,123	-200,000	-0,019	-0,152
-585,109	-128,230	-0,013	-0,001
-584,094	34,322	-0,072	-0,046
-583,079	595,030	-0,032	-0,059
-582,065	567,030	0,025	-0,044
-581,050	414,709	-0,035	0,054
-580,036	178,408	-0,076	-0,081
-579,021	109,677	0,089	-0,078
-578,006	304,388	-0,039	-0,053
-576,992	800,000	-0,045	-0,100
-575,977	57,916	0,052	-0,037
-574,963	-200,000	-0,017	0,066
-573,948	-200,000	0,004	0,039
-572,934	-93,295	-0,095	0,019
-571,919	-81,461	-0,042	-0,010
-570,904	121,232	-0,113	-0,103
-569,890	-200,000	-0,009	-0,087
-568,875	-21,349	-0,054	-0,024
-567,861	377,277	0,116	0,174
-566,846	-200,000	-0,009	-0,084
-565,831	160,668	-0,037	0,038
-564,817	-200,000	-0,034	-0,118
-563,802	84,958	0,147	-0,118
-562,788	68,843	0,005	-0,003
-561,773	800,000	0,017	-0,041
-560,758	-47,106	0,127	-0,045
-559,744	276,186	0,060	0,079
-558,729	241,994	-0,049	0,061
-557,715	271,067	-0,095	-0,122
-556,700	-200,000	0,001	-0,055
-555,685	64,543	-0,086	-0,063
-554,671	-168,459	0,148	0,004
-553,656	569,001	-0,013	-0,023
-552,642	-200,000	0,008	0,063
-551,627	800,000	0,047	0,098
-550,612	-2,093	-0,065	-0,033
-549,598	-200,000	-0,007	-0,052
-548,583	38,618	-0,214	-0,140
-547,569	-34,875	0,076	0,030
-546,554	-159,062	0,104	-0,004
-545,539	497,048	0,087	0,147
-544,525	-75,913	0,074	0,019
-543,510	-200,000	0,011	-0,178
-542,496	800,000	0,053	-0,121
-541,481	-200,000	-0,001	-0,061
-540,466	-45,167	-0,068	0,024
-539,452	-115,460	0,091	-0,012
-538,437	-41,174	-0,154	0,058
-537,423	-92,883	0,142	-0,029
-536,408	-91,437	-0,220	0,045
-535,393	-41,969	-0,012	0,004
-534,379	-39,528	-0,088	0,034
-533,364	-200,000	0,025	-0,085
-532,350	166,327	-0,061	0,063
-531,335	800,000	-0,051	0,137
-530,321	-200,000	0,008	0,120
-529,306	124,885	-0,045	0,042
-528,291	185,899	0,080	0,087
-527,277	-200,000	-0,015	-0,150
-526,262	-11,575	0,075	-0,036
-525,248	305,138	-0,022	-0,030
-524,233	594,178	-0,037	-0,067
-523,218	183,416	0,048	0,051
-522,204	-200,000	-0,003	-0,045
-521,189	-190,613	-0,069	-0,001
-520,175	223,235	0,101	-0,119
-519,160	-139,501	0,081	-0,006
-518,145	-32,962	-0,030	0,012
-517,131	-138,324	0,087	0,007
-516,116	-200,000	0,020	-0,083
-515,102	-54,774	0,146	0,048
-514,087	-200,000	-0,006	0,024
-513,072	-59,019	-0,036	-0,011
-512,058	-31,704	-0,118	-0,048
-511,043	69,090	0,128	0,096
-510,029	-122,333	0,132	-0,016
-509,014	267,382	0,053	0,067
-507,999	-181,939	0,085	0,001
-506,985	306,618	0,097	-0,133
-505,970	-200,000	-0,012	-0,082
-504,956	-83,146	-0,094	-0,022
-503,941	-91,586	-0,060	0,012
-502,926	-71,106	0,098	0,027
-501,912	-200,000	-0,019	0,258
-500,897	-124,500	0,020	0,002
-499,883	800,000	-0,071	0,154
-498,868	-200,000	-0,003	-0,070
-497,853	800,000	-0,033	-0,103
-496,839	356,220	-0,057	-0,083
-495,824	458,724	0,038	0,062
-494,810	34,626	-0,034	-0,021
-493,795	-200,000	0,022	0,087
-492,781	-200,000	0,009	-0,194
-491,766	555,804	-0,050	-0,088
-490,751	-200,000	-0,007	-0,023
-489,737	-79,651	-0,088	-0,021
-488,722	103,884	0,033	-0,028
-487,708	26,092	0,183	0,111
-486,693	-144,125	-0,143	0,010
-485,678	137,680	0,008	-0,008
-484,664	385,140	-0,094	-0,142
-483,649	-155,014	-0,112	0,005
-482,635	-146,167	-0,067	0,004
-481,620	-144,309	0,068	-0,005
-480,605	-69,046	0,042	0,012
-479,591	-85,098	0,033	0,008
-478,576	371,119	-0,026	-0,038
-477,562	-136,351	-0,063	0,005
-476,547	-124,384	-0,106	0,012
-475,532	-82,060	0,098	0,023
-474,518	-27,767	0,095	-0,040
-473,503	270,864	0,018	0,023
-472,489	243,312	-0,073	0,089
-471,474	-200,000	0,002	0,043
-470,459	-200,000	-0,007	0,063
-469,445	-200,000	-0,008	-0,126
-468,430	-54,320	0,096	-0,031
-467,416	-115,230	-0,113	-0,015
-466,401	333,499	-0,054	0,076
-465,386	10,731	0,123	0,068
-464,372	51,131	0,062	-0,043
-463,357	-42,363	0,064	-0,024
-462,343	437,780	-0,037	-0,059
-461,328	139,761	0,045	-0,043
-460,313	73,083	-0,093	-0,071
-459,299	-200,000	-0,002	0,115
-458,284	800,000	0,026	-0,065
-457,270	-200,000	0,023	0,076
-456,255	76,786	0,056	0,043
-455,241	155,516	-0,066	0,066
-454,226	307,591	0,062	-0,085
-453,211	263,326	0,004	-0,005
-452,197	34,624	0,050	-0,032
-451,182	0,183	0,096	0,050
-450,168	-29,116	-0,077	0,032
-449,153	347,442	-0,018	0,026
-448,138	-192,307	-0,111	-0,001
-447,124	-200,000	0,038	-0,131
-446,109	-200,000	-0,001	-0,136
-445,095	-200,000	0,077	0,000
-444,080	126,697	0,122	0,113
-443,065	-4,594	-0,202	-0,101
-442,051	-22,766	-0,051	0,022
-441,036	184,795	-0,075	-0,081
-440,022	-200,000	0,009	-0,061
-439,007	9,214	-0,089	0,049
-437,992	13,010	0,110	-0,062
-436,978	-17,936	-0,100	-0,045
-435,963	-112,444	0,095	0,014
-434,949	-47,907	-0,102	-0,036
-433,934	-200,000	0,005	-0,068
-432,919	0,024	-0,081	-0,042
-431,905	267,230	0,030	-0,038
-430,890	-1,262	0,104	-0,053
-429,876	90,300	0,095	0,077
-428,861	800,000	-0,002	-0,005
-427,846	309,524	0,068	0,092
-426,832	297,313	-0,087	-0,116
-425,817	-200,000	-0,005	-0,035
-424,803	-99,302	0,091	-0,017
-423,788	-6,688	0,098	-0,049
-422,773	-89,136	0,096	-0,021
-421,759	800,000	-0,059	0,160
-420,744	-168,474	-0,026	0,001
-419,730	-37,089	-0,048	-0,019
-418,715	129,419	-0,140	-0,130
-417,701	-14,735	-0,103	-0,048
-416,686	-200,000	-0,014	-0,146
-415,671	-200,000	0,008	0,050
-414,657	199,901	0,047	0,052
-413,642	313,169	0,012	0,016
-412,628	-200,000	0,006	-0,041
-411,613	133,883	-0,050	-0,047
-410,598	-200,000	-0,009	-0,076
-409,584	152,168	0,087	-0,087
-408,569	185,960	-0,022	-0,024
-407,555	-200,000	-0,023	0,096
-406,540	-76,417	-0,083	-0,021
-405,525	-143,944	0,055	0,004
-404,511	800,000	-0,051	-0,148
-403,496	800,000	-0,015	0,036
-402,482	-165,017	-0,067	0,002
-401,467	-117,186	0,200	-0,026
-400,452	414,086	0,093	0,144
-399,438	-27,110	-0,088	-0,037
-398,423	-153,896	-0,242	-0,012
-397,409	324,171	-0,017	0,024
-396,394	651,629	-0,034	0,064
-395,379	-53,530	0,014	0,005
-394,365	-103,179	-0,151	-0,026
-393,350	-200,000	0,004	0,058
-392,336	610,098	-0,054	-0,099
-391,321	14,704	-0,059	-0,034
-390,306	800,000	0,017	-0,052
-389,292	-200,000	-0,027	-0,104
-388,277	-200,000	-0,009	0,135
-387,263	800,000	-0,079	0,190
-386,248	800,000	0,030	0,083
-385,233	102,190	0,095	0,081
-384,219	800,000	-0,082	0,178
-383,204	28,355	-0,005	-0,003
-382,190	800,000	0,039	0,097
-381,175	510,263	0,071	-0,120
-380,160	-147,739	0,111	0,007
-379,146	244,176	0,100	0,123
-378,131	683,453	0,043	0,082
-377,117	-200,000	-0,001	0,046
-376,102	-14,644	0,066	-0,031
-375,088	-52,699	-0,201	-0,067
-374,073	-126,542	0,104	-0,011
-373,058	571,324	0,015	-0,026
-372,044	-200,000	-0,001	-0,013
-371,029	-200,000	-0,004	-0,026
-370,015	111,157	0,027	0,023
-369,000	-163,710	-0,126	0,004
-367,985	-100,771	-0,105	0,019
-366,971	0,732	0,063	-0,033
-365,956	-149,370	-0,054	-0,003
-364,942	-81,305	0,059	-0,014
-363,927	-200,000	0,030	0,175
-362,912	-105,064	0,087	0,014
-361,898	-83,261	-0,051	-0,012
-360,883	734,342	-0,019	-0,036
-359,869	132,206	-0,114	-0,106
-358,854	372,994	0,089	-0,132
-357,839	-142,100	0,199	0,014
-356,825	-128,497	0,085	0,009
-355,810	47,859	-0,041	-0,028
-354,796	800,000	0,005	0,014
-353,781	796,587	-0,043	-0,087
-352,766	-71,599	-0,075	0,020
-351,752	-50,718	0,121	-0,041
-350,737	15,150	-0,032	0,018
-349,723	-200,000	-0,011	-0,064
-348,708	12,403	-0,088	0,049
-347,693	-36,231	0,124	-0,048
-346,679	-200,000	-0,005	-0,069
-345,664	-200,000	0,011	-0,063
-344,650	-200,000	0,011	-0,105
-343,635	-5,736	-0,030	-0,015
-342,620	800,000	0,032	0,087
-341,606	-200,000	-0,006	0,203
-340,591	-200,000	0,016	-0,112
-339,577	-200,000	0,059	-0,223
-338,562	44,334	0,099	-0,066
-337,548	127,622	0,025	0,023
-336,533	-200,000	0,005	0,050
-335,518	-33,971	0,031	0,012
-334,504	499,102	0,039	0,066
-333,489	-5,472	0,018	0,009
-332,475	-200,000	-0,018	-0,063
-331,460	-154,016	-0,108	0,005
-330,445	365,332	0,122	0,178
-329,431	800,000	-0,040	0,117
-328,416	91,938	0,085	-0,069
-327,402	-127,309	0,104	-0,011
-326,387	-200,000	0,053	0,185
-325,372	-39,106	-0,154	-0,058
-324,358	188,354	-0,059	0,064
-323,343	-32,250	-0,058	-0,023
-322,329	-52,458	0,134	0,045
-321,314	236,458	0,056	0,068
-320,299	1,397	0,074	0,039
-319,285	-11,379	0,094	-0,045
-318,270	-160,823	-0,075	0,003
-317,256	72,454	0,035	-0,026
-316,241	282,298	-0,075	-0,098
-315,226	-10,840	0,090	-0,043
-314,212	162,090	0,009	-0,009
-313,197	-96,866	0,111	-0,021
-312,183	800,000	-0,035	-0,090
-311,168	229,951	0,061	-0,073
-310,153	-117,361	-0,099	-0,013
-309,139	800,000	0,039	0,088
-308,124	16,033	-0,013	0,007
-307,110	489,647	0,046	0,076
-306,095	451,321	-0,022	0,036
-305,080	-200,000	0,011	0,114
-304,066	-103,398	-0,084	-0,014
-303,051	355,042	-0,038	0,056
-302,037	-200,000	0,006	-0,126
-301,022	-82,663	0,114	0,026
-300,008	-200,000	-0,043	0,162
-298,993	-63,736	0,084	0,025
-297,978	187,639	-0,072	0,078
-296,964	-112,814	-0,051	0,007
-295,949	24,558	0,066	0,040
-294,935	-200,000	-0,006	-0,046
-293,920	119,839	0,093	0,084
-292,905	-86,693	-0,082	-0,018
-291,891	90,440	-0,092	0,074
-290,876	-35,224	-0,080	-0,031
-289,862	-200,000	0,027	-0,125
-288,847	124,857	-0,117	0,107
-287,832	74,784	0,048	0,037
-286,818	80,942	-0,028	0,022
-285,803	-108,975	0,030	-0,005
-284,789	-9,414	0,056	0,027
-283,774	-140,588	0,080	-0,006
-282,759	-200,000	-0,021	0,138
-281,745	224,143	-0,044	0,052
-280,730	-200,000	-0,028	-0,089
-279,716	800,000	0,005	-0,011
-278,701	184,892	0,151	0,162
-277,686	-49,807	0,255	0,087
-276,672	800,000	-0,042	0,123
-275,657	-45,325	-0,095	0,034
-274,643	-89,334	0,078	-0,016
-273,628	396,791	-0,014	-0,022
-272,613	-92,927	0,089	0,018
-271,599	398,392	-0,037	0,056
-270,584	-200,000	0,001	0,081
-269,570	800,000	-0,039	0,079
-268,555	193,178	-0,062	0,068
-267,540	-34,533	-0,124	0,049
-266,526	235,409	-0,078	0,093
-265,511	48,125	0,078	0,052
-264,497	57,170	0,129	0,091
-263,482	140,495	-0,049	0,047
-262,467	337,024	-0,057	0,081
-261,453	160,325	-0,043	0,043
-260,438	62,301	-0,138	-0,099
-259,424	233,061	-0,090	0,107
-258,409	-138,613	0,065	-0,005
-257,395	354,180	0,070	-0,100
-256,380	-200,000	0,021	-0,069
-255,365	-200,000	0,011	0,079
-254,351	-94,095	0,062	0,012
-253,336	152,292	-0,048	-0,047
-252,322	-78,492	-0,071	0,017
-251,307	62,845	0,081	0,059
-250,292	-200,000	-0,011	0,045
-249,278	-91,189	0,039	-0,008
-248,263	-20,753	0,115	0,051
-247,249	-6,468	0,076	-0,037
-246,234	-19,852	0,058	-0,026
-245,219	35,562	-0,054	-0,034
-244,205	-39,858	-0,019	0,007
-243,190	10,978	0,112	0,062
-242,176	98,820	-0,039	0,032
-241,161	-91,081	0,180	-0,037
-240,146	72,635	-0,052	0,039
-239,132	-200,000	-0,019	0,061
-238,117	126,983	-0,039	-0,035
-237,103	-200,000	-0,014	-0,060
-236,088	800,000	0,032	-0,100
-235,073	-200,000	-0,006	-0,039
-234,059	-200,000	-0,005	0,109
-233,044	-129,225	-0,197	0,020
-232,030	-16,014	-0,044	-0,020
-231,015	-200,000	-0,002	-0,036
-230,000	-56,773	-0,082	-0,026
-228,986	780,745	-0,044	0,087
-227,971	-152,970	0,102	-0,005
-226,957	-5,633	0,189	0,093
-225,942	-200,000	0,049	0,173
-224,927	-45,184	-0,072	-0,026
-223,913	637,130	0,033	0,060
-222,898	-109,157	-0,038	0,006
-221,884	18,888	0,096	-0,055
-220,869	-200,000	0,024	0,158
-219,855	-123,999	0,107	0,012
-218,840	155,919	0,035	0,035
-217,825	-75,257	-0,063	0,016
-216,811	-200,000	-0,010	-0,097
-215,796	800,000	0,054	-0,120
-214,782	-136,217	0,056	0,005
-213,767	352,738	-0,005	0,007
-212,752	-71,342	0,173	-0,046
-211,738	-50,578	-0,020	0,007
-210,723	-8,759	0,074	0,036
-209,709	52,346	0,083	0,057
-208,694	36,005	-0,141	0,089
-207,679	-200,000	0,032	0,203
-206,665	-200,000	0,019	-0,066
-205,650	-92,853	0,049	0,010
-204,636	800,000	0,013	0,039
-203,621	97,379	-0,152	0,126
-202,606	12,871	-0,151	-0,084
-201,592	176,273	0,030	-0,031
-200,577	-44,097	-0,066	-0,024
-199,563	-60,825	0,151	-0,046
-198,548	384,511	-0,048	0,072
-197,533	304,815	0,089	0,120
-196,519	800,000	0,062	0,146
-195,504	-200,000	0,002	-0,095
-194,490	-87,427	-0,111	0,024
-193,475	-107,917	0,106	0,016
-192,460	-39,292	-0,153	0,058
-191,446	800,000	0,022	-0,066
-190,431	-200,000	0,014	-0,048
-189,417	501,589	0,071	0,119
-188,402	-52,138	-0,055	0,018
-187,387	534,274	-0,006	0,010
-186,373	-150,135	0,100	0,006
-185,358	81,329	-0,052	0,040
-184,344	-200,000	-0,014	0,058
-183,329	-200,000	-0,004	-0,085
-182,315	800,000	0,035	0,089
-181,300	258,767	0,027	0,033
-180,285	187,172	-0,076	-0,082
-179,271	111,523	0,077	-0,067
-178,256	-200,000	0,022	0,122
-177,242	285,975	-0,101	0,132
-176,227	-200,000	-0,018	0,130
-175,212	800,000	0,042	0,107
-174,198	229,600	-0,064	0,076
-173,183	800,000	0,057	-0,138
-172,169	224,206	-0,104	-0,121
-171,154	-200,000	0,006	0,041
-170,139	-200,000	-0,003	-0,021
-169,125	172,434	0,097	0,101
-168,110	-200,000	0,009	0,085
-167,096	800,000	0,033	0,099
-166,081	37,895	-0,074	0,047
-165,066	-46,668	0,054	0,019
-164,052	-117,764	0,016	0,002
-163,037	-200,000	-0,002	-0,115
-162,023	1,316	0,033	0,017
-161,008	-16,975	0,053	0,024
-159,993	-200,000	0,010	-0,049
-158,979	-179,751	-0,130	-0,002
-157,964	424,547	0,071	-0,111
-156,950	53,727	-0,084	-0,058
-155,935	-200,000	-0,015	-0,079
-154,920	525,338	-0,065	0,110
-153,906	107,720	0,107	0,092
-152,891	800,000	-0,054	-0,142
-151,877	800,000	-0,043	0,093
-150,862	800,000	-0,011	-0,025
-149,847	-200,000	0,003	-0,039
-148,833	102,297	-0,071	-0,060
-147,818	2,842	0,131	0,068
-146,804	-96,833	-0,075	0,014
-145,789	800,000	-0,055	-0,134
-144,775	27,898	-0,119	-0,072
-143,760	800,000	0,061	0,134
-142,745	-200,000	-0,034	0,152
-141,731	45,064	0,066	0,044
-140,716	212,526	0,111	0,126
-139,702	-13,482	0,091	0,042
-138,687	-70,030	0,107	-0,029
-137,672	-200,000	0,024	-0,119
-136,658	63,494	-0,046	-0,034
-135,643	-80,990	0,114	-0,027
-134,629	-66,808	0,022	-0,006
-133,614	215,780	0,088	-0,101
-132,599	41,467	-0,060	-0,039
-131,585	-200,000	-0,013	0,066
-130,570	-127,053	0,141	-0,015
-129,556	800,000	0,014	-0,043
-128,541	-200,000	0,016	-0,067
-127,526	800,000	0,037	-0,113
-126,512	-77,341	-0,036	0,009
-125,497	-42,056	0,124	-0,045
-124,483	-33,411	0,078	0,031
-123,468	-82,277	-0,043	-0,010
-122,453	3,738	-0,056	0,029
-121,439	800,000	0,026	0,071
-120,424	0,925	-0,064	-0,033
