DTS Sentinel unit serial number:	SN410029Multiplexer serial number:	ORYXHardware model number:	OX2-SRSoftware version number:	ORYX F/W v4,00 Oryx Data Collector v3.7.2.0data status	okinstallation	B5 Nyhavnadifferential loss correction	single-endedforward channel	channel 2reverse channel	N/Adate	2023/12/13time	21:57:13forward acquisition time	300,00reverse acquisition time	0,00gamma	499,1914k internal	0,3155k external	0,3155temperature offset calibration	1,0000default loss term (dB/km)	0,3820temperature slope calibration	1,0000multiplexer offset coefficient	1,0000multiplexer slope coefficient	1,0000fibre end	0,00T internal ref (°C)	9,67T ext. ref 1 (°C)	-7,05T ext. ref 2 (°C)	-7,08length (m)	temperature (°C)	Stokes	anti-Stokes-744,400	800,000	0,046	-0,097
-743,385	-130,125	-0,466	-0,046
-742,371	-74,939	0,266	0,070
-741,356	-184,225	-0,332	-0,004
-740,342	-26,595	0,078	0,034
-739,327	-101,463	-0,388	-0,069
-738,312	-182,491	0,137	0,002
-737,298	-47,447	-0,259	-0,092
-736,283	203,785	0,121	0,138
-735,269	19,231	-0,285	-0,168
-734,254	253,340	0,089	0,113
-733,239	-68,067	-0,499	-0,143
-732,225	-68,052	0,267	0,076
-731,210	-162,095	0,082	-0,003
-730,196	800,000	-0,023	-0,051
-729,181	-200,000	-0,002	0,110
-728,167	-94,306	0,067	0,013
-727,152	-200,000	0,018	0,086
-726,137	800,000	0,020	-0,058
-725,123	61,825	-0,109	-0,080
-724,108	72,942	-0,090	-0,070
-723,094	-12,706	0,172	-0,082
-722,079	48,580	-0,176	-0,121
-721,064	-200,000	0,030	-0,131
-720,050	697,404	-0,042	-0,082
-719,035	49,452	-0,070	-0,048
-718,021	-200,000	0,016	-0,121
-717,006	259,844	-0,039	-0,050
-715,991	392,722	-0,106	-0,162
-714,977	-200,000	0,020	0,118
-713,962	-127,760	-0,128	-0,013
-712,948	205,879	0,131	0,151
-711,933	-200,000	-0,001	0,067
-710,918	-45,520	0,025	-0,009
-709,904	800,000	0,035	0,100
-708,889	-55,477	-0,109	-0,036
-707,875	411,386	-0,058	-0,091
-706,860	1,775	0,033	-0,017
-705,845	-71,402	0,146	-0,040
-704,831	-200,000	0,010	0,097
-703,816	-58,143	-0,138	0,044
-702,802	-70,766	-0,040	0,011
-701,787	800,000	-0,066	-0,149
-700,772	-200,000	0,006	-0,074
-699,758	53,510	-0,170	0,120
-698,743	-3,899	0,066	0,034
-697,729	69,499	-0,011	0,009
-696,714	-67,002	-0,100	0,029
-695,699	-7,812	-0,009	-0,004
-694,685	760,152	0,102	-0,205
-693,670	-22,271	-0,162	0,072
-692,656	51,934	0,096	-0,068
-691,641	800,000	0,030	-0,064
-690,627	328,803	-0,022	0,031
-689,612	-200,000	-0,015	0,094
-688,597	129,190	0,012	-0,012
-687,583	-200,000	-0,013	-0,138
-686,568	-54,992	-0,070	-0,023
-685,554	409,056	-0,083	-0,130
-684,539	-200,000	-0,019	0,083
-683,524	-123,679	-0,034	0,004
-682,510	-46,254	0,028	0,010
-681,495	429,378	0,043	-0,069
-680,481	2,967	-0,030	0,016
-679,466	-96,978	-0,129	-0,025
-678,451	-200,000	0,026	0,097
-677,437	135,324	0,040	-0,038
-676,422	-50,305	-0,189	-0,065
-675,408	-160,544	-0,025	0,001
-674,393	-200,000	-0,019	0,066
-673,378	800,000	0,020	0,059
-672,364	-167,137	-0,112	0,003
-671,349	-200,000	-0,019	-0,133
-670,335	255,251	0,042	-0,052
-669,320	124,528	0,064	-0,059
-668,305	216,484	-0,096	0,112
-667,291	-200,000	-0,013	0,178
-666,276	-200,000	-0,001	-0,098
-665,262	112,955	-0,081	-0,072
-664,247	500,451	-0,044	-0,074
-663,232	253,946	0,035	-0,045
-662,218	800,000	-0,022	0,060
-661,203	800,000	-0,021	-0,066
-660,189	588,903	0,048	-0,087
-659,174	-200,000	-0,022	-0,077
-658,159	-99,299	-0,108	0,020
-657,145	526,692	0,060	-0,104
-656,130	482,580	0,059	-0,100
-655,116	527,654	0,082	-0,143
-654,101	68,307	0,147	-0,111
-653,086	-90,631	0,113	-0,024
-652,072	18,457	-0,020	0,011
-651,057	-91,071	-0,234	-0,049
-650,043	10,552	0,068	-0,038
-649,028	-200,000	0,008	-0,087
-648,014	800,000	0,031	0,077
-646,999	293,087	-0,041	0,055
-645,984	-126,829	-0,157	0,017
-644,970	-200,000	-0,001	-0,114
-643,955	50,460	-0,046	-0,032
-642,941	-200,000	0,005	-0,064
-641,926	128,115	-0,102	-0,095
-640,911	-124,032	-0,054	0,006
-639,897	800,000	-0,031	0,063
-638,882	800,000	0,026	-0,063
-637,868	239,124	0,028	-0,035
-636,853	-108,861	-0,109	-0,017
-635,838	-48,829	-0,111	-0,039
-634,824	447,178	0,008	0,013
-633,809	-173,445	-0,102	-0,002
-632,795	-146,170	-0,121	-0,008
-631,780	211,231	0,044	-0,051
-630,765	168,859	-0,086	0,090
-629,751	237,880	0,048	0,059
-628,736	307,798	-0,108	-0,148
-627,722	147,173	-0,099	-0,098
-626,707	249,323	-0,021	0,026
-625,692	51,272	0,053	0,037
-624,678	-26,582	-0,063	0,027
-623,663	-200,000	-0,016	-0,094
-622,649	-62,672	-0,145	0,044
-621,634	595,754	-0,049	-0,089
-620,619	-37,230	0,082	-0,032
-619,605	-41,594	0,063	-0,023
-618,590	-200,000	-0,026	-0,127
-617,576	-84,531	-0,066	-0,015
-616,561	-71,218	0,193	0,053
-615,546	213,487	-0,117	-0,136
-614,532	69,008	0,080	-0,060
-613,517	-93,900	-0,049	-0,010
-612,503	-127,754	0,017	0,002
-611,488	20,133	-0,038	-0,022
-610,474	41,536	-0,085	-0,056
-609,459	85,585	-0,056	0,045
-608,444	-21,802	-0,078	-0,035
-607,430	412,801	-0,075	-0,117
-606,415	0,077	-0,181	0,094
-605,401	-49,191	0,025	0,009
-604,386	-200,000	0,025	-0,121
-603,371	-200,000	0,007	-0,029
-602,357	68,948	-0,115	0,086
-601,342	-130,699	-0,129	-0,013
-600,328	-132,201	0,071	0,007
-599,313	151,638	0,043	-0,043
-598,298	-131,058	-0,127	0,012
-597,284	-73,643	-0,011	0,003
-596,269	-124,739	-0,137	0,015
-595,255	464,977	0,018	0,030
-594,240	800,000	0,050	-0,144
-593,225	800,000	-0,040	-0,084
-592,211	800,000	0,053	-0,140
-591,196	800,000	-0,015	0,039
-590,182	97,270	0,036	0,030
-589,167	9,677	0,013	0,007
-588,152	39,408	-0,130	0,085
-587,138	170,675	0,046	0,048
-586,123	-11,746	0,086	0,041
-585,109	-142,174	-0,138	-0,010
-584,094	482,801	-0,041	-0,069
-583,079	-124,623	0,017	-0,002
-582,065	-144,172	-0,037	-0,003
-581,050	-126,213	-0,088	-0,010
-580,036	65,553	0,058	-0,043
-579,021	769,871	0,013	-0,027
-578,006	800,000	-0,024	-0,067
-576,992	800,000	-0,049	-0,121
-575,977	-200,000	0,024	0,143
-574,963	-79,738	-0,072	-0,018
-573,948	-200,000	-0,036	0,168
-572,934	-200,000	0,003	0,058
-571,919	-62,205	-0,090	0,027
-570,904	-49,905	0,044	-0,015
-569,890	504,529	0,084	-0,142
-568,875	110,630	0,098	-0,086
-567,861	223,751	-0,118	0,140
-566,846	64,926	-0,032	0,024
-565,831	-57,188	-0,090	-0,029
-564,817	-8,863	0,088	-0,043
-563,802	-200,000	0,020	-0,226
-562,788	-79,806	-0,086	0,021
-561,773	-169,955	0,098	-0,003
-560,758	-200,000	0,014	0,173
-559,744	779,819	0,103	0,207
-558,729	-35,324	0,060	0,024
-557,715	156,425	0,065	-0,066
-556,700	-200,000	0,011	-0,047
-555,685	114,819	-0,047	0,042
-554,671	-177,053	0,057	0,001
-553,656	800,000	0,037	0,085
-552,642	-21,444	0,041	0,018
-551,627	-34,113	0,063	-0,025
-550,612	-109,934	0,106	-0,016
-549,598	-75,106	-0,042	-0,011
-548,583	-200,000	0,014	0,085
-547,569	-200,000	0,009	-0,085
-546,554	-25,552	0,115	-0,049
-545,539	-200,000	0,018	0,085
-544,525	-200,000	-0,023	0,086
-543,510	800,000	0,034	-0,107
-542,496	-200,000	-0,019	0,079
-541,481	531,204	0,009	0,017
-540,466	-200,000	-0,003	0,056
-539,452	271,649	-0,104	-0,134
-538,437	183,026	0,045	0,048
-537,423	50,980	-0,090	-0,062
-536,408	-77,507	0,081	-0,020
-535,393	-97,445	-0,062	0,012
-534,379	-57,228	-0,127	0,041
-533,364	-200,000	0,001	0,028
-532,350	-28,900	0,065	0,027
-531,335	800,000	0,057	0,119
-530,321	98,531	-0,074	0,062
-529,306	489,739	0,036	0,061
-528,291	432,634	-0,014	-0,023
-527,277	86,424	0,064	-0,052
-526,262	-200,000	0,010	-0,067
-525,248	-95,787	0,070	0,014
-524,233	-200,000	-0,002	0,084
-523,218	800,000	-0,026	0,065
-522,204	-200,000	-0,003	-0,067
-521,189	-200,000	-0,027	0,100
-520,175	-108,606	-0,104	0,016
-519,160	8,147	0,014	-0,008
-518,145	-200,000	0,007	0,113
-517,131	47,425	-0,040	-0,027
-516,116	261,028	-0,047	-0,060
-515,102	-200,000	0,025	-0,126
-514,087	498,534	-0,033	0,056
-513,072	-40,880	-0,071	0,027
-512,058	208,305	-0,026	-0,030
-511,043	722,134	0,060	-0,117
-510,029	152,383	0,087	-0,087
-509,014	-128,050	0,153	0,016
-507,999	800,000	-0,073	0,156
-506,985	-200,000	0,006	-0,052
-505,970	413,839	0,095	0,148
-504,956	274,447	0,030	-0,039
-503,941	-62,780	0,044	-0,013
-502,926	211,648	0,093	0,108
-501,912	800,000	0,023	0,053
-500,897	800,000	0,060	0,151
-499,883	-200,000	0,013	0,065
-498,868	-40,071	0,110	0,042
-497,853	228,131	0,136	-0,162
-496,839	135,571	-0,051	-0,048
-495,824	-42,258	0,041	0,015
-494,810	-200,000	-0,033	0,204
-493,795	-72,286	0,104	0,028
-492,781	772,852	-0,040	0,081
-491,766	-105,977	-0,020	-0,003
-490,751	-200,000	0,016	-0,058
-489,737	243,664	-0,070	0,086
-488,722	690,277	0,014	0,027
-487,708	800,000	-0,095	0,241
-486,693	800,000	0,040	-0,083
-485,678	800,000	0,023	0,067
-484,664	21,646	-0,222	-0,132
-483,649	349,762	0,050	0,072
-482,635	-164,742	0,060	0,002
-481,620	104,823	-0,096	0,083
-480,605	800,000	0,015	0,035
-479,591	141,774	-0,031	0,030
-478,576	-200,000	0,039	0,126
-477,562	137,388	-0,051	-0,049
-476,547	-10,059	0,040	0,019
-475,532	-131,677	0,082	-0,008
-474,518	-103,493	-0,053	0,009
-473,503	99,076	-0,043	-0,036
-472,489	446,011	-0,050	0,080
-471,474	800,000	0,023	-0,047
-470,459	768,958	0,056	-0,112
-469,445	111,147	-0,060	-0,053
-468,430	-27,754	-0,154	0,065
-467,416	-200,000	0,001	0,023
-466,401	800,000	-0,020	-0,062
-465,386	75,040	-0,014	-0,011
-464,372	800,000	0,040	0,086
-463,357	144,588	-0,128	-0,125
-462,343	-90,243	-0,098	-0,021
-461,328	-200,000	0,005	-0,103
-460,313	800,000	-0,010	0,026
-459,299	-200,000	0,014	0,139
-458,284	800,000	-0,021	-0,055
-457,270	800,000	-0,043	0,127
-456,255	105,058	-0,054	0,046
-455,241	372,560	-0,054	0,080
-454,226	-200,000	0,035	-0,127
-453,211	-200,000	0,041	-0,205
-452,197	-10,138	0,071	-0,034
-451,182	-200,000	-0,010	0,129
-450,168	-13,292	-0,054	0,026
-449,153	-28,802	-0,071	0,030
-448,138	-55,993	-0,149	-0,048
-447,124	108,549	-0,087	-0,076
-446,109	329,276	-0,036	-0,051
-445,095	-99,597	0,171	-0,031
-444,080	121,756	0,059	0,053
-443,065	-112,308	-0,041	-0,006
-442,051	92,441	-0,095	0,078
-441,036	283,017	-0,048	0,063
-440,022	-60,084	0,038	0,012
-439,007	-151,123	-0,035	0,002
-437,992	379,845	0,027	-0,040
-436,978	-40,008	0,085	0,032
-435,963	137,074	0,104	-0,099
-434,949	-200,000	0,001	-0,068
-433,934	-200,000	-0,007	-0,026
-432,919	-116,797	-0,054	0,007
-431,905	-80,104	-0,059	-0,014
-430,890	-61,992	0,138	0,042
-429,876	-61,370	-0,015	-0,004
-428,861	-7,814	-0,036	-0,018
-427,846	84,145	0,058	-0,046
-426,832	-200,000	-0,002	-0,136
-425,817	800,000	-0,036	-0,077
-424,803	-200,000	0,003	-0,142
-423,788	212,999	-0,027	-0,031
-422,773	760,531	-0,026	-0,052
-421,759	68,160	0,134	0,100
-420,744	-134,854	-0,066	0,006
-419,730	-66,035	-0,106	0,031
-418,715	-139,311	0,121	-0,009
-417,701	86,906	-0,089	0,071
-416,686	12,429	-0,018	0,010
-415,671	227,250	0,118	0,140
-414,657	-200,000	0,010	0,098
-413,642	-200,000	-0,010	0,039
-412,628	-39,174	0,030	0,011
-411,613	-138,651	-0,059	-0,005
-410,598	-200,000	-0,027	0,093
-409,584	-69,501	-0,139	0,039
-408,569	170,534	-0,098	0,102
-407,555	7,479	0,081	-0,044
-406,540	196,832	-0,068	0,075
-405,525	-49,112	-0,114	0,040
-404,511	-12,141	-0,120	0,057
-403,496	-106,540	0,033	0,005
-402,482	-173,749	-0,176	-0,004
-401,467	12,299	0,015	-0,008
-400,452	61,697	-0,091	0,066
-399,438	25,403	-0,053	-0,032
-398,423	205,481	-0,032	-0,036
-397,409	16,322	-0,028	-0,016
-396,394	800,000	-0,045	-0,133
-395,379	-200,000	-0,023	-0,084
-394,365	122,465	0,016	0,014
-393,350	-35,412	0,087	0,034
-392,336	-200,000	-0,021	-0,070
-391,321	800,000	-0,038	0,122
-390,306	553,869	0,035	-0,061
-389,292	-174,140	-0,209	-0,004
-388,277	-139,292	-0,143	0,011
-387,263	-46,988	0,160	-0,057
-386,248	-200,000	0,007	0,092
-385,233	22,602	-0,077	0,046
-384,219	72,257	0,159	0,120
-383,204	800,000	-0,065	-0,154
-382,190	-10,105	0,048	-0,023
-381,175	-200,000	0,004	-0,019
-380,160	217,969	0,096	-0,111
-379,146	-200,000	0,027	0,246
-378,131	33,902	0,053	-0,034
-377,117	179,148	-0,037	-0,039
-376,102	-200,000	0,046	-0,160
-375,088	69,884	-0,024	-0,018
-374,073	-151,125	0,055	-0,003
-373,058	800,000	0,026	0,072
-372,044	357,251	-0,031	0,045
-371,029	800,000	-0,037	0,086
-370,015	0,990	-0,040	-0,021
-369,000	72,794	0,076	-0,058
-367,985	154,874	0,078	-0,078
-366,971	198,636	0,029	0,032
-365,956	-17,355	0,027	-0,012
-364,942	-129,292	0,135	-0,014
-363,927	-70,459	0,108	0,030
-362,912	800,000	-0,056	0,125
-361,898	30,313	-0,024	0,015
-360,883	489,546	0,043	-0,072
-359,869	-16,618	0,077	-0,035
-358,854	-200,000	0,002	-0,065
-357,839	122,300	0,045	-0,040
-356,825	800,000	-0,014	0,045
-355,810	59,868	-0,118	0,084
-354,796	352,530	0,067	0,097
-353,781	-200,000	-0,013	-0,095
-352,766	-193,056	-0,157	-0,001
-351,752	544,193	-0,030	-0,052
-350,737	-116,937	0,144	0,019
-349,723	-51,709	-0,082	0,028
-348,708	474,919	-0,001	0,002
-347,693	312,950	0,079	-0,108
-346,679	-12,295	-0,066	-0,031
-345,664	-59,495	0,182	0,056
-344,650	800,000	0,013	-0,025
-343,635	-45,935	0,084	0,030
-342,620	251,177	0,028	0,034
-341,606	-200,000	0,008	0,066
-340,591	800,000	-0,037	0,080
-339,577	-186,866	-0,081	0,001
-338,562	800,000	0,016	-0,050
-337,548	287,001	-0,060	0,079
-336,533	-131,365	0,160	0,015
-335,518	-200,000	-0,016	-0,084
-334,504	20,243	0,115	-0,067
-333,489	800,000	-0,042	0,107
-332,475	-73,109	-0,068	0,018
-331,460	324,713	-0,087	0,121
-330,445	66,410	-0,171	0,126
-329,431	-118,841	0,125	0,016
-328,416	800,000	-0,054	0,135
-327,402	184,818	-0,024	-0,025
-326,387	-90,970	-0,066	0,014
-325,372	-200,000	-0,033	-0,112
-324,358	-167,014	-0,175	-0,005
-323,343	-29,522	-0,051	0,021
-322,329	309,273	0,076	0,104
-321,314	-141,475	0,047	0,003
-320,299	491,968	-0,036	0,060
-319,285	34,491	0,049	0,031
-318,270	648,521	-0,069	-0,129
-317,256	329,019	0,033	-0,046
-316,241	-10,638	-0,016	0,008
-315,226	793,323	-0,041	-0,082
-314,212	277,561	-0,006	0,008
-313,197	374,130	0,054	0,080
-312,183	-189,823	0,056	-0,000
-311,168	-33,722	0,135	-0,054
-310,153	-200,000	0,013	-0,170
-309,139	-200,000	0,004	0,111
-308,124	-56,186	-0,056	0,018
-307,110	800,000	-0,033	-0,080
-306,095	-102,215	-0,057	0,010
-305,080	-200,000	0,044	0,213
-304,066	405,528	0,074	0,114
-303,051	96,154	0,130	-0,108
-302,037	-200,000	0,006	0,024
-301,022	800,000	0,018	-0,050
-300,008	-98,046	0,143	0,026
-298,993	-200,000	0,006	0,040
-297,978	63,366	0,209	-0,152
-296,964	302,231	-0,055	-0,075
-295,949	97,065	0,097	-0,081
-294,935	189,363	-0,036	-0,039
-293,920	-25,204	-0,030	-0,013
-292,905	348,207	0,052	-0,075
-291,891	-200,000	0,008	0,041
-290,876	22,485	-0,088	0,052
-289,862	30,483	0,109	-0,068
-288,847	276,599	-0,070	0,091
-287,832	-28,662	-0,134	-0,056
-286,818	-200,000	0,017	0,059
-285,803	19,281	0,080	-0,046
-284,789	800,000	-0,040	0,124
-283,774	203,412	-0,085	0,096
-282,759	-200,000	0,008	-0,039
-281,745	489,555	0,071	-0,118
-280,730	121,626	0,076	-0,069
-279,716	131,526	0,065	-0,060
-278,701	-200,000	0,014	-0,089
-277,686	17,513	0,100	0,057
-276,672	215,249	0,053	0,061
-275,657	279,079	-0,111	-0,144
-274,643	-200,000	0,002	-0,120
-273,628	114,816	0,069	0,061
-272,613	-85,449	0,120	-0,027
-271,599	239,609	-0,038	-0,046
-270,584	-200,000	-0,012	0,051
-269,570	315,932	0,054	0,074
-268,555	-200,000	0,001	0,008
-267,540	-81,711	-0,164	-0,039
-266,526	-200,000	0,010	0,081
-265,511	800,000	-0,025	0,074
-264,497	114,109	0,045	0,040
-263,482	-155,920	0,146	-0,007
-262,467	770,238	0,054	-0,108
-261,453	-200,000	0,000	-0,001
-260,438	519,540	0,050	0,086
-259,424	-43,226	0,188	-0,069
-258,409	-106,598	-0,163	0,026
-257,395	-200,000	0,010	-0,221
-256,380	246,190	0,144	-0,176
-255,365	-13,205	0,083	-0,039
-254,351	800,000	-0,039	0,083
-253,336	704,136	-0,037	0,071
-252,322	410,451	-0,063	-0,097
-251,307	-200,000	0,009	-0,116
-250,292	-200,000	0,000	-0,034
-249,278	366,136	-0,072	0,106
-248,263	-200,000	0,011	0,043
-247,249	-200,000	0,003	0,126
-246,234	507,035	-0,038	0,063
-245,219	571,488	0,089	-0,157
-244,205	-200,000	-0,037	-0,181
-243,190	-200,000	0,007	-0,035
-242,176	-200,000	0,002	-0,021
-241,161	3,622	0,151	-0,080
-240,146	800,000	-0,036	0,080
-239,132	-83,467	-0,129	-0,030
-238,117	333,898	0,048	0,068
-237,103	488,433	0,036	0,060
-236,088	-79,010	0,077	0,019
-235,073	800,000	0,058	0,154
-234,059	-38,509	-0,055	0,021
-233,044	268,880	0,033	0,042
-232,030	-200,000	0,011	0,114
-231,015	-84,741	-0,015	0,003
-230,000	-112,986	-0,018	0,003
-228,986	-200,000	0,000	0,046
-227,971	0,328	0,043	-0,022
-226,957	33,035	0,071	0,044
-225,942	-35,255	-0,073	-0,029
-224,927	364,362	0,059	-0,086
-223,913	69,472	-0,045	-0,033
-222,898	-59,151	0,053	-0,016
-221,884	-142,219	0,063	0,004
-220,869	800,000	0,030	0,095
-219,855	-200,000	0,015	0,126
-218,840	-48,098	0,037	-0,013
-217,825	-111,845	0,015	-0,002
-216,811	-62,067	-0,074	0,022
-215,796	-42,217	0,096	-0,035
-214,782	-158,432	-0,091	0,004
-213,767	-87,443	0,158	0,034
-212,752	-64,949	-0,090	-0,026
-211,738	800,000	0,046	-0,095
-210,723	136,393	0,099	0,093
-209,709	-200,000	-0,000	-0,078
-208,694	214,883	-0,111	-0,127
-207,679	-23,154	0,103	-0,045
-206,665	-113,593	0,170	0,024
-205,650	156,019	0,036	0,035
-204,636	-200,000	-0,018	-0,077
-203,621	800,000	-0,065	-0,142
-202,606	-102,796	0,065	0,011
-201,592	-136,717	-0,043	0,004
-200,577	-74,064	0,067	-0,018
-199,563	167,542	0,153	0,157
-198,548	248,510	0,096	0,118
-197,533	-37,989	0,043	-0,016
-196,519	-154,220	-0,056	0,003
-195,504	217,049	0,037	0,043
-194,490	-176,677	0,113	0,002
-193,475	-76,993	0,027	0,007
-192,460	572,191	-0,039	-0,069
-191,446	-67,200	0,127	0,036
-190,431	7,248	0,077	-0,041
-189,417	800,000	0,010	-0,027
-188,402	800,000	-0,013	-0,028
-187,387	271,491	-0,064	-0,082
-186,373	-200,000	0,005	-0,027
-185,358	299,095	-0,041	0,055
-184,344	756,175	0,046	-0,089
-183,329	-146,435	0,037	0,002
-182,315	-8,937	-0,099	0,048
-181,300	-1,135	-0,058	0,029
-180,285	21,642	-0,109	0,064
-179,271	72,840	-0,086	-0,065
-178,256	-24,473	0,025	-0,011
-177,242	800,000	-0,027	-0,055
-176,227	-110,844	-0,011	-0,002
-175,212	-15,318	0,014	-0,006
-174,198	624,463	-0,011	-0,019
-173,183	-83,750	-0,084	-0,019
-172,169	-200,000	-0,028	-0,118
-171,154	98,940	0,025	0,020
-170,139	485,000	0,017	0,028
-169,125	-200,000	0,004	0,093
-168,110	800,000	0,043	0,114
-167,096	-124,260	-0,126	-0,014
-166,081	-200,000	-0,013	0,044
-165,066	-185,388	-0,136	-0,001
-164,052	24,045	-0,087	0,052
-163,037	-45,470	0,142	0,051
-162,023	-37,812	0,068	-0,026
-161,008	-48,191	0,122	0,042
-159,993	115,694	0,050	0,044
-158,979	-200,000	0,017	-0,055
-157,964	-200,000	-0,013	-0,054
-156,950	391,344	-0,057	-0,086
-155,935	-115,445	0,121	-0,016
-154,920	3,646	0,116	-0,061
-153,906	-200,000	0,052	0,166
-152,891	116,901	0,062	-0,055
-151,877	203,311	-0,111	0,124
-150,862	-200,000	-0,003	0,035
-149,847	-200,000	-0,031	0,126
-148,833	-65,659	0,036	-0,010
-147,818	205,524	0,038	0,043
-146,804	303,625	0,073	0,098
-145,789	-37,335	-0,013	-0,005
-144,775	514,281	0,094	-0,158
-143,760	511,051	0,029	-0,048
-142,745	329,808	-0,030	-0,042
-141,731	98,970	0,082	-0,068
-140,716	268,911	-0,032	-0,041
-139,702	90,374	-0,090	0,072
-138,687	-13,321	-0,095	0,044
-137,672	457,596	0,064	0,103
-136,658	516,243	-0,034	-0,058
-135,643	138,438	-0,108	-0,102
-134,629	800,000	-0,038	-0,086
-133,614	-1,133	0,103	0,052
-132,599	-52,129	0,086	0,029
-131,585	386,478	0,059	0,088
-130,570	-73,148	-0,155	0,041
-129,556	800,000	0,022	0,061
-128,541	98,619	-0,068	-0,057
-127,526	-200,000	0,020	-0,100
-126,512	289,892	-0,072	-0,094
-125,497	-52,905	0,114	0,037
-124,483	-200,000	0,002	0,070
-123,468	-200,000	0,011	-0,059
-122,453	-62,743	0,092	-0,027
-121,439	110,077	-0,051	-0,044
-120,424	188,465	0,064	-0,069
-119,410	181,503	-0,039	-0,042
