DTS Sentinel unit serial number:	SN410029Multiplexer serial number:	ORYXHardware model number:	OX2-SRSoftware version number:	ORYX F/W v4,00 Oryx Data Collector v3.7.2.0data status	okinstallation	B5 Nyhavnadifferential loss correction	single-endedforward channel	channel 2reverse channel	N/Adate	2023/12/13time	20:52:13forward acquisition time	300,00reverse acquisition time	0,00gamma	499,1914k internal	0,3157k external	0,3157temperature offset calibration	1,0000default loss term (dB/km)	0,3820temperature slope calibration	1,0000multiplexer offset coefficient	1,0000multiplexer slope coefficient	1,0000fibre end	0,00T internal ref (°C)	10,44T ext. ref 1 (°C)	-6,52T ext. ref 2 (°C)	-6,58length (m)	temperature (°C)	Stokes	anti-Stokes-744,400	-52,273	0,109	0,037
-743,385	-26,234	-0,194	-0,084
-742,371	48,213	0,124	0,085
-741,356	-155,150	-0,199	-0,009
-740,342	-76,644	0,096	0,025
-739,327	49,606	-0,303	-0,210
-738,312	-123,186	0,109	0,013
-737,298	-98,284	-0,463	-0,087
-736,283	717,107	0,031	0,061
-735,269	-132,511	-0,277	0,026
-734,254	102,284	0,062	0,054
-733,239	103,194	-0,413	-0,357
-732,225	-25,735	0,242	0,105
-731,210	-168,623	0,109	0,003
-730,196	36,447	-0,126	0,082
-729,181	-147,251	-0,011	-0,001
-728,167	133,997	-0,035	-0,034
-727,152	233,458	-0,012	0,015
-726,137	93,478	-0,112	-0,093
-725,123	271,412	-0,144	-0,188
-724,108	-200,000	-0,024	-0,093
-723,094	321,244	-0,067	-0,093
-722,079	-171,977	-0,132	-0,003
-721,064	25,420	0,047	-0,029
-720,050	-200,000	-0,025	-0,128
-719,035	225,922	-0,067	-0,081
-718,021	203,858	-0,024	-0,027
-717,006	-123,348	0,062	-0,007
-715,991	16,168	-0,128	-0,074
-714,977	239,880	0,078	-0,095
-713,962	-92,111	-0,207	0,043
-712,948	-200,000	-0,008	0,031
-711,933	-85,917	0,158	0,036
-710,918	178,661	0,026	-0,028
-709,904	-40,101	-0,252	-0,096
-708,889	-200,000	-0,039	-0,147
-707,875	-102,970	-0,118	-0,020
-706,860	643,346	0,081	-0,152
-705,845	541,283	0,058	-0,101
-704,831	1,228	0,133	-0,070
-703,816	-200,000	-0,001	-0,165
-702,802	-96,446	-0,057	-0,011
-701,787	800,000	-0,056	-0,143
-700,772	-200,000	-0,013	-0,117
-699,758	100,830	0,069	-0,059
-698,743	438,494	0,044	0,070
-697,729	-92,074	0,085	0,018
-696,714	231,769	-0,069	-0,084
-695,699	-49,343	0,019	0,007
-694,685	-200,000	0,009	-0,081
-693,670	483,926	-0,103	-0,172
-692,656	-3,286	-0,028	-0,014
-691,641	-65,456	0,023	0,007
-690,627	-200,000	0,008	0,151
-689,612	-200,000	0,006	-0,159
-688,597	800,000	-0,054	0,114
-687,583	-200,000	0,002	-0,143
-686,568	0,620	-0,127	-0,067
-685,554	4,255	-0,152	0,082
-684,539	658,712	-0,015	-0,029
-683,524	-81,851	-0,035	0,008
-682,510	-98,115	-0,197	-0,037
-681,495	317,734	-0,023	-0,032
-680,481	800,000	-0,025	0,053
-679,466	-62,024	-0,097	0,030
-678,451	-200,000	0,001	-0,017
-677,437	181,417	0,111	-0,120
-676,422	4,655	-0,058	0,031
-675,408	-200,000	-0,008	0,108
-674,393	-200,000	0,001	-0,010
-673,378	636,529	-0,045	0,084
-672,364	800,000	-0,031	0,085
-671,349	800,000	-0,021	-0,056
-670,335	430,365	0,063	-0,101
-669,320	-159,523	-0,131	-0,005
-668,305	287,665	0,091	0,121
-667,291	-200,000	-0,017	-0,142
-666,276	211,989	0,071	-0,082
-665,262	800,000	-0,034	-0,087
-664,247	-200,000	-0,007	0,082
-663,232	-17,013	-0,092	-0,042
-662,218	-200,000	0,013	0,045
-661,203	800,000	-0,035	0,090
-660,189	-200,000	0,007	0,180
-659,174	800,000	-0,014	-0,042
-658,159	-36,316	-0,099	-0,039
-657,145	-54,798	0,027	0,009
-656,130	-41,130	0,061	0,023
-655,116	18,736	0,039	-0,023
-654,101	-73,255	-0,079	0,021
-653,086	-200,000	-0,031	0,106
-652,072	800,000	-0,052	0,123
-651,057	279,967	-0,055	0,072
-650,043	800,000	0,027	0,086
-649,028	-56,240	-0,221	0,072
-648,014	-23,028	0,135	0,059
-646,999	-38,481	0,123	0,047
-645,984	393,233	-0,019	-0,029
-644,970	-104,009	-0,153	0,026
-643,955	6,783	-0,006	0,003
-642,941	-9,422	-0,199	-0,097
-641,926	-49,571	0,111	-0,038
-640,911	800,000	0,012	-0,036
-639,897	148,921	-0,046	-0,045
-638,882	590,462	-0,053	-0,097
-637,868	800,000	0,007	-0,020
-636,853	-51,256	-0,142	-0,049
-635,838	-104,709	-0,155	0,026
-634,824	-200,000	-0,029	-0,099
-633,809	-58,786	0,058	0,018
-632,795	296,419	-0,070	-0,094
-631,780	-110,587	-0,033	-0,005
-630,765	-200,000	-0,008	-0,032
-629,751	-98,201	-0,140	0,026
-628,736	-129,215	0,192	0,019
-627,722	-112,307	-0,099	-0,014
-626,707	-113,068	-0,083	0,012
-625,692	73,046	-0,016	-0,012
-624,678	210,202	-0,031	0,036
-623,663	220,273	0,105	0,124
-622,649	47,988	0,075	0,052
-621,634	642,706	-0,085	-0,160
-620,619	800,000	-0,013	-0,035
-619,605	-74,173	0,065	-0,017
-618,590	-48,176	-0,166	-0,059
-617,576	680,612	0,081	0,155
-616,561	478,532	-0,025	-0,042
-615,546	-200,000	0,001	-0,006
-614,532	-48,550	-0,027	0,010
-613,517	800,000	-0,041	-0,110
-612,503	-72,799	0,071	0,019
-611,488	-200,000	-0,011	0,045
-610,474	-200,000	0,004	0,014
-609,459	-86,860	0,101	0,023
-608,444	178,158	-0,123	-0,131
-607,430	-98,904	-0,052	-0,010
-606,415	735,216	-0,051	-0,101
-605,401	-26,966	-0,056	-0,024
-604,386	320,150	-0,037	0,052
-603,371	258,404	0,084	0,106
-602,357	800,000	-0,030	0,074
-601,342	172,318	-0,049	-0,052
-600,328	111,934	0,086	0,076
-599,313	-200,000	0,012	0,040
-598,298	-68,468	0,014	0,004
-597,284	162,740	0,096	0,099
-596,269	449,472	0,058	0,095
-595,255	800,000	-0,020	-0,064
-594,240	-88,578	-0,052	-0,011
-593,225	547,950	0,051	-0,090
-592,211	108,366	0,134	0,117
-591,196	238,571	-0,077	-0,094
-590,182	-200,000	-0,002	-0,027
-589,167	280,878	-0,026	0,034
-588,152	130,633	-0,084	-0,079
-587,138	-200,000	-0,002	0,024
-586,123	-200,000	-0,011	0,071
-585,109	36,071	-0,174	0,112
-584,094	149,031	0,109	0,108
-583,079	-200,000	-0,029	0,165
-582,065	-56,887	-0,085	-0,027
-581,050	800,000	0,056	0,163
-580,036	-200,000	0,015	0,103
-579,021	800,000	0,027	-0,067
-578,006	-47,950	-0,016	-0,006
-576,992	-130,254	0,079	0,008
-575,977	800,000	-0,054	-0,118
-574,963	-61,683	0,064	0,020
-573,948	737,705	0,011	0,022
-572,934	674,410	-0,038	0,072
-571,919	293,159	-0,107	-0,143
-570,904	-200,000	-0,007	-0,037
-569,890	-200,000	0,030	0,125
-568,875	800,000	0,028	0,059
-567,861	-30,373	0,064	0,026
-566,846	-200,000	-0,008	0,183
-565,831	34,816	-0,116	-0,074
-564,817	-48,326	0,095	0,033
-563,802	800,000	-0,008	-0,019
-562,788	347,293	-0,058	-0,085
-561,773	172,822	-0,076	0,080
-560,758	505,184	0,035	0,059
-559,744	-180,980	-0,055	0,001
-558,729	-200,000	-0,001	-0,073
-557,715	24,691	-0,099	-0,060
-556,700	-200,000	-0,057	-0,213
-555,685	-200,000	0,027	-0,136
-554,671	-80,200	-0,033	-0,008
-553,656	-120,897	0,129	-0,016
-552,642	-117,472	0,071	0,009
-551,627	-200,000	0,023	0,083
-550,612	-21,858	0,039	-0,017
-549,598	-200,000	-0,001	-0,084
-548,583	556,507	0,027	-0,048
-547,569	-101,440	0,040	-0,007
-546,554	76,143	0,040	0,031
-545,539	18,235	0,042	0,024
-544,525	118,459	0,071	0,064
-543,510	194,924	-0,087	-0,097
-542,496	-140,252	-0,150	0,011
-541,481	581,927	0,035	-0,062
-540,466	-200,000	-0,002	-0,089
-539,452	602,666	-0,061	0,111
-538,437	99,372	0,065	0,055
-537,423	53,092	0,054	-0,038
-536,408	528,317	-0,069	-0,119
-535,393	-55,864	-0,134	-0,043
-534,379	-67,614	-0,120	-0,034
-533,364	-145,447	0,165	-0,011
-532,350	-159,260	0,087	0,004
-531,335	4,517	-0,081	0,043
-530,321	6,666	0,144	-0,078
-529,306	-200,000	0,014	-0,098
-528,291	73,270	-0,047	-0,036
-527,277	-200,000	-0,006	0,030
-526,262	154,314	-0,086	-0,087
-525,248	-75,021	0,084	0,022
-524,233	-90,064	-0,037	-0,008
-523,218	800,000	0,030	0,073
-522,204	173,472	-0,131	0,138
-521,189	-200,000	-0,067	-0,252
-520,175	-200,000	0,029	0,125
-519,160	-36,787	-0,056	-0,022
-518,145	-23,091	-0,055	-0,024
-517,131	63,857	-0,063	0,046
-516,116	622,938	0,047	0,087
-515,102	800,000	-0,032	0,081
-514,087	-200,000	-0,006	-0,184
-513,072	587,627	-0,097	-0,175
-512,058	800,000	-0,046	-0,096
-511,043	-200,000	0,003	-0,165
-510,029	1,571	-0,047	0,025
-509,014	-200,000	0,004	0,055
-507,999	43,882	0,087	-0,058
-506,985	356,297	-0,043	-0,062
-505,970	-37,088	0,111	0,043
-504,956	419,996	0,015	0,023
-503,941	-200,000	-0,013	-0,058
-502,926	42,104	0,063	0,042
-501,912	-200,000	-0,007	0,075
-500,897	-200,000	0,027	0,153
-499,883	800,000	-0,048	-0,102
-498,868	-200,000	-0,106	-0,000
-497,853	-61,287	-0,048	-0,015
-496,839	-162,596	0,177	-0,006
-495,824	-7,085	0,036	-0,018
-494,810	381,199	0,076	0,115
-493,795	-45,124	-0,071	0,026
-492,781	-91,899	-0,090	-0,019
-491,766	-56,550	-0,092	-0,030
-490,751	14,958	-0,009	0,005
-489,737	22,152	-0,168	-0,100
-488,722	173,827	-0,111	0,117
-487,708	-143,283	0,035	-0,002
-486,693	146,044	0,138	-0,135
-485,678	714,967	-0,025	-0,049
-484,664	277,729	-0,036	0,047
-483,649	-75,066	-0,109	-0,028
-482,635	40,824	0,043	0,028
-481,620	-200,000	0,019	0,124
-480,605	40,742	0,019	0,012
-479,591	76,833	-0,055	0,043
-478,576	-66,404	0,057	-0,016
-477,562	47,648	0,088	0,060
-476,547	-200,000	0,011	-0,043
-475,532	244,657	-0,039	-0,048
-474,518	-200,000	0,013	-0,079
-473,503	800,000	0,044	0,118
-472,489	78,134	-0,048	0,038
-471,474	-200,000	0,008	0,123
-470,459	-200,000	-0,005	-0,020
-469,445	800,000	0,022	0,051
-468,430	-65,002	-0,060	0,018
-467,416	-14,916	-0,015	-0,007
-466,401	19,320	0,035	0,020
-465,386	438,401	-0,115	0,183
-464,372	128,087	0,093	0,087
-463,357	177,064	0,089	-0,094
-462,343	-200,000	-0,014	0,074
-461,328	-33,668	-0,084	-0,034
-460,313	200,082	-0,033	0,037
-459,299	106,541	-0,056	0,049
-458,284	58,937	0,119	-0,086
-457,270	83,069	0,084	0,067
-456,255	171,564	0,052	-0,055
-455,241	-64,304	-0,169	0,050
-454,226	800,000	-0,038	-0,076
-453,211	-200,000	-0,002	0,023
-452,197	61,152	-0,041	0,030
-451,182	-200,000	0,008	0,077
-450,168	-62,318	0,189	0,057
-449,153	18,070	-0,117	0,068
-448,138	-136,813	0,097	0,008
-447,124	-3,201	-0,073	-0,037
-446,109	495,198	0,035	-0,059
-445,095	194,700	-0,129	0,143
-444,080	-66,269	-0,087	-0,025
-443,065	-200,000	0,001	0,085
-442,051	-54,505	0,018	0,006
-441,036	634,848	0,039	0,072
-440,022	6,769	-0,038	-0,021
-439,007	209,810	0,036	0,041
-437,992	800,000	-0,002	-0,006
-436,978	95,728	0,053	0,044
-435,963	395,459	-0,011	0,017
-434,949	169,293	0,073	-0,076
-433,934	-91,992	-0,086	-0,018
-432,919	36,095	0,051	0,032
-431,905	-200,000	0,012	0,042
-430,890	-200,000	-0,003	0,138
-429,876	800,000	-0,009	-0,030
-428,861	251,816	0,036	-0,045
-427,846	-200,000	-0,005	-0,079
-426,832	-200,000	0,013	-0,102
-425,817	133,844	-0,008	0,007
-424,803	-188,235	0,091	0,001
-423,788	-12,941	0,031	-0,015
-422,773	-200,000	-0,022	0,177
-421,759	-110,269	-0,067	-0,010
-420,744	-61,236	-0,100	0,031
-419,730	614,205	-0,027	0,049
-418,715	-13,945	-0,050	0,023
-417,701	360,016	-0,005	0,008
-416,686	-157,503	0,120	0,005
-415,671	396,080	0,088	-0,133
-414,657	783,840	0,019	0,037
-413,642	-39,832	-0,028	0,011
-412,628	-200,000	0,000	0,026
-411,613	-200,000	-0,005	-0,029
-410,598	474,470	0,011	0,019
-409,584	-200,000	-0,003	0,090
-408,569	-38,899	0,072	-0,027
-407,555	-82,429	-0,032	0,007
-406,540	127,512	-0,035	-0,033
-405,525	41,180	-0,077	-0,051
-404,511	-200,000	-0,010	0,096
-403,496	135,069	0,085	-0,081
-402,482	800,000	0,026	0,059
-401,467	171,085	0,031	0,033
-400,452	-130,668	0,148	-0,014
-399,438	800,000	0,054	-0,119
-398,423	-6,250	0,082	0,041
-397,409	-152,996	0,031	-0,002
-396,394	-17,497	0,069	0,032
-395,379	-200,000	0,009	0,097
-394,365	-200,000	-0,005	-0,085
-393,350	41,466	0,053	-0,035
-392,336	-2,709	0,099	-0,050
-391,321	95,357	0,082	-0,068
-390,306	12,423	-0,116	-0,065
-389,292	-200,000	0,004	0,118
-388,277	-134,755	0,027	-0,002
-387,263	-77,092	0,060	0,015
-386,248	246,186	0,109	0,134
-385,233	-200,000	0,035	0,171
-384,219	20,571	0,086	-0,050
-383,204	135,959	0,038	0,036
-382,190	599,875	0,057	-0,103
-381,175	294,461	-0,089	-0,119
-380,160	-78,106	0,130	-0,032
-379,146	-200,000	-0,012	-0,094
-378,131	-200,000	0,003	-0,058
-377,117	-200,000	-0,011	0,053
-376,102	-105,190	-0,142	0,023
-375,088	-95,378	-0,047	-0,009
-374,073	551,763	0,090	-0,158
-373,058	333,168	-0,055	-0,078
-372,044	-31,145	0,143	0,058
-371,029	56,001	-0,030	-0,021
-370,015	55,885	-0,155	0,109
-369,000	125,701	0,108	-0,099
-367,985	25,526	0,042	0,025
-366,971	-200,000	-0,011	-0,075
-365,956	189,086	0,061	0,067
-364,942	-174,231	-0,025	-0,001
-363,927	-156,447	-0,023	0,001
-362,912	-200,000	-0,032	0,143
-361,898	-91,732	0,047	-0,010
-360,883	135,824	-0,063	0,059
-359,869	800,000	-0,080	-0,185
-358,854	-22,537	-0,039	0,017
-357,839	-54,399	-0,090	-0,029
-356,825	-61,684	0,113	-0,034
-355,810	-200,000	-0,022	-0,109
-354,796	249,172	-0,047	-0,058
-353,781	11,676	-0,079	-0,044
-352,766	2,846	-0,117	0,061
-351,752	95,412	0,050	-0,041
-350,737	-200,000	-0,014	-0,129
-349,723	136,949	0,056	0,053
-348,708	150,384	0,046	-0,046
-347,693	298,823	-0,023	-0,031
-346,679	36,450	-0,072	-0,046
-345,664	144,882	-0,167	-0,162
-344,650	11,647	0,115	0,064
-343,635	-163,213	-0,106	0,004
-342,620	800,000	0,007	-0,018
-341,606	-50,202	0,024	-0,008
-340,591	-200,000	0,030	-0,119
-339,577	-200,000	-0,012	-0,078
-338,562	-88,686	-0,152	-0,033
-337,548	-51,079	0,087	-0,029
-336,533	-126,049	0,046	-0,005
-335,518	-200,000	-0,018	-0,081
-334,504	46,201	-0,055	0,037
-333,489	-24,935	-0,104	-0,045
-332,475	-59,136	-0,036	-0,011
-331,460	200,797	-0,068	0,077
-330,445	56,077	-0,116	-0,082
-329,431	197,616	0,024	-0,027
-328,416	-61,148	0,049	-0,015
-327,402	173,030	0,048	-0,050
-326,387	-200,000	0,002	0,091
-325,372	-45,871	0,110	0,039
-324,358	-200,000	-0,014	-0,096
-323,343	121,204	0,125	-0,113
-322,329	24,115	0,057	0,034
-321,314	-195,069	-0,032	0,000
-320,299	-200,000	-0,016	0,130
-319,285	101,563	0,012	0,010
-318,270	266,799	0,040	-0,051
-317,256	-200,000	0,004	-0,143
-316,241	-200,000	0,012	0,050
-315,226	129,316	-0,030	-0,028
-314,212	800,000	0,053	0,139
-313,197	-137,114	0,056	-0,005
-312,183	39,964	0,037	0,024
-311,168	7,766	-0,179	-0,097
-310,153	-200,000	-0,050	-0,181
-309,139	386,687	-0,071	0,107
-308,124	54,746	0,072	-0,050
-307,110	286,029	0,050	-0,066
-306,095	242,461	0,095	0,116
-305,080	-200,000	-0,004	-0,038
-304,066	20,233	-0,060	-0,035
-303,051	128,465	0,044	0,041
-302,037	800,000	-0,050	0,119
-301,022	800,000	0,031	-0,086
-300,008	126,067	0,033	0,030
-298,993	-78,961	0,124	-0,030
-297,978	172,843	0,021	0,022
-296,964	127,817	0,086	-0,079
-295,949	-200,000	0,016	-0,055
-294,935	121,231	-0,041	-0,037
-293,920	125,581	-0,117	0,107
-292,905	130,059	-0,090	0,084
-291,891	12,383	0,053	-0,030
-290,876	234,324	0,048	0,057
-289,862	29,486	-0,042	0,026
-288,847	-200,000	0,031	-0,143
-287,832	337,576	0,091	-0,128
-286,818	-17,460	-0,030	-0,013
-285,803	-200,000	-0,008	0,073
-284,789	-169,479	0,085	-0,002
-283,774	91,780	0,013	-0,010
-282,759	8,203	0,058	0,031
-281,745	161,541	-0,109	-0,110
-280,730	-200,000	-0,020	-0,126
-279,716	186,086	-0,136	0,147
-278,701	800,000	0,042	0,085
-277,686	-62,821	0,103	0,031
-276,672	-4,861	0,036	0,018
-275,657	207,087	0,075	-0,085
-274,643	36,070	-0,075	0,048
-273,628	-44,134	-0,043	0,015
-272,613	223,168	-0,043	0,050
-271,599	51,536	0,059	-0,040
-270,584	800,000	-0,045	0,105
-269,570	-200,000	-0,031	0,129
-268,555	558,008	-0,034	0,060
-267,540	800,000	-0,050	0,105
-266,526	-200,000	0,007	-0,025
-265,511	130,594	0,053	0,049
-264,497	-140,452	0,058	0,004
-263,482	208,182	0,163	0,185
-262,467	-15,099	-0,148	0,068
-261,453	48,195	0,170	-0,115
-260,438	-29,429	-0,086	-0,035
-259,424	114,347	-0,005	0,004
-258,409	59,936	0,016	0,011
-257,395	-200,000	-0,020	-0,121
-256,380	180,124	0,093	-0,099
-255,365	800,000	0,041	0,092
-254,351	355,316	0,044	0,063
-253,336	434,525	-0,027	0,043
-252,322	151,464	-0,043	-0,042
-251,307	-124,190	0,152	0,017
-250,292	133,980	0,100	-0,094
-249,278	-104,578	-0,081	-0,013
-248,263	-90,574	0,138	-0,029
-247,249	247,529	-0,033	0,040
-246,234	21,742	0,083	-0,049
-245,219	-137,228	0,062	-0,005
-244,205	800,000	0,023	-0,070
-243,190	81,700	0,026	0,020
-242,176	-200,000	0,019	0,062
-241,161	157,705	0,137	0,137
-240,146	-20,630	0,057	-0,025
-239,132	24,839	0,030	0,018
-238,117	-129,463	-0,043	0,004
-237,103	0,986	0,051	-0,027
-236,088	-200,000	-0,002	-0,009
-235,073	569,238	-0,082	0,146
-234,059	276,766	0,081	0,104
-233,044	-200,000	0,016	0,084
-232,030	-200,000	0,010	0,070
-231,015	-154,581	-0,167	0,008
-230,000	252,985	0,031	0,038
-228,986	800,000	-0,027	-0,074
-227,971	181,387	0,041	-0,044
-226,957	800,000	0,031	0,091
-225,942	-174,979	0,113	0,002
-224,927	800,000	0,008	-0,021
-223,913	800,000	-0,023	0,067
-222,898	16,343	-0,039	0,022
-221,884	-1,089	0,036	0,019
-220,869	197,995	0,103	0,114
-219,855	45,296	-0,036	0,024
-218,840	489,072	-0,073	0,120
-217,825	800,000	-0,065	-0,155
-216,811	-200,000	0,028	-0,090
-215,796	800,000	-0,067	-0,147
-214,782	-200,000	-0,002	0,085
-213,767	-200,000	-0,041	0,178
-212,752	-36,006	0,092	0,036
-211,738	800,000	-0,022	-0,049
-210,723	-70,403	-0,042	-0,012
-209,709	-17,859	-0,088	-0,040
-208,694	183,276	-0,077	-0,082
-207,679	-37,418	-0,049	0,019
-206,665	-200,000	0,003	0,069
-205,650	-11,584	0,113	0,053
-204,636	-23,517	0,130	-0,056
-203,621	-200,000	-0,011	0,089
-202,606	222,567	-0,093	-0,108
-201,592	187,301	0,044	-0,047
-200,577	-130,199	-0,114	-0,011
-199,563	-138,716	-0,063	0,005
-198,548	190,964	0,025	-0,027
-197,533	460,801	0,064	0,103
-196,519	594,843	0,050	0,091
-195,504	-116,004	0,129	-0,017
-194,490	393,109	-0,025	-0,037
-193,475	-97,950	-0,049	0,009
-192,460	122,820	0,135	0,122
-191,446	190,484	0,071	-0,077
-190,431	24,781	0,013	-0,008
-189,417	56,103	0,037	0,026
-188,402	693,475	0,039	-0,073
-187,387	45,966	0,042	0,028
-186,373	8,998	-0,010	0,006
-185,358	54,298	0,041	-0,028
-184,344	36,426	0,008	-0,005
-183,329	103,270	0,063	0,053
-182,315	353,155	-0,023	-0,032
-181,300	73,378	-0,099	-0,075
-180,285	209,573	0,055	-0,062
-179,271	336,114	-0,105	-0,147
-178,256	-200,000	0,043	0,159
-177,242	302,831	-0,037	0,049
-176,227	800,000	0,056	-0,155
-175,212	-200,000	-0,019	0,107
-174,198	-200,000	-0,018	0,115
-173,183	93,210	-0,048	-0,039
-172,169	-200,000	-0,004	-0,135
-171,154	32,607	-0,010	-0,006
-170,139	-200,000	0,024	0,186
-169,125	-200,000	0,007	-0,063
-168,110	-122,852	0,115	-0,013
-167,096	-6,791	-0,056	0,028
-166,081	-200,000	0,014	-0,138
-165,066	800,000	-0,007	-0,014
-164,052	-200,000	-0,003	-0,045
-163,037	293,662	-0,053	0,069
-162,023	-200,000	0,008	0,041
-161,008	-11,238	-0,054	0,026
-159,993	-200,000	-0,022	-0,078
-158,979	-200,000	-0,017	-0,063
-157,964	122,021	-0,084	0,076
-156,950	301,508	0,072	0,096
-155,935	65,582	-0,009	0,007
-154,920	-53,722	-0,137	-0,045
-153,906	55,768	0,105	0,073
-152,891	563,867	-0,059	-0,103
-151,877	274,251	0,048	0,061
-150,862	-200,000	0,009	-0,115
-149,847	-56,627	-0,166	0,053
-148,833	-200,000	0,016	0,069
-147,818	-200,000	0,026	0,106
-146,804	-128,268	0,086	-0,009
-145,789	-89,778	-0,069	0,015
-144,775	207,771	-0,082	-0,093
-143,760	-200,000	0,001	-0,035
-142,745	523,033	-0,079	-0,135
-141,731	800,000	-0,035	-0,087
-140,716	54,893	0,093	-0,065
-139,702	441,734	-0,049	0,077
-138,687	155,919	0,106	-0,105
-137,672	115,927	-0,072	0,064
-136,658	747,966	-0,030	-0,058
-135,643	-43,185	-0,069	-0,025
-134,629	-200,000	0,006	0,139
-133,614	-200,000	-0,005	0,202
-132,599	-168,927	0,149	-0,004
-131,585	91,494	-0,064	0,052
-130,570	-128,285	-0,111	0,011
-129,556	81,274	0,095	-0,074
-128,541	-21,750	-0,110	0,048
-127,526	612,572	0,012	0,021
-126,512	-53,961	-0,077	-0,025
-125,497	-200,000	-0,003	-0,041
-124,483	-200,000	-0,001	-0,006
-123,468	-200,000	0,018	0,079
-122,453	476,741	-0,036	-0,058
-121,439	-200,000	-0,028	-0,113
-120,424	25,422	-0,118	0,070
-119,410	121,772	-0,029	0,026
