DTS Sentinel unit serial number:	SN410029Multiplexer serial number:	ORYXHardware model number:	OX2-SRSoftware version number:	ORYX F/W v4,00 Oryx Data Collector v3.7.2.0data status	okinstallation	B5 Nyhavnadifferential loss correction	single-endedforward channel	channel 2reverse channel	N/Adate	2023/12/12time	17:02:13forward acquisition time	300,00reverse acquisition time	0,00gamma	499,1914k internal	0,3156k external	0,3156temperature offset calibration	1,0000default loss term (dB/km)	0,3820temperature slope calibration	1,0000multiplexer offset coefficient	1,0000multiplexer slope coefficient	1,0000fibre end	0,00T internal ref (°C)	15,77T ext. ref 1 (°C)	-0,84T ext. ref 2 (°C)	-1,13length (m)	temperature (°C)	Stokes	anti-Stokes-744,400	800,000	0,022	0,058
-743,385	-3,871	-0,205	0,105
-742,371	18,773	0,270	0,159
-741,356	-78,491	-0,281	0,070
-740,342	-114,200	0,204	0,029
-739,327	-61,464	-0,399	-0,123
-738,312	-200,000	0,014	-0,172
-737,298	-128,801	-0,349	0,036
-736,283	-90,298	0,123	0,026
-735,269	-96,936	-0,395	0,076
-734,254	169,183	0,090	-0,095
-733,239	-100,552	-0,431	-0,078
-732,225	34,512	0,183	0,118
-731,210	800,000	0,036	0,077
-730,196	305,099	-0,063	-0,087
-729,181	-102,401	-0,211	-0,037
-728,167	628,848	0,057	-0,107
-727,152	-79,966	0,114	-0,028
-726,137	11,314	-0,075	-0,042
-725,123	-200,000	-0,013	0,100
-724,108	-81,761	-0,159	0,038
-723,094	314,054	-0,059	-0,082
-722,079	337,394	-0,062	-0,089
-721,064	-200,000	-0,037	0,147
-720,050	-100,954	-0,084	-0,015
-719,035	-156,904	-0,094	0,004
-718,021	-200,000	0,000	0,011
-717,006	7,528	-0,079	-0,044
-715,991	6,054	-0,053	0,029
-714,977	44,548	0,106	0,072
-713,962	-13,155	-0,106	0,050
-712,948	-61,130	0,063	-0,019
-711,933	800,000	-0,051	0,107
-710,918	-150,909	0,141	-0,008
-709,904	-67,583	-0,096	-0,027
-708,889	-19,602	-0,106	0,048
-707,875	36,968	-0,049	-0,032
-706,860	13,302	0,046	-0,026
-705,845	746,054	-0,025	-0,049
-704,831	800,000	0,046	-0,106
-703,816	800,000	0,052	0,150
-702,802	-40,446	0,045	-0,017
-701,787	340,585	0,123	-0,178
-700,772	-172,774	0,089	-0,002
-699,758	126,417	-0,057	-0,053
-698,743	-200,000	-0,016	-0,069
-697,729	65,992	0,100	0,075
-696,714	129,233	0,036	0,034
-695,699	-200,000	0,002	0,099
-694,685	-117,032	-0,126	-0,017
-693,670	70,692	0,078	-0,060
-692,656	-143,969	-0,045	-0,003
-691,641	76,755	-0,117	0,091
-690,627	800,000	0,037	-0,093
-689,612	612,056	-0,090	0,167
-688,597	-154,916	-0,153	0,007
-687,583	-200,000	0,008	-0,081
-686,568	51,034	0,134	-0,093
-685,554	73,086	-0,062	-0,048
-684,539	112,990	0,134	0,119
-683,524	800,000	0,016	-0,043
-682,510	-169,981	0,090	0,002
-681,495	112,972	-0,075	-0,067
-680,481	-169,024	-0,110	0,003
-679,466	-200,000	-0,006	-0,084
-678,451	192,001	-0,089	0,099
-677,437	388,435	-0,048	0,073
-676,422	322,987	-0,031	-0,044
-675,408	92,177	-0,082	0,068
-674,393	-99,906	-0,080	-0,015
-673,378	717,726	-0,036	-0,072
-672,364	402,519	0,021	0,033
-671,349	800,000	-0,055	0,134
-670,335	-200,000	0,005	-0,031
-669,320	-162,531	0,074	0,003
-668,305	198,825	0,017	-0,019
-667,291	163,658	-0,008	0,008
-666,276	-58,649	-0,059	0,019
-665,262	-125,500	-0,109	-0,012
-664,247	-200,000	-0,013	-0,069
-663,232	68,334	-0,041	0,031
-662,218	-200,000	-0,024	-0,117
-661,203	180,734	0,097	-0,105
-660,189	-200,000	0,011	0,117
-659,174	103,750	-0,164	-0,142
-658,159	800,000	-0,029	-0,064
-657,145	-59,227	-0,038	-0,012
-656,130	188,934	-0,011	0,012
-655,116	663,442	0,017	0,033
-654,101	645,439	0,033	-0,063
-653,086	156,109	-0,042	0,042
-652,072	505,693	-0,034	-0,058
-651,057	800,000	-0,017	0,053
-650,043	-200,000	-0,003	-0,167
-649,028	-48,628	-0,032	0,011
-648,014	-122,153	-0,166	-0,020
-646,999	-59,368	-0,110	0,035
-645,984	43,132	0,113	-0,076
-644,970	-130,634	-0,119	-0,012
-643,955	-200,000	0,004	-0,173
-642,941	-115,097	-0,095	0,013
-641,926	387,026	-0,044	0,067
-640,911	76,334	0,015	-0,012
-639,897	-30,050	0,116	0,048
-638,882	397,686	-0,016	0,025
-637,868	800,000	0,033	0,106
-636,853	70,026	-0,149	0,113
-635,838	800,000	0,027	0,083
-634,824	-161,473	-0,052	-0,002
-633,809	9,226	0,057	0,031
-632,795	326,194	0,070	-0,098
-631,780	800,000	0,038	0,089
-630,765	489,811	0,067	-0,113
-629,751	20,708	0,007	0,004
-628,736	800,000	-0,046	0,099
-627,722	87,156	-0,097	-0,078
-626,707	-62,323	0,066	0,020
-625,692	300,853	-0,038	-0,052
-624,678	-76,076	-0,009	0,002
-623,663	145,286	0,026	0,026
-622,649	486,943	-0,020	-0,033
-621,634	-119,711	-0,070	0,009
-620,619	1,186	0,148	-0,078
-619,605	-200,000	0,004	0,018
-618,590	147,115	0,073	0,072
-617,576	131,916	0,047	-0,045
-616,561	-97,360	-0,195	-0,037
-615,546	233,824	-0,082	0,099
-614,532	79,624	-0,035	-0,028
-613,517	-110,759	0,064	0,010
-612,503	-44,528	-0,038	-0,014
-611,488	-200,000	0,019	-0,083
-610,474	352,839	-0,055	-0,081
-609,459	634,986	-0,049	-0,092
-608,444	-67,429	-0,047	0,014
-607,430	227,790	0,045	-0,054
-606,415	61,402	-0,076	-0,055
-605,401	732,962	0,026	0,051
-604,386	73,398	0,024	0,018
-603,371	-39,613	-0,026	0,010
-602,357	-191,346	0,071	-0,001
-601,342	108,586	-0,042	0,037
-600,328	-93,494	-0,120	0,024
-599,313	-66,552	0,123	-0,036
-598,298	-13,922	0,092	-0,044
-597,284	-200,000	0,012	-0,052
-596,269	-78,670	0,045	-0,011
-595,255	428,441	0,037	0,059
-594,240	-115,322	-0,055	0,007
-593,225	261,097	-0,141	-0,179
-592,211	-200,000	-0,012	0,069
-591,196	-200,000	0,022	-0,082
-590,182	-200,000	0,002	-0,020
-589,167	-115,706	0,096	0,013
-588,152	-200,000	-0,005	0,100
-587,138	-200,000	-0,012	-0,060
-586,123	78,786	-0,067	-0,053
-585,109	-80,718	-0,186	-0,045
-584,094	274,625	-0,053	-0,069
-583,079	-184,489	0,200	-0,002
-582,065	343,837	0,079	-0,114
-581,050	62,203	0,160	-0,117
-580,036	102,561	0,046	-0,040
-579,021	12,764	-0,113	-0,064
-578,006	128,148	0,073	-0,068
-576,992	800,000	0,035	-0,079
-575,977	-200,000	-0,028	-0,105
-574,963	-200,000	-0,005	-0,093
-573,948	71,215	0,045	0,034
-572,934	-72,693	0,170	0,046
-571,919	-44,176	-0,031	-0,011
-570,904	-200,000	-0,007	-0,068
-569,890	-85,528	-0,031	-0,007
-568,875	162,158	-0,035	0,036
-567,861	-113,519	-0,071	0,010
-566,846	-130,697	-0,059	-0,006
-565,831	-200,000	0,046	-0,160
-564,817	-165,751	-0,145	0,004
-563,802	0,752	-0,054	0,028
-562,788	35,398	0,067	-0,043
-561,773	-200,000	0,007	0,071
-560,758	800,000	0,017	0,038
-559,744	-62,042	0,021	-0,006
-558,729	-200,000	-0,022	-0,108
-557,715	-200,000	0,005	-0,147
-556,700	800,000	-0,052	-0,110
-555,685	-200,000	-0,017	-0,063
-554,671	73,063	-0,050	-0,038
-553,656	101,235	0,065	-0,056
-552,642	380,228	-0,025	0,038
-551,627	-27,522	0,128	-0,054
-550,612	-200,000	-0,024	0,088
-549,598	6,508	0,055	-0,030
-548,583	76,223	-0,073	0,056
-547,569	-41,428	0,063	0,024
-546,554	800,000	-0,007	-0,024
-545,539	193,292	-0,110	0,122
-544,525	-200,000	0,016	0,081
-543,510	192,781	0,015	0,017
-542,496	617,349	-0,052	-0,095
-541,481	-190,358	-0,087	0,001
-540,466	335,121	0,054	-0,076
-539,452	800,000	0,083	-0,238
-538,437	135,234	-0,042	0,040
-537,423	25,797	0,119	0,073
-536,408	-103,387	-0,105	0,018
-535,393	-200,000	-0,006	-0,084
-534,379	93,549	-0,151	-0,125
-533,364	-34,184	-0,029	0,011
-532,350	-200,000	0,031	0,103
-531,335	-200,000	-0,007	-0,057
-530,321	236,981	0,071	-0,086
-529,306	397,818	0,040	0,061
-528,291	-35,509	-0,079	0,031
-527,277	153,055	0,159	-0,160
-526,262	800,000	0,032	-0,087
-525,248	93,548	0,053	0,044
-524,233	243,880	-0,041	-0,050
-523,218	520,371	-0,017	-0,029
-522,204	-87,169	-0,093	0,020
-521,189	-7,074	-0,161	-0,079
-520,175	800,000	0,020	0,043
-519,160	800,000	0,057	0,120
-518,145	-200,000	-0,029	-0,130
-517,131	-12,856	0,062	0,030
-516,116	-16,518	0,121	0,056
-515,102	236,341	-0,033	0,041
-514,087	664,148	0,056	0,106
-513,072	6,586	-0,133	-0,072
-512,058	11,962	0,117	0,065
-511,043	-170,757	-0,207	0,005
-510,029	-200,000	-0,009	0,060
-509,014	-162,747	-0,155	0,005
-507,999	80,792	0,093	0,073
-506,985	-21,314	0,044	0,019
-505,970	176,172	-0,031	0,033
-504,956	-45,147	-0,084	0,030
-503,941	-200,000	0,014	0,052
-502,926	-143,405	0,113	-0,008
-501,912	-200,000	0,008	-0,078
-500,897	-200,000	0,009	0,202
-499,883	-85,375	-0,068	0,015
-498,868	-200,000	-0,070	0,000
-497,853	587,667	-0,066	-0,119
-496,839	2,397	-0,136	-0,071
-495,824	589,984	0,050	0,091
-494,810	314,407	0,030	0,042
-493,795	262,374	-0,032	0,041
-492,781	444,655	-0,093	0,150
-491,766	800,000	0,036	0,089
-490,751	-200,000	0,001	0,146
-489,737	17,804	-0,129	0,075
-488,722	-126,016	-0,041	0,004
-487,708	413,775	0,023	0,036
-486,693	-174,295	0,090	0,002
-485,678	236,448	-0,047	0,057
-484,664	800,000	0,008	0,026
-483,649	123,747	-0,075	-0,069
-482,635	19,289	0,098	-0,057
-481,620	532,406	0,091	0,158
-480,605	121,263	0,019	0,017
-479,591	-200,000	-0,003	-0,038
-478,576	400,796	0,038	-0,058
-477,562	-85,780	-0,070	0,016
-476,547	800,000	-0,048	-0,133
-475,532	244,257	0,076	-0,093
-474,518	18,490	-0,051	-0,029
-473,503	-200,000	0,002	0,052
-472,489	672,771	-0,034	0,065
-471,474	161,432	0,080	0,081
-470,459	6,510	-0,146	0,079
-469,445	331,978	-0,031	-0,044
-468,430	-200,000	0,007	-0,105
-467,416	3,439	-0,068	-0,036
-466,401	-25,106	0,101	0,043
-465,386	-138,180	0,151	0,012
-464,372	243,364	-0,122	-0,149
-463,357	535,769	0,028	-0,049
-462,343	-200,000	-0,021	-0,087
-461,328	-200,000	0,018	-0,141
-460,313	-4,335	-0,071	0,036
-459,299	-200,000	0,007	-0,035
-458,284	-200,000	0,026	0,103
-457,270	114,881	-0,020	-0,018
-456,255	237,601	0,075	-0,091
-455,241	-200,000	0,021	-0,116
-454,226	-200,000	-0,001	-0,047
-453,211	476,907	0,041	0,068
-452,197	-200,000	0,003	0,140
-451,182	49,230	-0,090	0,062
-450,168	133,549	-0,036	-0,034
-449,153	211,029	0,024	-0,028
-448,138	-200,000	-0,006	0,035
-447,124	392,723	-0,038	-0,057
-446,109	-63,200	-0,175	0,052
-445,095	-152,081	0,183	-0,010
-444,080	-58,097	0,099	-0,031
-443,065	-200,000	0,001	-0,070
-442,051	643,855	0,053	0,099
-441,036	-200,000	-0,004	-0,095
-440,022	-136,566	-0,148	0,012
-439,007	795,737	0,046	0,093
-437,992	800,000	0,032	0,067
-436,978	-200,000	0,012	-0,057
-435,963	-200,000	0,016	0,053
-434,949	-200,000	0,010	0,034
-433,934	800,000	0,024	-0,065
-432,919	800,000	-0,012	-0,027
-431,905	-102,773	0,092	-0,016
-430,890	148,630	0,051	0,050
-429,876	12,454	-0,026	-0,014
-428,861	-114,718	0,072	-0,010
-427,846	232,922	0,094	-0,113
-426,832	69,185	-0,073	0,054
-425,817	182,312	0,052	0,056
-424,803	13,898	0,128	0,072
-423,788	-200,000	-0,017	0,177
-422,773	-85,306	-0,131	-0,029
-421,759	-200,000	0,006	0,130
-420,744	317,403	-0,025	0,034
-419,730	242,203	-0,139	-0,170
-418,715	-74,944	0,102	0,026
-417,701	-200,000	-0,018	-0,067
-416,686	191,105	-0,072	-0,079
-415,671	800,000	0,010	0,019
-414,657	109,837	0,065	-0,057
-413,642	800,000	-0,049	0,107
-412,628	32,181	-0,054	-0,034
-411,613	-116,696	0,044	0,006
-410,598	303,315	-0,068	0,092
-409,584	130,769	0,062	0,058
-408,569	-53,664	0,055	0,018
-407,555	800,000	-0,083	0,172
-406,540	-57,425	-0,065	0,021
-405,525	367,321	0,028	-0,041
-404,511	311,639	0,073	0,099
-403,496	-200,000	-0,006	0,114
-402,482	800,000	0,035	-0,111
-401,467	-200,000	0,003	-0,034
-400,452	-200,000	-0,063	0,274
-399,438	736,522	-0,027	0,053
-398,423	-200,000	-0,014	-0,113
-397,409	-24,862	0,101	0,044
-396,394	800,000	0,043	-0,093
-395,379	90,956	0,017	0,014
-394,365	699,504	-0,036	0,068
-393,350	800,000	0,054	0,146
-392,336	252,138	-0,047	-0,058
-391,321	132,335	0,021	0,020
-390,306	134,718	0,006	-0,006
-389,292	288,415	-0,032	-0,043
-388,277	-111,196	0,081	-0,012
-387,263	320,655	0,059	-0,081
-386,248	20,353	0,033	-0,019
-385,233	-93,312	0,015	0,003
-384,219	584,835	-0,011	0,019
-383,204	-200,000	0,029	-0,139
-382,190	-200,000	-0,015	-0,140
-381,175	150,158	0,107	-0,106
-380,160	423,765	0,029	-0,046
-379,146	6,834	0,069	0,038
-378,131	-59,873	0,125	-0,039
-377,117	-33,596	-0,080	-0,032
-376,102	-81,024	0,062	0,015
-375,088	90,944	-0,010	-0,008
-374,073	76,873	-0,034	0,026
-373,058	-5,955	0,167	0,083
-372,044	-71,136	-0,042	-0,011
-371,029	-200,000	0,016	-0,162
-370,015	399,465	-0,050	0,076
-369,000	-8,732	-0,092	0,045
-367,985	-93,744	-0,058	-0,012
-366,971	-200,000	0,018	-0,095
-365,956	800,000	0,029	-0,066
-364,942	-37,176	0,030	-0,011
-363,927	17,758	0,041	-0,024
-362,912	745,075	-0,038	0,074
-361,898	-139,550	-0,085	-0,007
-360,883	-168,343	0,046	-0,001
-359,869	-37,388	-0,066	-0,025
-358,854	770,820	0,037	-0,073
-357,839	123,129	-0,087	0,079
-356,825	800,000	0,038	-0,086
-355,810	-200,000	-0,043	-0,146
-354,796	800,000	-0,022	0,057
-353,781	-200,000	-0,038	-0,123
-352,766	800,000	-0,044	0,099
-351,752	-200,000	-0,032	0,106
-350,737	375,501	0,031	0,046
-349,723	290,026	0,058	0,077
-348,708	308,059	0,020	0,027
-347,693	-112,676	-0,077	-0,011
-346,679	-45,225	-0,122	0,044
-345,664	-156,164	0,042	0,002
-344,650	363,399	-0,057	-0,084
-343,635	458,536	0,060	0,097
-342,620	-2,523	-0,109	-0,055
-341,606	389,420	0,090	0,136
-340,591	-23,379	0,027	-0,012
-339,577	-94,147	-0,137	0,027
-338,562	-14,097	-0,130	-0,061
-337,548	-200,000	0,008	-0,045
-336,533	-119,564	0,205	-0,025
-335,518	593,292	0,080	0,145
-334,504	378,832	0,080	0,120
-333,489	554,699	0,062	-0,110
-332,475	-200,000	0,003	-0,059
-331,460	-88,047	0,052	0,011
-330,445	95,900	-0,068	-0,056
-329,431	-200,000	-0,002	0,013
-328,416	248,795	0,051	-0,063
-327,402	604,432	0,036	0,065
-326,387	31,870	-0,122	0,076
-325,372	125,495	-0,047	0,043
-324,358	-200,000	0,000	-0,061
-323,343	-200,000	0,029	-0,115
-322,329	698,901	0,082	-0,156
-321,314	800,000	0,059	0,161
-320,299	-200,000	0,013	0,089
-319,285	3,950	0,085	0,045
-318,270	-78,682	-0,050	0,012
-317,256	-77,711	-0,175	-0,044
-316,241	-174,337	0,075	0,002
-315,226	-86,312	-0,059	-0,013
-314,212	-76,542	0,190	0,048
-313,197	499,649	0,102	0,172
-312,183	-200,000	0,001	0,012
-311,168	-118,397	0,078	-0,010
-310,153	-200,000	0,013	0,082
-309,139	3,384	0,068	0,036
-308,124	-200,000	0,004	-0,120
-307,110	-200,000	-0,014	0,076
-306,095	142,810	-0,155	0,149
-305,080	-136,108	-0,151	0,013
-304,066	44,443	0,045	-0,030
-303,051	72,732	-0,035	-0,027
-302,037	-109,246	0,037	0,006
-301,022	-200,000	0,014	-0,047
-300,008	-200,000	-0,009	0,046
-298,993	800,000	0,064	-0,137
-297,978	-102,525	-0,082	-0,014
-296,964	636,533	-0,080	-0,148
-295,949	800,000	-0,061	-0,133
-294,935	439,019	0,056	0,088
-293,920	0,841	0,026	0,013
-292,905	-0,447	0,110	0,056
-291,891	-83,063	0,063	-0,015
-290,876	516,219	0,019	-0,033
-289,862	-144,047	0,067	-0,005
-288,847	0,037	-0,180	-0,093
-287,832	-76,253	-0,103	0,026
-286,818	-116,066	0,058	-0,008
-285,803	94,673	-0,020	-0,017
-284,789	115,925	-0,034	0,030
-283,774	583,857	0,046	-0,082
-282,759	-200,000	0,004	0,082
-281,745	26,760	-0,109	0,066
-280,730	246,093	0,021	0,025
-279,716	274,368	-0,085	0,109
-278,701	-200,000	0,003	0,046
-277,686	-200,000	0,023	-0,120
-276,672	-127,193	-0,161	0,017
-275,657	768,582	-0,031	-0,062
-274,643	-116,580	-0,049	-0,006
-273,628	800,000	0,069	0,142
-272,613	659,070	-0,051	0,095
-271,599	-32,310	0,091	0,036
-270,584	800,000	0,021	0,043
-269,570	332,120	-0,088	0,123
-268,555	-134,435	0,113	-0,010
-267,540	800,000	0,048	-0,101
-266,526	202,905	-0,032	-0,036
-265,511	196,251	-0,030	0,033
-264,497	-200,000	-0,006	-0,047
-263,482	253,927	0,024	0,030
-262,467	-200,000	0,002	0,015
-261,453	34,144	-0,097	-0,061
-260,438	81,313	-0,111	-0,087
-259,424	-67,319	-0,108	-0,030
-258,409	-20,778	-0,033	0,015
-257,395	800,000	-0,032	-0,068
-256,380	-200,000	0,139	-0,000
-255,365	185,448	0,048	0,052
-254,351	-200,000	0,025	0,171
-253,336	229,104	-0,069	0,082
-252,322	-116,421	0,082	-0,011
-251,307	72,557	0,043	0,033
-250,292	491,154	-0,057	0,095
-249,278	99,133	-0,062	0,052
-248,263	742,993	-0,065	0,127
-247,249	-200,000	0,021	0,082
-246,234	441,404	-0,022	-0,035
-245,219	-200,000	-0,011	-0,060
-244,205	-200,000	-0,027	0,133
-243,190	507,247	0,023	0,039
-242,176	-200,000	0,019	0,137
-241,161	501,757	-0,052	-0,088
-240,146	-73,117	0,056	0,015
-239,132	85,565	-0,099	0,079
-238,117	-131,086	0,034	-0,003
-237,103	93,351	0,106	-0,087
-236,088	351,749	0,043	-0,062
-235,073	129,739	-0,044	-0,041
-234,059	-200,000	0,042	0,164
-233,044	130,921	0,042	0,039
-232,030	-48,901	0,095	0,033
-231,015	43,623	-0,035	-0,023
-230,000	-200,000	0,017	-0,222
-228,986	-91,518	0,116	-0,024
-227,971	21,635	0,026	-0,015
-226,957	600,322	0,099	0,178
-225,942	75,362	0,098	-0,075
-224,927	-51,263	0,034	-0,011
-223,913	-44,941	-0,104	-0,037
-222,898	-105,765	0,133	0,022
-221,884	-50,775	-0,100	-0,034
-220,869	154,886	0,082	-0,082
-219,855	-183,186	0,082	0,001
-218,840	-29,331	-0,092	-0,038
-217,825	800,000	-0,033	0,077
-216,811	-128,979	0,043	-0,004
-215,796	253,582	-0,059	0,073
-214,782	-8,854	-0,100	-0,048
-213,767	317,477	0,040	-0,054
-212,752	213,860	0,104	0,119
-211,738	-200,000	-0,027	0,090
-210,723	-141,224	0,079	-0,006
-209,709	-139,482	-0,106	-0,008
-208,694	-92,857	0,099	-0,020
-207,679	-200,000	-0,006	-0,070
-206,665	-63,111	0,118	0,035
-205,650	-87,265	0,103	0,022
-204,636	34,090	0,078	-0,049
-203,621	-13,182	0,084	0,039
-202,606	236,371	0,107	-0,128
-201,592	-200,000	-0,038	-0,258
-200,577	473,986	-0,015	0,025
-199,563	122,632	-0,042	-0,038
-198,548	-200,000	0,021	-0,078
-197,533	-200,000	0,012	-0,082
-196,519	-200,000	0,026	-0,086
-195,504	-200,000	0,014	0,058
-194,490	-97,284	-0,064	-0,012
-193,475	-153,371	-0,076	-0,004
-192,460	-137,147	0,220	0,018
-191,446	382,957	0,059	0,087
-190,431	-76,390	0,086	-0,022
-189,417	401,242	-0,045	-0,068
-188,402	-200,000	0,008	0,059
-187,387	-200,000	0,003	0,087
-186,373	455,824	0,034	-0,055
-185,358	97,848	0,072	-0,060
-184,344	-200,000	0,018	0,135
-183,329	609,709	0,018	0,033
-182,315	606,155	0,070	0,126
-181,300	733,400	-0,046	-0,089
-180,285	402,054	-0,047	0,072
-179,271	357,289	0,058	-0,083
-178,256	385,066	-0,025	0,037
-177,242	-200,000	-0,017	0,110
-176,227	-152,128	0,106	-0,005
-175,212	-200,000	0,011	0,087
-174,198	-35,952	-0,169	0,066
-173,183	43,847	0,052	-0,035
-172,169	-52,121	0,005	-0,002
-171,154	14,913	-0,123	-0,069
-170,139	323,017	-0,041	0,056
-169,125	-134,505	0,086	-0,008
-168,110	53,881	-0,067	0,047
-167,096	352,422	-0,065	0,092
-166,081	800,000	-0,040	-0,119
-165,066	-140,195	-0,182	0,014
-164,052	-200,000	-0,003	0,021
-163,037	-90,812	-0,087	-0,018
-162,023	-200,000	-0,001	0,024
-161,008	-92,277	0,084	0,017
-159,993	-200,000	-0,025	0,125
-158,979	32,545	-0,073	0,046
-157,964	-86,930	-0,185	-0,040
-156,950	-159,681	-0,015	-0,001
-155,935	-96,901	0,119	-0,022
-154,920	180,006	0,011	0,012
-153,906	-22,176	0,045	0,020
-152,891	214,909	0,020	0,023
-151,877	-0,876	-0,060	-0,031
-150,862	800,000	-0,024	-0,050
-149,847	529,327	-0,039	-0,066
-148,833	-200,000	0,018	0,100
-147,818	203,936	-0,067	0,075
-146,804	800,000	-0,027	0,066
-145,789	-160,815	0,090	0,003
-144,775	166,705	-0,029	0,029
-143,760	439,714	-0,062	-0,097
-142,745	-200,000	-0,001	-0,021
-141,731	675,026	0,014	0,026
-140,716	-87,631	0,153	0,033
-139,702	540,972	0,050	0,087
-138,687	-88,053	0,060	0,013
-137,672	-200,000	0,002	-0,152
-136,658	516,996	0,022	0,037
-135,643	-200,000	0,039	-0,131
-134,629	752,036	0,070	-0,136
-133,614	-13,241	0,101	-0,047
-132,599	-200,000	0,011	0,066
-131,585	166,110	-0,108	0,110
-130,570	-3,570	0,086	-0,043
-129,556	-200,000	0,014	-0,057
-128,541	-103,999	0,107	0,018
-127,526	-60,465	-0,132	0,040
-126,512	78,985	-0,037	-0,029
-125,497	125,885	-0,065	-0,059
-124,483	72,847	0,109	0,082
-123,468	129,156	-0,069	0,063
-122,453	384,135	-0,056	-0,083
-121,439	217,179	-0,103	-0,119
-120,424	-81,119	-0,133	-0,031
-119,410	-53,672	0,067	-0,022
-118,395	197,868	-0,043	0,047
