DTS Sentinel unit serial number:	SN410029Multiplexer serial number:	ORYXHardware model number:	OX2-SRSoftware version number:	ORYX F/W v4,00 Oryx Data Collector v3.7.2.0data status	okinstallation	B5 Nyhavnadifferential loss correction	single-endedforward channel	channel 2reverse channel	N/Adate	2023/12/13time	14:07:13forward acquisition time	300,00reverse acquisition time	0,00gamma	499,1914k internal	0,3161k external	0,3161temperature offset calibration	1,0000default loss term (dB/km)	0,3820temperature slope calibration	1,0000multiplexer offset coefficient	1,0000multiplexer slope coefficient	1,0000fibre end	0,00T internal ref (°C)	14,88T ext. ref 1 (°C)	-1,13T ext. ref 2 (°C)	-1,42length (m)	temperature (°C)	Stokes	anti-Stokes-744,400	-10,570	0,070	0,034
-743,385	-126,973	-0,295	0,032
-742,371	-91,041	0,105	-0,022
-741,356	29,987	-0,305	0,191
-740,342	87,538	0,116	0,094
-739,327	-80,773	-0,247	-0,060
-738,312	-65,705	0,179	0,052
-737,298	-164,001	-0,386	0,013
-736,283	-200,000	0,021	0,262
-735,269	-82,005	-0,256	0,061
-734,254	23,752	0,183	0,111
-733,239	-27,896	-0,554	-0,235
-732,225	-66,144	0,167	-0,049
-731,210	215,991	0,037	-0,043
-730,196	800,000	0,021	-0,045
-729,181	-200,000	-0,014	0,052
-728,167	357,051	-0,044	-0,065
-727,152	51,498	0,042	-0,029
-726,137	235,217	-0,053	-0,064
-725,123	137,779	0,088	-0,085
-724,108	-200,000	-0,034	-0,155
-723,094	-200,000	-0,032	-0,156
-722,079	238,184	0,051	0,063
-721,064	-200,000	0,011	0,085
-720,050	259,877	-0,033	0,043
-719,035	-73,413	0,069	-0,018
-718,021	-200,000	-0,010	-0,079
-717,006	102,050	-0,118	-0,101
-715,991	169,803	-0,125	-0,132
-714,977	-200,000	0,003	-0,074
-713,962	-8,956	-0,070	-0,034
-712,948	-200,000	0,018	-0,092
-711,933	435,529	-0,052	-0,083
-710,918	266,395	0,066	0,085
-709,904	800,000	-0,048	-0,146
-708,889	-200,000	-0,004	-0,101
-707,875	645,335	-0,054	-0,102
-706,860	-98,592	0,105	-0,020
-705,845	-133,083	-0,091	0,008
-704,831	55,523	-0,036	0,026
-703,816	-117,198	0,058	-0,008
-702,802	171,492	0,145	-0,153
-701,787	-200,000	-0,019	0,068
-700,772	-169,326	-0,114	0,003
-699,758	-8,940	-0,016	0,008
-698,743	10,742	0,051	-0,029
-697,729	590,164	0,024	-0,044
-696,714	72,699	-0,051	-0,039
-695,699	-73,797	-0,075	0,020
-694,685	321,093	-0,066	-0,093
-693,670	135,873	-0,060	0,057
-692,656	169,964	0,027	-0,029
-691,641	-200,000	0,015	0,099
-690,627	-200,000	0,035	-0,136
-689,612	-200,000	0,021	-0,115
-688,597	460,797	-0,050	-0,082
-687,583	800,000	-0,044	-0,091
-686,568	800,000	-0,060	-0,177
-685,554	-170,537	0,040	-0,001
-684,539	458,819	-0,020	0,033
-683,524	-200,000	-0,016	-0,231
-682,510	-200,000	0,007	-0,075
-681,495	94,256	-0,073	-0,061
-680,481	-46,898	-0,155	-0,055
-679,466	-200,000	-0,010	-0,038
-678,451	-80,975	-0,090	-0,022
-677,437	800,000	0,011	0,036
-676,422	-42,472	0,136	0,051
-675,408	89,017	-0,136	-0,112
-674,393	800,000	0,018	0,051
-673,378	73,934	-0,003	0,003
-672,364	3,770	0,056	0,030
-671,349	3,332	-0,069	0,037
-670,335	-131,914	0,043	0,004
-669,320	178,756	-0,021	0,023
-668,305	272,389	0,073	0,095
-667,291	-2,893	0,032	-0,016
-666,276	444,138	0,047	0,076
-665,262	-200,000	-0,008	0,057
-664,247	-88,594	-0,061	-0,013
-663,232	246,532	0,047	-0,058
-662,218	575,208	-0,040	0,072
-661,203	-87,150	0,105	0,023
-660,189	619,760	0,041	0,076
-659,174	-36,495	-0,086	-0,034
-658,159	103,554	-0,041	0,035
-657,145	138,285	-0,044	-0,042
-656,130	-83,140	-0,094	0,022
-655,116	-97,814	-0,109	0,020
-654,101	-51,189	0,030	-0,010
-653,086	-184,301	0,039	-0,000
-652,072	252,274	0,056	-0,071
-651,057	-37,017	-0,102	-0,040
-650,043	38,434	-0,102	0,067
-649,028	-92,927	0,109	-0,022
-648,014	204,075	-0,025	-0,028
-646,999	235,430	0,045	-0,054
-645,984	19,772	-0,056	-0,033
-644,970	-110,991	-0,035	0,005
-643,955	-57,228	0,067	-0,021
-642,941	160,211	-0,146	-0,149
-641,926	-200,000	-0,020	-0,109
-640,911	229,011	-0,076	-0,091
-639,897	170,858	0,050	0,052
-638,882	-68,320	-0,042	0,012
-637,868	92,184	0,030	-0,025
-636,853	-200,000	-0,015	0,065
-635,838	715,119	0,054	-0,105
-634,824	-200,000	0,007	-0,050
-633,809	-172,216	0,080	0,002
-632,795	-200,000	0,006	-0,239
-631,780	-32,466	-0,061	-0,025
-630,765	66,851	0,120	0,089
-629,751	800,000	0,034	-0,097
-628,736	1,010	-0,189	-0,099
-627,722	339,074	-0,025	-0,036
-626,707	-25,876	-0,125	-0,054
-625,692	800,000	0,028	-0,063
-624,678	800,000	0,037	0,111
-623,663	-78,252	-0,069	-0,017
-622,649	6,153	-0,096	0,052
-621,634	103,319	-0,132	-0,113
-620,619	-200,000	-0,005	0,017
-619,605	137,094	0,057	0,055
-618,590	88,815	0,086	0,070
-617,576	-99,924	-0,011	-0,002
-616,561	236,114	0,090	0,109
-615,546	223,973	0,027	0,032
-614,532	10,748	-0,154	-0,086
-613,517	-133,197	0,039	-0,004
-612,503	69,475	0,003	-0,003
-611,488	-200,000	0,004	0,181
-610,474	-200,000	0,020	0,073
-609,459	-200,000	-0,004	0,062
-608,444	-200,000	0,035	-0,125
-607,430	174,165	0,056	-0,060
-606,415	164,450	-0,083	-0,086
-605,401	81,034	-0,067	-0,053
-604,386	800,000	0,040	-0,123
-603,371	-200,000	-0,020	0,076
-602,357	211,265	0,052	-0,060
-601,342	-58,584	-0,064	-0,020
-600,328	11,298	-0,097	-0,054
-599,313	-200,000	-0,025	-0,166
-598,298	-99,699	-0,073	-0,013
-597,284	-200,000	0,004	-0,040
-596,269	-123,586	0,133	-0,015
-595,255	342,092	0,069	-0,100
-594,240	-148,178	-0,083	0,005
-593,225	-200,000	-0,036	-0,128
-592,211	658,166	0,077	0,145
-591,196	312,089	-0,048	0,067
-590,182	36,122	0,065	-0,042
-589,167	-17,236	-0,149	-0,068
-588,152	-10,427	0,073	-0,035
-587,138	51,958	-0,064	-0,045
-586,123	-11,163	0,038	0,018
-585,109	-200,000	-0,036	0,188
-584,094	-200,000	0,006	-0,106
-583,079	800,000	0,042	0,097
-582,065	-200,000	0,010	0,057
-581,050	358,866	-0,040	0,058
-580,036	-200,000	-0,020	0,101
-579,021	-3,039	-0,059	-0,030
-578,006	296,192	0,084	-0,114
-576,992	89,339	0,056	-0,046
-575,977	768,785	0,055	-0,111
-574,963	-8,015	0,063	0,031
-573,948	-90,016	0,052	0,011
-572,934	73,729	-0,075	0,057
-571,919	-43,473	-0,088	-0,032
-570,904	-53,375	-0,116	-0,039
-569,890	171,189	-0,083	0,087
-568,875	288,199	0,081	0,108
-567,861	34,454	0,085	-0,054
-566,846	-200,000	0,049	-0,178
-565,831	-200,000	-0,012	0,088
-564,817	323,899	-0,074	-0,104
-563,802	310,176	0,033	-0,045
-562,788	124,936	0,019	-0,018
-561,773	-73,945	-0,102	-0,027
-560,758	-200,000	-0,014	-0,169
-559,744	800,000	0,027	-0,054
-558,729	800,000	0,028	-0,059
-557,715	-64,716	0,027	-0,008
-556,700	-200,000	-0,004	-0,019
-555,685	800,000	-0,020	-0,061
-554,671	-200,000	-0,036	-0,179
-553,656	-83,596	-0,085	0,020
-552,642	-99,613	0,099	-0,018
-551,627	485,209	-0,032	-0,053
-550,612	634,389	0,005	-0,010
-549,598	-200,000	0,004	-0,042
-548,583	-52,044	-0,059	0,020
-547,569	-200,000	-0,037	0,133
-546,554	4,659	-0,017	0,009
-545,539	-38,508	0,116	-0,045
-544,525	-136,554	-0,089	-0,007
-543,510	-200,000	-0,025	-0,088
-542,496	269,623	0,085	-0,109
-541,481	75,747	-0,076	0,058
-540,466	-84,111	0,089	0,021
-539,452	-200,000	-0,043	0,183
-538,437	-127,638	-0,081	0,008
-537,423	57,503	-0,109	-0,077
-536,408	-95,880	0,117	0,023
-535,393	-127,551	-0,127	0,013
-534,379	-200,000	-0,015	-0,179
-533,364	637,394	-0,037	-0,068
-532,350	-58,311	0,045	-0,014
-531,335	-86,859	0,065	-0,014
-530,321	-32,397	0,098	-0,040
-529,306	427,555	0,122	0,193
-528,291	-113,427	-0,038	0,005
-527,277	10,783	-0,190	-0,106
-526,262	800,000	0,055	0,150
-525,248	-197,519	0,129	-0,001
-524,233	-200,000	0,008	0,034
-523,218	309,405	0,043	-0,059
-522,204	106,802	-0,024	-0,021
-521,189	-128,724	0,017	-0,002
-520,175	800,000	-0,064	-0,169
-519,160	-99,417	-0,097	-0,018
-518,145	-75,742	0,057	-0,015
-517,131	-123,527	0,047	0,005
-516,116	-126,799	0,068	0,007
-515,102	478,826	-0,048	0,080
-514,087	221,077	-0,045	0,053
-513,072	178,111	-0,048	0,051
-512,058	-200,000	-0,019	-0,071
-511,043	147,116	-0,080	-0,079
-510,029	-19,840	0,069	0,031
-509,014	177,685	0,076	0,081
-507,999	800,000	-0,092	0,190
-506,985	21,024	0,086	0,051
-505,970	592,745	-0,012	0,022
-504,956	52,954	0,036	0,025
-503,941	-90,279	-0,065	-0,014
-502,926	684,818	0,023	-0,044
-501,912	-44,918	-0,039	0,014
-500,897	338,787	-0,030	0,043
-499,883	477,243	-0,085	0,141
-498,868	-200,000	-0,025	-0,130
-497,853	800,000	0,022	-0,066
-496,839	771,091	-0,055	0,110
-495,824	800,000	0,038	0,097
-494,810	-57,422	0,075	-0,024
-493,795	408,344	0,012	-0,018
-492,781	-200,000	-0,001	-0,145
-491,766	-93,099	-0,150	0,030
-490,751	-114,706	-0,193	0,027
-489,737	800,000	0,010	0,025
-488,722	-99,795	0,153	0,028
-487,708	-200,000	-0,036	0,217
-486,693	33,548	0,075	0,047
-485,678	-200,000	-0,026	-0,218
-484,664	-200,000	0,009	0,033
-483,649	64,468	-0,036	0,026
-482,635	-200,000	-0,002	0,023
-481,620	-152,812	-0,034	0,002
-480,605	-200,000	-0,001	0,056
-479,591	-200,000	0,003	0,071
-478,576	-200,000	-0,005	0,072
-477,562	735,958	0,028	-0,055
-476,547	11,211	-0,072	0,040
-475,532	-179,162	-0,081	-0,001
-474,518	90,063	-0,076	0,062
-473,503	115,707	0,053	-0,047
-472,489	29,485	0,089	-0,055
-471,474	301,746	0,052	-0,070
-470,459	590,964	-0,038	-0,068
-469,445	551,643	0,017	0,029
-468,430	-65,805	-0,050	0,015
-467,416	438,105	-0,054	-0,086
-466,401	800,000	0,066	0,144
-465,386	-200,000	-0,001	0,053
-464,372	648,550	0,044	0,082
-463,357	39,782	0,056	-0,036
-462,343	614,796	0,047	0,085
-461,328	28,309	-0,117	-0,072
-460,313	124,920	0,077	-0,071
-459,299	81,851	0,093	-0,073
-458,284	607,003	-0,048	0,088
-457,270	-83,192	0,023	-0,005
-456,255	-200,000	0,060	-0,210
-455,241	-64,823	-0,144	-0,042
-454,226	-63,871	-0,049	-0,014
-453,211	-81,662	0,122	-0,029
-452,197	-75,679	-0,149	-0,038
-451,182	-200,000	0,039	0,140
-450,168	743,876	0,051	0,099
-449,153	-29,582	-0,037	0,015
-448,138	-48,629	-0,196	-0,068
-447,124	158,426	-0,018	-0,018
-446,109	87,116	0,056	-0,045
-445,095	800,000	0,034	-0,094
-444,080	264,825	0,131	0,167
-443,065	-200,000	0,000	0,056
-442,051	-22,458	-0,162	-0,071
-441,036	-77,545	0,014	0,003
-440,022	-3,820	-0,216	0,109
-439,007	658,973	0,035	-0,066
-437,992	-200,000	-0,008	0,080
-436,978	134,516	0,075	0,071
-435,963	-73,525	-0,133	-0,035
-434,949	210,443	0,058	0,066
-433,934	453,749	-0,038	0,061
-432,919	98,390	0,057	-0,048
-431,905	261,889	-0,075	0,094
-430,890	-200,000	-0,031	0,159
-429,876	-38,311	0,137	0,052
-428,861	800,000	0,062	0,147
-427,846	-59,452	0,053	0,017
-426,832	246,024	0,015	-0,019
-425,817	129,481	0,108	-0,101
-424,803	-200,000	0,008	-0,041
-423,788	-200,000	-0,006	0,026
-422,773	89,136	0,158	0,128
-421,759	81,312	-0,048	-0,037
-420,744	399,174	0,062	0,094
-419,730	91,695	-0,100	-0,082
-418,715	-200,000	-0,018	-0,067
-417,701	-200,000	0,009	0,065
-416,686	-135,764	0,092	0,008
-415,671	-0,056	-0,172	0,089
-414,657	-200,000	0,004	0,073
-413,642	355,663	0,011	0,016
-412,628	-200,000	-0,005	0,201
-411,613	-52,826	-0,129	0,043
-410,598	-182,455	0,066	0,001
-409,584	-200,000	-0,014	0,049
-408,569	-200,000	0,004	0,112
-407,555	-23,116	0,085	-0,037
-406,540	-200,000	0,012	0,126
-405,525	-155,828	0,023	0,001
-404,511	-200,000	-0,014	-0,055
-403,496	111,783	0,017	-0,015
-402,482	-200,000	-0,007	-0,087
-401,467	-76,908	0,028	-0,007
-400,452	576,506	-0,091	0,163
-399,438	73,209	0,077	-0,058
-398,423	-200,000	-0,000	-0,158
-397,409	95,809	-0,085	-0,071
-396,394	800,000	0,019	-0,039
-395,379	277,411	0,099	0,128
-394,365	583,141	0,047	-0,084
-393,350	-21,872	-0,075	0,033
-392,336	264,464	0,077	0,097
-391,321	-103,554	0,106	-0,018
-390,306	800,000	0,018	-0,053
-389,292	-200,000	-0,011	-0,059
-388,277	293,923	0,036	0,048
-387,263	-200,000	-0,016	-0,089
-386,248	-200,000	0,005	0,151
-385,233	-37,240	0,018	-0,007
-384,219	-52,503	-0,067	0,022
-383,204	786,575	-0,051	-0,102
-382,190	-200,000	0,014	-0,142
-381,175	233,399	-0,086	-0,102
-380,160	-200,000	-0,000	0,085
-379,146	800,000	-0,028	0,083
-378,131	800,000	-0,031	0,066
-377,117	298,456	0,053	0,070
-376,102	403,620	0,048	-0,073
-375,088	102,767	-0,016	-0,014
-374,073	-200,000	0,033	0,115
-373,058	84,299	0,189	0,150
-372,044	-150,908	-0,052	-0,003
-371,029	-34,272	-0,050	-0,020
-370,015	-200,000	0,044	0,142
-369,000	-200,000	0,018	-0,110
-367,985	16,919	-0,116	-0,067
-366,971	800,000	0,056	0,150
-365,956	-17,480	0,079	0,036
-364,942	-200,000	0,001	-0,005
-363,927	8,829	-0,055	-0,030
-362,912	-200,000	-0,005	0,042
-361,898	-200,000	-0,011	0,056
-360,883	-9,696	-0,114	0,055
-359,869	244,218	-0,119	-0,145
-358,854	74,780	0,096	0,073
-357,839	686,624	0,045	0,085
-356,825	272,646	-0,038	-0,049
-355,810	-120,174	0,015	0,002
-354,796	-108,243	0,065	-0,010
-353,781	37,000	-0,089	-0,057
-352,766	562,810	0,028	-0,049
-351,752	-200,000	0,006	0,050
-350,737	77,772	-0,080	0,062
-349,723	435,960	0,054	0,085
-348,708	-38,177	0,161	0,062
-347,693	292,430	-0,036	-0,048
-346,679	-200,000	-0,022	-0,118
-345,664	117,858	-0,094	0,084
-344,650	98,889	-0,050	-0,041
-343,635	-200,000	0,005	0,049
-342,620	31,670	-0,117	0,073
-341,606	-200,000	-0,038	0,162
-340,591	800,000	0,071	-0,146
-339,577	-37,490	-0,085	-0,033
-338,562	-200,000	-0,028	0,124
-337,548	-53,510	0,120	0,039
-336,533	758,694	-0,040	-0,079
-335,518	238,963	0,019	-0,023
-334,504	147,356	-0,117	0,114
-333,489	1,510	-0,070	-0,036
-332,475	651,561	-0,004	0,008
-331,460	-143,977	0,077	-0,005
-330,445	800,000	0,011	0,026
-329,431	-91,717	-0,039	-0,008
-328,416	-153,925	0,034	-0,002
-327,402	-200,000	0,007	-0,092
-326,387	22,649	-0,077	-0,045
-325,372	73,624	-0,060	-0,045
-324,358	-110,926	-0,113	-0,017
-323,343	265,583	-0,056	-0,071
-322,329	-59,458	0,178	0,055
-321,314	103,278	0,081	0,069
-320,299	57,428	0,038	0,027
-319,285	-7,960	0,053	-0,026
-318,270	586,620	-0,061	-0,109
-317,256	33,835	-0,067	0,042
-316,241	15,503	0,074	-0,042
-315,226	19,839	0,057	-0,033
-314,212	-142,180	0,093	0,007
-313,197	800,000	0,106	0,265
-312,183	71,617	-0,058	-0,044
-311,168	-200,000	0,000	0,030
-310,153	-200,000	-0,002	0,125
-309,139	-200,000	-0,021	-0,160
-308,124	594,703	-0,061	0,111
-307,110	-200,000	0,028	0,196
-306,095	800,000	0,063	0,138
-305,080	20,610	0,060	0,035
-304,066	-17,587	0,067	-0,031
-303,051	-200,000	-0,031	-0,178
-302,037	-200,000	0,004	-0,168
-301,022	-57,053	0,056	-0,018
-300,008	800,000	-0,014	0,038
-298,993	-200,000	0,003	0,091
-297,978	800,000	-0,036	0,102
-296,964	-11,474	-0,087	0,041
-295,949	-101,453	-0,069	-0,012
-294,935	540,516	-0,040	-0,069
-293,920	-138,531	-0,020	0,002
-292,905	306,332	0,121	-0,163
-291,891	-73,015	0,069	-0,018
-290,876	-200,000	0,013	0,046
-289,862	336,031	-0,035	0,049
-288,847	-88,181	0,075	0,016
-287,832	-63,768	0,076	-0,022
-286,818	122,042	0,066	-0,059
-285,803	20,221	0,055	0,032
-284,789	-200,000	0,005	-0,065
-283,774	-34,801	0,083	-0,033
-282,759	272,577	-0,036	0,046
-281,745	16,339	0,048	0,027
-280,730	-7,559	-0,096	-0,047
-279,716	-200,000	0,005	-0,023
-278,701	800,000	0,044	0,099
-277,686	164,245	0,064	0,065
-276,672	-200,000	0,021	0,121
-275,657	290,136	-0,097	-0,127
-274,643	-73,458	-0,131	-0,034
-273,628	-200,000	0,028	-0,135
-272,613	3,905	0,067	-0,035
-271,599	102,527	0,047	-0,039
-270,584	-200,000	-0,040	0,148
-269,570	116,473	0,069	-0,061
-268,555	53,504	0,024	0,017
-267,540	-46,679	-0,100	-0,035
-266,526	-200,000	-0,015	-0,081
-265,511	-200,000	0,004	0,110
-264,497	-177,218	-0,080	0,001
-263,482	247,918	0,063	-0,077
-262,467	5,698	0,127	-0,068
-261,453	800,000	0,030	0,087
-260,438	-200,000	0,021	-0,162
-259,424	65,249	0,095	-0,069
-258,409	358,580	0,028	0,040
-257,395	-93,055	0,164	0,033
-256,380	800,000	-0,026	0,064
-255,365	-70,965	0,078	0,021
-254,351	17,465	-0,042	-0,024
-253,336	217,287	0,067	-0,078
-252,322	-67,044	-0,103	-0,029
-251,307	-105,550	-0,039	-0,006
-250,292	18,929	0,020	0,011
-249,278	107,680	0,054	0,047
-248,263	-193,384	0,053	-0,000
-247,249	800,000	-0,075	-0,164
-246,234	97,855	0,081	-0,067
-245,219	-200,000	-0,027	-0,116
-244,205	151,131	-0,111	-0,110
-243,190	-200,000	0,017	0,134
-242,176	-143,968	0,056	-0,004
-241,161	800,000	0,028	-0,064
-240,146	596,157	0,043	0,078
-239,132	-200,000	-0,001	-0,136
-238,117	324,922	0,052	-0,072
-237,103	-200,000	0,005	-0,073
-236,088	800,000	0,011	-0,027
-235,073	-200,000	0,015	0,058
-234,059	-68,191	0,046	0,013
-233,044	-12,698	-0,083	0,039
-232,030	-74,987	0,029	0,007
-231,015	-0,953	-0,048	0,025
-230,000	-131,623	0,040	0,004
-228,986	350,087	-0,030	-0,043
-227,971	228,441	0,069	0,082
-226,957	-200,000	0,040	0,189
-225,942	160,655	-0,024	-0,024
-224,927	-7,848	0,098	-0,048
-223,913	28,405	-0,100	-0,061
-222,898	-200,000	-0,008	0,032
-221,884	-200,000	0,014	-0,100
-220,869	-51,514	0,040	-0,013
-219,855	151,210	-0,107	-0,105
-218,840	-108,378	0,050	0,008
-217,825	311,541	0,029	0,039
-216,811	103,208	-0,150	-0,127
-215,796	-200,000	0,003	-0,014
-214,782	-19,929	-0,109	-0,048
-213,767	-200,000	-0,000	-0,027
-212,752	800,000	0,062	0,164
-211,738	800,000	0,067	0,189
-210,723	332,705	-0,061	-0,086
-209,709	32,063	-0,167	-0,104
-208,694	72,608	-0,149	-0,112
-207,679	-0,023	-0,143	-0,073
-206,665	-83,389	0,151	0,035
-205,650	800,000	-0,036	-0,113
-204,636	171,431	-0,048	-0,050
-203,621	-167,393	-0,030	-0,001
-202,606	212,612	0,043	0,049
-201,592	4,378	-0,036	-0,019
-200,577	-0,715	0,043	0,022
-199,563	-176,605	-0,084	0,002
-198,548	-200,000	-0,018	0,092
-197,533	52,311	0,130	0,089
-196,519	-84,217	-0,044	0,010
-195,504	119,184	-0,139	0,124
-194,490	-33,993	0,116	0,046
-193,475	655,993	-0,046	0,085
-192,460	-200,000	0,007	-0,064
-191,446	14,587	0,149	0,084
-190,431	-200,000	0,005	0,117
-189,417	130,302	-0,047	-0,043
-188,402	-105,971	0,103	0,017
-187,387	-200,000	-0,004	0,103
-186,373	-200,000	-0,057	0,000
-185,358	-93,915	-0,132	0,026
-184,344	5,159	0,112	0,059
-183,329	595,903	-0,028	0,050
-182,315	347,805	-0,016	-0,022
-181,300	264,315	-0,061	0,077
-180,285	-200,000	0,004	0,026
-179,271	65,488	0,110	-0,080
-178,256	473,615	0,028	0,045
-177,242	192,762	0,053	-0,058
-176,227	-93,654	0,054	0,011
-175,212	49,092	0,133	0,090
-174,198	-64,838	-0,058	-0,017
-173,183	191,472	-0,084	-0,091
-172,169	-1,628	-0,068	0,034
-171,154	-126,030	0,112	0,012
-170,139	-164,960	0,117	-0,004
-169,125	596,953	0,089	0,160
-168,110	16,314	0,017	0,010
-167,096	800,000	-0,028	0,058
-166,081	800,000	-0,027	-0,075
-165,066	538,198	-0,100	-0,172
-164,052	443,739	0,055	0,087
-163,037	800,000	-0,036	0,088
-162,023	800,000	-0,023	0,057
-161,008	135,253	0,068	0,063
-159,993	603,517	0,007	-0,013
-158,979	292,016	0,048	-0,063
-157,964	-200,000	0,012	-0,077
-156,950	34,182	0,057	-0,036
-155,935	112,443	0,036	0,031
-154,920	19,149	-0,047	-0,027
-153,906	-132,909	0,041	-0,004
-152,891	299,014	-0,039	-0,052
-151,877	254,648	-0,042	-0,052
-150,862	211,103	-0,065	-0,073
-149,847	-53,793	-0,012	-0,004
-148,833	-193,292	0,017	-0,000
-147,818	113,051	0,225	-0,196
-146,804	713,993	0,038	0,073
-145,789	347,606	0,118	0,167
-144,775	235,796	-0,096	0,115
-143,760	-200,000	-0,006	0,059
-142,745	254,953	0,030	-0,037
-141,731	800,000	0,065	0,158
-140,716	-19,918	0,074	-0,033
-139,702	-200,000	0,004	-0,064
-138,687	355,964	0,026	-0,037
-137,672	-70,674	-0,109	-0,029
-136,658	-106,996	-0,022	-0,003
-135,643	761,439	-0,057	-0,112
-134,629	240,060	-0,082	0,098
-133,614	-129,518	0,145	-0,014
-132,599	-17,628	-0,089	-0,040
-131,585	-98,179	-0,094	-0,017
-130,570	-103,790	-0,005	0,001
-129,556	17,314	0,034	-0,019
-128,541	276,435	-0,067	-0,086
-127,526	115,654	-0,038	-0,034
-126,512	-113,972	0,034	0,005
-125,497	800,000	-0,020	0,041
-124,483	383,307	0,029	0,042
-123,468	-200,000	-0,010	0,238
-122,453	-95,195	-0,076	0,015
-121,439	-7,400	-0,031	0,015
-120,424	-106,804	0,044	0,007
-119,410	-18,196	-0,062	0,028
-118,395	-160,282	0,136	0,005
