DTS Sentinel unit serial number:	SN410029Multiplexer serial number:	ORYXHardware model number:	OX2-SRSoftware version number:	ORYX F/W v4,00 Oryx Data Collector v3.7.2.0data status	okinstallation	B5 Nyhavnadifferential loss correction	single-endedforward channel	channel 2reverse channel	N/Adate	2023/12/12time	19:52:13forward acquisition time	300,00reverse acquisition time	0,00gamma	499,1914k internal	0,3157k external	0,3157temperature offset calibration	1,0000default loss term (dB/km)	0,3820temperature slope calibration	1,0000multiplexer offset coefficient	1,0000multiplexer slope coefficient	1,0000fibre end	0,00T internal ref (°C)	15,39T ext. ref 1 (°C)	-1,22T ext. ref 2 (°C)	-1,51length (m)	temperature (°C)	Stokes	anti-Stokes-744,400	78,869	0,078	-0,061
-743,385	-141,656	-0,324	0,024
-742,371	431,037	0,107	-0,171
-741,356	-68,295	-0,194	0,055
-740,342	-122,378	0,065	-0,008
-739,327	-130,390	-0,360	0,036
-738,312	-130,617	0,152	0,015
-737,298	-19,208	-0,257	-0,117
-736,283	-200,000	-0,001	0,041
-735,269	215,169	-0,085	-0,100
-734,254	-134,300	-0,066	-0,006
-733,239	-52,614	-0,425	-0,144
-732,225	-94,962	0,220	0,044
-731,210	-123,041	0,092	0,011
-730,196	-200,000	-0,012	0,097
-729,181	275,696	-0,103	0,134
-728,167	-7,446	0,072	0,036
-727,152	349,158	-0,027	0,039
-726,137	-11,751	0,092	0,045
-725,123	-200,000	-0,025	-0,109
-724,108	-165,517	-0,049	0,002
-723,094	-5,850	-0,104	0,052
-722,079	800,000	-0,028	0,060
-721,064	-13,861	0,058	-0,027
-720,050	-200,000	0,007	0,057
-719,035	-200,000	-0,010	0,045
-718,021	800,000	-0,044	-0,122
-717,006	-200,000	-0,022	-0,290
-715,991	-109,484	-0,057	-0,009
-714,977	295,960	-0,069	-0,093
-713,962	800,000	0,040	-0,099
-712,948	-200,000	0,004	0,114
-711,933	-200,000	0,026	0,000
-710,918	-53,000	-0,067	0,023
-709,904	-1,967	-0,019	-0,010
-708,889	612,687	-0,038	-0,070
-707,875	800,000	-0,046	-0,124
-706,860	5,048	-0,105	-0,057
-705,845	800,000	-0,065	-0,171
-704,831	43,837	0,113	0,076
-703,816	397,725	-0,008	0,013
-702,802	-60,529	-0,034	0,011
-701,787	200,463	0,024	0,027
-700,772	-200,000	-0,004	-0,057
-699,758	800,000	-0,034	-0,073
-698,743	-107,367	-0,023	0,004
-697,729	428,439	0,023	-0,037
-696,714	218,844	-0,093	-0,109
-695,699	800,000	-0,052	-0,110
-694,685	221,002	0,098	-0,116
-693,670	239,354	0,084	0,103
-692,656	274,815	-0,064	-0,084
-691,641	107,514	-0,062	0,054
-690,627	620,972	0,047	0,087
-689,612	389,320	-0,029	-0,045
-688,597	269,095	-0,065	-0,084
-687,583	-200,000	-0,012	0,042
-686,568	21,002	-0,086	-0,051
-685,554	-113,603	-0,173	0,025
-684,539	61,374	-0,040	0,029
-683,524	-200,000	0,024	0,128
-682,510	-200,000	0,002	0,103
-681,495	49,808	0,017	0,012
-680,481	517,717	-0,049	-0,084
-679,466	286,167	-0,065	-0,087
-678,451	800,000	-0,070	-0,191
-677,437	25,447	0,076	0,047
-676,422	800,000	0,070	0,159
-675,408	-109,039	-0,111	-0,017
-674,393	-77,544	-0,025	0,006
-673,378	-200,000	-0,005	-0,080
-672,364	-38,552	-0,087	-0,034
-671,349	-110,405	0,075	-0,011
-670,335	-52,247	-0,069	-0,023
-669,320	225,403	0,046	0,055
-668,305	-200,000	0,001	0,083
-667,291	-200,000	0,012	-0,075
-666,276	501,406	-0,065	-0,111
-665,262	15,312	-0,058	0,033
-664,247	-140,889	-0,108	-0,008
-663,232	59,631	-0,010	0,007
-662,218	28,149	-0,138	-0,085
-661,203	146,490	-0,081	-0,080
-660,189	-200,000	0,004	-0,030
-659,174	-200,000	-0,103	-0,000
-658,159	194,297	-0,091	0,102
-657,145	66,927	0,055	-0,041
-656,130	23,889	-0,030	-0,018
-655,116	-199,951	-0,068	0,000
-654,101	449,290	0,067	0,108
-653,086	-44,751	-0,072	0,026
-652,072	-79,109	-0,136	-0,034
-651,057	91,540	0,090	-0,074
-650,043	-100,379	-0,045	0,008
-649,028	800,000	-0,045	-0,123
-648,014	88,545	-0,065	0,053
-646,999	-115,842	0,076	-0,010
-645,984	-200,000	-0,027	0,095
-644,970	410,073	-0,062	-0,096
-643,955	-151,491	-0,176	0,009
-642,941	-116,331	-0,050	0,007
-641,926	-79,572	0,154	0,038
-640,911	-140,754	-0,064	0,005
-639,897	-200,000	-0,017	0,154
-638,882	-200,000	-0,005	-0,020
-637,868	111,959	0,064	0,057
-636,853	-117,575	-0,095	-0,012
-635,838	-200,000	-0,004	-0,093
-634,824	-60,612	-0,084	0,026
-633,809	-200,000	-0,009	-0,102
-632,795	-71,247	-0,092	0,025
-631,780	-197,033	-0,054	0,000
-630,765	-151,660	-0,044	-0,002
-629,751	-13,198	-0,143	0,068
-628,736	800,000	-0,082	-0,170
-627,722	34,310	0,072	-0,046
-626,707	275,653	-0,039	-0,050
-625,692	-130,905	-0,201	-0,020
-624,678	-200,000	-0,010	0,063
-623,663	-36,565	-0,099	0,039
-622,649	800,000	-0,032	-0,073
-621,634	-13,073	-0,130	-0,062
-620,619	246,222	0,023	0,029
-619,605	11,792	0,091	0,051
-618,590	-200,000	0,008	0,054
-617,576	87,685	-0,071	0,058
-616,561	187,283	-0,039	-0,043
-615,546	-200,000	-0,010	0,040
-614,532	27,150	0,050	0,030
-613,517	15,743	0,032	0,018
-612,503	180,418	0,071	0,076
-611,488	422,593	-0,044	0,070
-610,474	800,000	-0,017	-0,039
-609,459	77,188	-0,045	0,035
-608,444	365,351	-0,066	-0,099
-607,430	-163,730	-0,164	0,006
-606,415	116,463	0,056	-0,051
-605,401	290,364	0,104	-0,139
-604,386	-200,000	0,014	0,053
-603,371	800,000	0,062	0,142
-602,357	62,813	-0,077	0,056
-601,342	-200,000	0,008	0,048
-600,328	250,831	0,026	0,033
-599,313	-200,000	-0,053	-0,180
-598,298	237,895	0,011	0,014
-597,284	562,739	-0,049	0,087
-596,269	15,767	-0,021	-0,012
-595,255	24,361	-0,112	-0,068
-594,240	-200,000	0,000	-0,011
-593,225	-109,740	-0,057	0,009
-592,211	680,834	0,110	-0,212
-591,196	-200,000	0,010	-0,135
-590,182	-200,000	-0,018	-0,120
-589,167	800,000	0,017	0,046
-588,152	-200,000	0,055	0,000
-587,138	460,484	0,019	0,030
-586,123	-200,000	0,007	-0,095
-585,109	800,000	0,048	0,104
-584,094	143,040	-0,051	0,049
-583,079	-200,000	-0,027	0,096
-582,065	-200,000	-0,040	-0,227
-581,050	-200,000	-0,008	-0,050
-580,036	-62,609	0,036	-0,011
-579,021	-129,873	-0,066	-0,007
-578,006	294,957	0,085	-0,114
-576,992	-200,000	0,003	-0,020
-575,977	-200,000	0,006	0,092
-574,963	-8,178	0,098	0,048
-573,948	-74,460	-0,053	-0,014
-572,934	360,164	0,047	-0,069
-571,919	800,000	-0,031	0,069
-570,904	-169,754	0,085	0,002
-569,890	116,617	-0,060	-0,054
-568,875	-200,000	-0,017	-0,088
-567,861	257,767	0,029	-0,037
-566,846	-200,000	-0,022	0,143
-565,831	-65,708	-0,163	0,047
-564,817	-200,000	-0,004	-0,085
-563,802	15,803	-0,068	0,039
-562,788	-200,000	0,019	-0,153
-561,773	800,000	-0,013	0,031
-560,758	16,571	0,089	-0,051
-559,744	-200,000	-0,005	-0,057
-558,729	-71,590	0,085	-0,023
-557,715	158,130	-0,081	-0,082
-556,700	-200,000	0,016	0,132
-555,685	555,907	0,037	0,065
-554,671	-6,141	0,103	0,051
-553,656	-186,770	-0,116	-0,001
-552,642	-45,488	-0,127	0,046
-551,627	-200,000	-0,005	0,056
-550,612	-117,097	-0,022	-0,003
-549,598	-25,899	-0,108	0,047
-548,583	17,863	0,038	-0,022
-547,569	800,000	-0,046	-0,126
-546,554	164,102	-0,098	0,102
-545,539	107,402	0,071	0,062
-544,525	273,448	0,016	-0,021
-543,510	-33,485	0,041	0,017
-542,496	36,138	0,093	0,060
-541,481	-162,586	-0,121	-0,004
-540,466	73,416	-0,105	-0,080
-539,452	296,600	0,070	0,094
-538,437	800,000	0,024	0,070
-537,423	-200,000	0,023	0,172
-536,408	-200,000	-0,009	0,093
-535,393	384,504	-0,032	-0,048
-534,379	268,151	-0,083	-0,107
-533,364	-200,000	0,000	-0,001
-532,350	222,446	0,042	-0,049
-531,335	153,518	0,027	-0,027
-530,321	9,889	0,012	-0,007
-529,306	136,405	-0,122	0,117
-528,291	76,983	-0,023	-0,018
-527,277	-62,822	-0,129	0,039
-526,262	172,994	0,065	0,068
-525,248	-200,000	0,045	0,199
-524,233	-98,782	0,131	0,024
-523,218	13,099	0,041	-0,023
-522,204	-48,441	0,039	0,014
-521,189	197,056	0,020	-0,022
-520,175	288,296	0,019	-0,025
-519,160	415,582	0,061	-0,095
-518,145	-200,000	0,008	0,070
-517,131	526,774	-0,028	0,049
-516,116	185,193	0,089	0,096
-515,102	242,289	0,043	0,052
-514,087	116,799	0,114	0,102
-513,072	800,000	-0,007	-0,016
-512,058	-65,021	0,079	-0,023
-511,043	-45,662	0,071	0,025
-510,029	-168,415	-0,034	-0,001
-509,014	448,195	0,026	-0,042
-507,999	800,000	0,027	-0,068
-506,985	-200,000	-0,025	-0,184
-505,970	-200,000	-0,007	-0,121
-504,956	-57,954	-0,027	0,009
-503,941	800,000	-0,040	-0,090
-502,926	106,371	0,024	0,021
-501,912	-200,000	-0,011	0,051
-500,897	-200,000	0,014	0,083
-499,883	800,000	-0,030	-0,071
-498,868	455,225	0,034	-0,056
-497,853	76,789	0,042	-0,032
-496,839	320,297	0,054	-0,076
-495,824	23,783	0,091	-0,055
-494,810	59,508	-0,084	0,061
-493,795	-146,163	-0,040	0,003
-492,781	587,177	0,005	-0,010
-491,766	-200,000	0,022	-0,094
-490,751	43,736	-0,040	-0,027
-489,737	-200,000	-0,004	-0,058
-488,722	530,983	0,027	-0,047
-487,708	287,442	0,128	0,170
-486,693	-200,000	0,011	0,093
-485,678	64,047	-0,092	0,067
-484,664	800,000	0,023	-0,071
-483,649	-200,000	0,022	0,089
-482,635	331,368	-0,020	0,028
-481,620	594,949	-0,008	0,015
-480,605	-1,010	0,052	-0,027
-479,591	-28,137	-0,101	-0,043
-478,576	-117,199	0,027	0,004
-477,562	57,745	-0,011	-0,008
-476,547	-59,326	0,108	0,034
-475,532	-200,000	0,001	-0,108
-474,518	134,978	0,052	0,049
-473,503	-0,971	0,051	0,026
-472,489	-138,296	-0,112	-0,009
-471,474	15,864	-0,019	0,011
-470,459	-141,490	-0,092	-0,007
-469,445	-136,832	-0,055	0,005
-468,430	92,299	-0,058	0,048
-467,416	12,371	-0,165	0,092
-466,401	-67,141	0,156	0,045
-465,386	162,401	-0,058	0,060
-464,372	784,540	-0,054	0,108
-463,357	-200,000	0,001	-0,108
-462,343	-200,000	-0,034	0,151
-461,328	-133,687	-0,034	-0,003
-460,313	243,290	0,017	-0,021
-459,299	-98,197	0,177	-0,033
-458,284	-88,291	0,076	-0,016
-457,270	10,798	0,131	-0,073
-456,255	63,090	-0,042	-0,030
-455,241	-200,000	0,004	0,034
-454,226	-200,000	-0,022	-0,111
-453,211	225,592	0,052	-0,062
-452,197	-200,000	0,031	0,104
-451,182	800,000	0,012	-0,035
-450,168	252,937	0,083	0,103
-449,153	-128,507	0,043	-0,004
-448,138	-67,229	0,114	-0,032
-447,124	654,470	0,028	-0,053
-446,109	800,000	0,019	-0,049
-445,095	800,000	-0,043	-0,090
-444,080	-200,000	0,018	0,119
-443,065	365,182	0,038	0,055
-442,051	800,000	0,017	-0,045
-441,036	-200,000	0,017	0,066
-440,022	-200,000	-0,022	-0,136
-439,007	-89,729	0,022	0,005
-437,992	-12,447	-0,032	0,015
-436,978	87,900	0,070	-0,057
-435,963	-200,000	-0,003	-0,022
-434,949	-200,000	-0,013	0,122
-433,934	378,619	-0,051	0,076
-432,919	800,000	-0,024	-0,060
-431,905	-135,398	-0,041	-0,004
-430,890	-9,929	0,148	0,071
-429,876	51,458	0,039	0,027
-428,861	-140,478	-0,121	-0,009
-427,846	71,364	-0,054	0,041
-426,832	-200,000	0,002	-0,038
-425,817	-111,553	-0,194	-0,028
-424,803	-200,000	0,012	0,074
-423,788	-84,147	0,164	0,038
-422,773	-108,817	0,092	0,014
-421,759	-97,948	0,105	0,019
-420,744	107,624	-0,071	0,061
-419,730	-94,423	0,028	0,006
-418,715	22,606	0,144	0,086
-417,701	-200,000	-0,023	0,083
-416,686	12,009	0,173	0,097
-415,671	58,278	0,105	0,075
-414,657	-94,694	0,098	0,019
-413,642	-200,000	0,015	-0,062
-412,628	800,000	0,010	0,031
-411,613	-117,262	-0,122	0,016
-410,598	-99,981	-0,033	0,006
-409,584	-46,734	-0,064	-0,023
-408,569	276,352	-0,017	0,022
-407,555	169,685	-0,072	0,075
-406,540	-13,940	0,036	-0,017
-405,525	-87,070	-0,047	-0,010
-404,511	-158,541	0,087	0,004
-403,496	77,045	-0,020	-0,015
-402,482	162,720	-0,019	0,020
-401,467	11,932	0,098	-0,054
-400,452	-200,000	-0,013	-0,087
-399,438	378,942	0,038	-0,056
-398,423	800,000	0,019	0,062
-397,409	177,531	-0,095	-0,101
-396,394	800,000	0,053	-0,112
-395,379	147,453	0,077	0,075
-394,365	-66,084	0,100	-0,029
-393,350	166,927	0,100	-0,103
-392,336	-72,612	-0,048	-0,013
-391,321	761,432	-0,036	-0,072
-390,306	158,792	-0,071	-0,072
-389,292	11,297	-0,063	-0,035
-388,277	179,151	-0,057	-0,061
-387,263	-192,977	0,064	-0,000
-386,248	-200,000	0,003	0,048
-385,233	-200,000	-0,015	0,051
-384,219	150,303	-0,068	-0,067
-383,204	146,835	-0,097	0,095
-382,190	-128,316	-0,136	-0,014
-381,175	131,794	0,071	-0,067
-380,160	466,585	0,019	-0,032
-379,146	80,653	0,122	-0,096
-378,131	-200,000	0,011	0,034
-377,117	-93,214	0,071	0,014
-376,102	-164,383	-0,181	-0,006
-375,088	722,115	0,032	-0,062
-374,073	727,054	-0,041	0,079
-373,058	-53,547	-0,084	-0,028
-372,044	-117,190	0,129	-0,017
-371,029	348,504	0,072	-0,103
-370,015	22,325	-0,122	0,072
-369,000	-39,717	-0,132	-0,050
-367,985	800,000	0,031	-0,074
-366,971	-200,000	0,021	-0,148
-365,956	-117,572	0,066	0,009
-364,942	391,220	0,107	0,163
-363,927	-2,278	-0,062	0,031
-362,912	266,585	-0,049	0,063
-361,898	596,939	0,025	0,046
-360,883	576,408	-0,097	0,173
-359,869	17,805	-0,072	0,042
-358,854	-25,115	0,131	0,056
-357,839	-57,972	0,029	-0,009
-356,825	-200,000	-0,011	-0,080
-355,810	800,000	-0,033	-0,093
-354,796	-135,123	-0,140	-0,012
-353,781	247,163	0,078	-0,096
-352,766	800,000	-0,014	-0,040
-351,752	-98,551	-0,131	0,024
-350,737	800,000	-0,017	0,041
-349,723	-101,129	0,123	-0,022
-348,708	-11,877	0,020	-0,010
-347,693	-144,201	-0,054	-0,004
-346,679	-200,000	0,002	0,056
-345,664	87,920	-0,142	-0,115
-344,650	-200,000	-0,012	0,111
-343,635	194,263	-0,076	0,084
-342,620	-24,599	0,027	-0,012
-341,606	-14,293	-0,065	0,030
-340,591	-200,000	0,036	-0,221
-339,577	800,000	-0,042	-0,113
-338,562	-22,822	-0,014	-0,006
-337,548	-200,000	0,017	-0,125
-336,533	-60,311	-0,043	-0,013
-335,518	-79,601	0,141	0,034
-334,504	371,577	-0,091	0,135
-333,489	-53,422	0,172	0,057
-332,475	260,716	0,038	-0,048
-331,460	335,620	0,034	-0,049
-330,445	800,000	-0,053	0,168
-329,431	-37,781	0,049	0,019
-328,416	301,462	0,121	0,163
-327,402	800,000	0,020	-0,063
-326,387	40,634	0,095	0,062
-325,372	211,531	-0,066	-0,076
-324,358	55,899	0,022	-0,015
-323,343	800,000	0,048	0,127
-322,329	800,000	0,048	-0,112
-321,314	11,939	0,121	-0,067
-320,299	54,321	0,130	-0,090
-319,285	77,869	-0,049	-0,038
-318,270	298,183	-0,063	-0,084
-317,256	-200,000	0,020	-0,131
-316,241	72,789	0,086	-0,065
-315,226	-200,000	0,006	-0,087
-314,212	-23,636	0,079	0,034
-313,197	-84,155	0,084	-0,019
-312,183	-130,360	0,029	0,003
-311,168	30,003	0,073	-0,045
-310,153	-200,000	0,021	-0,103
-309,139	-200,000	0,012	-0,128
-308,124	-121,760	0,041	-0,005
-307,110	12,518	-0,050	0,028
-306,095	23,319	-0,032	0,019
-305,080	-54,199	0,065	0,021
-304,066	455,142	-0,066	0,107
-303,051	800,000	0,024	-0,065
-302,037	266,157	0,009	-0,012
-301,022	-145,755	0,063	0,004
-300,008	18,322	0,102	-0,059
-298,993	-200,000	-0,007	0,036
-297,978	800,000	0,009	-0,018
-296,964	477,830	0,049	-0,081
-295,949	800,000	0,031	-0,084
-294,935	800,000	-0,023	0,071
-293,920	779,235	-0,011	-0,021
-292,905	282,343	0,045	0,059
-291,891	85,752	-0,052	0,041
-290,876	512,060	-0,082	-0,138
-289,862	-3,748	-0,061	-0,030
-288,847	-200,000	-0,003	-0,014
-287,832	-9,529	0,142	-0,068
-286,818	-105,650	0,062	-0,010
-285,803	-200,000	0,011	-0,045
-284,789	800,000	0,058	0,120
-283,774	800,000	0,043	0,127
-282,759	-60,105	-0,064	0,020
-281,745	-140,762	-0,048	-0,004
-280,730	106,680	0,097	-0,083
-279,716	198,455	-0,049	-0,055
-278,701	757,410	0,047	0,092
-277,686	-200,000	0,007	0,080
-276,672	33,049	-0,049	-0,031
-275,657	800,000	0,012	0,029
-274,643	-200,000	0,005	-0,053
-273,628	138,755	0,045	-0,043
-272,613	14,918	-0,033	0,018
-271,599	488,911	0,079	-0,131
-270,584	-46,923	-0,065	0,023
-269,570	-189,224	-0,042	0,000
-268,555	-200,000	0,001	-0,017
-267,540	493,046	-0,026	0,044
-266,526	385,468	-0,062	0,093
-265,511	800,000	-0,048	0,125
-264,497	298,421	0,077	0,103
-263,482	249,328	0,010	-0,012
-262,467	-200,000	0,020	0,065
-261,453	-132,536	-0,120	-0,011
-260,438	-107,710	0,029	-0,005
-259,424	-200,000	-0,002	0,139
-258,409	-200,000	-0,001	0,034
-257,395	68,539	0,111	0,082
-256,380	112,410	-0,080	-0,070
-255,365	-5,049	0,084	-0,042
-254,351	-141,355	-0,108	0,008
-253,336	51,343	-0,028	0,019
-252,322	800,000	0,046	-0,102
-251,307	-200,000	0,006	-0,073
-250,292	800,000	0,019	0,041
-249,278	-200,000	0,021	0,171
-248,263	139,366	0,089	0,085
-247,249	-133,107	-0,046	-0,004
-246,234	-200,000	-0,010	0,045
-245,219	257,547	-0,057	-0,071
-244,205	192,614	0,109	-0,119
-243,190	-68,341	-0,042	0,012
-242,176	423,377	0,066	-0,103
-241,161	360,870	-0,048	0,070
-240,146	800,000	-0,032	-0,082
-239,132	15,669	-0,064	0,036
-238,117	800,000	0,028	-0,089
-237,103	750,014	0,008	0,017
-236,088	336,471	-0,048	-0,067
-235,073	-36,603	0,229	0,089
-234,059	-14,613	0,025	0,011
-233,044	451,375	-0,100	-0,160
-232,030	-46,181	-0,174	0,062
-231,015	800,000	0,031	-0,090
-230,000	-200,000	0,008	-0,065
-228,986	800,000	-0,014	0,041
-227,971	-200,000	-0,029	0,120
-226,957	-200,000	-0,044	0,144
-225,942	467,649	-0,039	-0,064
-224,927	57,100	0,121	0,085
-223,913	-140,002	-0,134	0,010
-222,898	659,731	-0,029	-0,055
-221,884	-200,000	0,014	-0,194
-220,869	-200,000	-0,013	0,088
-219,855	395,115	-0,082	0,124
-218,840	-200,000	0,009	0,038
-217,825	-200,000	0,013	-0,059
-216,811	-200,000	0,013	-0,064
-215,796	-200,000	-0,011	-0,059
-214,782	-98,095	-0,045	0,008
-213,767	-116,705	0,050	0,007
-212,752	313,405	0,006	0,009
-211,738	-200,000	-0,029	0,133
-210,723	-200,000	-0,014	0,094
-209,709	800,000	0,052	-0,108
-208,694	-28,119	-0,128	0,053
-207,679	-4,361	-0,068	0,034
-206,665	160,359	-0,013	-0,013
-205,650	391,981	0,035	-0,052
-204,636	145,542	-0,025	0,025
-203,621	-65,862	-0,068	-0,019
-202,606	98,626	0,081	0,068
-201,592	189,195	-0,038	-0,041
-200,577	409,921	0,031	-0,047
-199,563	-200,000	-0,014	0,056
-198,548	-200,000	0,093	-0,000
-197,533	-77,981	-0,019	0,005
-196,519	413,760	-0,039	0,061
-195,504	498,540	-0,045	0,076
-194,490	-200,000	0,023	-0,181
-193,475	15,603	-0,052	0,029
-192,460	23,775	-0,047	-0,028
-191,446	-17,569	-0,112	0,051
-190,431	-200,000	0,008	0,053
-189,417	51,027	0,043	0,029
-188,402	-4,758	0,132	-0,066
-187,387	542,836	0,034	0,058
-186,373	-12,436	0,124	-0,058
-185,358	-51,007	-0,163	0,055
-184,344	21,725	-0,059	-0,034
-183,329	323,695	0,049	0,068
-182,315	-89,893	0,096	0,020
-181,300	482,126	-0,041	0,068
-180,285	22,200	-0,083	0,049
-179,271	-68,871	0,034	0,009
-178,256	-200,000	-0,027	0,155
-177,242	800,000	-0,011	-0,036
-176,227	-23,511	-0,041	-0,018
-175,212	19,818	-0,038	0,022
-174,198	-31,928	-0,116	-0,047
-173,183	-111,011	0,120	0,018
-172,169	-200,000	0,004	-0,046
-171,154	398,923	-0,041	0,063
-170,139	-200,000	0,003	0,111
-169,125	-24,441	-0,091	-0,039
-168,110	-111,441	0,083	-0,012
-167,096	0,205	0,058	-0,030
-166,081	-119,785	0,046	0,006
-165,066	800,000	-0,033	-0,088
-164,052	-103,692	0,068	-0,011
-163,037	800,000	-0,072	0,185
-162,023	85,216	0,092	0,073
-161,008	-200,000	0,003	0,050
-159,993	179,243	-0,087	-0,092
-158,979	-200,000	-0,010	0,050
-157,964	-200,000	0,000	-0,053
-156,950	753,794	0,042	-0,082
-155,935	-104,189	-0,052	0,009
-154,920	800,000	-0,027	0,065
-153,906	472,527	0,041	-0,067
-152,891	-69,045	0,038	-0,010
-151,877	568,973	-0,019	-0,034
-150,862	-65,405	0,036	0,010
-149,847	-200,000	0,010	0,037
-148,833	-184,363	0,040	0,000
-147,818	17,943	-0,096	0,055
-146,804	-75,094	-0,101	0,026
-145,789	85,663	0,194	0,154
-144,775	193,311	-0,104	-0,113
-143,760	-142,811	0,079	-0,005
-142,745	800,000	0,035	-0,074
-141,731	800,000	-0,029	-0,082
-140,716	-200,000	-0,024	0,116
-139,702	86,354	0,105	0,083
-138,687	800,000	-0,033	-0,082
-137,672	-151,952	0,186	0,010
-136,658	-200,000	-0,034	-0,132
-135,643	-9,245	-0,062	0,030
-134,629	286,046	-0,072	-0,094
-133,614	69,313	0,040	-0,029
-132,599	-200,000	0,004	0,084
-131,585	-200,000	0,004	0,030
-130,570	735,239	0,021	0,040
-129,556	168,999	0,054	0,056
-128,541	145,672	-0,179	-0,173
-127,526	-93,778	0,058	0,011
-126,512	800,000	-0,072	0,202
-125,497	800,000	0,039	-0,118
-124,483	-70,738	0,043	0,012
-123,468	-105,416	-0,236	-0,038
-122,453	170,759	-0,152	-0,156
-121,439	-102,166	0,146	0,025
-120,424	245,574	0,012	0,015
-119,410	-200,000	-0,024	0,104
