DTS Sentinel unit serial number:	SN410029Multiplexer serial number:	ORYXHardware model number:	OX2-SRSoftware version number:	ORYX F/W v4,00 Oryx Data Collector v3.7.2.0data status	okinstallation	B5 Nyhavnadifferential loss correction	single-endedforward channel	channel 2reverse channel	N/Adate	2023/12/12time	17:12:13forward acquisition time	300,00reverse acquisition time	0,00gamma	499,1914k internal	0,3156k external	0,3156temperature offset calibration	1,0000default loss term (dB/km)	0,3820temperature slope calibration	1,0000multiplexer offset coefficient	1,0000multiplexer slope coefficient	1,0000fibre end	0,00T internal ref (°C)	15,75T ext. ref 1 (°C)	-0,85T ext. ref 2 (°C)	-1,16length (m)	temperature (°C)	Stokes	anti-Stokes-744,400	-37,385	0,131	0,051
-743,385	-87,445	-0,237	-0,053
-742,371	-133,829	0,088	0,008
-741,356	36,114	-0,111	0,072
-740,342	82,152	0,138	-0,110
-739,327	-152,737	-0,283	0,015
-738,312	-157,466	0,036	-0,002
-737,298	-125,494	-0,245	-0,027
-736,283	-200,000	0,101	0,000
-735,269	-116,552	-0,154	0,021
-734,254	-200,000	0,012	0,063
-733,239	-83,272	-0,432	-0,101
-732,225	-167,518	0,099	0,003
-731,210	-200,000	-0,001	0,043
-730,196	-200,000	-0,001	-0,066
-729,181	36,111	0,138	0,090
-728,167	403,047	-0,114	-0,177
-727,152	-200,000	0,019	0,117
-726,137	-54,981	-0,183	-0,061
-725,123	567,849	-0,074	-0,132
-724,108	800,000	-0,054	-0,164
-723,094	-200,000	0,010	-0,129
-722,079	428,329	-0,028	-0,045
-721,064	110,107	0,034	0,030
-720,050	2,300	-0,073	0,039
-719,035	800,000	-0,013	-0,030
-718,021	-140,228	0,097	0,007
-717,006	-4,168	-0,124	0,063
-715,991	-53,892	-0,123	0,041
-714,977	46,261	-0,077	0,053
-713,962	92,452	-0,069	0,057
-712,948	800,000	-0,021	-0,047
-711,933	85,846	-0,030	-0,024
-710,918	521,950	-0,101	-0,176
-709,904	-77,993	-0,085	0,022
-708,889	239,829	-0,082	-0,101
-707,875	455,793	0,108	0,178
-706,860	800,000	0,050	-0,107
-705,845	52,425	0,121	-0,085
-704,831	-18,492	0,108	0,050
-703,816	-167,824	0,067	-0,002
-702,802	-35,729	-0,111	0,044
-701,787	-200,000	0,013	-0,139
-700,772	-200,000	-0,024	-0,108
-699,758	-200,000	0,013	-0,155
-698,743	-105,362	0,032	0,005
-697,729	-200,000	-0,005	-0,032
-696,714	599,857	0,023	-0,042
-695,699	13,244	0,040	0,023
-694,685	174,695	-0,130	-0,138
-693,670	-200,000	0,011	-0,182
-692,656	-200,000	0,009	-0,094
-691,641	-200,000	-0,025	-0,165
-690,627	40,608	-0,039	-0,026
-689,612	800,000	-0,036	0,081
-688,597	106,467	0,020	0,017
-687,583	-200,000	-0,033	-0,266
-686,568	105,006	0,014	-0,013
-685,554	169,950	0,055	0,058
-684,539	-200,000	0,008	0,056
-683,524	800,000	0,058	0,173
-682,510	152,024	-0,066	0,066
-681,495	-200,000	-0,020	-0,088
-680,481	-72,718	0,057	-0,015
-679,466	-200,000	0,015	-0,160
-678,451	800,000	-0,041	-0,106
-677,437	-41,332	0,058	-0,022
-676,422	-86,618	0,199	0,044
-675,408	-84,992	-0,130	0,030
-674,393	-200,000	-0,005	0,022
-673,378	524,468	0,044	-0,076
-672,364	144,330	-0,101	-0,099
-671,349	-200,000	-0,002	-0,034
-670,335	293,638	0,055	-0,075
-669,320	14,590	-0,031	0,018
-668,305	-200,000	0,001	0,127
-667,291	141,506	-0,055	0,053
-666,276	96,126	0,119	-0,100
-665,262	345,290	-0,059	-0,086
-664,247	140,581	0,055	-0,054
-663,232	-31,947	-0,054	-0,022
-662,218	-90,423	-0,072	0,015
-661,203	-200,000	0,037	0,182
-660,189	-50,256	0,068	0,024
-659,174	361,366	0,036	0,053
-658,159	331,271	0,076	-0,108
-657,145	-60,910	-0,108	-0,033
-656,130	-200,000	0,034	0,132
-655,116	248,405	-0,036	0,045
-654,101	-200,000	-0,008	-0,029
-653,086	-173,451	-0,007	0,000
-652,072	744,149	-0,048	-0,095
-651,057	800,000	-0,035	0,077
-650,043	243,198	-0,114	-0,141
-649,028	157,133	0,057	0,058
-648,014	-200,000	0,014	0,145
-646,999	57,615	-0,092	-0,066
-645,984	88,715	-0,047	-0,038
-644,970	392,186	-0,044	0,068
-643,955	151,748	-0,082	-0,082
-642,941	576,277	0,027	0,049
-641,926	-60,511	0,206	-0,064
-640,911	526,411	-0,092	-0,159
-639,897	-122,250	0,068	-0,008
-638,882	177,312	-0,070	0,075
-637,868	213,773	-0,053	-0,061
-636,853	-105,336	0,048	0,008
-635,838	-86,947	-0,055	-0,012
-634,824	-28,970	-0,113	-0,047
-633,809	208,940	-0,092	-0,106
-632,795	280,379	0,027	-0,036
-631,780	-155,114	-0,071	0,003
-630,765	18,215	-0,139	0,081
-629,751	6,372	0,026	-0,014
-628,736	-12,204	-0,100	-0,048
-627,722	180,528	0,022	-0,024
-626,707	-4,026	0,062	0,032
-625,692	-169,828	-0,071	0,002
-624,678	308,629	0,039	0,053
-623,663	-200,000	0,049	0,171
-622,649	-30,318	0,055	-0,023
-621,634	-84,897	-0,135	-0,031
-620,619	49,247	0,064	-0,044
-619,605	209,537	-0,042	-0,048
-618,590	87,078	-0,056	-0,045
-617,576	609,147	-0,057	0,104
-616,561	-5,557	0,083	-0,041
-615,546	45,606	-0,173	-0,117
-614,532	94,574	-0,151	-0,126
-613,517	228,241	-0,010	0,012
-612,503	9,893	0,028	0,015
-611,488	18,517	-0,058	0,034
-610,474	47,188	-0,037	-0,025
-609,459	-200,000	0,009	0,053
-608,444	217,676	-0,067	-0,078
-607,430	-71,130	0,085	0,023
-606,415	-75,725	-0,149	-0,039
-605,401	-107,728	0,023	0,004
-604,386	1,449	0,092	0,049
-603,371	-178,792	-0,113	0,002
-602,357	-134,638	-0,140	-0,012
-601,342	-31,295	-0,151	-0,062
-600,328	800,000	0,035	-0,100
-599,313	390,141	-0,068	-0,104
-598,298	-200,000	0,007	-0,025
-597,284	132,229	-0,097	-0,092
-596,269	800,000	0,018	0,046
-595,255	141,261	-0,020	-0,020
-594,240	-133,832	-0,068	-0,006
-593,225	71,212	-0,178	-0,135
-592,211	6,766	-0,055	0,030
-591,196	-86,967	0,061	-0,013
-590,182	800,000	0,071	0,147
-589,167	88,573	-0,053	-0,043
-588,152	733,010	-0,021	-0,041
-587,138	-137,690	0,069	-0,006
-586,123	81,231	-0,068	-0,054
-585,109	-200,000	-0,010	-0,037
-584,094	-111,223	0,111	-0,016
-583,079	629,767	-0,038	0,071
-582,065	221,985	0,136	0,161
-581,050	-200,000	0,003	0,032
-580,036	-155,118	-0,012	0,001
-579,021	800,000	0,016	-0,048
-578,006	248,313	0,009	0,011
-576,992	-200,000	0,016	-0,072
-575,977	298,289	-0,062	0,084
-574,963	22,249	0,074	-0,044
-573,948	233,151	-0,032	-0,039
-572,934	-200,000	0,031	-0,109
-571,919	-175,733	0,042	-0,001
-570,904	800,000	-0,087	-0,210
-569,890	773,260	-0,064	-0,128
-568,875	46,663	-0,110	-0,075
-567,861	-200,000	0,015	-0,064
-566,846	-200,000	0,001	0,069
-565,831	122,853	-0,056	0,051
-564,817	126,734	-0,068	0,063
-563,802	-200,000	-0,000	0,108
-562,788	-59,418	-0,158	-0,049
-561,773	-78,553	0,147	-0,037
-560,758	-200,000	-0,005	0,085
-559,744	800,000	0,046	0,129
-558,729	800,000	-0,048	0,107
-557,715	-66,496	-0,131	0,038
-556,700	-37,778	0,099	-0,039
-555,685	642,125	-0,031	0,057
-554,671	10,800	0,086	0,048
-553,656	604,785	0,045	0,082
-552,642	-200,000	0,001	0,034
-551,627	382,459	0,048	0,072
-550,612	62,695	-0,049	0,036
-549,598	195,487	-0,077	-0,085
-548,583	800,000	-0,018	0,038
-547,569	800,000	0,026	0,057
-546,554	800,000	0,032	0,068
-545,539	-71,484	-0,092	0,025
-544,525	-10,715	0,054	-0,026
-543,510	-62,959	-0,145	-0,044
-542,496	585,239	-0,010	-0,018
-541,481	800,000	-0,066	-0,139
-540,466	-200,000	0,017	-0,083
-539,452	-200,000	0,024	-0,100
-538,437	-81,223	0,119	0,029
-537,423	84,945	-0,016	0,013
-536,408	103,582	-0,063	-0,054
-535,393	236,908	-0,038	-0,046
-534,379	158,605	0,029	-0,029
-533,364	323,391	0,072	-0,100
-532,350	352,973	0,078	-0,114
-531,335	-25,491	-0,039	0,017
-530,321	243,526	-0,084	0,103
-529,306	-148,304	-0,180	-0,011
-528,291	-200,000	-0,028	-0,096
-527,277	800,000	-0,048	-0,147
-526,262	-200,000	-0,015	0,134
-525,248	196,245	-0,075	-0,084
-524,233	800,000	0,042	0,088
-523,218	554,786	0,052	0,092
-522,204	266,516	0,051	0,065
-521,189	-146,764	-0,142	-0,009
-520,175	-116,614	0,063	0,008
-519,160	800,000	-0,028	-0,064
-518,145	-200,000	0,004	-0,025
-517,131	-118,764	-0,047	-0,006
-516,116	800,000	0,064	0,170
-515,102	498,583	0,022	-0,037
-514,087	-40,852	-0,079	0,030
-513,072	-16,375	-0,096	0,044
-512,058	-200,000	0,007	-0,033
-511,043	-48,978	0,061	-0,021
-510,029	404,398	0,019	-0,030
-509,014	800,000	-0,041	-0,086
-507,999	-200,000	0,007	0,050
-506,985	-200,000	0,002	-0,031
-505,970	307,860	0,070	0,096
-504,956	45,241	-0,081	-0,054
-503,941	64,056	0,058	-0,043
-502,926	-56,462	0,140	0,045
-501,912	-148,031	0,074	0,004
-500,897	763,387	-0,024	-0,047
-499,883	-85,999	0,131	-0,029
-498,868	800,000	0,018	-0,050
-497,853	66,309	0,077	-0,057
-496,839	371,333	-0,043	-0,063
-495,824	-200,000	-0,016	0,110
-494,810	730,069	0,051	0,100
-493,795	-6,631	0,006	0,003
-492,781	-67,441	-0,113	-0,032
-491,766	-146,221	0,077	-0,005
-490,751	86,184	-0,144	-0,115
-489,737	234,458	-0,092	-0,112
-488,722	-41,495	0,086	0,032
-487,708	353,461	-0,014	-0,021
-486,693	-182,092	0,109	-0,001
-485,678	-68,994	-0,063	-0,018
-484,664	800,000	-0,016	0,036
-483,649	-110,226	-0,065	-0,010
-482,635	439,843	0,035	-0,056
-481,620	250,608	0,027	-0,033
-480,605	-200,000	-0,004	-0,050
-479,591	-96,524	-0,060	0,011
-478,576	116,159	0,003	-0,003
-477,562	-119,244	-0,106	-0,013
-476,547	451,053	-0,010	-0,017
-475,532	-76,909	0,061	-0,015
-474,518	-200,000	0,003	0,072
-473,503	89,531	0,065	0,053
-472,489	481,386	-0,039	-0,064
-471,474	-200,000	-0,015	-0,051
-470,459	295,176	0,097	0,129
-469,445	52,873	0,044	-0,030
-468,430	-58,381	-0,073	-0,023
-467,416	669,341	-0,031	0,059
-466,401	-60,144	0,169	-0,052
-465,386	758,661	0,085	0,169
-464,372	-20,478	0,022	0,010
-463,357	-200,000	0,024	-0,086
-462,343	-80,137	0,079	0,019
-461,328	-200,000	-0,013	-0,065
-460,313	462,985	0,068	0,111
-459,299	-200,000	0,014	-0,049
-458,284	-65,649	0,126	0,037
-457,270	-31,481	-0,117	0,048
-456,255	800,000	-0,022	-0,056
-455,241	-10,340	-0,136	-0,066
-454,226	-60,558	0,097	0,030
-453,211	112,029	0,050	0,044
-452,197	283,380	0,036	-0,047
-451,182	-152,441	0,138	-0,007
-450,168	-200,000	-0,015	-0,063
-449,153	31,191	0,072	-0,045
-448,138	-65,967	-0,072	-0,021
-447,124	-194,805	0,038	-0,000
-446,109	476,546	-0,053	0,087
-445,095	-24,589	0,136	0,059
-444,080	95,041	0,049	-0,040
-443,065	22,987	-0,080	0,048
-442,051	456,657	-0,054	-0,088
-441,036	800,000	-0,043	0,137
-440,022	-133,834	0,102	-0,009
-439,007	-29,877	-0,044	0,018
-437,992	-200,000	-0,004	-0,056
-436,978	-200,000	-0,019	-0,170
-435,963	362,667	0,057	-0,084
-434,949	-131,978	-0,108	0,010
-433,934	185,551	0,041	-0,045
-432,919	473,728	-0,060	-0,099
-431,905	-200,000	-0,041	-0,238
-430,890	52,281	0,125	-0,087
-429,876	-97,929	-0,008	0,002
-428,861	527,320	0,031	0,054
-427,846	93,316	-0,018	-0,015
-426,832	-200,000	0,014	-0,124
-425,817	-200,000	-0,006	-0,155
-424,803	-200,000	0,019	-0,211
-423,788	-200,000	0,021	-0,095
-422,773	-117,712	0,093	0,012
-421,759	173,655	0,099	0,104
-420,744	60,551	-0,048	0,034
-419,730	-136,458	0,090	0,007
-418,715	619,376	0,027	-0,051
-417,701	-200,000	-0,005	-0,054
-416,686	-85,933	0,116	0,026
-415,671	-200,000	0,014	0,083
-414,657	453,238	0,073	0,117
-413,642	-148,811	-0,064	-0,004
-412,628	112,715	0,039	0,034
-411,613	617,687	-0,034	-0,062
-410,598	13,361	0,061	-0,034
-409,584	-13,377	0,019	-0,009
-408,569	29,632	0,180	0,111
-407,555	-200,000	-0,004	0,028
-406,540	-163,350	0,028	-0,001
-405,525	200,992	-0,126	0,141
-404,511	194,582	-0,042	-0,046
-403,496	-200,000	-0,023	0,089
-402,482	800,000	0,040	0,111
-401,467	32,103	0,149	-0,093
-400,452	-200,000	0,011	0,056
-399,438	-200,000	0,029	0,119
-398,423	365,727	0,061	0,089
-397,409	-200,000	0,026	-0,128
-396,394	-200,000	0,032	-0,161
-395,379	160,146	-0,021	0,021
-394,365	15,785	0,054	0,031
-393,350	202,219	0,053	-0,060
-392,336	284,576	0,006	-0,008
-391,321	-200,000	0,006	0,043
-390,306	-200,000	-0,007	-0,071
-389,292	80,866	-0,152	-0,119
-388,277	-200,000	0,029	0,123
-387,263	98,509	0,156	0,130
-386,248	-86,881	0,052	0,011
-385,233	-74,677	0,038	-0,010
-384,219	12,891	0,124	-0,069
-383,204	-200,000	-0,006	-0,046
-382,190	800,000	-0,018	-0,041
-381,175	-112,087	-0,044	-0,006
-380,160	800,000	0,032	-0,093
-379,146	243,216	0,023	-0,027
-378,131	-200,000	-0,004	0,122
-377,117	-200,000	-0,008	-0,078
-376,102	-3,110	-0,172	-0,087
-375,088	35,463	0,095	-0,060
-374,073	-177,532	0,094	0,002
-373,058	-58,185	0,113	0,035
-372,044	800,000	0,045	0,114
-371,029	373,198	-0,015	0,022
-370,015	65,762	0,011	-0,008
-369,000	-200,000	-0,029	-0,208
-367,985	-60,305	-0,147	-0,045
-366,971	152,307	0,075	0,074
-365,956	242,425	0,047	0,057
-364,942	30,971	-0,171	0,106
-363,927	336,142	0,062	-0,087
-362,912	58,629	-0,094	-0,067
-361,898	79,241	-0,069	0,054
-360,883	-29,512	0,177	-0,073
-359,869	-200,000	0,027	-0,124
-358,854	236,233	0,032	-0,038
-357,839	-200,000	-0,003	0,067
-356,825	-60,145	0,072	0,022
-355,810	-125,835	-0,042	-0,005
-354,796	800,000	-0,019	0,039
-353,781	-120,054	-0,117	-0,014
-352,766	800,000	-0,032	0,069
-351,752	93,850	-0,064	0,053
-350,737	-121,569	-0,055	0,007
-349,723	576,200	-0,035	0,062
-348,708	800,000	-0,020	0,048
-347,693	140,788	-0,055	-0,053
-346,679	-200,000	-0,008	-0,076
-345,664	-200,000	-0,001	-0,018
-344,650	-47,939	-0,058	0,020
-343,635	800,000	0,050	0,136
-342,620	-200,000	-0,004	0,094
-341,606	132,894	0,131	0,123
-340,591	800,000	-0,044	-0,090
-339,577	-47,689	-0,024	-0,009
-338,562	-69,612	-0,109	0,030
-337,548	-200,000	-0,002	0,016
-336,533	-91,504	0,162	0,033
-335,518	8,557	0,099	-0,054
-334,504	202,668	-0,035	0,039
-333,489	-108,784	-0,020	0,003
-332,475	541,438	-0,067	-0,116
-331,460	-200,000	0,035	-0,000
-330,445	-200,000	0,030	-0,129
-329,431	175,830	0,149	0,157
-328,416	233,713	-0,128	0,154
-327,402	-8,967	-0,070	0,034
-326,387	73,998	-0,004	-0,003
-325,372	-33,611	-0,092	0,037
-324,358	800,000	0,030	-0,072
-323,343	-138,963	-0,117	-0,009
-322,329	32,359	-0,059	0,037
-321,314	161,088	-0,085	0,086
-320,299	-4,557	0,052	0,026
-319,285	-200,000	0,005	-0,152
-318,270	401,535	-0,067	-0,103
-317,256	210,900	0,055	-0,063
-316,241	-21,425	-0,168	0,074
-315,226	-102,066	0,019	0,003
-314,212	800,000	-0,019	0,056
-313,197	215,252	0,029	0,033
-312,183	800,000	0,050	0,117
-311,168	22,315	0,105	-0,062
-310,153	800,000	-0,028	0,075
-309,139	115,627	-0,032	-0,028
-308,124	61,640	0,061	0,044
-307,110	-75,356	0,066	-0,017
-306,095	-200,000	-0,017	0,067
-305,080	-95,238	0,179	0,035
-304,066	-200,000	-0,001	-0,124
-303,051	-200,000	-0,011	-0,125
-302,037	-0,429	-0,047	-0,024
-301,022	44,671	-0,092	-0,061
-300,008	389,741	0,020	-0,030
-298,993	313,257	-0,101	0,138
-297,978	-200,000	0,023	0,087
-296,964	456,656	-0,074	0,119
-295,949	-88,133	0,041	-0,009
-294,935	800,000	-0,025	-0,062
-293,920	145,409	0,112	0,108
-292,905	800,000	0,017	0,039
-291,891	800,000	-0,033	-0,077
-290,876	-174,662	-0,134	-0,003
-289,862	283,377	0,103	0,134
-288,847	71,462	-0,095	-0,072
-287,832	136,757	-0,075	0,071
-286,818	-146,722	-0,131	0,008
-285,803	134,019	0,058	0,055
-284,789	800,000	0,014	0,030
-283,774	-98,439	0,151	0,028
-282,759	71,714	-0,044	-0,033
-281,745	-99,035	-0,132	-0,024
-280,730	-65,032	0,138	0,040
-279,716	-127,014	-0,254	0,027
-278,701	436,180	0,045	-0,071
-277,686	203,156	0,064	0,072
-276,672	-102,897	0,131	-0,022
-275,657	-42,706	0,100	0,037
-274,643	-179,121	-0,075	0,001
-273,628	-200,000	-0,010	0,038
-272,613	63,591	0,018	-0,013
-271,599	800,000	0,026	0,078
-270,584	-200,000	0,045	0,190
-269,570	214,902	0,072	0,083
-268,555	293,512	0,081	0,107
-267,540	-14,205	-0,055	-0,025
-266,526	-58,641	0,134	-0,042
-265,511	-101,843	-0,082	-0,014
-264,497	105,070	-0,088	-0,075
-263,482	-200,000	-0,005	0,136
-262,467	-200,000	-0,001	0,009
-261,453	195,918	-0,077	0,085
-260,438	-200,000	-0,035	-0,155
-259,424	477,775	-0,049	-0,081
-258,409	-61,638	-0,110	-0,033
-257,395	800,000	0,034	0,069
-256,380	-107,763	0,154	0,024
-255,365	-200,000	-0,001	0,061
-254,351	-37,814	-0,089	-0,034
-253,336	-25,702	-0,054	-0,023
-252,322	-200,000	0,028	0,122
-251,307	-200,000	0,035	-0,125
-250,292	47,945	-0,061	-0,041
-249,278	77,233	-0,042	0,033
-248,263	800,000	0,028	0,063
-247,249	-200,000	-0,008	-0,036
-246,234	133,700	0,057	0,053
-245,219	-200,000	-0,052	-0,185
-244,205	165,639	0,074	-0,076
-243,190	-200,000	-0,007	0,029
-242,176	800,000	-0,025	0,057
-241,161	150,779	0,079	-0,078
-240,146	366,608	0,056	0,081
-239,132	517,734	-0,078	0,133
-238,117	-200,000	-0,025	-0,083
-237,103	612,411	0,037	-0,068
-236,088	800,000	0,044	0,088
-235,073	-196,833	-0,036	-0,000
-234,059	63,683	0,031	-0,022
-233,044	800,000	-0,044	0,109
-232,030	-30,022	0,052	0,021
-231,015	-200,000	-0,002	-0,012
-230,000	-113,558	0,063	0,009
-228,986	-50,025	0,050	-0,017
-227,971	182,189	0,040	0,042
-226,957	-200,000	0,012	0,129
-225,942	-12,846	-0,128	0,060
-224,927	-77,070	0,090	-0,023
-223,913	461,190	-0,033	0,053
-222,898	394,927	0,027	-0,040
-221,884	225,702	0,056	0,066
-220,869	-51,623	0,095	0,032
-219,855	289,136	-0,094	0,123
-218,840	-161,830	0,173	-0,006
-217,825	-107,666	0,143	-0,022
-216,811	800,000	-0,042	-0,117
-215,796	-200,000	-0,017	-0,217
-214,782	-75,404	0,113	0,029
-213,767	-200,000	-0,048	0,000
-212,752	-200,000	0,033	0,107
-211,738	-200,000	0,006	0,046
-210,723	-72,610	0,065	0,017
-209,709	243,710	-0,052	-0,063
-208,694	800,000	0,053	-0,111
-207,679	-30,023	0,026	0,011
-206,665	-200,000	0,027	0,116
-205,650	709,644	0,052	0,100
-204,636	117,604	-0,076	0,067
-203,621	495,354	0,050	0,083
-202,606	800,000	-0,027	0,061
-201,592	-89,315	-0,148	-0,031
-200,577	401,424	-0,062	-0,095
-199,563	46,612	0,066	-0,044
-198,548	-23,727	-0,097	0,042
-197,533	-200,000	0,005	-0,047
-196,519	267,907	-0,024	0,030
-195,504	-27,729	-0,009	-0,004
-194,490	800,000	-0,024	-0,051
-193,475	800,000	-0,037	-0,099
-192,460	-200,000	0,012	-0,060
-191,446	-46,620	0,158	0,056
-190,431	239,855	-0,068	0,081
-189,417	1,563	0,041	0,021
-188,402	-144,140	0,053	-0,004
-187,387	243,976	-0,104	-0,127
-186,373	-161,275	0,037	0,001
-185,358	-200,000	-0,019	-0,082
-184,344	800,000	0,081	0,179
-183,329	-200,000	-0,027	0,228
-182,315	661,434	0,021	0,039
-181,300	-200,000	-0,008	0,035
-180,285	-200,000	0,012	-0,089
-179,271	-37,330	-0,096	-0,037
-178,256	-200,000	0,028	0,180
-177,242	800,000	-0,039	-0,108
-176,227	-200,000	-0,005	-0,075
-175,212	53,406	0,064	-0,044
-174,198	-200,000	0,025	-0,139
-173,183	263,449	-0,056	0,071
-172,169	261,769	0,052	-0,065
-171,154	-41,371	-0,079	-0,029
-170,139	189,944	0,084	0,091
-169,125	684,280	0,074	0,140
-168,110	-11,387	0,135	0,064
-167,096	-200,000	0,020	0,104
-166,081	800,000	0,045	-0,111
-165,066	-148,655	0,064	0,004
-164,052	-124,939	0,038	0,004
-163,037	143,330	0,064	-0,062
-162,023	140,919	-0,096	0,091
-161,008	800,000	-0,040	-0,081
-159,993	12,538	0,097	-0,054
-158,979	-190,717	-0,101	-0,001
-157,964	207,353	0,107	0,120
-156,950	-104,960	-0,057	-0,009
-155,935	800,000	0,055	0,128
-154,920	119,135	-0,077	0,069
-153,906	-200,000	0,014	0,081
-152,891	-94,284	-0,054	-0,010
-151,877	-71,371	-0,090	-0,024
-150,862	-200,000	0,018	0,090
-149,847	66,771	0,088	-0,064
-148,833	143,684	0,048	-0,047
-147,818	289,376	0,084	-0,110
-146,804	172,792	0,040	0,042
-145,789	800,000	-0,021	0,050
-144,775	701,451	-0,039	-0,074
-143,760	304,411	0,038	0,051
-142,745	800,000	-0,006	-0,017
-141,731	-165,068	0,094	0,003
-140,716	48,793	0,089	0,060
-139,702	-200,000	0,019	0,096
-138,687	47,059	-0,105	-0,070
-137,672	-79,277	-0,074	-0,018
-136,658	199,775	-0,027	-0,030
-135,643	117,853	-0,121	-0,107
-134,629	-74,184	0,058	0,015
-133,614	800,000	0,012	-0,026
-132,599	29,268	0,149	-0,091
-131,585	-200,000	-0,005	0,156
-130,570	-200,000	0,022	0,132
-129,556	-200,000	0,022	-0,093
-128,541	-200,000	0,003	0,022
-127,526	-200,000	-0,006	0,057
-126,512	-179,631	0,028	-0,000
-125,497	-14,818	0,048	0,022
-124,483	116,374	0,053	0,047
-123,468	476,987	-0,032	0,053
-122,453	97,648	0,122	-0,101
-121,439	-8,442	-0,123	0,059
-120,424	-200,000	0,001	-0,037
-119,410	163,784	-0,070	-0,071
