DTS Sentinel unit serial number:	SN410029Multiplexer serial number:	ORYXHardware model number:	OX2-SRSoftware version number:	ORYX F/W v4,00 Oryx Data Collector v3.7.2.0data status	okinstallation	B5 Nyhavnadifferential loss correction	single-endedforward channel	channel 2reverse channel	N/Adate	2023/12/13time	18:57:13forward acquisition time	300,00reverse acquisition time	0,00gamma	499,1914k internal	0,3160k external	0,3160temperature offset calibration	1,0000default loss term (dB/km)	0,3820temperature slope calibration	1,0000multiplexer offset coefficient	1,0000multiplexer slope coefficient	1,0000fibre end	0,00T internal ref (°C)	12,23T ext. ref 1 (°C)	-4,91T ext. ref 2 (°C)	-4,96length (m)	temperature (°C)	Stokes	anti-Stokes-744,400	-134,345	0,173	0,015
-743,385	-73,485	-0,236	-0,063
-742,371	220,799	0,089	0,106
-741,356	-62,935	-0,284	-0,086
-740,342	-74,706	0,113	0,030
-739,327	-107,164	-0,383	-0,062
-738,312	292,710	-0,039	0,052
-737,298	-13,066	-0,352	-0,168
-736,283	136,271	0,037	-0,035
-735,269	-77,811	-0,293	0,074
-734,254	265,462	0,171	0,220
-733,239	-0,096	-0,432	-0,226
-732,225	8,046	0,127	-0,070
-731,210	242,557	-0,092	0,114
-730,196	511,599	0,053	-0,092
-729,181	102,472	-0,059	-0,050
-728,167	-200,000	0,003	-0,017
-727,152	-97,792	-0,090	-0,017
-726,137	92,214	-0,054	0,045
-725,123	-1,542	-0,079	-0,041
-724,108	800,000	-0,046	-0,147
-723,094	255,164	-0,054	-0,069
-722,079	-200,000	0,001	-0,033
-721,064	-158,881	-0,073	-0,003
-720,050	567,450	-0,042	0,075
-719,035	800,000	-0,043	-0,127
-718,021	71,430	-0,107	0,082
-717,006	226,495	0,045	-0,054
-715,991	-116,808	-0,148	-0,020
-714,977	44,646	-0,130	0,088
-713,962	-10,213	-0,087	-0,042
-712,948	-115,025	0,125	-0,017
-711,933	-137,332	-0,141	0,012
-710,918	-200,000	-0,015	-0,086
-709,904	800,000	-0,061	-0,130
-708,889	-121,896	-0,178	0,021
-707,875	-20,794	-0,011	0,005
-706,860	183,695	0,039	0,043
-705,845	255,956	0,024	-0,031
-704,831	-119,936	-0,067	-0,008
-703,816	-24,783	-0,118	-0,051
-702,802	150,233	-0,056	-0,056
-701,787	190,550	0,018	-0,020
-700,772	-17,154	-0,035	0,016
-699,758	713,622	-0,039	-0,077
-698,743	-200,000	0,022	-0,178
-697,729	153,631	-0,054	-0,055
-696,714	-200,000	-0,024	-0,096
-695,699	234,561	0,102	0,123
-694,685	56,404	-0,028	-0,020
-693,670	420,277	-0,069	0,109
-692,656	-94,217	0,058	0,012
-691,641	-26,869	0,110	-0,047
-690,627	800,000	0,075	0,191
-689,612	800,000	0,039	0,082
-688,597	65,093	-0,037	0,027
-687,583	-157,929	-0,041	-0,002
-686,568	-200,000	-0,005	-0,091
-685,554	800,000	0,049	-0,143
-684,539	420,175	0,050	-0,079
-683,524	-200,000	0,006	0,072
-682,510	-120,717	0,033	0,004
-681,495	222,633	-0,030	-0,035
-680,481	300,168	0,028	-0,038
-679,466	-200,000	-0,008	-0,055
-678,451	-87,386	0,075	-0,017
-677,437	-200,000	0,001	0,030
-676,422	-200,000	0,003	0,044
-675,408	-200,000	-0,013	-0,103
-674,393	-64,370	0,200	0,059
-673,378	-99,206	-0,198	0,036
-672,364	711,563	0,025	-0,049
-671,349	32,281	0,049	0,031
-670,335	-87,457	-0,022	-0,005
-669,320	201,512	-0,084	0,095
-668,305	124,388	0,116	0,107
-667,291	-52,303	-0,050	-0,017
-666,276	800,000	0,009	-0,027
-665,262	-90,541	-0,116	-0,024
-664,247	800,000	0,022	0,049
-663,232	800,000	-0,022	-0,069
-662,218	-55,110	-0,057	-0,019
-661,203	-200,000	-0,022	0,138
-660,189	126,899	-0,087	0,081
-659,174	393,559	-0,044	0,068
-658,159	800,000	0,029	-0,076
-657,145	173,707	-0,100	-0,106
-656,130	261,585	0,036	-0,046
-655,116	-52,947	-0,262	-0,088
-654,101	510,508	0,018	0,031
-653,086	800,000	0,057	-0,141
-652,072	800,000	0,025	-0,052
-651,057	70,737	0,076	-0,058
-650,043	-200,000	-0,031	-0,236
-649,028	153,008	0,065	-0,065
-648,014	39,681	0,085	-0,056
-646,999	55,375	-0,114	0,081
-645,984	800,000	0,031	0,068
-644,970	107,161	0,087	0,076
-643,955	639,771	-0,069	-0,129
-642,941	-46,961	0,086	0,031
-641,926	-77,345	0,065	0,016
-640,911	-200,000	-0,014	0,138
-639,897	117,549	-0,070	0,063
-638,882	86,391	-0,084	0,068
-637,868	800,000	-0,048	-0,117
-636,853	800,000	-0,048	-0,111
-635,838	273,043	0,054	0,070
-634,824	160,316	0,031	0,032
-633,809	-47,027	0,058	0,021
-632,795	173,551	-0,102	0,108
-631,780	-200,000	-0,012	-0,060
-630,765	-200,000	-0,024	-0,130
-629,751	-200,000	0,004	-0,019
-628,736	800,000	0,064	-0,162
-627,722	-200,000	-0,021	-0,109
-626,707	800,000	-0,008	0,023
-625,692	-169,709	-0,062	-0,002
-624,678	47,692	-0,108	-0,074
-623,663	215,699	0,097	0,113
-622,649	-19,840	-0,058	0,026
-621,634	170,695	0,077	-0,081
-620,619	238,279	-0,106	-0,130
-619,605	-24,830	0,058	-0,025
-618,590	-200,000	0,009	-0,046
-617,576	-97,880	0,016	-0,003
-616,561	-7,740	-0,042	0,021
-615,546	-64,633	-0,133	0,039
-614,532	-7,566	0,081	-0,040
-613,517	275,947	-0,036	0,047
-612,503	25,151	-0,034	-0,020
-611,488	22,644	0,045	-0,027
-610,474	218,248	-0,047	-0,055
-609,459	161,492	-0,035	0,036
-608,444	-169,240	0,051	0,001
-607,430	800,000	-0,061	-0,183
-606,415	-104,745	-0,191	-0,032
-605,401	-113,332	0,111	0,016
-604,386	-200,000	0,002	0,055
-603,371	-200,000	-0,009	-0,044
-602,357	-93,259	-0,086	0,017
-601,342	27,325	-0,023	0,014
-600,328	175,244	-0,047	-0,050
-599,313	6,612	0,070	0,038
-598,298	-200,000	0,013	0,335
-597,284	800,000	0,042	0,131
-596,269	-200,000	-0,009	-0,093
-595,255	-200,000	0,001	0,168
-594,240	-30,989	-0,098	0,040
-593,225	83,405	-0,046	0,037
-592,211	304,081	0,109	-0,149
-591,196	800,000	0,028	-0,073
-590,182	-200,000	0,000	-0,061
-589,167	68,763	0,083	0,062
-588,152	454,656	0,012	-0,019
-587,138	92,679	0,068	-0,057
-586,123	-67,040	-0,169	-0,049
-585,109	612,717	-0,022	0,040
-584,094	-200,000	0,006	0,060
-583,079	102,339	-0,113	0,097
-582,065	800,000	-0,022	0,062
-581,050	72,317	0,108	-0,082
-580,036	-120,332	-0,096	0,012
-579,021	143,268	0,057	0,056
-578,006	-200,000	0,035	0,000
-576,992	3,341	-0,111	-0,059
-575,977	-182,465	0,061	-0,001
-574,963	-64,123	0,117	0,035
-573,948	63,204	0,055	-0,040
-572,934	800,000	-0,049	0,106
-571,919	286,194	0,007	0,010
-570,904	-200,000	0,010	-0,096
-569,890	-200,000	-0,011	-0,041
-568,875	184,046	0,016	0,017
-567,861	-200,000	-0,029	0,157
-566,846	281,876	-0,052	0,068
-565,831	-133,228	0,095	-0,009
-564,817	-45,194	-0,086	-0,031
-563,802	207,602	-0,043	0,049
-562,788	-200,000	0,015	-0,109
-561,773	25,380	0,074	0,045
-560,758	-74,822	0,060	0,016
-559,744	800,000	-0,018	-0,040
-558,729	800,000	0,056	0,114
-557,715	-58,085	-0,185	-0,059
-556,700	-200,000	-0,033	-0,187
-555,685	-104,100	-0,179	0,030
-554,671	40,099	0,068	0,044
-553,656	281,672	0,035	0,047
-552,642	37,153	-0,009	-0,006
-551,627	-200,000	0,001	-0,091
-550,612	56,742	0,033	0,023
-549,598	54,465	-0,076	0,053
-548,583	-200,000	0,003	-0,020
-547,569	399,686	-0,057	0,088
-546,554	-200,000	0,006	0,048
-545,539	-55,727	0,067	-0,022
-544,525	-200,000	-0,004	-0,018
-543,510	660,922	0,017	-0,032
-542,496	422,258	0,068	-0,107
-541,481	800,000	-0,048	-0,144
-540,466	230,459	0,085	-0,102
-539,452	-141,159	0,033	0,002
-538,437	800,000	-0,055	0,153
-537,423	800,000	-0,046	0,099
-536,408	487,539	0,030	-0,050
-535,393	-46,826	0,108	-0,038
-534,379	277,330	-0,084	0,110
-533,364	56,535	0,016	-0,012
-532,350	-200,000	-0,012	-0,094
-531,335	-119,247	0,124	0,016
-530,321	-95,967	-0,125	0,024
-529,306	631,209	0,033	-0,061
-528,291	361,088	-0,028	-0,042
-527,277	-200,000	0,002	0,020
-526,262	19,594	0,156	0,092
-525,248	5,228	-0,092	0,050
-524,233	-200,000	0,014	-0,127
-523,218	-14,999	0,086	0,040
-522,204	-8,872	0,028	-0,014
-521,189	78,950	-0,117	0,092
-520,175	800,000	0,021	-0,056
-519,160	-200,000	0,020	-0,155
-518,145	-29,522	0,025	0,010
-517,131	-200,000	-0,009	-0,091
-516,116	800,000	-0,040	0,107
-515,102	-31,971	0,027	-0,011
-514,087	135,876	0,012	0,011
-513,072	-200,000	-0,005	-0,100
-512,058	747,584	-0,020	0,039
-511,043	304,399	-0,071	0,096
-510,029	-200,000	0,025	0,197
-509,014	360,365	-0,091	0,133
-507,999	107,233	-0,121	0,105
-506,985	800,000	-0,033	-0,104
-505,970	-117,492	-0,146	0,019
-504,956	800,000	-0,012	-0,035
-503,941	-76,886	0,080	-0,020
-502,926	-200,000	0,013	-0,088
-501,912	800,000	0,023	0,073
-500,897	51,742	-0,078	-0,054
-499,883	-200,000	0,180	0,000
-498,868	800,000	-0,031	0,075
-497,853	800,000	0,027	0,077
-496,839	74,643	0,039	-0,030
-495,824	-200,000	-0,003	0,013
-494,810	13,334	-0,047	-0,026
-493,795	-200,000	-0,002	-0,101
-492,781	426,214	0,029	0,045
-491,766	-161,245	0,122	-0,005
-490,751	237,438	-0,153	-0,185
-489,737	-78,811	0,030	0,007
-488,722	242,022	0,138	0,168
-487,708	800,000	-0,030	-0,090
-486,693	-200,000	0,033	0,000
-485,678	253,341	-0,060	0,075
-484,664	-94,339	-0,069	0,014
-483,649	614,565	0,027	0,050
-482,635	-18,183	0,079	-0,036
-481,620	262,886	0,062	-0,079
-480,605	58,012	0,080	0,057
-479,591	800,000	-0,029	0,083
-478,576	-200,000	0,022	-0,125
-477,562	-200,000	-0,000	-0,052
-476,547	-200,000	0,027	-0,103
-475,532	-200,000	-0,006	0,061
-474,518	66,588	0,088	-0,065
-473,503	472,891	0,069	-0,114
-472,489	-18,989	0,064	0,029
-471,474	-46,868	-0,108	-0,038
-470,459	-137,292	-0,074	0,006
-469,445	-200,000	0,001	0,075
-468,430	-65,950	0,043	0,012
-467,416	19,005	-0,009	0,005
-466,401	-200,000	-0,011	-0,098
-465,386	-10,297	0,072	-0,035
-464,372	-200,000	-0,008	0,071
-463,357	800,000	0,049	-0,143
-462,343	-200,000	-0,012	0,052
-461,328	240,472	-0,105	-0,127
-460,313	-92,644	0,090	0,018
-459,299	-22,478	0,175	0,077
-458,284	-87,268	0,129	-0,028
-457,270	-6,399	-0,094	-0,046
-456,255	78,908	-0,022	-0,017
-455,241	-68,945	-0,091	-0,025
-454,226	126,241	-0,136	0,125
-453,211	-58,430	-0,145	0,046
-452,197	199,921	0,097	0,109
-451,182	-157,284	0,155	-0,007
-450,168	-200,000	0,051	0,177
-449,153	16,334	0,089	-0,051
-448,138	-200,000	-0,012	-0,102
-447,124	136,256	-0,070	-0,067
-446,109	800,000	-0,011	-0,036
-445,095	-187,826	-0,187	-0,002
-444,080	120,273	0,057	-0,051
-443,065	17,489	0,103	-0,059
-442,051	132,160	-0,027	0,026
-441,036	536,274	-0,040	0,069
-440,022	113,758	-0,113	0,100
-439,007	184,702	0,021	-0,023
-437,992	313,152	0,041	-0,057
-436,978	221,284	0,063	-0,074
-435,963	27,606	0,017	0,011
-434,949	176,430	-0,034	0,036
-433,934	-200,000	0,014	-0,104
-432,919	106,218	-0,033	-0,029
-431,905	-114,795	0,060	0,008
-430,890	-200,000	-0,010	-0,116
-429,876	112,367	0,083	0,073
-428,861	8,719	-0,104	-0,057
-427,846	-88,794	-0,069	0,015
-426,832	-165,944	-0,127	0,004
-425,817	89,784	0,064	0,052
-424,803	-98,968	0,114	-0,021
-423,788	163,995	-0,056	-0,057
-422,773	-51,042	0,092	0,031
-421,759	800,000	0,031	0,080
-420,744	299,517	-0,027	0,036
-419,730	-101,268	0,020	-0,004
-418,715	-95,274	-0,089	-0,017
-417,701	-200,000	-0,022	-0,161
-416,686	-9,492	-0,081	-0,039
-415,671	109,535	-0,011	0,010
-414,657	75,978	-0,100	0,077
-413,642	-153,470	0,030	0,001
-412,628	571,554	0,050	-0,089
-411,613	800,000	-0,035	-0,093
-410,598	-184,085	-0,155	0,002
-409,584	187,513	0,066	0,072
-408,569	-200,000	-0,003	0,040
-407,555	-58,876	0,093	0,029
-406,540	34,846	0,070	0,044
-405,525	-200,000	-0,019	-0,114
-404,511	-200,000	0,006	0,079
-403,496	-161,205	-0,117	-0,004
-402,482	1,858	0,061	-0,032
-401,467	354,667	-0,054	-0,079
-400,452	73,543	0,051	-0,039
-399,438	-125,048	0,152	-0,017
-398,423	-16,447	-0,088	-0,040
-397,409	-200,000	-0,042	-0,152
-396,394	44,825	0,046	-0,031
-395,379	-200,000	0,018	-0,081
-394,365	-19,799	0,038	0,017
-393,350	-66,704	0,026	-0,007
-392,336	800,000	-0,030	0,066
-391,321	-200,000	0,016	0,092
-390,306	417,549	-0,039	-0,060
-389,292	-200,000	0,008	-0,109
-388,277	606,771	-0,025	-0,045
-387,263	-200,000	0,027	-0,103
-386,248	112,229	0,084	-0,074
-385,233	-137,957	-0,144	0,012
-384,219	79,149	-0,041	0,032
-383,204	32,409	-0,045	-0,028
-382,190	605,747	-0,030	0,055
-381,175	800,000	0,032	0,095
-380,160	-100,549	0,136	0,024
-379,146	89,088	-0,145	0,117
-378,131	9,351	0,114	0,062
-377,117	-200,000	-0,009	0,053
-376,102	-200,000	0,028	0,165
-375,088	139,064	-0,011	0,011
-374,073	800,000	0,013	-0,039
-373,058	-200,000	0,001	0,090
-372,044	800,000	0,051	0,118
-371,029	143,146	-0,070	0,067
-370,015	-200,000	-0,006	0,082
-369,000	-42,640	-0,111	-0,041
-367,985	337,092	-0,034	-0,048
-366,971	-200,000	-0,034	0,181
-365,956	172,811	-0,082	0,086
-364,942	197,470	0,060	0,067
-363,927	-189,805	0,107	0,001
-362,912	800,000	0,010	-0,022
-361,898	800,000	-0,025	-0,080
-360,883	-21,627	0,146	-0,064
-359,869	237,580	-0,016	0,019
-358,854	-200,000	-0,020	0,164
-357,839	-200,000	-0,004	0,122
-356,825	65,246	-0,072	-0,052
-355,810	-136,720	-0,055	0,005
-354,796	-200,000	0,021	-0,124
-353,781	213,161	0,016	-0,018
-352,766	66,564	-0,026	0,019
-351,752	-200,000	-0,031	0,163
-350,737	-200,000	-0,022	-0,089
-349,723	-122,546	-0,051	-0,006
-348,708	-52,020	-0,038	-0,013
-347,693	-36,874	-0,178	-0,069
-346,679	578,859	0,023	0,041
-345,664	61,049	-0,012	0,009
-344,650	-157,669	-0,077	-0,003
-343,635	230,557	-0,068	-0,081
-342,620	-146,815	0,092	-0,006
-341,606	239,509	0,032	-0,038
-340,591	616,010	0,048	-0,088
-339,577	-16,753	-0,110	0,050
-338,562	-36,198	-0,171	-0,067
-337,548	-18,118	0,087	0,040
-336,533	800,000	0,056	0,117
-335,518	800,000	0,049	0,130
-334,504	-39,369	0,078	0,030
-333,489	800,000	-0,032	0,084
-332,475	253,320	0,063	-0,078
-331,460	333,141	0,036	-0,050
-330,445	164,569	0,023	0,023
-329,431	249,736	0,013	-0,016
-328,416	-37,298	-0,072	0,028
-327,402	113,518	0,112	0,099
-326,387	138,738	-0,140	0,133
-325,372	800,000	-0,009	0,027
-324,358	43,490	-0,092	-0,061
-323,343	800,000	-0,053	-0,118
-322,329	-20,207	-0,022	0,010
-321,314	800,000	0,034	0,082
-320,299	-17,862	0,189	0,086
-319,285	-53,323	-0,055	0,018
-318,270	43,715	-0,065	-0,043
-317,256	-200,000	-0,031	-0,144
-316,241	-99,857	0,086	0,015
-315,226	-116,598	0,066	-0,009
-314,212	37,206	0,120	0,077
-313,197	-200,000	-0,005	-0,063
-312,183	18,781	0,096	-0,055
-311,168	-200,000	-0,007	-0,137
-310,153	800,000	-0,038	0,084
-309,139	384,223	-0,092	0,137
-308,124	-200,000	0,026	-0,128
-307,110	257,034	0,049	0,061
-306,095	501,057	0,029	0,049
-305,080	-98,289	-0,174	-0,032
-304,066	548,118	0,038	-0,065
-303,051	-41,460	-0,040	-0,015
-302,037	401,277	0,025	-0,038
-301,022	-200,000	-0,022	-0,142
-300,008	-121,484	0,075	-0,009
-298,993	-109,553	0,133	-0,020
-297,978	-200,000	-0,004	-0,026
-296,964	-145,725	0,119	-0,008
-295,949	337,748	-0,064	-0,090
-294,935	15,511	0,050	-0,029
-293,920	-72,730	-0,048	-0,013
-292,905	800,000	0,019	-0,042
-291,891	-200,000	-0,032	-0,144
-290,876	-200,000	-0,003	0,057
-289,862	192,974	-0,064	0,070
-288,847	49,494	0,057	-0,039
-287,832	-11,059	-0,095	-0,045
-286,818	-200,000	-0,082	0,000
-285,803	-200,000	0,019	0,165
-284,789	-32,738	-0,098	0,039
-283,774	-29,904	0,167	-0,069
-282,759	-31,715	0,053	0,021
-281,745	-200,000	0,005	-0,063
-280,730	-200,000	0,018	0,128
-279,716	24,540	0,056	-0,033
-278,701	-136,553	-0,157	0,013
-277,686	-104,382	0,054	-0,009
-276,672	-200,000	0,001	-0,098
-275,657	95,948	-0,054	-0,045
-274,643	-10,002	0,055	0,027
-273,628	540,326	-0,070	-0,121
-272,613	-152,116	0,069	-0,004
-271,599	-49,761	0,052	0,018
-270,584	-33,891	0,147	-0,058
-269,570	534,905	0,059	0,102
-268,555	-128,713	0,027	-0,003
-267,540	-2,522	-0,045	0,023
-266,526	-34,535	0,087	0,034
-265,511	800,000	0,031	0,065
-264,497	-100,384	0,099	0,017
-263,482	-200,000	0,003	0,061
-262,467	-200,000	-0,013	-0,070
-261,453	-35,061	-0,082	0,032
-260,438	-117,025	0,070	0,009
-259,424	108,448	-0,101	-0,087
-258,409	45,673	0,026	0,017
-257,395	-200,000	0,020	0,078
-256,380	800,000	-0,043	0,095
-255,365	-68,571	0,142	-0,039
-254,351	-132,037	-0,137	-0,013
-253,336	-55,948	0,025	0,008
-252,322	-200,000	0,012	0,146
-251,307	800,000	0,060	0,136
-250,292	-200,000	0,018	-0,058
-249,278	-73,491	0,104	-0,027
-248,263	47,789	0,101	0,068
-247,249	-96,111	0,099	0,019
-246,234	-54,850	-0,061	-0,020
-245,219	-200,000	0,002	0,166
-244,205	800,000	0,025	-0,055
-243,190	227,691	-0,042	0,049
-242,176	-70,673	0,119	0,032
-241,161	624,697	0,079	0,144
-240,146	-200,000	-0,004	0,095
-239,132	-44,007	0,075	-0,027
-238,117	223,440	0,016	-0,019
-237,103	-29,384	0,028	0,011
-236,088	339,236	-0,070	-0,099
-235,073	800,000	0,027	0,063
-234,059	-80,118	0,061	-0,015
-233,044	-73,497	0,060	0,016
-232,030	-11,548	-0,097	-0,046
-231,015	-119,642	-0,078	0,010
-230,000	234,725	-0,048	-0,058
-228,986	497,616	0,078	0,131
-227,971	117,889	0,097	-0,086
-226,957	-200,000	-0,023	0,102
-225,942	-134,863	-0,071	0,006
-224,927	-200,000	0,003	-0,195
-223,913	-200,000	0,000	-0,114
-222,898	800,000	-0,067	-0,146
-221,884	-200,000	0,008	0,090
-220,869	109,778	0,066	-0,057
-219,855	175,909	0,099	0,104
-218,840	800,000	0,038	0,103
-217,825	168,290	-0,051	0,052
-216,811	-75,732	-0,105	-0,027
-215,796	-66,414	0,066	-0,019
-214,782	800,000	0,039	0,080
-213,767	83,647	0,082	0,065
-212,752	47,211	-0,137	0,092
-211,738	800,000	0,019	0,050
-210,723	481,560	-0,075	0,123
-209,709	325,043	-0,087	-0,120
-208,694	191,116	-0,099	0,107
-207,679	800,000	-0,058	-0,123
-206,665	-200,000	0,024	0,083
-205,650	253,678	-0,057	0,071
-204,636	-200,000	-0,021	0,077
-203,621	800,000	0,024	-0,053
-202,606	-114,421	-0,083	-0,011
-201,592	-173,094	-0,075	-0,002
-200,577	144,593	-0,102	-0,098
-199,563	435,413	0,033	-0,051
-198,548	-200,000	0,004	0,048
-197,533	85,520	-0,100	0,079
-196,519	225,575	0,054	0,064
-195,504	-25,298	-0,086	-0,036
-194,490	800,000	0,074	-0,152
-193,475	97,625	0,021	-0,017
-192,460	59,435	0,064	0,045
-191,446	-200,000	-0,006	0,029
-190,431	90,128	0,117	-0,095
-189,417	-108,994	-0,055	0,008
-188,402	-99,976	-0,072	-0,013
-187,387	26,394	-0,091	-0,055
-186,373	152,098	-0,114	-0,112
-185,358	9,847	-0,129	0,070
-184,344	-200,000	0,010	-0,041
-183,329	-200,000	-0,041	-0,152
-182,315	-200,000	-0,001	0,011
-181,300	-200,000	0,010	-0,105
-180,285	685,788	0,058	0,110
-179,271	-24,109	-0,002	0,001
-178,256	28,545	0,120	-0,073
-177,242	372,326	-0,054	-0,079
-176,227	800,000	-0,009	0,027
-175,212	800,000	-0,054	0,136
-174,198	163,641	0,042	-0,043
-173,183	-116,992	-0,088	0,011
-172,169	-200,000	-0,011	-0,131
-171,154	800,000	0,033	-0,103
-170,139	-77,613	0,048	0,012
-169,125	492,202	-0,072	0,120
-168,110	155,463	-0,052	0,052
-167,096	800,000	0,044	0,119
-166,081	800,000	0,008	0,016
-165,066	-66,369	0,032	-0,009
-164,052	555,631	0,105	-0,182
-163,037	69,251	0,084	0,063
-162,023	-45,330	0,077	0,027
-161,008	-200,000	0,006	-0,034
-159,993	-200,000	0,013	-0,062
-158,979	-200,000	-0,010	-0,100
-157,964	20,564	-0,080	-0,046
-156,950	-200,000	0,011	-0,060
-155,935	49,527	0,173	0,117
-154,920	-200,000	0,000	-0,038
-153,906	0,323	0,035	-0,018
-152,891	800,000	-0,040	0,085
-151,877	-200,000	-0,000	-0,064
-150,862	-200,000	0,002	-0,021
-149,847	638,068	0,029	0,054
-148,833	236,289	0,068	-0,081
-147,818	713,980	-0,011	-0,020
-146,804	-29,919	-0,071	-0,029
-145,789	130,062	-0,056	0,051
-144,775	42,781	0,138	-0,090
-143,760	96,887	-0,100	-0,083
-142,745	197,064	-0,031	0,034
-141,731	-142,916	0,117	-0,008
-140,716	-200,000	0,013	0,063
-139,702	177,013	-0,027	-0,028
-138,687	440,831	0,081	-0,127
-137,672	359,649	-0,058	-0,084
-136,658	651,313	-0,048	-0,089
-135,643	-200,000	0,020	0,132
-134,629	-75,796	-0,011	0,003
-133,614	68,003	-0,103	0,076
-132,599	-16,157	-0,016	-0,007
-131,585	161,753	0,079	-0,079
-130,570	180,436	-0,049	-0,051
-129,556	-25,959	-0,121	0,051
-128,541	147,116	0,039	-0,037
-127,526	507,616	0,079	0,133
-126,512	-52,030	0,071	-0,023
-125,497	23,991	-0,078	0,046
-124,483	135,279	0,077	-0,072
-123,468	-200,000	-0,009	0,102
-122,453	800,000	0,012	0,035
-121,439	-200,000	-0,021	-0,074
-120,424	250,737	-0,116	0,142
-119,410	-200,000	0,006	-0,055
