DTS Sentinel unit serial number:	SN410029Multiplexer serial number:	ORYXHardware model number:	OX2-SRSoftware version number:	ORYX F/W v4,00 Oryx Data Collector v3.7.2.0data status	okinstallation	B5 Nyhavnadifferential loss correction	single-endedforward channel	channel 2reverse channel	N/Adate	2023/12/12time	04:37:13forward acquisition time	300,00reverse acquisition time	0,00gamma	499,1914k internal	0,3157k external	0,3157temperature offset calibration	1,0000default loss term (dB/km)	0,3820temperature slope calibration	1,0000multiplexer offset coefficient	1,0000multiplexer slope coefficient	1,0000fibre end	0,00T internal ref (°C)	15,47T ext. ref 1 (°C)	-0,96T ext. ref 2 (°C)	-1,26length (m)	temperature (°C)	Stokes	anti-Stokes-744,400	-155,810	0,131	0,006
-743,385	-90,109	-0,246	-0,052
-742,371	70,274	0,116	0,088
-741,356	-31,007	-0,254	0,105
-740,342	800,000	0,055	0,166
-739,327	315,336	-0,105	0,146
-738,312	470,933	0,070	0,117
-737,298	-123,401	-0,297	-0,034
-736,283	-34,352	0,046	0,019
-735,269	-12,585	-0,309	0,148
-734,254	-33,122	0,115	-0,047
-733,239	-65,722	-0,531	-0,156
-732,225	-81,888	0,179	0,043
-731,210	214,657	-0,035	0,040
-730,196	800,000	-0,019	-0,046
-729,181	525,263	-0,046	0,080
-728,167	342,300	0,009	-0,012
-727,152	-200,000	0,013	-0,104
-726,137	-200,000	0,007	-0,030
-725,123	172,592	-0,091	0,097
-724,108	64,264	-0,127	-0,094
-723,094	67,204	-0,065	-0,049
-722,079	289,033	-0,129	-0,173
-721,064	-100,749	0,053	0,010
-720,050	-200,000	-0,012	-0,116
-719,035	391,781	0,040	0,062
-718,021	155,104	0,037	0,038
-717,006	-1,778	-0,074	-0,038
-715,991	800,000	-0,044	-0,140
-714,977	-27,558	-0,066	-0,028
-713,962	308,956	0,065	0,089
-712,948	53,761	-0,095	0,067
-711,933	-10,062	-0,119	0,058
-710,918	238,240	-0,109	0,133
-709,904	-200,000	0,002	-0,016
-708,889	422,262	-0,092	-0,146
-707,875	-200,000	-0,012	-0,084
-706,860	151,678	0,071	-0,071
-705,845	80,012	0,122	0,097
-704,831	-200,000	0,018	0,078
-703,816	-43,405	-0,031	0,012
-702,802	7,139	0,022	0,012
-701,787	800,000	0,042	-0,093
-700,772	167,671	0,072	0,076
-699,758	96,417	-0,105	0,088
-698,743	423,082	-0,036	-0,057
-697,729	-53,748	0,048	-0,016
-696,714	122,772	-0,083	0,077
-695,699	128,599	-0,020	0,019
-694,685	-149,364	-0,109	-0,006
-693,670	-159,587	0,072	-0,003
-692,656	75,957	-0,075	-0,059
-691,641	-200,000	-0,004	0,033
-690,627	617,233	-0,039	-0,073
-689,612	-9,413	-0,141	0,069
-688,597	222,493	-0,081	0,096
-687,583	-200,000	-0,004	-0,033
-686,568	27,003	0,121	0,074
-685,554	-160,688	-0,093	0,004
-684,539	47,957	-0,088	-0,060
-683,524	-27,276	0,073	0,031
-682,510	489,139	-0,035	0,059
-681,495	-19,213	-0,090	-0,041
-680,481	-3,105	-0,114	0,058
-679,466	-200,000	0,008	-0,084
-678,451	-88,088	-0,111	0,024
-677,437	-167,563	0,042	0,001
-676,422	800,000	0,072	-0,152
-675,408	-72,555	-0,205	-0,055
-674,393	-200,000	-0,028	0,169
-673,378	-109,841	-0,149	0,023
-672,364	502,401	0,021	-0,035
-671,349	-200,000	-0,051	0,000
-670,335	-66,703	-0,060	-0,017
-669,320	-105,582	-0,101	-0,017
-668,305	-168,211	-0,054	0,002
-667,291	220,894	0,042	-0,050
-666,276	672,304	-0,054	-0,103
-665,262	-200,000	-0,017	-0,079
-664,247	145,188	0,092	-0,090
-663,232	-133,167	-0,081	-0,007
-662,218	-120,390	0,135	-0,017
-661,203	800,000	-0,066	0,173
-660,189	-200,000	-0,010	0,042
-659,174	-28,564	-0,130	-0,055
-658,159	-21,456	0,064	0,029
-657,145	-113,320	-0,107	0,015
-656,130	-200,000	0,006	-0,049
-655,116	800,000	-0,028	-0,074
-654,101	17,972	-0,088	-0,051
-653,086	448,212	-0,027	0,043
-652,072	123,635	-0,076	0,070
-651,057	-200,000	0,040	-0,198
-650,043	-68,912	-0,105	-0,030
-649,028	-61,390	-0,071	0,022
-648,014	63,682	0,124	0,091
-646,999	88,038	0,058	0,047
-645,984	800,000	-0,045	-0,109
-644,970	59,054	0,101	0,073
-643,955	-200,000	-0,008	0,049
-642,941	-54,680	-0,071	-0,023
-641,926	-80,496	-0,045	0,011
-640,911	75,573	0,111	0,086
-639,897	44,755	-0,016	0,011
-638,882	-200,000	-0,015	0,069
-637,868	-137,171	0,021	-0,002
-636,853	570,714	0,043	-0,077
-635,838	83,064	-0,056	0,045
-634,824	-66,160	-0,047	-0,014
-633,809	221,225	0,131	-0,155
-632,795	281,875	0,060	0,079
-631,780	-135,503	-0,076	0,007
-630,765	24,185	-0,049	0,030
-629,751	-24,226	-0,166	0,072
-628,736	31,827	-0,073	0,046
-627,722	156,461	-0,070	0,071
-626,707	-155,703	-0,078	0,004
-625,692	800,000	-0,021	-0,062
-624,678	-151,713	0,086	0,005
-623,663	-28,070	-0,096	0,040
-622,649	291,338	-0,082	-0,110
-621,634	-153,227	0,058	0,003
-620,619	-200,000	0,003	-0,079
-619,605	-200,000	0,022	0,169
-618,590	455,234	0,052	-0,085
-617,576	-146,133	0,064	-0,004
-616,561	-200,000	-0,004	-0,103
-615,546	-200,000	0,003	-0,041
-614,532	-200,000	-0,014	-0,056
-613,517	-200,000	0,021	-0,116
-612,503	-170,008	-0,026	0,001
-611,488	618,106	0,064	-0,118
-610,474	71,148	0,086	0,065
-609,459	266,065	-0,074	0,094
-608,444	516,455	0,024	-0,041
-607,430	800,000	-0,043	-0,136
-606,415	-200,000	-0,025	-0,096
-605,401	-79,019	0,114	-0,028
-604,386	800,000	-0,024	0,057
-603,371	10,973	-0,093	-0,052
-602,357	-200,000	0,011	-0,091
-601,342	-200,000	-0,008	-0,109
-600,328	184,926	0,036	0,039
-599,313	14,601	0,067	0,038
-598,298	-2,618	-0,042	-0,021
-597,284	675,567	-0,040	0,077
-596,269	-200,000	0,002	0,020
-595,255	-70,474	-0,107	-0,029
-594,240	800,000	-0,009	0,019
-593,225	-200,000	-0,014	-0,146
-592,211	55,671	-0,145	-0,103
-591,196	448,136	0,050	0,080
-590,182	-60,673	0,176	0,054
-589,167	-200,000	-0,008	0,055
-588,152	23,296	0,074	0,045
-587,138	148,813	-0,085	0,085
-586,123	-200,000	0,011	-0,118
-585,109	-85,190	-0,120	-0,027
-584,094	-68,558	0,145	-0,041
-583,079	18,039	0,144	-0,084
-582,065	437,875	0,037	0,060
-581,050	264,639	-0,074	0,095
-580,036	129,501	0,186	0,174
-579,021	-132,147	0,071	0,007
-578,006	-68,082	-0,131	-0,037
-576,992	272,516	0,130	-0,169
-575,977	22,493	0,070	0,042
-574,963	-200,000	-0,011	-0,135
-573,948	131,338	0,034	-0,032
-572,934	-200,000	-0,005	-0,069
-571,919	-26,870	-0,154	-0,065
-570,904	800,000	-0,006	-0,017
-569,890	488,202	0,029	0,048
-568,875	22,184	-0,121	0,072
-567,861	800,000	0,037	-0,098
-566,846	150,042	0,095	0,095
-565,831	-71,592	0,017	0,005
-564,817	-200,000	0,002	-0,096
-563,802	551,822	-0,062	-0,109
-562,788	-200,000	0,032	0,223
-561,773	33,940	0,049	0,031
-560,758	-155,399	-0,030	-0,001
-559,744	-200,000	-0,025	-0,099
-558,729	-79,768	-0,088	0,022
-557,715	181,654	-0,054	-0,058
-556,700	439,514	0,035	0,057
-555,685	280,546	0,027	-0,036
-554,671	-200,000	-0,004	-0,086
-553,656	67,495	0,010	0,007
-552,642	-200,000	0,021	0,081
-551,627	-134,239	0,047	-0,004
-550,612	800,000	-0,034	0,071
-549,598	-40,382	-0,083	-0,031
-548,583	233,955	-0,072	-0,087
-547,569	800,000	-0,007	-0,015
-546,554	-57,705	0,142	-0,045
-545,539	-24,803	-0,023	0,010
-544,525	69,483	0,086	0,064
-543,510	800,000	0,033	-0,097
-542,496	598,925	-0,061	-0,111
-541,481	603,715	0,074	-0,135
-540,466	-200,000	0,018	0,085
-539,452	197,456	0,072	-0,080
-538,437	139,346	0,045	-0,043
-537,423	-200,000	-0,016	0,100
-536,408	554,585	-0,102	-0,181
-535,393	336,334	-0,083	-0,118
-534,379	800,000	-0,063	0,170
-533,364	-200,000	0,005	0,071
-532,350	-47,694	0,121	-0,043
-531,335	-71,607	0,072	-0,020
-530,321	-200,000	-0,004	-0,027
-529,306	551,032	0,072	-0,127
-528,291	133,933	0,083	-0,078
-527,277	-120,066	-0,132	-0,016
-526,262	800,000	0,038	0,078
-525,248	-168,912	0,170	0,005
-524,233	800,000	0,014	-0,037
-523,218	-167,282	0,090	0,003
-522,204	-188,655	-0,085	-0,001
-521,189	53,320	0,080	0,056
-520,175	-6,607	-0,095	-0,047
-519,160	800,000	0,022	-0,049
-518,145	-50,932	-0,051	0,017
-517,131	260,356	-0,066	0,083
-516,116	135,553	-0,080	0,076
-515,102	-200,000	0,002	0,077
-514,087	743,711	-0,064	-0,126
-513,072	-200,000	0,000	-0,099
-512,058	614,890	-0,056	0,103
-511,043	-31,793	0,031	0,013
-510,029	-39,564	-0,059	-0,023
-509,014	325,360	0,059	0,083
-507,999	-19,185	0,153	0,069
-506,985	228,471	0,024	0,029
-505,970	-200,000	-0,021	0,093
-504,956	800,000	-0,072	-0,153
-503,941	-38,316	-0,165	0,063
-502,926	74,985	0,080	-0,061
-501,912	-200,000	0,006	-0,077
-500,897	-6,447	0,057	0,028
-499,883	-128,931	0,081	0,008
-498,868	-200,000	-0,005	-0,026
-497,853	800,000	-0,032	-0,081
-496,839	-13,655	0,057	-0,027
-495,824	-49,040	-0,068	-0,024
-494,810	-52,348	0,103	0,034
-493,795	109,910	0,064	-0,056
-492,781	-11,571	-0,065	-0,031
-491,766	-200,000	0,022	0,083
-490,751	-27,243	0,080	0,034
-489,737	-59,295	-0,137	-0,043
-488,722	379,669	-0,039	0,059
-487,708	686,364	-0,041	0,078
-486,693	-73,430	0,103	0,027
-485,678	800,000	0,033	-0,098
-484,664	59,937	-0,045	-0,032
-483,649	-120,865	-0,063	-0,008
-482,635	-200,000	0,008	-0,071
-481,620	-200,000	0,007	0,080
-480,605	800,000	-0,021	-0,054
-479,591	-68,489	0,051	0,014
-478,576	800,000	-0,021	-0,052
-477,562	800,000	0,036	0,084
-476,547	-79,526	-0,118	-0,029
-475,532	306,703	0,061	0,083
-474,518	800,000	0,039	0,116
-473,503	-200,000	-0,038	0,216
-472,489	800,000	0,031	0,068
-471,474	800,000	-0,036	0,083
-470,459	-200,000	-0,004	-0,111
-469,445	703,729	-0,052	-0,101
-468,430	-120,218	-0,021	0,003
-467,416	637,933	0,080	0,148
-466,401	9,387	0,032	-0,018
-465,386	86,788	-0,046	0,037
-464,372	800,000	0,030	0,094
-463,357	-200,000	-0,012	-0,046
-462,343	327,220	0,040	-0,056
-461,328	-200,000	0,026	-0,184
-460,313	800,000	0,081	-0,173
-459,299	-200,000	0,026	0,146
-458,284	-80,565	0,061	-0,015
-457,270	800,000	0,039	0,090
-456,255	445,355	0,020	-0,033
-455,241	-200,000	-0,018	-0,129
-454,226	66,834	0,055	0,041
-453,211	22,076	0,028	0,017
-452,197	96,376	0,117	0,098
-451,182	800,000	0,068	0,155
-450,168	42,040	-0,015	0,010
-449,153	-200,000	0,023	-0,139
-448,138	-200,000	0,050	0,175
-447,124	733,338	-0,045	-0,088
-446,109	160,339	-0,127	0,129
-445,095	800,000	-0,011	-0,025
-444,080	-200,000	0,004	0,129
-443,065	800,000	-0,011	0,029
-442,051	-64,122	0,023	0,007
-441,036	18,048	0,108	-0,062
-440,022	-97,897	-0,053	0,010
-439,007	302,965	0,095	0,128
-437,992	466,629	0,082	-0,134
-436,978	285,456	0,066	-0,087
-435,963	-49,384	-0,093	0,032
-434,949	-200,000	-0,017	0,073
-433,934	61,918	0,144	0,104
-432,919	-200,000	-0,029	-0,155
-431,905	555,780	0,033	0,059
-430,890	-200,000	0,018	0,079
-429,876	127,035	0,132	0,122
-428,861	445,573	-0,054	0,087
-427,846	375,123	-0,072	0,107
-426,832	-24,214	-0,085	-0,037
-425,817	264,949	-0,081	-0,104
-424,803	389,805	-0,050	-0,076
-423,788	800,000	-0,031	-0,067
-422,773	-154,562	0,126	-0,006
-421,759	348,514	0,033	-0,048
-420,744	-200,000	0,016	0,054
-419,730	0,656	-0,114	0,059
-418,715	-200,000	-0,001	-0,038
-417,701	-59,715	0,087	-0,027
-416,686	178,447	-0,074	-0,079
-415,671	-200,000	0,013	0,043
-414,657	-126,476	0,142	0,015
-413,642	51,286	-0,145	0,100
-412,628	20,643	0,031	0,018
-411,613	83,601	-0,087	0,069
-410,598	243,345	0,024	-0,029
-409,584	251,508	-0,040	-0,050
-408,569	42,387	0,069	-0,046
-407,555	-200,000	-0,030	-0,226
-406,540	211,957	-0,010	-0,011
-405,525	-200,000	-0,011	0,100
-404,511	317,638	0,062	0,086
-403,496	-200,000	-0,004	-0,093
-402,482	-50,699	-0,080	0,027
-401,467	800,000	0,046	-0,133
-400,452	104,111	-0,080	0,068
-399,438	228,233	0,027	0,032
-398,423	-200,000	-0,004	0,047
-397,409	-200,000	-0,023	-0,160
-396,394	108,641	0,041	0,035
-395,379	312,234	-0,106	-0,145
-394,365	411,461	0,022	0,035
-393,350	614,703	0,025	0,046
-392,336	-200,000	0,018	0,143
-391,321	-200,000	0,017	0,143
-390,306	640,515	-0,034	-0,062
-389,292	-60,899	-0,068	-0,021
-388,277	-83,392	0,061	0,014
-387,263	476,076	-0,080	0,132
-386,248	-172,881	0,059	0,001
-385,233	767,605	-0,096	0,192
-384,219	350,558	-0,041	-0,059
-383,204	800,000	0,060	-0,178
-382,190	-86,035	-0,098	0,022
-381,175	-89,544	-0,091	-0,019
-380,160	-200,000	0,019	-0,062
-379,146	645,852	-0,075	0,140
-378,131	1,601	0,031	-0,016
-377,117	-106,667	0,007	-0,001
-376,102	8,807	-0,169	0,092
-375,088	-200,000	0,035	0,121
-374,073	219,955	0,041	-0,048
-373,058	800,000	0,014	-0,038
-372,044	-4,096	0,046	-0,023
-371,029	23,109	-0,017	0,010
-370,015	-200,000	0,003	-0,167
-369,000	599,235	0,082	-0,148
-367,985	-53,413	-0,009	0,003
-366,971	718,305	0,046	-0,090
-365,956	46,304	-0,147	0,099
-364,942	-200,000	0,012	0,039
-363,927	-43,769	0,090	0,033
-362,912	-157,071	-0,057	-0,002
-361,898	137,449	0,074	-0,070
-360,883	-200,000	-0,034	-0,114
-359,869	122,208	0,087	-0,079
-358,854	84,979	-0,081	-0,065
-357,839	-200,000	0,001	0,051
-356,825	207,580	0,091	-0,104
-355,810	-123,705	0,087	-0,010
-354,796	-96,586	-0,067	0,013
-353,781	-17,924	-0,078	-0,035
-352,766	800,000	0,010	0,021
-351,752	-113,174	0,034	0,005
-350,737	-30,248	0,083	0,034
-349,723	-44,390	0,068	-0,025
-348,708	400,653	0,050	0,076
-347,693	185,813	0,159	0,172
-346,679	-38,887	0,044	0,017
-345,664	-35,322	0,126	-0,049
-344,650	-91,689	-0,070	0,014
-343,635	-200,000	0,006	0,069
-342,620	-200,000	0,004	0,100
-341,606	-18,121	-0,044	0,020
-340,591	-200,000	-0,001	-0,041
-339,577	-108,650	-0,031	0,005
-338,562	49,107	-0,073	-0,050
-337,548	-81,945	-0,125	-0,029
-336,533	77,915	0,127	0,098
-335,518	788,527	0,066	0,132
-334,504	-200,000	-0,009	0,081
-333,489	-200,000	-0,009	0,140
-332,475	-89,157	0,063	-0,013
-331,460	-6,533	-0,020	0,010
-330,445	800,000	0,017	-0,053
-329,431	101,342	0,044	0,037
-328,416	266,401	0,053	-0,067
-327,402	66,125	-0,065	-0,048
-326,387	441,734	-0,050	0,080
-325,372	311,309	0,005	-0,006
-324,358	441,296	-0,060	-0,096
-323,343	-85,826	-0,126	0,028
-322,329	-200,000	-0,009	0,082
-321,314	-163,975	0,101	0,003
-320,299	800,000	0,019	0,054
-319,285	-180,009	0,051	0,001
-318,270	19,643	-0,195	0,114
-317,256	-200,000	-0,017	0,117
-316,241	693,466	0,028	0,054
-315,226	632,423	-0,016	0,030
-314,212	132,492	0,064	0,060
-313,197	4,532	-0,013	-0,007
-312,183	107,231	0,056	-0,048
-311,168	-200,000	-0,003	0,064
-310,153	-200,000	0,002	0,068
-309,139	-200,000	-0,012	0,056
-308,124	19,188	0,096	-0,056
-307,110	462,811	0,049	0,079
-306,095	-63,424	0,157	-0,047
-305,080	610,605	-0,014	-0,026
-304,066	800,000	0,067	-0,178
-303,051	-27,624	-0,142	-0,059
-302,037	104,690	-0,089	-0,076
-301,022	168,465	0,093	-0,096
-300,008	800,000	-0,027	0,087
-298,993	157,956	0,098	0,099
-297,978	-53,238	-0,083	-0,028
-296,964	792,356	-0,055	0,110
-295,949	-59,804	-0,102	0,031
-294,935	-116,668	-0,138	0,018
-293,920	-200,000	0,030	0,121
-292,905	48,813	0,044	0,030
-291,891	800,000	0,024	0,057
-290,876	800,000	-0,005	0,012
-289,862	141,459	-0,048	-0,046
-288,847	-200,000	-0,004	-0,062
-287,832	-75,512	-0,079	0,020
-286,818	-119,484	0,147	-0,018
-285,803	-200,000	0,021	-0,108
-284,789	-153,451	0,092	0,005
-283,774	222,878	-0,024	-0,028
-282,759	-29,850	-0,126	-0,052
-281,745	-200,000	0,006	0,084
-280,730	26,210	-0,096	-0,058
-279,716	489,852	-0,007	-0,011
-278,701	-57,405	-0,117	0,037
-277,686	563,990	0,065	0,114
-276,672	218,116	-0,049	0,057
-275,657	57,184	0,060	0,042
-274,643	-24,427	-0,086	0,037
-273,628	-58,491	-0,107	0,033
-272,613	-200,000	0,000	0,092
-271,599	800,000	0,045	0,137
-270,584	-80,799	0,095	-0,023
-269,570	-30,252	-0,101	0,041
-268,555	-55,943	-0,102	-0,033
-267,540	-150,686	-0,057	-0,003
-266,526	-122,314	-0,025	-0,003
-265,511	230,326	-0,013	-0,016
-264,497	116,991	0,067	0,060
-263,482	76,041	0,072	-0,055
-262,467	-117,163	0,068	-0,009
-261,453	-16,616	-0,026	0,012
-260,438	800,000	0,021	0,044
-259,424	-110,961	0,101	0,015
-258,409	-18,003	-0,187	-0,085
-257,395	-105,844	-0,102	0,017
-256,380	800,000	-0,014	0,037
-255,365	241,466	-0,016	-0,019
-254,351	-84,930	0,064	0,014
-253,336	355,433	-0,020	-0,030
-252,322	13,440	-0,043	0,024
-251,307	160,648	0,024	-0,025
-250,292	800,000	-0,055	-0,156
-249,278	572,927	0,127	0,225
-248,263	-179,925	-0,093	0,001
-247,249	89,422	-0,102	0,082
-246,234	-200,000	-0,028	0,098
-245,219	-55,449	-0,099	0,032
-244,205	129,258	-0,106	-0,098
-243,190	203,055	0,086	-0,097
-242,176	-21,076	0,085	-0,037
-241,161	-185,637	-0,180	-0,002
-240,146	-200,000	0,017	0,068
-239,132	-200,000	-0,025	-0,150
-238,117	-200,000	0,018	-0,070
-237,103	-200,000	-0,008	-0,086
-236,088	-200,000	0,022	-0,071
-235,073	157,801	0,130	0,130
-234,059	-175,984	-0,109	-0,002
-233,044	-42,900	-0,044	0,016
-232,030	-154,148	0,041	0,002
-231,015	-122,295	-0,057	-0,007
-230,000	-56,820	-0,135	-0,043
-228,986	800,000	0,009	-0,021
-227,971	800,000	0,007	0,019
-226,957	-200,000	0,017	0,072
-225,942	-30,650	0,091	0,037
-224,927	175,461	-0,111	-0,117
-223,913	-200,000	-0,001	-0,081
-222,898	49,177	-0,136	-0,092
-221,884	560,244	0,021	-0,037
-220,869	375,159	0,030	0,044
-219,855	47,011	0,096	-0,064
-218,840	704,810	0,065	-0,124
-217,825	-200,000	0,007	-0,143
-216,811	800,000	-0,017	-0,053
-215,796	800,000	0,047	-0,136
-214,782	800,000	-0,038	-0,081
-213,767	-148,180	-0,051	-0,003
-212,752	11,561	0,163	0,090
-211,738	106,339	-0,039	0,034
-210,723	-200,000	0,019	0,106
-209,709	-38,206	0,054	0,020
-208,694	-200,000	0,011	-0,083
-207,679	800,000	-0,021	0,053
-206,665	-96,173	0,029	-0,005
-205,650	-64,608	0,132	0,038
-204,636	800,000	0,110	0,278
-203,621	-168,042	-0,118	0,003
-202,606	300,505	-0,049	-0,065
-201,592	-74,949	0,010	-0,003
-200,577	800,000	0,011	-0,027
-199,563	215,866	-0,026	-0,029
-198,548	10,705	0,101	-0,056
-197,533	336,332	0,063	-0,088
-196,519	-40,599	-0,158	-0,059
-195,504	22,885	-0,093	-0,055
-194,490	-200,000	-0,032	-0,146
-193,475	-200,000	0,026	-0,173
-192,460	110,124	-0,039	-0,034
-191,446	-187,554	-0,093	0,001
-190,431	800,000	-0,078	0,168
-189,417	262,491	0,057	0,071
-188,402	232,238	-0,052	-0,061
-187,387	-21,635	-0,152	-0,067
-186,373	800,000	0,037	0,087
-185,358	-200,000	-0,013	0,045
-184,344	183,562	0,168	0,180
-183,329	-200,000	0,015	0,048
-182,315	-200,000	0,016	0,123
-181,300	112,068	-0,008	0,007
-180,285	44,210	-0,103	-0,068
-179,271	-200,000	0,024	-0,137
-178,256	-83,500	-0,136	-0,031
-177,242	-34,030	0,051	0,020
-176,227	-131,875	-0,136	-0,013
-175,212	800,000	0,025	-0,058
-174,198	560,295	-0,035	0,060
-173,183	639,373	0,046	-0,085
-172,169	-42,642	-0,107	0,039
-171,154	265,230	0,046	-0,057
-170,139	46,408	-0,075	-0,050
-169,125	-113,833	0,063	0,009
-168,110	800,000	-0,044	0,112
-167,096	524,412	0,090	0,154
-166,081	800,000	0,036	0,095
-165,066	410,861	0,071	-0,109
-164,052	169,100	0,126	-0,129
-163,037	263,326	-0,025	-0,031
-162,023	-27,102	0,162	0,068
-161,008	800,000	-0,024	-0,061
-159,993	-200,000	-0,180	-0,000
-158,979	-200,000	0,000	0,076
-157,964	237,896	-0,124	-0,148
-156,950	800,000	0,012	-0,033
-155,935	177,025	-0,073	0,076
-154,920	-98,664	0,160	0,029
-153,906	-200,000	-0,001	-0,044
-152,891	-84,996	0,140	0,031
-151,877	20,711	0,055	-0,032
-150,862	-3,503	-0,101	0,050
-149,847	800,000	-0,030	0,080
-148,833	61,577	-0,077	-0,055
-147,818	-200,000	-0,029	0,146
-146,804	-31,148	0,116	-0,047
-145,789	49,190	0,126	0,085
-144,775	16,494	0,156	0,089
-143,760	-69,392	0,084	0,023
-142,745	620,649	-0,072	-0,130
-141,731	800,000	0,026	-0,067
-140,716	-144,727	0,109	-0,007
-139,702	208,662	-0,052	-0,059
-138,687	125,444	0,070	-0,064
-137,672	-200,000	0,013	-0,129
-136,658	-200,000	-0,013	-0,066
-135,643	800,000	0,034	-0,078
-134,629	800,000	-0,048	-0,121
-133,614	-200,000	0,008	0,075
-132,599	609,777	-0,033	-0,060
-131,585	-200,000	-0,030	0,140
-130,570	701,078	-0,055	0,104
-129,556	-200,000	0,000	-0,045
-128,541	-183,872	0,073	0,001
-127,526	205,263	-0,044	-0,050
-126,512	-200,000	-0,001	0,128
-125,497	47,349	0,086	0,057
-124,483	800,000	0,079	0,208
-123,468	-13,071	-0,062	-0,029
-122,453	-105,627	-0,102	0,016
-121,439	-200,000	0,010	-0,054
-120,424	800,000	-0,055	-0,141
-119,410	224,270	0,084	0,098
