DTS Sentinel unit serial number:	SN410029Multiplexer serial number:	ORYXHardware model number:	OX2-SRSoftware version number:	ORYX F/W v4,00 Oryx Data Collector v3.7.2.0data status	okinstallation	B5 Nyhavnadifferential loss correction	single-endedforward channel	channel 2reverse channel	N/Adate	2023/12/14time	02:52:13forward acquisition time	300,00reverse acquisition time	0,00gamma	499,1914k internal	0,3155k external	0,3155temperature offset calibration	1,0000default loss term (dB/km)	0,3820temperature slope calibration	1,0000multiplexer offset coefficient	1,0000multiplexer slope coefficient	1,0000fibre end	0,00T internal ref (°C)	8,39T ext. ref 1 (°C)	-7,94T ext. ref 2 (°C)	-7,99length (m)	temperature (°C)	Stokes	anti-Stokes-744,400	188,405	0,092	0,101
-743,385	-111,369	-0,359	-0,054
-742,371	-33,794	0,243	0,098
-741,356	-187,754	-0,372	-0,004
-740,342	-53,699	0,234	0,078
-739,327	-108,896	-0,441	-0,069
-738,312	247,358	0,107	0,133
-737,298	15,546	-0,388	-0,224
-736,283	-73,753	0,127	0,034
-735,269	-71,881	-0,348	-0,095
-734,254	-71,673	0,096	0,026
-733,239	24,597	-0,441	-0,269
-732,225	-30,478	0,197	0,082
-731,210	127,828	-0,144	0,135
-730,196	132,512	-0,035	0,033
-729,181	51,612	0,005	-0,004
-728,167	51,495	0,038	-0,026
-727,152	1,866	-0,053	0,028
-726,137	-11,012	-0,096	-0,047
-725,123	-200,000	0,002	0,097
-724,108	49,545	-0,091	-0,063
-723,094	209,884	-0,115	-0,133
-722,079	3,849	-0,013	-0,007
-721,064	315,130	0,053	-0,073
-720,050	-29,564	0,090	-0,038
-719,035	344,141	-0,097	0,141
-718,021	14,078	-0,063	-0,036
-717,006	31,511	-0,107	-0,068
-715,991	800,000	0,078	-0,198
-714,977	34,702	-0,080	-0,051
-713,962	-14,222	-0,063	-0,030
-712,948	290,771	0,083	-0,112
-711,933	-13,388	-0,122	-0,058
-710,918	255,840	-0,080	0,101
-709,904	-32,181	0,091	-0,037
-708,889	-129,805	0,097	-0,010
-707,875	-124,061	0,053	0,006
-706,860	-200,000	0,035	0,132
-705,845	-61,864	-0,021	-0,006
-704,831	312,082	-0,086	-0,119
-703,816	-200,000	0,008	-0,060
-702,802	86,429	-0,116	0,094
-701,787	-26,111	-0,113	0,049
-700,772	182,386	0,023	-0,025
-699,758	13,131	-0,105	0,060
-698,743	211,276	-0,145	0,169
-697,729	-149,618	0,210	-0,012
-696,714	-14,175	-0,029	-0,014
-695,699	70,903	-0,098	-0,074
-694,685	24,064	0,039	-0,023
-693,670	226,305	-0,051	0,061
-692,656	-122,380	0,049	-0,006
-691,641	334,596	-0,038	0,054
-690,627	800,000	-0,034	-0,109
-689,612	-34,989	-0,149	0,060
-688,597	-200,000	-0,031	-0,106
-687,583	-67,848	-0,235	-0,067
-686,568	143,000	0,112	-0,110
-685,554	-111,062	0,077	-0,012
-684,539	800,000	-0,005	0,017
-683,524	210,291	0,082	-0,095
-682,510	387,894	0,083	0,127
-681,495	-200,000	0,003	0,118
-680,481	-70,154	-0,087	0,024
-679,466	271,252	-0,014	0,018
-678,451	34,288	0,064	-0,041
-677,437	-200,000	0,016	-0,071
-676,422	-132,145	0,025	-0,002
-675,408	800,000	-0,050	0,137
-674,393	-102,325	-0,070	0,012
-673,378	212,682	-0,086	-0,100
-672,364	-200,000	0,003	-0,017
-671,349	-62,560	-0,085	-0,026
-670,335	223,676	0,055	-0,065
-669,320	-200,000	0,004	0,058
-668,305	-10,543	-0,068	0,033
-667,291	67,592	-0,038	-0,028
-666,276	94,507	-0,100	0,084
-665,262	-123,291	-0,078	-0,009
-664,247	151,946	0,026	0,026
-663,232	790,666	-0,064	-0,129
-662,218	258,153	0,070	0,089
-661,203	-7,588	0,052	-0,026
-660,189	48,576	-0,115	-0,079
-659,174	15,184	-0,123	-0,071
-658,159	280,759	0,059	-0,078
-657,145	800,000	-0,008	-0,017
-656,130	147,048	0,043	0,043
-655,116	106,257	0,074	-0,064
-654,101	800,000	0,033	0,074
-653,086	800,000	0,035	-0,104
-652,072	-77,424	-0,132	-0,033
-651,057	-200,000	-0,017	-0,146
-650,043	27,957	-0,032	-0,020
-649,028	-72,885	-0,127	0,034
-648,014	101,159	-0,078	-0,066
-646,999	-200,000	-0,005	0,038
-645,984	558,526	0,049	0,087
-644,970	-200,000	0,017	-0,075
-643,955	93,851	-0,036	-0,030
-642,941	800,000	-0,069	-0,189
-641,926	104,686	-0,134	-0,116
-640,911	121,779	0,078	0,071
-639,897	-88,486	-0,063	-0,014
-638,882	-28,647	-0,057	-0,024
-637,868	-72,689	-0,097	0,026
-636,853	284,334	0,048	-0,063
-635,838	-20,118	-0,156	-0,071
-634,824	-200,000	-0,029	-0,192
-633,809	-35,382	0,188	-0,075
-632,795	-50,928	-0,165	0,056
-631,780	108,924	0,107	-0,094
-630,765	-28,029	-0,110	0,046
-629,751	800,000	-0,023	-0,061
-628,736	-18,049	-0,093	-0,043
-627,722	580,885	-0,018	0,033
-626,707	110,769	-0,007	0,006
-625,692	136,221	-0,018	-0,017
-624,678	800,000	0,051	-0,114
-623,663	-174,925	-0,110	-0,002
-622,649	441,568	0,043	0,070
-621,634	800,000	0,046	-0,111
-620,619	-200,000	0,001	0,037
-619,605	-5,239	-0,080	-0,040
-618,590	-200,000	-0,007	0,033
-617,576	-200,000	0,012	-0,108
-616,561	12,659	0,080	-0,045
-615,546	211,236	0,088	-0,102
-614,532	14,096	-0,174	-0,099
-613,517	184,531	-0,056	-0,061
-612,503	42,360	-0,079	-0,052
-611,488	-200,000	0,015	-0,122
-610,474	-200,000	-0,007	-0,051
-609,459	17,023	0,063	-0,036
-608,444	348,960	-0,103	-0,150
-607,430	-200,000	0,014	0,098
-606,415	-123,974	-0,163	-0,019
-605,401	-133,999	0,139	-0,012
-604,386	85,834	0,082	0,066
-603,371	-74,573	-0,082	-0,022
-602,357	67,982	-0,137	-0,103
-601,342	-113,459	0,044	0,006
-600,328	-42,257	0,026	-0,010
-599,313	-200,000	-0,010	-0,033
-598,298	-141,646	0,149	-0,011
-597,284	52,339	0,080	0,056
-596,269	800,000	0,057	0,156
-595,255	223,736	0,122	0,144
-594,240	800,000	-0,024	-0,058
-593,225	110,668	-0,090	0,079
-592,211	-109,653	-0,067	-0,010
-591,196	-86,713	-0,037	0,008
-590,182	19,915	-0,069	-0,041
-589,167	-200,000	0,023	-0,106
-588,152	800,000	-0,025	0,062
-587,138	-200,000	0,009	-0,031
-586,123	11,983	-0,170	-0,096
-585,109	393,757	-0,051	0,078
-584,094	536,956	0,058	0,101
-583,079	52,047	0,146	0,102
-582,065	113,817	0,097	0,087
-581,050	-42,718	0,025	-0,009
-580,036	-99,001	-0,148	-0,027
-579,021	-200,000	-0,002	0,147
-578,006	21,975	-0,084	-0,050
-576,992	-87,736	0,073	-0,016
-575,977	614,268	0,067	0,123
-574,963	405,486	0,092	0,143
-573,948	47,660	-0,124	0,085
-572,934	-4,676	0,032	0,016
-571,919	-85,250	-0,050	-0,011
-570,904	24,672	0,039	0,023
-569,890	643,520	0,058	0,110
-568,875	-7,157	-0,062	0,031
-567,861	800,000	-0,046	-0,096
-566,846	-200,000	-0,007	0,049
-565,831	75,047	-0,117	-0,090
-564,817	-97,063	-0,096	0,018
-563,802	800,000	-0,085	-0,224
-562,788	-200,000	0,003	0,013
-561,773	800,000	-0,027	-0,084
-560,758	-99,986	-0,077	0,014
-559,744	-200,000	-0,006	0,114
-558,729	66,030	-0,099	0,074
-557,715	-34,669	0,026	0,010
-556,700	43,225	-0,062	-0,041
-555,685	678,409	-0,082	0,156
-554,671	131,746	-0,097	0,092
-553,656	-200,000	-0,009	0,051
-552,642	625,571	-0,056	-0,103
-551,627	800,000	-0,035	0,108
-550,612	-200,000	0,029	0,182
-549,598	38,340	-0,076	-0,050
-548,583	17,557	-0,110	0,064
-547,569	-200,000	0,009	-0,079
-546,554	-78,219	-0,018	0,004
-545,539	436,317	0,018	0,029
-544,525	-200,000	-0,028	-0,161
-543,510	12,952	0,068	-0,039
-542,496	800,000	-0,046	-0,108
-541,481	28,313	0,114	-0,070
-540,466	16,616	-0,122	-0,070
-539,452	96,949	0,033	0,028
-538,437	248,978	0,085	0,106
-537,423	-200,000	0,024	-0,091
-536,408	343,626	-0,069	0,100
-535,393	-142,618	0,109	-0,008
-534,379	-200,000	-0,018	0,097
-533,364	110,042	-0,080	-0,070
-532,350	-200,000	0,012	0,132
-531,335	220,603	0,092	0,109
-530,321	-200,000	-0,017	-0,106
-529,306	28,071	-0,107	-0,066
-528,291	-78,194	0,105	0,026
-527,277	-200,000	-0,007	-0,038
-526,262	31,811	0,092	-0,058
-525,248	62,569	-0,065	-0,047
-524,233	800,000	0,019	-0,040
-523,218	-200,000	-0,000	0,097
-522,204	126,745	0,039	-0,036
-521,189	-122,841	-0,143	-0,017
-520,175	-181,686	-0,043	-0,001
-519,160	-200,000	0,011	0,052
-518,145	365,097	0,050	0,073
-517,131	192,353	-0,067	0,074
-516,116	311,390	0,022	-0,030
-515,102	-4,765	-0,083	0,042
-514,087	-6,080	0,072	0,036
-513,072	189,204	0,033	-0,036
-512,058	410,689	-0,033	-0,051
-511,043	-200,000	0,022	0,077
-510,029	-108,881	-0,026	0,004
-509,014	119,366	0,140	0,126
-507,999	653,387	-0,021	0,039
-506,985	186,534	0,062	0,067
-505,970	29,395	-0,086	-0,053
-504,956	800,000	0,038	-0,101
-503,941	-51,717	-0,089	0,030
-502,926	-35,749	0,130	-0,051
-501,912	-200,000	0,000	0,127
-500,897	98,041	0,130	0,110
-499,883	-200,000	-0,029	0,107
-498,868	341,345	0,035	-0,051
-497,853	-200,000	-0,015	-0,116
-496,839	-200,000	0,012	-0,071
-495,824	62,191	0,030	-0,022
-494,810	162,068	-0,063	0,064
-493,795	171,412	-0,061	0,064
-492,781	139,656	0,110	0,106
-491,766	800,000	-0,015	0,044
-490,751	-200,000	-0,004	-0,079
-489,737	223,184	0,070	-0,082
-488,722	346,938	0,086	0,124
-487,708	90,196	-0,100	0,082
-486,693	438,243	0,041	-0,066
-485,678	-94,056	-0,137	0,027
-484,664	-66,588	-0,088	0,025
-483,649	266,242	-0,075	-0,095
-482,635	-200,000	0,003	-0,065
-481,620	800,000	-0,057	0,121
-480,605	800,000	0,067	0,177
-479,591	39,174	0,022	-0,014
-478,576	-200,000	0,017	0,099
-477,562	800,000	-0,048	-0,100
-476,547	93,996	-0,083	-0,069
-475,532	-200,000	0,006	-0,029
-474,518	43,689	0,100	0,066
-473,503	246,227	-0,114	0,140
-472,489	-200,000	0,013	-0,116
-471,474	-200,000	0,032	-0,159
-470,459	417,426	0,010	-0,015
-469,445	359,103	-0,034	0,050
-468,430	800,000	-0,024	0,055
-467,416	-200,000	0,026	0,085
-466,401	663,825	0,115	0,218
-465,386	354,626	0,097	0,142
-464,372	-78,125	0,163	-0,041
-463,357	-200,000	0,033	-0,179
-462,343	800,000	-0,053	0,158
-461,328	-126,583	0,045	0,005
-460,313	800,000	0,061	-0,124
-459,299	14,657	0,114	-0,065
-458,284	-200,000	0,025	-0,108
-457,270	529,032	-0,073	0,126
-456,255	-93,350	0,021	-0,004
-455,241	-200,000	0,028	-0,190
-454,226	800,000	0,025	-0,074
-453,211	-12,652	0,118	-0,056
-452,197	-69,750	0,048	-0,013
-451,182	116,570	-0,057	0,051
-450,168	409,980	0,058	-0,090
-449,153	788,066	0,019	-0,039
-448,138	-200,000	-0,010	-0,086
-447,124	-200,000	-0,013	0,047
-446,109	-200,000	0,011	-0,102
-445,095	710,903	0,065	0,126
-444,080	-149,978	0,169	0,009
-443,065	-1,867	0,102	0,052
-442,051	800,000	0,043	-0,111
-441,036	153,122	-0,112	0,111
-440,022	-200,000	-0,017	0,122
-439,007	160,769	-0,075	-0,076
-437,992	60,741	-0,090	0,065
-436,978	-53,283	-0,080	-0,027
-435,963	77,525	0,006	-0,005
-434,949	430,819	0,043	-0,068
-433,934	-154,470	0,050	-0,002
-432,919	800,000	0,062	0,168
-431,905	-153,680	-0,041	0,002
-430,890	4,482	-0,132	-0,070
-429,876	22,097	0,056	0,033
-428,861	-200,000	0,000	0,133
-427,846	-128,728	-0,094	-0,010
-426,832	-53,976	0,085	0,028
-425,817	22,318	-0,037	0,022
-424,803	-128,377	0,097	-0,010
-423,788	-132,697	0,113	-0,010
-422,773	325,609	0,037	0,052
-421,759	-106,452	-0,019	0,003
-420,744	-200,000	0,020	-0,067
-419,730	-65,366	-0,048	-0,014
-418,715	386,851	-0,053	-0,081
-417,701	-200,000	-0,015	-0,052
-416,686	65,641	0,098	-0,072
-415,671	-135,917	0,056	-0,005
-414,657	-200,000	-0,009	0,062
-413,642	-200,000	-0,016	0,085
-412,628	-200,000	0,016	-0,084
-411,613	-200,000	-0,030	-0,157
-410,598	137,607	-0,042	-0,040
-409,584	545,798	0,092	-0,160
-408,569	345,565	0,084	0,120
-407,555	-38,403	0,110	0,042
-406,540	350,547	0,029	0,042
-405,525	-177,032	0,068	-0,001
-404,511	-200,000	-0,025	-0,134
-403,496	-200,000	-0,038	0,227
-402,482	-200,000	-0,000	0,042
-401,467	-33,695	0,040	0,016
-400,452	-160,336	0,175	0,007
-399,438	365,621	-0,031	0,046
-398,423	89,043	-0,112	0,091
-397,409	-200,000	0,001	-0,073
-396,394	-74,839	-0,066	0,017
-395,379	-122,119	0,041	-0,005
-394,365	-200,000	-0,018	0,149
-393,350	-24,201	0,055	-0,024
-392,336	-102,769	0,049	0,008
-391,321	-44,116	-0,005	0,002
-390,306	-98,652	-0,034	0,006
-389,292	75,773	-0,072	0,055
-388,277	250,046	-0,052	-0,064
-387,263	191,670	-0,040	0,044
-386,248	800,000	-0,045	0,093
-385,233	513,702	-0,053	0,091
-384,219	-200,000	-0,031	0,124
-383,204	800,000	0,020	-0,060
-382,190	-200,000	0,032	-0,118
-381,175	650,439	-0,052	0,097
-380,160	102,509	0,168	0,143
-379,146	91,313	-0,028	0,023
-378,131	85,820	0,122	0,098
-377,117	-200,000	-0,019	0,081
-376,102	-37,580	-0,143	-0,055
-375,088	-200,000	0,021	-0,118
-374,073	706,914	0,043	-0,082
-373,058	61,978	0,051	0,037
-372,044	616,704	-0,032	0,058
-371,029	-200,000	0,013	-0,044
-370,015	606,368	0,015	0,027
-369,000	346,028	-0,086	0,123
-367,985	-5,712	0,089	-0,044
-366,971	800,000	0,017	0,039
-365,956	56,715	0,096	0,068
-364,942	-200,000	0,016	0,066
-363,927	152,992	0,044	0,044
-362,912	44,862	-0,027	-0,018
-361,898	-200,000	-0,028	-0,117
-360,883	-200,000	0,010	0,105
-359,869	800,000	-0,062	-0,141
-358,854	156,844	0,117	-0,118
-357,839	259,168	0,058	0,073
-356,825	98,523	0,084	0,070
-355,810	-24,848	-0,040	-0,017
-354,796	63,511	-0,054	0,039
-353,781	31,632	-0,089	-0,056
-352,766	800,000	-0,014	0,038
-351,752	123,314	0,051	0,046
-350,737	179,318	0,126	0,134
-349,723	-62,264	-0,033	0,010
-348,708	-200,000	0,014	-0,097
-347,693	-71,518	0,063	0,017
-346,679	132,724	-0,012	-0,012
-345,664	624,650	0,035	0,064
-344,650	-200,000	-0,001	-0,070
-343,635	-36,191	-0,127	0,050
-342,620	277,081	0,011	0,015
-341,606	-101,886	0,019	0,003
-340,591	-200,000	-0,013	0,060
-339,577	-34,398	0,121	0,048
-338,562	52,472	-0,094	-0,065
-337,548	516,880	0,008	0,014
-336,533	-57,613	0,103	0,032
-335,518	93,929	-0,030	-0,025
-334,504	800,000	0,029	0,064
-333,489	-200,000	0,012	0,040
-332,475	-200,000	0,007	-0,106
-331,460	-156,501	-0,138	0,006
-330,445	-200,000	-0,006	0,058
-329,431	32,822	-0,037	-0,023
-328,416	-200,000	0,039	0,133
-327,402	264,024	0,086	-0,108
-326,387	-53,844	-0,090	-0,030
-325,372	-200,000	0,007	-0,166
-324,358	215,230	-0,023	0,026
-323,343	6,771	-0,055	-0,030
-322,329	85,654	0,042	-0,033
-321,314	208,969	0,044	-0,050
-320,299	-184,831	0,094	0,001
-319,285	249,051	-0,051	-0,063
-318,270	-200,000	0,018	0,067
-317,256	-22,045	-0,079	0,035
-316,241	441,468	-0,038	-0,061
-315,226	113,165	0,041	-0,036
-314,212	101,312	0,057	-0,048
-313,197	-200,000	0,013	0,103
-312,183	-200,000	-0,021	0,078
-311,168	205,071	0,092	-0,104
-310,153	419,507	-0,056	-0,087
-309,139	-2,621	0,029	-0,015
-308,124	197,174	0,030	-0,033
-307,110	441,975	0,073	0,116
-306,095	323,788	-0,085	0,118
-305,080	788,295	0,025	0,050
-304,066	64,124	-0,014	0,010
-303,051	800,000	0,031	-0,098
-302,037	-200,000	0,016	-0,052
-301,022	206,369	-0,006	-0,007
-300,008	-24,405	0,122	0,052
-298,993	-101,666	0,055	-0,010
-297,978	-200,000	-0,005	0,056
-296,964	28,409	-0,068	-0,041
-295,949	800,000	0,067	-0,170
-294,935	450,446	-0,049	-0,078
-293,920	800,000	-0,012	-0,028
-292,905	-124,847	-0,132	0,015
-291,891	156,093	-0,084	0,084
-290,876	-91,059	0,114	-0,023
-289,862	249,688	0,096	-0,118
-288,847	-200,000	-0,053	-0,207
-287,832	-200,000	0,003	-0,098
-286,818	-200,000	0,008	-0,090
-285,803	-26,459	0,105	0,044
-284,789	448,194	0,065	0,104
-283,774	22,112	-0,078	-0,046
-282,759	-90,356	0,019	-0,004
-281,745	-200,000	-0,004	-0,077
-280,730	-200,000	0,001	0,197
-279,716	254,715	0,053	0,065
-278,701	-177,596	0,022	0,000
-277,686	800,000	-0,041	0,120
-276,672	25,065	-0,054	0,033
-275,657	-200,000	-0,015	0,050
-274,643	336,524	-0,085	-0,120
-273,628	485,622	0,020	-0,033
-272,613	-56,569	0,024	-0,008
-271,599	-110,070	0,091	-0,014
-270,584	597,185	-0,042	0,076
-269,570	-136,374	0,037	-0,003
-268,555	800,000	-0,037	-0,092
-267,540	-139,550	-0,114	0,009
-266,526	-78,973	-0,037	-0,009
-265,511	-29,449	-0,130	-0,054
-264,497	310,339	0,054	-0,073
-263,482	263,455	-0,027	-0,034
-262,467	193,217	0,037	0,040
-261,453	792,337	0,042	0,085
-260,438	74,137	-0,034	-0,026
-259,424	237,322	-0,064	-0,077
-258,409	175,819	-0,067	-0,071
-257,395	291,688	0,092	-0,122
-256,380	-200,000	-0,004	0,093
-255,365	-109,558	0,048	0,007
-254,351	365,640	0,053	-0,077
-253,336	800,000	0,013	0,033
-252,322	-200,000	0,002	-0,140
-251,307	118,063	0,036	0,032
-250,292	-84,820	0,104	0,023
-249,278	483,558	0,037	0,061
-248,263	566,071	-0,104	0,184
-247,249	-33,204	-0,021	0,008
-246,234	800,000	0,051	-0,104
-245,219	-200,000	-0,016	-0,096
-244,205	73,412	0,088	-0,067
-243,190	127,291	-0,009	-0,009
-242,176	451,436	0,068	-0,110
-241,161	800,000	0,016	-0,039
-240,146	6,634	0,106	0,057
-239,132	-200,000	0,015	0,083
-238,117	50,305	-0,018	0,012
-237,103	-111,538	-0,064	0,009
-236,088	-8,301	0,241	-0,117
-235,073	-200,000	-0,036	0,156
-234,059	800,000	-0,015	0,035
-233,044	-200,000	-0,035	0,134
-232,030	-48,621	-0,047	0,016
-231,015	-200,000	-0,029	-0,094
-230,000	-200,000	0,009	0,063
-228,986	-4,511	0,056	0,028
-227,971	173,687	-0,094	-0,099
-226,957	545,973	0,026	-0,045
-225,942	369,875	0,015	0,023
-224,927	800,000	-0,027	-0,067
-223,913	-35,332	-0,143	-0,056
-222,898	-116,166	-0,043	0,006
-221,884	635,603	0,102	0,189
-220,869	-200,000	0,006	0,048
-219,855	-200,000	-0,002	0,126
-218,840	-200,000	0,009	0,116
-217,825	-172,102	-0,087	-0,002
-216,811	-78,799	0,114	0,028
-215,796	657,909	-0,062	-0,116
-214,782	800,000	0,052	-0,109
-213,767	800,000	-0,018	-0,041
-212,752	-200,000	-0,014	-0,065
-211,738	-56,870	0,074	0,024
-210,723	11,371	-0,043	-0,024
-209,709	-142,193	0,097	-0,007
-208,694	-200,000	-0,028	-0,144
-207,679	498,689	0,026	-0,044
-206,665	-200,000	0,008	-0,122
-205,650	-200,000	-0,028	0,089
-204,636	127,449	0,050	-0,046
-203,621	77,286	-0,054	0,041
-202,606	265,714	-0,070	0,089
-201,592	37,817	-0,020	-0,013
-200,577	115,346	-0,095	-0,084
-199,563	-53,502	0,061	0,020
-198,548	25,014	0,031	0,019
-197,533	278,332	0,135	0,174
-196,519	-200,000	0,032	0,201
-195,504	800,000	-0,071	0,145
-194,490	456,766	-0,045	-0,073
-193,475	261,752	-0,080	-0,101
-192,460	-38,542	-0,073	-0,028
-191,446	-122,101	-0,108	0,013
-190,431	221,671	0,181	0,211
-189,417	-91,259	0,031	0,006
-188,402	328,218	-0,022	-0,031
-187,387	-166,574	0,053	-0,002
-186,373	-53,223	-0,134	-0,044
-185,358	125,652	0,028	-0,026
-184,344	-154,007	-0,035	0,002
-183,329	-200,000	0,009	-0,186
-182,315	-200,000	-0,003	0,074
-181,300	158,952	-0,058	-0,059
-180,285	-147,282	-0,148	0,009
-179,271	-165,186	-0,099	0,003
-178,256	-200,000	0,021	-0,091
-177,242	-200,000	-0,014	0,072
-176,227	-130,192	0,112	0,011
-175,212	-65,483	-0,099	-0,029
-174,198	-142,732	-0,162	-0,011
-173,183	-119,471	0,065	-0,008
-172,169	43,660	0,038	0,025
-171,154	-200,000	-0,019	-0,069
-170,139	139,754	0,123	0,117
-169,125	257,639	-0,013	-0,016
-168,110	-200,000	-0,016	-0,068
-167,096	-57,153	0,051	0,016
-166,081	54,730	-0,094	0,065
-165,066	800,000	-0,009	0,020
-164,052	800,000	0,024	-0,056
-163,037	800,000	-0,043	-0,106
-162,023	800,000	0,054	-0,115
-161,008	130,688	-0,070	0,065
-159,993	-8,620	-0,086	0,041
-158,979	32,407	-0,022	0,013
-157,964	-200,000	-0,002	-0,015
-156,950	162,086	0,132	-0,133
-155,935	-41,162	0,104	-0,039
-154,920	277,087	0,028	0,035
-153,906	-200,000	-0,003	-0,050
-152,891	-32,976	0,164	0,065
-151,877	51,815	-0,185	-0,127
-150,862	800,000	0,027	-0,081
-149,847	800,000	-0,062	-0,153
-148,833	-200,000	0,003	-0,014
-147,818	-104,302	-0,015	-0,002
-146,804	523,981	-0,037	0,063
-145,789	284,086	-0,039	0,051
-144,775	-200,000	-0,009	-0,092
-143,760	14,008	-0,138	-0,077
-142,745	-154,438	-0,035	0,002
-141,731	-147,274	-0,020	-0,001
-140,716	380,371	-0,050	-0,074
-139,702	800,000	0,088	0,191
-138,687	30,178	-0,019	-0,012
-137,672	-95,000	-0,102	0,020
-136,658	-113,803	-0,158	0,022
-135,643	367,381	-0,026	-0,038
-134,629	-200,000	0,024	0,086
-133,614	229,019	0,041	0,048
-132,599	127,050	0,090	-0,083
-131,585	-1,042	0,026	0,013
-130,570	81,927	0,069	-0,054
-129,556	-200,000	-0,033	-0,180
-128,541	-200,000	0,017	-0,074
-127,526	-53,939	-0,064	-0,021
-126,512	238,066	0,046	-0,055
-125,497	187,573	0,167	0,180
-124,483	-74,288	0,055	-0,014
-123,468	-156,977	0,120	-0,005
-122,453	-49,592	-0,166	-0,057
-121,439	101,263	-0,057	-0,048
-120,424	-27,550	0,051	-0,021
-119,410	587,087	0,055	0,098
