DTS Sentinel unit serial number:	SN410029Multiplexer serial number:	ORYXHardware model number:	OX2-SRSoftware version number:	ORYX F/W v4,00 Oryx Data Collector v3.7.2.0data status	okinstallation	B5 Nyhavnadifferential loss correction	single-endedforward channel	channel 2reverse channel	N/Adate	2023/12/12time	14:47:13forward acquisition time	300,00reverse acquisition time	0,00gamma	499,1914k internal	0,3157k external	0,3157temperature offset calibration	1,0000default loss term (dB/km)	0,3820temperature slope calibration	1,0000multiplexer offset coefficient	1,0000multiplexer slope coefficient	1,0000fibre end	0,00T internal ref (°C)	15,89T ext. ref 1 (°C)	-0,35T ext. ref 2 (°C)	-0,61length (m)	temperature (°C)	Stokes	anti-Stokes-744,400	-100,439	0,041	0,007
-743,385	-122,820	-0,237	-0,028
-742,371	-105,268	0,195	-0,032
-741,356	250,320	-0,062	0,078
-740,342	-12,433	0,093	0,045
-739,327	-131,535	-0,268	-0,026
-738,312	-144,908	0,197	-0,013
-737,298	-62,647	-0,213	0,065
-736,283	173,667	-0,032	-0,035
-735,269	-101,499	-0,277	0,049
-734,254	-91,905	0,128	-0,027
-733,239	-1,433	-0,496	-0,257
-732,225	-94,897	0,171	-0,034
-731,210	-58,374	0,022	0,007
-730,196	-111,394	-0,082	-0,012
-729,181	-200,000	-0,004	-0,127
-728,167	91,440	-0,107	-0,089
-727,152	783,724	-0,075	-0,152
-726,137	71,461	-0,112	-0,086
-725,123	-200,000	0,004	-0,026
-724,108	-64,494	-0,113	-0,033
-723,094	-85,041	0,086	0,020
-722,079	-3,935	-0,071	0,036
-721,064	-107,327	0,100	-0,016
-720,050	85,221	-0,039	-0,032
-719,035	-57,237	0,098	-0,032
-718,021	591,536	0,011	-0,019
-717,006	308,680	-0,083	0,115
-715,991	249,725	-0,068	0,086
-714,977	160,946	-0,055	0,056
-713,962	168,842	-0,026	0,028
-712,948	-105,036	-0,123	-0,021
-711,933	290,564	0,030	0,040
-710,918	12,295	0,045	0,025
-709,904	156,418	-0,178	-0,181
-708,889	-200,000	0,018	-0,062
-707,875	800,000	-0,021	-0,046
-706,860	-200,000	0,011	0,047
-705,845	139,832	-0,021	0,020
-704,831	403,438	-0,054	0,084
-703,816	5,895	0,018	0,010
-702,802	517,109	-0,070	-0,120
-701,787	171,019	-0,083	-0,088
-700,772	-200,000	-0,025	-0,167
-699,758	-200,000	0,004	0,099
-698,743	-200,000	0,004	-0,142
-697,729	42,543	-0,015	0,010
-696,714	-38,067	-0,046	0,018
-695,699	-5,052	-0,069	0,035
-694,685	-200,000	-0,006	-0,117
-693,670	424,602	-0,025	-0,040
-692,656	416,822	-0,083	-0,131
-691,641	459,735	0,059	-0,097
-690,627	-200,000	0,002	-0,023
-689,612	322,912	0,048	0,068
-688,597	-200,000	-0,011	0,071
-687,583	-7,049	-0,058	-0,029
-686,568	-130,575	-0,048	-0,005
-685,554	800,000	-0,043	-0,111
-684,539	158,860	0,014	0,014
-683,524	800,000	0,015	0,037
-682,510	-200,000	-0,016	-0,155
-681,495	-153,606	-0,102	0,005
-680,481	424,558	0,017	-0,027
-679,466	88,525	-0,137	-0,112
-678,451	800,000	-0,048	0,130
-677,437	23,564	0,208	0,125
-676,422	590,460	-0,064	0,117
-675,408	-9,287	0,108	0,053
-674,393	353,861	-0,101	0,147
-673,378	-111,759	-0,073	-0,011
-672,364	88,672	-0,151	-0,124
-671,349	65,690	0,080	-0,060
-670,335	-28,489	0,098	0,041
-669,320	-153,416	-0,056	0,003
-668,305	-131,344	0,049	0,005
-667,291	-90,552	-0,116	-0,025
-666,276	-200,000	0,012	0,051
-665,262	65,549	0,060	-0,044
-664,247	-48,760	-0,143	-0,050
-663,232	-61,685	-0,108	-0,033
-662,218	800,000	0,035	-0,093
-661,203	335,047	0,071	-0,102
-660,189	800,000	-0,039	-0,104
-659,174	29,928	0,101	-0,063
-658,159	133,477	-0,046	-0,044
-657,145	-51,969	0,078	-0,026
-656,130	-57,939	0,071	-0,023
-655,116	366,089	-0,009	-0,014
-654,101	19,550	0,055	-0,032
-653,086	-200,000	-0,009	-0,070
-652,072	800,000	-0,034	0,106
-651,057	357,342	-0,090	-0,133
-650,043	358,856	0,056	-0,083
-649,028	166,007	-0,041	0,042
-648,014	-200,000	-0,031	0,109
-646,999	409,534	0,022	-0,034
-645,984	302,302	-0,032	0,043
-644,970	800,000	0,032	-0,075
-643,955	-200,000	0,010	-0,151
-642,941	-153,219	-0,105	-0,005
-641,926	228,290	0,113	0,136
-640,911	-198,023	0,130	-0,001
-639,897	800,000	0,032	0,080
-638,882	800,000	0,039	-0,105
-637,868	122,544	-0,063	-0,058
-636,853	292,545	-0,046	0,062
-635,838	-200,000	0,000	0,022
-634,824	-200,000	-0,007	0,037
-633,809	-60,149	-0,099	0,031
-632,795	71,923	0,089	0,068
-631,780	-200,000	0,011	-0,089
-630,765	50,731	-0,093	-0,065
-629,751	-200,000	0,039	-0,189
-628,736	-100,694	-0,161	0,029
-627,722	-200,000	0,011	-0,051
-626,707	-141,721	-0,061	0,004
-625,692	21,326	0,062	-0,037
-624,678	-200,000	-0,026	-0,119
-623,663	16,905	-0,064	-0,037
-622,649	800,000	-0,045	-0,108
-621,634	2,123	-0,165	0,087
-620,619	28,706	0,057	0,036
-619,605	5,174	0,029	0,016
-618,590	437,054	-0,099	0,159
-617,576	644,615	0,071	-0,133
-616,561	125,135	-0,120	-0,111
-615,546	-91,627	-0,088	-0,018
-614,532	552,183	-0,043	-0,075
-613,517	-148,594	-0,048	0,003
-612,503	800,000	0,029	0,088
-611,488	426,132	-0,041	0,066
-610,474	82,494	0,060	0,048
-609,459	-200,000	-0,004	-0,084
-608,444	452,043	0,058	-0,094
-607,430	-80,364	-0,125	0,030
-606,415	-77,619	0,073	-0,018
-605,401	800,000	-0,053	-0,138
-604,386	-200,000	0,006	0,083
-603,371	115,741	0,118	0,106
-602,357	-151,097	-0,030	0,002
-601,342	-91,360	-0,091	0,019
-600,328	800,000	0,052	-0,122
-599,313	720,207	0,059	0,115
-598,298	-16,049	-0,073	0,034
-597,284	800,000	0,045	-0,098
-596,269	-200,000	0,001	-0,027
-595,255	-58,867	0,111	-0,035
-594,240	234,375	-0,014	0,016
-593,225	181,939	-0,083	-0,090
-592,211	-70,946	-0,019	0,005
-591,196	-40,297	0,048	-0,018
-590,182	-200,000	0,019	0,064
-589,167	778,386	0,054	0,110
-588,152	119,084	-0,021	0,019
-587,138	-200,000	0,031	-0,134
-586,123	300,301	0,010	-0,014
-585,109	393,593	-0,092	0,141
-584,094	-200,000	-0,010	-0,109
-583,079	-135,520	-0,054	0,005
-582,065	43,645	-0,084	-0,056
-581,050	45,681	-0,066	-0,045
-580,036	-111,217	0,085	0,013
-579,021	800,000	-0,005	0,013
-578,006	-136,312	-0,076	0,006
-576,992	-200,000	-0,006	0,055
-575,977	-2,239	0,080	0,041
-574,963	-115,378	-0,075	-0,010
-573,948	353,734	0,097	0,141
-572,934	116,032	-0,009	0,008
-571,919	800,000	-0,082	-0,175
-570,904	103,427	-0,058	-0,050
-569,890	-200,000	-0,013	0,063
-568,875	-70,938	-0,076	-0,021
-567,861	-157,468	0,072	0,003
-566,846	800,000	-0,054	0,140
-565,831	351,319	0,086	0,125
-564,817	-64,725	-0,084	0,025
-563,802	696,496	-0,032	0,062
-562,788	-200,000	-0,010	-0,040
-561,773	14,577	-0,066	-0,037
-560,758	-64,335	0,202	-0,060
-559,744	551,587	-0,026	0,045
-558,729	-134,756	0,170	-0,015
-557,715	-77,221	-0,107	-0,027
-556,700	284,544	-0,035	0,047
-555,685	389,016	-0,012	-0,018
-554,671	8,239	-0,022	-0,012
-553,656	17,524	-0,031	0,018
-552,642	-99,791	0,177	-0,032
-551,627	-200,000	-0,009	0,055
-550,612	-200,000	-0,028	-0,097
-549,598	800,000	0,051	-0,137
-548,583	-200,000	-0,005	0,038
-547,569	800,000	0,040	0,130
-546,554	477,295	-0,084	0,140
-545,539	800,000	-0,036	0,087
-544,525	800,000	-0,048	0,128
-543,510	800,000	0,015	0,047
-542,496	-59,996	-0,052	-0,016
-541,481	273,733	0,043	-0,056
-540,466	112,046	-0,096	-0,085
-539,452	-97,659	0,063	-0,012
-538,437	-78,454	-0,083	-0,021
-537,423	-200,000	-0,006	-0,057
-536,408	274,058	-0,083	-0,108
-535,393	25,833	0,107	-0,065
-534,379	-200,000	-0,009	0,066
-533,364	202,652	0,031	-0,035
-532,350	-200,000	0,018	0,079
-531,335	-156,744	-0,022	-0,001
-530,321	-82,921	0,080	-0,019
-529,306	2,633	0,048	0,025
-528,291	212,656	-0,023	-0,027
-527,277	495,271	-0,018	-0,030
-526,262	-116,087	0,037	0,005
-525,248	-23,304	0,137	0,060
-524,233	-20,910	-0,051	-0,023
-523,218	800,000	-0,051	0,115
-522,204	800,000	-0,071	0,147
-521,189	29,305	-0,142	-0,088
-520,175	24,061	-0,027	-0,016
-519,160	-39,248	-0,048	0,018
-518,145	-200,000	-0,010	0,076
-517,131	143,655	0,036	-0,035
-516,116	-93,708	0,030	-0,006
-515,102	30,421	0,032	0,020
-514,087	182,635	0,042	0,045
-513,072	776,560	0,058	-0,116
-512,058	300,338	-0,049	0,067
-511,043	800,000	0,057	-0,180
-510,029	-200,000	-0,006	0,095
-509,014	142,354	-0,057	0,055
-507,999	208,212	0,082	-0,094
-506,985	-200,000	-0,010	0,033
-505,970	484,707	0,017	0,028
-504,956	-200,000	0,003	-0,095
-503,941	800,000	-0,044	0,102
-502,926	-200,000	-0,023	0,090
-501,912	0,451	0,029	-0,015
-500,897	-200,000	0,023	0,166
-499,883	115,961	-0,014	0,013
-498,868	167,003	0,073	-0,076
-497,853	-144,360	-0,068	-0,005
-496,839	10,916	-0,048	-0,026
-495,824	-153,501	-0,089	0,004
-494,810	-200,000	0,010	-0,134
-493,795	350,760	-0,016	0,024
-492,781	78,957	-0,113	0,088
-491,766	800,000	-0,040	-0,110
-490,751	-158,711	-0,097	-0,004
-489,737	33,865	-0,066	-0,042
-488,722	-125,633	0,134	-0,015
-487,708	-200,000	-0,007	0,096
-486,693	-200,000	-0,007	-0,025
-485,678	-43,509	-0,124	-0,046
-484,664	99,585	-0,098	-0,083
-483,649	800,000	0,084	-0,186
-482,635	-85,443	0,088	-0,020
-481,620	-200,000	0,005	-0,077
-480,605	-139,246	0,128	0,010
-479,591	82,868	0,128	0,102
-478,576	800,000	-0,045	0,115
-477,562	-200,000	0,028	-0,098
-476,547	4,550	-0,082	-0,044
-475,532	194,527	0,099	0,109
-474,518	-200,000	0,022	0,115
-473,503	-200,000	-0,011	0,071
-472,489	773,469	-0,026	0,052
-471,474	206,480	-0,108	-0,123
-470,459	-200,000	0,001	0,065
-469,445	105,507	-0,204	-0,176
-468,430	92,138	-0,030	0,025
-467,416	2,443	0,071	0,037
-466,401	-129,355	-0,119	0,012
-465,386	-131,938	0,022	-0,002
-464,372	800,000	0,073	0,228
-463,357	-200,000	0,001	-0,026
-462,343	-200,000	-0,001	0,044
-461,328	192,497	-0,101	0,112
-460,313	576,229	0,054	0,096
-459,299	800,000	-0,055	-0,154
-458,284	88,033	0,024	-0,019
-457,270	800,000	-0,022	-0,048
-456,255	-200,000	0,010	-0,072
-455,241	133,558	-0,061	-0,058
-454,226	41,350	-0,049	0,032
-453,211	-98,281	-0,094	-0,017
-452,197	310,278	-0,052	0,072
-451,182	-91,771	0,097	0,020
-450,168	-85,018	0,096	0,022
-449,153	296,294	-0,049	0,065
-448,138	800,000	-0,010	-0,027
-447,124	800,000	0,063	0,180
-446,109	344,311	0,013	0,018
-445,095	252,690	0,083	0,103
-444,080	-200,000	0,017	-0,067
-443,065	-200,000	-0,022	0,079
-442,051	-200,000	-0,005	-0,041
-441,036	-40,530	-0,015	0,006
-440,022	-200,000	-0,001	-0,067
-439,007	443,265	0,101	0,162
-437,992	-77,953	0,122	0,030
-436,978	-53,614	0,067	0,022
-435,963	-200,000	-0,005	0,016
-434,949	-13,943	0,111	-0,052
-433,934	800,000	-0,018	-0,044
-432,919	143,349	0,062	-0,061
-431,905	-88,939	0,117	0,025
-430,890	272,046	0,059	0,075
-429,876	107,603	0,084	0,073
-428,861	176,792	0,018	0,019
-427,846	-200,000	0,022	-0,093
-426,832	-47,067	-0,061	-0,021
-425,817	-200,000	0,009	-0,038
-424,803	-115,866	0,114	-0,015
-423,788	624,877	-0,063	0,117
-422,773	50,887	0,138	0,095
-421,759	-3,048	0,053	0,027
-420,744	-167,078	-0,022	-0,001
-419,730	-200,000	-0,025	0,107
-418,715	-200,000	-0,016	-0,087
-417,701	127,182	0,018	-0,016
-416,686	800,000	0,029	0,063
-415,671	191,025	0,109	0,119
-414,657	800,000	0,044	0,123
-413,642	800,000	-0,042	0,104
-412,628	309,478	-0,065	0,089
-411,613	638,409	0,062	-0,115
-410,598	-89,891	0,158	-0,033
-409,584	-34,585	0,115	0,045
-408,569	-42,845	-0,054	-0,020
-407,555	800,000	-0,023	-0,050
-406,540	-200,000	0,001	0,066
-405,525	-200,000	-0,002	0,085
-404,511	51,647	-0,023	0,016
-403,496	-80,284	-0,140	-0,034
-402,482	-167,352	0,113	0,003
-401,467	800,000	0,014	0,038
-400,452	218,824	0,128	0,150
-399,438	14,597	0,082	0,046
-398,423	66,825	-0,061	-0,045
-397,409	800,000	-0,039	-0,093
-396,394	46,195	-0,111	-0,075
-395,379	39,241	-0,006	-0,004
-394,365	186,855	0,120	0,131
-393,350	165,438	0,094	0,097
-392,336	244,208	-0,071	-0,087
-391,321	-27,012	0,070	-0,030
-390,306	161,934	-0,061	0,063
-389,292	136,494	-0,050	-0,048
-388,277	-142,656	0,049	0,003
-387,263	240,729	-0,063	0,077
-386,248	-74,891	0,039	-0,010
-385,233	-200,000	0,007	-0,033
-384,219	-12,913	0,050	-0,023
-383,204	800,000	-0,046	-0,119
-382,190	-29,411	-0,083	-0,034
-381,175	-200,000	-0,024	0,083
-380,160	-159,572	-0,093	0,004
-379,146	-195,100	-0,019	0,000
-378,131	85,632	0,091	0,072
-377,117	373,626	-0,050	-0,075
-376,102	173,151	-0,082	-0,086
-375,088	466,488	-0,062	0,101
-374,073	8,968	0,047	0,026
-373,058	58,596	0,079	0,056
-372,044	-151,630	0,049	0,003
-371,029	800,000	0,053	-0,109
-370,015	-4,181	0,031	0,015
-369,000	-124,484	-0,123	-0,014
-367,985	800,000	-0,023	-0,047
-366,971	478,201	0,047	-0,078
-365,956	-41,228	0,045	0,017
-364,942	69,438	0,091	-0,068
-363,927	-200,000	0,005	0,063
-362,912	-200,000	0,027	-0,208
-361,898	166,326	0,078	-0,080
-360,883	-200,000	-0,000	0,124
-359,869	-200,000	0,009	0,046
-358,854	-31,601	-0,036	-0,015
-357,839	-85,944	-0,078	0,017
-356,825	-77,744	-0,084	-0,021
-355,810	116,592	-0,062	-0,056
-354,796	-56,250	0,046	0,015
-353,781	101,661	-0,097	-0,082
-352,766	-76,895	0,158	-0,040
-351,752	16,545	-0,026	0,015
-350,737	-200,000	-0,013	-0,186
-349,723	-182,240	0,025	0,000
-348,708	-125,086	0,094	-0,010
-347,693	-152,658	0,021	-0,001
-346,679	-71,543	-0,050	0,013
-345,664	7,357	0,079	-0,043
-344,650	-200,000	-0,141	-0,000
-343,635	451,402	-0,025	-0,040
-342,620	-21,303	0,058	-0,025
-341,606	57,061	0,102	-0,072
-340,591	501,378	0,040	-0,067
-339,577	-142,742	-0,121	0,008
-338,562	-200,000	-0,001	-0,046
-337,548	24,672	-0,030	0,018
-336,533	-53,078	0,071	-0,024
-335,518	-200,000	0,000	0,048
-334,504	-200,000	0,019	0,073
-333,489	-200,000	0,006	-0,058
-332,475	177,756	0,169	-0,179
-331,460	-200,000	0,011	-0,107
-330,445	-200,000	-0,016	0,070
-329,431	130,597	0,107	-0,100
-328,416	-200,000	0,029	0,154
-327,402	-200,000	-0,030	0,114
-326,387	-200,000	0,000	-0,070
-325,372	204,529	0,102	0,115
-324,358	800,000	-0,044	-0,121
-323,343	-99,387	-0,054	-0,010
-322,329	-200,000	-0,033	0,136
-321,314	62,238	0,076	-0,055
-320,299	246,915	-0,062	0,076
-319,285	93,410	-0,051	-0,042
-318,270	-68,067	0,070	0,020
-317,256	-72,576	-0,070	0,019
-316,241	-83,330	0,033	-0,008
-315,226	-20,114	0,092	0,041
-314,212	-34,142	-0,167	0,066
-313,197	-64,585	-0,040	0,012
-312,183	800,000	-0,012	-0,030
-311,168	199,921	0,086	-0,095
-310,153	-44,048	0,094	0,034
-309,139	24,231	-0,057	-0,034
-308,124	594,936	-0,048	-0,087
-307,110	-55,660	0,060	-0,019
-306,095	101,441	0,036	-0,030
-305,080	87,755	0,123	0,099
-304,066	-165,613	-0,130	-0,004
-303,051	-200,000	-0,049	-0,166
-302,037	-116,708	-0,081	0,011
-301,022	-200,000	-0,010	-0,144
-300,008	-44,464	0,025	-0,009
-298,993	-200,000	-0,030	-0,110
-297,978	-105,746	0,133	0,022
-296,964	92,569	-0,081	-0,066
-295,949	800,000	0,029	-0,070
-294,935	800,000	-0,041	-0,095
-293,920	-89,223	-0,083	0,018
-292,905	-50,360	0,071	0,024
-291,891	-38,685	-0,017	0,006
-290,876	788,720	0,035	0,071
-289,862	19,712	-0,044	-0,026
-288,847	-200,000	0,049	-0,175
-287,832	-200,000	0,007	-0,093
-286,818	74,749	-0,158	0,120
-285,803	-126,957	0,106	0,011
-284,789	102,179	0,051	-0,043
-283,774	-96,001	-0,152	-0,029
-282,759	800,000	0,026	-0,071
-281,745	800,000	0,034	0,071
-280,730	-200,000	-0,014	-0,055
-279,716	-200,000	0,006	-0,058
-278,701	72,352	-0,132	-0,100
-277,686	-64,778	-0,065	-0,019
-276,672	-91,231	0,138	0,028
-275,657	660,758	0,026	0,048
-274,643	382,548	-0,084	-0,126
-273,628	50,858	-0,048	-0,033
-272,613	21,675	0,137	0,081
-271,599	44,017	0,027	0,018
-270,584	472,758	-0,061	0,100
-269,570	16,761	-0,063	-0,036
-268,555	190,381	-0,026	-0,028
-267,540	95,878	0,039	-0,032
-266,526	20,441	-0,079	0,046
-265,511	-200,000	-0,008	-0,168
-264,497	-200,000	0,011	-0,089
-263,482	-171,839	0,158	0,004
-262,467	42,687	0,046	0,030
-261,453	-200,000	0,001	-0,037
-260,438	-2,482	0,080	-0,040
-259,424	800,000	-0,027	0,085
-258,409	800,000	0,027	0,070
-257,395	800,000	0,032	0,092
-256,380	81,615	-0,054	0,042
-255,365	800,000	0,016	-0,046
-254,351	-200,000	-0,008	0,126
-253,336	800,000	0,035	0,082
-252,322	-200,000	0,007	-0,130
-251,307	139,931	-0,107	0,102
-250,292	-200,000	0,011	-0,094
-249,278	-143,529	-0,086	0,006
-248,263	37,045	-0,024	0,015
-247,249	0,724	-0,137	-0,071
-246,234	-200,000	0,006	0,024
-245,219	161,376	0,074	0,075
-244,205	-157,156	0,115	-0,005
-243,190	800,000	-0,019	0,048
-242,176	-96,702	0,061	0,011
-241,161	-200,000	0,012	0,116
-240,146	22,816	0,023	-0,014
-239,132	237,309	-0,081	0,098
-238,117	800,000	0,020	0,042
-237,103	-28,514	-0,087	0,036
-236,088	-174,030	-0,042	-0,001
-235,073	-12,918	0,086	0,040
-234,059	72,961	0,087	0,066
-233,044	154,604	0,027	0,026
-232,030	3,134	0,175	0,092
-231,015	115,149	0,042	-0,037
-230,000	143,028	-0,050	0,048
-228,986	800,000	-0,036	0,076
-227,971	-200,000	0,010	0,068
-226,957	-98,404	0,100	-0,018
-225,942	-135,483	-0,024	0,002
-224,927	-82,523	-0,042	-0,010
-223,913	503,888	0,069	-0,115
-222,898	-200,000	-0,010	-0,152
-221,884	-5,087	0,051	-0,025
-220,869	133,638	0,039	-0,037
-219,855	-200,000	-0,031	0,114
-218,840	-200,000	0,005	0,135
-217,825	-200,000	-0,014	-0,055
-216,811	800,000	0,032	-0,072
-215,796	800,000	-0,009	-0,019
-214,782	800,000	-0,063	-0,144
-213,767	765,880	-0,031	-0,060
-212,752	-200,000	-0,001	0,044
-211,738	391,903	-0,072	0,109
-210,723	264,440	-0,034	-0,043
-209,709	-200,000	0,016	0,089
-208,694	28,270	-0,080	0,049
-207,679	354,668	-0,072	0,104
-206,665	460,345	0,049	0,079
-205,650	29,573	0,071	0,044
-204,636	-68,902	-0,098	-0,027
-203,621	800,000	0,011	-0,032
-202,606	-200,000	-0,012	-0,094
-201,592	9,498	-0,011	-0,006
-200,577	-68,756	0,050	0,014
-199,563	157,230	0,022	0,021
-198,548	-200,000	-0,018	0,117
-197,533	15,270	0,115	-0,065
-196,519	-170,679	-0,075	0,002
-195,504	-200,000	-0,005	0,056
-194,490	-100,407	-0,077	0,014
-193,475	800,000	0,088	-0,233
-192,460	650,403	-0,016	-0,029
-191,446	17,088	-0,092	-0,052
-190,431	-159,575	0,038	0,002
-189,417	45,476	0,097	0,065
-188,402	-200,000	-0,028	-0,117
-187,387	74,846	-0,153	-0,116
-186,373	-37,742	-0,112	0,043
-185,358	194,491	0,009	-0,010
-184,344	800,000	0,065	-0,143
-183,329	484,122	0,024	-0,040
-182,315	-85,637	0,161	-0,036
-181,300	71,006	-0,056	0,042
-180,285	-62,005	-0,152	0,045
-179,271	-200,000	0,010	0,098
-178,256	-183,322	0,096	0,001
-177,242	457,432	0,065	-0,105
-176,227	-200,000	-0,000	0,001
-175,212	-118,391	-0,090	0,011
-174,198	-58,912	-0,117	-0,036
-173,183	-163,806	-0,062	-0,002
-172,169	-97,379	0,099	-0,018
-171,154	-200,000	0,010	-0,090
-170,139	800,000	0,032	-0,078
-169,125	-200,000	-0,027	0,188
-168,110	379,779	-0,087	0,129
-167,096	-117,154	-0,185	0,024
-166,081	800,000	0,005	-0,012
-165,066	149,754	-0,019	-0,018
-164,052	677,229	0,028	-0,054
-163,037	-200,000	0,008	-0,089
-162,023	386,069	-0,017	-0,026
-161,008	-200,000	0,010	0,183
-159,993	192,153	0,068	0,074
-158,979	-200,000	0,034	-0,148
-157,964	-16,064	0,045	-0,021
-156,950	-200,000	-0,038	0,151
-155,935	-200,000	-0,005	-0,035
-154,920	342,540	0,087	0,123
-153,906	-200,000	-0,031	0,139
-152,891	187,976	0,037	-0,040
-151,877	800,000	-0,032	0,091
-150,862	-6,805	-0,110	0,054
-149,847	-200,000	0,029	0,113
-148,833	560,123	0,054	0,095
-147,818	800,000	0,035	0,072
-146,804	231,136	0,043	0,051
-145,789	-59,312	0,055	-0,017
-144,775	148,724	-0,125	-0,122
-143,760	15,488	0,078	0,044
-142,745	-200,000	0,008	-0,097
-141,731	33,176	0,084	-0,052
-140,716	576,881	0,011	0,019
-139,702	452,397	-0,067	0,107
-138,687	800,000	-0,029	0,077
-137,672	410,943	-0,040	-0,062
-136,658	711,684	-0,060	-0,114
-135,643	297,336	0,051	0,068
-134,629	-54,536	-0,066	-0,021
-133,614	800,000	0,031	0,068
-132,599	60,883	-0,024	-0,017
-131,585	371,608	0,017	0,025
-130,570	-131,726	0,089	-0,008
-129,556	63,486	-0,070	0,051
-128,541	507,884	0,028	0,046
-127,526	-3,924	-0,062	0,031
-126,512	464,875	-0,055	0,089
-125,497	-28,033	-0,068	-0,028
-124,483	-137,933	0,121	-0,010
-123,468	-70,045	-0,020	0,005
-122,453	800,000	-0,049	-0,122
-121,439	-144,830	-0,133	0,009
-120,424	-200,000	0,014	0,063
-119,410	130,552	-0,030	-0,028
