DTS Sentinel unit serial number:	SN410029Multiplexer serial number:	ORYXHardware model number:	OX2-SRSoftware version number:	ORYX F/W v4,00 Oryx Data Collector v3.7.2.0data status	okinstallation	B5 Nyhavnadifferential loss correction	single-endedforward channel	channel 2reverse channel	N/Adate	2023/12/13time	19:02:13forward acquisition time	300,00reverse acquisition time	0,00gamma	499,1914k internal	0,3160k external	0,3160temperature offset calibration	1,0000default loss term (dB/km)	0,3820temperature slope calibration	1,0000multiplexer offset coefficient	1,0000multiplexer slope coefficient	1,0000fibre end	0,00T internal ref (°C)	12,15T ext. ref 1 (°C)	-5,04T ext. ref 2 (°C)	-5,12length (m)	temperature (°C)	Stokes	anti-Stokes-744,400	-28,442	0,114	0,048
-743,385	-96,554	-0,262	0,050
-742,371	112,293	0,066	0,059
-741,356	-145,649	-0,339	-0,022
-740,342	-27,811	0,181	0,077
-739,327	-160,692	-0,373	-0,014
-738,312	-155,156	0,225	-0,011
-737,298	-45,765	-0,203	0,073
-736,283	33,483	0,081	0,051
-735,269	-50,408	-0,178	-0,062
-734,254	-137,826	0,150	-0,012
-733,239	-17,860	-0,441	-0,203
-732,225	138,481	0,104	0,100
-731,210	242,281	0,136	0,168
-730,196	-50,809	0,025	0,009
-729,181	180,936	-0,063	-0,068
-728,167	239,124	-0,078	-0,096
-727,152	-200,000	0,001	-0,057
-726,137	800,000	0,054	-0,112
-725,123	-200,000	-0,018	-0,093
-724,108	196,602	-0,130	-0,146
-723,094	-55,156	-0,218	-0,072
-722,079	-200,000	0,020	-0,118
-721,064	-104,912	-0,078	0,013
-720,050	-200,000	0,020	0,239
-719,035	-64,309	0,082	-0,024
-718,021	588,031	0,068	-0,124
-717,006	78,007	-0,153	-0,120
-715,991	583,978	-0,083	-0,151
-714,977	-200,000	-0,001	0,067
-713,962	-200,000	-0,010	-0,070
-712,948	-200,000	-0,051	0,178
-711,933	495,467	-0,025	-0,043
-710,918	800,000	0,035	-0,085
-709,904	32,217	-0,089	-0,056
-708,889	83,533	-0,028	-0,022
-707,875	256,584	0,067	-0,084
-706,860	-102,172	0,035	-0,006
-705,845	162,197	0,064	-0,066
-704,831	532,279	-0,087	0,152
-703,816	240,427	-0,022	0,027
-702,802	431,254	-0,034	-0,055
-701,787	-119,188	0,057	0,007
-700,772	406,169	-0,042	-0,065
-699,758	-200,000	-0,029	-0,180
-698,743	800,000	0,033	-0,102
-697,729	-200,000	-0,019	0,072
-696,714	86,002	-0,063	0,051
-695,699	541,927	-0,032	0,057
-694,685	-200,000	-0,004	-0,115
-693,670	800,000	0,051	-0,134
-692,656	-30,855	-0,097	0,040
-691,641	-200,000	0,001	0,036
-690,627	12,643	-0,143	-0,081
-689,612	191,017	-0,016	0,018
-688,597	-200,000	-0,007	-0,076
-687,583	94,392	-0,063	-0,053
-686,568	191,235	0,062	-0,069
-685,554	-58,551	-0,098	0,031
-684,539	286,601	0,040	0,054
-683,524	-98,032	0,140	-0,026
-682,510	-200,000	-0,024	0,099
-681,495	35,589	-0,141	-0,091
-680,481	79,686	0,027	-0,022
-679,466	-5,635	-0,090	0,045
-678,451	-75,951	-0,076	0,020
-677,437	800,000	-0,044	0,124
-676,422	-75,775	0,073	-0,019
-675,408	90,819	0,126	0,103
-674,393	-87,444	0,089	-0,020
-673,378	-157,862	-0,051	0,002
-672,364	187,634	-0,070	-0,077
-671,349	-147,429	-0,015	-0,001
-670,335	800,000	-0,030	-0,066
-669,320	542,102	-0,048	-0,085
-668,305	-200,000	0,012	-0,062
-667,291	-200,000	-0,004	-0,028
-666,276	152,243	-0,153	-0,153
-665,262	800,000	-0,043	-0,097
-664,247	16,930	-0,112	0,065
-663,232	-200,000	0,037	-0,148
-662,218	800,000	-0,030	-0,087
-661,203	-12,985	-0,055	-0,026
-660,189	197,221	0,038	0,042
-659,174	190,332	-0,023	0,025
-658,159	35,851	0,047	0,031
-657,145	355,754	-0,009	0,013
-656,130	144,206	0,070	-0,069
-655,116	240,738	0,015	-0,019
-654,101	800,000	-0,050	0,103
-653,086	-2,381	-0,014	-0,007
-652,072	65,792	-0,057	-0,042
-651,057	800,000	-0,027	-0,064
-650,043	-90,972	-0,094	0,020
-649,028	52,687	-0,072	0,051
-648,014	-200,000	0,003	-0,085
-646,999	-200,000	-0,015	-0,091
-645,984	800,000	-0,067	0,151
-644,970	-200,000	-0,000	0,058
-643,955	-125,297	-0,183	0,020
-642,941	-97,697	-0,260	-0,049
-641,926	62,601	0,079	-0,058
-640,911	30,466	-0,092	-0,058
-639,897	-200,000	0,011	0,079
-638,882	-200,000	0,031	0,124
-637,868	368,051	-0,037	-0,055
-636,853	99,785	-0,128	-0,109
-635,838	-200,000	0,005	-0,049
-634,824	-200,000	-0,015	-0,112
-633,809	-0,259	0,081	0,042
-632,795	-200,000	0,011	0,089
-631,780	800,000	0,042	-0,094
-630,765	57,332	-0,070	0,050
-629,751	-63,746	0,192	-0,057
-628,736	5,229	-0,035	0,019
-627,722	659,380	-0,040	-0,075
-626,707	303,611	-0,064	-0,087
-625,692	-25,388	-0,091	0,039
-624,678	152,407	-0,071	0,071
-623,663	526,571	0,012	-0,021
-622,649	-200,000	0,004	-0,030
-621,634	-119,445	-0,032	0,004
-620,619	-200,000	0,003	-0,092
-619,605	297,233	0,049	0,066
-618,590	-135,168	0,147	0,013
-617,576	147,713	-0,020	0,020
-616,561	800,000	0,020	-0,050
-615,546	151,300	-0,118	-0,118
-614,532	528,240	0,082	-0,143
-613,517	160,371	0,135	-0,139
-612,503	373,733	-0,034	-0,051
-611,488	119,937	-0,087	0,079
-610,474	-15,044	0,090	0,042
-609,459	-26,055	0,063	0,027
-608,444	-67,773	-0,035	0,010
-607,430	518,068	0,032	-0,054
-606,415	-97,272	-0,087	0,016
-605,401	-73,325	-0,063	0,017
-604,386	-21,871	-0,024	-0,010
-603,371	-200,000	-0,014	-0,174
-602,357	212,235	0,143	0,165
-601,342	-108,393	0,041	-0,006
-600,328	773,336	-0,081	-0,163
-599,313	-7,219	-0,054	-0,027
-598,298	-200,000	0,005	-0,045
-597,284	528,693	-0,019	-0,033
-596,269	248,531	0,127	0,158
-595,255	800,000	0,011	0,030
-594,240	760,260	-0,050	-0,100
-593,225	20,492	-0,035	0,020
-592,211	-200,000	-0,010	-0,107
-591,196	156,668	0,045	-0,046
-590,182	190,028	0,062	-0,068
-589,167	800,000	-0,030	0,062
-588,152	-200,000	-0,001	0,217
-587,138	161,842	-0,132	0,135
-586,123	-157,233	-0,101	-0,004
-585,109	495,790	0,042	0,071
-584,094	-90,491	-0,117	0,025
-583,079	146,920	0,096	0,094
-582,065	-200,000	0,004	0,029
-581,050	-200,000	-0,016	0,171
-580,036	-94,486	-0,078	-0,016
-579,021	-109,717	-0,148	0,023
-578,006	-200,000	0,008	0,146
-576,992	-32,269	-0,110	-0,045
-575,977	-200,000	0,016	0,062
-574,963	155,362	0,077	0,078
-573,948	-200,000	-0,002	0,041
-572,934	-156,486	-0,021	-0,001
-571,919	341,851	0,092	0,133
-570,904	-200,000	-0,004	-0,186
-569,890	-53,130	0,099	-0,033
-568,875	191,504	-0,053	-0,058
-567,861	359,641	-0,071	-0,105
-566,846	-200,000	0,032	0,197
-565,831	-196,510	0,006	0,000
-564,817	-155,536	-0,133	0,006
-563,802	800,000	0,054	-0,111
-562,788	153,060	-0,113	-0,113
-561,773	161,328	0,035	-0,036
-560,758	-200,000	-0,017	-0,076
-559,744	155,652	0,063	-0,063
-558,729	-200,000	-0,011	-0,172
-557,715	30,808	-0,084	0,053
-556,700	56,004	-0,105	-0,074
-555,685	-22,183	0,041	-0,018
-554,671	-115,539	0,057	0,008
-553,656	800,000	0,028	-0,079
-552,642	409,362	0,011	-0,017
-551,627	117,939	-0,065	-0,058
-550,612	-128,919	0,195	-0,020
-549,598	68,643	-0,126	0,094
-548,583	144,442	-0,041	-0,040
-547,569	-200,000	-0,005	0,089
-546,554	-66,421	0,065	0,019
-545,539	33,653	-0,089	-0,056
-544,525	641,273	0,045	0,083
-543,510	532,471	0,030	0,053
-542,496	543,327	0,044	-0,076
-541,481	-51,302	0,095	0,032
-540,466	5,270	-0,121	0,065
-539,452	32,870	-0,062	-0,039
-538,437	44,882	-0,024	-0,016
-537,423	-200,000	-0,005	0,073
-536,408	298,956	0,037	0,050
-535,393	-13,150	-0,075	0,036
-534,379	800,000	-0,048	-0,138
-533,364	-200,000	0,000	-0,021
-532,350	-21,360	-0,097	-0,043
-531,335	48,488	-0,033	-0,022
-530,321	-54,364	0,006	0,002
-529,306	-36,757	0,117	-0,046
-528,291	184,329	-0,072	0,079
-527,277	800,000	0,028	-0,072
-526,262	-76,832	-0,143	-0,036
-525,248	-108,197	0,090	-0,014
-524,233	160,441	0,129	0,132
-523,218	800,000	0,071	0,163
-522,204	-2,345	-0,161	0,082
-521,189	589,532	-0,034	-0,061
-520,175	-200,000	0,002	-0,047
-519,160	-200,000	0,008	-0,050
-518,145	-200,000	0,011	0,071
-517,131	235,844	-0,011	-0,013
-516,116	-200,000	0,012	0,085
-515,102	105,371	-0,047	0,040
-514,087	-25,209	-0,069	-0,030
-513,072	650,621	0,012	0,023
-512,058	297,503	-0,011	0,014
-511,043	334,272	0,077	-0,109
-510,029	-200,000	-0,000	0,028
-509,014	94,604	0,093	0,077
-507,999	-200,000	-0,025	-0,092
-506,985	-79,143	-0,060	-0,015
-505,970	150,665	-0,039	-0,038
-504,956	-129,366	-0,165	0,017
-503,941	46,458	-0,129	0,087
-502,926	800,000	-0,013	0,032
-501,912	244,166	0,065	0,080
-500,897	112,361	0,018	0,016
-499,883	-200,000	-0,016	-0,081
-498,868	54,762	-0,040	0,028
-497,853	33,301	0,103	0,065
-496,839	487,779	0,039	-0,065
-495,824	800,000	0,016	0,049
-494,810	-200,000	0,031	-0,112
-493,795	-130,425	-0,032	0,003
-492,781	-49,427	0,105	0,036
-491,766	323,126	-0,053	0,073
-490,751	800,000	-0,041	-0,093
-489,737	210,460	0,075	0,086
-488,722	-200,000	0,000	-0,127
-487,708	752,246	-0,022	-0,043
-486,693	-200,000	0,002	0,065
-485,678	702,801	0,026	-0,050
-484,664	344,624	-0,099	-0,142
-483,649	-43,137	0,126	0,046
-482,635	800,000	-0,027	-0,059
-481,620	6,808	-0,054	-0,029
-480,605	-200,000	0,011	0,126
-479,591	10,750	0,120	-0,067
-478,576	674,881	-0,059	-0,113
-477,562	-105,437	-0,043	-0,007
-476,547	636,169	-0,068	-0,127
-475,532	800,000	-0,024	-0,064
-474,518	551,224	0,053	0,093
-473,503	60,905	0,056	-0,041
-472,489	-110,084	-0,090	0,014
-471,474	-200,000	-0,020	-0,112
-470,459	-86,361	-0,145	0,032
-469,445	42,936	0,097	-0,064
-468,430	-200,000	0,020	-0,206
-467,416	800,000	-0,070	0,155
-466,401	14,754	0,073	0,042
-465,386	582,981	0,031	0,055
-464,372	194,914	0,034	0,038
-463,357	235,768	0,020	-0,025
-462,343	-142,354	0,090	0,006
-461,328	693,022	-0,022	-0,041
-460,313	225,206	0,080	0,094
-459,299	-200,000	0,012	-0,045
-458,284	183,375	-0,070	-0,076
-457,270	-200,000	-0,012	-0,104
-456,255	-200,000	0,013	0,074
-455,241	800,000	0,030	-0,085
-454,226	-200,000	0,020	-0,166
-453,211	52,562	0,142	0,098
-452,197	-135,140	-0,056	-0,005
-451,182	196,471	-0,073	0,081
-450,168	120,031	0,101	-0,091
-449,153	-95,683	0,050	0,010
-448,138	159,951	-0,089	-0,090
-447,124	-200,000	0,007	-0,126
-446,109	-81,295	-0,053	-0,013
-445,095	147,137	0,084	0,082
-444,080	447,382	0,030	-0,048
-443,065	283,653	0,054	0,070
-442,051	538,989	-0,086	-0,149
-441,036	-82,346	0,021	-0,005
-440,022	800,000	0,036	-0,084
-439,007	-162,367	0,066	-0,002
-437,992	-200,000	-0,010	0,065
-436,978	-31,488	0,169	0,069
-435,963	177,428	-0,159	0,168
-434,949	-55,471	-0,042	-0,013
-433,934	-200,000	-0,002	0,012
-432,919	-48,449	-0,046	0,016
-431,905	-200,000	0,015	-0,050
-430,890	15,164	0,031	0,018
-429,876	380,298	0,023	0,035
-428,861	800,000	-0,023	0,069
-427,846	51,433	-0,042	-0,029
-426,832	406,740	-0,013	0,021
-425,817	800,000	0,022	0,051
-424,803	-103,765	0,043	-0,007
-423,788	800,000	-0,035	0,079
-422,773	-149,321	-0,065	0,004
-421,759	15,668	0,075	0,043
-420,744	-200,000	0,018	-0,062
-419,730	73,788	-0,086	-0,066
-418,715	-200,000	0,009	-0,071
-417,701	52,646	0,016	-0,011
-416,686	74,061	-0,057	-0,043
-415,671	21,370	-0,015	-0,009
-414,657	197,686	0,050	0,055
-413,642	270,154	0,043	-0,054
-412,628	800,000	0,040	-0,086
-411,613	122,245	0,055	-0,050
-410,598	560,044	-0,063	-0,111
-409,584	-200,000	0,020	0,190
-408,569	291,929	-0,028	0,037
-407,555	60,483	0,058	0,042
-406,540	344,925	0,039	0,057
-405,525	21,144	0,080	-0,047
-404,511	-200,000	-0,007	-0,034
-403,496	-111,484	-0,078	0,011
-402,482	-200,000	0,005	0,085
-401,467	-88,156	0,082	-0,018
-400,452	-114,705	0,053	0,007
-399,438	-200,000	-0,014	0,088
-398,423	88,434	0,051	-0,041
-397,409	-26,859	0,031	-0,013
-396,394	-200,000	-0,006	-0,070
-395,379	-200,000	0,021	-0,128
-394,365	127,058	0,057	0,053
-393,350	39,955	0,089	-0,058
-392,336	800,000	0,049	-0,138
-391,321	-200,000	0,007	-0,126
-390,306	163,034	0,066	-0,067
-389,292	145,946	-0,051	0,049
-388,277	-35,671	0,023	0,009
-387,263	-200,000	0,009	-0,031
-386,248	-109,174	-0,075	-0,012
-385,233	27,352	0,065	0,039
-384,219	571,609	0,055	-0,098
-383,204	59,899	-0,093	-0,066
-382,190	19,610	0,073	-0,043
-381,175	-200,000	0,032	0,139
-380,160	-145,606	0,079	-0,005
-379,146	204,110	0,089	0,100
-378,131	302,296	-0,049	0,065
-377,117	460,387	-0,044	0,071
-376,102	800,000	0,030	-0,089
-375,088	340,125	0,049	0,069
-374,073	325,562	0,085	0,119
-373,058	-187,262	-0,127	0,001
-372,044	-57,613	-0,077	0,024
-371,029	120,038	0,065	0,058
-370,015	188,006	-0,045	0,049
-369,000	-200,000	0,045	-0,196
-367,985	-200,000	-0,040	-0,155
-366,971	69,219	0,038	0,028
-365,956	-200,000	0,040	-0,137
-364,942	33,287	-0,094	0,059
-363,927	255,973	-0,004	-0,005
-362,912	116,291	0,114	-0,102
-361,898	78,737	0,036	0,028
-360,883	-200,000	0,007	-0,046
-359,869	158,755	-0,048	0,048
-358,854	-200,000	0,043	0,169
-357,839	76,943	-0,022	-0,017
-356,825	114,023	0,042	-0,037
-355,810	-63,096	0,163	0,048
-354,796	148,804	0,112	-0,110
-353,781	193,938	-0,100	-0,111
-352,766	550,601	0,031	0,054
-351,752	24,572	0,089	-0,054
-350,737	-175,105	0,103	-0,002
-349,723	800,000	0,044	-0,093
-348,708	-52,547	0,142	0,047
-347,693	-200,000	-0,020	0,077
-346,679	-92,567	-0,097	0,020
-345,664	800,000	0,043	-0,104
-344,650	-25,920	-0,034	0,014
-343,635	343,471	0,122	0,174
-342,620	239,362	0,045	-0,055
-341,606	265,663	-0,038	0,048
-340,591	-200,000	-0,017	0,095
-339,577	209,596	0,020	-0,022
-338,562	273,942	-0,010	-0,013
-337,548	-18,990	-0,074	0,033
-336,533	617,652	0,021	0,037
-335,518	87,446	0,060	0,048
-334,504	-199,938	0,085	-0,000
-333,489	-200,000	0,014	0,000
-332,475	158,042	-0,126	-0,127
-331,460	356,805	-0,096	-0,140
-330,445	-200,000	0,002	-0,081
-329,431	-145,414	-0,141	-0,009
-328,416	20,396	0,110	0,064
-327,402	800,000	-0,037	0,078
-326,387	-200,000	0,011	0,048
-325,372	193,421	-0,027	0,030
-324,358	-200,000	-0,014	0,091
-323,343	-200,000	-0,006	0,066
-322,329	800,000	-0,039	-0,090
-321,314	-200,000	0,032	0,180
-320,299	349,783	0,044	0,063
-319,285	-200,000	-0,002	0,162
-318,270	-200,000	0,012	0,205
-317,256	48,922	-0,158	-0,107
-316,241	103,063	-0,145	0,123
-315,226	-200,000	-0,031	0,160
-314,212	127,669	0,067	-0,062
-313,197	-96,684	0,026	-0,005
-312,183	-200,000	-0,015	-0,053
-311,168	30,646	-0,196	-0,121
-310,153	-200,000	-0,017	0,085
-309,139	-200,000	0,011	-0,049
-308,124	-44,478	0,096	-0,035
-307,110	-200,000	0,001	0,045
-306,095	291,343	-0,058	0,076
-305,080	-64,696	-0,132	0,038
-304,066	89,990	-0,065	0,052
-303,051	-200,000	0,021	0,087
-302,037	-56,712	0,027	0,009
-301,022	-200,000	0,005	0,081
-300,008	7,423	0,027	0,014
-298,993	113,299	-0,100	0,087
-297,978	-153,605	0,249	0,012
-296,964	64,584	-0,093	0,068
-295,949	-32,775	0,131	-0,053
-294,935	800,000	-0,009	-0,028
-293,920	-61,751	0,060	-0,018
-292,905	-200,000	-0,002	-0,122
-291,891	11,100	-0,046	0,026
-290,876	-51,743	0,117	0,039
-289,862	-200,000	-0,006	0,086
-288,847	-57,251	-0,086	-0,027
-287,832	572,007	-0,047	-0,083
-286,818	-200,000	-0,009	-0,087
-285,803	405,167	-0,004	-0,006
-284,789	294,214	-0,107	-0,142
-283,774	-117,196	0,090	0,012
-282,759	-200,000	-0,044	-0,160
-281,745	-79,825	-0,086	0,021
-280,730	800,000	-0,029	-0,080
-279,716	-6,584	0,027	-0,013
-278,701	-105,636	0,249	-0,040
-277,686	-200,000	-0,004	0,076
-276,672	-32,006	0,075	0,030
-275,657	-200,000	0,001	0,147
-274,643	-153,507	-0,053	0,003
-273,628	800,000	0,023	0,055
-272,613	800,000	-0,007	-0,017
-271,599	-45,411	0,108	0,038
-270,584	553,131	-0,057	-0,100
-269,570	290,520	0,052	-0,069
-268,555	-200,000	-0,008	-0,121
-267,540	140,521	-0,149	0,142
-266,526	-200,000	0,010	-0,155
-265,511	88,984	-0,135	-0,109
-264,497	800,000	0,057	0,127
-263,482	800,000	-0,053	-0,144
-262,467	-139,181	0,081	-0,006
-261,453	-200,000	-0,028	-0,097
-260,438	74,601	-0,046	-0,035
-259,424	-200,000	0,012	-0,047
-258,409	434,381	0,044	-0,070
-257,395	-121,132	0,086	-0,010
-256,380	-200,000	0,027	-0,087
-255,365	97,282	-0,079	0,065
-254,351	-101,948	0,050	0,009
-253,336	800,000	-0,039	-0,091
-252,322	36,724	-0,072	0,046
-251,307	800,000	0,054	0,130
-250,292	73,945	0,057	0,043
-249,278	410,358	0,037	-0,057
-248,263	121,372	0,049	0,044
-247,249	162,494	0,006	-0,006
-246,234	149,533	0,090	0,088
-245,219	-70,355	-0,110	-0,030
-244,205	162,951	-0,104	0,106
-243,190	800,000	-0,030	-0,067
-242,176	800,000	0,049	-0,107
-241,161	60,068	0,025	0,018
-240,146	-92,894	0,053	-0,011
-239,132	167,676	-0,067	0,069
-238,117	77,410	-0,081	-0,062
-237,103	-65,518	-0,079	-0,023
-236,088	535,579	0,032	-0,055
-235,073	-41,845	0,053	0,020
-234,059	-166,414	0,112	-0,003
-233,044	189,817	0,036	0,039
-232,030	-200,000	-0,005	-0,041
-231,015	-70,983	-0,159	-0,043
-230,000	-64,419	0,057	0,017
-228,986	230,520	-0,066	-0,079
-227,971	24,081	-0,030	0,018
-226,957	-7,958	-0,013	0,006
-225,942	-200,000	0,011	0,074
-224,927	-1,423	-0,031	0,016
-223,913	61,624	-0,142	-0,102
-222,898	800,000	-0,052	0,151
-221,884	-200,000	-0,058	0,218
-220,869	-200,000	0,012	0,102
-219,855	-64,789	0,060	0,017
-218,840	198,041	0,163	0,180
-217,825	-134,989	-0,042	0,004
-216,811	575,682	0,028	-0,049
-215,796	46,549	-0,154	-0,103
-214,782	141,207	0,069	0,066
-213,767	726,270	-0,058	0,112
-212,752	119,902	0,010	-0,009
-211,738	104,910	-0,028	0,023
-210,723	800,000	0,024	-0,063
-209,709	-61,060	0,158	-0,048
-208,694	-33,672	-0,022	0,009
-207,679	-47,967	-0,138	0,048
-206,665	131,905	0,075	0,070
-205,650	-40,474	-0,011	0,004
-204,636	742,796	-0,031	0,061
-203,621	-200,000	0,024	-0,111
-202,606	-72,185	-0,202	-0,054
-201,592	-188,145	0,208	0,002
-200,577	-200,000	-0,012	0,058
-199,563	299,707	0,076	0,101
-198,548	92,259	0,075	0,061
-197,533	-65,268	0,044	-0,013
-196,519	800,000	0,028	0,063
-195,504	-63,409	-0,093	-0,028
-194,490	-109,056	-0,055	-0,008
-193,475	21,953	-0,118	-0,069
-192,460	-200,000	-0,009	-0,030
-191,446	800,000	0,039	0,087
-190,431	-200,000	0,025	0,086
-189,417	800,000	-0,033	0,085
-188,402	359,396	-0,086	-0,125
-187,387	3,923	-0,105	-0,055
-186,373	-200,000	0,014	-0,085
-185,358	-200,000	-0,003	0,042
-184,344	108,788	0,084	-0,073
-183,329	12,045	-0,047	-0,026
-182,315	536,471	0,064	0,110
-181,300	800,000	0,055	0,152
-180,285	281,431	-0,032	-0,041
-179,271	646,315	-0,040	0,073
-178,256	274,267	0,055	-0,070
-177,242	-200,000	0,025	0,168
-176,227	60,037	0,078	0,056
-175,212	800,000	-0,023	0,051
-174,198	800,000	-0,038	0,079
-173,183	800,000	0,008	-0,019
-172,169	-159,320	0,048	-0,002
-171,154	-200,000	-0,002	-0,144
-170,139	190,733	0,022	0,024
-169,125	177,935	0,096	0,100
-168,110	-200,000	0,020	0,082
-167,096	431,438	-0,108	0,170
-166,081	-200,000	-0,005	-0,199
-165,066	-200,000	0,025	-0,128
-164,052	800,000	0,034	-0,072
-163,037	-200,000	0,009	0,038
-162,023	-200,000	0,014	0,049
-161,008	19,983	0,072	0,041
-159,993	156,826	-0,020	0,020
-158,979	331,855	0,074	0,103
-157,964	-39,380	-0,121	-0,046
-156,950	57,794	0,051	-0,036
-155,935	-200,000	0,007	-0,056
-154,920	-200,000	0,016	0,072
-153,906	800,000	-0,006	0,019
-152,891	-59,180	0,215	0,066
-151,877	-136,820	0,096	-0,008
-150,862	87,960	-0,057	-0,046
-149,847	90,334	0,035	-0,028
-148,833	-200,000	-0,047	0,151
-147,818	509,103	0,032	0,055
-146,804	241,998	0,056	0,068
-145,789	63,045	0,109	-0,079
-144,775	285,612	-0,037	-0,048
-143,760	64,172	0,052	-0,037
-142,745	800,000	-0,050	-0,104
-141,731	-200,000	-0,038	0,213
-140,716	-128,237	-0,137	0,014
-139,702	34,504	-0,031	0,020
-138,687	800,000	0,043	0,102
-137,672	800,000	-0,013	-0,040
-136,658	-139,996	-0,086	-0,006
-135,643	31,015	-0,120	-0,074
-134,629	-200,000	-0,004	0,046
-133,614	-200,000	-0,011	0,136
-132,599	-200,000	-0,002	0,135
-131,585	-87,678	0,060	0,013
-130,570	800,000	-0,020	-0,049
-129,556	652,601	-0,067	-0,123
-128,541	58,303	-0,094	-0,066
-127,526	-200,000	-0,016	-0,111
-126,512	-23,870	0,059	-0,025
-125,497	-44,758	0,158	-0,056
-124,483	622,235	-0,032	0,058
-123,468	-200,000	0,016	-0,246
-122,453	463,385	0,077	-0,125
-121,439	800,000	0,021	-0,063
-120,424	-200,000	-0,017	-0,150
-119,410	69,912	0,058	-0,043
