DTS Sentinel unit serial number:	SN410029Multiplexer serial number:	ORYXHardware model number:	OX2-SRSoftware version number:	ORYX F/W v4,00 Oryx Data Collector v3.7.2.0data status	okinstallation	B5 Nyhavnadifferential loss correction	single-endedforward channel	channel 2reverse channel	N/Adate	2023/12/11time	17:22:13forward acquisition time	300,00reverse acquisition time	0,00gamma	499,1914k internal	0,3163k external	0,3163temperature offset calibration	1,0000default loss term (dB/km)	0,3820temperature slope calibration	1,0000multiplexer offset coefficient	1,0000multiplexer slope coefficient	1,0000fibre end	0,00T internal ref (°C)	14,64T ext. ref 1 (°C)	-0,65T ext. ref 2 (°C)	-0,88length (m)	temperature (°C)	Stokes	anti-Stokes-744,400	-103,639	0,137	0,023
-743,385	-64,178	-0,356	0,106
-742,371	47,437	0,078	-0,053
-741,356	-119,173	-0,209	-0,027
-740,342	-200,000	0,023	-0,092
-739,327	-175,879	-0,417	-0,008
-738,312	-200,000	-0,054	-0,203
-737,298	-142,700	-0,310	-0,022
-736,283	-56,777	0,093	0,030
-735,269	-72,211	-0,293	-0,079
-734,254	171,843	0,066	0,070
-733,239	-146,471	-0,387	-0,024
-732,225	251,872	-0,088	-0,111
-731,210	43,185	0,055	0,037
-730,196	89,303	-0,013	0,011
-729,181	724,352	-0,034	0,067
-728,167	-42,056	0,036	0,014
-727,152	17,741	0,059	0,034
-726,137	142,300	-0,071	-0,070
-725,123	-200,000	-0,013	-0,090
-724,108	443,757	0,075	-0,121
-723,094	279,136	0,072	0,095
-722,079	74,450	-0,080	0,062
-721,064	134,614	0,040	0,038
-720,050	14,401	-0,101	0,058
-719,035	-200,000	0,001	0,050
-718,021	-87,750	-0,132	0,029
-717,006	-148,928	-0,207	0,012
-715,991	-44,952	-0,074	-0,027
-714,977	8,577	0,135	-0,074
-713,962	800,000	-0,014	0,031
-712,948	-200,000	-0,019	0,077
-711,933	800,000	-0,060	0,177
-710,918	800,000	0,036	-0,094
-709,904	-104,162	-0,082	-0,014
-708,889	208,439	0,078	-0,090
-707,875	-200,000	0,018	0,143
-706,860	104,458	-0,031	-0,027
-705,845	442,020	0,031	0,050
-704,831	-200,000	0,003	0,026
-703,816	-200,000	-0,003	0,015
-702,802	111,996	0,015	0,013
-701,787	-86,908	0,049	-0,011
-700,772	646,776	0,034	-0,064
-699,758	531,076	-0,045	-0,079
-698,743	-85,969	0,044	0,010
-697,729	-200,000	-0,027	-0,103
-696,714	465,371	0,052	-0,086
-695,699	606,599	-0,071	-0,131
-694,685	133,147	-0,043	-0,041
-693,670	187,510	-0,034	-0,037
-692,656	-170,700	0,061	-0,002
-691,641	-59,489	-0,046	-0,014
-690,627	800,000	-0,011	0,028
-689,612	800,000	-0,024	0,078
-688,597	133,660	-0,105	-0,100
-687,583	17,052	-0,035	0,020
-686,568	-200,000	0,003	-0,161
-685,554	44,890	-0,091	-0,062
-684,539	800,000	0,042	-0,126
-683,524	493,498	-0,044	-0,075
-682,510	7,719	-0,172	-0,094
-681,495	341,632	-0,079	0,114
-680,481	-121,174	0,052	0,006
-679,466	-200,000	-0,001	-0,032
-678,451	15,262	-0,030	0,017
-677,437	-15,736	-0,136	0,063
-676,422	-119,740	-0,079	-0,010
-675,408	-200,000	-0,056	-0,228
-674,393	116,153	-0,061	-0,055
-673,378	-70,298	0,123	-0,034
-672,364	256,542	-0,077	-0,097
-671,349	-200,000	-0,009	-0,108
-670,335	151,923	0,118	-0,119
-669,320	24,451	-0,078	-0,047
-668,305	477,130	0,040	-0,067
-667,291	118,236	0,134	-0,122
-666,276	-200,000	-0,026	-0,106
-665,262	-200,000	0,019	-0,097
-664,247	-200,000	0,001	0,153
-663,232	-31,954	0,025	-0,010
-662,218	11,073	-0,095	0,053
-661,203	-200,000	-0,014	-0,077
-660,189	800,000	0,055	0,129
-659,174	-111,461	-0,056	0,008
-658,159	95,703	-0,113	-0,094
-657,145	-112,071	-0,131	-0,019
-656,130	-45,368	0,039	0,014
-655,116	-83,138	0,029	0,007
-654,101	107,158	0,125	0,109
-653,086	800,000	0,019	-0,059
-652,072	74,056	0,118	-0,090
-651,057	-200,000	-0,014	-0,125
-650,043	710,775	0,103	-0,201
-649,028	25,516	-0,042	-0,025
-648,014	-87,358	0,095	-0,021
-646,999	-92,587	0,154	0,031
-645,984	-200,000	-0,031	-0,225
-644,970	-31,314	-0,020	0,008
-643,955	-200,000	0,003	-0,023
-642,941	566,100	-0,095	-0,169
-641,926	168,424	0,047	-0,049
-640,911	51,775	0,039	0,027
-639,897	336,131	0,023	-0,032
-638,882	800,000	0,029	0,075
-637,868	8,730	0,106	-0,058
-636,853	-200,000	-0,007	-0,091
-635,838	648,177	-0,079	-0,148
-634,824	-39,840	-0,163	-0,062
-633,809	43,155	0,104	-0,069
-632,795	210,799	-0,049	-0,056
-631,780	-102,753	-0,136	0,023
-630,765	-101,732	-0,128	-0,023
-629,751	46,232	-0,069	-0,047
-628,736	339,557	-0,117	-0,167
-627,722	560,925	-0,055	-0,097
-626,707	676,775	0,031	-0,059
-625,692	-200,000	-0,021	0,108
-624,678	447,036	-0,043	-0,069
-623,663	-200,000	-0,002	0,053
-622,649	-200,000	-0,004	-0,023
-621,634	-102,567	-0,042	0,007
-620,619	-43,684	-0,096	0,035
-619,605	-200,000	0,029	-0,113
-618,590	125,387	0,083	-0,077
-617,576	-200,000	0,015	0,094
-616,561	56,751	-0,156	0,111
-615,546	-49,883	0,153	0,053
-614,532	-200,000	0,032	-0,134
-613,517	392,013	-0,092	-0,140
-612,503	15,106	0,013	-0,007
-611,488	301,642	-0,043	-0,059
-610,474	-28,518	0,023	-0,010
-609,459	-12,831	0,092	-0,044
-608,444	-102,728	-0,108	-0,019
-607,430	800,000	0,040	-0,112
-606,415	800,000	-0,054	-0,169
-605,401	-200,000	-0,048	-0,156
-604,386	-200,000	-0,013	-0,057
-603,371	800,000	0,020	0,059
-602,357	800,000	0,024	-0,055
-601,342	56,180	0,098	-0,070
-600,328	-92,583	-0,053	-0,011
-599,313	-122,114	-0,097	-0,011
-598,298	800,000	-0,045	-0,104
-597,284	151,290	-0,045	0,045
-596,269	-200,000	0,012	0,080
-595,255	-200,000	-0,011	0,038
-594,240	166,567	0,019	-0,020
-593,225	-62,777	-0,130	-0,039
-592,211	-138,730	0,105	0,008
-591,196	-126,487	-0,016	-0,002
-590,182	800,000	-0,036	-0,086
-589,167	-42,918	0,210	0,077
-588,152	60,222	-0,113	0,081
-587,138	-200,000	0,004	0,171
-586,123	282,285	-0,072	0,094
-585,109	-104,324	-0,103	-0,017
-584,094	-115,968	0,096	-0,013
-583,079	1,282	0,064	0,034
-582,065	-20,112	0,136	0,061
-581,050	800,000	-0,049	0,101
-580,036	84,354	-0,037	-0,029
-579,021	-58,978	-0,101	0,032
-578,006	-200,000	-0,011	-0,102
-576,992	-19,561	-0,049	0,022
-575,977	800,000	0,057	-0,126
-574,963	-2,780	0,231	-0,118
-573,948	451,949	-0,060	0,098
-572,934	82,242	-0,052	0,041
-571,919	59,546	-0,194	-0,140
-570,904	220,308	0,084	-0,099
-569,890	32,847	-0,075	-0,047
-568,875	275,433	0,026	-0,033
-567,861	167,416	-0,048	0,049
-566,846	41,426	0,080	0,053
-565,831	-38,355	-0,069	-0,027
-564,817	800,000	0,035	-0,086
-563,802	800,000	-0,045	-0,097
-562,788	38,814	-0,091	-0,059
-561,773	-44,640	-0,068	0,025
-560,758	800,000	0,059	0,168
-559,744	241,102	0,132	0,162
-558,729	79,031	-0,048	-0,037
-557,715	110,358	0,136	-0,120
-556,700	-200,000	-0,007	-0,029
-555,685	413,536	0,014	0,022
-554,671	-73,511	-0,038	-0,010
-553,656	-81,569	0,005	0,001
-552,642	-144,474	0,011	-0,001
-551,627	-56,293	-0,103	-0,033
-550,612	100,893	0,058	-0,050
-549,598	-134,544	-0,166	-0,015
-548,583	-200,000	-0,003	-0,022
-547,569	-200,000	-0,013	-0,124
-546,554	800,000	-0,038	0,106
-545,539	152,651	-0,047	0,047
-544,525	-200,000	0,005	0,038
-543,510	208,281	-0,070	-0,080
-542,496	374,370	0,049	-0,074
-541,481	-117,290	-0,170	0,022
-540,466	-200,000	0,031	0,109
-539,452	-200,000	0,024	-0,214
-538,437	369,242	0,006	0,009
-537,423	-200,000	-0,019	0,125
-536,408	-200,000	-0,004	-0,061
-535,393	-200,000	-0,014	0,053
-534,379	80,171	0,005	0,004
-533,364	-139,536	-0,053	-0,004
-532,350	-200,000	-0,017	-0,082
-531,335	-59,138	0,029	0,009
-530,321	-15,689	0,059	0,027
-529,306	800,000	-0,051	0,126
-528,291	-200,000	0,001	-0,040
-527,277	-33,903	-0,050	0,020
-526,262	36,897	0,113	-0,073
-525,248	-200,000	0,009	-0,029
-524,233	-200,000	-0,010	0,172
-523,218	546,504	-0,011	0,019
-522,204	-37,023	-0,133	0,052
-521,189	-200,000	-0,000	-0,029
-520,175	-20,239	0,139	-0,062
-519,160	-200,000	-0,013	0,106
-518,145	144,108	-0,038	-0,037
-517,131	34,278	0,113	0,072
-516,116	48,908	0,020	0,014
-515,102	800,000	-0,031	-0,081
-514,087	111,690	-0,127	-0,112
-513,072	-153,049	0,052	0,003
-512,058	34,937	0,026	-0,016
-511,043	71,666	0,088	0,066
-510,029	800,000	0,064	0,159
-509,014	38,113	-0,076	0,049
-507,999	-27,307	0,067	-0,028
-506,985	54,199	-0,034	-0,024
-505,970	800,000	-0,023	-0,066
-504,956	-19,879	0,036	0,016
-503,941	800,000	-0,019	0,049
-502,926	-91,332	0,200	0,041
-501,912	762,161	0,012	0,023
-500,897	800,000	-0,066	0,136
-499,883	-12,859	-0,087	0,041
-498,868	35,507	-0,063	0,040
-497,853	-117,187	-0,043	0,006
-496,839	86,978	-0,012	0,010
-495,824	-1,366	0,158	0,081
-494,810	82,418	0,085	0,067
-493,795	-6,836	0,048	-0,024
-492,781	-200,000	-0,057	-0,184
-491,766	-136,810	-0,123	-0,010
-490,751	8,113	-0,032	-0,018
-489,737	93,695	0,016	0,014
-488,722	-200,000	-0,016	-0,077
-487,708	72,534	0,160	-0,122
-486,693	257,520	-0,041	-0,052
-485,678	-134,344	0,114	-0,010
-484,664	139,485	-0,058	0,055
-483,649	-200,000	-0,010	-0,104
-482,635	-200,000	-0,037	-0,143
-481,620	800,000	-0,019	0,047
-480,605	422,804	0,064	0,101
-479,591	-200,000	0,024	-0,082
-478,576	644,765	-0,029	0,054
-477,562	44,301	0,132	0,088
-476,547	800,000	-0,011	-0,031
-475,532	-151,824	-0,084	-0,004
-474,518	156,031	0,060	-0,060
-473,503	365,560	-0,084	0,124
-472,489	690,754	0,061	0,116
-471,474	-200,000	-0,045	0,200
-470,459	-200,000	0,024	0,081
-469,445	772,764	0,027	0,055
-468,430	-38,251	0,104	0,040
-467,416	-200,000	0,023	0,100
-466,401	88,463	0,121	0,098
-465,386	-200,000	0,020	-0,122
-464,372	102,609	-0,135	-0,115
-463,357	-110,798	-0,101	-0,015
-462,343	800,000	0,003	0,007
-461,328	-162,730	-0,145	-0,005
-460,313	-127,974	0,037	-0,004
-459,299	461,111	-0,042	0,068
-458,284	800,000	0,069	0,146
-457,270	800,000	-0,019	0,053
-456,255	800,000	-0,020	-0,063
-455,241	-58,183	0,080	-0,025
-454,226	800,000	0,024	-0,050
-453,211	-30,621	-0,045	0,018
-452,197	-126,838	-0,074	-0,008
-451,182	-79,236	0,023	-0,006
-450,168	51,813	-0,057	0,039
-449,153	-200,000	0,000	-0,023
-448,138	-2,023	-0,063	-0,032
-447,124	-85,215	0,004	-0,001
-446,109	-107,558	0,074	0,012
-445,095	800,000	-0,012	0,031
-444,080	159,008	0,117	-0,118
-443,065	-138,131	-0,099	-0,008
-442,051	92,579	0,037	-0,030
-441,036	-200,000	0,002	-0,037
-440,022	-109,265	0,039	0,006
-439,007	638,206	-0,031	0,058
-437,992	-139,163	-0,115	0,009
-436,978	78,444	-0,024	-0,018
-435,963	-10,121	0,058	0,028
-434,949	-200,000	-0,011	-0,113
-433,934	-200,000	0,015	-0,119
-432,919	83,668	-0,020	-0,016
-431,905	300,113	-0,011	-0,015
-430,890	-200,000	0,025	0,117
-429,876	134,310	0,050	0,047
-428,861	104,478	0,075	-0,064
-427,846	126,448	0,071	-0,065
-426,832	-151,253	0,057	-0,003
-425,817	587,192	-0,024	0,044
-424,803	-123,314	-0,154	-0,018
-423,788	632,028	0,017	-0,032
-422,773	-7,853	-0,099	0,048
-421,759	-127,775	-0,070	0,007
-420,744	800,000	-0,066	0,165
-419,730	-200,000	-0,006	-0,181
-418,715	800,000	0,070	-0,185
-417,701	-19,912	-0,019	-0,009
-416,686	57,202	0,140	0,099
-415,671	-200,000	0,004	0,101
-414,657	133,412	0,073	0,068
-413,642	-200,000	0,002	0,011
-412,628	-34,325	-0,058	0,023
-411,613	57,788	-0,033	0,023
-410,598	14,779	0,020	-0,011
-409,584	-200,000	-0,003	-0,082
-408,569	14,816	-0,121	-0,069
-407,555	546,030	0,036	0,063
-406,540	800,000	-0,042	0,094
-405,525	-200,000	-0,008	-0,089
-404,511	-200,000	0,017	-0,057
-403,496	31,437	-0,060	0,037
-402,482	345,235	0,064	0,091
-401,467	800,000	-0,061	0,131
-400,452	40,580	0,122	-0,080
-399,438	131,183	0,057	0,053
-398,423	175,234	-0,054	-0,057
-397,409	800,000	0,066	-0,168
-396,394	385,192	-0,057	0,086
-395,379	-114,463	0,072	0,010
-394,365	55,994	-0,051	0,036
-393,350	-50,584	0,104	-0,035
-392,336	-129,144	-0,030	0,003
-391,321	133,738	-0,056	-0,053
-390,306	800,000	-0,034	-0,090
-389,292	-119,446	-0,172	0,021
-388,277	-200,000	0,028	-0,137
-387,263	-200,000	-0,017	0,098
-386,248	419,552	0,062	0,097
-385,233	-140,665	0,129	-0,010
-384,219	447,615	-0,088	0,141
-383,204	27,496	0,035	0,021
-382,190	-200,000	-0,026	0,102
-381,175	0,345	0,156	-0,081
-380,160	800,000	-0,037	0,111
-379,146	-2,062	0,127	0,065
-378,131	800,000	-0,041	0,103
-377,117	800,000	0,030	0,089
-376,102	19,979	-0,125	-0,073
-375,088	-200,000	0,027	0,109
-374,073	132,936	-0,026	-0,025
-373,058	-200,000	0,124	-0,000
-372,044	194,132	0,094	0,103
-371,029	4,687	0,098	-0,052
-370,015	70,301	-0,080	0,060
-369,000	-115,546	-0,017	-0,002
-367,985	-181,958	-0,128	0,002
-366,971	-200,000	0,007	-0,039
-365,956	-143,519	0,117	-0,008
-364,942	24,431	0,129	-0,077
-363,927	-46,951	-0,055	-0,019
-362,912	152,763	-0,032	-0,032
-361,898	213,690	-0,014	0,016
-360,883	-171,244	-0,165	0,004
-359,869	-52,220	-0,032	-0,011
-358,854	-200,000	0,038	0,129
-357,839	-200,000	-0,054	0,175
-356,825	38,439	0,086	-0,055
-355,810	-200,000	0,015	0,098
-354,796	82,286	0,091	0,072
-353,781	-101,265	-0,110	-0,019
-352,766	97,972	0,050	0,041
-351,752	-94,590	0,042	0,008
-350,737	474,664	0,032	0,052
-349,723	311,713	-0,008	0,011
-348,708	479,904	-0,076	0,125
-347,693	800,000	0,014	-0,033
-346,679	-73,339	0,135	-0,036
-345,664	354,000	-0,053	0,076
-344,650	-200,000	-0,002	-0,009
-343,635	-0,425	-0,027	0,014
-342,620	-79,629	0,091	0,022
-341,606	-200,000	0,004	-0,027
-340,591	800,000	0,051	0,104
-339,577	800,000	0,004	-0,008
-338,562	139,124	0,014	-0,014
-337,548	-161,768	0,120	-0,004
-336,533	-200,000	0,006	0,057
-335,518	-68,518	-0,084	0,023
-334,504	800,000	0,050	0,106
-333,489	42,422	0,090	-0,059
-332,475	-37,186	-0,070	0,027
-331,460	124,190	0,072	-0,065
-330,445	137,338	0,065	-0,061
-329,431	76,934	0,136	-0,105
-328,416	226,538	-0,059	-0,069
-327,402	-200,000	0,009	-0,051
-326,387	-200,000	-0,017	-0,077
-325,372	800,000	0,032	0,075
-324,358	800,000	-0,041	0,128
-323,343	-100,264	0,076	-0,014
-322,329	424,819	0,035	-0,055
-321,314	112,957	0,077	0,068
-320,299	121,522	0,098	0,088
-319,285	-18,440	0,050	0,022
-318,270	58,855	0,059	-0,042
-317,256	-53,519	-0,142	-0,047
-316,241	15,389	0,058	0,033
-315,226	-98,826	-0,070	-0,013
-314,212	163,200	-0,032	0,033
-313,197	63,276	-0,016	-0,011
-312,183	-200,000	0,005	0,151
-311,168	335,950	-0,063	-0,089
-310,153	678,268	-0,084	-0,160
-309,139	-200,000	0,026	0,105
-308,124	800,000	-0,011	0,030
-307,110	47,265	-0,025	0,017
-306,095	-127,866	-0,156	0,016
-305,080	-52,889	0,127	-0,042
-304,066	299,988	-0,075	-0,100
-303,051	109,772	0,083	-0,072
-302,037	315,271	-0,037	0,050
-301,022	800,000	0,049	-0,127
-300,008	800,000	-0,009	-0,018
-298,993	6,151	0,046	0,024
-297,978	366,020	0,054	0,079
-296,964	-200,000	0,003	0,017
-295,949	800,000	-0,011	-0,035
-294,935	-200,000	0,002	0,091
-293,920	-150,626	0,064	0,003
-292,905	88,915	-0,112	-0,090
-291,891	-140,576	0,081	-0,006
-290,876	-200,000	-0,011	0,084
-289,862	800,000	0,002	0,005
-288,847	46,786	0,044	-0,030
-287,832	433,065	-0,025	0,039
-286,818	180,778	-0,085	-0,091
-285,803	-99,698	0,053	-0,009
-284,789	113,589	0,070	0,062
-283,774	298,269	0,080	0,107
-282,759	138,408	-0,047	-0,045
-281,745	37,760	-0,024	-0,016
-280,730	-4,798	-0,166	-0,083
-279,716	-29,193	-0,091	-0,037
-278,701	-157,278	0,121	-0,005
-277,686	-99,047	0,105	-0,019
-276,672	800,000	-0,021	-0,048
-275,657	800,000	-0,036	-0,102
-274,643	245,918	-0,085	-0,104
-273,628	-37,166	0,021	-0,008
-272,613	-6,117	0,031	-0,015
-271,599	-175,831	-0,032	-0,001
-270,584	-200,000	-0,007	0,067
-269,570	109,955	0,159	0,138
-268,555	-146,337	0,109	-0,007
-267,540	800,000	0,005	0,011
-266,526	780,411	-0,066	-0,130
-265,511	-63,117	-0,045	0,013
-264,497	-23,296	-0,140	0,061
-263,482	87,106	0,053	0,042
-262,467	286,659	0,073	0,095
-261,453	107,928	-0,049	-0,042
-260,438	-200,000	-0,019	-0,105
-259,424	-200,000	-0,022	-0,141
-258,409	-16,857	0,113	-0,051
-257,395	-200,000	-0,001	-0,023
-256,380	95,020	0,158	0,130
-255,365	41,555	-0,020	0,013
-254,351	800,000	0,059	-0,121
-253,336	23,599	-0,004	-0,002
-252,322	26,954	0,015	0,009
-251,307	-110,986	-0,027	0,004
-250,292	30,883	0,030	0,019
-249,278	479,526	-0,044	0,073
-248,263	230,563	0,048	-0,057
-247,249	139,475	-0,041	0,039
-246,234	-200,000	0,006	-0,106
-245,219	11,019	-0,104	-0,057
-244,205	225,561	-0,076	-0,088
-243,190	201,279	-0,044	0,049
-242,176	320,319	-0,061	-0,084
-241,161	225,003	-0,022	0,026
-240,146	246,687	0,040	-0,049
-239,132	185,543	-0,072	-0,077
-238,117	362,226	-0,062	-0,090
-237,103	-159,253	0,145	-0,006
-236,088	-79,767	-0,053	0,013
-235,073	-140,554	0,137	-0,010
-234,059	30,196	-0,046	0,028
-233,044	167,471	0,144	0,148
-232,030	283,386	-0,067	0,088
-231,015	-40,214	0,061	0,023
-230,000	-97,604	-0,139	-0,026
-228,986	-200,000	0,017	0,118
-227,971	-200,000	-0,004	0,096
-226,957	-3,000	-0,021	0,011
-225,942	800,000	-0,026	-0,056
-224,927	240,807	-0,079	0,096
-223,913	800,000	0,026	0,057
-222,898	-200,000	-0,025	-0,085
-221,884	-47,955	0,032	0,011
-220,869	-157,444	0,075	-0,003
-219,855	571,820	-0,061	0,108
-218,840	-103,145	-0,020	-0,003
-217,825	-34,647	0,103	0,040
-216,811	693,371	-0,037	0,071
-215,796	-98,103	-0,192	-0,035
-214,782	-164,735	0,079	0,003
-213,767	-90,313	0,135	0,028
-212,752	7,339	0,094	0,050
-211,738	-57,416	-0,103	-0,032
-210,723	396,984	-0,042	0,063
-209,709	396,642	0,064	-0,096
-208,694	3,573	-0,088	-0,046
-207,679	609,302	-0,067	0,121
-206,665	28,732	0,052	-0,031
-205,650	-135,813	-0,088	-0,007
-204,636	-155,542	0,087	-0,004
-203,621	-144,031	0,039	0,003
-202,606	-19,347	-0,075	-0,033
-201,592	800,000	0,036	-0,078
-200,577	-200,000	-0,001	0,010
-199,563	313,122	0,035	-0,047
-198,548	615,653	0,022	0,039
-197,533	294,197	0,135	0,178
-196,519	-200,000	-0,075	0,254
-195,504	-200,000	-0,014	0,045
-194,490	-200,000	0,016	-0,074
-193,475	-200,000	0,001	0,153
-192,460	-200,000	0,034	-0,125
-191,446	-200,000	-0,013	0,086
-190,431	14,200	0,114	0,064
-189,417	-165,961	0,057	0,002
-188,402	366,493	-0,068	0,100
-187,387	139,293	-0,007	-0,006
-186,373	-112,582	-0,102	-0,015
-185,358	-200,000	-0,006	-0,100
-184,344	-200,000	0,044	0,152
-183,329	-200,000	-0,015	-0,080
-182,315	67,029	-0,131	0,096
-181,300	3,261	-0,040	0,021
-180,285	-71,984	-0,071	-0,019
-179,271	219,027	0,010	0,012
-178,256	800,000	0,025	0,077
-177,242	-101,715	0,110	-0,019
-176,227	48,309	0,115	-0,077
-175,212	108,143	0,087	0,075
-174,198	-104,329	-0,105	0,017
-173,183	-188,819	0,089	-0,001
-172,169	-142,250	0,075	-0,005
-171,154	800,000	-0,052	-0,127
-170,139	-200,000	-0,003	-0,013
-169,125	525,764	0,029	0,049
-168,110	125,867	0,029	-0,026
-167,096	40,607	0,047	0,030
-166,081	-179,536	-0,179	0,003
-165,066	-200,000	0,026	0,160
-164,052	-200,000	-0,024	0,113
-163,037	-200,000	0,007	0,033
-162,023	3,579	0,219	-0,115
-161,008	650,517	-0,063	0,117
-159,993	3,236	-0,091	0,047
-158,979	69,430	-0,053	0,039
-157,964	-200,000	-0,019	-0,074
-156,950	116,147	-0,111	-0,098
-155,935	-200,000	0,010	-0,205
-154,920	800,000	-0,031	0,068
-153,906	-114,493	-0,040	0,005
-152,891	800,000	0,050	-0,129
-151,877	-75,516	0,066	0,017
-150,862	545,653	0,024	0,042
-149,847	-63,052	-0,052	0,015
-148,833	800,000	0,036	0,106
-147,818	172,179	-0,098	-0,101
-146,804	-84,929	-0,028	-0,006
-145,789	-106,285	0,092	0,015
-144,775	800,000	-0,030	0,064
-143,760	-200,000	0,013	-0,043
-142,745	29,140	-0,032	0,019
-141,731	-130,490	-0,048	0,005
-140,716	-66,116	0,086	0,025
-139,702	-200,000	-0,005	0,088
-138,687	-47,149	0,096	-0,033
-137,672	-200,000	-0,022	0,142
-136,658	109,834	-0,073	-0,063
-135,643	-86,735	0,076	-0,016
-134,629	-142,980	0,049	0,003
-133,614	-200,000	0,004	0,016
-132,599	-200,000	-0,014	0,167
-131,585	-200,000	0,012	-0,138
-130,570	178,541	-0,102	0,107
-129,556	60,092	-0,103	-0,073
-128,541	-75,718	0,063	0,016
-127,526	82,252	-0,054	0,042
-126,512	328,074	0,093	-0,129
-125,497	-1,056	-0,093	-0,047
-124,483	120,073	0,028	0,025
-123,468	115,172	0,144	0,127
-122,453	522,119	-0,036	0,061
-121,439	-73,196	-0,106	-0,028
-120,424	100,631	-0,131	-0,109
-119,410	-64,531	0,040	-0,012
