DTS Sentinel unit serial number:	SN410029Multiplexer serial number:	ORYXHardware model number:	OX2-SRSoftware version number:	ORYX F/W v4,00 Oryx Data Collector v3.7.2.0data status	okinstallation	B5 Nyhavnadifferential loss correction	single-endedforward channel	channel 2reverse channel	N/Adate	2023/12/12time	12:37:13forward acquisition time	300,00reverse acquisition time	0,00gamma	499,1914k internal	0,3158k external	0,3158temperature offset calibration	1,0000default loss term (dB/km)	0,3820temperature slope calibration	1,0000multiplexer offset coefficient	1,0000multiplexer slope coefficient	1,0000fibre end	0,00T internal ref (°C)	15,36T ext. ref 1 (°C)	-0,54T ext. ref 2 (°C)	-0,78length (m)	temperature (°C)	Stokes	anti-Stokes-744,400	141,534	-0,036	0,035
-743,385	-102,952	-0,290	-0,050
-742,371	-60,804	0,115	0,036
-741,356	-117,842	-0,168	0,022
-740,342	-94,726	0,185	0,037
-739,327	-75,433	-0,280	-0,073
-738,312	-200,000	-0,022	-0,097
-737,298	-174,431	-0,268	0,006
-736,283	800,000	0,032	-0,081
-735,269	-122,845	-0,275	0,032
-734,254	72,994	0,033	0,025
-733,239	-32,155	-0,469	-0,192
-732,225	-145,556	0,251	0,016
-731,210	-6,416	-0,089	0,044
-730,196	336,571	-0,023	-0,033
-729,181	35,222	-0,101	-0,065
-728,167	108,883	-0,049	0,044
-727,152	179,594	0,131	-0,142
-726,137	-200,000	-0,021	0,082
-725,123	800,000	-0,033	-0,096
-724,108	170,567	0,069	-0,073
-723,094	-102,444	-0,134	0,023
-722,079	70,271	-0,153	-0,116
-721,064	77,758	0,082	-0,064
-720,050	-163,214	-0,104	0,004
-719,035	-200,000	-0,020	0,134
-718,021	-47,418	-0,052	-0,018
-717,006	291,084	-0,063	-0,085
-715,991	-80,576	-0,043	-0,010
-714,977	726,013	0,026	0,051
-713,962	-165,899	-0,065	-0,002
-712,948	248,603	0,060	-0,075
-711,933	530,392	0,059	-0,102
-710,918	69,431	0,100	-0,076
-709,904	224,413	-0,124	-0,147
-708,889	71,791	-0,049	0,038
-707,875	189,436	-0,068	-0,075
-706,860	-58,471	0,146	-0,047
-705,845	-127,552	0,264	-0,028
-704,831	21,249	0,075	0,045
-703,816	-200,000	0,014	0,105
-702,802	-200,000	0,016	-0,109
-701,787	-36,869	-0,120	0,047
-700,772	-200,000	0,005	-0,140
-699,758	310,584	-0,024	-0,033
-698,743	-129,425	-0,080	0,008
-697,729	-144,662	-0,039	0,003
-696,714	94,773	-0,062	0,052
-695,699	-122,977	-0,098	-0,011
-694,685	-200,000	0,002	-0,087
-693,670	-200,000	-0,029	-0,102
-692,656	800,000	0,062	0,129
-691,641	558,417	-0,055	-0,098
-690,627	-66,745	0,160	-0,046
-689,612	-5,603	0,066	-0,033
-688,597	800,000	0,026	-0,062
-687,583	71,916	-0,087	0,066
-686,568	-200,000	0,001	-0,123
-685,554	-42,655	-0,057	-0,021
-684,539	140,628	0,112	0,109
-683,524	800,000	-0,034	-0,079
-682,510	11,025	0,067	-0,037
-681,495	-38,504	-0,103	-0,040
-680,481	104,927	-0,033	-0,029
-679,466	118,346	-0,135	-0,123
-678,451	-16,522	0,112	-0,052
-677,437	595,636	0,012	-0,022
-676,422	-200,000	0,001	0,026
-675,408	171,304	-0,078	0,082
-674,393	383,325	-0,034	0,052
-673,378	-123,461	-0,078	0,009
-672,364	-9,282	0,086	0,042
-671,349	142,354	0,120	-0,117
-670,335	-1,214	-0,086	0,044
-669,320	195,344	0,117	0,131
-668,305	-200,000	-0,013	-0,052
-667,291	-33,552	-0,092	-0,037
-666,276	-200,000	-0,023	0,090
-665,262	175,264	-0,133	0,142
-664,247	16,141	-0,098	-0,056
-663,232	367,917	0,018	-0,027
-662,218	100,024	-0,063	0,054
-661,203	-104,748	0,103	0,017
-660,189	-7,383	-0,121	-0,060
-659,174	330,824	-0,077	-0,109
-658,159	-200,000	-0,003	-0,059
-657,145	-200,000	0,011	0,065
-656,130	202,718	0,047	0,054
-655,116	-200,000	0,017	-0,186
-654,101	-74,823	-0,038	0,010
-653,086	154,075	0,074	-0,075
-652,072	-159,062	-0,071	-0,003
-651,057	181,848	0,027	-0,029
-650,043	151,309	0,052	-0,052
-649,028	800,000	0,029	-0,085
-648,014	-110,596	0,041	-0,006
-646,999	800,000	-0,020	0,056
-645,984	-84,877	0,079	0,018
-644,970	-200,000	0,002	-0,089
-643,955	343,711	0,058	-0,084
-642,941	233,666	-0,046	-0,056
-641,926	443,195	-0,065	-0,104
-640,911	-200,000	-0,016	0,092
-639,897	586,690	0,058	0,105
-638,882	-35,723	0,086	0,034
-637,868	205,944	-0,022	0,025
-636,853	168,247	-0,100	-0,104
-635,838	119,731	-0,124	-0,113
-634,824	-102,559	0,153	-0,027
-633,809	99,014	0,057	0,048
-632,795	223,853	0,035	0,041
-631,780	-28,089	-0,063	0,027
-630,765	-80,397	0,109	0,026
-629,751	800,000	-0,038	-0,099
-628,736	-200,000	0,001	-0,045
-627,722	-101,784	-0,092	0,016
-626,707	155,347	-0,036	-0,037
-625,692	144,761	0,053	0,052
-624,678	-23,428	0,077	0,034
-623,663	39,694	-0,063	-0,042
-622,649	685,132	-0,053	-0,103
-621,634	786,265	0,018	-0,037
-620,619	-18,686	0,054	0,024
-619,605	-200,000	-0,002	0,018
-618,590	-122,778	0,058	0,007
-617,576	-25,704	-0,132	-0,057
-616,561	-200,000	-0,001	-0,029
-615,546	680,641	-0,005	0,010
-614,532	30,148	-0,148	-0,092
-613,517	-38,118	0,032	0,013
-612,503	-133,241	-0,128	-0,012
-611,488	150,875	0,054	0,053
-610,474	242,031	-0,059	-0,073
-609,459	-200,000	-0,005	0,113
-608,444	117,065	-0,029	0,026
-607,430	363,529	0,180	-0,267
-606,415	-200,000	0,016	0,093
-605,401	686,446	0,057	-0,110
-604,386	800,000	0,021	-0,068
-603,371	-52,581	-0,111	-0,037
-602,357	673,219	-0,040	-0,077
-601,342	-200,000	0,003	-0,027
-600,328	350,545	-0,076	-0,110
-599,313	-113,932	0,152	-0,021
-598,298	-134,214	-0,090	0,008
-597,284	-200,000	0,050	-0,204
-596,269	116,473	-0,016	-0,015
-595,255	274,036	-0,147	0,191
-594,240	-191,572	-0,116	-0,001
-593,225	-200,000	-0,009	-0,076
-592,211	800,000	0,032	-0,087
-591,196	-200,000	0,010	-0,149
-590,182	-25,736	-0,070	0,030
-589,167	252,264	0,026	0,032
-588,152	800,000	0,012	0,035
-587,138	800,000	-0,054	-0,115
-586,123	172,622	-0,086	-0,091
-585,109	-159,491	-0,023	-0,001
-584,094	-152,072	-0,096	-0,005
-583,079	-200,000	0,005	0,112
-582,065	-200,000	-0,025	0,114
-581,050	380,467	-0,054	0,082
-580,036	-127,654	-0,148	0,015
-579,021	616,533	0,035	0,064
-578,006	800,000	0,043	-0,121
-576,992	665,662	-0,016	-0,030
-575,977	11,077	-0,089	0,050
-574,963	800,000	0,027	0,057
-573,948	800,000	-0,044	0,098
-572,934	-92,812	0,124	0,025
-571,919	800,000	0,075	0,153
-570,904	-200,000	-0,036	0,130
-569,890	-96,176	-0,152	0,029
-568,875	800,000	0,031	0,080
-567,861	267,181	0,040	-0,052
-566,846	97,499	0,012	0,010
-565,831	530,023	-0,072	-0,125
-564,817	-81,690	0,081	0,019
-563,802	-72,624	0,096	-0,026
-562,788	-83,513	-0,074	0,017
-561,773	-200,000	-0,008	0,065
-560,758	-200,000	-0,014	0,092
-559,744	-200,000	-0,020	-0,199
-558,729	-116,549	0,040	-0,005
-557,715	-21,272	-0,044	0,019
-556,700	441,054	0,065	-0,104
-555,685	300,015	-0,060	-0,081
-554,671	-21,710	0,131	-0,058
-553,656	-200,000	-0,017	-0,077
-552,642	-111,284	0,120	-0,018
-551,627	-86,305	-0,024	0,005
-550,612	-66,651	-0,082	0,024
-549,598	800,000	0,031	-0,070
-548,583	-51,171	-0,045	-0,015
-547,569	-54,642	-0,072	0,024
-546,554	-185,485	0,142	0,002
-545,539	-74,840	-0,045	-0,012
-544,525	-70,192	-0,061	-0,017
-543,510	800,000	-0,049	0,146
-542,496	98,719	-0,034	-0,028
-541,481	-29,157	0,078	0,033
-540,466	-200,000	0,015	-0,050
-539,452	-200,000	0,018	0,132
-538,437	800,000	-0,023	0,054
-537,423	-200,000	-0,006	-0,119
-536,408	-200,000	-0,026	0,111
-535,393	-200,000	0,013	-0,162
-534,379	-2,117	-0,068	-0,035
-533,364	-69,049	0,087	-0,024
-532,350	-120,879	0,121	0,015
-531,335	-81,718	0,095	0,023
-530,321	137,660	-0,155	-0,149
-529,306	-70,261	0,054	0,015
-528,291	1,375	-0,047	-0,025
-527,277	102,302	-0,057	-0,049
-526,262	-200,000	-0,007	-0,086
-525,248	-200,000	0,002	-0,080
-524,233	-55,205	0,293	-0,096
-523,218	-200,000	0,049	0,000
-522,204	-167,190	-0,109	0,003
-521,189	96,372	0,033	0,027
-520,175	655,099	-0,056	-0,105
-519,160	-1,180	-0,063	-0,032
-518,145	-200,000	-0,002	0,180
-517,131	132,695	0,041	0,039
-516,116	800,000	0,036	-0,105
-515,102	26,507	0,132	0,081
-514,087	-34,440	-0,113	-0,045
-513,072	-111,128	0,069	-0,010
-512,058	111,309	-0,154	-0,136
-511,043	58,651	0,090	0,064
-510,029	-200,000	0,017	0,058
-509,014	800,000	0,080	0,184
-507,999	-200,000	0,008	0,134
-506,985	800,000	0,023	-0,068
-505,970	-64,355	0,086	0,026
-504,956	220,746	-0,062	0,072
-503,941	-122,816	0,070	-0,008
-502,926	800,000	-0,049	-0,107
-501,912	-49,026	0,077	0,027
-500,897	594,231	-0,088	0,160
-499,883	-116,326	0,024	0,003
-498,868	-149,883	-0,081	0,005
-497,853	-200,000	-0,003	-0,020
-496,839	-124,119	0,149	0,017
-495,824	-200,000	-0,007	-0,048
-494,810	288,172	0,098	0,130
-493,795	85,096	-0,105	0,084
-492,781	-6,069	-0,045	0,022
-491,766	-200,000	-0,012	-0,066
-490,751	-65,829	-0,107	0,031
-489,737	-200,000	0,005	-0,135
-488,722	135,946	0,143	0,136
-487,708	-68,647	0,189	0,053
-486,693	-151,523	0,095	-0,005
-485,678	-40,501	-0,075	0,028
-484,664	-200,000	0,004	-0,032
-483,649	-38,561	0,076	-0,029
-482,635	109,147	-0,076	-0,066
-481,620	-149,898	0,080	0,004
-480,605	124,168	0,015	0,014
-479,591	-69,868	0,139	0,038
-478,576	800,000	-0,016	0,042
-477,562	49,836	-0,030	-0,021
-476,547	-101,885	0,061	0,011
-475,532	47,091	0,063	-0,042
-474,518	800,000	0,016	0,043
-473,503	-200,000	-0,015	-0,079
-472,489	355,431	-0,024	0,034
-471,474	381,619	-0,043	0,065
-470,459	562,717	-0,050	-0,089
-469,445	-200,000	0,004	-0,054
-468,430	-75,196	0,024	-0,006
-467,416	-134,602	0,053	-0,005
-466,401	-137,684	-0,201	-0,016
-465,386	-200,000	-0,002	0,033
-464,372	135,116	0,065	-0,062
-463,357	800,000	-0,024	0,063
-462,343	250,110	-0,067	0,083
-461,328	-104,426	-0,068	0,011
-460,313	-92,606	0,136	-0,027
-459,299	328,928	0,041	-0,057
-458,284	-141,964	0,147	-0,011
-457,270	-117,349	0,084	0,011
-456,255	-200,000	0,001	-0,023
-455,241	800,000	0,018	0,056
-454,226	-200,000	-0,015	-0,078
-453,211	-200,000	-0,003	-0,132
-452,197	-74,249	0,076	0,020
-451,182	-41,634	-0,142	0,053
-450,168	304,531	-0,012	-0,017
-449,153	-36,026	-0,039	0,015
-448,138	-13,329	-0,128	-0,061
-447,124	274,644	0,079	-0,102
-446,109	57,975	0,020	-0,015
-445,095	-200,000	0,003	0,103
-444,080	66,849	0,163	0,121
-443,065	-200,000	0,014	0,080
-442,051	562,667	-0,040	0,071
-441,036	-48,670	-0,065	-0,023
-440,022	133,068	-0,097	0,091
-439,007	132,277	0,050	0,047
-437,992	70,057	-0,011	-0,008
-436,978	520,549	0,072	0,123
-435,963	-200,000	-0,006	-0,082
-434,949	-200,000	-0,031	0,122
-433,934	-200,000	0,012	-0,055
-432,919	90,263	0,055	0,045
-431,905	-111,506	-0,089	0,013
-430,890	202,514	-0,110	-0,124
-429,876	-133,665	0,059	-0,005
-428,861	-94,260	-0,123	0,024
-427,846	243,988	-0,021	0,026
-426,832	72,552	0,060	-0,046
-425,817	411,535	-0,048	-0,075
-424,803	200,071	-0,040	0,044
-423,788	-52,792	0,134	0,045
-422,773	329,162	0,114	0,160
-421,759	800,000	0,030	0,077
-420,744	301,586	-0,023	-0,031
-419,730	33,445	-0,106	-0,067
-418,715	84,432	-0,044	-0,035
-417,701	190,597	-0,100	-0,110
-416,686	-200,000	0,001	-0,088
-415,671	-200,000	-0,009	-0,033
-414,657	136,964	0,025	0,023
-413,642	307,598	0,019	0,026
-412,628	-200,000	0,034	0,166
-411,613	-171,233	-0,038	0,001
-410,598	-200,000	0,021	-0,091
-409,584	-71,620	0,153	-0,041
-408,569	-64,325	-0,109	0,032
-407,555	800,000	0,059	0,180
-406,540	-200,000	-0,007	-0,045
-405,525	-168,301	0,049	0,001
-404,511	216,277	0,039	-0,045
-403,496	599,128	-0,056	-0,102
-402,482	61,885	0,040	0,029
-401,467	-52,728	0,021	0,007
-400,452	284,505	-0,034	0,045
-399,438	281,436	0,090	0,118
-398,423	66,818	-0,137	-0,101
-397,409	6,501	0,160	-0,086
-396,394	-155,880	0,161	-0,007
-395,379	-145,109	-0,107	0,007
-394,365	-200,000	0,010	0,033
-393,350	531,999	0,035	-0,060
-392,336	-200,000	-0,005	0,067
-391,321	-119,647	-0,017	-0,002
-390,306	47,527	-0,208	-0,141
-389,292	202,721	0,019	0,022
-388,277	800,000	-0,043	-0,105
-387,263	618,176	0,034	-0,062
-386,248	800,000	-0,016	0,043
-385,233	-200,000	-0,021	-0,107
-384,219	-138,749	-0,033	-0,003
-383,204	-200,000	-0,002	0,013
-382,190	196,584	-0,061	0,068
-381,175	-94,399	-0,062	-0,012
-380,160	-178,563	0,090	-0,001
-379,146	-14,524	-0,027	0,013
-378,131	221,874	-0,052	0,061
-377,117	-166,984	0,061	0,002
-376,102	-200,000	0,012	-0,154
-375,088	-102,758	-0,118	-0,020
-374,073	179,341	0,027	-0,029
-373,058	-200,000	-0,022	0,080
-372,044	-200,000	-0,001	0,027
-371,029	225,513	-0,044	0,052
-370,015	-11,444	0,132	-0,063
-369,000	-200,000	0,003	-0,068
-367,985	-200,000	-0,017	-0,060
-366,971	-200,000	0,008	-0,036
-365,956	-74,750	-0,137	-0,036
-364,942	-200,000	-0,001	0,066
-363,927	800,000	-0,044	0,110
-362,912	-20,737	-0,045	-0,020
-361,898	19,274	0,044	0,026
-360,883	-36,914	0,092	-0,035
-359,869	-91,592	-0,020	-0,004
-358,854	149,794	-0,120	0,118
-357,839	209,366	0,087	0,099
-356,825	27,353	-0,026	0,016
-355,810	-16,468	0,107	-0,049
-354,796	-122,459	-0,101	-0,012
-353,781	-200,000	0,002	-0,059
-352,766	-200,000	0,002	-0,094
-351,752	-200,000	0,007	-0,116
-350,737	-44,438	0,182	0,066
-349,723	-62,618	0,062	0,019
-348,708	-200,000	-0,006	-0,090
-347,693	339,197	-0,025	-0,036
-346,679	-7,019	0,095	-0,047
-345,664	11,189	-0,112	-0,062
-344,650	37,272	-0,109	-0,070
-343,635	-200,000	0,036	0,118
-342,620	-149,492	0,022	0,001
-341,606	304,874	0,041	0,056
-340,591	-200,000	-0,003	0,026
-339,577	-127,235	-0,048	0,005
-338,562	-200,000	0,015	-0,056
-337,548	-200,000	-0,026	-0,106
-336,533	-10,985	0,066	-0,031
-335,518	360,117	0,052	0,075
-334,504	-200,000	0,007	-0,035
-333,489	767,673	-0,047	-0,093
-332,475	-200,000	0,004	-0,085
-331,460	-200,000	0,014	-0,070
-330,445	-186,317	0,025	0,000
-329,431	-200,000	-0,007	-0,091
-328,416	79,044	0,037	-0,029
-327,402	800,000	0,026	0,058
-326,387	68,263	0,025	0,019
-325,372	-37,166	-0,054	-0,021
-324,358	34,285	-0,051	0,032
-323,343	-68,110	-0,114	0,032
-322,329	-27,487	0,035	-0,015
-321,314	346,417	0,036	-0,051
-320,299	119,691	0,030	-0,027
-319,285	639,102	0,030	0,055
-318,270	-200,000	0,012	0,071
-317,256	-200,000	-0,022	0,085
-316,241	-200,000	-0,010	-0,124
-315,226	-81,708	-0,091	0,021
-314,212	582,822	-0,074	0,132
-313,197	642,359	-0,082	-0,152
-312,183	-200,000	-0,003	0,019
-311,168	-54,402	0,100	-0,033
-310,153	-135,683	0,130	0,011
-309,139	-14,664	-0,026	-0,012
-308,124	-200,000	-0,003	0,047
-307,110	447,305	-0,080	0,127
-306,095	-200,000	-0,018	0,077
-305,080	-200,000	0,014	0,116
-304,066	-200,000	0,009	-0,036
-303,051	135,470	-0,108	-0,102
-302,037	45,689	-0,080	0,054
-301,022	81,897	-0,092	0,072
-300,008	-179,674	0,038	0,001
-298,993	-57,619	-0,100	-0,032
-297,978	-110,252	0,107	0,016
-296,964	200,735	0,059	0,066
-295,949	800,000	-0,032	0,089
-294,935	800,000	-0,019	-0,052
-293,920	-200,000	0,022	0,094
-292,905	-66,607	-0,095	0,027
-291,891	567,824	0,026	-0,046
-290,876	98,070	-0,096	0,080
-289,862	210,791	0,109	0,124
-288,847	-200,000	-0,004	-0,041
-287,832	198,189	0,056	-0,062
-286,818	-36,310	-0,031	0,012
-285,803	800,000	0,023	-0,051
-284,789	118,930	-0,046	0,042
-283,774	673,400	0,047	-0,089
-282,759	-15,600	-0,062	0,029
-281,745	352,030	-0,059	0,085
-280,730	761,212	-0,026	-0,050
-279,716	-200,000	-0,013	-0,086
-278,701	-19,427	0,040	0,018
-277,686	-200,000	0,040	0,131
-276,672	800,000	0,035	0,082
-275,657	521,105	-0,081	0,139
-274,643	500,029	0,043	0,072
-273,628	-200,000	-0,010	-0,054
-272,613	-27,842	0,084	-0,035
-271,599	-60,603	0,045	-0,014
-270,584	-100,480	0,041	-0,007
-269,570	800,000	-0,037	0,110
-268,555	-200,000	0,008	0,075
-267,540	196,128	-0,029	0,032
-266,526	64,054	-0,097	-0,071
-265,511	-200,000	-0,007	0,025
-264,497	152,120	0,059	-0,059
-263,482	209,274	-0,017	0,019
-262,467	-103,592	0,125	0,021
-261,453	-200,000	-0,007	-0,133
-260,438	89,075	0,041	-0,033
-259,424	-15,065	-0,173	-0,080
-258,409	247,951	0,061	0,075
-257,395	335,089	0,021	-0,029
-256,380	246,847	0,045	-0,055
-255,365	275,721	0,171	0,220
-254,351	-200,000	-0,037	0,139
-253,336	-200,000	-0,016	0,070
-252,322	133,594	-0,070	-0,066
-251,307	-200,000	-0,001	-0,110
-250,292	-2,978	-0,081	-0,041
-249,278	-200,000	-0,003	0,060
-248,263	19,761	0,042	0,025
-247,249	-200,000	0,019	0,107
-246,234	731,298	0,027	-0,051
-245,219	511,862	0,026	-0,044
-244,205	-75,852	0,108	0,027
-243,190	800,000	0,028	-0,062
-242,176	60,189	0,080	0,057
-241,161	111,056	0,076	0,066
-240,146	-200,000	0,012	-0,117
-239,132	3,792	-0,064	-0,034
-238,117	-142,584	-0,106	-0,007
-237,103	-68,901	-0,061	-0,017
-236,088	45,209	0,046	0,031
-235,073	-87,660	0,041	-0,009
-234,059	-125,810	-0,081	-0,009
-233,044	-200,000	0,013	-0,128
-232,030	-101,314	-0,134	0,023
-231,015	-94,114	-0,075	-0,015
-230,000	-122,293	-0,108	-0,013
-228,986	-73,423	-0,136	-0,036
-227,971	-200,000	0,029	-0,117
-226,957	572,654	0,039	0,069
-225,942	-178,261	0,093	0,002
-224,927	584,194	0,001	-0,001
-223,913	800,000	-0,013	0,029
-222,898	-2,516	0,042	-0,021
-221,884	39,830	0,037	-0,024
-220,869	800,000	-0,058	0,118
-219,855	32,072	-0,046	-0,029
-218,840	98,049	-0,068	0,057
-217,825	-200,000	-0,023	0,161
-216,811	-37,485	-0,055	-0,021
-215,796	-200,000	-0,007	-0,026
-214,782	-64,461	0,059	-0,017
-213,767	-200,000	0,004	0,018
-212,752	-48,581	0,093	-0,032
-211,738	295,559	-0,108	0,143
-210,723	180,925	-0,055	0,058
-209,709	112,548	-0,113	-0,099
-208,694	74,497	-0,063	-0,048
-207,679	-15,738	-0,104	-0,048
-206,665	-35,588	0,137	-0,053
-205,650	800,000	0,024	-0,053
-204,636	-37,210	-0,082	0,032
-203,621	-200,000	-0,003	0,214
-202,606	-200,000	-0,030	0,128
-201,592	-93,201	0,130	0,026
-200,577	-200,000	0,009	-0,046
-199,563	-74,081	0,101	0,026
-198,548	-169,033	0,060	-0,002
-197,533	-200,000	-0,008	-0,050
-196,519	523,978	0,031	0,052
-195,504	800,000	0,039	-0,097
-194,490	-75,148	-0,168	0,043
-193,475	394,732	0,044	-0,066
-192,460	20,442	-0,033	0,019
-191,446	339,850	0,207	0,292
-190,431	-200,000	0,029	-0,129
-189,417	431,952	-0,076	-0,120
-188,402	-123,586	-0,128	-0,015
-187,387	-200,000	-0,005	0,058
-186,373	800,000	0,038	-0,084
-185,358	-14,117	-0,053	0,025
-184,344	249,826	-0,019	0,023
-183,329	207,988	-0,064	0,072
-182,315	478,995	0,022	0,037
-181,300	-200,000	-0,014	-0,059
-180,285	800,000	0,029	-0,063
-179,271	-200,000	-0,014	-0,067
-178,256	-200,000	0,010	0,130
-177,242	-200,000	-0,005	0,049
-176,227	304,145	0,088	0,118
-175,212	163,318	0,069	-0,070
-174,198	-200,000	-0,011	-0,170
-173,183	-109,684	-0,120	0,018
-172,169	-200,000	0,012	-0,134
-171,154	47,957	0,106	-0,072
-170,139	-125,675	0,100	-0,011
-169,125	800,000	0,035	0,091
-168,110	-200,000	-0,005	0,081
-167,096	-104,593	-0,040	-0,007
-166,081	-129,043	0,036	0,004
-165,066	-200,000	0,003	-0,022
-164,052	-163,528	-0,130	0,004
-163,037	402,456	-0,079	0,120
-162,023	224,029	0,019	-0,023
-161,008	351,368	0,069	0,099
-159,993	142,407	-0,062	0,059
-158,979	-200,000	0,009	-0,054
-157,964	39,987	-0,060	-0,039
-156,950	-130,497	0,030	-0,003
-155,935	137,052	0,185	0,175
-154,920	187,001	0,124	0,133
-153,906	-97,031	0,055	0,010
-152,891	800,000	0,041	0,107
-151,877	-200,000	-0,026	-0,115
-150,862	14,264	-0,199	-0,111
-149,847	198,643	-0,049	-0,055
-148,833	-200,000	-0,002	-0,052
-147,818	215,830	0,137	0,157
-146,804	-200,000	-0,007	0,029
-145,789	153,224	0,028	0,028
-144,775	-14,990	-0,163	-0,075
-143,760	-200,000	0,017	-0,140
-142,745	40,279	-0,049	0,031
-141,731	203,680	-0,138	0,154
-140,716	579,149	0,041	0,073
-139,702	800,000	-0,063	0,131
-138,687	132,253	-0,029	0,027
-137,672	-16,859	0,068	-0,031
-136,658	800,000	-0,010	0,025
-135,643	-200,000	0,016	-0,064
-134,629	448,713	0,079	-0,126
-133,614	-200,000	-0,012	0,073
-132,599	149,734	0,076	-0,074
-131,585	800,000	-0,056	-0,135
-130,570	122,800	-0,080	0,072
-129,556	800,000	0,028	-0,068
-128,541	239,287	-0,082	0,098
-127,526	21,667	0,047	0,028
-126,512	800,000	-0,056	0,137
-125,497	-104,690	0,125	0,020
-124,483	800,000	0,049	-0,100
-123,468	800,000	-0,014	-0,028
-122,453	-99,945	-0,050	-0,009
-121,439	13,751	-0,115	-0,064
