DTS Sentinel unit serial number:	SN410029Multiplexer serial number:	ORYXHardware model number:	OX2-SRSoftware version number:	ORYX F/W v4,00 Oryx Data Collector v3.7.2.0data status	okinstallation	B5 Nyhavnadifferential loss correction	single-endedforward channel	channel 2reverse channel	N/Adate	2023/12/12time	20:42:13forward acquisition time	300,00reverse acquisition time	0,00gamma	499,1914k internal	0,3157k external	0,3157temperature offset calibration	1,0000default loss term (dB/km)	0,3820temperature slope calibration	1,0000multiplexer offset coefficient	1,0000multiplexer slope coefficient	1,0000fibre end	0,00T internal ref (°C)	15,13T ext. ref 1 (°C)	-1,58T ext. ref 2 (°C)	-1,88length (m)	temperature (°C)	Stokes	anti-Stokes-744,400	341,858	0,050	0,073
-743,385	-129,583	-0,181	-0,018
-742,371	-87,588	0,213	-0,047
-741,356	44,892	-0,265	0,180
-740,342	-83,561	0,133	0,031
-739,327	-39,705	-0,256	-0,098
-738,312	-125,412	0,146	-0,016
-737,298	-10,259	-0,331	-0,161
-736,283	-54,511	0,227	-0,075
-735,269	-119,097	-0,304	-0,039
-734,254	-51,564	0,199	0,068
-733,239	-7,194	-0,493	-0,245
-732,225	-55,410	0,206	0,068
-731,210	-200,000	0,003	0,052
-730,196	-124,521	-0,046	-0,005
-729,181	-17,899	0,078	-0,036
-728,167	-200,000	-0,030	-0,099
-727,152	800,000	0,060	-0,131
-726,137	-114,631	-0,057	0,008
-725,123	494,086	-0,066	-0,112
-724,108	-49,660	-0,089	-0,031
-723,094	634,496	-0,057	-0,106
-722,079	-200,000	-0,011	-0,088
-721,064	-200,000	-0,015	0,055
-720,050	-200,000	-0,020	0,071
-719,035	800,000	0,018	0,044
-718,021	42,688	-0,084	0,056
-717,006	-105,608	-0,087	0,014
-715,991	-200,000	-0,007	-0,098
-714,977	-200,000	-0,003	-0,100
-713,962	-60,405	-0,131	-0,041
-712,948	-200,000	-0,012	0,143
-711,933	-95,711	-0,068	0,013
-710,918	26,601	-0,083	0,051
-709,904	-200,000	0,007	-0,113
-708,889	115,821	-0,084	-0,075
-707,875	-48,313	0,054	-0,019
-706,860	205,019	0,088	-0,101
-705,845	792,067	0,039	0,080
-704,831	-68,746	-0,025	0,007
-703,816	800,000	0,040	0,082
-702,802	178,247	-0,109	-0,117
-701,787	114,062	-0,028	-0,025
-700,772	-31,708	-0,162	-0,067
-699,758	800,000	-0,046	-0,130
-698,743	216,213	0,038	0,045
-697,729	156,177	-0,053	-0,054
-696,714	27,132	-0,069	0,043
-695,699	-200,000	-0,015	-0,139
-694,685	-200,000	0,036	-0,168
-693,670	-200,000	0,052	-0,275
-692,656	412,274	0,040	0,062
-691,641	-200,000	0,001	-0,129
-690,627	800,000	0,030	0,086
-689,612	72,453	-0,041	0,031
-688,597	-186,703	-0,061	0,001
-687,583	-46,204	-0,073	0,026
-686,568	-200,000	-0,027	-0,108
-685,554	187,864	-0,099	-0,109
-684,539	387,583	0,080	-0,122
-683,524	635,485	0,076	0,142
-682,510	-164,918	0,031	-0,001
-681,495	1,687	0,045	-0,024
-680,481	-18,310	-0,112	-0,051
-679,466	-200,000	-0,017	-0,225
-678,451	-156,514	-0,085	-0,004
-677,437	102,793	0,050	0,043
-676,422	188,832	0,064	0,071
-675,408	516,086	0,028	0,048
-674,393	-200,000	0,020	-0,136
-673,378	-200,000	-0,022	-0,077
-672,364	-30,648	-0,101	-0,042
-671,349	292,612	0,071	0,095
-670,335	79,927	0,059	0,047
-669,320	-114,679	0,108	0,015
-668,305	-166,175	0,048	0,001
-667,291	-14,007	0,062	0,029
-666,276	-87,175	-0,085	-0,019
-665,262	-190,586	0,163	0,001
-664,247	77,694	-0,127	-0,100
-663,232	647,441	0,011	-0,021
-662,218	475,258	0,003	0,006
-661,203	-200,000	-0,003	-0,031
-660,189	800,000	-0,014	0,033
-659,174	-200,000	-0,008	-0,051
-658,159	108,157	0,064	-0,056
-657,145	-200,000	0,017	-0,076
-656,130	135,212	-0,092	-0,087
-655,116	-113,211	-0,138	-0,020
-654,101	25,809	-0,059	-0,036
-653,086	-115,969	-0,033	-0,004
-652,072	-73,233	-0,043	-0,011
-651,057	463,459	0,039	-0,065
-650,043	800,000	0,053	-0,110
-649,028	10,665	0,081	0,045
-648,014	-200,000	-0,017	0,100
-646,999	-114,023	0,171	-0,024
-645,984	144,031	0,045	0,045
-644,970	-86,188	-0,114	-0,026
-643,955	-200,000	-0,031	-0,211
-642,941	21,924	-0,158	0,094
-641,926	259,687	0,051	-0,064
-640,911	-200,000	0,003	-0,098
-639,897	800,000	0,030	0,073
-638,882	800,000	-0,004	-0,009
-637,868	-200,000	0,021	0,073
-636,853	-200,000	-0,010	0,064
-635,838	800,000	0,051	0,116
-634,824	800,000	-0,037	-0,109
-633,809	186,692	0,067	0,073
-632,795	-31,092	-0,081	0,034
-631,780	77,987	-0,048	0,037
-630,765	-24,385	0,020	-0,009
-629,751	295,182	-0,079	-0,106
-628,736	166,940	-0,050	-0,053
-627,722	418,981	-0,046	0,073
-626,707	155,187	0,063	0,064
-625,692	-63,252	-0,048	-0,014
-624,678	-200,000	-0,008	-0,026
-623,663	261,379	-0,052	0,066
-622,649	-94,015	-0,040	-0,008
-621,634	448,480	-0,006	-0,009
-620,619	317,669	-0,018	-0,025
-619,605	-133,832	-0,042	-0,004
-618,590	-200,000	0,012	0,086
-617,576	38,869	0,075	0,049
-616,561	-141,701	0,063	-0,005
-615,546	197,939	-0,031	-0,035
-614,532	269,168	0,074	0,095
-613,517	206,293	0,083	-0,095
-612,503	-19,172	0,033	0,015
-611,488	-42,259	0,084	-0,031
-610,474	456,051	0,021	-0,034
-609,459	-46,817	0,008	0,003
-608,444	-66,130	-0,156	0,045
-607,430	64,560	-0,044	-0,033
-606,415	800,000	-0,039	-0,089
-605,401	800,000	-0,039	0,087
-604,386	800,000	0,022	0,069
-603,371	-48,259	0,029	-0,010
-602,357	98,771	0,125	0,105
-601,342	231,743	-0,008	-0,010
-600,328	-200,000	0,004	0,136
-599,313	-95,329	0,121	-0,024
-598,298	-200,000	-0,007	0,031
-597,284	126,741	0,112	0,104
-596,269	222,665	-0,064	0,076
-595,255	-200,000	-0,002	0,114
-594,240	38,563	-0,091	-0,060
-593,225	146,236	-0,060	-0,059
-592,211	800,000	0,065	-0,143
-591,196	-200,000	-0,006	-0,055
-590,182	-61,915	0,109	-0,033
-589,167	183,426	0,058	0,063
-588,152	800,000	-0,010	0,022
-587,138	-200,000	-0,015	-0,111
-586,123	83,707	-0,132	-0,105
-585,109	63,449	-0,073	-0,054
-584,094	13,986	-0,099	-0,056
-583,079	-45,823	0,101	-0,036
-582,065	-128,461	0,026	-0,003
-581,050	800,000	0,021	0,055
-580,036	-49,676	0,028	0,010
-579,021	-200,000	-0,005	-0,058
-578,006	-61,809	-0,138	0,042
-576,992	-29,240	-0,021	-0,009
-575,977	588,901	0,013	-0,024
-574,963	126,750	0,037	0,034
-573,948	20,808	0,001	0,001
-572,934	516,297	0,032	-0,055
-571,919	-200,000	-0,008	0,106
-570,904	800,000	0,044	-0,092
-569,890	-72,930	0,136	-0,036
-568,875	-200,000	-0,045	0,175
-567,861	-112,686	-0,078	-0,011
-566,846	-73,572	-0,091	0,024
-565,831	800,000	-0,039	-0,115
-564,817	106,634	-0,098	-0,085
-563,802	461,444	-0,120	-0,196
-562,788	63,660	-0,122	0,090
-561,773	-200,000	0,021	0,131
-560,758	329,440	-0,007	-0,010
-559,744	33,604	-0,079	0,050
-558,729	289,982	0,057	0,077
-557,715	-200,000	0,017	-0,057
-556,700	-200,000	0,011	-0,146
-555,685	800,000	-0,050	-0,155
-554,671	452,970	0,028	0,045
-553,656	224,218	-0,035	-0,042
-552,642	47,435	0,060	0,041
-551,627	-200,000	0,011	0,112
-550,612	70,045	-0,068	-0,051
-549,598	800,000	0,036	-0,079
-548,583	-200,000	-0,013	-0,067
-547,569	800,000	-0,043	0,110
-546,554	111,357	0,064	0,057
-545,539	800,000	0,006	0,016
-544,525	208,610	0,114	0,131
-543,510	80,437	-0,200	-0,157
-542,496	73,155	-0,078	0,060
-541,481	-85,361	-0,042	0,010
-540,466	455,629	0,066	-0,107
-539,452	800,000	0,025	0,077
-538,437	29,968	0,075	0,047
-537,423	257,856	-0,073	-0,092
-536,408	800,000	-0,022	0,071
-535,393	-55,493	0,047	0,015
-534,379	-200,000	-0,021	0,126
-533,364	-95,799	0,052	-0,010
-532,350	-200,000	0,010	0,053
-531,335	747,157	-0,081	0,161
-530,321	-64,552	-0,064	-0,019
-529,306	-200,000	-0,013	-0,047
-528,291	183,578	-0,048	-0,052
-527,277	630,416	-0,057	-0,105
-526,262	-200,000	-0,003	-0,172
-525,248	-177,262	0,114	0,002
-524,233	-200,000	-0,033	0,135
-523,218	-85,739	-0,077	0,017
-522,204	109,713	-0,011	0,009
-521,189	471,377	0,021	-0,034
-520,175	8,346	-0,085	0,047
-519,160	-18,485	0,141	0,064
-518,145	-18,321	-0,124	-0,056
-517,131	12,771	-0,049	0,028
-516,116	-77,504	-0,072	-0,018
-515,102	326,460	-0,052	-0,073
-514,087	167,624	0,050	-0,052
-513,072	-12,878	-0,145	-0,069
-512,058	288,786	-0,044	0,059
-511,043	800,000	0,052	0,123
-510,029	-107,151	-0,086	-0,014
-509,014	800,000	0,088	-0,183
-507,999	-200,000	0,016	0,108
-506,985	800,000	-0,020	-0,051
-505,970	-200,000	0,010	-0,078
-504,956	-175,640	-0,048	0,001
-503,941	800,000	0,016	0,044
-502,926	64,429	0,036	0,027
-501,912	150,973	0,049	-0,049
-500,897	-175,620	-0,009	0,000
-499,883	83,250	0,036	-0,028
-498,868	-30,974	-0,109	0,045
-497,853	461,283	-0,054	0,088
-496,839	-93,275	0,096	-0,019
-495,824	-62,373	0,055	-0,017
-494,810	116,213	-0,043	0,038
-493,795	-56,791	-0,086	0,028
-492,781	-200,000	-0,013	-0,117
-491,766	39,468	0,024	-0,016
-490,751	-200,000	-0,030	0,120
-489,737	99,134	0,046	-0,039
-488,722	289,284	-0,039	-0,052
-487,708	239,910	0,076	0,093
-486,693	-32,686	0,105	-0,043
-485,678	-90,275	-0,073	0,015
-484,664	-35,591	-0,118	-0,047
-483,649	188,001	0,143	-0,156
-482,635	57,100	-0,054	0,039
-481,620	800,000	-0,025	-0,070
-480,605	-87,019	0,031	0,007
-479,591	800,000	-0,063	0,131
-478,576	-58,717	0,098	-0,031
-477,562	313,540	-0,127	-0,174
-476,547	132,234	0,026	-0,024
-475,532	-76,342	-0,055	-0,014
-474,518	55,458	0,080	-0,056
-473,503	157,664	0,051	-0,051
-472,489	176,658	0,035	0,037
-471,474	-200,000	-0,002	0,103
-470,459	-200,000	0,027	-0,119
-469,445	753,058	-0,031	-0,061
-468,430	800,000	0,034	-0,073
-467,416	216,434	-0,146	0,170
-466,401	167,631	0,063	-0,065
-465,386	800,000	0,035	-0,095
-464,372	800,000	-0,055	0,156
-463,357	-57,173	-0,066	0,021
-462,343	-200,000	0,099	0,000
-461,328	-200,000	-0,015	-0,074
-460,313	642,020	0,043	0,080
-459,299	485,597	0,036	0,060
-458,284	94,479	0,100	-0,083
-457,270	-113,997	-0,015	-0,002
-456,255	-200,000	-0,000	-0,141
-455,241	-70,364	-0,064	0,017
-454,226	-38,286	-0,014	-0,005
-453,211	-100,183	-0,158	-0,028
-452,197	133,576	0,082	-0,077
-451,182	-9,219	0,092	0,045
-450,168	140,084	-0,068	-0,065
-449,153	-118,823	0,033	-0,004
-448,138	43,342	0,039	0,026
-447,124	374,549	0,135	-0,201
-446,109	-123,841	-0,056	-0,006
-445,095	181,319	0,100	-0,107
-444,080	-47,219	0,184	-0,065
-443,065	-87,033	-0,078	0,017
-442,051	208,458	-0,108	-0,123
-441,036	90,916	-0,084	-0,069
-440,022	-71,327	-0,066	-0,018
-439,007	97,849	0,051	-0,043
-437,992	-126,392	0,147	-0,016
-436,978	-200,000	-0,003	0,129
-435,963	800,000	-0,039	-0,092
-434,949	699,639	-0,034	-0,066
-433,934	800,000	-0,065	-0,178
-432,919	800,000	0,031	-0,066
-431,905	-83,664	-0,143	0,033
-430,890	111,752	-0,097	0,085
-429,876	-81,609	-0,047	-0,011
-428,861	-50,158	0,049	-0,017
-427,846	-118,834	-0,046	0,006
-426,832	520,575	0,042	0,072
-425,817	151,716	-0,014	0,014
-424,803	-200,000	0,003	-0,161
-423,788	11,956	-0,157	0,088
-422,773	-18,437	-0,012	0,005
-421,759	-200,000	-0,011	0,164
-420,744	94,660	0,061	0,050
-419,730	273,594	0,047	-0,061
-418,715	23,154	-0,083	0,050
-417,701	-200,000	-0,029	0,136
-416,686	-200,000	0,006	-0,052
-415,671	42,553	0,065	-0,043
-414,657	156,519	0,106	0,107
-413,642	-133,259	0,043	-0,004
-412,628	9,005	0,057	-0,031
-411,613	528,537	-0,059	-0,101
-410,598	202,066	0,038	0,043
-409,584	-200,000	0,032	0,105
-408,569	-200,000	-0,002	-0,047
-407,555	86,413	0,054	0,043
-406,540	48,349	0,035	0,024
-405,525	-68,769	0,014	0,004
-404,511	221,240	-0,132	-0,154
-403,496	-200,000	-0,024	-0,081
-402,482	-200,000	0,008	0,041
-401,467	-200,000	-0,012	0,093
-400,452	-200,000	-0,007	-0,084
-399,438	-200,000	-0,016	0,074
-398,423	-5,852	0,052	0,026
-397,409	-79,634	0,091	0,022
-396,394	523,981	-0,032	-0,054
-395,379	6,483	0,108	0,058
-394,365	328,183	0,151	0,212
-393,350	145,601	0,047	0,046
-392,336	-36,815	0,078	0,030
-391,321	19,995	-0,113	-0,066
-390,306	-45,191	-0,051	0,018
-389,292	107,210	0,151	-0,131
-388,277	-117,948	0,051	-0,007
-387,263	381,032	-0,075	0,112
-386,248	-200,000	-0,015	0,053
-385,233	-141,097	0,080	-0,006
-384,219	-15,859	0,084	0,039
-383,204	800,000	0,040	-0,128
-382,190	499,420	-0,063	0,106
-381,175	-120,390	0,116	0,014
-380,160	259,505	0,072	0,091
-379,146	-31,403	0,079	-0,032
-378,131	-30,494	-0,109	-0,045
-377,117	577,623	-0,098	0,174
-376,102	-11,792	0,045	-0,021
-375,088	800,000	0,011	-0,031
-374,073	212,767	-0,038	-0,044
-373,058	204,518	-0,091	0,103
-372,044	130,234	0,079	0,073
-371,029	267,358	0,091	0,115
-370,015	118,974	0,048	-0,043
-369,000	800,000	-0,044	-0,099
-367,985	-74,180	-0,051	0,013
-366,971	6,430	0,142	-0,077
-365,956	-51,309	-0,106	-0,036
-364,942	453,605	0,019	0,030
-363,927	-171,921	0,085	-0,002
-362,912	-200,000	-0,004	0,081
-361,898	552,192	-0,048	0,083
-360,883	383,534	-0,058	0,087
-359,869	-200,000	-0,031	0,107
-358,854	-200,000	-0,022	0,130
-357,839	-127,071	0,048	-0,005
-356,825	41,498	0,104	0,068
-355,810	800,000	-0,073	0,172
-354,796	-70,891	-0,068	0,019
-353,781	129,461	-0,058	-0,054
-352,766	123,876	-0,025	-0,022
-351,752	112,088	0,073	0,064
-350,737	-3,082	0,151	0,076
-349,723	353,492	-0,015	-0,022
-348,708	800,000	0,047	0,148
-347,693	800,000	-0,058	-0,175
-346,679	158,816	0,045	-0,046
-345,664	-76,847	-0,055	-0,014
-344,650	338,814	0,029	-0,041
-343,635	800,000	-0,015	0,040
-342,620	-200,000	-0,026	0,092
-341,606	-200,000	0,031	0,160
-340,591	-200,000	-0,017	0,185
-339,577	800,000	0,036	0,074
-338,562	800,000	0,024	-0,061
-337,548	-200,000	-0,009	0,082
-336,533	179,006	0,036	-0,038
-335,518	195,159	0,063	-0,069
-334,504	431,881	-0,053	0,083
-333,489	180,803	-0,085	-0,090
-332,475	57,830	-0,053	0,038
-331,460	-49,937	-0,120	-0,041
-330,445	36,635	-0,023	0,015
-329,431	29,022	0,118	0,073
-328,416	-200,000	-0,036	0,142
-327,402	800,000	-0,020	0,050
-326,387	-200,000	-0,020	0,085
-325,372	667,639	0,065	-0,122
-324,358	69,737	-0,053	0,039
-323,343	496,606	-0,030	0,050
-322,329	-163,999	0,146	0,005
-321,314	125,151	0,130	0,119
-320,299	-200,000	0,005	-0,036
-319,285	800,000	0,051	-0,115
-318,270	480,961	-0,045	0,074
-317,256	309,385	-0,035	0,048
-316,241	-53,160	-0,053	-0,018
-315,226	5,883	0,075	-0,040
-314,212	-72,172	0,068	-0,018
-313,197	-200,000	0,043	0,206
-312,183	800,000	0,026	0,079
-311,168	41,008	-0,090	-0,059
-310,153	45,495	-0,050	-0,033
-309,139	324,246	-0,034	-0,048
-308,124	-200,000	-0,015	0,079
-307,110	732,522	0,030	0,058
-306,095	-40,889	-0,052	-0,019
-305,080	800,000	-0,018	0,038
-304,066	800,000	-0,098	-0,232
-303,051	177,329	0,079	-0,083
-302,037	800,000	-0,022	-0,060
-301,022	-200,000	0,015	-0,057
-300,008	258,540	0,045	-0,056
-298,993	-200,000	-0,027	-0,117
-297,978	-100,678	-0,045	-0,008
-296,964	-29,834	0,049	-0,020
-295,949	-80,991	0,095	-0,023
-294,935	800,000	0,043	-0,091
-293,920	563,742	-0,043	-0,076
-292,905	-128,162	-0,120	0,012
-291,891	800,000	0,099	0,223
-290,876	70,663	0,076	0,057
-289,862	154,320	-0,066	-0,066
-288,847	-200,000	0,029	-0,165
-287,832	108,325	-0,074	-0,064
-286,818	329,733	-0,081	-0,113
-285,803	66,252	0,162	-0,119
-284,789	0,271	-0,073	0,038
-283,774	-35,239	-0,153	0,060
-282,759	219,972	-0,021	0,024
-281,745	48,400	0,032	-0,022
-280,730	-38,351	-0,045	-0,017
-279,716	78,833	-0,047	-0,036
-278,701	180,625	0,104	0,111
-277,686	537,519	-0,022	-0,039
-276,672	-53,127	0,214	0,071
-275,657	-143,349	0,089	-0,006
-274,643	800,000	0,023	0,062
-273,628	-200,000	-0,015	-0,061
-272,613	122,764	-0,071	-0,064
-271,599	-60,183	0,103	0,032
-270,584	-140,133	0,136	-0,010
-269,570	-200,000	0,002	-0,037
-268,555	121,520	0,095	-0,085
-267,540	-200,000	-0,009	0,076
-266,526	-200,000	-0,011	-0,059
-265,511	-94,037	0,065	0,013
-264,497	412,104	0,058	-0,090
-263,482	-200,000	0,020	0,067
-262,467	41,854	0,050	-0,033
-261,453	800,000	-0,025	0,050
-260,438	139,729	0,058	-0,055
-259,424	-35,299	-0,102	-0,040
-258,409	107,401	0,055	0,047
-257,395	-200,000	-0,026	-0,090
-256,380	-71,162	0,052	0,014
-255,365	800,000	0,017	0,046
-254,351	68,983	-0,190	0,141
-253,336	-200,000	-0,007	0,034
-252,322	-23,732	-0,108	-0,046
-251,307	-72,992	-0,018	-0,005
-250,292	76,920	0,055	-0,042
-249,278	-112,041	-0,104	-0,015
-248,263	356,229	0,046	0,066
-247,249	-200,000	-0,034	0,113
-246,234	187,658	-0,055	-0,060
-245,219	568,039	-0,043	0,075
-244,205	390,571	0,049	-0,073
-243,190	-200,000	0,010	-0,065
-242,176	-116,241	-0,138	-0,018
-241,161	-200,000	0,000	-0,038
-240,146	-121,960	-0,046	0,005
-239,132	2,514	0,121	-0,063
-238,117	41,153	-0,106	-0,069
-237,103	-200,000	0,018	-0,181
-236,088	-41,122	0,093	-0,034
-235,073	64,838	0,060	0,043
-234,059	654,018	0,064	-0,120
-233,044	110,993	0,096	-0,083
-232,030	505,599	-0,039	0,065
-231,015	58,227	0,039	0,027
-230,000	146,834	0,080	-0,078
-228,986	-200,000	0,009	0,036
-227,971	-61,757	-0,065	-0,020
-226,957	75,293	0,103	0,079
-225,942	-106,539	-0,068	-0,011
-224,927	84,204	0,050	-0,039
-223,913	-200,000	-0,014	-0,085
-222,898	155,306	-0,088	-0,088
-221,884	-200,000	0,034	-0,121
-220,869	-200,000	-0,008	0,114
-219,855	-122,422	-0,027	0,003
-218,840	-101,346	0,185	-0,032
-217,825	177,496	-0,049	-0,052
-216,811	-75,492	0,099	-0,025
-215,796	85,301	-0,093	0,073
-214,782	44,368	0,055	0,037
-213,767	484,523	-0,047	0,077
-212,752	-200,000	0,027	-0,101
-211,738	-200,000	-0,005	0,043
-210,723	36,980	0,007	-0,005
-209,709	800,000	0,030	0,084
-208,694	27,730	0,050	0,030
-207,679	465,961	-0,057	-0,093
-206,665	33,925	-0,053	0,033
-205,650	-195,303	0,089	-0,000
-204,636	-200,000	0,004	0,065
-203,621	174,441	0,027	-0,028
-202,606	-76,809	-0,107	-0,027
-201,592	-200,000	-0,002	-0,006
-200,577	800,000	0,025	-0,062
-199,563	212,922	-0,035	-0,040
-198,548	-50,399	-0,079	0,027
-197,533	356,719	0,042	0,061
-196,519	-117,091	0,044	-0,006
-195,504	800,000	-0,024	-0,049
-194,490	157,687	-0,039	0,039
-193,475	-63,750	-0,117	-0,034
-192,460	224,609	-0,074	-0,087
-191,446	84,387	0,030	0,024
-190,431	-63,869	0,126	0,037
-189,417	229,623	0,044	-0,052
-188,402	-109,506	-0,136	-0,021
-187,387	-57,582	-0,034	0,011
-186,373	-200,000	-0,006	0,084
-185,358	143,380	-0,086	0,083
-184,344	-58,759	0,132	-0,041
-183,329	-200,000	-0,030	0,133
-182,315	-10,714	0,018	0,009
-181,300	485,772	0,077	0,127
-180,285	-41,235	-0,159	-0,059
-179,271	800,000	0,028	0,056
-178,256	-88,411	0,125	0,027
-177,242	-170,280	-0,145	-0,004
-176,227	-129,700	0,088	0,009
-175,212	-63,556	0,065	-0,019
-174,198	20,783	-0,064	-0,037
-173,183	-90,617	0,134	-0,028
-172,169	80,839	-0,096	-0,074
-171,154	-200,000	0,003	-0,095
-170,139	483,603	-0,029	0,048
-169,125	800,000	-0,036	-0,087
-168,110	-200,000	-0,023	0,218
-167,096	-200,000	-0,001	0,053
-166,081	-200,000	-0,002	-0,096
-165,066	-132,773	0,059	0,005
-164,052	-150,732	-0,183	-0,010
-163,037	122,667	-0,061	0,055
-162,023	-200,000	0,000	0,027
-161,008	-28,292	0,034	-0,014
-159,993	-200,000	-0,024	0,093
-158,979	800,000	-0,023	0,053
-157,964	149,016	-0,026	0,025
-156,950	745,122	-0,025	-0,048
-155,935	-110,978	0,071	0,010
-154,920	800,000	-0,036	-0,087
-153,906	531,020	0,019	-0,032
-152,891	800,000	0,020	0,059
-151,877	-103,101	0,169	0,029
-150,862	-200,000	-0,002	-0,071
-149,847	74,016	0,109	-0,082
-148,833	291,803	-0,069	0,090
-147,818	144,187	-0,073	0,070
-146,804	240,712	-0,064	-0,077
-145,789	44,442	0,034	-0,022
-144,775	651,417	-0,006	0,011
-143,760	561,362	-0,072	-0,127
-142,745	-200,000	-0,035	-0,123
-141,731	-200,000	-0,005	-0,058
-140,716	-82,147	0,147	-0,034
-139,702	-99,522	-0,156	-0,028
-138,687	79,578	0,051	-0,039
-137,672	800,000	-0,042	0,089
-136,658	-104,692	-0,005	0,001
-135,643	800,000	-0,062	-0,169
-134,629	83,618	-0,056	-0,044
-133,614	-200,000	0,013	-0,080
-132,599	-47,092	0,025	0,009
-131,585	153,019	0,182	0,179
-130,570	-200,000	-0,027	-0,180
-129,556	446,215	-0,031	-0,049
-128,541	360,743	0,053	-0,076
-127,526	800,000	0,046	-0,092
-126,512	16,253	0,091	0,051
-125,497	-200,000	0,007	-0,032
-124,483	172,759	-0,054	0,056
-123,468	-200,000	0,000	0,018
-122,453	706,348	-0,056	-0,108
-121,439	-200,000	-0,001	0,010
-120,424	155,778	-0,115	0,114
