DTS Sentinel unit serial number:	SN410029Multiplexer serial number:	ORYXHardware model number:	OX2-SRSoftware version number:	ORYX F/W v4,00 Oryx Data Collector v3.7.2.0data status	okinstallation	B5 Nyhavnadifferential loss correction	single-endedforward channel	channel 2reverse channel	N/Adate	2023/12/13time	07:52:14forward acquisition time	300,00reverse acquisition time	0,00gamma	499,1914k internal	0,3160k external	0,3160temperature offset calibration	1,0000default loss term (dB/km)	0,3820temperature slope calibration	1,0000multiplexer offset coefficient	1,0000multiplexer slope coefficient	1,0000fibre end	0,00T internal ref (°C)	13,66T ext. ref 1 (°C)	-2,77T ext. ref 2 (°C)	-3,08length (m)	temperature (°C)	Stokes	anti-Stokes-744,400	-118,440	0,178	-0,023
-743,385	-7,704	-0,341	0,169
-742,371	800,000	0,043	0,110
-741,356	22,768	-0,187	-0,113
-740,342	-10,224	0,210	0,103
-739,327	-24,029	-0,236	-0,103
-738,312	-112,082	0,179	-0,026
-737,298	-101,291	-0,306	-0,054
-736,283	-200,000	-0,002	0,016
-735,269	-109,886	-0,302	0,046
-734,254	135,664	0,035	0,034
-733,239	-60,238	-0,493	-0,154
-732,225	-154,994	0,269	0,013
-731,210	28,640	-0,117	-0,073
-730,196	37,103	0,064	-0,042
-729,181	154,582	-0,115	0,116
-728,167	245,993	0,122	0,152
-727,152	233,312	0,102	-0,124
-726,137	17,841	-0,108	-0,063
-725,123	164,147	-0,144	0,150
-724,108	122,579	-0,127	-0,117
-723,094	101,398	-0,090	-0,077
-722,079	-29,334	-0,103	-0,043
-721,064	42,259	-0,119	-0,079
-720,050	227,636	0,065	0,078
-719,035	242,866	-0,004	-0,005
-718,021	-48,208	-0,063	0,022
-717,006	800,000	-0,062	-0,197
-715,991	281,231	-0,149	-0,197
-714,977	-200,000	-0,002	-0,078
-713,962	382,740	0,087	-0,133
-712,948	162,660	-0,041	0,043
-711,933	40,563	-0,128	-0,085
-710,918	-200,000	0,011	0,039
-709,904	-39,202	-0,093	-0,036
-708,889	-92,442	-0,074	0,015
-707,875	23,052	0,025	0,015
-706,860	236,307	-0,118	-0,144
-705,845	-124,773	0,146	-0,016
-704,831	9,455	-0,061	-0,034
-703,816	231,062	-0,100	0,120
-702,802	-34,434	-0,120	0,048
-701,787	800,000	-0,054	-0,117
-700,772	-123,067	0,070	-0,008
-699,758	-200,000	-0,032	-0,126
-698,743	41,348	0,085	0,057
-697,729	284,641	0,018	-0,024
-696,714	800,000	0,006	-0,018
-695,699	-10,836	-0,036	0,017
-694,685	-77,985	-0,177	0,045
-693,670	28,887	0,033	0,021
-692,656	-6,828	0,096	-0,048
-691,641	-59,389	-0,055	0,017
-690,627	24,880	-0,061	-0,037
-689,612	-88,773	-0,076	-0,016
-688,597	-18,641	0,069	-0,031
-687,583	72,413	-0,021	-0,016
-686,568	-107,989	0,091	0,014
-685,554	341,197	-0,037	-0,054
-684,539	127,146	0,073	0,069
-683,524	-200,000	0,008	-0,037
-682,510	800,000	-0,052	-0,143
-681,495	148,856	-0,068	-0,067
-680,481	-192,134	-0,119	-0,001
-679,466	87,100	-0,085	-0,069
-678,451	773,570	0,030	-0,061
-677,437	-200,000	0,003	-0,022
-676,422	378,667	0,033	-0,049
-675,408	53,189	0,056	0,040
-674,393	-72,686	0,085	-0,023
-673,378	-200,000	-0,017	-0,141
-672,364	165,636	0,128	-0,133
-671,349	42,430	-0,058	-0,039
-670,335	9,672	0,058	0,032
-669,320	-191,657	0,116	-0,001
-668,305	3,501	0,103	0,055
-667,291	-200,000	0,050	0,170
-666,276	-200,000	0,009	-0,061
-665,262	-171,953	-0,040	-0,001
-664,247	-200,000	0,008	-0,134
-663,232	-200,000	-0,006	-0,116
-662,218	-51,108	0,131	0,045
-661,203	128,589	-0,062	-0,058
-660,189	248,403	0,128	-0,160
-659,174	-200,000	-0,012	-0,108
-658,159	-165,502	0,101	0,003
-657,145	122,970	-0,117	-0,108
-656,130	202,295	0,022	-0,025
-655,116	-200,000	0,036	0,154
-654,101	29,702	0,126	0,078
-653,086	713,137	0,012	-0,023
-652,072	800,000	-0,039	-0,081
-651,057	43,231	-0,186	-0,124
-650,043	-62,949	-0,075	0,023
-649,028	-200,000	0,017	-0,065
-648,014	-200,000	0,002	0,030
-646,999	-61,369	0,084	0,026
-645,984	552,617	0,038	0,067
-644,970	96,320	-0,061	-0,051
-643,955	-200,000	0,002	0,059
-642,941	72,260	-0,053	-0,040
-641,926	455,335	0,070	-0,115
-640,911	-200,000	0,003	0,018
-639,897	249,828	-0,043	-0,053
-638,882	-75,886	0,016	-0,004
-637,868	800,000	-0,031	-0,093
-636,853	-103,199	0,025	-0,004
-635,838	-128,527	-0,121	0,012
-634,824	800,000	-0,055	-0,116
-633,809	800,000	-0,065	-0,144
-632,795	-124,166	0,073	-0,008
-631,780	12,074	0,076	0,043
-630,765	164,492	-0,074	0,077
-629,751	47,617	-0,049	-0,033
-628,736	331,712	-0,045	-0,065
-627,722	644,602	0,010	-0,019
-626,707	167,731	-0,045	-0,047
-625,692	-45,624	-0,061	-0,022
-624,678	-200,000	-0,001	-0,018
-623,663	272,094	0,033	-0,042
-622,649	800,000	-0,013	0,029
-621,634	615,750	-0,067	-0,124
-620,619	-113,123	0,072	0,010
-619,605	-67,305	0,103	0,029
-618,590	-102,691	0,091	0,016
-617,576	329,271	0,066	0,093
-616,561	-200,000	0,016	0,068
-615,546	47,308	-0,079	0,054
-614,532	800,000	-0,040	-0,094
-613,517	47,554	-0,062	0,042
-612,503	-92,884	0,023	0,005
-611,488	-65,803	-0,027	0,008
-610,474	-4,369	0,062	0,032
-609,459	-200,000	0,004	0,120
-608,444	800,000	-0,027	-0,082
-607,430	-5,870	0,096	-0,048
-606,415	-22,980	-0,083	-0,036
-605,401	-64,135	-0,049	-0,014
-604,386	209,570	0,034	0,039
-603,371	103,865	0,074	0,064
-602,357	800,000	-0,045	0,115
-601,342	-73,705	0,069	-0,018
-600,328	800,000	-0,040	0,113
-599,313	-23,592	-0,082	0,036
-598,298	215,139	0,043	0,050
-597,284	-2,515	0,031	0,016
-596,269	-200,000	0,012	0,074
-595,255	-20,911	0,071	0,032
-594,240	-143,182	-0,156	0,011
-593,225	158,990	-0,138	-0,140
-592,211	88,757	-0,089	0,072
-591,196	91,265	-0,062	0,051
-590,182	-200,000	-0,014	-0,192
-589,167	-200,000	0,021	-0,081
-588,152	10,583	0,073	0,041
-587,138	-39,199	0,048	0,018
-586,123	-33,374	-0,108	-0,044
-585,109	-65,266	-0,048	-0,014
-584,094	-2,462	-0,045	0,023
-583,079	146,567	-0,062	-0,061
-582,065	-92,011	0,065	-0,013
-581,050	92,877	0,040	-0,033
-580,036	-83,222	0,054	-0,013
-579,021	103,167	-0,087	-0,074
-578,006	-72,953	-0,092	0,025
-576,992	-106,367	0,103	0,017
-575,977	83,565	-0,109	0,087
-574,963	203,694	0,071	-0,080
-573,948	-200,000	0,016	-0,077
-572,934	205,851	0,036	0,041
-571,919	800,000	-0,050	0,108
-570,904	-200,000	0,000	0,037
-569,890	470,023	0,077	0,128
-568,875	-6,228	0,082	-0,041
-567,861	173,446	0,093	0,098
-566,846	335,267	-0,074	0,105
-565,831	-121,845	-0,099	0,012
-564,817	74,744	-0,049	-0,038
-563,802	61,421	0,107	-0,077
-562,788	244,227	-0,100	-0,123
-561,773	-107,707	-0,118	-0,019
-560,758	159,119	0,031	0,032
-559,744	90,671	-0,059	-0,049
-558,729	9,858	0,083	0,046
-557,715	800,000	-0,014	0,042
-556,700	38,691	-0,097	0,063
-555,685	-200,000	-0,038	-0,187
-554,671	-47,226	0,076	-0,027
-553,656	-143,749	0,137	0,009
-552,642	100,818	0,062	0,053
-551,627	800,000	-0,036	0,073
-550,612	800,000	0,020	0,059
-549,598	64,128	0,042	-0,031
-548,583	124,978	-0,035	-0,032
-547,569	800,000	-0,031	0,078
-546,554	-200,000	0,031	0,198
-545,539	90,435	-0,051	0,042
-544,525	349,424	-0,127	0,184
-543,510	755,380	0,015	-0,030
-542,496	-60,427	-0,039	0,012
-541,481	67,335	-0,038	0,029
-540,466	-12,195	0,228	-0,109
-539,452	-200,000	0,004	0,029
-538,437	-47,760	0,109	-0,038
-537,423	-200,000	0,009	0,107
-536,408	-200,000	0,004	-0,129
-535,393	800,000	0,013	0,032
-534,379	-100,476	-0,038	-0,007
-533,364	24,247	-0,044	-0,026
-532,350	25,928	-0,035	-0,021
-531,335	-106,008	-0,141	-0,023
-530,321	-5,278	0,098	-0,049
-529,306	-14,889	0,042	0,020
-528,291	229,821	-0,036	-0,043
-527,277	241,288	0,028	-0,034
-526,262	-150,985	-0,116	0,006
-525,248	-200,000	0,007	-0,090
-524,233	216,812	0,058	0,067
-523,218	382,434	-0,045	0,068
-522,204	152,762	-0,020	0,020
-521,189	800,000	-0,046	-0,146
-520,175	-33,301	-0,132	-0,053
-519,160	-200,000	-0,006	0,031
-518,145	144,497	-0,094	-0,092
-517,131	89,574	0,074	0,060
-516,116	-200,000	-0,045	0,221
-515,102	800,000	-0,063	0,131
-514,087	578,895	0,026	0,046
-513,072	5,770	-0,089	0,048
-512,058	96,086	0,004	0,003
-511,043	540,379	-0,029	0,050
-510,029	-150,628	0,032	0,002
-509,014	-99,676	-0,100	-0,018
-507,999	-200,000	0,018	0,078
-506,985	-144,037	0,068	-0,005
-505,970	158,273	-0,088	-0,089
-504,956	800,000	-0,014	0,042
-503,941	67,238	0,120	-0,089
-502,926	4,331	0,093	-0,050
-501,912	-126,471	0,080	0,009
-500,897	10,196	0,053	0,029
-499,883	142,246	-0,070	-0,068
-498,868	385,487	0,027	-0,041
-497,853	-73,589	-0,211	0,056
-496,839	-72,930	0,184	0,049
-495,824	59,186	-0,070	0,050
-494,810	800,000	-0,033	0,069
-493,795	-28,029	0,054	0,023
-492,781	800,000	0,069	-0,148
-491,766	-65,182	0,027	-0,008
-490,751	262,587	-0,136	-0,172
-489,737	-200,000	-0,038	-0,142
-488,722	800,000	0,008	0,021
-487,708	-200,000	0,016	0,078
-486,693	-77,810	-0,096	-0,024
-485,678	800,000	-0,021	0,049
-484,664	121,328	-0,022	-0,020
-483,649	140,568	-0,060	0,058
-482,635	15,780	-0,079	0,045
-481,620	-186,039	0,067	0,001
-480,605	325,318	-0,065	-0,091
-479,591	301,931	0,020	0,027
-478,576	-200,000	0,009	-0,063
-477,562	173,420	-0,100	-0,105
-476,547	116,496	-0,032	-0,029
-475,532	-200,000	0,006	-0,029
-474,518	-168,693	-0,003	0,000
-473,503	-72,301	0,063	0,017
-472,489	-25,454	-0,074	0,032
-471,474	800,000	0,054	-0,119
-470,459	-54,900	-0,063	-0,020
-469,445	800,000	-0,047	-0,101
-468,430	226,772	-0,106	-0,125
-467,416	-200,000	0,000	-0,104
-466,401	57,017	0,081	0,058
-465,386	481,321	-0,067	-0,112
-464,372	-65,472	0,115	0,033
-463,357	-200,000	0,012	0,050
-462,343	-104,221	-0,174	-0,029
-461,328	-200,000	-0,012	0,045
-460,313	38,244	0,112	-0,073
-459,299	-56,010	-0,077	0,025
-458,284	451,574	-0,042	-0,068
-457,270	-137,799	-0,073	-0,006
-456,255	-112,957	-0,146	0,021
-455,241	800,000	-0,067	-0,158
-454,226	-200,000	0,001	-0,113
-453,211	395,881	0,064	0,098
-452,197	39,434	-0,095	-0,062
-451,182	800,000	0,029	0,069
-450,168	800,000	0,030	-0,076
-449,153	800,000	0,013	-0,038
-448,138	29,425	0,064	0,040
-447,124	-108,112	-0,081	0,013
-446,109	-200,000	-0,003	0,035
-445,095	-200,000	-0,007	0,065
-444,080	-200,000	0,030	0,120
-443,065	-171,506	-0,039	-0,001
-442,051	68,439	-0,032	0,024
-441,036	-58,437	-0,025	0,008
-440,022	55,289	-0,031	0,022
-439,007	800,000	0,067	-0,140
-437,992	800,000	-0,016	0,036
-436,978	-200,000	-0,011	0,174
-435,963	390,808	0,101	-0,154
-434,949	8,014	-0,119	0,065
-433,934	800,000	0,029	-0,074
-432,919	800,000	-0,062	-0,191
-431,905	25,056	0,058	-0,035
-430,890	-45,452	0,116	-0,042
-429,876	800,000	0,032	-0,099
-428,861	-200,000	-0,011	0,079
-427,846	-136,488	0,038	-0,003
-426,832	800,000	-0,020	-0,050
-425,817	800,000	0,039	0,090
-424,803	-47,157	0,043	-0,015
-423,788	28,922	0,043	-0,027
-422,773	-200,000	-0,009	0,042
-421,759	62,109	-0,042	-0,030
-420,744	294,632	0,040	0,054
-419,730	30,231	-0,041	-0,025
-418,715	2,843	0,059	-0,031
-417,701	155,157	-0,032	-0,032
-416,686	173,270	0,107	0,112
-415,671	104,458	0,168	-0,144
-414,657	-200,000	0,029	0,095
-413,642	251,753	-0,014	0,017
-412,628	62,430	-0,107	-0,077
-411,613	162,376	-0,013	-0,013
-410,598	115,459	0,042	-0,038
-409,584	162,413	-0,084	0,086
-408,569	-133,693	-0,140	0,013
-407,555	120,127	0,045	-0,041
-406,540	-200,000	0,009	0,036
-405,525	-109,771	-0,026	-0,004
-404,511	800,000	0,041	0,108
-403,496	-52,380	0,090	-0,030
-402,482	417,793	0,027	0,042
-401,467	-105,058	-0,041	-0,007
-400,452	-200,000	0,001	0,064
-399,438	-26,091	-0,071	0,030
-398,423	86,011	-0,016	0,013
-397,409	-70,935	-0,072	0,020
-396,394	105,832	0,072	-0,062
-395,379	107,873	0,072	0,062
-394,365	-83,166	0,054	-0,012
-393,350	800,000	0,021	-0,051
-392,336	577,087	-0,037	0,066
-391,321	74,630	-0,053	-0,040
-390,306	359,729	-0,057	0,082
-389,292	134,376	0,063	0,059
-388,277	612,224	-0,072	-0,131
-387,263	-200,000	0,012	-0,092
-386,248	-200,000	-0,002	-0,055
-385,233	17,334	-0,070	-0,040
-384,219	-200,000	0,002	0,109
-383,204	-166,915	0,094	0,003
-382,190	263,408	0,069	-0,088
-381,175	76,381	0,090	-0,069
-380,160	-200,000	-0,009	0,064
-379,146	-200,000	0,001	0,022
-378,131	265,106	-0,031	0,040
-377,117	21,442	-0,011	-0,006
-376,102	-121,578	-0,125	0,015
-375,088	-200,000	0,010	-0,097
-374,073	-32,185	0,110	-0,045
-373,058	800,000	-0,015	-0,039
-372,044	249,348	0,040	0,049
-371,029	-200,000	0,025	0,123
-370,015	77,671	-0,030	-0,023
-369,000	-200,000	-0,027	0,109
-367,985	363,405	-0,044	-0,064
-366,971	326,453	0,049	-0,068
-365,956	-200,000	0,019	-0,067
-364,942	-5,148	-0,114	-0,057
-363,927	800,000	-0,025	-0,053
-362,912	163,811	-0,058	0,060
-361,898	-69,647	-0,157	-0,043
-360,883	-78,854	0,120	-0,030
-359,869	77,226	-0,055	0,043
-358,854	118,556	0,062	0,055
-357,839	52,351	-0,018	-0,012
-356,825	-166,470	-0,107	0,003
-355,810	-200,000	0,000	0,115
-354,796	-18,516	-0,066	-0,030
-353,781	295,823	-0,012	0,016
-352,766	-21,598	0,160	-0,070
-351,752	-200,000	0,019	-0,173
-350,737	100,327	0,064	0,054
-349,723	154,488	0,064	0,063
-348,708	-124,567	0,058	-0,006
-347,693	-98,153	0,166	-0,031
-346,679	364,902	-0,050	0,074
-345,664	83,556	0,057	-0,045
-344,650	182,490	0,032	-0,034
-343,635	-200,000	-0,039	0,168
-342,620	-200,000	0,011	-0,075
-341,606	384,268	0,040	0,060
-340,591	-82,747	-0,043	0,010
-339,577	-126,312	-0,098	0,011
-338,562	132,964	-0,096	-0,090
-337,548	309,150	0,058	-0,078
-336,533	231,732	-0,031	0,036
-335,518	-102,032	0,065	0,011
-334,504	-6,064	0,057	-0,028
-333,489	-121,837	-0,160	0,019
-332,475	-200,000	0,011	0,104
-331,460	-72,900	0,164	-0,043
-330,445	-200,000	-0,007	-0,082
-329,431	189,492	-0,072	-0,079
-328,416	800,000	-0,017	-0,052
-327,402	-171,448	0,043	0,001
-326,387	800,000	0,016	0,035
-325,372	186,469	0,047	-0,051
-324,358	-200,000	0,000	-0,109
-323,343	-137,016	-0,042	-0,003
-322,329	242,538	0,118	0,144
-321,314	-200,000	0,016	0,111
-320,299	-5,378	0,134	0,067
-319,285	-13,374	-0,063	0,029
-318,270	4,477	0,109	-0,058
-317,256	-200,000	0,025	-0,092
-316,241	-200,000	0,025	-0,141
-315,226	103,932	0,062	0,053
-314,212	-13,358	0,073	0,034
-313,197	-200,000	0,004	0,029
-312,183	408,005	0,082	0,127
-311,168	781,304	0,058	0,115
-310,153	-64,080	-0,075	-0,022
-309,139	-200,000	-0,005	-0,133
-308,124	-0,850	0,017	-0,008
-307,110	6,609	-0,015	0,008
-306,095	-200,000	0,008	0,078
-305,080	-160,383	0,179	0,007
-304,066	-39,665	-0,168	-0,063
-303,051	-141,439	-0,093	-0,007
-302,037	800,000	0,011	-0,027
-301,022	437,328	-0,031	-0,049
-300,008	800,000	-0,040	0,114
-298,993	-36,256	-0,063	0,024
-297,978	-99,794	0,153	-0,027
-296,964	1,317	-0,074	-0,038
-295,949	-200,000	-0,024	-0,159
-294,935	39,591	0,048	-0,031
-293,920	-73,196	-0,092	0,024
-292,905	-107,237	0,080	0,013
-291,891	30,707	-0,098	0,060
-290,876	-34,947	0,165	-0,065
-289,862	800,000	0,018	-0,052
-288,847	214,695	-0,071	-0,082
-287,832	-1,396	-0,075	0,038
-286,818	-200,000	-0,019	0,073
-285,803	-56,562	0,034	-0,011
-284,789	-105,862	0,027	0,004
-283,774	120,543	-0,109	0,098
-282,759	-200,000	0,017	-0,068
-281,745	384,830	-0,074	-0,111
-280,730	549,723	0,052	-0,090
-279,716	-136,502	-0,091	-0,008
-278,701	-135,801	0,138	-0,012
-277,686	46,977	-0,062	0,042
-276,672	249,539	0,089	0,109
-275,657	-23,990	-0,099	0,042
-274,643	-200,000	0,032	0,103
-273,628	620,573	0,058	-0,106
-272,613	-148,034	-0,107	-0,006
-271,599	-200,000	0,012	0,038
-270,584	-67,693	0,085	-0,024
-269,570	1,549	0,070	-0,036
-268,555	184,363	-0,019	-0,021
-267,540	71,464	0,092	0,069
-266,526	36,145	-0,081	0,052
-265,511	800,000	-0,072	-0,206
-264,497	191,145	0,052	0,057
-263,482	-200,000	-0,022	0,148
-262,467	-12,051	0,022	0,010
-261,453	352,212	0,059	-0,085
-260,438	311,488	0,021	-0,029
-259,424	244,621	-0,076	0,093
-258,409	29,599	-0,075	-0,046
-257,395	-24,339	0,096	-0,041
-256,380	-106,105	0,149	-0,024
-255,365	800,000	-0,046	0,112
-254,351	-65,189	-0,102	-0,030
-253,336	503,246	0,007	0,012
-252,322	-23,969	0,044	0,019
-251,307	800,000	-0,042	0,109
-250,292	2,849	-0,060	0,031
-249,278	122,612	0,104	0,094
-248,263	-200,000	-0,025	0,110
-247,249	324,674	-0,028	0,039
-246,234	-99,708	-0,148	0,027
-245,219	-200,000	0,001	0,093
-244,205	-200,000	0,003	0,096
-243,190	487,745	-0,050	0,084
-242,176	800,000	0,015	-0,035
-241,161	-165,700	0,101	-0,003
-240,146	-112,427	0,079	0,011
-239,132	-35,725	0,113	-0,044
-238,117	800,000	-0,012	-0,034
-237,103	-10,267	-0,158	-0,076
-236,088	605,903	0,056	-0,100
-235,073	-200,000	-0,002	0,086
-234,059	-126,258	-0,057	0,006
-233,044	-119,389	0,214	0,026
-232,030	-200,000	0,001	0,028
-231,015	-69,549	-0,110	0,030
-230,000	-25,670	0,059	0,025
-228,986	-109,559	0,121	0,018
-227,971	220,704	0,049	0,056
-226,957	800,000	0,052	0,143
-225,942	-102,080	-0,044	-0,008
-224,927	-80,510	0,102	-0,024
-223,913	-200,000	-0,022	0,172
-222,898	-11,750	0,015	-0,007
-221,884	-151,141	-0,058	-0,003
-220,869	450,658	0,007	0,011
-219,855	-200,000	0,044	0,182
-218,840	-200,000	-0,007	0,145
-217,825	-103,891	0,105	0,018
-216,811	-4,381	-0,124	-0,062
-215,796	-39,781	-0,140	0,052
-214,782	800,000	-0,018	-0,050
-213,767	-200,000	0,018	-0,063
-212,752	-9,888	0,092	0,044
-211,738	-200,000	-0,048	-0,000
-210,723	-200,000	0,020	0,063
-209,709	513,786	0,048	-0,081
-208,694	800,000	-0,010	0,031
-207,679	-200,000	-0,040	-0,149
-206,665	-200,000	-0,021	0,110
-205,650	800,000	0,049	0,135
-204,636	-200,000	-0,005	0,042
-203,621	242,961	-0,074	-0,089
-202,606	350,696	0,096	-0,137
-201,592	800,000	0,031	-0,071
-200,577	-200,000	-0,015	-0,144
-199,563	360,403	0,028	0,041
-198,548	-2,154	-0,087	0,044
-197,533	-200,000	0,005	0,020
-196,519	111,287	0,167	0,145
-195,504	-73,086	0,015	-0,004
-194,490	-200,000	0,005	0,020
-193,475	-139,563	-0,076	0,006
-192,460	-110,445	-0,098	-0,015
-191,446	193,975	0,048	0,052
-190,431	368,446	-0,050	0,073
-189,417	-200,000	-0,015	-0,070
-188,402	-72,075	0,051	-0,013
-187,387	-200,000	0,020	-0,074
-186,373	-7,016	0,029	-0,014
-185,358	193,155	-0,038	-0,041
-184,344	800,000	-0,026	-0,075
-183,329	-172,814	0,121	-0,003
-182,315	800,000	-0,034	-0,080
-181,300	215,316	0,060	-0,068
-180,285	98,447	-0,080	0,066
-179,271	347,983	-0,094	-0,134
-178,256	-173,378	0,195	-0,004
-177,242	735,287	0,054	0,104
-176,227	-126,197	0,071	-0,008
-175,212	122,905	0,081	-0,073
-174,198	800,000	-0,022	0,054
-173,183	-118,032	-0,046	0,006
-172,169	-200,000	0,016	-0,057
-171,154	-52,972	-0,022	0,007
-170,139	800,000	0,041	0,107
-169,125	800,000	0,033	-0,075
-168,110	-58,382	0,162	0,050
-167,096	-200,000	-0,035	0,138
-166,081	35,250	0,047	0,030
-165,066	-77,017	0,009	-0,002
-164,052	-200,000	0,003	-0,080
-163,037	-93,828	0,122	-0,024
-162,023	88,330	0,025	-0,020
-161,008	159,571	0,141	0,142
-159,993	16,752	-0,032	-0,018
-158,979	800,000	-0,044	0,128
-157,964	98,747	-0,068	-0,056
-156,950	-64,506	-0,125	-0,036
-155,935	-100,013	-0,043	0,008
-154,920	-58,022	0,029	-0,009
-153,906	-47,421	0,041	-0,014
-152,891	-58,866	-0,065	-0,020
-151,877	800,000	0,013	-0,035
-150,862	-27,041	0,030	-0,012
-149,847	800,000	-0,012	0,036
-148,833	-0,837	0,135	0,069
-147,818	105,597	0,119	0,101
-146,804	-103,111	0,096	-0,016
-145,789	59,571	0,111	-0,079
-144,775	335,386	-0,049	-0,068
-143,760	99,154	-0,112	-0,093
-142,745	-77,692	-0,045	0,011
-141,731	382,148	0,061	-0,091
-140,716	-128,811	0,065	-0,007
-139,702	603,934	0,049	0,088
-138,687	52,093	-0,051	-0,035
-137,672	-200,000	0,020	0,192
-136,658	-166,971	-0,170	0,005
-135,643	633,217	-0,042	-0,077
-134,629	-187,163	0,028	0,000
-133,614	345,075	0,058	0,082
-132,599	-200,000	0,021	0,179
-131,585	288,818	0,076	0,100
-130,570	-136,450	-0,166	0,014
-129,556	-114,831	0,114	0,015
-128,541	-156,798	-0,153	0,007
-127,526	-200,000	0,002	-0,094
-126,512	-71,301	0,051	-0,014
-125,497	-50,235	0,030	-0,010
-124,483	65,873	0,085	0,062
-123,468	-200,000	-0,032	-0,128
-122,453	-200,000	0,058	0,215
-121,439	692,942	0,008	0,016
-120,424	67,546	0,040	-0,030
-119,410	279,489	-0,077	0,099
-118,395	800,000	0,037	0,110
