DTS Sentinel unit serial number:	SN410029Multiplexer serial number:	ORYXHardware model number:	OX2-SRSoftware version number:	ORYX F/W v4,00 Oryx Data Collector v3.7.2.0data status	okinstallation	B5 Nyhavnadifferential loss correction	single-endedforward channel	channel 2reverse channel	N/Adate	2023/12/12time	10:37:13forward acquisition time	300,00reverse acquisition time	0,00gamma	499,1914k internal	0,3158k external	0,3158temperature offset calibration	1,0000default loss term (dB/km)	0,3820temperature slope calibration	1,0000multiplexer offset coefficient	1,0000multiplexer slope coefficient	1,0000fibre end	0,00T internal ref (°C)	15,00T ext. ref 1 (°C)	-1,38T ext. ref 2 (°C)	-1,64length (m)	temperature (°C)	Stokes	anti-Stokes-744,400	-18,341	-0,070	-0,032
-743,385	-110,923	-0,281	-0,042
-742,371	-146,056	0,200	0,013
-741,356	-63,741	-0,323	0,097
-740,342	-0,562	0,116	0,061
-739,327	-156,016	-0,276	0,013
-738,312	64,133	0,086	0,064
-737,298	20,293	-0,290	0,172
-736,283	0,784	0,133	0,070
-735,269	-114,103	-0,325	0,046
-734,254	384,502	-0,039	0,060
-733,239	-60,489	-0,500	-0,155
-732,225	-125,630	0,188	0,021
-731,210	151,433	0,081	0,081
-730,196	800,000	-0,007	0,022
-729,181	264,645	-0,052	0,067
-728,167	-153,739	-0,090	-0,004
-727,152	-66,577	0,059	-0,017
-726,137	143,969	-0,181	-0,178
-725,123	163,057	-0,082	-0,085
-724,108	800,000	-0,157	-0,344
-723,094	-200,000	-0,026	-0,099
-722,079	84,197	-0,131	-0,105
-721,064	392,491	0,036	-0,056
-720,050	779,788	-0,035	0,070
-719,035	-47,911	-0,132	-0,047
-718,021	-200,000	-0,052	-0,252
-717,006	464,843	-0,102	-0,168
-715,991	202,168	-0,070	-0,080
-714,977	-200,000	0,020	-0,119
-713,962	800,000	-0,075	0,186
-712,948	-200,000	-0,021	-0,146
-711,933	218,973	0,035	0,041
-710,918	800,000	-0,011	-0,034
-709,904	56,155	-0,160	-0,114
-708,889	522,546	-0,062	-0,108
-707,875	-75,024	-0,012	-0,003
-706,860	-89,911	-0,105	0,022
-705,845	-65,266	0,045	0,013
-704,831	214,477	-0,045	0,052
-703,816	160,957	-0,127	0,130
-702,802	-200,000	-0,007	-0,115
-701,787	-200,000	-0,003	-0,082
-700,772	-200,000	0,013	-0,108
-699,758	770,480	0,033	-0,066
-698,743	800,000	-0,054	-0,114
-697,729	638,708	0,039	-0,074
-696,714	-75,795	0,123	0,032
-695,699	-108,043	-0,145	0,023
-694,685	800,000	-0,080	-0,193
-693,670	296,759	-0,043	-0,058
-692,656	-55,507	0,061	0,020
-691,641	800,000	0,035	-0,079
-690,627	180,439	-0,020	0,021
-689,612	-200,000	-0,002	-0,010
-688,597	137,287	0,040	0,039
-687,583	-44,252	-0,084	-0,031
-686,568	211,348	-0,051	0,060
-685,554	-109,592	-0,064	-0,010
-684,539	317,247	-0,049	0,068
-683,524	34,698	-0,064	0,041
-682,510	150,617	0,023	0,023
-681,495	-101,334	-0,046	0,008
-680,481	800,000	-0,047	-0,117
-679,466	-200,000	-0,003	-0,094
-678,451	85,726	0,083	-0,067
-677,437	165,874	0,049	0,051
-676,422	245,304	-0,062	0,076
-675,408	-76,924	0,054	0,014
-674,393	9,076	0,051	-0,028
-673,378	-200,000	-0,002	-0,142
-672,364	9,233	-0,082	-0,045
-671,349	247,216	-0,101	0,126
-670,335	262,388	-0,064	0,082
-669,320	800,000	0,024	0,052
-668,305	-200,000	-0,001	-0,088
-667,291	-43,260	-0,167	-0,062
-666,276	800,000	-0,014	-0,029
-665,262	354,872	-0,012	-0,018
-664,247	-117,566	-0,147	-0,019
-663,232	188,102	0,062	-0,068
-662,218	204,412	0,057	-0,065
-661,203	464,718	0,014	-0,023
-660,189	-31,020	-0,046	0,019
-659,174	23,974	-0,104	-0,063
-658,159	-200,000	0,019	-0,113
-657,145	-200,000	-0,128	-0,000
-656,130	-101,090	0,049	-0,009
-655,116	-200,000	-0,023	-0,112
-654,101	53,487	0,112	-0,079
-653,086	-200,000	-0,004	0,136
-652,072	800,000	0,017	-0,043
-651,057	-79,487	-0,029	-0,007
-650,043	162,195	-0,045	0,046
-649,028	-53,793	-0,185	0,062
-648,014	195,207	0,058	-0,064
-646,999	95,571	-0,067	-0,056
-645,984	-200,000	-0,025	-0,222
-644,970	800,000	0,034	0,108
-643,955	-200,000	0,000	-0,020
-642,941	-200,000	0,021	-0,131
-641,926	-97,169	0,093	-0,018
-640,911	-200,000	0,010	-0,045
-639,897	305,093	-0,088	0,121
-638,882	42,405	-0,103	-0,068
-637,868	-200,000	-0,003	0,014
-636,853	800,000	0,073	-0,209
-635,838	82,712	-0,045	-0,036
-634,824	800,000	0,064	-0,197
-633,809	-47,222	0,101	-0,036
-632,795	-140,856	0,120	0,009
-631,780	43,150	0,007	-0,005
-630,765	332,203	0,028	-0,040
-629,751	-21,834	-0,062	-0,027
-628,736	221,827	-0,032	0,038
-627,722	-75,296	0,034	-0,009
-626,707	14,285	-0,054	-0,031
-625,692	-200,000	0,016	0,175
-624,678	114,430	0,026	0,023
-623,663	-200,000	0,006	0,035
-622,649	800,000	-0,023	-0,059
-621,634	-200,000	0,009	-0,194
-620,619	800,000	-0,097	-0,218
-619,605	119,336	0,053	0,048
-618,590	-109,808	-0,116	0,018
-617,576	42,837	0,025	-0,017
-616,561	800,000	-0,019	-0,051
-615,546	559,379	0,032	-0,057
-614,532	261,674	-0,028	0,035
-613,517	345,192	0,062	0,089
-612,503	-73,694	0,107	0,028
-611,488	97,145	-0,033	-0,027
-610,474	-5,189	0,044	0,022
-609,459	66,504	0,050	0,037
-608,444	66,353	-0,021	-0,016
-607,430	800,000	-0,020	-0,046
-606,415	-130,328	0,090	-0,009
-605,401	-28,534	0,029	0,012
-604,386	-198,707	-0,174	0,001
-603,371	122,568	-0,073	0,067
-602,357	-57,481	-0,036	-0,012
-601,342	-200,000	0,012	-0,042
-600,328	97,521	-0,053	-0,045
-599,313	-200,000	0,012	0,111
-598,298	-200,000	0,012	-0,079
-597,284	-100,218	0,116	-0,021
-596,269	800,000	0,060	0,190
-595,255	-104,769	-0,085	0,014
-594,240	168,000	0,062	-0,064
-593,225	12,126	0,070	0,040
-592,211	-200,000	0,013	-0,079
-591,196	-27,992	-0,083	0,035
-590,182	800,000	-0,045	0,101
-589,167	-154,796	0,051	-0,002
-588,152	800,000	-0,044	0,120
-587,138	156,402	0,066	-0,067
-586,123	359,344	-0,059	-0,087
-585,109	-200,000	0,001	0,026
-584,094	114,376	-0,149	0,133
-583,079	-149,858	-0,139	-0,008
-582,065	800,000	0,036	0,081
-581,050	-6,625	-0,073	0,036
-580,036	-200,000	0,006	-0,038
-579,021	800,000	-0,022	-0,065
-578,006	-119,877	-0,118	0,015
-576,992	800,000	0,009	0,027
-575,977	-200,000	0,037	0,131
-574,963	-79,021	-0,111	-0,027
-573,948	-200,000	-0,019	-0,103
-572,934	-200,000	-0,026	-0,180
-571,919	800,000	-0,011	-0,023
-570,904	259,424	-0,123	0,155
-569,890	-34,985	-0,142	-0,056
-568,875	-97,821	-0,083	-0,016
-567,861	35,595	-0,022	0,014
-566,846	620,636	-0,063	-0,116
-565,831	-194,702	0,089	-0,000
-564,817	-107,016	-0,026	-0,004
-563,802	-5,907	-0,137	-0,068
-562,788	-70,431	-0,068	-0,019
-561,773	-200,000	0,034	-0,119
-560,758	800,000	0,036	-0,075
-559,744	-110,189	0,142	0,021
-558,729	251,901	-0,090	0,112
-557,715	-200,000	0,012	-0,107
-556,700	-38,758	-0,111	-0,043
-555,685	-24,378	0,031	0,014
-554,671	-200,000	0,004	-0,037
-553,656	-200,000	-0,003	0,043
-552,642	97,529	0,049	0,042
-551,627	-200,000	0,008	-0,034
-550,612	92,516	-0,144	-0,119
-549,598	3,821	-0,110	-0,059
-548,583	17,093	-0,041	0,023
-547,569	461,744	0,108	0,177
-546,554	259,399	0,057	0,072
-545,539	46,012	-0,098	-0,066
-544,525	284,294	-0,059	-0,078
-543,510	-146,480	-0,061	-0,004
-542,496	88,271	-0,132	-0,107
-541,481	21,796	-0,088	-0,052
-540,466	-76,826	0,084	-0,021
-539,452	-89,066	0,108	0,023
-538,437	332,753	0,117	0,166
-537,423	36,098	0,031	-0,020
-536,408	-104,142	-0,044	0,007
-535,393	-200,000	0,015	0,073
-534,379	-200,000	0,012	-0,079
-533,364	147,916	0,034	0,034
-532,350	183,733	-0,098	-0,106
-531,335	231,322	0,119	0,143
-530,321	68,288	-0,039	0,029
-529,306	305,534	-0,072	0,098
-528,291	800,000	-0,009	-0,022
-527,277	-34,839	-0,085	0,034
-526,262	-0,986	0,035	-0,018
-525,248	-164,339	0,034	0,001
-524,233	99,996	0,144	0,122
-523,218	-200,000	0,011	0,180
-522,204	-101,457	-0,049	0,009
-521,189	-5,980	-0,088	-0,044
-520,175	-137,221	0,079	0,007
-519,160	-160,931	-0,062	-0,002
-518,145	-154,273	0,083	0,004
-517,131	97,850	-0,069	0,058
-516,116	-129,899	0,163	0,016
-515,102	800,000	0,021	-0,049
-514,087	-43,139	-0,049	0,018
-513,072	800,000	-0,020	0,056
-512,058	-73,127	0,123	-0,033
-511,043	245,687	-0,038	0,047
-510,029	270,870	0,142	-0,183
-509,014	-52,728	0,135	-0,045
-507,999	302,106	0,060	0,081
-506,985	-29,820	-0,044	-0,018
-505,970	617,924	-0,050	-0,092
-504,956	101,096	-0,028	-0,024
-503,941	-200,000	0,009	0,114
-502,926	800,000	-0,073	0,166
-501,912	800,000	0,041	0,095
-500,897	-200,000	0,002	-0,008
-499,883	104,109	-0,058	-0,050
-498,868	800,000	-0,010	-0,023
-497,853	217,921	0,062	0,072
-496,839	104,856	-0,075	0,065
-495,824	800,000	-0,026	0,055
-494,810	-200,000	0,005	0,139
-493,795	800,000	-0,005	-0,016
-492,781	9,094	0,031	-0,017
-491,766	-90,257	-0,062	-0,013
-490,751	383,003	-0,008	0,012
-489,737	-4,854	-0,037	0,018
-488,722	228,789	0,054	0,065
-487,708	168,958	0,027	-0,028
-486,693	-38,572	-0,056	0,022
-485,678	-200,000	0,022	0,072
-484,664	800,000	0,024	0,055
-483,649	-26,464	-0,108	0,046
-482,635	50,166	-0,017	-0,012
-481,620	-65,591	0,080	-0,023
-480,605	452,446	0,023	-0,038
-479,591	-92,162	-0,070	-0,014
-478,576	800,000	0,014	-0,041
-477,562	99,779	-0,079	0,067
-476,547	122,094	-0,110	-0,100
-475,532	-138,154	-0,039	-0,003
-474,518	-68,405	0,035	-0,010
-473,503	-164,112	-0,068	-0,002
-472,489	81,255	0,036	-0,028
-471,474	-200,000	0,023	-0,118
-470,459	800,000	-0,043	-0,089
-469,445	-50,678	0,078	-0,027
-468,430	800,000	0,055	-0,164
-467,416	-179,783	-0,087	0,001
-466,401	329,803	-0,056	0,078
-465,386	-55,575	0,047	0,015
-464,372	278,513	0,026	-0,033
-463,357	428,873	0,072	-0,114
-462,343	-200,000	0,001	0,165
-461,328	-50,228	-0,102	0,035
-460,313	572,335	-0,049	0,087
-459,299	-2,797	0,043	0,022
-458,284	29,505	0,076	0,047
-457,270	-200,000	-0,032	-0,105
-456,255	-200,000	0,027	-0,202
-455,241	79,740	-0,076	-0,060
-454,226	35,855	-0,073	0,047
-453,211	-34,691	0,040	-0,016
-452,197	-38,512	-0,038	-0,015
-451,182	-200,000	0,001	0,151
-450,168	-4,029	0,111	0,056
-449,153	140,434	-0,126	-0,121
-448,138	93,571	0,090	-0,074
-447,124	188,364	-0,092	-0,100
-446,109	-99,708	-0,045	-0,008
-445,095	134,191	0,117	0,111
-444,080	254,097	0,069	0,086
-443,065	182,639	-0,057	-0,061
-442,051	320,961	0,037	-0,051
-441,036	18,428	-0,154	-0,089
-440,022	104,160	-0,049	-0,042
-439,007	141,776	-0,085	-0,082
-437,992	89,611	0,041	-0,033
-436,978	-8,986	0,150	-0,073
-435,963	156,361	0,072	-0,072
-434,949	-200,000	-0,003	-0,060
-433,934	270,525	-0,087	-0,112
-432,919	-200,000	0,006	-0,051
-431,905	135,328	-0,024	-0,023
-430,890	-200,000	-0,006	-0,087
-429,876	-74,519	-0,135	0,035
-428,861	495,254	-0,029	-0,048
-427,846	152,291	0,021	-0,021
-426,832	-200,000	0,022	0,122
-425,817	183,343	-0,048	-0,052
-424,803	71,411	0,061	0,046
-423,788	272,863	0,027	0,035
-422,773	-134,354	0,201	0,018
-421,759	-200,000	0,001	0,012
-420,744	187,958	-0,022	-0,024
-419,730	-100,397	-0,078	-0,014
-418,715	-15,442	-0,127	-0,059
-417,701	-200,000	0,023	-0,134
-416,686	800,000	-0,016	0,037
-415,671	-4,020	0,182	-0,092
-414,657	-200,000	0,004	0,130
-413,642	325,939	-0,113	0,157
-412,628	198,312	-0,053	-0,059
-411,613	-200,000	-0,005	0,034
-410,598	-200,000	-0,004	-0,108
-409,584	800,000	-0,042	0,100
-408,569	-139,848	0,106	0,008
-407,555	-200,000	0,034	0,223
-406,540	-93,886	-0,120	0,024
-405,525	-200,000	-0,023	-0,129
-404,511	684,099	0,123	-0,234
-403,496	-200,000	-0,011	-0,172
-402,482	27,754	0,060	-0,037
-401,467	58,009	0,050	0,035
-400,452	-37,312	0,163	0,063
-399,438	303,565	0,022	-0,030
-398,423	85,895	0,093	0,074
-397,409	800,000	-0,026	-0,069
-396,394	222,648	-0,037	0,043
-395,379	-97,641	0,071	-0,013
-394,365	-84,582	0,103	0,023
-393,350	51,271	-0,081	0,056
-392,336	176,244	-0,048	0,051
-391,321	141,499	-0,132	0,127
-390,306	-24,783	-0,011	0,005
-389,292	-125,688	-0,085	-0,009
-388,277	95,486	-0,047	-0,039
-387,263	-200,000	-0,014	0,175
-386,248	390,613	0,002	0,003
-385,233	51,587	0,101	-0,070
-384,219	-200,000	-0,011	0,127
-383,204	800,000	-0,044	-0,134
-382,190	86,769	-0,060	0,048
-381,175	800,000	-0,008	-0,020
-380,160	50,606	0,075	-0,051
-379,146	-200,000	-0,002	0,099
-378,131	328,953	0,057	0,079
-377,117	800,000	-0,031	0,086
-376,102	78,460	0,068	0,053
-375,088	26,768	0,056	0,034
-374,073	32,336	-0,045	-0,028
-373,058	-180,991	0,073	-0,001
-372,044	42,428	0,090	0,059
-371,029	-200,000	0,011	-0,047
-370,015	240,446	0,040	0,049
-369,000	618,648	-0,049	0,090
-367,985	524,703	0,066	-0,114
-366,971	-200,000	-0,012	0,051
-365,956	63,456	0,075	0,055
-364,942	17,063	0,091	-0,052
-363,927	357,789	-0,013	0,019
-362,912	-30,655	-0,057	-0,023
-361,898	-200,000	0,016	-0,162
-360,883	628,825	-0,077	-0,143
-359,869	-200,000	-0,010	-0,035
-358,854	-105,128	0,079	0,013
-357,839	54,367	-0,054	0,038
-356,825	-200,000	0,021	-0,114
-355,810	324,351	-0,049	-0,068
-354,796	-3,591	0,131	-0,066
-353,781	-200,000	-0,026	0,099
-352,766	26,516	-0,055	0,033
-351,752	-200,000	-0,014	0,097
-350,737	-114,330	0,162	0,022
-349,723	800,000	-0,031	0,076
-348,708	-200,000	0,010	0,071
-347,693	244,457	-0,063	-0,077
-346,679	-200,000	0,021	-0,104
-345,664	-151,181	0,092	-0,005
-344,650	659,615	0,063	-0,118
-343,635	800,000	-0,018	0,044
-342,620	-200,000	0,007	-0,054
-341,606	800,000	-0,007	0,020
-340,591	127,103	0,044	-0,040
-339,577	78,329	-0,081	-0,063
-338,562	-200,000	0,011	-0,099
-337,548	-52,410	0,042	0,014
-336,533	-134,196	0,044	-0,004
-335,518	197,226	0,039	0,043
-334,504	-200,000	-0,015	0,178
-333,489	38,941	0,078	0,051
-332,475	-200,000	0,016	-0,053
-331,460	393,637	0,045	-0,068
-330,445	462,998	-0,064	-0,104
-329,431	-200,000	0,007	0,109
-328,416	41,528	0,151	0,099
-327,402	-74,967	0,047	0,012
-326,387	196,271	-0,016	0,018
-325,372	-200,000	0,011	-0,121
-324,358	132,301	-0,094	-0,088
-323,343	128,435	-0,017	-0,016
-322,329	110,955	0,124	0,108
-321,314	-86,756	0,090	-0,020
-320,299	-200,000	0,039	0,140
-319,285	-200,000	-0,008	0,109
-318,270	82,229	-0,035	-0,028
-317,256	48,927	0,091	-0,062
-316,241	3,072	0,024	0,012
-315,226	278,714	0,081	0,105
-314,212	65,050	-0,010	-0,007
-313,197	-200,000	0,026	0,119
-312,183	300,042	-0,063	0,084
-311,168	357,684	0,032	0,047
-310,153	36,689	0,053	-0,034
-309,139	246,544	0,069	-0,084
-308,124	-141,898	0,027	-0,002
-307,110	800,000	-0,027	-0,066
-306,095	-200,000	-0,006	0,028
-305,080	-102,040	-0,139	0,024
-304,066	800,000	0,047	0,110
-303,051	311,337	-0,055	-0,075
-302,037	-200,000	0,026	-0,157
-301,022	143,000	-0,127	0,122
-300,008	-200,000	0,001	0,232
-298,993	447,513	-0,065	0,103
-297,978	119,735	-0,104	-0,094
-296,964	-17,028	0,021	-0,009
-295,949	339,799	-0,078	-0,111
-294,935	16,523	0,061	-0,035
-293,920	-37,110	-0,112	0,043
-292,905	226,398	0,039	-0,045
-291,891	-32,281	0,142	-0,057
-290,876	17,915	-0,067	0,039
-289,862	508,561	-0,036	0,060
-288,847	800,000	0,004	0,012
-287,832	-0,656	-0,027	-0,014
-286,818	800,000	-0,023	-0,059
-285,803	-200,000	0,003	0,023
-284,789	46,503	-0,113	0,076
-283,774	39,758	0,079	0,051
-282,759	227,568	0,074	-0,087
-281,745	-200,000	0,012	0,118
-280,730	-7,371	0,095	-0,046
-279,716	36,815	-0,089	0,057
-278,701	618,795	-0,034	0,062
-277,686	365,501	0,006	-0,008
-276,672	-19,510	-0,148	-0,066
-275,657	444,427	0,023	0,036
-274,643	103,033	0,064	0,054
-273,628	167,383	-0,019	0,019
-272,613	-200,000	0,015	-0,051
-271,599	-200,000	-0,010	0,034
-270,584	-200,000	-0,002	-0,051
-269,570	330,629	-0,086	0,120
-268,555	800,000	0,040	-0,088
-267,540	315,199	-0,039	-0,054
-266,526	-65,506	-0,094	0,027
-265,511	-200,000	0,029	-0,129
-264,497	-3,000	0,049	-0,025
-263,482	-103,460	0,064	0,011
-262,467	-100,796	-0,080	0,014
-261,453	59,991	0,100	-0,072
-260,438	-35,266	-0,096	-0,038
-259,424	-200,000	-0,009	0,042
-258,409	16,747	-0,016	-0,009
-257,395	230,659	-0,042	0,050
-256,380	-200,000	0,004	0,041
-255,365	-16,771	-0,070	0,032
-254,351	-200,000	0,007	0,062
-253,336	-200,000	-0,025	0,094
-252,322	94,938	-0,051	-0,042
-251,307	800,000	-0,025	0,056
-250,292	344,210	0,082	0,116
-249,278	-165,093	0,159	0,005
-248,263	393,746	0,023	-0,035
-247,249	-60,884	-0,080	-0,024
-246,234	-200,000	-0,007	-0,156
-245,219	800,000	-0,011	0,022
-244,205	-90,495	-0,271	0,056
-243,190	800,000	-0,044	0,102
-242,176	67,904	0,051	0,038
-241,161	317,956	0,039	-0,053
-240,146	800,000	-0,023	-0,062
-239,132	800,000	0,040	-0,098
-238,117	357,542	0,050	-0,072
-237,103	72,630	0,053	-0,040
-236,088	599,889	0,091	0,164
-235,073	59,364	0,169	0,120
-234,059	-108,007	-0,110	-0,017
-233,044	256,664	-0,033	0,041
-232,030	-200,000	0,020	0,076
-231,015	717,312	-0,104	-0,200
-230,000	-9,575	-0,062	0,030
-228,986	120,367	0,054	-0,048
-227,971	-50,945	0,121	0,041
-226,957	99,107	0,037	-0,031
-225,942	-200,000	-0,005	0,127
-224,927	-2,657	-0,084	-0,043
-223,913	-72,623	0,079	0,021
-222,898	800,000	-0,020	-0,059
-221,884	-136,655	-0,080	-0,007
-220,869	-161,189	0,157	-0,006
-219,855	-85,725	0,114	-0,025
-218,840	111,799	-0,089	0,078
-217,825	-107,056	-0,116	0,018
-216,811	-200,000	0,001	0,040
-215,796	-200,000	0,013	0,111
-214,782	-200,000	-0,006	0,028
-213,767	45,025	0,051	0,034
-212,752	800,000	-0,045	0,138
-211,738	174,959	0,008	-0,008
-210,723	800,000	0,031	-0,071
-209,709	723,233	0,043	0,083
-208,694	800,000	-0,078	-0,200
-207,679	-71,394	-0,176	0,047
-206,665	-59,071	0,178	0,055
-205,650	-31,834	0,014	0,006
-204,636	-87,704	0,044	-0,009
-203,621	800,000	-0,040	-0,110
-202,606	197,845	-0,084	0,093
-201,592	-78,527	-0,121	-0,030
-200,577	-200,000	0,014	-0,050
-199,563	114,510	-0,009	0,008
-198,548	345,770	-0,083	-0,118
-197,533	800,000	0,024	0,069
-196,519	265,747	0,063	0,080
-195,504	105,318	-0,079	-0,068
-194,490	391,869	0,073	-0,109
-193,475	-70,084	-0,023	-0,006
-192,460	-200,000	0,026	0,104
-191,446	8,911	0,191	-0,104
-190,431	-200,000	-0,001	0,078
-189,417	800,000	-0,072	0,166
-188,402	-35,494	0,071	-0,028
-187,387	-200,000	-0,012	-0,048
-186,373	-200,000	0,033	0,106
-185,358	241,878	-0,034	0,041
-184,344	-58,714	0,156	-0,048
-183,329	12,495	0,177	0,098
-182,315	-118,575	0,138	0,017
-181,300	-200,000	-0,001	-0,081
-180,285	77,993	-0,096	-0,074
-179,271	179,833	-0,020	0,021
-178,256	-113,140	-0,038	0,005
-177,242	800,000	-0,016	0,040
-176,227	-200,000	-0,010	0,108
-175,212	139,865	0,036	-0,035
-174,198	-127,300	-0,106	-0,011
-173,183	208,154	0,034	0,039
-172,169	5,251	0,052	-0,027
-171,154	-200,000	0,026	-0,180
-170,139	663,767	0,015	-0,027
-169,125	-105,827	0,036	-0,006
-168,110	-54,765	0,074	-0,024
-167,096	98,326	0,088	0,073
-166,081	-200,000	0,018	0,068
-165,066	-72,385	-0,016	0,004
-164,052	-48,668	0,017	-0,006
-163,037	728,515	0,031	-0,059
-162,023	-200,000	-0,001	0,061
-161,008	-152,817	-0,055	-0,003
-159,993	-31,848	0,085	0,034
-158,979	-37,671	0,160	-0,061
-157,964	211,865	-0,145	-0,165
-156,950	65,316	-0,053	0,039
-155,935	800,000	-0,013	0,026
-154,920	-200,000	0,030	0,204
-153,906	-8,517	0,088	0,042
-152,891	191,505	-0,060	0,065
-151,877	27,236	-0,090	0,055
-150,862	-200,000	0,016	-0,095
-149,847	-200,000	-0,008	-0,037
-148,833	-32,763	-0,091	-0,036
-147,818	-200,000	-0,007	0,108
-146,804	197,376	0,110	-0,121
-145,789	268,316	0,011	-0,014
-144,775	-99,738	0,051	-0,009
-143,760	-50,013	-0,156	-0,053
-142,745	800,000	0,031	0,092
-141,731	56,578	0,018	-0,013
-140,716	800,000	-0,068	0,145
-139,702	-133,558	0,042	0,004
-138,687	-156,181	0,070	-0,003
-137,672	800,000	0,003	-0,009
-136,658	800,000	0,012	-0,027
-135,643	99,615	-0,087	-0,073
-134,629	800,000	0,044	0,096
-133,614	800,000	0,050	0,134
-132,599	-200,000	0,018	0,067
-131,585	-200,000	-0,003	0,058
-130,570	301,550	0,092	0,123
-129,556	-168,306	-0,054	-0,001
-128,541	800,000	-0,037	-0,092
-127,526	207,657	0,030	0,034
-126,512	-177,742	-0,062	-0,001
-125,497	-200,000	0,034	0,132
-124,483	-17,604	-0,110	0,050
-123,468	800,000	0,040	0,097
-122,453	787,061	0,062	0,124
-121,439	800,000	0,027	-0,057
-120,424	-200,000	-0,012	0,066
-119,410	-49,531	0,073	-0,025
