DTS Sentinel unit serial number:	SN410029Multiplexer serial number:	ORYXHardware model number:	OX2-SRSoftware version number:	ORYX F/W v4,00 Oryx Data Collector v3.7.2.0data status	okinstallation	B5 Nyhavnadifferential loss correction	single-endedforward channel	channel 2reverse channel	N/Adate	2023/12/13time	11:42:14forward acquisition time	300,00reverse acquisition time	0,00gamma	499,1914k internal	0,3161k external	0,3161temperature offset calibration	1,0000default loss term (dB/km)	0,3820temperature slope calibration	1,0000multiplexer offset coefficient	1,0000multiplexer slope coefficient	1,0000fibre end	0,00T internal ref (°C)	13,86T ext. ref 1 (°C)	-2,12T ext. ref 2 (°C)	-2,38length (m)	temperature (°C)	Stokes	anti-Stokes-744,400	-128,934	0,101	0,010
-743,385	-91,414	-0,353	0,074
-742,371	206,296	0,143	0,164
-741,356	-114,799	-0,185	-0,026
-740,342	-102,386	0,194	-0,034
-739,327	12,799	-0,250	-0,142
-738,312	-200,000	-0,025	0,105
-737,298	-140,680	-0,371	0,028
-736,283	-73,779	0,081	-0,022
-735,269	-130,490	-0,189	0,019
-734,254	800,000	-0,012	0,036
-733,239	-112,909	-0,557	-0,080
-732,225	-12,549	0,125	0,060
-731,210	800,000	-0,048	-0,156
-730,196	599,942	0,034	-0,062
-729,181	-200,000	-0,016	0,158
-728,167	2,355	0,100	-0,053
-727,152	-130,392	0,026	0,003
-726,137	-115,237	-0,071	0,010
-725,123	800,000	-0,017	0,046
-724,108	-200,000	-0,018	0,096
-723,094	119,664	0,086	-0,078
-722,079	-112,229	-0,105	-0,015
-721,064	31,337	0,054	-0,034
-720,050	-200,000	0,028	0,147
-719,035	103,599	0,134	0,115
-718,021	-106,730	-0,025	-0,004
-717,006	-15,734	-0,090	-0,042
-715,991	-139,418	-0,178	-0,014
-714,977	67,185	-0,129	-0,096
-713,962	-102,665	-0,130	-0,023
-712,948	120,585	0,067	-0,061
-711,933	-121,004	0,120	0,015
-710,918	-108,106	-0,069	0,011
-709,904	278,812	-0,028	0,036
-708,889	-0,586	-0,022	-0,012
-707,875	-90,592	0,038	0,008
-706,860	-200,000	-0,013	-0,062
-705,845	521,778	-0,077	0,133
-704,831	81,043	0,122	0,097
-703,816	-179,150	-0,205	-0,003
-702,802	-73,475	-0,099	-0,026
-701,787	800,000	-0,031	-0,092
-700,772	800,000	0,058	-0,132
-699,758	800,000	-0,053	0,124
-698,743	-112,786	0,130	-0,019
-697,729	-200,000	0,003	-0,062
-696,714	-200,000	-0,006	-0,080
-695,699	800,000	-0,025	-0,076
-694,685	800,000	-0,032	-0,078
-693,670	162,948	0,051	0,053
-692,656	800,000	0,049	-0,137
-691,641	614,749	-0,059	-0,108
-690,627	82,870	0,091	-0,073
-689,612	165,275	0,046	0,048
-688,597	252,473	0,039	-0,049
-687,583	188,986	0,027	-0,030
-686,568	800,000	0,030	-0,067
-685,554	-200,000	0,005	-0,019
-684,539	240,959	-0,038	-0,046
-683,524	-200,000	-0,021	-0,114
-682,510	-200,000	0,004	0,060
-681,495	-78,063	-0,087	0,022
-680,481	-200,000	-0,024	-0,182
-679,466	-63,671	-0,124	-0,037
-678,451	76,235	-0,080	0,062
-677,437	800,000	0,027	-0,063
-676,422	-200,000	-0,009	0,079
-675,408	800,000	-0,044	-0,132
-674,393	800,000	-0,039	-0,093
-673,378	-200,000	0,014	-0,057
-672,364	323,916	-0,012	0,017
-671,349	299,600	0,090	-0,123
-670,335	636,756	-0,070	0,132
-669,320	666,423	-0,030	0,058
-668,305	348,903	-0,040	-0,058
-667,291	-36,745	-0,043	-0,017
-666,276	-200,000	0,025	-0,134
-665,262	-200,000	0,034	-0,119
-664,247	202,358	0,073	-0,083
-663,232	235,108	-0,038	-0,046
-662,218	225,832	0,097	0,116
-661,203	73,239	-0,078	-0,060
-660,189	390,150	0,039	-0,060
-659,174	-200,000	0,022	-0,158
-658,159	-20,608	0,032	-0,015
-657,145	-34,468	-0,073	-0,029
-656,130	149,926	0,052	-0,051
-655,116	-200,000	-0,017	0,082
-654,101	-5,862	0,039	-0,020
-653,086	800,000	0,008	0,018
-652,072	-200,000	-0,004	-0,074
-651,057	51,653	-0,016	-0,011
-650,043	-200,000	0,012	-0,093
-649,028	-167,096	-0,123	-0,004
-648,014	329,326	-0,061	0,086
-646,999	547,474	-0,035	0,062
-645,984	166,801	0,078	0,082
-644,970	-104,328	-0,059	0,010
-643,955	257,807	0,097	-0,122
-642,941	-47,560	-0,119	-0,042
-641,926	239,030	-0,048	0,058
-640,911	-73,713	0,085	0,023
-639,897	18,974	-0,090	-0,053
-638,882	-121,955	0,091	-0,011
-637,868	-200,000	-0,028	-0,143
-636,853	-200,000	0,019	-0,207
-635,838	-55,335	0,108	-0,035
-634,824	227,096	-0,076	-0,091
-633,809	-200,000	-0,001	0,053
-632,795	332,032	0,024	0,034
-631,780	28,491	0,091	-0,056
-630,765	419,860	0,055	0,087
-629,751	-69,089	-0,133	0,037
-628,736	20,767	0,097	0,057
-627,722	-131,883	0,055	-0,005
-626,707	201,409	-0,107	-0,121
-625,692	-200,000	-0,022	0,100
-624,678	36,818	0,033	-0,022
-623,663	-120,465	-0,113	-0,014
-622,649	41,382	-0,082	-0,054
-621,634	158,127	0,051	-0,052
-620,619	-200,000	0,008	-0,034
-619,605	111,327	0,048	0,042
-618,590	88,346	0,071	0,058
-617,576	-41,926	-0,074	0,028
-616,561	-1,948	0,092	-0,047
-615,546	238,183	-0,073	-0,090
-614,532	-200,000	0,005	-0,031
-613,517	-85,785	0,024	0,005
-612,503	800,000	0,020	0,058
-611,488	800,000	-0,019	0,051
-610,474	56,872	0,153	-0,109
-609,459	24,037	0,107	-0,065
-608,444	800,000	0,059	0,170
-607,430	519,496	-0,015	-0,026
-606,415	-1,974	0,090	-0,046
-605,401	-80,908	0,063	0,015
-604,386	800,000	0,027	-0,059
-603,371	328,067	-0,043	0,060
-602,357	-0,567	0,096	-0,049
-601,342	800,000	-0,061	0,143
-600,328	84,360	0,106	-0,085
-599,313	-200,000	-0,005	-0,102
-598,298	327,747	-0,043	-0,060
-597,284	-67,695	0,151	0,043
-596,269	5,608	-0,032	0,017
-595,255	521,024	-0,051	0,087
-594,240	5,606	0,047	0,025
-593,225	14,882	0,076	0,044
-592,211	-28,026	-0,127	0,054
-591,196	340,233	0,047	0,068
-590,182	-165,333	0,057	0,002
-589,167	-196,234	-0,101	0,000
-588,152	-200,000	-0,025	0,142
-587,138	-200,000	0,028	-0,113
-586,123	-70,408	0,043	0,012
-585,109	-86,767	0,042	-0,009
-584,094	800,000	-0,037	-0,118
-583,079	16,405	0,061	-0,035
-582,065	-200,000	0,015	0,149
-581,050	-200,000	0,004	-0,030
-580,036	-12,793	-0,067	-0,032
-579,021	-162,720	-0,165	0,006
-578,006	-200,000	-0,007	-0,096
-576,992	800,000	0,058	0,131
-575,977	90,255	0,011	0,009
-574,963	196,375	-0,092	0,102
-573,948	125,251	0,073	0,067
-572,934	800,000	0,048	0,112
-571,919	98,023	-0,029	0,024
-570,904	-4,870	0,054	-0,027
-569,890	-101,822	-0,085	0,015
-568,875	339,984	-0,042	0,060
-567,861	-30,554	0,094	0,039
-566,846	-73,406	0,064	-0,017
-565,831	51,085	-0,098	-0,068
-564,817	137,477	-0,043	-0,042
-563,802	-171,470	-0,065	-0,002
-562,788	-151,231	0,055	0,003
-561,773	800,000	-0,034	-0,075
-560,758	244,449	0,039	0,048
-559,744	124,834	0,088	0,081
-558,729	-141,431	0,023	0,002
-557,715	11,834	-0,014	0,008
-556,700	-17,753	-0,197	-0,090
-555,685	12,523	-0,101	-0,057
-554,671	800,000	0,055	0,138
-553,656	800,000	0,054	-0,117
-552,642	-89,875	0,082	-0,017
-551,627	191,542	-0,164	0,181
-550,612	800,000	0,019	0,061
-549,598	81,256	-0,205	-0,161
-548,583	800,000	0,023	-0,062
-547,569	800,000	0,056	0,141
-546,554	-200,000	0,002	0,025
-545,539	19,225	-0,057	-0,033
-544,525	800,000	0,012	0,027
-543,510	-88,503	-0,079	-0,017
-542,496	-200,000	0,012	0,141
-541,481	172,019	-0,045	0,048
-540,466	-71,963	0,064	0,017
-539,452	-1,436	0,064	0,033
-538,437	55,300	0,061	-0,043
-537,423	157,646	-0,031	0,031
-536,408	-5,614	-0,043	-0,021
-535,393	-188,247	-0,103	0,001
-534,379	-75,103	-0,041	-0,011
-533,364	-31,100	0,058	-0,024
-532,350	301,353	-0,052	0,070
-531,335	183,809	0,082	0,088
-530,321	36,654	-0,095	0,061
-529,306	724,017	0,069	0,135
-528,291	-104,567	0,010	-0,002
-527,277	-200,000	0,011	-0,096
-526,262	800,000	0,039	-0,082
-525,248	609,045	-0,053	-0,097
-524,233	161,043	0,016	0,016
-523,218	450,255	0,085	0,137
-522,204	98,530	0,069	-0,058
-521,189	19,820	0,009	-0,005
-520,175	-103,089	-0,067	0,012
-519,160	345,508	0,076	-0,109
-518,145	298,338	-0,049	0,066
-517,131	-53,153	0,033	0,011
-516,116	-200,000	-0,004	-0,103
-515,102	-200,000	0,016	0,102
-514,087	800,000	-0,020	-0,043
-513,072	237,166	-0,098	-0,119
-512,058	-200,000	0,011	0,076
-511,043	-187,972	0,052	-0,000
-510,029	-35,062	-0,100	0,040
-509,014	-154,594	0,035	-0,002
-507,999	528,371	0,062	0,107
-506,985	-130,462	-0,089	-0,009
-505,970	223,786	-0,044	-0,052
-504,956	68,061	-0,044	0,033
-503,941	148,810	0,115	-0,113
-502,926	-20,397	0,057	-0,026
-501,912	-11,746	0,182	0,087
-500,897	232,258	0,059	0,071
-499,883	-38,603	0,071	-0,027
-498,868	122,856	0,079	-0,072
-497,853	-86,312	-0,062	0,014
-496,839	7,522	0,140	-0,076
-495,824	240,974	-0,092	0,113
-494,810	-200,000	0,008	0,090
-493,795	-40,496	-0,039	0,015
-492,781	800,000	-0,017	0,045
-491,766	800,000	0,041	-0,109
-490,751	15,369	0,086	0,049
-489,737	137,608	0,105	-0,101
-488,722	-110,959	0,121	0,018
-487,708	-80,755	-0,068	0,016
-486,693	486,294	-0,064	-0,107
-485,678	800,000	-0,038	-0,093
-484,664	538,370	-0,043	-0,075
-483,649	151,529	-0,102	-0,101
-482,635	187,624	-0,062	0,068
-481,620	-56,788	0,039	-0,013
-480,605	7,634	-0,027	-0,015
-479,591	800,000	-0,015	0,032
-478,576	-10,593	-0,159	0,076
-477,562	151,667	-0,070	-0,069
-476,547	75,772	-0,032	0,025
-475,532	101,832	-0,052	0,044
-474,518	46,288	0,076	0,051
-473,503	-82,454	0,136	-0,032
-472,489	-200,000	0,013	0,186
-471,474	12,906	-0,152	-0,086
-470,459	800,000	-0,026	-0,069
-469,445	-200,000	-0,007	0,029
-468,430	800,000	-0,032	0,069
-467,416	800,000	0,059	-0,149
-466,401	-200,000	0,076	0,266
-465,386	800,000	0,029	0,065
-464,372	611,677	0,052	0,095
-463,357	516,339	0,052	0,090
-462,343	-93,452	-0,040	-0,008
-461,328	-54,755	-0,096	0,031
-460,313	-200,000	-0,015	0,128
-459,299	-66,546	0,072	0,021
-458,284	-200,000	0,007	0,073
-457,270	-37,073	-0,118	0,046
-456,255	101,448	-0,081	0,068
-455,241	190,863	-0,038	-0,042
-454,226	-200,000	0,036	-0,118
-453,211	-200,000	0,007	-0,119
-452,197	-108,475	0,094	-0,015
-451,182	800,000	0,011	-0,026
-450,168	800,000	-0,028	0,091
-449,153	-200,000	-0,007	-0,203
-448,138	267,250	-0,082	-0,104
-447,124	800,000	-0,064	-0,150
-446,109	229,184	0,064	-0,076
-445,095	-72,571	0,041	-0,011
-444,080	-200,000	0,047	0,174
-443,065	800,000	0,012	-0,028
-442,051	-34,168	-0,147	-0,059
-441,036	-70,089	-0,101	-0,028
-440,022	-200,000	-0,010	-0,088
-439,007	-107,068	0,082	-0,013
-437,992	-200,000	0,017	-0,056
-436,978	89,030	-0,094	-0,076
-435,963	-118,028	-0,142	-0,018
-434,949	800,000	0,011	-0,034
-433,934	745,627	-0,040	-0,078
-432,919	742,690	0,094	0,184
-431,905	342,314	-0,033	0,048
-430,890	-10,327	-0,040	0,019
-429,876	800,000	-0,017	-0,039
-428,861	32,704	-0,147	0,092
-427,846	344,584	0,018	0,025
-426,832	207,705	-0,110	0,125
-425,817	800,000	-0,027	-0,076
-424,803	19,851	-0,065	0,038
-423,788	575,911	-0,029	0,051
-422,773	-41,820	0,092	0,034
-421,759	-162,531	-0,054	0,002
-420,744	-89,282	-0,111	-0,024
-419,730	97,917	-0,064	0,053
-418,715	12,040	0,022	0,012
-417,701	-200,000	0,032	-0,139
-416,686	-200,000	-0,012	-0,056
-415,671	-104,605	0,074	-0,012
-414,657	-124,012	-0,089	0,010
-413,642	27,862	-0,034	0,021
-412,628	-73,984	-0,082	0,021
-411,613	24,015	-0,078	-0,047
-410,598	165,270	-0,066	0,068
-409,584	110,297	-0,045	0,040
-408,569	-200,000	0,006	0,048
-407,555	44,455	0,162	0,108
-406,540	23,860	0,056	-0,034
-405,525	97,032	-0,123	0,103
-404,511	-53,719	-0,106	-0,035
-403,496	-200,000	0,011	-0,095
-402,482	86,057	0,065	0,052
-401,467	167,628	-0,030	0,031
-400,452	-81,731	-0,094	0,022
-399,438	19,439	0,124	0,072
-398,423	-76,073	0,098	-0,025
-397,409	431,379	-0,081	-0,128
-396,394	-0,410	0,085	0,044
-395,379	239,224	-0,007	-0,008
-394,365	-200,000	0,015	0,194
-393,350	136,344	0,059	-0,056
-392,336	800,000	-0,021	0,059
-391,321	-127,262	0,044	0,005
-390,306	-33,735	0,152	-0,060
-389,292	185,783	-0,110	-0,119
-388,277	-98,283	0,089	0,016
-387,263	800,000	-0,021	-0,053
-386,248	757,837	0,033	-0,066
-385,233	-200,000	-0,009	0,130
-384,219	14,705	0,054	-0,030
-383,204	800,000	-0,098	-0,222
-382,190	800,000	-0,006	0,013
-381,175	239,833	0,081	0,098
-380,160	87,470	-0,086	-0,069
-379,146	800,000	0,061	0,153
-378,131	237,377	0,062	0,075
-377,117	-111,661	0,040	0,006
-376,102	375,353	0,067	-0,100
-375,088	81,492	0,086	0,068
-374,073	609,736	0,053	-0,097
-373,058	0,457	-0,047	-0,024
-372,044	105,508	0,198	0,170
-371,029	-200,000	0,005	-0,107
-370,015	-194,044	-0,082	-0,000
-369,000	800,000	0,039	-0,080
-367,985	255,581	-0,049	0,061
-366,971	-200,000	0,007	-0,028
-365,956	561,838	-0,022	-0,039
-364,942	-0,940	-0,068	0,035
-363,927	-200,000	0,002	0,055
-362,912	114,673	-0,079	-0,070
-361,898	30,015	-0,146	-0,090
-360,883	-200,000	0,001	0,024
-359,869	71,092	-0,067	-0,050
-358,854	-44,941	0,051	-0,019
-357,839	-24,008	0,017	-0,007
-356,825	217,733	0,065	0,075
-355,810	800,000	-0,030	-0,065
-354,796	-60,065	-0,076	0,023
-353,781	-107,785	0,053	-0,008
-352,766	-47,307	-0,071	-0,025
-351,752	66,794	-0,035	0,026
-350,737	-69,441	0,076	-0,021
-349,723	-32,301	0,036	0,015
-348,708	-200,000	0,030	0,134
-347,693	127,445	0,054	0,050
-346,679	153,202	-0,040	-0,040
-345,664	-73,172	-0,210	-0,055
-344,650	477,896	0,068	0,112
-343,635	-200,000	-0,012	0,184
-342,620	44,001	0,113	-0,075
-341,606	-49,665	-0,025	-0,009
-340,591	-200,000	-0,002	0,050
-339,577	38,478	-0,059	-0,038
-338,562	-56,342	-0,093	0,030
-337,548	658,062	0,085	-0,159
-336,533	-107,071	0,040	-0,006
-335,518	-200,000	0,001	0,040
-334,504	800,000	0,045	0,104
-333,489	-200,000	-0,015	-0,051
-332,475	-8,322	0,111	-0,054
-331,460	414,881	-0,091	-0,141
-330,445	800,000	-0,048	-0,124
-329,431	-32,081	0,044	0,018
-328,416	800,000	-0,041	0,106
-327,402	-200,000	0,019	0,172
-326,387	-44,736	-0,041	0,015
-325,372	208,372	-0,044	-0,050
-324,358	31,402	-0,018	-0,011
-323,343	120,994	-0,067	-0,060
-322,329	130,193	0,058	-0,053
-321,314	128,207	0,070	0,065
-320,299	230,401	0,103	-0,122
-319,285	485,039	0,073	0,120
-318,270	800,000	0,025	-0,073
-317,256	18,746	0,152	-0,088
-316,241	156,038	0,043	0,043
-315,226	-78,824	0,101	-0,025
-314,212	-108,428	0,018	-0,003
-313,197	800,000	-0,030	-0,076
-312,183	-200,000	-0,033	0,119
-311,168	-200,000	0,020	-0,097
-310,153	259,975	-0,049	0,061
-309,139	117,276	0,076	-0,067
-308,124	-200,000	0,012	-0,088
-307,110	607,751	-0,043	0,077
-306,095	72,759	0,076	-0,057
-305,080	481,911	-0,038	-0,062
-304,066	-200,000	-0,008	0,075
-303,051	-114,526	-0,161	-0,022
-302,037	-54,785	-0,048	0,016
-301,022	800,000	0,054	0,129
-300,008	48,659	0,070	0,048
-298,993	800,000	0,016	-0,043
-297,978	800,000	0,045	-0,090
-296,964	-200,000	0,003	-0,064
-295,949	-157,646	0,093	-0,004
-294,935	294,380	-0,097	0,128
-293,920	-65,078	-0,068	0,020
-292,905	-101,172	0,061	-0,011
-291,891	-200,000	-0,033	0,105
-290,876	-22,750	-0,055	0,024
-289,862	800,000	-0,051	-0,103
-288,847	782,418	-0,030	-0,061
-287,832	390,345	-0,068	-0,102
-286,818	25,880	0,024	-0,015
-285,803	211,211	0,041	0,046
-284,789	800,000	-0,035	0,082
-283,774	-35,642	-0,014	0,005
-282,759	192,016	0,073	-0,080
-281,745	67,752	-0,122	-0,090
-280,730	-38,018	-0,047	-0,018
-279,716	-53,354	-0,040	0,013
-278,701	22,604	-0,015	0,009
-277,686	800,000	0,015	-0,047
-276,672	-61,936	0,052	-0,015
-275,657	-200,000	-0,039	0,154
-274,643	643,255	-0,025	-0,047
-273,628	-26,930	-0,082	-0,034
-272,613	-36,769	-0,048	0,018
-271,599	-181,349	-0,042	-0,001
-270,584	-200,000	0,023	0,156
-269,570	-200,000	0,004	0,069
-268,555	-200,000	-0,036	0,221
-267,540	203,708	0,050	0,056
-266,526	-157,599	-0,080	-0,003
-265,511	5,569	-0,026	-0,014
-264,497	-200,000	-0,013	-0,101
-263,482	62,982	0,069	0,050
-262,467	-200,000	0,006	0,037
-261,453	788,566	-0,028	0,055
-260,438	-78,538	-0,054	0,013
-259,424	23,215	0,110	-0,065
-258,409	233,907	-0,042	0,050
-257,395	-200,000	0,001	-0,108
-256,380	800,000	-0,008	-0,017
-255,365	22,695	0,074	-0,044
-254,351	-200,000	-0,007	0,140
-253,336	-113,008	-0,017	0,002
-252,322	800,000	-0,080	-0,165
-251,307	642,355	-0,088	-0,164
-250,292	102,698	-0,063	-0,053
-249,278	-98,670	-0,039	0,007
-248,263	-200,000	-0,006	-0,110
-247,249	-200,000	-0,014	-0,061
-246,234	73,798	0,065	-0,049
-245,219	-200,000	0,002	0,019
-244,205	31,256	0,184	0,114
-243,190	30,637	0,141	0,087
-242,176	800,000	0,045	0,125
-241,161	-200,000	0,010	-0,102
-240,146	-178,880	-0,037	-0,001
-239,132	65,521	-0,053	0,038
-238,117	800,000	-0,038	-0,115
-237,103	-160,078	-0,077	0,003
-236,088	6,064	0,105	0,056
-235,073	468,663	-0,021	-0,034
-234,059	144,337	0,069	-0,067
-233,044	8,215	-0,021	-0,011
-232,030	-200,000	0,009	0,065
-231,015	800,000	-0,091	0,185
-230,000	-200,000	-0,026	-0,179
-228,986	800,000	0,046	-0,093
-227,971	-61,326	0,195	-0,059
-226,957	389,380	-0,041	0,062
-225,942	800,000	0,049	0,108
-224,927	-200,000	-0,007	-0,113
-223,913	683,084	0,028	-0,053
-222,898	416,684	-0,035	-0,055
-221,884	-42,978	-0,135	-0,049
-220,869	92,197	-0,052	0,042
-219,855	-52,362	0,063	-0,021
-218,840	-96,056	-0,138	-0,026
-217,825	408,263	0,071	0,109
-216,811	-62,319	0,147	0,044
-215,796	-107,803	-0,050	-0,008
-214,782	-96,921	0,129	0,024
-213,767	800,000	-0,063	-0,149
-212,752	-106,250	-0,033	0,005
-211,738	335,672	0,057	-0,080
-210,723	139,933	0,100	0,095
-209,709	-123,271	-0,066	-0,007
-208,694	49,322	0,066	-0,045
-207,679	24,064	0,031	-0,019
-206,665	84,300	0,038	0,030
-205,650	-19,746	0,102	0,045
-204,636	74,029	0,040	0,030
-203,621	-200,000	0,028	-0,114
-202,606	-200,000	-0,001	-0,033
-201,592	77,141	0,027	-0,020
-200,577	-200,000	-0,010	-0,090
-199,563	-29,038	-0,073	0,030
-198,548	-177,205	0,095	-0,002
-197,533	-61,846	-0,144	0,043
-196,519	-116,696	-0,099	0,013
-195,504	-51,870	0,087	0,029
-194,490	263,086	-0,134	-0,168
-193,475	341,010	0,062	0,088
-192,460	-86,191	0,015	-0,003
-191,446	53,118	-0,026	-0,018
-190,431	183,706	0,103	0,110
-189,417	-187,769	0,042	0,000
-188,402	61,598	0,026	-0,019
-187,387	-200,000	-0,037	-0,191
-186,373	-200,000	-0,026	-0,137
-185,358	129,076	-0,015	0,014
-184,344	-200,000	-0,003	-0,076
-183,329	23,437	-0,023	0,014
-182,315	-44,812	0,040	0,014
-181,300	584,763	-0,046	-0,082
-180,285	48,352	-0,093	-0,062
-179,271	-13,265	0,109	-0,051
-178,256	800,000	0,039	0,093
-177,242	-93,682	0,126	0,025
-176,227	-200,000	-0,001	0,147
-175,212	-41,217	0,069	0,025
-174,198	267,348	-0,034	-0,043
-173,183	8,399	-0,098	-0,053
-172,169	-200,000	0,014	-0,120
-171,154	-178,088	0,101	0,002
-170,139	34,895	-0,026	0,016
-169,125	14,487	0,028	-0,016
-168,110	-63,563	0,044	-0,013
-167,096	-122,224	-0,019	-0,002
-166,081	480,260	-0,011	-0,018
-165,066	366,722	-0,027	0,039
-164,052	-200,000	-0,043	0,168
-163,037	800,000	0,055	0,161
-162,023	100,945	0,026	0,022
-161,008	94,260	-0,096	0,078
-159,993	800,000	0,019	-0,044
-158,979	13,973	-0,037	0,021
-157,964	800,000	0,049	-0,144
-156,950	-200,000	-0,015	-0,169
-155,935	125,901	0,062	0,057
-154,920	-200,000	-0,014	0,137
-153,906	137,451	-0,068	0,064
-152,891	26,997	0,054	0,033
-151,877	302,690	0,044	0,058
-150,862	136,829	-0,047	-0,044
-149,847	-119,206	-0,076	0,009
-148,833	39,809	-0,042	-0,027
-147,818	800,000	0,014	-0,042
-146,804	-200,000	0,029	0,114
-145,789	88,073	-0,038	0,030
-144,775	88,357	-0,093	-0,074
-143,760	101,428	0,105	-0,088
-142,745	-26,755	0,089	-0,037
-141,731	-200,000	-0,007	-0,031
-140,716	423,600	-0,055	-0,085
-139,702	800,000	0,009	-0,021
-138,687	549,854	-0,049	-0,085
-137,672	13,696	0,059	-0,033
-136,658	800,000	0,005	0,013
-135,643	62,293	0,037	-0,026
-134,629	78,376	0,097	-0,074
-133,614	19,433	-0,151	0,087
-132,599	607,746	0,081	0,146
-131,585	-104,055	0,088	0,015
-130,570	-200,000	0,001	0,155
-129,556	-79,095	-0,260	0,063
-128,541	-111,106	-0,128	-0,019
-127,526	-93,053	0,132	-0,026
-126,512	-200,000	0,009	0,150
-125,497	-21,141	0,114	0,050
-124,483	540,573	0,040	-0,068
-123,468	-200,000	0,022	0,087
-122,453	108,647	0,078	-0,067
-121,439	379,089	-0,040	-0,058
-120,424	-86,123	0,015	0,003
-119,410	-200,000	-0,031	-0,201
-118,395	-44,840	0,188	0,067
