DTS Sentinel unit serial number:	SN410029Multiplexer serial number:	ORYXHardware model number:	OX2-SRSoftware version number:	ORYX F/W v4,00 Oryx Data Collector v3.7.2.0data status	okinstallation	B5 Nyhavnadifferential loss correction	single-endedforward channel	channel 2reverse channel	N/Adate	2023/12/12time	11:17:14forward acquisition time	300,00reverse acquisition time	0,00gamma	499,1914k internal	0,3158k external	0,3158temperature offset calibration	1,0000default loss term (dB/km)	0,3820temperature slope calibration	1,0000multiplexer offset coefficient	1,0000multiplexer slope coefficient	1,0000fibre end	0,00T internal ref (°C)	15,05T ext. ref 1 (°C)	-1,15T ext. ref 2 (°C)	-1,37length (m)	temperature (°C)	Stokes	anti-Stokes-744,400	25,362	0,065	-0,040
-743,385	-147,098	-0,269	0,017
-742,371	-200,000	-0,013	0,166
-741,356	-103,186	-0,265	0,046
-740,342	16,926	0,065	0,038
-739,327	-112,797	-0,365	-0,053
-738,312	-16,923	0,092	-0,043
-737,298	-149,451	-0,444	-0,026
-736,283	-147,269	0,256	0,016
-735,269	-151,488	-0,385	0,021
-734,254	56,211	0,093	0,066
-733,239	-89,314	-0,523	-0,113
-732,225	-153,170	0,112	-0,006
-731,210	93,589	0,051	0,042
-730,196	-106,066	0,083	-0,014
-729,181	-44,269	-0,058	0,021
-728,167	544,600	-0,015	-0,027
-727,152	170,792	-0,054	0,057
-726,137	-200,000	0,033	-0,158
-725,123	-131,546	-0,069	-0,007
-724,108	-200,000	0,000	-0,083
-723,094	39,218	-0,096	0,063
-722,079	113,675	-0,175	-0,157
-721,064	800,000	-0,016	-0,036
-720,050	800,000	-0,011	0,026
-719,035	500,988	0,060	0,103
-718,021	-129,801	0,034	-0,003
-717,006	800,000	-0,043	-0,109
-715,991	-200,000	-0,018	-0,075
-714,977	-39,409	-0,037	-0,014
-713,962	373,311	-0,047	-0,070
-712,948	-44,796	0,139	0,051
-711,933	-149,306	0,044	0,003
-710,918	64,450	0,131	-0,097
-709,904	-52,394	-0,127	0,043
-708,889	800,000	-0,006	0,014
-707,875	800,000	0,050	-0,131
-706,860	-200,000	0,036	-0,145
-705,845	-90,893	0,047	-0,010
-704,831	-200,000	-0,034	0,127
-703,816	-113,023	0,094	0,014
-702,802	-200,000	-0,224	0,001
-701,787	269,133	-0,079	0,102
-700,772	479,179	-0,030	-0,050
-699,758	472,604	0,045	-0,074
-698,743	-159,211	0,057	0,002
-697,729	63,495	0,022	-0,016
-696,714	-36,085	-0,107	-0,042
-695,699	-68,233	-0,024	0,007
-694,685	-126,062	-0,176	-0,019
-693,670	380,364	-0,007	-0,011
-692,656	382,546	0,056	0,084
-691,641	800,000	0,073	0,168
-690,627	-84,639	-0,022	0,005
-689,612	-200,000	0,016	-0,093
-688,597	625,585	-0,022	0,041
-687,583	133,256	-0,065	-0,062
-686,568	190,116	-0,096	-0,106
-685,554	-85,719	-0,068	-0,016
-684,539	491,671	0,054	0,092
-683,524	-200,000	-0,036	-0,144
-682,510	-84,236	-0,131	-0,030
-681,495	800,000	0,032	-0,093
-680,481	18,430	-0,101	-0,059
-679,466	800,000	-0,038	-0,092
-678,451	-200,000	-0,034	-0,203
-677,437	-131,525	0,092	-0,009
-676,422	279,739	-0,078	0,103
-675,408	-200,000	-0,029	-0,107
-674,393	-200,000	-0,003	-0,056
-673,378	800,000	0,017	-0,045
-672,364	-64,859	-0,190	0,056
-671,349	-200,000	0,006	0,096
-670,335	160,771	0,076	0,078
-669,320	-13,709	-0,102	0,048
-668,305	111,856	0,034	-0,030
-667,291	38,632	-0,096	-0,063
-666,276	-200,000	0,023	-0,102
-665,262	705,480	-0,056	-0,109
-664,247	-52,401	-0,051	-0,017
-663,232	-155,147	-0,038	0,002
-662,218	311,388	0,074	-0,102
-661,203	-200,000	0,003	0,017
-660,189	55,408	-0,100	0,071
-659,174	-200,000	-0,012	-0,097
-658,159	106,689	-0,084	-0,073
-657,145	148,556	0,007	0,007
-656,130	-17,600	0,034	0,016
-655,116	-145,553	-0,146	-0,009
-654,101	-200,000	-0,005	-0,046
-653,086	-190,342	-0,146	-0,001
-652,072	183,691	-0,098	0,106
-651,057	-200,000	-0,016	-0,112
-650,043	-200,000	-0,038	-0,129
-649,028	-200,000	0,024	-0,113
-648,014	800,000	-0,031	-0,083
-646,999	37,366	-0,091	0,059
-645,984	-200,000	-0,017	0,095
-644,970	-200,000	0,010	-0,067
-643,955	-95,670	-0,125	0,024
-642,941	445,370	-0,056	-0,091
-641,926	723,240	-0,020	0,039
-640,911	-5,875	0,068	0,034
-639,897	-77,099	0,012	0,003
-638,882	-200,000	-0,005	0,037
-637,868	-52,021	-0,045	0,015
-636,853	800,000	0,037	0,118
-635,838	-200,000	0,001	-0,060
-634,824	134,850	-0,034	0,033
-633,809	-90,569	0,081	0,017
-632,795	116,672	0,107	0,096
-631,780	65,051	0,077	-0,057
-630,765	-194,367	-0,029	-0,000
-629,751	320,463	0,065	-0,091
-628,736	-200,000	0,030	-0,098
-627,722	203,632	0,068	-0,078
-626,707	-1,686	0,047	-0,024
-625,692	13,785	0,030	0,017
-624,678	-4,224	0,063	-0,032
-623,663	-200,000	0,011	0,072
-622,649	800,000	0,020	-0,045
-621,634	-102,078	-0,090	0,016
-620,619	-31,177	-0,024	0,010
-619,605	271,905	0,060	-0,077
-618,590	-200,000	0,007	-0,117
-617,576	97,900	-0,033	0,028
-616,561	-200,000	-0,003	-0,043
-615,546	367,612	0,033	-0,049
-614,532	800,000	-0,041	0,106
-613,517	-66,185	-0,108	0,031
-612,503	-200,000	0,005	0,064
-611,488	-200,000	-0,019	0,069
-610,474	-134,237	0,077	-0,007
-609,459	-200,000	-0,013	-0,047
-608,444	535,647	-0,029	-0,050
-607,430	-79,307	-0,094	0,023
-606,415	-37,217	-0,049	0,019
-605,401	-195,999	0,074	-0,000
-604,386	192,912	0,109	-0,121
-603,371	42,688	0,038	0,025
-602,357	-200,000	0,021	0,082
-601,342	800,000	-0,024	-0,067
-600,328	262,357	0,013	-0,017
-599,313	800,000	-0,023	-0,075
-598,298	694,427	0,031	0,059
-597,284	72,465	0,024	0,018
-596,269	5,099	0,043	-0,023
-595,255	-200,000	0,007	0,063
-594,240	231,679	-0,042	0,051
-593,225	412,212	0,104	0,163
-592,211	-200,000	-0,019	-0,108
-591,196	-200,000	-0,000	-0,096
-590,182	-155,033	0,140	0,007
-589,167	-31,389	0,054	0,022
-588,152	-68,634	0,057	-0,016
-587,138	-26,536	-0,084	0,036
-586,123	-200,000	0,016	0,109
-585,109	-200,000	-0,007	-0,043
-584,094	125,056	-0,128	0,118
-583,079	498,969	-0,058	0,099
-582,065	76,673	0,033	-0,026
-581,050	113,157	-0,022	0,020
-580,036	800,000	0,015	-0,037
-579,021	29,544	0,075	0,047
-578,006	30,795	0,136	-0,085
-576,992	800,000	-0,028	0,076
-575,977	-200,000	0,023	0,108
-574,963	-200,000	-0,066	0,220
-573,948	-54,374	0,142	0,047
-572,934	-95,451	-0,111	0,022
-571,919	286,854	-0,095	-0,126
-570,904	713,011	-0,043	0,084
-569,890	180,019	0,049	0,052
-568,875	800,000	0,007	-0,019
-567,861	276,774	0,045	0,058
-566,846	800,000	-0,044	-0,138
-565,831	-200,000	-0,006	0,113
-564,817	-154,197	0,052	0,003
-563,802	515,612	0,033	0,057
-562,788	-200,000	-0,008	-0,032
-561,773	-200,000	-0,008	-0,028
-560,758	-200,000	0,010	0,051
-559,744	-150,683	0,133	-0,007
-558,729	-116,320	-0,027	0,004
-557,715	43,566	-0,050	0,033
-556,700	-200,000	0,020	-0,130
-555,685	800,000	0,042	-0,124
-554,671	282,974	0,059	0,078
-553,656	228,066	-0,039	-0,046
-552,642	-94,291	-0,004	-0,001
-551,627	-200,000	0,008	0,076
-550,612	800,000	0,029	-0,090
-549,598	156,003	0,031	-0,031
-548,583	202,038	-0,059	0,067
-547,569	15,187	-0,080	-0,046
-546,554	112,030	0,059	-0,052
-545,539	800,000	-0,014	-0,033
-544,525	-21,234	0,094	-0,042
-543,510	483,576	0,094	0,157
-542,496	-96,092	-0,188	-0,036
-541,481	71,183	0,078	0,059
-540,466	201,738	-0,014	0,016
-539,452	-47,977	0,156	-0,055
-538,437	-90,886	-0,068	0,014
-537,423	-100,905	-0,017	0,003
-536,408	-200,000	0,003	-0,119
-535,393	727,978	0,064	-0,125
-534,379	-37,882	0,027	-0,011
-533,364	-200,000	0,002	0,036
-532,350	673,253	0,094	0,178
-531,335	308,275	-0,068	0,094
-530,321	243,019	0,031	0,038
-529,306	-114,769	0,144	-0,020
-528,291	800,000	0,019	-0,060
-527,277	-105,815	-0,064	0,010
-526,262	-39,489	-0,029	0,011
-525,248	20,012	-0,053	-0,031
-524,233	-200,000	0,016	-0,097
-523,218	257,822	-0,051	-0,065
-522,204	-200,000	-0,000	-0,065
-521,189	-41,533	-0,132	-0,049
-520,175	-98,756	0,048	0,009
-519,160	204,070	-0,086	0,097
-518,145	71,719	-0,109	-0,083
-517,131	10,334	0,041	0,023
-516,116	-200,000	-0,005	0,154
-515,102	-200,000	0,016	-0,064
-514,087	-200,000	0,020	0,094
-513,072	-117,188	-0,136	-0,018
-512,058	-158,831	0,112	-0,005
-511,043	-36,168	0,067	0,026
-510,029	413,660	0,027	0,042
-509,014	-56,054	0,046	0,015
-507,999	-28,712	0,048	0,020
-506,985	-5,349	-0,106	-0,053
-505,970	-104,645	-0,079	-0,013
-504,956	-113,805	0,046	0,007
-503,941	-200,000	0,018	0,091
-502,926	333,374	0,063	-0,089
-501,912	-88,067	0,137	-0,030
-500,897	653,865	0,051	0,097
-499,883	108,417	0,067	-0,059
-498,868	680,382	-0,060	0,114
-497,853	183,922	-0,093	-0,100
-496,839	-200,000	-0,003	0,087
-495,824	104,323	0,034	0,029
-494,810	-39,251	0,107	0,041
-493,795	-56,033	-0,072	0,023
-492,781	-200,000	-0,013	-0,063
-491,766	-157,203	-0,103	0,004
-490,751	-200,000	-0,060	-0,221
-489,737	376,134	0,032	-0,047
-488,722	96,439	0,050	0,042
-487,708	223,983	0,106	-0,126
-486,693	-200,000	0,000	-0,013
-485,678	1,959	0,084	0,044
-484,664	-38,791	-0,122	-0,047
-483,649	800,000	-0,006	-0,017
-482,635	-200,000	0,008	-0,066
-481,620	-200,000	0,008	0,107
-480,605	-87,218	0,059	0,013
-479,591	800,000	0,050	0,123
-478,576	-56,563	-0,074	-0,024
-477,562	-200,000	0,001	0,029
-476,547	-86,910	-0,149	-0,033
-475,532	-200,000	-0,055	-0,199
-474,518	-147,421	0,136	0,008
-473,503	557,709	-0,097	0,171
-472,489	146,119	-0,123	0,120
-471,474	26,242	-0,100	0,061
-470,459	747,068	0,056	0,110
-469,445	426,905	-0,019	-0,030
-468,430	800,000	-0,044	-0,125
-467,416	6,880	-0,054	-0,029
-466,401	-200,000	0,006	-0,052
-465,386	127,259	0,031	-0,028
-464,372	-23,624	0,084	0,036
-463,357	-200,000	-0,053	0,238
-462,343	-118,216	-0,058	-0,007
-461,328	-10,185	-0,060	-0,029
-460,313	-27,955	0,102	0,043
-459,299	-156,178	0,001	0,000
-458,284	158,649	0,055	0,055
-457,270	654,710	-0,015	0,028
-456,255	57,479	-0,066	0,047
-455,241	335,430	-0,031	-0,044
-454,226	140,444	-0,040	0,038
-453,211	-200,000	0,016	0,146
-452,197	800,000	0,020	0,058
-451,182	800,000	-0,023	-0,060
-450,168	-200,000	-0,010	-0,089
-449,153	800,000	0,012	-0,035
-448,138	-200,000	0,005	0,042
-447,124	-64,820	-0,074	-0,022
-446,109	333,960	0,039	0,056
-445,095	137,715	0,059	0,057
-444,080	-42,266	-0,017	0,006
-443,065	-161,454	0,136	0,005
-442,051	401,315	0,021	-0,032
-441,036	-200,000	-0,011	0,083
-440,022	641,778	0,036	0,067
-439,007	-134,651	-0,086	-0,007
-437,992	-7,624	-0,072	0,035
-436,978	355,601	-0,029	0,042
-435,963	800,000	-0,015	-0,047
-434,949	800,000	-0,027	0,060
-433,934	67,997	0,083	-0,062
-432,919	135,799	-0,006	0,006
-431,905	492,475	-0,053	0,089
-430,890	1,989	0,125	-0,065
-429,876	-200,000	0,024	-0,142
-428,861	110,798	0,039	-0,034
-427,846	-200,000	0,037	-0,173
-426,832	-51,489	-0,088	-0,030
-425,817	-5,897	0,093	0,046
-424,803	-200,000	-0,005	-0,043
-423,788	-200,000	0,004	-0,022
-422,773	-106,543	-0,053	-0,009
-421,759	-200,000	0,013	0,108
-420,744	115,977	-0,093	0,083
-419,730	-53,914	0,026	0,008
-418,715	-143,680	-0,086	-0,006
-417,701	-88,774	-0,156	0,034
-416,686	-200,000	-0,016	0,136
-415,671	4,834	0,194	0,103
-414,657	170,011	-0,114	0,119
-413,642	-200,000	0,015	0,103
-412,628	21,408	-0,094	-0,056
-411,613	278,769	0,134	-0,175
-410,598	-200,000	-0,003	-0,052
-409,584	-200,000	0,005	-0,104
-408,569	-200,000	0,046	0,205
-407,555	33,245	0,009	-0,006
-406,540	-200,000	0,011	0,047
-405,525	66,189	-0,099	-0,073
-404,511	800,000	0,032	-0,096
-403,496	-68,119	-0,055	-0,016
-402,482	52,349	0,026	0,018
-401,467	800,000	0,032	0,080
-400,452	166,397	0,076	0,078
-399,438	-143,849	0,058	-0,004
-398,423	800,000	0,042	-0,110
-397,409	51,682	-0,088	-0,061
-396,394	-140,655	0,074	0,005
-395,379	207,884	-0,051	0,058
-394,365	164,387	0,080	0,082
-393,350	245,135	-0,040	-0,049
-392,336	-32,778	-0,070	0,028
-391,321	-0,029	-0,066	0,034
-390,306	-200,000	0,009	-0,100
-389,292	-200,000	0,014	-0,098
-388,277	-56,600	0,062	0,020
-387,263	184,470	-0,085	0,091
-386,248	431,424	-0,037	0,058
-385,233	-200,000	0,006	-0,065
-384,219	-126,829	0,031	-0,003
-383,204	-183,090	-0,151	-0,002
-382,190	-200,000	-0,009	-0,093
-381,175	124,938	0,027	-0,025
-380,160	-75,791	0,092	0,024
-379,146	755,528	0,057	-0,113
-378,131	-100,104	0,118	0,021
-377,117	483,741	0,055	-0,092
-376,102	-112,243	0,051	0,007
-375,088	291,358	-0,031	0,042
-374,073	145,832	-0,056	-0,054
-373,058	-200,000	0,051	0,173
-372,044	164,411	0,061	0,062
-371,029	714,018	-0,044	0,086
-370,015	-200,000	-0,022	-0,084
-369,000	501,324	0,047	-0,080
-367,985	-60,360	-0,085	0,026
-366,971	152,197	-0,060	-0,060
-365,956	-200,000	0,041	0,177
-364,942	-77,333	0,201	-0,050
-363,927	-126,487	0,028	0,003
-362,912	-200,000	-0,005	0,045
-361,898	800,000	0,064	-0,129
-360,883	68,075	0,087	-0,065
-359,869	-200,000	0,009	-0,134
-358,854	211,445	-0,028	0,032
-357,839	270,526	0,096	0,123
-356,825	-80,078	0,076	-0,018
-355,810	-200,000	0,017	-0,063
-354,796	124,635	-0,101	-0,092
-353,781	800,000	0,059	-0,156
-352,766	-50,241	-0,134	0,046
-351,752	-121,975	-0,104	-0,012
-350,737	175,769	0,039	0,041
-349,723	16,714	0,061	0,035
-348,708	205,756	-0,053	-0,060
-347,693	103,547	-0,043	0,037
-346,679	301,831	-0,056	-0,075
-345,664	156,971	-0,055	0,055
-344,650	-200,000	-0,011	-0,109
-343,635	639,779	0,026	-0,049
-342,620	198,117	0,113	-0,125
-341,606	344,874	0,089	-0,127
-340,591	357,555	-0,018	-0,027
-339,577	-184,961	-0,093	0,001
-338,562	800,000	-0,047	-0,142
-337,548	-200,000	0,043	-0,207
-336,533	-200,000	-0,024	-0,081
-335,518	800,000	-0,061	0,155
-334,504	-200,000	0,002	0,102
-333,489	49,817	0,130	-0,089
-332,475	149,473	-0,131	-0,129
-331,460	-17,828	-0,079	-0,036
-330,445	-178,232	-0,022	0,000
-329,431	497,773	-0,008	0,014
-328,416	-200,000	0,012	0,077
-327,402	161,414	-0,035	-0,035
-326,387	-200,000	0,001	0,006
-325,372	-200,000	-0,005	0,039
-324,358	274,136	-0,033	0,042
-323,343	-200,000	-0,002	-0,007
-322,329	-200,000	0,002	-0,057
-321,314	-14,818	-0,061	0,028
-320,299	-128,221	0,033	-0,003
-319,285	-24,628	-0,055	0,024
-318,270	-200,000	-0,054	-0,175
-317,256	287,963	-0,060	-0,079
-316,241	-65,298	-0,062	-0,018
-315,226	800,000	-0,012	-0,032
-314,212	126,322	0,116	0,106
-313,197	-200,000	0,031	-0,130
-312,183	-94,395	-0,027	0,005
-311,168	213,358	-0,081	-0,093
-310,153	-200,000	0,013	-0,055
-309,139	-142,297	-0,108	0,008
-308,124	42,711	-0,025	-0,017
-307,110	340,972	0,015	0,021
-306,095	143,471	0,045	0,044
-305,080	-200,000	0,015	0,161
-304,066	-200,000	-0,026	0,120
-303,051	-200,000	0,016	-0,118
-302,037	76,078	-0,067	-0,051
-301,022	-200,000	-0,020	-0,076
-300,008	56,243	0,144	0,101
-298,993	800,000	0,025	-0,076
-297,978	257,523	-0,174	0,218
-296,964	-123,861	0,077	0,009
-295,949	33,880	-0,051	-0,032
-294,935	202,491	-0,039	-0,043
-293,920	-161,644	-0,034	-0,001
-292,905	800,000	0,016	-0,035
-291,891	608,857	0,051	0,093
-290,876	173,093	0,019	0,020
-289,862	800,000	-0,043	0,094
-288,847	800,000	0,039	-0,111
-287,832	-25,314	-0,019	0,008
-286,818	52,638	-0,055	0,038
-285,803	215,953	0,060	0,069
-284,789	79,395	0,085	-0,066
-283,774	-200,000	-0,051	-0,210
-282,759	14,282	-0,022	0,012
-281,745	-52,693	-0,202	0,067
-280,730	-200,000	-0,022	-0,113
-279,716	512,206	0,026	0,044
-278,701	-69,698	0,027	0,007
-277,686	-74,312	0,137	0,036
-276,672	-200,000	0,009	-0,056
-275,657	800,000	-0,016	-0,039
-274,643	0,602	-0,079	-0,041
-273,628	800,000	-0,042	-0,092
-272,613	-200,000	-0,023	-0,166
-271,599	-200,000	0,029	0,129
-270,584	800,000	0,037	0,107
-269,570	599,179	0,038	-0,069
-268,555	93,576	0,092	0,075
-267,540	-200,000	0,027	-0,127
-266,526	184,197	-0,054	-0,057
-265,511	296,345	-0,027	-0,036
-264,497	61,155	-0,104	0,074
-263,482	-47,699	0,013	0,004
-262,467	-129,839	0,091	-0,009
-261,453	-54,628	-0,057	0,019
-260,438	-200,000	-0,053	-0,201
-259,424	368,422	0,014	-0,020
-258,409	800,000	0,042	0,127
-257,395	25,097	0,015	-0,009
-256,380	704,879	-0,047	0,091
-255,365	-200,000	-0,028	0,151
-254,351	-74,980	0,033	0,008
-253,336	-116,769	-0,237	0,031
-252,322	207,178	0,068	-0,077
-251,307	51,740	-0,068	-0,047
-250,292	150,781	0,053	-0,052
-249,278	312,185	0,027	0,037
-248,263	800,000	-0,018	-0,044
-247,249	-200,000	-0,005	0,130
-246,234	260,173	0,081	0,102
-245,219	-200,000	0,031	-0,127
-244,205	800,000	0,027	-0,065
-243,190	800,000	-0,043	-0,117
-242,176	-55,367	0,069	0,022
-241,161	800,000	0,020	0,059
-240,146	-103,573	-0,039	-0,007
-239,132	-28,046	-0,041	0,017
-238,117	99,926	-0,098	-0,082
-237,103	-109,657	-0,123	0,019
-236,088	85,306	0,058	-0,046
-235,073	125,064	-0,100	0,091
-234,059	657,542	0,077	0,144
-233,044	800,000	0,032	-0,069
-232,030	138,299	0,073	-0,069
-231,015	-32,921	0,155	0,062
-230,000	-200,000	-0,004	0,016
-228,986	-58,363	-0,039	0,012
-227,971	113,325	0,151	-0,132
-226,957	-200,000	0,002	0,105
-225,942	-58,736	-0,045	0,014
-224,927	94,586	-0,032	-0,026
-223,913	-55,688	-0,039	-0,013
-222,898	228,682	-0,047	-0,056
-221,884	733,042	0,077	0,149
-220,869	385,670	0,070	0,105
-219,855	-200,000	0,005	0,100
-218,840	60,455	0,030	-0,022
-217,825	-57,923	-0,054	0,017
-216,811	-200,000	0,016	-0,084
-215,796	93,829	0,066	-0,054
-214,782	-200,000	0,004	-0,099
-213,767	800,000	0,037	0,078
-212,752	105,265	0,132	0,112
-211,738	10,017	-0,012	-0,007
-210,723	686,098	-0,008	0,015
-209,709	-27,150	0,140	-0,059
-208,694	70,644	-0,156	-0,117
-207,679	592,735	-0,014	0,024
-206,665	617,216	0,028	0,051
-205,650	593,541	0,045	0,081
-204,636	-200,000	0,056	0,233
-203,621	-200,000	-0,024	0,192
-202,606	800,000	0,036	0,088
-201,592	436,252	-0,046	-0,073
-200,577	800,000	0,008	-0,025
-199,563	-34,736	-0,131	-0,051
-198,548	19,669	-0,123	-0,071
-197,533	199,897	0,041	-0,045
-196,519	-44,686	0,093	-0,033
-195,504	800,000	-0,008	-0,025
-194,490	-200,000	-0,016	-0,101
-193,475	-200,000	0,014	-0,080
-192,460	-7,107	-0,094	0,046
-191,446	62,477	0,055	0,039
-190,431	-71,627	0,102	-0,027
-189,417	-54,111	-0,056	-0,018
-188,402	113,643	0,095	-0,084
-187,387	42,864	-0,188	-0,124
-186,373	431,580	-0,111	-0,174
-185,358	-107,027	-0,054	-0,009
-184,344	333,600	-0,034	-0,048
-183,329	800,000	-0,048	0,131
-182,315	-88,665	-0,087	0,018
-181,300	800,000	-0,085	-0,185
-180,285	-133,662	-0,107	0,010
-179,271	-54,597	0,131	0,042
-178,256	-200,000	-0,024	0,142
-177,242	33,018	-0,106	0,066
-176,227	-59,477	0,140	-0,043
-175,212	-97,103	-0,035	-0,007
-174,198	-145,673	-0,072	0,005
-173,183	800,000	0,051	-0,108
-172,169	800,000	0,033	0,067
-171,154	538,875	-0,040	-0,069
-170,139	-200,000	0,059	0,000
-169,125	188,806	-0,001	-0,001
-168,110	230,285	0,038	0,045
-167,096	-200,000	-0,014	-0,045
-166,081	322,149	0,036	-0,049
-165,066	181,344	-0,051	-0,054
-164,052	55,852	0,107	0,075
-163,037	154,838	0,096	0,095
-162,023	-11,297	-0,040	0,019
-161,008	-200,000	0,016	0,227
-159,993	37,159	-0,097	0,062
-158,979	739,554	-0,024	0,046
-157,964	-106,445	-0,089	-0,014
-156,950	120,245	0,032	0,028
-155,935	-200,000	0,023	0,137
-154,920	-200,000	-0,009	0,094
-153,906	-200,000	0,004	0,059
-152,891	58,179	0,016	0,011
-151,877	-82,845	0,128	-0,029
-150,862	-200,000	-0,009	-0,077
-149,847	-104,662	0,025	0,004
-148,833	-18,838	-0,017	0,007
-147,818	-200,000	0,009	0,104
-146,804	-90,851	-0,098	-0,020
-145,789	-200,000	-0,025	0,157
-144,775	43,301	-0,113	-0,074
-143,760	766,886	-0,042	-0,083
-142,745	461,634	-0,057	0,092
-141,731	71,653	0,061	0,046
-140,716	-68,950	0,078	-0,021
-139,702	-69,421	-0,109	-0,030
-138,687	239,585	-0,066	-0,079
-137,672	138,486	0,024	-0,023
-136,658	323,909	-0,036	-0,050
-135,643	-200,000	0,037	0,000
-134,629	-189,274	-0,125	0,001
-133,614	-200,000	0,004	-0,022
-132,599	-43,128	0,043	0,016
-131,585	-200,000	-0,003	-0,012
-130,570	243,627	-0,120	0,145
-129,556	105,186	-0,071	-0,060
-128,541	113,510	-0,077	0,067
-127,526	222,397	0,092	0,107
-126,512	-65,791	0,077	0,022
-125,497	-112,600	-0,090	-0,013
-124,483	-158,419	-0,083	0,003
-123,468	-103,285	-0,124	-0,021
-122,453	576,585	-0,046	-0,081
-121,439	-200,000	-0,010	0,073
-120,424	584,976	-0,088	-0,157
