DTS Sentinel unit serial number:	SN410029Multiplexer serial number:	ORYXHardware model number:	OX2-SRSoftware version number:	ORYX F/W v4,00 Oryx Data Collector v3.7.2.0data status	okinstallation	B5 Nyhavnadifferential loss correction	single-endedforward channel	channel 2reverse channel	N/Adate	2023/12/13time	22:02:13forward acquisition time	300,00reverse acquisition time	0,00gamma	499,1914k internal	0,3155k external	0,3155temperature offset calibration	1,0000default loss term (dB/km)	0,3820temperature slope calibration	1,0000multiplexer offset coefficient	1,0000multiplexer slope coefficient	1,0000fibre end	0,00T internal ref (°C)	9,62T ext. ref 1 (°C)	-7,08T ext. ref 2 (°C)	-7,12length (m)	temperature (°C)	Stokes	anti-Stokes-744,400	4,511	0,052	0,028
-743,385	-146,316	-0,400	0,025
-742,371	-36,999	0,235	0,093
-741,356	-133,061	-0,396	-0,037
-740,342	-33,313	0,261	0,106
-739,327	-79,714	-0,355	-0,088
-738,312	288,885	0,061	0,082
-737,298	-77,466	-0,327	-0,083
-736,283	332,743	-0,026	-0,037
-735,269	-133,472	-0,277	0,025
-734,254	121,852	0,072	0,067
-733,239	-6,040	-0,478	-0,240
-732,225	-200,000	0,047	0,191
-731,210	-200,000	0,005	0,041
-730,196	14,174	-0,096	0,055
-729,181	-200,000	-0,003	0,049
-728,167	334,129	-0,066	0,095
-727,152	-134,944	-0,079	-0,007
-726,137	83,442	-0,094	-0,076
-725,123	-200,000	0,001	0,103
-724,108	-88,030	-0,045	-0,010
-723,094	-200,000	-0,016	-0,075
-722,079	-200,000	-0,003	-0,106
-721,064	-173,332	-0,062	0,001
-720,050	3,516	-0,108	-0,058
-719,035	-73,177	-0,123	-0,033
-718,021	23,441	-0,086	-0,052
-717,006	-200,000	-0,006	-0,137
-715,991	3,282	0,060	0,032
-714,977	800,000	0,053	0,167
-713,962	435,377	-0,043	0,069
-712,948	-200,000	0,012	0,112
-711,933	-107,198	-0,079	0,013
-710,918	800,000	0,045	0,121
-709,904	-59,497	0,032	0,010
-708,889	-200,000	-0,000	-0,064
-707,875	-83,158	-0,045	0,011
-706,860	30,727	0,071	0,044
-705,845	-200,000	-0,007	0,103
-704,831	-128,366	0,058	-0,006
-703,816	596,785	-0,024	0,043
-702,802	-200,000	-0,033	-0,108
-701,787	36,254	-0,140	-0,091
-700,772	-200,000	-0,007	-0,061
-699,758	-28,928	-0,149	0,063
-698,743	132,906	0,019	-0,018
-697,729	-200,000	0,011	-0,055
-696,714	267,141	0,080	-0,103
-695,699	-200,000	-0,027	-0,090
-694,685	800,000	-0,036	-0,102
-693,670	-200,000	0,021	-0,098
-692,656	-136,212	0,106	0,009
-691,641	-8,572	-0,120	0,059
-690,627	-122,456	-0,093	-0,011
-689,612	-0,563	-0,088	0,046
-688,597	-200,000	-0,018	-0,120
-687,583	-200,000	0,005	-0,074
-686,568	-200,000	0,011	0,044
-685,554	-200,000	0,007	0,046
-684,539	-200,000	0,006	-0,124
-683,524	60,222	0,073	-0,053
-682,510	-188,977	-0,018	-0,000
-681,495	800,000	0,036	-0,085
-680,481	-59,874	-0,156	0,049
-679,466	-200,000	-0,017	0,080
-678,451	-27,364	-0,063	0,027
-677,437	332,211	0,037	-0,053
-676,422	279,138	0,010	0,013
-675,408	-200,000	-0,012	-0,054
-674,393	-200,000	0,009	0,090
-673,378	62,017	-0,057	0,042
-672,364	800,000	-0,055	-0,141
-671,349	-2,534	-0,049	-0,025
-670,335	800,000	-0,010	0,026
-669,320	-60,142	0,130	0,040
-668,305	800,000	0,062	0,137
-667,291	-108,642	-0,229	0,036
-666,276	-87,268	-0,059	0,013
-665,262	-200,000	-0,021	-0,071
-664,247	233,167	-0,051	-0,062
-663,232	149,728	-0,123	-0,123
-662,218	-166,001	0,047	0,001
-661,203	551,861	-0,066	0,117
-660,189	30,716	-0,068	0,043
-659,174	800,000	-0,072	0,164
-658,159	231,678	-0,046	-0,055
-657,145	800,000	0,045	-0,101
-656,130	336,596	0,099	0,142
-655,116	-47,428	-0,124	0,044
-654,101	-64,687	-0,135	0,040
-653,086	-64,830	0,110	0,033
-652,072	-200,000	0,019	-0,092
-651,057	299,641	-0,097	-0,132
-650,043	800,000	0,019	0,054
-649,028	635,920	-0,029	-0,054
-648,014	-200,000	-0,009	0,054
-646,999	217,829	0,058	0,068
-645,984	272,283	-0,102	0,133
-644,970	-141,683	-0,073	-0,005
-643,955	-200,000	-0,018	-0,163
-642,941	-193,772	-0,088	0,001
-641,926	800,000	-0,004	0,014
-640,911	348,368	-0,081	0,117
-639,897	-120,336	0,038	0,005
-638,882	-200,000	0,002	0,080
-637,868	800,000	0,037	-0,080
-636,853	800,000	0,024	-0,062
-635,838	584,110	-0,053	-0,096
-634,824	800,000	0,069	-0,162
-633,809	-182,548	0,094	-0,001
-632,795	18,494	0,088	0,052
-631,780	-98,918	0,030	0,006
-630,765	51,659	-0,062	-0,044
-629,751	32,661	0,020	-0,013
-628,736	-26,348	-0,056	-0,024
-627,722	-200,000	-0,032	0,111
-626,707	-128,506	0,072	0,007
-625,692	-15,942	-0,115	0,054
-624,678	-5,427	0,076	0,038
-623,663	-72,286	-0,087	-0,023
-622,649	286,519	0,068	-0,090
-621,634	-70,757	0,033	-0,009
-620,619	-91,342	-0,076	0,016
-619,605	39,672	-0,078	-0,051
-618,590	61,514	-0,124	0,090
-617,576	182,537	-0,043	0,046
-616,561	-182,804	-0,016	0,000
-615,546	-3,593	-0,061	0,031
-614,532	-40,410	-0,021	-0,008
-613,517	223,478	-0,027	-0,032
-612,503	-109,426	0,033	-0,005
-611,488	-83,580	0,061	0,014
-610,474	-200,000	-0,000	0,009
-609,459	-200,000	-0,033	0,133
-608,444	208,593	0,083	-0,096
-607,430	-58,431	-0,164	0,052
-606,415	132,893	-0,153	-0,145
-605,401	-26,642	-0,062	-0,027
-604,386	-200,000	-0,002	0,092
-603,371	-129,522	-0,095	-0,010
-602,357	-200,000	0,003	0,112
-601,342	-200,000	0,023	0,088
-600,328	87,411	-0,032	-0,026
-599,313	100,357	0,121	0,103
-598,298	-27,827	-0,096	0,041
-597,284	97,804	-0,088	-0,074
-596,269	177,339	-0,090	-0,097
-595,255	501,887	0,021	0,036
-594,240	178,179	-0,073	-0,078
-593,225	-200,000	-0,012	-0,069
-592,211	95,455	-0,081	-0,068
-591,196	95,648	-0,076	0,064
-590,182	-200,000	-0,026	-0,122
-589,167	800,000	0,042	-0,103
-588,152	284,978	0,087	0,115
-587,138	-200,000	-0,010	0,031
-586,123	-116,816	0,043	0,006
-585,109	-34,904	-0,091	0,036
-584,094	-200,000	0,016	0,102
-583,079	-200,000	0,037	0,165
-582,065	16,038	0,024	-0,014
-581,050	390,682	-0,089	0,136
-580,036	-200,000	-0,012	-0,090
-579,021	-78,847	-0,068	0,017
-578,006	-52,664	-0,120	-0,041
-576,992	-66,542	-0,106	0,031
-575,977	225,248	0,115	0,137
-574,963	-8,068	0,042	-0,021
-573,948	-200,000	0,015	0,186
-572,934	-92,971	-0,028	0,006
-571,919	313,194	-0,046	0,064
-570,904	-30,229	0,063	-0,026
-569,890	-139,952	-0,064	-0,005
-568,875	800,000	0,038	-0,093
-567,861	14,230	0,101	0,058
-566,846	6,758	0,030	-0,016
-565,831	-200,000	-0,030	0,132
-564,817	93,883	0,021	-0,017
-563,802	-200,000	-0,015	-0,082
-562,788	-200,000	-0,022	-0,113
-561,773	-200,000	0,017	-0,100
-560,758	-200,000	-0,012	-0,089
-559,744	-200,000	-0,014	-0,059
-558,729	151,621	-0,058	0,058
-557,715	-116,691	-0,209	-0,028
-556,700	-107,657	-0,050	0,008
-555,685	279,208	0,110	-0,144
-554,671	-200,000	-0,019	-0,076
-553,656	800,000	0,068	-0,193
-552,642	-14,612	0,113	0,053
-551,627	93,054	0,048	0,040
-550,612	46,068	0,125	0,085
-549,598	-137,008	-0,159	-0,013
-548,583	800,000	-0,025	0,057
-547,569	-200,000	0,001	-0,027
-546,554	190,020	0,051	0,056
-545,539	-200,000	0,030	0,184
-544,525	50,967	0,113	-0,078
-543,510	103,197	-0,125	0,108
-542,496	-99,512	0,024	-0,004
-541,481	22,645	0,074	0,044
-540,466	283,658	0,067	-0,088
-539,452	-133,647	0,090	0,008
-538,437	92,918	-0,074	0,061
-537,423	351,832	-0,048	0,069
-536,408	48,079	-0,085	0,058
-535,393	146,083	-0,097	-0,095
-534,379	170,366	-0,041	0,043
-533,364	-200,000	0,015	-0,097
-532,350	-47,916	0,144	-0,051
-531,335	57,216	-0,031	-0,022
-530,321	80,670	-0,084	0,067
-529,306	-200,000	0,000	-0,179
-528,291	-200,000	-0,039	-0,151
-527,277	-24,099	-0,057	-0,025
-526,262	250,751	0,055	-0,069
-525,248	331,540	-0,045	-0,063
-524,233	58,411	0,156	0,112
-523,218	800,000	0,037	0,095
-522,204	742,009	-0,026	-0,051
-521,189	-67,684	-0,039	-0,011
-520,175	800,000	0,013	-0,033
-519,160	-200,000	-0,011	0,059
-518,145	31,670	0,033	0,020
-517,131	-20,549	-0,043	0,019
-516,116	-200,000	0,019	0,138
-515,102	-200,000	-0,010	0,172
-514,087	-200,000	0,012	-0,067
-513,072	-22,346	0,044	0,019
-512,058	58,103	-0,069	-0,049
-511,043	314,926	0,097	0,134
-510,029	-4,800	0,113	0,057
-509,014	-200,000	0,020	0,100
-507,999	800,000	-0,018	0,057
-506,985	-200,000	0,005	0,026
-505,970	-200,000	0,000	0,059
-504,956	-157,216	0,017	0,001
-503,941	-49,474	-0,042	-0,014
-502,926	-200,000	-0,018	0,083
-501,912	120,383	0,080	0,073
-500,897	253,339	-0,120	-0,149
-499,883	89,549	-0,041	-0,034
-498,868	-44,002	-0,094	-0,034
-497,853	-125,621	-0,054	0,006
-496,839	387,209	0,044	-0,066
-495,824	-130,595	-0,043	0,004
-494,810	215,435	0,089	0,104
-493,795	147,565	0,017	-0,017
-492,781	1,949	0,039	0,021
-491,766	34,342	-0,052	-0,033
-490,751	-100,289	-0,082	-0,015
-489,737	-200,000	-0,022	-0,150
-488,722	800,000	0,038	-0,079
-487,708	-128,549	0,097	0,010
-486,693	260,509	0,063	-0,080
-485,678	768,814	-0,041	0,082
-484,664	-12,097	0,054	0,026
-483,649	131,657	-0,102	-0,096
-482,635	780,509	-0,034	-0,067
-481,620	-153,743	0,087	0,004
-480,605	61,416	-0,090	0,066
-479,591	-31,980	-0,159	0,065
-478,576	201,354	0,149	0,168
-477,562	103,559	-0,152	0,131
-476,547	141,090	0,081	-0,078
-475,532	-89,166	0,071	-0,015
-474,518	-33,326	-0,037	-0,015
-473,503	0,954	0,080	-0,042
-472,489	568,520	-0,060	0,107
-471,474	-200,000	0,007	-0,132
-470,459	-67,162	-0,030	-0,009
-469,445	30,266	-0,085	0,053
-468,430	-200,000	0,004	0,017
-467,416	-69,892	-0,053	0,015
-466,401	235,080	0,076	-0,092
-465,386	800,000	0,094	0,244
-464,372	191,779	0,161	0,178
-463,357	72,163	-0,137	-0,104
-462,343	9,291	0,008	-0,005
-461,328	800,000	0,041	0,118
-460,313	800,000	-0,083	0,194
-459,299	181,982	0,112	-0,120
-458,284	472,212	0,068	-0,113
-457,270	-200,000	0,023	0,107
-456,255	204,592	-0,081	-0,092
-455,241	781,752	0,042	-0,085
-454,226	43,171	-0,113	0,075
-453,211	421,626	0,062	-0,098
-452,197	-109,361	0,215	0,033
-451,182	55,486	0,059	0,041
-450,168	800,000	-0,011	0,030
-449,153	-67,406	-0,065	0,019
-448,138	-200,000	-0,032	-0,108
-447,124	-125,567	0,154	0,017
-446,109	-200,000	0,015	0,087
-445,095	251,236	0,078	0,097
-444,080	266,659	-0,072	0,092
-443,065	492,568	-0,044	0,074
-442,051	800,000	-0,032	0,071
-441,036	-74,059	-0,100	0,026
-440,022	800,000	-0,021	-0,049
-439,007	215,830	0,125	-0,145
-437,992	104,708	0,078	0,067
-436,978	99,401	0,033	-0,027
-435,963	238,776	0,012	0,015
-434,949	-16,241	-0,103	0,048
-433,934	647,599	-0,034	0,064
-432,919	-200,000	-0,019	-0,112
-431,905	-200,000	-0,007	-0,094
-430,890	-200,000	-0,015	0,217
-429,876	171,960	-0,025	-0,026
-428,861	800,000	-0,020	0,046
-427,846	221,436	-0,072	0,084
-426,832	271,755	0,070	0,091
-425,817	426,318	0,043	-0,067
-424,803	-200,000	-0,011	0,054
-423,788	276,933	0,081	0,105
-422,773	48,672	-0,086	-0,059
-421,759	145,040	0,089	0,086
-420,744	800,000	-0,024	-0,056
-419,730	87,748	0,024	0,020
-418,715	-200,000	0,001	0,082
-417,701	-105,564	0,080	0,013
-416,686	391,691	-0,081	-0,123
-415,671	-71,152	-0,091	0,025
-414,657	269,919	-0,055	0,071
-413,642	-91,637	0,144	0,030
-412,628	34,360	-0,042	0,027
-411,613	-48,418	-0,087	-0,030
-410,598	800,000	-0,039	0,122
-409,584	68,092	0,126	-0,094
-408,569	-95,388	0,045	-0,009
-407,555	142,865	0,104	0,101
-406,540	-68,515	-0,128	0,036
-405,525	800,000	0,047	0,130
-404,511	800,000	0,016	0,048
-403,496	580,936	0,111	-0,199
-402,482	682,751	-0,021	0,040
-401,467	-92,660	0,103	-0,021
-400,452	-127,553	-0,049	-0,005
-399,438	-200,000	-0,004	-0,057
-398,423	-200,000	-0,005	-0,048
-397,409	800,000	0,089	-0,179
-396,394	182,553	-0,031	0,033
-395,379	451,055	-0,049	-0,079
-394,365	-89,763	0,173	-0,037
-393,350	47,828	-0,107	-0,073
-392,336	-79,691	-0,063	-0,015
-391,321	78,598	0,083	-0,065
-390,306	-90,878	0,129	-0,027
-389,292	-67,652	-0,054	0,015
-388,277	712,074	-0,047	0,091
-387,263	-155,594	0,038	-0,002
-386,248	-200,000	0,021	0,089
-385,233	514,355	0,066	0,113
-384,219	-200,000	0,017	0,210
-383,204	699,006	-0,041	0,079
-382,190	52,673	-0,125	0,086
-381,175	419,539	0,064	0,100
-380,160	800,000	0,022	-0,066
-379,146	542,665	-0,010	-0,018
-378,131	-114,360	-0,074	-0,010
-377,117	182,315	-0,063	0,068
-376,102	700,532	0,043	-0,082
-375,088	-0,663	0,072	-0,037
-374,073	-200,000	-0,004	-0,059
-373,058	-23,509	0,009	-0,004
-372,044	-98,318	0,157	-0,029
-371,029	714,208	0,052	0,101
-370,015	558,146	-0,032	-0,057
-369,000	164,123	-0,053	-0,054
-367,985	-104,304	-0,062	0,010
-366,971	316,701	-0,108	0,148
-365,956	-14,445	0,061	-0,028
-364,942	-200,000	-0,001	-0,083
-363,927	274,066	0,095	0,122
-362,912	-200,000	0,011	0,099
-361,898	-120,729	0,103	0,012
-360,883	296,535	-0,141	-0,189
-359,869	800,000	0,055	-0,111
-358,854	-69,154	-0,025	0,007
-357,839	-200,000	0,009	-0,119
-356,825	350,158	-0,064	-0,092
-355,810	800,000	-0,014	0,033
-354,796	-200,000	-0,007	-0,057
-353,781	8,135	-0,086	0,047
-352,766	-7,127	0,121	0,060
-351,752	-200,000	-0,024	-0,257
-350,737	449,141	0,025	0,040
-349,723	-26,941	0,186	0,078
-348,708	97,743	-0,065	-0,055
-347,693	-152,694	-0,090	0,005
-346,679	-40,952	-0,084	-0,031
-345,664	293,189	0,062	-0,082
-344,650	800,000	-0,021	-0,056
-343,635	800,000	-0,048	0,121
-342,620	-55,635	0,123	0,040
-341,606	230,852	0,069	-0,082
-340,591	739,008	-0,053	-0,105
-339,577	337,368	0,017	-0,024
-338,562	-2,959	-0,060	0,030
-337,548	265,269	0,066	-0,084
-336,533	-200,000	-0,003	0,036
-335,518	-100,577	-0,107	0,019
-334,504	539,632	-0,039	0,068
-333,489	-200,000	0,021	-0,090
-332,475	-125,774	-0,142	0,015
-331,460	800,000	0,030	-0,085
-330,445	94,474	0,163	0,134
-329,431	1,975	-0,212	-0,111
-328,416	-70,071	0,070	-0,019
-327,402	97,991	0,059	0,049
-326,387	-69,432	-0,052	0,014
-325,372	-173,448	0,098	0,002
-324,358	382,012	-0,058	-0,087
-323,343	-11,025	0,037	0,018
-322,329	86,374	0,031	-0,025
-321,314	-97,752	0,040	-0,007
-320,299	159,997	-0,037	0,037
-319,285	-200,000	-0,006	0,023
-318,270	38,350	-0,016	0,011
-317,256	98,057	-0,040	-0,033
-316,241	-200,000	-0,006	-0,025
-315,226	-74,852	0,116	0,030
-314,212	-104,849	-0,059	-0,010
-313,197	231,304	0,070	0,084
-312,183	349,696	-0,106	0,152
-311,168	-28,077	-0,124	-0,052
-310,153	-36,911	0,128	0,050
-309,139	-16,462	0,057	-0,026
-308,124	-36,062	-0,048	-0,019
-307,110	800,000	0,022	0,064
-306,095	-200,000	-0,034	-0,156
-305,080	0,250	0,096	0,049
-304,066	-200,000	-0,023	-0,107
-303,051	46,140	-0,152	-0,102
-302,037	341,308	0,078	0,111
-301,022	31,063	0,029	-0,018
-300,008	-80,497	0,110	-0,026
-298,993	-170,636	-0,187	-0,005
-297,978	225,355	-0,112	-0,131
-296,964	-38,606	-0,079	0,030
-295,949	-99,730	0,020	-0,004
-294,935	-94,497	0,032	0,006
-293,920	-98,753	-0,061	0,011
-292,905	-82,200	0,083	-0,019
-291,891	627,567	0,051	0,095
-290,876	-200,000	-0,015	0,095
-289,862	-31,083	-0,070	-0,028
-288,847	350,155	0,035	-0,050
-287,832	145,827	0,114	-0,111
-286,818	800,000	-0,036	-0,109
-285,803	248,668	-0,051	-0,063
-284,789	-79,032	-0,070	0,017
-283,774	-177,192	0,079	0,001
-282,759	789,430	-0,020	-0,041
-281,745	234,097	0,095	-0,113
-280,730	-200,000	-0,018	-0,063
-279,716	334,097	-0,025	0,035
-278,701	-200,000	0,019	-0,087
-277,686	-200,000	-0,003	-0,092
-276,672	-200,000	-0,012	0,050
-275,657	-200,000	-0,013	-0,155
-274,643	176,445	0,081	-0,086
-273,628	800,000	-0,042	-0,126
-272,613	-100,327	-0,126	0,023
-271,599	-200,000	0,023	0,083
-270,584	152,370	-0,059	0,058
-269,570	24,872	-0,110	0,066
-268,555	120,525	-0,003	-0,003
-267,540	717,358	-0,072	-0,140
-266,526	-105,997	0,038	-0,006
-265,511	-117,532	0,100	-0,013
-264,497	311,273	0,029	-0,039
-263,482	-200,000	-0,010	0,096
-262,467	359,400	0,075	0,109
-261,453	-114,713	-0,177	-0,024
-260,438	-200,000	-0,005	-0,082
-259,424	-200,000	-0,023	-0,102
-258,409	-140,025	-0,040	0,003
-257,395	0,738	0,060	0,031
-256,380	-200,000	-0,010	0,073
-255,365	98,381	0,085	0,071
-254,351	-154,039	-0,099	-0,005
-253,336	-101,152	-0,116	-0,020
-252,322	-43,903	-0,087	-0,032
-251,307	800,000	0,041	-0,103
-250,292	-4,207	0,094	-0,047
-249,278	-53,255	0,057	-0,019
-248,263	202,083	0,085	-0,095
-247,249	-130,171	-0,140	0,014
-246,234	-134,307	0,190	-0,017
-245,219	175,746	-0,028	0,029
-244,205	-124,645	0,084	0,009
-243,190	76,729	0,041	0,031
-242,176	261,390	0,027	-0,034
-241,161	-137,502	-0,051	0,004
-240,146	-200,000	-0,008	0,106
-239,132	630,260	-0,057	0,105
-238,117	-200,000	0,032	-0,211
-237,103	283,086	0,012	-0,016
-236,088	87,390	-0,016	0,013
-235,073	-81,518	0,170	0,040
-234,059	-200,000	0,003	0,081
-233,044	800,000	0,019	0,053
-232,030	126,302	0,058	0,053
-231,015	-200,000	-0,005	-0,119
-230,000	518,256	-0,037	-0,062
-228,986	-70,891	-0,111	-0,030
-227,971	82,172	0,083	-0,065
-226,957	-58,412	0,148	0,046
-225,942	256,778	-0,089	-0,111
-224,927	-108,656	-0,092	0,014
-223,913	60,281	-0,118	-0,084
-222,898	-200,000	-0,000	0,013
-221,884	22,083	0,140	0,082
-220,869	-19,842	0,116	0,052
-219,855	-145,784	0,096	-0,006
-218,840	740,898	-0,043	0,084
-217,825	-196,165	-0,121	-0,001
-216,811	417,246	-0,080	0,124
-215,796	800,000	-0,006	0,013
-214,782	255,901	-0,090	-0,111
-213,767	-147,700	0,017	0,001
-212,752	150,151	-0,022	0,022
-211,738	-99,853	0,073	0,013
-210,723	800,000	0,024	0,070
-209,709	-85,871	-0,112	-0,025
-208,694	59,906	-0,067	-0,048
-207,679	-80,466	0,094	0,023
-206,665	345,330	-0,036	0,052
-205,650	-200,000	0,004	0,067
-204,636	-116,772	0,192	-0,025
-203,621	-200,000	0,008	0,057
-202,606	313,868	0,046	-0,063
-201,592	39,144	0,064	-0,041
-200,577	-142,641	0,115	0,008
-199,563	-200,000	0,006	-0,024
-198,548	658,773	0,040	0,075
-197,533	800,000	0,019	0,047
-196,519	800,000	0,059	0,124
-195,504	66,532	0,078	-0,057
-194,490	376,091	0,054	-0,079
-193,475	295,272	-0,041	-0,054
-192,460	-92,741	0,055	-0,011
-191,446	420,211	-0,080	-0,124
-190,431	800,000	0,019	0,046
-189,417	-49,470	0,120	0,041
-188,402	313,910	0,033	0,045
-187,387	136,568	0,050	-0,047
-186,373	-73,558	-0,085	0,022
-185,358	-122,746	0,131	-0,015
-184,344	136,396	0,092	0,087
-183,329	800,000	-0,033	0,095
-182,315	131,540	-0,054	-0,050
-181,300	-153,512	-0,155	-0,008
-180,285	104,840	-0,104	-0,089
-179,271	98,846	0,064	-0,054
-178,256	800,000	0,045	-0,098
-177,242	177,604	-0,027	0,029
-176,227	-200,000	0,038	-0,153
-175,212	800,000	-0,017	0,038
-174,198	800,000	0,029	-0,064
-173,183	422,484	0,024	0,038
-172,169	-17,543	0,050	0,023
-171,154	-37,601	-0,008	0,003
-170,139	-122,358	0,133	-0,015
-169,125	-126,778	0,059	0,006
-168,110	-200,000	0,043	-0,172
-167,096	-200,000	0,022	-0,147
-166,081	-107,126	-0,080	-0,013
-165,066	159,824	-0,045	0,045
-164,052	434,934	-0,044	-0,070
-163,037	102,509	-0,072	0,061
-162,023	450,464	-0,052	0,083
-161,008	-200,000	0,013	0,096
-159,993	800,000	0,011	0,034
-158,979	-61,220	-0,140	0,042
-157,964	27,903	-0,073	0,044
-156,950	800,000	-0,061	-0,127
-155,935	-200,000	-0,013	0,121
-154,920	24,107	0,102	-0,061
-153,906	-4,852	0,083	-0,041
-152,891	-114,076	0,082	-0,011
-151,877	6,675	-0,108	-0,058
-150,862	-200,000	0,029	-0,210
-149,847	-77,070	-0,103	-0,026
-148,833	11,230	0,129	0,071
-147,818	156,171	-0,018	0,018
-146,804	-200,000	0,014	0,059
-145,789	56,213	0,034	0,023
-144,775	431,698	0,081	-0,127
-143,760	264,315	-0,076	-0,095
-142,745	37,425	-0,095	-0,061
-141,731	-200,000	0,016	-0,058
-140,716	46,354	0,131	-0,088
-139,702	-200,000	-0,021	0,077
-138,687	246,315	0,020	0,024
-137,672	27,308	0,133	-0,080
-136,658	800,000	-0,033	0,092
-135,643	109,417	0,059	0,051
-134,629	135,987	0,004	-0,004
-133,614	-200,000	-0,015	0,079
-132,599	717,374	0,050	0,096
-131,585	215,734	-0,093	0,107
-130,570	800,000	0,036	-0,087
-129,556	80,116	-0,061	0,047
-128,541	-30,547	0,029	-0,012
-127,526	-134,674	0,060	0,005
-126,512	-200,000	-0,006	0,102
-125,497	-200,000	-0,002	0,074
-124,483	-200,000	0,000	0,015
-123,468	710,730	-0,031	-0,059
-122,453	109,153	-0,034	-0,029
-121,439	-154,839	-0,074	0,003
-120,424	-96,507	0,089	-0,017
-119,410	-80,989	0,054	0,013
