DTS Sentinel unit serial number:	SN410029Multiplexer serial number:	ORYXHardware model number:	OX2-SRSoftware version number:	ORYX F/W v4,00 Oryx Data Collector v3.7.2.0data status	okinstallation	B5 Nyhavnadifferential loss correction	single-endedforward channel	channel 2reverse channel	N/Adate	2023/12/13time	04:37:13forward acquisition time	300,00reverse acquisition time	0,00gamma	499,1914k internal	0,3160k external	0,3160temperature offset calibration	1,0000default loss term (dB/km)	0,3820temperature slope calibration	1,0000multiplexer offset coefficient	1,0000multiplexer slope coefficient	1,0000fibre end	0,00T internal ref (°C)	13,92T ext. ref 1 (°C)	-2,46T ext. ref 2 (°C)	-2,78length (m)	temperature (°C)	Stokes	anti-Stokes-744,400	-76,396	0,151	0,039
-743,385	-48,862	-0,330	0,116
-742,371	153,275	0,088	0,088
-741,356	-92,846	-0,301	0,061
-740,342	518,712	0,128	0,221
-739,327	-150,832	-0,205	0,011
-738,312	-200,000	-0,006	0,090
-737,298	-103,355	-0,326	0,056
-736,283	-27,657	0,138	-0,059
-735,269	-168,369	-0,271	-0,008
-734,254	800,000	0,084	0,212
-733,239	14,635	-0,506	-0,291
-732,225	-5,918	0,179	0,090
-731,210	69,367	-0,126	-0,095
-730,196	-88,067	0,051	-0,011
-729,181	568,369	0,076	-0,137
-728,167	221,106	-0,019	-0,022
-727,152	50,272	-0,151	-0,105
-726,137	767,946	-0,131	-0,265
-725,123	-200,000	-0,008	-0,109
-724,108	-200,000	0,013	-0,112
-723,094	-82,109	-0,185	0,044
-722,079	382,362	0,071	-0,108
-721,064	-46,639	0,036	0,013
-720,050	115,479	0,075	0,067
-719,035	-73,093	0,099	0,026
-718,021	-200,000	0,015	-0,072
-717,006	235,212	-0,067	0,081
-715,991	800,000	0,028	-0,085
-714,977	-53,952	-0,088	0,029
-713,962	92,859	0,103	0,086
-712,948	41,416	-0,110	0,073
-711,933	-80,354	0,098	-0,024
-710,918	14,548	-0,085	0,049
-709,904	519,947	-0,064	-0,110
-708,889	-97,693	-0,086	0,016
-707,875	-46,214	0,093	0,033
-706,860	28,511	0,075	0,046
-705,845	545,249	-0,082	0,145
-704,831	-122,031	0,143	-0,017
-703,816	98,646	-0,092	0,078
-702,802	74,154	0,080	-0,062
-701,787	-21,751	-0,205	-0,091
-700,772	170,447	-0,033	-0,035
-699,758	-49,887	-0,063	0,022
-698,743	-119,977	0,069	-0,009
-697,729	800,000	-0,042	-0,121
-696,714	118,849	0,114	-0,104
-695,699	-200,000	0,012	-0,047
-694,685	287,254	-0,133	-0,177
-693,670	154,814	0,072	-0,073
-692,656	-125,785	0,161	0,018
-691,641	266,904	-0,046	-0,060
-690,627	-23,062	-0,090	-0,040
-689,612	86,273	-0,078	-0,063
-688,597	671,809	0,014	-0,027
-687,583	-60,414	-0,243	-0,075
-686,568	310,279	-0,056	-0,078
-685,554	20,785	0,091	0,054
-684,539	-10,084	-0,042	0,021
-683,524	54,268	-0,059	0,042
-682,510	-200,000	-0,013	0,099
-681,495	800,000	0,062	-0,134
-680,481	-200,000	-0,044	-0,146
-679,466	-119,181	-0,206	-0,026
-678,451	-145,393	0,128	0,008
-677,437	354,880	0,044	0,064
-676,422	126,667	0,018	0,017
-675,408	422,336	-0,108	-0,171
-674,393	130,757	0,082	-0,077
-673,378	-192,594	0,117	-0,001
-672,364	-200,000	-0,022	-0,156
-671,349	142,046	0,055	0,053
-670,335	133,571	0,052	0,049
-669,320	-39,569	0,063	-0,024
-668,305	-67,737	0,083	0,024
-667,291	-52,176	-0,141	0,048
-666,276	434,067	-0,014	-0,022
-665,262	800,000	-0,068	-0,207
-664,247	800,000	0,031	-0,097
-663,232	-102,286	0,116	-0,020
-662,218	-96,334	-0,161	0,031
-661,203	-200,000	-0,010	-0,063
-660,189	-129,120	-0,102	-0,010
-659,174	712,586	0,048	0,093
-658,159	-200,000	0,007	-0,035
-657,145	102,214	-0,170	-0,146
-656,130	-200,000	0,013	0,103
-655,116	800,000	-0,054	0,111
-654,101	800,000	0,035	0,103
-653,086	-59,066	0,121	0,038
-652,072	677,302	-0,048	0,092
-651,057	550,339	-0,045	-0,079
-650,043	-42,595	-0,056	-0,021
-649,028	-6,530	-0,022	0,011
-648,014	800,000	-0,048	0,101
-646,999	185,251	0,041	0,044
-645,984	-200,000	0,023	0,108
-644,970	-19,993	0,101	-0,045
-643,955	132,772	0,148	-0,140
-642,941	800,000	-0,032	-0,085
-641,926	-160,103	0,085	-0,003
-640,911	435,728	-0,064	-0,102
-639,897	800,000	0,024	-0,056
-638,882	800,000	-0,077	0,162
-637,868	-200,000	0,080	0,000
-636,853	-33,369	-0,196	-0,079
-635,838	287,241	-0,063	0,084
-634,824	-73,894	0,074	0,020
-633,809	47,512	-0,029	-0,020
-632,795	152,518	0,064	-0,065
-631,780	-69,862	0,064	0,018
-630,765	-33,993	0,002	0,001
-629,751	-60,241	-0,069	-0,021
-628,736	-200,000	-0,022	-0,098
-627,722	800,000	0,044	0,098
-626,707	-49,782	0,057	0,020
-625,692	-200,000	-0,007	0,044
-624,678	-66,185	-0,123	0,036
-623,663	800,000	-0,033	-0,090
-622,649	580,621	0,054	0,098
-621,634	303,876	-0,051	0,069
-620,619	-200,000	0,017	-0,177
-619,605	-61,579	0,038	-0,012
-618,590	800,000	0,018	-0,058
-617,576	-200,000	0,007	0,030
-616,561	532,889	-0,019	0,033
-615,546	800,000	-0,052	0,124
-614,532	-200,000	-0,019	-0,164
-613,517	-67,449	-0,093	0,026
-612,503	-200,000	0,039	-0,161
-611,488	295,286	-0,070	-0,094
-610,474	551,631	-0,019	0,033
-609,459	-148,745	-0,073	-0,004
-608,444	-75,985	-0,163	-0,042
-607,430	25,256	-0,043	-0,026
-606,415	26,659	0,062	-0,038
-605,401	-200,000	-0,017	0,076
-604,386	-71,184	-0,026	-0,007
-603,371	800,000	-0,058	0,180
-602,357	-200,000	0,001	-0,084
-601,342	-93,440	-0,100	0,020
-600,328	-200,000	0,016	-0,085
-599,313	166,734	-0,017	0,018
-598,298	-200,000	0,008	-0,064
-597,284	-200,000	0,014	0,050
-596,269	119,283	0,017	0,015
-595,255	-200,000	0,021	0,067
-594,240	-83,450	-0,189	-0,044
-593,225	181,762	0,053	-0,057
-592,211	-2,784	0,066	-0,034
-591,196	-200,000	0,012	-0,060
-590,182	-178,167	-0,065	-0,001
-589,167	-200,000	0,016	0,077
-588,152	800,000	0,033	0,077
-587,138	-78,278	-0,118	-0,029
-586,123	363,239	-0,066	-0,097
-585,109	-200,000	-0,004	-0,050
-584,094	800,000	-0,039	0,099
-583,079	-64,339	-0,028	0,008
-582,065	-3,483	0,043	0,022
-581,050	-200,000	0,001	-0,036
-580,036	-200,000	0,012	0,074
-579,021	-200,000	0,004	-0,207
-578,006	119,343	-0,071	0,064
-576,992	-200,000	-0,009	0,043
-575,977	123,319	0,140	0,128
-574,963	314,949	-0,041	0,057
-573,948	-46,441	0,057	-0,020
-572,934	50,719	0,233	-0,161
-571,919	-200,000	-0,005	-0,099
-570,904	800,000	-0,012	0,038
-569,890	-200,000	0,023	-0,129
-568,875	800,000	0,026	0,075
-567,861	-200,000	0,012	0,064
-566,846	709,563	0,017	0,033
-565,831	-102,335	0,167	-0,029
-564,817	109,768	-0,112	0,098
-563,802	-200,000	-0,003	-0,104
-562,788	111,107	-0,139	-0,123
-561,773	800,000	0,047	-0,121
-560,758	131,450	0,081	0,076
-559,744	-200,000	0,083	-0,000
-558,729	65,687	-0,132	-0,098
-557,715	-200,000	0,006	0,033
-556,700	552,827	0,033	-0,058
-555,685	-200,000	0,004	0,084
-554,671	-200,000	0,008	-0,148
-553,656	40,388	-0,155	-0,102
-552,642	111,829	0,087	-0,077
-551,627	-66,571	-0,110	-0,032
-550,612	140,677	-0,057	0,055
-549,598	-67,873	0,032	0,009
-548,583	800,000	-0,010	0,027
-547,569	-200,000	0,001	0,037
-546,554	-93,196	0,004	0,001
-545,539	-200,000	0,012	-0,115
-544,525	-27,162	-0,162	-0,069
-543,510	-200,000	-0,017	-0,161
-542,496	800,000	-0,047	0,109
-541,481	-55,957	-0,105	-0,034
-540,466	-153,350	0,046	0,002
-539,452	-100,614	0,102	0,018
-538,437	44,943	-0,145	0,097
-537,423	-200,000	-0,031	0,129
-536,408	72,229	0,023	-0,018
-535,393	618,696	0,023	-0,042
-534,379	-34,655	0,067	0,027
-533,364	-105,242	-0,178	0,029
-532,350	-200,000	-0,003	-0,010
-531,335	-200,000	0,016	0,075
-530,321	-106,522	0,069	-0,011
-529,306	0,732	0,068	-0,035
-528,291	40,162	0,055	-0,036
-527,277	-73,360	-0,093	0,025
-526,262	-17,555	-0,143	-0,065
-525,248	201,854	0,089	-0,101
-524,233	756,247	-0,059	0,118
-523,218	-129,134	0,060	0,006
-522,204	-112,612	-0,076	-0,011
-521,189	-138,999	0,122	0,009
-520,175	-200,000	-0,021	-0,139
-519,160	-200,000	-0,036	-0,124
-518,145	-173,686	-0,118	0,003
-517,131	15,430	0,074	-0,042
-516,116	2,021	0,007	0,004
-515,102	-200,000	0,003	0,126
-514,087	-200,000	-0,004	-0,237
-513,072	-71,030	-0,110	-0,030
-512,058	800,000	0,060	-0,138
-511,043	126,642	0,025	-0,023
-510,029	-200,000	-0,012	0,048
-509,014	112,751	0,014	-0,013
-507,999	46,998	0,112	0,076
-506,985	-61,697	0,042	0,013
-505,970	-200,000	-0,007	0,069
-504,956	64,501	0,095	-0,070
-503,941	169,069	0,050	-0,053
-502,926	-200,000	-0,004	0,191
-501,912	509,867	-0,011	-0,019
-500,897	130,271	-0,039	0,036
-499,883	18,993	-0,087	-0,051
-498,868	70,484	0,012	-0,009
-497,853	-200,000	0,004	-0,040
-496,839	121,104	0,030	0,028
-495,824	-200,000	0,002	0,084
-494,810	61,181	-0,132	0,095
-493,795	-200,000	0,008	0,035
-492,781	171,336	0,033	-0,034
-491,766	-200,000	0,006	-0,029
-490,751	-75,961	0,026	-0,007
-489,737	-200,000	-0,049	0,178
-488,722	-29,448	0,043	-0,018
-487,708	196,553	0,005	-0,005
-486,693	-9,754	-0,110	0,053
-485,678	176,186	0,070	0,075
-484,664	309,151	0,030	0,040
-483,649	-155,246	-0,101	-0,005
-482,635	142,701	-0,082	-0,080
-481,620	-72,721	0,105	0,028
-480,605	-200,000	-0,025	0,227
-479,591	294,345	0,038	0,051
-478,576	349,445	0,023	-0,033
-477,562	-118,067	0,040	0,005
-476,547	-88,999	-0,071	-0,015
-475,532	65,213	0,047	-0,035
-474,518	60,201	-0,134	0,097
-473,503	1,698	-0,125	-0,066
-472,489	-6,750	0,064	0,032
-471,474	-70,605	-0,029	0,008
-470,459	61,019	-0,043	0,031
-469,445	798,605	-0,074	-0,150
-468,430	-200,000	0,008	-0,036
-467,416	-118,925	0,093	-0,012
-466,401	-112,207	0,218	0,032
-465,386	559,852	0,058	-0,102
-464,372	-200,000	-0,035	0,131
-463,357	21,012	-0,107	0,063
-462,343	-34,782	-0,088	-0,035
-461,328	-82,149	0,034	0,008
-460,313	149,981	-0,031	-0,031
-459,299	-200,000	0,015	-0,057
-458,284	-96,240	0,152	0,029
-457,270	-93,726	-0,117	0,023
-456,255	-181,652	0,032	-0,000
-455,241	800,000	0,012	0,036
-454,226	-200,000	0,020	-0,093
-453,211	-71,685	0,152	0,041
-452,197	800,000	-0,020	0,041
-451,182	800,000	-0,054	-0,139
-450,168	43,898	-0,069	0,046
-449,153	-200,000	0,006	0,021
-448,138	62,060	-0,048	0,035
-447,124	215,581	0,032	-0,037
-446,109	205,734	0,059	0,067
-445,095	32,533	-0,031	-0,019
-444,080	236,787	0,037	0,045
-443,065	446,210	-0,067	0,107
-442,051	-159,378	-0,014	-0,001
-441,036	87,791	0,146	-0,117
-440,022	800,000	0,043	-0,120
-439,007	431,779	0,071	0,112
-437,992	-51,162	0,031	0,010
-436,978	-11,396	0,073	0,035
-435,963	-200,000	0,005	0,085
-434,949	278,565	-0,039	0,050
-433,934	-200,000	0,008	-0,065
-432,919	-200,000	-0,036	-0,139
-431,905	562,449	0,067	0,118
-430,890	390,652	0,071	0,107
-429,876	-200,000	0,033	0,122
-428,861	242,687	0,050	0,061
-427,846	264,626	-0,043	-0,054
-426,832	415,909	0,070	0,108
-425,817	-27,091	-0,033	0,014
-424,803	-57,463	-0,084	-0,027
-423,788	-200,000	-0,005	-0,108
-422,773	-200,000	-0,036	-0,121
-421,759	378,758	0,044	0,065
-420,744	-200,000	0,026	-0,109
-419,730	-151,764	-0,093	-0,005
-418,715	92,144	-0,085	-0,070
-417,701	39,374	-0,014	-0,009
-416,686	-35,645	-0,004	-0,001
-415,671	71,793	0,092	-0,070
-414,657	-200,000	0,044	0,153
-413,642	300,583	0,067	0,090
-412,628	-200,000	-0,021	-0,077
-411,613	284,712	-0,041	0,054
-410,598	-200,000	-0,041	-0,174
-409,584	-14,963	-0,090	-0,042
-408,569	-185,533	0,083	0,001
-407,555	131,306	-0,042	0,039
-406,540	119,300	0,023	0,021
-405,525	800,000	-0,004	-0,009
-404,511	276,117	0,052	-0,068
-403,496	800,000	0,046	0,113
-402,482	800,000	0,033	0,075
-401,467	800,000	0,050	0,147
-400,452	-200,000	0,020	-0,070
-399,438	231,786	-0,029	-0,034
-398,423	184,702	-0,039	-0,043
-397,409	-66,214	0,090	0,026
-396,394	800,000	-0,025	0,056
-395,379	-23,014	0,037	-0,016
-394,365	-78,029	0,107	-0,027
-393,350	-25,390	0,065	-0,028
-392,336	-200,000	0,004	0,156
-391,321	150,329	0,079	-0,078
-390,306	156,942	-0,048	0,048
-389,292	-200,000	0,000	-0,067
-388,277	-200,000	-0,009	0,262
-387,263	36,496	0,107	0,068
-386,248	-200,000	-0,011	-0,078
-385,233	470,781	-0,079	0,130
-384,219	-200,000	0,028	0,159
-383,204	-92,072	-0,123	0,025
-382,190	800,000	-0,047	-0,111
-381,175	197,392	-0,079	0,088
-380,160	240,797	0,038	0,047
-379,146	348,540	-0,027	0,039
-378,131	-200,000	0,021	0,069
-377,117	208,786	-0,086	0,098
-376,102	24,571	-0,178	-0,107
-375,088	-200,000	-0,033	-0,136
-374,073	-200,000	-0,024	-0,093
-373,058	28,481	0,097	-0,059
-372,044	800,000	0,017	-0,043
-371,029	-66,371	0,025	-0,007
-370,015	800,000	-0,028	-0,077
-369,000	-97,152	-0,067	0,013
-367,985	800,000	-0,028	-0,066
-366,971	122,911	-0,071	-0,065
-365,956	-183,947	0,238	0,003
-364,942	19,602	0,098	0,057
-363,927	327,707	-0,038	-0,054
-362,912	-200,000	0,027	0,132
-361,898	-138,807	-0,098	-0,008
-360,883	-200,000	-0,011	-0,077
-359,869	65,973	0,072	-0,053
-358,854	800,000	0,020	-0,064
-357,839	-200,000	0,007	-0,069
-356,825	766,371	0,063	0,125
-355,810	-173,520	0,019	-0,000
-354,796	3,407	0,074	0,039
-353,781	338,865	-0,097	-0,138
-352,766	289,268	0,072	-0,095
-351,752	-12,528	0,074	-0,035
-350,737	87,045	-0,069	0,055
-349,723	54,558	0,028	0,020
-348,708	32,811	0,057	0,036
-347,693	263,932	0,069	-0,087
-346,679	53,534	0,049	-0,034
-345,664	-35,051	0,065	-0,025
-344,650	126,734	-0,056	-0,052
-343,635	56,447	0,092	-0,065
-342,620	-138,651	0,130	-0,010
-341,606	97,768	0,203	-0,169
-340,591	-200,000	-0,017	-0,150
-339,577	-123,935	0,080	-0,009
-338,562	501,184	0,009	0,016
-337,548	-120,922	-0,049	-0,006
-336,533	-200,000	0,022	0,103
-335,518	110,643	0,022	0,019
-334,504	187,420	0,068	0,074
-333,489	65,868	-0,072	-0,053
-332,475	-200,000	0,013	-0,114
-331,460	-200,000	-0,007	-0,240
-330,445	-200,000	-0,010	-0,151
-329,431	-200,000	0,033	-0,149
-328,416	800,000	-0,022	0,065
-327,402	88,030	0,076	0,061
-326,387	-200,000	-0,005	0,068
-325,372	-200,000	-0,000	0,078
-324,358	14,337	-0,169	0,095
-323,343	-200,000	-0,016	0,072
-322,329	-151,919	-0,106	-0,006
-321,314	-200,000	0,002	0,058
-320,299	800,000	-0,042	-0,112
-319,285	-200,000	0,009	0,054
-318,270	800,000	0,042	-0,101
-317,256	-200,000	0,001	-0,066
-316,241	-96,356	-0,112	0,021
-315,226	607,292	0,055	0,100
-314,212	434,838	0,091	0,144
-313,197	87,292	-0,037	0,030
-312,183	-17,779	0,081	0,037
-311,168	800,000	-0,024	0,070
-310,153	-103,317	-0,102	-0,017
-309,139	-36,545	-0,077	-0,030
-308,124	-118,398	-0,031	-0,004
-307,110	306,564	0,031	0,042
-306,095	-20,943	0,127	0,056
-305,080	-33,572	-0,162	0,065
-304,066	433,197	0,069	-0,110
-303,051	-41,565	-0,150	-0,055
-302,037	224,763	-0,037	0,043
-301,022	-200,000	-0,003	0,062
-300,008	-32,971	0,191	-0,077
-298,993	762,201	0,082	0,162
-297,978	-98,050	-0,216	-0,040
-296,964	570,774	0,038	-0,066
-295,949	-143,042	-0,100	-0,007
-294,935	-200,000	-0,014	-0,075
-293,920	13,050	-0,059	-0,033
-292,905	-47,619	0,117	-0,041
-291,891	-200,000	0,010	-0,098
-290,876	92,484	-0,102	0,083
-289,862	183,660	0,063	-0,067
-288,847	-200,000	0,005	-0,051
-287,832	800,000	0,019	-0,053
-286,818	-200,000	-0,002	-0,140
-285,803	-192,403	0,080	0,001
-284,789	-169,175	0,063	0,002
-283,774	-3,471	0,091	0,046
-282,759	800,000	-0,015	-0,042
-281,745	211,673	0,074	-0,084
-280,730	445,140	-0,059	-0,094
-279,716	800,000	0,075	0,152
-278,701	-107,256	-0,058	0,009
-277,686	-167,085	0,094	-0,003
-276,672	237,944	0,037	-0,044
-275,657	-110,253	-0,093	-0,014
-274,643	-200,000	-0,005	-0,036
-273,628	18,813	0,040	-0,023
-272,613	209,421	-0,016	0,018
-271,599	454,732	-0,036	0,058
-270,584	331,858	0,043	-0,060
-269,570	200,938	0,011	0,012
-268,555	225,612	-0,122	-0,143
-267,540	178,698	-0,085	-0,090
-266,526	294,312	0,056	0,074
-265,511	278,089	-0,029	0,037
-264,497	-154,999	0,114	0,005
-263,482	-200,000	0,025	-0,154
-262,467	51,834	0,098	0,068
-261,453	800,000	-0,071	0,143
-260,438	611,900	0,029	0,052
-259,424	334,336	0,057	0,080
-258,409	387,194	0,024	-0,036
-257,395	-173,222	0,079	0,002
-256,380	-200,000	-0,026	0,123
-255,365	-66,985	-0,046	-0,013
-254,351	-200,000	-0,041	0,156
-253,336	-102,763	0,108	0,018
-252,322	-200,000	-0,014	-0,160
-251,307	259,821	0,017	-0,022
-250,292	-200,000	0,014	0,114
-249,278	-200,000	0,006	0,034
-248,263	220,985	-0,035	0,041
-247,249	-200,000	-0,011	-0,090
-246,234	-63,187	0,069	-0,020
-245,219	-1,485	-0,064	0,032
-244,205	-200,000	-0,025	-0,119
-243,190	-200,000	-0,012	0,079
-242,176	-200,000	0,009	0,076
-241,161	-109,354	0,128	-0,019
-240,146	36,424	0,028	0,018
-239,132	59,194	-0,079	0,056
-238,117	-162,005	-0,114	-0,004
-237,103	-56,750	0,028	-0,009
-236,088	511,600	0,097	0,163
-235,073	-3,943	0,026	-0,013
-234,059	-200,000	0,032	0,151
-233,044	-71,641	0,102	-0,027
-232,030	730,175	0,015	-0,028
-231,015	539,114	-0,043	0,074
-230,000	43,569	0,091	-0,060
-228,986	6,134	0,102	-0,054
-227,971	-200,000	-0,011	0,060
-226,957	-5,567	0,053	-0,026
-225,942	183,570	-0,033	0,036
-224,927	406,835	-0,052	0,079
-223,913	-34,290	0,066	-0,026
-222,898	-24,074	-0,104	-0,044
-221,884	-166,453	-0,079	-0,002
-220,869	78,274	-0,004	0,003
-219,855	800,000	0,003	0,006
-218,840	800,000	-0,100	0,204
-217,825	-200,000	0,026	-0,118
-216,811	-48,354	-0,090	0,031
-215,796	-33,565	0,044	0,017
-214,782	-172,049	-0,075	0,002
-213,767	-49,861	0,146	0,050
-212,752	33,822	0,089	0,056
-211,738	697,960	-0,047	0,089
-210,723	-200,000	0,020	-0,070
-209,709	800,000	0,026	0,060
-208,694	128,590	-0,033	-0,030
-207,679	-200,000	-0,031	0,101
-206,665	-200,000	-0,006	-0,071
-205,650	131,890	0,106	0,098
-204,636	553,489	0,071	0,123
-203,621	-25,529	0,100	0,042
-202,606	182,481	-0,012	0,013
-201,592	280,871	-0,117	-0,152
-200,577	140,335	-0,058	0,055
-199,563	-13,296	-0,105	0,049
-198,548	-161,344	0,133	-0,005
-197,533	-200,000	-0,028	0,122
-196,519	195,454	0,072	-0,079
-195,504	-40,032	-0,074	0,028
-194,490	-87,624	-0,073	0,016
-193,475	5,731	-0,049	-0,026
-192,460	-19,882	-0,098	-0,043
-191,446	-68,409	0,121	-0,034
-190,431	-25,685	-0,067	0,028
-189,417	276,054	-0,052	0,067
-188,402	-115,487	0,088	0,012
-187,387	-200,000	-0,012	-0,147
-186,373	-37,783	-0,090	0,034
-185,358	200,195	0,072	0,080
-184,344	121,443	0,079	-0,071
-183,329	-200,000	-0,019	-0,120
-182,315	-200,000	-0,011	0,056
-181,300	592,280	0,034	0,061
-180,285	13,581	0,050	-0,028
-179,271	-51,122	-0,080	0,027
-178,256	455,020	0,110	-0,177
-177,242	211,420	0,063	0,072
-176,227	334,945	0,077	0,107
-175,212	-130,830	-0,112	0,011
-174,198	-153,501	-0,130	-0,006
-173,183	-200,000	0,043	0,138
-172,169	-200,000	-0,041	-0,174
-171,154	-85,170	0,069	0,015
-170,139	800,000	-0,072	0,145
-169,125	677,614	0,035	0,066
-168,110	160,555	0,045	-0,045
-167,096	353,784	-0,058	-0,083
-166,081	-12,276	-0,102	-0,048
-165,066	-182,487	-0,023	-0,000
-164,052	174,232	-0,107	0,111
-163,037	800,000	-0,121	0,266
-162,023	-108,183	-0,101	-0,016
-161,008	-200,000	0,001	-0,097
-159,993	282,596	-0,097	-0,125
-158,979	-144,060	-0,092	-0,006
-157,964	-200,000	0,015	0,105
-156,950	-88,731	0,014	-0,003
-155,935	-200,000	-0,005	0,116
-154,920	-27,810	0,056	0,023
-153,906	22,749	-0,032	-0,019
-152,891	800,000	-0,034	-0,085
-151,877	-164,417	-0,087	0,003
-150,862	-200,000	0,000	0,060
-149,847	800,000	-0,034	-0,071
-148,833	155,029	0,071	-0,071
-147,818	-200,000	-0,005	0,118
-146,804	-200,000	0,010	0,070
-145,789	800,000	-0,040	-0,093
-144,775	-167,192	-0,054	0,002
-143,760	55,245	-0,128	-0,089
-142,745	282,926	-0,032	-0,042
-141,731	28,314	0,038	0,023
-140,716	505,031	0,059	-0,100
-139,702	-101,736	0,156	-0,027
-138,687	800,000	-0,043	-0,102
-137,672	800,000	0,016	-0,036
-136,658	-59,372	-0,062	-0,019
-135,643	478,814	0,076	-0,124
-134,629	372,612	0,078	-0,114
-133,614	-200,000	0,000	0,014
-132,599	315,781	-0,097	0,132
-131,585	-0,701	0,082	-0,042
-130,570	341,790	0,030	0,042
-129,556	25,160	-0,035	0,021
-128,541	458,136	-0,105	-0,169
-127,526	445,100	0,096	-0,152
-126,512	619,280	0,059	-0,106
-125,497	-105,335	0,109	0,018
-124,483	108,788	-0,027	0,024
-123,468	800,000	-0,057	-0,181
-122,453	-88,174	-0,016	0,003
-121,439	-43,711	-0,138	-0,050
-120,424	-200,000	-0,037	-0,127
-119,410	-200,000	0,010	0,170
