DTS Sentinel unit serial number:	SN410029Multiplexer serial number:	ORYXHardware model number:	OX2-SRSoftware version number:	ORYX F/W v4,00 Oryx Data Collector v3.7.2.0data status	okinstallation	B5 Nyhavnadifferential loss correction	single-endedforward channel	channel 2reverse channel	N/Adate	2023/12/13time	13:42:13forward acquisition time	300,00reverse acquisition time	0,00gamma	499,1914k internal	0,3161k external	0,3161temperature offset calibration	1,0000default loss term (dB/km)	0,3820temperature slope calibration	1,0000multiplexer offset coefficient	1,0000multiplexer slope coefficient	1,0000fibre end	0,00T internal ref (°C)	14,72T ext. ref 1 (°C)	-1,15T ext. ref 2 (°C)	-1,39length (m)	temperature (°C)	Stokes	anti-Stokes-744,400	99,968	0,074	-0,063
-743,385	-82,084	-0,278	0,066
-742,371	53,673	0,113	-0,080
-741,356	-80,967	-0,386	-0,093
-740,342	800,000	0,061	0,172
-739,327	-133,000	-0,314	-0,029
-738,312	-200,000	0,002	0,056
-737,298	-47,806	-0,350	-0,124
-736,283	-102,916	0,193	0,033
-735,269	-142,231	-0,329	-0,024
-734,254	29,105	0,103	-0,065
-733,239	48,478	-0,389	-0,268
-732,225	-167,153	0,163	-0,005
-731,210	800,000	-0,030	0,069
-730,196	-65,590	-0,033	0,010
-729,181	-81,702	0,118	0,028
-728,167	-200,000	-0,023	-0,098
-727,152	704,598	-0,062	-0,120
-726,137	800,000	-0,067	-0,171
-725,123	800,000	-0,058	-0,151
-724,108	-37,437	-0,076	0,030
-723,094	-112,690	0,077	-0,011
-722,079	581,086	0,033	-0,059
-721,064	97,587	-0,081	-0,069
-720,050	104,846	-0,047	-0,041
-719,035	-200,000	0,007	-0,024
-718,021	-91,204	-0,033	-0,007
-717,006	512,065	0,011	-0,020
-715,991	-65,826	-0,089	-0,026
-714,977	-42,774	-0,118	-0,044
-713,962	-200,000	-0,024	-0,106
-712,948	-200,000	-0,006	0,019
-711,933	176,858	0,114	-0,122
-710,918	-200,000	0,019	-0,080
-709,904	438,913	-0,009	-0,015
-708,889	95,737	-0,219	-0,184
-707,875	-200,000	0,006	0,032
-706,860	800,000	0,009	-0,028
-705,845	-200,000	0,019	-0,090
-704,831	-200,000	-0,005	0,039
-703,816	-172,643	-0,130	-0,003
-702,802	-148,347	0,047	0,003
-701,787	-91,976	-0,174	-0,036
-700,772	132,384	-0,122	-0,115
-699,758	-123,473	-0,071	0,008
-698,743	-71,449	0,112	-0,031
-697,729	417,986	0,044	-0,069
-696,714	70,918	-0,081	-0,061
-695,699	153,440	-0,090	0,090
-694,685	300,128	-0,147	-0,199
-693,670	6,650	-0,098	0,053
-692,656	800,000	-0,013	-0,040
-691,641	220,727	-0,105	-0,124
-690,627	-134,343	0,068	0,006
-689,612	-141,996	0,033	-0,002
-688,597	-32,693	-0,110	-0,045
-687,583	-200,000	0,008	-0,057
-686,568	159,130	0,147	-0,151
-685,554	9,439	-0,046	-0,026
-684,539	-200,000	-0,003	-0,101
-683,524	523,316	0,059	0,102
-682,510	-200,000	0,003	-0,031
-681,495	-35,069	0,015	-0,006
-680,481	10,961	0,049	0,028
-679,466	-148,843	-0,094	0,005
-678,451	11,262	0,102	-0,057
-677,437	541,771	0,098	-0,172
-676,422	67,354	-0,058	0,043
-675,408	580,192	-0,028	0,051
-674,393	64,279	0,039	-0,029
-673,378	19,417	-0,128	-0,075
-672,364	-200,000	-0,034	-0,179
-671,349	-75,929	-0,108	0,028
-670,335	-200,000	-0,006	-0,019
-669,320	25,113	0,044	0,027
-668,305	164,617	-0,039	0,041
-667,291	800,000	-0,046	-0,125
-666,276	161,499	0,064	-0,066
-665,262	173,911	-0,066	-0,070
-664,247	798,999	0,056	-0,114
-663,232	-137,585	0,028	-0,002
-662,218	-97,422	-0,142	-0,027
-661,203	103,675	0,043	0,037
-660,189	-200,000	-0,005	0,117
-659,174	241,740	0,090	-0,111
-658,159	-24,913	-0,278	-0,121
-657,145	54,114	-0,045	0,032
-656,130	-21,547	0,054	-0,024
-655,116	-116,276	0,070	-0,009
-654,101	-135,528	-0,033	-0,003
-653,086	25,196	-0,095	0,058
-652,072	-200,000	0,046	0,156
-651,057	56,392	-0,082	-0,059
-650,043	-58,784	-0,160	-0,051
-649,028	101,879	-0,053	-0,045
-648,014	276,216	0,086	-0,112
-646,999	-200,000	-0,015	-0,142
-645,984	37,771	-0,058	-0,038
-644,970	-47,049	0,015	-0,005
-643,955	-57,701	-0,050	-0,016
-642,941	-123,961	-0,014	0,002
-641,926	377,908	0,058	0,087
-640,911	293,929	-0,082	0,111
-639,897	61,191	-0,100	0,073
-638,882	-53,496	0,076	0,025
-637,868	800,000	0,025	-0,079
-636,853	-44,816	-0,044	0,016
-635,838	-2,029	-0,097	0,050
-634,824	96,048	-0,063	-0,053
-633,809	-133,011	0,018	0,002
-632,795	303,390	-0,034	0,046
-631,780	40,578	0,074	-0,049
-630,765	160,206	-0,026	-0,027
-629,751	21,796	-0,136	-0,081
-628,736	800,000	-0,041	0,110
-627,722	54,054	-0,018	0,013
-626,707	362,102	0,040	0,059
-625,692	-116,474	-0,047	0,006
-624,678	495,504	0,047	0,080
-623,663	34,212	-0,087	-0,055
-622,649	138,612	-0,091	-0,088
-621,634	-130,244	-0,147	-0,014
-620,619	-200,000	-0,007	0,035
-619,605	800,000	0,015	-0,042
-618,590	-200,000	0,011	0,077
-617,576	59,266	0,088	-0,063
-616,561	19,327	-0,085	-0,050
-615,546	-54,612	-0,140	-0,046
-614,532	-162,251	0,062	0,002
-613,517	467,868	-0,015	0,025
-612,503	-36,470	-0,107	-0,042
-611,488	318,518	0,022	-0,031
-610,474	257,357	0,006	-0,008
-609,459	214,703	0,030	0,034
-608,444	800,000	0,061	-0,134
-607,430	-200,000	0,010	-0,061
-606,415	800,000	-0,049	-0,117
-605,401	-200,000	0,016	-0,081
-604,386	800,000	0,016	-0,035
-603,371	-19,020	-0,104	-0,047
-602,357	-154,938	-0,119	-0,006
-601,342	-9,355	0,070	0,034
-600,328	-84,678	-0,109	-0,025
-599,313	322,654	-0,069	0,096
-598,298	-55,152	-0,096	0,032
-597,284	800,000	0,042	0,103
-596,269	-141,769	0,026	-0,002
-595,255	-30,803	0,182	0,075
-594,240	-141,237	-0,026	0,002
-593,225	-32,307	0,124	0,051
-592,211	-200,000	-0,037	-0,137
-591,196	275,347	-0,095	0,124
-590,182	614,687	0,065	-0,119
-589,167	800,000	0,049	0,130
-588,152	628,801	-0,032	0,059
-587,138	108,928	-0,072	-0,063
-586,123	435,942	-0,061	-0,097
-585,109	174,235	-0,054	-0,057
-584,094	800,000	-0,057	0,127
-583,079	-86,287	0,023	0,005
-582,065	800,000	0,034	0,102
-581,050	-200,000	0,022	0,108
-580,036	-200,000	0,021	-0,110
-579,021	205,462	0,047	-0,054
-578,006	142,478	-0,040	-0,039
-576,992	-200,000	-0,019	-0,142
-575,977	419,537	0,057	-0,089
-574,963	146,747	-0,071	0,070
-573,948	39,476	0,028	0,018
-572,934	-58,681	0,042	-0,013
-571,919	34,398	-0,029	0,018
-570,904	800,000	-0,034	-0,079
-569,890	244,230	0,046	-0,057
-568,875	-200,000	-0,008	-0,099
-567,861	-200,000	0,019	0,118
-566,846	129,903	0,028	0,026
-565,831	-200,000	0,003	0,110
-564,817	-34,539	-0,064	0,025
-563,802	-182,858	0,090	0,001
-562,788	-46,694	0,089	0,032
-561,773	55,080	0,075	0,053
-560,758	195,752	0,053	0,059
-559,744	-200,000	-0,046	0,191
-558,729	-25,642	-0,135	-0,058
-557,715	405,136	-0,032	0,049
-556,700	287,353	-0,079	-0,104
-555,685	800,000	0,022	-0,053
-554,671	-161,506	0,091	0,003
-553,656	800,000	-0,020	0,040
-552,642	310,933	0,066	-0,091
-551,627	800,000	0,032	-0,100
-550,612	-77,659	-0,032	-0,008
-549,598	16,454	-0,014	0,008
-548,583	-200,000	-0,001	-0,113
-547,569	-200,000	-0,007	-0,084
-546,554	-25,735	0,054	-0,023
-545,539	800,000	-0,038	0,110
-544,525	63,530	-0,086	0,063
-543,510	-169,946	-0,108	0,003
-542,496	17,690	-0,119	0,069
-541,481	-200,000	0,007	-0,071
-540,466	233,020	0,044	-0,053
-539,452	439,471	0,024	-0,039
-538,437	276,102	-0,071	-0,092
-537,423	-200,000	-0,022	-0,082
-536,408	44,187	-0,042	-0,028
-535,393	800,000	-0,037	-0,091
-534,379	-126,457	-0,119	0,013
-533,364	226,862	-0,024	0,029
-532,350	33,790	0,193	0,122
-531,335	73,794	-0,047	-0,036
-530,321	-200,000	-0,013	-0,075
-529,306	531,352	-0,066	0,114
-528,291	-200,000	0,035	0,184
-527,277	800,000	0,044	-0,123
-526,262	-200,000	0,022	0,134
-525,248	129,184	0,070	0,065
-524,233	76,958	-0,046	-0,036
-523,218	-200,000	0,004	-0,012
-522,204	-84,456	0,064	-0,015
-521,189	35,045	-0,180	-0,115
-520,175	-200,000	0,010	-0,047
-519,160	-98,086	-0,108	-0,020
-518,145	42,107	-0,052	0,034
-517,131	-200,000	0,043	0,140
-516,116	448,187	0,023	0,037
-515,102	526,299	-0,059	0,102
-514,087	-77,639	-0,110	-0,028
-513,072	680,968	-0,032	-0,062
-512,058	-115,505	-0,074	-0,010
-511,043	-68,700	0,087	0,024
-510,029	-134,269	0,013	0,001
-509,014	800,000	0,064	-0,169
-507,999	33,909	0,107	-0,068
-506,985	-200,000	-0,017	-0,140
-505,970	43,027	0,122	-0,081
-504,956	-155,836	-0,060	-0,003
-503,941	-200,000	-0,002	0,010
-502,926	-50,548	0,069	-0,023
-501,912	162,923	0,041	0,042
-500,897	100,208	0,116	-0,098
-499,883	-180,175	-0,065	0,001
-498,868	221,742	0,021	0,024
-497,853	-200,000	0,017	0,158
-496,839	-170,490	-0,188	-0,005
-495,824	-42,428	0,109	0,040
-494,810	-100,690	0,172	0,031
-493,795	444,280	-0,052	0,084
-492,781	301,990	0,045	0,060
-491,766	155,461	0,061	0,061
-490,751	-47,515	-0,142	0,050
-489,737	228,146	0,080	0,095
-488,722	227,281	0,106	0,126
-487,708	448,339	-0,035	-0,056
-486,693	-45,476	0,188	0,067
-485,678	-200,000	0,023	-0,094
-484,664	-86,440	-0,191	-0,042
-483,649	109,382	0,024	-0,021
-482,635	-200,000	0,008	0,039
-481,620	236,052	0,062	-0,075
-480,605	-200,000	-0,004	0,042
-479,591	137,288	-0,114	-0,108
-478,576	520,469	-0,091	-0,157
-477,562	1,695	-0,061	-0,032
-476,547	-200,000	-0,021	-0,142
-475,532	-200,000	-0,028	0,102
-474,518	-200,000	0,013	0,058
-473,503	800,000	0,032	0,095
-472,489	-154,859	0,061	0,003
-471,474	800,000	0,042	-0,115
-470,459	-0,809	-0,111	-0,057
-469,445	223,894	0,043	-0,051
-468,430	10,390	0,006	0,003
-467,416	-59,967	0,146	0,045
-466,401	276,868	-0,013	0,017
-465,386	63,975	-0,034	0,025
-464,372	-200,000	0,001	0,073
-463,357	-200,000	-0,003	0,073
-462,343	378,005	-0,017	0,025
-461,328	14,739	-0,081	0,046
-460,313	-200,000	-0,091	-0,000
-459,299	800,000	0,038	-0,077
-458,284	29,918	0,062	0,038
-457,270	144,880	0,031	-0,030
-456,255	-81,200	0,091	-0,022
-455,241	285,372	0,057	-0,075
-454,226	-45,730	-0,094	-0,034
-453,211	253,007	0,118	-0,146
-452,197	29,219	0,195	0,121
-451,182	-100,756	-0,095	-0,017
-450,168	-21,052	0,078	-0,035
-449,153	6,957	-0,117	0,063
-448,138	-152,499	-0,171	-0,009
-447,124	-126,571	-0,026	-0,003
-446,109	-200,000	0,010	0,045
-445,095	303,924	-0,082	0,111
-444,080	206,213	0,069	0,078
-443,065	60,849	0,081	0,058
-442,051	-145,187	-0,126	0,008
-441,036	-200,000	0,027	-0,123
-440,022	7,043	0,058	-0,032
-439,007	55,771	0,069	-0,048
-437,992	-200,000	-0,003	0,092
-436,978	592,959	-0,029	0,052
-435,963	630,060	-0,080	0,147
-434,949	-200,000	-0,003	0,183
-433,934	32,187	0,108	0,067
-432,919	800,000	-0,058	-0,161
-431,905	-144,104	-0,095	-0,006
-430,890	800,000	-0,034	-0,080
-429,876	800,000	-0,019	-0,052
-428,861	-83,323	-0,084	0,020
-427,846	-155,532	0,123	0,006
-426,832	-200,000	-0,007	-0,115
-425,817	-14,194	-0,029	0,013
-424,803	93,346	0,067	0,055
-423,788	-200,000	0,002	0,111
-422,773	-28,446	0,153	0,064
-421,759	99,140	-0,035	-0,030
-420,744	-114,190	-0,022	0,003
-419,730	800,000	-0,056	0,132
-418,715	-155,882	-0,097	0,004
-417,701	-178,124	-0,133	0,002
-416,686	50,970	0,121	0,083
-415,671	-194,329	-0,146	0,001
-414,657	-200,000	0,002	0,072
-413,642	-113,845	0,023	0,003
-412,628	-200,000	-0,008	-0,041
-411,613	-17,678	-0,061	0,028
-410,598	800,000	-0,027	-0,082
-409,584	-96,149	0,148	-0,028
-408,569	128,529	0,088	-0,082
-407,555	800,000	0,030	0,090
-406,540	140,233	0,054	0,052
-405,525	-157,066	-0,132	-0,006
-404,511	-24,124	-0,033	-0,014
-403,496	61,305	-0,129	0,093
-402,482	103,037	0,074	-0,063
-401,467	389,788	0,037	0,055
-400,452	800,000	-0,033	0,103
-399,438	800,000	-0,018	0,038
-398,423	89,990	-0,063	0,051
-397,409	-39,720	0,066	-0,025
-396,394	-200,000	0,015	-0,088
-395,379	800,000	0,017	-0,042
-394,365	68,951	0,158	0,118
-393,350	-200,000	-0,021	0,256
-392,336	176,996	-0,023	-0,024
-391,321	800,000	-0,006	-0,016
-390,306	-69,394	-0,158	-0,044
-389,292	-87,908	-0,079	-0,017
-388,277	-58,762	-0,074	0,023
-387,263	2,965	0,163	0,086
-386,248	215,386	0,101	0,116
-385,233	190,824	-0,059	-0,064
-384,219	287,234	0,060	0,079
-383,204	-62,925	0,018	-0,005
-382,190	493,811	0,039	-0,065
-381,175	-200,000	-0,007	-0,048
-380,160	-200,000	-0,019	0,071
-379,146	800,000	-0,046	0,095
-378,131	-200,000	0,034	-0,163
-377,117	-32,184	0,050	0,020
-376,102	-69,866	0,020	-0,006
-375,088	-147,604	0,061	0,004
-374,073	800,000	0,015	0,044
-373,058	800,000	-0,044	0,095
-372,044	231,340	0,054	-0,064
-371,029	370,981	-0,043	-0,063
-370,015	108,625	0,017	0,015
-369,000	149,484	0,102	0,101
-367,985	-200,000	0,015	0,062
-366,971	-200,000	0,031	-0,140
-365,956	459,553	-0,018	-0,030
-364,942	217,151	0,077	-0,089
-363,927	-200,000	0,011	0,061
-362,912	-80,170	-0,117	-0,028
-361,898	-200,000	-0,009	0,031
-360,883	493,459	-0,032	-0,054
-359,869	205,024	0,013	0,015
-358,854	-19,088	-0,029	-0,013
-357,839	-200,000	0,013	-0,044
-356,825	-18,694	-0,110	0,050
-355,810	-200,000	-0,001	0,061
-354,796	-93,332	-0,047	-0,009
-353,781	-200,000	0,011	-0,181
-352,766	800,000	0,107	-0,222
-351,752	-9,073	0,015	-0,007
-350,737	-200,000	0,005	0,088
-349,723	148,310	-0,098	0,096
-348,708	31,162	0,137	0,085
-347,693	-200,000	0,015	-0,087
-346,679	-16,770	-0,123	-0,056
-345,664	-200,000	-0,039	0,169
-344,650	219,304	0,054	0,063
-343,635	20,945	0,078	-0,046
-342,620	483,847	-0,044	-0,073
-341,606	657,454	-0,025	0,046
-340,591	316,445	-0,038	0,052
-339,577	338,493	0,056	0,079
-338,562	-24,817	-0,047	0,020
-337,548	-200,000	-0,036	0,118
-336,533	800,000	0,028	0,059
-335,518	-147,178	0,078	0,005
-334,504	-66,660	-0,057	0,016
-333,489	800,000	-0,007	0,016
-332,475	287,528	-0,071	0,093
-331,460	800,000	-0,026	-0,064
-330,445	-200,000	-0,014	-0,143
-329,431	114,085	0,052	-0,046
-328,416	788,330	-0,015	-0,029
-327,402	-112,000	0,093	0,014
-326,387	-104,731	-0,065	0,011
-325,372	650,224	-0,039	0,072
-324,358	-147,405	0,087	0,005
-323,343	-88,271	0,054	-0,012
-322,329	-40,172	-0,013	0,005
-321,314	444,447	-0,096	-0,154
-320,299	217,393	0,137	0,159
-319,285	-200,000	0,019	-0,098
-318,270	694,195	0,020	0,038
-317,256	-109,716	-0,115	-0,017
-316,241	72,825	-0,032	0,024
-315,226	124,647	0,125	0,114
-314,212	-35,160	0,035	0,014
-313,197	-200,000	0,008	0,061
-312,183	-200,000	-0,007	-0,076
-311,168	-27,134	-0,039	-0,016
-310,153	-200,000	-0,015	-0,165
-309,139	32,298	0,008	0,005
-308,124	-200,000	-0,001	-0,074
-307,110	-200,000	0,008	-0,038
-306,095	-200,000	0,036	-0,118
-305,080	-100,619	-0,118	-0,021
-304,066	17,329	-0,029	-0,016
-303,051	167,244	-0,050	0,052
-302,037	-200,000	0,004	-0,042
-301,022	83,305	0,179	0,141
-300,008	-200,000	0,000	0,089
-298,993	58,162	0,131	0,093
-297,978	388,057	-0,066	-0,099
-296,964	-200,000	-0,032	-0,124
-295,949	800,000	0,013	-0,038
-294,935	195,863	-0,088	-0,097
-293,920	-200,000	0,002	-0,024
-292,905	-165,258	0,045	-0,001
-291,891	-110,242	-0,093	0,014
-290,876	666,838	0,018	0,033
-289,862	755,577	-0,054	0,106
-288,847	-200,000	0,009	-0,066
-287,832	-116,501	0,072	-0,010
-286,818	-33,069	-0,176	-0,070
-285,803	800,000	0,004	-0,014
-284,789	328,023	-0,073	0,102
-283,774	339,037	0,037	0,052
-282,759	154,771	-0,113	0,113
-281,745	110,979	0,030	-0,026
-280,730	-29,003	-0,056	0,023
-279,716	76,446	0,111	0,085
-278,701	-200,000	-0,014	0,165
-277,686	532,366	0,074	-0,128
-276,672	800,000	-0,071	-0,150
-275,657	-33,311	0,052	-0,021
-274,643	-81,204	0,069	-0,016
-273,628	599,099	-0,081	0,146
-272,613	-168,059	0,055	0,002
-271,599	167,514	0,027	-0,028
-270,584	-200,000	-0,016	-0,061
-269,570	-92,556	-0,031	0,006
-268,555	99,168	0,051	0,043
-267,540	800,000	-0,061	-0,152
-266,526	-115,441	0,076	0,010
-265,511	114,200	-0,033	0,029
-264,497	308,117	0,045	-0,061
-263,482	-200,000	0,004	0,041
-262,467	55,512	0,099	0,069
-261,453	-103,539	-0,146	-0,025
-260,438	36,664	-0,101	0,064
-259,424	800,000	0,013	0,040
-258,409	216,009	-0,069	-0,080
-257,395	-200,000	0,003	-0,013
-256,380	-46,230	0,051	0,018
-255,365	-149,910	-0,073	-0,004
-254,351	-200,000	-0,002	-0,019
-253,336	-32,323	0,121	0,049
-252,322	118,592	-0,112	-0,100
-251,307	-200,000	0,050	-0,205
-250,292	-11,721	-0,076	-0,036
-249,278	-200,000	-0,009	-0,066
-248,263	-200,000	-0,034	-0,145
-247,249	161,337	0,093	0,094
-246,234	-119,863	0,084	-0,010
-245,219	90,581	0,029	0,024
-244,205	-166,493	-0,018	-0,001
-243,190	78,421	0,068	-0,052
-242,176	-200,000	-0,001	-0,069
-241,161	575,609	0,035	0,062
-240,146	152,022	-0,027	0,027
-239,132	800,000	-0,020	0,042
-238,117	800,000	-0,039	-0,084
-237,103	666,676	0,074	0,138
-236,088	202,454	0,042	0,047
-235,073	-200,000	0,002	0,037
-234,059	-84,977	-0,020	0,004
-233,044	800,000	0,033	0,077
-232,030	-10,110	-0,096	0,046
-231,015	397,147	0,039	-0,059
-230,000	-45,954	0,063	0,022
-228,986	509,550	0,049	0,082
-227,971	43,063	0,095	0,062
-226,957	281,735	-0,079	0,103
-225,942	-200,000	0,019	0,073
-224,927	-111,217	0,133	0,019
-223,913	800,000	-0,028	0,081
-222,898	367,003	-0,032	-0,047
-221,884	800,000	-0,045	-0,102
-220,869	800,000	-0,028	-0,069
-219,855	176,105	-0,056	-0,059
-218,840	-72,707	0,170	0,045
-217,825	-54,538	0,098	-0,032
-216,811	-167,808	0,045	0,001
-215,796	-160,438	-0,082	0,003
-214,782	520,956	-0,009	-0,016
-213,767	-200,000	0,011	-0,091
-212,752	-39,654	0,148	-0,056
-211,738	800,000	-0,014	-0,035
-210,723	-200,000	-0,036	0,135
-209,709	73,985	-0,108	-0,082
-208,694	123,375	-0,052	-0,047
-207,679	800,000	0,050	-0,125
-206,665	103,428	0,058	-0,049
-205,650	82,075	-0,068	-0,053
-204,636	-59,770	0,092	-0,028
-203,621	-0,378	0,064	0,033
-202,606	664,301	0,030	-0,056
-201,592	202,936	-0,075	-0,084
-200,577	140,386	0,058	-0,056
-199,563	-200,000	-0,027	0,158
-198,548	-200,000	-0,002	-0,100
-197,533	-66,146	0,111	-0,032
-196,519	-200,000	0,003	0,117
-195,504	23,680	0,146	0,087
-194,490	800,000	0,039	-0,094
-193,475	-62,076	-0,065	-0,019
-192,460	-86,478	0,047	-0,010
-191,446	-80,174	-0,105	-0,025
-190,431	-200,000	-0,007	0,091
-189,417	162,768	-0,081	0,082
-188,402	800,000	-0,073	-0,172
-187,387	-58,710	0,133	0,041
-186,373	800,000	0,038	0,081
-185,358	-200,000	0,011	-0,075
-184,344	-37,537	0,098	0,038
-183,329	-200,000	0,007	0,190
-182,315	-163,002	-0,140	-0,005
-181,300	93,392	0,133	0,108
-180,285	522,738	0,063	-0,107
-179,271	-200,000	-0,005	-0,144
-178,256	-200,000	0,014	0,084
-177,242	725,070	-0,006	0,012
-176,227	-19,673	0,062	-0,028
-175,212	-0,082	0,076	0,039
-174,198	50,007	0,026	0,017
-173,183	149,598	-0,030	0,029
-172,169	146,910	-0,074	-0,072
-171,154	-200,000	-0,007	-0,027
-170,139	260,289	0,031	-0,039
-169,125	38,613	-0,036	-0,023
-168,110	-35,610	0,148	-0,057
-167,096	8,130	0,040	0,021
-166,081	-200,000	0,037	0,119
-165,066	-165,565	-0,162	0,005
-164,052	-200,000	0,022	-0,104
-163,037	-23,754	-0,085	0,037
-162,023	113,602	0,052	0,046
-161,008	-200,000	0,035	0,180
-159,993	199,607	0,096	0,107
-158,979	-200,000	0,001	-0,037
-157,964	288,712	-0,077	-0,100
-156,950	302,265	-0,038	-0,051
-155,935	444,496	-0,094	-0,149
-154,920	-68,380	0,034	-0,009
-153,906	-53,888	0,196	-0,064
-152,891	-105,706	0,126	0,020
-151,877	361,150	0,051	-0,073
-150,862	-200,000	0,011	-0,070
-149,847	81,424	-0,160	0,124
-148,833	88,653	0,102	0,082
-147,818	551,576	0,050	0,087
-146,804	139,249	0,046	-0,043
-145,789	-69,843	-0,098	-0,027
-144,775	58,992	-0,116	0,082
-143,760	-70,359	-0,124	-0,034
-142,745	-92,272	-0,049	0,010
-141,731	125,784	-0,052	0,047
-140,716	4,456	0,097	0,051
-139,702	231,922	0,042	0,050
-138,687	202,416	-0,056	-0,063
-137,672	800,000	-0,037	-0,115
-136,658	-200,000	-0,008	0,058
-135,643	100,655	-0,154	0,129
-134,629	800,000	-0,094	0,189
-133,614	325,232	-0,039	0,054
-132,599	-163,274	0,153	0,005
-131,585	-200,000	0,022	-0,096
-130,570	-73,504	0,019	-0,005
-129,556	-187,813	-0,103	0,001
-128,541	800,000	-0,040	-0,117
-127,526	290,262	-0,053	-0,069
-126,512	-32,866	0,104	-0,041
-125,497	-59,105	-0,040	-0,012
-124,483	-200,000	0,019	-0,079
-123,468	-200,000	0,005	0,060
-122,453	266,563	0,113	-0,143
-121,439	-200,000	0,009	-0,073
-120,424	-200,000	0,011	-0,084
