DTS Sentinel unit serial number:	SN410029Multiplexer serial number:	ORYXHardware model number:	OX2-SRSoftware version number:	ORYX F/W v4,00 Oryx Data Collector v3.7.2.0data status	okinstallation	B5 Nyhavnadifferential loss correction	single-endedforward channel	channel 2reverse channel	N/Adate	2023/12/13time	20:57:13forward acquisition time	300,00reverse acquisition time	0,00gamma	499,1914k internal	0,3157k external	0,3157temperature offset calibration	1,0000default loss term (dB/km)	0,3820temperature slope calibration	1,0000multiplexer offset coefficient	1,0000multiplexer slope coefficient	1,0000fibre end	0,00T internal ref (°C)	10,38T ext. ref 1 (°C)	-6,56T ext. ref 2 (°C)	-6,62length (m)	temperature (°C)	Stokes	anti-Stokes-744,400	752,067	0,036	0,071
-743,385	-83,047	-0,304	-0,072
-742,371	800,000	0,105	0,219
-741,356	-172,948	-0,255	0,006
-740,342	1,735	0,209	0,111
-739,327	-67,531	-0,315	-0,090
-738,312	-200,000	0,021	0,146
-737,298	-199,674	-0,320	0,001
-736,283	97,008	0,112	0,095
-735,269	-111,136	-0,411	-0,061
-734,254	58,738	0,198	0,143
-733,239	2,343	-0,451	-0,240
-732,225	47,620	0,145	0,100
-731,210	800,000	-0,059	0,163
-730,196	-50,937	-0,096	0,033
-729,181	-200,000	0,020	-0,139
-728,167	-200,000	-0,040	-0,180
-727,152	714,163	-0,088	-0,173
-726,137	35,074	0,043	0,028
-725,123	-12,832	-0,148	-0,071
-724,108	258,010	-0,101	-0,129
-723,094	155,004	-0,115	-0,116
-722,079	-153,978	-0,083	0,004
-721,064	800,000	0,017	0,050
-720,050	-63,358	-0,228	0,069
-719,035	800,000	0,026	0,056
-718,021	95,765	-0,070	0,059
-717,006	138,742	0,016	0,016
-715,991	-105,406	-0,141	-0,023
-714,977	35,193	-0,068	0,044
-713,962	-200,000	0,003	0,161
-712,948	10,250	0,069	0,039
-711,933	-63,571	-0,032	0,009
-710,918	-200,000	0,010	0,075
-709,904	189,366	-0,066	-0,073
-708,889	-177,055	-0,161	0,003
-707,875	39,747	-0,026	0,017
-706,860	22,970	-0,121	0,073
-705,845	437,653	0,042	-0,068
-704,831	-200,000	-0,022	0,074
-703,816	71,468	-0,053	-0,041
-702,802	800,000	-0,055	-0,114
-701,787	121,392	0,019	-0,017
-700,772	98,807	0,179	-0,152
-699,758	-200,000	0,036	-0,144
-698,743	-88,562	0,088	-0,019
-697,729	166,917	-0,044	0,046
-696,714	-46,688	0,013	-0,005
-695,699	-200,000	0,002	-0,151
-694,685	-25,531	-0,126	-0,055
-693,670	-181,199	-0,059	0,001
-692,656	-108,520	-0,076	0,012
-691,641	-200,000	-0,006	0,150
-690,627	-200,000	-0,003	0,088
-689,612	800,000	0,017	-0,051
-688,597	-176,571	-0,087	0,002
-687,583	-200,000	-0,004	0,108
-686,568	221,815	-0,083	-0,098
-685,554	-137,411	-0,058	0,005
-684,539	-200,000	-0,019	0,111
-683,524	116,779	-0,060	0,054
-682,510	-83,293	0,112	0,026
-681,495	-128,074	-0,042	-0,004
-680,481	387,346	-0,114	0,173
-679,466	265,070	-0,095	-0,122
-678,451	800,000	-0,031	0,090
-677,437	-105,253	-0,034	-0,006
-676,422	-110,660	-0,142	-0,021
-675,408	-26,589	-0,036	-0,016
-674,393	75,241	-0,080	0,062
-673,378	114,207	-0,064	-0,057
-672,364	-59,689	-0,120	-0,037
-671,349	597,297	0,056	-0,103
-670,335	27,839	0,126	0,078
-669,320	220,673	-0,010	-0,012
-668,305	74,927	0,041	-0,032
-667,291	-7,555	-0,045	0,022
-666,276	-177,541	-0,204	-0,004
-665,262	800,000	0,031	-0,087
-664,247	449,908	0,024	0,038
-663,232	564,471	-0,016	-0,029
-662,218	800,000	-0,046	-0,099
-661,203	-91,277	-0,035	0,007
-660,189	800,000	-0,045	-0,098
-659,174	102,714	-0,066	0,057
-658,159	161,242	0,029	-0,030
-657,145	800,000	-0,047	0,101
-656,130	-65,339	0,143	0,042
-655,116	-71,852	-0,234	-0,064
-654,101	103,957	-0,061	0,053
-653,086	-200,000	0,019	0,134
-652,072	-134,862	-0,108	0,009
-651,057	-200,000	-0,014	-0,153
-650,043	48,054	-0,205	-0,141
-649,028	800,000	-0,047	0,109
-648,014	309,033	-0,049	0,067
-646,999	155,036	-0,054	0,055
-645,984	66,181	-0,026	0,019
-644,970	165,182	-0,063	0,066
-643,955	-200,000	-0,014	0,098
-642,941	-90,792	-0,069	0,014
-641,926	495,884	-0,088	0,150
-640,911	-92,942	-0,066	0,013
-639,897	-35,214	0,053	0,021
-638,882	-200,000	0,011	0,042
-637,868	-130,300	-0,050	0,005
-636,853	-200,000	0,002	0,021
-635,838	-75,223	-0,090	-0,023
-634,824	433,422	-0,011	-0,018
-633,809	250,415	0,090	-0,113
-632,795	-129,502	0,068	0,007
-631,780	77,924	0,061	-0,048
-630,765	-145,985	0,034	-0,002
-629,751	1,246	-0,078	-0,041
-628,736	23,920	-0,056	-0,034
-627,722	-42,194	-0,061	-0,023
-626,707	800,000	-0,066	-0,149
-625,692	-62,380	0,013	0,004
-624,678	-200,000	0,000	0,059
-623,663	340,118	-0,030	-0,043
-622,649	-200,000	-0,023	-0,099
-621,634	50,265	-0,064	-0,045
-620,619	-117,011	0,146	0,019
-619,605	24,896	-0,043	0,026
-618,590	58,119	-0,030	0,022
-617,576	36,534	-0,109	0,070
-616,561	332,758	0,099	0,141
-615,546	800,000	0,042	0,105
-614,532	-156,765	-0,138	0,006
-613,517	-55,945	-0,076	-0,025
-612,503	600,318	-0,058	0,106
-611,488	-200,000	0,028	0,165
-610,474	-39,210	-0,035	-0,013
-609,459	800,000	0,050	-0,129
-608,444	-200,000	-0,018	-0,208
-607,430	723,806	0,024	-0,046
-606,415	407,156	0,062	-0,097
-605,401	-90,888	-0,096	0,020
-604,386	-200,000	-0,007	0,098
-603,371	-150,025	0,045	-0,003
-602,357	800,000	0,014	-0,043
-601,342	-200,000	-0,005	-0,114
-600,328	800,000	0,021	-0,055
-599,313	106,578	-0,063	-0,055
-598,298	-16,056	-0,168	0,078
-597,284	-181,426	0,109	-0,002
-596,269	-200,000	0,024	0,079
-595,255	-23,717	0,064	-0,028
-594,240	165,019	-0,084	-0,087
-593,225	-189,946	-0,038	0,000
-592,211	-63,548	-0,117	-0,035
-591,196	-187,310	-0,088	0,001
-590,182	-200,000	0,004	-0,041
-589,167	-153,130	0,047	0,002
-588,152	152,758	0,021	-0,021
-587,138	-200,000	-0,030	0,175
-586,123	-121,258	-0,036	0,004
-585,109	-200,000	0,014	-0,217
-584,094	100,349	-0,007	-0,006
-583,079	-200,000	-0,025	0,114
-582,065	-200,000	-0,017	0,159
-581,050	800,000	0,021	0,065
-580,036	-200,000	-0,002	0,112
-579,021	-177,048	-0,121	-0,002
-578,006	767,073	0,039	-0,077
-576,992	-190,355	0,122	0,001
-575,977	800,000	-0,057	-0,164
-574,963	800,000	0,066	0,179
-573,948	-200,000	0,031	0,153
-572,934	-73,166	0,041	-0,011
-571,919	-200,000	0,013	-0,074
-570,904	49,920	-0,102	-0,071
-569,890	-161,312	0,134	-0,005
-568,875	-29,237	-0,061	-0,026
-567,861	-200,000	0,005	0,041
-566,846	-48,218	0,042	-0,015
-565,831	-84,344	-0,101	-0,023
-564,817	209,832	0,044	-0,051
-563,802	800,000	-0,051	-0,124
-562,788	-200,000	-0,012	-0,092
-561,773	-63,013	-0,024	0,007
-560,758	800,000	-0,029	0,071
-559,744	45,333	-0,010	-0,007
-558,729	-114,687	0,090	-0,012
-557,715	-69,975	-0,124	-0,034
-556,700	125,703	-0,085	0,079
-555,685	800,000	0,014	-0,041
-554,671	800,000	-0,027	0,070
-553,656	70,899	0,040	0,030
-552,642	229,808	-0,083	0,100
-551,627	162,246	0,098	-0,101
-550,612	744,636	0,018	0,035
-549,598	418,705	-0,046	-0,072
-548,583	798,700	-0,063	-0,127
-547,569	446,888	0,037	0,059
-546,554	-200,000	-0,007	0,117
-545,539	-200,000	-0,002	-0,087
-544,525	800,000	-0,015	0,042
-543,510	426,399	-0,076	0,121
-542,496	800,000	0,022	0,056
-541,481	-200,000	0,017	-0,134
-540,466	-200,000	0,015	0,120
-539,452	50,657	0,019	0,013
-538,437	-88,611	-0,079	-0,017
-537,423	-200,000	-0,017	0,081
-536,408	349,318	-0,038	-0,056
-535,393	-56,182	0,031	0,010
-534,379	82,249	-0,106	0,084
-533,364	-29,919	-0,175	0,072
-532,350	800,000	0,035	0,088
-531,335	373,622	0,040	0,060
-530,321	-79,416	0,080	0,020
-529,306	33,982	-0,114	-0,072
-528,291	-200,000	0,008	-0,121
-527,277	668,989	-0,058	-0,110
-526,262	-145,911	-0,038	-0,002
-525,248	20,317	-0,018	-0,010
-524,233	-72,675	-0,097	-0,026
-523,218	-200,000	0,012	0,073
-522,204	-83,412	0,117	0,027
-521,189	-13,012	-0,098	0,046
-520,175	800,000	-0,029	-0,086
-519,160	399,700	0,082	-0,126
-518,145	-89,021	-0,080	0,017
-517,131	-79,489	0,092	0,022
-516,116	51,830	0,035	-0,024
-515,102	-154,481	0,024	0,001
-514,087	-200,000	-0,020	-0,075
-513,072	201,607	-0,048	-0,054
-512,058	88,375	-0,040	-0,032
-511,043	-172,159	0,109	-0,003
-510,029	72,643	0,045	0,034
-509,014	201,715	-0,112	0,126
-507,999	55,630	0,071	0,050
-506,985	-9,487	-0,064	-0,031
-505,970	-200,000	0,001	0,033
-504,956	59,374	-0,011	0,008
-503,941	141,651	0,054	0,052
-502,926	-137,675	0,122	0,010
-501,912	117,228	-0,066	-0,059
-500,897	-200,000	-0,004	0,040
-499,883	-200,000	-0,016	0,091
-498,868	149,903	-0,025	-0,025
-497,853	-200,000	0,026	-0,113
-496,839	-200,000	0,006	0,054
-495,824	46,003	0,128	0,087
-494,810	-200,000	0,018	0,060
-493,795	222,416	-0,043	0,051
-492,781	-84,528	0,110	-0,025
-491,766	-119,585	-0,185	-0,023
-490,751	6,791	-0,139	-0,075
-489,737	-73,664	0,102	-0,027
-488,722	800,000	0,014	0,038
-487,708	379,830	0,047	0,070
-486,693	561,997	0,048	0,085
-485,678	292,300	0,027	0,036
-484,664	-200,000	-0,004	-0,096
-483,649	-200,000	-0,051	-0,178
-482,635	1,265	-0,086	-0,045
-481,620	-195,770	-0,046	-0,000
-480,605	800,000	0,018	-0,043
-479,591	800,000	0,037	0,092
-478,576	51,165	-0,073	0,050
-477,562	-2,082	-0,046	0,023
-476,547	-98,968	-0,076	-0,014
-475,532	-74,617	-0,098	0,026
-474,518	-7,432	0,101	-0,050
-473,503	233,133	-0,042	0,050
-472,489	240,563	0,013	-0,016
-471,474	211,546	0,023	-0,027
-470,459	800,000	-0,024	-0,053
-469,445	-137,740	-0,195	0,016
-468,430	25,814	-0,014	-0,008
-467,416	-70,227	-0,051	0,014
-466,401	-100,269	0,055	-0,010
-465,386	-200,000	0,026	-0,125
-464,372	150,938	-0,050	0,050
-463,357	149,916	0,026	-0,025
-462,343	172,106	0,057	0,060
-461,328	17,825	-0,032	0,019
-460,313	-55,059	0,121	-0,040
-459,299	-35,803	-0,055	0,022
-458,284	-65,621	-0,138	0,040
-457,270	172,005	0,121	0,127
-456,255	124,511	0,043	-0,039
-455,241	-200,000	0,004	-0,030
-454,226	-200,000	0,000	-0,096
-453,211	-200,000	0,003	-0,064
-452,197	-200,000	0,005	-0,024
-451,182	85,747	0,048	-0,038
-450,168	-149,218	-0,075	0,004
-449,153	-36,928	0,085	0,033
-448,138	-200,000	-0,035	-0,155
-447,124	800,000	-0,058	-0,123
-446,109	297,186	0,020	0,027
-445,095	328,213	0,057	-0,080
-444,080	-99,417	0,084	0,015
-443,065	-200,000	-0,006	0,040
-442,051	800,000	0,023	0,059
-441,036	80,403	-0,074	-0,058
-440,022	-200,000	0,023	-0,163
-439,007	800,000	-0,028	-0,089
-437,992	-56,489	0,132	0,043
-436,978	-3,229	-0,029	0,014
-435,963	105,549	0,040	-0,034
-434,949	-200,000	0,010	0,036
-433,934	800,000	0,020	0,053
-432,919	-146,358	-0,069	-0,004
-431,905	36,330	-0,086	0,055
-430,890	800,000	0,049	-0,132
-429,876	144,426	0,048	0,047
-428,861	-139,165	0,082	-0,006
-427,846	60,784	0,026	0,019
-426,832	800,000	0,010	0,025
-425,817	27,677	-0,154	-0,094
-424,803	7,084	-0,056	0,030
-423,788	15,975	0,135	-0,077
-422,773	-200,000	0,012	-0,086
-421,759	-37,491	-0,109	-0,042
-420,744	800,000	-0,009	0,020
-419,730	-200,000	-0,021	0,080
-418,715	-200,000	-0,009	-0,114
-417,701	800,000	-0,010	-0,031
-416,686	-200,000	-0,013	0,116
-415,671	281,129	0,082	0,106
-414,657	-200,000	0,011	0,162
-413,642	-70,969	-0,130	-0,035
-412,628	-200,000	-0,052	-0,224
-411,613	365,915	-0,071	-0,105
-410,598	54,017	-0,061	0,043
-409,584	-200,000	0,016	-0,141
-408,569	-200,000	0,007	-0,030
-407,555	800,000	0,056	0,132
-406,540	-89,606	-0,117	0,025
-405,525	129,475	0,075	-0,070
-404,511	294,656	0,064	-0,085
-403,496	76,435	-0,117	-0,090
-402,482	-197,990	-0,030	-0,000
-401,467	-164,439	0,119	0,004
-400,452	-200,000	-0,022	-0,095
-399,438	226,700	-0,107	0,127
-398,423	239,251	-0,056	0,068
-397,409	-141,124	-0,119	0,009
-396,394	381,524	0,009	0,013
-395,379	800,000	-0,016	-0,044
-394,365	129,027	0,058	0,054
-393,350	7,546	0,058	0,032
-392,336	621,851	0,034	0,062
-391,321	-176,763	-0,055	-0,001
-390,306	-52,555	0,037	0,013
-389,292	62,731	-0,087	-0,063
-388,277	165,945	0,094	0,096
-387,263	-200,000	0,013	0,110
-386,248	466,716	0,023	-0,037
-385,233	787,540	0,014	-0,029
-384,219	800,000	-0,028	-0,078
-383,204	-83,290	-0,191	-0,044
-382,190	25,556	0,024	-0,014
-381,175	455,776	-0,034	0,054
-380,160	-51,893	0,096	0,032
-379,146	33,907	-0,053	-0,034
-378,131	593,197	-0,041	0,074
-377,117	653,651	0,039	0,073
-376,102	800,000	0,040	-0,088
-375,088	36,040	-0,065	-0,042
-374,073	800,000	0,037	-0,099
-373,058	-42,478	0,050	-0,018
-372,044	-82,359	0,073	-0,017
-371,029	800,000	-0,041	-0,086
-370,015	211,367	-0,079	-0,090
-369,000	93,149	-0,063	-0,052
-367,985	723,461	0,034	0,066
-366,971	-183,900	0,210	-0,003
-365,956	800,000	0,047	-0,115
-364,942	17,423	0,116	0,067
-363,927	89,289	-0,062	0,050
-362,912	800,000	-0,036	0,085
-361,898	34,813	-0,030	0,019
-360,883	14,323	0,090	0,051
-359,869	-168,294	0,168	0,005
-358,854	-200,000	0,019	-0,104
-357,839	-25,909	0,093	0,039
-356,825	-47,668	0,046	0,016
-355,810	-39,960	0,062	-0,024
-354,796	151,519	0,081	-0,080
-353,781	-200,000	-0,023	-0,153
-352,766	-200,000	0,027	-0,110
-351,752	-171,025	-0,117	-0,003
-350,737	25,769	0,064	-0,039
-349,723	800,000	-0,039	0,082
-348,708	136,125	-0,084	0,080
-347,693	179,183	0,108	-0,115
-346,679	-97,381	-0,159	-0,030
-345,664	-200,000	-0,016	-0,088
-344,650	207,110	0,066	0,075
-343,635	42,563	-0,102	-0,067
-342,620	800,000	0,065	0,135
-341,606	-20,074	-0,041	0,018
-340,591	-200,000	0,007	0,078
-339,577	800,000	0,043	0,132
-338,562	-33,247	-0,146	0,059
-337,548	-0,056	0,075	0,039
-336,533	-23,135	-0,022	-0,010
-335,518	43,868	-0,109	0,072
-334,504	-34,154	0,141	-0,056
-333,489	-62,076	0,076	0,023
-332,475	-200,000	-0,007	-0,049
-331,460	-200,000	0,000	-0,047
-330,445	449,056	0,047	-0,076
-329,431	266,861	0,042	0,054
-328,416	782,421	-0,053	0,106
-327,402	-200,000	-0,026	-0,132
-326,387	86,085	0,023	0,018
-325,372	-200,000	-0,007	0,064
-324,358	264,315	0,016	-0,020
-323,343	-116,696	-0,086	0,011
-322,329	-95,234	0,159	0,031
-321,314	-47,282	0,058	0,020
-320,299	558,085	0,037	0,064
-319,285	800,000	-0,039	0,095
-318,270	800,000	0,027	0,067
-317,256	431,569	-0,042	-0,067
-316,241	-200,000	-0,005	-0,022
-315,226	-200,000	-0,012	-0,053
-314,212	-34,177	0,137	0,054
-313,197	621,035	0,028	0,051
-312,183	-177,396	-0,123	0,002
-311,168	717,966	0,050	-0,096
-310,153	-94,662	-0,057	-0,011
-309,139	249,674	0,038	-0,047
-308,124	800,000	-0,021	0,051
-307,110	40,508	0,074	-0,048
-306,095	-152,792	0,150	-0,008
-305,080	-70,002	0,048	0,013
-304,066	-23,887	-0,112	0,048
-303,051	-143,122	-0,018	-0,001
-302,037	-200,000	-0,004	0,030
-301,022	-46,843	0,108	0,038
-300,008	23,320	-0,059	-0,035
-298,993	-92,477	0,095	0,019
-297,978	-200,000	0,002	-0,121
-296,964	-200,000	0,004	0,013
-295,949	25,545	-0,071	-0,043
-294,935	379,035	-0,031	-0,046
-293,920	-111,111	0,113	0,017
-292,905	751,025	0,066	0,130
-291,891	800,000	0,035	0,099
-290,876	-200,000	-0,002	-0,012
-289,862	-52,474	0,049	0,016
-288,847	246,048	-0,073	-0,089
-287,832	54,426	0,117	-0,082
-286,818	-119,813	-0,089	-0,011
-285,803	-111,227	0,216	0,032
-284,789	462,183	0,036	-0,058
-283,774	135,264	0,074	0,070
-282,759	-200,000	-0,000	-0,066
-281,745	-45,934	0,068	0,024
-280,730	-200,000	-0,018	0,066
-279,716	-200,000	0,008	-0,059
-278,701	-95,746	0,119	0,023
-277,686	-200,000	-0,023	0,107
-276,672	99,225	0,036	0,030
-275,657	-200,000	0,011	0,036
-274,643	16,124	-0,124	0,071
-273,628	-200,000	-0,040	-0,135
-272,613	-8,481	0,118	-0,057
-271,599	-35,060	-0,088	0,035
-270,584	-110,977	-0,114	-0,017
-269,570	175,252	0,100	0,105
-268,555	60,228	0,074	0,053
-267,540	77,357	-0,116	-0,089
-266,526	51,111	0,138	0,095
-265,511	-200,000	-0,020	0,109
-264,497	-200,000	-0,025	0,174
-263,482	-200,000	-0,002	-0,017
-262,467	-43,842	0,108	0,039
-261,453	117,961	0,119	0,106
-260,438	800,000	-0,026	0,073
-259,424	53,425	-0,128	0,089
-258,409	-200,000	0,001	-0,065
-257,395	548,008	0,028	0,049
-256,380	0,071	0,124	0,064
-255,365	-200,000	-0,007	-0,034
-254,351	137,462	-0,029	-0,027
-253,336	-34,314	-0,077	-0,030
-252,322	322,073	0,046	-0,063
-251,307	147,902	-0,029	0,028
-250,292	-158,446	-0,126	0,005
-249,278	-87,147	0,204	0,044
-248,263	577,932	0,015	0,027
-247,249	-70,949	0,065	-0,018
-246,234	-68,770	-0,100	0,028
-245,219	-113,177	0,107	-0,015
-244,205	-151,388	-0,133	-0,007
-243,190	253,771	0,050	-0,061
-242,176	404,902	-0,040	0,061
-241,161	-14,465	0,042	0,019
-240,146	-119,268	0,031	0,004
-239,132	79,698	-0,053	-0,041
-238,117	-200,000	0,013	-0,084
-237,103	-70,196	0,063	0,017
-236,088	-23,437	-0,041	-0,018
-235,073	222,095	0,118	0,137
-234,059	16,857	0,069	0,039
-233,044	-200,000	0,007	0,138
-232,030	-119,355	0,094	0,012
-231,015	156,060	0,023	-0,022
-230,000	-20,293	0,075	-0,033
-228,986	-200,000	-0,012	0,063
-227,971	-52,618	-0,020	-0,006
-226,957	20,423	0,064	0,037
-225,942	-108,163	-0,116	0,018
-224,927	115,091	-0,111	-0,098
-223,913	-200,000	-0,043	0,000
-222,898	-111,168	-0,119	-0,017
-221,884	800,000	0,035	-0,071
-220,869	-200,000	0,004	-0,092
-219,855	113,885	-0,069	0,060
-218,840	-200,000	0,022	0,094
-217,825	-39,387	-0,150	-0,057
-216,811	124,753	0,029	-0,027
-215,796	561,662	0,036	-0,062
-214,782	-18,257	-0,078	-0,035
-213,767	33,440	0,098	-0,061
-212,752	-153,548	0,047	-0,002
-211,738	800,000	0,035	0,090
-210,723	247,566	-0,050	-0,061
-209,709	-55,956	0,028	0,009
-208,694	-74,614	-0,133	-0,034
-207,679	800,000	0,031	-0,067
-206,665	800,000	0,033	0,096
-205,650	-200,000	-0,010	0,077
-204,636	317,656	0,069	0,094
-203,621	-95,971	0,099	0,019
-202,606	155,772	-0,060	0,060
-201,592	800,000	-0,040	-0,090
-200,577	15,175	-0,093	-0,053
-199,563	71,507	0,104	-0,078
-198,548	99,645	-0,082	0,069
-197,533	386,340	-0,016	0,025
-196,519	221,288	0,053	-0,062
-195,504	-200,000	-0,005	0,030
-194,490	800,000	0,097	-0,208
-193,475	71,080	0,054	-0,040
-192,460	-40,888	-0,047	0,018
-191,446	-200,000	-0,027	0,086
-190,431	-200,000	-0,003	0,012
-189,417	-200,000	0,008	0,148
-188,402	451,602	0,067	0,107
-187,387	229,757	0,039	-0,046
-186,373	-62,444	-0,095	-0,028
-185,358	-200,000	0,000	-0,030
-184,344	-66,152	0,030	-0,009
-183,329	800,000	-0,019	0,041
-182,315	-200,000	0,010	-0,087
-181,300	-200,000	0,010	-0,097
-180,285	168,351	-0,130	-0,134
-179,271	194,189	-0,075	-0,082
-178,256	782,342	0,009	-0,018
-177,242	-15,568	0,170	-0,078
-176,227	800,000	0,030	0,072
-175,212	-150,534	0,155	0,008
-174,198	53,975	0,119	0,083
-173,183	111,208	-0,078	-0,067
-172,169	8,701	-0,060	-0,032
-171,154	-74,328	0,066	-0,017
-170,139	-126,335	0,063	0,007
-169,125	448,908	0,024	0,039
-168,110	-134,099	0,042	0,004
-167,096	-87,464	-0,115	0,025
-166,081	-200,000	0,001	0,092
-165,066	48,316	-0,014	-0,010
-164,052	309,961	-0,083	-0,112
-163,037	65,599	0,046	-0,033
-162,023	-30,035	0,107	-0,044
-161,008	326,115	0,119	0,165
-159,993	-147,279	0,055	0,003
-158,979	-200,000	0,001	-0,102
-157,964	800,000	0,009	-0,024
-156,950	-132,102	-0,194	-0,018
-155,935	-51,172	0,057	-0,019
-154,920	350,647	0,092	-0,132
-153,906	-89,581	0,041	0,009
-152,891	-200,000	-0,017	0,198
-151,877	79,763	-0,094	-0,073
-150,862	61,623	0,085	0,061
-149,847	800,000	0,029	0,066
-148,833	-131,581	0,075	0,007
-147,818	-200,000	-0,010	0,042
-146,804	-15,114	0,040	-0,019
-145,789	-200,000	0,016	-0,057
-144,775	-115,967	0,036	-0,005
-143,760	65,066	-0,062	-0,045
-142,745	-185,384	-0,229	0,002
-141,731	-135,568	0,021	-0,002
-140,716	-200,000	-0,023	0,192
-139,702	-2,842	0,061	0,031
-138,687	270,261	-0,128	-0,162
-137,672	-122,840	0,063	0,007
-136,658	296,336	-0,080	-0,106
-135,643	-91,815	0,099	0,020
-134,629	-62,551	-0,121	-0,036
-133,614	82,567	-0,157	0,123
-132,599	91,672	-0,043	-0,035
-131,585	67,213	0,099	0,073
-130,570	93,238	-0,083	0,068
-129,556	171,308	-0,070	-0,072
-128,541	6,471	-0,220	0,117
-127,526	-22,819	0,038	-0,016
-126,512	-31,647	0,075	0,030
-125,497	625,055	-0,013	0,023
-124,483	-200,000	-0,005	0,162
-123,468	-9,664	0,079	0,038
-122,453	107,826	0,100	-0,086
-121,439	8,940	-0,204	-0,111
-120,424	-95,680	-0,109	-0,021
-119,410	-200,000	0,005	-0,031
-118,395	-29,391	-0,016	-0,006
