DTS Sentinel unit serial number:	SN410029Multiplexer serial number:	ORYXHardware model number:	OX2-SRSoftware version number:	ORYX F/W v4,00 Oryx Data Collector v3.7.2.0data status	okinstallation	B5 Nyhavnadifferential loss correction	single-endedforward channel	channel 2reverse channel	N/Adate	2023/12/14time	10:52:13forward acquisition time	300,00reverse acquisition time	0,00gamma	499,1914k internal	0,3161k external	0,3161temperature offset calibration	1,0000default loss term (dB/km)	0,3820temperature slope calibration	1,0000multiplexer offset coefficient	1,0000multiplexer slope coefficient	1,0000fibre end	0,00T internal ref (°C)	7,10T ext. ref 1 (°C)	-8,11T ext. ref 2 (°C)	-8,19length (m)	temperature (°C)	Stokes	anti-Stokes-744,400	-200,000	0,054	0,179
-743,385	-32,370	-0,388	-0,159
-742,371	-57,869	0,061	0,019
-741,356	-92,438	-0,418	-0,086
-740,342	-96,432	0,173	0,033
-739,327	-56,952	-0,472	-0,153
-738,312	-141,079	0,147	0,011
-737,298	-28,575	-0,381	-0,161
-736,283	-164,697	0,167	0,005
-735,269	-20,740	-0,335	-0,151
-734,254	-44,781	0,281	0,103
-733,239	-45,271	-0,683	-0,248
-732,225	26,914	0,295	0,182
-731,210	800,000	-0,059	0,147
-730,196	-200,000	0,015	0,132
-729,181	107,275	0,037	0,032
-728,167	-126,200	0,095	0,010
-727,152	-7,539	-0,073	0,036
-726,137	-150,593	-0,107	-0,006
-725,123	248,694	-0,106	-0,132
-724,108	-137,157	-0,121	0,010
-723,094	138,745	-0,042	-0,040
-722,079	37,040	-0,058	-0,038
-721,064	-200,000	-0,010	0,082
-720,050	335,980	0,057	-0,082
-719,035	-200,000	0,029	0,105
-718,021	121,309	-0,096	0,088
-717,006	-13,400	-0,176	-0,084
-715,991	8,997	-0,118	-0,065
-714,977	-50,231	0,082	-0,028
-713,962	800,000	-0,046	-0,102
-712,948	771,999	-0,103	0,208
-711,933	800,000	0,045	-0,106
-710,918	10,917	-0,194	0,109
-709,904	677,951	0,012	0,023
-708,889	-200,000	0,002	0,068
-707,875	102,595	-0,069	-0,060
-706,860	800,000	0,042	0,128
-705,845	-155,054	-0,168	-0,008
-704,831	-81,549	0,074	0,018
-703,816	-200,000	0,002	-0,007
-702,802	151,717	-0,103	0,103
-701,787	31,375	-0,020	0,012
-700,772	182,841	-0,042	0,046
-699,758	-200,000	-0,009	0,034
-698,743	-200,000	0,022	0,083
-697,729	690,420	0,037	0,072
-696,714	161,708	0,096	0,099
-695,699	-37,072	-0,063	0,025
-694,685	524,153	-0,050	-0,086
-693,670	-23,250	-0,136	0,060
-692,656	-200,000	-0,021	0,092
-691,641	-100,169	-0,028	-0,005
-690,627	800,000	0,021	0,043
-689,612	93,164	0,099	0,082
-688,597	29,404	0,022	0,014
-687,583	252,821	-0,040	0,051
-686,568	120,421	-0,105	-0,096
-685,554	365,853	0,066	-0,097
-684,539	-70,780	0,050	-0,014
-683,524	10,484	-0,032	0,018
-682,510	-28,315	0,119	0,050
-681,495	111,352	0,063	-0,056
-680,481	-200,000	-0,025	-0,111
-679,466	-200,000	-0,018	-0,059
-678,451	9,325	-0,136	-0,075
-677,437	-200,000	-0,004	-0,027
-676,422	130,273	0,173	0,163
-675,408	169,067	-0,070	0,074
-674,393	-200,000	-0,004	0,108
-673,378	59,610	0,094	-0,068
-672,364	800,000	-0,035	-0,078
-671,349	-200,000	-0,036	-0,137
-670,335	380,274	0,052	-0,078
-669,320	91,869	-0,063	-0,052
-668,305	-200,000	-0,012	-0,084
-667,291	-12,462	0,037	-0,018
-666,276	-200,000	-0,034	-0,115
-665,262	-200,000	-0,029	-0,104
-664,247	64,896	0,032	-0,024
-663,232	113,863	0,088	0,078
-662,218	656,227	0,022	0,042
-661,203	800,000	0,040	0,106
-660,189	244,232	-0,038	0,047
-659,174	-86,837	0,080	0,018
-658,159	148,799	-0,119	-0,118
-657,145	-66,616	-0,057	-0,017
-656,130	-78,290	0,088	0,022
-655,116	185,871	-0,044	0,048
-654,101	-144,907	-0,131	0,009
-653,086	612,130	-0,059	-0,109
-652,072	191,656	-0,091	-0,101
-651,057	210,464	-0,062	-0,071
-650,043	-7,572	0,079	-0,039
-649,028	-136,458	-0,012	0,001
-648,014	191,567	0,069	0,076
-646,999	-3,290	0,049	-0,025
-645,984	93,747	0,065	0,054
-644,970	370,325	0,031	0,046
-643,955	-165,256	-0,052	0,002
-642,941	191,545	-0,083	0,092
-641,926	308,782	-0,037	-0,051
-640,911	800,000	-0,019	0,048
-639,897	102,274	0,033	0,029
-638,882	302,595	0,061	-0,083
-637,868	-171,299	-0,019	0,000
-636,853	-200,000	0,004	-0,047
-635,838	205,275	-0,140	0,160
-634,824	-48,018	0,094	0,033
-633,809	689,938	0,078	0,151
-632,795	-200,000	0,028	0,111
-631,780	-66,589	-0,075	-0,022
-630,765	613,110	0,051	-0,093
-629,751	-10,404	-0,035	0,017
-628,736	-149,377	-0,123	0,007
-627,722	-108,706	0,038	0,006
-626,707	-85,866	-0,051	-0,012
-625,692	-200,000	0,018	0,147
-624,678	-200,000	0,014	-0,064
-623,663	-200,000	-0,020	0,093
-622,649	246,505	0,062	0,077
-621,634	88,586	-0,063	-0,051
-620,619	-14,122	-0,020	0,009
-619,605	-128,161	0,107	-0,011
-618,590	68,432	-0,056	0,042
-617,576	-200,000	-0,009	-0,067
-616,561	374,164	-0,010	0,014
-615,546	238,554	-0,046	0,057
-614,532	301,016	-0,097	-0,131
-613,517	800,000	0,034	0,107
-612,503	-200,000	0,001	0,025
-611,488	-29,559	0,010	-0,004
-610,474	-85,642	0,149	-0,034
-609,459	13,103	0,180	0,102
-608,444	631,391	-0,102	-0,190
-607,430	370,736	-0,028	0,041
-606,415	207,499	-0,035	-0,040
-605,401	-200,000	-0,028	-0,160
-604,386	249,291	-0,090	-0,112
-603,371	121,291	-0,051	0,046
-602,357	800,000	0,042	0,089
-601,342	-150,430	-0,026	0,001
-600,328	52,388	0,100	-0,070
-599,313	384,424	-0,051	0,077
-598,298	72,936	-0,036	-0,028
-597,284	-200,000	-0,041	0,217
-596,269	-76,813	0,092	-0,023
-595,255	-100,846	-0,111	-0,020
-594,240	-27,187	0,013	0,005
-593,225	251,998	-0,036	-0,046
-592,211	800,000	-0,032	-0,073
-591,196	800,000	0,051	0,113
-590,182	177,974	-0,019	-0,020
-589,167	-40,351	0,124	-0,047
-588,152	-114,861	0,156	0,022
-587,138	228,455	0,062	0,075
-586,123	-35,961	-0,086	0,034
-585,109	-76,674	-0,099	0,025
-584,094	800,000	0,021	-0,051
-583,079	460,048	0,020	-0,033
-582,065	67,631	-0,095	0,071
-581,050	28,544	-0,028	-0,018
-580,036	-38,338	-0,136	-0,052
-579,021	-200,000	0,014	-0,051
-578,006	-178,131	-0,106	-0,002
-576,992	-88,484	0,083	0,018
-575,977	231,653	0,051	0,062
-574,963	800,000	-0,019	0,041
-573,948	25,083	-0,028	0,017
-572,934	204,597	-0,046	-0,052
-571,919	151,125	0,033	0,032
-570,904	201,434	-0,044	0,050
-569,890	-136,533	0,032	-0,003
-568,875	22,246	-0,020	-0,012
-567,861	-200,000	0,024	0,101
-566,846	-200,000	-0,001	0,134
-565,831	-137,649	0,041	-0,003
-564,817	54,967	-0,059	-0,042
-563,802	800,000	-0,015	-0,033
-562,788	-141,713	-0,139	0,010
-561,773	-131,241	0,147	-0,014
-560,758	-200,000	0,004	0,095
-559,744	-84,250	0,108	-0,025
-558,729	-200,000	0,033	0,108
-557,715	800,000	-0,021	0,058
-556,700	11,163	-0,065	0,036
-555,685	-10,106	-0,070	0,034
-554,671	34,965	0,211	0,135
-553,656	-200,000	-0,011	0,069
-552,642	-200,000	0,011	-0,052
-551,627	272,583	0,055	0,071
-550,612	159,233	-0,033	-0,033
-549,598	178,753	-0,040	0,043
-548,583	632,828	0,086	-0,160
-547,569	800,000	0,023	-0,067
-546,554	327,280	0,035	-0,050
-545,539	800,000	0,014	-0,041
-544,525	800,000	0,077	-0,158
-543,510	-27,232	-0,068	-0,029
-542,496	800,000	-0,047	-0,151
-541,481	-200,000	0,021	-0,110
-540,466	800,000	0,029	-0,087
-539,452	-117,066	0,089	-0,012
-538,437	-200,000	-0,004	-0,034
-537,423	-200,000	-0,005	-0,025
-536,408	800,000	-0,050	-0,135
-535,393	-200,000	-0,020	0,068
-534,379	394,595	0,022	-0,034
-533,364	376,039	0,004	-0,007
-532,350	162,440	0,109	0,112
-531,335	230,611	0,045	0,054
-530,321	-200,000	0,026	0,246
-529,306	497,616	0,064	0,108
-528,291	-120,054	-0,097	-0,012
-527,277	-129,181	-0,110	0,011
-526,262	57,532	-0,096	-0,068
-525,248	-115,881	0,145	-0,020
-524,233	-136,284	-0,063	0,005
-523,218	-200,000	-0,005	0,059
-522,204	762,797	-0,041	-0,081
-521,189	-55,257	-0,073	-0,024
-520,175	-13,148	-0,050	0,023
-519,160	-200,000	-0,007	-0,089
-518,145	250,897	0,077	0,096
-517,131	41,249	0,079	-0,052
-516,116	-200,000	0,031	0,121
-515,102	-105,730	-0,138	-0,023
-514,087	-129,602	0,083	-0,008
-513,072	-78,809	-0,180	-0,044
-512,058	-110,948	-0,283	-0,042
-511,043	-200,000	-0,011	0,047
-510,029	163,774	0,057	0,058
-509,014	-200,000	0,000	0,033
-507,999	269,804	0,079	0,102
-506,985	92,820	0,087	0,072
-505,970	-200,000	0,018	-0,095
-504,956	-200,000	-0,028	-0,094
-503,941	-149,789	0,046	-0,003
-502,926	-55,536	-0,010	0,003
-501,912	800,000	-0,032	-0,065
-500,897	-200,000	-0,017	-0,057
-499,883	181,370	0,091	-0,097
-498,868	-33,944	0,018	0,007
-497,853	-11,476	-0,111	0,053
-496,839	-28,517	0,088	-0,037
-495,824	800,000	0,037	-0,111
-494,810	445,191	-0,024	0,038
-493,795	69,102	0,035	-0,026
-492,781	-200,000	-0,006	0,117
-491,766	-200,000	0,003	-0,028
-490,751	-200,000	0,012	-0,049
-489,737	-200,000	-0,012	0,063
-488,722	-24,849	0,080	0,034
-487,708	349,292	0,030	0,043
-486,693	-200,000	0,018	0,123
-485,678	-200,000	0,018	0,064
-484,664	199,012	-0,033	-0,037
-483,649	-131,345	0,145	-0,014
-482,635	15,108	-0,029	0,016
-481,620	-1,793	0,037	0,019
-480,605	31,509	0,047	0,029
-479,591	-158,539	-0,044	-0,002
-478,576	800,000	-0,061	-0,130
-477,562	39,988	-0,048	0,031
-476,547	395,310	0,056	0,085
-475,532	587,948	-0,074	0,133
-474,518	387,820	0,078	-0,118
-473,503	-79,909	0,088	0,021
-472,489	-33,737	-0,074	0,030
-471,474	374,522	0,023	-0,035
-470,459	-84,372	-0,134	0,031
-469,445	203,456	0,032	0,037
-468,430	272,414	0,034	-0,044
-467,416	-122,281	0,141	-0,017
-466,401	-200,000	-0,005	0,047
-465,386	84,714	0,048	-0,039
-464,372	800,000	0,045	0,137
-463,357	-6,577	-0,048	-0,024
-462,343	800,000	0,045	-0,100
-461,328	-200,000	-0,012	-0,142
-460,313	510,207	0,048	-0,081
-459,299	-200,000	-0,000	-0,006
-458,284	220,542	-0,043	0,050
-457,270	-126,811	-0,131	-0,014
-456,255	283,471	-0,033	-0,043
-455,241	-200,000	-0,015	-0,058
-454,226	-200,000	-0,011	0,044
-453,211	-200,000	0,007	0,133
-452,197	178,454	0,077	0,082
-451,182	-200,000	0,010	0,088
-450,168	-69,448	-0,079	0,022
-449,153	122,801	-0,174	-0,158
-448,138	-200,000	0,034	-0,219
-447,124	-16,839	-0,137	0,063
-446,109	46,111	-0,079	-0,053
-445,095	518,262	0,044	0,076
-444,080	-200,000	0,035	0,165
-443,065	-31,839	-0,095	-0,039
-442,051	-200,000	0,009	0,042
-441,036	-200,000	-0,006	-0,130
-440,022	543,881	-0,018	0,031
-439,007	137,913	0,098	-0,094
-437,992	-200,000	-0,013	0,123
-436,978	-200,000	-0,000	0,134
-435,963	155,412	0,035	0,035
-434,949	445,437	-0,062	-0,099
-433,934	135,122	0,094	0,089
-432,919	24,309	0,094	-0,056
-431,905	9,780	-0,091	-0,050
-430,890	-2,694	-0,089	-0,045
-429,876	800,000	0,026	0,080
-428,861	-200,000	-0,024	0,137
-427,846	513,247	-0,065	0,110
-426,832	7,714	0,045	0,024
-425,817	-200,000	-0,036	-0,145
-424,803	722,759	-0,014	-0,028
-423,788	345,297	0,087	0,124
-422,773	271,827	0,067	0,087
-421,759	-200,000	-0,008	-0,041
-420,744	221,946	-0,070	0,082
-419,730	-200,000	-0,010	-0,145
-418,715	-71,449	-0,039	-0,011
-417,701	800,000	-0,031	0,074
-416,686	91,627	-0,080	0,066
-415,671	62,163	0,102	0,074
-414,657	588,164	0,072	0,129
-413,642	-4,565	0,078	-0,039
-412,628	257,873	-0,051	-0,064
-411,613	800,000	0,015	-0,031
-410,598	-200,000	0,019	-0,120
-409,584	-159,476	-0,039	0,002
-408,569	164,584	0,135	0,139
-407,555	-200,000	-0,006	0,038
-406,540	-200,000	-0,019	-0,162
-405,525	-144,468	-0,105	-0,007
-404,511	43,439	-0,120	-0,080
-403,496	117,236	-0,103	-0,092
-402,482	1,347	-0,050	-0,026
-401,467	-200,000	0,019	0,065
-400,452	461,886	-0,071	0,115
-399,438	-200,000	-0,007	-0,033
-398,423	153,579	0,089	0,089
-397,409	300,171	-0,077	0,104
-396,394	113,119	0,100	-0,088
-395,379	800,000	-0,026	0,062
-394,365	-27,065	-0,124	0,052
-393,350	50,548	0,061	0,042
-392,336	51,839	-0,040	0,028
-391,321	15,549	-0,051	-0,029
-390,306	67,311	0,118	-0,087
-389,292	-200,000	0,000	0,035
-388,277	24,054	0,026	0,015
-387,263	183,147	-0,112	0,121
-386,248	220,439	-0,047	0,055
-385,233	413,057	-0,056	0,087
-384,219	-200,000	0,042	0,150
-383,204	329,223	0,072	-0,100
-382,190	184,554	-0,052	-0,056
-381,175	60,647	0,104	0,075
-380,160	800,000	-0,053	0,122
-379,146	800,000	-0,012	-0,027
-378,131	-200,000	-0,006	0,068
-377,117	162,944	0,062	0,063
-376,102	232,088	0,043	-0,051
-375,088	209,096	-0,044	-0,050
-374,073	83,152	0,029	-0,023
-373,058	800,000	0,050	0,117
-372,044	52,223	0,119	0,082
-371,029	130,553	0,056	0,053
-370,015	-200,000	0,010	-0,034
-369,000	800,000	0,036	0,096
-367,985	121,548	0,129	-0,117
-366,971	-200,000	-0,034	-0,130
-365,956	2,342	-0,067	0,035
-364,942	-116,612	0,186	0,025
-363,927	800,000	0,036	0,075
-362,912	-70,096	0,084	0,023
-361,898	-200,000	0,004	-0,060
-360,883	429,391	-0,089	-0,139
-359,869	-200,000	0,008	0,069
-358,854	51,218	0,012	-0,008
-357,839	-24,869	-0,038	-0,016
-356,825	-20,555	-0,109	0,048
-355,810	62,263	0,073	0,053
-354,796	472,579	-0,048	-0,078
-353,781	288,473	-0,032	-0,042
-352,766	-35,139	-0,086	-0,034
-351,752	-44,570	0,133	0,048
-350,737	-46,896	0,022	0,008
-349,723	391,129	-0,009	0,014
-348,708	800,000	-0,021	-0,053
-347,693	60,978	-0,092	0,066
-346,679	702,264	0,022	-0,042
-345,664	-153,503	-0,150	-0,007
-344,650	4,476	-0,031	0,016
-343,635	800,000	-0,043	-0,104
-342,620	165,319	-0,073	-0,075
-341,606	213,241	0,009	0,011
-340,591	-200,000	0,004	-0,077
-339,577	480,946	0,063	-0,104
-338,562	-200,000	0,018	-0,072
-337,548	75,992	0,078	-0,060
-336,533	800,000	-0,004	-0,013
-335,518	-135,382	0,069	0,006
-334,504	-200,000	-0,020	0,154
-333,489	-200,000	0,004	-0,064
-332,475	-84,546	-0,174	-0,039
-331,460	223,156	-0,024	-0,028
-330,445	-20,406	-0,085	-0,038
-329,431	-36,147	0,039	0,015
-328,416	-87,893	-0,098	-0,021
-327,402	-171,935	-0,038	0,001
-326,387	347,131	0,027	-0,038
-325,372	-85,905	-0,056	-0,013
-324,358	-44,476	-0,054	0,019
-323,343	-200,000	0,002	0,007
-322,329	-20,141	0,086	-0,038
-321,314	19,109	0,124	0,072
-320,299	-200,000	0,000	-0,096
-319,285	78,139	0,050	0,039
-318,270	88,524	0,067	-0,054
-317,256	800,000	0,023	-0,064
-316,241	312,779	0,010	0,014
-315,226	647,662	-0,057	-0,106
-314,212	-74,082	0,156	0,041
-313,197	-200,000	0,033	0,115
-312,183	133,699	-0,115	-0,108
-311,168	-200,000	-0,017	0,070
-310,153	-200,000	-0,011	0,043
-309,139	-115,803	-0,092	0,012
-308,124	145,610	0,045	0,044
-307,110	76,547	0,069	-0,053
-306,095	16,429	-0,085	-0,049
-305,080	-62,094	0,061	0,018
-304,066	-200,000	0,001	-0,028
-303,051	-82,565	-0,155	-0,036
-302,037	-200,000	-0,019	-0,085
-301,022	-115,477	0,113	-0,015
-300,008	12,041	0,074	-0,041
-298,993	106,026	0,146	0,125
-297,978	-69,288	0,024	-0,007
-296,964	-72,654	0,096	-0,026
-295,949	-105,972	-0,065	0,011
-294,935	40,078	-0,057	0,037
-293,920	-200,000	0,013	-0,110
-292,905	800,000	-0,010	0,026
-291,891	-200,000	0,016	0,079
-290,876	800,000	0,012	-0,034
-289,862	95,233	-0,042	-0,034
-288,847	562,570	-0,095	-0,167
-287,832	-77,744	0,081	0,020
-286,818	50,705	0,057	-0,039
-285,803	347,445	-0,004	0,005
-284,789	85,035	0,089	0,070
-283,774	-200,000	-0,022	0,082
-282,759	242,722	-0,025	0,030
-281,745	98,202	-0,079	-0,066
-280,730	322,838	-0,024	-0,033
-279,716	800,000	0,010	0,028
-278,701	-53,545	0,080	0,026
-277,686	239,867	-0,032	0,038
-276,672	105,134	0,022	0,019
-275,657	78,682	-0,087	-0,067
-274,643	44,125	-0,121	0,080
-273,628	-81,851	0,125	-0,029
-272,613	-200,000	-0,019	0,160
-271,599	209,680	0,091	0,103
-270,584	-83,420	0,072	0,017
-269,570	136,275	-0,078	0,074
-268,555	-200,000	-0,041	0,136
-267,540	-16,058	0,064	0,029
-266,526	-15,562	0,064	-0,029
-265,511	-200,000	0,009	-0,072
-264,497	-4,419	0,053	-0,026
-263,482	-200,000	0,009	-0,032
-262,467	-53,880	0,080	0,026
-261,453	-200,000	0,007	-0,062
-260,438	800,000	0,067	-0,135
-259,424	-67,506	-0,142	-0,040
-258,409	339,974	0,041	-0,057
-257,395	135,903	-0,059	0,056
-256,380	19,885	-0,102	-0,059
-255,365	-200,000	-0,005	-0,102
-254,351	-55,807	0,105	-0,034
-253,336	-120,353	0,102	-0,012
-252,322	-7,768	-0,098	-0,048
-251,307	440,279	0,034	-0,054
-250,292	276,165	-0,053	-0,068
-249,278	3,943	0,115	0,060
-248,263	398,393	0,035	0,053
-247,249	-200,000	0,007	-0,075
-246,234	-200,000	0,011	-0,079
-245,219	98,858	0,112	0,093
-244,205	-32,498	-0,151	-0,061
-243,190	508,662	-0,020	0,034
-242,176	-73,112	0,072	0,019
-241,161	29,303	0,077	-0,047
-240,146	116,155	0,066	-0,058
-239,132	21,234	-0,103	0,060
-238,117	6,011	-0,125	0,066
-237,103	145,787	-0,082	0,080
-236,088	-200,000	-0,004	-0,092
-235,073	-134,102	0,203	-0,018
-234,059	-200,000	-0,017	0,068
-233,044	-200,000	0,030	-0,107
-232,030	800,000	0,040	-0,108
-231,015	-87,496	-0,048	-0,010
-230,000	-41,568	0,124	-0,046
-228,986	288,226	-0,032	-0,042
-227,971	800,000	-0,036	0,084
-226,957	98,088	-0,070	-0,058
-225,942	-46,014	0,049	0,017
-224,927	167,620	-0,124	0,128
-223,913	225,909	-0,114	-0,134
-222,898	-123,221	0,115	0,013
-221,884	164,560	-0,056	0,057
-220,869	186,802	0,058	0,062
-219,855	-47,443	-0,009	-0,003
-218,840	254,279	0,107	0,133
-217,825	786,921	0,053	-0,105
-216,811	800,000	-0,047	-0,107
-215,796	595,705	0,044	-0,079
-214,782	-52,217	-0,114	0,038
-213,767	293,863	-0,054	-0,071
-212,752	800,000	0,047	0,107
-211,738	-200,000	0,080	0,000
-210,723	-200,000	0,002	-0,071
-209,709	-200,000	-0,034	-0,191
-208,694	-6,198	-0,149	-0,073
-207,679	584,741	-0,065	-0,115
-206,665	-200,000	-0,022	0,103
-205,650	-58,975	-0,088	-0,027
-204,636	-200,000	-0,005	0,041
-203,621	305,768	-0,043	-0,058
-202,606	-24,292	0,085	0,036
-201,592	800,000	0,065	-0,174
-200,577	800,000	-0,065	-0,144
-199,563	76,404	-0,058	-0,044
-198,548	470,045	0,049	-0,080
-197,533	27,401	0,048	-0,029
-196,519	468,108	0,042	-0,069
-195,504	800,000	-0,039	-0,106
-194,490	132,675	0,025	-0,023
-193,475	-164,821	-0,035	0,001
-192,460	-200,000	-0,002	-0,013
-191,446	-56,940	0,057	0,018
-190,431	-73,407	0,096	0,025
-189,417	-87,764	-0,055	0,012
-188,402	-84,922	0,096	0,022
-187,387	800,000	-0,038	0,095
-186,373	334,966	0,023	-0,033
-185,358	710,065	-0,044	-0,083
-184,344	-200,000	-0,016	0,142
-183,329	-148,365	-0,078	0,005
-182,315	800,000	0,025	0,077
-181,300	351,627	0,037	-0,054
-180,285	-200,000	-0,079	0,000
-179,271	125,563	-0,068	-0,062
-178,256	800,000	0,020	-0,045
-177,242	800,000	0,030	0,077
-176,227	-7,372	0,027	0,013
-175,212	560,886	0,047	-0,082
-174,198	-33,502	-0,077	-0,031
-173,183	326,013	-0,065	0,090
-172,169	439,853	0,051	-0,080
-171,154	169,996	-0,106	-0,109
-170,139	-35,188	0,012	0,005
-169,125	313,976	-0,036	0,049
-168,110	-200,000	0,009	-0,071
-167,096	800,000	0,010	0,023
-166,081	-44,467	-0,091	-0,033
-165,066	800,000	-0,073	0,154
-164,052	-89,531	0,115	-0,024
-163,037	296,213	-0,036	0,048
-162,023	-200,000	-0,005	0,071
-161,008	79,212	0,130	-0,100
-159,993	542,492	-0,031	0,054
-158,979	-72,588	-0,013	-0,003
-157,964	-125,961	-0,063	-0,007
-156,950	-58,296	-0,064	0,020
-155,935	-200,000	-0,028	0,130
-154,920	-17,321	0,202	-0,091
-153,906	128,780	0,034	-0,031
-152,891	120,596	0,004	0,004
-151,877	443,879	0,075	-0,119
-150,862	-200,000	0,005	-0,024
-149,847	-22,226	0,081	-0,035
-148,833	-137,523	0,053	0,004
-147,818	800,000	0,055	0,147
-146,804	-8,647	0,035	0,017
-145,789	-29,872	0,049	0,020
-144,775	79,771	0,076	0,059
-143,760	-200,000	-0,007	-0,036
-142,745	57,070	-0,082	-0,058
-141,731	800,000	0,057	0,114
-140,716	-53,674	0,071	-0,023
-139,702	58,596	0,166	0,117
-138,687	-37,789	-0,160	-0,061
-137,672	-200,000	-0,011	-0,116
-136,658	191,081	-0,093	0,100
-135,643	-83,498	-0,034	0,008
-134,629	201,657	-0,102	0,113
-133,614	-200,000	0,004	-0,035
-132,599	-2,966	-0,097	0,049
-131,585	147,780	0,115	-0,111
-130,570	800,000	-0,105	-0,210
-129,556	800,000	0,029	-0,083
-128,541	-3,334	-0,123	-0,061
-127,526	800,000	0,045	0,114
-126,512	-200,000	0,019	-0,088
-125,497	-108,997	0,127	-0,019
-124,483	195,829	0,105	-0,115
-123,468	132,397	-0,038	-0,035
-122,453	-23,045	-0,050	0,021
-121,439	-101,988	-0,105	0,018
-120,424	-200,000	-0,003	-0,025
-119,410	-121,534	0,089	0,011
