DTS Sentinel unit serial number:	SN410029Multiplexer serial number:	ORYXHardware model number:	OX2-SRSoftware version number:	ORYX F/W v4,00 Oryx Data Collector v3.7.2.0data status	okinstallation	B5 Nyhavnadifferential loss correction	single-endedforward channel	channel 2reverse channel	N/Adate	2023/12/13time	13:57:13forward acquisition time	300,00reverse acquisition time	0,00gamma	499,1914k internal	0,3161k external	0,3161temperature offset calibration	1,0000default loss term (dB/km)	0,3820temperature slope calibration	1,0000multiplexer offset coefficient	1,0000multiplexer slope coefficient	1,0000fibre end	0,00T internal ref (°C)	14,82T ext. ref 1 (°C)	-1,13T ext. ref 2 (°C)	-1,40length (m)	temperature (°C)	Stokes	anti-Stokes-744,400	324,029	0,011	-0,015
-743,385	-170,085	-0,290	0,007
-742,371	800,000	0,041	0,119
-741,356	-184,448	-0,210	0,002
-740,342	-73,878	0,104	-0,028
-739,327	-59,353	-0,201	-0,063
-738,312	-200,000	0,005	0,089
-737,298	196,702	-0,148	-0,167
-736,283	-200,000	0,041	0,137
-735,269	-79,163	-0,164	0,041
-734,254	16,009	-0,037	-0,022
-733,239	-36,390	-0,434	-0,172
-732,225	-118,918	0,187	0,024
-731,210	-200,000	0,002	0,182
-730,196	-27,037	-0,104	0,044
-729,181	-200,000	0,023	-0,138
-728,167	800,000	-0,059	-0,134
-727,152	-102,726	-0,139	0,024
-726,137	-111,299	-0,127	0,019
-725,123	-51,920	-0,144	0,049
-724,108	109,002	-0,074	0,065
-723,094	41,029	-0,107	-0,071
-722,079	-200,000	-0,048	-0,169
-721,064	-116,975	0,095	-0,013
-720,050	57,498	-0,113	0,081
-719,035	-200,000	0,032	0,107
-718,021	52,800	0,096	0,068
-717,006	800,000	0,020	-0,041
-715,991	119,806	-0,159	-0,145
-714,977	800,000	-0,042	0,105
-713,962	800,000	0,025	0,072
-712,948	-200,000	0,008	-0,047
-711,933	-200,000	0,023	-0,125
-710,918	130,284	-0,048	0,045
-709,904	303,259	-0,056	-0,076
-708,889	-200,000	0,024	-0,153
-707,875	-200,000	-0,011	-0,070
-706,860	-75,669	-0,119	0,031
-705,845	-200,000	-0,019	-0,113
-704,831	369,142	-0,022	-0,033
-703,816	419,440	-0,020	0,031
-702,802	19,271	-0,038	-0,022
-701,787	-200,000	-0,000	0,027
-700,772	311,134	-0,045	-0,062
-699,758	-90,481	0,106	0,022
-698,743	50,313	0,070	0,048
-697,729	238,430	0,066	0,081
-696,714	-123,159	-0,027	-0,003
-695,699	-200,000	0,013	-0,046
-694,685	-15,961	-0,087	0,040
-693,670	-56,821	-0,157	-0,051
-692,656	-200,000	0,010	-0,176
-691,641	-200,000	-0,000	-0,054
-690,627	46,129	-0,078	0,053
-689,612	-139,500	0,049	0,004
-688,597	-200,000	-0,002	0,009
-687,583	-200,000	-0,010	-0,075
-686,568	21,939	0,102	-0,061
-685,554	-200,000	0,017	0,064
-684,539	-8,128	-0,119	-0,059
-683,524	781,802	0,025	-0,051
-682,510	175,178	-0,066	-0,070
-681,495	27,949	-0,026	0,016
-680,481	161,061	-0,038	0,039
-679,466	800,000	-0,042	-0,105
-678,451	800,000	0,025	-0,070
-677,437	5,276	0,086	-0,046
-676,422	-200,000	-0,010	0,109
-675,408	580,869	0,026	0,047
-674,393	800,000	-0,040	0,100
-673,378	223,391	-0,025	-0,030
-672,364	-105,213	0,064	-0,011
-671,349	-200,000	0,008	0,080
-670,335	-108,905	0,056	-0,009
-669,320	-97,570	0,088	0,017
-668,305	93,731	0,043	0,036
-667,291	-159,787	-0,053	0,002
-666,276	-132,454	-0,055	-0,005
-665,262	-200,000	-0,013	-0,049
-664,247	29,970	0,055	-0,034
-663,232	-141,192	-0,162	-0,012
-662,218	253,713	0,056	-0,071
-661,203	283,164	-0,034	-0,045
-660,189	633,903	0,046	-0,086
-659,174	-117,788	-0,094	0,012
-658,159	0,671	-0,040	-0,021
-657,145	389,885	0,026	0,040
-656,130	800,000	-0,053	-0,130
-655,116	-200,000	-0,006	0,062
-654,101	422,754	-0,005	-0,007
-653,086	-200,000	-0,009	-0,077
-652,072	800,000	0,005	0,015
-651,057	-81,972	-0,045	0,011
-650,043	-89,065	-0,153	-0,033
-649,028	-200,000	0,024	-0,125
-648,014	-200,000	0,017	0,056
-646,999	800,000	0,016	-0,046
-645,984	457,681	-0,013	-0,021
-644,970	20,229	0,059	0,035
-643,955	520,549	0,033	0,057
-642,941	728,647	-0,040	-0,079
-641,926	12,579	-0,039	0,022
-640,911	-147,901	-0,084	-0,005
-639,897	-131,453	0,062	0,006
-638,882	-200,000	-0,017	-0,081
-637,868	300,690	-0,044	-0,060
-636,853	800,000	-0,028	-0,072
-635,838	-25,840	-0,056	-0,024
-634,824	139,856	-0,108	-0,105
-633,809	800,000	0,031	0,063
-632,795	87,381	0,047	0,038
-631,780	800,000	0,036	0,078
-630,765	25,175	0,089	-0,054
-629,751	63,797	0,036	-0,026
-628,736	-117,178	-0,091	0,012
-627,722	-0,820	0,108	-0,056
-626,707	-28,489	0,004	0,002
-625,692	-151,754	0,116	0,006
-624,678	687,924	0,007	0,014
-623,663	-200,000	-0,001	-0,039
-622,649	371,413	-0,029	0,044
-621,634	324,093	-0,041	-0,058
-620,619	-200,000	-0,025	-0,097
-619,605	-82,697	-0,034	-0,008
-618,590	15,408	0,090	0,051
-617,576	-200,000	0,019	0,142
-616,561	112,537	-0,077	0,068
-615,546	587,910	-0,045	0,081
-614,532	-200,000	0,010	-0,102
-613,517	800,000	-0,038	-0,115
-612,503	-114,180	-0,184	-0,026
-611,488	800,000	-0,016	-0,048
-610,474	-57,331	-0,058	-0,018
-609,459	66,260	-0,086	0,064
-608,444	242,846	-0,041	0,050
-607,430	800,000	-0,020	-0,053
-606,415	-200,000	0,007	-0,080
-605,401	-200,000	0,000	-0,088
-604,386	176,585	-0,060	0,064
-603,371	62,576	0,041	-0,030
-602,357	800,000	0,046	-0,097
-601,342	-86,276	-0,159	0,036
-600,328	-200,000	-0,007	-0,061
-599,313	130,061	-0,063	0,059
-598,298	219,893	-0,049	-0,057
-597,284	-67,748	0,112	-0,032
-596,269	800,000	0,019	0,054
-595,255	390,174	0,027	0,042
-594,240	46,001	-0,100	0,068
-593,225	800,000	0,037	-0,079
-592,211	269,810	0,089	-0,114
-591,196	-157,572	-0,146	-0,006
-590,182	328,086	-0,009	-0,013
-589,167	800,000	-0,020	0,046
-588,152	800,000	0,032	0,073
-587,138	282,538	0,051	0,068
-586,123	-31,868	-0,185	-0,076
-585,109	800,000	0,030	-0,083
-584,094	182,839	0,065	-0,071
-583,079	-200,000	-0,032	-0,131
-582,065	-24,641	0,074	0,032
-581,050	-94,349	0,070	0,014
-580,036	-200,000	-0,029	-0,148
-579,021	182,727	0,076	-0,083
-578,006	-200,000	0,012	-0,164
-576,992	244,750	0,051	-0,063
-575,977	225,507	-0,090	-0,107
-574,963	800,000	0,029	0,066
-573,948	225,599	-0,108	0,128
-572,934	157,133	-0,044	-0,044
-571,919	-200,000	-0,001	-0,071
-570,904	-200,000	0,002	-0,061
-569,890	150,869	-0,119	-0,118
-568,875	-13,004	0,092	0,044
-567,861	553,354	-0,028	-0,050
-566,846	-44,353	-0,153	0,056
-565,831	382,933	0,037	-0,056
-564,817	-200,000	-0,004	0,117
-563,802	195,211	0,046	0,051
-562,788	3,638	-0,082	0,043
-561,773	-7,987	0,083	-0,041
-560,758	-200,000	-0,018	0,139
-559,744	184,988	0,116	0,126
-558,729	800,000	0,015	-0,038
-557,715	745,398	-0,033	-0,066
-556,700	-166,191	-0,077	0,002
-555,685	110,254	-0,028	0,024
-554,671	86,955	0,040	0,033
-553,656	-56,416	0,040	0,013
-552,642	354,892	-0,065	0,095
-551,627	-200,000	0,012	-0,055
-550,612	206,042	0,064	-0,073
-549,598	-200,000	0,010	-0,158
-548,583	-200,000	0,004	0,044
-547,569	79,433	0,041	-0,032
-546,554	800,000	0,040	0,096
-545,539	-32,106	0,011	0,005
-544,525	116,555	-0,021	-0,019
-543,510	-62,947	0,191	-0,057
-542,496	-25,352	-0,094	-0,040
-541,481	23,365	0,089	-0,053
-540,466	214,172	-0,025	0,029
-539,452	-58,124	0,138	0,044
-538,437	168,584	0,054	0,056
-537,423	800,000	0,022	0,046
-536,408	-200,000	-0,003	0,074
-535,393	-200,000	-0,015	0,068
-534,379	-23,216	-0,099	-0,044
-533,364	-93,646	0,043	0,009
-532,350	113,742	0,028	-0,024
-531,335	-200,000	-0,003	0,030
-530,321	104,019	0,088	0,075
-529,306	480,616	-0,071	-0,118
-528,291	-38,333	-0,050	-0,019
-527,277	-156,494	0,069	0,003
-526,262	-200,000	0,005	0,026
-525,248	-200,000	-0,029	0,113
-524,233	800,000	-0,032	-0,102
-523,218	30,050	0,199	-0,124
-522,204	-200,000	0,004	0,097
-521,189	-200,000	-0,002	-0,078
-520,175	171,048	0,046	-0,048
-519,160	-200,000	-0,014	0,064
-518,145	800,000	-0,014	-0,029
-517,131	191,976	-0,072	0,079
-516,116	-200,000	-0,017	0,105
-515,102	61,551	0,051	0,037
-514,087	800,000	0,028	-0,079
-513,072	49,573	-0,100	-0,068
-512,058	-132,527	-0,183	-0,017
-511,043	-200,000	0,005	0,049
-510,029	45,013	0,084	0,057
-509,014	800,000	0,063	0,167
-507,999	-200,000	-0,032	-0,162
-506,985	800,000	-0,050	-0,121
-505,970	58,842	0,076	-0,054
-504,956	193,224	0,015	-0,016
-503,941	-200,000	0,001	-0,025
-502,926	355,117	0,057	0,083
-501,912	615,664	-0,055	0,101
-500,897	52,870	-0,076	0,053
-499,883	-84,956	-0,070	-0,016
-498,868	-109,763	-0,044	-0,007
-497,853	123,642	-0,097	-0,089
-496,839	48,990	0,104	-0,071
-495,824	-116,115	-0,086	0,012
-494,810	158,525	0,059	-0,060
-493,795	615,281	-0,061	-0,111
-492,781	538,375	-0,065	-0,113
-491,766	242,974	-0,027	-0,033
-490,751	174,734	-0,044	-0,046
-489,737	380,307	-0,060	0,090
-488,722	800,000	-0,022	0,063
-487,708	-59,223	0,104	-0,033
-486,693	-66,136	0,072	-0,021
-485,678	35,464	0,100	0,064
-484,664	177,146	0,038	-0,041
-483,649	800,000	0,055	-0,163
-482,635	-45,989	-0,160	-0,057
-481,620	-4,360	0,056	0,028
-480,605	-20,898	-0,032	-0,014
-479,591	-43,795	-0,065	-0,024
-478,576	-200,000	0,010	0,115
-477,562	366,391	-0,079	-0,116
-476,547	68,277	-0,072	-0,054
-475,532	-67,044	-0,096	-0,027
-474,518	-200,000	0,014	0,070
-473,503	2,944	-0,042	-0,022
-472,489	-98,788	0,041	0,008
-471,474	-107,304	-0,071	-0,011
-470,459	-77,693	0,045	0,011
-469,445	-200,000	0,010	-0,057
-468,430	287,507	-0,041	-0,054
-467,416	-200,000	0,020	-0,121
-466,401	-94,768	0,049	0,010
-465,386	-58,972	0,128	-0,040
-464,372	-39,298	0,053	0,020
-463,357	-54,636	-0,090	-0,030
-462,343	800,000	0,053	-0,125
-461,328	-17,749	-0,064	0,029
-460,313	-200,000	-0,003	-0,218
-459,299	-35,533	0,067	0,026
-458,284	800,000	0,070	0,181
-457,270	-149,489	-0,118	-0,007
-456,255	-200,000	-0,022	-0,083
-455,241	-94,829	-0,087	0,017
-454,226	800,000	0,019	0,043
-453,211	794,929	-0,036	-0,072
-452,197	494,305	0,070	0,118
-451,182	-3,735	0,165	-0,083
-450,168	800,000	-0,034	0,089
-449,153	-95,170	-0,012	-0,002
-448,138	-14,429	-0,198	-0,093
-447,124	-200,000	0,009	-0,066
-446,109	800,000	-0,037	0,087
-445,095	31,529	0,135	-0,084
-444,080	-58,658	0,072	-0,023
-443,065	262,972	0,049	0,062
-442,051	800,000	-0,018	0,042
-441,036	76,155	-0,100	0,077
-440,022	-200,000	-0,003	-0,045
-439,007	-114,860	0,055	-0,008
-437,992	800,000	0,042	0,115
-436,978	-175,350	-0,026	0,001
-435,963	788,595	0,025	0,050
-434,949	-29,996	-0,057	-0,024
-433,934	283,277	-0,049	0,064
-432,919	-200,000	0,007	0,057
-431,905	74,162	-0,021	-0,016
-430,890	557,171	0,032	0,056
-429,876	118,021	0,029	-0,026
-428,861	-111,042	0,148	-0,022
-427,846	390,564	-0,060	0,090
-426,832	31,878	-0,152	-0,095
-425,817	-200,000	0,023	-0,087
-424,803	39,836	-0,106	0,069
-423,788	800,000	-0,039	0,080
-422,773	81,025	0,012	0,009
-421,759	-200,000	0,010	0,083
-420,744	-106,341	0,150	-0,024
-419,730	-200,000	-0,000	-0,114
-418,715	218,843	0,034	-0,039
-417,701	0,596	0,084	-0,044
-416,686	284,565	0,113	0,148
-415,671	800,000	-0,055	0,126
-414,657	-200,000	-0,007	0,080
-413,642	59,471	0,045	-0,033
-412,628	-200,000	-0,009	-0,069
-411,613	800,000	-0,037	-0,088
-410,598	-57,607	-0,080	0,025
-409,584	473,272	0,044	0,073
-408,569	-200,000	0,031	0,144
-407,555	148,878	-0,094	0,092
-406,540	-130,523	0,047	0,005
-405,525	606,798	-0,026	-0,048
-404,511	-141,501	-0,090	-0,007
-403,496	-200,000	0,013	-0,047
-402,482	262,236	-0,025	-0,032
-401,467	-200,000	0,034	0,131
-400,452	-43,583	0,063	-0,023
-399,438	-51,236	0,096	-0,032
-398,423	800,000	-0,045	0,118
-397,409	-49,110	-0,131	-0,045
-396,394	-200,000	-0,004	-0,019
-395,379	800,000	0,044	-0,093
-394,365	320,530	-0,060	-0,083
-393,350	-46,267	-0,047	0,017
-392,336	-80,076	-0,102	0,025
-391,321	31,537	0,062	0,039
-390,306	668,672	-0,073	-0,138
-389,292	13,061	0,027	-0,015
-388,277	-200,000	-0,012	-0,147
-387,263	300,779	0,068	0,091
-386,248	-119,461	0,066	-0,008
-385,233	-38,672	-0,111	-0,042
-384,219	-90,615	-0,027	-0,006
-383,204	-30,345	0,098	-0,040
-382,190	305,999	0,047	-0,063
-381,175	-200,000	-0,011	-0,042
-380,160	800,000	0,033	0,097
-379,146	-200,000	-0,021	0,077
-378,131	763,070	-0,042	0,082
-377,117	-84,099	-0,070	-0,016
-376,102	144,687	-0,051	-0,050
-375,088	-54,297	-0,072	0,023
-374,073	800,000	0,041	-0,106
-373,058	-200,000	-0,042	-0,142
-372,044	-25,349	0,091	-0,039
-371,029	800,000	-0,008	0,022
-370,015	100,179	0,109	0,091
-369,000	117,142	-0,035	0,031
-367,985	104,821	0,114	0,097
-366,971	-63,775	0,042	-0,012
-365,956	-106,279	0,186	-0,030
-364,942	-126,030	0,058	0,006
-363,927	800,000	0,101	0,226
-362,912	766,238	-0,018	0,036
-361,898	-176,843	0,065	0,001
-360,883	-200,000	0,006	-0,038
-359,869	-200,000	0,010	0,109
-358,854	371,673	0,040	-0,059
-357,839	800,000	-0,042	0,122
-356,825	-195,177	-0,090	0,000
-355,810	93,524	0,110	-0,090
-354,796	111,970	-0,098	-0,086
-353,781	-108,666	0,010	0,002
-352,766	-200,000	0,017	0,101
-351,752	113,477	-0,019	-0,017
-350,737	-43,512	0,099	0,036
-349,723	-62,517	-0,122	0,036
-348,708	98,263	0,069	0,058
-347,693	86,275	-0,020	-0,016
-346,679	-200,000	0,007	-0,188
-345,664	-92,824	-0,252	0,051
-344,650	-200,000	0,028	0,095
-343,635	15,008	-0,033	-0,019
-342,620	415,462	-0,003	0,004
-341,606	-9,022	0,051	-0,025
-340,591	71,949	0,086	-0,065
-339,577	-55,574	0,062	-0,020
-338,562	-140,373	0,056	-0,004
-337,548	187,801	0,028	-0,030
-336,533	-82,360	0,106	0,025
-335,518	-78,810	0,097	0,024
-334,504	68,584	-0,018	-0,013
-333,489	800,000	-0,058	-0,140
-332,475	-29,338	-0,067	-0,028
-331,460	-116,932	0,023	0,003
-330,445	800,000	0,066	-0,150
-329,431	-82,811	0,023	0,005
-328,416	-65,214	0,058	-0,017
-327,402	601,896	-0,073	0,132
-326,387	-200,000	0,021	0,137
-325,372	-200,000	-0,004	-0,101
-324,358	9,209	-0,097	0,053
-323,343	174,203	0,126	-0,132
-322,329	660,621	-0,054	0,102
-321,314	-200,000	0,014	0,088
-320,299	800,000	-0,012	-0,033
-319,285	42,083	-0,053	0,035
-318,270	-106,963	-0,088	-0,014
-317,256	28,451	-0,051	0,031
-316,241	-200,000	-0,001	-0,028
-315,226	410,433	-0,056	-0,086
-314,212	-200,000	-0,024	0,195
-313,197	122,568	0,018	-0,016
-312,183	800,000	0,020	-0,060
-311,168	725,640	-0,076	0,148
-310,153	-200,000	-0,019	0,102
-309,139	101,371	-0,056	0,047
-308,124	800,000	-0,019	0,053
-307,110	354,274	-0,045	-0,065
-306,095	-158,519	-0,048	0,002
-305,080	12,768	0,056	0,031
-304,066	-200,000	-0,002	-0,023
-303,051	42,803	-0,060	-0,039
-302,037	177,086	-0,084	-0,089
-301,022	26,220	-0,056	0,034
-300,008	-144,695	-0,070	0,005
-298,993	7,826	0,070	0,038
-297,978	383,320	-0,028	-0,041
-296,964	379,164	-0,082	0,121
-295,949	160,797	0,057	0,058
-294,935	610,110	0,018	0,032
-293,920	783,527	0,043	-0,086
-292,905	241,160	0,036	0,043
-291,891	742,082	0,015	0,028
-290,876	138,673	0,090	0,086
-289,862	57,646	-0,059	0,041
-288,847	235,450	0,081	-0,097
-287,832	-200,000	-0,034	-0,140
-286,818	800,000	0,007	-0,016
-285,803	-200,000	0,011	0,037
-284,789	106,875	-0,088	-0,076
-283,774	-146,432	0,029	0,002
-282,759	8,408	0,041	-0,022
-281,745	709,956	-0,039	-0,074
-280,730	800,000	0,018	-0,057
-279,716	241,357	0,127	0,153
-278,701	-40,237	-0,015	-0,006
-277,686	8,380	0,071	0,038
-276,672	577,435	-0,062	0,110
-275,657	800,000	-0,029	0,060
-274,643	601,433	-0,056	0,101
-273,628	-28,838	-0,136	-0,056
-272,613	718,124	0,071	0,136
-271,599	-51,280	0,056	0,019
-270,584	314,363	0,046	-0,062
-269,570	151,617	0,036	-0,035
-268,555	4,739	-0,108	-0,057
-267,540	713,788	-0,036	-0,069
-266,526	-200,000	0,005	-0,028
-265,511	-200,000	-0,030	0,140
-264,497	-36,176	0,144	0,056
-263,482	182,478	-0,075	0,080
-262,467	-81,535	0,030	-0,007
-261,453	-119,717	-0,057	-0,007
-260,438	65,934	0,063	-0,046
-259,424	338,299	0,120	0,170
-258,409	565,625	-0,008	-0,014
-257,395	-101,191	0,048	0,008
-256,380	81,512	0,040	0,032
-255,365	251,623	-0,078	0,097
-254,351	389,811	-0,021	-0,032
-253,336	-119,195	-0,083	-0,010
-252,322	-200,000	-0,020	-0,067
-251,307	599,779	-0,011	-0,019
-250,292	73,779	-0,112	0,084
-249,278	-154,486	0,112	0,005
-248,263	800,000	0,047	0,146
-247,249	-93,943	0,115	0,023
-246,234	-200,000	-0,008	0,074
-245,219	800,000	-0,032	-0,066
-244,205	66,440	0,046	-0,034
-243,190	-11,097	0,013	-0,006
-242,176	-97,366	-0,063	-0,012
-241,161	92,409	0,070	0,057
-240,146	-200,000	-0,005	-0,098
-239,132	800,000	-0,058	0,152
-238,117	-200,000	0,044	-0,151
-237,103	287,681	-0,106	-0,139
-236,088	800,000	0,046	-0,117
-235,073	-42,853	0,035	0,013
-234,059	-200,000	0,018	0,063
-233,044	-75,190	0,147	-0,038
-232,030	-18,973	-0,011	-0,005
-231,015	57,062	-0,023	0,016
-230,000	-121,606	-0,098	0,012
-228,986	180,525	0,045	0,047
-227,971	-200,000	0,007	0,021
-226,957	-200,000	0,021	0,091
-225,942	296,409	0,082	0,109
-224,927	800,000	0,018	0,055
-223,913	139,056	0,089	-0,084
-222,898	-200,000	0,005	-0,091
-221,884	5,674	0,027	0,014
-220,869	-200,000	0,005	-0,092
-219,855	125,579	-0,067	0,061
-218,840	122,934	-0,089	0,080
-217,825	-200,000	0,006	-0,043
-216,811	39,988	-0,081	0,052
-215,796	-153,597	-0,080	-0,004
-214,782	800,000	0,022	-0,051
-213,767	132,485	0,084	0,078
-212,752	581,375	-0,084	0,150
-211,738	35,452	0,125	0,079
-210,723	370,927	0,071	0,104
-209,709	45,410	-0,141	0,094
-208,694	-140,769	0,067	0,005
-207,679	270,638	-0,035	-0,045
-206,665	325,706	0,073	0,101
-205,650	-200,000	-0,016	0,173
-204,636	-200,000	-0,017	0,100
-203,621	19,513	0,011	0,006
-202,606	-75,414	0,061	0,016
-201,592	144,579	-0,086	-0,083
-200,577	-37,549	0,054	0,021
-199,563	7,706	-0,115	-0,062
-198,548	-200,000	0,017	0,154
-197,533	-137,089	0,091	0,007
-196,519	28,256	0,068	-0,041
-195,504	134,868	-0,043	0,040
-194,490	-157,287	-0,112	-0,005
-193,475	541,497	0,011	-0,019
-192,460	-200,000	-0,019	-0,095
-191,446	157,442	0,148	0,147
-190,431	-200,000	-0,003	-0,021
-189,417	-200,000	-0,009	-0,042
-188,402	-200,000	0,009	0,081
-187,387	-39,765	0,131	-0,049
-186,373	157,957	-0,044	-0,044
-185,358	-60,947	-0,103	0,031
-184,344	800,000	0,039	0,096
-183,329	89,172	0,079	0,064
-182,315	-200,000	-0,005	0,086
-181,300	800,000	-0,052	0,124
-180,285	1,478	0,135	0,070
-179,271	-200,000	0,041	-0,150
-178,256	625,300	0,043	-0,079
-177,242	-17,841	-0,086	-0,039
-176,227	-63,755	0,130	0,038
-175,212	-200,000	0,018	0,182
-174,198	-7,279	-0,094	-0,046
-173,183	800,000	-0,025	-0,055
-172,169	73,214	-0,043	-0,032
-171,154	183,034	-0,065	-0,069
-170,139	-200,000	0,023	-0,119
-169,125	-200,000	-0,009	0,059
-168,110	19,446	0,111	0,064
-167,096	119,938	-0,040	-0,036
-166,081	-200,000	-0,030	0,122
-165,066	800,000	-0,059	-0,166
-164,052	800,000	-0,031	-0,084
-163,037	79,092	0,066	0,051
-162,023	-43,381	0,021	0,008
-161,008	197,116	0,047	-0,052
-159,993	-12,991	-0,061	-0,028
-158,979	187,201	0,035	-0,038
-157,964	-200,000	-0,021	0,150
-156,950	250,163	0,120	-0,147
-155,935	-102,398	-0,150	-0,026
-154,920	184,183	0,016	0,017
-153,906	-33,606	-0,075	-0,030
-152,891	243,849	0,100	-0,122
-151,877	-200,000	-0,048	-0,194
-150,862	61,116	0,019	-0,014
-149,847	800,000	-0,022	0,059
-148,833	800,000	0,024	0,074
-147,818	-200,000	0,047	0,181
-146,804	-200,000	0,017	-0,067
-145,789	13,752	-0,054	-0,030
-144,775	189,875	-0,064	-0,069
-143,760	8,658	-0,058	-0,031
-142,745	-200,000	-0,005	-0,138
-141,731	-131,356	0,051	-0,005
-140,716	-91,583	-0,075	-0,015
-139,702	119,726	-0,005	0,005
-138,687	686,971	0,056	0,106
-137,672	-165,891	-0,106	-0,003
-136,658	-56,872	0,110	0,035
-135,643	800,000	-0,036	0,095
-134,629	-200,000	0,006	-0,088
-133,614	-91,005	0,178	-0,036
-132,599	-18,634	0,110	-0,049
-131,585	-10,060	-0,033	-0,016
-130,570	132,344	0,051	0,047
-129,556	47,958	-0,051	0,034
-128,541	-200,000	0,000	-0,078
-127,526	169,356	-0,066	0,067
-126,512	14,051	-0,068	-0,038
-125,497	-200,000	0,021	0,067
-124,483	-84,312	0,042	-0,010
-123,468	-200,000	0,003	-0,050
-122,453	-15,535	-0,141	-0,064
-121,439	487,710	-0,027	-0,045
-120,424	-200,000	0,008	0,040
-119,410	-78,801	0,123	0,030
