DTS Sentinel unit serial number:	SN410029Multiplexer serial number:	ORYXHardware model number:	OX2-SRSoftware version number:	ORYX F/W v4,00 Oryx Data Collector v3.7.2.0data status	okinstallation	B5 Nyhavnadifferential loss correction	single-endedforward channel	channel 2reverse channel	N/Adate	2023/12/11time	16:42:13forward acquisition time	300,00reverse acquisition time	0,00gamma	499,1914k internal	0,3165k external	0,3165temperature offset calibration	1,0000default loss term (dB/km)	0,3820temperature slope calibration	1,0000multiplexer offset coefficient	1,0000multiplexer slope coefficient	1,0000fibre end	0,00T internal ref (°C)	14,20T ext. ref 1 (°C)	-0,79T ext. ref 2 (°C)	-0,88length (m)	temperature (°C)	Stokes	anti-Stokes-744,400	-148,064	0,216	0,013
-743,385	-17,644	-0,285	0,131
-742,371	45,273	0,171	0,116
-741,356	-146,645	-0,179	-0,011
-740,342	-48,785	0,191	0,067
-739,327	-63,378	-0,371	0,112
-738,312	-106,898	0,150	-0,024
-737,298	-145,256	-0,305	-0,020
-736,283	343,288	0,016	-0,023
-735,269	63,053	-0,218	0,160
-734,254	272,833	-0,099	0,129
-733,239	13,400	-0,408	-0,232
-732,225	-118,111	0,196	-0,025
-731,210	-116,968	-0,089	0,012
-730,196	98,667	0,047	-0,040
-729,181	-176,543	-0,145	0,003
-728,167	174,217	0,023	-0,024
-727,152	800,000	-0,047	0,118
-726,137	17,108	-0,083	-0,048
-725,123	-121,006	-0,062	-0,008
-724,108	-200,000	-0,028	-0,192
-723,094	-58,471	-0,019	0,006
-722,079	285,042	-0,027	-0,036
-721,064	-200,000	0,021	-0,147
-720,050	-200,000	-0,023	-0,134
-719,035	-0,292	0,158	0,082
-718,021	140,410	0,115	-0,112
-717,006	773,365	0,016	0,032
-715,991	800,000	-0,094	-0,246
-714,977	-200,000	-0,006	0,066
-713,962	-200,000	0,026	-0,095
-712,948	-200,000	0,008	-0,070
-711,933	-164,520	0,103	0,003
-710,918	-12,353	-0,056	0,027
-709,904	-81,244	-0,057	-0,014
-708,889	-200,000	-0,015	0,096
-707,875	800,000	0,053	-0,137
-706,860	42,533	-0,109	-0,073
-705,845	73,978	-0,093	-0,072
-704,831	243,704	-0,034	0,043
-703,816	509,465	-0,059	0,102
-702,802	9,175	-0,043	-0,024
-701,787	87,540	-0,090	0,073
-700,772	-200,000	-0,003	-0,062
-699,758	66,485	-0,072	0,054
-698,743	-26,696	-0,112	0,048
-697,729	-29,492	-0,040	0,017
-696,714	800,000	-0,023	0,054
-695,699	452,654	0,049	-0,079
-694,685	70,530	0,120	0,091
-693,670	-200,000	0,001	-0,067
-692,656	64,854	0,129	-0,096
-691,641	101,822	-0,017	-0,014
-690,627	37,005	0,030	-0,019
-689,612	-134,041	-0,100	-0,009
-688,597	-50,053	-0,062	-0,021
-687,583	-133,898	-0,119	0,011
-686,568	800,000	-0,054	-0,120
-685,554	-59,190	0,070	0,022
-684,539	5,074	0,079	-0,042
-683,524	-6,950	0,097	-0,048
-682,510	10,973	-0,078	-0,044
-681,495	168,965	0,064	-0,067
-680,481	781,081	-0,037	-0,074
-679,466	800,000	-0,013	-0,030
-678,451	-15,661	-0,115	0,054
-677,437	737,680	0,076	-0,150
-676,422	426,163	0,087	-0,138
-675,408	44,286	-0,115	0,078
-674,393	550,586	0,024	0,042
-673,378	800,000	0,048	-0,151
-672,364	800,000	-0,029	-0,079
-671,349	-200,000	0,015	0,067
-670,335	800,000	0,036	-0,093
-669,320	233,186	0,108	0,130
-668,305	-29,307	-0,148	-0,062
-667,291	-9,387	0,138	-0,067
-666,276	105,270	0,044	-0,038
-665,262	602,845	-0,053	-0,097
-664,247	225,240	-0,051	-0,060
-663,232	-200,000	-0,000	-0,040
-662,218	800,000	-0,071	-0,209
-661,203	-47,814	0,068	0,024
-660,189	-10,773	0,077	0,037
-659,174	447,980	0,016	0,026
-658,159	28,354	0,074	0,046
-657,145	-197,704	-0,022	0,000
-656,130	-200,000	0,031	-0,104
-655,116	52,109	0,194	0,135
-654,101	-60,884	0,024	-0,007
-653,086	125,047	-0,065	-0,060
-652,072	-80,770	-0,149	-0,036
-651,057	-200,000	0,076	-0,271
-650,043	-200,000	0,026	-0,171
-649,028	-162,056	0,069	0,002
-648,014	-200,000	-0,003	0,191
-646,999	-200,000	0,024	0,216
-645,984	-110,620	-0,037	-0,006
-644,970	-142,355	-0,059	-0,004
-643,955	517,751	-0,054	0,093
-642,941	-168,598	-0,068	0,002
-641,926	87,255	-0,041	-0,033
-640,911	406,220	-0,022	-0,034
-639,897	-163,020	0,136	0,005
-638,882	-87,212	-0,150	0,033
-637,868	800,000	0,038	0,092
-636,853	-200,000	-0,012	-0,113
-635,838	390,478	0,034	-0,052
-634,824	-150,289	-0,076	-0,004
-633,809	219,018	-0,025	-0,029
-632,795	16,998	0,019	-0,011
-631,780	-70,191	0,043	-0,012
-630,765	-139,995	-0,049	-0,004
-629,751	-70,875	0,036	-0,010
-628,736	337,718	-0,072	-0,102
-627,722	800,000	-0,034	0,101
-626,707	298,348	-0,068	0,091
-625,692	-91,920	-0,119	-0,025
-624,678	-200,000	-0,032	0,122
-623,663	800,000	-0,036	0,111
-622,649	-200,000	-0,025	0,086
-621,634	-200,000	-0,003	-0,018
-620,619	-94,449	-0,109	-0,022
-619,605	-79,130	0,085	0,021
-618,590	39,587	-0,029	0,019
-617,576	535,567	-0,063	-0,110
-616,561	-69,392	0,174	-0,048
-615,546	-110,831	-0,015	-0,002
-614,532	-106,254	-0,045	0,007
-613,517	800,000	-0,049	-0,129
-612,503	145,197	-0,093	-0,092
-611,488	-134,648	-0,091	0,008
-610,474	-200,000	-0,001	0,198
-609,459	49,563	-0,036	0,025
-608,444	-39,691	-0,184	0,070
-607,430	-45,523	0,084	0,030
-606,415	16,247	0,133	-0,077
-605,401	27,701	-0,050	-0,030
-604,386	-79,535	0,079	0,019
-603,371	-34,324	0,061	0,024
-602,357	-200,000	-0,009	-0,049
-601,342	800,000	0,013	0,036
-600,328	138,996	0,027	-0,026
-599,313	-1,135	0,045	0,023
-598,298	86,284	0,070	0,056
-597,284	800,000	0,037	-0,113
-596,269	-32,926	-0,024	-0,010
-595,255	97,706	-0,071	0,060
-594,240	-75,235	-0,062	0,016
-593,225	646,797	-0,047	-0,089
-592,211	571,903	-0,124	-0,223
-591,196	-111,790	-0,114	-0,017
-590,182	-119,743	-0,063	0,008
-589,167	221,200	0,082	-0,096
-588,152	800,000	-0,012	0,025
-587,138	22,787	-0,073	-0,043
-586,123	-44,954	-0,100	0,036
-585,109	164,714	0,071	-0,073
-584,094	-20,574	-0,093	-0,041
-583,079	33,565	-0,094	-0,060
-582,065	-200,000	0,005	-0,039
-581,050	800,000	-0,022	-0,045
-580,036	301,662	-0,075	-0,101
-579,021	-2,195	-0,084	0,043
-578,006	-200,000	-0,025	-0,136
-576,992	777,103	0,023	-0,046
-575,977	-200,000	-0,045	-0,204
-574,963	306,740	-0,017	-0,023
-573,948	92,919	0,079	0,065
-572,934	800,000	-0,058	-0,127
-571,919	171,279	-0,028	0,029
-570,904	800,000	0,055	0,115
-569,890	-200,000	-0,007	0,026
-568,875	223,007	0,063	-0,074
-567,861	-191,828	0,138	-0,001
-566,846	122,304	0,051	0,046
-565,831	-20,746	-0,061	0,027
-564,817	718,914	-0,047	-0,092
-563,802	478,686	0,052	-0,086
-562,788	-43,547	0,136	-0,050
-561,773	-200,000	-0,032	-0,119
-560,758	-60,574	0,053	0,016
-559,744	800,000	0,084	0,190
-558,729	362,749	-0,024	-0,035
-557,715	-7,202	-0,183	0,090
-556,700	-179,471	-0,185	0,003
-555,685	639,126	-0,034	-0,064
-554,671	439,084	0,111	-0,178
-553,656	1,861	0,031	-0,016
-552,642	347,394	0,155	0,223
-551,627	800,000	-0,032	-0,101
-550,612	-112,062	-0,049	-0,007
-549,598	-18,211	-0,005	0,002
-548,583	248,579	-0,040	0,050
-547,569	-54,491	-0,067	-0,022
-546,554	-200,000	-0,015	0,104
-545,539	67,117	0,088	0,065
-544,525	800,000	-0,056	-0,118
-543,510	646,539	-0,061	-0,114
-542,496	-200,000	0,004	-0,097
-541,481	12,040	0,087	-0,049
-540,466	-18,842	0,036	0,016
-539,452	199,122	0,045	-0,051
-538,437	-71,981	0,128	-0,034
-537,423	2,284	0,082	0,043
-536,408	392,813	-0,074	0,112
-535,393	-43,674	-0,068	-0,025
-534,379	800,000	-0,026	0,074
-533,364	605,866	-0,038	0,070
-532,350	800,000	0,011	0,035
-531,335	127,646	0,091	-0,085
-530,321	-122,478	0,070	0,008
-529,306	-121,938	-0,097	0,011
-528,291	-19,592	-0,058	-0,026
-527,277	-96,061	-0,124	0,024
-526,262	-129,122	0,080	0,008
-525,248	-200,000	-0,009	0,046
-524,233	-90,175	-0,014	-0,003
-523,218	234,707	-0,040	0,049
-522,204	463,651	-0,054	-0,088
-521,189	-200,000	0,020	-0,081
-520,175	42,638	-0,094	0,062
-519,160	276,461	-0,081	-0,105
-518,145	196,986	-0,043	-0,048
-517,131	-183,169	0,094	-0,001
-516,116	92,453	0,034	-0,028
-515,102	-200,000	-0,010	0,052
-514,087	113,747	-0,024	-0,021
-513,072	14,317	0,033	0,019
-512,058	25,614	-0,100	-0,060
-511,043	721,671	-0,052	-0,102
-510,029	251,772	0,127	0,158
-509,014	371,122	-0,045	-0,067
-507,999	-131,335	-0,047	-0,004
-506,985	207,162	-0,055	-0,063
-505,970	-200,000	-0,002	-0,032
-504,956	800,000	0,045	0,104
-503,941	-200,000	0,004	-0,050
-502,926	173,813	0,072	0,076
-501,912	29,713	-0,086	0,053
-500,897	-65,764	-0,051	-0,015
-499,883	-23,906	0,178	0,077
-498,868	321,009	-0,083	-0,115
-497,853	-200,000	0,011	-0,042
-496,839	-77,668	-0,020	-0,005
-495,824	-135,030	0,096	0,008
-494,810	-75,745	0,128	-0,033
-493,795	-200,000	-0,009	-0,031
-492,781	-200,000	0,003	-0,157
-491,766	83,315	0,086	-0,068
-490,751	149,800	-0,083	0,082
-489,737	-41,197	-0,065	-0,024
-488,722	-118,693	0,080	-0,010
-487,708	-127,026	0,022	0,002
-486,693	800,000	-0,107	0,229
-485,678	189,500	-0,032	0,035
-484,664	-200,000	0,032	-0,139
-483,649	-79,420	-0,215	0,053
-482,635	131,413	0,060	-0,056
-481,620	263,429	-0,059	-0,075
-480,605	449,694	0,015	0,024
-479,591	-125,032	0,106	0,012
-478,576	98,720	0,070	-0,059
-477,562	-200,000	0,007	0,050
-476,547	484,111	0,045	-0,075
-475,532	36,574	-0,082	0,052
-474,518	41,403	0,084	0,055
-473,503	-64,717	0,148	0,043
-472,489	36,211	-0,103	-0,066
-471,474	-200,000	0,008	0,047
-470,459	-200,000	-0,026	0,104
-469,445	523,783	0,048	-0,083
-468,430	-75,519	-0,039	0,010
-467,416	-42,947	0,152	-0,056
-466,401	-200,000	0,038	0,140
-465,386	-200,000	0,010	-0,057
-464,372	-200,000	0,015	0,090
-463,357	-18,188	-0,157	0,071
-462,343	163,827	0,036	-0,037
-461,328	-61,782	-0,162	-0,049
-460,313	-200,000	-0,003	-0,106
-459,299	-200,000	0,031	0,109
-458,284	-200,000	-0,026	-0,121
-457,270	800,000	0,031	0,098
-456,255	207,630	-0,041	0,046
-455,241	473,660	-0,070	-0,116
-454,226	185,275	-0,060	0,065
-453,211	800,000	0,056	0,166
-452,197	-200,000	0,001	0,051
-451,182	-44,041	-0,105	0,038
-450,168	800,000	-0,033	0,073
-449,153	101,688	-0,025	-0,021
-448,138	784,551	-0,046	-0,093
-447,124	234,412	-0,068	0,081
-446,109	800,000	-0,026	-0,065
-445,095	-62,308	-0,087	-0,026
-444,080	-200,000	-0,003	0,111
-443,065	-97,456	0,107	0,020
-442,051	-200,000	-0,003	-0,105
-441,036	168,432	-0,045	-0,047
-440,022	-19,930	-0,160	-0,072
-439,007	530,306	0,079	0,137
-437,992	-79,963	0,091	0,022
-436,978	72,557	0,125	0,094
-435,963	115,002	0,140	-0,124
-434,949	-200,000	0,002	-0,082
-433,934	114,616	-0,095	0,084
-432,919	294,862	-0,065	-0,086
-431,905	-56,163	-0,033	-0,010
-430,890	-5,061	0,191	-0,095
-429,876	-115,306	-0,231	-0,031
-428,861	-110,740	-0,137	0,020
-427,846	-200,000	0,016	0,160
-426,832	-131,492	-0,172	0,016
-425,817	800,000	0,019	-0,053
-424,803	-32,473	-0,107	0,043
-423,788	65,544	0,029	0,021
-422,773	-59,609	0,145	0,045
-421,759	10,641	-0,063	0,035
-420,744	52,282	0,046	0,032
-419,730	800,000	-0,016	-0,039
-418,715	240,857	0,054	-0,065
-417,701	-14,622	-0,031	0,014
-416,686	-67,643	-0,166	-0,047
-415,671	-109,670	0,071	0,011
-414,657	753,088	0,030	0,059
-413,642	-49,452	-0,030	0,010
-412,628	283,941	-0,126	-0,165
-411,613	-64,829	0,081	0,024
-410,598	423,962	-0,039	0,062
-409,584	331,506	0,057	0,079
-408,569	-200,000	-0,006	-0,134
-407,555	-200,000	-0,014	0,075
-406,540	315,593	-0,036	0,049
-405,525	192,137	0,019	0,020
-404,511	12,123	-0,193	-0,107
-403,496	-6,821	-0,050	-0,025
-402,482	-130,106	-0,051	-0,005
-401,467	-200,000	-0,018	0,108
-400,452	800,000	0,034	0,070
-399,438	-200,000	-0,006	-0,063
-398,423	-148,051	-0,124	0,007
-397,409	375,689	-0,040	-0,059
-396,394	159,150	0,058	-0,059
-395,379	-200,000	0,015	0,074
-394,365	19,729	0,112	0,065
-393,350	45,509	0,128	-0,085
-392,336	-53,717	-0,122	-0,040
-391,321	-200,000	-0,040	-0,139
-390,306	-5,795	0,040	-0,020
-389,292	-170,482	-0,014	0,000
-388,277	180,407	0,053	-0,057
-387,263	206,789	0,068	-0,077
-386,248	153,808	0,105	0,105
-385,233	-200,000	-0,012	0,104
-384,219	-33,122	0,044	0,018
-383,204	125,378	-0,088	-0,081
-382,190	800,000	0,055	-0,149
-381,175	-77,623	0,037	-0,009
-380,160	-200,000	0,021	0,102
-379,146	179,751	0,069	-0,073
-378,131	654,517	0,055	0,102
-377,117	-87,128	-0,079	0,017
-376,102	-108,119	-0,214	0,033
-375,088	672,494	0,075	0,142
-374,073	460,616	-0,007	0,011
-373,058	800,000	0,077	-0,155
-372,044	-200,000	0,005	-0,131
-371,029	-200,000	0,013	0,077
-370,015	800,000	-0,024	0,051
-369,000	-200,000	-0,018	-0,119
-367,985	800,000	-0,042	0,097
-366,971	-200,000	0,014	-0,128
-365,956	-200,000	0,013	-0,049
-364,942	-118,147	0,100	-0,013
-363,927	-21,358	0,194	0,086
-362,912	147,885	0,056	0,054
-361,898	311,024	0,079	-0,108
-360,883	-104,555	-0,036	-0,006
-359,869	-200,000	0,001	0,006
-358,854	443,531	-0,051	-0,081
-357,839	-25,007	0,089	0,038
-356,825	-200,000	0,011	0,151
-355,810	-200,000	-0,002	0,101
-354,796	248,277	0,080	-0,098
-353,781	637,943	-0,015	-0,028
-352,766	-84,061	-0,118	0,027
-351,752	39,924	0,017	0,011
-350,737	0,568	0,034	-0,017
-349,723	73,000	0,100	0,076
-348,708	306,155	-0,072	-0,097
-347,693	594,545	0,041	0,074
-346,679	-165,372	-0,086	-0,003
-345,664	800,000	-0,024	-0,073
-344,650	-200,000	0,018	-0,118
-343,635	-110,043	-0,038	-0,006
-342,620	-141,404	-0,027	0,002
-341,606	800,000	-0,040	0,127
-340,591	-200,000	-0,010	0,076
-339,577	313,355	0,044	0,061
-338,562	-135,199	-0,086	0,007
-337,548	-200,000	-0,017	0,199
-336,533	174,004	0,022	0,023
-335,518	342,745	0,030	-0,042
-334,504	-139,978	-0,106	0,008
-333,489	-78,247	-0,064	0,016
-332,475	374,296	0,077	-0,114
-331,460	86,885	0,122	-0,097
-330,445	-200,000	-0,033	-0,115
-329,431	-200,000	-0,004	-0,034
-328,416	632,164	0,050	0,091
-327,402	-148,081	-0,046	-0,003
-326,387	390,344	0,042	0,063
-325,372	201,649	-0,124	-0,139
-324,358	-200,000	0,003	-0,036
-323,343	800,000	-0,030	0,090
-322,329	5,961	0,206	0,110
-321,314	34,988	0,096	0,061
-320,299	731,127	-0,023	-0,044
-319,285	203,672	0,042	0,047
-318,270	6,721	-0,080	-0,043
-317,256	-200,000	-0,010	-0,049
-316,241	79,035	-0,066	-0,051
-315,226	506,535	0,055	0,093
-314,212	-200,000	-0,018	0,130
-313,197	-104,087	0,104	0,017
-312,183	-172,883	0,148	0,003
-311,168	-200,000	-0,025	-0,097
-310,153	-66,836	-0,084	0,024
-309,139	-200,000	-0,017	-0,073
-308,124	724,404	0,069	-0,134
-307,110	-43,267	0,186	0,068
-306,095	781,959	0,070	0,140
-305,080	-200,000	0,010	-0,061
-304,066	91,738	0,051	0,041
-303,051	-200,000	-0,047	-0,157
-302,037	90,733	-0,076	0,062
-301,022	482,745	0,048	-0,079
-300,008	48,323	0,083	-0,056
-298,993	209,362	-0,105	-0,119
-297,978	800,000	0,010	-0,024
-296,964	228,539	0,096	-0,113
-295,949	-200,000	-0,003	0,027
-294,935	314,938	0,086	-0,117
-293,920	-77,310	0,147	0,037
-292,905	-131,211	-0,096	0,009
-291,891	-142,492	0,026	-0,002
-290,876	19,599	0,028	-0,016
-289,862	430,097	-0,004	0,006
-288,847	800,000	-0,042	-0,103
-287,832	800,000	0,046	0,134
-286,818	-200,000	0,019	-0,116
-285,803	-137,034	-0,078	0,006
-284,789	-200,000	-0,001	-0,077
-283,774	-200,000	-0,014	0,053
-282,759	-108,121	-0,156	-0,024
-281,745	217,880	0,019	0,022
-280,730	800,000	0,072	-0,192
-279,716	-200,000	-0,022	-0,096
-278,701	800,000	0,044	0,111
-277,686	31,899	0,220	0,136
-276,672	-200,000	-0,006	0,164
-275,657	276,274	-0,016	-0,020
-274,643	322,536	0,091	-0,125
-273,628	-200,000	0,000	0,031
-272,613	800,000	-0,078	0,157
-271,599	800,000	-0,033	0,073
-270,584	559,586	-0,044	0,077
-269,570	-73,931	-0,048	0,012
-268,555	800,000	0,042	0,089
-267,540	0,368	0,117	-0,060
-266,526	-81,713	-0,109	-0,025
-265,511	-200,000	-0,014	0,106
-264,497	800,000	0,025	0,072
-263,482	-147,105	0,214	0,013
-262,467	-200,000	-0,005	-0,063
-261,453	110,267	0,108	0,094
-260,438	-113,493	-0,071	0,010
-259,424	-200,000	0,027	0,102
-258,409	-112,596	-0,053	0,008
-257,395	-200,000	-0,008	0,052
-256,380	-52,835	0,083	0,028
-255,365	-120,389	0,088	0,011
-254,351	299,443	0,089	-0,119
-253,336	7,625	-0,056	0,030
-252,322	494,207	0,059	0,097
-251,307	800,000	0,025	-0,053
-250,292	-200,000	0,017	-0,073
-249,278	800,000	-0,021	0,063
-248,263	275,722	-0,083	0,107
-247,249	800,000	-0,022	-0,059
-246,234	26,237	-0,020	0,012
-245,219	-47,431	-0,135	-0,047
-244,205	-34,310	0,089	-0,035
-243,190	800,000	0,033	0,093
-242,176	-200,000	-0,002	0,108
-241,161	-129,633	0,123	-0,012
-240,146	400,577	-0,068	0,103
-239,132	279,265	0,090	0,117
-238,117	800,000	-0,021	0,056
-237,103	436,879	-0,108	-0,170
-236,088	457,665	-0,033	-0,053
-235,073	800,000	0,025	0,052
-234,059	4,393	0,102	0,054
-233,044	800,000	0,016	0,033
-232,030	662,388	-0,069	0,129
-231,015	263,468	-0,027	-0,034
-230,000	-200,000	0,004	0,036
-228,986	69,578	-0,058	0,043
-227,971	705,685	0,053	-0,102
-226,957	9,300	-0,032	0,017
-225,942	-100,641	-0,090	-0,016
-224,927	179,657	-0,072	0,076
-223,913	572,819	-0,025	0,045
-222,898	-104,615	0,062	-0,010
-221,884	-200,000	0,000	-0,071
-220,869	-76,112	0,061	0,015
-219,855	53,488	0,006	0,004
-218,840	-154,994	0,121	0,006
-217,825	-200,000	0,016	-0,079
-216,811	-130,514	-0,117	0,011
-215,796	-200,000	0,020	0,094
-214,782	-200,000	0,004	0,026
-213,767	238,141	0,067	0,080
-212,752	-97,047	0,062	0,012
-211,738	124,964	0,050	-0,045
-210,723	-121,067	-0,040	0,005
-209,709	-200,000	-0,001	-0,005
-208,694	42,021	0,057	-0,037
-207,679	-200,000	0,004	0,124
-206,665	-25,057	0,147	0,062
-205,650	113,285	0,043	0,037
-204,636	501,339	0,092	0,154
-203,621	-200,000	-0,036	0,137
-202,606	-200,000	-0,004	-0,050
-201,592	118,180	-0,010	0,009
-200,577	-125,999	-0,056	0,006
-199,563	-83,124	0,144	-0,033
-198,548	800,000	0,047	0,127
-197,533	800,000	0,041	0,125
-196,519	-135,251	0,040	-0,003
-195,504	436,995	-0,028	-0,044
-194,490	-200,000	-0,020	-0,094
-193,475	-57,697	-0,116	-0,036
-192,460	-200,000	-0,033	-0,113
-191,446	-187,899	0,212	0,002
-190,431	-200,000	0,004	-0,071
-189,417	142,794	0,086	0,082
-188,402	800,000	0,045	-0,131
-187,387	105,965	-0,136	-0,116
-186,373	-200,000	-0,005	-0,067
-185,358	0,856	0,065	0,033
-184,344	-8,307	0,129	-0,062
-183,329	422,726	0,051	-0,079
-182,315	595,321	-0,011	-0,020
-181,300	-200,000	0,000	0,001
-180,285	681,838	-0,031	0,059
-179,271	43,321	-0,124	-0,082
-178,256	-200,000	0,008	0,059
-177,242	28,017	0,077	0,046
-176,227	-20,630	0,148	0,065
-175,212	102,837	-0,099	-0,083
-174,198	140,422	-0,035	0,033
-173,183	171,100	0,044	-0,045
-172,169	-99,987	-0,068	-0,012
-171,154	-118,798	-0,145	-0,018
-170,139	800,000	0,032	-0,069
-169,125	257,099	0,034	-0,042
-168,110	30,611	-0,086	-0,053
-167,096	-64,378	-0,081	-0,024
-166,081	344,426	0,054	0,077
-165,066	-147,039	-0,161	-0,010
-164,052	394,357	0,026	0,039
-163,037	510,770	0,031	0,051
-162,023	-152,470	0,166	-0,008
-161,008	624,949	0,073	-0,133
-159,993	-9,672	-0,158	0,075
-158,979	-187,064	0,054	0,001
-157,964	-200,000	-0,014	0,069
-156,950	31,844	-0,149	0,092
-155,935	-79,009	-0,062	0,015
-154,920	-65,629	0,129	-0,037
-153,906	-54,479	0,097	-0,031
-152,891	9,501	0,078	0,042
-151,877	21,160	-0,030	0,017
-150,862	482,570	0,041	-0,067
-149,847	-200,000	0,010	0,164
-148,833	800,000	0,022	0,048
-147,818	3,091	0,094	-0,049
-146,804	-200,000	-0,012	-0,072
-145,789	800,000	-0,026	0,081
-144,775	-200,000	-0,019	-0,065
-143,760	26,983	0,082	-0,049
-142,745	192,253	0,045	-0,048
-141,731	146,019	-0,020	-0,019
-140,716	6,111	0,120	0,064
-139,702	363,996	0,057	0,082
-138,687	-73,615	-0,176	0,046
-137,672	654,636	0,032	0,060
-136,658	-45,262	-0,095	0,034
-135,643	548,126	-0,011	0,019
-134,629	285,921	0,027	0,035
-133,614	-3,452	0,011	0,006
-132,599	407,601	0,051	0,078
-131,585	541,158	0,085	0,146
-130,570	133,420	0,056	0,052
-129,556	-200,000	-0,037	-0,171
-128,541	-179,936	-0,129	0,002
-127,526	-200,000	0,016	0,072
-126,512	272,648	-0,056	0,071
-125,497	376,862	-0,031	0,046
-124,483	212,066	0,043	-0,049
-123,468	800,000	0,010	0,022
-122,453	42,083	-0,140	0,091
-121,439	323,638	-0,046	-0,063
-120,424	405,693	0,036	0,055
-119,410	-200,000	-0,004	-0,054
