DTS Sentinel unit serial number:	SN410029Multiplexer serial number:	ORYXHardware model number:	OX2-SRSoftware version number:	ORYX F/W v4,00 Oryx Data Collector v3.7.2.0data status	okinstallation	B5 Nyhavnadifferential loss correction	single-endedforward channel	channel 2reverse channel	N/Adate	2023/12/12time	11:52:13forward acquisition time	300,00reverse acquisition time	0,00gamma	499,1914k internal	0,3158k external	0,3158temperature offset calibration	1,0000default loss term (dB/km)	0,3820temperature slope calibration	1,0000multiplexer offset coefficient	1,0000multiplexer slope coefficient	1,0000fibre end	0,00T internal ref (°C)	15,13T ext. ref 1 (°C)	-0,92T ext. ref 2 (°C)	-1,16length (m)	temperature (°C)	Stokes	anti-Stokes-744,400	55,088	0,178	0,127
-743,385	-53,057	-0,323	0,109
-742,371	-104,591	0,183	0,031
-741,356	-37,639	-0,280	0,109
-740,342	90,292	0,062	0,051
-739,327	-135,762	-0,364	-0,031
-738,312	-32,197	0,078	-0,032
-737,298	-116,916	-0,313	0,042
-736,283	800,000	0,054	0,167
-735,269	-120,775	-0,231	0,028
-734,254	-107,781	-0,045	0,007
-733,239	-52,554	-0,475	-0,161
-732,225	192,900	0,168	0,188
-731,210	-200,000	0,004	0,065
-730,196	800,000	0,034	-0,075
-729,181	97,573	-0,091	0,077
-728,167	800,000	0,026	-0,054
-727,152	248,984	-0,076	-0,095
-726,137	257,023	0,048	0,061
-725,123	-200,000	-0,002	-0,022
-724,108	2,752	0,092	-0,049
-723,094	-140,481	-0,122	-0,009
-722,079	198,008	-0,093	-0,104
-721,064	40,344	0,052	-0,035
-720,050	318,240	0,044	-0,062
-719,035	54,788	-0,110	-0,078
-718,021	800,000	-0,048	-0,157
-717,006	-77,401	-0,184	-0,047
-715,991	-200,000	0,005	-0,154
-714,977	-175,301	-0,025	-0,000
-713,962	-44,605	-0,067	0,025
-712,948	-200,000	0,014	0,091
-711,933	-44,280	0,100	0,037
-710,918	226,799	0,070	-0,083
-709,904	800,000	-0,044	-0,094
-708,889	67,771	-0,083	-0,062
-707,875	-57,211	0,045	-0,014
-706,860	-200,000	0,007	0,042
-705,845	63,025	-0,029	-0,021
-704,831	130,962	0,056	-0,053
-703,816	-87,903	-0,093	-0,020
-702,802	74,213	0,026	-0,020
-701,787	-152,736	-0,118	-0,006
-700,772	-142,251	0,106	-0,008
-699,758	240,449	-0,123	0,151
-698,743	-75,153	-0,076	-0,020
-697,729	137,476	0,050	-0,049
-696,714	-12,860	0,133	-0,064
-695,699	69,830	-0,129	0,098
-694,685	-200,000	0,015	-0,054
-693,670	-44,686	0,027	-0,010
-692,656	172,043	0,078	0,083
-691,641	75,939	-0,063	-0,049
-690,627	-5,188	0,092	-0,046
-689,612	-200,000	0,007	0,093
-688,597	-88,784	-0,204	-0,044
-687,583	165,957	0,056	-0,059
-686,568	133,996	0,098	-0,093
-685,554	-168,998	0,028	-0,001
-684,539	800,000	-0,023	0,068
-683,524	-41,834	-0,061	0,023
-682,510	-74,424	0,126	0,033
-681,495	63,320	-0,018	0,013
-680,481	-200,000	0,028	-0,093
-679,466	800,000	-0,053	-0,126
-678,451	398,466	-0,095	-0,146
-677,437	-44,656	-0,052	-0,019
-676,422	-52,463	-0,171	-0,058
-675,408	687,334	0,025	0,049
-674,393	-85,829	-0,096	0,022
-673,378	56,475	0,107	-0,077
-672,364	-64,987	0,094	-0,028
-671,349	800,000	-0,043	-0,120
-670,335	35,959	0,036	-0,023
-669,320	-110,153	-0,030	-0,005
-668,305	-108,470	-0,092	0,014
-667,291	-98,083	-0,021	0,004
-666,276	354,319	-0,062	-0,091
-665,262	800,000	0,016	0,036
-664,247	800,000	-0,032	-0,090
-663,232	419,170	0,034	-0,053
-662,218	255,162	-0,108	-0,136
-661,203	352,845	0,041	0,060
-660,189	4,266	-0,065	0,035
-659,174	-200,000	-0,024	-0,101
-658,159	-200,000	-0,022	-0,086
-657,145	-59,361	-0,099	-0,031
-656,130	-200,000	0,012	0,086
-655,116	-200,000	-0,023	0,084
-654,101	-200,000	-0,035	-0,145
-653,086	-200,000	-0,001	0,038
-652,072	800,000	0,015	-0,042
-651,057	-11,743	-0,063	0,030
-650,043	672,090	0,043	-0,081
-649,028	146,313	-0,031	-0,031
-648,014	322,934	0,043	0,060
-646,999	800,000	0,022	0,070
-645,984	-71,020	0,079	-0,022
-644,970	-200,000	-0,006	0,038
-643,955	740,280	-0,066	-0,130
-642,941	75,269	0,077	-0,059
-641,926	-24,511	-0,061	-0,027
-640,911	89,705	-0,066	-0,054
-639,897	-8,048	0,065	0,032
-638,882	-200,000	0,015	-0,066
-637,868	468,180	-0,089	-0,147
-636,853	-43,711	-0,092	-0,034
-635,838	-200,000	-0,042	-0,153
-634,824	-200,000	-0,005	-0,058
-633,809	483,237	0,036	-0,061
-632,795	-200,000	-0,010	0,080
-631,780	-173,143	-0,135	-0,003
-630,765	-114,431	0,015	0,002
-629,751	159,745	-0,040	-0,041
-628,736	271,344	-0,124	-0,161
-627,722	-200,000	0,006	-0,107
-626,707	-73,716	0,048	-0,013
-625,692	-200,000	0,015	0,166
-624,678	222,534	-0,120	-0,141
-623,663	-200,000	0,012	-0,124
-622,649	110,382	-0,070	-0,062
-621,634	23,761	-0,057	-0,034
-620,619	265,999	-0,072	-0,093
-619,605	-41,776	0,095	-0,036
-618,590	43,832	-0,048	-0,032
-617,576	800,000	0,034	0,094
-616,561	-35,162	0,163	-0,065
-615,546	698,713	0,053	0,103
-614,532	-200,000	-0,004	-0,088
-613,517	52,299	-0,070	-0,049
-612,503	515,034	-0,077	-0,132
-611,488	-110,434	-0,063	0,010
-610,474	-200,000	0,027	0,095
-609,459	-17,427	-0,035	-0,016
-608,444	800,000	0,045	-0,145
-607,430	-200,000	-0,029	-0,104
-606,415	-200,000	0,041	-0,147
-605,401	94,628	-0,046	0,039
-604,386	-42,265	0,095	-0,036
-603,371	92,374	-0,164	0,136
-602,357	139,070	-0,057	0,055
-601,342	-200,000	0,009	-0,034
-600,328	-81,670	-0,186	-0,044
-599,313	-81,745	0,092	0,022
-598,298	-95,366	-0,078	0,015
-597,284	102,896	0,061	0,052
-596,269	-132,830	0,074	-0,007
-595,255	-200,000	-0,003	0,067
-594,240	-200,000	-0,004	-0,065
-593,225	-30,479	-0,167	-0,069
-592,211	-32,124	-0,091	0,037
-591,196	-200,000	-0,000	0,007
-590,182	-159,352	0,070	0,003
-589,167	800,000	-0,055	0,132
-588,152	182,032	-0,099	0,107
-587,138	60,895	-0,086	-0,062
-586,123	-102,597	-0,066	-0,011
-585,109	-200,000	0,025	-0,215
-584,094	131,402	-0,083	-0,078
-583,079	94,503	0,021	0,017
-582,065	-34,510	0,069	-0,028
-581,050	290,046	-0,039	-0,052
-580,036	-200,000	-0,002	0,043
-579,021	-164,232	-0,051	-0,002
-578,006	-36,560	-0,066	0,026
-576,992	243,010	-0,060	-0,074
-575,977	380,029	-0,013	-0,019
-574,963	-122,445	0,070	-0,008
-573,948	800,000	0,044	0,094
-572,934	16,910	-0,095	0,055
-571,919	236,392	-0,014	-0,017
-570,904	-200,000	-0,018	-0,130
-569,890	800,000	0,072	-0,204
-568,875	241,820	0,029	-0,036
-567,861	-200,000	0,029	-0,114
-566,846	-142,303	-0,079	0,006
-565,831	93,197	0,061	0,050
-564,817	-200,000	0,009	-0,031
-563,802	-126,905	-0,095	0,010
-562,788	47,379	0,118	-0,080
-561,773	800,000	0,036	-0,104
-560,758	-29,052	-0,075	0,031
-559,744	-17,187	0,055	-0,025
-558,729	800,000	-0,039	0,088
-557,715	-155,379	-0,116	0,005
-556,700	648,703	-0,037	0,070
-555,685	-40,381	0,078	-0,030
-554,671	-166,605	-0,042	-0,001
-553,656	-12,224	0,160	0,076
-552,642	-200,000	0,016	-0,108
-551,627	51,134	0,094	-0,065
-550,612	-36,479	0,110	0,043
-549,598	-106,932	-0,037	0,006
-548,583	800,000	-0,029	0,077
-547,569	800,000	0,025	0,053
-546,554	379,705	-0,028	0,042
-545,539	-200,000	-0,033	-0,108
-544,525	-133,101	-0,068	0,006
-543,510	-64,225	-0,022	0,007
-542,496	60,171	-0,079	-0,057
-541,481	167,574	0,133	-0,139
-540,466	800,000	-0,004	-0,012
-539,452	794,662	0,041	0,082
-538,437	800,000	-0,015	0,048
-537,423	-200,000	0,020	-0,131
-536,408	-200,000	0,010	-0,147
-535,393	800,000	-0,023	-0,060
-534,379	528,751	-0,066	-0,114
-533,364	115,579	0,022	-0,020
-532,350	167,008	-0,086	-0,089
-531,335	-200,000	0,010	-0,130
-530,321	-200,000	-0,008	0,080
-529,306	-92,449	-0,116	-0,024
-528,291	63,920	0,135	-0,099
-527,277	800,000	-0,033	-0,073
-526,262	-62,200	0,118	-0,036
-525,248	377,997	-0,062	0,093
-524,233	-40,125	-0,054	0,020
-523,218	-56,031	0,020	0,006
-522,204	22,016	0,085	0,051
-521,189	105,895	-0,092	-0,080
-520,175	152,380	0,029	-0,029
-519,160	163,902	-0,055	0,056
-518,145	24,661	-0,089	-0,054
-517,131	36,740	0,039	0,025
-516,116	235,231	0,074	0,089
-515,102	182,547	-0,028	0,030
-514,087	-71,528	0,069	0,019
-513,072	-54,221	-0,050	-0,017
-512,058	800,000	0,042	-0,096
-511,043	-76,476	0,043	0,011
-510,029	68,725	0,019	-0,014
-509,014	800,000	0,048	0,131
-507,999	-81,911	0,041	-0,010
-506,985	131,379	-0,063	0,060
-505,970	-7,296	-0,103	-0,051
-504,956	-51,598	0,144	-0,049
-503,941	347,144	0,072	0,104
-502,926	149,354	-0,009	-0,009
-501,912	-163,817	0,037	-0,001
-500,897	438,912	-0,052	0,083
-499,883	52,551	-0,097	-0,067
-498,868	93,926	-0,091	-0,076
-497,853	-77,887	0,076	-0,019
-496,839	100,854	-0,130	-0,111
-495,824	-81,709	0,045	-0,011
-494,810	172,309	0,029	0,031
-493,795	40,338	-0,101	0,067
-492,781	141,814	-0,121	0,117
-491,766	716,243	0,011	-0,021
-490,751	-200,000	0,004	-0,110
-489,737	-168,585	0,057	0,002
-488,722	-200,000	0,013	-0,064
-487,708	-80,088	-0,110	0,027
-486,693	-90,468	-0,090	0,019
-485,678	-56,506	0,157	0,051
-484,664	9,221	-0,113	-0,062
-483,649	-4,476	-0,080	0,040
-482,635	-200,000	-0,031	0,105
-481,620	-200,000	0,039	0,199
-480,605	-133,831	0,141	-0,013
-479,591	-200,000	0,028	0,143
-478,576	84,718	-0,034	-0,027
-477,562	-200,000	0,016	-0,121
-476,547	765,181	-0,024	0,047
-475,532	260,188	0,062	0,078
-474,518	-200,000	0,000	0,024
-473,503	-85,220	0,076	0,017
-472,489	-1,824	-0,033	-0,017
-471,474	-104,734	-0,022	-0,004
-470,459	-200,000	-0,005	0,056
-469,445	53,861	0,033	0,023
-468,430	-200,000	0,009	-0,056
-467,416	95,272	-0,137	0,114
-466,401	-37,489	0,081	0,032
-465,386	-58,539	-0,143	0,045
-464,372	-184,231	-0,129	-0,002
-463,357	233,833	-0,046	-0,055
-462,343	-200,000	-0,031	0,126
-461,328	-200,000	0,008	0,090
-460,313	800,000	-0,028	0,079
-459,299	-138,156	-0,066	-0,005
-458,284	95,700	0,037	-0,030
-457,270	-200,000	0,010	-0,043
-456,255	2,407	-0,065	0,034
-455,241	800,000	-0,005	-0,010
-454,226	800,000	-0,021	0,046
-453,211	-93,384	0,066	-0,013
-452,197	800,000	0,058	0,139
-451,182	575,099	0,026	-0,046
-450,168	730,907	0,059	-0,115
-449,153	-200,000	-0,010	0,095
-448,138	5,505	-0,028	-0,015
-447,124	-200,000	0,006	-0,045
-446,109	-73,512	0,195	-0,052
-445,095	-200,000	0,005	0,045
-444,080	-200,000	-0,007	0,057
-443,065	86,798	-0,073	-0,059
-442,051	800,000	0,041	-0,086
-441,036	-127,326	-0,058	0,006
-440,022	-200,000	-0,034	0,146
-439,007	-200,000	-0,015	-0,129
-437,992	-14,658	-0,117	-0,054
-436,978	-200,000	0,031	0,154
-435,963	118,807	0,078	0,070
-434,949	67,378	-0,083	0,062
-433,934	800,000	0,055	0,112
-432,919	240,869	-0,136	0,166
-431,905	-200,000	-0,020	0,073
-430,890	-173,186	0,047	-0,001
-429,876	777,188	0,029	0,057
-428,861	-87,329	0,026	-0,006
-427,846	-69,997	-0,111	-0,030
-426,832	-200,000	0,010	-0,099
-425,817	167,608	-0,166	0,172
-424,803	79,115	-0,023	0,018
-423,788	-138,451	0,130	0,010
-422,773	-87,113	0,156	0,034
-421,759	481,820	0,051	-0,085
-420,744	800,000	0,039	-0,084
-419,730	-200,000	-0,023	-0,149
-418,715	2,617	-0,092	-0,048
-417,701	-49,088	-0,106	-0,037
-416,686	-66,819	0,065	-0,019
-415,671	581,088	-0,038	0,068
-414,657	-32,712	0,203	0,082
-413,642	199,613	0,076	0,085
-412,628	-118,880	-0,075	-0,009
-411,613	275,553	0,053	-0,068
-410,598	70,513	-0,052	-0,039
-409,584	149,496	-0,101	0,099
-408,569	64,918	0,079	0,058
-407,555	278,734	-0,052	0,067
-406,540	800,000	-0,031	-0,083
-405,525	-200,000	0,004	0,083
-404,511	-200,000	-0,011	0,114
-403,496	-200,000	-0,002	0,017
-402,482	391,370	-0,018	-0,027
-401,467	-67,625	0,096	0,027
-400,452	-200,000	0,008	0,043
-399,438	-80,188	-0,120	0,029
-398,423	152,057	-0,068	0,067
-397,409	-0,245	-0,031	0,016
-396,394	252,940	-0,031	-0,038
-395,379	156,093	0,027	-0,027
-394,365	-118,378	-0,050	-0,006
-393,350	-200,000	-0,005	0,090
-392,336	-200,000	-0,007	0,091
-391,321	126,431	-0,087	0,080
-390,306	282,483	0,060	-0,078
-389,292	-85,258	-0,081	-0,018
-388,277	590,120	-0,010	0,017
-387,263	89,953	0,047	-0,038
-386,248	800,000	0,018	0,053
-385,233	146,279	0,078	-0,076
-384,219	-200,000	0,010	-0,094
-383,204	443,682	0,037	-0,059
-382,190	-87,783	-0,053	0,011
-381,175	-106,421	0,142	-0,023
-380,160	-144,847	0,154	0,010
-379,146	-22,309	0,107	0,047
-378,131	-68,294	-0,057	0,016
-377,117	-73,228	-0,125	0,033
-376,102	614,648	0,033	-0,060
-375,088	44,579	-0,051	0,034
-374,073	446,948	-0,058	-0,093
-373,058	800,000	-0,038	0,078
-372,044	-200,000	0,005	0,075
-371,029	99,581	-0,033	0,028
-370,015	-200,000	0,034	0,180
-369,000	-123,632	-0,030	0,003
-367,985	22,976	0,077	0,046
-366,971	800,000	0,037	0,108
-365,956	800,000	0,049	0,122
-364,942	-86,087	0,062	-0,014
-363,927	-200,000	-0,010	0,124
-362,912	-200,000	0,023	0,100
-361,898	490,246	-0,030	-0,050
-360,883	-87,213	-0,039	0,009
-359,869	-152,916	-0,125	0,006
-358,854	18,300	0,043	0,025
-357,839	-167,707	0,071	-0,002
-356,825	372,302	0,064	0,095
-355,810	125,439	0,094	-0,086
-354,796	411,722	-0,028	0,043
-353,781	-109,054	-0,076	0,012
-352,766	232,335	-0,093	0,111
-351,752	518,379	0,029	0,049
-350,737	800,000	-0,013	-0,029
-349,723	124,186	0,055	-0,050
-348,708	800,000	0,009	-0,019
-347,693	17,143	-0,125	-0,072
-346,679	800,000	0,090	-0,186
-345,664	-200,000	-0,005	-0,032
-344,650	94,578	0,116	-0,095
-343,635	800,000	0,021	0,061
-342,620	-32,145	-0,023	0,009
-341,606	-51,767	0,062	-0,021
-340,591	800,000	0,050	0,132
-339,577	-50,314	0,078	-0,027
-338,562	550,215	0,017	-0,029
-337,548	-121,522	0,058	0,007
-336,533	159,278	0,020	0,020
-335,518	55,705	0,136	0,096
-334,504	-53,190	-0,114	0,038
-333,489	425,260	0,058	-0,091
-332,475	-81,571	-0,205	0,048
-331,460	-160,584	-0,112	0,004
-330,445	-79,317	0,237	0,058
-329,431	-200,000	-0,005	0,025
-328,416	800,000	0,046	-0,131
-327,402	-200,000	-0,004	0,020
-326,387	752,182	0,061	-0,121
-325,372	-200,000	0,022	0,098
-324,358	-17,237	-0,064	-0,029
-323,343	-200,000	0,040	0,148
-322,329	-200,000	0,030	-0,153
-321,314	118,770	-0,047	-0,042
-320,299	498,716	0,030	-0,051
-319,285	38,666	0,071	-0,046
-318,270	54,838	-0,071	-0,050
-317,256	800,000	0,067	-0,170
-316,241	391,060	-0,035	0,052
-315,226	64,884	0,062	0,045
-314,212	388,258	0,074	0,111
-313,197	-33,917	0,038	0,015
-312,183	-54,825	-0,013	0,004
-311,168	-200,000	-0,019	0,079
-310,153	118,462	0,009	-0,008
-309,139	-140,377	0,127	0,009
-308,124	-200,000	-0,011	0,062
-307,110	604,109	0,046	0,083
-306,095	133,174	-0,061	0,057
-305,080	-142,136	0,040	0,003
-304,066	232,466	0,046	0,055
-303,051	422,204	0,044	0,069
-302,037	39,066	0,028	0,018
-301,022	-200,000	0,010	0,115
-300,008	478,491	-0,049	0,081
-298,993	-200,000	-0,049	0,169
-297,978	-40,088	-0,074	-0,028
-296,964	48,102	0,076	0,051
-295,949	10,006	-0,070	-0,038
-294,935	-49,772	-0,065	0,022
-293,920	7,359	0,058	0,032
-292,905	-14,844	-0,076	0,035
-291,891	62,070	0,042	0,030
-290,876	-77,652	0,170	0,042
-289,862	-200,000	0,008	0,049
-288,847	271,580	0,105	-0,134
-287,832	-200,000	0,015	0,066
-286,818	-200,000	-0,031	-0,183
-285,803	382,303	0,032	-0,048
-284,789	453,018	0,062	0,099
-283,774	17,095	-0,059	0,034
-282,759	-200,000	-0,001	-0,003
-281,745	477,652	-0,028	-0,046
-280,730	-200,000	-0,002	-0,089
-279,716	330,671	0,026	0,037
-278,701	-200,000	-0,009	0,060
-277,686	-200,000	-0,005	0,034
-276,672	-96,379	0,122	0,023
-275,657	-125,719	0,028	-0,003
-274,643	17,526	-0,091	0,052
-273,628	291,594	0,037	-0,049
-272,613	-67,652	-0,100	-0,028
-271,599	-101,347	0,085	0,015
-270,584	458,361	-0,042	0,068
-269,570	-200,000	0,013	-0,045
-268,555	84,186	-0,069	-0,055
-267,540	35,763	0,052	0,033
-266,526	800,000	-0,058	-0,134
-265,511	-144,019	-0,190	0,013
-264,497	129,376	0,055	-0,051
-263,482	-200,000	-0,023	0,144
-262,467	800,000	0,029	0,084
-261,453	309,402	0,004	-0,006
-260,438	115,018	0,041	-0,036
-259,424	800,000	-0,024	0,067
-258,409	-66,486	-0,145	0,041
-257,395	-200,000	0,008	0,084
-256,380	-86,229	-0,122	0,027
-255,365	-200,000	0,021	0,086
-254,351	-2,288	0,056	0,028
-253,336	401,330	0,048	0,073
-252,322	-60,241	-0,112	-0,034
-251,307	-54,805	-0,029	0,009
-250,292	550,080	-0,010	0,017
-249,278	-97,432	0,053	0,010
-248,263	-200,000	0,014	-0,059
-247,249	-200,000	-0,006	-0,077
-246,234	-52,227	-0,148	-0,049
-245,219	539,596	0,077	0,133
-244,205	-46,342	-0,088	-0,031
-243,190	281,735	-0,097	0,126
-242,176	41,788	0,084	-0,055
-241,161	186,171	0,151	0,162
-240,146	-200,000	0,012	0,108
-239,132	800,000	0,015	0,041
-238,117	419,743	0,035	0,054
-237,103	-200,000	-0,023	-0,087
-236,088	800,000	0,023	-0,051
-235,073	68,314	-0,033	-0,024
-234,059	-66,843	0,033	-0,009
-233,044	-21,278	-0,118	0,052
-232,030	800,000	-0,020	-0,060
-231,015	-54,053	0,072	-0,024
-230,000	308,617	0,074	-0,100
-228,986	800,000	0,037	-0,095
-227,971	134,458	0,018	0,017
-226,957	-90,928	0,209	0,043
-225,942	800,000	-0,029	-0,071
-224,927	796,982	-0,045	-0,090
-223,913	800,000	-0,013	0,038
-222,898	154,369	-0,096	0,095
-221,884	233,278	0,086	-0,102
-220,869	-200,000	-0,041	0,184
-219,855	-155,723	0,144	-0,007
-218,840	-43,284	0,055	0,020
-217,825	145,606	0,035	-0,034
-216,811	295,758	0,022	0,029
-215,796	-105,850	0,049	-0,008
-214,782	-22,236	-0,149	-0,065
-213,767	31,619	0,073	-0,045
-212,752	-200,000	0,006	-0,100
-211,738	-200,000	0,008	0,092
-210,723	800,000	-0,033	-0,075
-209,709	180,168	-0,030	-0,032
-208,694	-200,000	-0,002	-0,058
-207,679	70,697	0,080	-0,060
-206,665	800,000	-0,038	-0,121
-205,650	-2,933	0,128	0,064
-204,636	-120,696	0,046	-0,006
-203,621	-142,009	0,013	-0,001
-202,606	-200,000	-0,044	-0,162
-201,592	51,960	-0,038	-0,026
-200,577	-200,000	0,008	-0,132
-199,563	800,000	0,011	0,026
-198,548	66,067	-0,020	0,015
-197,533	118,279	-0,070	0,063
-196,519	-200,000	0,012	-0,044
-195,504	45,920	-0,051	-0,034
-194,490	87,505	0,091	0,073
-193,475	-158,262	-0,122	-0,005
-192,460	-200,000	-0,010	-0,040
-191,446	18,811	0,025	0,015
-190,431	-2,727	0,053	0,027
-189,417	105,708	0,095	0,081
-188,402	-7,433	0,142	-0,069
-187,387	18,849	-0,101	-0,058
-186,373	800,000	0,068	-0,175
-185,358	-125,793	-0,042	0,004
-184,344	310,465	0,066	-0,089
-183,329	800,000	-0,017	-0,039
-182,315	-5,152	0,203	-0,100
-181,300	-200,000	0,008	0,067
-180,285	800,000	-0,015	0,043
-179,271	-200,000	-0,040	-0,218
-178,256	-200,000	0,023	-0,077
-177,242	-59,936	0,128	-0,039
-176,227	-59,228	0,062	0,019
-175,212	-16,755	0,055	0,025
-174,198	134,317	0,093	0,087
-173,183	-133,996	-0,157	0,014
-172,169	-200,000	0,002	0,058
-171,154	-133,135	-0,053	-0,005
-170,139	185,327	0,021	0,022
-169,125	-29,590	-0,057	0,023
-168,110	344,819	-0,050	0,071
-167,096	-84,758	0,080	0,018
-166,081	-81,852	-0,180	0,042
-165,066	800,000	-0,041	0,117
-164,052	-96,630	0,062	-0,012
-163,037	-131,656	-0,046	0,004
-162,023	800,000	0,063	0,149
-161,008	291,609	-0,045	0,060
-159,993	-120,932	-0,178	-0,021
-158,979	-200,000	-0,002	-0,136
-157,964	-104,457	0,143	0,024
-156,950	-200,000	0,017	-0,058
-155,935	-162,449	0,142	0,005
-154,920	112,557	-0,020	0,017
-153,906	25,428	0,050	0,030
-152,891	-195,039	0,133	-0,001
-151,877	308,692	-0,034	-0,046
-150,862	188,246	-0,066	-0,071
-149,847	-146,930	-0,092	0,006
-148,833	-200,000	0,002	0,011
-147,818	-132,110	-0,051	-0,005
-146,804	-112,086	0,094	0,013
-145,789	416,575	0,032	0,049
-144,775	-200,000	0,008	-0,092
-143,760	-200,000	0,002	-0,036
-142,745	-200,000	-0,056	0,191
-141,731	119,733	-0,091	-0,081
-140,716	752,610	0,010	-0,020
-139,702	38,869	-0,135	0,087
-138,687	-49,257	0,097	0,033
-137,672	-200,000	0,002	0,036
-136,658	324,453	-0,038	0,053
-135,643	-2,460	-0,102	-0,052
-134,629	269,400	0,040	-0,050
-133,614	-200,000	-0,010	-0,052
-132,599	10,030	0,137	-0,075
-131,585	-53,349	-0,080	0,026
-130,570	479,683	-0,053	0,086
-129,556	-200,000	0,002	0,049
-128,541	-160,868	0,010	0,000
-127,526	-116,684	0,111	0,015
-126,512	-200,000	-0,002	0,110
-125,497	-13,254	0,067	0,031
-124,483	-89,949	0,031	-0,006
-123,468	-200,000	0,008	-0,043
-122,453	82,820	-0,095	-0,074
-121,439	206,486	0,059	0,066
-120,424	68,836	-0,137	0,101
-119,410	-200,000	-0,009	0,040
