DTS Sentinel unit serial number:	SN410029Multiplexer serial number:	ORYXHardware model number:	OX2-SRSoftware version number:	ORYX F/W v4,00 Oryx Data Collector v3.7.2.0data status	okinstallation	B5 Nyhavnadifferential loss correction	single-endedforward channel	channel 2reverse channel	N/Adate	2023/12/13time	17:32:13forward acquisition time	300,00reverse acquisition time	0,00gamma	499,1914k internal	0,3158k external	0,3158temperature offset calibration	1,0000default loss term (dB/km)	0,3820temperature slope calibration	1,0000multiplexer offset coefficient	1,0000multiplexer slope coefficient	1,0000fibre end	0,00T internal ref (°C)	13,73T ext. ref 1 (°C)	-3,65T ext. ref 2 (°C)	-3,76length (m)	temperature (°C)	Stokes	anti-Stokes-744,400	-200,000	0,010	-0,097
-743,385	-19,287	-0,193	-0,088
-742,371	-41,686	0,037	0,014
-741,356	-62,897	-0,250	0,076
-740,342	-143,957	0,180	-0,012
-739,327	-160,290	-0,280	-0,011
-738,312	336,559	0,033	0,047
-737,298	-117,176	-0,272	-0,036
-736,283	-128,123	0,083	0,009
-735,269	-39,016	-0,241	-0,093
-734,254	388,123	0,033	0,050
-733,239	-27,619	-0,494	-0,211
-732,225	-39,579	0,262	0,100
-731,210	180,124	-0,055	0,059
-730,196	-200,000	0,021	-0,100
-729,181	73,623	-0,054	0,042
-728,167	-52,295	-0,104	0,035
-727,152	800,000	0,049	0,106
-726,137	-117,407	-0,105	-0,014
-725,123	684,808	-0,048	0,093
-724,108	-131,477	-0,087	-0,008
-723,094	99,212	-0,114	-0,097
-722,079	188,994	-0,046	0,051
-721,064	586,387	-0,057	-0,103
-720,050	800,000	0,045	-0,114
-719,035	50,523	0,057	-0,039
-718,021	800,000	-0,044	-0,105
-717,006	649,684	-0,061	-0,115
-715,991	-200,000	0,029	-0,130
-714,977	800,000	-0,076	-0,173
-713,962	800,000	-0,042	-0,099
-712,948	-172,287	0,109	-0,003
-711,933	-200,000	-0,007	0,074
-710,918	-79,466	-0,026	-0,006
-709,904	800,000	-0,045	0,108
-708,889	15,611	0,100	-0,058
-707,875	7,152	-0,117	-0,064
-706,860	77,633	-0,035	0,028
-705,845	-113,428	-0,048	0,007
-704,831	800,000	0,026	0,061
-703,816	65,150	-0,066	-0,049
-702,802	-188,425	-0,052	-0,000
-701,787	-52,009	-0,043	-0,014
-700,772	29,954	-0,036	0,022
-699,758	-21,608	0,130	0,058
-698,743	-160,854	0,050	0,002
-697,729	416,625	-0,050	0,079
-696,714	-107,308	0,154	-0,025
-695,699	-200,000	0,038	-0,134
-694,685	-200,000	-0,010	-0,072
-693,670	-135,502	-0,157	-0,014
-692,656	451,891	-0,050	-0,082
-691,641	282,751	0,084	-0,112
-690,627	-159,378	-0,078	-0,003
-689,612	-200,000	-0,006	0,029
-688,597	90,361	-0,071	-0,058
-687,583	-200,000	0,030	-0,109
-686,568	-125,414	0,076	0,008
-685,554	-200,000	0,001	0,007
-684,539	672,408	-0,017	-0,032
-683,524	-200,000	-0,012	-0,079
-682,510	-200,000	0,001	-0,024
-681,495	272,039	-0,056	0,073
-680,481	-60,049	-0,100	-0,031
-679,466	301,731	-0,069	-0,095
-678,451	793,493	-0,068	-0,139
-677,437	-135,436	0,076	-0,007
-676,422	-142,341	-0,079	-0,006
-675,408	-122,303	0,107	-0,013
-674,393	800,000	-0,034	-0,070
-673,378	724,362	-0,074	-0,145
-672,364	-200,000	0,012	-0,154
-671,349	800,000	-0,046	0,120
-670,335	-200,000	0,004	-0,054
-669,320	79,480	0,075	0,059
-668,305	800,000	0,028	-0,086
-667,291	244,234	-0,032	0,040
-666,276	-200,000	-0,018	-0,149
-665,262	-200,000	-0,006	-0,102
-664,247	71,585	-0,109	-0,083
-663,232	117,123	-0,070	-0,063
-662,218	-94,209	0,046	0,009
-661,203	-200,000	0,002	0,013
-660,189	457,834	-0,017	0,027
-659,174	-200,000	-0,020	-0,081
-658,159	-200,000	0,007	-0,068
-657,145	-139,111	-0,203	-0,016
-656,130	604,004	0,060	-0,110
-655,116	78,197	-0,106	0,083
-654,101	-200,000	0,000	-0,082
-653,086	63,150	-0,107	-0,079
-652,072	-200,000	-0,009	-0,196
-651,057	131,226	-0,069	-0,065
-650,043	235,420	0,031	-0,038
-649,028	122,071	0,028	-0,025
-648,014	-140,622	0,177	0,013
-646,999	-200,000	0,010	-0,106
-645,984	-200,000	0,009	0,104
-644,970	41,725	-0,090	-0,060
-643,955	-88,665	-0,112	-0,024
-642,941	800,000	0,077	-0,224
-641,926	-8,805	0,128	0,063
-640,911	-200,000	0,020	-0,109
-639,897	-97,544	0,076	-0,014
-638,882	153,411	-0,041	0,041
-637,868	800,000	-0,044	0,117
-636,853	-200,000	-0,001	0,020
-635,838	260,272	0,020	-0,026
-634,824	424,707	0,012	0,019
-633,809	-167,074	0,056	-0,002
-632,795	-189,204	-0,088	-0,001
-631,780	136,632	-0,116	0,111
-630,765	-200,000	-0,006	-0,065
-629,751	72,236	-0,073	-0,055
-628,736	-200,000	0,019	-0,071
-627,722	-10,941	-0,124	-0,060
-626,707	-10,323	0,089	0,043
-625,692	597,397	0,054	-0,098
-624,678	-200,000	0,001	-0,084
-623,663	-43,236	-0,143	0,053
-622,649	800,000	-0,034	-0,105
-621,634	369,941	-0,068	-0,101
-620,619	260,394	0,101	-0,129
-619,605	-39,449	-0,131	-0,050
-618,590	39,933	-0,050	0,033
-617,576	-87,932	0,057	-0,013
-616,561	51,629	0,076	-0,053
-615,546	-152,250	0,068	0,004
-614,532	-200,000	-0,009	-0,057
-613,517	291,233	-0,077	-0,103
-612,503	16,331	-0,029	0,017
-611,488	58,508	0,042	-0,030
-610,474	800,000	0,018	-0,042
-609,459	3,766	-0,055	-0,029
-608,444	-200,000	-0,061	-0,231
-607,430	170,295	-0,112	-0,118
-606,415	800,000	-0,039	-0,097
-605,401	100,636	0,097	-0,083
-604,386	-200,000	-0,008	0,075
-603,371	800,000	-0,052	0,137
-602,357	39,964	0,015	0,010
-601,342	142,676	-0,122	-0,119
-600,328	-55,713	-0,157	0,051
-599,313	48,961	-0,054	0,037
-598,298	142,192	-0,112	-0,109
-597,284	-135,379	0,131	0,011
-596,269	246,140	-0,056	0,070
-595,255	237,372	-0,038	-0,047
-594,240	166,796	-0,046	0,048
-593,225	112,611	-0,089	0,079
-592,211	-200,000	0,023	-0,180
-591,196	-30,548	-0,033	-0,014
-590,182	800,000	-0,032	-0,095
-589,167	251,732	0,063	0,078
-588,152	260,629	0,068	0,086
-587,138	-200,000	0,001	-0,006
-586,123	16,096	0,080	0,046
-585,109	-168,380	0,140	0,004
-584,094	800,000	-0,069	0,160
-583,079	-33,458	0,235	0,095
-582,065	-200,000	-0,008	0,079
-581,050	-102,464	-0,116	0,020
-580,036	24,972	0,061	-0,037
-579,021	-1,316	-0,099	-0,051
-578,006	-96,680	-0,052	0,010
-576,992	473,930	-0,116	0,192
-575,977	12,243	0,152	0,085
-574,963	-137,429	0,031	0,003
-573,948	-200,000	0,011	0,142
-572,934	-116,138	-0,053	0,007
-571,919	204,579	0,046	-0,053
-570,904	2,787	0,133	-0,070
-569,890	800,000	-0,044	-0,112
-568,875	-75,436	-0,055	-0,014
-567,861	-93,903	0,082	0,016
-566,846	-94,630	0,083	0,016
-565,831	-105,710	-0,095	-0,016
-564,817	163,632	0,072	-0,074
-563,802	88,713	-0,115	-0,094
-562,788	-86,534	-0,087	-0,019
-561,773	534,115	0,104	0,180
-560,758	-59,024	0,102	0,032
-559,744	-200,000	-0,004	0,021
-558,729	499,431	-0,104	-0,175
-557,715	376,881	-0,056	-0,084
-556,700	699,919	0,061	-0,119
-555,685	-200,000	0,020	-0,148
-554,671	153,430	0,108	-0,108
-553,656	800,000	0,033	0,097
-552,642	5,562	0,102	0,055
-551,627	14,894	-0,103	0,059
-550,612	-132,001	0,055	-0,005
-549,598	431,012	-0,069	-0,110
-548,583	-200,000	0,033	-0,111
-547,569	89,206	0,091	0,074
-546,554	-56,559	0,140	-0,045
-545,539	800,000	-0,076	-0,161
-544,525	175,249	-0,098	-0,104
-543,510	-119,876	-0,070	0,009
-542,496	-200,000	-0,022	0,089
-541,481	800,000	0,031	-0,086
-540,466	105,492	0,134	-0,116
-539,452	196,303	0,116	0,129
-538,437	166,617	-0,033	0,034
-537,423	-200,000	0,007	0,128
-536,408	282,363	0,102	-0,133
-535,393	-61,347	-0,137	-0,042
-534,379	800,000	0,038	-0,083
-533,364	-200,000	-0,030	0,099
-532,350	113,733	-0,070	0,062
-531,335	738,240	0,052	0,102
-530,321	-200,000	-0,022	0,091
-529,306	-200,000	-0,003	0,034
-528,291	792,091	0,074	-0,150
-527,277	-200,000	-0,024	-0,287
-526,262	178,554	0,077	0,082
-525,248	-200,000	0,004	-0,038
-524,233	800,000	-0,051	0,156
-523,218	530,545	0,009	0,016
-522,204	201,921	-0,053	0,059
-521,189	-163,235	-0,191	-0,007
-520,175	283,616	0,009	-0,012
-519,160	-200,000	0,006	-0,116
-518,145	66,222	0,148	0,109
-517,131	42,305	0,075	0,050
-516,116	285,854	0,024	0,031
-515,102	-200,000	-0,011	0,056
-514,087	162,051	-0,040	-0,041
-513,072	-175,119	-0,021	-0,000
-512,058	800,000	-0,049	-0,145
-511,043	800,000	0,023	0,061
-510,029	123,676	-0,032	0,029
-509,014	-58,814	0,037	0,012
-507,999	56,061	0,046	-0,032
-506,985	240,133	-0,051	0,063
-505,970	84,712	0,024	0,019
-504,956	-165,823	-0,197	0,006
-503,941	132,197	-0,019	0,018
-502,926	-45,860	0,104	-0,037
-501,912	166,819	-0,021	-0,022
-500,897	243,185	-0,061	0,075
-499,883	43,292	-0,086	0,057
-498,868	-168,942	0,125	0,003
-497,853	490,193	-0,068	-0,114
-496,839	135,308	-0,025	0,024
-495,824	-200,000	-0,021	0,080
-494,810	-200,000	0,038	0,127
-493,795	144,785	-0,107	0,104
-492,781	-110,935	-0,048	0,007
-491,766	-109,095	-0,017	-0,003
-490,751	-200,000	-0,003	0,015
-489,737	440,491	0,021	-0,034
-488,722	27,455	0,106	-0,065
-487,708	-200,000	-0,011	0,084
-486,693	-41,379	-0,014	0,005
-485,678	-121,787	-0,106	-0,013
-484,664	124,223	0,051	-0,047
-483,649	-200,000	-0,004	-0,021
-482,635	-200,000	-0,006	0,061
-481,620	-61,962	0,066	-0,020
-480,605	459,414	-0,011	0,018
-479,591	326,450	0,018	-0,025
-478,576	-200,000	-0,031	0,113
-477,562	-200,000	-0,017	-0,078
-476,547	800,000	0,058	0,120
-475,532	-142,419	-0,008	-0,001
-474,518	-83,262	0,141	0,033
-473,503	-200,000	0,019	0,121
-472,489	-16,432	0,115	0,053
-471,474	-200,000	-0,010	0,072
-470,459	800,000	-0,017	0,035
-469,445	-200,000	0,008	-0,052
-468,430	14,507	0,160	0,091
-467,416	25,708	0,040	0,024
-466,401	-47,439	0,084	0,030
-465,386	-169,464	0,098	0,003
-464,372	23,002	-0,093	0,055
-463,357	290,614	0,029	-0,039
-462,343	232,086	0,043	-0,051
-461,328	-103,647	-0,066	-0,011
-460,313	800,000	0,037	-0,077
-459,299	269,902	0,039	-0,051
-458,284	-68,267	0,080	-0,023
-457,270	69,690	0,054	-0,041
-456,255	218,754	0,034	0,040
-455,241	800,000	-0,027	-0,087
-454,226	-78,985	0,064	-0,016
-453,211	-108,864	0,060	0,009
-452,197	-200,000	-0,002	-0,062
-451,182	800,000	0,052	-0,110
-450,168	243,623	0,028	0,034
-449,153	-104,781	0,022	-0,004
-448,138	15,624	0,108	-0,061
-447,124	800,000	0,034	0,091
-446,109	800,000	0,035	-0,078
-445,095	-10,475	-0,129	-0,062
-444,080	76,481	0,165	0,128
-443,065	245,047	-0,080	-0,099
-442,051	-200,000	0,002	-0,066
-441,036	800,000	-0,011	0,035
-440,022	-200,000	-0,018	-0,080
-439,007	-9,062	0,070	0,034
-437,992	-200,000	-0,005	0,145
-436,978	40,031	-0,092	0,060
-435,963	-200,000	-0,002	-0,109
-434,949	114,121	0,031	0,028
-433,934	206,946	-0,022	0,025
-432,919	-55,463	-0,099	0,032
-431,905	-20,975	0,066	0,029
-430,890	800,000	-0,012	-0,029
-429,876	228,046	0,055	-0,066
-428,861	800,000	0,082	0,192
-427,846	15,291	0,032	-0,018
-426,832	-86,581	-0,116	0,026
-425,817	800,000	-0,072	-0,172
-424,803	800,000	-0,053	-0,114
-423,788	-79,426	0,102	-0,025
-422,773	29,286	0,088	0,054
-421,759	-28,414	-0,035	0,015
-420,744	-160,387	0,089	0,003
-419,730	-200,000	0,012	0,041
-418,715	330,799	0,091	-0,128
-417,701	-200,000	-0,010	0,126
-416,686	-70,013	-0,035	0,010
-415,671	-53,187	0,133	-0,044
-414,657	-200,000	0,018	-0,063
-413,642	81,152	0,054	-0,042
-412,628	79,340	-0,077	-0,060
-411,613	-200,000	0,008	-0,108
-410,598	-129,271	0,003	0,000
-409,584	-29,369	-0,077	-0,032
-408,569	765,335	0,031	0,062
-407,555	526,768	0,063	0,108
-406,540	-200,000	0,008	0,086
-405,525	-200,000	0,005	-0,026
-404,511	418,861	0,018	0,029
-403,496	-95,927	-0,026	0,005
-402,482	4,041	-0,024	-0,013
-401,467	-200,000	-0,014	0,098
-400,452	-200,000	-0,017	-0,056
-399,438	475,051	0,017	-0,027
-398,423	-17,097	0,068	-0,031
-397,409	82,469	-0,115	0,091
-396,394	17,191	-0,095	0,055
-395,379	-177,184	-0,189	-0,003
-394,365	177,484	-0,024	0,026
-393,350	717,203	0,063	0,121
-392,336	211,422	-0,087	0,100
-391,321	143,943	-0,140	-0,136
-390,306	41,729	-0,113	0,075
-389,292	800,000	0,040	0,124
-388,277	-200,000	0,021	0,093
-387,263	85,382	0,072	0,057
-386,248	800,000	0,094	0,197
-385,233	24,884	-0,089	-0,054
-384,219	-58,426	0,044	-0,014
-383,204	800,000	-0,042	-0,123
-382,190	800,000	0,039	-0,114
-381,175	94,383	-0,113	0,094
-380,160	-100,811	0,064	-0,011
-379,146	335,704	0,053	-0,075
-378,131	-92,083	-0,089	0,018
-377,117	-71,930	0,074	-0,020
-376,102	800,000	0,010	-0,030
-375,088	800,000	-0,019	-0,059
-374,073	-200,000	-0,013	-0,122
-373,058	231,080	0,113	-0,135
-372,044	-115,998	0,056	-0,007
-371,029	-35,172	0,074	-0,029
-370,015	-144,073	0,034	-0,002
-369,000	800,000	0,036	-0,091
-367,985	-132,605	-0,180	0,017
-366,971	-200,000	-0,064	0,249
-365,956	-128,512	0,099	-0,010
-364,942	91,930	-0,038	0,031
-363,927	44,727	-0,107	0,071
-362,912	36,606	0,077	0,049
-361,898	6,683	0,067	-0,036
-360,883	-78,227	0,077	0,019
-359,869	800,000	0,054	-0,146
-358,854	110,755	0,048	-0,042
-357,839	-200,000	-0,036	-0,145
-356,825	173,769	0,070	0,074
-355,810	309,185	-0,048	0,066
-354,796	-200,000	0,134	0,000
-353,781	-170,189	-0,222	0,006
-352,766	0,350	0,097	0,050
-351,752	128,255	0,067	0,062
-350,737	-9,738	0,044	0,021
-349,723	55,928	0,061	-0,043
-348,708	23,513	-0,206	-0,123
-347,693	800,000	0,039	-0,095
-346,679	-136,957	-0,054	-0,004
-345,664	-200,000	-0,015	-0,139
-344,650	-115,619	-0,102	-0,014
-343,635	-118,634	0,078	0,010
-342,620	800,000	0,036	0,098
-341,606	270,091	0,034	0,044
-340,591	451,791	0,126	0,202
-339,577	-7,337	-0,051	-0,025
-338,562	55,000	-0,141	0,098
-337,548	178,896	0,073	0,078
-336,533	-74,647	-0,103	-0,027
-335,518	-200,000	-0,013	-0,138
-334,504	-43,917	0,101	-0,036
-333,489	-200,000	-0,004	0,037
-332,475	782,397	-0,024	-0,047
-331,460	800,000	-0,020	-0,056
-330,445	-100,124	-0,126	0,023
-329,431	-137,891	-0,018	0,001
-328,416	-43,002	0,061	-0,022
-327,402	46,828	-0,027	-0,018
-326,387	-19,918	0,148	-0,066
-325,372	164,586	-0,055	-0,057
-324,358	-200,000	-0,025	-0,081
-323,343	-88,548	-0,023	0,005
-322,329	-35,978	0,125	-0,049
-321,314	-200,000	-0,013	0,076
-320,299	-200,000	-0,003	0,017
-319,285	196,642	0,108	0,119
-318,270	215,894	-0,108	-0,125
-317,256	451,519	-0,088	0,141
-316,241	-200,000	0,032	0,135
-315,226	-121,584	0,049	0,006
-314,212	-69,025	0,100	-0,028
-313,197	-200,000	-0,031	0,135
-312,183	-63,424	-0,079	-0,024
-311,168	608,515	0,064	0,116
-310,153	-200,000	0,017	-0,136
-309,139	800,000	-0,010	0,022
-308,124	-200,000	-0,033	0,113
-307,110	-43,244	0,106	-0,039
-306,095	102,387	0,037	0,032
-305,080	578,166	-0,028	0,050
-304,066	158,553	-0,084	0,085
-303,051	800,000	-0,041	-0,084
-302,037	-159,664	0,110	0,004
-301,022	-124,379	0,118	-0,013
-300,008	-2,806	-0,034	-0,017
-298,993	-200,000	0,011	0,101
-297,978	-122,403	-0,121	0,014
-296,964	111,673	-0,072	-0,063
-295,949	-174,288	0,100	0,002
-294,935	-13,872	-0,014	-0,006
-293,920	128,050	0,076	-0,070
-292,905	-38,844	-0,008	-0,003
-291,891	601,836	-0,050	0,090
-290,876	59,157	0,058	-0,041
-289,862	142,854	-0,105	0,101
-288,847	305,381	-0,048	-0,065
-287,832	689,249	-0,049	-0,093
-286,818	47,645	-0,021	-0,014
-285,803	-200,000	-0,006	-0,091
-284,789	800,000	-0,031	0,080
-283,774	240,731	-0,087	0,106
-282,759	-200,000	0,001	-0,100
-281,745	-200,000	-0,019	0,137
-280,730	156,523	-0,065	-0,065
-279,716	73,816	0,066	0,050
-278,701	-200,000	0,047	0,271
-277,686	55,855	-0,053	0,037
-276,672	800,000	-0,059	-0,180
-275,657	-23,873	-0,015	-0,006
-274,643	190,681	-0,053	-0,058
-273,628	800,000	0,055	-0,141
-272,613	119,642	0,044	-0,040
-271,599	-200,000	-0,001	0,073
-270,584	109,307	-0,020	0,017
-269,570	-200,000	0,017	0,164
-268,555	800,000	-0,030	0,075
-267,540	-200,000	0,010	0,035
-266,526	-200,000	-0,011	-0,129
-265,511	-144,598	-0,159	-0,010
-264,497	-135,367	-0,138	0,012
-263,482	410,592	0,048	0,074
-262,467	-200,000	0,012	0,135
-261,453	-200,000	0,006	-0,044
-260,438	-200,000	0,024	-0,098
-259,424	-98,992	-0,136	0,025
-258,409	-124,995	-0,043	-0,005
-257,395	259,859	0,081	-0,101
-256,380	-200,000	0,004	-0,057
-255,365	-200,000	0,125	0,000
-254,351	86,334	0,064	-0,051
-253,336	800,000	-0,043	-0,090
-252,322	411,639	-0,063	-0,097
-251,307	-187,160	-0,123	-0,001
-250,292	-86,607	0,163	0,036
-249,278	-200,000	-0,004	-0,044
-248,263	-200,000	0,017	0,172
-247,249	97,575	-0,136	0,113
-246,234	-88,443	-0,098	-0,021
-245,219	800,000	0,037	-0,101
-244,205	-82,369	-0,063	0,015
-243,190	36,514	-0,016	0,010
-242,176	-200,000	-0,019	0,086
-241,161	471,022	-0,045	-0,074
-240,146	174,410	0,049	0,051
-239,132	-88,360	0,139	0,030
-238,117	-144,182	0,049	-0,003
-237,103	11,718	-0,123	-0,068
-236,088	115,466	0,083	-0,073
-235,073	-200,000	-0,004	0,054
-234,059	-132,351	0,108	0,010
-233,044	-41,079	0,060	0,022
-232,030	-50,726	0,068	-0,023
-231,015	66,738	-0,031	-0,023
-230,000	-71,664	-0,118	0,032
-228,986	86,969	0,060	-0,048
-227,971	229,755	0,028	0,034
-226,957	-200,000	0,021	0,086
-225,942	-189,497	-0,062	0,001
-224,927	-200,000	-0,000	0,029
-223,913	-200,000	-0,002	-0,092
-222,898	800,000	-0,028	0,067
-221,884	-200,000	-0,012	-0,041
-220,869	-200,000	0,032	0,147
-219,855	800,000	0,026	0,055
-218,840	42,794	0,074	-0,049
-217,825	800,000	-0,036	-0,072
-216,811	596,441	-0,070	-0,125
-215,796	46,136	-0,025	0,016
-214,782	-200,000	-0,007	-0,228
-213,767	800,000	0,041	-0,096
-212,752	123,457	-0,025	0,023
-211,738	-0,372	-0,025	0,013
-210,723	-200,000	-0,003	-0,084
-209,709	-6,540	0,094	-0,046
-208,694	-200,000	0,008	-0,059
-207,679	-20,564	-0,151	-0,067
-206,665	800,000	0,049	0,108
-205,650	-200,000	0,003	0,045
-204,636	386,214	0,094	0,140
-203,621	-96,132	0,074	-0,014
-202,606	-24,599	0,029	0,012
-201,592	-200,000	0,004	-0,057
-200,577	-91,032	-0,081	-0,017
-199,563	-200,000	-0,009	0,098
-198,548	800,000	0,066	0,203
-197,533	562,351	-0,041	0,072
-196,519	-200,000	-0,024	0,082
-195,504	-200,000	0,007	0,072
-194,490	-90,255	-0,125	-0,026
-193,475	-87,741	-0,048	0,010
-192,460	323,561	-0,037	-0,051
-191,446	-118,938	0,087	-0,011
-190,431	258,471	-0,088	-0,109
-189,417	240,284	-0,029	0,035
-188,402	-121,866	-0,152	0,018
-187,387	149,731	-0,042	0,041
-186,373	800,000	0,030	-0,067
-185,358	-200,000	0,009	0,040
-184,344	129,914	0,048	-0,044
-183,329	800,000	0,049	0,107
-182,315	-140,105	0,084	-0,006
-181,300	-200,000	-0,110	0,000
-180,285	103,363	0,043	0,036
-179,271	-200,000	0,008	-0,069
-178,256	95,211	-0,021	-0,017
-177,242	54,857	0,044	-0,030
-176,227	637,895	0,029	-0,054
-175,212	169,674	-0,078	0,081
-174,198	-200,000	0,007	0,049
-173,183	-200,000	0,028	0,094
-172,169	-108,988	-0,119	0,018
-171,154	-200,000	-0,018	-0,122
-170,139	-39,104	-0,101	0,038
-169,125	-24,997	0,112	0,047
-168,110	138,111	-0,087	0,082
-167,096	-146,072	0,118	0,007
-166,081	-113,198	-0,171	0,024
-165,066	800,000	-0,068	0,179
-164,052	-200,000	-0,017	0,057
-163,037	323,004	0,052	0,072
-162,023	-200,000	-0,006	0,043
-161,008	193,322	0,040	0,044
-159,993	-200,000	0,004	-0,073
-158,979	-4,503	-0,049	-0,025
-157,964	-13,909	-0,073	-0,034
-156,950	256,414	-0,070	-0,086
-155,935	106,949	0,053	0,045
-154,920	-200,000	0,010	0,059
-153,906	-62,132	0,137	0,041
-152,891	492,275	0,058	0,096
-151,877	-200,000	0,006	-0,031
-150,862	-152,640	0,037	-0,002
-149,847	-53,487	-0,084	-0,028
-148,833	800,000	-0,007	-0,018
-147,818	800,000	0,041	-0,097
-146,804	-200,000	-0,021	0,116
-145,789	800,000	0,033	-0,087
-144,775	49,807	-0,057	0,039
-143,760	136,584	-0,101	-0,095
-142,745	35,722	-0,053	-0,033
-141,731	19,047	-0,031	-0,018
-140,716	-200,000	-0,004	-0,077
-139,702	-13,610	-0,135	-0,063
-138,687	-200,000	0,000	-0,052
-137,672	389,115	-0,046	0,068
-136,658	42,842	0,045	-0,029
-135,643	800,000	0,003	0,007
-134,629	22,982	0,067	0,039
-133,614	-200,000	-0,020	-0,087
-132,599	-130,825	0,218	0,021
-131,585	-87,655	0,143	0,031
-130,570	36,836	-0,081	-0,051
-129,556	661,838	0,066	-0,124
-128,541	800,000	0,030	0,082
-127,526	800,000	0,044	0,109
-126,512	52,269	-0,088	-0,061
-125,497	-164,701	0,129	-0,004
-124,483	-200,000	0,009	0,234
-123,468	69,409	0,037	0,027
-122,453	-112,196	-0,016	-0,002
-121,439	800,000	0,036	-0,113
-120,424	281,308	0,044	-0,056
