DTS Sentinel unit serial number:	SN410029Multiplexer serial number:	ORYXHardware model number:	OX2-SRSoftware version number:	ORYX F/W v4,00 Oryx Data Collector v3.7.2.0data status	okinstallation	B5 Nyhavnadifferential loss correction	single-endedforward channel	channel 2reverse channel	N/Adate	2023/12/14time	05:52:13forward acquisition time	300,00reverse acquisition time	0,00gamma	499,1914k internal	0,3157k external	0,3157temperature offset calibration	1,0000default loss term (dB/km)	0,3820temperature slope calibration	1,0000multiplexer offset coefficient	1,0000multiplexer slope coefficient	1,0000fibre end	0,00T internal ref (°C)	7,67T ext. ref 1 (°C)	-8,80T ext. ref 2 (°C)	-8,87length (m)	temperature (°C)	Stokes	anti-Stokes-744,400	-125,269	0,031	-0,003
-743,385	-165,270	-0,435	-0,014
-742,371	34,994	0,199	0,128
-741,356	-137,669	-0,309	0,025
-740,342	-85,803	0,166	0,038
-739,327	-119,829	-0,464	-0,058
-738,312	-12,072	0,207	0,100
-737,298	-2,632	-0,328	-0,169
-736,283	55,080	0,075	0,053
-735,269	-114,957	-0,462	-0,064
-734,254	-40,773	0,023	-0,009
-733,239	-5,034	-0,648	-0,327
-732,225	-95,477	0,211	0,041
-731,210	-118,212	-0,040	0,005
-730,196	-91,246	0,086	-0,018
-729,181	-41,269	-0,185	0,070
-728,167	73,276	-0,080	0,062
-727,152	-68,076	-0,030	0,009
-726,137	61,270	-0,137	0,100
-725,123	117,661	-0,096	-0,087
-724,108	800,000	0,055	-0,140
-723,094	-34,699	-0,170	-0,068
-722,079	800,000	0,033	-0,072
-721,064	9,574	0,089	-0,050
-720,050	800,000	-0,013	-0,044
-719,035	380,777	0,027	-0,041
-718,021	-148,178	-0,090	-0,005
-717,006	-148,587	0,019	-0,001
-715,991	800,000	-0,063	-0,146
-714,977	-87,859	-0,149	0,033
-713,962	-200,000	0,007	-0,029
-712,948	42,772	0,044	0,030
-711,933	-200,000	0,081	0,000
-710,918	18,676	-0,031	-0,018
-709,904	412,021	-0,071	-0,112
-708,889	-200,000	-0,034	-0,112
-707,875	-200,000	-0,034	-0,139
-706,860	29,271	0,029	-0,018
-705,845	-117,699	0,060	0,008
-704,831	98,963	-0,055	0,047
-703,816	309,614	0,076	0,105
-702,802	191,822	0,086	-0,096
-701,787	800,000	-0,029	-0,079
-700,772	62,024	-0,118	0,087
-699,758	345,401	0,016	0,023
-698,743	507,215	0,049	0,085
-697,729	-146,865	0,161	0,010
-696,714	34,216	0,076	0,049
-695,699	328,165	-0,089	-0,126
-694,685	-186,462	-0,087	-0,001
-693,670	-107,069	-0,187	0,030
-692,656	800,000	-0,077	-0,205
-691,641	273,505	-0,050	-0,066
-690,627	21,630	-0,080	-0,048
-689,612	78,899	-0,142	-0,112
-688,597	294,411	-0,085	-0,114
-687,583	800,000	-0,056	-0,129
-686,568	643,216	0,006	0,012
-685,554	73,028	-0,103	-0,079
-684,539	64,650	-0,084	-0,062
-683,524	-156,271	0,117	0,005
-682,510	-200,000	-0,016	-0,088
-681,495	271,319	-0,061	0,079
-680,481	460,565	-0,047	-0,077
-679,466	277,069	-0,047	-0,062
-678,451	35,570	0,043	0,028
-677,437	-96,850	-0,107	-0,020
-676,422	-28,836	-0,104	-0,044
-675,408	187,281	-0,086	-0,094
-674,393	-155,773	0,101	-0,005
-673,378	266,953	0,046	0,059
-672,364	668,241	-0,031	0,059
-671,349	277,139	0,041	-0,054
-670,335	65,041	0,031	0,023
-669,320	-70,430	0,082	0,023
-668,305	-107,762	-0,024	0,004
-667,291	-16,096	-0,113	-0,053
-666,276	107,950	0,046	-0,040
-665,262	-75,382	-0,052	-0,013
-664,247	-200,000	0,046	-0,150
-663,232	-28,174	0,054	-0,023
-662,218	-80,176	0,102	0,025
-661,203	-121,068	-0,059	0,007
-660,189	-200,000	-0,006	0,080
-659,174	-200,000	-0,004	-0,092
-658,159	-68,737	-0,093	0,026
-657,145	40,139	-0,019	0,012
-656,130	-131,822	-0,141	-0,013
-655,116	-147,816	-0,013	0,001
-654,101	27,314	0,085	-0,052
-653,086	-200,000	0,012	-0,048
-652,072	47,561	-0,067	-0,046
-651,057	-55,263	-0,153	0,050
-650,043	800,000	-0,097	-0,205
-649,028	-121,827	0,115	0,014
-648,014	-200,000	-0,042	0,167
-646,999	800,000	-0,063	0,152
-645,984	-13,713	0,086	0,041
-644,970	-53,489	-0,123	0,041
-643,955	-200,000	-0,009	-0,087
-642,941	-175,215	-0,061	0,001
-641,926	122,762	-0,100	-0,092
-640,911	-200,000	0,017	-0,073
-639,897	450,096	0,011	0,018
-638,882	-91,084	0,154	0,032
-637,868	-61,525	-0,028	-0,008
-636,853	47,696	-0,051	-0,035
-635,838	-35,093	-0,103	0,041
-634,824	-200,000	0,025	-0,126
-633,809	85,364	0,081	0,065
-632,795	-76,016	0,108	0,028
-631,780	800,000	-0,005	-0,015
-630,765	20,397	-0,056	-0,033
-629,751	-180,268	-0,092	0,001
-628,736	650,580	-0,044	-0,083
-627,722	-200,000	-0,030	-0,106
-626,707	143,200	0,071	0,069
-625,692	-94,185	0,103	0,020
-624,678	-200,000	0,003	-0,076
-623,663	800,000	0,022	-0,068
-622,649	-200,000	-0,013	-0,045
-621,634	-200,000	0,029	0,116
-620,619	800,000	0,062	-0,188
-619,605	-200,000	0,000	0,126
-618,590	-200,000	0,011	0,054
-617,576	109,179	-0,077	0,068
-616,561	-200,000	0,010	-0,108
-615,546	175,259	-0,062	-0,066
-614,532	-200,000	0,035	-0,118
-613,517	697,087	0,032	0,062
-612,503	78,966	-0,081	-0,063
-611,488	234,700	-0,032	-0,039
-610,474	-200,000	0,005	-0,043
-609,459	258,392	-0,025	-0,031
-608,444	-68,284	-0,130	-0,037
-607,430	103,940	-0,011	-0,009
-606,415	119,180	0,044	0,040
-605,401	146,977	0,054	-0,054
-604,386	59,593	0,131	0,094
-603,371	-200,000	0,005	0,019
-602,357	-200,000	0,015	-0,170
-601,342	-200,000	-0,039	-0,134
-600,328	8,726	-0,165	-0,091
-599,313	-200,000	-0,014	-0,088
-598,298	449,511	0,042	0,068
-597,284	-200,000	-0,003	-0,083
-596,269	-29,858	0,054	-0,023
-595,255	-97,930	-0,014	-0,003
-594,240	800,000	0,053	-0,125
-593,225	-200,000	-0,005	0,120
-592,211	-200,000	0,003	-0,047
-591,196	228,045	-0,033	-0,040
-590,182	-200,000	-0,001	0,113
-589,167	43,792	0,087	0,058
-588,152	800,000	-0,020	0,061
-587,138	26,452	0,022	0,013
-586,123	-200,000	-0,005	-0,076
-585,109	800,000	-0,026	0,059
-584,094	800,000	0,038	-0,104
-583,079	784,879	0,039	-0,078
-582,065	101,957	-0,068	0,058
-581,050	-109,002	-0,095	-0,015
-580,036	11,156	-0,069	-0,039
-579,021	800,000	-0,049	-0,125
-578,006	58,324	-0,018	-0,013
-576,992	-200,000	0,009	-0,046
-575,977	22,028	0,054	0,032
-574,963	800,000	0,014	-0,038
-573,948	108,807	0,045	-0,039
-572,934	-16,409	-0,074	-0,034
-571,919	-108,607	0,039	0,006
-570,904	181,152	-0,021	-0,022
-569,890	131,190	0,112	-0,106
-568,875	-37,455	-0,090	-0,035
-567,861	262,599	-0,033	0,041
-566,846	800,000	0,072	0,202
-565,831	-200,000	0,013	-0,061
-564,817	-200,000	0,015	-0,193
-563,802	-200,000	0,003	-0,056
-562,788	-200,000	0,029	0,126
-561,773	9,613	0,048	-0,027
-560,758	40,496	-0,085	0,056
-559,744	321,775	0,085	0,119
-558,729	488,976	0,052	-0,087
-557,715	-109,417	-0,089	0,014
-556,700	-103,161	-0,047	0,008
-555,685	-36,939	-0,120	-0,047
-554,671	5,022	0,046	0,025
-553,656	-200,000	0,014	0,064
-552,642	800,000	0,064	0,182
-551,627	-200,000	-0,016	0,068
-550,612	-200,000	0,010	-0,123
-549,598	800,000	-0,027	0,088
-548,583	-67,919	-0,143	0,041
-547,569	-128,302	-0,039	0,004
-546,554	85,505	-0,055	0,044
-545,539	32,489	-0,051	0,032
-544,525	186,808	-0,119	0,130
-543,510	-101,001	0,092	0,016
-542,496	126,682	0,042	-0,039
-541,481	-155,220	-0,066	-0,003
-540,466	-126,242	-0,024	-0,003
-539,452	800,000	0,039	0,106
-538,437	577,519	0,072	0,129
-537,423	800,000	0,053	-0,125
-536,408	-200,000	-0,042	-0,151
-535,393	-9,689	0,040	-0,020
-534,379	-25,352	-0,107	-0,046
-533,364	-69,060	0,101	0,028
-532,350	48,545	-0,036	-0,024
-531,335	-200,000	-0,001	0,101
-530,321	32,333	-0,048	-0,030
-529,306	-15,012	-0,067	0,031
-528,291	118,103	-0,084	-0,076
-527,277	-101,311	0,027	0,005
-526,262	82,511	-0,063	0,050
-525,248	-200,000	-0,017	0,125
-524,233	343,031	0,108	0,155
-523,218	-200,000	-0,001	0,035
-522,204	87,047	0,041	0,033
-521,189	-102,509	-0,044	-0,008
-520,175	-200,000	0,075	0,257
-519,160	345,765	-0,127	-0,183
-518,145	-58,983	-0,097	0,030
-517,131	-200,000	-0,026	-0,156
-516,116	800,000	0,046	0,093
-515,102	175,345	0,032	0,034
-514,087	306,676	0,054	0,074
-513,072	-200,000	-0,028	-0,156
-512,058	-200,000	0,001	0,039
-511,043	-200,000	0,000	0,037
-510,029	-32,507	0,055	-0,022
-509,014	38,007	-0,053	0,034
-507,999	800,000	0,013	0,033
-506,985	-73,144	-0,058	-0,016
-505,970	-200,000	-0,004	-0,024
-504,956	-200,000	-0,016	-0,130
-503,941	242,632	0,051	0,063
-502,926	-200,000	-0,002	-0,014
-501,912	800,000	0,031	0,095
-500,897	-88,347	-0,051	-0,011
-499,883	33,636	0,039	0,025
-498,868	-159,966	-0,030	-0,001
-497,853	101,504	-0,055	-0,047
-496,839	203,030	0,022	-0,025
-495,824	541,214	0,039	-0,068
-494,810	-200,000	0,004	0,035
-493,795	751,418	0,019	-0,037
-492,781	180,198	-0,112	0,120
-491,766	-62,306	-0,122	-0,037
-490,751	800,000	0,022	0,068
-489,737	-152,460	0,055	-0,003
-488,722	79,623	0,097	0,076
-487,708	800,000	-0,024	-0,065
-486,693	45,230	-0,040	-0,027
-485,678	-200,000	0,014	0,072
-484,664	-31,407	0,130	0,053
-483,649	-96,991	-0,212	0,040
-482,635	800,000	-0,021	0,050
-481,620	-101,108	0,033	0,006
-480,605	442,556	0,081	0,130
-479,591	-165,463	0,131	0,004
-478,576	-81,043	-0,164	-0,039
-477,562	-19,351	-0,058	0,026
-476,547	-200,000	0,002	0,078
-475,532	-97,614	0,025	-0,005
-474,518	-50,286	0,149	-0,051
-473,503	274,817	0,100	-0,130
-472,489	-5,973	-0,044	-0,022
-471,474	-200,000	0,033	-0,230
-470,459	262,030	-0,125	-0,158
-469,445	-200,000	0,017	0,063
-468,430	262,302	0,035	0,045
-467,416	-200,000	0,016	0,114
-466,401	420,033	-0,051	0,079
-465,386	-26,146	0,086	-0,037
-464,372	138,479	-0,092	-0,088
-463,357	262,085	-0,034	-0,044
-462,343	611,664	-0,047	-0,085
-461,328	46,940	-0,018	-0,012
-460,313	800,000	0,058	0,162
-459,299	637,680	0,046	0,085
-458,284	-200,000	0,033	0,226
-457,270	-49,504	-0,013	-0,005
-456,255	143,690	-0,050	-0,049
-455,241	-200,000	0,026	0,100
-454,226	-93,384	-0,204	-0,041
-453,211	-200,000	0,014	-0,108
-452,197	13,335	0,058	0,033
-451,182	800,000	0,040	0,119
-450,168	800,000	0,032	0,095
-449,153	-200,000	-0,052	-0,000
-448,138	-200,000	0,015	-0,068
-447,124	-141,439	-0,095	0,007
-446,109	-200,000	0,030	0,110
-445,095	28,659	0,132	-0,081
-444,080	292,704	0,125	0,166
-443,065	-160,175	-0,108	0,004
-442,051	-58,916	0,115	-0,036
-441,036	-188,166	0,057	0,001
-440,022	-90,945	-0,069	-0,014
-439,007	167,087	-0,036	0,037
-437,992	-0,148	-0,025	0,013
-436,978	800,000	-0,025	0,060
-435,963	43,390	-0,046	0,031
-434,949	422,397	-0,049	-0,077
-433,934	800,000	-0,060	-0,165
-432,919	-165,502	-0,042	-0,001
-431,905	-28,472	-0,014	0,006
-430,890	800,000	0,028	0,060
-429,876	-2,176	0,186	0,095
-428,861	221,171	-0,041	-0,048
-427,846	-200,000	-0,027	-0,108
-426,832	157,206	-0,040	-0,041
-425,817	222,667	0,047	-0,055
-424,803	-111,709	-0,178	0,026
-423,788	800,000	-0,046	0,099
-422,773	-200,000	-0,013	-0,052
-421,759	-200,000	0,006	-0,102
-420,744	273,168	-0,047	0,060
-419,730	195,127	0,077	0,085
-418,715	681,465	0,029	-0,055
-417,701	165,251	-0,013	0,013
-416,686	32,312	0,071	0,045
-415,671	-41,326	0,154	0,057
-414,657	-198,962	0,118	-0,000
-413,642	800,000	-0,012	-0,026
-412,628	800,000	-0,005	-0,013
-411,613	-200,000	-0,001	-0,077
-410,598	-200,000	-0,001	-0,021
-409,584	-10,196	-0,195	0,094
-408,569	-153,852	0,166	-0,008
-407,555	-10,744	0,052	0,025
-406,540	800,000	-0,072	0,166
-405,525	-132,129	-0,206	0,019
-404,511	-44,904	-0,131	0,047
-403,496	-80,613	-0,243	0,058
-402,482	77,309	0,015	-0,011
-401,467	-184,982	-0,099	0,001
-400,452	25,640	0,109	0,066
-399,438	-126,674	-0,090	0,010
-398,423	247,712	0,046	-0,057
-397,409	-52,259	-0,165	-0,055
-396,394	43,326	0,046	0,030
-395,379	-146,861	0,118	0,007
-394,365	800,000	0,020	-0,042
-393,350	800,000	-0,057	0,147
-392,336	16,641	0,053	-0,031
-391,321	137,315	0,049	0,047
-390,306	-47,936	-0,102	0,036
-389,292	-200,000	0,019	-0,075
-388,277	800,000	-0,016	0,038
-387,263	-109,470	0,054	0,008
-386,248	89,108	0,127	0,103
-385,233	775,916	-0,025	0,049
-384,219	423,670	0,040	-0,063
-383,204	514,512	-0,058	-0,098
-382,190	533,656	0,058	-0,099
-381,175	-200,000	0,023	-0,148
-380,160	86,732	-0,088	-0,070
-379,146	322,428	0,100	0,139
-378,131	-200,000	0,041	0,271
-377,117	-200,000	0,006	0,029
-376,102	-200,000	-0,030	-0,114
-375,088	87,905	0,048	-0,039
-374,073	-15,276	0,027	-0,012
-373,058	-200,000	0,002	0,053
-372,044	285,377	0,078	0,103
-371,029	148,348	0,077	0,075
-370,015	658,488	-0,030	-0,057
-369,000	4,914	0,058	0,031
-367,985	25,043	-0,062	0,038
-366,971	572,369	0,036	0,064
-365,956	-200,000	-0,013	0,087
-364,942	800,000	-0,050	0,106
-363,927	415,765	-0,087	-0,134
-362,912	-200,000	-0,141	0,000
-361,898	-200,000	0,016	-0,053
-360,883	5,020	0,046	0,025
-359,869	-148,029	-0,061	0,004
-358,854	-138,874	0,073	-0,006
-357,839	248,281	0,049	0,060
-356,825	-71,438	-0,041	0,011
-355,810	-69,598	0,104	0,029
-354,796	-200,000	-0,013	-0,066
-353,781	-200,000	0,001	-0,092
-352,766	800,000	0,054	-0,134
-351,752	71,861	-0,087	-0,066
-350,737	4,505	0,127	-0,068
-349,723	-167,308	0,044	0,001
-348,708	-111,497	-0,163	0,024
-347,693	-200,000	-0,015	-0,176
-346,679	-46,607	0,015	0,005
-345,664	108,048	-0,127	-0,110
-344,650	-67,884	0,060	0,017
-343,635	-200,000	-0,010	-0,073
-342,620	800,000	0,051	0,107
-341,606	80,659	-0,014	0,011
-340,591	-106,040	-0,204	0,033
-339,577	-152,416	-0,141	-0,007
-338,562	443,720	0,016	0,025
-337,548	157,402	0,030	-0,030
-336,533	38,816	0,062	-0,040
-335,518	22,139	0,132	-0,078
-334,504	639,215	0,035	-0,064
-333,489	246,225	0,055	0,067
-332,475	667,735	-0,038	-0,072
-331,460	-200,000	0,022	-0,086
-330,445	398,021	-0,027	-0,041
-329,431	48,955	-0,013	0,009
-328,416	800,000	-0,054	0,135
-327,402	-25,033	0,065	-0,028
-326,387	-59,901	-0,090	0,028
-325,372	-200,000	-0,029	-0,114
-324,358	-9,198	0,164	0,079
-323,343	800,000	-0,035	-0,071
-322,329	-200,000	-0,003	-0,072
-321,314	-121,412	0,057	-0,007
-320,299	-56,479	0,090	-0,029
-319,285	490,118	0,112	-0,186
-318,270	800,000	0,003	-0,008
-317,256	-14,573	-0,098	0,046
-316,241	350,337	0,021	-0,030
-315,226	162,688	0,058	0,059
-314,212	273,488	0,079	0,101
-313,197	-200,000	-0,019	0,076
-312,183	377,598	-0,067	0,099
-311,168	484,833	-0,054	0,089
-310,153	-165,339	-0,134	-0,004
-309,139	70,758	-0,062	-0,046
-308,124	133,362	-0,050	-0,047
-307,110	358,127	-0,062	0,090
-306,095	22,827	0,142	-0,084
-305,080	537,790	-0,059	0,102
-304,066	-56,000	-0,110	0,035
-303,051	335,144	0,009	-0,012
-302,037	-61,544	-0,065	-0,020
-301,022	-165,929	0,113	0,003
-300,008	-12,328	0,073	0,034
-298,993	-132,431	-0,043	0,004
-297,978	170,134	0,098	0,101
-296,964	800,000	-0,072	-0,168
-295,949	252,233	0,068	-0,084
-294,935	113,386	-0,026	-0,023
-293,920	-200,000	-0,021	-0,092
-292,905	26,413	0,137	0,083
-291,891	174,106	0,034	0,035
-290,876	-127,840	-0,202	-0,021
-289,862	-200,000	-0,018	0,076
-288,847	-200,000	0,012	0,089
-287,832	-23,057	-0,052	-0,023
-286,818	-200,000	-0,016	0,092
-285,803	442,187	0,089	0,141
-284,789	-112,070	0,111	0,016
-283,774	-200,000	0,029	0,176
-282,759	263,093	0,036	0,046
-281,745	-91,409	-0,134	0,027
-280,730	368,933	-0,030	0,044
-279,716	107,325	0,159	0,137
-278,701	105,656	-0,047	0,040
-277,686	142,035	0,014	0,013
-276,672	-200,000	-0,021	-0,149
-275,657	23,069	-0,104	-0,062
-274,643	222,402	-0,062	0,073
-273,628	800,000	-0,069	-0,152
-272,613	54,227	0,022	0,015
-271,599	58,094	0,141	0,100
-270,584	-200,000	-0,008	0,081
-269,570	-200,000	0,005	0,022
-268,555	216,421	0,076	0,088
-267,540	-200,000	-0,020	-0,164
-266,526	216,997	-0,067	-0,078
-265,511	84,970	0,073	-0,058
-264,497	56,713	0,094	-0,066
-263,482	-27,711	0,065	-0,027
-262,467	267,641	0,040	-0,051
-261,453	800,000	0,074	0,195
-260,438	51,212	-0,052	-0,036
-259,424	229,421	-0,117	-0,139
-258,409	-3,866	0,085	-0,042
-257,395	654,906	0,020	0,038
-256,380	-26,696	-0,052	0,022
-255,365	220,712	0,122	0,141
-254,351	-99,055	-0,072	0,013
-253,336	-102,441	0,108	0,018
-252,322	-29,414	-0,146	0,060
-251,307	-129,264	-0,059	-0,006
-250,292	-114,317	-0,054	-0,007
-249,278	-12,431	-0,186	0,088
-248,263	101,441	0,029	0,025
-247,249	800,000	-0,015	-0,032
-246,234	55,820	-0,063	-0,044
-245,219	126,300	0,055	-0,051
-244,205	-154,247	0,162	0,008
-243,190	-13,975	-0,062	-0,029
-242,176	-200,000	0,013	0,061
-241,161	-76,631	-0,097	0,025
-240,146	235,951	0,108	0,130
-239,132	-40,007	-0,073	0,027
-238,117	-95,347	-0,083	-0,016
-237,103	292,617	-0,059	-0,078
-236,088	394,216	0,077	0,116
-235,073	120,907	0,025	-0,023
-234,059	-200,000	0,004	0,108
-233,044	75,979	0,064	0,049
-232,030	-108,446	-0,095	-0,015
-231,015	800,000	0,048	-0,142
-230,000	-200,000	0,003	-0,077
-228,986	384,483	0,029	0,043
-227,971	-88,194	0,096	0,021
-226,957	10,038	0,045	0,024
-225,942	-52,879	0,118	-0,039
-224,927	88,216	0,068	-0,054
-223,913	-74,113	-0,121	-0,031
-222,898	-83,203	-0,090	-0,021
-221,884	97,011	0,082	-0,068
-220,869	-74,032	0,067	0,017
-219,855	-100,951	0,123	0,022
-218,840	286,466	0,030	-0,039
-217,825	-156,286	0,050	0,002
-216,811	-53,643	-0,083	0,027
-215,796	191,800	0,060	0,065
-214,782	608,124	-0,012	-0,021
-213,767	-84,682	-0,052	0,012
-212,752	80,781	0,025	-0,020
-211,738	-200,000	0,005	0,065
-210,723	-88,873	-0,085	0,018
-209,709	-86,120	0,105	0,023
-208,694	-200,000	0,019	0,091
-207,679	-200,000	0,016	0,111
-206,665	543,066	0,028	0,048
-205,650	147,415	0,060	0,058
-204,636	29,803	-0,036	-0,022
-203,621	-28,851	0,085	0,035
-202,606	424,477	-0,024	-0,038
-201,592	577,121	0,070	-0,125
-200,577	-165,644	0,040	0,001
-199,563	77,409	0,079	-0,060
-198,548	226,265	0,050	-0,059
-197,533	15,637	0,119	-0,068
-196,519	11,678	0,010	-0,005
-195,504	-143,236	-0,068	0,005
-194,490	-22,550	0,097	-0,042
-193,475	800,000	-0,018	0,054
-192,460	-45,450	-0,044	-0,016
-191,446	155,990	-0,010	0,010
-190,431	800,000	-0,023	-0,058
-189,417	-200,000	-0,023	-0,163
-188,402	-200,000	0,003	-0,119
-187,387	600,373	0,101	-0,182
-186,373	-200,000	-0,037	-0,127
-185,358	-200,000	0,035	-0,137
-184,344	77,481	-0,023	0,018
-183,329	405,048	-0,050	-0,076
-182,315	36,562	0,052	-0,033
-181,300	-200,000	0,011	0,044
-180,285	-77,995	-0,055	-0,013
-179,271	309,511	-0,076	0,103
-178,256	693,724	-0,032	0,060
-177,242	-109,469	-0,140	-0,021
-176,227	266,373	0,065	-0,082
-175,212	-200,000	0,007	0,057
-174,198	800,000	0,018	-0,042
-173,183	800,000	-0,055	-0,165
-172,169	67,584	0,017	0,012
-171,154	-95,312	0,088	-0,017
-170,139	-200,000	-0,002	0,024
-169,125	-34,253	0,030	-0,012
-168,110	-53,906	-0,032	0,010
-167,096	-200,000	-0,005	-0,087
-166,081	-200,000	-0,021	-0,170
-165,066	210,382	-0,052	-0,059
-164,052	-200,000	0,001	-0,032
-163,037	83,826	0,087	0,069
-162,023	483,868	0,031	0,050
-161,008	442,345	-0,037	0,059
-159,993	-200,000	0,011	0,039
-158,979	5,035	-0,092	-0,049
-157,964	775,810	0,049	0,096
-156,950	211,847	0,015	0,017
-155,935	376,569	0,027	0,041
-154,920	90,550	0,027	-0,021
-153,906	-71,370	0,169	-0,045
-152,891	480,654	0,018	-0,030
-151,877	-101,688	-0,078	-0,014
-150,862	800,000	-0,048	0,133
-149,847	-129,408	-0,094	0,009
-148,833	407,398	0,008	0,013
-147,818	242,822	0,030	-0,036
-146,804	472,992	0,092	0,149
-145,789	-72,275	-0,152	0,040
-144,775	1,106	0,074	0,038
-143,760	-21,242	-0,061	0,027
-142,745	161,563	0,068	-0,068
-141,731	82,804	0,024	0,019
-140,716	-163,824	0,112	-0,004
-139,702	-59,337	-0,082	0,025
-138,687	-65,655	0,027	0,008
-137,672	-134,516	0,124	-0,011
-136,658	-200,000	0,018	0,072
-135,643	195,444	-0,047	-0,052
-134,629	800,000	0,022	-0,065
-133,614	-200,000	-0,010	0,032
-132,599	-24,565	-0,051	-0,022
-131,585	-200,000	-0,006	-0,023
-130,570	534,265	-0,085	-0,146
-129,556	-150,065	-0,140	0,008
-128,541	49,128	0,162	0,109
-127,526	-122,445	-0,039	-0,005
-126,512	449,681	-0,036	-0,057
-125,497	442,266	0,086	-0,137
-124,483	-103,570	0,089	-0,015
-123,468	-200,000	-0,011	-0,042
-122,453	645,702	-0,059	0,109
-121,439	300,114	0,100	-0,132
-120,424	-108,725	-0,130	-0,020
-119,410	294,341	0,039	0,052
