DTS Sentinel unit serial number:	SN410029Multiplexer serial number:	ORYXHardware model number:	OX2-SRSoftware version number:	ORYX F/W v4,00 Oryx Data Collector v3.7.2.0data status	okinstallation	B5 Nyhavnadifferential loss correction	single-endedforward channel	channel 2reverse channel	N/Adate	2023/12/12time	17:42:13forward acquisition time	300,00reverse acquisition time	0,00gamma	499,1914k internal	0,3157k external	0,3157temperature offset calibration	1,0000default loss term (dB/km)	0,3820temperature slope calibration	1,0000multiplexer offset coefficient	1,0000multiplexer slope coefficient	1,0000fibre end	0,00T internal ref (°C)	15,69T ext. ref 1 (°C)	-0,79T ext. ref 2 (°C)	-1,09length (m)	temperature (°C)	Stokes	anti-Stokes-744,400	800,000	0,026	0,068
-743,385	-5,261	-0,258	0,130
-742,371	143,976	0,057	0,056
-741,356	111,456	-0,210	0,187
-740,342	-200,000	0,017	0,064
-739,327	-100,498	-0,314	-0,057
-738,312	-200,000	0,027	0,104
-737,298	-46,364	-0,204	0,073
-736,283	364,812	0,055	-0,082
-735,269	29,130	-0,143	-0,089
-734,254	24,627	0,128	-0,078
-733,239	-46,982	-0,507	-0,182
-732,225	-23,878	0,267	0,117
-731,210	-154,202	-0,132	0,006
-730,196	544,011	-0,087	-0,154
-729,181	-200,000	-0,005	-0,053
-728,167	73,663	0,065	0,050
-727,152	536,559	-0,042	-0,074
-726,137	46,368	-0,130	0,089
-725,123	800,000	-0,043	0,112
-724,108	-60,308	-0,145	-0,045
-723,094	-200,000	-0,003	-0,035
-722,079	-53,579	-0,178	-0,060
-721,064	-60,824	-0,013	-0,004
-720,050	244,008	-0,095	-0,117
-719,035	-155,427	-0,009	0,000
-718,021	87,650	-0,020	0,016
-717,006	-200,000	-0,009	-0,140
-715,991	131,049	-0,095	-0,090
-714,977	173,123	-0,180	-0,191
-713,962	-178,142	-0,081	-0,001
-712,948	-119,683	-0,082	-0,010
-711,933	-200,000	0,014	-0,080
-710,918	800,000	-0,097	-0,258
-709,904	2,821	0,103	-0,055
-708,889	-200,000	-0,031	-0,127
-707,875	800,000	-0,054	-0,115
-706,860	-200,000	0,007	-0,119
-705,845	133,226	-0,064	-0,061
-704,831	800,000	0,031	0,068
-703,816	-200,000	0,010	0,172
-702,802	-94,670	-0,069	-0,014
-701,787	-200,000	0,002	-0,118
-700,772	-2,820	-0,124	-0,064
-699,758	-8,317	-0,115	-0,057
-698,743	11,745	-0,052	0,029
-697,729	-200,000	-0,003	0,150
-696,714	-188,169	-0,142	-0,001
-695,699	125,050	-0,078	0,072
-694,685	496,921	-0,068	-0,115
-693,670	-179,192	-0,103	0,002
-692,656	32,860	0,069	-0,044
-691,641	-103,785	0,055	-0,009
-690,627	-200,000	-0,012	-0,105
-689,612	800,000	-0,025	0,076
-688,597	160,931	0,073	-0,075
-687,583	-200,000	-0,018	-0,085
-686,568	-14,336	-0,113	-0,053
-685,554	-128,378	-0,124	-0,013
-684,539	4,072	-0,039	-0,021
-683,524	127,145	-0,097	-0,090
-682,510	-200,000	0,044	-0,162
-681,495	309,860	-0,032	-0,044
-680,481	800,000	-0,033	0,074
-679,466	-2,850	-0,097	-0,050
-678,451	800,000	-0,053	-0,128
-677,437	800,000	0,022	-0,053
-676,422	666,323	0,003	-0,005
-675,408	-200,000	0,006	-0,111
-674,393	-200,000	-0,021	-0,087
-673,378	-70,602	-0,088	0,024
-672,364	-112,465	-0,042	0,006
-671,349	341,709	0,079	-0,115
-670,335	-104,583	-0,062	-0,010
-669,320	36,853	0,017	-0,011
-668,305	-124,071	0,022	0,002
-667,291	-174,930	-0,079	-0,002
-666,276	413,645	-0,130	-0,204
-665,262	-136,183	-0,089	-0,008
-664,247	177,409	-0,046	-0,049
-663,232	-148,351	-0,187	-0,011
-662,218	39,622	0,038	0,025
-661,203	105,974	-0,058	-0,050
-660,189	106,511	0,074	-0,065
-659,174	242,599	-0,022	-0,028
-658,159	-200,000	0,004	0,032
-657,145	104,448	-0,048	-0,041
-656,130	428,079	-0,051	-0,082
-655,116	55,855	-0,160	0,114
-654,101	11,618	-0,094	0,053
-653,086	39,616	-0,115	0,076
-652,072	59,792	-0,038	-0,028
-651,057	19,575	-0,122	-0,072
-650,043	101,122	-0,127	-0,109
-649,028	-69,273	-0,093	-0,026
-648,014	59,086	-0,056	0,040
-646,999	711,684	0,063	-0,123
-645,984	1,347	-0,124	0,065
-644,970	-200,000	0,003	-0,138
-643,955	306,753	-0,027	-0,037
-642,941	-65,219	0,146	0,043
-641,926	23,027	0,021	-0,013
-640,911	6,085	0,031	0,017
-639,897	-200,000	0,001	0,079
-638,882	104,542	-0,148	-0,128
-637,868	12,344	-0,090	0,051
-636,853	470,523	-0,038	-0,063
-635,838	248,768	0,060	-0,075
-634,824	4,060	-0,085	-0,046
-633,809	-200,000	0,007	-0,106
-632,795	-9,942	-0,067	-0,033
-631,780	800,000	-0,032	-0,077
-630,765	161,626	-0,139	-0,143
-629,751	-124,335	-0,066	-0,007
-628,736	11,828	-0,104	0,059
-627,722	-80,074	0,069	0,017
-626,707	-21,964	-0,078	-0,035
-625,692	391,514	-0,044	-0,067
-624,678	-129,288	0,035	0,003
-623,663	30,709	-0,179	-0,112
-622,649	800,000	-0,098	-0,244
-621,634	-200,000	0,007	-0,043
-620,619	101,493	0,030	-0,025
-619,605	-200,000	0,007	-0,036
-618,590	504,211	0,028	0,048
-617,576	681,709	0,010	0,019
-616,561	350,740	0,007	0,010
-615,546	800,000	-0,043	-0,110
-614,532	611,700	-0,052	-0,096
-613,517	394,979	-0,012	-0,019
-612,503	226,069	-0,079	-0,094
-611,488	-200,000	-0,032	0,123
-610,474	136,441	-0,065	-0,062
-609,459	352,380	-0,042	-0,061
-608,444	-200,000	0,023	0,076
-607,430	-64,060	-0,158	-0,047
-606,415	161,919	-0,144	-0,148
-605,401	650,697	0,030	0,056
-604,386	-36,624	0,038	0,015
-603,371	170,753	-0,080	0,085
-602,357	-200,000	-0,023	-0,085
-601,342	84,563	0,016	-0,013
-600,328	141,445	0,134	0,130
-599,313	-70,261	-0,184	0,051
-598,298	-138,743	-0,058	0,005
-597,284	28,585	0,093	-0,058
-596,269	-104,843	-0,047	-0,008
-595,255	-200,000	0,014	-0,051
-594,240	-200,000	-0,012	-0,111
-593,225	-90,391	-0,243	0,051
-592,211	-97,867	0,040	-0,008
-591,196	-6,080	-0,106	-0,053
-590,182	-200,000	0,023	-0,183
-589,167	-200,000	-0,028	0,126
-588,152	58,223	-0,021	0,015
-587,138	366,739	-0,017	-0,025
-586,123	-200,000	0,007	-0,036
-585,109	338,350	0,039	0,055
-584,094	175,563	-0,068	0,072
-583,079	800,000	-0,028	-0,071
-582,065	59,397	-0,136	0,098
-581,050	403,553	0,066	-0,103
-580,036	-45,532	-0,091	-0,033
-579,021	800,000	0,029	-0,060
-578,006	539,795	-0,047	0,082
-576,992	699,510	0,031	-0,060
-575,977	6,336	-0,081	0,044
-574,963	42,712	0,013	-0,009
-573,948	800,000	-0,023	-0,056
-572,934	425,338	-0,038	-0,060
-571,919	-200,000	0,010	0,039
-570,904	-200,000	-0,023	0,128
-569,890	-49,061	-0,011	0,004
-568,875	-200,000	-0,014	0,127
-567,861	-200,000	0,090	0,000
-566,846	135,445	0,082	0,078
-565,831	-98,531	-0,035	-0,006
-564,817	298,376	0,068	0,092
-563,802	176,135	-0,041	-0,044
-562,788	345,288	0,099	-0,143
-561,773	610,219	0,050	-0,092
-560,758	64,084	0,093	0,068
-559,744	800,000	-0,017	0,048
-558,729	800,000	0,021	0,066
-557,715	-115,712	-0,139	0,019
-556,700	-105,700	0,105	-0,017
-555,685	-130,988	0,019	0,002
-554,671	372,304	-0,014	-0,020
-553,656	800,000	-0,034	0,102
-552,642	-103,469	0,081	0,014
-551,627	-47,170	0,038	0,014
-550,612	698,458	-0,001	0,002
-549,598	-200,000	0,032	-0,106
-548,583	-200,000	-0,009	-0,037
-547,569	800,000	-0,014	0,034
-546,554	800,000	-0,017	0,049
-545,539	39,658	0,030	0,020
-544,525	177,620	0,068	0,072
-543,510	-82,206	-0,065	-0,015
-542,496	28,565	-0,026	-0,016
-541,481	800,000	0,038	-0,107
-540,466	51,584	-0,161	0,112
-539,452	-91,178	0,113	0,024
-538,437	92,548	0,034	0,028
-537,423	-77,478	-0,081	0,020
-536,408	169,858	-0,089	0,094
-535,393	800,000	-0,024	-0,075
-534,379	-200,000	0,005	-0,051
-533,364	-117,082	0,087	-0,012
-532,350	334,636	0,025	0,036
-531,335	454,476	-0,057	0,093
-530,321	4,272	-0,094	0,050
-529,306	800,000	-0,039	0,118
-528,291	322,191	-0,042	-0,058
-527,277	241,183	-0,080	-0,098
-526,262	-200,000	0,008	-0,066
-525,248	-200,000	0,001	0,014
-524,233	-40,078	0,066	0,025
-523,218	286,125	0,011	0,014
-522,204	-6,368	0,170	-0,085
-521,189	800,000	-0,039	-0,113
-520,175	-6,891	-0,059	0,029
-519,160	12,821	0,018	0,010
-518,145	800,000	0,060	0,122
-517,131	-56,586	0,098	0,032
-516,116	164,961	-0,055	-0,057
-515,102	179,344	-0,028	-0,030
-514,087	800,000	-0,056	0,134
-513,072	800,000	-0,067	-0,179
-512,058	800,000	-0,037	-0,106
-511,043	-27,595	0,052	0,022
-510,029	800,000	-0,011	-0,029
-509,014	800,000	0,046	0,144
-507,999	397,149	0,024	0,037
-506,985	-60,829	-0,098	-0,030
-505,970	350,153	0,059	-0,086
-504,956	-200,000	-0,024	-0,107
-503,941	-17,207	0,086	-0,039
-502,926	-53,401	-0,114	-0,038
-501,912	92,233	0,038	0,031
-500,897	-200,000	-0,005	0,095
-499,883	-37,254	0,168	0,065
-498,868	800,000	0,015	-0,037
-497,853	268,568	-0,073	-0,094
-496,839	-200,000	-0,009	-0,058
-495,824	33,920	0,068	-0,043
-494,810	-94,957	0,126	0,025
-493,795	318,301	-0,130	0,181
-492,781	530,175	-0,022	0,039
-491,766	800,000	-0,025	-0,075
-490,751	-200,000	-0,001	-0,060
-489,737	557,064	0,052	-0,091
-488,722	73,713	0,065	0,050
-487,708	-2,183	0,087	-0,044
-486,693	-200,000	0,008	-0,035
-485,678	10,020	0,071	-0,039
-484,664	28,505	-0,121	-0,075
-483,649	800,000	0,019	-0,061
-482,635	-93,312	0,054	-0,011
-481,620	103,718	0,099	0,085
-480,605	-117,963	-0,115	-0,015
-479,591	-200,000	0,018	-0,093
-478,576	-99,212	0,078	0,014
-477,562	-200,000	0,002	0,029
-476,547	75,269	-0,093	0,071
-475,532	639,008	0,035	0,066
-474,518	-103,039	0,097	0,017
-473,503	800,000	0,018	0,056
-472,489	-200,000	0,008	0,043
-471,474	241,490	0,063	0,077
-470,459	-115,768	0,151	0,020
-469,445	238,724	0,021	0,025
-468,430	800,000	0,041	0,104
-467,416	51,337	0,085	-0,059
-466,401	800,000	-0,012	-0,030
-465,386	-160,717	0,068	-0,003
-464,372	800,000	0,007	0,019
-463,357	107,196	-0,079	0,068
-462,343	87,068	-0,030	-0,024
-461,328	167,751	0,007	0,007
-460,313	800,000	0,017	0,049
-459,299	-200,000	0,007	0,101
-458,284	800,000	0,045	0,131
-457,270	800,000	-0,048	0,134
-456,255	-33,037	0,092	-0,037
-455,241	-74,267	-0,076	-0,020
-454,226	-200,000	0,011	0,115
-453,211	339,203	-0,088	0,125
-452,197	144,086	0,096	-0,094
-451,182	-104,449	-0,095	0,016
-450,168	458,143	-0,050	-0,082
-449,153	69,848	0,004	-0,003
-448,138	88,147	-0,081	-0,066
-447,124	61,542	-0,023	-0,017
-446,109	16,296	0,089	0,051
-445,095	67,989	0,037	0,027
-444,080	-200,000	-0,025	0,109
-443,065	800,000	-0,018	0,050
-442,051	-200,000	0,011	-0,052
-441,036	-40,706	-0,016	-0,006
-440,022	-63,001	-0,133	0,040
-439,007	-200,000	0,008	-0,052
-437,992	-200,000	-0,023	0,097
-436,978	800,000	-0,011	0,025
-435,963	296,745	-0,026	0,035
-434,949	-200,000	0,002	0,131
-433,934	-200,000	-0,004	-0,051
-432,919	-200,000	0,015	0,083
-431,905	72,928	-0,053	0,040
-430,890	-200,000	-0,004	0,037
-429,876	-98,547	-0,095	-0,017
-428,861	125,924	0,036	0,033
-427,846	32,636	0,091	0,057
-426,832	-8,831	0,047	-0,023
-425,817	27,072	-0,056	0,034
-424,803	-23,607	-0,062	-0,027
-423,788	-200,000	-0,034	-0,113
-422,773	304,884	0,079	0,108
-421,759	-200,000	-0,010	0,072
-420,744	-32,463	-0,017	-0,007
-419,730	800,000	-0,005	-0,014
-418,715	-95,514	-0,175	0,034
-417,701	-70,112	-0,129	-0,036
-416,686	-168,138	-0,152	-0,004
-415,671	-112,717	0,103	0,015
-414,657	53,170	0,115	0,080
-413,642	-113,025	-0,041	0,006
-412,628	-34,088	-0,035	-0,014
-411,613	27,716	0,038	-0,023
-410,598	4,720	-0,112	0,060
-409,584	10,561	-0,021	0,011
-408,569	306,046	0,067	0,090
-407,555	-131,112	0,167	-0,016
-406,540	-103,709	-0,088	0,015
-405,525	-200,000	0,008	0,039
-404,511	71,112	-0,079	-0,060
-403,496	55,307	0,039	-0,027
-402,482	419,343	0,040	0,062
-401,467	9,485	0,059	0,032
-400,452	-71,631	0,097	-0,026
-399,438	675,936	0,013	0,025
-398,423	180,409	0,057	-0,061
-397,409	793,469	0,044	0,088
-396,394	-93,882	0,114	0,023
-395,379	-95,920	-0,057	0,011
-394,365	473,975	0,006	0,009
-393,350	380,808	0,032	0,048
-392,336	-29,891	0,051	-0,021
-391,321	-200,000	-0,033	0,134
-390,306	800,000	-0,022	0,047
-389,292	-200,000	-0,013	-0,074
-388,277	800,000	-0,032	0,074
-387,263	395,329	-0,081	0,124
-386,248	-86,037	0,189	0,042
-385,233	-177,110	-0,096	-0,002
-384,219	-75,554	-0,087	0,022
-383,204	381,391	0,059	0,088
-382,190	-15,559	-0,029	-0,013
-381,175	-71,169	0,096	0,026
-380,160	333,470	0,057	-0,080
-379,146	-72,390	0,119	0,032
-378,131	42,508	0,124	-0,082
-377,117	655,447	-0,059	0,111
-376,102	559,235	-0,046	-0,081
-375,088	257,751	-0,157	0,197
-374,073	115,266	0,051	-0,045
-373,058	-102,971	0,230	-0,039
-372,044	116,093	-0,050	0,045
-371,029	-200,000	-0,004	-0,257
-370,015	2,455	0,069	0,036
-369,000	126,866	0,037	-0,034
-367,985	1,504	0,103	0,054
-366,971	-106,303	-0,134	0,022
-365,956	-200,000	0,000	0,008
-364,942	47,439	-0,068	-0,046
-363,927	548,351	0,042	-0,074
-362,912	800,000	-0,040	0,107
-361,898	800,000	-0,012	0,030
-360,883	-200,000	-0,009	-0,071
-359,869	800,000	-0,032	-0,069
-358,854	-200,000	0,006	0,161
-357,839	-200,000	-0,025	-0,102
-356,825	59,456	0,084	0,060
-355,810	764,725	0,119	0,237
-354,796	37,400	-0,123	0,079
-353,781	309,141	-0,049	-0,067
-352,766	-127,890	0,098	0,010
-351,752	109,057	-0,067	-0,058
-350,737	-110,497	0,225	-0,034
-349,723	-84,344	-0,070	0,016
-348,708	176,883	0,070	0,075
-347,693	800,000	-0,017	-0,038
-346,679	-77,897	0,117	-0,029
-345,664	79,946	0,089	-0,069
-344,650	161,682	-0,082	0,084
-343,635	-22,165	0,045	0,020
-342,620	488,024	-0,018	0,031
-341,606	8,782	0,120	0,065
-340,591	-33,221	0,082	0,033
-339,577	75,297	-0,066	-0,051
-338,562	800,000	-0,033	-0,070
-337,548	800,000	-0,004	-0,011
-336,533	-200,000	0,027	0,201
-335,518	-200,000	0,007	0,102
-334,504	185,709	0,100	0,108
-333,489	559,108	-0,122	-0,215
-332,475	-200,000	0,008	0,055
-331,460	57,033	-0,150	-0,106
-330,445	-200,000	-0,043	-0,166
-329,431	196,197	0,038	0,042
-328,416	-111,106	-0,111	-0,016
-327,402	-38,240	0,128	0,049
-326,387	211,014	-0,050	0,057
-325,372	-200,000	0,017	0,173
-324,358	624,833	0,057	0,105
-323,343	0,406	0,070	-0,036
-322,329	-51,019	0,181	0,061
-321,314	481,912	-0,016	-0,027
-320,299	-94,430	0,127	-0,025
-319,285	28,327	0,134	-0,082
-318,270	125,658	-0,109	-0,099
-317,256	800,000	-0,001	-0,003
-316,241	289,529	-0,076	-0,100
-315,226	602,920	0,051	0,092
-314,212	-60,663	0,082	0,025
-313,197	800,000	-0,047	-0,107
-312,183	70,431	0,098	-0,073
-311,168	130,738	-0,028	0,026
-310,153	317,421	0,088	-0,121
-309,139	136,376	0,005	-0,005
-308,124	417,102	0,054	-0,084
-307,110	55,593	0,118	0,083
-306,095	-62,105	0,144	-0,043
-305,080	-200,000	0,001	-0,009
-304,066	-200,000	0,009	-0,038
-303,051	-17,795	0,021	-0,010
-302,037	-70,493	0,052	-0,014
-301,022	800,000	0,019	0,041
-300,008	-200,000	0,024	-0,152
-298,993	-200,000	-0,012	-0,116
-297,978	-85,330	0,030	-0,007
-296,964	-200,000	0,013	-0,054
-295,949	800,000	-0,020	-0,058
-294,935	-200,000	0,028	-0,122
-293,920	-200,000	-0,003	0,042
-292,905	107,198	0,048	0,041
-291,891	800,000	0,013	-0,028
-290,876	11,682	0,111	0,062
-289,862	157,870	0,047	-0,047
-288,847	-177,454	-0,137	0,002
-287,832	676,806	-0,043	-0,082
-286,818	800,000	0,082	-0,172
-285,803	-100,275	-0,043	0,008
-284,789	-130,383	-0,124	0,012
-283,774	-200,000	-0,018	0,089
-282,759	250,321	-0,053	-0,066
-281,745	112,372	0,077	-0,067
-280,730	-53,418	0,147	-0,049
-279,716	120,187	0,055	0,049
-278,701	-200,000	-0,005	0,036
-277,686	477,711	0,082	0,134
-276,672	-172,538	-0,082	-0,002
-275,657	130,531	0,137	-0,127
-274,643	800,000	-0,059	-0,143
-273,628	19,572	-0,080	-0,047
-272,613	120,072	-0,050	-0,045
-271,599	53,557	0,059	-0,041
-270,584	-45,809	0,105	-0,037
-269,570	632,687	0,060	-0,111
-268,555	-200,000	0,030	0,104
-267,540	-200,000	0,006	0,035
-266,526	-200,000	-0,018	0,094
-265,511	400,742	-0,034	-0,051
-264,497	-139,931	0,089	-0,007
-263,482	121,375	-0,113	0,102
-262,467	515,297	-0,017	-0,029
-261,453	94,017	0,108	0,089
-260,438	-55,750	0,176	-0,057
-259,424	800,000	0,054	-0,159
-258,409	-169,841	0,025	0,001
-257,395	259,112	-0,073	-0,092
-256,380	154,844	0,036	-0,036
-255,365	79,839	0,048	-0,038
-254,351	132,912	0,083	-0,078
-253,336	-200,000	-0,018	-0,083
-252,322	-75,418	-0,170	0,043
-251,307	784,368	0,017	0,034
-250,292	-200,000	-0,025	0,144
-249,278	-190,617	0,047	0,000
-248,263	-200,000	-0,010	0,118
-247,249	177,467	-0,026	0,027
-246,234	271,405	0,091	-0,117
-245,219	-200,000	-0,010	0,069
-244,205	-200,000	0,004	-0,065
-243,190	-200,000	0,019	0,115
-242,176	-200,000	-0,007	-0,051
-241,161	109,231	0,122	0,106
-240,146	249,111	-0,031	0,038
-239,132	65,928	0,146	0,107
-238,117	-200,000	-0,003	-0,151
-237,103	800,000	0,014	0,038
-236,088	-200,000	-0,000	0,071
-235,073	-200,000	-0,007	0,025
-234,059	800,000	0,026	-0,064
-233,044	-152,322	0,095	0,005
-232,030	145,631	-0,029	-0,028
-231,015	800,000	-0,022	0,050
-230,000	26,044	-0,024	-0,014
-228,986	75,939	0,114	-0,087
-227,971	15,245	0,033	0,019
-226,957	-78,243	-0,077	-0,019
-225,942	465,736	0,021	0,034
-224,927	538,588	0,038	0,066
-223,913	41,663	0,050	-0,033
-222,898	-200,000	0,014	-0,053
-221,884	-200,000	0,010	-0,061
-220,869	-90,962	0,117	0,024
-219,855	374,605	0,013	-0,020
-218,840	492,853	-0,030	0,051
-217,825	88,599	0,047	0,038
-216,811	-200,000	0,021	-0,071
-215,796	703,867	-0,077	0,148
-214,782	-89,072	-0,132	-0,028
-213,767	379,267	0,060	-0,089
-212,752	-172,437	0,109	-0,002
-211,738	-200,000	-0,008	0,127
-210,723	-51,747	-0,044	0,015
-209,709	122,836	-0,116	0,105
-208,694	-200,000	0,015	0,128
-207,679	-74,538	-0,074	-0,019
-206,665	23,004	-0,032	0,019
-205,650	-200,000	0,001	0,140
-204,636	-72,648	-0,138	0,037
-203,621	800,000	0,059	-0,121
-202,606	-200,000	-0,034	-0,125
-201,592	69,903	-0,259	-0,192
-200,577	-46,910	0,103	-0,036
-199,563	800,000	-0,031	0,078
-198,548	-200,000	-0,004	0,159
-197,533	353,887	-0,066	-0,095
-196,519	-77,442	0,057	0,014
-195,504	-200,000	0,003	-0,119
-194,490	-200,000	0,039	-0,148
-193,475	-200,000	0,025	-0,082
-192,460	88,677	-0,089	0,072
-191,446	-200,000	-0,003	-0,016
-190,431	800,000	0,042	0,086
-189,417	9,477	0,125	0,068
-188,402	-200,000	-0,029	-0,094
-187,387	-108,675	-0,082	-0,013
-186,373	358,063	-0,094	0,136
-185,358	-56,538	-0,036	-0,011
-184,344	800,000	-0,038	0,099
-183,329	142,408	0,017	0,016
-182,315	-53,691	-0,119	-0,039
-181,300	215,244	-0,079	0,090
-180,285	-44,542	-0,011	0,004
-179,271	-1,991	0,064	0,033
-178,256	-200,000	0,002	-0,093
-177,242	16,552	-0,071	0,041
-176,227	308,234	0,074	-0,100
-175,212	-86,127	-0,038	-0,008
-174,198	-200,000	0,000	0,048
-173,183	190,986	-0,028	-0,031
-172,169	-200,000	0,007	-0,075
-171,154	-10,115	-0,172	0,082
-170,139	522,288	0,086	0,146
-169,125	159,079	0,013	0,013
-168,110	-129,213	-0,069	0,007
-167,096	800,000	-0,044	-0,126
-166,081	50,624	-0,045	0,031
-165,066	176,002	-0,083	-0,087
-164,052	-127,937	-0,057	0,006
-163,037	-183,844	0,064	-0,001
-162,023	-200,000	-0,016	0,077
-161,008	800,000	-0,026	0,067
-159,993	-91,251	-0,204	-0,042
-158,979	800,000	0,058	-0,150
-157,964	489,099	0,046	0,075
-156,950	518,538	0,022	0,038
-155,935	-70,021	-0,161	0,044
-154,920	9,225	0,051	-0,027
-153,906	-200,000	-0,008	0,041
-152,891	119,100	0,047	0,042
-151,877	-63,354	-0,049	0,014
-150,862	-10,721	-0,129	-0,061
-149,847	-200,000	-0,006	0,061
-148,833	800,000	-0,042	-0,091
-147,818	800,000	-0,019	-0,048
-146,804	800,000	-0,063	-0,172
-145,789	454,572	0,014	0,023
-144,775	20,705	-0,132	0,077
-143,760	-30,972	-0,145	0,059
-142,745	78,218	-0,114	-0,087
-141,731	-16,604	0,059	0,027
-140,716	800,000	-0,043	0,131
-139,702	296,545	-0,078	0,104
-138,687	-200,000	-0,057	0,217
-137,672	-80,961	-0,107	0,025
-136,658	-82,720	-0,079	-0,018
-135,643	-91,411	-0,033	0,007
-134,629	800,000	-0,065	-0,131
-133,614	-70,322	0,048	-0,013
-132,599	42,907	-0,078	-0,051
-131,585	-200,000	0,047	0,000
-130,570	800,000	0,038	-0,104
-129,556	488,467	-0,018	-0,029
-128,541	82,079	-0,100	-0,078
-127,526	-200,000	-0,007	-0,032
-126,512	-200,000	0,022	0,077
-125,497	-80,402	0,138	-0,033
-124,483	800,000	0,054	-0,135
-123,468	-200,000	-0,001	0,167
-122,453	60,644	-0,069	0,049
-121,439	-101,052	-0,210	-0,037
-120,424	-119,849	-0,081	-0,010
-119,410	-200,000	0,001	0,031
