DTS Sentinel unit serial number:	SN410029Multiplexer serial number:	ORYXHardware model number:	OX2-SRSoftware version number:	ORYX F/W v4,00 Oryx Data Collector v3.7.2.0data status	okinstallation	B5 Nyhavnadifferential loss correction	single-endedforward channel	channel 2reverse channel	N/Adate	2023/12/13time	08:47:13forward acquisition time	300,00reverse acquisition time	0,00gamma	499,1914k internal	0,3160k external	0,3160temperature offset calibration	1,0000default loss term (dB/km)	0,3820temperature slope calibration	1,0000multiplexer offset coefficient	1,0000multiplexer slope coefficient	1,0000fibre end	0,00T internal ref (°C)	13,64T ext. ref 1 (°C)	-2,69T ext. ref 2 (°C)	-2,99length (m)	temperature (°C)	Stokes	anti-Stokes-744,400	800,000	-0,031	-0,075
-743,385	-69,620	-0,282	0,079
-742,371	-200,000	-0,057	0,214
-741,356	42,020	-0,231	0,154
-740,342	-145,674	0,221	0,014
-739,327	-27,413	-0,309	-0,132
-738,312	196,382	0,133	0,149
-737,298	-185,027	-0,367	0,004
-736,283	159,085	0,054	0,056
-735,269	-97,578	-0,193	-0,036
-734,254	-9,128	0,095	0,046
-733,239	-102,527	-0,563	-0,098
-732,225	-66,138	0,105	0,031
-731,210	168,054	-0,073	0,077
-730,196	-91,283	-0,093	0,020
-729,181	-200,000	-0,000	0,067
-728,167	316,064	0,041	0,058
-727,152	252,915	-0,067	-0,084
-726,137	-86,385	0,060	0,013
-725,123	-200,000	0,007	-0,044
-724,108	-158,118	-0,136	-0,006
-723,094	297,292	0,046	-0,063
-722,079	402,955	-0,107	0,166
-721,064	352,529	0,082	0,120
-720,050	-68,658	-0,099	0,028
-719,035	257,757	0,045	0,057
-718,021	-200,000	0,005	0,026
-717,006	-62,786	-0,152	0,046
-715,991	301,371	-0,076	-0,104
-714,977	800,000	-0,036	0,090
-713,962	656,037	-0,022	0,042
-712,948	453,073	0,067	0,110
-711,933	800,000	-0,045	0,111
-710,918	-200,000	0,012	-0,065
-709,904	-48,480	0,101	-0,036
-708,889	3,763	-0,160	-0,086
-707,875	99,268	-0,092	0,078
-706,860	-75,967	-0,074	0,019
-705,845	208,500	0,062	0,071
-704,831	-200,000	0,035	0,120
-703,816	-8,859	-0,105	-0,051
-702,802	18,586	-0,123	0,072
-701,787	322,158	-0,064	-0,090
-700,772	-149,239	0,066	0,004
-699,758	166,175	0,090	0,094
-698,743	37,394	0,124	-0,081
-697,729	800,000	-0,057	-0,149
-696,714	-131,312	-0,018	-0,002
-695,699	40,237	-0,118	-0,078
-694,685	-200,000	0,028	-0,147
-693,670	777,803	-0,057	-0,115
-692,656	219,841	0,081	-0,095
-691,641	272,927	0,093	0,121
-690,627	-100,047	0,052	-0,009
-689,612	-52,053	-0,054	0,018
-688,597	746,209	0,026	-0,051
-687,583	800,000	-0,095	-0,195
-686,568	67,275	0,129	-0,096
-685,554	-137,509	0,069	0,006
-684,539	-122,563	0,111	0,013
-683,524	250,153	0,036	0,045
-682,510	14,316	0,063	0,036
-681,495	134,151	-0,030	-0,029
-680,481	279,461	-0,051	0,068
-679,466	187,747	-0,126	-0,138
-678,451	-40,523	0,092	-0,035
-677,437	142,377	0,031	-0,030
-676,422	-200,000	-0,007	0,036
-675,408	-144,355	-0,024	0,002
-674,393	111,187	0,065	0,058
-673,378	-107,764	-0,141	-0,022
-672,364	173,321	-0,078	-0,082
-671,349	87,195	-0,118	-0,096
-670,335	312,438	0,069	-0,096
-669,320	147,080	-0,039	0,039
-668,305	-9,818	0,013	0,006
-667,291	-113,216	0,018	-0,003
-666,276	107,116	-0,128	-0,111
-665,262	102,374	-0,162	-0,139
-664,247	-200,000	0,004	-0,038
-663,232	-160,367	0,012	-0,000
-662,218	-200,000	-0,004	0,064
-661,203	-200,000	0,000	0,087
-660,189	-85,254	-0,095	0,022
-659,174	-200,000	-0,015	-0,096
-658,159	-200,000	0,017	-0,171
-657,145	-44,457	-0,110	-0,040
-656,130	-200,000	-0,003	-0,099
-655,116	-102,251	-0,063	0,011
-654,101	800,000	0,026	-0,074
-653,086	-99,233	-0,049	-0,009
-652,072	36,426	-0,121	0,078
-651,057	-151,720	-0,052	0,003
-650,043	26,555	0,080	0,049
-649,028	121,681	-0,097	0,089
-648,014	276,774	-0,048	0,062
-646,999	-11,387	0,063	0,031
-645,984	-28,899	0,190	0,080
-644,970	800,000	-0,011	-0,023
-643,955	-65,090	-0,065	0,019
-642,941	-121,960	0,037	-0,004
-641,926	224,084	0,056	0,067
-640,911	73,936	0,121	0,093
-639,897	111,780	-0,094	0,083
-638,882	-171,114	0,024	-0,001
-637,868	-200,000	0,005	-0,015
-636,853	141,154	-0,008	0,007
-635,838	-102,950	0,027	-0,005
-634,824	198,456	-0,037	0,041
-633,809	-179,704	0,075	-0,001
-632,795	-200,000	-0,013	0,175
-631,780	524,466	0,046	0,079
-630,765	100,134	-0,020	0,017
-629,751	15,228	-0,065	0,037
-628,736	800,000	-0,052	-0,107
-627,722	476,951	-0,025	-0,042
-626,707	-102,590	0,071	-0,012
-625,692	510,163	-0,007	-0,013
-624,678	239,577	-0,131	-0,160
-623,663	20,681	0,012	0,007
-622,649	-200,000	-0,013	0,089
-621,634	-200,000	-0,002	-0,132
-620,619	-59,166	0,077	0,024
-619,605	268,138	-0,066	0,085
-618,590	-16,091	0,174	0,081
-617,576	-121,373	-0,088	0,011
-616,561	60,202	-0,140	-0,101
-615,546	-25,063	-0,059	-0,026
-614,532	15,477	-0,034	0,020
-613,517	702,946	0,048	-0,094
-612,503	-200,000	-0,003	-0,032
-611,488	674,772	0,069	0,132
-610,474	-74,893	0,070	-0,018
-609,459	-107,703	0,107	-0,017
-608,444	338,650	-0,064	-0,092
-607,430	800,000	-0,077	-0,174
-606,415	-200,000	0,023	0,150
-605,401	-159,986	-0,153	-0,006
-604,386	20,386	0,080	0,047
-603,371	-200,000	-0,014	0,129
-602,357	-8,180	0,175	0,086
-601,342	800,000	0,043	0,098
-600,328	-200,000	0,001	-0,047
-599,313	-167,930	0,089	0,003
-598,298	-200,000	0,015	0,099
-597,284	-176,173	0,194	-0,004
-596,269	-200,000	0,019	0,165
-595,255	41,439	-0,046	-0,031
-594,240	-200,000	-0,005	-0,145
-593,225	170,846	-0,122	0,128
-592,211	-121,816	-0,009	-0,001
-591,196	-99,684	0,047	-0,009
-590,182	-198,041	0,171	0,001
-589,167	-32,161	0,036	-0,015
-588,152	277,279	-0,023	-0,030
-587,138	-162,924	0,035	0,001
-586,123	108,735	-0,037	0,032
-585,109	-3,467	0,082	-0,042
-584,094	226,851	0,077	-0,092
-583,079	329,421	0,107	-0,151
-582,065	89,252	-0,047	0,039
-581,050	-121,639	-0,071	0,008
-580,036	189,199	0,096	-0,105
-579,021	155,654	-0,065	-0,065
-578,006	-54,846	0,046	0,015
-576,992	391,602	-0,059	0,091
-575,977	-131,233	-0,024	-0,002
-574,963	-42,665	-0,089	0,033
-573,948	-165,732	0,113	-0,003
-572,934	-156,260	-0,046	0,002
-571,919	644,338	-0,057	0,107
-570,904	159,491	0,105	0,107
-569,890	800,000	0,030	-0,080
-568,875	111,982	-0,017	0,015
-567,861	-116,363	-0,063	0,008
-566,846	180,201	0,056	0,061
-565,831	800,000	-0,034	0,073
-564,817	139,889	-0,066	-0,064
-563,802	-200,000	0,014	-0,140
-562,788	250,442	0,069	0,085
-561,773	186,232	-0,045	-0,050
-560,758	800,000	0,069	0,155
-559,744	-190,225	-0,188	0,001
-558,729	-200,000	-0,011	-0,039
-557,715	800,000	0,015	0,030
-556,700	800,000	0,066	-0,175
-555,685	-200,000	-0,018	-0,105
-554,671	212,032	-0,065	-0,076
-553,656	-13,372	0,041	-0,019
-552,642	800,000	0,023	0,056
-551,627	-200,000	0,023	-0,084
-550,612	715,652	-0,042	-0,082
-549,598	-200,000	-0,003	-0,093
-548,583	-182,371	-0,060	0,001
-547,569	94,020	0,073	-0,061
-546,554	-107,744	0,232	0,037
-545,539	-200,000	0,022	-0,166
-544,525	403,824	-0,063	-0,098
-543,510	761,499	0,026	0,053
-542,496	51,728	-0,059	0,041
-541,481	-200,000	-0,001	-0,110
-540,466	800,000	-0,070	-0,155
-539,452	21,841	0,061	0,036
-538,437	530,625	0,028	0,048
-537,423	15,766	0,178	0,102
-536,408	800,000	0,026	0,057
-535,393	402,736	-0,075	-0,115
-534,379	800,000	-0,023	-0,064
-533,364	800,000	0,018	-0,046
-532,350	-145,702	0,062	-0,004
-531,335	-78,779	-0,072	0,018
-530,321	357,761	-0,058	0,084
-529,306	-200,000	-0,011	0,056
-528,291	92,980	0,051	0,042
-527,277	-57,870	0,046	0,015
-526,262	136,061	0,104	-0,099
-525,248	-146,047	0,127	0,008
-524,233	-67,197	0,128	-0,037
-523,218	-200,000	-0,007	-0,029
-522,204	-24,237	-0,133	0,058
-521,189	-144,529	-0,066	-0,004
-520,175	-110,763	-0,042	0,006
-519,160	-200,000	-0,007	-0,074
-518,145	559,377	0,028	-0,050
-517,131	265,883	-0,021	0,027
-516,116	-200,000	-0,007	0,057
-515,102	10,040	0,092	0,051
-514,087	-55,741	-0,124	0,040
-513,072	-95,302	-0,162	-0,032
-512,058	669,575	-0,045	-0,085
-511,043	-185,501	0,066	0,001
-510,029	421,212	-0,065	0,102
-509,014	-135,716	0,030	0,003
-507,999	122,437	-0,054	-0,049
-506,985	501,288	0,063	-0,107
-505,970	-109,500	-0,109	0,017
-504,956	-200,000	-0,014	0,113
-503,941	800,000	0,013	0,032
-502,926	-56,429	0,140	0,045
-501,912	44,129	-0,055	0,037
-500,897	-116,260	-0,068	-0,009
-499,883	421,394	0,067	-0,106
-498,868	-200,000	-0,001	-0,032
-497,853	-137,098	-0,082	-0,007
-496,839	-111,919	0,061	-0,009
-495,824	800,000	0,033	-0,079
-494,810	-200,000	-0,001	0,059
-493,795	191,718	0,082	0,091
-492,781	-71,668	-0,130	0,035
-491,766	-85,468	0,050	-0,011
-490,751	156,808	-0,121	-0,122
-489,737	17,280	0,068	-0,039
-488,722	800,000	-0,017	0,051
-487,708	-119,144	0,085	-0,011
-486,693	-200,000	-0,018	-0,122
-485,678	18,562	0,092	-0,054
-484,664	338,141	-0,029	-0,041
-483,649	-92,671	0,091	-0,018
-482,635	-97,899	-0,110	0,020
-481,620	75,195	-0,027	0,021
-480,605	171,212	-0,007	0,007
-479,591	47,689	-0,132	0,090
-478,576	-136,867	-0,109	0,009
-477,562	51,965	0,151	-0,105
-476,547	105,036	-0,096	0,083
-475,532	-29,188	0,048	-0,020
-474,518	800,000	0,034	-0,109
-473,503	-8,798	0,088	0,043
-472,489	-72,848	0,060	0,016
-471,474	122,913	0,045	0,041
-470,459	800,000	0,031	-0,098
-469,445	-106,203	-0,089	-0,014
-468,430	103,591	0,044	-0,038
-467,416	67,812	-0,032	0,024
-466,401	-82,364	0,063	0,015
-465,386	49,576	0,089	-0,061
-464,372	622,820	0,096	-0,178
-463,357	-154,135	-0,056	0,003
-462,343	-200,000	-0,045	-0,150
-461,328	-200,000	0,008	-0,031
-460,313	704,398	0,038	-0,073
-459,299	-52,594	-0,046	0,015
-458,284	19,425	0,148	0,086
-457,270	518,036	-0,039	-0,067
-456,255	800,000	0,008	0,024
-455,241	-73,321	-0,113	-0,030
-454,226	-45,914	0,101	0,036
-453,211	-123,974	0,026	-0,003
-452,197	-135,255	0,066	0,006
-451,182	114,449	-0,078	0,070
-450,168	800,000	-0,022	-0,047
-449,153	-62,573	-0,161	-0,048
-448,138	-200,000	0,011	-0,053
-447,124	-105,383	-0,158	-0,026
-446,109	630,021	-0,065	0,121
-445,095	358,036	0,099	0,144
-444,080	263,158	0,079	0,101
-443,065	1,546	0,079	-0,041
-442,051	67,409	-0,047	0,035
-441,036	800,000	-0,058	-0,128
-440,022	175,760	-0,037	-0,039
-439,007	-164,051	0,109	0,004
-437,992	78,913	0,111	0,087
-436,978	800,000	0,016	-0,036
-435,963	336,128	0,061	-0,087
-434,949	-109,309	-0,056	0,009
-433,934	369,899	0,048	-0,071
-432,919	-70,642	-0,028	0,008
-431,905	-200,000	-0,010	0,041
-430,890	95,960	0,049	0,041
-429,876	410,153	0,024	0,038
-428,861	-200,000	-0,065	0,280
-427,846	2,756	0,202	0,106
-426,832	306,240	-0,028	0,038
-425,817	-27,188	-0,130	-0,055
-424,803	800,000	-0,042	0,130
-423,788	-162,363	-0,028	-0,001
-422,773	86,223	0,103	0,082
-421,759	-200,000	-0,021	0,110
-420,744	-78,693	-0,025	0,006
-419,730	-77,200	-0,053	-0,013
-418,715	-48,862	0,076	-0,026
-417,701	-82,254	-0,056	-0,013
-416,686	55,070	0,090	0,063
-415,671	800,000	-0,024	-0,067
-414,657	225,838	-0,041	0,049
-413,642	-86,679	-0,019	-0,004
-412,628	372,975	0,020	0,030
-411,613	206,582	0,119	-0,135
-410,598	209,414	0,029	-0,033
-409,584	45,436	0,036	0,024
-408,569	576,269	0,112	0,200
-407,555	177,823	-0,049	-0,052
-406,540	800,000	0,037	0,077
-405,525	147,967	-0,019	-0,019
-404,511	228,847	-0,025	-0,030
-403,496	679,597	-0,031	0,059
-402,482	-72,341	0,054	-0,014
-401,467	-200,000	0,001	-0,078
-400,452	-154,835	0,137	-0,006
-399,438	-200,000	0,019	0,000
-398,423	-20,105	-0,090	-0,040
-397,409	-200,000	0,004	-0,068
-396,394	800,000	0,063	-0,129
-395,379	-200,000	0,010	-0,101
-394,365	-183,501	0,006	0,000
-393,350	-200,000	0,003	-0,012
-392,336	-139,228	-0,083	0,006
-391,321	140,760	0,095	0,091
-390,306	28,314	0,055	-0,033
-389,292	25,184	-0,109	-0,066
-388,277	-200,000	0,032	0,154
-387,263	-44,271	-0,137	0,050
-386,248	131,765	0,029	0,027
-385,233	-189,271	0,138	0,001
-384,219	-200,000	-0,023	0,105
-383,204	-108,855	-0,125	-0,019
-382,190	107,196	-0,043	-0,037
-381,175	156,596	0,089	-0,089
-380,160	-162,138	-0,063	-0,002
-379,146	218,663	0,068	0,078
-378,131	-200,000	0,002	0,079
-377,117	800,000	-0,016	0,039
-376,102	-200,000	0,011	-0,044
-375,088	-142,535	-0,059	0,004
-374,073	543,450	0,065	-0,113
-373,058	315,193	-0,064	0,088
-372,044	-65,616	-0,110	-0,032
-371,029	-26,504	-0,070	-0,030
-370,015	40,572	0,135	0,088
-369,000	-142,715	0,105	0,007
-367,985	619,097	-0,065	-0,120
-366,971	-200,000	-0,003	0,067
-365,956	-16,036	0,193	-0,089
-364,942	22,006	0,137	0,081
-363,927	800,000	-0,015	0,042
-362,912	13,807	-0,103	0,058
-361,898	113,102	0,026	0,023
-360,883	13,757	-0,011	0,006
-359,869	290,758	-0,046	-0,060
-358,854	379,633	-0,059	-0,088
-357,839	197,667	-0,059	0,065
-356,825	626,560	-0,058	0,107
-355,810	-153,239	-0,008	-0,000
-354,796	-136,097	-0,119	-0,010
-353,781	800,000	0,026	-0,062
-352,766	-103,561	-0,047	-0,008
-351,752	-40,943	0,063	-0,023
-350,737	-200,000	-0,016	0,099
-349,723	137,505	-0,057	-0,054
-348,708	-200,000	-0,010	0,113
-347,693	800,000	0,035	-0,084
-346,679	-70,845	0,050	-0,014
-345,664	51,920	-0,106	0,073
-344,650	-99,808	-0,065	0,012
-343,635	-37,954	0,031	0,012
-342,620	-200,000	-0,008	-0,068
-341,606	76,799	-0,068	-0,052
-340,591	-200,000	-0,010	-0,106
-339,577	388,339	-0,125	-0,188
-338,562	-200,000	-0,018	0,113
-337,548	298,794	-0,022	0,029
-336,533	-200,000	0,018	0,095
-335,518	328,440	0,063	0,087
-334,504	11,330	-0,039	-0,022
-333,489	-200,000	0,020	-0,093
-332,475	-2,983	-0,110	-0,055
-331,460	112,284	0,036	-0,031
-330,445	-38,089	-0,062	-0,024
-329,431	-200,000	0,006	0,067
-328,416	232,247	0,049	0,059
-327,402	-200,000	0,008	0,088
-326,387	-46,517	-0,089	0,031
-325,372	-91,262	0,125	-0,026
-324,358	-4,798	-0,120	0,060
-323,343	-200,000	0,002	-0,109
-322,329	29,794	0,044	-0,027
-321,314	7,281	0,069	-0,037
-320,299	-200,000	0,001	-0,009
-319,285	-12,547	0,129	0,061
-318,270	87,437	0,018	0,014
-317,256	800,000	-0,065	-0,178
-316,241	-28,207	-0,066	-0,028
-315,226	-200,000	-0,014	0,107
-314,212	-166,160	-0,056	0,002
-313,197	800,000	0,029	-0,086
-312,183	84,415	-0,050	-0,040
-311,168	-79,797	-0,022	-0,005
-310,153	34,600	-0,125	0,079
-309,139	-107,451	-0,080	-0,013
-308,124	240,320	0,041	-0,049
-307,110	114,867	-0,137	0,121
-306,095	346,949	0,058	0,083
-305,080	-200,000	0,027	-0,135
-304,066	-80,446	-0,121	0,029
-303,051	166,916	-0,053	0,055
-302,037	-169,676	-0,086	-0,002
-301,022	115,851	-0,090	0,080
-300,008	-34,511	0,083	0,033
-298,993	-87,184	0,045	-0,010
-297,978	800,000	-0,037	0,089
-296,964	26,426	-0,080	-0,048
-295,949	-79,824	-0,144	-0,035
-294,935	-200,000	0,001	0,091
-293,920	-141,197	-0,056	0,004
-292,905	-117,840	0,038	0,005
-291,891	271,544	-0,046	-0,059
-290,876	422,910	-0,085	-0,133
-289,862	-64,690	0,070	0,020
-288,847	15,018	0,039	-0,022
-287,832	-200,000	0,015	0,078
-286,818	161,984	0,102	0,103
-285,803	129,404	0,110	0,101
-284,789	-83,315	0,037	-0,009
-283,774	-150,249	0,109	-0,006
-282,759	-200,000	-0,019	-0,226
-281,745	-30,738	-0,084	0,034
-280,730	163,502	-0,073	-0,074
-279,716	-69,764	-0,098	0,027
-278,701	422,478	-0,041	0,064
-277,686	-200,000	-0,007	0,037
-276,672	446,682	0,022	-0,035
-275,657	800,000	-0,023	0,065
-274,643	-200,000	0,017	0,162
-273,628	800,000	-0,013	-0,035
-272,613	77,120	-0,047	0,036
-271,599	26,236	0,092	0,055
-270,584	26,238	-0,012	0,007
-269,570	-200,000	0,006	0,031
-268,555	398,569	-0,092	-0,139
-267,540	159,225	-0,062	-0,063
-266,526	641,613	0,016	0,029
-265,511	-22,646	-0,036	-0,016
-264,497	-10,291	0,013	-0,006
-263,482	-200,000	0,018	0,132
-262,467	56,162	0,035	0,025
-261,453	-81,358	-0,052	-0,012
-260,438	-200,000	0,007	-0,056
-259,424	114,318	-0,075	-0,066
-258,409	107,989	-0,142	-0,123
-257,395	800,000	0,031	-0,071
-256,380	-18,181	0,089	0,040
-255,365	-200,000	0,014	0,045
-254,351	-35,276	0,074	-0,029
-253,336	680,719	0,012	0,022
-252,322	544,498	-0,057	-0,099
-251,307	646,068	-0,021	-0,038
-250,292	800,000	-0,030	-0,078
-249,278	206,521	-0,141	-0,159
-248,263	800,000	0,062	0,128
-247,249	-200,000	-0,004	0,043
-246,234	304,123	-0,112	0,150
-245,219	375,361	-0,153	-0,227
-244,205	-51,209	0,063	-0,021
-243,190	11,540	-0,138	0,076
-242,176	21,968	0,092	-0,054
-241,161	319,850	0,068	0,094
-240,146	73,930	0,112	-0,085
-239,132	218,508	-0,097	0,112
-238,117	-160,766	-0,153	0,006
-237,103	800,000	0,002	-0,004
-236,088	89,300	0,048	0,039
-235,073	-200,000	-0,024	0,137
-234,059	-196,395	0,074	0,000
-233,044	15,053	-0,053	-0,030
-232,030	-90,492	-0,012	-0,003
-231,015	-200,000	0,037	-0,128
-230,000	-93,385	0,015	-0,003
-228,986	230,525	-0,047	-0,056
-227,971	-49,912	0,040	0,014
-226,957	-200,000	0,023	-0,140
-225,942	800,000	0,041	0,123
-224,927	302,506	-0,057	0,076
-223,913	800,000	-0,025	-0,074
-222,898	-102,668	0,087	0,015
-221,884	-120,563	0,040	-0,005
-220,869	-200,000	0,041	-0,148
-219,855	-109,571	0,050	-0,008
-218,840	-200,000	0,013	0,121
-217,825	-49,691	-0,011	0,004
-216,811	-69,820	-0,152	0,042
-215,796	-200,000	-0,021	-0,080
-214,782	800,000	-0,012	-0,031
-213,767	-200,000	0,026	-0,100
-212,752	31,327	0,063	0,039
-211,738	-200,000	-0,004	0,066
-210,723	-92,333	-0,111	0,022
-209,709	-200,000	-0,032	0,225
-208,694	143,246	0,041	-0,039
-207,679	800,000	0,029	-0,088
-206,665	715,700	0,046	0,088
-205,650	399,233	0,056	0,086
-204,636	800,000	0,054	-0,111
-203,621	411,427	-0,040	0,061
-202,606	-200,000	0,014	0,054
-201,592	322,032	-0,107	-0,147
-200,577	-200,000	0,002	-0,050
-199,563	281,434	0,052	0,067
-198,548	142,417	0,056	-0,054
-197,533	-28,491	0,105	0,043
-196,519	-200,000	0,003	-0,025
-195,504	46,475	0,026	-0,017
-194,490	-30,143	0,054	-0,022
-193,475	142,800	-0,026	0,025
-192,460	19,870	0,082	0,047
-191,446	23,226	-0,071	0,042
-190,431	-200,000	0,021	0,081
-189,417	800,000	0,019	-0,044
-188,402	9,011	-0,056	-0,030
-187,387	800,000	-0,060	-0,134
-186,373	-176,275	-0,061	-0,001
-185,358	-22,485	0,114	0,050
-184,344	156,614	0,053	-0,053
-183,329	-94,952	-0,118	-0,023
-182,315	71,204	0,069	-0,051
-181,300	-101,890	0,008	-0,001
-180,285	-77,097	-0,180	0,045
-179,271	664,704	-0,119	-0,222
-178,256	-20,961	0,066	-0,029
-177,242	-200,000	0,009	0,086
-176,227	-200,000	-0,003	-0,123
-175,212	48,101	-0,123	0,083
-174,198	-82,140	0,187	-0,044
-173,183	-182,067	-0,079	-0,001
-172,169	729,526	0,044	0,084
-171,154	-200,000	-0,002	0,032
-170,139	-112,711	0,151	-0,021
-169,125	-200,000	0,055	-0,000
-168,110	-97,597	0,104	-0,019
-167,096	-81,967	0,044	0,010
-166,081	-57,680	-0,087	-0,027
-165,066	-70,273	-0,067	-0,018
-164,052	-43,983	-0,057	0,020
-163,037	800,000	-0,055	-0,150
-162,023	-40,708	0,112	-0,042
-161,008	-200,000	0,014	0,089
-159,993	67,885	0,088	0,065
-158,979	230,650	0,043	-0,051
-157,964	198,874	-0,084	0,093
-156,950	401,616	-0,037	0,056
-155,935	225,864	0,139	0,162
-154,920	198,920	-0,083	0,092
-153,906	-34,410	0,094	0,037
-152,891	74,276	-0,133	-0,101
-151,877	52,825	-0,083	-0,057
-150,862	-56,316	0,062	-0,020
-149,847	9,745	0,072	-0,039
-148,833	-200,000	-0,016	-0,078
-147,818	277,780	-0,057	-0,073
-146,804	622,117	0,016	0,029
-145,789	800,000	-0,023	0,063
-144,775	-200,000	-0,023	0,143
-143,760	103,855	0,046	0,039
-142,745	243,572	0,080	-0,096
-141,731	-46,591	-0,064	0,023
-140,716	144,433	0,104	0,100
-139,702	134,548	-0,051	0,047
-138,687	-160,947	0,017	-0,001
-137,672	3,753	0,018	0,010
-136,658	800,000	-0,031	0,095
-135,643	349,833	0,026	0,037
-134,629	-48,218	-0,093	0,032
-133,614	-55,127	-0,170	-0,055
-132,599	-92,679	0,117	-0,023
-131,585	114,959	0,048	-0,042
-130,570	-135,005	-0,132	0,011
-129,556	-90,625	0,158	-0,033
-128,541	-30,112	-0,078	0,032
-127,526	31,114	0,075	-0,046
-126,512	67,007	0,046	-0,034
-125,497	-200,000	-0,016	-0,089
-124,483	674,368	-0,065	0,122
-123,468	-73,061	-0,095	0,025
-122,453	-200,000	0,016	-0,071
-121,439	185,348	0,065	-0,069
-120,424	-94,293	-0,082	-0,016
-119,410	-28,127	0,141	-0,058
