DTS Sentinel unit serial number:	SN410029Multiplexer serial number:	ORYXHardware model number:	OX2-SRSoftware version number:	ORYX F/W v4,00 Oryx Data Collector v3.7.2.0data status	okinstallation	B5 Nyhavnadifferential loss correction	single-endedforward channel	channel 2reverse channel	N/Adate	2023/12/12time	23:52:13forward acquisition time	300,00reverse acquisition time	0,00gamma	499,1914k internal	0,3159k external	0,3159temperature offset calibration	1,0000default loss term (dB/km)	0,3820temperature slope calibration	1,0000multiplexer offset coefficient	1,0000multiplexer slope coefficient	1,0000fibre end	0,00T internal ref (°C)	14,37T ext. ref 1 (°C)	-2,13T ext. ref 2 (°C)	-2,44length (m)	temperature (°C)	Stokes	anti-Stokes-744,400	-116,593	0,079	-0,011
-743,385	-110,746	-0,294	0,044
-742,371	75,237	0,070	0,054
-741,356	-142,570	-0,337	0,024
-740,342	276,524	0,069	0,090
-739,327	-97,756	-0,272	-0,051
-738,312	-30,443	0,147	-0,061
-737,298	-80,786	-0,352	0,086
-736,283	800,000	-0,012	-0,029
-735,269	20,316	-0,236	0,140
-734,254	-200,000	-0,023	0,105
-733,239	-147,673	-0,511	-0,031
-732,225	-35,688	0,091	0,036
-731,210	800,000	-0,069	-0,144
-730,196	258,226	-0,038	0,049
-729,181	57,106	0,007	0,005
-728,167	-200,000	-0,011	-0,133
-727,152	49,752	0,114	-0,079
-726,137	-200,000	-0,029	-0,139
-725,123	554,737	-0,019	0,034
-724,108	-60,903	-0,065	-0,020
-723,094	28,952	-0,070	0,043
-722,079	-87,976	-0,114	-0,025
-721,064	-200,000	-0,029	-0,105
-720,050	-200,000	-0,032	-0,137
-719,035	-110,983	-0,065	0,010
-718,021	-61,874	0,076	0,023
-717,006	-200,000	-0,026	-0,155
-715,991	54,095	-0,132	-0,093
-714,977	119,477	-0,064	-0,058
-713,962	443,620	-0,074	-0,120
-712,948	362,924	-0,009	0,013
-711,933	59,596	-0,023	0,017
-710,918	800,000	0,019	-0,043
-709,904	-105,316	-0,128	0,021
-708,889	-148,069	0,027	0,002
-707,875	29,247	-0,152	-0,095
-706,860	92,239	-0,066	0,055
-705,845	-200,000	0,008	-0,058
-704,831	-106,210	-0,110	0,018
-703,816	-68,350	0,019	-0,005
-702,802	800,000	-0,037	0,081
-701,787	-52,964	-0,139	-0,047
-700,772	387,985	0,038	0,058
-699,758	-200,000	0,024	-0,082
-698,743	792,357	-0,014	0,029
-697,729	800,000	-0,034	-0,074
-696,714	301,590	-0,064	0,088
-695,699	-105,371	0,027	-0,005
-694,685	250,714	-0,114	-0,143
-693,670	-86,417	-0,119	-0,027
-692,656	-66,005	-0,065	-0,019
-691,641	20,746	-0,133	0,079
-690,627	-200,000	-0,008	0,123
-689,612	33,144	-0,071	0,045
-688,597	123,786	-0,026	-0,024
-687,583	-53,890	-0,109	-0,036
-686,568	207,420	0,023	0,026
-685,554	29,487	-0,177	-0,111
-684,539	-200,000	0,020	0,118
-683,524	800,000	-0,040	0,105
-682,510	-70,752	0,054	-0,015
-681,495	800,000	-0,026	-0,067
-680,481	-144,006	0,081	-0,006
-679,466	-200,000	-0,010	-0,047
-678,451	800,000	0,015	0,044
-677,437	-200,000	0,022	-0,083
-676,422	-50,845	0,085	-0,029
-675,408	-200,000	-0,008	-0,050
-674,393	0,073	-0,109	-0,057
-673,378	800,000	0,009	-0,030
-672,364	-15,761	0,011	0,005
-671,349	-200,000	0,038	-0,206
-670,335	-76,937	-0,143	0,036
-669,320	37,124	0,141	-0,092
-668,305	301,345	-0,060	0,082
-667,291	-155,095	-0,088	-0,004
-666,276	-200,000	0,026	-0,127
-665,262	-200,000	0,009	0,032
-664,247	-124,733	-0,118	0,013
-663,232	800,000	0,050	-0,113
-662,218	372,513	0,043	-0,064
-661,203	800,000	-0,023	0,047
-660,189	317,046	-0,083	0,116
-659,174	145,461	-0,145	0,143
-658,159	-200,000	0,006	0,096
-657,145	-14,053	-0,148	0,070
-656,130	-15,894	0,036	0,017
-655,116	58,725	0,057	0,041
-654,101	-200,000	0,023	0,161
-653,086	150,546	-0,045	-0,044
-652,072	-88,940	-0,094	-0,020
-651,057	53,334	-0,092	0,064
-650,043	-110,476	0,089	-0,013
-649,028	84,417	0,123	0,098
-648,014	482,517	0,015	0,025
-646,999	-200,000	0,017	0,070
-645,984	-200,000	-0,033	-0,144
-644,970	145,153	0,144	-0,142
-643,955	35,799	-0,144	-0,093
-642,941	-200,000	-0,003	-0,207
-641,926	-29,905	0,104	-0,043
-640,911	-142,268	0,143	-0,010
-639,897	170,686	0,083	0,087
-638,882	-103,262	-0,096	0,016
-637,868	-200,000	0,019	-0,101
-636,853	-189,531	0,030	0,000
-635,838	130,495	-0,110	-0,104
-634,824	259,101	0,172	-0,218
-633,809	800,000	0,074	0,178
-632,795	-200,000	-0,009	-0,045
-631,780	800,000	0,052	-0,135
-630,765	25,688	-0,099	0,060
-629,751	-200,000	-0,024	0,110
-628,736	240,208	0,082	-0,100
-627,722	-76,626	-0,122	-0,031
-626,707	126,197	0,139	-0,129
-625,692	-183,132	0,119	0,002
-624,678	-60,220	0,030	0,009
-623,663	-40,222	0,063	-0,024
-622,649	4,083	-0,030	0,016
-621,634	5,073	-0,050	-0,027
-620,619	800,000	-0,044	-0,137
-619,605	99,208	-0,057	0,048
-618,590	191,786	0,069	0,076
-617,576	384,598	0,080	0,122
-616,561	147,338	0,038	0,038
-615,546	191,887	-0,058	0,065
-614,532	-124,249	-0,137	0,016
-613,517	-148,430	0,044	-0,003
-612,503	-200,000	0,019	-0,084
-611,488	83,936	-0,201	0,161
-610,474	110,377	0,033	0,029
-609,459	7,475	-0,039	-0,021
-608,444	75,007	-0,052	0,040
-607,430	225,714	0,072	0,086
-606,415	74,571	0,057	0,044
-605,401	-200,000	-0,008	-0,114
-604,386	-200,000	0,019	0,087
-603,371	102,014	0,077	0,066
-602,357	-99,686	0,022	-0,004
-601,342	-21,373	-0,171	0,076
-600,328	491,412	0,063	-0,106
-599,313	-39,092	-0,077	-0,029
-598,298	-200,000	-0,011	-0,106
-597,284	-53,815	0,096	0,032
-596,269	129,202	-0,112	-0,105
-595,255	-102,534	0,109	-0,019
-594,240	800,000	-0,029	0,090
-593,225	-200,000	0,023	-0,120
-592,211	-34,001	0,061	0,024
-591,196	704,056	-0,054	-0,105
-590,182	-118,706	0,171	-0,022
-589,167	-23,413	0,203	0,089
-588,152	36,615	-0,049	0,032
-587,138	675,196	-0,026	0,050
-586,123	117,805	-0,011	0,010
-585,109	800,000	-0,038	-0,077
-584,094	800,000	0,038	-0,103
-583,079	-118,928	0,054	0,007
-582,065	-103,613	-0,063	0,011
-581,050	-112,191	-0,075	0,011
-580,036	-200,000	0,010	-0,051
-579,021	97,438	0,196	-0,165
-578,006	-31,168	-0,122	0,050
-576,992	-87,287	0,055	-0,012
-575,977	134,219	-0,098	0,093
-574,963	22,206	0,031	-0,019
-573,948	236,680	-0,143	0,174
-572,934	-171,973	0,046	-0,001
-571,919	12,590	-0,123	-0,069
-570,904	-200,000	-0,024	-0,095
-569,890	-117,987	-0,078	0,010
-568,875	-8,497	-0,029	0,014
-567,861	-117,195	0,142	0,019
-566,846	-200,000	0,016	0,155
-565,831	-200,000	-0,005	0,048
-564,817	-3,932	-0,079	0,040
-563,802	288,694	-0,080	-0,107
-562,788	800,000	-0,087	-0,195
-561,773	192,839	0,062	-0,068
-560,758	-200,000	0,026	-0,095
-559,744	800,000	-0,015	0,048
-558,729	42,050	0,053	0,035
-557,715	-200,000	-0,057	-0,205
-556,700	-200,000	0,004	-0,080
-555,685	-200,000	0,008	0,107
-554,671	-109,334	-0,122	-0,019
-553,656	-17,177	0,103	-0,047
-552,642	-42,755	-0,114	-0,042
-551,627	-200,000	0,038	0,132
-550,612	-200,000	0,013	0,094
-549,598	-200,000	-0,010	-0,102
-548,583	-70,354	0,138	-0,038
-547,569	-10,306	0,059	-0,029
-546,554	800,000	0,031	-0,067
-545,539	395,910	-0,061	0,093
-544,525	-132,950	-0,065	0,006
-543,510	79,739	-0,050	0,039
-542,496	216,431	0,047	0,054
-541,481	37,312	0,083	-0,054
-540,466	-200,000	-0,009	-0,052
-539,452	-111,196	-0,163	0,024
-538,437	-81,968	-0,045	0,011
-537,423	-200,000	-0,023	0,195
-536,408	-200,000	0,012	0,294
-535,393	407,343	-0,070	-0,109
-534,379	29,160	0,047	0,029
-533,364	42,593	-0,099	0,066
-532,350	-200,000	0,003	0,116
-531,335	10,204	-0,137	0,076
-530,321	800,000	0,100	0,215
-529,306	-45,104	-0,151	0,055
-528,291	698,440	0,030	-0,058
-527,277	299,987	0,033	0,044
-526,262	-88,316	0,131	-0,028
-525,248	214,136	-0,054	0,063
-524,233	5,029	0,160	0,086
-523,218	-104,078	-0,034	0,006
-522,204	800,000	0,010	-0,027
-521,189	-83,782	0,075	0,017
-520,175	-10,627	-0,090	-0,043
-519,160	-145,536	-0,158	-0,010
-518,145	-200,000	0,029	0,093
-517,131	-35,140	0,042	-0,016
-516,116	-160,388	0,062	-0,002
-515,102	359,203	-0,010	0,015
-514,087	165,055	-0,063	0,065
-513,072	-200,000	0,025	-0,108
-512,058	-143,024	0,082	0,006
-511,043	143,586	-0,064	-0,062
-510,029	-200,000	-0,009	0,051
-509,014	-200,000	0,009	0,062
-507,999	-141,087	-0,138	0,010
-506,985	364,913	0,043	0,063
-505,970	-200,000	-0,007	0,028
-504,956	-117,731	-0,034	-0,004
-503,941	77,337	0,085	0,066
-502,926	425,830	0,066	-0,104
-501,912	66,275	-0,098	-0,073
-500,897	800,000	-0,013	0,028
-499,883	187,453	-0,183	-0,200
-498,868	-200,000	-0,043	0,000
-497,853	800,000	0,032	-0,082
-496,839	-200,000	0,010	0,085
-495,824	800,000	-0,020	-0,047
-494,810	-70,848	0,055	-0,015
-493,795	150,437	0,088	0,087
-492,781	59,132	-0,170	0,122
-491,766	279,455	0,061	-0,080
-490,751	586,268	-0,031	-0,055
-489,737	193,400	0,121	-0,134
-488,722	-200,000	-0,011	0,056
-487,708	-200,000	0,005	0,089
-486,693	104,331	-0,048	-0,041
-485,678	800,000	0,041	-0,094
-484,664	217,767	-0,068	0,080
-483,649	138,327	0,114	-0,109
-482,635	-170,019	-0,062	-0,002
-481,620	-94,866	0,098	-0,019
-480,605	-200,000	0,016	0,099
-479,591	-200,000	0,003	0,101
-478,576	16,699	-0,136	-0,078
-477,562	287,134	0,047	0,063
-476,547	-179,510	-0,057	0,001
-475,532	800,000	-0,023	-0,047
-474,518	-200,000	-0,010	0,072
-473,503	-82,088	-0,067	-0,016
-472,489	-200,000	-0,014	0,049
-471,474	-143,823	-0,121	-0,008
-470,459	-76,669	-0,110	-0,028
-469,445	-200,000	0,021	-0,068
-468,430	71,252	0,053	-0,040
-467,416	-113,664	-0,097	0,014
-466,401	800,000	0,036	0,088
-465,386	257,164	-0,105	0,132
-464,372	800,000	-0,034	-0,107
-463,357	183,407	-0,052	-0,056
-462,343	800,000	-0,107	-0,283
-461,328	-151,122	0,124	-0,007
-460,313	48,301	0,117	-0,080
-459,299	-200,000	0,036	-0,189
-458,284	69,352	0,033	-0,025
-457,270	410,566	-0,031	-0,048
-456,255	428,937	0,027	-0,042
-455,241	-200,000	0,026	-0,084
-454,226	76,671	0,041	-0,032
-453,211	800,000	-0,009	0,020
-452,197	-200,000	0,006	-0,024
-451,182	-62,957	0,167	0,050
-450,168	-142,344	0,134	-0,009
-449,153	-200,000	-0,024	0,170
-448,138	-117,854	-0,025	0,003
-447,124	-108,910	-0,102	-0,016
-446,109	-10,503	0,062	0,030
-445,095	56,163	0,101	-0,071
-444,080	-200,000	-0,009	0,040
-443,065	-99,889	0,003	-0,001
-442,051	82,148	-0,028	0,022
-441,036	-55,513	-0,095	-0,031
-440,022	-121,790	0,042	0,005
-439,007	26,561	-0,006	-0,004
-437,992	346,279	0,036	-0,052
-436,978	-115,135	-0,147	0,020
-435,963	-200,000	-0,008	-0,056
-434,949	344,485	0,053	-0,076
-433,934	-121,663	-0,065	0,008
-432,919	94,174	-0,052	-0,043
-431,905	95,241	0,116	-0,096
-430,890	-200,000	-0,003	-0,017
-429,876	-87,878	-0,103	-0,022
-428,861	79,792	0,057	0,044
-427,846	800,000	0,015	-0,036
-426,832	800,000	-0,036	0,099
-425,817	-3,638	0,099	-0,050
-424,803	609,268	0,043	-0,078
-423,788	-200,000	-0,010	-0,036
-422,773	-173,437	0,050	-0,001
-421,759	-200,000	-0,019	0,086
-420,744	800,000	0,041	-0,094
-419,730	202,876	0,091	-0,102
-418,715	800,000	0,070	-0,167
-417,701	-34,901	0,119	0,047
-416,686	222,192	0,050	0,058
-415,671	-200,000	-0,019	0,064
-414,657	-119,064	-0,043	-0,005
-413,642	96,783	0,061	0,051
-412,628	214,876	-0,048	-0,055
-411,613	-148,176	-0,159	0,009
-410,598	800,000	-0,017	-0,041
-409,584	-200,000	0,035	0,133
-408,569	-49,085	0,119	-0,041
-407,555	-200,000	0,019	0,097
-406,540	493,619	0,089	0,149
-405,525	-28,388	-0,027	0,011
-404,511	-54,550	-0,085	0,028
-403,496	399,711	-0,039	-0,060
-402,482	-19,025	0,100	0,045
-401,467	-200,000	-0,020	0,188
-400,452	-147,641	0,025	0,002
-399,438	-200,000	0,009	-0,107
-398,423	-105,569	0,099	-0,016
-397,409	-200,000	-0,017	0,122
-396,394	-200,000	0,033	-0,120
-395,379	-200,000	0,005	-0,123
-394,365	-100,500	0,082	-0,015
-393,350	26,344	-0,049	0,030
-392,336	10,611	-0,072	-0,040
-391,321	-200,000	0,023	-0,090
-390,306	800,000	0,019	-0,041
-389,292	12,064	0,044	-0,024
-388,277	-84,499	-0,105	0,024
-387,263	-9,957	-0,050	-0,024
-386,248	-200,000	-0,007	-0,029
-385,233	-200,000	-0,016	0,096
-384,219	-155,680	0,033	-0,002
-383,204	-57,212	-0,071	0,023
-382,190	-105,515	0,085	0,014
-381,175	442,122	0,026	0,042
-380,160	-129,130	0,161	0,016
-379,146	-8,007	-0,041	-0,020
-378,131	800,000	-0,034	0,093
-377,117	800,000	-0,056	0,124
-376,102	-45,174	0,106	-0,038
-375,088	553,804	0,042	0,073
-374,073	-200,000	0,010	-0,104
-373,058	76,832	0,103	-0,080
-372,044	-64,238	0,049	0,014
-371,029	-200,000	0,002	0,007
-370,015	37,963	-0,084	-0,054
-369,000	-156,035	-0,123	0,006
-367,985	143,173	-0,063	-0,061
-366,971	156,326	-0,010	-0,010
-365,956	-182,805	-0,008	-0,000
-364,942	-19,916	-0,073	0,032
-363,927	-200,000	-0,064	-0,000
-362,912	-200,000	0,011	-0,205
-361,898	64,033	-0,026	-0,019
-360,883	-200,000	-0,001	0,058
-359,869	-113,597	-0,020	-0,003
-358,854	96,305	-0,060	-0,050
-357,839	46,633	-0,089	0,060
-356,825	-200,000	-0,005	0,105
-355,810	800,000	-0,051	0,164
-354,796	232,413	-0,058	0,070
-353,781	756,260	-0,067	-0,133
-352,766	-169,783	-0,081	0,002
-351,752	-200,000	-0,012	0,086
-350,737	286,187	-0,062	-0,082
-349,723	-200,000	-0,014	0,045
-348,708	-200,000	0,036	0,117
-347,693	-200,000	0,006	0,057
-346,679	551,108	-0,061	-0,106
-345,664	70,727	-0,101	-0,076
-344,650	-85,099	0,064	0,014
-343,635	268,048	0,048	0,061
-342,620	73,515	0,042	-0,032
-341,606	-142,499	0,154	0,011
-340,591	800,000	0,046	-0,116
-339,577	-153,897	0,133	-0,006
-338,562	584,058	0,047	-0,085
-337,548	60,597	0,073	-0,052
-336,533	800,000	0,020	0,063
-335,518	-65,662	0,022	0,006
-334,504	-101,225	0,064	-0,011
-333,489	628,605	0,035	-0,064
-332,475	800,000	-0,072	-0,148
-331,460	470,050	-0,037	0,060
-330,445	-200,000	-0,014	-0,108
-329,431	800,000	0,018	0,056
-328,416	-159,171	0,110	-0,004
-327,402	-125,064	-0,068	0,007
-326,387	-200,000	-0,003	-0,032
-325,372	-6,020	-0,084	0,042
-324,358	-200,000	-0,023	-0,169
-323,343	150,695	-0,101	-0,100
-322,329	283,527	-0,073	0,095
-321,314	-25,634	0,084	0,036
-320,299	115,577	0,092	-0,081
-319,285	35,885	-0,049	0,031
-318,270	-200,000	0,007	0,048
-317,256	126,336	-0,083	-0,076
-316,241	-170,768	0,122	-0,003
-315,226	206,463	0,017	0,019
-314,212	-92,445	0,063	0,013
-313,197	20,093	0,088	0,051
-312,183	-77,449	-0,047	-0,012
-311,168	-200,000	-0,001	-0,041
-310,153	-200,000	-0,017	-0,060
-309,139	800,000	-0,032	-0,098
-308,124	-200,000	-0,019	-0,107
-307,110	-177,115	0,153	0,003
-306,095	-101,691	0,155	0,027
-305,080	168,366	0,116	0,120
-304,066	-158,713	0,137	-0,006
-303,051	180,014	0,043	-0,046
-302,037	30,435	0,126	0,078
-301,022	79,523	0,042	-0,033
-300,008	-76,945	0,084	0,021
-298,993	229,106	0,034	0,040
-297,978	382,303	0,034	-0,051
-296,964	448,443	0,004	0,006
-295,949	0,015	-0,114	0,059
-294,935	395,262	-0,011	-0,017
-293,920	319,534	-0,034	0,046
-292,905	-200,000	-0,003	-0,031
-291,891	-94,856	0,148	0,029
-290,876	-78,175	-0,067	0,017
-289,862	-58,598	0,060	-0,019
-288,847	615,842	0,014	-0,026
-287,832	-192,992	-0,132	-0,001
-286,818	234,801	-0,167	-0,200
-285,803	-200,000	-0,015	0,066
-284,789	336,559	-0,016	0,023
-283,774	-94,644	0,048	0,009
-282,759	-182,434	0,083	-0,001
-281,745	299,418	0,066	-0,088
-280,730	-200,000	-0,017	0,105
-279,716	800,000	0,017	-0,050
-278,701	-111,552	0,099	-0,014
-277,686	53,889	-0,087	-0,061
-276,672	-200,000	0,027	0,099
-275,657	221,132	0,037	-0,043
-274,643	-117,690	-0,155	0,020
-273,628	438,129	0,115	-0,183
-272,613	-110,849	0,058	-0,009
-271,599	-200,000	0,054	0,231
-270,584	-200,000	0,028	0,138
-269,570	123,226	-0,081	0,074
-268,555	-200,000	0,002	0,070
-267,540	-200,000	-0,016	-0,072
-266,526	800,000	-0,015	-0,034
-265,511	44,956	0,112	0,074
-264,497	198,788	0,110	0,122
-263,482	59,344	-0,111	0,079
-262,467	-55,356	-0,069	-0,022
-261,453	147,896	-0,045	0,044
-260,438	-93,897	-0,040	0,008
-259,424	800,000	-0,051	-0,119
-258,409	-200,000	0,009	-0,073
-257,395	800,000	0,076	0,186
-256,380	-46,265	0,147	0,052
-255,365	26,754	-0,071	0,043
-254,351	-81,403	0,069	0,016
-253,336	-200,000	0,002	-0,038
-252,322	800,000	-0,054	0,142
-251,307	-98,854	0,119	0,022
-250,292	166,309	-0,098	0,100
-249,278	173,999	0,102	0,107
-248,263	-56,199	0,100	0,032
-247,249	-200,000	-0,013	-0,080
-246,234	135,082	-0,042	-0,039
-245,219	-3,271	-0,060	0,030
-244,205	-42,515	-0,099	-0,036
-243,190	5,199	-0,086	0,045
-242,176	-56,256	-0,055	0,018
-241,161	-200,000	-0,013	0,081
-240,146	-27,815	0,051	0,021
-239,132	6,184	-0,039	-0,021
-238,117	800,000	-0,077	-0,181
-237,103	800,000	-0,053	-0,119
-236,088	68,568	-0,083	-0,061
-235,073	-10,904	0,064	-0,031
-234,059	-200,000	-0,011	0,042
-233,044	-18,918	0,103	0,046
-232,030	-136,569	-0,079	-0,006
-231,015	-60,507	-0,063	0,019
-230,000	800,000	-0,027	0,072
-228,986	48,033	-0,049	0,033
-227,971	-105,226	-0,053	-0,009
-226,957	800,000	-0,083	0,181
-225,942	76,169	0,035	-0,026
-224,927	-200,000	0,014	-0,069
-223,913	-200,000	0,017	0,153
-222,898	235,463	0,098	0,118
-221,884	359,682	-0,040	-0,058
-220,869	-158,079	0,081	0,003
-219,855	-200,000	-0,020	0,194
-218,840	198,764	0,125	0,138
-217,825	-26,181	0,070	-0,030
-216,811	800,000	-0,004	0,012
-215,796	-200,000	-0,018	-0,089
-214,782	608,402	-0,020	-0,036
-213,767	86,052	-0,074	-0,059
-212,752	297,316	0,062	-0,083
-211,738	-200,000	-0,008	0,092
-210,723	68,519	0,055	0,041
-209,709	140,222	-0,053	-0,051
-208,694	92,138	0,102	0,083
-207,679	273,751	-0,079	-0,101
-206,665	-71,201	-0,057	-0,015
-205,650	321,733	-0,007	-0,010
-204,636	-164,165	0,143	0,005
-203,621	668,285	-0,040	-0,075
-202,606	198,808	-0,053	-0,059
-201,592	-200,000	0,014	-0,070
-200,577	-91,108	-0,025	0,005
-199,563	-200,000	-0,004	-0,065
-198,548	27,179	0,028	-0,017
-197,533	163,488	-0,096	0,097
-196,519	109,547	-0,049	0,042
-195,504	51,427	-0,118	-0,081
-194,490	222,677	-0,026	0,031
-193,475	-200,000	-0,019	-0,070
-192,460	-200,000	-0,013	0,077
-191,446	-200,000	-0,016	-0,053
-190,431	-200,000	0,023	-0,149
-189,417	297,056	0,005	0,007
-188,402	46,502	-0,107	0,072
-187,387	62,133	-0,091	0,066
-186,373	59,273	0,077	-0,054
-185,358	39,688	-0,074	0,048
-184,344	-83,396	0,074	0,017
-183,329	197,982	-0,096	0,106
-182,315	-154,660	-0,106	0,005
-181,300	266,854	-0,034	0,043
-180,285	92,147	-0,092	0,075
-179,271	-200,000	-0,005	-0,137
-178,256	343,014	-0,047	0,067
-177,242	14,859	-0,069	0,039
-176,227	800,000	0,004	0,010
-175,212	681,125	-0,058	0,110
-174,198	-158,125	-0,113	0,005
-173,183	-72,535	-0,083	0,022
-172,169	-81,924	0,115	-0,027
-171,154	18,805	-0,065	0,038
-170,139	-200,000	-0,003	-0,020
-169,125	250,592	0,080	0,098
-168,110	-200,000	-0,018	0,090
-167,096	159,155	-0,069	0,070
-166,081	320,721	-0,043	0,059
-165,066	572,303	-0,053	-0,093
-164,052	-200,000	0,012	0,047
-163,037	800,000	0,057	-0,169
-162,023	-200,000	0,004	0,027
-161,008	800,000	0,029	0,090
-159,993	617,784	0,020	-0,037
-158,979	-200,000	-0,041	0,139
-157,964	-200,000	-0,038	-0,120
-156,950	526,755	0,043	0,073
-155,935	800,000	0,033	0,072
-154,920	-65,912	0,032	0,009
-153,906	-0,837	-0,032	-0,016
-152,891	-10,116	0,064	0,031
-151,877	-106,362	0,052	0,008
-150,862	18,737	-0,165	-0,095
-149,847	422,416	-0,052	-0,080
-148,833	21,148	0,091	-0,053
-147,818	-200,000	-0,027	-0,129
-146,804	-76,124	0,073	-0,018
-145,789	53,678	-0,015	0,011
-144,775	377,683	-0,084	-0,124
-143,760	-4,517	-0,073	0,036
-142,745	287,169	-0,051	-0,066
-141,731	-200,000	0,000	-0,130
-140,716	-134,479	-0,076	-0,007
-139,702	9,020	0,086	-0,047
-138,687	-115,878	0,046	-0,006
-137,672	260,242	-0,038	0,048
-136,658	-89,526	0,077	0,016
-135,643	91,686	0,037	0,030
-134,629	515,919	-0,057	-0,096
-133,614	-200,000	-0,027	0,127
-132,599	-151,979	-0,036	0,002
-131,585	-85,672	0,031	0,007
-130,570	-75,855	-0,193	-0,049
-129,556	800,000	-0,019	-0,049
-128,541	-200,000	0,044	-0,155
-127,526	-200,000	-0,048	-0,184
-126,512	-4,520	-0,015	-0,007
-125,497	800,000	-0,010	0,025
-124,483	307,512	0,029	0,039
-123,468	28,828	-0,083	0,050
-122,453	-120,589	-0,114	-0,014
-121,439	-200,000	-0,004	-0,137
-120,424	444,389	0,036	-0,057
