DTS Sentinel unit serial number:	SN410029Multiplexer serial number:	ORYXHardware model number:	OX2-SRSoftware version number:	ORYX F/W v4,00 Oryx Data Collector v3.7.2.0data status	okinstallation	B5 Nyhavnadifferential loss correction	single-endedforward channel	channel 2reverse channel	N/Adate	2023/12/14time	10:57:13forward acquisition time	300,00reverse acquisition time	0,00gamma	499,1914k internal	0,3161k external	0,3161temperature offset calibration	1,0000default loss term (dB/km)	0,3820temperature slope calibration	1,0000multiplexer offset coefficient	1,0000multiplexer slope coefficient	1,0000fibre end	0,00T internal ref (°C)	7,14T ext. ref 1 (°C)	-8,11T ext. ref 2 (°C)	-8,11length (m)	temperature (°C)	Stokes	anti-Stokes-744,400	-60,060	0,250	0,078
-743,385	-31,264	-0,475	-0,196
-742,371	51,358	0,125	0,087
-741,356	-131,379	-0,344	-0,033
-740,342	-104,917	0,238	0,040
-739,327	20,950	-0,319	-0,190
-738,312	449,554	0,052	0,084
-737,298	-69,917	-0,338	-0,094
-736,283	33,834	0,181	0,116
-735,269	-147,007	-0,433	0,027
-734,254	385,376	0,084	0,128
-733,239	85,943	-0,501	-0,405
-732,225	82,313	0,288	0,230
-731,210	255,278	-0,040	-0,051
-730,196	-160,340	-0,050	-0,002
-729,181	-81,390	0,019	0,005
-728,167	-147,750	-0,173	-0,010
-727,152	40,481	0,026	-0,017
-726,137	-116,889	-0,115	0,015
-725,123	-107,877	-0,113	0,018
-724,108	208,995	-0,064	-0,074
-723,094	456,725	0,063	-0,104
-722,079	-72,171	-0,070	-0,019
-721,064	-200,000	-0,018	0,117
-720,050	-200,000	0,003	-0,034
-719,035	-2,035	0,120	0,062
-718,021	-85,793	0,066	-0,015
-717,006	32,878	-0,083	-0,053
-715,991	275,820	-0,136	-0,179
-714,977	-12,928	-0,008	-0,004
-713,962	-69,556	-0,095	-0,027
-712,948	-80,178	0,038	-0,009
-711,933	191,710	-0,077	-0,086
-710,918	-16,141	0,036	-0,017
-709,904	-200,000	0,032	-0,150
-708,889	101,515	-0,098	0,084
-707,875	-20,667	-0,069	-0,031
-706,860	-153,346	-0,129	-0,006
-705,845	-59,957	0,063	-0,020
-704,831	-129,226	0,102	0,010
-703,816	-175,847	0,129	-0,002
-702,802	497,001	-0,080	-0,135
-701,787	-121,625	-0,063	-0,008
-700,772	125,393	0,073	-0,068
-699,758	152,366	0,123	-0,124
-698,743	778,367	0,058	0,117
-697,729	104,590	0,049	-0,042
-696,714	-70,386	-0,084	-0,023
-695,699	-92,468	-0,065	-0,013
-694,685	629,914	-0,056	-0,104
-693,670	-64,137	-0,092	-0,027
-692,656	-14,665	0,126	-0,059
-691,641	800,000	-0,048	0,122
-690,627	66,929	0,105	-0,079
-689,612	-200,000	-0,014	-0,046
-688,597	-200,000	-0,006	0,101
-687,583	1,572	0,119	-0,063
-686,568	253,199	-0,142	-0,178
-685,554	179,795	0,063	-0,067
-684,539	-200,000	0,009	0,051
-683,524	-194,660	-0,096	0,001
-682,510	-127,948	0,152	-0,016
-681,495	-200,000	0,003	-0,179
-680,481	-200,000	0,016	-0,145
-679,466	10,275	-0,090	-0,050
-678,451	-59,654	0,117	-0,037
-677,437	-200,000	0,005	-0,065
-676,422	-200,000	0,006	0,060
-675,408	-111,240	-0,026	-0,004
-674,393	102,779	0,040	0,034
-673,378	483,093	0,090	-0,151
-672,364	-200,000	-0,005	0,194
-671,349	-200,000	-0,015	-0,104
-670,335	-96,652	-0,099	0,019
-669,320	215,526	0,080	-0,093
-668,305	157,286	0,065	-0,067
-667,291	-200,000	-0,030	-0,112
-666,276	185,638	-0,086	-0,094
-665,262	-200,000	-0,007	0,026
-664,247	469,543	0,032	0,053
-663,232	12,632	-0,091	0,051
-662,218	-16,720	0,094	-0,044
-661,203	473,345	-0,069	-0,115
-660,189	-48,728	0,030	-0,010
-659,174	333,788	-0,055	-0,079
-658,159	-200,000	0,025	-0,100
-657,145	-35,051	0,033	0,013
-656,130	-26,105	0,076	-0,033
-655,116	-66,679	0,095	0,028
-654,101	-105,472	0,114	-0,019
-653,086	589,862	-0,039	0,071
-652,072	191,823	-0,034	0,038
-651,057	240,815	-0,003	0,004
-650,043	-4,654	-0,065	0,033
-649,028	-29,894	-0,146	0,061
-648,014	326,388	0,016	0,022
-646,999	-56,895	0,032	0,010
-645,984	182,350	0,110	-0,119
-644,970	-147,676	-0,034	-0,002
-643,955	194,652	-0,031	-0,034
-642,941	286,484	-0,017	0,022
-641,926	-200,000	-0,009	-0,107
-640,911	65,019	0,046	-0,034
-639,897	800,000	-0,076	-0,204
-638,882	-58,883	0,017	0,006
-637,868	800,000	0,033	-0,087
-636,853	-142,179	0,090	0,006
-635,838	-28,589	-0,200	-0,084
-634,824	-95,023	-0,117	-0,023
-633,809	14,421	0,156	0,089
-632,795	-200,000	-0,028	0,157
-631,780	-70,620	-0,038	-0,010
-630,765	63,784	-0,097	-0,071
-629,751	-66,330	0,044	0,013
-628,736	18,893	0,098	-0,057
-627,722	84,830	0,121	-0,097
-626,707	800,000	0,041	-0,117
-625,692	70,486	-0,038	0,029
-624,678	-39,999	0,068	0,026
-623,663	-95,738	-0,134	0,026
-622,649	13,893	0,069	0,039
-621,634	71,015	-0,067	-0,051
-620,619	-200,000	0,000	-0,161
-619,605	581,030	-0,011	0,020
-618,590	-200,000	0,016	0,100
-617,576	-95,530	0,131	-0,026
-616,561	-63,407	-0,227	0,068
-615,546	132,703	0,083	0,079
-614,532	155,082	-0,098	0,099
-613,517	546,988	-0,043	0,075
-612,503	-113,394	-0,073	0,010
-611,488	157,860	0,035	-0,035
-610,474	334,006	0,067	0,096
-609,459	245,372	-0,052	0,064
-608,444	-200,000	0,001	-0,033
-607,430	149,257	-0,129	-0,128
-606,415	-138,181	0,121	0,010
-605,401	-200,000	0,025	0,097
-604,386	-86,950	-0,100	-0,022
-603,371	-200,000	0,013	-0,066
-602,357	-200,000	-0,022	0,082
-601,342	-122,079	-0,187	-0,022
-600,328	685,291	-0,100	-0,193
-599,313	-59,937	-0,013	0,004
-598,298	-124,028	-0,041	0,005
-597,284	-119,235	-0,110	0,014
-596,269	128,844	-0,056	0,052
-595,255	-113,562	0,050	-0,007
-594,240	800,000	-0,019	0,055
-593,225	800,000	-0,025	0,052
-592,211	-119,815	-0,043	0,005
-591,196	-147,802	0,118	-0,007
-590,182	800,000	0,010	-0,021
-589,167	-200,000	0,008	0,078
-588,152	234,190	0,115	0,139
-587,138	105,738	0,063	0,054
-586,123	-114,075	0,057	-0,008
-585,109	164,161	-0,026	-0,027
-584,094	84,726	-0,083	-0,066
-583,079	285,771	-0,024	-0,032
-582,065	800,000	-0,029	-0,061
-581,050	-174,954	-0,157	0,003
-580,036	282,734	0,058	-0,077
-579,021	199,706	-0,068	-0,077
-578,006	29,144	0,037	-0,023
-576,992	-1,837	0,087	0,045
-575,977	114,020	-0,094	0,084
-574,963	-200,000	-0,025	0,105
-573,948	535,334	0,053	-0,093
-572,934	606,476	-0,005	-0,010
-571,919	330,905	0,044	-0,062
-570,904	322,409	-0,065	-0,091
-569,890	800,000	0,075	-0,152
-568,875	-162,723	0,058	-0,002
-567,861	-34,828	-0,069	-0,027
-566,846	-200,000	0,020	0,146
-565,831	175,574	-0,019	-0,020
-564,817	-82,703	-0,079	0,018
-563,802	-200,000	0,012	-0,068
-562,788	368,114	-0,040	-0,059
-561,773	478,435	0,040	0,067
-560,758	800,000	-0,016	0,043
-559,744	297,774	0,041	-0,056
-558,729	625,572	-0,073	0,135
-557,715	800,000	0,024	-0,055
-556,700	800,000	0,040	-0,109
-555,685	-200,000	0,030	-0,113
-554,671	-14,663	0,054	-0,025
-553,656	-200,000	-0,002	-0,099
-552,642	385,308	0,020	0,031
-551,627	800,000	0,011	-0,024
-550,612	48,505	-0,172	-0,117
-549,598	800,000	-0,049	-0,100
-548,583	-200,000	0,013	-0,058
-547,569	-5,402	0,048	0,024
-546,554	-98,643	0,177	-0,033
-545,539	-200,000	0,026	0,090
-544,525	-4,915	0,092	-0,046
-543,510	317,375	0,045	-0,063
-542,496	84,725	-0,084	0,067
-541,481	312,679	-0,091	0,125
-540,466	-160,938	0,149	0,006
-539,452	800,000	0,044	-0,108
-538,437	-32,193	-0,019	0,008
-537,423	800,000	-0,027	-0,080
-536,408	-200,000	0,005	0,048
-535,393	-56,579	-0,116	0,037
-534,379	-82,808	-0,117	0,027
-533,364	-200,000	0,000	0,038
-532,350	-3,104	-0,032	-0,016
-531,335	18,583	-0,029	0,017
-530,321	-117,854	0,121	-0,016
-529,306	-200,000	0,027	-0,114
-528,291	800,000	0,044	-0,134
-527,277	84,035	-0,098	-0,078
-526,262	34,940	0,119	0,076
-525,248	-200,000	-0,009	0,103
-524,233	-95,645	0,074	0,014
-523,218	175,294	-0,089	0,094
-522,204	68,409	-0,179	0,134
-521,189	111,523	0,033	-0,029
-520,175	-200,000	0,006	-0,061
-519,160	800,000	-0,055	-0,112
-518,145	-200,000	0,004	0,093
-517,131	-88,501	0,093	-0,020
-516,116	-108,011	0,054	0,009
-515,102	-200,000	-0,005	0,021
-514,087	-200,000	-0,031	-0,242
-513,072	-200,000	0,045	-0,155
-512,058	48,319	-0,036	0,025
-511,043	172,834	0,095	-0,100
-510,029	503,253	-0,048	0,082
-509,014	800,000	0,023	0,049
-507,999	-22,523	-0,073	0,032
-506,985	-200,000	0,014	0,063
-505,970	671,220	0,017	-0,032
-504,956	800,000	-0,018	0,041
-503,941	0,687	-0,092	-0,048
-502,926	131,723	-0,055	0,052
-501,912	-30,289	0,080	-0,033
-500,897	3,934	-0,044	0,023
-499,883	73,996	0,096	0,074
-498,868	452,059	-0,089	-0,144
-497,853	-200,000	0,001	-0,012
-496,839	456,073	0,045	-0,074
-495,824	62,092	0,029	0,021
-494,810	-200,000	-0,007	0,056
-493,795	800,000	-0,036	0,086
-492,781	-200,000	-0,017	0,090
-491,766	-200,000	0,002	-0,116
-490,751	-200,000	-0,013	-0,093
-489,737	-10,563	0,074	0,035
-488,722	-144,004	0,018	-0,001
-487,708	800,000	0,031	0,079
-486,693	800,000	0,057	0,152
-485,678	800,000	0,026	-0,060
-484,664	-30,872	-0,072	0,029
-483,649	-200,000	0,005	0,019
-482,635	-200,000	-0,018	0,079
-481,620	-33,903	-0,112	0,045
-480,605	407,674	0,071	0,109
-479,591	-200,000	0,018	0,149
-478,576	63,333	-0,030	0,022
-477,562	-125,291	-0,196	0,022
-476,547	-131,380	0,026	0,002
-475,532	-1,537	0,063	-0,032
-474,518	95,700	0,100	-0,083
-473,503	-200,000	-0,009	0,123
-472,489	-24,223	0,139	-0,060
-471,474	383,259	0,074	0,112
-470,459	-161,164	-0,127	0,005
-469,445	389,475	-0,089	-0,134
-468,430	-145,359	0,047	0,003
-467,416	186,186	0,017	-0,018
-466,401	249,420	0,038	-0,047
-465,386	-21,737	-0,150	-0,066
-464,372	-145,510	0,099	-0,006
-463,357	196,739	-0,058	-0,064
-462,343	-152,708	-0,127	0,006
-461,328	53,000	-0,062	0,043
-460,313	567,353	0,036	-0,065
-459,299	800,000	-0,029	-0,072
-458,284	104,972	0,067	0,058
-457,270	-200,000	0,004	-0,082
-456,255	-200,000	0,055	-0,230
-455,241	-80,585	-0,126	-0,030
-454,226	663,858	0,064	0,121
-453,211	-29,458	0,023	-0,009
-452,197	-62,646	0,113	0,034
-451,182	-200,000	0,012	0,092
-450,168	445,972	0,078	0,125
-449,153	326,262	-0,061	-0,085
-448,138	119,532	-0,103	0,093
-447,124	-77,649	-0,143	0,036
-446,109	-16,711	0,067	-0,031
-445,095	-200,000	-0,018	-0,118
-444,080	-99,752	0,057	-0,010
-443,065	-187,721	0,116	0,001
-442,051	-45,917	0,060	0,022
-441,036	800,000	-0,031	-0,091
-440,022	800,000	0,029	0,078
-439,007	390,305	-0,039	-0,058
-437,992	-46,611	0,084	-0,030
-436,978	-68,186	-0,041	-0,012
-435,963	-200,000	-0,000	-0,145
-434,949	179,288	0,094	0,100
-433,934	-200,000	-0,003	0,018
-432,919	299,436	0,063	0,084
-431,905	-66,903	0,095	-0,027
-430,890	800,000	-0,048	0,132
-429,876	800,000	-0,016	0,042
-428,861	-200,000	0,020	0,150
-427,846	177,981	0,040	0,043
-426,832	-200,000	0,015	-0,051
-425,817	-200,000	-0,008	-0,124
-424,803	-179,076	0,108	-0,002
-423,788	-10,145	-0,165	0,080
-422,773	-200,000	-0,024	0,083
-421,759	-141,370	0,108	-0,008
-420,744	269,906	-0,056	0,072
-419,730	800,000	-0,051	0,124
-418,715	-200,000	0,020	-0,103
-417,701	-162,996	-0,059	0,002
-416,686	697,892	0,024	-0,046
-415,671	-169,654	0,042	0,001
-414,657	257,075	-0,058	0,072
-413,642	-106,952	0,104	-0,017
-412,628	77,813	0,061	0,047
-411,613	102,487	0,088	-0,075
-410,598	-147,260	-0,181	-0,011
-409,584	355,918	0,036	-0,053
-408,569	131,992	-0,046	-0,043
-407,555	-151,726	0,129	0,007
-406,540	747,692	0,012	0,024
-405,525	-10,498	-0,070	0,033
-404,511	699,557	0,047	0,091
-403,496	-200,000	0,005	0,043
-402,482	-10,956	0,143	-0,068
-401,467	76,593	0,092	0,071
-400,452	-200,000	-0,015	0,173
-399,438	197,530	0,058	0,064
-398,423	-200,000	0,042	-0,141
-397,409	13,678	-0,065	-0,037
-396,394	129,478	-0,088	0,082
-395,379	-200,000	0,030	-0,170
-394,365	-2,947	0,030	-0,015
-393,350	23,093	0,141	0,084
-392,336	-200,000	0,018	0,076
-391,321	-11,496	0,054	-0,026
-390,306	-200,000	0,006	-0,026
-389,292	72,943	-0,121	-0,091
-388,277	-47,634	-0,152	-0,053
-387,263	-27,614	0,063	0,027
-386,248	70,909	-0,104	-0,078
-385,233	-200,000	-0,050	0,184
-384,219	-38,161	-0,039	-0,015
-383,204	647,115	0,038	0,071
-382,190	-200,000	0,024	-0,080
-381,175	-200,000	-0,000	0,086
-380,160	-200,000	0,022	-0,086
-379,146	-69,829	0,080	0,022
-378,131	-200,000	-0,015	0,083
-377,117	800,000	0,047	0,110
-376,102	43,253	-0,093	-0,062
-375,088	800,000	0,059	-0,150
-374,073	384,572	-0,108	0,162
-373,058	427,067	0,075	-0,118
-372,044	255,075	-0,039	0,048
-371,029	-0,008	-0,059	0,030
-370,015	27,334	-0,104	0,063
-369,000	800,000	-0,052	-0,165
-367,985	58,570	-0,060	-0,042
-366,971	800,000	-0,030	-0,088
-365,956	641,207	0,090	-0,167
-364,942	47,302	-0,108	-0,073
-363,927	547,042	0,101	0,176
-362,912	-132,440	-0,102	0,009
-361,898	651,974	0,032	-0,060
-360,883	340,211	0,029	0,041
-359,869	190,548	0,038	-0,041
-358,854	-200,000	0,002	0,113
-357,839	800,000	0,011	0,027
-356,825	182,424	0,009	-0,010
-355,810	67,822	-0,067	0,050
-354,796	-200,000	0,031	0,133
-353,781	-200,000	0,003	-0,033
-352,766	144,735	-0,040	-0,039
-351,752	252,181	-0,056	-0,069
-350,737	176,398	0,051	0,054
-349,723	45,529	0,027	0,018
-348,708	509,563	-0,017	-0,029
-347,693	425,093	0,044	0,068
-346,679	207,730	-0,086	-0,098
-345,664	408,141	0,037	-0,057
-344,650	-11,339	-0,069	0,033
-343,635	40,724	0,135	0,088
-342,620	-200,000	-0,009	0,105
-341,606	69,079	-0,053	-0,039
-340,591	-46,959	-0,093	0,033
-339,577	-110,124	0,022	-0,003
-338,562	-200,000	0,004	0,051
-337,548	-13,566	0,095	0,045
-336,533	-200,000	-0,024	0,087
-335,518	-76,458	0,103	0,026
-334,504	-28,280	0,067	-0,028
-333,489	800,000	-0,052	-0,137
-332,475	-200,000	-0,001	-0,271
-331,460	-200,000	0,008	-0,161
-330,445	-70,756	-0,070	-0,019
-329,431	-200,000	0,000	-0,028
-328,416	-163,911	0,029	0,001
-327,402	-200,000	0,025	-0,083
-326,387	-200,000	0,004	0,012
-325,372	112,930	-0,129	0,113
-324,358	-28,259	-0,097	-0,040
-323,343	-200,000	0,012	-0,073
-322,329	248,566	-0,093	-0,114
-321,314	-33,330	0,123	0,049
-320,299	5,623	0,058	-0,031
-319,285	800,000	-0,056	0,160
-318,270	73,732	-0,014	0,011
-317,256	-183,522	-0,124	0,002
-316,241	-200,000	0,022	0,098
-315,226	73,983	0,043	-0,032
-314,212	800,000	0,054	0,150
-313,197	486,182	0,049	0,081
-312,183	-99,577	0,017	-0,003
-311,168	191,559	-0,111	-0,121
-310,153	-200,000	0,021	-0,128
-309,139	-99,350	-0,029	-0,005
-308,124	28,665	0,072	0,044
-307,110	-174,009	0,166	0,003
-306,095	523,074	-0,053	0,091
-305,080	329,706	0,098	-0,136
-304,066	-200,000	0,007	0,060
-303,051	-72,317	0,024	-0,006
-302,037	417,061	-0,063	-0,098
-301,022	261,412	0,153	-0,192
-300,008	-18,364	0,151	0,068
-298,993	261,642	0,053	0,066
-297,978	312,228	-0,068	0,092
-296,964	203,095	0,100	0,112
-295,949	-200,000	-0,004	-0,026
-294,935	364,088	0,036	0,052
-293,920	226,295	0,053	0,063
-292,905	-102,454	-0,179	0,031
-291,891	53,948	0,078	-0,054
-290,876	298,783	-0,052	0,069
-289,862	36,423	-0,085	0,054
-288,847	800,000	0,019	0,058
-287,832	-200,000	0,003	-0,090
-286,818	-29,301	0,122	-0,050
-285,803	-68,681	-0,065	-0,018
-284,789	783,094	0,045	-0,089
-283,774	-47,782	-0,119	-0,042
-282,759	218,166	0,044	0,051
-281,745	84,015	-0,069	-0,055
-280,730	613,552	0,075	-0,136
-279,716	-32,327	-0,124	0,050
-278,701	788,624	0,014	0,028
-277,686	-47,818	-0,073	0,026
-276,672	32,720	0,048	-0,030
-275,657	-9,664	-0,033	-0,016
-274,643	265,035	-0,050	-0,063
-273,628	-200,000	0,016	0,087
-272,613	-118,843	0,089	0,011
-271,599	87,199	0,070	0,056
-270,584	-124,725	0,012	0,001
-269,570	198,802	0,116	0,128
-268,555	-115,288	-0,005	-0,001
-267,540	146,936	0,043	0,042
-266,526	250,066	0,071	-0,087
-265,511	444,037	0,082	0,130
-264,497	-33,785	-0,035	-0,014
-263,482	-117,922	0,050	0,006
-262,467	136,698	0,061	0,058
-261,453	142,891	0,103	0,099
-260,438	-23,152	0,099	-0,043
-259,424	-200,000	-0,155	-0,000
-258,409	-80,226	0,096	0,023
-257,395	-200,000	0,009	0,066
-256,380	545,523	0,084	0,146
-255,365	94,486	0,026	0,021
-254,351	304,481	-0,117	0,157
-253,336	78,235	-0,122	0,094
-252,322	-200,000	-0,002	0,054
-251,307	306,436	-0,056	0,076
-250,292	800,000	0,015	0,047
-249,278	-200,000	-0,006	-0,106
-248,263	-200,000	0,006	-0,070
-247,249	118,987	-0,090	-0,080
-246,234	-189,517	-0,092	-0,001
-245,219	103,109	-0,068	0,058
-244,205	482,979	-0,070	-0,116
-243,190	800,000	0,002	0,005
-242,176	-95,154	0,025	-0,005
-241,161	258,271	0,109	0,136
-240,146	-200,000	-0,002	-0,067
-239,132	52,113	0,149	-0,103
-238,117	1,702	0,094	0,049
-237,103	127,971	0,022	-0,021
-236,088	-185,202	0,030	0,000
-235,073	-23,314	-0,026	-0,011
-234,059	-200,000	-0,012	0,044
-233,044	-200,000	0,026	0,089
-232,030	-200,000	-0,014	0,085
-231,015	-56,301	-0,045	0,014
-230,000	800,000	-0,046	-0,112
-228,986	54,364	0,046	0,032
-227,971	98,880	0,129	0,107
-226,957	800,000	-0,060	0,160
-225,942	-200,000	0,000	0,149
-224,927	-200,000	-0,027	0,087
-223,913	-200,000	0,006	-0,093
-222,898	-149,563	0,110	0,006
-221,884	325,272	-0,051	0,070
-220,869	800,000	0,032	-0,088
-219,855	255,022	0,055	0,068
-218,840	-44,728	0,012	-0,004
-217,825	-142,973	-0,143	0,010
-216,811	-200,000	-0,001	0,038
-215,796	-108,044	-0,121	0,019
-214,782	-80,106	-0,052	-0,012
-213,767	455,129	0,033	0,053
-212,752	-44,152	-0,133	0,048
-211,738	-200,000	0,058	0,204
-210,723	-23,398	-0,089	0,039
-209,709	-125,541	-0,027	-0,003
-208,694	-200,000	-0,001	0,033
-207,679	348,882	0,063	0,090
-206,665	18,216	0,045	0,026
-205,650	546,624	0,031	0,053
-204,636	214,142	-0,032	0,036
-203,621	-54,512	0,098	0,032
-202,606	39,552	-0,106	-0,069
-201,592	719,407	-0,006	0,012
-200,577	315,272	0,078	0,107
-199,563	31,761	-0,047	0,029
-198,548	800,000	-0,015	-0,045
-197,533	-200,000	0,016	-0,096
-196,519	-200,000	-0,027	-0,226
-195,504	-35,124	0,042	-0,016
-194,490	-89,901	0,096	-0,020
-193,475	800,000	0,059	-0,183
-192,460	112,495	-0,061	-0,053
-191,446	135,056	-0,095	0,089
-190,431	45,751	0,065	0,044
-189,417	18,648	-0,104	0,060
-188,402	117,169	0,041	-0,037
-187,387	800,000	0,034	0,070
-186,373	-200,000	-0,005	0,055
-185,358	148,894	-0,040	0,039
-184,344	-108,191	0,129	0,020
-183,329	309,717	0,064	0,087
-182,315	104,815	-0,040	-0,034
-181,300	-146,153	-0,114	0,007
-180,285	-12,342	-0,169	-0,079
-179,271	-200,000	0,008	-0,136
-178,256	-200,000	-0,061	-0,217
-177,242	-200,000	0,013	0,045
-176,227	800,000	0,052	-0,125
-175,212	-200,000	0,011	-0,081
-174,198	-34,189	-0,148	-0,058
-173,183	-106,760	-0,024	0,004
-172,169	-200,000	0,049	-0,198
-171,154	709,357	-0,026	-0,049
-170,139	800,000	0,004	-0,011
-169,125	-200,000	-0,012	0,092
-168,110	-113,124	-0,111	0,016
-167,096	129,697	0,112	-0,103
-166,081	342,789	-0,073	-0,103
-165,066	779,555	0,049	-0,097
-164,052	-200,000	-0,022	-0,107
-163,037	-200,000	0,022	-0,097
-162,023	800,000	-0,038	0,078
-161,008	-118,433	0,045	-0,006
-159,993	-200,000	0,013	0,108
-158,979	62,886	-0,083	-0,060
-157,964	-200,000	-0,004	0,040
-156,950	800,000	-0,050	-0,128
-155,935	13,455	0,161	0,089
-154,920	38,792	0,078	0,050
-153,906	800,000	-0,040	0,100
-152,891	-80,138	0,063	-0,015
-151,877	800,000	0,037	-0,108
-150,862	-200,000	0,002	0,115
-149,847	152,700	0,033	0,032
-148,833	-80,252	0,075	-0,018
-147,818	800,000	0,042	-0,085
-146,804	-200,000	0,011	0,075
-145,789	-83,699	0,116	0,026
-144,775	-129,789	0,067	0,007
-143,760	-19,425	0,104	-0,046
-142,745	72,905	-0,045	-0,034
-141,731	206,987	0,061	0,068
-140,716	-197,917	0,129	-0,001
-139,702	800,000	-0,040	-0,086
-138,687	-200,000	-0,006	-0,077
-137,672	155,143	-0,035	-0,035
-136,658	275,968	-0,085	0,109
-135,643	-200,000	-0,001	-0,057
-134,629	524,550	-0,050	-0,084
-133,614	-167,238	0,144	-0,004
-132,599	132,369	-0,095	0,088
-131,585	285,353	0,030	0,039
-130,570	3,220	-0,037	-0,019
-129,556	-81,919	0,117	0,027
-128,541	84,206	-0,148	-0,116
-127,526	-200,000	-0,015	-0,063
-126,512	-100,996	-0,140	-0,024
-125,497	-175,717	0,188	-0,004
-124,483	284,457	-0,089	0,116
-123,468	-111,764	-0,122	0,018
-122,453	-42,550	-0,063	0,023
-121,439	238,427	0,029	0,034
-120,424	-200,000	-0,018	-0,104
-119,410	-67,130	0,059	-0,017
