DTS Sentinel unit serial number:	SN410029Multiplexer serial number:	ORYXHardware model number:	OX2-SRSoftware version number:	ORYX F/W v4,00 Oryx Data Collector v3.7.2.0data status	okinstallation	B5 Nyhavnadifferential loss correction	single-endedforward channel	channel 2reverse channel	N/Adate	2023/12/13time	12:07:13forward acquisition time	300,00reverse acquisition time	0,00gamma	499,1914k internal	0,3162k external	0,3162temperature offset calibration	1,0000default loss term (dB/km)	0,3820temperature slope calibration	1,0000multiplexer offset coefficient	1,0000multiplexer slope coefficient	1,0000fibre end	0,00T internal ref (°C)	13,99T ext. ref 1 (°C)	-1,91T ext. ref 2 (°C)	-2,21length (m)	temperature (°C)	Stokes	anti-Stokes-744,400	306,008	0,125	0,171
-743,385	-154,828	-0,271	0,013
-742,371	178,224	0,080	0,086
-741,356	-122,707	-0,341	0,040
-740,342	-38,012	0,236	0,092
-739,327	-71,157	-0,349	0,096
-738,312	-200,000	0,012	-0,073
-737,298	-179,147	-0,309	0,005
-736,283	-38,540	0,112	0,043
-735,269	-62,618	-0,202	0,061
-734,254	800,000	0,077	0,235
-733,239	-53,603	-0,424	-0,142
-732,225	-35,420	0,076	-0,030
-731,210	-200,000	-0,007	0,127
-730,196	-94,868	0,087	0,017
-729,181	452,989	0,024	-0,040
-728,167	-200,000	0,006	-0,109
-727,152	-110,374	-0,087	0,013
-726,137	628,786	-0,102	0,190
-725,123	242,787	-0,045	0,056
-724,108	-93,511	-0,178	-0,036
-723,094	76,808	-0,029	-0,023
-722,079	800,000	-0,066	-0,149
-721,064	-116,537	-0,188	-0,025
-720,050	201,875	0,046	0,052
-719,035	144,442	-0,102	-0,100
-718,021	-28,800	-0,157	-0,066
-717,006	79,441	-0,090	-0,071
-715,991	-200,000	0,016	-0,101
-714,977	-15,662	0,015	-0,007
-713,962	-29,619	0,028	0,012
-712,948	82,545	-0,130	0,104
-711,933	-110,917	0,042	-0,006
-710,918	-77,703	-0,192	0,048
-709,904	-200,000	-0,004	-0,091
-708,889	249,831	-0,118	-0,147
-707,875	-157,834	-0,060	-0,003
-706,860	-154,171	-0,119	0,006
-705,845	-30,184	0,133	0,055
-704,831	688,359	0,014	0,026
-703,816	213,496	0,035	0,041
-702,802	-200,000	0,010	0,067
-701,787	-200,000	-0,016	-0,071
-700,772	274,976	0,068	0,089
-699,758	-200,000	-0,007	-0,069
-698,743	-25,416	0,137	-0,059
-697,729	230,266	0,071	0,085
-696,714	800,000	-0,018	-0,054
-695,699	-200,000	-0,005	-0,024
-694,685	372,354	-0,054	0,082
-693,670	-153,891	-0,210	-0,010
-692,656	-74,325	0,218	0,057
-691,641	-162,690	0,137	-0,005
-690,627	16,758	-0,123	-0,071
-689,612	-200,000	0,003	0,065
-688,597	-54,668	0,092	0,030
-687,583	-125,934	0,065	-0,007
-686,568	534,540	-0,112	-0,195
-685,554	392,787	-0,084	-0,128
-684,539	-145,829	0,076	-0,005
-683,524	-99,198	0,091	0,017
-682,510	287,430	0,078	0,103
-681,495	83,821	-0,033	0,026
-680,481	800,000	0,079	-0,172
-679,466	-68,442	-0,158	-0,045
-678,451	2,966	-0,122	-0,065
-677,437	99,304	0,087	0,074
-676,422	144,490	0,034	0,033
-675,408	60,281	-0,038	0,028
-674,393	160,180	0,119	0,122
-673,378	-89,509	0,068	-0,015
-672,364	38,602	-0,040	-0,026
-671,349	-200,000	-0,028	-0,147
-670,335	-200,000	-0,023	-0,094
-669,320	-42,075	0,072	0,027
-668,305	-135,328	-0,079	-0,007
-667,291	687,179	-0,047	-0,091
-666,276	-200,000	0,003	-0,084
-665,262	518,485	-0,086	-0,149
-664,247	-200,000	-0,028	-0,127
-663,232	793,505	-0,033	0,066
-662,218	-200,000	0,013	-0,083
-661,203	169,031	-0,089	-0,093
-660,189	101,216	-0,067	-0,057
-659,174	-11,004	-0,114	-0,055
-658,159	-200,000	0,022	-0,133
-657,145	-200,000	0,023	-0,096
-656,130	-200,000	-0,015	0,106
-655,116	800,000	0,060	0,135
-654,101	-200,000	-0,003	-0,079
-653,086	-127,271	-0,081	0,009
-652,072	800,000	0,050	-0,143
-651,057	-200,000	-0,019	-0,230
-650,043	41,608	-0,036	0,024
-649,028	-173,267	0,125	0,003
-648,014	-200,000	-0,001	0,079
-646,999	-77,591	0,135	-0,034
-645,984	458,846	-0,037	0,061
-644,970	-61,595	-0,106	-0,032
-643,955	24,088	0,085	-0,052
-642,941	-112,017	0,151	-0,022
-641,926	-113,222	-0,064	0,009
-640,911	-200,000	-0,014	0,161
-639,897	52,957	0,072	-0,051
-638,882	-23,038	0,096	0,042
-637,868	-85,279	-0,111	0,025
-636,853	3,608	-0,162	-0,086
-635,838	-200,000	0,021	-0,165
-634,824	800,000	0,023	0,050
-633,809	174,642	0,032	0,034
-632,795	800,000	-0,022	0,062
-631,780	800,000	0,034	0,073
-630,765	-197,959	-0,223	-0,001
-629,751	-21,979	-0,108	0,048
-628,736	346,672	-0,086	-0,124
-627,722	800,000	0,071	-0,145
-626,707	-107,652	0,063	0,010
-625,692	-200,000	0,002	-0,060
-624,678	15,264	0,053	0,030
-623,663	90,504	0,091	-0,075
-622,649	-200,000	-0,035	-0,128
-621,634	-127,329	-0,116	-0,012
-620,619	79,667	0,116	-0,091
-619,605	174,193	-0,048	-0,051
-618,590	125,652	0,035	-0,032
-617,576	-200,000	0,028	-0,094
-616,561	800,000	-0,041	0,112
-615,546	331,412	-0,017	0,023
-614,532	220,810	-0,067	-0,079
-613,517	-200,000	-0,003	-0,083
-612,503	800,000	0,022	0,047
-611,488	398,025	-0,053	0,081
-610,474	-79,637	-0,124	-0,030
-609,459	800,000	-0,041	-0,098
-608,444	227,215	-0,063	0,075
-607,430	-200,000	0,036	-0,172
-606,415	-200,000	0,000	-0,079
-605,401	-75,721	0,044	0,011
-604,386	-200,000	0,029	0,111
-603,371	800,000	0,103	0,227
-602,357	-21,000	-0,083	0,037
-601,342	-38,577	0,022	-0,009
-600,328	-126,937	0,055	0,006
-599,313	-200,000	0,013	0,065
-598,298	173,403	0,044	0,047
-597,284	153,615	-0,054	0,055
-596,269	43,359	-0,084	0,056
-595,255	-200,000	-0,034	0,167
-594,240	-200,000	0,039	-0,158
-593,225	158,618	-0,112	-0,114
-592,211	-200,000	0,006	-0,160
-591,196	-96,631	0,007	-0,001
-590,182	609,058	0,029	-0,053
-589,167	800,000	0,012	-0,033
-588,152	111,892	0,139	0,123
-587,138	-103,552	-0,055	-0,009
-586,123	106,545	0,067	-0,058
-585,109	145,565	-0,029	-0,029
-584,094	265,015	-0,063	-0,081
-583,079	-121,041	-0,116	0,014
-582,065	174,583	0,127	-0,134
-581,050	-200,000	0,039	0,134
-580,036	33,534	-0,094	-0,059
-579,021	-200,000	-0,009	-0,039
-578,006	-50,940	-0,102	0,035
-576,992	434,668	0,023	-0,037
-575,977	800,000	0,021	0,064
-574,963	-0,087	0,029	0,015
-573,948	191,035	0,064	0,071
-572,934	127,152	-0,060	-0,056
-571,919	409,240	0,036	0,056
-570,904	-200,000	0,015	0,079
-569,890	-200,000	-0,016	-0,197
-568,875	-200,000	0,021	0,135
-567,861	-200,000	0,022	0,080
-566,846	800,000	0,027	0,082
-565,831	800,000	-0,032	-0,084
-564,817	367,803	-0,046	0,068
-563,802	196,766	-0,066	0,074
-562,788	141,311	0,108	0,104
-561,773	-78,639	-0,094	-0,023
-560,758	110,122	0,068	0,060
-559,744	-200,000	-0,001	-0,064
-558,729	112,080	-0,090	0,079
-557,715	440,694	0,038	-0,061
-556,700	800,000	-0,035	-0,104
-555,685	720,370	-0,016	0,031
-554,671	-97,087	-0,137	-0,026
-553,656	251,404	0,056	-0,070
-552,642	135,918	-0,053	0,050
-551,627	-108,295	-0,041	-0,006
-550,612	16,336	-0,077	0,044
-549,598	-97,439	0,035	0,007
-548,583	-97,045	-0,168	0,032
-547,569	461,502	0,031	-0,051
-546,554	-50,179	-0,105	0,036
-545,539	-104,762	-0,051	0,009
-544,525	-17,733	0,044	0,020
-543,510	446,829	-0,022	-0,035
-542,496	-200,000	-0,007	-0,185
-541,481	300,274	-0,093	-0,125
-540,466	406,652	0,061	-0,094
-539,452	-62,690	0,090	0,027
-538,437	773,789	0,017	0,033
-537,423	499,113	0,042	-0,071
-536,408	-86,255	-0,117	-0,026
-535,393	-186,020	-0,121	-0,001
-534,379	5,350	-0,049	-0,026
-533,364	-200,000	-0,002	0,073
-532,350	169,325	0,134	-0,140
-531,335	-122,035	0,125	-0,015
-530,321	126,577	0,095	-0,087
-529,306	186,017	-0,115	0,126
-528,291	444,842	0,029	-0,046
-527,277	49,850	0,013	-0,009
-526,262	121,956	0,030	-0,028
-525,248	-74,661	-0,083	0,022
-524,233	-200,000	0,032	0,130
-523,218	-156,276	-0,032	0,001
-522,204	-200,000	0,008	0,048
-521,189	-200,000	-0,058	-0,192
-520,175	95,918	-0,090	-0,075
-519,160	800,000	0,037	0,078
-518,145	59,166	-0,100	0,072
-517,131	-145,074	0,115	-0,008
-516,116	102,944	-0,066	0,057
-515,102	146,699	-0,051	0,050
-514,087	162,743	0,087	-0,089
-513,072	425,134	-0,080	-0,126
-512,058	-200,000	-0,002	-0,137
-511,043	-200,000	-0,010	-0,058
-510,029	-167,116	0,085	0,002
-509,014	-200,000	0,003	0,043
-507,999	800,000	0,058	-0,120
-506,985	39,647	0,030	-0,020
-505,970	-130,124	-0,087	0,009
-504,956	218,593	-0,133	-0,156
-503,941	-39,814	-0,069	0,026
-502,926	-24,613	0,022	0,009
-501,912	115,355	0,040	-0,036
-500,897	-51,696	-0,093	-0,031
-499,883	277,214	-0,060	-0,079
-498,868	-56,843	-0,059	0,019
-497,853	-200,000	-0,001	-0,243
-496,839	73,899	0,127	-0,097
-495,824	62,247	0,062	-0,045
-494,810	330,379	0,038	0,054
-493,795	-163,141	-0,038	0,001
-492,781	800,000	0,043	-0,109
-491,766	-159,808	-0,110	0,004
-490,751	-31,286	0,013	-0,005
-489,737	30,736	0,050	0,031
-488,722	-200,000	-0,001	-0,016
-487,708	800,000	0,068	0,148
-486,693	-165,680	0,017	-0,001
-485,678	3,165	-0,104	-0,055
-484,664	123,862	-0,064	-0,059
-483,649	417,801	0,039	0,061
-482,635	800,000	0,037	0,105
-481,620	-200,000	0,003	0,171
-480,605	204,703	0,089	0,101
-479,591	800,000	0,054	0,135
-478,576	31,320	0,034	0,021
-477,562	610,986	0,103	-0,188
-476,547	-112,403	-0,101	0,015
-475,532	86,444	0,082	0,066
-474,518	-200,000	0,024	-0,080
-473,503	448,040	-0,040	-0,064
-472,489	104,804	0,104	0,090
-471,474	15,162	0,098	0,056
-470,459	-47,313	-0,053	0,019
-469,445	198,033	-0,133	-0,148
-468,430	-65,132	-0,064	0,019
-467,416	800,000	-0,052	0,121
-466,401	-17,467	0,072	0,033
-465,386	-200,000	0,018	-0,142
-464,372	-41,358	0,019	-0,007
-463,357	37,342	0,069	0,044
-462,343	-200,000	0,007	-0,055
-461,328	-200,000	-0,008	-0,031
-460,313	-200,000	0,002	0,029
-459,299	150,993	0,082	0,082
-458,284	13,192	0,108	0,061
-457,270	-5,204	-0,063	0,031
-456,255	298,129	-0,046	-0,061
-455,241	596,508	0,035	-0,064
-454,226	-66,328	0,060	-0,017
-453,211	70,748	0,052	-0,039
-452,197	260,637	0,101	0,127
-451,182	118,915	0,105	-0,095
-450,168	152,468	-0,059	0,059
-449,153	-97,856	-0,090	0,017
-448,138	-200,000	-0,022	-0,195
-447,124	31,031	0,101	-0,063
-446,109	36,173	0,143	0,091
-445,095	35,888	0,066	-0,042
-444,080	234,351	0,092	0,111
-443,065	-200,000	-0,012	0,045
-442,051	316,884	-0,091	-0,125
-441,036	-18,720	-0,050	-0,023
-440,022	241,717	0,079	-0,096
-439,007	-200,000	0,012	-0,046
-437,992	58,505	0,081	-0,058
-436,978	191,072	-0,063	0,069
-435,963	-200,000	-0,011	-0,063
-434,949	-144,876	-0,112	-0,007
-433,934	-74,118	0,059	0,015
-432,919	-24,310	-0,082	-0,035
-431,905	-123,247	-0,069	0,008
-430,890	4,471	0,195	0,104
-429,876	-200,000	0,014	0,107
-428,861	-30,979	0,067	-0,028
-427,846	-85,746	-0,075	0,017
-426,832	800,000	0,025	0,080
-425,817	-161,023	-0,076	0,003
-424,803	58,280	-0,054	-0,038
-423,788	-0,042	0,045	0,023
-422,773	-200,000	0,001	0,062
-421,759	-200,000	0,001	0,174
-420,744	-158,942	0,077	-0,003
-419,730	-88,765	0,065	-0,014
-418,715	380,169	-0,073	0,109
-417,701	353,470	0,068	-0,098
-416,686	123,341	0,062	0,056
-415,671	114,045	0,102	0,090
-414,657	-96,373	0,041	-0,008
-413,642	-124,578	-0,032	0,004
-412,628	68,794	-0,086	0,064
-411,613	47,963	0,084	-0,057
-410,598	395,986	-0,053	-0,081
-409,584	26,373	0,076	0,046
-408,569	565,472	-0,043	-0,076
-407,555	336,015	-0,090	0,127
-406,540	-200,000	-0,004	-0,180
-405,525	271,461	0,048	-0,062
-404,511	54,224	-0,039	-0,028
-403,496	-144,277	-0,097	-0,006
-402,482	-101,718	0,058	0,010
-401,467	26,580	-0,113	0,069
-400,452	77,090	0,070	0,054
-399,438	386,850	-0,049	-0,073
-398,423	-200,000	-0,021	-0,083
-397,409	800,000	-0,042	-0,101
-396,394	38,592	-0,127	-0,082
-395,379	-62,217	-0,153	0,046
-394,365	800,000	-0,029	0,064
-393,350	800,000	0,047	-0,147
-392,336	-92,560	0,094	-0,019
-391,321	-200,000	-0,022	-0,090
-390,306	-59,890	-0,064	-0,020
-389,292	-200,000	-0,007	-0,051
-388,277	71,586	-0,117	-0,088
-387,263	-71,354	-0,012	-0,003
-386,248	-200,000	-0,020	0,092
-385,233	-200,000	-0,055	-0,000
-384,219	-200,000	-0,007	0,066
-383,204	-200,000	-0,040	-0,171
-382,190	224,565	0,070	-0,082
-381,175	-200,000	-0,006	-0,169
-380,160	162,272	0,082	0,084
-379,146	800,000	0,021	0,059
-378,131	800,000	0,023	0,065
-377,117	-200,000	0,000	-0,079
-376,102	800,000	0,012	-0,029
-375,088	-48,838	-0,090	-0,031
-374,073	748,087	-0,023	0,045
-373,058	-200,000	0,031	0,104
-372,044	800,000	0,036	0,075
-371,029	-200,000	-0,003	0,106
-370,015	800,000	0,027	-0,062
-369,000	126,092	-0,050	0,046
-367,985	-26,440	-0,131	-0,055
-366,971	-49,736	0,052	0,018
-365,956	214,862	0,031	0,036
-364,942	-55,664	-0,032	0,010
-363,927	-200,000	-0,002	0,013
-362,912	-200,000	-0,065	0,292
-361,898	-200,000	0,030	0,123
-360,883	-200,000	0,028	-0,113
-359,869	-144,712	-0,053	-0,003
-358,854	-200,000	0,033	0,112
-357,839	185,600	0,129	0,139
-356,825	-200,000	0,012	0,068
-355,810	800,000	-0,045	0,127
-354,796	-128,124	0,104	-0,011
-353,781	-200,000	-0,009	-0,049
-352,766	-164,693	0,073	-0,002
-351,752	-181,007	0,046	-0,001
-350,737	-90,721	-0,196	0,041
-349,723	800,000	-0,005	0,012
-348,708	-200,000	0,010	-0,068
-347,693	718,190	0,069	-0,133
-346,679	201,343	-0,058	0,065
-345,664	-200,000	-0,016	-0,124
-344,650	7,817	0,106	-0,057
-343,635	-8,853	0,047	-0,023
-342,620	-24,637	0,032	-0,014
-341,606	49,341	-0,030	0,020
-340,591	-188,576	-0,059	-0,001
-339,577	-46,507	-0,026	-0,009
-338,562	161,359	0,010	0,011
-337,548	-35,992	0,051	0,020
-336,533	-200,000	0,004	0,075
-335,518	-89,893	0,024	0,005
-334,504	-64,837	-0,095	0,028
-333,489	152,725	-0,085	-0,084
-332,475	-200,000	-0,007	-0,051
-331,460	261,675	0,020	-0,025
-330,445	758,906	-0,027	0,054
-329,431	31,800	-0,057	0,036
-328,416	-116,569	0,074	0,010
-327,402	-9,860	0,063	-0,030
-326,387	136,166	-0,125	0,118
-325,372	-92,691	-0,053	-0,011
-324,358	-200,000	0,007	-0,105
-323,343	786,764	0,059	-0,117
-322,329	75,553	0,070	-0,053
-321,314	-37,825	0,181	0,070
-320,299	71,554	-0,065	-0,049
-319,285	-200,000	-0,011	-0,037
-318,270	-200,000	-0,018	0,107
-317,256	-200,000	0,013	-0,115
-316,241	160,759	-0,024	-0,024
-315,226	800,000	-0,026	0,074
-314,212	800,000	-0,051	0,129
-313,197	-3,113	0,019	-0,010
-312,183	18,302	-0,056	-0,032
-311,168	-0,335	0,097	0,050
-310,153	-200,000	0,006	0,048
-309,139	80,821	-0,024	0,018
-308,124	719,849	0,061	0,118
-307,110	244,445	0,079	0,096
-306,095	238,324	0,010	0,012
-305,080	230,340	-0,164	0,195
-304,066	18,652	0,033	0,019
-303,051	-200,000	0,017	-0,077
-302,037	16,482	-0,049	0,028
-301,022	-144,020	-0,019	0,001
-300,008	-200,000	0,000	-0,035
-298,993	800,000	-0,033	0,077
-297,978	154,349	-0,042	-0,042
-296,964	356,289	-0,084	0,121
-295,949	800,000	-0,070	-0,153
-294,935	-200,000	-0,025	-0,172
-293,920	800,000	-0,054	0,119
-292,905	-200,000	0,013	-0,050
-291,891	-200,000	0,015	0,086
-290,876	800,000	0,034	-0,096
-289,862	31,665	0,075	-0,047
-288,847	-94,415	-0,089	0,017
-287,832	-200,000	-0,011	-0,054
-286,818	532,711	0,073	-0,125
-285,803	31,066	0,043	0,027
-284,789	800,000	-0,044	0,112
-283,774	-63,470	0,104	0,031
-282,759	-200,000	0,016	-0,063
-281,745	-88,161	-0,052	-0,011
-280,730	430,697	0,038	-0,059
-279,716	122,138	0,052	-0,047
-278,701	50,499	-0,146	-0,100
-277,686	88,637	0,083	0,066
-276,672	452,501	0,030	-0,048
-275,657	800,000	-0,015	0,040
-274,643	800,000	0,009	-0,025
-273,628	-56,246	0,049	-0,016
-272,613	744,413	0,021	0,040
-271,599	-143,988	-0,064	-0,004
-270,584	-39,688	-0,029	-0,011
-269,570	-4,660	0,045	-0,022
-268,555	375,883	-0,024	-0,036
-267,540	-200,000	-0,014	-0,118
-266,526	522,488	-0,022	-0,038
-265,511	800,000	0,054	-0,131
-264,497	800,000	0,026	0,057
-263,482	143,426	0,074	0,071
-262,467	239,336	0,056	0,067
-261,453	-99,890	0,164	0,029
-260,438	-200,000	-0,013	-0,054
-259,424	-23,416	-0,046	-0,020
-258,409	-52,975	-0,154	-0,051
-257,395	178,933	0,068	0,072
-256,380	-22,514	-0,095	-0,041
-255,365	-200,000	0,000	0,009
-254,351	800,000	-0,017	0,053
-253,336	-184,673	0,060	0,001
-252,322	264,938	-0,036	0,046
-251,307	-146,648	0,127	0,008
-250,292	-64,833	-0,045	-0,013
-249,278	800,000	0,043	0,086
-248,263	-67,782	-0,013	0,004
-247,249	-200,000	-0,020	0,078
-246,234	25,210	0,074	0,044
-245,219	-140,216	-0,086	0,006
-244,205	-200,000	0,006	0,044
-243,190	-200,000	-0,010	-0,098
-242,176	-200,000	0,033	-0,122
-241,161	800,000	-0,046	0,136
-240,146	-200,000	0,001	0,179
-239,132	268,028	-0,068	0,086
-238,117	800,000	-0,014	0,039
-237,103	35,329	0,072	-0,045
-236,088	-138,951	-0,073	-0,006
-235,073	-200,000	0,005	0,077
-234,059	37,599	0,063	0,040
-233,044	306,919	0,135	0,182
-232,030	36,171	-0,045	0,029
-231,015	-92,445	-0,091	0,018
-230,000	193,604	-0,059	0,064
-228,986	800,000	0,033	0,070
-227,971	51,713	-0,022	0,015
-226,957	-140,399	-0,057	0,004
-225,942	261,648	-0,079	0,099
-224,927	-100,774	-0,049	-0,009
-223,913	-200,000	-0,005	-0,136
-222,898	79,641	0,049	0,038
-221,884	-68,344	-0,043	-0,012
-220,869	-84,237	0,082	-0,019
-219,855	-125,084	-0,049	-0,005
-218,840	370,554	-0,134	0,197
-217,825	-200,000	0,000	0,065
-216,811	800,000	-0,047	-0,138
-215,796	-114,016	-0,017	-0,002
-214,782	-43,454	0,041	-0,015
-213,767	-141,244	0,084	0,006
-212,752	800,000	-0,003	0,006
-211,738	206,868	0,061	-0,069
-210,723	75,486	0,027	-0,020
-209,709	-40,686	0,075	-0,028
-208,694	3,822	-0,046	-0,024
-207,679	30,102	0,093	-0,057
-206,665	380,544	-0,062	0,092
-205,650	290,933	-0,022	-0,028
-204,636	-200,000	-0,003	0,076
-203,621	-200,000	-0,003	-0,014
-202,606	-200,000	-0,034	0,142
-201,592	191,567	0,097	0,105
-200,577	-89,669	0,062	0,013
-199,563	-200,000	0,020	-0,090
-198,548	800,000	0,030	-0,073
-197,533	-200,000	-0,020	0,091
-196,519	-200,000	0,033	0,110
-195,504	44,663	0,090	0,060
-194,490	-139,050	-0,042	0,003
-193,475	-200,000	0,021	0,078
-192,460	-91,120	0,080	0,016
-191,446	608,493	0,005	-0,010
-190,431	-25,867	0,130	-0,055
-189,417	800,000	-0,027	0,058
-188,402	-62,491	-0,078	0,023
-187,387	38,371	0,124	-0,080
-186,373	-53,833	-0,126	0,041
-185,358	-44,992	0,119	-0,042
-184,344	-200,000	0,001	0,114
-183,329	-126,156	0,053	0,006
-182,315	78,890	0,107	-0,082
-181,300	202,593	0,052	0,058
-180,285	800,000	-0,020	-0,054
-179,271	56,909	-0,048	0,034
-178,256	214,576	-0,052	0,059
-177,242	260,858	0,126	0,157
-176,227	125,300	-0,028	0,026
-175,212	-200,000	-0,026	0,094
-174,198	109,959	-0,062	-0,054
-173,183	-200,000	-0,024	-0,076
-172,169	273,640	0,088	-0,112
-171,154	196,663	-0,024	0,026
-170,139	-164,983	-0,052	0,002
-169,125	74,988	0,098	0,075
-168,110	80,994	0,034	0,026
-167,096	354,379	0,052	-0,074
-166,081	-200,000	0,001	-0,091
-165,066	130,661	0,077	-0,071
-164,052	-200,000	-0,042	-0,142
-163,037	11,171	0,058	0,032
-162,023	-103,538	-0,141	-0,024
-161,008	-200,000	0,001	-0,037
-159,993	-31,543	-0,064	-0,026
-158,979	-200,000	0,003	-0,016
-157,964	294,725	-0,057	-0,075
-156,950	122,974	-0,090	0,081
-155,935	29,313	0,114	0,070
-154,920	116,072	-0,046	0,040
-153,906	225,649	0,053	-0,062
-152,891	-200,000	-0,035	0,132
-151,877	-7,099	0,066	0,032
-150,862	96,741	-0,049	-0,040
-149,847	-164,851	0,113	0,004
-148,833	-200,000	-0,016	0,083
-147,818	-200,000	0,011	-0,078
-146,804	24,610	-0,064	0,038
-145,789	-123,916	-0,055	0,006
-144,775	29,566	-0,059	-0,036
-143,760	-200,000	0,032	-0,128
-142,745	-200,000	0,047	-0,157
-141,731	-200,000	0,001	-0,112
-140,716	2,711	0,109	-0,057
-139,702	-78,603	-0,032	0,008
-138,687	-12,396	0,025	0,012
-137,672	-94,903	0,022	-0,004
-136,658	306,569	-0,063	-0,085
-135,643	166,966	-0,090	-0,091
-134,629	13,341	0,029	0,016
-133,614	800,000	-0,013	-0,038
-132,599	-141,197	0,136	0,010
-131,585	-91,959	0,163	0,033
-130,570	136,716	0,010	0,010
-129,556	-13,814	-0,081	-0,038
-128,541	-60,158	0,036	0,011
-127,526	-200,000	-0,017	0,071
-126,512	800,000	-0,043	-0,092
-125,497	-19,636	0,117	0,052
-124,483	-200,000	0,026	-0,100
-123,468	-47,756	-0,040	0,014
-122,453	63,857	-0,175	-0,126
-121,439	-130,247	-0,090	-0,009
-120,424	77,226	-0,066	0,050
-119,410	7,099	0,113	-0,060
