DTS Sentinel unit serial number:	SN410029Multiplexer serial number:	ORYXHardware model number:	OX2-SRSoftware version number:	ORYX F/W v4,00 Oryx Data Collector v3.7.2.0data status	okinstallation	B5 Nyhavnadifferential loss correction	single-endedforward channel	channel 2reverse channel	N/Adate	2023/12/13time	14:32:14forward acquisition time	300,00reverse acquisition time	0,00gamma	499,1914k internal	0,3160k external	0,3160temperature offset calibration	1,0000default loss term (dB/km)	0,3820temperature slope calibration	1,0000multiplexer offset coefficient	1,0000multiplexer slope coefficient	1,0000fibre end	0,00T internal ref (°C)	14,96T ext. ref 1 (°C)	-1,24T ext. ref 2 (°C)	-1,53length (m)	temperature (°C)	Stokes	anti-Stokes-744,400	571,941	0,041	-0,073
-743,385	-93,041	-0,364	0,074
-742,371	143,592	0,167	0,164
-741,356	-32,593	-0,345	0,141
-740,342	26,154	0,127	0,078
-739,327	-75,015	-0,236	-0,062
-738,312	20,308	0,113	0,067
-737,298	-75,015	-0,266	-0,070
-736,283	-144,513	0,211	-0,014
-735,269	-85,393	-0,318	0,072
-734,254	-24,471	0,183	0,080
-733,239	-10,760	-0,515	-0,250
-732,225	-43,070	0,193	0,072
-731,210	350,433	0,020	0,030
-730,196	84,060	0,045	0,036
-729,181	-200,000	-0,013	0,043
-728,167	783,328	-0,053	-0,108
-727,152	800,000	-0,029	0,063
-726,137	240,997	-0,067	-0,082
-725,123	-148,457	-0,237	-0,014
-724,108	-93,904	-0,089	0,018
-723,094	-200,000	-0,003	-0,014
-722,079	-0,937	-0,089	-0,046
-721,064	-200,000	0,005	0,066
-720,050	470,459	0,001	-0,002
-719,035	-200,000	-0,056	0,199
-718,021	691,551	0,068	-0,131
-717,006	800,000	-0,075	-0,185
-715,991	-38,292	-0,102	0,040
-714,977	-200,000	-0,001	-0,146
-713,962	-142,088	0,028	-0,002
-712,948	-43,731	0,076	0,028
-711,933	-102,435	0,053	-0,009
-710,918	800,000	-0,039	-0,105
-709,904	800,000	-0,043	-0,106
-708,889	-115,887	-0,263	-0,036
-707,875	-200,000	-0,039	-0,158
-706,860	589,752	0,126	0,229
-705,845	-139,720	0,074	0,006
-704,831	-54,744	-0,020	-0,007
-703,816	-96,491	0,074	-0,014
-702,802	800,000	-0,044	-0,114
-701,787	-200,000	-0,017	-0,152
-700,772	483,253	-0,036	-0,061
-699,758	-76,694	0,117	-0,030
-698,743	-200,000	-0,006	0,038
-697,729	-200,000	-0,006	-0,077
-696,714	21,011	-0,050	-0,029
-695,699	-200,000	0,025	0,087
-694,685	-161,625	-0,157	0,006
-693,670	130,778	-0,126	-0,119
-692,656	677,685	0,027	-0,051
-691,641	-41,971	0,139	0,052
-690,627	800,000	0,065	0,149
-689,612	84,323	0,069	-0,056
-688,597	-96,171	-0,123	0,024
-687,583	-8,754	-0,075	-0,037
-686,568	168,284	0,050	0,052
-685,554	-200,000	-0,032	-0,119
-684,539	-200,000	-0,006	0,045
-683,524	-200,000	-0,029	0,115
-682,510	89,009	0,089	-0,073
-681,495	800,000	0,005	-0,017
-680,481	-101,111	-0,076	0,014
-679,466	132,966	-0,040	-0,038
-678,451	800,000	-0,084	-0,183
-677,437	58,921	-0,055	-0,040
-676,422	103,601	0,046	0,039
-675,408	-200,000	0,003	-0,031
-674,393	-37,540	0,065	-0,025
-673,378	-103,957	-0,074	-0,013
-672,364	-53,724	-0,085	-0,028
-671,349	-46,927	-0,215	-0,077
-670,335	-200,000	0,015	0,062
-669,320	527,674	-0,013	0,023
-668,305	629,930	-0,057	0,106
-667,291	800,000	-0,056	-0,124
-666,276	131,477	-0,091	-0,086
-665,262	176,867	-0,172	-0,184
-664,247	566,298	0,026	0,047
-663,232	126,426	0,034	-0,032
-662,218	-200,000	0,019	0,081
-661,203	-200,000	0,018	0,109
-660,189	-200,000	0,012	-0,064
-659,174	489,291	0,056	-0,094
-658,159	800,000	0,038	-0,105
-657,145	-200,000	-0,011	-0,111
-656,130	-39,260	-0,121	-0,046
-655,116	31,895	0,149	-0,094
-654,101	-200,000	-0,006	-0,032
-653,086	130,112	-0,073	0,069
-652,072	304,448	-0,047	-0,064
-651,057	58,148	0,055	-0,039
-650,043	-105,122	-0,144	-0,024
-649,028	695,711	-0,026	0,051
-648,014	113,765	0,027	-0,024
-646,999	-200,000	-0,001	-0,055
-645,984	800,000	0,033	-0,085
-644,970	-7,036	-0,071	0,035
-643,955	251,378	-0,081	-0,101
-642,941	38,370	0,087	0,057
-641,926	-174,621	0,052	0,001
-640,911	-13,934	0,135	-0,064
-639,897	-200,000	-0,002	0,146
-638,882	800,000	-0,011	-0,034
-637,868	33,204	-0,107	-0,068
-636,853	66,000	-0,119	-0,088
-635,838	-200,000	-0,000	-0,079
-634,824	4,135	-0,137	0,073
-633,809	-200,000	0,022	0,134
-632,795	51,295	0,096	-0,067
-631,780	180,861	0,080	0,086
-630,765	800,000	-0,019	-0,050
-629,751	20,905	-0,028	0,016
-628,736	-33,257	-0,045	-0,018
-627,722	432,980	-0,042	-0,068
-626,707	-200,000	0,010	-0,060
-625,692	-116,546	-0,067	0,009
-624,678	22,174	-0,055	0,033
-623,663	566,523	0,008	0,014
-622,649	47,214	-0,057	0,039
-621,634	116,587	-0,185	-0,166
-620,619	-200,000	-0,050	0,000
-619,605	179,361	-0,114	-0,122
-618,590	-200,000	-0,014	0,080
-617,576	216,181	0,104	-0,122
-616,561	328,670	0,084	0,118
-615,546	-88,038	-0,196	-0,043
-614,532	385,725	0,041	-0,063
-613,517	-112,954	0,079	0,011
-612,503	328,610	-0,014	0,020
-611,488	-31,726	0,129	0,053
-610,474	317,690	0,077	0,107
-609,459	800,000	-0,046	0,112
-608,444	-185,795	0,042	0,000
-607,430	-171,134	-0,170	-0,004
-606,415	-106,017	0,139	0,023
-605,401	41,517	-0,100	0,066
-604,386	762,467	-0,080	0,159
-603,371	28,198	0,041	-0,025
-602,357	-147,009	0,080	-0,005
-601,342	488,933	0,026	0,044
-600,328	272,506	0,019	0,024
-599,313	369,521	0,044	0,065
-598,298	-72,215	-0,072	0,019
-597,284	265,655	0,047	0,060
-596,269	-200,000	-0,014	0,049
-595,255	156,468	0,047	-0,048
-594,240	612,741	-0,054	0,099
-593,225	-3,063	0,108	0,055
-592,211	-3,849	-0,085	0,043
-591,196	204,239	0,151	0,172
-590,182	-143,259	0,100	-0,007
-589,167	44,069	0,056	-0,037
-588,152	240,441	0,046	-0,056
-587,138	-200,000	-0,005	-0,038
-586,123	-95,699	-0,160	0,031
-585,109	800,000	0,045	-0,096
-584,094	-148,382	0,230	-0,014
-583,079	-81,908	0,066	-0,016
-582,065	-32,617	0,133	-0,054
-581,050	-11,863	0,127	-0,061
-580,036	147,164	-0,163	0,161
-579,021	-200,000	-0,018	-0,097
-578,006	-71,360	-0,056	0,015
-576,992	-200,000	0,005	0,018
-575,977	470,289	-0,020	-0,033
-574,963	429,321	-0,103	-0,163
-573,948	116,799	0,049	0,044
-572,934	91,100	0,074	-0,061
-571,919	168,297	0,052	-0,054
-570,904	800,000	-0,048	-0,124
-569,890	-200,000	-0,012	-0,066
-568,875	800,000	-0,015	0,036
-567,861	-108,389	0,120	0,019
-566,846	509,130	0,049	0,083
-565,831	20,406	0,102	0,060
-564,817	800,000	-0,018	-0,048
-563,802	-89,260	-0,044	-0,009
-562,788	-44,828	0,086	0,031
-561,773	-98,408	0,133	0,025
-560,758	-91,400	-0,071	-0,015
-559,744	117,830	0,080	0,072
-558,729	135,355	-0,042	-0,040
-557,715	259,873	0,035	0,044
-556,700	640,031	-0,094	0,177
-555,685	-55,154	-0,098	-0,032
-554,671	36,459	0,105	0,068
-553,656	-8,743	-0,051	0,025
-552,642	-192,970	0,053	-0,000
-551,627	-20,370	-0,081	-0,036
-550,612	-200,000	0,001	-0,025
-549,598	59,698	-0,045	-0,032
-548,583	-81,913	-0,135	-0,032
-547,569	-115,525	0,084	0,011
-546,554	800,000	0,057	-0,178
-545,539	108,286	0,047	-0,041
-544,525	131,617	-0,054	-0,051
-543,510	800,000	-0,080	-0,217
-542,496	189,369	0,054	-0,059
-541,481	800,000	-0,047	-0,108
-540,466	800,000	0,019	0,055
-539,452	451,485	0,081	0,132
-538,437	-38,460	0,087	-0,034
-537,423	-165,974	-0,071	0,002
-536,408	-200,000	0,001	-0,035
-535,393	800,000	-0,107	-0,220
-534,379	-200,000	-0,013	-0,101
-533,364	-119,641	-0,094	0,012
-532,350	459,540	0,107	0,174
-531,335	-15,679	-0,021	-0,010
-530,321	-200,000	-0,014	0,096
-529,306	-200,000	-0,007	0,062
-528,291	26,470	-0,102	-0,062
-527,277	-11,359	-0,091	-0,044
-526,262	524,310	0,040	-0,068
-525,248	-71,432	-0,096	-0,026
-524,233	-95,617	0,145	0,028
-523,218	-101,671	-0,069	0,012
-522,204	800,000	-0,014	-0,043
-521,189	-60,418	0,052	0,016
-520,175	-83,632	-0,125	0,029
-519,160	-200,000	-0,006	-0,044
-518,145	800,000	-0,039	0,100
-517,131	124,174	0,078	-0,072
-516,116	443,130	-0,038	0,062
-515,102	23,053	0,067	-0,040
-514,087	469,314	-0,067	-0,111
-513,072	299,279	-0,052	0,070
-512,058	-200,000	0,005	0,045
-511,043	-119,912	-0,084	0,010
-510,029	126,748	0,071	0,065
-509,014	800,000	0,008	0,017
-507,999	322,921	-0,053	0,074
-506,985	611,454	-0,028	0,052
-505,970	93,705	0,071	-0,059
-504,956	8,597	-0,062	-0,034
-503,941	46,979	0,071	0,048
-502,926	25,412	0,072	0,043
-501,912	800,000	0,034	-0,070
-500,897	800,000	0,032	-0,089
-499,883	-135,083	-0,120	-0,010
-498,868	-142,798	-0,140	-0,010
-497,853	117,489	-0,042	0,038
-496,839	670,838	0,035	-0,066
-495,824	-200,000	0,009	0,033
-494,810	800,000	-0,059	-0,126
-493,795	-200,000	0,009	0,066
-492,781	503,224	-0,025	-0,042
-491,766	-200,000	0,019	-0,070
-490,751	-200,000	0,017	-0,137
-489,737	76,200	-0,143	-0,110
-488,722	-109,808	0,181	0,027
-487,708	-99,056	-0,072	0,013
-486,693	183,753	-0,038	-0,041
-485,678	-200,000	0,003	-0,067
-484,664	-200,000	0,008	-0,106
-483,649	217,955	-0,073	-0,085
-482,635	-59,366	-0,042	-0,013
-481,620	-200,000	-0,010	-0,093
-480,605	67,321	0,083	0,062
-479,591	-61,782	-0,036	0,011
-478,576	800,000	0,018	0,043
-477,562	329,040	0,017	-0,024
-476,547	-184,760	-0,106	0,001
-475,532	127,562	-0,081	0,075
-474,518	-200,000	0,018	-0,061
-473,503	64,645	-0,001	-0,001
-472,489	-108,006	0,075	0,012
-471,474	-27,736	0,073	-0,031
-470,459	386,894	-0,067	-0,101
-469,445	800,000	0,022	-0,052
-468,430	210,012	-0,027	0,031
-467,416	81,980	0,078	0,061
-466,401	-82,577	0,071	0,017
-465,386	-200,000	0,027	0,220
-464,372	39,418	-0,028	-0,019
-463,357	-99,553	-0,187	0,034
-462,343	245,987	0,045	-0,055
-461,328	-200,000	0,014	-0,065
-460,313	-50,964	0,027	0,009
-459,299	-200,000	0,007	0,158
-458,284	128,247	-0,053	0,049
-457,270	51,177	-0,108	0,074
-456,255	360,160	0,020	-0,029
-455,241	800,000	-0,007	0,019
-454,226	-200,000	0,018	-0,071
-453,211	-102,052	-0,065	0,011
-452,197	-200,000	-0,021	0,099
-451,182	-200,000	-0,036	-0,145
-450,168	397,485	0,050	0,077
-449,153	-200,000	-0,017	0,190
-448,138	35,506	-0,040	-0,026
-447,124	-200,000	-0,002	-0,155
-446,109	-28,119	0,111	-0,047
-445,095	16,333	0,082	0,047
-444,080	-200,000	-0,027	0,090
-443,065	17,231	-0,151	0,087
-442,051	12,246	0,131	0,073
-441,036	-200,000	-0,009	-0,195
-440,022	800,000	-0,057	0,139
-439,007	46,081	-0,064	-0,043
-437,992	358,857	0,059	-0,086
-436,978	71,956	-0,062	0,047
-435,963	116,492	-0,024	-0,021
-434,949	-200,000	-0,005	0,068
-433,934	181,082	-0,081	0,087
-432,919	236,462	-0,014	-0,016
-431,905	-98,016	-0,093	-0,017
-430,890	141,553	-0,057	-0,055
-429,876	223,103	0,122	0,143
-428,861	-200,000	0,004	0,118
-427,846	600,581	0,043	0,077
-426,832	-2,611	0,165	-0,084
-425,817	800,000	-0,015	0,030
-424,803	359,666	0,022	-0,032
-423,788	71,055	0,112	0,084
-422,773	-55,331	0,085	0,028
-421,759	307,152	-0,062	0,084
-420,744	-9,165	0,073	-0,036
-419,730	-113,760	-0,106	-0,015
-418,715	-9,859	-0,073	-0,035
-417,701	284,864	-0,017	-0,022
-416,686	-42,670	0,165	0,061
-415,671	113,210	-0,010	-0,009
-414,657	213,700	-0,037	0,042
-413,642	-200,000	0,000	0,029
-412,628	800,000	-0,041	-0,097
-411,613	-200,000	0,005	-0,086
-410,598	800,000	-0,075	-0,192
-409,584	286,694	0,036	-0,047
-408,569	2,933	-0,096	-0,051
-407,555	-170,491	0,175	0,004
-406,540	-57,323	-0,050	0,016
-405,525	311,091	0,074	-0,101
-404,511	-200,000	0,006	-0,094
-403,496	104,196	-0,023	0,020
-402,482	-31,217	-0,006	0,002
-401,467	-200,000	0,047	0,174
-400,452	800,000	0,025	0,059
-399,438	-20,466	-0,031	0,014
-398,423	194,166	-0,044	-0,049
-397,409	-51,961	0,154	0,052
-396,394	416,228	-0,024	-0,038
-395,379	800,000	-0,015	-0,046
-394,365	-200,000	0,002	0,065
-393,350	-35,703	0,105	0,041
-392,336	168,446	-0,006	-0,006
-391,321	-200,000	0,011	-0,078
-390,306	663,861	-0,041	-0,077
-389,292	-122,115	-0,040	-0,005
-388,277	-200,000	0,013	0,073
-387,263	104,343	0,030	0,025
-386,248	-200,000	0,008	0,048
-385,233	-96,221	0,068	-0,013
-384,219	228,118	-0,113	0,134
-383,204	387,528	-0,108	-0,162
-382,190	-138,841	-0,127	0,010
-381,175	-167,700	0,077	0,002
-380,160	-200,000	0,043	0,195
-379,146	-74,632	-0,054	-0,014
-378,131	-39,130	0,050	0,019
-377,117	565,659	-0,036	-0,064
-376,102	192,263	-0,046	-0,050
-375,088	-200,000	0,002	-0,053
-374,073	197,042	-0,056	0,062
-373,058	-54,423	0,117	0,038
-372,044	131,211	0,014	-0,013
-371,029	59,640	-0,076	-0,055
-370,015	-200,000	0,019	0,115
-369,000	-200,000	-0,009	0,100
-367,985	290,498	0,045	0,060
-366,971	49,087	0,045	0,031
-365,956	-81,480	0,059	0,014
-364,942	254,094	0,056	0,070
-363,927	56,718	0,121	-0,086
-362,912	-200,000	0,000	0,024
-361,898	-200,000	-0,008	-0,058
-360,883	617,647	0,034	-0,062
-359,869	-200,000	-0,039	-0,187
-358,854	700,572	0,052	0,101
-357,839	-63,392	0,026	0,008
-356,825	394,472	0,069	0,105
-355,810	-26,130	0,113	0,048
-354,796	-200,000	-0,024	0,086
-353,781	800,000	-0,054	-0,143
-352,766	800,000	-0,016	-0,043
-351,752	-200,000	0,035	0,117
-350,737	395,679	-0,086	0,131
-349,723	800,000	0,023	0,060
-348,708	389,075	-0,043	0,064
-347,693	-200,000	0,001	0,051
-346,679	-200,000	-0,039	0,136
-345,664	40,653	-0,083	0,054
-344,650	-200,000	-0,038	0,198
-343,635	227,587	0,103	-0,122
-342,620	435,634	-0,068	0,107
-341,606	-138,435	-0,097	0,008
-340,591	-200,000	-0,004	0,118
-339,577	65,585	0,081	-0,059
-338,562	88,170	0,085	-0,068
-337,548	-200,000	-0,030	0,109
-336,533	455,431	0,078	0,125
-335,518	-200,000	-0,001	-0,010
-334,504	-156,264	-0,164	0,007
-333,489	493,038	0,088	-0,147
-332,475	46,829	0,060	0,041
-331,460	406,460	0,015	0,023
-330,445	703,986	-0,062	-0,119
-329,431	-141,040	0,031	-0,002
-328,416	-200,000	0,000	0,019
-327,402	71,800	-0,049	0,037
-326,387	15,642	-0,107	0,061
-325,372	-200,000	-0,026	0,118
-324,358	-31,068	-0,163	-0,066
-323,343	-101,462	-0,116	0,020
-322,329	-200,000	0,012	0,040
-321,314	85,697	0,019	0,015
-320,299	149,853	-0,030	0,029
-319,285	-58,029	0,048	-0,015
-318,270	800,000	-0,037	-0,083
-317,256	463,116	0,066	-0,107
-316,241	308,545	0,049	-0,066
-315,226	210,725	0,053	0,061
-314,212	13,254	-0,099	0,055
-313,197	294,402	0,007	0,009
-312,183	-170,172	-0,069	0,002
-311,168	36,659	0,087	-0,056
-310,153	727,425	-0,055	-0,108
-309,139	-84,144	-0,118	0,027
-308,124	91,108	0,051	0,041
-307,110	32,007	-0,048	0,030
-306,095	29,683	0,057	-0,035
-305,080	-109,192	0,071	0,011
-304,066	800,000	0,016	0,040
-303,051	-33,914	-0,128	0,051
-302,037	-200,000	-0,014	-0,116
-301,022	273,950	0,108	-0,138
-300,008	64,978	-0,070	0,051
-298,993	-200,000	0,030	0,177
-297,978	-173,339	-0,030	-0,001
-296,964	-124,231	0,124	-0,014
-295,949	189,451	0,021	-0,023
-294,935	-200,000	-0,018	0,104
-293,920	-85,167	-0,109	0,024
-292,905	-200,000	-0,012	0,054
-291,891	109,012	-0,022	-0,019
-290,876	-42,085	0,119	0,044
-289,862	4,312	0,041	-0,021
-288,847	800,000	-0,038	-0,080
-287,832	256,485	-0,058	-0,072
-286,818	-78,433	-0,039	0,010
-285,803	597,815	0,080	-0,143
-284,789	262,086	0,073	0,092
-283,774	-99,961	-0,086	0,015
-282,759	-200,000	0,026	0,138
-281,745	52,817	-0,153	0,106
-280,730	453,547	-0,042	-0,067
-279,716	-200,000	0,002	-0,162
-278,701	-200,000	-0,001	-0,079
-277,686	146,954	0,053	0,052
-276,672	-200,000	0,009	0,042
-275,657	256,230	0,073	-0,091
-274,643	-84,961	0,059	0,013
-273,628	-145,072	0,145	0,009
-272,613	-19,437	0,086	-0,039
-271,599	64,218	-0,173	0,126
-270,584	-107,065	0,077	0,012
-269,570	352,048	0,041	-0,059
-268,555	696,606	0,062	0,119
-267,540	-23,746	0,063	-0,027
-266,526	800,000	0,045	-0,115
-265,511	-135,979	-0,177	-0,015
-264,497	8,737	0,133	0,072
-263,482	-1,157	0,063	0,032
-262,467	-112,399	0,011	0,002
-261,453	-38,370	0,068	0,026
-260,438	565,560	-0,073	-0,129
-259,424	53,776	-0,077	-0,053
-258,409	-15,258	-0,093	-0,043
-257,395	800,000	0,010	0,024
-256,380	-32,984	0,100	-0,040
-255,365	139,094	0,023	-0,021
-254,351	-30,325	0,066	-0,027
-253,336	127,423	0,043	0,040
-252,322	-200,000	0,020	-0,065
-251,307	127,460	-0,171	-0,157
-250,292	116,393	0,062	0,055
-249,278	399,334	0,051	0,077
-248,263	-200,000	0,019	0,162
-247,249	103,659	-0,031	-0,026
-246,234	555,538	0,065	-0,113
-245,219	-200,000	-0,005	-0,136
-244,205	800,000	0,020	-0,053
-243,190	118,715	0,026	0,023
-242,176	474,301	-0,062	-0,101
-241,161	-80,763	-0,046	-0,011
-240,146	-78,983	-0,038	-0,009
-239,132	26,781	0,102	0,062
-238,117	800,000	0,034	0,070
-237,103	-117,408	-0,210	0,027
-236,088	-109,150	0,073	0,011
-235,073	-28,318	0,070	-0,029
-234,059	166,324	0,143	0,147
-233,044	130,754	0,071	-0,066
-232,030	35,961	-0,018	0,012
-231,015	738,536	-0,086	-0,168
-230,000	800,000	-0,005	0,017
-228,986	-115,066	0,116	-0,016
-227,971	800,000	-0,037	-0,088
-226,957	-10,654	0,142	0,067
-225,942	-77,731	-0,007	-0,002
-224,927	512,193	-0,021	-0,036
-223,913	59,086	0,104	-0,074
-222,898	217,850	0,039	-0,044
-221,884	-71,209	-0,125	-0,034
-220,869	42,931	-0,082	0,054
-219,855	229,003	-0,042	0,050
-218,840	-200,000	-0,005	-0,028
-217,825	-138,756	0,066	-0,005
-216,811	362,591	0,048	0,069
-215,796	-103,815	0,074	-0,012
-214,782	-147,336	-0,062	-0,004
-213,767	-133,847	-0,166	-0,015
-212,752	118,035	-0,068	-0,061
-211,738	-200,000	0,005	-0,040
-210,723	800,000	0,036	0,080
-209,709	133,923	-0,066	0,062
-208,694	-200,000	0,004	0,112
-207,679	-200,000	-0,013	-0,148
-206,665	-195,096	-0,023	0,000
-205,650	800,000	-0,022	0,059
-204,636	-64,461	-0,067	0,020
-203,621	35,267	-0,147	0,093
-202,606	-200,000	0,018	0,059
-201,592	-200,000	-0,027	-0,155
-200,577	-200,000	0,017	-0,061
-199,563	-87,417	-0,087	0,019
-198,548	-200,000	0,012	0,046
-197,533	56,648	-0,075	0,053
-196,519	220,450	0,061	-0,071
-195,504	-105,884	0,060	0,010
-194,490	-33,507	0,099	-0,039
-193,475	800,000	-0,030	0,061
-192,460	503,938	-0,012	-0,019
-191,446	23,557	-0,092	-0,054
-190,431	-17,015	0,031	0,014
-189,417	168,276	0,031	0,032
-188,402	742,327	0,038	-0,073
-187,387	104,010	-0,112	-0,095
-186,373	-200,000	0,003	-0,208
-185,358	315,119	-0,019	0,026
-184,344	278,325	-0,034	0,044
-183,329	-98,935	0,115	0,021
-182,315	-6,655	0,087	0,043
-181,300	5,349	-0,075	0,040
-180,285	-171,795	-0,052	0,001
-179,271	-200,000	-0,014	0,108
-178,256	-166,468	0,073	-0,002
-177,242	-123,119	0,067	-0,008
-176,227	154,593	0,023	0,023
-175,212	-200,000	-0,009	0,088
-174,198	800,000	0,017	-0,047
-173,183	-37,392	0,016	0,006
-172,169	-187,021	-0,032	-0,000
-171,154	800,000	-0,016	-0,035
-170,139	603,576	0,060	-0,107
-169,125	-127,967	0,057	-0,006
-168,110	16,380	-0,062	-0,035
-167,096	69,986	0,026	-0,019
-166,081	-78,480	-0,027	-0,007
-165,066	531,583	0,035	-0,059
-164,052	196,575	0,052	-0,057
-163,037	-200,000	-0,006	0,043
-162,023	231,687	-0,057	0,068
-161,008	-200,000	0,006	0,092
-159,993	-115,031	-0,037	0,005
-158,979	-200,000	0,005	-0,099
-157,964	-155,320	-0,094	-0,004
-156,950	98,682	-0,058	-0,048
-155,935	90,727	0,095	-0,077
-154,920	-79,474	0,119	0,029
-153,906	-137,838	0,129	0,010
-152,891	-200,000	-0,036	0,146
-151,877	-200,000	-0,006	0,118
-150,862	186,555	-0,090	-0,097
-149,847	800,000	-0,038	0,085
-148,833	800,000	-0,022	-0,047
-147,818	-68,678	0,144	-0,040
-146,804	-200,000	0,001	-0,004
-145,789	800,000	0,030	-0,087
-144,775	-200,000	-0,014	0,102
-143,760	145,545	-0,017	0,017
-142,745	376,560	0,032	-0,047
-141,731	-23,177	0,092	0,040
-140,716	-200,000	0,006	0,102
-139,702	800,000	-0,029	0,075
-138,687	43,399	-0,040	0,026
-137,672	800,000	-0,024	-0,067
-136,658	800,000	-0,038	0,087
-135,643	13,189	-0,093	-0,052
-134,629	439,253	-0,045	-0,071
-133,614	48,050	-0,031	-0,021
-132,599	800,000	0,013	0,041
-131,585	83,800	0,049	0,038
-130,570	-40,817	-0,131	-0,049
-129,556	538,585	-0,022	0,038
-128,541	-134,860	-0,151	-0,013
-127,526	-12,639	0,166	-0,078
-126,512	-200,000	-0,023	0,091
-125,497	262,568	0,028	0,034
-124,483	-200,000	0,028	0,101
-123,468	-200,000	-0,002	0,123
-122,453	-200,000	-0,008	-0,086
-121,439	-200,000	0,020	-0,159
-120,424	-200,000	-0,018	-0,109
-119,410	-46,427	0,029	0,010
