DTS Sentinel unit serial number:	SN410029Multiplexer serial number:	ORYXHardware model number:	OX2-SRSoftware version number:	ORYX F/W v4,00 Oryx Data Collector v3.7.2.0data status	okinstallation	B5 Nyhavnadifferential loss correction	single-endedforward channel	channel 2reverse channel	N/Adate	2023/12/14time	18:52:13forward acquisition time	300,00reverse acquisition time	0,00gamma	499,1914k internal	0,3156k external	0,3156temperature offset calibration	1,0000default loss term (dB/km)	0,3820temperature slope calibration	1,0000multiplexer offset coefficient	1,0000multiplexer slope coefficient	1,0000fibre end	0,00T internal ref (°C)	8,63T ext. ref 1 (°C)	-6,35T ext. ref 2 (°C)	-6,42length (m)	temperature (°C)	Stokes	anti-Stokes-744,400	-97,779	0,151	-0,029
-743,385	-51,739	-0,309	-0,106
-742,371	-200,000	0,014	0,114
-741,356	-52,355	-0,249	-0,085
-740,342	29,386	0,155	0,097
-739,327	-37,316	-0,415	-0,163
-738,312	451,360	0,112	0,182
-737,298	-100,926	-0,421	-0,075
-736,283	-51,605	0,126	-0,043
-735,269	-123,298	-0,314	0,037
-734,254	466,413	0,081	0,135
-733,239	-52,134	-0,569	-0,193
-732,225	26,454	0,251	0,154
-731,210	-138,027	-0,089	-0,007
-730,196	-100,251	0,158	-0,029
-729,181	162,466	-0,126	0,130
-728,167	-105,272	-0,116	-0,019
-727,152	-200,000	0,003	-0,023
-726,137	-200,000	-0,035	-0,137
-725,123	145,659	-0,032	-0,032
-724,108	-96,054	0,092	-0,018
-723,094	-13,817	0,150	-0,071
-722,079	109,108	-0,103	-0,091
-721,064	107,731	-0,025	-0,022
-720,050	174,391	0,055	0,059
-719,035	284,741	-0,062	-0,082
-718,021	-69,859	-0,078	-0,022
-717,006	-200,000	0,002	-0,130
-715,991	42,279	-0,189	-0,126
-714,977	-15,995	-0,122	-0,057
-713,962	-200,000	-0,047	-0,180
-712,948	23,861	-0,031	0,019
-711,933	222,027	0,137	-0,163
-710,918	590,750	-0,033	-0,060
-709,904	-16,254	0,100	-0,047
-708,889	-15,534	-0,089	0,042
-707,875	492,007	0,072	-0,122
-706,860	-1,249	0,051	0,026
-705,845	-121,599	-0,115	-0,014
-704,831	-200,000	0,018	0,100
-703,816	-200,000	0,017	0,071
-702,802	-49,112	-0,054	-0,019
-701,787	-200,000	-0,009	-0,119
-700,772	-200,000	0,012	-0,041
-699,758	-200,000	0,010	0,133
-698,743	64,142	0,107	0,079
-697,729	-200,000	0,025	-0,109
-696,714	529,151	-0,045	0,079
-695,699	-96,381	-0,073	-0,014
-694,685	156,505	-0,048	0,049
-693,670	81,707	-0,009	-0,007
-692,656	-25,622	0,059	0,025
-691,641	521,890	0,040	-0,069
-690,627	71,530	0,014	0,011
-689,612	110,687	0,121	0,108
-688,597	104,134	-0,087	0,075
-687,583	-19,262	-0,144	-0,066
-686,568	-200,000	0,014	-0,122
-685,554	63,644	-0,119	0,088
-684,539	-200,000	0,000	0,068
-683,524	4,467	-0,069	0,037
-682,510	-91,466	0,104	-0,022
-681,495	-108,042	-0,168	-0,027
-680,481	800,000	-0,021	0,055
-679,466	-81,620	-0,073	0,018
-678,451	-82,065	0,067	-0,016
-677,437	-200,000	-0,012	-0,057
-676,422	60,791	0,101	-0,073
-675,408	-200,000	0,004	0,081
-674,393	-200,000	0,004	-0,081
-673,378	800,000	-0,027	-0,084
-672,364	-77,355	-0,167	-0,042
-671,349	800,000	-0,014	0,032
-670,335	-200,000	-0,066	0,228
-669,320	145,497	0,029	0,029
-668,305	800,000	0,024	0,065
-667,291	-93,184	-0,184	0,037
-666,276	-200,000	0,018	-0,081
-665,262	269,016	-0,148	-0,191
-664,247	416,840	0,032	-0,051
-663,232	-200,000	-0,021	-0,120
-662,218	800,000	-0,020	0,058
-661,203	303,545	0,045	0,062
-660,189	74,339	-0,081	0,062
-659,174	368,447	0,013	-0,019
-658,159	800,000	0,025	0,063
-657,145	800,000	0,022	-0,055
-656,130	31,896	0,085	-0,054
-655,116	-123,124	0,042	0,005
-654,101	42,495	0,188	0,125
-653,086	191,968	0,144	0,160
-652,072	573,073	0,061	-0,110
-651,057	12,732	-0,046	-0,026
-650,043	-142,083	-0,072	0,005
-649,028	-37,106	-0,065	-0,026
-648,014	344,100	0,058	-0,083
-646,999	212,265	0,059	0,068
-645,984	562,369	-0,020	-0,036
-644,970	41,580	0,011	0,007
-643,955	-136,323	-0,074	-0,006
-642,941	800,000	-0,054	-0,117
-641,926	2,258	0,004	-0,002
-640,911	-166,398	0,050	0,002
-639,897	375,365	-0,069	0,103
-638,882	-31,032	0,082	-0,034
-637,868	-17,269	-0,075	0,035
-636,853	-18,967	-0,012	0,005
-635,838	135,294	-0,108	-0,103
-634,824	204,423	0,041	-0,046
-633,809	-141,103	0,063	-0,005
-632,795	235,554	0,129	0,156
-631,780	553,020	-0,036	-0,065
-630,765	-136,438	-0,096	-0,008
-629,751	158,987	0,037	0,038
-628,736	-200,000	-0,021	-0,084
-627,722	469,553	-0,031	0,051
-626,707	-181,933	-0,096	0,001
-625,692	116,598	-0,027	-0,024
-624,678	-200,000	-0,014	0,175
-623,663	800,000	-0,036	0,080
-622,649	-111,767	-0,123	0,018
-621,634	331,607	0,032	-0,045
-620,619	267,185	0,121	0,156
-619,605	-149,214	-0,021	0,001
-618,590	-200,000	0,002	0,170
-617,576	-68,766	-0,077	-0,022
-616,561	-79,272	0,058	0,014
-615,546	426,454	0,027	0,042
-614,532	21,269	-0,130	-0,077
-613,517	800,000	-0,034	-0,075
-612,503	-200,000	-0,004	-0,095
-611,488	-102,396	0,153	0,027
-610,474	223,975	-0,074	0,088
-609,459	-200,000	-0,017	0,066
-608,444	800,000	-0,012	-0,026
-607,430	800,000	-0,026	0,080
-606,415	-200,000	-0,002	-0,146
-605,401	122,450	-0,044	-0,040
-604,386	60,565	0,049	0,035
-603,371	487,422	0,085	0,143
-602,357	187,944	-0,075	-0,083
-601,342	-200,000	0,008	-0,103
-600,328	50,995	-0,116	-0,081
-599,313	49,343	0,060	-0,042
-598,298	-40,648	-0,044	-0,017
-597,284	-38,460	0,139	0,054
-596,269	31,287	0,054	0,034
-595,255	-43,535	-0,145	-0,053
-594,240	-42,149	0,052	0,019
-593,225	800,000	-0,006	-0,015
-592,211	228,984	-0,058	-0,070
-591,196	-200,000	0,017	-0,201
-590,182	43,421	0,134	-0,090
-589,167	576,911	-0,051	-0,091
-588,152	14,751	0,025	-0,015
-587,138	-77,980	0,060	-0,015
-586,123	-200,000	-0,003	-0,164
-585,109	-200,000	0,015	-0,151
-584,094	22,288	-0,109	-0,065
-583,079	44,446	0,077	0,052
-582,065	230,921	-0,121	-0,145
-581,050	62,718	0,135	0,098
-580,036	800,000	-0,046	-0,100
-579,021	-187,496	0,044	-0,000
-578,006	-200,000	-0,057	-0,209
-576,992	-85,037	0,173	0,039
-575,977	85,253	0,044	-0,035
-574,963	371,958	0,068	-0,101
-573,948	-156,844	0,144	0,006
-572,934	25,348	-0,133	-0,081
-571,919	159,575	0,047	0,048
-570,904	12,591	-0,109	-0,062
-569,890	-162,101	-0,099	0,004
-568,875	-2,257	0,044	-0,023
-567,861	96,010	0,091	0,076
-566,846	237,509	-0,086	0,105
-565,831	83,750	-0,167	-0,134
-564,817	399,384	-0,047	-0,073
-563,802	500,136	0,010	0,017
-562,788	-112,472	-0,098	-0,014
-561,773	-200,000	-0,035	-0,119
-560,758	286,902	0,064	0,085
-559,744	-200,000	0,034	0,192
-558,729	-200,000	-0,012	-0,141
-557,715	501,180	0,036	-0,062
-556,700	-56,053	0,062	0,020
-555,685	53,270	-0,093	-0,065
-554,671	-3,055	0,055	0,028
-553,656	-200,000	-0,012	0,059
-552,642	92,929	0,102	0,084
-551,627	162,195	0,052	-0,053
-550,612	129,503	-0,046	-0,043
-549,598	750,677	0,028	0,056
-548,583	258,323	-0,051	-0,064
-547,569	85,793	-0,082	-0,066
-546,554	-51,054	0,056	0,019
-545,539	-115,100	-0,125	-0,017
-544,525	-111,539	0,176	0,026
-543,510	-10,272	-0,058	-0,028
-542,496	633,198	0,037	-0,068
-541,481	346,340	0,074	-0,107
-540,466	508,009	-0,056	0,095
-539,452	-200,000	-0,002	0,078
-538,437	-200,000	-0,007	0,074
-537,423	-195,495	-0,084	0,000
-536,408	-124,964	-0,049	0,005
-535,393	2,220	-0,042	0,022
-534,379	19,451	0,036	0,021
-533,364	14,036	-0,114	-0,065
-532,350	153,791	0,100	-0,101
-531,335	-55,609	-0,088	0,029
-530,321	87,721	-0,033	-0,026
-529,306	-34,550	-0,093	0,037
-528,291	66,378	0,038	-0,028
-527,277	203,177	-0,064	-0,073
-526,262	-200,000	0,019	0,070
-525,248	-53,201	-0,090	0,030
-524,233	-25,141	0,035	0,015
-523,218	-120,753	0,145	-0,018
-522,204	800,000	-0,068	-0,154
-521,189	800,000	-0,023	-0,050
-520,175	800,000	0,034	0,079
-519,160	800,000	0,038	0,111
-518,145	-200,000	0,002	0,062
-517,131	119,339	0,069	-0,063
-516,116	800,000	0,019	0,050
-515,102	800,000	-0,011	0,022
-514,087	-15,812	-0,032	0,015
-513,072	67,372	-0,059	-0,044
-512,058	-101,807	-0,116	0,020
-511,043	-40,626	-0,120	0,045
-510,029	-162,674	0,080	0,003
-509,014	-200,000	0,006	0,028
-507,999	-140,889	-0,091	0,007
-506,985	26,578	0,068	-0,042
-505,970	800,000	0,045	0,091
-504,956	316,011	-0,069	0,095
-503,941	800,000	-0,054	0,175
-502,926	-74,689	-0,041	-0,011
-501,912	84,767	0,064	0,051
-500,897	-200,000	0,007	-0,029
-499,883	-200,000	-0,008	0,104
-498,868	-200,000	0,014	-0,059
-497,853	315,235	-0,054	-0,074
-496,839	58,588	0,113	0,081
-495,824	-149,781	-0,025	0,001
-494,810	-103,898	-0,035	0,006
-493,795	68,910	0,115	0,086
-492,781	-120,466	0,032	-0,004
-491,766	-200,000	0,007	0,030
-490,751	-65,155	-0,023	-0,007
-489,737	-200,000	-0,047	-0,173
-488,722	-97,578	0,141	-0,026
-487,708	-53,565	0,085	-0,028
-486,693	800,000	0,016	0,033
-485,678	77,669	0,098	0,076
-484,664	-75,393	-0,063	-0,016
-483,649	-200,000	0,019	-0,070
-482,635	558,671	0,039	-0,069
-481,620	800,000	0,055	0,163
-480,605	-115,918	0,157	0,021
-479,591	-200,000	-0,008	0,070
-478,576	800,000	-0,017	0,044
-477,562	427,394	-0,027	-0,043
-476,547	800,000	-0,053	0,118
-475,532	-126,009	-0,041	-0,004
-474,518	18,038	0,103	0,060
-473,503	-19,024	-0,069	0,031
-472,489	-80,786	0,053	0,013
-471,474	363,075	-0,082	0,121
-470,459	782,989	0,048	-0,097
-469,445	-50,360	0,045	-0,016
-468,430	83,730	-0,177	-0,141
-467,416	-58,181	0,052	-0,016
-466,401	217,273	0,026	-0,031
-465,386	-200,000	0,010	-0,048
-464,372	800,000	0,024	0,054
-463,357	198,993	-0,022	0,024
-462,343	105,315	-0,127	-0,110
-461,328	800,000	0,050	-0,153
-460,313	317,189	0,049	0,067
-459,299	-200,000	-0,017	0,067
-458,284	-200,000	-0,003	0,064
-457,270	204,868	0,110	0,125
-456,255	59,953	-0,069	0,050
-455,241	800,000	-0,070	-0,179
-454,226	-86,253	-0,033	0,007
-453,211	-200,000	-0,007	-0,117
-452,197	291,324	0,034	-0,045
-451,182	441,006	-0,076	0,122
-450,168	-200,000	0,003	0,071
-449,153	-200,000	0,009	-0,156
-448,138	-200,000	0,050	-0,216
-447,124	-200,000	-0,001	-0,168
-446,109	-101,722	0,070	0,012
-445,095	637,509	0,008	0,015
-444,080	-46,967	-0,080	-0,028
-443,065	-200,000	0,016	-0,107
-442,051	-200,000	0,010	0,066
-441,036	-140,512	-0,088	-0,007
-440,022	-200,000	-0,003	-0,016
-439,007	800,000	0,052	-0,113
-437,992	-97,190	-0,085	0,016
-436,978	1,104	0,052	0,027
-435,963	117,764	0,111	0,099
-434,949	-29,598	-0,149	0,062
-433,934	-1,553	0,035	-0,018
-432,919	-45,721	-0,179	-0,064
-431,905	39,141	0,115	-0,075
-430,890	201,211	0,068	-0,076
-429,876	-87,487	0,093	0,020
-428,861	-3,318	-0,172	0,087
-427,846	-200,000	-0,007	0,114
-426,832	-200,000	-0,019	-0,104
-425,817	122,006	-0,069	0,063
-424,803	294,390	0,036	0,048
-423,788	395,646	0,067	-0,102
-422,773	629,694	-0,086	0,159
-421,759	410,512	-0,021	0,032
-420,744	162,695	0,061	-0,063
-419,730	-126,549	-0,127	-0,014
-418,715	43,261	0,023	-0,015
-417,701	21,196	-0,034	0,020
-416,686	-13,348	0,092	0,043
-415,671	149,839	0,062	0,061
-414,657	-5,279	-0,072	-0,036
-413,642	50,661	0,061	-0,042
-412,628	407,094	0,064	-0,099
-411,613	462,100	-0,030	-0,050
-410,598	-200,000	0,013	-0,191
-409,584	-200,000	0,032	0,132
-408,569	-42,191	0,059	-0,022
-407,555	-109,306	0,030	-0,005
-406,540	110,198	-0,042	0,037
-405,525	-32,109	-0,084	0,034
-404,511	-200,000	0,007	-0,087
-403,496	-200,000	0,002	-0,031
-402,482	15,551	0,122	-0,070
-401,467	800,000	-0,028	-0,075
-400,452	-200,000	0,046	0,167
-399,438	-200,000	-0,025	-0,113
-398,423	-182,773	-0,058	-0,001
-397,409	-11,172	-0,069	-0,033
-396,394	55,577	0,029	0,020
-395,379	148,429	0,038	0,038
-394,365	800,000	-0,075	0,157
-393,350	266,970	0,101	0,128
-392,336	-200,000	0,028	0,096
-391,321	222,260	-0,044	-0,051
-390,306	71,559	-0,106	-0,080
-389,292	800,000	-0,023	0,046
-388,277	291,528	0,029	-0,039
-387,263	-200,000	0,024	-0,101
-386,248	-200,000	0,004	-0,091
-385,233	-47,758	-0,024	-0,009
-384,219	61,350	-0,040	-0,029
-383,204	-143,617	-0,100	-0,007
-382,190	-20,989	-0,161	0,071
-381,175	-46,050	0,072	0,026
-380,160	450,237	-0,022	0,036
-379,146	-200,000	0,014	0,145
-378,131	-5,769	0,037	0,018
-377,117	-92,195	0,033	0,007
-376,102	-200,000	-0,015	0,084
-375,088	118,688	0,069	0,062
-374,073	387,788	-0,117	-0,177
-373,058	147,475	0,058	0,057
-372,044	238,963	-0,043	-0,052
-371,029	-40,529	-0,064	-0,024
-370,015	-29,567	-0,096	0,040
-369,000	800,000	0,039	0,104
-367,985	800,000	-0,024	-0,049
-366,971	368,474	-0,066	-0,097
-365,956	330,504	0,032	-0,045
-364,942	800,000	-0,023	-0,051
-363,927	299,474	0,015	0,020
-362,912	-200,000	-0,003	0,144
-361,898	432,128	-0,054	-0,086
-360,883	-200,000	0,027	-0,094
-359,869	800,000	0,032	-0,078
-358,854	800,000	0,015	-0,036
-357,839	-77,007	-0,047	0,012
-356,825	-56,429	-0,056	0,018
-355,810	94,329	0,073	0,060
-354,796	22,986	-0,054	0,032
-353,781	800,000	-0,035	-0,099
-352,766	440,548	-0,032	0,050
-351,752	800,000	0,017	0,052
-350,737	501,723	-0,080	0,134
-349,723	-200,000	-0,014	0,083
-348,708	-200,000	-0,017	0,145
-347,693	-200,000	-0,011	0,062
-346,679	-101,458	0,109	0,019
-345,664	1,148	-0,114	-0,059
-344,650	-152,412	0,227	0,012
-343,635	145,604	-0,079	0,076
-342,620	-27,704	0,084	0,035
-341,606	396,883	-0,019	-0,029
-340,591	-55,630	0,038	0,012
-339,577	800,000	0,030	-0,092
-338,562	800,000	0,013	0,034
-337,548	-83,043	-0,119	0,028
-336,533	-200,000	0,008	-0,061
-335,518	303,092	0,043	0,058
-334,504	-200,000	-0,024	0,080
-333,489	-200,000	0,028	0,138
-332,475	800,000	-0,047	-0,117
-331,460	-123,925	0,161	-0,018
-330,445	800,000	0,004	0,012
-329,431	-47,421	0,075	-0,026
-328,416	800,000	0,031	0,076
-327,402	70,527	0,144	0,108
-326,387	269,652	-0,009	0,011
-325,372	-200,000	-0,007	-0,149
-324,358	425,688	-0,089	-0,140
-323,343	-146,388	0,162	-0,010
-322,329	-200,000	0,031	0,178
-321,314	27,481	-0,057	0,035
-320,299	-200,000	0,005	-0,056
-319,285	-200,000	0,009	0,038
-318,270	5,723	-0,084	0,045
-317,256	117,473	-0,041	-0,036
-316,241	159,582	-0,091	0,092
-315,226	153,366	-0,039	0,039
-314,212	-84,566	-0,040	0,009
-313,197	-3,258	0,092	0,046
-312,183	800,000	0,023	0,069
-311,168	163,132	-0,116	-0,119
-310,153	-119,032	-0,008	-0,001
-309,139	800,000	-0,044	-0,113
-308,124	150,618	0,085	-0,084
-307,110	187,916	-0,124	0,134
-306,095	300,840	0,076	0,103
-305,080	-58,413	-0,152	0,048
-304,066	536,834	0,023	-0,040
-303,051	-117,675	-0,080	0,010
-302,037	-156,951	-0,037	-0,002
-301,022	-200,000	0,017	-0,134
-300,008	-95,686	0,090	0,017
-298,993	-34,724	-0,095	0,037
-297,978	116,819	0,105	-0,094
-296,964	422,652	0,063	-0,099
-295,949	48,724	-0,020	-0,013
-294,935	-25,258	0,044	-0,019
-293,920	25,007	0,157	-0,094
-292,905	415,651	-0,018	-0,028
-291,891	-200,000	-0,001	0,051
-290,876	122,675	0,103	0,093
-289,862	40,378	0,083	0,054
-288,847	-200,000	0,010	-0,100
-287,832	-95,727	0,060	-0,012
-286,818	161,704	-0,091	0,092
-285,803	111,832	0,075	-0,066
-284,789	-200,000	-0,027	0,157
-283,774	-200,000	0,061	0,214
-282,759	-7,590	-0,222	0,108
-281,745	726,803	-0,075	-0,145
-280,730	-200,000	-0,046	-0,164
-279,716	800,000	-0,033	-0,083
-278,701	-6,210	-0,147	0,072
-277,686	351,911	0,032	0,046
-276,672	-115,261	0,041	-0,005
-275,657	-163,337	0,128	0,004
-274,643	65,926	-0,179	0,131
-273,628	-200,000	0,018	-0,058
-272,613	105,186	-0,021	0,018
-271,599	77,133	0,067	0,052
-270,584	1,099	0,161	0,083
-269,570	335,569	-0,053	0,075
-268,555	-152,145	0,098	-0,005
-267,540	-68,576	-0,182	-0,051
-266,526	-200,000	0,016	-0,092
-265,511	749,572	0,023	-0,045
-264,497	-59,139	0,006	-0,002
-263,482	-200,000	0,006	0,114
-262,467	-112,956	0,072	-0,010
-261,453	-200,000	0,022	-0,084
-260,438	-200,000	0,013	-0,073
-259,424	33,721	0,051	-0,032
-258,409	463,897	0,029	0,048
-257,395	381,993	-0,085	0,127
-256,380	-200,000	-0,034	0,109
-255,365	-200,000	0,002	-0,038
-254,351	-155,790	0,217	0,010
-253,336	-200,000	-0,001	0,020
-252,322	-24,735	0,058	-0,025
-251,307	210,929	-0,061	-0,070
-250,292	294,974	0,063	-0,084
-249,278	-120,435	-0,120	0,015
-248,263	749,242	0,034	0,066
-247,249	-10,519	-0,076	0,037
-246,234	-113,421	-0,068	-0,009
-245,219	-4,975	0,171	0,085
-244,205	-37,258	0,066	-0,025
-243,190	141,130	0,079	-0,075
-242,176	-200,000	0,011	0,110
-241,161	132,946	-0,072	0,067
-240,146	-200,000	0,027	0,116
-239,132	19,387	0,087	-0,050
-238,117	-129,486	-0,092	0,009
-237,103	-200,000	-0,027	0,117
-236,088	-61,806	0,092	-0,028
-235,073	514,166	0,063	0,106
-234,059	404,482	0,106	0,162
-233,044	103,745	0,095	0,081
-232,030	206,988	0,037	0,042
-231,015	-126,683	-0,129	0,014
-230,000	-115,559	-0,072	0,010
-228,986	-193,252	-0,036	0,000
-227,971	434,587	0,072	0,113
-226,957	-118,330	-0,076	-0,010
-225,942	319,799	-0,122	-0,168
-224,927	73,012	0,016	-0,012
-223,913	-108,295	0,040	-0,006
-222,898	117,670	-0,076	-0,067
-221,884	469,993	-0,024	0,039
-220,869	-200,000	0,029	-0,138
-219,855	41,014	-0,134	0,087
-218,840	152,742	0,231	0,229
-217,825	294,369	0,072	0,095
-216,811	800,000	0,051	-0,128
-215,796	370,878	0,111	0,163
-214,782	-200,000	0,023	0,093
-213,767	84,039	0,054	0,043
-212,752	-112,669	0,085	-0,012
-211,738	-78,888	0,109	0,027
-210,723	-200,000	0,016	0,059
-209,709	197,779	0,024	-0,026
-208,694	70,100	0,036	0,027
-207,679	800,000	0,047	-0,115
-206,665	96,842	-0,086	-0,072
-205,650	-21,958	0,031	-0,013
-204,636	304,907	-0,121	-0,162
-203,621	92,064	-0,095	-0,077
-202,606	30,026	-0,166	-0,102
-201,592	194,451	0,020	-0,022
-200,577	800,000	0,026	-0,056
-199,563	690,386	-0,027	-0,051
-198,548	176,422	0,045	-0,047
-197,533	-6,407	0,073	0,036
-196,519	534,514	-0,040	-0,069
-195,504	23,414	-0,083	-0,049
-194,490	-121,629	-0,135	-0,016
-193,475	445,130	-0,049	-0,078
-192,460	800,000	0,016	0,033
-191,446	491,994	0,054	-0,089
-190,431	-200,000	-0,032	0,130
-189,417	-49,379	-0,067	0,023
-188,402	246,773	0,090	-0,110
-187,387	-200,000	-0,036	-0,119
-186,373	-200,000	0,004	-0,026
-185,358	-11,504	0,116	-0,055
-184,344	-130,699	0,152	-0,015
-183,329	-8,665	0,073	0,035
-182,315	20,109	0,032	-0,019
-181,300	-55,397	-0,034	-0,011
-180,285	-129,979	-0,134	-0,013
-179,271	43,761	-0,050	-0,033
-178,256	340,697	0,065	0,092
-177,242	695,078	0,014	0,026
-176,227	45,114	-0,099	0,066
-175,212	331,874	0,066	0,093
-174,198	-24,612	0,118	0,051
-173,183	312,560	-0,054	0,074
-172,169	-200,000	0,013	-0,065
-171,154	-200,000	0,006	0,055
-170,139	159,344	0,078	0,078
-169,125	-49,452	0,224	0,077
-168,110	-53,630	-0,095	0,031
-167,096	-118,511	0,038	-0,005
-166,081	-118,153	-0,102	-0,013
-165,066	137,991	-0,084	0,079
-164,052	119,840	0,078	-0,069
-163,037	378,410	-0,017	-0,025
-162,023	-13,950	0,043	0,020
-161,008	-200,000	0,003	0,111
-159,993	407,251	0,043	-0,066
-158,979	-16,221	-0,126	-0,058
-157,964	670,364	-0,058	-0,109
-156,950	-200,000	-0,006	-0,119
-155,935	-200,000	-0,008	0,094
-154,920	-42,019	0,064	-0,023
-153,906	-200,000	0,018	0,084
-152,891	-84,424	-0,062	-0,014
-151,877	90,788	0,120	0,097
-150,862	-78,040	-0,096	-0,024
-149,847	75,226	-0,050	-0,038
-148,833	228,960	-0,031	-0,037
-147,818	800,000	0,031	0,087
-146,804	-200,000	-0,008	0,031
-145,789	461,865	0,107	0,172
-144,775	45,020	0,209	0,139
-143,760	-200,000	-0,017	-0,093
-142,745	-8,693	-0,146	0,070
-141,731	-45,138	0,082	0,029
-140,716	800,000	0,048	-0,101
-139,702	-87,817	-0,090	-0,019
-138,687	-145,414	0,086	-0,005
-137,672	-124,162	-0,144	-0,016
-136,658	72,009	-0,089	-0,067
-135,643	192,901	-0,088	-0,095
-134,629	-200,000	0,006	-0,019
-133,614	-82,749	0,089	-0,021
-132,599	10,941	-0,116	-0,063
-131,585	-171,394	0,160	-0,004
-130,570	-200,000	0,006	-0,065
-129,556	-163,516	-0,100	-0,003
-128,541	-200,000	0,015	-0,085
-127,526	-177,632	-0,102	0,002
-126,512	-200,000	0,029	-0,181
-125,497	170,969	-0,071	0,074
-124,483	800,000	0,045	0,111
-123,468	800,000	0,045	0,129
-122,453	136,017	-0,089	-0,083
-121,439	57,134	-0,111	0,078
-120,424	129,516	0,083	0,077
-119,410	-106,792	0,145	0,023
-118,395	238,851	-0,055	-0,066
