DTS Sentinel unit serial number:	SN410029Multiplexer serial number:	ORYXHardware model number:	OX2-SRSoftware version number:	ORYX F/W v4,00 Oryx Data Collector v3.7.2.0data status	okinstallation	B5 Nyhavnadifferential loss correction	single-endedforward channel	channel 2reverse channel	N/Adate	2023/12/12time	16:32:13forward acquisition time	300,00reverse acquisition time	0,00gamma	499,1914k internal	0,3157k external	0,3157temperature offset calibration	1,0000default loss term (dB/km)	0,3820temperature slope calibration	1,0000multiplexer offset coefficient	1,0000multiplexer slope coefficient	1,0000fibre end	0,00T internal ref (°C)	15,86T ext. ref 1 (°C)	-0,70T ext. ref 2 (°C)	-0,99length (m)	temperature (°C)	Stokes	anti-Stokes-744,400	800,000	0,055	-0,144
-743,385	-7,829	-0,250	0,124
-742,371	755,286	0,027	-0,054
-741,356	-140,467	-0,406	0,031
-740,342	-41,044	0,111	-0,042
-739,327	-146,305	-0,342	-0,022
-738,312	800,000	0,087	-0,187
-737,298	-109,533	-0,247	0,038
-736,283	-200,000	0,012	0,113
-735,269	-113,355	-0,335	0,048
-734,254	-112,820	0,159	0,023
-733,239	-18,143	-0,495	-0,227
-732,225	8,947	0,212	0,117
-731,210	276,882	0,046	0,060
-730,196	-52,155	-0,022	-0,007
-729,181	-200,000	0,033	-0,134
-728,167	-92,884	-0,061	0,012
-727,152	-148,859	-0,117	0,007
-726,137	174,824	-0,010	-0,011
-725,123	549,039	-0,111	-0,197
-724,108	485,210	-0,039	-0,065
-723,094	-200,000	0,029	-0,169
-722,079	800,000	-0,032	-0,069
-721,064	320,942	-0,053	0,074
-720,050	-153,888	-0,073	-0,004
-719,035	-175,184	-0,100	-0,002
-718,021	154,937	0,036	0,037
-717,006	225,489	0,081	-0,097
-715,991	165,320	-0,135	-0,141
-714,977	-34,906	-0,070	-0,028
-713,962	89,693	0,079	-0,065
-712,948	-38,391	-0,034	0,013
-711,933	-6,228	-0,124	-0,062
-710,918	-200,000	-0,025	0,145
-709,904	-200,000	0,036	-0,160
-708,889	-200,000	0,026	-0,152
-707,875	-165,181	-0,059	-0,002
-706,860	-200,000	-0,002	-0,114
-705,845	-92,880	0,161	-0,033
-704,831	399,858	-0,078	-0,121
-703,816	112,338	0,092	0,082
-702,802	73,841	-0,256	0,198
-701,787	-200,000	-0,020	-0,123
-700,772	-200,000	0,008	-0,069
-699,758	113,769	-0,055	-0,049
-698,743	-152,535	-0,122	0,006
-697,729	409,138	-0,072	0,112
-696,714	40,373	0,108	0,072
-695,699	800,000	0,038	-0,120
-694,685	318,460	0,039	0,055
-693,670	-200,000	0,027	-0,228
-692,656	-200,000	0,004	-0,040
-691,641	592,350	-0,036	-0,066
-690,627	-6,109	-0,096	-0,048
-689,612	4,251	-0,017	-0,009
-688,597	41,649	0,024	0,016
-687,583	800,000	0,022	0,049
-686,568	440,601	-0,022	-0,036
-685,554	-134,948	-0,088	-0,008
-684,539	253,184	-0,058	0,073
-683,524	-200,000	-0,008	0,030
-682,510	-93,042	-0,080	0,016
-681,495	40,756	0,077	-0,051
-680,481	0,129	-0,085	-0,045
-679,466	-200,000	0,005	-0,052
-678,451	-200,000	0,005	-0,125
-677,437	-200,000	0,024	-0,100
-676,422	-200,000	-0,013	-0,092
-675,408	-200,000	0,010	0,089
-674,393	-143,474	-0,054	0,004
-673,378	-104,944	-0,129	0,022
-672,364	4,510	-0,101	0,055
-671,349	-200,000	-0,015	0,077
-670,335	393,173	0,084	0,128
-669,320	-126,865	0,031	-0,003
-668,305	-47,861	-0,053	-0,019
-667,291	326,316	0,037	-0,053
-666,276	54,331	-0,052	-0,037
-665,262	46,629	0,052	-0,036
-664,247	-200,000	0,033	-0,141
-663,232	-200,000	0,008	-0,162
-662,218	283,827	0,028	-0,037
-661,203	95,429	0,045	-0,037
-660,189	222,409	0,071	-0,084
-659,174	-200,000	-0,028	-0,098
-658,159	284,621	-0,075	-0,099
-657,145	-63,045	-0,057	-0,017
-656,130	177,781	-0,049	0,052
-655,116	278,639	0,026	-0,034
-654,101	68,698	-0,043	-0,032
-653,086	-156,660	-0,067	0,003
-652,072	-131,757	-0,110	-0,010
-651,057	-200,000	-0,059	-0,203
-650,043	109,103	0,050	-0,044
-649,028	-200,000	0,002	-0,088
-648,014	-200,000	-0,018	0,073
-646,999	-85,854	-0,022	0,005
-645,984	-200,000	-0,027	0,104
-644,970	-107,386	0,065	-0,010
-643,955	634,405	-0,065	-0,121
-642,941	661,017	-0,040	0,077
-641,926	-135,990	-0,099	-0,008
-640,911	800,000	-0,030	0,061
-639,897	-200,000	-0,012	0,090
-638,882	128,405	-0,043	-0,040
-637,868	-200,000	0,014	-0,094
-636,853	800,000	-0,059	0,130
-635,838	-200,000	0,015	0,142
-634,824	273,072	-0,043	0,056
-633,809	24,508	-0,069	0,042
-632,795	-200,000	-0,004	0,031
-631,780	-200,000	-0,008	0,122
-630,765	-108,051	-0,079	0,012
-629,751	107,656	-0,040	0,035
-628,736	-200,000	0,016	-0,068
-627,722	297,327	0,019	-0,025
-626,707	-200,000	0,010	0,059
-625,692	-0,351	-0,084	0,044
-624,678	-200,000	-0,012	0,048
-623,663	-200,000	-0,016	0,099
-622,649	-200,000	0,003	-0,063
-621,634	-200,000	0,004	0,023
-620,619	170,626	0,033	-0,035
-619,605	-200,000	0,005	-0,072
-618,590	-178,666	0,107	-0,002
-617,576	-98,547	-0,036	-0,007
-616,561	-200,000	-0,013	0,121
-615,546	369,750	0,010	-0,015
-614,532	47,623	-0,056	-0,038
-613,517	-6,081	0,087	-0,043
-612,503	220,617	-0,079	-0,094
-611,488	110,059	0,065	0,057
-610,474	301,220	-0,058	-0,079
-609,459	126,040	-0,048	-0,045
-608,444	223,617	-0,065	-0,077
-607,430	219,899	-0,064	-0,075
-606,415	470,040	-0,058	-0,096
-605,401	140,411	0,127	-0,123
-604,386	-89,726	0,004	0,001
-603,371	-140,585	0,099	0,007
-602,357	-92,798	0,034	0,007
-601,342	-200,000	0,002	0,008
-600,328	11,147	-0,089	0,050
-599,313	-90,985	0,047	0,010
-598,298	-200,000	0,017	0,058
-597,284	19,309	0,057	0,033
-596,269	48,749	0,080	-0,055
-595,255	563,139	0,084	-0,150
-594,240	-200,000	0,010	-0,115
-593,225	-200,000	0,012	-0,055
-592,211	-200,000	-0,028	-0,213
-591,196	775,757	-0,058	0,116
-590,182	448,624	0,048	0,077
-589,167	-200,000	0,014	0,047
-588,152	351,760	0,016	0,023
-587,138	-61,572	-0,120	-0,037
-586,123	-81,486	-0,085	-0,020
-585,109	-39,626	0,046	-0,018
-584,094	-47,389	-0,080	-0,028
-583,079	79,700	-0,071	-0,056
-582,065	304,406	0,074	0,100
-581,050	372,749	-0,048	-0,072
-580,036	-87,851	0,099	-0,022
-579,021	779,068	0,016	-0,032
-578,006	-200,000	0,003	0,151
-576,992	18,503	-0,053	0,031
-575,977	0,745	0,053	0,028
-574,963	268,697	-0,083	-0,107
-573,948	-122,549	0,132	0,016
-572,934	800,000	-0,033	0,093
-571,919	-118,431	-0,085	-0,011
-570,904	141,454	0,094	-0,091
-569,890	-200,000	0,012	0,044
-568,875	-76,808	0,082	-0,021
-567,861	800,000	-0,069	0,156
-566,846	508,395	-0,144	0,245
-565,831	90,629	-0,050	0,041
-564,817	-200,000	-0,000	0,016
-563,802	-63,893	-0,112	-0,033
-562,788	-200,000	0,019	-0,065
-561,773	111,400	0,083	0,074
-560,758	-200,000	-0,009	0,094
-559,744	308,771	0,080	-0,110
-558,729	-43,019	0,071	0,026
-557,715	-98,880	-0,141	0,026
-556,700	-200,000	0,036	0,185
-555,685	800,000	-0,019	-0,055
-554,671	94,896	0,112	0,093
-553,656	800,000	-0,017	0,050
-552,642	-200,000	-0,003	0,104
-551,627	461,471	0,052	-0,085
-550,612	-200,000	0,016	0,063
-549,598	-95,794	-0,039	0,008
-548,583	-12,267	-0,084	-0,040
-547,569	-124,430	-0,093	-0,011
-546,554	79,996	0,145	0,114
-545,539	-200,000	-0,001	0,078
-544,525	109,159	0,044	-0,039
-543,510	-200,000	0,014	0,092
-542,496	-108,577	0,020	-0,003
-541,481	-161,744	-0,131	-0,005
-540,466	457,511	0,055	0,089
-539,452	-98,160	0,069	-0,013
-538,437	293,234	-0,057	0,076
-537,423	-200,000	-0,012	-0,098
-536,408	10,166	0,122	0,068
-535,393	-200,000	-0,011	0,038
-534,379	124,121	0,050	0,046
-533,364	-120,034	0,098	0,012
-532,350	-200,000	-0,012	0,068
-531,335	-13,410	0,057	0,027
-530,321	144,303	0,083	-0,081
-529,306	702,326	0,034	-0,065
-528,291	-200,000	-0,017	-0,106
-527,277	-10,179	0,085	-0,041
-526,262	11,653	-0,057	0,032
-525,248	-110,369	-0,088	0,013
-524,233	343,721	0,036	0,052
-523,218	-16,913	0,153	-0,070
-522,204	-119,412	-0,092	-0,012
-521,189	-66,216	-0,088	-0,026
-520,175	-103,214	0,053	0,009
-519,160	-59,856	-0,065	0,020
-518,145	205,036	-0,034	-0,038
-517,131	-200,000	0,011	0,096
-516,116	240,801	0,129	-0,157
-515,102	84,724	0,067	0,054
-514,087	190,623	0,103	0,113
-513,072	58,940	0,063	-0,045
-512,058	-200,000	0,046	-0,173
-511,043	325,424	-0,089	-0,125
-510,029	37,228	0,099	0,064
-509,014	800,000	0,041	-0,090
-507,999	-38,209	-0,072	0,028
-506,985	95,354	-0,153	-0,127
-505,970	-27,133	0,044	-0,019
-504,956	800,000	-0,066	-0,136
-503,941	45,198	-0,085	-0,057
-502,926	346,108	-0,051	0,074
-501,912	800,000	-0,039	-0,124
-500,897	-119,342	0,070	-0,009
-499,883	82,033	0,105	0,083
-498,868	7,976	0,076	-0,042
-497,853	-49,468	-0,142	0,049
-496,839	-200,000	0,009	0,162
-495,824	381,770	-0,031	0,046
-494,810	-200,000	-0,009	0,112
-493,795	-200,000	-0,014	-0,093
-492,781	-200,000	-0,003	0,034
-491,766	-63,756	-0,058	0,017
-490,751	-200,000	-0,017	-0,215
-489,737	117,753	-0,043	0,039
-488,722	97,487	0,044	0,037
-487,708	-200,000	-0,034	0,122
-486,693	-21,064	-0,121	0,054
-485,678	-83,842	-0,117	0,027
-484,664	211,195	0,081	-0,093
-483,649	4,361	0,088	-0,047
-482,635	-200,000	0,022	-0,088
-481,620	-40,929	-0,051	-0,019
-480,605	-200,000	0,005	0,062
-479,591	488,740	-0,059	0,099
-478,576	-128,358	-0,072	0,007
-477,562	3,121	0,122	0,065
-476,547	261,340	-0,037	-0,047
-475,532	-200,000	0,005	-0,063
-474,518	134,322	-0,066	-0,062
-473,503	-183,037	0,123	-0,002
-472,489	800,000	0,055	0,119
-471,474	414,765	-0,083	0,130
-470,459	-200,000	0,002	-0,018
-469,445	-200,000	-0,012	-0,121
-468,430	44,035	-0,048	0,032
-467,416	776,562	0,046	-0,092
-466,401	190,528	0,115	-0,126
-465,386	-16,720	-0,101	-0,046
-464,372	-200,000	0,007	-0,060
-463,357	114,876	0,056	0,050
-462,343	109,370	-0,116	-0,101
-461,328	438,957	0,026	-0,041
-460,313	800,000	0,046	0,096
-459,299	-147,597	-0,015	-0,001
-458,284	-200,000	-0,022	0,093
-457,270	364,389	-0,088	0,130
-456,255	-87,409	0,077	0,017
-455,241	-23,273	-0,075	-0,033
-454,226	800,000	-0,041	-0,094
-453,211	800,000	-0,039	-0,085
-452,197	-74,526	0,124	0,032
-451,182	103,418	0,139	0,119
-450,168	620,601	0,017	0,031
-449,153	41,689	0,143	0,094
-448,138	549,677	-0,100	-0,175
-447,124	-200,000	-0,018	-0,125
-446,109	596,527	0,058	-0,106
-445,095	-200,000	0,001	-0,050
-444,080	302,637	0,078	0,105
-443,065	-200,000	0,003	-0,011
-442,051	-114,818	-0,144	-0,020
-441,036	-200,000	0,002	-0,020
-440,022	199,381	0,108	-0,121
-439,007	182,527	0,063	0,068
-437,992	-200,000	-0,028	-0,145
-436,978	-7,254	-0,186	0,092
-435,963	178,855	-0,093	-0,100
-434,949	800,000	0,010	-0,029
-433,934	323,745	-0,006	0,008
-432,919	-200,000	-0,005	-0,157
-431,905	-200,000	-0,008	-0,118
-430,890	662,140	0,039	-0,074
-429,876	165,402	0,080	0,082
-428,861	-152,171	-0,091	0,005
-427,846	-60,700	-0,103	0,032
-426,832	-200,000	-0,014	0,099
-425,817	423,875	0,062	0,097
-424,803	244,664	0,077	-0,095
-423,788	596,617	0,030	-0,055
-422,773	102,491	0,189	0,161
-421,759	-200,000	0,030	0,166
-420,744	-18,791	0,018	0,008
-419,730	656,453	-0,059	0,111
-418,715	49,733	-0,033	-0,022
-417,701	62,714	0,047	-0,034
-416,686	365,688	-0,050	0,074
-415,671	102,799	-0,044	-0,037
-414,657	-52,261	0,035	-0,012
-413,642	117,985	-0,072	0,064
-412,628	800,000	-0,026	-0,065
-411,613	-200,000	-0,007	-0,047
-410,598	-200,000	-0,016	-0,096
-409,584	196,011	0,098	0,108
-408,569	-200,000	-0,002	0,164
-407,555	-15,561	0,001	-0,000
-406,540	-87,146	-0,087	-0,019
-405,525	204,522	0,027	0,031
-404,511	-149,072	0,018	-0,001
-403,496	-168,244	-0,011	0,000
-402,482	-200,000	-0,021	-0,114
-401,467	-110,214	0,089	-0,013
-400,452	800,000	-0,021	0,058
-399,438	-59,528	-0,037	0,012
-398,423	-87,833	-0,154	-0,034
-397,409	-97,987	-0,133	0,025
-396,394	800,000	0,054	-0,110
-395,379	-200,000	0,010	-0,050
-394,365	33,451	0,113	-0,071
-393,350	-200,000	-0,003	0,022
-392,336	174,662	-0,050	0,053
-391,321	-200,000	0,007	0,033
-390,306	-20,514	-0,058	0,026
-389,292	-26,861	-0,160	-0,068
-388,277	800,000	0,016	-0,041
-387,263	-200,000	-0,004	-0,065
-386,248	-200,000	-0,006	0,146
-385,233	233,093	0,075	-0,090
-384,219	-200,000	-0,003	0,074
-383,204	-34,554	-0,077	0,030
-382,190	-200,000	-0,016	-0,060
-381,175	-84,116	0,152	-0,035
-380,160	-200,000	-0,002	-0,034
-379,146	-64,455	0,203	0,060
-378,131	-200,000	-0,012	0,049
-377,117	-34,799	-0,084	0,033
-376,102	-200,000	0,024	-0,178
-375,088	-21,176	-0,138	0,061
-374,073	229,818	0,041	0,049
-373,058	122,897	-0,073	0,067
-372,044	444,110	0,085	0,136
-371,029	-143,738	-0,138	0,009
-370,015	-1,812	-0,057	0,029
-369,000	800,000	0,034	-0,103
-367,985	-200,000	-0,012	-0,083
-366,971	-175,143	0,056	-0,001
-365,956	25,937	0,071	0,043
-364,942	-104,193	0,130	-0,022
-363,927	800,000	-0,031	0,069
-362,912	61,069	-0,126	0,091
-361,898	800,000	-0,047	-0,099
-360,883	-188,416	-0,077	-0,001
-359,869	30,481	-0,111	-0,069
-358,854	-54,778	-0,060	-0,020
-357,839	-200,000	-0,006	0,046
-356,825	307,277	0,038	-0,052
-355,810	800,000	0,043	0,088
-354,796	-174,749	-0,074	0,001
-353,781	497,616	0,041	-0,069
-352,766	-200,000	0,051	-0,179
-351,752	-200,000	0,009	-0,084
-350,737	-200,000	0,003	0,059
-349,723	-35,423	0,135	-0,053
-348,708	683,314	-0,010	0,019
-347,693	-200,000	-0,012	-0,062
-346,679	-200,000	-0,014	0,056
-345,664	181,716	0,073	0,078
-344,650	112,633	-0,102	0,090
-343,635	-200,000	-0,044	0,173
-342,620	22,346	-0,064	-0,038
-341,606	8,387	0,129	-0,070
-340,591	-149,143	-0,092	0,005
-339,577	-53,962	0,155	-0,051
-338,562	33,640	-0,054	-0,034
-337,548	-135,326	-0,060	-0,005
-336,533	-59,149	0,011	0,004
-335,518	1,457	0,180	0,093
-334,504	176,064	0,076	0,080
-333,489	197,832	-0,045	0,050
-332,475	-200,000	-0,002	-0,019
-331,460	-181,937	-0,124	-0,002
-330,445	-76,955	0,028	0,007
-329,431	-48,818	-0,088	-0,031
-328,416	47,318	-0,090	0,061
-327,402	-200,000	0,008	-0,076
-326,387	129,025	0,055	-0,051
-325,372	1,814	-0,157	0,082
-324,358	172,745	-0,081	-0,085
-323,343	-164,932	0,060	0,002
-322,329	800,000	0,064	0,167
-321,314	-200,000	0,017	-0,098
-320,299	800,000	0,010	-0,026
-319,285	-200,000	0,007	0,094
-318,270	-48,628	-0,086	-0,030
-317,256	-200,000	-0,028	-0,092
-316,241	-177,809	0,129	-0,002
-315,226	-200,000	-0,010	0,081
-314,212	800,000	-0,047	-0,148
-313,197	-104,738	0,100	0,017
-312,183	-125,653	-0,063	0,007
-311,168	30,752	0,031	0,019
-310,153	-43,663	-0,128	0,047
-309,139	336,135	0,046	-0,065
-308,124	-137,488	0,146	-0,012
-307,110	-50,646	-0,097	0,033
-306,095	12,692	-0,096	0,054
-305,080	-96,554	0,174	0,033
-304,066	148,567	-0,066	0,064
-303,051	10,936	-0,112	-0,062
-302,037	158,402	0,100	-0,101
-301,022	149,307	0,076	-0,075
-300,008	171,912	0,159	0,165
-298,993	-141,906	0,128	0,009
-297,978	-200,000	-0,020	0,102
-296,964	-48,660	-0,016	0,006
-295,949	519,984	0,020	-0,034
-294,935	-200,000	0,046	-0,149
-293,920	-22,383	0,097	0,042
-292,905	134,651	0,121	0,114
-291,891	-80,025	0,162	0,039
-290,876	21,754	-0,150	0,089
-289,862	-200,000	0,022	-0,127
-288,847	-200,000	0,025	-0,203
-287,832	44,142	-0,020	-0,013
-286,818	-72,854	0,076	0,020
-285,803	564,493	0,039	-0,069
-284,789	216,333	-0,085	-0,098
-283,774	-200,000	0,020	-0,149
-282,759	212,421	-0,051	-0,059
-281,745	-200,000	-0,012	-0,117
-280,730	-11,646	-0,095	0,045
-279,716	12,150	0,059	0,033
-278,701	800,000	-0,027	0,062
-277,686	177,260	-0,013	0,014
-276,672	-117,966	0,146	-0,019
-275,657	800,000	-0,010	0,028
-274,643	-200,000	0,024	-0,218
-273,628	155,056	-0,017	-0,017
-272,613	800,000	-0,029	0,091
-271,599	800,000	0,026	0,059
-270,584	-22,893	0,078	0,034
-269,570	30,376	-0,095	-0,059
-268,555	-200,000	0,000	-0,100
-267,540	-118,698	-0,131	-0,017
-266,526	54,792	-0,175	-0,122
-265,511	522,821	-0,025	0,042
-264,497	-200,000	0,012	0,069
-263,482	218,886	0,077	0,089
-262,467	102,855	-0,127	-0,107
-261,453	25,733	-0,177	-0,106
-260,438	-51,828	-0,057	-0,019
-259,424	36,082	-0,096	-0,061
-258,409	247,511	0,037	-0,045
-257,395	-200,000	-0,013	-0,067
-256,380	-200,000	0,019	0,083
-255,365	-200,000	0,005	0,196
-254,351	-13,152	0,130	-0,061
-253,336	41,587	0,055	-0,036
-252,322	104,230	-0,092	-0,078
-251,307	-34,041	0,129	-0,051
-250,292	800,000	0,033	0,070
-249,278	-4,964	-0,070	0,035
-248,263	143,904	0,070	-0,068
-247,249	655,300	-0,025	0,047
-246,234	-66,689	0,036	0,010
-245,219	-74,287	0,131	-0,034
-244,205	98,411	-0,059	-0,049
-243,190	-134,898	-0,035	0,003
-242,176	800,000	0,010	0,023
-241,161	-82,578	0,039	-0,009
-240,146	-59,483	-0,091	0,028
-239,132	47,805	0,072	0,049
-238,117	125,796	-0,073	-0,067
-237,103	-200,000	-0,003	-0,072
-236,088	-200,000	0,030	0,136
-235,073	-200,000	-0,017	0,140
-234,059	-200,000	-0,027	0,109
-233,044	-22,778	0,072	-0,031
-232,030	-200,000	0,003	0,090
-231,015	248,779	0,006	-0,008
-230,000	241,839	-0,047	-0,057
-228,986	-200,000	-0,002	-0,043
-227,971	-152,492	0,135	0,007
-226,957	800,000	0,079	0,173
-225,942	-72,034	-0,130	0,035
-224,927	561,876	-0,056	0,099
-223,913	-200,000	0,030	-0,147
-222,898	20,059	0,074	0,043
-221,884	800,000	-0,032	-0,065
-220,869	77,602	0,055	0,043
-219,855	-200,000	0,021	0,074
-218,840	-20,531	-0,053	-0,023
-217,825	-200,000	0,011	0,137
-216,811	-63,548	0,061	0,018
-215,796	-97,093	-0,162	0,030
-214,782	39,646	0,105	0,068
-213,767	242,621	-0,092	0,112
-212,752	567,475	0,005	-0,010
-211,738	-188,132	0,079	0,001
-210,723	-200,000	-0,011	0,134
-209,709	19,009	-0,055	-0,032
-208,694	-200,000	0,015	-0,133
-207,679	-26,053	-0,083	-0,035
-206,665	800,000	0,034	-0,095
-205,650	-25,378	0,091	-0,038
-204,636	800,000	-0,017	0,043
-203,621	81,143	-0,055	-0,043
-202,606	40,148	0,145	-0,094
-201,592	-140,902	-0,081	0,006
-200,577	-8,121	0,136	-0,066
-199,563	-200,000	0,010	-0,095
-198,548	37,727	0,082	0,053
-197,533	309,002	0,018	0,025
-196,519	800,000	-0,020	0,063
-195,504	140,365	-0,114	-0,108
-194,490	-77,317	-0,110	-0,027
-193,475	85,866	-0,120	0,096
-192,460	16,407	0,055	0,031
-191,446	-200,000	0,067	0,000
-190,431	342,719	0,126	0,179
-189,417	747,636	0,033	0,064
-188,402	14,490	-0,027	0,015
-187,387	56,829	-0,128	-0,090
-186,373	-71,051	-0,074	-0,020
-185,358	-13,249	0,064	-0,030
-184,344	765,450	0,035	0,068
-183,329	-200,000	-0,005	0,034
-182,315	558,863	0,037	0,064
-181,300	-8,374	-0,051	0,025
-180,285	64,154	-0,086	0,062
-179,271	-200,000	0,000	0,005
-178,256	-50,284	-0,125	0,043
-177,242	11,399	0,130	0,072
-176,227	73,774	0,131	0,099
-175,212	-70,451	0,121	-0,033
-174,198	-97,166	-0,118	-0,022
-173,183	90,462	-0,132	-0,106
-172,169	800,000	0,027	-0,060
-171,154	-115,984	0,103	-0,014
-170,139	-13,784	0,131	0,061
-169,125	-95,158	-0,064	-0,012
-168,110	-200,000	-0,005	0,075
-167,096	-200,000	-0,006	-0,043
-166,081	248,583	0,120	-0,147
-165,066	243,351	0,041	-0,049
-164,052	-200,000	-0,033	-0,164
-163,037	645,717	0,038	-0,070
-162,023	-200,000	0,000	0,101
-161,008	-200,000	-0,028	0,118
-159,993	-200,000	0,024	0,114
-158,979	-200,000	0,003	-0,051
-157,964	-200,000	-0,003	-0,087
-156,950	191,660	-0,100	-0,108
-155,935	-200,000	0,005	-0,134
-154,920	-171,406	0,117	0,003
-153,906	800,000	0,018	0,045
-152,891	-12,712	-0,042	0,019
-151,877	-66,989	-0,067	-0,019
-150,862	117,522	-0,022	0,020
-149,847	18,285	0,030	-0,017
-148,833	-57,920	-0,113	-0,035
-147,818	800,000	0,034	0,069
-146,804	-200,000	0,024	0,135
-145,789	54,898	0,080	0,055
-144,775	-200,000	0,018	-0,198
-143,760	-200,000	0,028	-0,215
-142,745	-174,912	-0,080	0,002
-141,731	-107,534	0,086	-0,013
-140,716	-52,742	0,089	0,030
-139,702	800,000	-0,051	0,154
-138,687	57,604	0,049	0,034
-137,672	-200,000	-0,012	-0,090
-136,658	-200,000	-0,027	-0,111
-135,643	142,750	-0,065	-0,062
-134,629	-200,000	0,026	0,139
-133,614	677,555	0,027	0,050
-132,599	-22,954	0,118	0,051
-131,585	114,864	-0,098	0,086
-130,570	-49,483	0,069	-0,023
-129,556	118,170	-0,154	-0,136
-128,541	-76,705	-0,124	-0,031
-127,526	-131,114	0,177	0,017
-126,512	800,000	-0,028	-0,089
-125,497	-26,670	-0,052	0,022
-124,483	-200,000	0,003	-0,057
-123,468	207,060	-0,044	-0,049
-122,453	800,000	0,027	0,076
-121,439	-75,306	-0,088	0,022
-120,424	112,521	0,027	-0,024
