DTS Sentinel unit serial number:	SN410029Multiplexer serial number:	ORYXHardware model number:	OX2-SRSoftware version number:	ORYX F/W v4,00 Oryx Data Collector v3.7.2.0data status	okinstallation	B5 Nyhavnadifferential loss correction	single-endedforward channel	channel 2reverse channel	N/Adate	2023/12/14time	16:37:13forward acquisition time	300,00reverse acquisition time	0,00gamma	499,1914k internal	0,3157k external	0,3157temperature offset calibration	1,0000default loss term (dB/km)	0,3820temperature slope calibration	1,0000multiplexer offset coefficient	1,0000multiplexer slope coefficient	1,0000fibre end	0,00T internal ref (°C)	8,02T ext. ref 1 (°C)	-7,48T ext. ref 2 (°C)	-7,52length (m)	temperature (°C)	Stokes	anti-Stokes-744,400	-37,740	0,083	0,032
-743,385	-82,048	-0,379	-0,091
-742,371	161,766	0,146	0,150
-741,356	-147,744	-0,423	-0,026
-740,342	-1,973	0,219	0,113
-739,327	-154,942	-0,460	-0,022
-738,312	36,229	0,134	0,087
-737,298	-56,370	-0,503	-0,164
-736,283	-108,349	0,133	0,021
-735,269	-6,727	-0,320	-0,160
-734,254	109,587	0,120	0,106
-733,239	-110,202	-0,614	-0,093
-732,225	-162,438	0,237	0,008
-731,210	-73,352	-0,042	0,011
-730,196	-138,838	0,144	-0,011
-729,181	154,233	0,058	-0,059
-728,167	97,696	0,034	-0,029
-727,152	-66,975	-0,076	-0,022
-726,137	-28,300	-0,089	0,038
-725,123	-200,000	0,014	-0,048
-724,108	-169,230	-0,152	-0,004
-723,094	800,000	-0,008	-0,021
-722,079	-200,000	0,012	-0,152
-721,064	95,457	-0,045	-0,037
-720,050	-131,356	-0,057	0,005
-719,035	52,634	0,073	-0,051
-718,021	312,499	-0,036	0,049
-717,006	-200,000	0,016	0,119
-715,991	34,906	0,031	-0,020
-714,977	40,167	0,026	-0,017
-713,962	217,362	-0,069	-0,081
-712,948	-200,000	-0,002	0,039
-711,933	-114,326	-0,073	-0,010
-710,918	188,363	0,026	-0,028
-709,904	206,499	-0,138	-0,158
-708,889	-200,000	0,017	-0,108
-707,875	-114,902	-0,085	-0,012
-706,860	66,367	-0,137	-0,103
-705,845	162,031	-0,114	0,118
-704,831	160,240	0,091	0,094
-703,816	-164,424	-0,139	-0,005
-702,802	-123,586	0,070	0,008
-701,787	-3,778	-0,061	-0,031
-700,772	-101,323	-0,178	-0,032
-699,758	-29,698	-0,130	-0,054
-698,743	261,545	0,043	-0,055
-697,729	-90,417	-0,051	0,011
-696,714	252,416	0,013	0,016
-695,699	53,437	-0,147	-0,103
-694,685	180,987	-0,076	-0,082
-693,670	305,069	-0,112	-0,153
-692,656	-200,000	-0,000	0,017
-691,641	-90,350	-0,131	-0,028
-690,627	82,771	-0,052	0,041
-689,612	800,000	-0,084	-0,180
-688,597	-200,000	0,005	-0,113
-687,583	800,000	-0,045	-0,100
-686,568	78,813	-0,114	0,090
-685,554	387,250	0,046	0,070
-684,539	-19,620	0,066	-0,030
-683,524	701,752	0,006	-0,013
-682,510	-150,179	-0,077	-0,004
-681,495	159,969	0,062	0,063
-680,481	800,000	0,077	-0,168
-679,466	-26,802	-0,056	0,024
-678,451	-18,006	-0,148	0,068
-677,437	-200,000	0,010	0,115
-676,422	800,000	0,022	0,057
-675,408	-122,558	-0,033	0,004
-674,393	-200,000	-0,007	-0,064
-673,378	800,000	-0,036	-0,087
-672,364	-200,000	-0,021	-0,182
-671,349	-200,000	0,047	-0,160
-670,335	800,000	0,026	-0,055
-669,320	800,000	-0,035	0,078
-668,305	-191,323	0,058	0,000
-667,291	69,042	-0,047	-0,035
-666,276	-132,731	0,123	-0,011
-665,262	714,895	-0,060	-0,117
-664,247	25,349	-0,062	0,038
-663,232	800,000	0,016	-0,036
-662,218	214,137	0,026	0,030
-661,203	513,205	0,020	0,035
-660,189	-200,000	0,025	0,103
-659,174	-9,718	0,035	-0,017
-658,159	-200,000	-0,017	-0,060
-657,145	527,508	-0,094	-0,163
-656,130	-108,066	-0,109	0,017
-655,116	-39,068	0,100	0,038
-654,101	-200,000	0,011	0,039
-653,086	-200,000	0,002	0,067
-652,072	-48,748	-0,068	-0,024
-651,057	135,451	-0,098	-0,093
-650,043	-60,511	0,147	0,046
-649,028	-76,902	0,074	0,019
-648,014	221,356	-0,097	0,115
-646,999	-34,167	0,065	0,026
-645,984	-200,000	0,006	0,135
-644,970	800,000	0,004	-0,011
-643,955	62,240	-0,067	0,049
-642,941	174,134	0,031	-0,032
-641,926	776,636	-0,044	-0,089
-640,911	-73,174	0,121	0,032
-639,897	-200,000	-0,011	-0,068
-638,882	-43,098	-0,006	0,002
-637,868	800,000	-0,104	-0,241
-636,853	-79,939	-0,052	0,013
-635,838	76,681	-0,112	-0,087
-634,824	-200,000	0,005	-0,115
-633,809	683,022	-0,039	-0,075
-632,795	-166,165	-0,059	0,002
-631,780	303,129	0,039	-0,054
-630,765	-165,793	-0,019	-0,001
-629,751	716,857	-0,037	-0,073
-628,736	76,180	-0,064	-0,049
-627,722	417,461	-0,021	0,033
-626,707	-200,000	0,028	-0,095
-625,692	800,000	-0,026	0,067
-624,678	-75,731	0,127	-0,033
-623,663	-200,000	0,016	-0,104
-622,649	294,539	-0,122	-0,165
-621,634	-48,008	-0,083	-0,029
-620,619	-112,360	0,142	-0,021
-619,605	54,186	-0,024	0,017
-618,590	-32,813	0,085	-0,035
-617,576	-15,189	-0,103	0,048
-616,561	-96,980	-0,177	-0,034
-615,546	-200,000	-0,009	-0,067
-614,532	223,955	-0,107	-0,127
-613,517	369,631	-0,098	0,147
-612,503	-78,075	0,041	-0,010
-611,488	268,177	-0,040	0,052
-610,474	-200,000	-0,009	0,068
-609,459	800,000	-0,034	0,083
-608,444	528,808	-0,041	-0,072
-607,430	533,561	-0,057	-0,099
-606,415	-123,620	-0,062	0,007
-605,401	158,889	0,073	-0,075
-604,386	800,000	-0,014	0,036
-603,371	10,783	-0,029	-0,016
-602,357	800,000	0,040	-0,100
-601,342	-29,376	-0,062	-0,026
-600,328	9,015	-0,139	-0,077
-599,313	202,830	0,046	-0,052
-598,298	312,249	0,050	0,069
-597,284	57,861	-0,079	0,057
-596,269	40,030	0,067	0,044
-595,255	-50,620	0,071	0,024
-594,240	800,000	-0,032	-0,096
-593,225	139,116	-0,104	0,101
-592,211	-200,000	-0,006	-0,095
-591,196	800,000	0,017	-0,051
-590,182	-200,000	0,012	-0,055
-589,167	-165,769	-0,083	0,003
-588,152	-200,000	-0,004	-0,072
-587,138	-200,000	0,004	0,112
-586,123	-200,000	-0,015	0,106
-585,109	-200,000	-0,012	0,046
-584,094	-65,289	0,075	-0,022
-583,079	672,724	0,045	0,087
-582,065	-142,054	0,014	0,001
-581,050	267,582	-0,045	-0,058
-580,036	-21,252	-0,152	-0,068
-579,021	-77,079	0,043	-0,011
-578,006	15,170	0,096	-0,055
-576,992	352,110	0,088	0,128
-575,977	-67,810	0,097	0,028
-574,963	201,036	0,012	0,013
-573,948	242,590	-0,030	-0,037
-572,934	-99,142	-0,035	-0,006
-571,919	800,000	-0,122	-0,267
-570,904	-200,000	0,006	-0,107
-569,890	-200,000	0,033	0,108
-568,875	-200,000	0,005	-0,031
-567,861	34,383	-0,110	-0,070
-566,846	-200,000	-0,002	0,110
-565,831	-200,000	0,015	-0,122
-564,817	-200,000	-0,005	-0,145
-563,802	-66,885	-0,052	-0,015
-562,788	203,033	-0,031	-0,035
-561,773	-109,170	-0,038	0,006
-560,758	340,656	0,078	-0,111
-559,744	36,346	-0,104	0,067
-558,729	-80,098	0,126	-0,031
-557,715	75,752	-0,115	0,089
-556,700	-78,683	-0,172	-0,043
-555,685	-200,000	0,005	0,022
-554,671	-183,939	-0,055	-0,001
-553,656	800,000	0,004	-0,007
-552,642	150,436	0,074	0,074
-551,627	-105,752	-0,037	0,006
-550,612	302,884	-0,072	-0,097
-549,598	-112,017	-0,065	0,009
-548,583	44,254	0,062	0,041
-547,569	-200,000	-0,023	-0,149
-546,554	10,365	0,039	-0,022
-545,539	-200,000	0,029	0,131
-544,525	-200,000	0,016	-0,085
-543,510	-5,153	-0,095	-0,048
-542,496	140,757	-0,073	-0,071
-541,481	800,000	-0,035	-0,086
-540,466	-77,955	0,058	-0,014
-539,452	84,402	-0,052	0,042
-538,437	121,685	0,071	-0,065
-537,423	370,656	-0,053	0,079
-536,408	114,217	-0,056	-0,050
-535,393	-200,000	0,024	0,138
-534,379	-10,031	-0,042	-0,020
-533,364	-200,000	-0,003	0,081
-532,350	162,073	0,111	0,114
-531,335	-102,372	-0,082	-0,014
-530,321	-200,000	-0,023	0,091
-529,306	-34,962	0,080	0,032
-528,291	230,314	-0,076	-0,091
-527,277	-62,486	-0,125	-0,038
-526,262	131,049	-0,034	0,032
-525,248	-200,000	-0,013	-0,061
-524,233	-200,000	-0,012	0,095
-523,218	-200,000	-0,016	0,067
-522,204	221,968	0,037	0,044
-521,189	102,618	-0,048	-0,041
-520,175	548,742	-0,036	-0,063
-519,160	-109,612	-0,117	-0,018
-518,145	-140,863	-0,072	-0,005
-517,131	-41,558	0,045	-0,017
-516,116	112,013	0,059	0,052
-515,102	-0,090	-0,148	0,077
-514,087	292,082	0,030	-0,040
-513,072	544,274	0,045	0,079
-512,058	800,000	0,028	-0,091
-511,043	800,000	0,018	0,047
-510,029	778,275	-0,070	-0,140
-509,014	345,202	-0,063	0,091
-507,999	346,427	-0,082	0,118
-506,985	-8,415	0,065	0,032
-505,970	511,906	-0,060	-0,102
-504,956	11,748	-0,081	-0,045
-503,941	78,844	0,202	-0,158
-502,926	30,725	-0,066	-0,041
-501,912	-200,000	-0,018	0,114
-500,897	-200,000	-0,012	0,101
-499,883	-40,748	0,069	0,026
-498,868	10,271	-0,039	-0,021
-497,853	-66,583	0,142	-0,041
-496,839	-71,964	-0,086	0,023
-495,824	800,000	-0,034	0,088
-494,810	52,447	0,114	0,079
-493,795	439,374	0,044	0,071
-492,781	-198,610	-0,123	0,000
-491,766	-200,000	0,025	-0,108
-490,751	-160,110	-0,118	0,005
-489,737	-100,195	0,243	-0,044
-488,722	195,606	-0,060	0,067
-487,708	174,549	0,164	-0,173
-486,693	16,070	-0,050	-0,029
-485,678	-200,000	-0,026	-0,126
-484,664	133,828	0,022	-0,021
-483,649	-125,677	-0,164	0,018
-482,635	76,448	0,072	-0,056
-481,620	800,000	0,030	-0,066
-480,605	-112,335	0,071	0,010
-479,591	800,000	0,071	0,156
-478,576	800,000	0,050	-0,142
-477,562	62,016	-0,087	-0,063
-476,547	-149,264	-0,093	-0,005
-475,532	428,636	-0,012	0,020
-474,518	297,414	-0,058	0,078
-473,503	701,584	0,016	-0,031
-472,489	800,000	-0,061	0,150
-471,474	-200,000	0,010	0,088
-470,459	491,704	-0,053	-0,089
-469,445	800,000	0,035	-0,098
-468,430	102,916	-0,136	-0,116
-467,416	-104,934	-0,101	-0,017
-466,401	800,000	-0,062	0,160
-465,386	-200,000	-0,031	0,175
-464,372	800,000	-0,019	0,054
-463,357	-31,120	-0,091	-0,037
-462,343	-181,365	-0,073	-0,001
-461,328	478,821	-0,047	-0,078
-460,313	-200,000	-0,010	0,088
-459,299	-200,000	0,011	0,056
-458,284	-62,467	-0,168	-0,050
-457,270	800,000	-0,048	0,131
-456,255	-101,429	-0,072	0,013
-455,241	800,000	-0,057	0,147
-454,226	-200,000	0,006	0,047
-453,211	-63,780	0,158	-0,047
-452,197	549,431	-0,028	-0,049
-451,182	597,153	0,024	-0,044
-450,168	-19,406	0,049	-0,022
-449,153	705,455	0,085	0,165
-448,138	-200,000	-0,032	-0,105
-447,124	-45,413	-0,022	0,008
-446,109	357,973	0,048	0,070
-445,095	-174,802	0,134	0,003
-444,080	107,213	0,057	-0,049
-443,065	-55,726	-0,092	-0,030
-442,051	800,000	0,038	-0,100
-441,036	800,000	-0,012	-0,024
-440,022	-200,000	0,008	0,050
-439,007	36,121	-0,044	0,028
-437,992	-200,000	-0,028	0,109
-436,978	-200,000	-0,015	-0,114
-435,963	-200,000	-0,011	0,101
-434,949	785,468	0,038	0,076
-433,934	23,907	-0,051	0,031
-432,919	-200,000	-0,008	-0,032
-431,905	75,284	0,028	-0,022
-430,890	388,889	0,069	0,105
-429,876	-200,000	-0,008	0,059
-428,861	-82,089	-0,114	0,027
-427,846	-144,988	-0,077	-0,005
-426,832	129,014	0,054	-0,051
-425,817	275,074	0,033	-0,042
-424,803	-200,000	0,013	0,000
-423,788	168,822	-0,040	0,041
-422,773	102,292	0,039	-0,033
-421,759	-72,374	0,071	0,019
-420,744	-83,956	0,093	0,021
-419,730	143,807	-0,114	0,111
-418,715	-134,049	-0,140	0,012
-417,701	160,036	0,074	-0,075
-416,686	380,173	-0,036	-0,053
-415,671	-137,542	0,017	0,001
-414,657	-173,313	0,094	0,002
-413,642	-200,000	0,003	-0,123
-412,628	-65,451	-0,029	-0,008
-411,613	58,295	-0,056	-0,040
-410,598	-51,962	-0,086	0,029
-409,584	800,000	0,042	0,097
-408,569	-6,813	0,078	0,038
-407,555	114,029	-0,108	0,095
-406,540	-119,257	0,115	-0,014
-405,525	499,888	0,077	-0,130
-404,511	89,802	-0,093	-0,076
-403,496	-61,708	0,053	-0,016
-402,482	79,819	0,134	-0,105
-401,467	474,572	-0,009	-0,014
-400,452	335,463	0,074	0,105
-399,438	77,137	-0,018	-0,014
-398,423	111,648	0,069	-0,060
-397,409	233,140	0,048	-0,057
-396,394	92,188	0,052	0,042
-395,379	-11,099	0,029	-0,014
-394,365	-200,000	0,029	0,151
-393,350	169,501	-0,085	-0,088
-392,336	640,159	-0,050	0,094
-391,321	298,475	-0,023	0,031
-390,306	1,998	-0,059	0,031
-389,292	-200,000	0,020	-0,117
-388,277	-153,618	-0,065	0,003
-387,263	281,884	-0,089	-0,117
-386,248	100,167	0,074	0,063
-385,233	-200,000	-0,005	-0,032
-384,219	85,672	-0,080	-0,064
-383,204	36,758	-0,042	-0,027
-382,190	-147,181	0,065	0,004
-381,175	506,839	0,071	0,121
-380,160	-200,000	-0,023	-0,104
-379,146	212,108	0,080	-0,092
-378,131	-200,000	0,000	-0,018
-377,117	-61,147	0,081	0,025
-376,102	284,190	-0,061	0,080
-375,088	331,056	-0,078	-0,110
-374,073	243,735	0,027	-0,034
-373,058	-200,000	-0,008	-0,076
-372,044	-118,471	0,202	-0,026
-371,029	-32,662	-0,075	-0,030
-370,015	-4,538	-0,082	0,041
-369,000	174,925	-0,029	-0,031
-367,985	-28,089	-0,099	-0,042
-366,971	175,286	-0,021	0,022
-365,956	50,638	0,057	0,039
-364,942	-104,097	0,081	0,014
-363,927	-14,215	0,142	0,066
-362,912	-200,000	-0,026	0,115
-361,898	127,854	0,032	-0,029
-360,883	521,759	-0,041	-0,070
-359,869	-48,118	-0,078	-0,027
-358,854	-200,000	0,039	0,150
-357,839	-34,797	0,132	0,052
-356,825	-144,759	0,124	0,008
-355,810	800,000	-0,044	0,089
-354,796	800,000	-0,059	-0,170
-353,781	-200,000	0,017	-0,064
-352,766	800,000	0,048	0,124
-351,752	168,490	0,077	0,080
-350,737	16,300	0,141	0,081
-349,723	64,692	-0,162	-0,119
-348,708	359,396	-0,032	-0,046
-347,693	219,164	-0,058	-0,068
-346,679	800,000	-0,036	-0,091
-345,664	800,000	-0,009	-0,028
-344,650	319,167	0,041	0,057
-343,635	11,605	-0,080	0,044
-342,620	-117,731	0,117	0,015
-341,606	77,393	0,084	-0,065
-340,591	-76,221	0,089	0,023
-339,577	29,539	-0,040	0,024
-338,562	-200,000	0,004	-0,147
-337,548	-200,000	0,009	0,140
-336,533	-200,000	-0,013	-0,052
-335,518	547,657	0,029	-0,050
-334,504	742,463	0,025	-0,049
-333,489	-200,000	0,008	-0,095
-332,475	-51,424	0,137	0,046
-331,460	-200,000	-0,029	0,100
-330,445	497,020	0,029	-0,049
-329,431	-200,000	-0,010	0,074
-328,416	23,569	0,107	0,064
-327,402	-200,000	0,013	0,055
-326,387	193,600	-0,033	-0,036
-325,372	342,014	0,063	-0,090
-324,358	12,175	-0,103	0,058
-323,343	-200,000	-0,143	-0,000
-322,329	-200,000	0,008	0,116
-321,314	314,933	0,053	0,072
-320,299	-174,727	-0,051	-0,001
-319,285	800,000	0,058	0,144
-318,270	-47,543	0,132	-0,046
-317,256	-200,000	0,016	0,075
-316,241	-31,077	-0,091	0,037
-315,226	800,000	0,016	0,034
-314,212	800,000	0,074	0,165
-313,197	78,562	0,062	0,048
-312,183	-200,000	-0,009	-0,033
-311,168	-54,732	-0,026	0,009
-310,153	-200,000	0,005	-0,045
-309,139	-54,964	-0,058	0,019
-308,124	-55,132	0,036	0,012
-307,110	394,968	0,049	0,075
-306,095	-3,359	0,126	0,063
-305,080	195,798	0,047	-0,052
-304,066	800,000	0,064	-0,147
-303,051	142,484	-0,051	0,049
-302,037	-200,000	-0,004	0,045
-301,022	183,060	0,035	-0,038
-300,008	800,000	0,027	0,081
-298,993	-0,795	-0,153	0,078
-297,978	45,956	0,064	0,043
-296,964	-200,000	-0,013	0,065
-295,949	79,635	0,097	-0,075
-294,935	18,067	-0,041	0,024
-293,920	-200,000	-0,005	-0,028
-292,905	800,000	-0,025	-0,058
-291,891	-200,000	0,037	-0,135
-290,876	465,004	0,109	0,177
-289,862	-156,932	0,058	0,003
-288,847	800,000	0,021	-0,053
-287,832	288,553	-0,034	0,044
-286,818	566,499	-0,098	-0,173
-285,803	-200,000	-0,026	-0,140
-284,789	587,790	0,095	0,170
-283,774	9,222	0,023	0,012
-282,759	-104,358	0,108	0,018
-281,745	800,000	0,050	-0,132
-280,730	126,016	-0,158	-0,144
-279,716	800,000	0,010	-0,025
-278,701	15,569	0,055	0,031
-277,686	-200,000	0,001	0,005
-276,672	629,481	-0,018	0,033
-275,657	-78,926	0,028	0,007
-274,643	176,731	-0,098	-0,103
-273,628	-20,406	-0,098	-0,043
-272,613	800,000	-0,045	0,102
-271,599	76,484	0,074	0,057
-270,584	601,444	0,048	0,087
-269,570	800,000	-0,023	0,055
-268,555	-44,272	-0,088	0,032
-267,540	30,608	0,124	0,077
-266,526	51,137	-0,083	-0,057
-265,511	6,320	0,057	0,030
-264,497	-124,097	0,134	-0,015
-263,482	-200,000	-0,007	-0,071
-262,467	107,076	0,089	0,077
-261,453	387,882	0,060	0,089
-260,438	-200,000	0,002	0,073
-259,424	800,000	0,039	0,109
-258,409	120,022	-0,056	0,051
-257,395	28,286	0,066	0,041
-256,380	148,713	0,069	0,067
-255,365	267,222	0,098	0,124
-254,351	134,005	0,089	0,084
-253,336	-200,000	0,009	0,183
-252,322	252,147	-0,084	0,104
-251,307	3,455	0,043	-0,022
-250,292	553,470	0,060	-0,105
-249,278	199,528	0,037	-0,041
-248,263	103,892	-0,050	-0,043
-247,249	800,000	0,023	0,065
-246,234	-200,000	0,010	-0,162
-245,219	182,038	-0,131	-0,139
-244,205	137,825	0,040	-0,038
-243,190	65,772	0,086	-0,063
-242,176	800,000	0,032	-0,086
-241,161	800,000	-0,039	0,115
-240,146	171,386	0,063	-0,065
-239,132	-200,000	0,001	-0,043
-238,117	397,269	0,041	-0,063
-237,103	800,000	0,055	-0,115
-236,088	-134,106	0,048	0,004
-235,073	261,461	0,053	0,066
-234,059	-200,000	0,030	0,217
-233,044	-200,000	-0,017	0,181
-232,030	-200,000	-0,032	-0,136
-231,015	-200,000	-0,001	0,065
-230,000	-7,847	0,052	-0,025
-228,986	800,000	0,009	-0,024
-227,971	800,000	-0,050	0,103
-226,957	-70,078	0,039	0,011
-225,942	800,000	0,022	-0,051
-224,927	203,618	-0,026	0,030
-223,913	-20,614	-0,064	0,028
-222,898	27,337	0,096	-0,058
-221,884	-200,000	0,005	0,049
-220,869	-54,201	0,151	-0,049
-219,855	-200,000	0,010	0,051
-218,840	-200,000	-0,013	0,099
-217,825	612,190	0,015	0,028
-216,811	-200,000	-0,003	-0,065
-215,796	-87,884	-0,084	0,018
-214,782	-200,000	-0,009	-0,045
-213,767	28,537	0,116	0,071
-212,752	-200,000	0,027	0,139
-211,738	31,832	0,046	0,028
-210,723	-23,147	-0,013	-0,006
-209,709	-200,000	-0,007	-0,204
-208,694	-172,536	-0,196	-0,004
-207,679	109,439	-0,015	-0,013
-206,665	683,858	0,095	0,181
-205,650	-108,451	-0,119	-0,018
-204,636	-66,814	0,094	-0,027
-203,621	234,981	-0,079	0,094
-202,606	-127,630	0,042	0,004
-201,592	195,101	-0,096	-0,105
-200,577	-117,189	0,233	0,030
-199,563	-5,167	0,108	-0,054
-198,548	-33,789	0,032	0,013
-197,533	45,312	-0,019	0,012
-196,519	-200,000	-0,007	0,154
-195,504	439,100	0,035	0,056
-194,490	-200,000	-0,041	-0,134
-193,475	-10,640	-0,108	-0,051
-192,460	108,892	-0,047	0,040
-191,446	110,782	0,171	0,148
-190,431	62,610	0,080	0,057
-189,417	357,009	-0,020	-0,028
-188,402	-57,366	0,039	-0,012
-187,387	-200,000	-0,004	-0,132
-186,373	-200,000	-0,024	-0,100
-185,358	-200,000	-0,002	0,036
-184,344	400,490	0,088	0,133
-183,329	-56,748	0,126	-0,040
-182,315	451,524	0,112	0,179
-181,300	97,734	-0,122	-0,101
-180,285	27,795	0,020	-0,012
-179,271	-200,000	0,001	-0,117
-178,256	284,512	0,047	0,061
-177,242	-200,000	-0,009	0,053
-176,227	-200,000	0,009	0,072
-175,212	800,000	0,030	0,065
-174,198	2,330	-0,070	0,036
-173,183	-72,084	-0,085	-0,023
-172,169	38,960	-0,046	0,029
-171,154	248,023	-0,044	-0,054
-170,139	-200,000	0,028	0,088
-169,125	99,548	0,147	0,123
-168,110	145,082	-0,030	0,029
-167,096	-200,000	0,002	-0,010
-166,081	-200,000	-0,010	-0,179
-165,066	653,854	0,037	-0,069
-164,052	-123,053	-0,142	-0,016
-163,037	191,993	-0,103	0,113
-162,023	85,179	-0,049	0,038
-161,008	-43,538	0,038	0,014
-159,993	302,010	0,054	-0,072
-158,979	-200,000	-0,013	-0,112
-157,964	800,000	-0,030	-0,097
-156,950	800,000	-0,039	-0,089
-155,935	-200,000	-0,020	0,091
-154,920	182,111	0,075	-0,079
-153,906	-200,000	0,013	-0,074
-152,891	-53,728	0,042	-0,014
-151,877	-136,156	0,019	-0,002
-150,862	351,467	-0,025	-0,035
-149,847	-67,941	-0,050	0,014
-148,833	139,439	-0,043	-0,040
-147,818	-200,000	0,005	-0,065
-146,804	-74,776	0,094	-0,024
-145,789	195,914	-0,006	0,007
-144,775	692,152	-0,031	0,059
-143,760	-38,243	0,090	-0,034
-142,745	-200,000	-0,008	0,041
-141,731	64,127	-0,108	0,078
-140,716	23,504	-0,025	-0,015
-139,702	197,720	0,046	-0,051
-138,687	342,879	-0,069	0,098
-137,672	-200,000	0,002	-0,012
-136,658	573,979	-0,124	-0,218
-135,643	-200,000	-0,000	-0,071
-134,629	169,212	-0,029	-0,030
-133,614	-0,917	-0,052	-0,026
-132,599	-69,550	0,064	-0,018
-131,585	-23,188	0,092	0,040
-130,570	-8,104	-0,197	0,095
-129,556	178,005	0,050	0,053
-128,541	-200,000	0,010	-0,094
-127,526	-200,000	-0,010	0,132
-126,512	185,486	0,099	0,106
-125,497	108,000	0,119	0,102
-124,483	-94,888	-0,187	0,036
-123,468	-200,000	0,009	-0,038
-122,453	518,824	-0,066	-0,112
-121,439	-200,000	-0,031	0,276
-120,424	278,658	-0,058	-0,075
-119,410	-26,246	-0,028	-0,012
