DTS Sentinel unit serial number:	SN410029Multiplexer serial number:	ORYXHardware model number:	OX2-SRSoftware version number:	ORYX F/W v4,00 Oryx Data Collector v3.7.2.0data status	okinstallation	B5 Nyhavnadifferential loss correction	single-endedforward channel	channel 2reverse channel	N/Adate	2023/12/13time	13:17:13forward acquisition time	300,00reverse acquisition time	0,00gamma	499,1914k internal	0,3161k external	0,3161temperature offset calibration	1,0000default loss term (dB/km)	0,3820temperature slope calibration	1,0000multiplexer offset coefficient	1,0000multiplexer slope coefficient	1,0000fibre end	0,00T internal ref (°C)	14,50T ext. ref 1 (°C)	-1,29T ext. ref 2 (°C)	-1,55length (m)	temperature (°C)	Stokes	anti-Stokes-744,400	7,394	0,162	-0,089
-743,385	-121,106	-0,379	0,046
-742,371	209,066	0,099	0,114
-741,356	-157,232	-0,424	0,019
-740,342	-28,730	0,067	-0,028
-739,327	-161,984	-0,399	-0,015
-738,312	-166,126	0,125	-0,004
-737,298	-94,803	-0,227	-0,045
-736,283	-35,954	-0,071	-0,028
-735,269	-80,935	-0,268	-0,065
-734,254	-200,000	0,045	0,171
-733,239	-107,908	-0,377	-0,060
-732,225	-84,523	0,101	-0,023
-731,210	800,000	-0,047	0,111
-730,196	-135,246	0,097	-0,008
-729,181	-57,813	0,044	0,014
-728,167	241,292	0,008	0,009
-727,152	252,445	-0,069	-0,086
-726,137	-200,000	-0,017	-0,143
-725,123	80,676	-0,101	-0,080
-724,108	63,099	-0,005	-0,003
-723,094	-200,000	-0,012	-0,165
-722,079	-97,901	-0,094	-0,018
-721,064	-199,687	0,112	-0,000
-720,050	405,258	0,049	0,076
-719,035	-200,000	0,004	0,031
-718,021	-102,047	0,161	-0,028
-717,006	228,203	-0,093	-0,111
-715,991	-151,619	-0,221	-0,012
-714,977	75,451	-0,048	-0,037
-713,962	12,760	-0,038	-0,022
-712,948	800,000	-0,024	-0,056
-711,933	800,000	0,015	-0,033
-710,918	-200,000	-0,005	0,043
-709,904	223,924	-0,074	0,089
-708,889	-200,000	0,024	-0,119
-707,875	-46,110	-0,046	-0,017
-706,860	-200,000	0,006	-0,023
-705,845	800,000	0,065	0,138
-704,831	-44,846	0,111	0,041
-703,816	763,535	-0,055	0,111
-702,802	31,416	0,153	-0,096
-701,787	353,502	-0,091	-0,134
-700,772	94,994	0,014	-0,012
-699,758	172,397	-0,038	-0,040
-698,743	-200,000	-0,001	0,069
-697,729	-200,000	-0,009	-0,054
-696,714	-114,577	-0,029	-0,004
-695,699	141,642	0,095	-0,093
-694,685	429,847	-0,073	-0,117
-693,670	800,000	0,078	-0,162
-692,656	-200,000	-0,009	0,067
-691,641	-59,593	-0,112	-0,035
-690,627	-200,000	-0,000	-0,053
-689,612	800,000	0,031	-0,076
-688,597	104,359	-0,055	-0,048
-687,583	-200,000	-0,030	-0,327
-686,568	556,587	-0,142	-0,252
-685,554	9,401	-0,060	-0,033
-684,539	-200,000	0,001	-0,177
-683,524	343,458	0,044	-0,064
-682,510	175,268	-0,046	-0,049
-681,495	-200,000	-0,023	-0,090
-680,481	-54,041	-0,122	0,041
-679,466	86,398	-0,093	0,075
-678,451	-9,460	0,035	-0,017
-677,437	49,773	-0,029	0,020
-676,422	-39,336	0,038	0,014
-675,408	800,000	-0,034	0,076
-674,393	-200,000	0,001	-0,074
-673,378	380,768	-0,013	0,020
-672,364	-200,000	-0,005	-0,039
-671,349	352,933	0,029	0,042
-670,335	-2,287	0,082	-0,042
-669,320	-111,486	0,089	-0,013
-668,305	632,730	-0,032	0,060
-667,291	407,869	-0,014	0,022
-666,276	-200,000	-0,020	0,080
-665,262	111,896	-0,096	-0,085
-664,247	800,000	0,051	-0,135
-663,232	-106,360	0,028	-0,005
-662,218	-159,378	-0,077	-0,003
-661,203	-140,774	-0,043	-0,003
-660,189	146,312	0,079	-0,078
-659,174	477,454	0,034	-0,057
-658,159	96,653	-0,045	0,038
-657,145	106,420	-0,119	-0,103
-656,130	4,855	0,022	-0,012
-655,116	239,000	-0,028	-0,034
-654,101	-200,000	0,027	0,173
-653,086	199,590	0,070	-0,079
-652,072	-200,000	-0,018	0,123
-651,057	-12,546	-0,125	-0,060
-650,043	22,500	-0,101	0,061
-649,028	-200,000	0,022	-0,143
-648,014	41,504	0,101	0,067
-646,999	205,406	0,049	0,056
-645,984	-200,000	-0,012	0,042
-644,970	112,414	-0,105	0,093
-643,955	-16,213	0,050	-0,023
-642,941	-90,835	0,077	-0,016
-641,926	26,761	-0,025	0,015
-640,911	177,197	0,018	0,019
-639,897	-55,327	0,089	-0,029
-638,882	-200,000	0,011	-0,073
-637,868	-200,000	0,013	-0,081
-636,853	-200,000	-0,001	-0,005
-635,838	-200,000	-0,003	-0,205
-634,824	210,581	-0,076	-0,087
-633,809	289,951	-0,158	-0,211
-632,795	-200,000	0,033	0,107
-631,780	65,159	-0,028	-0,020
-630,765	409,196	-0,038	-0,059
-629,751	-132,096	-0,081	0,008
-628,736	191,107	-0,019	0,021
-627,722	76,991	-0,009	0,007
-626,707	126,792	0,070	0,065
-625,692	123,546	0,088	-0,081
-624,678	266,158	0,052	-0,066
-623,663	-200,000	-0,013	-0,090
-622,649	-200,000	-0,036	0,135
-621,634	-200,000	0,006	-0,077
-620,619	-42,212	-0,151	-0,056
-619,605	112,285	-0,026	0,023
-618,590	-200,000	-0,016	0,083
-617,576	-200,000	0,020	0,099
-616,561	196,974	-0,170	-0,191
-615,546	136,735	0,046	-0,044
-614,532	800,000	-0,062	-0,174
-613,517	-39,054	-0,070	-0,027
-612,503	277,640	0,112	0,146
-611,488	800,000	-0,011	-0,027
-610,474	-200,000	-0,004	-0,072
-609,459	640,414	0,043	0,081
-608,444	-92,451	-0,174	0,036
-607,430	101,467	-0,075	-0,064
-606,415	63,226	-0,034	0,025
-605,401	696,655	-0,026	-0,051
-604,386	-10,281	-0,016	0,008
-603,371	800,000	-0,053	0,122
-602,357	269,718	-0,036	-0,047
-601,342	83,814	-0,035	-0,028
-600,328	661,692	0,039	-0,075
-599,313	-55,846	-0,093	0,030
-598,298	-200,000	0,011	0,084
-597,284	-200,000	-0,010	0,090
-596,269	-80,031	0,063	-0,015
-595,255	800,000	0,040	-0,121
-594,240	-37,194	-0,059	0,023
-593,225	449,762	0,077	-0,125
-592,211	-200,000	-0,001	-0,138
-591,196	800,000	0,026	0,071
-590,182	-68,865	0,100	-0,028
-589,167	-14,235	0,091	0,043
-588,152	524,458	0,045	0,078
-587,138	800,000	-0,016	-0,041
-586,123	64,472	0,040	0,030
-585,109	800,000	0,008	-0,017
-584,094	-200,000	0,007	-0,071
-583,079	163,251	-0,056	0,057
-582,065	-200,000	-0,026	0,158
-581,050	-36,967	0,009	0,003
-580,036	-38,552	0,078	-0,030
-579,021	234,064	-0,018	0,022
-578,006	-153,583	-0,090	-0,004
-576,992	-53,615	0,116	-0,038
-575,977	210,259	-0,033	0,038
-574,963	443,175	-0,028	-0,045
-573,948	-200,000	0,000	0,090
-572,934	73,463	-0,110	0,084
-571,919	206,930	-0,051	0,058
-570,904	800,000	-0,046	-0,111
-569,890	-200,000	-0,005	0,045
-568,875	21,511	-0,122	0,072
-567,861	369,901	-0,031	0,046
-566,846	6,789	-0,093	-0,050
-565,831	-52,712	-0,045	-0,015
-564,817	-105,749	-0,087	-0,014
-563,802	428,517	0,058	-0,092
-562,788	305,637	0,009	0,013
-561,773	-109,703	-0,050	-0,008
-560,758	68,032	0,053	-0,040
-559,744	15,543	-0,084	0,048
-558,729	-112,181	-0,060	-0,009
-557,715	-82,844	-0,051	-0,012
-556,700	21,942	0,074	-0,044
-555,685	30,141	-0,125	0,078
-554,671	-200,000	-0,002	-0,131
-553,656	185,664	0,071	0,077
-552,642	35,098	-0,056	-0,036
-551,627	1,777	-0,108	-0,057
-550,612	53,915	0,076	0,053
-549,598	-200,000	-0,012	-0,039
-548,583	647,352	-0,022	0,041
-547,569	-200,000	0,002	-0,099
-546,554	-198,097	0,123	-0,001
-545,539	-200,000	0,004	-0,049
-544,525	235,937	-0,029	-0,035
-543,510	-77,279	-0,146	0,037
-542,496	-91,520	-0,050	0,010
-541,481	-200,000	-0,028	-0,118
-540,466	699,160	-0,006	0,011
-539,452	304,943	0,071	0,097
-538,437	244,914	0,080	0,099
-537,423	-135,560	-0,086	0,007
-536,408	-200,000	0,039	-0,133
-535,393	800,000	-0,043	0,104
-534,379	82,631	-0,028	-0,022
-533,364	143,035	0,045	0,044
-532,350	9,313	-0,048	-0,027
-531,335	275,305	0,118	0,153
-530,321	-200,000	0,023	0,125
-529,306	800,000	0,039	0,109
-528,291	-200,000	-0,006	0,023
-527,277	127,718	0,060	-0,056
-526,262	126,177	0,117	0,108
-525,248	-200,000	-0,004	-0,036
-524,233	287,904	-0,015	-0,019
-523,218	-76,849	0,145	0,037
-522,204	190,028	-0,119	-0,130
-521,189	8,588	-0,084	-0,046
-520,175	3,643	0,023	0,012
-519,160	-200,000	0,015	0,050
-518,145	101,487	-0,022	-0,019
-517,131	-54,396	-0,076	0,025
-516,116	664,645	0,034	0,064
-515,102	-147,370	-0,068	0,004
-514,087	-79,074	-0,105	0,026
-513,072	800,000	-0,029	0,091
-512,058	-151,512	-0,036	-0,002
-511,043	-136,210	0,070	-0,006
-510,029	-128,722	0,148	-0,015
-509,014	-129,267	-0,088	0,009
-507,999	133,083	0,097	-0,091
-506,985	433,795	-0,036	-0,058
-505,970	800,000	-0,084	-0,211
-504,956	167,952	0,051	0,053
-503,941	471,419	-0,031	0,051
-502,926	-159,458	0,047	0,002
-501,912	485,299	-0,078	0,129
-500,897	227,804	0,083	0,099
-499,883	-200,000	0,004	0,054
-498,868	-200,000	0,007	-0,068
-497,853	549,760	0,063	0,111
-496,839	-27,703	0,102	-0,043
-495,824	143,569	0,030	0,029
-494,810	-20,129	0,053	0,024
-493,795	800,000	0,051	-0,111
-492,781	213,589	0,011	-0,012
-491,766	-200,000	0,006	0,077
-490,751	-200,000	-0,014	0,049
-489,737	-40,855	0,127	-0,048
-488,722	171,967	0,102	-0,107
-487,708	312,352	-0,043	0,059
-486,693	-19,807	-0,052	0,023
-485,678	139,989	-0,085	-0,082
-484,664	273,279	0,053	-0,069
-483,649	250,822	0,045	-0,055
-482,635	800,000	-0,015	0,033
-481,620	623,813	0,063	0,115
-480,605	-167,993	-0,040	-0,001
-479,591	97,457	0,027	0,023
-478,576	429,731	0,023	0,037
-477,562	-163,875	-0,184	-0,006
-476,547	612,749	0,055	0,100
-475,532	-200,000	-0,005	0,079
-474,518	21,300	-0,118	0,070
-473,503	2,249	0,117	0,061
-472,489	-82,826	-0,085	-0,020
-471,474	-200,000	-0,007	-0,047
-470,459	129,228	-0,134	-0,125
-469,445	134,471	-0,107	-0,101
-468,430	-17,344	0,145	-0,066
-467,416	140,067	-0,058	0,055
-466,401	-200,000	-0,040	0,144
-465,386	-200,000	-0,000	0,038
-464,372	-200,000	-0,001	-0,016
-463,357	314,805	0,038	-0,052
-462,343	-200,000	-0,044	-0,163
-461,328	-200,000	-0,007	-0,081
-460,313	-46,274	-0,036	-0,013
-459,299	264,026	-0,011	-0,014
-458,284	138,390	0,120	0,115
-457,270	353,786	0,022	0,032
-456,255	-200,000	-0,005	0,160
-455,241	-17,819	-0,057	-0,026
-454,226	45,238	-0,068	-0,046
-453,211	-108,873	-0,057	-0,009
-452,197	28,468	0,111	0,068
-451,182	-63,797	0,090	0,027
-450,168	800,000	-0,043	-0,089
-449,153	-16,480	0,041	0,019
-448,138	800,000	-0,041	-0,098
-447,124	-200,000	-0,021	-0,106
-446,109	287,317	-0,039	-0,052
-445,095	-115,819	0,076	0,010
-444,080	77,728	0,116	0,090
-443,065	-200,000	-0,041	0,174
-442,051	-136,450	0,058	-0,005
-441,036	-66,850	-0,051	-0,015
-440,022	24,788	-0,100	0,060
-439,007	-200,000	-0,014	0,133
-437,992	58,299	0,070	0,050
-436,978	20,684	0,043	0,026
-435,963	-200,000	-0,007	-0,150
-434,949	-200,000	0,002	0,012
-433,934	141,789	-0,096	-0,092
-432,919	-200,000	0,017	-0,173
-431,905	53,753	-0,045	0,032
-430,890	25,795	-0,005	0,003
-429,876	585,750	0,071	-0,128
-428,861	-200,000	-0,001	0,047
-427,846	204,565	-0,026	-0,030
-426,832	-200,000	0,022	0,074
-425,817	46,515	0,096	0,065
-424,803	-10,343	0,040	0,019
-423,788	-200,000	0,018	0,111
-422,773	-200,000	0,000	-0,023
-421,759	-86,138	-0,066	-0,015
-420,744	359,964	-0,086	0,126
-419,730	109,175	0,164	-0,142
-418,715	118,286	-0,064	-0,058
-417,701	800,000	0,020	0,050
-416,686	36,028	0,074	0,047
-415,671	-200,000	0,013	-0,052
-414,657	423,401	0,101	0,158
-413,642	-0,553	-0,065	0,034
-412,628	32,630	0,069	-0,043
-411,613	755,677	-0,049	-0,097
-410,598	-143,875	-0,038	-0,003
-409,584	457,416	0,009	-0,014
-408,569	47,737	0,063	0,043
-407,555	-78,169	0,144	-0,036
-406,540	276,388	-0,046	-0,060
-405,525	-72,314	-0,136	-0,036
-404,511	-3,843	-0,166	0,084
-403,496	146,421	-0,047	0,046
-402,482	361,164	-0,046	-0,067
-401,467	-200,000	0,019	0,106
-400,452	-200,000	0,025	0,109
-399,438	-200,000	0,011	0,039
-398,423	-200,000	-0,008	0,034
-397,409	-73,177	-0,101	0,027
-396,394	280,952	-0,012	0,016
-395,379	173,855	0,063	-0,066
-394,365	-200,000	-0,030	0,119
-393,350	-200,000	-0,005	0,126
-392,336	-200,000	-0,010	0,068
-391,321	-62,119	0,209	-0,063
-390,306	-23,950	-0,178	-0,077
-389,292	311,617	0,043	-0,058
-388,277	-200,000	0,029	-0,106
-387,263	628,867	0,037	-0,069
-386,248	-200,000	0,010	0,048
-385,233	800,000	-0,018	-0,054
-384,219	101,182	0,104	-0,088
-383,204	-75,155	0,023	-0,006
-382,190	48,832	0,017	-0,011
-381,175	800,000	-0,053	-0,131
-380,160	-200,000	-0,027	0,146
-379,146	-200,000	-0,018	0,073
-378,131	800,000	-0,055	0,111
-377,117	-171,079	-0,079	0,002
-376,102	-200,000	0,018	0,067
-375,088	-200,000	-0,019	-0,167
-374,073	-12,957	0,078	-0,037
-373,058	-138,365	-0,046	0,004
-372,044	520,375	0,029	-0,049
-371,029	-150,626	0,175	-0,010
-370,015	114,515	-0,104	0,092
-369,000	-200,000	-0,008	-0,057
-367,985	73,997	0,032	0,025
-366,971	-200,000	0,005	0,054
-365,956	800,000	0,066	-0,148
-364,942	178,350	0,079	0,084
-363,927	-200,000	-0,014	0,061
-362,912	141,066	0,015	0,015
-361,898	134,650	-0,052	-0,049
-360,883	558,659	-0,031	0,054
-359,869	-20,028	-0,100	0,045
-358,854	520,654	0,026	0,044
-357,839	163,522	0,034	-0,035
-356,825	-149,871	-0,102	0,006
-355,810	105,011	0,056	-0,047
-354,796	-16,556	0,036	-0,017
-353,781	49,437	0,130	0,089
-352,766	-200,000	-0,015	-0,095
-351,752	-58,859	0,094	-0,029
-350,737	800,000	-0,020	0,054
-349,723	-52,040	-0,084	0,028
-348,708	471,039	0,049	0,079
-347,693	-162,407	0,060	-0,002
-346,679	-49,894	0,073	-0,025
-345,664	-150,432	-0,088	-0,005
-344,650	-200,000	-0,062	0,214
-343,635	347,160	-0,029	0,041
-342,620	-200,000	0,014	0,165
-341,606	-115,231	0,106	-0,014
-340,591	169,786	0,050	0,052
-339,577	741,655	-0,042	0,083
-338,562	-59,126	0,047	-0,015
-337,548	107,404	-0,046	0,040
-336,533	403,995	-0,027	0,042
-335,518	-36,368	0,057	0,022
-334,504	-200,000	-0,001	0,139
-333,489	-17,316	0,075	-0,034
-332,475	-9,440	-0,077	0,037
-331,460	51,264	-0,155	0,106
-330,445	43,528	0,084	-0,056
-329,431	-67,539	0,021	-0,006
-328,416	198,994	-0,081	0,090
-327,402	-200,000	0,009	-0,077
-326,387	800,000	-0,027	0,067
-325,372	-200,000	-0,004	0,046
-324,358	-200,000	-0,009	-0,052
-323,343	35,246	0,097	0,061
-322,329	-200,000	0,007	-0,052
-321,314	197,299	-0,060	0,066
-320,299	8,645	0,045	0,025
-319,285	-200,000	0,017	-0,120
-318,270	185,640	-0,071	-0,076
-317,256	-200,000	-0,002	-0,057
-316,241	-149,644	-0,174	0,010
-315,226	194,973	0,132	-0,146
-314,212	-7,400	-0,066	-0,032
-313,197	99,671	-0,039	0,033
-312,183	-200,000	-0,008	-0,060
-311,168	-68,177	0,104	-0,029
-310,153	59,813	0,046	-0,033
-309,139	-25,712	0,021	-0,009
-308,124	-200,000	0,011	0,100
-307,110	-75,005	0,076	0,020
-306,095	626,087	0,027	0,049
-305,080	-200,000	-0,008	0,031
-304,066	-122,173	-0,045	-0,005
-303,051	250,627	-0,064	-0,079
-302,037	-200,000	-0,012	-0,316
-301,022	798,259	0,052	-0,105
-300,008	-200,000	0,007	0,056
-298,993	-200,000	-0,003	0,103
-297,978	-174,457	0,051	0,001
-296,964	-111,436	-0,024	0,003
-295,949	-147,094	-0,056	0,003
-294,935	321,120	0,064	-0,089
-293,920	-18,511	0,079	0,035
-292,905	-6,686	0,161	0,079
-291,891	800,000	-0,044	0,089
-290,876	58,581	0,034	-0,024
-289,862	482,414	-0,048	-0,079
-288,847	283,580	-0,054	-0,071
-287,832	800,000	-0,004	-0,010
-286,818	-39,960	-0,095	0,036
-285,803	-115,935	0,190	0,025
-284,789	800,000	0,025	0,061
-283,774	446,489	0,041	0,066
-282,759	-15,473	-0,074	0,034
-281,745	800,000	0,086	0,190
-280,730	-200,000	-0,034	-0,125
-279,716	242,606	0,065	-0,079
-278,701	-62,767	0,096	0,029
-277,686	-200,000	0,008	-0,088
-276,672	-200,000	-0,018	0,100
-275,657	-200,000	-0,005	0,076
-274,643	131,736	-0,064	-0,060
-273,628	-94,291	-0,102	-0,020
-272,613	800,000	0,038	0,111
-271,599	15,813	-0,103	0,058
-270,584	713,525	0,044	0,085
-269,570	-68,985	0,113	-0,031
-268,555	-140,609	0,068	0,005
-267,540	525,142	-0,052	-0,089
-266,526	-9,893	-0,121	-0,058
-265,511	-200,000	-0,003	-0,095
-264,497	45,973	-0,043	-0,028
-263,482	111,695	0,094	-0,082
-262,467	405,969	-0,012	0,018
-261,453	-200,000	-0,007	0,041
-260,438	112,249	-0,041	-0,036
-259,424	163,318	-0,005	-0,005
-258,409	90,291	-0,144	-0,116
-257,395	-32,741	0,127	0,051
-256,380	48,610	0,161	0,109
-255,365	348,265	0,051	-0,073
-254,351	162,335	0,041	0,041
-253,336	408,982	-0,061	-0,093
-252,322	-30,343	-0,091	-0,037
-251,307	289,259	0,070	-0,092
-250,292	-200,000	0,020	0,073
-249,278	308,037	0,075	-0,102
-248,263	420,175	0,031	0,049
-247,249	28,173	-0,064	-0,039
-246,234	800,000	-0,029	-0,080
-245,219	3,248	-0,143	0,075
-244,205	263,392	0,056	-0,070
-243,190	-127,177	-0,035	-0,004
-242,176	271,746	0,035	0,044
-241,161	-200,000	0,006	-0,066
-240,146	187,136	-0,062	-0,067
-239,132	-129,120	0,074	-0,007
-238,117	-30,617	0,039	-0,016
-237,103	443,389	-0,040	-0,064
-236,088	800,000	0,046	0,117
-235,073	779,285	0,027	0,053
-234,059	106,936	0,079	-0,068
-233,044	153,716	-0,087	0,086
-232,030	-100,731	-0,127	0,022
-231,015	-20,688	0,087	0,039
-230,000	-7,817	-0,103	-0,050
-228,986	151,418	-0,008	-0,008
-227,971	359,969	-0,053	0,077
-226,957	-85,039	-0,142	-0,032
-225,942	546,029	-0,056	0,096
-224,927	-16,651	0,050	-0,023
-223,913	545,387	0,101	-0,175
-222,898	42,829	0,095	-0,062
-221,884	800,000	0,019	-0,047
-220,869	403,824	-0,087	-0,132
-219,855	0,135	0,154	0,079
-218,840	88,132	-0,184	0,147
-217,825	-200,000	0,013	0,059
-216,811	-200,000	-0,041	-0,198
-215,796	244,120	-0,120	-0,145
-214,782	-200,000	0,013	-0,086
-213,767	4,134	0,099	-0,052
-212,752	-200,000	0,022	0,238
-211,738	-200,000	-0,121	0,000
-210,723	296,327	0,066	0,088
-209,709	-200,000	-0,014	-0,122
-208,694	-200,000	-0,054	-0,197
-207,679	578,488	-0,082	-0,146
-206,665	54,886	-0,047	0,033
-205,650	30,290	0,143	-0,088
-204,636	800,000	-0,036	-0,075
-203,621	68,030	-0,082	0,060
-202,606	132,171	-0,058	-0,054
-201,592	-79,501	-0,062	-0,015
-200,577	-35,059	0,081	-0,032
-199,563	92,542	0,083	-0,068
-198,548	144,707	0,032	-0,031
-197,533	800,000	0,079	0,188
-196,519	204,426	-0,090	0,101
-195,504	-200,000	0,039	-0,140
-194,490	-200,000	0,018	-0,089
-193,475	7,687	0,080	0,043
-192,460	800,000	-0,008	0,019
-191,446	-200,000	0,007	0,073
-190,431	159,600	0,060	0,061
-189,417	545,509	-0,022	0,038
-188,402	95,989	0,044	-0,037
-187,387	499,561	-0,049	-0,081
-186,373	586,131	0,034	0,060
-185,358	459,043	-0,063	0,102
-184,344	75,055	0,070	0,053
-183,329	67,794	-0,043	-0,032
-182,315	500,995	0,031	0,051
-181,300	-200,000	0,005	-0,022
-180,285	800,000	0,048	-0,116
-179,271	-200,000	-0,005	0,130
-178,256	29,879	0,143	0,088
-177,242	-200,000	0,020	0,193
-176,227	-200,000	-0,001	0,106
-175,212	-86,304	-0,026	-0,006
-174,198	493,330	-0,046	0,077
-173,183	-56,912	0,077	-0,024
-172,169	87,024	-0,048	-0,038
-171,154	-57,338	-0,082	-0,026
-170,139	-94,018	0,090	-0,018
-169,125	111,179	0,130	0,113
-168,110	-200,000	0,023	-0,113
-167,096	-200,000	0,003	0,020
-166,081	-118,998	-0,022	0,003
-165,066	712,529	-0,089	-0,170
-164,052	-60,886	-0,067	-0,020
-163,037	-97,589	-0,113	0,021
-162,023	-46,191	0,134	-0,047
-161,008	-53,899	0,087	0,028
-159,993	29,661	-0,067	-0,041
-158,979	800,000	0,027	-0,070
-157,964	800,000	0,054	0,117
-156,950	-107,207	0,062	-0,010
-155,935	129,503	0,086	0,079
-154,920	800,000	-0,045	0,116
-153,906	24,458	-0,055	-0,033
-152,891	-200,000	0,008	-0,046
-151,877	703,838	0,084	0,160
-150,862	51,227	0,053	-0,036
-149,847	800,000	0,029	0,090
-148,833	95,762	-0,040	0,033
-147,818	130,412	-0,104	-0,096
-146,804	-137,379	0,024	-0,002
-145,789	-116,855	0,063	-0,008
-144,775	-200,000	-0,021	-0,099
-143,760	66,955	-0,069	-0,051
-142,745	800,000	-0,051	-0,131
-141,731	-1,426	-0,049	0,025
-140,716	63,656	0,092	0,066
-139,702	-200,000	-0,036	-0,136
-138,687	54,581	-0,010	-0,007
-137,672	218,456	-0,036	-0,041
-136,658	365,033	-0,030	-0,044
-135,643	800,000	-0,029	-0,066
-134,629	-58,674	-0,066	0,020
-133,614	176,866	0,117	0,123
-132,599	-134,917	0,082	-0,007
-131,585	800,000	0,034	0,070
-130,570	800,000	0,061	0,160
-129,556	350,174	-0,088	-0,126
-128,541	535,226	0,025	-0,043
-127,526	198,276	0,062	-0,069
-126,512	-117,475	-0,110	0,014
-125,497	-173,698	0,085	0,002
-124,483	-67,590	0,136	0,038
-123,468	217,556	0,041	0,047
-122,453	-99,597	-0,041	0,007
-121,439	-40,414	-0,037	-0,014
-120,424	-53,582	-0,183	-0,060
