DTS Sentinel unit serial number:	SN410029Multiplexer serial number:	ORYXHardware model number:	OX2-SRSoftware version number:	ORYX F/W v4,00 Oryx Data Collector v3.7.2.0data status	okinstallation	B5 Nyhavnadifferential loss correction	single-endedforward channel	channel 2reverse channel	N/Adate	2023/12/13time	01:37:13forward acquisition time	300,00reverse acquisition time	0,00gamma	499,1914k internal	0,3159k external	0,3159temperature offset calibration	1,0000default loss term (dB/km)	0,3820temperature slope calibration	1,0000multiplexer offset coefficient	1,0000multiplexer slope coefficient	1,0000fibre end	0,00T internal ref (°C)	14,09T ext. ref 1 (°C)	-2,32T ext. ref 2 (°C)	-2,65length (m)	temperature (°C)	Stokes	anti-Stokes-744,400	213,632	0,023	0,027
-743,385	-96,150	-0,325	0,063
-742,371	266,568	0,110	0,142
-741,356	-87,139	-0,260	0,058
-740,342	-4,246	0,211	0,107
-739,327	22,080	-0,285	0,171
-738,312	-66,025	0,102	0,030
-737,298	-110,337	-0,389	0,059
-736,283	71,082	0,185	-0,141
-735,269	-103,025	-0,358	0,062
-734,254	59,667	0,120	0,087
-733,239	25,097	-0,330	-0,201
-732,225	800,000	0,062	-0,130
-731,210	800,000	-0,040	-0,112
-730,196	-34,441	0,038	-0,015
-729,181	695,785	-0,044	0,086
-728,167	800,000	0,031	-0,097
-727,152	767,984	-0,062	0,125
-726,137	304,832	-0,049	-0,068
-725,123	360,298	-0,022	0,033
-724,108	429,402	-0,020	-0,032
-723,094	-13,916	-0,245	-0,116
-722,079	-200,000	0,019	0,067
-721,064	-81,365	0,057	-0,014
-720,050	-200,000	-0,016	0,076
-719,035	-200,000	-0,002	0,061
-718,021	-200,000	0,001	-0,020
-717,006	67,654	-0,089	-0,067
-715,991	298,168	-0,089	-0,121
-714,977	31,209	-0,115	0,073
-713,962	232,864	0,022	-0,026
-712,948	-200,000	-0,006	0,082
-711,933	528,973	-0,085	-0,149
-710,918	622,377	-0,039	-0,073
-709,904	85,959	0,080	0,064
-708,889	-200,000	-0,013	0,081
-707,875	-200,000	-0,010	-0,049
-706,860	-200,000	0,018	0,120
-705,845	155,394	-0,041	0,041
-704,831	-29,629	-0,133	-0,056
-703,816	218,036	-0,123	-0,145
-702,802	800,000	-0,042	-0,088
-701,787	800,000	-0,040	0,085
-700,772	800,000	0,036	-0,084
-699,758	800,000	-0,051	0,110
-698,743	0,957	0,055	0,029
-697,729	800,000	-0,055	0,129
-696,714	-200,000	-0,006	-0,025
-695,699	35,481	-0,108	-0,070
-694,685	-200,000	-0,015	-0,146
-693,670	-0,234	-0,082	-0,043
-692,656	800,000	-0,045	-0,119
-691,641	-66,854	0,086	-0,025
-690,627	3,740	-0,105	0,056
-689,612	-200,000	0,034	-0,113
-688,597	800,000	0,027	-0,073
-687,583	800,000	-0,036	-0,078
-686,568	-54,388	0,134	0,044
-685,554	76,509	-0,139	-0,109
-684,539	-200,000	0,003	-0,021
-683,524	800,000	0,055	-0,115
-682,510	-200,000	0,012	-0,091
-681,495	-200,000	-0,004	0,064
-680,481	588,229	0,016	0,029
-679,466	7,128	-0,114	0,063
-678,451	350,167	0,081	-0,118
-677,437	800,000	-0,036	-0,104
-676,422	-63,592	0,127	-0,038
-675,408	-200,000	-0,039	0,186
-674,393	-200,000	0,002	0,041
-673,378	-200,000	-0,022	-0,117
-672,364	256,609	-0,104	0,132
-671,349	-200,000	0,007	-0,152
-670,335	-200,000	0,017	-0,142
-669,320	-200,000	-0,001	-0,082
-668,305	-14,622	0,090	-0,042
-667,291	-39,455	-0,077	0,030
-666,276	606,256	-0,069	0,128
-665,262	-124,606	-0,067	-0,008
-664,247	800,000	-0,032	-0,089
-663,232	29,762	-0,027	-0,017
-662,218	-200,000	0,005	0,139
-661,203	-63,212	-0,079	-0,024
-660,189	741,461	0,035	-0,070
-659,174	800,000	-0,062	0,152
-658,159	475,320	-0,055	0,092
-657,145	137,316	-0,096	-0,092
-656,130	800,000	-0,060	0,179
-655,116	-11,409	-0,136	-0,065
-654,101	-200,000	-0,001	-0,024
-653,086	-38,974	0,055	-0,021
-652,072	-200,000	-0,001	0,049
-651,057	-119,060	-0,235	0,030
-650,043	-200,000	-0,014	-0,088
-649,028	437,696	0,036	-0,058
-648,014	-24,534	0,112	-0,049
-646,999	-200,000	0,008	-0,081
-645,984	-16,229	-0,096	-0,045
-644,970	-125,642	-0,177	0,019
-643,955	440,354	-0,089	-0,143
-642,941	800,000	-0,039	0,125
-641,926	-121,741	-0,169	0,020
-640,911	-75,694	0,132	0,034
-639,897	99,289	0,091	-0,077
-638,882	800,000	0,028	-0,090
-637,868	800,000	0,029	0,094
-636,853	482,445	0,048	0,080
-635,838	563,807	-0,075	-0,134
-634,824	160,184	0,022	-0,022
-633,809	-200,000	0,013	-0,049
-632,795	-200,000	0,009	0,031
-631,780	418,270	0,026	-0,041
-630,765	216,701	-0,096	-0,112
-629,751	-200,000	-0,012	-0,058
-628,736	-200,000	0,004	-0,054
-627,722	-200,000	0,049	0,163
-626,707	-200,000	-0,010	-0,040
-625,692	75,505	-0,052	0,040
-624,678	220,086	-0,059	0,069
-623,663	-200,000	-0,012	-0,123
-622,649	33,456	0,037	-0,024
-621,634	-133,935	-0,061	-0,005
-620,619	-142,039	0,089	-0,006
-619,605	70,341	-0,123	-0,093
-618,590	800,000	0,019	-0,043
-617,576	-200,000	-0,013	0,072
-616,561	-59,064	0,060	0,019
-615,546	82,647	-0,043	0,034
-614,532	-112,431	-0,118	-0,017
-613,517	800,000	0,035	-0,088
-612,503	230,597	-0,038	0,046
-611,488	57,228	0,100	0,071
-610,474	-94,168	-0,159	0,032
-609,459	-74,416	-0,166	-0,044
-608,444	77,885	0,032	0,025
-607,430	130,485	0,039	-0,036
-606,415	-200,000	0,002	-0,039
-605,401	-192,164	-0,090	0,001
-604,386	545,521	0,054	0,095
-603,371	800,000	0,071	0,172
-602,357	-51,430	-0,088	-0,030
-601,342	11,509	0,063	-0,035
-600,328	-115,000	-0,093	-0,013
-599,313	-200,000	0,006	-0,063
-598,298	146,634	-0,048	-0,047
-597,284	-174,024	0,253	-0,005
-596,269	-79,800	-0,032	0,008
-595,255	100,595	0,083	0,070
-594,240	800,000	0,089	-0,197
-593,225	-200,000	-0,011	-0,091
-592,211	800,000	-0,032	0,071
-591,196	-28,171	0,064	0,027
-590,182	335,586	-0,050	-0,071
-589,167	-200,000	0,000	0,053
-588,152	-41,342	-0,091	0,034
-587,138	800,000	-0,058	0,126
-586,123	265,123	-0,037	0,047
-585,109	800,000	0,058	-0,127
-584,094	169,570	-0,054	-0,056
-583,079	-67,778	0,055	0,016
-582,065	331,615	0,032	0,046
-581,050	800,000	0,036	-0,075
-580,036	800,000	-0,026	-0,053
-579,021	-200,000	0,025	-0,090
-578,006	-200,000	-0,018	-0,264
-576,992	-200,000	-0,001	-0,076
-575,977	6,697	0,124	-0,067
-574,963	-113,613	-0,083	0,012
-573,948	-86,882	-0,107	-0,024
-572,934	-34,800	-0,064	0,026
-571,919	800,000	-0,034	-0,075
-570,904	-51,123	-0,124	-0,042
-569,890	-88,484	-0,030	-0,006
-568,875	-200,000	-0,019	-0,123
-567,861	800,000	-0,021	0,048
-566,846	278,664	0,094	0,123
-565,831	-200,000	-0,009	-0,069
-564,817	-184,947	-0,090	-0,001
-563,802	-200,000	-0,007	-0,141
-562,788	450,642	-0,067	-0,109
-561,773	164,650	0,088	-0,091
-560,758	715,280	0,031	-0,061
-559,744	326,762	0,032	0,045
-558,729	-200,000	0,013	0,098
-557,715	67,042	-0,054	-0,040
-556,700	8,711	-0,160	-0,088
-555,685	89,338	-0,118	-0,096
-554,671	35,296	-0,068	-0,044
-553,656	-43,368	0,124	0,046
-552,642	-173,997	0,060	0,001
-551,627	-200,000	-0,019	-0,063
-550,612	-141,868	-0,133	0,010
-549,598	-200,000	0,010	-0,038
-548,583	800,000	-0,026	-0,070
-547,569	-84,297	0,207	0,048
-546,554	203,988	0,004	0,004
-545,539	800,000	-0,031	-0,065
-544,525	-101,684	0,192	0,034
-543,510	-200,000	0,008	-0,050
-542,496	13,932	-0,092	-0,052
-541,481	604,127	-0,037	-0,068
-540,466	206,296	-0,061	-0,070
-539,452	419,788	-0,020	-0,031
-538,437	-200,000	0,002	0,019
-537,423	-118,004	0,040	-0,005
-536,408	304,531	-0,011	-0,014
-535,393	-200,000	0,024	-0,197
-534,379	800,000	0,005	0,013
-533,364	-200,000	0,006	0,081
-532,350	-200,000	0,012	-0,098
-531,335	-81,059	0,107	-0,026
-530,321	68,060	0,078	0,058
-529,306	800,000	-0,045	0,137
-528,291	46,791	0,084	0,057
-527,277	-25,490	-0,059	0,025
-526,262	386,042	-0,013	0,020
-525,248	308,725	0,068	0,093
-524,233	242,635	0,144	0,176
-523,218	-200,000	-0,022	-0,125
-522,204	800,000	0,010	-0,023
-521,189	-162,406	0,095	-0,003
-520,175	131,614	0,129	0,122
-519,160	496,528	0,028	-0,047
-518,145	30,814	0,119	-0,074
-517,131	129,174	-0,096	0,089
-516,116	107,958	0,088	0,076
-515,102	-72,012	-0,065	-0,017
-514,087	30,406	-0,050	-0,031
-513,072	-14,535	-0,114	0,054
-512,058	-128,535	0,047	0,005
-511,043	-2,048	0,114	-0,058
-510,029	215,442	-0,031	0,036
-509,014	800,000	0,033	0,083
-507,999	-200,000	0,011	0,156
-506,985	-177,135	-0,096	0,002
-505,970	139,980	-0,068	0,066
-504,956	347,405	-0,048	0,069
-503,941	46,075	0,054	-0,036
-502,926	463,894	-0,005	0,008
-501,912	-200,000	0,034	0,111
-500,897	117,424	0,093	0,084
-499,883	654,224	-0,074	-0,140
-498,868	-73,650	-0,112	-0,029
-497,853	800,000	-0,058	0,124
-496,839	260,094	0,022	0,028
-495,824	246,520	0,096	0,119
-494,810	-200,000	-0,002	0,109
-493,795	222,158	-0,085	-0,100
-492,781	-200,000	-0,012	-0,069
-491,766	-200,000	-0,018	-0,062
-490,751	800,000	0,029	-0,082
-489,737	800,000	-0,046	0,099
-488,722	85,423	0,073	0,059
-487,708	107,376	0,103	0,089
-486,693	9,787	-0,130	-0,072
-485,678	118,683	0,173	-0,156
-484,664	-141,120	-0,134	-0,010
-483,649	317,876	-0,081	-0,112
-482,635	800,000	0,022	-0,055
-481,620	-3,294	0,115	-0,058
-480,605	12,832	-0,086	0,048
-479,591	180,163	-0,099	0,106
-478,576	35,823	-0,015	0,009
-477,562	-200,000	-0,012	-0,055
-476,547	320,164	-0,052	-0,072
-475,532	-200,000	-0,028	-0,152
-474,518	-81,073	0,068	-0,016
-473,503	-200,000	0,022	0,114
-472,489	671,837	-0,032	0,062
-471,474	12,011	-0,032	0,018
-470,459	285,602	-0,031	-0,041
-469,445	-62,003	-0,155	-0,047
-468,430	43,674	0,145	0,097
-467,416	-53,177	-0,007	0,002
-466,401	-200,000	0,005	0,046
-465,386	127,864	0,086	0,080
-464,372	-130,748	0,084	-0,008
-463,357	-49,188	-0,041	-0,014
-462,343	-61,934	-0,056	0,017
-461,328	-89,577	-0,087	-0,018
-460,313	317,177	0,050	-0,070
-459,299	-170,127	-0,134	-0,003
-458,284	55,016	-0,023	-0,016
-457,270	34,237	0,094	0,060
-456,255	-82,417	-0,122	-0,029
-455,241	-200,000	0,029	0,097
-454,226	112,045	0,010	0,009
-453,211	89,704	0,043	0,035
-452,197	134,468	-0,027	-0,025
-451,182	20,312	0,024	0,014
-450,168	186,087	0,019	-0,021
-449,153	95,076	-0,109	0,090
-448,138	-172,673	-0,112	-0,002
-447,124	-175,404	0,126	0,002
-446,109	800,000	0,031	0,088
-445,095	800,000	0,041	0,112
-444,080	346,287	0,078	0,113
-443,065	79,392	0,050	0,039
-442,051	200,877	-0,066	0,074
-441,036	53,952	0,034	-0,023
-440,022	-59,087	0,082	-0,026
-439,007	800,000	0,048	0,122
-437,992	-200,000	-0,016	-0,106
-436,978	-200,000	0,007	0,170
-435,963	478,913	0,060	0,099
-434,949	107,970	-0,125	-0,108
-433,934	800,000	0,025	-0,070
-432,919	8,600	-0,049	-0,027
-431,905	800,000	-0,054	-0,111
-430,890	-126,328	0,062	-0,007
-429,876	-14,721	0,133	0,062
-428,861	298,843	0,061	0,082
-427,846	79,437	0,082	0,064
-426,832	800,000	0,070	-0,146
-425,817	187,348	-0,070	-0,076
-424,803	800,000	-0,039	0,120
-423,788	-80,253	-0,097	0,023
-422,773	-169,418	0,094	0,002
-421,759	-112,933	-0,026	0,004
-420,744	-82,300	0,123	0,029
-419,730	-200,000	0,005	-0,107
-418,715	135,350	-0,094	-0,089
-417,701	800,000	0,053	-0,146
-416,686	-45,156	0,115	-0,041
-415,671	-200,000	0,002	-0,020
-414,657	36,622	-0,127	-0,081
-413,642	139,403	-0,051	0,049
-412,628	-174,551	0,092	-0,002
-411,613	104,601	-0,126	-0,108
-410,598	-14,700	-0,079	-0,037
-409,584	323,345	0,064	-0,089
-408,569	269,903	0,079	0,101
-407,555	-200,000	0,026	0,103
-406,540	-200,000	0,002	0,083
-405,525	-82,969	-0,036	0,008
-404,511	380,536	0,058	-0,087
-403,496	735,186	0,039	-0,076
-402,482	-26,350	0,050	-0,021
-401,467	-200,000	0,028	-0,108
-400,452	800,000	0,069	0,166
-399,438	-32,762	-0,035	0,014
-398,423	19,182	-0,091	0,053
-397,409	-200,000	0,014	0,102
-396,394	-77,076	-0,088	-0,022
-395,379	25,254	0,057	0,034
-394,365	-200,000	0,001	0,095
-393,350	51,171	0,042	-0,029
-392,336	318,633	0,083	0,115
-391,321	53,284	0,103	0,071
-390,306	244,119	-0,095	-0,116
-389,292	-66,172	0,113	0,033
-388,277	380,264	-0,039	0,059
-387,263	129,138	-0,095	0,089
-386,248	-126,582	0,049	0,005
-385,233	-200,000	0,029	-0,104
-384,219	-200,000	-0,027	0,174
-383,204	-45,127	-0,167	0,060
-382,190	-49,830	-0,077	-0,026
-381,175	-200,000	0,014	0,059
-380,160	346,327	-0,018	0,025
-379,146	17,007	0,033	-0,019
-378,131	-200,000	-0,015	0,120
-377,117	800,000	-0,051	-0,134
-376,102	800,000	0,061	-0,127
-375,088	-126,055	-0,049	0,005
-374,073	154,043	0,055	-0,054
-373,058	163,356	0,111	0,114
-372,044	607,912	-0,026	0,047
-371,029	-200,000	-0,014	-0,070
-370,015	162,999	0,012	-0,013
-369,000	-144,751	0,107	-0,007
-367,985	111,394	0,064	-0,056
-366,971	-7,311	0,084	-0,041
-365,956	-200,000	0,025	0,115
-364,942	69,393	0,128	0,095
-363,927	417,555	0,034	-0,054
-362,912	238,572	0,022	0,027
-361,898	1,752	0,072	-0,038
-360,883	800,000	-0,046	-0,112
-359,869	-200,000	-0,021	-0,072
-358,854	-86,019	0,101	0,022
-357,839	526,156	0,038	0,065
-356,825	131,026	0,026	0,024
-355,810	1,067	-0,083	0,043
-354,796	800,000	-0,025	0,053
-353,781	-200,000	-0,010	-0,163
-352,766	800,000	-0,047	-0,098
-351,752	800,000	0,028	-0,076
-350,737	-76,929	-0,061	-0,015
-349,723	148,209	0,055	0,054
-348,708	221,715	-0,111	-0,130
-347,693	674,652	0,021	0,040
-346,679	61,769	-0,051	0,037
-345,664	-26,706	-0,020	-0,008
-344,650	-55,189	0,111	-0,036
-343,635	70,575	0,036	-0,027
-342,620	196,438	0,091	0,101
-341,606	123,709	-0,074	0,067
-340,591	22,857	0,055	0,032
-339,577	134,861	-0,106	-0,100
-338,562	637,842	-0,048	-0,089
-337,548	500,238	0,026	-0,044
-336,533	-13,973	0,008	-0,004
-335,518	-200,000	0,012	-0,107
-334,504	-44,459	0,076	-0,027
-333,489	-13,217	0,007	-0,003
-332,475	-200,000	-0,023	0,151
-331,460	-92,437	0,122	0,025
-330,445	42,048	-0,044	0,029
-329,431	-116,843	0,185	-0,024
-328,416	717,766	0,027	0,053
-327,402	48,736	0,118	-0,080
-326,387	800,000	-0,039	0,079
-325,372	194,276	-0,049	0,054
-324,358	119,036	-0,060	-0,054
-323,343	-21,215	-0,062	0,028
-322,329	-130,079	0,038	-0,004
-321,314	-138,856	0,103	-0,008
-320,299	-200,000	0,022	0,165
-319,285	-200,000	0,037	0,147
-318,270	800,000	0,041	0,089
-317,256	283,326	-0,065	-0,084
-316,241	-80,389	0,051	-0,012
-315,226	445,862	0,032	-0,051
-314,212	63,742	-0,117	-0,085
-313,197	76,745	0,074	0,057
-312,183	-122,613	-0,048	0,006
-311,168	-82,496	-0,122	0,028
-310,153	-200,000	-0,004	0,131
-309,139	-137,359	0,130	-0,011
-308,124	517,184	0,013	0,022
-307,110	91,494	-0,018	-0,015
-306,095	57,460	-0,004	-0,002
-305,080	-200,000	0,000	0,069
-304,066	110,152	-0,048	-0,041
-303,051	266,222	-0,020	-0,026
-302,037	146,245	0,061	0,059
-301,022	-200,000	0,015	0,052
-300,008	276,144	0,029	0,037
-298,993	557,760	0,028	-0,050
-297,978	800,000	-0,046	-0,123
-296,964	-200,000	-0,025	0,104
-295,949	-105,841	0,085	0,014
-294,935	-200,000	0,006	-0,165
-293,920	-200,000	-0,040	-0,159
-292,905	96,030	0,088	0,072
-291,891	800,000	0,080	0,186
-290,876	-37,325	-0,062	-0,024
-289,862	-142,708	-0,121	0,008
-288,847	-121,978	-0,081	-0,010
-287,832	172,550	-0,018	0,019
-286,818	-200,000	0,001	-0,148
-285,803	433,284	0,038	-0,060
-284,789	465,777	-0,055	-0,089
-283,774	10,264	-0,120	0,066
-282,759	-79,250	-0,056	-0,014
-281,745	-200,000	0,007	-0,052
-280,730	114,363	-0,048	0,042
-279,716	-200,000	-0,016	-0,227
-278,701	-200,000	0,035	0,138
-277,686	486,419	-0,007	0,011
-276,672	331,982	0,055	0,077
-275,657	40,745	-0,004	0,003
-274,643	-200,000	0,020	0,098
-273,628	3,612	-0,099	0,052
-272,613	-79,447	0,021	-0,005
-271,599	-108,015	0,079	-0,012
-270,584	-200,000	-0,000	0,028
-269,570	-16,596	0,071	-0,032
-268,555	165,076	-0,117	-0,120
-267,540	99,331	0,093	-0,078
-266,526	-18,584	0,117	-0,052
-265,511	-200,000	0,010	0,117
-264,497	189,788	0,033	-0,036
-263,482	-109,155	0,065	0,010
-262,467	-200,000	-0,016	0,094
-261,453	-200,000	0,003	0,052
-260,438	282,367	-0,021	0,027
-259,424	195,742	0,023	-0,026
-258,409	89,056	-0,021	-0,017
-257,395	71,847	0,039	0,029
-256,380	-89,121	0,063	-0,013
-255,365	800,000	-0,010	-0,030
-254,351	45,290	-0,116	0,077
-253,336	-95,708	-0,141	0,027
-252,322	-41,095	-0,150	-0,056
-251,307	-31,433	-0,111	-0,045
-250,292	-60,772	-0,060	0,018
-249,278	-38,779	-0,078	-0,030
-248,263	45,648	0,026	0,017
-247,249	-115,046	-0,103	0,014
-246,234	197,624	-0,042	0,046
-245,219	800,000	0,010	-0,025
-244,205	-200,000	-0,027	-0,099
-243,190	-77,257	-0,137	-0,034
-242,176	800,000	0,017	0,053
-241,161	-169,029	0,017	-0,000
-240,146	-50,654	-0,077	0,026
-239,132	800,000	-0,007	-0,022
-238,117	-200,000	-0,009	0,036
-237,103	-200,000	0,006	0,111
-236,088	546,409	0,043	-0,075
-235,073	800,000	0,055	0,122
-234,059	21,979	0,159	0,093
-233,044	-200,000	-0,008	0,042
-232,030	-200,000	0,016	-0,125
-231,015	-200,000	-0,001	-0,025
-230,000	-95,008	-0,019	0,004
-228,986	557,612	-0,049	0,086
-227,971	2,121	0,049	0,026
-226,957	-151,017	-0,081	-0,004
-225,942	800,000	-0,086	-0,175
-224,927	81,834	-0,054	-0,042
-223,913	166,898	-0,069	-0,071
-222,898	224,673	0,020	0,024
-221,884	220,685	0,110	-0,127
-220,869	-11,090	-0,041	-0,020
-219,855	-200,000	-0,002	0,031
-218,840	123,159	0,095	0,086
-217,825	-53,253	0,097	-0,032
-216,811	-200,000	0,007	-0,026
-215,796	-15,258	-0,086	-0,039
-214,782	321,560	0,030	0,042
-213,767	791,466	-0,045	0,089
-212,752	-200,000	-0,000	-0,015
-211,738	4,536	-0,047	0,025
-210,723	800,000	-0,025	0,069
-209,709	92,974	0,046	-0,037
-208,694	142,524	0,033	0,031
-207,679	11,795	0,074	0,041
-206,665	-200,000	0,015	-0,064
-205,650	-37,520	0,073	0,028
-204,636	164,614	-0,129	0,131
-203,621	116,210	-0,083	-0,073
-202,606	800,000	-0,061	0,162
-201,592	274,910	-0,057	0,074
-200,577	293,490	0,026	0,034
-199,563	106,069	-0,023	-0,020
-198,548	-50,211	0,018	-0,006
-197,533	-14,081	-0,076	0,035
-196,519	122,464	0,044	0,040
-195,504	-166,235	-0,129	0,004
-194,490	-56,542	-0,026	0,008
-193,475	206,329	-0,071	-0,080
-192,460	125,712	0,122	0,111
-191,446	-111,813	0,070	-0,010
-190,431	800,000	0,057	0,114
-189,417	502,400	-0,023	-0,038
-188,402	-85,186	-0,065	-0,014
-187,387	18,171	-0,087	-0,050
-186,373	-78,301	0,104	0,025
-185,358	-155,657	-0,047	0,002
-184,344	-108,854	0,113	-0,017
-183,329	666,981	0,031	0,057
-182,315	-30,580	0,039	0,016
-181,300	-200,000	0,021	0,116
-180,285	-153,685	0,056	-0,003
-179,271	205,389	0,040	-0,045
-178,256	-200,000	-0,012	-0,065
-177,242	784,779	0,026	-0,052
-176,227	800,000	0,047	0,120
-175,212	-200,000	-0,004	0,100
-174,198	-134,471	0,070	-0,006
-173,183	-121,638	-0,056	-0,007
-172,169	390,175	-0,059	-0,089
-171,154	406,231	0,035	-0,053
-170,139	800,000	0,035	0,100
-169,125	2,511	-0,050	-0,026
-168,110	-136,735	0,107	0,009
-167,096	-200,000	-0,006	-0,105
-166,081	-80,626	-0,124	0,029
-165,066	-25,718	-0,158	0,067
-164,052	-56,277	0,117	-0,037
-163,037	260,700	0,026	-0,033
-162,023	24,778	0,120	0,072
-161,008	-10,297	-0,066	-0,032
-159,993	140,184	0,044	-0,042
-158,979	800,000	0,035	0,094
-157,964	398,502	-0,042	0,063
-156,950	-78,585	0,118	0,029
-155,935	-126,441	0,147	0,016
-154,920	-155,224	-0,226	0,010
-153,906	-195,693	-0,083	0,000
-152,891	-15,473	-0,024	0,011
-151,877	-106,702	-0,099	0,016
-150,862	84,994	-0,026	-0,020
-149,847	33,473	-0,069	-0,043
-148,833	1,339	-0,117	0,060
-147,818	366,322	0,104	0,151
-146,804	800,000	0,038	0,110
-145,789	464,891	-0,076	0,122
-144,775	-174,522	-0,072	-0,001
-143,760	-200,000	-0,001	-0,094
-142,745	-144,072	-0,086	0,006
-141,731	-51,025	-0,052	-0,018
-140,716	-104,052	-0,104	-0,017
-139,702	-83,247	-0,176	0,040
-138,687	-200,000	0,014	0,180
-137,672	210,259	-0,024	-0,027
-136,658	-114,897	-0,141	0,019
-135,643	73,478	0,077	0,058
-134,629	7,673	-0,024	0,013
-133,614	7,183	0,055	-0,029
-132,599	-94,678	0,165	0,032
-131,585	355,409	-0,034	-0,048
-130,570	-121,937	-0,112	-0,013
-129,556	800,000	-0,010	0,021
-128,541	210,995	-0,084	-0,095
-127,526	-200,000	0,013	0,060
-126,512	-200,000	-0,001	-0,129
-125,497	114,833	0,080	0,070
-124,483	85,419	0,059	-0,046
-123,468	238,466	-0,036	0,043
-122,453	383,949	-0,088	-0,131
-121,439	800,000	-0,024	-0,058
-120,424	-75,502	-0,056	-0,014
-119,410	-200,000	0,006	0,032
