DTS Sentinel unit serial number:	SN410029Multiplexer serial number:	ORYXHardware model number:	OX2-SRSoftware version number:	ORYX F/W v4,00 Oryx Data Collector v3.7.2.0data status	okinstallation	B5 Nyhavnadifferential loss correction	single-endedforward channel	channel 2reverse channel	N/Adate	2023/12/13time	15:27:13forward acquisition time	300,00reverse acquisition time	0,00gamma	499,1914k internal	0,3160k external	0,3160temperature offset calibration	1,0000default loss term (dB/km)	0,3820temperature slope calibration	1,0000multiplexer offset coefficient	1,0000multiplexer slope coefficient	1,0000fibre end	0,00T internal ref (°C)	14,97T ext. ref 1 (°C)	-1,43T ext. ref 2 (°C)	-1,73length (m)	temperature (°C)	Stokes	anti-Stokes-744,400	-100,155	0,022	-0,004
-743,385	-69,002	-0,312	0,088
-742,371	-46,003	0,174	0,063
-741,356	-22,883	-0,215	0,095
-740,342	-1,015	0,172	0,089
-739,327	-56,774	-0,270	0,087
-738,312	-200,000	0,004	-0,115
-737,298	-76,170	-0,256	-0,066
-736,283	150,925	0,114	0,114
-735,269	13,706	-0,183	0,105
-734,254	-200,000	-0,000	0,019
-733,239	-63,290	-0,398	-0,120
-732,225	-53,308	0,243	0,082
-731,210	455,560	0,032	-0,052
-730,196	327,557	-0,021	-0,029
-729,181	104,793	-0,046	-0,040
-728,167	-200,000	-0,060	-0,256
-727,152	124,003	0,056	-0,052
-726,137	-200,000	-0,005	0,078
-725,123	49,386	-0,064	-0,045
-724,108	-145,008	-0,108	0,007
-723,094	627,718	-0,049	-0,091
-722,079	-200,000	-0,002	-0,114
-721,064	80,255	-0,095	-0,075
-720,050	37,131	-0,109	-0,071
-719,035	2,158	0,140	-0,074
-718,021	-116,486	-0,078	-0,010
-717,006	-48,530	-0,010	-0,004
-715,991	439,692	-0,058	0,094
-714,977	-200,000	-0,002	0,057
-713,962	-4,826	-0,056	-0,028
-712,948	-81,763	-0,138	-0,033
-711,933	-200,000	0,025	-0,141
-710,918	-24,533	-0,056	-0,025
-709,904	-42,574	-0,151	0,056
-708,889	800,000	-0,045	-0,103
-707,875	-200,000	0,005	-0,093
-706,860	-200,000	0,035	-0,162
-705,845	-62,579	-0,154	0,047
-704,831	174,540	0,085	-0,090
-703,816	-200,000	0,003	0,031
-702,802	-85,678	-0,101	-0,023
-701,787	95,843	-0,083	-0,070
-700,772	388,417	-0,031	-0,047
-699,758	21,114	0,114	0,068
-698,743	584,101	-0,017	0,032
-697,729	7,444	0,038	-0,021
-696,714	242,722	0,033	0,040
-695,699	324,353	0,055	-0,078
-694,685	7,421	-0,013	0,007
-693,670	6,670	-0,095	-0,052
-692,656	71,954	-0,123	-0,094
-691,641	-200,000	0,021	0,100
-690,627	322,829	0,066	-0,092
-689,612	-51,723	-0,064	-0,022
-688,597	165,423	0,097	0,101
-687,583	-145,604	0,065	0,004
-686,568	-200,000	0,011	-0,100
-685,554	-200,000	0,014	-0,048
-684,539	183,251	-0,144	0,156
-683,524	-200,000	-0,013	0,102
-682,510	-147,675	-0,125	-0,008
-681,495	-154,376	-0,071	0,003
-680,481	346,254	-0,018	-0,026
-679,466	-200,000	0,013	0,050
-678,451	-200,000	-0,018	0,064
-677,437	493,960	0,055	0,094
-676,422	-16,776	-0,155	0,072
-675,408	-200,000	0,009	-0,073
-674,393	-200,000	0,012	0,086
-673,378	-200,000	0,006	-0,053
-672,364	-61,219	-0,093	0,029
-671,349	654,797	0,047	-0,089
-670,335	-43,791	0,053	-0,020
-669,320	209,767	0,076	0,088
-668,305	503,986	0,040	-0,069
-667,291	-117,273	-0,003	-0,000
-666,276	90,175	-0,049	0,040
-665,262	-46,638	-0,137	-0,049
-664,247	-200,000	-0,032	-0,128
-663,232	124,084	-0,021	-0,020
-662,218	91,621	0,069	0,057
-661,203	-33,994	0,092	0,037
-660,189	281,515	-0,039	0,052
-659,174	-200,000	-0,009	-0,098
-658,159	-198,551	-0,130	0,001
-657,145	38,905	-0,116	0,076
-656,130	-200,000	-0,002	0,243
-655,116	101,792	0,070	-0,060
-654,101	-86,032	0,010	-0,002
-653,086	-84,024	0,138	-0,032
-652,072	14,941	0,066	-0,038
-651,057	-200,000	-0,042	-0,195
-650,043	800,000	0,062	0,140
-649,028	-171,115	-0,093	0,002
-648,014	-13,377	0,093	0,044
-646,999	-200,000	-0,007	0,064
-645,984	-91,667	-0,096	0,020
-644,970	715,289	0,034	-0,066
-643,955	171,861	-0,051	-0,054
-642,941	-131,411	-0,116	0,011
-641,926	800,000	-0,079	0,162
-640,911	114,735	0,107	-0,096
-639,897	-21,559	0,050	-0,022
-638,882	319,352	-0,044	0,061
-637,868	-200,000	-0,012	-0,047
-636,853	-200,000	0,004	-0,025
-635,838	800,000	0,018	-0,054
-634,824	562,160	-0,042	0,074
-633,809	-80,604	-0,175	-0,042
-632,795	551,284	0,022	0,039
-631,780	124,247	0,071	0,066
-630,765	-106,471	-0,069	-0,011
-629,751	-131,455	-0,126	-0,012
-628,736	129,420	-0,102	-0,095
-627,722	325,859	0,064	-0,090
-626,707	307,818	0,082	0,112
-625,692	-200,000	0,003	-0,094
-624,678	-200,000	0,000	0,006
-623,663	-19,925	0,040	0,018
-622,649	56,846	-0,081	-0,058
-621,634	800,000	-0,032	0,076
-620,619	-50,702	0,073	0,025
-619,605	-200,000	0,019	-0,083
-618,590	40,501	0,122	0,080
-617,576	722,746	0,089	0,174
-616,561	-101,070	-0,104	-0,019
-615,546	800,000	-0,035	0,076
-614,532	-200,000	-0,015	0,089
-613,517	-48,496	0,013	-0,005
-612,503	344,735	-0,051	0,073
-611,488	-200,000	0,010	0,040
-610,474	434,521	-0,037	-0,060
-609,459	780,485	-0,030	-0,061
-608,444	-9,061	0,028	0,014
-607,430	-200,000	-0,003	-0,044
-606,415	-98,621	-0,202	-0,037
-605,401	-0,814	0,008	0,004
-604,386	800,000	-0,029	-0,061
-603,371	-103,053	-0,106	-0,018
-602,357	800,000	-0,037	0,105
-601,342	-200,000	0,002	-0,011
-600,328	-200,000	0,009	-0,058
-599,313	-200,000	-0,018	0,113
-598,298	-200,000	-0,009	0,081
-597,284	33,086	0,025	0,016
-596,269	353,285	-0,028	0,040
-595,255	104,344	-0,059	-0,050
-594,240	-200,000	0,022	0,094
-593,225	-113,416	-0,273	-0,039
-592,211	800,000	0,011	-0,035
-591,196	-200,000	-0,022	-0,085
-590,182	-3,247	0,036	-0,018
-589,167	176,707	-0,098	-0,105
-588,152	723,552	-0,067	0,131
-587,138	800,000	-0,028	0,081
-586,123	-25,060	-0,136	-0,059
-585,109	-143,345	0,069	-0,005
-584,094	-200,000	0,022	-0,114
-583,079	800,000	0,024	-0,056
-582,065	-59,635	-0,120	0,037
-581,050	1,293	0,155	0,081
-580,036	800,000	-0,033	0,067
-579,021	800,000	-0,030	-0,069
-578,006	78,963	-0,117	-0,092
-576,992	-200,000	0,003	-0,083
-575,977	800,000	-0,031	0,072
-574,963	317,672	0,036	-0,049
-573,948	68,284	-0,075	0,056
-572,934	408,868	-0,068	-0,106
-571,919	473,096	0,007	0,012
-570,904	800,000	-0,021	-0,055
-569,890	-115,155	0,007	0,001
-568,875	301,248	-0,036	-0,049
-567,861	800,000	0,038	0,079
-566,846	-112,365	0,092	0,013
-565,831	-80,856	-0,038	-0,009
-564,817	-124,363	-0,032	-0,004
-563,802	-144,849	-0,082	0,005
-562,788	-200,000	-0,004	0,076
-561,773	38,025	0,045	0,029
-560,758	92,887	0,113	0,093
-559,744	-200,000	0,007	-0,040
-558,729	-99,039	-0,195	0,036
-557,715	-200,000	-0,024	-0,145
-556,700	183,156	0,035	-0,037
-555,685	138,855	0,029	-0,028
-554,671	800,000	-0,018	-0,045
-553,656	1,007	-0,043	0,023
-552,642	-200,000	0,022	0,111
-551,627	-134,268	-0,031	-0,003
-550,612	800,000	-0,013	-0,040
-549,598	-67,917	0,058	-0,016
-548,583	308,418	-0,051	0,070
-547,569	266,920	0,036	-0,046
-546,554	-200,000	0,037	0,165
-545,539	239,581	-0,055	-0,067
-544,525	800,000	0,023	0,067
-543,510	-200,000	0,002	0,011
-542,496	-200,000	0,010	0,086
-541,481	-200,000	-0,008	-0,110
-540,466	800,000	0,010	-0,021
-539,452	-78,827	0,118	-0,029
-538,437	121,495	0,097	-0,088
-537,423	-95,421	0,068	0,013
-536,408	800,000	-0,021	0,044
-535,393	-200,000	0,002	0,075
-534,379	-108,295	-0,067	-0,010
-533,364	539,754	-0,010	-0,018
-532,350	-200,000	0,005	-0,045
-531,335	123,162	0,052	0,048
-530,321	-61,258	0,073	-0,022
-529,306	-200,000	0,007	-0,067
-528,291	-200,000	-0,000	-0,018
-527,277	-200,000	0,003	0,073
-526,262	40,992	-0,032	0,021
-525,248	24,059	-0,078	0,047
-524,233	-85,469	0,104	0,023
-523,218	-117,415	0,087	0,011
-522,204	-200,000	0,011	-0,155
-521,189	-48,001	0,100	0,035
-520,175	-116,684	-0,061	0,008
-519,160	-200,000	-0,041	-0,171
-518,145	-200,000	-0,003	0,024
-517,131	30,294	-0,037	0,023
-516,116	800,000	-0,031	0,066
-515,102	-200,000	0,009	0,049
-514,087	-84,903	0,066	-0,015
-513,072	800,000	0,026	0,066
-512,058	-200,000	0,001	0,031
-511,043	156,149	0,088	0,089
-510,029	800,000	-0,013	-0,027
-509,014	682,612	-0,021	0,040
-507,999	84,746	-0,047	-0,037
-506,985	-69,288	-0,051	0,014
-505,970	110,973	-0,046	0,041
-504,956	87,882	0,105	0,085
-503,941	-200,000	0,023	0,082
-502,926	-26,946	0,146	0,062
-501,912	-62,120	0,098	0,030
-500,897	129,686	0,069	0,064
-499,883	-200,000	0,017	-0,074
-498,868	-168,088	0,158	0,004
-497,853	-200,000	-0,027	-0,099
-496,839	-140,997	-0,170	-0,013
-495,824	39,426	-0,084	0,055
-494,810	51,833	0,095	0,066
-493,795	800,000	0,047	0,104
-492,781	130,802	-0,115	-0,108
-491,766	-81,096	-0,127	0,030
-490,751	-60,042	0,017	-0,005
-489,737	200,019	-0,039	0,044
-488,722	-98,995	-0,057	0,010
-487,708	-200,000	-0,004	0,033
-486,693	-176,577	-0,036	-0,001
-485,678	-5,532	-0,068	-0,034
-484,664	45,937	-0,172	-0,116
-483,649	172,210	-0,122	-0,128
-482,635	800,000	0,013	-0,033
-481,620	97,086	0,153	-0,128
-480,605	-80,476	0,056	-0,014
-479,591	-110,304	0,036	0,005
-478,576	55,343	-0,131	-0,092
-477,562	49,948	-0,082	-0,056
-476,547	22,469	0,056	0,033
-475,532	160,033	0,069	0,071
-474,518	-39,919	0,076	0,029
-473,503	127,557	-0,066	0,061
-472,489	608,199	-0,094	0,171
-471,474	-22,143	-0,066	-0,029
-470,459	-200,000	0,008	0,085
-469,445	-149,700	0,046	-0,003
-468,430	486,251	-0,074	-0,123
-467,416	800,000	0,019	-0,047
-466,401	-200,000	0,019	-0,100
-465,386	56,828	0,131	0,093
-464,372	-200,000	0,004	0,091
-463,357	336,357	-0,060	0,085
-462,343	44,042	0,067	-0,045
-461,328	800,000	0,042	0,106
-460,313	-63,381	0,100	0,030
-459,299	-10,135	0,064	0,031
-458,284	-101,685	0,062	0,011
-457,270	-35,912	-0,071	-0,028
-456,255	800,000	-0,014	-0,030
-455,241	315,364	-0,041	0,057
-454,226	255,363	-0,049	-0,061
-453,211	-200,000	-0,001	0,066
-452,197	-53,100	0,069	-0,023
-451,182	152,391	-0,018	-0,018
-450,168	38,028	0,058	0,038
-449,153	90,619	-0,043	0,035
-448,138	-46,649	0,169	0,060
-447,124	800,000	0,010	0,026
-446,109	-18,857	0,057	0,026
-445,095	204,088	0,064	-0,073
-444,080	285,002	0,051	-0,068
-443,065	-200,000	0,002	0,051
-442,051	124,718	0,083	0,076
-441,036	-134,994	0,147	-0,013
-440,022	84,281	0,047	0,037
-439,007	-22,712	-0,122	-0,053
-437,992	800,000	0,026	0,082
-436,978	-200,000	-0,019	0,114
-435,963	236,262	0,054	0,065
-434,949	-187,989	-0,093	0,001
-433,934	86,693	-0,036	0,029
-432,919	-94,245	-0,124	-0,024
-431,905	-200,000	0,019	-0,064
-430,890	11,230	-0,030	0,017
-429,876	-31,523	-0,027	-0,011
-428,861	300,404	0,013	-0,017
-427,846	635,410	0,015	0,028
-426,832	347,840	0,071	0,102
-425,817	-77,537	-0,082	-0,020
-424,803	186,147	0,067	-0,073
-423,788	-71,163	0,038	0,010
-422,773	700,598	-0,040	0,077
-421,759	-200,000	0,002	0,059
-420,744	-69,178	0,091	0,025
-419,730	149,877	-0,036	-0,035
-418,715	-200,000	0,018	-0,067
-417,701	-181,873	-0,081	-0,001
-416,686	94,961	0,072	-0,060
-415,671	120,251	0,073	0,066
-414,657	302,532	-0,022	0,029
-413,642	-33,587	0,126	0,050
-412,628	-6,478	-0,203	-0,100
-411,613	800,000	0,020	-0,055
-410,598	83,899	0,059	-0,047
-409,584	107,219	-0,068	-0,059
-408,569	153,809	-0,006	0,006
-407,555	-65,712	0,134	-0,039
-406,540	-77,982	-0,094	-0,023
-405,525	-9,553	-0,070	0,034
-404,511	48,624	-0,061	-0,042
-403,496	800,000	-0,080	-0,170
-402,482	281,380	-0,074	0,096
-401,467	414,098	0,085	0,133
-400,452	-60,755	0,049	0,015
-399,438	-200,000	0,041	0,141
-398,423	-91,324	0,139	0,029
-397,409	98,061	-0,041	0,035
-396,394	47,495	-0,046	-0,031
-395,379	271,749	-0,057	-0,073
-394,365	800,000	0,025	-0,064
-393,350	522,287	0,049	0,083
-392,336	-200,000	0,019	0,136
-391,321	65,557	-0,116	-0,085
-390,306	189,032	-0,086	0,093
-389,292	-132,400	-0,020	-0,002
-388,277	106,492	0,102	-0,088
-387,263	107,796	0,022	0,019
-386,248	-62,311	0,213	0,064
-385,233	410,305	0,045	0,070
-384,219	19,063	0,016	0,009
-383,204	-75,840	-0,104	-0,026
-382,190	-86,990	0,119	0,026
-381,175	800,000	0,006	-0,020
-380,160	129,557	0,088	0,082
-379,146	-200,000	0,024	0,103
-378,131	102,568	-0,037	-0,032
-377,117	-200,000	-0,036	-0,157
-376,102	40,322	-0,134	-0,087
-375,088	-82,587	-0,092	-0,021
-374,073	-200,000	-0,009	0,179
-373,058	800,000	-0,026	-0,063
-372,044	458,939	0,050	-0,080
-371,029	99,550	0,055	0,046
-370,015	800,000	-0,029	0,078
-369,000	-3,814	-0,204	-0,103
-367,985	-36,718	-0,129	0,050
-366,971	-200,000	0,032	0,130
-365,956	110,420	0,064	-0,056
-364,942	147,975	0,025	0,024
-363,927	-85,751	0,036	-0,008
-362,912	-200,000	-0,004	0,016
-361,898	402,964	0,052	0,080
-360,883	800,000	-0,049	-0,099
-359,869	55,381	0,142	0,100
-358,854	-200,000	-0,019	0,118
-357,839	14,292	0,085	0,048
-356,825	-200,000	0,023	-0,080
-355,810	226,190	0,016	-0,019
-354,796	14,957	0,085	-0,048
-353,781	440,331	-0,025	0,039
-352,766	11,381	-0,014	0,008
-351,752	310,670	0,034	-0,046
-350,737	187,194	0,076	0,082
-349,723	12,956	0,082	-0,046
-348,708	800,000	-0,031	-0,088
-347,693	-200,000	0,007	-0,072
-346,679	-74,782	-0,031	0,008
-345,664	-21,823	0,043	-0,019
-344,650	800,000	-0,025	0,058
-343,635	154,063	0,051	0,051
-342,620	-8,679	0,028	0,014
-341,606	-48,674	-0,067	0,023
-340,591	15,816	-0,065	-0,037
-339,577	-148,053	-0,108	-0,006
-338,562	23,293	0,042	-0,025
-337,548	416,866	-0,035	0,055
-336,533	7,533	-0,040	0,022
-335,518	-200,000	0,018	-0,063
-334,504	-116,667	0,089	-0,012
-333,489	-122,030	0,092	-0,011
-332,475	-200,000	0,029	-0,119
-331,460	-200,000	0,009	-0,073
-330,445	-105,923	0,126	0,020
-329,431	355,167	0,039	0,057
-328,416	40,479	-0,041	0,027
-327,402	-135,729	-0,019	-0,002
-326,387	-200,000	-0,039	-0,135
-325,372	-3,418	-0,127	0,064
-324,358	-61,822	-0,102	-0,031
-323,343	-109,623	0,141	0,021
-322,329	165,791	-0,101	0,103
-321,314	84,925	0,058	0,046
-320,299	193,818	0,088	0,097
-319,285	-200,000	0,016	-0,111
-318,270	-200,000	-0,001	-0,086
-317,256	429,442	0,023	-0,036
-316,241	-200,000	0,004	-0,016
-315,226	-62,837	-0,088	0,026
-314,212	-200,000	-0,032	0,144
-313,197	19,696	0,109	-0,063
-312,183	800,000	-0,085	-0,213
-311,168	800,000	0,075	-0,188
-310,153	-83,250	0,034	-0,008
-309,139	238,773	-0,059	-0,071
-308,124	-171,501	0,166	-0,004
-307,110	90,090	0,060	0,048
-306,095	9,718	0,210	0,115
-305,080	154,355	-0,085	0,085
-304,066	13,894	-0,094	0,053
-303,051	800,000	0,021	-0,059
-302,037	-80,931	0,062	0,015
-301,022	123,296	0,064	-0,058
-300,008	800,000	-0,030	-0,077
-298,993	190,795	0,077	0,083
-297,978	416,114	0,084	-0,130
-296,964	203,784	-0,026	0,030
-295,949	576,566	-0,085	-0,152
-294,935	-200,000	0,003	-0,175
-293,920	-200,000	0,022	-0,096
-292,905	-200,000	-0,000	-0,044
-291,891	90,597	0,055	0,045
-290,876	-200,000	0,015	0,114
-289,862	-43,920	-0,096	-0,035
-288,847	161,624	0,085	0,086
-287,832	800,000	0,018	-0,046
-286,818	348,845	-0,100	0,144
-285,803	-99,371	0,103	0,019
-284,789	800,000	0,010	0,023
-283,774	240,938	0,015	0,018
-282,759	-200,000	0,009	0,030
-281,745	-31,818	0,125	-0,050
-280,730	18,296	-0,179	-0,103
-279,716	565,484	-0,034	-0,060
-278,701	-136,310	0,117	0,010
-277,686	-91,195	0,063	-0,013
-276,672	137,205	0,072	-0,068
-275,657	573,336	0,034	0,060
-274,643	153,580	0,049	-0,048
-273,628	198,640	0,096	0,106
-272,613	786,314	0,037	0,074
-271,599	-200,000	0,006	0,042
-270,584	170,754	0,044	-0,046
-269,570	800,000	-0,006	-0,012
-268,555	-69,250	-0,094	-0,026
-267,540	183,451	-0,081	0,086
-266,526	-74,953	0,020	0,005
-265,511	234,342	-0,078	-0,093
-264,497	278,729	0,115	-0,149
-263,482	222,273	-0,080	0,094
-262,467	-136,201	-0,036	0,003
-261,453	-200,000	-0,027	0,178
-260,438	800,000	-0,048	-0,111
-259,424	-89,272	-0,027	-0,006
-258,409	118,220	0,025	-0,022
-257,395	-10,170	0,096	0,046
-256,380	60,039	-0,033	-0,024
-255,365	-167,201	-0,095	-0,003
-254,351	180,578	-0,071	0,075
-253,336	-77,739	-0,122	-0,030
-252,322	475,403	-0,076	-0,125
-251,307	150,779	-0,065	-0,064
-250,292	-134,663	-0,096	-0,008
-249,278	-116,579	0,161	-0,021
-248,263	-125,000	-0,150	-0,016
-247,249	-27,007	0,096	-0,041
-246,234	60,140	-0,127	-0,091
-245,219	-15,745	-0,125	-0,057
-244,205	800,000	-0,044	-0,112
-243,190	220,152	-0,097	-0,113
-242,176	-200,000	0,030	0,113
-241,161	-6,030	0,113	-0,055
-240,146	-171,210	-0,108	0,003
-239,132	800,000	0,021	0,063
-238,117	156,236	0,073	-0,072
-237,103	-137,827	-0,073	0,006
-236,088	77,928	-0,006	0,005
-235,073	-200,000	0,000	0,004
-234,059	-200,000	-0,030	0,115
-233,044	-200,000	0,010	0,064
-232,030	186,929	0,101	-0,108
-231,015	-132,448	-0,137	-0,013
-230,000	234,661	0,016	-0,019
-228,986	60,664	-0,032	0,023
-227,971	498,183	-0,055	0,092
-226,957	450,939	0,059	0,094
-225,942	-20,701	0,051	0,022
-224,927	384,401	0,013	0,020
-223,913	31,143	-0,063	-0,039
-222,898	88,299	0,053	-0,043
-221,884	-140,750	0,026	0,002
-220,869	-200,000	-0,008	-0,115
-219,855	430,411	-0,036	0,057
-218,840	800,000	0,034	0,096
-217,825	800,000	0,036	0,077
-216,811	54,436	0,021	0,015
-215,796	-10,103	-0,044	0,021
-214,782	172,066	-0,058	-0,060
-213,767	219,749	0,048	0,055
-212,752	69,459	0,063	0,047
-211,738	729,358	0,024	-0,046
-210,723	426,089	-0,026	-0,041
-209,709	800,000	0,042	-0,095
-208,694	216,222	-0,041	-0,047
-207,679	-150,718	-0,082	-0,004
-206,665	103,179	0,083	-0,071
-205,650	222,328	-0,029	0,034
-204,636	-40,453	0,017	0,006
-203,621	-95,946	0,015	0,003
-202,606	-145,491	0,066	-0,004
-201,592	11,086	0,017	-0,009
-200,577	69,345	-0,088	0,065
-199,563	0,503	0,032	-0,017
-198,548	-82,742	0,117	0,027
-197,533	-200,000	-0,006	-0,021
-196,519	-70,003	-0,058	-0,016
-195,504	432,976	-0,060	-0,095
-194,490	-1,676	-0,111	-0,056
-193,475	-7,828	0,063	0,030
-192,460	-200,000	0,050	0,165
-191,446	155,369	0,096	0,095
-190,431	248,365	-0,057	-0,070
-189,417	164,983	0,097	0,099
-188,402	-29,116	0,014	-0,006
-187,387	284,984	-0,091	-0,118
-186,373	-51,936	0,058	-0,019
-185,358	115,142	0,057	-0,051
-184,344	-87,654	0,084	-0,018
-183,329	-123,376	0,066	0,008
-182,315	-200,000	0,032	-0,171
-181,300	-36,390	-0,088	-0,034
-180,285	-88,953	-0,144	-0,031
-179,271	406,930	0,047	0,072
-178,256	-103,078	-0,036	0,006
-177,242	175,207	0,010	-0,010
-176,227	-200,000	-0,004	0,015
-175,212	-134,064	0,119	0,010
-174,198	-200,000	-0,044	-0,194
-173,183	678,754	-0,050	-0,094
-172,169	-41,091	0,107	-0,039
-171,154	356,357	0,037	-0,053
-170,139	-200,000	-0,004	0,058
-169,125	800,000	0,022	0,052
-168,110	78,370	0,040	0,031
-167,096	156,209	-0,022	0,022
-166,081	781,318	0,024	0,048
-165,066	272,988	-0,030	-0,038
-164,052	-66,365	-0,122	0,035
-163,037	194,789	0,039	0,042
-162,023	198,919	0,112	0,124
-161,008	-52,610	0,073	0,024
-159,993	-41,223	-0,011	0,004
-158,979	172,119	-0,065	0,067
-157,964	743,887	-0,040	-0,077
-156,950	251,386	-0,050	0,061
-155,935	159,362	0,071	-0,071
-154,920	-200,000	0,025	-0,101
-153,906	-200,000	0,022	-0,072
-152,891	800,000	-0,029	-0,071
-151,877	24,954	-0,050	0,030
-150,862	800,000	-0,015	0,045
-149,847	120,760	0,070	-0,063
-148,833	-85,308	-0,063	-0,014
-147,818	-120,647	0,119	0,014
-146,804	-72,336	0,099	-0,026
-145,789	330,503	-0,019	0,026
-144,775	-200,000	-0,035	-0,141
-143,760	-200,000	-0,003	-0,031
-142,745	-200,000	0,036	-0,155
-141,731	404,055	0,039	-0,059
-140,716	73,997	0,086	-0,065
-139,702	-200,000	0,014	0,077
-138,687	641,759	-0,038	0,070
-137,672	-200,000	-0,035	-0,119
-136,658	-19,419	-0,152	-0,067
-135,643	-200,000	-0,015	0,140
-134,629	273,133	-0,027	-0,034
-133,614	498,379	0,064	-0,107
-132,599	800,000	-0,034	0,105
-131,585	-200,000	0,007	0,128
-130,570	280,039	0,056	0,072
-129,556	202,537	0,038	-0,042
-128,541	800,000	0,052	-0,135
-127,526	-124,539	-0,121	-0,013
-126,512	58,512	-0,127	-0,089
-125,497	189,697	0,076	0,082
-124,483	410,707	0,026	0,040
-123,468	-160,319	0,148	-0,006
-122,453	-200,000	0,004	0,082
-121,439	-104,697	0,031	-0,005
-120,424	228,510	-0,059	-0,069
-119,410	-200,000	0,008	-0,026
-118,395	-200,000	-0,021	0,072
