DTS Sentinel unit serial number:	SN410029Multiplexer serial number:	ORYXHardware model number:	OX2-SRSoftware version number:	ORYX F/W v4,00 Oryx Data Collector v3.7.2.0data status	okinstallation	B5 Nyhavnadifferential loss correction	single-endedforward channel	channel 2reverse channel	N/Adate	2023/12/11time	14:52:13forward acquisition time	300,00reverse acquisition time	0,00gamma	499,1914k internal	0,3167k external	0,3167temperature offset calibration	1,0000default loss term (dB/km)	0,3820temperature slope calibration	1,0000multiplexer offset coefficient	1,0000multiplexer slope coefficient	1,0000fibre end	0,00T internal ref (°C)	12,91T ext. ref 1 (°C)	-1,88T ext. ref 2 (°C)	-1,87length (m)	temperature (°C)	Stokes	anti-Stokes-744,400	323,369	0,098	0,137
-743,385	-39,474	-0,208	-0,080
-742,371	-30,490	0,150	-0,062
-741,356	-25,209	-0,314	0,136
-740,342	-200,000	0,036	0,127
-739,327	-98,508	-0,243	0,045
-738,312	-100,014	0,149	0,027
-737,298	-48,642	-0,265	-0,093
-736,283	-105,164	0,142	0,024
-735,269	-166,434	-0,381	0,012
-734,254	-23,282	0,176	0,077
-733,239	20,240	-0,422	-0,250
-732,225	-57,590	0,168	0,054
-731,210	142,552	0,060	-0,059
-730,196	-200,000	0,011	-0,077
-729,181	33,108	-0,067	-0,042
-728,167	-200,000	0,007	0,151
-727,152	-200,000	0,002	-0,020
-726,137	-2,661	-0,157	-0,080
-725,123	586,796	-0,059	-0,107
-724,108	-107,556	-0,074	0,012
-723,094	171,673	-0,101	-0,106
-722,079	104,032	-0,050	-0,043
-721,064	278,669	-0,040	-0,053
-720,050	-72,976	-0,070	0,019
-719,035	-76,255	-0,130	-0,033
-718,021	-57,507	-0,069	0,022
-717,006	800,000	-0,035	-0,098
-715,991	800,000	-0,058	-0,138
-714,977	161,144	0,039	-0,040
-713,962	-200,000	0,015	-0,074
-712,948	-200,000	-0,013	0,050
-711,933	93,634	-0,060	-0,050
-710,918	45,530	-0,083	-0,056
-709,904	-77,709	-0,029	-0,007
-708,889	743,940	-0,044	-0,086
-707,875	252,334	-0,013	0,017
-706,860	-200,000	0,006	-0,120
-705,845	323,093	0,050	-0,071
-704,831	-119,733	-0,080	0,010
-703,816	33,003	-0,054	0,035
-702,802	-200,000	0,011	0,051
-701,787	102,087	-0,082	-0,070
-700,772	-200,000	-0,057	-0,217
-699,758	-135,991	-0,177	-0,015
-698,743	-200,000	0,013	0,067
-697,729	-167,688	0,065	0,002
-696,714	220,717	-0,111	-0,131
-695,699	-1,393	-0,070	0,036
-694,685	164,393	-0,104	-0,108
-693,670	-121,198	-0,061	-0,007
-692,656	-50,812	-0,178	0,061
-691,641	-200,000	-0,018	0,071
-690,627	800,000	0,056	0,142
-689,612	-200,000	-0,007	0,086
-688,597	-200,000	0,009	0,048
-687,583	-12,017	-0,044	-0,021
-686,568	-200,000	0,018	-0,088
-685,554	-200,000	-0,002	0,028
-684,539	-21,416	0,114	0,051
-683,524	-200,000	-0,010	0,068
-682,510	733,927	0,031	-0,060
-681,495	13,213	-0,112	-0,063
-680,481	-108,899	-0,207	-0,032
-679,466	-187,218	-0,081	0,001
-678,451	726,614	-0,038	0,074
-677,437	-78,590	0,051	0,013
-676,422	140,020	-0,036	-0,035
-675,408	-102,229	-0,047	-0,008
-674,393	-16,396	-0,036	-0,017
-673,378	4,794	0,018	0,010
-672,364	53,103	-0,075	0,052
-671,349	800,000	-0,026	-0,079
-670,335	-200,000	0,034	-0,130
-669,320	3,141	0,059	-0,031
-668,305	-177,264	-0,101	0,002
-667,291	-132,521	0,163	-0,015
-666,276	351,411	-0,057	-0,083
-665,262	800,000	-0,035	-0,090
-664,247	-200,000	0,015	-0,124
-663,232	-200,000	0,018	0,059
-662,218	-88,264	0,076	0,016
-661,203	-145,321	0,036	-0,002
-660,189	28,945	-0,085	-0,053
-659,174	-200,000	0,019	-0,070
-658,159	800,000	-0,020	-0,042
-657,145	790,277	-0,063	-0,127
-656,130	-42,264	0,141	0,052
-655,116	317,923	0,028	0,039
-654,101	-33,609	0,074	0,030
-653,086	800,000	-0,035	0,089
-652,072	-200,000	0,019	-0,092
-651,057	-200,000	0,012	-0,080
-650,043	494,409	0,060	-0,102
-649,028	-11,445	-0,093	0,044
-648,014	55,712	-0,111	0,079
-646,999	-113,273	-0,063	-0,009
-645,984	73,475	0,053	0,041
-644,970	-84,880	-0,015	-0,003
-643,955	89,622	-0,094	-0,077
-642,941	490,506	-0,048	-0,080
-641,926	-200,000	0,031	-0,193
-640,911	800,000	0,064	-0,152
-639,897	-153,455	-0,010	0,000
-638,882	800,000	0,028	-0,066
-637,868	-7,359	-0,104	0,052
-636,853	-96,165	-0,166	-0,032
-635,838	-200,000	-0,022	0,167
-634,824	98,512	0,040	0,034
-633,809	800,000	0,026	-0,076
-632,795	31,638	-0,088	-0,055
-631,780	16,588	-0,076	0,044
-630,765	618,103	0,072	-0,133
-629,751	152,527	-0,075	0,075
-628,736	-200,000	0,014	-0,108
-627,722	1,456	-0,137	-0,072
-626,707	-39,621	0,111	-0,042
-625,692	-200,000	-0,017	0,110
-624,678	-200,000	-0,002	0,086
-623,663	64,069	-0,058	0,043
-622,649	-80,552	0,127	0,031
-621,634	-7,119	-0,104	0,052
-620,619	215,487	0,047	0,055
-619,605	800,000	-0,012	-0,029
-618,590	-41,908	-0,078	0,029
-617,576	40,313	-0,060	0,039
-616,561	230,300	0,107	0,129
-615,546	800,000	-0,011	-0,034
-614,532	-16,103	0,070	0,032
-613,517	442,671	0,019	0,031
-612,503	800,000	0,016	-0,048
-611,488	116,660	0,036	-0,032
-610,474	-200,000	0,010	0,149
-609,459	-46,387	-0,050	0,018
-608,444	41,817	-0,156	-0,104
-607,430	-200,000	0,007	-0,028
-606,415	-4,789	0,067	-0,033
-605,401	-91,405	-0,131	-0,027
-604,386	52,151	0,140	0,097
-603,371	642,878	-0,106	0,199
-602,357	-200,000	0,056	0,190
-601,342	-56,476	-0,025	0,008
-600,328	-200,000	0,000	0,032
-599,313	-7,525	0,013	-0,006
-598,298	131,206	-0,049	0,046
-597,284	-35,408	0,094	0,037
-596,269	-200,000	-0,026	-0,099
-595,255	296,269	-0,088	-0,118
-594,240	-200,000	-0,019	-0,210
-593,225	238,838	0,015	0,019
-592,211	-200,000	-0,021	-0,100
-591,196	34,417	0,082	0,052
-590,182	800,000	0,020	-0,056
-589,167	-1,665	0,251	0,129
-588,152	-33,625	0,030	-0,012
-587,138	30,479	0,088	0,055
-586,123	234,470	-0,090	-0,108
-585,109	-56,498	0,061	0,019
-584,094	-200,000	-0,009	0,102
-583,079	-199,220	0,070	-0,000
-582,065	-200,000	-0,012	0,053
-581,050	800,000	0,022	-0,050
-580,036	238,089	0,070	-0,085
-579,021	-29,142	-0,149	-0,062
-578,006	497,406	0,036	-0,061
-576,992	-200,000	0,000	0,003
-575,977	-200,000	0,009	-0,043
-574,963	-112,825	0,222	0,032
-573,948	457,885	0,050	-0,081
-572,934	-200,000	-0,003	-0,016
-571,919	-200,000	0,029	-0,135
-570,904	-41,227	0,050	0,019
-569,890	359,309	-0,049	-0,072
-568,875	-15,055	0,072	0,034
-567,861	12,316	-0,036	0,020
-566,846	-157,348	0,103	-0,004
-565,831	595,330	0,059	-0,106
-564,817	259,429	0,057	0,072
-563,802	47,172	-0,129	-0,087
-562,788	176,269	0,091	-0,097
-561,773	-95,953	0,032	0,006
-560,758	42,388	0,115	0,077
-559,744	-162,736	0,195	0,007
-558,729	167,001	-0,027	-0,028
-557,715	800,000	-0,026	-0,064
-556,700	430,486	0,046	-0,073
-555,685	253,087	-0,031	-0,039
-554,671	-200,000	0,019	0,125
-553,656	-34,946	0,186	0,074
-552,642	-200,000	0,005	-0,089
-551,627	800,000	-0,032	-0,081
-550,612	-200,000	-0,012	-0,111
-549,598	25,483	-0,037	0,023
-548,583	-155,172	0,086	-0,004
-547,569	-200,000	-0,005	-0,025
-546,554	398,506	0,015	-0,024
-545,539	-39,257	0,072	-0,028
-544,525	-200,000	-0,059	0,237
-543,510	-156,176	0,133	-0,006
-542,496	800,000	0,038	-0,077
-541,481	23,678	-0,089	0,053
-540,466	-200,000	0,014	0,063
-539,452	-200,000	0,016	0,097
-538,437	66,412	-0,116	0,086
-537,423	-200,000	0,025	0,136
-536,408	-170,153	-0,113	-0,003
-535,393	176,952	-0,040	-0,043
-534,379	-80,719	0,152	0,037
-533,364	-37,649	-0,048	-0,018
-532,350	800,000	0,013	0,029
-531,335	-200,000	-0,018	0,080
-530,321	510,437	-0,032	0,054
-529,306	202,724	-0,036	-0,041
-528,291	182,777	0,015	0,017
-527,277	800,000	-0,071	0,160
-526,262	122,583	-0,070	-0,063
-525,248	99,448	0,110	-0,093
-524,233	87,086	-0,089	-0,072
-523,218	373,524	-0,090	0,133
-522,204	800,000	-0,024	-0,074
-521,189	-200,000	0,043	-0,198
-520,175	114,301	-0,043	-0,038
-519,160	-107,426	-0,085	0,014
-518,145	124,456	0,018	0,017
-517,131	86,063	-0,051	0,041
-516,116	800,000	-0,004	-0,010
-515,102	-200,000	0,022	-0,112
-514,087	108,742	-0,016	0,014
-513,072	-47,952	-0,061	0,021
-512,058	800,000	-0,043	-0,116
-511,043	-159,719	0,122	-0,005
-510,029	-200,000	0,012	0,062
-509,014	675,054	0,083	0,158
-507,999	89,465	-0,072	0,058
-506,985	-37,617	-0,124	0,048
-505,970	800,000	0,038	-0,111
-504,956	27,167	0,115	-0,070
-503,941	219,243	0,054	0,063
-502,926	628,702	-0,056	0,103
-501,912	-84,643	-0,068	0,015
-500,897	-200,000	0,007	0,039
-499,883	-131,753	-0,061	-0,006
-498,868	800,000	-0,030	-0,076
-497,853	-168,001	0,076	0,002
-496,839	113,579	0,044	0,039
-495,824	-90,282	0,114	0,024
-494,810	32,596	-0,091	0,057
-493,795	-49,369	0,123	0,042
-492,781	-98,815	-0,041	0,007
-491,766	27,944	0,053	-0,032
-490,751	346,067	-0,026	0,038
-489,737	209,260	0,107	0,123
-488,722	-200,000	-0,014	0,055
-487,708	425,404	-0,032	0,050
-486,693	-200,000	-0,001	0,062
-485,678	103,676	0,124	-0,106
-484,664	-200,000	-0,009	-0,098
-483,649	-200,000	0,010	-0,153
-482,635	-145,383	-0,077	0,005
-481,620	79,906	-0,051	-0,040
-480,605	382,571	0,058	0,087
-479,591	-59,560	0,031	0,010
-478,576	-104,438	0,043	-0,007
-477,562	-184,879	-0,119	-0,001
-476,547	-200,000	0,008	0,051
-475,532	-180,511	-0,056	0,001
-474,518	315,018	-0,064	0,088
-473,503	800,000	-0,009	-0,023
-472,489	-73,265	0,052	0,014
-471,474	66,840	-0,134	0,099
-470,459	-27,767	-0,072	0,030
-469,445	-21,345	-0,054	-0,024
-468,430	-27,326	0,087	-0,036
-467,416	280,906	0,038	0,050
-466,401	-108,240	0,065	-0,010
-465,386	655,184	0,022	0,042
-464,372	-200,000	0,005	0,065
-463,357	124,903	-0,055	0,050
-462,343	-56,901	-0,027	0,009
-461,328	1,690	0,169	-0,088
-460,313	187,595	-0,100	-0,109
-459,299	-96,094	-0,119	-0,023
-458,284	-200,000	-0,001	0,072
-457,270	55,065	0,161	-0,113
-456,255	95,553	-0,064	-0,053
-455,241	-73,956	-0,041	0,011
-454,226	-200,000	0,010	-0,075
-453,211	590,092	0,069	-0,125
-452,197	-184,406	0,081	-0,001
-451,182	51,809	-0,223	0,154
-450,168	66,587	0,083	-0,061
-449,153	-32,904	-0,088	0,035
-448,138	-200,000	-0,005	-0,031
-447,124	177,338	-0,049	-0,052
-446,109	-200,000	0,002	-0,063
-445,095	-27,163	0,144	-0,061
-444,080	145,499	-0,051	0,049
-443,065	252,114	0,053	-0,066
-442,051	800,000	-0,089	-0,212
-441,036	330,971	-0,036	-0,050
-440,022	-200,000	0,004	-0,129
-439,007	-57,757	0,035	0,011
-437,992	64,337	0,106	0,078
-436,978	187,329	-0,023	0,025
-435,963	-160,818	0,107	0,004
-434,949	-55,684	-0,013	0,004
-433,934	-193,097	-0,098	-0,001
-432,919	-130,421	0,112	-0,011
-431,905	-20,240	0,059	-0,026
-430,890	-200,000	-0,016	-0,079
-429,876	-200,000	0,020	0,091
-428,861	442,675	-0,096	0,154
-427,846	-73,836	0,058	-0,015
-426,832	92,904	0,054	0,044
-425,817	-191,770	0,035	0,000
-424,803	800,000	0,046	-0,107
-423,788	64,552	0,138	0,101
-422,773	-200,000	0,023	0,131
-421,759	276,190	-0,038	-0,049
-420,744	800,000	-0,021	-0,047
-419,730	-102,043	0,107	0,018
-418,715	-109,912	-0,135	0,020
-417,701	-134,203	-0,053	0,005
-416,686	7,742	0,072	-0,039
-415,671	168,003	0,087	0,090
-414,657	71,679	0,031	-0,023
-413,642	-160,958	0,082	0,003
-412,628	-64,490	0,060	0,017
-411,613	-200,000	0,009	-0,075
-410,598	-112,895	-0,123	-0,017
-409,584	279,658	-0,059	-0,076
-408,569	-200,000	0,002	-0,087
-407,555	287,259	-0,055	0,072
-406,540	523,140	0,108	0,184
-405,525	800,000	-0,050	-0,107
-404,511	162,204	-0,074	-0,075
-403,496	145,922	0,107	-0,105
-402,482	94,312	-0,031	-0,026
-401,467	573,517	0,055	-0,098
-400,452	-164,762	-0,069	-0,002
-399,438	530,831	0,107	0,184
-398,423	-200,000	0,029	-0,103
-397,409	138,558	0,015	-0,014
-396,394	-161,316	-0,166	0,006
-395,379	-200,000	-0,006	0,046
-394,365	-200,000	-0,018	0,093
-393,350	-91,087	-0,074	0,015
-392,336	91,883	0,150	0,123
-391,321	800,000	0,053	0,114
-390,306	-200,000	0,006	-0,162
-389,292	184,947	0,088	-0,095
-388,277	370,082	-0,083	0,122
-387,263	799,086	0,069	-0,138
-386,248	-132,733	0,148	0,014
-385,233	574,687	-0,053	0,094
-384,219	-200,000	0,012	-0,039
-383,204	-200,000	-0,014	-0,151
-382,190	800,000	-0,072	-0,194
-381,175	-200,000	0,021	0,111
-380,160	-29,900	-0,129	0,053
-379,146	173,079	-0,032	0,034
-378,131	800,000	0,037	-0,083
-377,117	-29,987	-0,063	-0,026
-376,102	329,790	-0,066	0,093
-375,088	307,037	-0,096	-0,130
-374,073	152,665	-0,138	-0,137
-373,058	450,448	0,026	-0,043
-372,044	238,145	0,112	0,135
-371,029	800,000	0,016	0,037
-370,015	800,000	0,031	0,082
-369,000	-0,193	-0,102	0,052
-367,985	800,000	-0,037	-0,095
-366,971	96,682	-0,113	-0,093
-365,956	15,285	0,072	-0,041
-364,942	262,690	0,081	0,102
-363,927	800,000	0,014	0,031
-362,912	-92,799	-0,105	-0,021
-361,898	-112,848	0,067	-0,010
-360,883	-200,000	-0,011	-0,079
-359,869	260,126	-0,053	-0,067
-358,854	761,932	0,066	-0,131
-357,839	-89,019	0,120	-0,026
-356,825	800,000	0,103	0,240
-355,810	161,622	-0,032	0,032
-354,796	-21,826	-0,058	-0,026
-353,781	-93,092	-0,028	-0,006
-352,766	124,361	0,052	0,047
-351,752	-200,000	-0,027	0,138
-350,737	-200,000	0,018	0,073
-349,723	-84,592	0,060	0,014
-348,708	793,759	-0,057	0,114
-347,693	800,000	-0,037	-0,087
-346,679	-200,000	-0,007	-0,047
-345,664	-200,000	-0,006	-0,115
-344,650	-43,622	-0,050	-0,018
-343,635	-93,085	0,172	0,034
-342,620	119,634	-0,047	0,042
-341,606	-200,000	-0,023	0,085
-340,591	-97,627	-0,066	0,012
-339,577	-81,825	-0,044	0,010
-338,562	87,146	0,025	-0,020
-337,548	-106,483	0,085	0,014
-336,533	-200,000	0,021	-0,067
-335,518	-200,000	0,001	-0,032
-334,504	-192,871	0,022	0,000
-333,489	-200,000	-0,037	-0,127
-332,475	30,566	0,028	-0,017
-331,460	800,000	-0,023	-0,067
-330,445	-113,130	0,047	0,007
-329,431	-48,973	0,041	-0,014
-328,416	374,210	0,097	0,144
-327,402	493,806	-0,047	0,079
-326,387	64,964	0,023	-0,016
-325,372	-16,619	-0,068	0,031
-324,358	-200,000	-0,025	-0,115
-323,343	152,968	-0,092	-0,091
-322,329	800,000	-0,037	-0,094
-321,314	-187,035	0,051	0,000
-320,299	-30,507	0,134	0,055
-319,285	-82,932	0,075	-0,017
-318,270	-70,334	-0,081	0,022
-317,256	94,350	-0,131	-0,108
-316,241	14,913	0,145	-0,082
-315,226	-102,445	0,177	0,030
-314,212	329,967	0,038	-0,053
-313,197	-92,975	-0,039	-0,008
-312,183	-200,000	-0,012	0,080
-311,168	-60,782	-0,021	-0,006
-310,153	350,240	0,021	-0,029
-309,139	800,000	0,061	-0,162
-308,124	-200,000	0,024	0,158
-307,110	800,000	-0,020	-0,047
-306,095	79,153	0,069	0,053
-305,080	627,300	-0,060	-0,111
-304,066	283,655	-0,048	-0,063
-303,051	636,839	0,020	-0,037
-302,037	-74,683	-0,093	-0,024
-301,022	64,047	0,100	-0,072
-300,008	-200,000	-0,033	0,130
-298,993	-200,000	0,002	-0,090
-297,978	-200,000	-0,029	0,135
-296,964	-75,204	-0,078	0,020
-295,949	-151,024	-0,087	0,005
-294,935	96,827	0,068	-0,057
-293,920	800,000	0,062	-0,175
-292,905	234,398	0,019	-0,023
-291,891	-200,000	0,022	0,106
-290,876	20,798	0,091	0,053
-289,862	-3,389	-0,084	-0,042
-288,847	-106,914	-0,131	-0,021
-287,832	-7,230	-0,037	-0,018
-286,818	-200,000	-0,021	-0,104
-285,803	406,888	0,040	0,062
-284,789	652,588	0,009	-0,017
-283,774	285,827	0,064	-0,084
-282,759	-200,000	-0,020	-0,127
-281,745	800,000	-0,043	-0,097
-280,730	-200,000	0,027	0,137
-279,716	318,726	-0,070	-0,095
-278,701	800,000	-0,038	0,093
-277,686	-173,786	0,135	0,003
-276,672	-200,000	-0,006	0,057
-275,657	-200,000	0,004	-0,116
-274,643	800,000	0,036	0,093
-273,628	800,000	-0,010	0,028
-272,613	800,000	-0,038	-0,100
-271,599	-200,000	0,013	0,045
-270,584	-200,000	0,007	0,091
-269,570	-161,816	0,067	0,002
-268,555	97,675	-0,075	-0,062
-267,540	198,529	0,039	-0,043
-266,526	112,916	0,074	-0,065
-265,511	355,091	-0,120	-0,172
-264,497	800,000	0,028	0,057
-263,482	800,000	0,056	0,142
-262,467	800,000	-0,017	0,049
-261,453	800,000	0,018	-0,054
-260,438	800,000	-0,014	0,034
-259,424	-47,628	-0,151	0,053
-258,409	-21,759	-0,116	-0,051
-257,395	-64,125	0,066	-0,019
-256,380	800,000	-0,041	-0,092
-255,365	-200,000	0,002	-0,068
-254,351	-139,291	0,059	0,004
-253,336	93,600	-0,026	0,021
-252,322	800,000	-0,026	-0,061
-251,307	50,440	-0,038	-0,026
-250,292	-147,354	-0,089	0,005
-249,278	211,740	-0,025	-0,029
-248,263	70,690	0,030	-0,022
-247,249	88,805	-0,162	0,130
-246,234	364,566	0,048	-0,070
-245,219	616,245	0,003	-0,006
-244,205	105,068	-0,049	-0,042
-243,190	94,305	-0,030	-0,024
-242,176	800,000	0,027	-0,076
-241,161	105,962	-0,097	0,082
-240,146	393,571	-0,051	0,076
-239,132	267,660	-0,011	0,014
-238,117	-200,000	0,000	-0,031
-237,103	800,000	0,049	0,124
-236,088	128,967	-0,012	-0,011
-235,073	800,000	0,053	0,128
-234,059	-200,000	-0,002	-0,008
-233,044	-37,945	-0,066	0,025
-232,030	141,182	0,124	0,118
-231,015	-5,955	0,054	0,026
-230,000	647,445	-0,021	-0,039
-228,986	194,881	0,106	0,116
-227,971	109,279	0,037	-0,032
-226,957	800,000	0,070	0,169
-225,942	-48,865	-0,072	0,025
-224,927	-51,907	-0,092	-0,031
-223,913	-134,180	-0,104	0,009
-222,898	67,009	-0,057	0,042
-221,884	800,000	-0,055	0,126
-220,869	-200,000	-0,003	0,106
-219,855	-87,008	0,110	0,024
-218,840	352,293	-0,055	0,078
-217,825	164,237	0,034	0,035
-216,811	206,078	-0,046	-0,052
-215,796	-69,685	-0,008	-0,002
-214,782	-200,000	0,005	-0,055
-213,767	320,867	-0,086	0,118
-212,752	631,900	0,036	0,066
-211,738	126,483	0,048	0,043
-210,723	347,026	0,024	0,035
-209,709	-200,000	0,018	-0,085
-208,694	-92,621	-0,136	-0,027
-207,679	162,768	-0,038	-0,039
-206,665	-200,000	0,011	-0,104
-205,650	-200,000	0,011	0,124
-204,636	96,103	0,141	-0,116
-203,621	-11,481	-0,077	-0,036
-202,606	35,080	-0,063	-0,039
-201,592	800,000	0,014	-0,038
-200,577	323,942	-0,074	-0,102
-199,563	126,710	0,037	0,034
-198,548	-10,129	0,079	0,038
-197,533	257,589	-0,066	-0,081
-196,519	47,582	-0,134	0,090
-195,504	-137,423	0,096	-0,008
-194,490	266,730	0,077	-0,097
-193,475	666,759	0,018	-0,033
-192,460	175,712	0,077	0,081
-191,446	800,000	-0,037	-0,093
-190,431	243,397	-0,137	0,165
-189,417	637,891	0,071	0,130
-188,402	572,565	-0,048	-0,085
-187,387	241,253	-0,059	0,071
-186,373	9,750	-0,051	-0,028
-185,358	71,747	-0,061	0,045
-184,344	421,860	-0,022	-0,034
-183,329	153,798	0,032	0,031
-182,315	15,216	0,094	0,053
-181,300	7,789	0,037	0,020
-180,285	-91,127	-0,181	-0,037
-179,271	81,070	-0,068	0,053
-178,256	110,515	0,067	0,058
-177,242	800,000	0,102	0,209
-176,227	86,089	0,077	0,061
-175,212	-68,713	-0,125	0,034
-174,198	59,424	-0,031	-0,022
-173,183	-200,000	0,007	0,186
-172,169	-200,000	0,013	0,051
-171,154	800,000	0,062	-0,128
-170,139	-200,000	-0,008	0,037
-169,125	-99,714	0,066	-0,012
-168,110	800,000	-0,045	0,125
-167,096	20,219	0,135	0,078
-166,081	800,000	-0,016	-0,037
-165,066	-27,857	-0,034	-0,014
-164,052	-179,948	-0,103	0,002
-163,037	-200,000	-0,016	0,105
-162,023	-200,000	0,024	0,132
-161,008	-50,456	0,219	-0,074
-159,993	-131,971	-0,074	0,007
-158,979	-200,000	-0,035	-0,163
-157,964	-200,000	0,022	-0,133
-156,950	-173,463	-0,069	0,001
-155,935	800,000	0,011	-0,023
-154,920	-134,190	-0,065	-0,006
-153,906	-99,047	-0,134	0,024
-152,891	-200,000	-0,011	0,091
-151,877	-34,932	-0,046	0,018
-150,862	265,938	-0,020	-0,025
-149,847	-200,000	0,000	0,012
-148,833	-27,149	0,076	-0,032
-147,818	-29,997	-0,059	-0,024
-146,804	-155,724	0,075	0,003
-145,789	-200,000	0,017	-0,080
-144,775	-67,126	-0,107	0,030
-143,760	-200,000	-0,001	0,018
-142,745	53,350	-0,122	0,084
-141,731	800,000	0,015	0,030
-140,716	106,151	-0,054	-0,046
-139,702	800,000	-0,041	0,083
-138,687	288,599	0,012	0,015
-137,672	800,000	-0,050	-0,144
-136,658	-200,000	-0,000	-0,124
-135,643	800,000	-0,043	0,093
-134,629	-30,531	-0,045	-0,018
-133,614	155,525	0,119	0,118
-132,599	-3,425	0,039	0,019
-131,585	124,147	-0,047	-0,043
-130,570	79,352	0,076	0,059
-129,556	25,121	-0,139	-0,083
-128,541	495,400	-0,070	-0,116
-127,526	283,729	-0,058	-0,075
-126,512	-44,034	-0,094	0,034
-125,497	-95,226	0,120	-0,023
-124,483	-74,250	-0,064	0,016
-123,468	-26,116	0,046	-0,020
-122,453	-9,917	0,141	-0,067
-121,439	800,000	-0,058	-0,125
-120,424	-69,040	0,035	0,010
-119,410	281,211	0,051	0,066
