DTS Sentinel unit serial number:	SN410029Multiplexer serial number:	ORYXHardware model number:	OX2-SRSoftware version number:	ORYX F/W v4,00 Oryx Data Collector v3.7.2.0data status	okinstallation	B5 Nyhavnadifferential loss correction	single-endedforward channel	channel 2reverse channel	N/Adate	2023/12/12time	20:27:13forward acquisition time	300,00reverse acquisition time	0,00gamma	499,1914k internal	0,3157k external	0,3157temperature offset calibration	1,0000default loss term (dB/km)	0,3820temperature slope calibration	1,0000multiplexer offset coefficient	1,0000multiplexer slope coefficient	1,0000fibre end	0,00T internal ref (°C)	15,23T ext. ref 1 (°C)	-1,48T ext. ref 2 (°C)	-1,78length (m)	temperature (°C)	Stokes	anti-Stokes-744,400	800,000	0,003	0,007
-743,385	-172,577	-0,261	0,006
-742,371	106,854	0,073	0,064
-741,356	-130,361	-0,184	0,018
-740,342	-15,543	0,117	-0,055
-739,327	-98,875	-0,315	0,059
-738,312	13,234	0,043	0,024
-737,298	-63,087	-0,289	-0,087
-736,283	-200,000	0,029	-0,129
-735,269	197,981	-0,112	-0,126
-734,254	96,213	0,073	0,061
-733,239	-58,134	-0,377	-0,121
-732,225	-78,103	0,198	0,050
-731,210	-200,000	-0,003	0,053
-730,196	77,500	0,033	0,026
-729,181	349,086	0,040	-0,058
-728,167	226,438	-0,070	-0,084
-727,152	75,043	-0,036	0,028
-726,137	-83,373	-0,047	0,011
-725,123	111,316	0,036	-0,032
-724,108	134,038	0,069	-0,066
-723,094	78,597	-0,050	-0,039
-722,079	-94,209	-0,231	0,046
-721,064	121,518	0,015	-0,013
-720,050	32,667	0,026	0,016
-719,035	68,639	0,005	-0,004
-718,021	170,008	-0,095	0,100
-717,006	9,242	-0,078	-0,043
-715,991	-72,304	-0,096	-0,026
-714,977	113,164	0,043	0,038
-713,962	-29,279	0,104	-0,044
-712,948	-200,000	-0,015	-0,113
-711,933	800,000	-0,086	-0,191
-710,918	800,000	-0,020	-0,056
-709,904	-200,000	-0,002	0,016
-708,889	-123,310	-0,181	0,021
-707,875	-123,164	-0,073	-0,009
-706,860	-64,864	-0,042	0,013
-705,845	297,971	-0,045	-0,061
-704,831	214,341	0,052	-0,061
-703,816	800,000	-0,013	0,039
-702,802	387,401	-0,073	-0,111
-701,787	-38,658	-0,213	-0,082
-700,772	-200,000	0,021	-0,120
-699,758	57,792	-0,102	0,073
-698,743	-27,242	0,010	0,004
-697,729	181,645	-0,099	0,108
-696,714	-11,667	0,065	-0,031
-695,699	43,482	-0,031	0,021
-694,685	195,840	-0,019	-0,021
-693,670	45,469	-0,086	-0,059
-692,656	88,123	0,011	-0,009
-691,641	1,971	0,098	0,052
-690,627	133,029	-0,046	-0,044
-689,612	-166,594	0,177	-0,005
-688,597	-32,060	-0,093	-0,038
-687,583	105,273	-0,120	-0,104
-686,568	-200,000	0,002	0,038
-685,554	-136,223	-0,174	-0,015
-684,539	-73,512	0,157	0,042
-683,524	-14,632	-0,156	0,073
-682,510	558,339	0,012	0,022
-681,495	611,422	-0,026	-0,048
-680,481	766,931	-0,023	0,046
-679,466	46,727	-0,122	0,083
-678,451	-200,000	-0,019	-0,209
-677,437	-200,000	0,032	-0,133
-676,422	766,226	-0,025	0,051
-675,408	-91,786	-0,048	0,010
-674,393	-200,000	0,015	-0,068
-673,378	161,572	-0,073	-0,076
-672,364	90,331	-0,125	-0,103
-671,349	-135,160	0,105	0,009
-670,335	-200,000	-0,002	0,030
-669,320	20,991	-0,172	-0,103
-668,305	90,469	-0,043	-0,036
-667,291	800,000	0,041	-0,095
-666,276	51,177	0,087	-0,060
-665,262	155,481	0,052	-0,053
-664,247	0,814	-0,048	0,025
-663,232	800,000	-0,010	-0,025
-662,218	260,970	-0,088	0,112
-661,203	800,000	-0,027	0,081
-660,189	663,726	0,041	-0,078
-659,174	261,025	-0,054	-0,069
-658,159	-25,806	-0,122	-0,052
-657,145	54,322	-0,036	-0,025
-656,130	232,468	0,055	0,066
-655,116	-160,370	-0,073	-0,003
-654,101	-200,000	-0,023	0,154
-653,086	-200,000	0,009	0,051
-652,072	-13,585	-0,044	-0,021
-651,057	-200,000	0,001	0,018
-650,043	-76,790	-0,077	-0,020
-649,028	-125,714	-0,086	0,009
-648,014	786,474	-0,056	-0,114
-646,999	800,000	-0,051	0,136
-645,984	-200,000	-0,014	0,097
-644,970	-84,739	-0,074	-0,017
-643,955	-200,000	-0,012	0,099
-642,941	28,443	-0,100	-0,062
-641,926	127,055	-0,107	0,100
-640,911	-200,000	0,022	0,102
-639,897	-30,761	-0,051	0,021
-638,882	-111,471	0,082	-0,012
-637,868	71,161	0,025	0,019
-636,853	196,830	-0,028	-0,031
-635,838	66,747	-0,106	-0,079
-634,824	373,751	-0,013	-0,020
-633,809	800,000	-0,011	0,024
-632,795	126,548	-0,052	-0,048
-631,780	87,869	-0,060	0,049
-630,765	800,000	0,030	0,070
-629,751	-89,949	-0,121	0,026
-628,736	177,698	0,091	-0,098
-627,722	-101,917	0,032	0,006
-626,707	800,000	-0,043	0,104
-625,692	415,910	0,041	-0,065
-624,678	-108,804	-0,051	0,008
-623,663	800,000	0,046	-0,146
-622,649	104,513	0,061	-0,053
-621,634	-200,000	-0,012	-0,096
-620,619	25,047	0,018	-0,011
-619,605	186,348	-0,118	0,129
-618,590	389,504	0,060	0,092
-617,576	-64,395	0,093	0,028
-616,561	-200,000	0,008	0,095
-615,546	800,000	-0,099	0,219
-614,532	-200,000	0,015	-0,121
-613,517	7,414	-0,080	0,044
-612,503	800,000	-0,026	-0,053
-611,488	-55,639	0,171	0,056
-610,474	-96,540	-0,048	0,009
-609,459	-67,219	-0,152	-0,044
-608,444	-200,000	-0,011	-0,100
-607,430	-46,513	-0,130	0,047
-606,415	-54,233	0,103	-0,034
-605,401	55,662	-0,114	0,081
-604,386	800,000	0,028	0,083
-603,371	-200,000	-0,020	0,196
-602,357	571,190	-0,044	0,080
-601,342	800,000	-0,038	-0,115
-600,328	800,000	-0,019	-0,042
-599,313	291,986	0,013	-0,017
-598,298	151,487	-0,031	0,031
-597,284	-83,825	0,048	0,011
-596,269	-200,000	-0,007	0,053
-595,255	-200,000	0,005	0,053
-594,240	-200,000	-0,006	0,034
-593,225	-200,000	0,000	-0,080
-592,211	-123,886	-0,158	0,018
-591,196	481,977	-0,034	-0,058
-590,182	-200,000	-0,029	-0,182
-589,167	183,154	-0,049	0,053
-588,152	800,000	-0,059	-0,125
-587,138	-200,000	0,015	0,106
-586,123	-68,241	-0,144	-0,041
-585,109	-93,070	-0,065	0,013
-584,094	-35,245	0,054	-0,022
-583,079	290,857	0,090	0,121
-582,065	339,733	-0,024	0,034
-581,050	106,435	-0,033	0,029
-580,036	800,000	-0,021	0,048
-579,021	800,000	0,015	-0,031
-578,006	-136,286	-0,110	0,009
-576,992	800,000	-0,052	-0,123
-575,977	-200,000	-0,008	0,072
-574,963	192,045	0,022	0,025
-573,948	126,943	-0,042	-0,039
-572,934	800,000	0,054	-0,116
-571,919	800,000	0,044	-0,123
-570,904	-129,322	-0,039	0,004
-569,890	-108,339	-0,031	0,005
-568,875	-64,089	0,064	-0,019
-567,861	-19,477	0,102	0,046
-566,846	-6,344	-0,126	0,063
-565,831	11,076	0,092	0,051
-564,817	27,571	-0,009	-0,006
-563,802	98,769	-0,087	-0,073
-562,788	-138,427	-0,077	-0,006
-561,773	800,000	0,019	0,058
-560,758	412,726	-0,051	0,080
-559,744	-126,280	0,033	0,004
-558,729	-200,000	0,006	0,046
-557,715	-53,905	0,134	-0,044
-556,700	31,190	-0,112	-0,070
-555,685	-16,519	0,098	0,045
-554,671	-200,000	0,012	0,069
-553,656	6,647	-0,021	0,011
-552,642	-97,787	0,094	-0,018
-551,627	0,260	0,035	0,018
-550,612	800,000	-0,050	0,120
-549,598	-35,846	-0,063	-0,025
-548,583	-158,234	-0,126	-0,005
-547,569	-22,584	0,088	0,039
-546,554	312,909	-0,017	0,023
-545,539	213,917	-0,087	0,100
-544,525	800,000	0,024	0,067
-543,510	-112,647	0,103	0,015
-542,496	-59,173	-0,175	0,055
-541,481	-46,015	0,090	-0,032
-540,466	-200,000	-0,028	-0,101
-539,452	-87,208	0,050	0,011
-538,437	162,340	0,032	0,033
-537,423	-96,627	0,064	-0,012
-536,408	800,000	-0,002	0,005
-535,393	-200,000	-0,002	-0,016
-534,379	-50,304	-0,076	-0,026
-533,364	-137,589	0,032	0,003
-532,350	118,774	0,052	-0,047
-531,335	-126,219	0,092	-0,010
-530,321	-200,000	0,025	0,152
-529,306	38,242	-0,032	0,020
-528,291	-127,835	0,129	0,013
-527,277	-200,000	-0,039	0,135
-526,262	-200,000	0,010	0,068
-525,248	-65,140	0,135	0,040
-524,233	-39,728	0,088	0,033
-523,218	626,155	0,016	0,030
-522,204	-41,873	0,051	0,019
-521,189	-134,062	-0,095	0,009
-520,175	-200,000	0,009	-0,098
-519,160	-80,470	0,037	-0,009
-518,145	402,269	0,046	0,070
-517,131	-200,000	0,039	0,162
-516,116	-200,000	0,010	0,183
-515,102	399,355	0,111	-0,171
-514,087	-170,089	-0,187	-0,005
-513,072	-200,000	-0,020	-0,077
-512,058	2,115	0,064	-0,034
-511,043	-200,000	-0,020	-0,065
-510,029	-200,000	-0,025	0,091
-509,014	-200,000	-0,016	-0,076
-507,999	-91,271	0,097	0,020
-506,985	-100,847	-0,111	-0,020
-505,970	46,724	-0,070	-0,048
-504,956	292,970	-0,144	-0,192
-503,941	-133,117	-0,077	0,007
-502,926	-200,000	0,002	-0,009
-501,912	-60,554	0,099	-0,030
-500,897	118,994	0,072	-0,065
-499,883	-91,578	-0,133	-0,028
-498,868	800,000	0,032	0,075
-497,853	252,074	0,033	-0,041
-496,839	-99,780	0,073	0,013
-495,824	-54,984	-0,041	0,013
-494,810	800,000	0,040	0,087
-493,795	-144,305	-0,048	0,003
-492,781	-200,000	-0,103	0,000
-491,766	-200,000	-0,004	-0,023
-490,751	-141,889	-0,151	0,011
-489,737	-157,195	0,198	0,009
-488,722	220,922	-0,054	-0,063
-487,708	-61,913	-0,058	-0,017
-486,693	-15,210	0,069	-0,032
-485,678	397,199	-0,044	0,068
-484,664	-53,634	0,018	0,006
-483,649	45,189	0,070	-0,047
-482,635	-200,000	0,008	0,034
-481,620	-169,254	0,074	-0,002
-480,605	113,955	0,094	-0,083
-479,591	403,985	-0,017	-0,026
-478,576	-63,602	0,037	-0,011
-477,562	-96,435	-0,127	-0,024
-476,547	290,154	-0,040	0,053
-475,532	4,531	-0,112	-0,060
-474,518	-200,000	0,037	-0,123
-473,503	-200,000	0,009	-0,217
-472,489	0,814	-0,102	0,053
-471,474	-200,000	-0,002	0,085
-470,459	800,000	0,019	0,061
-469,445	146,173	-0,010	0,010
-468,430	-200,000	0,000	0,035
-467,416	517,848	-0,012	-0,020
-466,401	-200,000	0,007	0,134
-465,386	-200,000	-0,001	0,002
-464,372	-96,005	0,162	0,031
-463,357	-147,593	0,059	0,004
-462,343	150,757	0,050	-0,050
-461,328	-108,099	0,067	-0,010
-460,313	-51,607	0,064	-0,022
-459,299	-9,400	-0,160	0,078
-458,284	-200,000	0,013	0,098
-457,270	109,763	0,077	0,068
-456,255	-48,589	-0,111	0,039
-455,241	-200,000	0,017	-0,094
-454,226	800,000	0,029	-0,070
-453,211	-30,286	-0,068	-0,028
-452,197	528,777	0,022	0,038
-451,182	800,000	-0,048	0,111
-450,168	-200,000	-0,009	0,127
-449,153	-103,660	0,117	0,020
-448,138	-200,000	0,008	0,047
-447,124	315,286	0,059	0,081
-446,109	27,661	-0,077	-0,047
-445,095	58,964	-0,061	-0,044
-444,080	800,000	-0,022	0,046
-443,065	-10,580	0,115	0,055
-442,051	-200,000	0,019	-0,067
-441,036	6,796	-0,062	0,034
-440,022	-103,852	0,076	0,013
-439,007	-200,000	0,003	-0,018
-437,992	-200,000	-0,001	-0,017
-436,978	70,423	-0,124	-0,093
-435,963	35,730	-0,094	-0,060
-434,949	-200,000	-0,023	-0,074
-433,934	242,913	-0,052	0,064
-432,919	100,078	-0,105	-0,088
-431,905	262,354	0,074	-0,094
-430,890	-200,000	0,010	-0,117
-429,876	800,000	0,020	-0,042
-428,861	63,055	-0,083	-0,061
-427,846	-200,000	-0,001	0,030
-426,832	183,141	0,093	-0,100
-425,817	800,000	-0,024	-0,077
-424,803	-49,095	-0,126	-0,044
-423,788	-65,681	0,191	0,055
-422,773	-46,278	-0,046	0,016
-421,759	-200,000	0,007	0,092
-420,744	147,554	-0,029	0,028
-419,730	-117,639	0,090	0,012
-418,715	478,003	-0,042	-0,070
-417,701	-99,877	-0,121	-0,022
-416,686	-200,000	0,014	0,079
-415,671	603,589	0,037	-0,068
-414,657	273,976	0,109	0,141
-413,642	800,000	-0,021	-0,064
-412,628	-200,000	-0,032	-0,189
-411,613	-200,000	-0,009	-0,104
-410,598	-19,076	0,057	-0,026
-409,584	800,000	-0,075	-0,190
-408,569	-200,000	0,005	-0,018
-407,555	50,049	-0,031	0,021
-406,540	-78,952	0,103	0,025
-405,525	22,894	-0,042	-0,025
-404,511	17,006	0,063	-0,036
-403,496	800,000	-0,025	-0,076
-402,482	-146,313	0,024	0,002
-401,467	377,601	0,044	-0,065
-400,452	-141,168	0,139	-0,010
-399,438	-14,979	0,057	0,027
-398,423	48,383	0,150	-0,102
-397,409	208,848	-0,088	-0,100
-396,394	-200,000	0,020	0,130
-395,379	-200,000	0,025	-0,093
-394,365	800,000	0,006	0,017
-393,350	-37,184	0,109	0,042
-392,336	800,000	0,027	-0,076
-391,321	-8,404	-0,070	0,034
-390,306	800,000	-0,041	0,112
-389,292	70,085	0,111	0,083
-388,277	800,000	-0,014	-0,037
-387,263	-42,979	0,042	-0,016
-386,248	800,000	-0,049	-0,131
-385,233	-13,396	-0,037	0,017
-384,219	-200,000	0,007	-0,040
-383,204	177,736	0,025	-0,027
-382,190	-152,181	0,117	-0,006
-381,175	-60,416	-0,073	-0,022
-380,160	163,628	-0,055	0,056
-379,146	-117,082	0,119	-0,016
-378,131	-132,486	-0,042	0,004
-377,117	-63,127	-0,162	-0,048
-376,102	-56,168	-0,138	-0,044
-375,088	-200,000	0,005	-0,141
-374,073	-114,493	-0,041	0,006
-373,058	-109,934	-0,020	-0,003
-372,044	-60,469	0,087	0,027
-371,029	-86,663	-0,091	-0,020
-370,015	-99,998	0,044	0,008
-369,000	-200,000	0,011	-0,059
-367,985	-200,000	0,011	-0,072
-366,971	-36,615	0,100	-0,039
-365,956	182,041	0,059	0,063
-364,942	-106,580	0,090	-0,014
-363,927	-200,000	-0,004	0,028
-362,912	623,938	-0,056	-0,103
-361,898	-127,747	0,094	0,010
-360,883	55,218	-0,039	-0,028
-359,869	359,774	-0,015	-0,022
-358,854	-200,000	-0,006	0,035
-357,839	-75,191	-0,043	-0,011
-356,825	585,239	0,060	0,107
-355,810	376,700	0,057	-0,085
-354,796	60,440	-0,090	0,065
-353,781	800,000	0,037	0,093
-352,766	17,921	-0,055	-0,032
-351,752	800,000	0,038	0,097
-350,737	-200,000	-0,001	0,084
-349,723	51,868	0,083	-0,057
-348,708	-59,293	-0,104	0,032
-347,693	-97,493	0,038	-0,007
-346,679	800,000	-0,019	-0,042
-345,664	2,790	0,058	-0,030
-344,650	-44,031	0,061	0,022
-343,635	-46,647	0,067	-0,024
-342,620	-138,025	-0,124	0,010
-341,606	48,010	-0,101	0,069
-340,591	-139,042	-0,067	0,005
-339,577	203,580	-0,087	-0,098
-338,562	-15,460	0,202	0,093
-337,548	-84,483	-0,019	-0,004
-336,533	471,823	0,072	-0,119
-335,518	537,340	-0,052	-0,090
-334,504	-200,000	-0,014	0,050
-333,489	1,996	0,090	0,047
-332,475	-81,539	0,104	-0,025
-331,460	800,000	-0,042	0,123
-330,445	425,128	-0,082	0,129
-329,431	-200,000	-0,018	0,135
-328,416	323,704	-0,052	0,073
-327,402	482,498	-0,002	0,004
-326,387	-58,439	-0,142	-0,044
-325,372	67,593	0,061	0,045
-324,358	-39,604	-0,048	0,018
-323,343	52,050	-0,025	0,017
-322,329	-200,000	-0,009	0,070
-321,314	-200,000	-0,003	-0,056
-320,299	-200,000	-0,007	0,101
-319,285	180,131	0,040	-0,043
-318,270	-200,000	-0,021	-0,141
-317,256	712,437	0,031	-0,059
-316,241	-95,673	0,090	0,017
-315,226	-200,000	0,007	0,070
-314,212	467,998	0,079	0,129
-313,197	-117,713	-0,128	0,017
-312,183	727,900	0,030	0,058
-311,168	193,667	0,129	0,142
-310,153	366,114	-0,055	-0,080
-309,139	316,517	-0,055	-0,075
-308,124	26,566	-0,077	0,047
-307,110	318,259	0,085	0,117
-306,095	-88,231	-0,074	-0,016
-305,080	800,000	-0,027	0,057
-304,066	512,803	0,040	0,067
-303,051	280,516	-0,028	-0,037
-302,037	-48,912	-0,107	-0,037
-301,022	-49,292	0,053	-0,018
-300,008	-87,545	0,148	0,032
-298,993	-13,993	0,160	-0,075
-297,978	96,625	-0,113	-0,094
-296,964	4,000	-0,065	0,034
-295,949	88,196	-0,055	-0,045
-294,935	312,817	0,038	-0,051
-293,920	-134,894	0,089	-0,008
-292,905	-200,000	-0,006	0,208
-291,891	-74,830	-0,053	0,014
-290,876	-77,174	0,057	-0,014
-289,862	800,000	0,027	-0,069
-288,847	800,000	0,046	0,135
-287,832	232,474	0,056	0,067
-286,818	319,271	-0,048	-0,066
-285,803	126,543	0,057	-0,052
-284,789	800,000	0,061	0,160
-283,774	-200,000	0,026	0,190
-282,759	340,402	-0,078	0,111
-281,745	800,000	-0,063	-0,153
-280,730	298,593	-0,088	-0,117
-279,716	800,000	-0,018	0,046
-278,701	119,503	0,004	-0,004
-277,686	800,000	0,025	0,074
-276,672	286,397	0,047	0,061
-275,657	41,681	-0,051	0,033
-274,643	-2,092	-0,158	-0,080
-273,628	-92,496	-0,109	-0,022
-272,613	204,572	-0,066	0,074
-271,599	-200,000	-0,025	0,131
-270,584	52,878	0,045	0,031
-269,570	87,878	-0,066	0,053
-268,555	261,871	0,063	-0,080
-267,540	590,751	0,025	0,044
-266,526	-121,003	0,164	-0,020
-265,511	167,619	-0,083	0,085
-264,497	-72,408	-0,041	0,011
-263,482	-200,000	-0,020	0,115
-262,467	-200,000	-0,017	-0,062
-261,453	90,111	-0,144	0,117
-260,438	218,279	0,028	-0,033
-259,424	-200,000	0,044	-0,186
-258,409	50,515	-0,154	-0,105
-257,395	151,690	0,051	0,050
-256,380	-200,000	0,002	-0,043
-255,365	800,000	0,005	-0,016
-254,351	800,000	0,006	-0,018
-253,336	-73,524	-0,063	-0,017
-252,322	-59,394	0,088	-0,027
-251,307	266,804	-0,051	-0,065
-250,292	-107,717	0,117	-0,018
-249,278	-200,000	0,002	0,066
-248,263	-28,634	0,123	0,051
-247,249	800,000	0,008	0,019
-246,234	-45,426	0,063	0,023
-245,219	226,621	0,064	0,075
-244,205	-200,000	0,013	-0,046
-243,190	-34,008	-0,070	0,028
-242,176	90,949	0,047	-0,038
-241,161	800,000	-0,033	0,090
-240,146	44,151	0,086	-0,057
-239,132	-200,000	0,007	-0,140
-238,117	319,454	-0,045	-0,062
-237,103	-51,475	-0,149	0,050
-236,088	4,742	0,073	0,039
-235,073	-96,434	0,133	-0,025
-234,059	212,685	0,009	0,010
-233,044	-103,360	0,093	-0,016
-232,030	800,000	-0,007	-0,019
-231,015	133,392	-0,130	-0,122
-230,000	-200,000	0,002	-0,010
-228,986	-200,000	-0,014	-0,172
-227,971	-6,787	0,164	0,080
-226,957	-105,218	0,094	0,015
-225,942	-181,459	-0,039	-0,001
-224,927	351,795	-0,035	0,051
-223,913	-200,000	-0,015	-0,276
-222,898	800,000	0,035	-0,098
-221,884	-200,000	-0,006	0,032
-220,869	-200,000	-0,001	-0,039
-219,855	-200,000	0,013	-0,130
-218,840	800,000	0,016	0,042
-217,825	134,878	-0,017	0,016
-216,811	110,925	-0,073	0,063
-215,796	-200,000	0,030	-0,116
-214,782	326,069	0,022	0,030
-213,767	800,000	0,033	-0,083
-212,752	643,299	-0,016	-0,029
-211,738	-53,151	0,111	-0,037
-210,723	-200,000	-0,032	-0,192
-209,709	343,806	-0,099	-0,140
-208,694	800,000	-0,042	0,110
-207,679	-200,000	-0,002	0,032
-206,665	112,082	0,045	-0,039
-205,650	800,000	0,037	-0,081
-204,636	-57,008	0,090	0,028
-203,621	-81,693	-0,126	0,030
-202,606	-200,000	-0,019	-0,135
-201,592	-16,224	-0,086	0,039
-200,577	-200,000	-0,017	-0,067
-199,563	57,971	0,057	0,040
-198,548	88,035	0,195	0,156
-197,533	116,501	0,103	0,092
-196,519	303,487	-0,106	0,142
-195,504	18,837	-0,069	-0,040
-194,490	800,000	0,042	0,103
-193,475	800,000	0,007	0,017
-192,460	-10,786	0,036	0,017
-191,446	800,000	0,056	0,118
-190,431	-75,106	-0,122	-0,031
-189,417	-200,000	0,024	-0,084
-188,402	-130,752	0,126	-0,012
-187,387	215,660	-0,066	-0,076
-186,373	191,119	0,039	0,043
-185,358	73,409	-0,031	-0,024
-184,344	36,519	-0,029	0,018
-183,329	282,419	0,063	0,081
-182,315	20,995	0,053	0,031
-181,300	547,100	-0,030	0,052
-180,285	-5,378	-0,098	-0,048
-179,271	-161,021	-0,044	0,002
-178,256	138,660	-0,068	0,065
-177,242	-37,792	-0,090	0,035
-176,227	800,000	0,024	0,068
-175,212	-28,204	-0,035	0,014
-174,198	-200,000	0,002	-0,180
-173,183	455,677	0,036	-0,058
-172,169	570,070	-0,062	0,109
-171,154	91,342	0,060	-0,048
-170,139	89,933	0,090	-0,073
-169,125	36,094	0,088	0,056
-168,110	-89,831	0,094	0,020
-167,096	-200,000	-0,008	-0,068
-166,081	79,844	0,099	-0,077
-165,066	800,000	-0,056	-0,117
-164,052	-200,000	0,016	-0,104
-163,037	-173,380	0,091	0,002
-162,023	-200,000	-0,008	-0,046
-161,008	24,572	0,115	0,069
-159,993	-200,000	0,009	0,043
-158,979	197,320	-0,098	-0,108
-157,964	-67,851	0,132	-0,037
-156,950	595,732	0,044	-0,078
-155,935	-135,518	0,113	-0,010
-154,920	-148,513	0,037	-0,002
-153,906	-200,000	-0,019	0,172
-152,891	-50,583	0,016	0,005
-151,877	800,000	-0,011	0,024
-150,862	77,566	-0,017	0,013
-149,847	-200,000	0,037	-0,186
-148,833	357,801	0,027	0,039
-147,818	-61,931	-0,051	-0,015
-146,804	96,082	0,061	-0,050
-145,789	-81,422	-0,120	0,028
-144,775	800,000	0,042	0,124
-143,760	12,509	-0,025	0,014
-142,745	-127,522	-0,128	-0,013
-141,731	37,896	-0,047	-0,030
-140,716	299,295	0,068	0,091
-139,702	-22,058	-0,113	-0,049
-138,687	-200,000	0,009	0,130
-137,672	357,664	0,087	0,125
-136,658	-200,000	0,009	-0,052
-135,643	211,689	-0,075	-0,085
-134,629	156,577	0,066	0,066
-133,614	8,465	0,046	-0,025
-132,599	52,899	0,106	0,073
-131,585	-64,118	0,061	0,018
-130,570	800,000	0,028	0,061
-129,556	74,279	0,073	-0,055
-128,541	-113,926	0,107	-0,015
-127,526	147,327	-0,038	-0,037
-126,512	-200,000	0,026	0,109
-125,497	800,000	-0,067	0,161
-124,483	-179,739	0,071	-0,001
-123,468	335,052	-0,076	0,106
-122,453	531,357	-0,059	-0,100
-121,439	8,825	0,083	0,045
-120,424	800,000	-0,028	0,070
-119,410	373,559	-0,050	0,074
-118,395	-14,625	0,087	0,040
