DTS Sentinel unit serial number:	SN410029Multiplexer serial number:	ORYXHardware model number:	OX2-SRSoftware version number:	ORYX F/W v4,00 Oryx Data Collector v3.7.2.0data status	okinstallation	B5 Nyhavnadifferential loss correction	single-endedforward channel	channel 2reverse channel	N/Adate	2023/12/12time	20:07:13forward acquisition time	300,00reverse acquisition time	0,00gamma	499,1914k internal	0,3157k external	0,3157temperature offset calibration	1,0000default loss term (dB/km)	0,3820temperature slope calibration	1,0000multiplexer offset coefficient	1,0000multiplexer slope coefficient	1,0000fibre end	0,00T internal ref (°C)	15,33T ext. ref 1 (°C)	-1,36T ext. ref 2 (°C)	-1,67length (m)	temperature (°C)	Stokes	anti-Stokes-744,400	-200,000	-0,016	0,064
-743,385	23,825	-0,225	-0,136
-742,371	74,741	0,140	0,109
-741,356	-183,441	-0,266	-0,003
-740,342	-73,429	0,073	-0,019
-739,327	-148,292	-0,337	0,020
-738,312	-103,202	0,148	-0,025
-737,298	-160,809	-0,322	0,012
-736,283	163,116	0,078	-0,081
-735,269	-3,852	-0,274	-0,140
-734,254	-141,826	-0,019	-0,001
-733,239	-53,702	-0,466	-0,156
-732,225	-52,815	0,101	0,034
-731,210	800,000	0,022	0,050
-730,196	-200,000	-0,004	0,061
-729,181	-95,467	0,086	0,017
-728,167	-200,000	-0,035	0,150
-727,152	-109,259	0,050	-0,008
-726,137	-54,953	-0,209	0,069
-725,123	346,324	-0,103	-0,150
-724,108	-200,000	0,007	0,032
-723,094	28,460	-0,079	-0,049
-722,079	-61,506	-0,052	-0,016
-721,064	138,759	0,046	0,045
-720,050	219,998	0,062	-0,073
-719,035	800,000	0,076	0,167
-718,021	137,723	0,078	0,075
-717,006	239,652	0,086	0,105
-715,991	800,000	-0,041	-0,127
-714,977	800,000	-0,037	-0,090
-713,962	800,000	-0,036	-0,118
-712,948	111,752	-0,130	-0,115
-711,933	-200,000	0,013	0,058
-710,918	622,975	0,049	0,092
-709,904	304,352	0,069	-0,094
-708,889	53,010	-0,094	-0,066
-707,875	589,715	-0,016	0,029
-706,860	-162,310	0,140	-0,005
-705,845	105,273	0,190	0,165
-704,831	487,978	-0,033	0,055
-703,816	-33,248	-0,132	-0,054
-702,802	80,935	-0,131	0,104
-701,787	-117,072	-0,201	0,027
-700,772	-12,573	0,049	-0,023
-699,758	-168,718	-0,134	-0,004
-698,743	-200,000	-0,003	0,041
-697,729	73,841	-0,062	0,048
-696,714	-102,228	-0,098	0,017
-695,699	21,045	-0,168	-0,100
-694,685	-200,000	-0,001	-0,021
-693,670	21,427	-0,167	-0,100
-692,656	-200,000	0,022	-0,117
-691,641	-147,526	0,144	0,009
-690,627	675,936	0,036	0,069
-689,612	66,711	0,054	0,041
-688,597	800,000	-0,056	-0,143
-687,583	-162,730	0,095	0,003
-686,568	-64,929	-0,051	0,015
-685,554	-200,000	-0,026	-0,109
-684,539	800,000	-0,043	-0,104
-683,524	97,953	-0,085	0,072
-682,510	72,260	-0,068	0,052
-681,495	-200,000	-0,044	-0,142
-680,481	261,986	-0,105	-0,134
-679,466	-200,000	-0,015	0,143
-678,451	238,522	-0,100	0,122
-677,437	76,713	-0,040	-0,031
-676,422	-83,948	-0,120	0,028
-675,408	800,000	-0,002	0,006
-674,393	250,300	-0,070	-0,087
-673,378	97,898	-0,079	-0,067
-672,364	24,538	0,093	-0,057
-671,349	-200,000	0,011	-0,160
-670,335	-129,139	0,104	0,010
-669,320	-200,000	-0,001	-0,055
-668,305	402,619	-0,053	0,082
-667,291	800,000	-0,041	-0,110
-666,276	-48,932	-0,087	-0,031
-665,262	-200,000	-0,007	0,030
-664,247	-200,000	-0,028	-0,197
-663,232	800,000	-0,018	-0,040
-662,218	-85,239	-0,010	0,002
-661,203	-132,238	0,160	0,015
-660,189	-200,000	0,011	0,089
-659,174	-1,837	-0,076	-0,039
-658,159	425,434	-0,043	-0,068
-657,145	-200,000	-0,004	-0,112
-656,130	800,000	0,016	-0,044
-655,116	-200,000	0,002	0,032
-654,101	173,000	-0,036	0,038
-653,086	172,023	-0,023	-0,024
-652,072	-61,199	-0,175	-0,054
-651,057	800,000	-0,013	0,036
-650,043	189,264	0,022	-0,024
-649,028	800,000	0,038	0,082
-648,014	50,568	0,061	0,042
-646,999	-147,534	-0,027	0,002
-645,984	-113,322	-0,113	-0,016
-644,970	800,000	0,049	-0,108
-643,955	-200,000	0,007	0,115
-642,941	-200,000	0,001	-0,155
-641,926	-200,000	-0,029	-0,177
-640,911	-72,903	0,105	0,028
-639,897	739,720	0,073	-0,145
-638,882	800,000	-0,030	0,068
-637,868	800,000	0,008	-0,022
-636,853	147,718	-0,077	-0,076
-635,838	37,893	0,059	0,038
-634,824	105,923	0,003	0,003
-633,809	-191,857	0,050	0,000
-632,795	-200,000	-0,018	0,257
-631,780	-22,838	-0,119	-0,053
-630,765	800,000	-0,071	-0,224
-629,751	599,505	0,026	-0,047
-628,736	-200,000	0,035	-0,136
-627,722	-200,000	0,058	-0,206
-626,707	800,000	0,019	-0,054
-625,692	455,862	0,075	-0,123
-624,678	-101,676	-0,041	-0,007
-623,663	357,487	-0,053	0,078
-622,649	-200,000	-0,012	-0,163
-621,634	235,525	-0,083	-0,101
-620,619	-200,000	-0,027	0,106
-619,605	-75,023	0,105	0,027
-618,590	37,645	0,111	0,072
-617,576	273,704	0,051	0,067
-616,561	800,000	-0,022	0,046
-615,546	-200,000	-0,000	0,138
-614,532	-169,575	0,146	0,004
-613,517	-200,000	-0,020	-0,080
-612,503	-200,000	0,009	-0,106
-611,488	11,349	0,139	-0,078
-610,474	-97,768	-0,140	0,026
-609,459	-200,000	0,005	-0,027
-608,444	800,000	-0,024	0,064
-607,430	128,702	-0,084	-0,078
-606,415	800,000	-0,029	0,089
-605,401	260,718	-0,062	0,079
-604,386	244,332	0,047	0,059
-603,371	-200,000	0,004	-0,066
-602,357	-39,892	-0,118	-0,045
-601,342	-200,000	-0,064	-0,212
-600,328	-36,406	0,039	0,015
-599,313	-200,000	-0,026	-0,092
-598,298	109,386	-0,127	0,111
-597,284	-107,391	0,084	-0,013
-596,269	286,298	-0,052	0,069
-595,255	-73,100	0,007	-0,002
-594,240	80,479	-0,100	0,079
-593,225	354,659	0,070	-0,103
-592,211	340,037	-0,076	0,109
-591,196	80,171	0,067	-0,053
-590,182	-139,317	0,131	0,010
-589,167	79,485	-0,089	0,070
-588,152	431,412	-0,001	-0,002
-587,138	-63,844	-0,111	0,033
-586,123	-200,000	-0,033	-0,163
-585,109	-104,663	-0,049	-0,008
-584,094	-200,000	-0,010	-0,131
-583,079	-200,000	-0,013	0,107
-582,065	536,180	0,051	-0,088
-581,050	800,000	-0,038	0,102
-580,036	420,958	0,083	0,130
-579,021	-146,637	-0,052	0,003
-578,006	800,000	0,059	-0,176
-576,992	-200,000	-0,039	0,140
-575,977	8,165	0,114	-0,062
-574,963	800,000	-0,042	0,120
-573,948	-200,000	-0,004	0,091
-572,934	-14,958	0,147	0,069
-571,919	207,097	-0,100	-0,114
-570,904	-95,702	-0,095	0,018
-569,890	79,872	-0,054	-0,042
-568,875	-200,000	-0,011	-0,050
-567,861	230,135	-0,037	-0,044
-566,846	-200,000	0,001	-0,136
-565,831	800,000	-0,051	0,112
-564,817	34,108	0,067	-0,043
-563,802	304,560	-0,109	-0,149
-562,788	800,000	-0,067	0,144
-561,773	-200,000	-0,001	0,172
-560,758	270,446	0,042	0,054
-559,744	428,538	-0,012	0,019
-558,729	282,720	-0,099	-0,130
-557,715	183,275	-0,073	-0,079
-556,700	-35,128	-0,120	0,048
-555,685	230,194	-0,082	-0,098
-554,671	236,463	0,067	0,081
-553,656	-94,725	0,116	0,023
-552,642	-200,000	-0,004	-0,019
-551,627	31,122	0,023	-0,014
-550,612	800,000	-0,030	-0,078
-549,598	77,470	-0,071	-0,055
-548,583	-43,289	-0,075	-0,028
-547,569	800,000	0,069	-0,216
-546,554	148,746	0,063	-0,063
-545,539	-200,000	-0,009	0,151
-544,525	-200,000	0,028	0,204
-543,510	467,192	-0,037	-0,061
-542,496	295,408	0,055	0,074
-541,481	-63,974	-0,067	-0,020
-540,466	200,424	-0,075	0,084
-539,452	-72,206	-0,016	-0,004
-538,437	800,000	0,032	0,067
-537,423	-200,000	0,038	0,156
-536,408	190,111	-0,022	-0,025
-535,393	-56,197	-0,122	-0,040
-534,379	-131,226	0,115	-0,011
-533,364	-55,406	-0,082	-0,027
-532,350	-200,000	0,004	0,108
-531,335	312,772	0,014	-0,019
-530,321	-20,779	-0,049	-0,022
-529,306	800,000	-0,030	-0,091
-528,291	101,184	-0,076	-0,064
-527,277	-59,458	-0,103	-0,032
-526,262	-77,978	0,047	-0,012
-525,248	-153,611	0,090	0,004
-524,233	235,417	0,089	0,108
-523,218	800,000	0,074	0,153
-522,204	-200,000	0,008	0,035
-521,189	-62,193	0,014	-0,004
-520,175	800,000	-0,034	-0,090
-519,160	-175,154	-0,201	-0,004
-518,145	-200,000	0,001	-0,044
-517,131	-76,602	0,204	0,052
-516,116	800,000	0,030	0,072
-515,102	102,803	0,083	-0,071
-514,087	-91,119	0,047	0,010
-513,072	236,945	-0,032	-0,039
-512,058	800,000	0,022	-0,061
-511,043	-55,988	0,031	-0,010
-510,029	-200,000	-0,034	0,123
-509,014	129,979	0,053	-0,049
-507,999	759,121	-0,015	-0,031
-506,985	65,430	-0,042	-0,031
-505,970	159,364	0,071	0,073
-504,956	-200,000	0,008	-0,220
-503,941	-26,293	0,136	-0,058
-502,926	800,000	-0,038	0,118
-501,912	-68,118	-0,034	0,010
-500,897	60,198	0,081	-0,059
-499,883	657,355	-0,089	0,168
-498,868	-200,000	-0,014	-0,116
-497,853	136,949	0,043	-0,041
-496,839	322,954	0,052	0,073
-495,824	158,698	-0,022	0,022
-494,810	40,672	0,090	0,059
-493,795	800,000	0,052	0,120
-492,781	337,124	-0,085	0,121
-491,766	317,967	-0,073	-0,101
-490,751	-131,503	-0,100	-0,009
-489,737	138,837	-0,110	0,105
-488,722	-200,000	0,004	0,049
-487,708	-90,171	0,020	-0,004
-486,693	331,556	0,030	0,043
-485,678	463,003	0,061	0,099
-484,664	800,000	-0,017	0,048
-483,649	155,446	-0,069	-0,069
-482,635	-38,662	-0,096	0,037
-481,620	302,667	-0,045	0,060
-480,605	-200,000	0,019	0,072
-479,591	-200,000	0,006	0,043
-478,576	-165,099	-0,183	-0,006
-477,562	41,871	0,086	-0,057
-476,547	501,924	-0,044	0,075
-475,532	122,264	0,042	-0,038
-474,518	-161,167	0,075	-0,003
-473,503	-113,652	0,135	0,019
-472,489	243,514	0,049	0,060
-471,474	-200,000	0,007	0,047
-470,459	-68,159	-0,107	0,030
-469,445	-200,000	-0,017	-0,110
-468,430	64,855	-0,069	-0,051
-467,416	-130,035	-0,030	-0,003
-466,401	-200,000	0,019	0,239
-465,386	741,198	0,057	0,113
-464,372	-200,000	0,003	-0,011
-463,357	-59,675	-0,040	-0,012
-462,343	379,617	0,077	-0,115
-461,328	-200,000	0,048	0,227
-460,313	-200,000	0,010	0,060
-459,299	800,000	-0,019	0,043
-458,284	-44,914	0,130	0,047
-457,270	784,117	-0,073	-0,147
-456,255	132,735	-0,072	0,068
-455,241	-175,971	-0,110	0,002
-454,226	75,166	-0,024	-0,019
-453,211	-200,000	0,016	-0,065
-452,197	134,518	-0,085	0,080
-451,182	-47,744	-0,084	0,030
-450,168	-200,000	0,016	-0,063
-449,153	800,000	0,023	0,050
-448,138	-177,799	-0,068	-0,001
-447,124	370,444	0,071	-0,106
-446,109	-120,599	-0,264	0,032
-445,095	380,717	-0,021	0,031
-444,080	-200,000	-0,001	-0,130
-443,065	-200,000	0,034	-0,112
-442,051	356,901	0,032	-0,047
-441,036	-200,000	-0,020	0,074
-440,022	800,000	-0,049	-0,100
-439,007	-200,000	0,003	0,119
-437,992	92,217	0,091	0,075
-436,978	-200,000	-0,028	-0,147
-435,963	-89,079	-0,144	-0,031
-434,949	-94,431	0,026	0,005
-433,934	-200,000	-0,009	-0,055
-432,919	-37,102	-0,017	-0,007
-431,905	18,556	-0,083	-0,048
-430,890	230,846	0,093	-0,111
-429,876	-24,470	0,068	0,030
-428,861	37,406	-0,120	-0,078
-427,846	401,410	-0,050	-0,076
-426,832	-200,000	0,036	-0,163
-425,817	416,099	-0,018	-0,028
-424,803	-126,927	0,154	0,016
-423,788	76,589	-0,040	0,031
-422,773	-200,000	0,006	0,098
-421,759	-200,000	0,003	0,077
-420,744	-66,126	-0,105	0,030
-419,730	-153,677	0,073	0,004
-418,715	-67,565	-0,071	-0,020
-417,701	-144,581	-0,127	-0,008
-416,686	-81,735	0,123	-0,029
-415,671	-200,000	0,015	-0,056
-414,657	-167,473	0,098	-0,003
-413,642	428,561	-0,091	0,143
-412,628	-20,198	-0,114	-0,051
-411,613	125,351	-0,012	0,011
-410,598	-200,000	-0,009	-0,136
-409,584	289,448	0,043	-0,057
-408,569	-1,952	0,127	0,065
-407,555	-200,000	0,027	-0,115
-406,540	-114,937	0,011	0,002
-405,525	-122,928	0,116	-0,013
-404,511	261,908	-0,093	-0,118
-403,496	428,987	0,048	0,076
-402,482	-100,901	-0,081	0,014
-401,467	-200,000	0,012	0,082
-400,452	-24,736	0,095	-0,041
-399,438	1,097	-0,066	0,034
-398,423	209,762	-0,043	0,049
-397,409	800,000	-0,035	-0,108
-396,394	-200,000	-0,001	0,005
-395,379	244,513	0,033	0,040
-394,365	-60,200	0,035	-0,011
-393,350	128,705	0,149	0,138
-392,336	49,228	-0,081	-0,055
-391,321	-140,387	-0,083	-0,006
-390,306	-200,000	0,007	0,087
-389,292	-0,426	0,033	0,017
-388,277	-200,000	0,004	-0,065
-387,263	81,400	-0,065	-0,051
-386,248	17,396	0,088	0,051
-385,233	550,313	0,013	0,022
-384,219	17,907	-0,063	0,037
-383,204	-200,000	0,015	-0,074
-382,190	-200,000	0,012	0,040
-381,175	800,000	-0,023	-0,062
-380,160	800,000	-0,010	-0,030
-379,146	184,707	0,109	-0,117
-378,131	193,133	0,061	0,067
-377,117	206,413	0,051	0,058
-376,102	-83,326	0,032	0,007
-375,088	376,044	-0,072	-0,106
-374,073	-8,162	-0,070	0,034
-373,058	-65,213	-0,063	0,018
-372,044	-95,006	0,110	-0,021
-371,029	307,359	0,052	0,070
-370,015	800,000	0,034	0,081
-369,000	422,523	-0,021	-0,033
-367,985	99,867	0,008	-0,006
-366,971	307,210	0,039	0,053
-365,956	-200,000	-0,016	0,089
-364,942	800,000	0,076	0,162
-363,927	-200,000	0,000	0,028
-362,912	577,216	0,054	0,096
-361,898	-168,169	-0,165	0,005
-360,883	-122,563	0,090	-0,010
-359,869	-138,475	-0,066	0,005
-358,854	144,469	0,129	0,125
-357,839	800,000	-0,031	-0,083
-356,825	-200,000	-0,036	0,126
-355,810	800,000	0,055	0,145
-354,796	800,000	0,020	-0,056
-353,781	800,000	0,027	0,077
-352,766	462,665	0,076	-0,123
-351,752	80,787	-0,118	0,092
-350,737	-18,686	0,041	0,018
-349,723	294,216	0,030	0,040
-348,708	-147,665	0,073	-0,004
-347,693	538,342	0,033	0,058
-346,679	-85,159	-0,077	0,017
-345,664	4,340	0,040	-0,021
-344,650	280,717	0,049	-0,064
-343,635	-100,473	-0,043	0,008
-342,620	83,517	0,092	-0,073
-341,606	-200,000	-0,013	-0,081
-340,591	-200,000	0,009	-0,083
-339,577	-200,000	-0,023	-0,093
-338,562	198,062	-0,105	-0,117
-337,548	127,200	0,118	-0,108
-336,533	-200,000	0,019	0,086
-335,518	800,000	0,023	0,059
-334,504	-24,347	-0,142	0,061
-333,489	-45,424	0,085	0,030
-332,475	-200,000	0,082	0,000
-331,460	800,000	0,008	-0,018
-330,445	58,240	0,056	-0,040
-329,431	-200,000	-0,012	0,074
-328,416	-200,000	0,075	0,000
-327,402	215,964	0,060	0,069
-326,387	-200,000	0,009	-0,091
-325,372	-131,300	-0,045	-0,004
-324,358	48,780	0,137	-0,093
-323,343	800,000	-0,035	0,084
-322,329	-20,423	-0,072	-0,032
-321,314	-200,000	-0,007	-0,026
-320,299	-200,000	-0,037	0,143
-319,285	-81,697	0,035	0,008
-318,270	442,421	-0,023	-0,037
-317,256	135,776	-0,130	-0,122
-316,241	-200,000	0,020	-0,087
-315,226	134,719	-0,102	0,096
-314,212	-200,000	-0,016	0,149
-313,197	151,939	-0,071	0,070
-312,183	123,323	-0,015	0,013
-311,168	350,387	0,007	-0,010
-310,153	28,226	0,079	-0,048
-309,139	800,000	0,033	-0,067
-308,124	300,552	0,040	0,053
-307,110	553,936	0,002	0,004
-306,095	-184,291	0,086	0,001
-305,080	279,800	0,019	-0,025
-304,066	203,344	-0,176	-0,198
-303,051	-200,000	0,057	-0,236
-302,037	86,733	-0,068	-0,054
-301,022	-200,000	-0,010	0,103
-300,008	-200,000	0,005	0,118
-298,993	105,197	-0,088	0,075
-297,978	-121,443	-0,083	0,010
-296,964	800,000	-0,011	0,035
-295,949	525,027	-0,015	0,026
-294,935	337,387	-0,054	0,076
-293,920	-127,422	0,038	-0,004
-292,905	344,687	0,115	0,165
-291,891	-200,000	-0,004	0,071
-290,876	-97,322	0,108	0,020
-289,862	-2,377	0,149	0,075
-288,847	-200,000	0,027	-0,125
-287,832	34,323	-0,070	-0,044
-286,818	393,171	0,112	-0,170
-285,803	-54,795	0,101	-0,033
-284,789	800,000	0,069	0,170
-283,774	-88,773	0,049	-0,011
-282,759	-149,420	-0,058	0,003
-281,745	-200,000	0,007	-0,211
-280,730	-51,027	0,067	-0,023
-279,716	122,359	-0,039	0,035
-278,701	431,891	0,014	-0,022
-277,686	800,000	0,031	0,065
-276,672	-77,374	0,165	0,041
-275,657	-65,553	-0,151	-0,044
-274,643	-52,513	-0,053	-0,017
-273,628	51,970	0,061	-0,042
-272,613	48,542	0,036	-0,024
-271,599	145,567	-0,018	-0,017
-270,584	800,000	0,066	0,153
-269,570	-113,821	0,090	0,013
-268,555	68,505	-0,033	0,025
-267,540	-200,000	0,002	0,021
-266,526	-200,000	-0,043	-0,161
-265,511	-64,638	-0,037	0,011
-264,497	391,257	0,058	-0,088
-263,482	134,461	0,098	0,092
-262,467	-200,000	0,012	0,084
-261,453	-171,411	0,088	0,002
-260,438	-5,715	-0,088	-0,044
-259,424	-157,777	0,094	-0,004
-258,409	133,269	-0,056	-0,052
-257,395	59,929	-0,022	0,015
-256,380	218,057	0,042	0,049
-255,365	691,727	-0,087	0,165
-254,351	-113,355	-0,090	-0,013
-253,336	16,409	-0,038	-0,022
-252,322	59,552	-0,068	-0,049
-251,307	296,535	-0,044	-0,058
-250,292	-200,000	0,004	0,035
-249,278	-56,916	0,084	-0,027
-248,263	-130,638	0,083	0,008
-247,249	-200,000	-0,027	0,141
-246,234	-200,000	-0,007	0,044
-245,219	-161,120	0,174	-0,006
-244,205	21,106	-0,097	-0,057
-243,190	800,000	0,036	-0,075
-242,176	-200,000	0,018	0,135
-241,161	-60,464	0,094	-0,029
-240,146	115,996	0,086	0,076
-239,132	123,575	0,054	0,049
-238,117	181,150	0,118	-0,126
-237,103	5,500	-0,067	-0,036
-236,088	-18,030	-0,141	-0,064
-235,073	800,000	0,018	-0,051
-234,059	-157,280	0,108	-0,005
-233,044	258,782	0,057	0,071
-232,030	93,942	-0,036	0,030
-231,015	169,848	-0,043	0,044
-230,000	269,736	-0,115	0,146
-228,986	529,006	0,092	0,157
-227,971	-200,000	0,007	-0,102
-226,957	-200,000	0,013	-0,046
-225,942	-88,717	-0,089	-0,019
-224,927	-200,000	-0,001	-0,034
-223,913	-100,334	-0,129	0,023
-222,898	-200,000	0,002	-0,050
-221,884	-79,851	-0,025	0,006
-220,869	241,765	-0,041	0,050
-219,855	231,662	-0,045	0,054
-218,840	800,000	0,026	0,077
-217,825	-89,239	-0,043	-0,009
-216,811	-200,000	-0,012	-0,056
-215,796	-200,000	-0,017	-0,084
-214,782	-69,087	-0,021	0,006
-213,767	-200,000	0,034	0,124
-212,752	0,158	0,089	0,046
-211,738	-42,882	0,048	-0,018
-210,723	58,592	0,108	0,077
-209,709	-52,987	0,054	-0,018
-208,694	156,846	-0,072	-0,072
-207,679	-62,307	-0,046	0,014
-206,665	486,185	0,046	-0,075
-205,650	239,775	0,041	-0,049
-204,636	-2,372	-0,021	0,011
-203,621	32,692	0,062	-0,038
-202,606	-147,370	0,110	0,007
-201,592	332,802	-0,063	0,089
-200,577	-117,177	0,057	0,007
-199,563	-200,000	-0,022	-0,092
-198,548	479,821	0,063	-0,104
-197,533	-91,022	0,054	-0,011
-196,519	-145,333	0,094	-0,006
-195,504	747,890	0,033	-0,065
-194,490	70,721	-0,210	-0,157
-193,475	-200,000	0,002	-0,053
-192,460	244,129	-0,038	-0,047
-191,446	1,234	-0,037	-0,019
-190,431	437,474	-0,027	0,043
-189,417	243,602	-0,121	0,147
-188,402	681,804	-0,071	0,134
-187,387	-166,135	0,060	-0,002
-186,373	-140,087	0,197	-0,015
-185,358	-200,000	-0,005	-0,051
-184,344	84,500	-0,101	-0,079
-183,329	-200,000	-0,034	0,148
-182,315	-58,198	-0,092	0,029
-181,300	35,075	-0,025	-0,016
-180,285	36,232	-0,047	0,030
-179,271	800,000	0,016	-0,036
-178,256	-17,539	-0,074	-0,033
-177,242	58,916	0,055	0,039
-176,227	24,448	0,087	0,052
-175,212	-130,341	0,048	-0,005
-174,198	-175,309	-0,082	-0,002
-173,183	67,265	-0,086	-0,063
-172,169	58,066	0,016	0,011
-171,154	204,156	-0,033	-0,037
-170,139	-46,809	-0,069	-0,024
-169,125	56,740	0,060	-0,042
-168,110	-67,285	-0,038	0,011
-167,096	800,000	0,017	0,045
-166,081	-58,550	0,010	-0,003
-165,066	800,000	0,009	-0,028
-164,052	-68,298	-0,085	-0,024
-163,037	-44,126	0,071	-0,026
-162,023	649,950	-0,053	-0,099
-161,008	-45,778	0,072	0,026
-159,993	-200,000	-0,004	0,038
-158,979	-200,000	-0,014	-0,095
-157,964	254,403	0,081	0,100
-156,950	14,138	-0,031	-0,017
-155,935	-200,000	-0,008	0,122
-154,920	-200,000	-0,014	-0,097
-153,906	200,731	0,108	0,120
-152,891	506,674	-0,109	-0,182
-151,877	-200,000	-0,025	-0,143
-150,862	-16,107	-0,056	-0,026
-149,847	191,408	0,041	0,045
-148,833	570,603	0,023	0,041
-147,818	-200,000	-0,006	0,259
-146,804	-66,535	0,063	0,018
-145,789	90,526	-0,139	0,112
-144,775	-134,265	0,099	0,009
-143,760	800,000	0,029	0,072
-142,745	-138,705	-0,047	-0,004
-141,731	49,863	-0,036	0,024
-140,716	197,255	0,048	0,053
-139,702	519,082	0,026	0,043
-138,687	108,932	-0,054	0,047
-137,672	297,826	-0,096	-0,128
-136,658	-89,703	-0,105	0,022
-135,643	58,187	0,047	0,033
-134,629	377,756	-0,060	-0,089
-133,614	-86,709	0,109	0,024
-132,599	640,080	0,087	0,160
-131,585	800,000	0,050	0,105
-130,570	263,587	-0,099	-0,124
-129,556	711,659	0,028	0,054
-128,541	-90,233	-0,169	-0,035
-127,526	292,671	0,034	0,044
-126,512	-148,602	0,006	0,000
-125,497	-200,000	0,012	0,047
-124,483	137,158	-0,076	0,071
-123,468	800,000	0,010	0,029
-122,453	575,928	0,013	-0,023
-121,439	-77,786	-0,082	-0,020
-120,424	178,341	-0,037	-0,039
