DTS Sentinel unit serial number:	SN410029Multiplexer serial number:	ORYXHardware model number:	OX2-SRSoftware version number:	ORYX F/W v4,00 Oryx Data Collector v3.7.2.0data status	okinstallation	B5 Nyhavnadifferential loss correction	single-endedforward channel	channel 2reverse channel	N/Adate	2023/12/12time	14:42:13forward acquisition time	300,00reverse acquisition time	0,00gamma	499,1914k internal	0,3157k external	0,3157temperature offset calibration	1,0000default loss term (dB/km)	0,3820temperature slope calibration	1,0000multiplexer offset coefficient	1,0000multiplexer slope coefficient	1,0000fibre end	0,00T internal ref (°C)	15,88T ext. ref 1 (°C)	-0,34T ext. ref 2 (°C)	-0,60length (m)	temperature (°C)	Stokes	anti-Stokes-744,400	49,502	0,093	-0,064
-743,385	-157,714	-0,272	-0,012
-742,371	219,849	0,078	0,092
-741,356	-33,231	-0,271	-0,110
-740,342	562,930	-0,046	-0,082
-739,327	-118,887	-0,152	0,019
-738,312	-121,997	0,078	-0,009
-737,298	-137,236	-0,199	0,016
-736,283	291,299	0,026	-0,035
-735,269	-140,953	-0,180	0,013
-734,254	-22,811	0,104	0,046
-733,239	-54,482	-0,580	-0,192
-732,225	-0,220	0,214	0,112
-731,210	-200,000	-0,018	0,073
-730,196	103,873	-0,099	-0,086
-729,181	-200,000	-0,003	-0,065
-728,167	88,776	-0,064	0,052
-727,152	126,752	0,044	0,041
-726,137	-200,000	0,016	0,085
-725,123	88,028	-0,060	-0,049
-724,108	-200,000	-0,017	-0,091
-723,094	147,606	0,029	0,028
-722,079	-19,200	0,064	0,029
-721,064	-200,000	0,031	-0,172
-720,050	-200,000	-0,004	0,092
-719,035	92,136	-0,087	-0,072
-718,021	1,071	-0,048	0,025
-717,006	800,000	-0,073	-0,170
-715,991	-100,773	-0,068	0,012
-714,977	109,657	-0,055	-0,048
-713,962	-200,000	-0,027	0,152
-712,948	146,926	0,058	0,057
-711,933	50,313	-0,071	0,049
-710,918	-108,844	0,036	-0,006
-709,904	261,212	-0,031	-0,039
-708,889	282,285	-0,169	-0,224
-707,875	-65,463	-0,070	-0,020
-706,860	-200,000	-0,034	-0,172
-705,845	800,000	0,093	0,190
-704,831	726,741	0,050	-0,099
-703,816	-115,218	-0,050	-0,007
-702,802	-19,096	-0,041	0,019
-701,787	-200,000	-0,026	0,090
-700,772	-33,451	-0,078	0,031
-699,758	-200,000	0,004	0,024
-698,743	-200,000	0,009	-0,030
-697,729	123,070	0,073	0,068
-696,714	229,087	0,109	0,131
-695,699	-113,403	-0,202	-0,029
-694,685	-77,928	0,040	-0,010
-693,670	251,954	-0,054	0,068
-692,656	-106,228	0,148	0,024
-691,641	31,661	-0,064	0,041
-690,627	-2,669	0,088	-0,045
-689,612	-37,882	-0,059	0,023
-688,597	-200,000	0,011	-0,175
-687,583	800,000	-0,006	0,015
-686,568	-77,625	-0,047	0,012
-685,554	86,333	-0,099	-0,080
-684,539	244,658	0,059	-0,073
-683,524	-200,000	-0,007	-0,130
-682,510	439,562	-0,054	0,087
-681,495	800,000	-0,038	-0,120
-680,481	-200,000	-0,020	-0,068
-679,466	39,830	0,142	-0,094
-678,451	-49,123	0,088	-0,031
-677,437	534,939	-0,041	-0,071
-676,422	-200,000	0,016	0,079
-675,408	-21,496	-0,054	0,024
-674,393	720,168	0,027	0,053
-673,378	166,344	0,042	-0,044
-672,364	800,000	-0,095	-0,199
-671,349	-200,000	-0,000	0,001
-670,335	-57,167	0,026	0,008
-669,320	-200,000	0,008	0,107
-668,305	-200,000	0,116	0,000
-667,291	-123,147	-0,038	0,004
-666,276	559,372	-0,064	-0,114
-665,262	-200,000	0,012	-0,057
-664,247	43,833	-0,068	-0,045
-663,232	52,784	-0,125	0,088
-662,218	-200,000	-0,008	0,055
-661,203	-127,765	-0,075	-0,008
-660,189	321,848	-0,047	-0,066
-659,174	800,000	-0,039	-0,114
-658,159	-48,437	-0,120	-0,042
-657,145	63,965	-0,127	-0,094
-656,130	-164,072	0,040	0,001
-655,116	272,731	0,088	0,115
-654,101	-200,000	-0,002	0,092
-653,086	-44,366	-0,046	0,017
-652,072	-37,482	-0,050	0,019
-651,057	70,797	-0,052	-0,040
-650,043	800,000	-0,015	-0,047
-649,028	-200,000	-0,018	-0,133
-648,014	313,340	0,067	0,093
-646,999	289,274	0,076	0,101
-645,984	207,325	0,022	-0,026
-644,970	800,000	-0,045	0,117
-643,955	-130,822	0,053	-0,005
-642,941	-58,517	-0,134	-0,042
-641,926	-200,000	0,023	-0,096
-640,911	-1,187	0,092	0,047
-639,897	20,004	-0,113	-0,067
-638,882	575,291	0,099	-0,178
-637,868	299,694	-0,042	-0,057
-636,853	382,353	0,023	-0,035
-635,838	-173,724	-0,110	-0,002
-634,824	800,000	0,061	0,130
-633,809	800,000	-0,039	-0,123
-632,795	-200,000	0,003	0,054
-631,780	-200,000	-0,002	0,069
-630,765	-200,000	0,026	0,107
-629,751	-121,946	0,068	-0,008
-628,736	565,092	-0,058	-0,104
-627,722	407,994	-0,053	0,082
-626,707	-141,321	-0,152	0,011
-625,692	-128,483	-0,082	-0,008
-624,678	210,981	0,049	-0,057
-623,663	-78,670	-0,048	-0,012
-622,649	-60,247	-0,062	-0,019
-621,634	116,287	0,106	-0,095
-620,619	123,504	-0,154	-0,142
-619,605	-200,000	0,006	0,145
-618,590	-164,866	-0,095	-0,003
-617,576	-200,000	-0,021	0,083
-616,561	-200,000	0,002	-0,037
-615,546	-200,000	-0,018	0,131
-614,532	542,023	-0,036	0,063
-613,517	800,000	0,024	-0,048
-612,503	151,450	0,081	-0,081
-611,488	-65,535	-0,043	-0,013
-610,474	-47,663	0,115	0,041
-609,459	270,594	-0,060	0,077
-608,444	-71,434	0,109	0,030
-607,430	-200,000	-0,003	-0,124
-606,415	190,169	-0,092	-0,102
-605,401	800,000	-0,043	-0,127
-604,386	-12,380	-0,095	-0,045
-603,371	-27,047	0,080	0,034
-602,357	-20,534	0,113	0,051
-601,342	498,567	-0,056	-0,095
-600,328	-68,830	-0,095	0,027
-599,313	800,000	-0,010	-0,033
-598,298	324,510	0,049	-0,068
-597,284	-200,000	-0,013	0,242
-596,269	-16,747	0,081	-0,037
-595,255	153,090	-0,126	0,126
-594,240	-28,569	-0,016	0,007
-593,225	280,698	-0,025	0,033
-592,211	-200,000	-0,006	0,027
-591,196	-200,000	-0,013	0,054
-590,182	30,542	0,119	0,074
-589,167	-200,000	0,010	0,062
-588,152	-200,000	0,016	-0,087
-587,138	195,238	-0,051	-0,056
-586,123	-32,567	-0,194	-0,079
-585,109	-150,660	0,119	-0,007
-584,094	716,828	-0,036	0,071
-583,079	-54,580	-0,111	0,037
-582,065	-71,931	0,085	-0,023
-581,050	-200,000	-0,004	0,140
-580,036	-101,247	-0,062	0,011
-579,021	24,778	0,130	0,079
-578,006	-200,000	0,020	-0,121
-576,992	-200,000	0,010	-0,116
-575,977	800,000	0,071	-0,191
-574,963	17,059	0,131	0,076
-573,948	476,293	0,060	0,100
-572,934	-200,000	0,015	-0,118
-571,919	182,389	-0,036	0,039
-570,904	-200,000	0,016	-0,115
-569,890	-200,000	0,024	-0,081
-568,875	140,693	0,121	0,117
-567,861	6,409	-0,051	0,027
-566,846	2,604	0,053	0,028
-565,831	-95,331	0,137	-0,027
-564,817	-81,019	-0,138	0,033
-563,802	-200,000	0,045	-0,213
-562,788	129,990	0,036	0,034
-561,773	175,306	0,093	-0,099
-560,758	469,679	-0,060	-0,098
-559,744	139,352	-0,056	0,054
-558,729	-32,949	0,046	-0,018
-557,715	141,738	-0,143	-0,139
-556,700	209,655	0,003	-0,003
-555,685	265,940	-0,032	0,041
-554,671	-200,000	0,019	0,133
-553,656	300,923	0,071	-0,096
-552,642	736,084	-0,060	-0,119
-551,627	-162,922	-0,067	0,002
-550,612	157,465	0,056	0,057
-549,598	364,115	0,050	-0,074
-548,583	51,602	0,075	0,052
-547,569	-200,000	0,019	-0,065
-546,554	-103,220	0,187	0,032
-545,539	-137,235	0,191	-0,016
-544,525	-200,000	0,010	0,045
-543,510	-200,000	-0,008	0,061
-542,496	64,521	-0,142	0,104
-541,481	463,636	-0,007	-0,011
-540,466	46,089	0,023	-0,016
-539,452	-200,000	-0,005	0,155
-538,437	-19,857	0,122	-0,055
-537,423	-37,206	-0,077	0,030
-536,408	-25,439	-0,033	-0,014
-535,393	800,000	-0,016	-0,032
-534,379	-70,763	-0,138	0,038
-533,364	-200,000	-0,011	0,203
-532,350	-200,000	0,020	0,152
-531,335	-15,400	0,092	-0,043
-530,321	-200,000	0,009	0,092
-529,306	11,460	-0,070	-0,039
-528,291	114,493	0,032	0,029
-527,277	317,258	0,016	-0,022
-526,262	211,527	-0,010	-0,011
-525,248	241,846	0,127	0,155
-524,233	269,183	-0,040	0,051
-523,218	-102,249	-0,124	-0,022
-522,204	-27,652	-0,076	-0,032
-521,189	175,253	-0,088	-0,093
-520,175	652,911	0,041	-0,077
-519,160	500,546	0,064	-0,109
-518,145	-182,060	0,074	0,001
-517,131	-200,000	0,001	0,098
-516,116	800,000	0,017	-0,040
-515,102	-25,188	-0,141	0,061
-514,087	-34,509	-0,184	-0,073
-513,072	9,995	0,028	0,015
-512,058	431,200	-0,057	-0,091
-511,043	-49,316	0,125	0,043
-510,029	92,598	0,083	0,069
-509,014	220,657	0,028	-0,033
-507,999	-149,964	0,076	0,004
-506,985	-200,000	-0,002	0,076
-505,970	800,000	-0,057	-0,130
-504,956	68,585	-0,031	-0,023
-503,941	-63,539	0,048	0,014
-502,926	-5,243	-0,045	-0,022
-501,912	111,568	0,073	0,065
-500,897	-35,458	-0,157	0,062
-499,883	-5,231	-0,056	0,028
-498,868	-54,787	-0,021	-0,007
-497,853	611,739	0,033	-0,060
-496,839	-75,003	0,103	0,027
-495,824	-200,000	-0,007	-0,116
-494,810	735,187	-0,020	0,039
-493,795	-70,978	-0,180	0,049
-492,781	-106,404	-0,144	0,023
-491,766	-200,000	-0,022	-0,088
-490,751	400,493	0,063	-0,097
-489,737	-76,642	-0,096	-0,024
-488,722	-155,492	0,106	-0,005
-487,708	713,012	-0,022	0,043
-486,693	-200,000	0,018	0,130
-485,678	-0,303	-0,136	0,070
-484,664	128,639	-0,071	0,066
-483,649	-11,502	-0,071	-0,034
-482,635	-200,000	-0,007	0,029
-481,620	-16,931	-0,088	-0,041
-480,605	800,000	0,037	0,078
-479,591	62,784	-0,104	-0,076
-478,576	-42,595	-0,056	-0,021
-477,562	-47,475	0,174	-0,061
-476,547	-200,000	0,032	-0,145
-475,532	-75,753	-0,131	-0,034
-474,518	-115,015	0,137	0,019
-473,503	264,251	0,063	0,080
-472,489	-200,000	-0,021	0,128
-471,474	-200,000	-0,038	0,135
-470,459	-200,000	0,001	-0,047
-469,445	31,921	0,097	0,061
-468,430	800,000	0,008	-0,022
-467,416	522,335	0,025	-0,043
-466,401	36,011	0,114	0,073
-465,386	-8,292	-0,022	0,011
-464,372	-200,000	-0,012	-0,193
-463,357	50,586	-0,038	0,026
-462,343	-200,000	-0,016	-0,124
-461,328	421,055	-0,027	0,042
-460,313	-200,000	0,014	-0,046
-459,299	-200,000	0,022	0,087
-458,284	82,230	0,039	0,031
-457,270	59,793	-0,119	-0,086
-456,255	-131,343	-0,024	0,002
-455,241	-126,265	0,133	0,014
-454,226	239,912	0,086	0,105
-453,211	171,845	0,024	-0,025
-452,197	800,000	0,035	0,084
-451,182	10,961	0,178	0,099
-450,168	360,364	-0,063	0,092
-449,153	800,000	-0,038	0,086
-448,138	-200,000	-0,002	0,065
-447,124	-145,271	0,069	-0,005
-446,109	110,794	-0,109	-0,096
-445,095	114,285	0,129	0,115
-444,080	-200,000	0,052	0,193
-443,065	800,000	0,019	-0,044
-442,051	800,000	-0,029	0,086
-441,036	575,993	0,022	0,040
-440,022	17,217	0,064	-0,037
-439,007	-132,031	0,121	-0,011
-437,992	-200,000	-0,021	-0,104
-436,978	398,521	-0,038	-0,059
-435,963	60,095	0,058	-0,042
-434,949	174,633	0,089	0,093
-433,934	-200,000	0,004	0,023
-432,919	51,311	-0,042	-0,029
-431,905	291,045	-0,053	0,070
-430,890	249,036	0,020	0,025
-429,876	328,713	0,108	-0,151
-428,861	800,000	-0,019	0,047
-427,846	-200,000	-0,010	0,074
-426,832	93,048	0,054	0,045
-425,817	-90,497	-0,092	-0,019
-424,803	295,476	0,034	-0,045
-423,788	-73,131	0,003	0,001
-422,773	346,377	0,023	0,032
-421,759	229,077	0,047	0,056
-420,744	-3,711	0,058	0,029
-419,730	686,332	0,026	0,050
-418,715	800,000	-0,027	-0,066
-417,701	-76,761	0,019	-0,005
-416,686	607,984	-0,031	0,057
-415,671	140,469	-0,059	-0,057
-414,657	426,917	-0,008	-0,013
-413,642	-173,530	0,023	0,000
-412,628	800,000	0,037	-0,116
-411,613	-200,000	0,015	-0,211
-410,598	-200,000	0,006	0,020
-409,584	591,494	0,054	-0,098
-408,569	-200,000	0,002	-0,119
-407,555	184,521	0,089	0,096
-406,540	-200,000	0,015	-0,058
-405,525	-162,223	0,125	-0,004
-404,511	-104,391	-0,055	0,009
-403,496	-200,000	0,027	-0,096
-402,482	526,372	0,037	-0,064
-401,467	443,755	0,080	0,127
-400,452	800,000	-0,015	-0,039
-399,438	-200,000	0,040	-0,144
-398,423	-200,000	0,002	0,085
-397,409	65,645	0,032	0,023
-396,394	-7,161	-0,089	0,044
-395,379	800,000	0,021	-0,059
-394,365	-103,255	0,070	-0,012
-393,350	800,000	0,027	-0,087
-392,336	-51,742	0,146	0,049
-391,321	-200,000	0,009	0,104
-390,306	687,233	0,067	0,127
-389,292	38,620	0,064	-0,042
-388,277	-80,161	-0,101	-0,024
-387,263	243,200	0,019	-0,023
-386,248	299,010	-0,024	0,032
-385,233	112,536	-0,213	0,188
-384,219	170,387	-0,078	0,081
-383,204	-200,000	-0,054	0,191
-382,190	8,669	-0,068	0,037
-381,175	210,803	0,043	0,049
-380,160	800,000	-0,045	-0,094
-379,146	61,694	-0,034	0,024
-378,131	57,163	-0,104	-0,074
-377,117	800,000	0,060	0,134
-376,102	-80,706	-0,162	0,039
-375,088	-92,264	0,110	0,022
-374,073	473,613	0,039	-0,065
-373,058	800,000	0,021	0,060
-372,044	-74,577	-0,096	-0,025
-371,029	675,328	-0,065	0,123
-370,015	-70,569	0,124	0,034
-369,000	-200,000	0,014	-0,081
-367,985	55,228	-0,125	-0,087
-366,971	2,125	-0,008	-0,004
-365,956	61,439	0,125	-0,090
-364,942	-200,000	0,013	0,072
-363,927	800,000	-0,023	-0,048
-362,912	800,000	-0,034	-0,086
-361,898	-200,000	-0,020	-0,065
-360,883	800,000	0,023	-0,055
-359,869	222,965	0,084	-0,098
-358,854	302,519	-0,014	-0,019
-357,839	30,336	0,051	0,032
-356,825	800,000	-0,040	0,105
-355,810	54,356	0,026	-0,018
-354,796	800,000	-0,011	-0,031
-353,781	-56,995	0,033	-0,011
-352,766	32,197	-0,022	0,014
-351,752	-200,000	0,010	-0,058
-350,737	245,847	0,068	0,083
-349,723	800,000	0,064	0,171
-348,708	7,817	0,124	0,067
-347,693	19,235	0,029	-0,017
-346,679	800,000	-0,054	-0,137
-345,664	800,000	-0,016	-0,045
-344,650	-22,787	0,055	0,024
-343,635	800,000	0,042	0,117
-342,620	408,844	0,017	0,027
-341,606	-34,184	-0,137	0,054
-340,591	800,000	0,008	-0,019
-339,577	-22,512	-0,079	-0,035
-338,562	-200,000	-0,033	-0,139
-337,548	2,717	-0,112	-0,059
-336,533	73,417	0,065	0,049
-335,518	235,495	-0,087	0,104
-334,504	15,830	0,069	0,040
-333,489	-14,907	-0,083	-0,038
-332,475	368,927	-0,021	-0,030
-331,460	-58,911	-0,098	-0,031
-330,445	-200,000	0,019	-0,152
-329,431	-200,000	0,010	0,068
-328,416	-200,000	0,028	0,105
-327,402	-134,644	-0,065	-0,006
-326,387	119,590	0,084	-0,076
-325,372	256,796	0,049	0,061
-324,358	188,622	-0,036	-0,039
-323,343	-82,934	0,021	-0,005
-322,329	-12,075	-0,031	0,015
-321,314	87,658	-0,017	0,014
-320,299	468,605	0,135	0,220
-319,285	800,000	-0,032	-0,088
-318,270	800,000	0,019	0,053
-317,256	379,705	-0,038	-0,057
-316,241	-51,801	-0,138	0,046
-315,226	196,289	0,121	0,134
-314,212	192,183	0,061	0,067
-313,197	247,857	-0,066	0,081
-312,183	257,410	0,041	0,051
-311,168	-7,818	-0,180	-0,088
-310,153	-4,019	-0,079	-0,039
-309,139	140,492	-0,064	-0,062
-308,124	800,000	0,014	-0,037
-307,110	-157,971	0,169	-0,007
-306,095	-200,000	0,006	0,176
-305,080	-125,202	0,156	-0,017
-304,066	-200,000	0,003	0,135
-303,051	-200,000	0,044	-0,147
-302,037	-49,703	0,094	-0,032
-301,022	-41,484	-0,074	0,028
-300,008	-200,000	-0,003	-0,067
-298,993	269,011	0,054	-0,069
-297,978	-200,000	0,004	0,109
-296,964	34,426	0,025	-0,016
-295,949	537,102	-0,008	-0,013
-294,935	13,914	-0,019	0,011
-293,920	423,752	0,077	-0,120
-292,905	-75,871	0,045	0,012
-291,891	-200,000	-0,006	-0,046
-290,876	238,214	-0,116	0,140
-289,862	188,183	0,074	-0,080
-288,847	-132,765	-0,093	-0,009
-287,832	-179,775	-0,061	0,001
-286,818	800,000	-0,030	-0,086
-285,803	119,445	0,128	-0,115
-284,789	-101,279	0,062	-0,011
-283,774	32,467	-0,097	0,061
-282,759	-200,000	-0,016	-0,102
-281,745	-110,012	-0,095	0,014
-280,730	-200,000	0,015	0,113
-279,716	317,574	-0,056	0,077
-278,701	134,035	0,093	-0,088
-277,686	581,979	-0,034	0,061
-276,672	66,091	0,110	-0,081
-275,657	-200,000	0,016	-0,079
-274,643	20,739	-0,115	-0,067
-273,628	-115,030	-0,089	-0,012
-272,613	-120,524	-0,071	0,009
-271,599	151,820	0,036	-0,036
-270,584	-16,086	0,050	-0,023
-269,570	-90,297	-0,068	-0,014
-268,555	101,034	-0,148	-0,124
-267,540	-200,000	-0,023	-0,099
-266,526	800,000	0,028	0,070
-265,511	-26,192	-0,072	-0,031
-264,497	5,161	0,084	-0,045
-263,482	28,875	-0,071	0,044
-262,467	-70,223	0,093	0,025
-261,453	-82,053	-0,097	0,023
-260,438	800,000	0,059	-0,129
-259,424	-107,838	-0,108	0,017
-258,409	171,121	0,161	-0,167
-257,395	800,000	0,064	-0,185
-256,380	174,434	-0,026	0,027
-255,365	-8,167	-0,057	0,028
-254,351	-200,000	-0,008	0,057
-253,336	-200,000	0,004	-0,063
-252,322	-65,329	0,019	-0,005
-251,307	800,000	-0,039	-0,108
-250,292	-85,318	0,155	0,035
-249,278	588,306	0,151	0,270
-248,263	22,665	-0,148	-0,088
-247,249	800,000	-0,011	0,033
-246,234	149,850	-0,027	0,027
-245,219	133,315	0,060	-0,056
-244,205	513,975	-0,043	-0,073
-243,190	-200,000	0,024	-0,158
-242,176	113,394	-0,025	0,022
-241,161	575,737	-0,014	-0,024
-240,146	257,947	0,030	0,037
-239,132	192,875	-0,029	-0,031
-238,117	-200,000	0,009	-0,097
-237,103	-200,000	-0,028	0,123
-236,088	-200,000	0,014	-0,060
-235,073	800,000	-0,024	0,057
-234,059	163,236	0,088	-0,089
-233,044	-63,314	-0,131	-0,039
-232,030	-59,056	-0,041	-0,013
-231,015	131,152	0,086	-0,080
-230,000	-196,240	-0,050	0,000
-228,986	-122,422	-0,096	0,011
-227,971	487,192	0,077	-0,128
-226,957	-96,271	-0,079	0,015
-225,942	800,000	0,017	-0,035
-224,927	73,520	-0,072	0,054
-223,913	4,029	0,149	0,079
-222,898	-10,476	-0,060	-0,029
-221,884	-83,891	0,143	0,033
-220,869	800,000	-0,015	0,041
-219,855	-200,000	0,009	0,038
-218,840	-200,000	0,011	0,073
-217,825	-200,000	-0,008	-0,037
-216,811	245,024	0,057	-0,069
-215,796	-52,345	-0,060	0,020
-214,782	-200,000	0,003	-0,097
-213,767	-200,000	0,027	-0,093
-212,752	-171,060	0,133	0,003
-211,738	-180,317	0,027	-0,000
-210,723	251,432	-0,062	0,077
-209,709	665,985	0,032	0,061
-208,694	800,000	0,058	-0,116
-207,679	-200,000	0,002	0,011
-206,665	126,669	-0,070	0,064
-205,650	-200,000	-0,057	0,196
-204,636	-200,000	0,001	0,094
-203,621	800,000	0,026	-0,069
-202,606	-131,535	-0,099	-0,009
-201,592	-92,901	0,124	0,025
-200,577	-30,512	-0,021	0,008
-199,563	-200,000	-0,031	0,100
-198,548	800,000	0,027	-0,072
-197,533	-151,406	-0,036	-0,002
-196,519	586,660	-0,009	0,016
-195,504	-58,402	-0,117	-0,036
-194,490	800,000	-0,027	-0,072
-193,475	-200,000	-0,016	-0,091
-192,460	399,806	-0,063	0,096
-191,446	800,000	-0,066	0,197
-190,431	-200,000	-0,021	0,113
-189,417	63,316	-0,017	-0,012
-188,402	107,324	-0,080	-0,069
-187,387	-200,000	0,036	-0,126
-186,373	460,688	-0,042	-0,068
-185,358	-200,000	-0,023	-0,143
-184,344	800,000	-0,040	0,109
-183,329	33,576	0,055	0,034
-182,315	226,187	-0,063	0,074
-181,300	800,000	0,034	0,107
-180,285	371,219	-0,051	-0,075
-179,271	-200,000	-0,003	0,033
-178,256	800,000	0,040	-0,080
-177,242	-140,830	0,024	0,002
-176,227	-25,212	0,140	0,059
-175,212	-120,405	-0,033	-0,004
-174,198	-112,820	-0,191	0,027
-173,183	-200,000	0,015	0,060
-172,169	800,000	0,030	0,075
-171,154	-115,453	-0,065	-0,009
-170,139	256,825	0,089	-0,110
-169,125	-120,168	0,013	0,002
-168,110	-136,964	-0,055	-0,004
-167,096	349,734	0,046	0,066
-166,081	-22,653	-0,122	-0,053
-165,066	-52,534	-0,049	-0,016
-164,052	76,430	-0,166	0,127
-163,037	740,745	0,012	-0,024
-162,023	-200,000	0,018	-0,061
-161,008	393,797	0,023	-0,035
-159,993	800,000	0,007	-0,016
-158,979	-200,000	-0,003	0,074
-157,964	725,324	0,052	-0,101
-156,950	-32,727	-0,153	0,061
-155,935	-200,000	-0,023	0,082
-154,920	-80,370	0,124	0,030
-153,906	-167,276	0,142	-0,004
-152,891	-93,966	0,025	-0,005
-151,877	-144,386	0,060	-0,004
-150,862	-134,439	0,060	-0,005
-149,847	138,153	0,110	0,104
-148,833	-182,003	-0,071	-0,001
-147,818	-148,615	0,154	-0,009
-146,804	800,000	-0,036	0,098
-145,789	131,463	0,063	-0,059
-144,775	800,000	-0,047	0,125
-143,760	-66,121	-0,115	0,033
-142,745	-200,000	0,021	-0,126
-141,731	380,323	0,069	0,103
-140,716	-71,503	0,066	0,018
-139,702	-61,909	0,081	0,024
-138,687	-148,477	-0,160	-0,009
-137,672	-53,673	-0,010	0,003
-136,658	-79,595	0,064	-0,016
-135,643	400,285	-0,055	-0,084
-134,629	110,755	-0,112	-0,097
-133,614	800,000	0,012	0,033
-132,599	-155,756	-0,056	0,003
-131,585	-95,070	0,185	-0,036
-130,570	-41,708	-0,114	-0,042
-129,556	-200,000	0,013	-0,059
-128,541	33,940	-0,046	0,029
-127,526	339,405	-0,025	-0,035
-126,512	800,000	-0,048	-0,131
-125,497	800,000	0,045	0,089
-124,483	3,691	-0,090	0,047
-123,468	-14,798	-0,094	0,043
-122,453	-200,000	-0,027	-0,132
-121,439	166,492	0,041	0,042
-120,424	73,209	0,027	-0,020
-119,410	-200,000	-0,010	0,065
