DTS Sentinel unit serial number:	SN410029Multiplexer serial number:	ORYXHardware model number:	OX2-SRSoftware version number:	ORYX F/W v4,00 Oryx Data Collector v3.7.2.0data status	okinstallation	B5 Nyhavnadifferential loss correction	single-endedforward channel	channel 2reverse channel	N/Adate	2023/12/12time	02:57:13forward acquisition time	300,00reverse acquisition time	0,00gamma	499,1914k internal	0,3156k external	0,3156temperature offset calibration	1,0000default loss term (dB/km)	0,3820temperature slope calibration	1,0000multiplexer offset coefficient	1,0000multiplexer slope coefficient	1,0000fibre end	0,00T internal ref (°C)	15,75T ext. ref 1 (°C)	-0,71T ext. ref 2 (°C)	-1,00length (m)	temperature (°C)	Stokes	anti-Stokes-744,400	-77,767	0,080	0,020
-743,385	-88,421	-0,304	0,066
-742,371	-66,593	0,215	0,063
-741,356	-19,511	-0,275	0,125
-740,342	159,867	0,033	0,033
-739,327	-145,774	-0,224	0,014
-738,312	-76,814	0,237	0,061
-737,298	-129,099	-0,319	-0,032
-736,283	195,742	0,094	-0,105
-735,269	-157,906	-0,293	0,013
-734,254	-13,616	0,246	0,117
-733,239	-70,723	-0,602	-0,166
-732,225	47,232	0,121	0,083
-731,210	-200,000	0,004	-0,030
-730,196	-40,273	-0,054	-0,020
-729,181	797,538	-0,043	0,088
-728,167	-87,998	0,059	0,013
-727,152	2,455	-0,094	-0,050
-726,137	50,559	-0,130	-0,091
-725,123	651,743	0,011	-0,021
-724,108	800,000	-0,043	-0,090
-723,094	-200,000	0,002	-0,044
-722,079	-82,836	-0,139	-0,033
-721,064	-200,000	-0,014	0,067
-720,050	48,099	-0,121	0,083
-719,035	-133,263	-0,210	0,019
-718,021	300,132	-0,062	-0,085
-717,006	19,192	-0,021	0,013
-715,991	-142,129	-0,054	0,004
-714,977	161,872	-0,056	-0,058
-713,962	-200,000	0,022	-0,126
-712,948	800,000	-0,047	-0,121
-711,933	-172,526	-0,143	-0,003
-710,918	-36,926	-0,110	0,043
-709,904	224,623	-0,027	0,032
-708,889	314,363	-0,091	-0,126
-707,875	800,000	-0,056	-0,117
-706,860	14,294	0,008	0,005
-705,845	17,947	-0,037	-0,022
-704,831	800,000	0,013	0,032
-703,816	201,405	-0,057	0,064
-702,802	147,699	0,085	-0,084
-701,787	-200,000	0,014	-0,125
-700,772	-16,860	0,081	-0,038
-699,758	270,173	-0,007	0,009
-698,743	800,000	0,005	0,013
-697,729	-200,000	-0,006	0,057
-696,714	45,675	0,068	-0,046
-695,699	-137,192	-0,129	0,011
-694,685	22,440	-0,121	0,072
-693,670	-61,197	-0,039	-0,012
-692,656	-18,325	-0,025	-0,011
-691,641	154,754	-0,093	-0,094
-690,627	-27,685	0,167	-0,071
-689,612	166,481	-0,084	0,087
-688,597	-200,000	-0,026	0,088
-687,583	-153,057	-0,208	-0,011
-686,568	-165,956	0,022	0,001
-685,554	-200,000	0,011	0,143
-684,539	-200,000	0,002	-0,019
-683,524	233,979	-0,059	0,071
-682,510	800,000	-0,031	-0,072
-681,495	-200,000	0,016	0,084
-680,481	43,854	0,058	-0,039
-679,466	-200,000	0,027	-0,218
-678,451	65,284	-0,053	0,039
-677,437	-200,000	0,012	-0,067
-676,422	-200,000	0,012	0,045
-675,408	800,000	-0,003	-0,007
-674,393	-122,601	-0,102	-0,012
-673,378	189,145	-0,103	-0,114
-672,364	800,000	-0,088	-0,239
-671,349	800,000	-0,022	-0,059
-670,335	-200,000	-0,004	0,174
-669,320	325,870	-0,105	0,148
-668,305	800,000	-0,030	0,085
-667,291	-6,269	0,084	0,042
-666,276	470,394	0,027	0,044
-665,262	336,999	-0,122	-0,175
-664,247	454,977	-0,077	-0,126
-663,232	-36,995	0,020	0,008
-662,218	-113,790	-0,078	-0,011
-661,203	800,000	0,070	-0,150
-660,189	800,000	0,021	-0,052
-659,174	383,795	0,069	-0,104
-658,159	0,362	0,042	0,022
-657,145	96,593	0,088	0,074
-656,130	2,498	-0,128	-0,068
-655,116	-46,544	0,136	-0,049
-654,101	-200,000	-0,008	0,126
-653,086	278,740	-0,046	-0,060
-652,072	-200,000	-0,015	-0,067
-651,057	-101,215	-0,101	-0,018
-650,043	63,953	0,108	0,080
-649,028	-200,000	-0,007	0,108
-648,014	-200,000	-0,027	0,098
-646,999	-35,542	-0,064	0,025
-645,984	-200,000	0,019	-0,067
-644,970	-200,000	0,010	-0,188
-643,955	-200,000	0,007	-0,050
-642,941	-200,000	0,018	0,091
-641,926	-161,356	-0,099	0,004
-640,911	18,537	-0,056	0,033
-639,897	113,112	0,040	0,035
-638,882	-132,965	-0,077	0,007
-637,868	339,273	-0,109	-0,156
-636,853	-57,006	-0,090	0,029
-635,838	-112,314	0,035	-0,005
-634,824	800,000	-0,066	-0,134
-633,809	-137,374	0,024	0,002
-632,795	525,532	0,008	0,013
-631,780	-200,000	-0,011	-0,145
-630,765	-102,816	-0,047	0,008
-629,751	-161,172	-0,081	0,003
-628,736	-156,266	-0,147	0,007
-627,722	225,828	0,068	-0,081
-626,707	800,000	0,019	-0,052
-625,692	-200,000	0,011	-0,103
-624,678	-29,183	0,026	0,011
-623,663	417,869	-0,140	-0,221
-622,649	800,000	0,018	-0,054
-621,634	406,445	-0,074	-0,115
-620,619	53,306	-0,163	0,115
-619,605	50,053	-0,013	-0,009
-618,590	189,636	0,086	0,095
-617,576	84,307	-0,063	-0,051
-616,561	-129,959	-0,031	-0,003
-615,546	73,915	-0,035	-0,027
-614,532	-200,000	-0,006	-0,076
-613,517	800,000	0,045	0,108
-612,503	-8,354	0,110	0,054
-611,488	-19,312	-0,029	-0,013
-610,474	-200,000	-0,004	0,113
-609,459	103,246	-0,043	0,037
-608,444	-44,415	-0,074	0,027
-607,430	29,626	-0,019	0,012
-606,415	-23,887	-0,096	0,042
-605,401	307,697	-0,064	0,087
-604,386	324,972	0,086	0,121
-603,371	133,716	-0,104	0,099
-602,357	184,617	-0,131	-0,143
-601,342	33,096	0,018	-0,012
-600,328	-200,000	0,007	-0,084
-599,313	-200,000	0,003	0,065
-598,298	680,823	-0,010	0,019
-597,284	-41,505	0,055	-0,021
-596,269	553,769	0,016	-0,028
-595,255	800,000	0,032	0,078
-594,240	-137,562	-0,164	-0,013
-593,225	279,280	-0,087	-0,115
-592,211	-200,000	-0,001	0,061
-591,196	-11,385	0,072	-0,035
-590,182	28,405	-0,089	0,055
-589,167	-55,947	0,162	-0,053
-588,152	-200,000	-0,016	0,113
-587,138	-144,509	-0,080	-0,005
-586,123	326,844	-0,108	-0,153
-585,109	67,383	-0,150	0,112
-584,094	752,638	-0,056	0,111
-583,079	165,070	0,077	-0,079
-582,065	-96,248	-0,078	-0,015
-581,050	24,411	0,066	-0,040
-580,036	-200,000	-0,011	-0,169
-579,021	-116,681	-0,091	0,012
-578,006	-14,686	-0,035	0,016
-576,992	145,889	0,054	-0,053
-575,977	-79,741	0,063	-0,015
-574,963	199,487	0,170	0,191
-573,948	20,118	0,050	0,030
-572,934	-200,000	-0,032	0,117
-571,919	-103,217	-0,055	0,009
-570,904	-95,056	-0,084	-0,016
-569,890	-200,000	-0,026	-0,168
-568,875	-200,000	-0,027	-0,093
-567,861	0,756	0,059	-0,031
-566,846	-46,317	0,081	-0,029
-565,831	79,277	-0,120	-0,094
-564,817	696,926	0,085	-0,165
-563,802	800,000	-0,061	-0,136
-562,788	-120,828	-0,121	-0,015
-561,773	0,418	-0,042	-0,022
-560,758	-135,598	0,141	-0,012
-559,744	107,660	-0,067	-0,058
-558,729	800,000	-0,021	-0,054
-557,715	-50,084	-0,089	-0,031
-556,700	291,110	-0,018	0,023
-555,685	-84,697	0,102	0,023
-554,671	-129,207	-0,038	-0,004
-553,656	-200,000	-0,002	-0,039
-552,642	62,682	-0,055	0,040
-551,627	-200,000	-0,006	0,099
-550,612	-32,485	0,090	0,037
-549,598	20,781	-0,132	-0,078
-548,583	-168,679	0,146	-0,004
-547,569	-200,000	0,022	-0,082
-546,554	54,182	-0,057	-0,040
-545,539	3,751	-0,154	0,082
-544,525	-200,000	0,010	-0,065
-543,510	367,886	-0,073	-0,108
-542,496	-55,009	-0,042	-0,014
-541,481	-11,146	-0,099	-0,048
-540,466	-27,834	0,049	0,021
-539,452	242,582	-0,049	0,060
-538,437	537,274	-0,078	0,135
-537,423	163,465	0,075	-0,078
-536,408	800,000	0,037	-0,087
-535,393	-200,000	0,006	-0,082
-534,379	-200,000	0,008	-0,229
-533,364	-200,000	-0,010	0,136
-532,350	24,534	0,104	0,063
-531,335	-200,000	-0,024	-0,151
-530,321	-200,000	0,003	-0,051
-529,306	-200,000	-0,005	0,043
-528,291	-200,000	0,019	-0,089
-527,277	-13,499	0,095	0,045
-526,262	-184,412	0,141	0,002
-525,248	-98,552	-0,061	-0,011
-524,233	-200,000	0,100	-0,000
-523,218	210,036	-0,066	0,076
-522,204	216,763	0,018	-0,021
-521,189	-95,034	-0,136	0,027
-520,175	-91,612	-0,061	-0,013
-519,160	-36,313	0,108	0,042
-518,145	-134,962	-0,117	0,010
-517,131	-200,000	0,013	0,169
-516,116	647,433	0,031	0,058
-515,102	-49,292	0,144	0,050
-514,087	800,000	0,018	-0,046
-513,072	331,926	-0,027	0,038
-512,058	-19,146	-0,097	0,044
-511,043	118,257	-0,064	0,058
-510,029	-200,000	-0,000	0,103
-509,014	-123,058	0,039	-0,005
-507,999	-63,819	-0,169	0,050
-506,985	145,647	0,070	-0,069
-505,970	154,620	-0,048	-0,048
-504,956	-46,080	0,116	-0,042
-503,941	-200,000	0,020	-0,103
-502,926	21,090	0,117	-0,069
-501,912	-51,290	-0,097	0,033
-500,897	37,369	-0,044	-0,029
-499,883	800,000	-0,078	-0,182
-498,868	72,211	-0,127	-0,096
-497,853	326,302	-0,028	-0,039
-496,839	800,000	0,020	0,044
-495,824	-200,000	-0,005	0,049
-494,810	36,922	0,081	0,052
-493,795	-200,000	0,011	-0,058
-492,781	-200,000	0,006	-0,019
-491,766	118,255	-0,011	-0,010
-490,751	-12,497	-0,043	0,021
-489,737	-200,000	-0,020	0,135
-488,722	149,897	-0,041	-0,041
-487,708	-200,000	0,007	0,033
-486,693	228,182	-0,118	-0,141
-485,678	-200,000	-0,003	0,079
-484,664	-13,523	-0,060	0,028
-483,649	-200,000	0,009	0,065
-482,635	-200,000	-0,005	0,102
-481,620	-200,000	0,018	0,073
-480,605	-200,000	-0,003	0,136
-479,591	551,540	-0,077	0,136
-478,576	-200,000	-0,005	-0,068
-477,562	637,796	-0,019	-0,035
-476,547	335,499	-0,026	0,036
-475,532	-200,000	0,031	0,115
-474,518	-50,755	0,071	0,024
-473,503	-65,559	0,176	0,051
-472,489	624,040	0,029	-0,054
-471,474	336,760	0,049	0,070
-470,459	-200,000	-0,008	0,029
-469,445	496,745	-0,044	0,073
-468,430	800,000	0,027	0,058
-467,416	-81,226	0,094	-0,023
-466,401	-121,916	0,064	0,008
-465,386	5,890	0,169	0,091
-464,372	-200,000	0,011	-0,076
-463,357	224,171	-0,044	-0,052
-462,343	225,727	0,023	0,027
-461,328	800,000	-0,009	0,027
-460,313	-30,251	-0,084	-0,034
-459,299	-200,000	0,007	-0,024
-458,284	-101,238	-0,054	0,009
-457,270	52,506	-0,090	-0,063
-456,255	-110,941	0,074	-0,011
-455,241	1,396	0,136	-0,071
-454,226	-100,657	0,034	0,006
-453,211	333,807	-0,028	0,039
-452,197	399,157	0,011	0,017
-451,182	-200,000	0,004	-0,041
-450,168	-200,000	-0,018	-0,133
-449,153	318,458	-0,072	-0,100
-448,138	58,009	-0,102	-0,073
-447,124	155,154	0,074	-0,075
-446,109	67,781	0,095	-0,071
-445,095	194,937	0,081	-0,090
-444,080	-12,946	0,114	0,054
-443,065	-200,000	0,033	0,126
-442,051	244,266	-0,016	0,019
-441,036	-200,000	-0,046	-0,158
-440,022	-24,476	-0,094	-0,041
-439,007	-34,779	-0,100	-0,040
-437,992	800,000	-0,052	0,126
-436,978	-90,236	0,152	0,032
-435,963	-67,548	-0,086	-0,024
-434,949	800,000	0,014	0,039
-433,934	353,722	-0,062	0,090
-432,919	-51,453	0,076	-0,026
-431,905	-78,608	-0,137	-0,034
-430,890	21,555	-0,021	-0,013
-429,876	644,476	0,037	-0,069
-428,861	-47,075	0,014	-0,005
-427,846	-200,000	0,001	0,076
-426,832	134,176	-0,070	-0,066
-425,817	494,528	-0,058	0,097
-424,803	489,918	-0,039	0,066
-423,788	619,958	0,056	0,104
-422,773	-200,000	0,014	0,055
-421,759	-200,000	-0,021	0,136
-420,744	159,016	-0,128	0,129
-419,730	800,000	0,059	-0,178
-418,715	-200,000	0,004	-0,046
-417,701	49,609	0,026	0,017
-416,686	800,000	-0,041	0,089
-415,671	205,667	0,023	0,026
-414,657	-200,000	-0,013	0,157
-413,642	41,168	0,052	0,034
-412,628	246,859	0,042	0,051
-411,613	-19,121	-0,134	-0,060
-410,598	800,000	0,065	-0,144
-409,584	-200,000	0,006	0,024
-408,569	-110,104	0,129	0,019
-407,555	165,921	-0,025	0,026
-406,540	-32,125	0,069	-0,028
-405,525	-114,438	0,146	-0,020
-404,511	546,937	-0,060	-0,105
-403,496	-200,000	0,042	-0,167
-402,482	178,464	0,053	-0,057
-401,467	-71,093	0,034	0,009
-400,452	79,963	0,126	0,098
-399,438	172,472	-0,061	0,064
-398,423	800,000	-0,041	0,128
-397,409	-38,267	-0,034	0,013
-396,394	-72,547	-0,090	0,024
-395,379	-136,921	0,076	-0,006
-394,365	285,627	0,034	0,044
-393,350	383,705	-0,018	0,027
-392,336	-200,000	0,035	0,137
-391,321	62,682	0,178	-0,129
-390,306	69,370	-0,016	-0,012
-389,292	-12,522	-0,150	0,071
-388,277	196,648	-0,087	-0,097
-387,263	-200,000	0,003	0,095
-386,248	-200,000	0,016	0,193
-385,233	66,964	0,111	0,082
-384,219	-200,000	0,015	-0,052
-383,204	-200,000	-0,009	-0,065
-382,190	-7,700	0,072	-0,035
-381,175	-65,124	-0,064	0,019
-380,160	-200,000	0,017	-0,057
-379,146	137,817	0,069	-0,066
-378,131	800,000	-0,006	-0,017
-377,117	-200,000	0,051	-0,212
-376,102	-200,000	0,008	-0,109
-375,088	-200,000	0,017	-0,128
-374,073	56,680	-0,008	0,006
-373,058	-22,235	0,111	-0,049
-372,044	302,284	0,030	-0,040
-371,029	8,554	0,086	0,047
-370,015	800,000	0,071	0,179
-369,000	-200,000	-0,059	0,230
-367,985	800,000	-0,030	0,093
-366,971	-200,000	0,005	-0,103
-365,956	67,022	0,083	0,062
-364,942	-200,000	0,035	0,134
-363,927	-200,000	-0,012	0,061
-362,912	-15,391	0,098	0,045
-361,898	642,817	0,024	-0,044
-360,883	59,400	0,042	0,030
-359,869	-150,388	0,049	-0,003
-358,854	-159,259	0,005	0,000
-357,839	800,000	-0,035	0,076
-356,825	-167,077	0,135	-0,004
-355,810	-116,243	0,062	-0,008
-354,796	103,975	-0,085	-0,073
-353,781	247,552	0,039	0,048
-352,766	21,013	0,024	0,014
-351,752	10,484	0,193	-0,107
-350,737	329,245	0,052	0,072
-349,723	-81,250	0,130	-0,031
-348,708	44,354	0,121	-0,080
-347,693	-4,506	0,134	-0,067
-346,679	-200,000	-0,022	-0,074
-345,664	800,000	-0,074	-0,222
-344,650	754,636	0,039	0,077
-343,635	-112,341	-0,088	-0,013
-342,620	-200,000	0,004	-0,025
-341,606	174,341	0,022	-0,024
-340,591	-200,000	-0,031	0,160
-339,577	262,236	0,052	0,066
-338,562	62,316	-0,114	-0,083
-337,548	536,929	0,024	-0,041
-336,533	-95,043	0,031	0,006
-335,518	-159,394	0,124	-0,005
-334,504	-153,804	0,091	-0,004
-333,489	128,069	-0,033	0,031
-332,475	173,911	0,010	0,010
-331,460	138,783	0,071	-0,068
-330,445	-142,757	0,090	-0,006
-329,431	800,000	-0,040	-0,114
-328,416	-166,670	0,176	-0,005
-327,402	86,297	0,111	0,088
-326,387	-134,047	-0,084	0,007
-325,372	-81,875	-0,092	0,022
-324,358	-200,000	-0,003	-0,080
-323,343	-200,000	-0,017	-0,062
-322,329	258,306	0,021	-0,026
-321,314	75,087	0,078	-0,060
-320,299	-31,442	-0,113	0,046
-319,285	322,255	0,027	-0,038
-318,270	43,213	-0,084	-0,055
-317,256	19,646	0,015	0,009
-316,241	-54,354	0,040	-0,013
-315,226	-29,009	0,006	0,002
-314,212	800,000	0,048	-0,122
-313,197	145,056	-0,026	-0,025
-312,183	215,429	0,116	0,133
-311,168	512,430	-0,044	0,074
-310,153	-200,000	0,016	0,059
-309,139	277,744	-0,099	0,128
-308,124	738,478	0,042	-0,082
-307,110	800,000	-0,050	0,157
-306,095	800,000	0,033	0,086
-305,080	594,677	-0,070	0,125
-304,066	537,152	-0,037	0,064
-303,051	93,031	-0,095	-0,078
-302,037	246,666	0,039	0,047
-301,022	800,000	0,070	0,143
-300,008	72,794	-0,007	-0,006
-298,993	63,857	0,058	-0,042
-297,978	-200,000	0,013	-0,072
-296,964	-22,291	0,074	0,032
-295,949	-72,280	0,099	0,026
-294,935	240,042	-0,097	-0,118
-293,920	800,000	-0,028	0,066
-292,905	-94,300	-0,050	0,010
-291,891	-10,088	0,075	-0,036
-290,876	23,275	0,032	-0,019
-289,862	122,411	0,089	0,080
-288,847	-200,000	-0,013	-0,117
-287,832	-112,806	0,106	-0,015
-286,818	-86,233	0,068	-0,015
-285,803	-77,735	-0,145	0,036
-284,789	-92,779	-0,024	-0,005
-283,774	-141,867	0,067	-0,005
-282,759	506,082	-0,044	0,074
-281,745	508,613	0,025	-0,043
-280,730	258,229	-0,057	0,071
-279,716	-200,000	-0,027	0,109
-278,701	-39,978	0,148	-0,056
-277,686	800,000	-0,014	0,028
-276,672	-24,115	0,068	0,029
-275,657	109,182	0,041	-0,035
-274,643	75,702	-0,050	0,038
-273,628	340,787	0,064	-0,090
-272,613	-173,936	-0,094	0,002
-271,599	800,000	0,015	-0,034
-270,584	53,597	0,081	0,056
-269,570	800,000	0,036	0,076
-268,555	-109,235	0,106	0,016
-267,540	-165,761	-0,123	0,004
-266,526	-120,155	0,062	-0,008
-265,511	270,169	0,020	0,025
-264,497	-21,022	0,116	0,051
-263,482	-60,270	-0,130	-0,040
-262,467	-73,737	-0,069	0,018
-261,453	119,022	0,074	-0,066
-260,438	206,818	-0,058	-0,065
-259,424	-86,241	-0,106	0,023
-258,409	223,318	-0,067	-0,078
-257,395	-200,000	-0,021	0,132
-256,380	-180,775	0,114	0,002
-255,365	77,174	0,063	0,049
-254,351	91,696	-0,068	-0,055
-253,336	-200,000	0,020	0,072
-252,322	-94,396	-0,154	0,030
-251,307	514,357	-0,022	-0,037
-250,292	-93,273	-0,165	0,033
-249,278	-34,590	0,123	0,048
-248,263	341,922	0,013	-0,018
-247,249	415,425	0,044	0,069
-246,234	284,829	-0,098	-0,128
-245,219	579,230	-0,029	-0,051
-244,205	44,698	-0,045	-0,030
-243,190	450,806	-0,104	-0,166
-242,176	800,000	0,025	0,078
-241,161	36,633	0,047	-0,030
-240,146	19,080	0,020	-0,012
-239,132	-200,000	0,025	-0,090
-238,117	48,824	-0,120	-0,081
-237,103	-200,000	0,006	-0,025
-236,088	484,777	0,004	0,006
-235,073	269,555	0,035	0,045
-234,059	-200,000	-0,008	-0,110
-233,044	45,152	0,030	0,020
-232,030	-200,000	0,008	0,066
-231,015	-32,947	-0,114	-0,045
-230,000	-200,000	0,009	0,149
-228,986	-33,455	0,090	0,036
-227,971	211,862	-0,066	-0,075
-226,957	-18,095	-0,145	0,065
-225,942	-200,000	0,040	0,180
-224,927	218,056	0,011	0,013
-223,913	-185,757	-0,054	0,001
-222,898	800,000	-0,014	-0,036
-221,884	64,804	0,037	0,027
-220,869	-200,000	0,014	-0,057
-219,855	-200,000	0,021	0,134
-218,840	-12,405	0,118	0,055
-217,825	62,587	-0,096	0,069
-216,811	-85,034	-0,068	0,015
-215,796	-38,866	-0,083	-0,032
-214,782	800,000	-0,010	-0,030
-213,767	-200,000	0,039	0,133
-212,752	25,843	0,123	0,074
-211,738	-104,304	0,063	0,011
-210,723	-40,749	-0,095	0,035
-209,709	253,398	-0,051	-0,063
-208,694	261,030	-0,052	0,065
-207,679	800,000	0,006	-0,018
-206,665	263,390	-0,057	-0,071
-205,650	57,335	-0,084	-0,059
-204,636	800,000	0,027	0,065
-203,621	598,151	-0,033	-0,059
-202,606	-22,834	0,045	-0,020
-201,592	712,775	-0,049	-0,095
-200,577	-200,000	-0,025	-0,119
-199,563	-169,527	-0,187	-0,005
-198,548	-69,422	0,138	-0,038
-197,533	-45,825	0,068	-0,024
-196,519	23,118	0,057	-0,034
-195,504	-200,000	0,012	0,079
-194,490	428,198	0,061	-0,096
-193,475	194,298	-0,021	-0,024
-192,460	255,916	0,079	0,098
-191,446	7,104	-0,118	0,064
-190,431	295,090	0,030	0,040
-189,417	202,198	0,023	0,026
-188,402	588,953	0,026	0,047
-187,387	-200,000	0,003	-0,039
-186,373	8,918	0,010	-0,005
-185,358	-41,142	0,100	0,037
-184,344	-200,000	0,003	0,073
-183,329	-200,000	0,008	0,180
-182,315	-200,000	0,000	0,025
-181,300	234,471	0,025	-0,030
-180,285	-77,260	0,030	0,008
-179,271	-58,333	0,077	-0,024
-178,256	-200,000	0,055	-0,237
-177,242	113,576	0,040	-0,035
-176,227	-44,831	0,027	-0,010
-175,212	-200,000	0,007	0,075
-174,198	-79,208	-0,035	0,008
-173,183	-27,667	-0,061	0,026
-172,169	258,751	0,075	-0,093
-171,154	-200,000	0,016	0,058
-170,139	490,853	0,052	0,086
-169,125	800,000	-0,026	-0,061
-168,110	800,000	-0,069	0,153
-167,096	-200,000	0,014	-0,170
-166,081	194,021	-0,027	0,029
-165,066	478,491	-0,055	-0,090
-164,052	-200,000	0,023	-0,132
-163,037	-200,000	0,005	-0,115
-162,023	54,182	0,156	0,108
-161,008	675,732	-0,037	0,069
-159,993	-37,454	-0,125	0,048
-158,979	270,989	-0,078	0,099
-157,964	-200,000	0,000	-0,082
-156,950	271,771	-0,029	0,037
-155,935	-200,000	0,024	0,075
-154,920	800,000	0,016	-0,043
-153,906	244,884	-0,053	-0,065
-152,891	-200,000	0,035	0,112
-151,877	87,540	0,073	-0,058
-150,862	-116,331	-0,090	0,012
-149,847	43,424	-0,121	-0,079
-148,833	-93,588	0,070	-0,014
-147,818	-122,971	0,156	-0,018
-146,804	-200,000	0,026	0,138
-145,789	-200,000	0,001	0,021
-144,775	20,380	-0,061	-0,036
-143,760	-151,209	-0,175	-0,009
-142,745	113,977	-0,105	-0,092
-141,731	367,268	-0,052	0,075
-140,716	-200,000	-0,015	0,083
-139,702	-0,337	-0,110	0,056
-138,687	-40,964	0,060	0,022
-137,672	-200,000	0,020	-0,106
-136,658	488,854	-0,077	-0,126
-135,643	490,769	0,024	0,040
-134,629	-76,139	-0,038	-0,009
-133,614	-47,213	0,053	0,019
-132,599	-200,000	0,035	0,175
-131,585	-19,068	0,043	-0,019
-130,570	800,000	0,032	0,074
-129,556	419,218	0,023	-0,035
-128,541	-89,221	-0,088	0,018
-127,526	-11,390	0,075	0,035
-126,512	-200,000	0,015	-0,081
-125,497	647,288	0,107	0,197
-124,483	68,809	-0,040	0,030
-123,468	-200,000	0,003	-0,098
-122,453	-147,424	0,104	-0,006
-121,439	800,000	0,033	-0,087
-120,424	46,204	-0,010	-0,006
-119,410	-200,000	0,038	-0,143
