DTS Sentinel unit serial number:	SN410029Multiplexer serial number:	ORYXHardware model number:	OX2-SRSoftware version number:	ORYX F/W v4,00 Oryx Data Collector v3.7.2.0data status	okinstallation	B5 Nyhavnadifferential loss correction	single-endedforward channel	channel 2reverse channel	N/Adate	2023/12/13time	17:47:13forward acquisition time	300,00reverse acquisition time	0,00gamma	499,1914k internal	0,3159k external	0,3159temperature offset calibration	1,0000default loss term (dB/km)	0,3820temperature slope calibration	1,0000multiplexer offset coefficient	1,0000multiplexer slope coefficient	1,0000fibre end	0,00T internal ref (°C)	13,46T ext. ref 1 (°C)	-3,88T ext. ref 2 (°C)	-3,96length (m)	temperature (°C)	Stokes	anti-Stokes-744,400	800,000	0,044	-0,110
-743,385	-157,319	-0,315	0,014
-742,371	31,701	0,159	0,101
-741,356	-93,828	-0,229	0,046
-740,342	140,445	0,108	0,105
-739,327	-86,280	-0,217	0,049
-738,312	-124,942	0,034	0,004
-737,298	32,420	-0,227	-0,144
-736,283	422,214	-0,026	0,041
-735,269	-17,780	-0,231	0,106
-734,254	-86,630	0,076	0,017
-733,239	-42,148	-0,480	-0,180
-732,225	800,000	-0,034	0,072
-731,210	800,000	-0,034	0,109
-730,196	-200,000	-0,104	0,000
-729,181	-52,113	-0,065	-0,022
-728,167	-133,737	0,122	0,011
-727,152	-200,000	-0,008	-0,161
-726,137	143,874	-0,070	-0,068
-725,123	96,895	-0,117	-0,098
-724,108	800,000	-0,077	-0,180
-723,094	221,856	-0,048	-0,057
-722,079	800,000	-0,049	-0,132
-721,064	-200,000	-0,020	-0,119
-720,050	-1,628	-0,107	-0,055
-719,035	103,130	0,016	-0,014
-718,021	289,523	-0,068	-0,091
-717,006	-57,556	-0,113	-0,036
-715,991	23,510	-0,166	-0,100
-714,977	753,669	-0,048	-0,096
-713,962	361,006	-0,074	-0,110
-712,948	-39,990	0,125	-0,048
-711,933	-200,000	0,035	0,116
-710,918	427,663	-0,050	-0,080
-709,904	5,669	-0,095	-0,052
-708,889	800,000	-0,041	-0,091
-707,875	800,000	-0,026	-0,071
-706,860	306,216	-0,051	-0,071
-705,845	-200,000	0,016	0,122
-704,831	354,725	0,041	-0,061
-703,816	800,000	-0,020	-0,056
-702,802	-88,921	0,016	-0,003
-701,787	154,475	-0,065	-0,066
-700,772	236,320	-0,052	0,063
-699,758	-78,315	0,038	-0,009
-698,743	-54,598	0,120	0,040
-697,729	-200,000	0,005	-0,140
-696,714	39,008	0,102	0,067
-695,699	800,000	0,020	-0,050
-694,685	-178,263	-0,133	0,002
-693,670	-200,000	-0,001	-0,113
-692,656	56,773	-0,072	-0,051
-691,641	145,344	0,066	-0,065
-690,627	457,866	-0,029	0,047
-689,612	800,000	0,034	0,102
-688,597	800,000	0,045	0,100
-687,583	-98,129	-0,086	-0,016
-686,568	-75,467	0,073	-0,019
-685,554	26,375	-0,149	-0,091
-684,539	1,659	0,078	0,041
-683,524	181,737	0,050	0,054
-682,510	176,923	-0,078	-0,084
-681,495	-200,000	-0,036	-0,224
-680,481	-200,000	0,027	0,185
-679,466	581,200	-0,037	-0,068
-678,451	-89,715	-0,054	0,012
-677,437	800,000	0,057	-0,165
-676,422	10,567	0,089	0,050
-675,408	-27,649	0,037	-0,016
-674,393	-70,016	0,254	0,071
-673,378	-13,393	-0,041	-0,019
-672,364	7,068	-0,057	-0,031
-671,349	240,470	0,049	0,060
-670,335	707,170	0,036	0,070
-669,320	103,798	-0,093	0,080
-668,305	190,409	0,045	0,049
-667,291	120,657	0,025	0,022
-666,276	-200,000	0,022	-0,144
-665,262	125,449	-0,053	0,050
-664,247	52,195	-0,062	-0,043
-663,232	55,615	0,128	-0,091
-662,218	-3,496	-0,078	0,040
-661,203	-87,614	-0,118	0,026
-660,189	35,779	0,133	-0,086
-659,174	-5,119	-0,040	0,020
-658,159	221,795	-0,123	-0,145
-657,145	-167,726	-0,062	-0,002
-656,130	128,634	0,116	0,109
-655,116	-139,582	-0,061	0,005
-654,101	-200,000	-0,006	-0,051
-653,086	-200,000	-0,004	0,016
-652,072	-53,984	-0,083	-0,027
-651,057	30,740	-0,054	-0,034
-650,043	679,102	0,039	-0,075
-649,028	97,456	0,061	-0,051
-648,014	721,598	-0,052	0,102
-646,999	258,397	0,009	0,011
-645,984	-200,000	-0,005	0,264
-644,970	12,593	-0,083	-0,047
-643,955	408,406	-0,042	-0,065
-642,941	341,123	-0,070	-0,101
-641,926	335,597	-0,036	-0,052
-640,911	54,854	0,089	-0,063
-639,897	-200,000	0,008	-0,045
-638,882	148,967	0,050	-0,049
-637,868	119,190	-0,056	0,051
-636,853	122,614	-0,029	0,027
-635,838	78,159	-0,114	-0,089
-634,824	-101,917	-0,063	-0,011
-633,809	684,260	-0,047	0,090
-632,795	184,144	-0,055	-0,060
-631,780	800,000	-0,017	-0,050
-630,765	520,756	-0,058	0,100
-629,751	-200,000	-0,013	-0,130
-628,736	271,245	0,074	-0,096
-627,722	800,000	-0,067	-0,191
-626,707	271,306	0,035	0,046
-625,692	-15,177	0,122	0,057
-624,678	48,428	-0,147	-0,101
-623,663	175,659	0,046	0,049
-622,649	267,310	-0,046	0,059
-621,634	-36,629	0,131	0,051
-620,619	458,587	-0,094	-0,154
-619,605	125,804	0,062	-0,057
-618,590	153,289	0,070	-0,070
-617,576	-200,000	0,023	-0,083
-616,561	151,006	0,098	0,098
-615,546	562,067	-0,047	0,083
-614,532	6,544	-0,167	0,091
-613,517	-128,604	-0,074	0,008
-612,503	800,000	-0,006	0,016
-611,488	-26,876	0,028	-0,012
-610,474	-156,247	0,030	0,001
-609,459	24,554	0,053	0,032
-608,444	-200,000	-0,017	0,062
-607,430	800,000	-0,040	-0,099
-606,415	248,601	-0,088	0,109
-605,401	125,404	-0,016	0,015
-604,386	-200,000	-0,009	-0,041
-603,371	-200,000	-0,013	-0,081
-602,357	-200,000	-0,005	-0,050
-601,342	-200,000	0,016	-0,086
-600,328	-16,673	0,125	-0,058
-599,313	800,000	-0,070	-0,182
-598,298	65,046	-0,108	-0,080
-597,284	722,856	0,036	-0,070
-596,269	-200,000	-0,069	-0,000
-595,255	-21,277	0,083	0,037
-594,240	475,612	-0,033	-0,056
-593,225	98,030	-0,049	-0,041
-592,211	320,717	0,037	-0,052
-591,196	195,659	0,058	0,064
-590,182	-200,000	-0,001	0,019
-589,167	-143,037	-0,024	-0,002
-588,152	-200,000	-0,003	0,137
-587,138	-200,000	0,037	0,133
-586,123	145,363	-0,036	-0,036
-585,109	-30,833	-0,086	-0,036
-584,094	800,000	0,008	-0,019
-583,079	85,215	0,124	0,099
-582,065	-74,472	0,140	-0,037
-581,050	678,028	0,049	-0,093
-580,036	74,892	-0,075	-0,058
-579,021	-87,154	-0,106	-0,023
-578,006	8,907	-0,038	0,021
-576,992	-200,000	0,019	-0,085
-575,977	26,120	0,082	-0,050
-574,963	800,000	0,050	0,125
-573,948	-161,743	-0,030	-0,001
-572,934	148,465	-0,087	-0,086
-571,919	284,244	0,089	-0,117
-570,904	-200,000	0,012	0,099
-569,890	-21,934	0,076	0,034
-568,875	-200,000	-0,046	0,161
-567,861	-200,000	0,021	0,070
-566,846	265,780	0,045	-0,058
-565,831	3,048	-0,108	0,057
-564,817	47,725	0,058	0,040
-563,802	58,810	-0,114	-0,082
-562,788	21,664	0,057	0,034
-561,773	-88,057	-0,041	0,009
-560,758	131,165	0,060	0,057
-559,744	-118,886	-0,039	-0,005
-558,729	39,752	0,077	0,050
-557,715	-53,669	0,051	-0,017
-556,700	-46,987	0,107	-0,038
-555,685	514,165	-0,038	0,066
-554,671	-194,533	-0,091	0,001
-553,656	-36,782	0,081	-0,032
-552,642	800,000	-0,033	0,077
-551,627	145,560	0,076	0,074
-550,612	800,000	-0,011	-0,032
-549,598	-200,000	-0,026	-0,185
-548,583	-200,000	0,012	0,080
-547,569	-38,084	0,164	-0,063
-546,554	54,982	0,061	-0,043
-545,539	-200,000	-0,002	0,063
-544,525	-20,469	0,092	0,041
-543,510	-200,000	-0,048	-0,249
-542,496	800,000	0,042	0,117
-541,481	93,549	-0,016	0,013
-540,466	113,106	-0,069	0,061
-539,452	-200,000	0,018	0,113
-538,437	166,551	0,080	0,083
-537,423	-200,000	-0,029	0,130
-536,408	800,000	0,009	0,023
-535,393	-100,228	-0,095	-0,017
-534,379	431,131	-0,035	-0,056
-533,364	800,000	0,068	0,144
-532,350	-107,756	-0,023	-0,004
-531,335	226,692	0,067	-0,080
-530,321	-127,494	0,095	0,010
-529,306	-1,081	-0,063	0,032
-528,291	17,576	0,036	-0,021
-527,277	-172,058	-0,151	-0,003
-526,262	800,000	-0,062	-0,192
-525,248	800,000	0,056	0,118
-524,233	-200,000	-0,003	0,044
-523,218	314,365	0,094	0,130
-522,204	9,360	-0,012	0,007
-521,189	-200,000	0,002	0,060
-520,175	-164,589	-0,160	-0,005
-519,160	580,739	-0,052	-0,093
-518,145	571,050	-0,033	-0,060
-517,131	-128,976	0,081	0,008
-516,116	-200,000	-0,017	0,068
-515,102	78,449	-0,076	0,059
-514,087	-200,000	0,011	-0,041
-513,072	27,478	-0,101	-0,062
-512,058	244,523	-0,086	-0,106
-511,043	-100,746	0,111	-0,020
-510,029	411,797	-0,066	-0,102
-509,014	-14,830	-0,120	0,056
-507,999	370,265	-0,027	0,041
-506,985	-200,000	0,008	-0,038
-505,970	-200,000	-0,000	-0,076
-504,956	357,013	-0,063	0,092
-503,941	383,155	-0,063	0,095
-502,926	800,000	0,012	0,029
-501,912	557,377	-0,050	0,089
-500,897	587,509	-0,048	0,086
-499,883	-17,671	-0,108	0,049
-498,868	609,545	-0,040	-0,072
-497,853	343,362	0,021	-0,031
-496,839	-126,631	-0,120	-0,013
-495,824	-21,858	0,167	-0,074
-494,810	667,406	-0,071	0,134
-493,795	-143,302	0,078	0,005
-492,781	301,968	0,106	-0,143
-491,766	-110,036	-0,074	0,011
-490,751	-200,000	0,015	-0,088
-489,737	82,662	0,126	0,099
-488,722	-200,000	-0,013	0,049
-487,708	34,249	0,107	-0,068
-486,693	800,000	-0,041	0,099
-485,678	-32,915	-0,037	-0,015
-484,664	-200,000	-0,045	-0,164
-483,649	52,349	0,084	-0,059
-482,635	4,835	-0,095	-0,051
-481,620	-103,630	0,092	-0,016
-480,605	203,512	0,077	-0,087
-479,591	586,518	-0,043	0,078
-478,576	255,092	0,056	0,070
-477,562	-88,943	0,058	-0,012
-476,547	-73,960	0,112	-0,029
-475,532	-61,672	0,239	0,073
-474,518	-72,456	0,097	-0,026
-473,503	800,000	0,018	0,051
-472,489	-128,648	-0,088	0,009
-471,474	392,579	0,051	-0,077
-470,459	-136,069	-0,077	-0,007
-469,445	-70,136	0,117	0,032
-468,430	250,398	-0,061	-0,076
-467,416	319,379	-0,032	0,044
-466,401	503,910	0,101	0,171
-465,386	-200,000	-0,042	0,219
-464,372	590,512	0,019	-0,034
-463,357	123,405	-0,077	-0,071
-462,343	172,169	-0,100	-0,105
-461,328	-37,799	-0,172	-0,067
-460,313	-47,114	-0,047	0,017
-459,299	-81,683	-0,044	0,011
-458,284	-78,100	0,198	0,049
-457,270	-156,021	-0,087	0,004
-456,255	-120,285	0,125	0,015
-455,241	44,631	0,055	-0,037
-454,226	-200,000	-0,012	0,095
-453,211	-32,323	0,088	-0,036
-452,197	-200,000	-0,011	0,071
-451,182	-0,299	0,044	0,023
-450,168	-104,587	-0,070	-0,012
-449,153	-200,000	-0,005	-0,045
-448,138	520,407	-0,062	-0,106
-447,124	-42,670	0,039	0,014
-446,109	-200,000	0,020	0,129
-445,095	-90,307	0,050	0,010
-444,080	-200,000	-0,004	0,096
-443,065	346,304	0,028	-0,041
-442,051	-200,000	0,001	0,028
-441,036	-200,000	0,028	0,092
-440,022	216,007	-0,112	-0,130
-439,007	34,344	-0,050	-0,032
-437,992	-200,000	-0,003	0,013
-436,978	-21,233	0,117	-0,052
-435,963	116,534	0,103	0,092
-434,949	-66,866	-0,106	0,030
-433,934	-200,000	0,001	0,005
-432,919	387,574	-0,032	0,048
-431,905	-200,000	-0,017	-0,068
-430,890	-200,000	0,003	-0,101
-429,876	201,469	0,092	0,103
-428,861	27,003	-0,042	0,026
-427,846	800,000	-0,048	0,127
-426,832	261,002	0,028	-0,036
-425,817	800,000	-0,010	-0,030
-424,803	-200,000	-0,036	0,120
-423,788	295,367	-0,009	0,012
-422,773	800,000	0,040	-0,084
-421,759	318,937	-0,093	0,129
-420,744	75,893	0,185	0,142
-419,730	347,435	-0,075	-0,108
-418,715	-138,238	-0,115	-0,009
-417,701	-200,000	0,039	0,164
-416,686	-200,000	0,021	0,109
-415,671	-200,000	0,000	-0,017
-414,657	-111,560	0,063	0,009
-413,642	-20,935	0,052	0,023
-412,628	800,000	-0,030	0,067
-411,613	800,000	-0,036	-0,101
-410,598	-13,666	-0,076	-0,036
-409,584	367,567	0,079	-0,117
-408,569	69,925	-0,038	0,029
-407,555	-200,000	0,010	-0,054
-406,540	-200,000	0,000	0,141
-405,525	380,000	0,055	-0,082
-404,511	29,597	-0,124	-0,076
-403,496	-200,000	0,011	-0,064
-402,482	-99,951	0,174	-0,031
-401,467	-200,000	-0,032	0,196
-400,452	296,508	-0,072	0,096
-399,438	-96,369	0,027	-0,005
-398,423	-97,111	0,043	-0,008
-397,409	-200,000	0,017	0,058
-396,394	797,119	-0,021	-0,042
-395,379	800,000	-0,010	-0,030
-394,365	-200,000	0,005	0,050
-393,350	800,000	0,047	0,102
-392,336	511,609	0,079	0,134
-391,321	18,287	-0,075	0,043
-390,306	-51,719	-0,041	-0,014
-389,292	-51,546	-0,119	0,040
-388,277	28,723	0,087	-0,053
-387,263	-51,236	0,104	0,035
-386,248	800,000	-0,037	0,101
-385,233	101,243	0,108	0,091
-384,219	-10,109	0,068	0,032
-383,204	-200,000	0,036	-0,182
-382,190	-200,000	-0,004	-0,066
-381,175	-160,495	-0,173	-0,007
-380,160	-109,974	-0,071	0,011
-379,146	-40,510	0,061	0,023
-378,131	457,147	0,079	0,127
-377,117	100,880	-0,009	-0,008
-376,102	274,137	-0,090	-0,116
-375,088	-200,000	-0,013	-0,058
-374,073	106,002	-0,052	-0,045
-373,058	71,278	-0,069	-0,052
-372,044	297,227	0,026	0,034
-371,029	472,791	-0,042	-0,069
-370,015	107,225	0,042	-0,036
-369,000	800,000	0,039	0,080
-367,985	-200,000	0,006	-0,023
-366,971	13,981	0,066	-0,037
-365,956	-60,683	0,083	-0,026
-364,942	800,000	0,022	0,047
-363,927	461,788	-0,051	-0,083
-362,912	-200,000	-0,005	0,025
-361,898	72,596	-0,098	0,074
-360,883	-101,019	-0,093	0,016
-359,869	800,000	-0,028	-0,082
-358,854	44,388	-0,076	-0,050
-357,839	151,546	0,170	0,168
-356,825	-200,000	0,028	0,117
-355,810	800,000	-0,032	0,092
-354,796	432,731	-0,056	-0,089
-353,781	-200,000	0,023	-0,142
-352,766	-114,693	-0,126	-0,017
-351,752	116,399	-0,028	0,025
-350,737	92,627	0,064	-0,052
-349,723	439,063	-0,028	-0,045
-348,708	-4,080	0,044	0,022
-347,693	133,430	-0,147	-0,138
-346,679	-64,339	0,074	0,022
-345,664	-200,000	-0,028	-0,091
-344,650	-200,000	0,022	0,077
-343,635	291,284	0,044	0,058
-342,620	-185,449	0,017	0,000
-341,606	-76,706	-0,081	0,020
-340,591	-59,180	0,069	-0,022
-339,577	361,050	-0,087	-0,127
-338,562	206,070	0,036	0,041
-337,548	281,870	-0,049	0,064
-336,533	-177,229	0,072	0,001
-335,518	-87,900	-0,038	-0,008
-334,504	-200,000	0,005	0,088
-333,489	-200,000	-0,017	-0,155
-332,475	566,610	0,030	0,053
-331,460	-77,512	-0,141	0,035
-330,445	-200,000	0,006	0,020
-329,431	117,493	0,025	-0,022
-328,416	-123,738	0,047	0,005
-327,402	245,969	0,045	0,055
-326,387	-200,000	0,023	0,083
-325,372	-200,000	-0,002	0,052
-324,358	-3,718	0,054	0,027
-323,343	-200,000	-0,004	0,056
-322,329	-200,000	-0,022	0,125
-321,314	-1,634	0,102	0,052
-320,299	-200,000	0,025	0,183
-319,285	-139,607	-0,071	-0,005
-318,270	-80,497	-0,054	-0,013
-317,256	-13,522	-0,041	-0,019
-316,241	800,000	-0,029	0,081
-315,226	-200,000	-0,010	0,082
-314,212	-200,000	0,003	0,041
-313,197	150,915	0,069	-0,068
-312,183	677,660	-0,038	0,072
-311,168	296,786	0,032	0,042
-310,153	800,000	-0,029	-0,064
-309,139	800,000	-0,039	-0,104
-308,124	-33,693	0,192	-0,076
-307,110	493,058	0,010	0,016
-306,095	70,170	0,135	-0,101
-305,080	-200,000	-0,010	-0,034
-304,066	800,000	0,055	0,113
-303,051	-58,896	-0,110	0,034
-302,037	800,000	0,003	-0,008
-301,022	-200,000	-0,002	-0,064
-300,008	-11,189	0,186	-0,089
-298,993	-105,608	-0,097	0,016
-297,978	-133,096	-0,091	-0,008
-296,964	-70,552	-0,110	-0,030
-295,949	-35,192	0,121	-0,047
-294,935	-200,000	0,014	-0,096
-293,920	31,133	0,078	0,049
-292,905	-156,572	-0,076	-0,003
-291,891	55,773	0,094	0,066
-290,876	179,824	0,025	0,027
-289,862	-106,235	-0,076	0,012
-288,847	765,407	0,066	-0,131
-287,832	64,594	-0,044	-0,032
-286,818	-7,947	0,076	0,037
-285,803	-17,044	-0,113	-0,052
-284,789	-200,000	0,023	-0,088
-283,774	60,654	0,049	0,035
-282,759	20,400	-0,053	-0,031
-281,745	190,393	0,027	0,030
-280,730	5,545	-0,152	-0,081
-279,716	-71,467	-0,175	-0,047
-278,701	87,589	0,091	0,073
-277,686	800,000	-0,043	0,136
-276,672	9,436	-0,053	-0,029
-275,657	-138,999	-0,105	-0,008
-274,643	44,474	0,019	-0,013
-273,628	800,000	-0,072	-0,168
-272,613	727,307	0,023	0,044
-271,599	624,659	-0,060	0,109
-270,584	108,100	0,043	0,037
-269,570	800,000	-0,006	-0,017
-268,555	231,966	0,062	0,074
-267,540	800,000	-0,033	0,086
-266,526	452,258	-0,097	-0,155
-265,511	800,000	-0,031	-0,090
-264,497	-200,000	-0,004	-0,020
-263,482	-61,229	0,081	0,024
-262,467	-200,000	-0,003	-0,036
-261,453	-200,000	-0,012	0,044
-260,438	374,284	-0,059	0,087
-259,424	-111,585	-0,140	-0,020
-258,409	-200,000	-0,018	-0,152
-257,395	-25,029	-0,077	-0,033
-256,380	-105,008	0,186	-0,030
-255,365	250,252	0,044	0,054
-254,351	435,180	0,009	-0,014
-253,336	41,532	0,095	-0,062
-252,322	-100,897	-0,040	-0,007
-251,307	-69,856	0,106	-0,029
-250,292	800,000	0,032	0,083
-249,278	-110,343	0,112	-0,017
-248,263	-200,000	-0,014	0,116
-247,249	-57,234	0,148	-0,047
-246,234	800,000	-0,025	0,068
-245,219	98,265	0,073	-0,061
-244,205	-89,970	-0,047	0,010
-243,190	-200,000	-0,005	-0,080
-242,176	235,260	-0,017	-0,020
-241,161	-128,953	0,053	0,005
-240,146	-28,411	0,045	0,019
-239,132	-64,899	-0,066	0,019
-238,117	349,654	0,037	-0,053
-237,103	-84,948	-0,107	-0,024
-236,088	73,845	0,231	0,175
-235,073	88,051	-0,132	0,106
-234,059	8,873	0,019	0,010
-233,044	800,000	0,016	0,041
-232,030	-110,462	-0,038	0,006
-231,015	137,763	-0,075	-0,071
-230,000	227,702	-0,086	0,101
-228,986	-154,326	0,135	0,006
-227,971	-200,000	0,024	0,098
-226,957	7,826	0,065	0,035
-225,942	303,686	0,115	0,154
-224,927	800,000	-0,036	0,083
-223,913	37,869	0,055	-0,035
-222,898	-11,701	0,045	0,021
-221,884	-200,000	0,007	-0,202
-220,869	-200,000	0,022	-0,100
-219,855	-116,546	0,047	-0,006
-218,840	-180,001	-0,045	-0,001
-217,825	800,000	0,032	0,087
-216,811	-106,877	-0,097	-0,015
-215,796	-200,000	-0,045	-0,163
-214,782	-95,031	0,172	0,033
-213,767	25,770	-0,074	0,044
-212,752	357,659	0,044	-0,064
-211,738	-14,180	-0,029	0,013
-210,723	99,681	-0,034	0,028
-209,709	-88,636	0,137	0,029
-208,694	-200,000	-0,003	-0,037
-207,679	-200,000	-0,004	-0,124
-206,665	12,535	0,080	-0,045
-205,650	800,000	0,051	-0,134
-204,636	-56,188	0,111	-0,035
-203,621	131,175	0,069	-0,064
-202,606	101,182	-0,146	-0,123
-201,592	-28,928	0,089	0,037
-200,577	-45,943	-0,032	-0,011
-199,563	737,790	-0,043	-0,084
-198,548	-200,000	0,009	-0,069
-197,533	-119,972	0,101	0,012
-196,519	-86,554	-0,130	0,028
-195,504	-64,034	-0,137	-0,040
-194,490	103,081	0,064	-0,054
-193,475	-38,008	-0,023	-0,009
-192,460	368,807	0,058	-0,086
-191,446	100,212	0,055	0,046
-190,431	-200,000	0,001	-0,106
-189,417	-200,000	0,024	0,125
-188,402	-200,000	-0,018	-0,064
-187,387	0,929	-0,080	0,041
-186,373	75,454	-0,068	-0,052
-185,358	563,531	0,029	0,051
-184,344	22,972	-0,119	-0,070
-183,329	800,000	-0,046	-0,094
-182,315	-6,282	0,111	-0,055
-181,300	-58,851	-0,135	0,042
-180,285	88,546	-0,083	0,066
-179,271	610,359	0,033	0,059
-178,256	-200,000	-0,001	0,046
-177,242	-178,329	-0,113	-0,002
-176,227	6,799	0,196	0,105
-175,212	-1,384	0,116	0,059
-174,198	585,611	-0,052	0,093
-173,183	-57,692	-0,091	0,029
-172,169	-144,328	-0,085	0,006
-171,154	11,015	-0,041	0,023
-170,139	-200,000	-0,012	-0,040
-169,125	-200,000	0,009	-0,041
-168,110	-200,000	0,000	0,098
-167,096	116,992	-0,019	-0,017
-166,081	-91,591	-0,203	-0,041
-165,066	-200,000	-0,029	-0,096
-164,052	-129,006	0,117	0,012
-163,037	-95,953	-0,046	0,009
-162,023	-200,000	0,015	0,130
-161,008	152,049	-0,010	-0,010
-159,993	-96,525	0,080	-0,015
-158,979	-200,000	-0,017	-0,151
-157,964	-200,000	0,022	-0,132
-156,950	-84,879	0,085	0,019
-155,935	-18,551	0,068	-0,030
-154,920	259,174	-0,072	-0,089
-153,906	800,000	0,037	-0,102
-152,891	-99,333	-0,129	0,023
-151,877	-123,246	-0,134	-0,015
-150,862	-200,000	0,020	-0,175
-149,847	-111,350	-0,138	-0,020
-148,833	19,928	-0,035	0,020
-147,818	98,515	0,100	-0,083
-146,804	-57,897	-0,081	0,025
-145,789	-54,252	-0,063	0,020
-144,775	90,870	-0,078	0,063
-143,760	156,587	0,079	0,078
-142,745	136,502	-0,044	-0,041
-141,731	271,569	-0,098	-0,124
-140,716	-88,873	0,078	-0,016
-139,702	800,000	0,031	0,062
-138,687	-10,474	0,138	-0,066
-137,672	40,473	-0,193	-0,125
-136,658	-200,000	-0,018	0,125
-135,643	72,866	-0,086	0,064
-134,629	-200,000	-0,037	-0,185
-133,614	-56,555	0,069	0,022
-132,599	643,506	0,043	-0,079
-131,585	-200,000	-0,006	-0,086
-130,570	-15,830	-0,095	-0,043
-129,556	-107,167	0,064	0,010
-128,541	177,893	-0,055	-0,057
-127,526	9,047	-0,068	0,037
-126,512	-200,000	0,026	0,166
-125,497	337,312	-0,030	0,041
-124,483	-75,845	-0,099	0,025
-123,468	-21,950	-0,043	0,019
-122,453	-140,690	0,045	0,003
-121,439	277,458	-0,089	0,114
-120,424	-200,000	0,029	-0,094
-119,410	405,312	0,086	-0,131
