DTS Sentinel unit serial number:	SN410029Multiplexer serial number:	ORYXHardware model number:	OX2-SRSoftware version number:	ORYX F/W v4,00 Oryx Data Collector v3.7.2.0data status	okinstallation	B5 Nyhavnadifferential loss correction	single-endedforward channel	channel 2reverse channel	N/Adate	2023/12/13time	22:07:14forward acquisition time	300,00reverse acquisition time	0,00gamma	499,1914k internal	0,3154k external	0,3154temperature offset calibration	1,0000default loss term (dB/km)	0,3820temperature slope calibration	1,0000multiplexer offset coefficient	1,0000multiplexer slope coefficient	1,0000fibre end	0,00T internal ref (°C)	9,57T ext. ref 1 (°C)	-7,11T ext. ref 2 (°C)	-7,14length (m)	temperature (°C)	Stokes	anti-Stokes-744,400	20,877	0,156	0,093
-743,385	-118,229	-0,338	-0,044
-742,371	-82,957	0,336	0,079
-741,356	-121,757	-0,399	-0,048
-740,342	105,090	0,283	0,246
-739,327	-83,948	-0,433	-0,101
-738,312	-171,567	0,201	-0,005
-737,298	-159,100	-0,339	0,014
-736,283	167,587	0,113	0,119
-735,269	-91,732	-0,188	-0,039
-734,254	-93,114	0,161	0,033
-733,239	-34,232	-0,494	-0,199
-732,225	43,172	0,166	0,112
-731,210	24,269	-0,031	0,019
-730,196	-59,101	0,030	0,009
-729,181	122,972	-0,158	-0,146
-728,167	-200,000	0,004	-0,030
-727,152	-200,000	0,018	0,075
-726,137	524,606	-0,079	-0,138
-725,123	626,520	0,030	-0,056
-724,108	360,633	-0,035	0,052
-723,094	-200,000	-0,013	-0,102
-722,079	83,128	0,095	-0,076
-721,064	-117,752	0,202	-0,027
-720,050	542,555	-0,012	-0,021
-719,035	716,055	-0,009	0,018
-718,021	57,368	-0,266	-0,191
-717,006	-200,000	-0,032	0,106
-715,991	800,000	-0,049	-0,115
-714,977	140,672	-0,057	-0,055
-713,962	-105,602	-0,107	0,018
-712,948	82,831	0,065	0,052
-711,933	231,124	0,025	-0,031
-710,918	136,968	0,078	0,076
-709,904	-200,000	0,007	-0,062
-708,889	-200,000	0,007	0,046
-707,875	3,835	-0,060	-0,032
-706,860	800,000	0,047	-0,099
-705,845	-200,000	0,020	0,108
-704,831	93,841	0,032	0,027
-703,816	-57,761	0,136	-0,044
-702,802	-117,142	-0,071	-0,009
-701,787	725,579	-0,060	-0,119
-700,772	-200,000	-0,003	-0,020
-699,758	150,997	-0,029	0,029
-698,743	40,300	-0,052	0,034
-697,729	445,023	0,057	0,092
-696,714	28,075	0,122	0,076
-695,699	-156,523	-0,037	0,002
-694,685	191,649	-0,071	-0,079
-693,670	421,958	-0,053	0,084
-692,656	800,000	-0,062	0,153
-691,641	87,787	0,042	0,034
-690,627	3,854	-0,043	-0,023
-689,612	800,000	-0,043	-0,105
-688,597	54,856	0,072	0,051
-687,583	-200,000	-0,006	-0,053
-686,568	-66,707	-0,125	0,036
-685,554	144,971	0,071	-0,070
-684,539	-200,000	-0,015	0,092
-683,524	591,513	-0,070	0,128
-682,510	800,000	-0,035	0,092
-681,495	800,000	-0,030	0,094
-680,481	127,383	-0,064	-0,060
-679,466	800,000	0,052	-0,135
-678,451	-107,763	0,013	0,002
-677,437	9,202	0,108	0,060
-676,422	-98,006	-0,106	0,020
-675,408	-139,899	-0,025	-0,002
-674,393	-200,000	0,027	0,129
-673,378	51,746	0,045	0,031
-672,364	-200,000	0,018	-0,130
-671,349	311,214	-0,052	0,072
-670,335	-15,731	0,027	0,012
-669,320	252,154	-0,044	-0,055
-668,305	800,000	-0,057	-0,118
-667,291	800,000	0,024	-0,061
-666,276	-20,686	-0,076	0,034
-665,262	213,857	-0,126	0,146
-664,247	-200,000	0,004	-0,030
-663,232	7,473	0,046	-0,025
-662,218	85,933	0,055	-0,044
-661,203	-200,000	-0,006	-0,030
-660,189	371,335	0,024	-0,036
-659,174	-148,366	-0,157	0,009
-658,159	449,381	-0,023	-0,037
-657,145	-200,000	0,003	-0,223
-656,130	573,045	0,065	0,116
-655,116	346,545	0,058	-0,085
-654,101	237,647	0,061	-0,074
-653,086	-105,295	-0,059	0,010
-652,072	154,644	-0,035	-0,035
-651,057	-200,000	-0,002	0,145
-650,043	-200,000	0,000	-0,023
-649,028	-113,979	0,083	0,012
-648,014	62,036	-0,044	-0,032
-646,999	800,000	0,050	-0,139
-645,984	169,806	-0,028	0,029
-644,970	-93,473	-0,030	-0,006
-643,955	187,865	-0,030	-0,033
-642,941	800,000	0,021	-0,066
-641,926	-67,322	0,076	0,022
-640,911	-130,848	0,158	0,015
-639,897	167,158	0,076	0,080
-638,882	-200,000	0,014	0,064
-637,868	-37,209	0,100	0,039
-636,853	330,946	-0,130	-0,184
-635,838	-48,590	-0,065	-0,023
-634,824	304,372	-0,042	-0,057
-633,809	177,034	0,018	-0,019
-632,795	245,744	-0,143	-0,177
-631,780	69,137	-0,047	-0,035
-630,765	-200,000	0,023	-0,093
-629,751	-8,789	0,093	-0,046
-628,736	97,300	-0,076	-0,064
-627,722	462,802	-0,054	-0,089
-626,707	767,299	-0,029	0,058
-625,692	800,000	0,003	0,006
-624,678	116,415	0,024	-0,021
-623,663	350,979	0,067	0,098
-622,649	288,026	0,050	0,067
-621,634	-200,000	0,002	0,024
-620,619	150,361	0,097	0,096
-619,605	-111,243	-0,136	0,020
-618,590	37,015	0,092	0,060
-617,576	-111,772	0,076	0,011
-616,561	-200,000	-0,004	-0,157
-615,546	81,305	-0,056	-0,044
-614,532	192,727	-0,093	-0,103
-613,517	-200,000	-0,006	-0,063
-612,503	542,571	0,027	0,048
-611,488	800,000	-0,010	-0,022
-610,474	-200,000	0,024	-0,149
-609,459	20,583	0,030	-0,018
-608,444	-22,364	-0,062	-0,027
-607,430	232,631	0,048	-0,058
-606,415	-72,171	-0,118	0,032
-605,401	-200,000	0,041	0,169
-604,386	438,251	-0,089	0,143
-603,371	-200,000	-0,032	0,136
-602,357	-69,761	0,096	-0,027
-601,342	19,563	-0,107	0,063
-600,328	-160,013	0,178	-0,007
-599,313	800,000	0,036	0,107
-598,298	179,894	0,040	0,043
-597,284	-119,295	0,074	-0,009
-596,269	-200,000	0,004	0,043
-595,255	-141,162	0,105	-0,008
-594,240	16,452	-0,131	-0,076
-593,225	-77,564	-0,060	0,015
-592,211	-200,000	-0,023	0,086
-591,196	-159,561	-0,048	-0,002
-590,182	-84,380	0,104	0,024
-589,167	94,195	-0,041	0,034
-588,152	322,705	-0,019	0,026
-587,138	41,474	0,088	0,058
-586,123	-200,000	0,000	-0,007
-585,109	-1,446	0,128	-0,066
-584,094	-43,028	0,024	0,009
-583,079	-200,000	-0,046	0,175
-582,065	800,000	0,004	-0,010
-581,050	8,160	-0,115	0,063
-580,036	123,415	0,118	-0,108
-579,021	-200,000	0,043	-0,177
-578,006	-200,000	-0,020	-0,069
-576,992	18,021	-0,032	-0,019
-575,977	-128,330	-0,112	0,012
-574,963	-156,132	-0,075	-0,003
-573,948	-200,000	-0,031	-0,213
-572,934	93,072	0,066	-0,054
-571,919	328,285	-0,029	-0,041
-570,904	-100,921	-0,109	0,019
-569,890	-169,569	0,088	0,002
-568,875	-20,842	0,108	0,048
-567,861	-102,614	0,031	-0,005
-566,846	-30,868	-0,091	-0,038
-565,831	-10,737	-0,069	0,033
-564,817	149,778	0,063	0,063
-563,802	36,711	-0,083	0,053
-562,788	23,135	-0,117	-0,070
-561,773	-92,388	0,164	-0,033
-560,758	114,260	0,064	0,057
-559,744	-200,000	0,012	0,057
-558,729	57,281	0,112	-0,080
-557,715	41,472	-0,057	-0,038
-556,700	550,870	-0,076	-0,134
-555,685	52,896	-0,111	0,078
-554,671	-47,161	0,090	-0,032
-553,656	-26,005	0,036	-0,015
-552,642	21,333	-0,092	0,055
-551,627	800,000	0,010	-0,021
-550,612	-38,070	-0,145	0,056
-549,598	-200,000	0,014	0,064
-548,583	35,955	-0,120	-0,077
-547,569	295,529	-0,047	-0,063
-546,554	306,721	0,067	0,091
-545,539	551,755	-0,028	0,049
-544,525	-200,000	-0,014	0,057
-543,510	49,799	0,029	-0,020
-542,496	47,137	-0,054	-0,037
-541,481	-138,962	-0,171	0,013
-540,466	-77,383	0,106	0,027
-539,452	44,909	-0,072	-0,049
-538,437	252,111	0,078	-0,097
-537,423	-200,000	-0,004	0,013
-536,408	54,483	-0,119	-0,084
-535,393	800,000	-0,019	-0,052
-534,379	-200,000	-0,007	0,049
-533,364	-200,000	-0,017	-0,145
-532,350	39,496	-0,061	0,040
-531,335	-96,077	0,055	-0,011
-530,321	-200,000	0,019	0,129
-529,306	179,258	0,090	-0,097
-528,291	-200,000	-0,023	-0,092
-527,277	107,344	-0,088	-0,077
-526,262	-86,174	0,133	0,030
-525,248	-200,000	-0,010	0,081
-524,233	-138,722	-0,033	0,003
-523,218	-200,000	0,038	-0,148
-522,204	58,334	-0,080	0,057
-521,189	499,613	0,034	-0,058
-520,175	38,908	-0,157	-0,103
-519,160	800,000	-0,030	0,070
-518,145	-200,000	0,042	-0,180
-517,131	800,000	-0,017	-0,043
-516,116	35,943	0,029	-0,019
-515,102	791,125	-0,059	-0,120
-514,087	800,000	0,046	-0,100
-513,072	-200,000	-0,017	-0,107
-512,058	355,152	0,027	-0,039
-511,043	41,058	0,175	0,115
-510,029	-200,000	0,011	0,187
-509,014	-18,136	0,175	-0,080
-507,999	800,000	0,032	-0,079
-506,985	-68,250	-0,019	-0,005
-505,970	-200,000	-0,009	-0,112
-504,956	89,284	-0,062	-0,051
-503,941	119,084	-0,068	0,062
-502,926	-200,000	-0,005	0,096
-501,912	-200,000	-0,017	0,114
-500,897	-62,297	0,061	-0,019
-499,883	71,908	-0,216	-0,164
-498,868	-200,000	0,045	-0,298
-497,853	-200,000	-0,006	0,021
-496,839	-200,000	-0,006	-0,056
-495,824	336,932	-0,049	-0,070
-494,810	66,698	0,138	-0,102
-493,795	276,023	-0,080	0,104
-492,781	442,646	-0,130	0,208
-491,766	-200,000	-0,029	-0,124
-490,751	41,304	-0,037	0,024
-489,737	-200,000	-0,006	0,040
-488,722	800,000	0,063	0,145
-487,708	800,000	-0,065	0,142
-486,693	800,000	0,043	0,098
-485,678	-200,000	-0,000	0,036
-484,664	-49,434	-0,053	-0,018
-483,649	-200,000	-0,016	-0,110
-482,635	25,157	0,071	0,043
-481,620	-200,000	-0,007	0,089
-480,605	800,000	0,036	0,079
-479,591	20,363	0,019	0,011
-478,576	-200,000	-0,009	0,175
-477,562	425,790	0,054	-0,085
-476,547	-200,000	-0,013	-0,094
-475,532	483,441	-0,024	-0,039
-474,518	-200,000	0,009	0,071
-473,503	-53,695	0,060	-0,020
-472,489	800,000	-0,034	0,107
-471,474	23,162	-0,014	-0,008
-470,459	79,596	0,023	-0,018
-469,445	-9,075	0,015	-0,007
-468,430	-11,610	-0,060	-0,029
-467,416	-200,000	-0,036	0,122
-466,401	-200,000	-0,021	0,115
-465,386	-144,275	0,055	0,004
-464,372	363,514	-0,031	0,045
-463,357	160,099	-0,078	0,079
-462,343	-200,000	-0,012	0,089
-461,328	14,809	-0,097	-0,055
-460,313	-68,842	-0,021	-0,006
-459,299	-63,571	0,080	0,024
-458,284	114,709	-0,106	0,094
-457,270	800,000	0,024	0,076
-456,255	-200,000	0,001	0,105
-455,241	207,365	-0,055	-0,063
-454,226	-14,303	-0,071	-0,033
-453,211	-45,363	0,029	0,010
-452,197	44,417	0,054	0,036
-451,182	-28,831	-0,067	0,028
-450,168	-200,000	0,006	-0,048
-449,153	-149,714	-0,043	0,002
-448,138	-73,337	-0,041	-0,011
-447,124	766,394	-0,028	0,057
-446,109	-46,442	0,160	0,057
-445,095	-200,000	0,010	0,203
-444,080	-115,243	-0,017	0,002
-443,065	-200,000	0,046	-0,154
-442,051	-164,141	-0,201	-0,007
-441,036	-200,000	-0,012	-0,204
-440,022	-200,000	0,008	0,034
-439,007	-200,000	0,010	0,054
-437,992	342,139	0,065	0,094
-436,978	-10,920	-0,096	-0,046
-435,963	-102,429	-0,088	0,015
-434,949	264,773	0,082	-0,104
-433,934	392,750	-0,084	-0,128
-432,919	-200,000	-0,000	0,067
-431,905	242,297	0,057	-0,070
-430,890	36,043	0,033	0,021
-429,876	614,644	0,017	-0,031
-428,861	67,458	-0,154	-0,114
-427,846	-58,010	0,091	-0,029
-426,832	133,356	-0,065	0,062
-425,817	-200,000	0,007	-0,088
-424,803	121,778	0,024	0,022
-423,788	321,074	0,054	-0,076
-422,773	89,917	-0,103	-0,084
-421,759	761,193	-0,038	0,076
-420,744	575,592	0,063	0,113
-419,730	585,969	-0,008	0,015
-418,715	201,574	-0,022	0,025
-417,701	226,136	-0,117	-0,139
-416,686	-66,751	0,094	-0,027
-415,671	160,486	0,013	0,013
-414,657	-200,000	0,007	0,053
-413,642	-200,000	0,021	0,100
-412,628	102,823	-0,091	-0,078
-411,613	505,833	0,072	-0,122
-410,598	-200,000	-0,053	0,000
-409,584	-46,542	0,065	-0,023
-408,569	127,123	0,023	-0,021
-407,555	228,349	0,091	0,108
-406,540	-130,974	0,061	-0,006
-405,525	-200,000	-0,015	0,090
-404,511	307,243	-0,089	-0,121
-403,496	800,000	0,035	-0,095
-402,482	-116,172	0,072	-0,010
-401,467	-132,378	0,122	-0,011
-400,452	21,055	-0,048	0,028
-399,438	511,424	0,030	-0,051
-398,423	-149,595	-0,056	0,003
-397,409	158,588	0,021	-0,022
-396,394	-94,730	-0,060	0,012
-395,379	-32,771	0,040	-0,016
-394,365	-128,177	0,057	-0,006
-393,350	-1,796	0,108	0,055
-392,336	-32,873	0,197	0,079
-391,321	228,361	-0,043	0,051
-390,306	21,831	-0,110	-0,065
-389,292	-178,539	-0,127	0,002
-388,277	-200,000	0,004	-0,111
-387,263	529,195	-0,109	0,188
-386,248	218,047	0,084	0,098
-385,233	312,130	0,072	0,098
-384,219	640,602	-0,073	-0,135
-383,204	277,615	-0,058	-0,075
-382,190	-200,000	0,021	-0,141
-381,175	-8,854	0,145	0,070
-380,160	-200,000	0,034	-0,111
-379,146	767,794	0,020	-0,039
-378,131	-20,299	0,046	-0,020
-377,117	792,059	-0,021	0,042
-376,102	580,447	-0,020	0,036
-375,088	800,000	-0,043	-0,105
-374,073	-200,000	0,008	-0,137
-373,058	800,000	-0,032	0,080
-372,044	800,000	-0,043	-0,091
-371,029	800,000	0,036	0,099
-370,015	-200,000	-0,027	0,111
-369,000	-110,851	-0,126	-0,019
-367,985	314,160	0,019	-0,026
-366,971	800,000	0,031	-0,063
-365,956	-23,493	0,057	0,025
-364,942	-26,242	-0,092	0,039
-363,927	800,000	0,059	0,161
-362,912	674,939	-0,026	0,049
-361,898	-200,000	-0,033	0,145
-360,883	-5,760	-0,123	-0,061
-359,869	47,880	0,148	0,100
-358,854	-200,000	0,004	0,063
-357,839	406,083	0,079	0,121
-356,825	43,601	0,144	0,096
-355,810	-4,496	-0,105	-0,052
-354,796	-200,000	-0,008	0,070
-353,781	-23,946	-0,067	-0,029
-352,766	-46,349	-0,043	-0,015
-351,752	97,681	-0,111	-0,093
-350,737	800,000	0,024	0,071
-349,723	2,679	0,047	0,025
-348,708	-200,000	0,021	-0,110
-347,693	-76,112	-0,014	-0,004
-346,679	-200,000	-0,026	-0,127
-345,664	800,000	0,017	0,047
-344,650	-200,000	-0,042	-0,155
-343,635	40,478	0,121	0,079
-342,620	-33,511	-0,103	-0,041
-341,606	65,727	0,085	-0,062
-340,591	800,000	0,058	-0,127
-339,577	182,067	0,006	-0,006
-338,562	-200,000	-0,040	-0,128
-337,548	-200,000	0,008	0,060
-336,533	-14,529	0,096	0,045
-335,518	-200,000	-0,008	0,101
-334,504	-117,569	-0,016	-0,002
-333,489	112,803	0,120	-0,105
-332,475	-71,336	-0,057	-0,015
-331,460	800,000	0,018	0,044
-330,445	373,781	-0,045	-0,066
-329,431	800,000	0,081	-0,200
-328,416	-114,847	0,198	-0,027
-327,402	-7,487	-0,122	0,060
-326,387	25,035	0,086	-0,052
-325,372	800,000	-0,030	0,091
-324,358	-200,000	-0,031	-0,106
-323,343	162,166	-0,131	0,134
-322,329	90,641	0,052	0,042
-321,314	-200,000	0,016	0,127
-320,299	779,003	-0,037	0,074
-319,285	-200,000	-0,000	0,051
-318,270	227,732	-0,095	0,113
-317,256	-24,574	-0,087	-0,038
-316,241	-200,000	0,001	0,044
-315,226	93,179	-0,103	0,084
-314,212	-200,000	-0,008	-0,114
-313,197	281,100	0,018	-0,023
-312,183	-200,000	0,031	0,141
-311,168	-116,732	0,185	-0,024
-310,153	223,074	0,020	-0,023
-309,139	-61,360	-0,111	-0,034
-308,124	-50,181	-0,131	0,045
-307,110	32,765	0,042	-0,026
-306,095	-200,000	0,028	-0,094
-305,080	-200,000	0,007	-0,024
-304,066	-200,000	-0,023	0,091
-303,051	186,851	0,143	0,154
-302,037	164,469	-0,064	-0,065
-301,022	38,585	-0,114	0,074
-300,008	800,000	0,047	-0,129
-298,993	800,000	-0,019	-0,058
-297,978	-200,000	-0,020	-0,069
-296,964	32,858	0,107	0,067
-295,949	146,825	0,057	0,056
-294,935	-152,400	0,058	-0,003
-293,920	-37,144	0,087	-0,034
-292,905	552,050	-0,027	0,046
-291,891	-53,130	0,118	0,039
-290,876	208,688	0,065	0,073
-289,862	800,000	0,045	0,105
-288,847	470,985	-0,044	-0,072
-287,832	-111,064	-0,090	0,013
-286,818	-7,076	0,048	-0,024
-285,803	-65,263	0,068	0,020
-284,789	41,956	0,098	-0,065
-283,774	-6,862	0,025	-0,012
-282,759	-200,000	0,003	-0,112
-281,745	-129,313	-0,089	0,009
-280,730	-200,000	-0,003	-0,031
-279,716	-200,000	-0,001	-0,009
-278,701	107,261	0,094	0,081
-277,686	800,000	-0,078	0,173
-276,672	169,821	0,017	-0,018
-275,657	169,658	0,045	0,046
-274,643	386,460	-0,016	0,025
-273,628	-15,628	-0,039	0,018
-272,613	516,972	-0,058	0,099
-271,599	-200,000	0,004	0,116
-270,584	-200,000	0,008	-0,064
-269,570	78,737	0,160	-0,124
-268,555	-200,000	-0,024	0,172
-267,540	-72,650	0,034	0,009
-266,526	406,324	-0,057	-0,087
-265,511	374,392	0,015	-0,022
-264,497	-200,000	0,003	-0,036
-263,482	-200,000	0,003	0,172
-262,467	482,846	-0,069	0,114
-261,453	59,417	-0,141	0,101
-260,438	800,000	-0,033	-0,091
-259,424	-200,000	0,022	0,092
-258,409	-144,801	-0,015	0,001
-257,395	800,000	0,050	0,121
-256,380	-15,114	0,053	0,024
-255,365	800,000	0,040	0,094
-254,351	-200,000	0,037	-0,126
-253,336	246,981	0,034	-0,041
-252,322	366,812	-0,066	-0,096
-251,307	-30,209	0,048	0,020
-250,292	124,129	0,018	-0,017
-249,278	-45,020	0,101	-0,036
-248,263	-200,000	0,001	-0,051
-247,249	-93,537	-0,049	-0,010
-246,234	-200,000	0,001	-0,067
-245,219	-177,515	-0,059	0,001
-244,205	11,470	0,030	0,017
-243,190	193,822	-0,108	-0,118
-242,176	4,948	0,065	0,034
-241,161	119,905	0,067	-0,060
-240,146	114,379	-0,022	-0,020
-239,132	-200,000	0,010	-0,163
-238,117	-200,000	-0,011	-0,082
-237,103	-102,931	0,057	0,010
-236,088	11,366	-0,047	0,026
-235,073	-27,640	-0,060	-0,025
-234,059	800,000	-0,049	-0,110
-233,044	793,309	-0,020	0,040
-232,030	-32,514	0,146	-0,058
-231,015	-157,302	-0,092	-0,004
-230,000	-75,984	-0,105	-0,027
-228,986	-200,000	0,007	0,076
-227,971	294,719	0,060	0,079
-226,957	249,894	0,068	0,083
-225,942	-76,396	0,112	-0,028
-224,927	-200,000	0,002	0,073
-223,913	-32,173	0,023	-0,009
-222,898	-200,000	0,026	-0,134
-221,884	-90,969	0,137	0,028
-220,869	-200,000	0,002	-0,069
-219,855	800,000	0,034	0,109
-218,840	800,000	0,040	0,099
-217,825	-6,294	0,069	-0,034
-216,811	-54,126	-0,069	0,023
-215,796	-151,169	-0,092	-0,005
-214,782	-153,991	0,133	0,006
-213,767	-37,523	0,132	-0,050
-212,752	-200,000	0,010	0,122
-211,738	129,691	0,068	0,063
-210,723	800,000	-0,027	0,060
-209,709	-200,000	0,001	-0,109
-208,694	-146,598	0,002	0,000
-207,679	-200,000	0,007	-0,060
-206,665	800,000	-0,011	-0,026
-205,650	-58,356	0,039	-0,012
-204,636	12,404	0,038	0,021
-203,621	402,581	-0,015	-0,023
-202,606	-31,756	0,134	0,054
-201,592	152,835	-0,090	0,089
-200,577	162,032	0,025	0,026
-199,563	437,741	0,040	0,064
-198,548	-30,329	0,136	0,056
-197,533	-130,456	-0,146	0,014
-196,519	-200,000	0,035	0,195
-195,504	124,379	-0,085	0,077
-194,490	-200,000	-0,038	-0,168
-193,475	194,528	-0,060	0,066
-192,460	-89,516	0,059	0,012
-191,446	117,839	0,050	-0,045
-190,431	800,000	0,033	0,080
-189,417	-200,000	0,013	0,112
-188,402	140,425	-0,105	-0,100
-187,387	294,879	-0,041	-0,055
-186,373	-25,286	-0,072	0,031
-185,358	-200,000	0,009	0,122
-184,344	-23,148	-0,094	-0,041
-183,329	-128,712	0,247	-0,025
-182,315	800,000	-0,032	-0,087
-181,300	-123,671	0,100	-0,011
-180,285	-200,000	0,023	-0,074
-179,271	-200,000	-0,038	-0,145
-178,256	58,029	-0,121	-0,086
-177,242	800,000	0,007	0,023
-176,227	-200,000	0,008	0,102
-175,212	674,690	-0,036	0,067
-174,198	-93,318	-0,085	0,017
-173,183	-97,912	0,143	0,026
-172,169	-126,055	-0,118	-0,013
-171,154	-127,274	0,109	-0,011
-170,139	-200,000	0,006	0,096
-169,125	121,246	-0,013	0,011
-168,110	38,816	-0,081	0,052
-167,096	800,000	-0,043	0,101
-166,081	800,000	-0,031	0,080
-165,066	-128,862	-0,085	-0,008
-164,052	800,000	-0,083	-0,234
-163,037	703,811	-0,077	-0,148
-162,023	800,000	-0,073	0,162
-161,008	118,730	-0,094	0,084
-159,993	172,415	-0,019	0,019
-158,979	143,115	-0,064	-0,061
-157,964	465,616	0,051	0,083
-156,950	-107,572	0,080	0,013
-155,935	73,882	-0,102	0,077
-154,920	362,440	-0,019	-0,028
-153,906	-55,150	0,101	-0,033
-152,891	540,918	0,049	-0,085
-151,877	-200,000	0,003	-0,034
-150,862	-60,042	-0,130	-0,040
-149,847	800,000	0,062	0,154
-148,833	161,189	-0,064	0,065
-147,818	800,000	0,043	-0,107
-146,804	15,490	-0,071	-0,040
-145,789	54,482	0,137	-0,095
-144,775	67,944	-0,026	-0,019
-143,760	-200,000	-0,065	0,000
-142,745	-200,000	0,006	-0,036
-141,731	-200,000	0,000	0,105
-140,716	11,374	-0,002	-0,001
-139,702	-81,575	-0,127	0,030
-138,687	800,000	-0,035	0,105
-137,672	-58,286	0,090	0,028
-136,658	314,025	-0,071	-0,097
-135,643	477,559	0,057	-0,093
-134,629	18,318	-0,085	-0,049
-133,614	-165,843	0,065	0,002
-132,599	-76,605	0,072	0,018
-131,585	-127,765	0,048	-0,005
-130,570	-200,000	-0,001	0,039
-129,556	-62,739	-0,185	0,055
-128,541	-91,656	-0,143	0,029
-127,526	39,751	0,139	-0,090
-126,512	324,566	0,031	0,043
-125,497	-133,218	0,031	-0,003
-124,483	3,162	-0,068	-0,036
-123,468	800,000	-0,039	-0,087
-122,453	3,332	0,026	0,013
-121,439	-67,839	0,051	-0,014
-120,424	-200,000	-0,020	-0,098
-119,410	800,000	0,030	0,093
