DTS Sentinel unit serial number:	SN410029Multiplexer serial number:	ORYXHardware model number:	OX2-SRSoftware version number:	ORYX F/W v4,00 Oryx Data Collector v3.7.2.0data status	okinstallation	B5 Nyhavnadifferential loss correction	single-endedforward channel	channel 2reverse channel	N/Adate	2023/12/11time	15:37:13forward acquisition time	300,00reverse acquisition time	0,00gamma	499,1914k internal	0,3166k external	0,3166temperature offset calibration	1,0000default loss term (dB/km)	0,3820temperature slope calibration	1,0000multiplexer offset coefficient	1,0000multiplexer slope coefficient	1,0000fibre end	0,00T internal ref (°C)	13,43T ext. ref 1 (°C)	-1,74T ext. ref 2 (°C)	-1,84length (m)	temperature (°C)	Stokes	anti-Stokes-744,400	95,667	0,077	-0,064
-743,385	-106,005	-0,291	-0,048
-742,371	204,832	0,099	0,113
-741,356	-109,334	-0,361	0,056
-740,342	6,625	0,142	0,077
-739,327	-145,994	-0,413	-0,026
-738,312	-42,502	0,113	-0,042
-737,298	-175,772	-0,274	-0,005
-736,283	-79,219	0,263	-0,065
-735,269	-140,233	-0,273	0,021
-734,254	-143,135	-0,068	0,005
-733,239	9,796	-0,454	-0,252
-732,225	-68,344	0,178	-0,051
-731,210	-33,865	-0,080	0,032
-730,196	300,849	-0,081	0,110
-729,181	-39,141	-0,107	-0,041
-728,167	3,304	-0,067	0,036
-727,152	336,965	-0,016	-0,023
-726,137	-115,627	-0,098	0,013
-725,123	-200,000	0,002	-0,069
-724,108	-200,000	0,003	-0,050
-723,094	800,000	0,051	-0,128
-722,079	-200,000	-0,006	-0,028
-721,064	485,145	-0,046	-0,078
-720,050	-47,750	0,065	0,023
-719,035	367,070	-0,085	-0,126
-718,021	-82,641	-0,067	-0,016
-717,006	800,000	0,026	-0,062
-715,991	-39,629	-0,128	0,049
-714,977	800,000	0,054	0,153
-713,962	482,254	0,022	-0,037
-712,948	-40,887	-0,126	-0,048
-711,933	118,524	-0,021	0,019
-710,918	581,377	-0,036	0,065
-709,904	-200,000	0,005	-0,125
-708,889	800,000	-0,043	-0,105
-707,875	800,000	0,010	-0,025
-706,860	161,568	-0,046	-0,047
-705,845	-23,864	0,019	0,008
-704,831	98,862	0,014	0,011
-703,816	-140,714	-0,121	0,009
-702,802	445,943	0,097	-0,157
-701,787	131,248	0,077	-0,073
-700,772	147,816	-0,066	-0,065
-699,758	-14,713	0,041	0,019
-698,743	-34,589	-0,036	-0,014
-697,729	540,142	-0,048	0,085
-696,714	800,000	0,009	0,024
-695,699	-200,000	-0,001	0,008
-694,685	705,566	-0,061	0,119
-693,670	157,689	0,084	-0,086
-692,656	-98,612	-0,012	0,002
-691,641	-200,000	-0,010	0,065
-690,627	116,775	0,068	-0,061
-689,612	157,976	-0,141	0,144
-688,597	-18,309	-0,053	-0,024
-687,583	694,793	-0,052	-0,100
-686,568	800,000	-0,052	-0,164
-685,554	193,533	-0,026	0,028
-684,539	25,375	0,050	-0,030
-683,524	-200,000	0,001	-0,026
-682,510	-200,000	0,018	-0,117
-681,495	-200,000	-0,040	-0,135
-680,481	-75,465	-0,110	-0,028
-679,466	60,332	-0,085	-0,062
-678,451	707,208	-0,020	-0,038
-677,437	-96,419	0,181	0,035
-676,422	416,550	0,027	0,043
-675,408	4,343	-0,033	-0,018
-674,393	800,000	-0,022	-0,066
-673,378	27,258	-0,071	0,043
-672,364	-200,000	-0,025	-0,092
-671,349	438,555	-0,022	-0,035
-670,335	-200,000	0,015	0,055
-669,320	54,291	0,027	-0,019
-668,305	119,498	0,027	0,025
-667,291	103,201	0,072	-0,062
-666,276	74,019	-0,089	-0,068
-665,262	191,366	-0,047	-0,052
-664,247	-92,104	-0,133	-0,027
-663,232	447,704	-0,047	-0,076
-662,218	800,000	-0,045	0,105
-661,203	-24,966	-0,139	-0,060
-660,189	388,631	0,084	0,127
-659,174	-27,134	-0,022	0,009
-658,159	-109,458	-0,017	-0,003
-657,145	59,777	-0,079	-0,057
-656,130	7,699	0,084	-0,046
-655,116	671,928	-0,046	0,087
-654,101	71,153	0,017	0,013
-653,086	334,654	-0,042	-0,060
-652,072	-126,304	0,052	-0,006
-651,057	545,540	0,022	-0,039
-650,043	409,031	0,040	-0,063
-649,028	-49,430	0,089	-0,031
-648,014	-97,198	-0,143	-0,027
-646,999	209,736	-0,079	0,090
-645,984	-71,219	-0,136	-0,037
-644,970	-200,000	-0,047	-0,178
-643,955	-200,000	-0,020	-0,105
-642,941	-64,260	-0,169	-0,050
-641,926	27,214	0,094	0,058
-640,911	259,647	0,033	-0,042
-639,897	276,758	-0,043	-0,056
-638,882	62,272	-0,038	-0,028
-637,868	-77,407	-0,052	0,013
-636,853	-200,000	-0,002	-0,052
-635,838	42,691	-0,069	-0,046
-634,824	-65,087	0,114	0,034
-633,809	288,427	0,020	-0,026
-632,795	30,839	-0,030	0,019
-631,780	790,795	-0,022	0,045
-630,765	151,073	0,081	-0,081
-629,751	44,934	0,018	-0,012
-628,736	8,293	-0,025	0,014
-627,722	-50,386	0,043	-0,015
-626,707	-200,000	-0,015	-0,089
-625,692	-11,068	-0,066	-0,032
-624,678	-200,000	-0,007	0,052
-623,663	6,982	0,010	-0,006
-622,649	-41,196	0,072	-0,027
-621,634	574,206	-0,076	-0,136
-620,619	349,693	0,023	-0,034
-619,605	-200,000	0,034	0,124
-618,590	47,739	0,080	0,054
-617,576	83,823	-0,087	-0,069
-616,561	-145,993	-0,099	-0,006
-615,546	-67,684	0,098	-0,028
-614,532	82,627	-0,158	-0,125
-613,517	70,873	-0,032	-0,024
-612,503	-92,115	-0,042	-0,009
-611,488	157,243	-0,070	0,071
-610,474	59,757	0,090	0,065
-609,459	86,019	-0,071	-0,057
-608,444	-200,000	0,011	0,040
-607,430	71,719	-0,094	-0,071
-606,415	99,803	-0,114	-0,097
-605,401	-200,000	0,006	-0,207
-604,386	800,000	0,015	-0,045
-603,371	496,118	-0,036	-0,060
-602,357	306,442	0,075	-0,103
-601,342	-200,000	-0,049	-0,226
-600,328	800,000	0,061	-0,175
-599,313	-120,888	-0,186	0,023
-598,298	-200,000	-0,000	-0,028
-597,284	-131,427	0,093	0,009
-596,269	-200,000	0,017	0,082
-595,255	2,559	0,033	0,017
-594,240	75,562	-0,071	0,055
-593,225	-62,232	-0,018	-0,005
-592,211	397,959	0,023	-0,035
-591,196	-200,000	-0,006	-0,059
-590,182	-105,716	0,058	-0,009
-589,167	-29,730	0,058	-0,024
-588,152	282,524	-0,009	0,012
-587,138	280,923	-0,034	-0,045
-586,123	-80,717	-0,158	0,038
-585,109	6,739	0,034	0,019
-584,094	-200,000	-0,046	0,184
-583,079	-36,033	0,109	-0,043
-582,065	-36,402	0,074	-0,029
-581,050	-200,000	-0,028	0,111
-580,036	210,553	-0,065	-0,075
-579,021	626,292	0,049	-0,090
-578,006	-200,000	0,001	-0,083
-576,992	-200,000	-0,004	-0,050
-575,977	-108,163	0,139	-0,022
-574,963	-119,399	0,102	0,013
-573,948	-69,052	0,137	0,038
-572,934	-200,000	0,002	0,008
-571,919	526,894	-0,097	-0,168
-570,904	800,000	-0,038	-0,079
-569,890	473,050	0,032	0,054
-568,875	130,323	-0,072	-0,068
-567,861	-115,867	0,115	-0,016
-566,846	45,878	0,097	0,065
-565,831	-200,000	-0,023	0,193
-564,817	-2,444	0,062	-0,032
-563,802	-144,972	-0,125	-0,008
-562,788	232,073	0,059	-0,070
-561,773	178,963	0,028	0,030
-560,758	12,793	0,061	-0,034
-559,744	82,687	0,166	0,132
-558,729	40,672	-0,049	0,032
-557,715	-200,000	-0,046	0,164
-556,700	-79,471	0,136	-0,033
-555,685	-200,000	0,009	-0,071
-554,671	800,000	-0,013	-0,042
-553,656	-200,000	-0,019	0,145
-552,642	278,554	0,042	-0,055
-551,627	-125,607	-0,057	-0,006
-550,612	-200,000	-0,016	0,075
-549,598	-128,545	0,178	-0,018
-548,583	-77,860	0,116	-0,029
-547,569	182,303	-0,116	-0,125
-546,554	-200,000	-0,008	0,204
-545,539	-90,217	0,121	0,025
-544,525	800,000	-0,006	-0,014
-543,510	-86,714	0,085	-0,019
-542,496	50,444	-0,083	-0,057
-541,481	-200,000	-0,016	-0,117
-540,466	-200,000	-0,004	-0,036
-539,452	357,334	-0,044	0,065
-538,437	458,943	0,042	0,068
-537,423	21,489	0,133	0,079
-536,408	274,888	0,070	0,090
-535,393	-46,424	0,110	-0,039
-534,379	-77,424	-0,094	-0,024
-533,364	-200,000	0,008	-0,146
-532,350	624,327	-0,042	-0,078
-531,335	-200,000	0,005	0,033
-530,321	-200,000	0,020	-0,168
-529,306	-9,355	0,122	0,059
-528,291	800,000	0,064	0,137
-527,277	-200,000	-0,008	0,038
-526,262	504,495	0,076	-0,128
-525,248	-155,360	-0,058	0,003
-524,233	-200,000	0,007	0,078
-523,218	110,576	-0,083	-0,073
-522,204	-200,000	-0,004	0,041
-521,189	-200,000	-0,004	0,022
-520,175	61,150	-0,108	0,078
-519,160	-200,000	0,003	-0,056
-518,145	37,683	0,113	-0,073
-517,131	308,964	-0,043	0,059
-516,116	-200,000	0,033	0,133
-515,102	127,490	-0,049	0,045
-514,087	783,422	0,041	-0,082
-513,072	-11,652	-0,072	0,034
-512,058	-14,553	-0,073	0,034
-511,043	-200,000	0,019	-0,079
-510,029	547,270	0,050	0,088
-509,014	-200,000	0,008	0,110
-507,999	476,926	0,029	-0,048
-506,985	749,009	-0,035	-0,069
-505,970	434,945	-0,045	-0,072
-504,956	-174,627	-0,065	-0,001
-503,941	-200,000	-0,015	0,103
-502,926	-200,000	0,006	0,056
-501,912	-200,000	-0,002	-0,059
-500,897	263,045	0,021	0,026
-499,883	800,000	0,023	-0,069
-498,868	-17,997	-0,083	-0,038
-497,853	800,000	-0,029	-0,086
-496,839	37,783	0,066	0,042
-495,824	800,000	0,032	0,093
-494,810	-63,256	0,092	-0,027
-493,795	241,484	0,013	0,016
-492,781	-200,000	-0,003	-0,051
-491,766	378,520	0,040	-0,059
-490,751	-200,000	0,014	0,092
-489,737	55,989	0,050	0,035
-488,722	126,978	0,104	-0,096
-487,708	-84,260	-0,041	-0,009
-486,693	32,011	-0,048	-0,030
-485,678	-120,533	-0,110	0,013
-484,664	132,329	0,060	0,056
-483,649	-200,000	-0,156	0,000
-482,635	-33,344	0,134	0,054
-481,620	103,623	0,076	0,065
-480,605	-98,884	0,092	0,017
-479,591	-117,476	-0,027	0,003
-478,576	-200,000	-0,008	-0,074
-477,562	144,988	-0,157	-0,153
-476,547	125,996	-0,041	-0,037
-475,532	-200,000	0,002	0,005
-474,518	538,179	-0,021	-0,036
-473,503	-200,000	-0,028	0,129
-472,489	-200,000	-0,009	0,042
-471,474	22,741	-0,023	-0,014
-470,459	39,981	0,111	0,073
-469,445	-83,874	-0,226	0,052
-468,430	68,491	-0,060	0,045
-467,416	48,406	-0,077	0,052
-466,401	800,000	0,030	-0,094
-465,386	-200,000	-0,018	0,169
-464,372	-200,000	0,026	-0,145
-463,357	800,000	-0,032	-0,087
-462,343	-28,460	-0,051	-0,021
-461,328	484,629	0,021	0,035
-460,313	800,000	0,033	0,095
-459,299	-100,327	0,037	-0,007
-458,284	-128,606	-0,066	0,007
-457,270	60,994	0,021	-0,015
-456,255	356,497	-0,108	-0,156
-455,241	443,884	0,077	0,123
-454,226	800,000	0,004	-0,011
-453,211	3,710	0,020	0,011
-452,197	-200,000	-0,023	0,107
-451,182	800,000	0,037	0,083
-450,168	39,239	0,042	0,027
-449,153	800,000	-0,018	-0,054
-448,138	-79,109	-0,104	0,025
-447,124	-117,215	0,054	-0,007
-446,109	-21,881	-0,068	-0,030
-445,095	800,000	0,036	0,084
-444,080	-200,000	-0,060	0,000
-443,065	140,054	0,063	0,061
-442,051	4,073	0,046	0,025
-441,036	-37,305	-0,096	0,037
-440,022	800,000	0,033	0,079
-439,007	-200,000	0,026	-0,123
-437,992	452,453	0,026	0,042
-436,978	-200,000	-0,017	-0,061
-435,963	-54,108	0,025	0,008
-434,949	-85,822	-0,145	-0,032
-433,934	9,288	-0,175	-0,096
-432,919	61,738	0,080	0,058
-431,905	14,610	0,064	-0,036
-430,890	-58,903	0,039	0,012
-429,876	-47,454	0,149	-0,052
-428,861	201,977	-0,106	0,119
-427,846	282,786	-0,068	-0,089
-426,832	-200,000	0,018	0,138
-425,817	238,923	-0,031	-0,038
-424,803	96,004	0,032	-0,026
-423,788	-107,762	0,101	-0,016
-422,773	-146,650	0,122	0,008
-421,759	-84,738	0,058	0,013
-420,744	-200,000	0,019	0,109
-419,730	-172,057	-0,086	-0,002
-418,715	-200,000	0,007	-0,058
-417,701	141,806	-0,080	0,077
-416,686	487,289	0,080	-0,133
-415,671	-200,000	-0,000	-0,017
-414,657	800,000	0,055	0,164
-413,642	-200,000	-0,006	0,039
-412,628	1,272	0,112	0,058
-411,613	209,973	0,055	0,063
-410,598	-51,847	-0,096	-0,032
-409,584	-94,070	0,030	-0,006
-408,569	-25,245	0,171	0,073
-407,555	478,830	0,037	0,061
-406,540	26,852	-0,075	-0,046
-405,525	-200,000	-0,003	-0,135
-404,511	-38,998	0,030	-0,012
-403,496	7,980	-0,127	-0,069
-402,482	68,611	-0,059	0,044
-401,467	-200,000	-0,018	-0,168
-400,452	-165,444	0,198	0,006
-399,438	230,520	-0,067	0,080
-398,423	800,000	0,007	-0,017
-397,409	82,447	-0,066	-0,052
-396,394	26,554	-0,019	-0,012
-395,379	-148,266	-0,082	0,005
-394,365	196,753	-0,045	0,049
-393,350	-200,000	0,024	0,131
-392,336	-200,000	0,042	0,139
-391,321	-78,429	-0,118	-0,029
-390,306	69,743	-0,041	-0,031
-389,292	-59,172	0,053	-0,016
-388,277	170,668	0,040	0,042
-387,263	116,661	0,058	0,051
-386,248	132,962	-0,066	0,062
-385,233	-138,540	-0,081	-0,006
-384,219	800,000	-0,078	0,215
-383,204	274,223	-0,058	0,074
-382,190	-200,000	-0,020	0,105
-381,175	-113,641	0,039	0,005
-380,160	569,957	0,057	0,100
-379,146	27,695	-0,024	0,015
-378,131	-200,000	0,016	0,217
-377,117	-42,957	-0,127	0,046
-376,102	800,000	0,045	-0,128
-375,088	-87,800	-0,071	-0,015
-374,073	370,110	-0,081	-0,119
-373,058	692,624	0,037	-0,070
-372,044	42,746	0,098	-0,065
-371,029	-158,546	0,126	0,005
-370,015	800,000	-0,047	0,126
-369,000	-15,010	0,125	-0,058
-367,985	271,392	0,146	-0,186
-366,971	800,000	-0,030	-0,070
-365,956	331,713	-0,064	0,089
-364,942	800,000	-0,048	0,116
-363,927	55,533	-0,068	0,047
-362,912	-200,000	-0,005	0,069
-361,898	79,860	0,093	-0,072
-360,883	-35,107	0,041	0,016
-359,869	390,166	0,016	-0,024
-358,854	-200,000	0,020	0,068
-357,839	800,000	0,041	-0,130
-356,825	6,769	0,100	0,054
-355,810	47,232	-0,038	-0,026
-354,796	21,770	-0,166	-0,098
-353,781	77,764	-0,159	-0,123
-352,766	189,111	0,059	0,064
-351,752	-200,000	-0,016	0,103
-350,737	10,527	0,045	-0,025
-349,723	230,141	0,092	0,109
-348,708	-200,000	-0,006	0,063
-347,693	-159,365	-0,030	-0,001
-346,679	-200,000	-0,002	-0,011
-345,664	12,289	-0,077	-0,043
-344,650	-200,000	-0,020	0,135
-343,635	196,932	0,057	0,063
-342,620	-200,000	0,056	0,230
-341,606	260,076	0,066	0,082
-340,591	-200,000	0,012	0,051
-339,577	325,161	-0,042	0,058
-338,562	102,558	0,103	0,087
-337,548	-200,000	-0,019	-0,102
-336,533	688,858	0,054	0,102
-335,518	-28,093	0,045	-0,019
-334,504	-119,462	0,054	0,007
-333,489	95,716	-0,045	0,037
-332,475	-200,000	-0,019	-0,080
-331,460	-200,000	-0,005	-0,103
-330,445	385,360	0,032	-0,048
-329,431	-164,298	-0,053	0,002
-328,416	268,672	0,060	0,076
-327,402	-69,772	0,166	-0,046
-326,387	-43,446	-0,166	-0,060
-325,372	-163,048	-0,044	-0,001
-324,358	161,254	-0,026	-0,026
-323,343	376,711	-0,092	0,136
-322,329	-200,000	-0,003	0,040
-321,314	393,697	-0,037	-0,056
-320,299	609,082	0,043	0,078
-319,285	800,000	0,058	-0,126
-318,270	-30,467	-0,114	-0,046
-317,256	-68,814	-0,109	0,030
-316,241	-29,513	0,123	-0,051
-315,226	12,043	0,071	0,039
-314,212	233,350	-0,062	0,074
-313,197	800,000	0,045	0,114
-312,183	800,000	0,038	0,102
-311,168	19,476	-0,087	-0,050
-310,153	800,000	0,070	-0,188
-309,139	-200,000	0,017	-0,064
-308,124	-200,000	-0,003	0,097
-307,110	225,884	-0,055	0,064
-306,095	800,000	-0,037	0,098
-305,080	800,000	0,044	0,102
-304,066	96,309	-0,027	-0,022
-303,051	-200,000	0,016	-0,079
-302,037	800,000	-0,019	-0,061
-301,022	-200,000	-0,032	-0,123
-300,008	489,722	-0,058	-0,097
-298,993	-100,247	0,092	0,016
-297,978	569,999	-0,020	0,035
-296,964	24,234	0,054	0,032
-295,949	-200,000	-0,012	-0,070
-294,935	-65,550	-0,091	0,026
-293,920	-1,281	-0,083	0,042
-292,905	365,581	0,057	-0,083
-291,891	-200,000	0,018	0,061
-290,876	-200,000	0,003	0,014
-289,862	-27,647	0,109	0,045
-288,847	-35,367	0,095	-0,037
-287,832	98,463	-0,129	-0,107
-286,818	-16,030	-0,110	0,051
-285,803	-5,391	0,118	-0,058
-284,789	800,000	0,029	0,064
-283,774	-143,126	0,095	-0,007
-282,759	-179,821	0,051	0,001
-281,745	41,534	0,028	-0,018
-280,730	-124,707	-0,196	-0,022
-279,716	-182,068	0,080	0,001
-278,701	-200,000	-0,007	0,073
-277,686	-110,295	0,010	0,001
-276,672	-0,602	0,028	-0,014
-275,657	-200,000	0,016	0,117
-274,643	436,524	0,032	0,051
-273,628	13,189	-0,087	-0,049
-272,613	800,000	-0,029	0,081
-271,599	-200,000	0,007	0,027
-270,584	6,226	0,124	0,066
-269,570	49,377	0,095	0,064
-268,555	634,001	0,054	0,099
-267,540	-200,000	-0,026	-0,160
-266,526	132,378	0,035	-0,032
-265,511	-200,000	-0,005	0,043
-264,497	-200,000	-0,005	0,117
-263,482	800,000	0,054	0,118
-262,467	540,985	0,046	0,080
-261,453	127,457	0,142	-0,130
-260,438	800,000	-0,016	0,034
-259,424	-200,000	-0,014	-0,173
-258,409	8,403	-0,159	-0,086
-257,395	800,000	0,079	0,237
-256,380	-13,254	0,018	0,008
-255,365	-200,000	0,007	0,026
-254,351	800,000	-0,021	0,054
-253,336	103,523	-0,064	-0,054
-252,322	-200,000	-0,006	0,076
-251,307	-32,183	-0,124	0,050
-250,292	-52,912	-0,036	-0,012
-249,278	-25,968	-0,075	0,032
-248,263	14,398	-0,036	-0,020
-247,249	-200,000	-0,007	0,143
-246,234	-200,000	-0,001	-0,116
-245,219	-107,702	-0,063	-0,010
-244,205	317,121	0,082	-0,113
-243,190	-116,539	-0,085	-0,011
-242,176	-200,000	0,021	-0,076
-241,161	800,000	-0,018	0,038
-240,146	-30,615	0,056	-0,023
-239,132	-12,396	0,110	-0,052
-238,117	-200,000	0,002	-0,019
-237,103	513,515	0,058	-0,098
-236,088	576,790	0,026	0,047
-235,073	587,970	-0,054	0,096
-234,059	-119,550	-0,049	-0,006
-233,044	-200,000	0,005	0,120
-232,030	-13,952	0,185	0,086
-231,015	-117,527	0,051	-0,007
-230,000	382,084	-0,012	0,017
-228,986	-100,443	-0,049	0,009
-227,971	-200,000	0,042	-0,162
-226,957	-58,966	0,113	0,035
-225,942	-44,392	0,084	-0,030
-224,927	-113,656	-0,103	-0,014
-223,913	0,645	-0,150	0,077
-222,898	129,231	0,055	0,051
-221,884	671,794	-0,036	-0,068
-220,869	-43,130	-0,095	0,035
-219,855	66,313	0,050	0,037
-218,840	-87,797	-0,161	0,035
-217,825	-200,000	0,013	-0,050
-216,811	800,000	0,041	-0,116
-215,796	-145,266	0,088	0,006
-214,782	-200,000	0,020	-0,090
-213,767	800,000	-0,025	0,050
-212,752	242,421	0,046	0,056
-211,738	-200,000	0,004	0,084
-210,723	-144,285	0,056	-0,004
-209,709	-114,239	0,170	0,023
-208,694	800,000	-0,064	-0,172
-207,679	67,989	-0,067	0,050
-206,665	800,000	-0,044	0,089
-205,650	-200,000	0,006	0,032
-204,636	-101,533	0,151	-0,026
-203,621	10,094	-0,051	-0,028
-202,606	-185,608	0,124	-0,001
-201,592	-125,434	0,155	0,017
-200,577	-200,000	-0,005	-0,034
-199,563	266,323	-0,058	0,073
-198,548	-85,289	-0,041	0,009
-197,533	800,000	0,033	-0,091
-196,519	39,406	-0,038	0,024
-195,504	12,846	-0,129	-0,072
-194,490	-200,000	0,013	-0,095
-193,475	-4,904	-0,080	0,040
-192,460	-110,766	0,071	-0,010
-191,446	628,640	0,034	-0,062
-190,431	-63,217	0,053	-0,016
-189,417	273,817	0,110	-0,140
-188,402	-133,602	-0,056	-0,005
-187,387	-200,000	-0,007	-0,054
-186,373	800,000	0,040	-0,111
-185,358	-200,000	-0,007	-0,101
-184,344	536,371	0,070	0,120
-183,329	331,762	0,090	0,125
-182,315	732,257	-0,041	-0,080
-181,300	-107,738	-0,143	0,022
-180,285	-200,000	-0,010	-0,160
-179,271	-58,357	-0,121	0,038
-178,256	47,453	0,069	-0,046
-177,242	457,072	0,025	0,041
-176,227	223,563	-0,110	0,128
-175,212	-200,000	0,040	-0,180
-174,198	23,365	-0,069	-0,041
-173,183	-137,866	-0,128	0,010
-172,169	-79,389	-0,132	-0,032
-171,154	211,617	0,039	0,045
-170,139	-36,106	-0,097	-0,037
-169,125	-94,154	0,089	0,017
-168,110	-200,000	0,003	-0,105
-167,096	-32,904	0,034	-0,014
-166,081	-91,578	-0,123	0,025
-165,066	323,364	-0,028	-0,039
-164,052	-200,000	-0,010	0,051
-163,037	-20,275	-0,047	-0,021
-162,023	-200,000	0,015	0,082
-161,008	-131,282	-0,067	0,006
-159,993	-200,000	-0,001	-0,031
-158,979	-77,864	-0,110	-0,027
-157,964	-108,346	-0,042	-0,007
-156,950	-33,327	-0,110	-0,044
-155,935	-101,275	0,050	0,009
-154,920	-81,231	0,094	-0,022
-153,906	59,593	-0,093	0,066
-152,891	143,867	0,082	-0,078
-151,877	5,645	0,031	-0,016
-150,862	310,405	-0,064	-0,087
-149,847	-144,462	0,063	-0,004
-148,833	634,156	-0,072	-0,131
-147,818	73,480	-0,094	0,070
-146,804	-24,870	-0,173	0,074
-145,789	-85,581	0,196	-0,043
-144,775	-44,588	-0,080	0,028
-143,760	165,787	-0,094	-0,095
-142,745	429,806	-0,017	0,027
-141,731	800,000	0,013	0,042
-140,716	-65,342	-0,048	0,014
-139,702	-200,000	-0,021	-0,088
-138,687	643,249	0,046	0,084
-137,672	237,334	0,062	-0,075
-136,658	-81,960	-0,195	-0,045
-135,643	593,458	-0,047	-0,084
-134,629	-200,000	0,000	-0,143
-133,614	800,000	-0,007	-0,019
-132,599	-94,377	-0,084	-0,016
-131,585	96,269	0,090	0,074
-130,570	267,397	-0,062	0,078
-129,556	244,253	-0,017	-0,021
-128,541	142,458	0,031	0,029
-127,526	-200,000	0,034	0,112
-126,512	259,161	-0,013	0,016
-125,497	-74,771	-0,089	-0,023
-124,483	242,100	0,106	0,128
-123,468	-85,057	-0,111	0,025
-122,453	255,692	-0,103	-0,127
-121,439	106,397	-0,133	-0,113
-120,424	215,823	0,087	-0,099
-119,410	406,515	0,051	-0,078
