DTS Sentinel unit serial number:	SN410029Multiplexer serial number:	ORYXHardware model number:	OX2-SRSoftware version number:	ORYX F/W v4,00 Oryx Data Collector v3.7.2.0data status	okinstallation	B5 Nyhavnadifferential loss correction	single-endedforward channel	channel 2reverse channel	N/Adate	2023/12/13time	05:42:13forward acquisition time	300,00reverse acquisition time	0,00gamma	499,1914k internal	0,3160k external	0,3160temperature offset calibration	1,0000default loss term (dB/km)	0,3820temperature slope calibration	1,0000multiplexer offset coefficient	1,0000multiplexer slope coefficient	1,0000fibre end	0,00T internal ref (°C)	13,81T ext. ref 1 (°C)	-2,61T ext. ref 2 (°C)	-2,91length (m)	temperature (°C)	Stokes	anti-Stokes-744,400	-13,298	0,140	0,067
-743,385	-64,279	-0,260	-0,077
-742,371	-186,945	0,241	0,002
-741,356	173,133	-0,137	-0,145
-740,342	-56,805	0,098	-0,032
-739,327	-179,789	-0,328	-0,005
-738,312	182,535	0,064	-0,070
-737,298	-155,185	-0,178	-0,008
-736,283	109,955	0,084	0,074
-735,269	-178,578	-0,313	-0,005
-734,254	385,117	0,069	-0,105
-733,239	-127,414	-0,464	-0,049
-732,225	-22,450	0,203	-0,090
-731,210	3,369	-0,130	0,070
-730,196	243,623	-0,068	0,084
-729,181	101,324	-0,093	0,079
-728,167	-200,000	0,006	-0,230
-727,152	275,732	-0,039	-0,052
-726,137	800,000	-0,033	-0,077
-725,123	800,000	-0,042	-0,129
-724,108	800,000	-0,060	-0,135
-723,094	-96,114	-0,179	0,035
-722,079	800,000	0,027	-0,065
-721,064	580,527	-0,037	-0,067
-720,050	81,998	-0,100	0,079
-719,035	-200,000	-0,010	-0,048
-718,021	-65,130	-0,123	0,036
-717,006	-41,065	-0,098	-0,037
-715,991	372,657	-0,070	-0,104
-714,977	52,034	-0,092	0,064
-713,962	-55,010	-0,039	-0,013
-712,948	-200,000	-0,020	0,089
-711,933	-158,437	0,124	0,005
-710,918	-76,716	-0,213	0,054
-709,904	-71,233	-0,204	-0,056
-708,889	-200,000	-0,005	-0,211
-707,875	800,000	-0,055	-0,128
-706,860	-58,890	-0,061	-0,019
-705,845	205,736	-0,030	0,034
-704,831	-200,000	-0,039	0,178
-703,816	60,491	0,052	-0,038
-702,802	800,000	0,057	-0,138
-701,787	-21,345	-0,117	0,052
-700,772	132,782	0,004	-0,003
-699,758	-8,740	0,065	0,032
-698,743	800,000	0,051	0,157
-697,729	-200,000	-0,005	0,113
-696,714	590,960	-0,034	0,062
-695,699	-200,000	0,023	-0,175
-694,685	-200,000	-0,037	-0,150
-693,670	-200,000	0,004	-0,082
-692,656	235,264	0,047	-0,057
-691,641	261,731	0,075	0,095
-690,627	493,495	-0,053	0,089
-689,612	-47,335	-0,057	-0,020
-688,597	800,000	0,029	-0,087
-687,583	-16,533	-0,153	-0,071
-686,568	-200,000	-0,025	-0,114
-685,554	-200,000	-0,009	-0,063
-684,539	-136,315	-0,129	-0,011
-683,524	800,000	-0,026	0,076
-682,510	-200,000	0,009	0,045
-681,495	-50,220	-0,172	0,059
-680,481	87,242	-0,070	-0,057
-679,466	-200,000	-0,069	-0,000
-678,451	800,000	-0,031	-0,080
-677,437	42,127	0,094	0,063
-676,422	-200,000	-0,056	0,191
-675,408	-50,825	0,165	-0,057
-674,393	-22,566	-0,086	0,038
-673,378	563,624	-0,102	-0,182
-672,364	366,868	0,046	-0,069
-671,349	59,892	0,032	-0,024
-670,335	-56,730	0,031	0,010
-669,320	-200,000	-0,029	0,113
-668,305	-200,000	-0,002	0,098
-667,291	-90,098	0,093	-0,020
-666,276	-200,000	0,007	0,038
-665,262	-169,271	-0,082	0,002
-664,247	-152,067	-0,111	0,006
-663,232	-20,448	0,075	0,034
-662,218	-86,349	0,049	0,011
-661,203	-54,802	0,089	-0,029
-660,189	-200,000	-0,036	-0,164
-659,174	-53,972	-0,169	-0,056
-658,159	619,072	0,035	-0,066
-657,145	144,745	-0,043	0,042
-656,130	-200,000	0,005	-0,018
-655,116	199,976	-0,068	0,076
-654,101	800,000	-0,029	-0,086
-653,086	19,255	-0,044	0,026
-652,072	41,395	-0,115	0,076
-651,057	-13,686	0,049	0,023
-650,043	-50,648	-0,132	0,045
-649,028	63,148	0,085	-0,062
-648,014	119,926	-0,039	0,035
-646,999	800,000	0,036	-0,101
-645,984	88,197	0,040	-0,033
-644,970	-126,131	0,119	-0,013
-643,955	800,000	-0,051	-0,148
-642,941	-65,126	0,034	-0,010
-641,926	45,529	0,042	0,029
-640,911	-200,000	-0,003	0,076
-639,897	-200,000	-0,028	0,154
-638,882	800,000	-0,050	0,107
-637,868	268,361	-0,078	-0,101
-636,853	800,000	0,042	-0,101
-635,838	463,374	-0,070	0,116
-634,824	57,759	-0,067	0,048
-633,809	77,287	-0,042	-0,033
-632,795	-200,000	-0,017	0,095
-631,780	411,903	-0,066	-0,103
-630,765	-61,972	-0,031	-0,010
-629,751	191,272	-0,060	-0,066
-628,736	245,270	0,079	0,098
-627,722	-122,310	-0,223	-0,026
-626,707	15,848	-0,076	-0,044
-625,692	-200,000	-0,001	0,016
-624,678	-71,583	-0,110	0,030
-623,663	800,000	0,037	-0,091
-622,649	-200,000	0,014	-0,127
-621,634	109,103	-0,124	-0,109
-620,619	800,000	0,046	0,145
-619,605	800,000	-0,037	-0,109
-618,590	-18,572	0,055	-0,025
-617,576	800,000	0,034	0,105
-616,561	-64,172	-0,227	0,067
-615,546	615,071	0,071	-0,130
-614,532	397,840	0,023	-0,035
-613,517	55,617	-0,132	0,094
-612,503	800,000	0,031	-0,078
-611,488	-200,000	-0,014	-0,187
-610,474	-28,677	-0,052	0,022
-609,459	49,603	-0,081	-0,056
-608,444	227,911	0,031	-0,037
-607,430	85,666	-0,073	-0,059
-606,415	-113,510	-0,206	-0,029
-605,401	-200,000	-0,017	-0,084
-604,386	166,612	0,159	0,165
-603,371	-200,000	0,010	-0,074
-602,357	-41,666	0,161	0,060
-601,342	800,000	-0,053	0,127
-600,328	-98,993	-0,174	0,032
-599,313	51,029	0,028	-0,019
-598,298	-150,929	-0,058	0,003
-597,284	-21,646	0,195	0,087
-596,269	-140,480	-0,003	0,000
-595,255	210,097	0,062	0,071
-594,240	-86,588	-0,127	0,028
-593,225	-113,784	-0,073	0,010
-592,211	220,441	-0,049	0,057
-591,196	25,728	-0,131	-0,079
-590,182	800,000	0,023	-0,061
-589,167	800,000	-0,048	0,126
-588,152	301,117	-0,024	0,032
-587,138	-200,000	-0,007	0,079
-586,123	-200,000	0,003	0,028
-585,109	190,110	-0,082	-0,091
-584,094	-200,000	-0,025	-0,086
-583,079	800,000	-0,053	0,140
-582,065	14,325	0,166	0,094
-581,050	-200,000	-0,027	-0,141
-580,036	53,511	0,109	0,076
-579,021	183,589	0,022	-0,024
-578,006	149,517	0,079	-0,078
-576,992	-7,108	-0,110	-0,055
-575,977	-41,282	0,061	-0,023
-574,963	134,621	0,032	0,030
-573,948	800,000	-0,050	0,152
-572,934	-200,000	0,036	0,180
-571,919	800,000	-0,020	-0,049
-570,904	-200,000	-0,002	0,156
-569,890	119,254	0,073	0,067
-568,875	-200,000	0,004	0,033
-567,861	182,196	0,081	-0,087
-566,846	-133,396	-0,049	0,004
-565,831	800,000	-0,030	-0,092
-564,817	-200,000	0,007	0,035
-563,802	-73,738	-0,029	0,008
-562,788	-88,444	-0,119	-0,026
-561,773	-46,156	0,031	0,011
-560,758	277,663	-0,050	-0,065
-559,744	800,000	-0,004	-0,011
-558,729	7,300	0,022	-0,012
-557,715	-97,437	0,106	-0,020
-556,700	158,527	-0,119	-0,121
-555,685	-200,000	-0,012	0,043
-554,671	-96,149	0,105	0,020
-553,656	-200,000	-0,017	-0,057
-552,642	301,864	0,084	0,114
-551,627	-65,179	0,051	-0,015
-550,612	238,746	-0,030	-0,036
-549,598	433,416	-0,041	-0,066
-548,583	-8,602	-0,117	0,057
-547,569	-200,000	0,025	-0,165
-546,554	-124,652	0,273	0,031
-545,539	149,965	-0,099	0,098
-544,525	263,494	0,071	0,091
-543,510	800,000	0,011	-0,022
-542,496	312,803	-0,066	0,091
-541,481	334,430	0,068	0,096
-540,466	-43,147	0,017	0,006
-539,452	462,516	0,025	0,040
-538,437	211,316	0,081	0,094
-537,423	800,000	0,021	0,045
-536,408	163,143	-0,131	0,135
-535,393	668,604	0,020	-0,037
-534,379	-68,889	-0,094	0,026
-533,364	314,116	-0,068	-0,094
-532,350	436,294	-0,033	-0,052
-531,335	-200,000	0,012	-0,049
-530,321	59,058	-0,091	-0,065
-529,306	-200,000	-0,018	-0,099
-528,291	-200,000	0,002	0,091
-527,277	-155,460	0,068	0,003
-526,262	-52,060	0,067	-0,023
-525,248	158,892	0,162	0,164
-524,233	277,816	0,072	0,094
-523,218	399,406	-0,061	-0,094
-522,204	-200,000	-0,019	0,114
-521,189	-200,000	-0,019	-0,107
-520,175	-93,148	-0,149	-0,030
-519,160	-85,600	0,121	-0,027
-518,145	-36,300	-0,047	-0,018
-517,131	800,000	-0,004	-0,012
-516,116	49,445	-0,030	-0,021
-515,102	-200,000	-0,019	-0,118
-514,087	137,876	-0,069	-0,066
-513,072	-200,000	0,018	-0,140
-512,058	86,477	-0,057	-0,045
-511,043	-200,000	0,010	0,067
-510,029	-200,000	0,013	0,072
-509,014	67,780	-0,057	0,042
-507,999	89,809	0,078	-0,064
-506,985	-135,088	-0,091	0,008
-505,970	182,429	-0,080	0,087
-504,956	-158,670	-0,092	0,004
-503,941	800,000	0,018	0,055
-502,926	-31,760	0,043	0,018
-501,912	-55,054	0,117	-0,038
-500,897	800,000	-0,035	0,079
-499,883	263,488	0,019	-0,024
-498,868	93,651	-0,017	-0,014
-497,853	800,000	0,052	-0,128
-496,839	223,489	-0,043	0,051
-495,824	800,000	0,035	0,103
-494,810	296,750	-0,046	0,062
-493,795	-200,000	0,008	-0,054
-492,781	205,488	-0,090	-0,102
-491,766	-200,000	-0,014	-0,151
-490,751	800,000	0,064	-0,174
-489,737	-48,730	-0,047	0,016
-488,722	-83,074	0,063	0,015
-487,708	800,000	-0,023	-0,064
-486,693	-200,000	0,008	0,111
-485,678	-200,000	0,029	-0,109
-484,664	-141,563	-0,054	0,004
-483,649	800,000	0,032	0,071
-482,635	-200,000	0,000	0,070
-481,620	344,398	0,040	0,057
-480,605	647,925	0,067	0,125
-479,591	-154,020	0,126	-0,006
-478,576	-200,000	-0,006	-0,039
-477,562	-122,130	-0,180	-0,021
-476,547	800,000	-0,054	-0,126
-475,532	299,690	-0,047	0,064
-474,518	-200,000	-0,014	0,066
-473,503	-151,608	0,253	0,013
-472,489	461,398	0,027	0,043
-471,474	210,420	-0,015	-0,017
-470,459	800,000	-0,015	-0,047
-469,445	-150,821	0,016	0,001
-468,430	-45,111	-0,038	-0,014
-467,416	-99,301	0,098	-0,018
-466,401	-64,408	-0,079	-0,023
-465,386	-88,239	-0,121	-0,026
-464,372	-113,977	0,071	0,010
-463,357	-200,000	0,031	-0,112
-462,343	-62,377	-0,049	0,015
-461,328	-110,747	0,110	0,016
-460,313	167,601	-0,073	0,076
-459,299	-200,000	-0,007	-0,136
-458,284	659,339	0,061	-0,114
-457,270	-200,000	0,019	0,075
-456,255	305,847	0,072	-0,098
-455,241	9,660	0,102	-0,056
-454,226	508,211	-0,094	-0,160
-453,211	800,000	-0,053	-0,132
-452,197	-200,000	-0,002	-0,026
-451,182	800,000	0,056	0,158
-450,168	476,483	-0,034	0,057
-449,153	-200,000	0,004	0,081
-448,138	-111,041	0,092	-0,014
-447,124	-163,381	0,035	-0,001
-446,109	-200,000	0,002	-0,039
-445,095	191,332	0,144	0,158
-444,080	44,576	-0,084	-0,056
-443,065	0,886	-0,107	0,055
-442,051	800,000	0,018	0,046
-441,036	-92,008	-0,079	-0,016
-440,022	-106,156	0,049	0,008
-439,007	-84,362	0,122	0,028
-437,992	285,611	0,017	0,023
-436,978	97,397	0,144	0,120
-435,963	-200,000	0,007	0,048
-434,949	-16,147	0,126	0,058
-433,934	141,936	-0,098	0,094
-432,919	65,671	-0,068	-0,050
-431,905	-14,330	0,054	-0,025
-430,890	683,626	-0,085	0,161
-429,876	-200,000	0,005	0,029
-428,861	-122,076	-0,051	0,006
-427,846	-200,000	-0,030	-0,135
-426,832	-200,000	-0,013	-0,049
-425,817	-200,000	-0,009	0,050
-424,803	-127,588	0,024	0,002
-423,788	-200,000	-0,004	-0,051
-422,773	-17,259	0,074	0,034
-421,759	-200,000	-0,019	0,076
-420,744	762,212	0,067	-0,134
-419,730	-32,823	0,035	0,014
-418,715	800,000	-0,058	-0,171
-417,701	-31,563	0,114	0,046
-416,686	-194,738	0,255	-0,001
-415,671	-96,633	-0,057	-0,011
-414,657	-200,000	0,007	0,035
-413,642	-125,671	-0,138	-0,015
-412,628	92,381	0,083	0,068
-411,613	-103,384	-0,202	0,034
-410,598	-200,000	0,002	-0,080
-409,584	41,908	0,064	-0,042
-408,569	20,530	0,038	0,022
-407,555	631,620	0,059	0,110
-406,540	6,886	-0,059	-0,032
-405,525	-45,213	-0,071	0,026
-404,511	214,041	-0,043	0,050
-403,496	-124,703	-0,062	0,007
-402,482	37,348	0,138	0,089
-401,467	176,288	0,071	0,075
-400,452	323,151	-0,034	-0,047
-399,438	199,130	0,058	0,064
-398,423	734,324	-0,023	0,046
-397,409	-200,000	0,022	-0,079
-396,394	191,553	-0,083	-0,091
-395,379	-200,000	-0,041	-0,134
-394,365	115,948	0,057	0,051
-393,350	404,810	-0,084	0,129
-392,336	-69,187	0,132	-0,037
-391,321	-20,470	-0,071	0,031
-390,306	-21,335	-0,087	-0,038
-389,292	-7,940	-0,037	-0,018
-388,277	-38,514	0,128	-0,049
-387,263	-61,845	0,021	-0,006
-386,248	-177,015	0,224	-0,004
-385,233	1,267	-0,163	0,085
-384,219	-200,000	-0,028	-0,093
-383,204	800,000	0,049	0,151
-382,190	254,171	-0,053	-0,066
-381,175	-27,309	-0,085	-0,036
-380,160	-41,739	0,079	-0,029
-379,146	-200,000	0,002	-0,037
-378,131	49,678	0,051	0,035
-377,117	800,000	-0,027	0,076
-376,102	-200,000	0,019	-0,063
-375,088	147,087	0,055	0,053
-374,073	249,931	0,062	-0,077
-373,058	-106,953	0,085	-0,013
-372,044	334,503	-0,041	-0,057
-371,029	17,129	-0,074	0,043
-370,015	-200,000	-0,013	0,129
-369,000	-78,283	-0,017	0,004
-367,985	69,557	0,019	0,014
-366,971	343,201	0,031	-0,045
-365,956	737,930	0,051	0,099
-364,942	-200,000	0,003	0,117
-363,927	182,359	-0,133	0,142
-362,912	-200,000	-0,019	-0,086
-361,898	-200,000	0,012	-0,084
-360,883	800,000	0,058	-0,117
-359,869	-200,000	0,034	-0,125
-358,854	800,000	-0,026	-0,073
-357,839	-200,000	0,022	0,123
-356,825	800,000	-0,047	0,130
-355,810	800,000	0,042	0,104
-354,796	364,828	-0,155	0,227
-353,781	172,092	-0,060	0,063
-352,766	-200,000	0,012	-0,076
-351,752	-200,000	0,015	0,114
-350,737	684,472	0,028	-0,053
-349,723	172,859	-0,009	0,009
-348,708	-200,000	0,017	0,179
-347,693	800,000	-0,051	-0,130
-346,679	-200,000	-0,023	0,080
-345,664	-146,050	-0,134	0,008
-344,650	80,480	-0,070	-0,055
-343,635	15,570	0,158	-0,090
-342,620	-115,808	0,059	-0,008
-341,606	-86,918	-0,047	0,010
-340,591	-200,000	-0,009	-0,115
-339,577	-200,000	-0,002	0,075
-338,562	-200,000	-0,016	-0,056
-337,548	-200,000	0,012	0,109
-336,533	-14,352	-0,073	-0,034
-335,518	393,308	0,109	0,165
-334,504	800,000	0,023	-0,054
-333,489	-11,702	-0,144	-0,068
-332,475	6,435	-0,056	0,030
-331,460	715,678	-0,039	-0,076
-330,445	-111,747	-0,085	-0,012
-329,431	-85,525	0,136	0,030
-328,416	800,000	0,018	0,053
-327,402	-200,000	-0,004	0,027
-326,387	800,000	0,081	0,225
-325,372	-22,928	-0,214	-0,093
-324,358	800,000	-0,027	0,062
-323,343	212,520	-0,079	-0,090
-322,329	217,310	0,074	-0,086
-321,314	115,034	-0,074	0,066
-320,299	800,000	0,043	0,121
-319,285	-200,000	-0,011	0,065
-318,270	-200,000	-0,019	-0,109
-317,256	178,590	-0,061	-0,065
-316,241	-75,152	-0,105	-0,027
-315,226	280,431	-0,033	-0,043
-314,212	-3,156	0,089	0,045
-313,197	681,028	-0,027	0,050
-312,183	-200,000	0,016	0,121
-311,168	14,694	0,061	0,035
-310,153	-200,000	-0,033	0,147
-309,139	-137,644	-0,121	-0,010
-308,124	-5,868	0,083	0,041
-307,110	-5,043	0,152	0,075
-306,095	10,482	0,077	-0,043
-305,080	192,108	0,104	-0,114
-304,066	800,000	-0,011	-0,022
-303,051	627,020	-0,032	-0,059
-302,037	-42,707	0,011	0,004
-301,022	800,000	0,011	0,032
-300,008	41,100	0,022	0,014
-298,993	208,255	0,050	-0,056
-297,978	-19,849	-0,069	0,031
-296,964	106,147	-0,108	-0,092
-295,949	-84,352	0,152	-0,035
-294,935	-39,769	-0,062	0,023
-293,920	159,798	-0,069	0,069
-292,905	75,762	0,079	-0,060
-291,891	203,875	-0,091	0,102
-290,876	-200,000	-0,004	0,066
-289,862	14,278	0,042	-0,024
-288,847	294,582	0,093	-0,123
-287,832	71,817	-0,027	-0,020
-286,818	303,818	0,053	-0,071
-285,803	90,840	0,077	-0,063
-284,789	800,000	0,075	-0,189
-283,774	67,195	0,010	0,007
-282,759	-103,890	-0,146	0,024
-281,745	-105,090	0,165	-0,027
-280,730	59,459	0,034	0,025
-279,716	435,726	-0,066	-0,104
-278,701	-200,000	0,024	0,127
-277,686	342,744	-0,086	0,122
-276,672	-200,000	-0,004	0,046
-275,657	396,913	0,012	0,019
-274,643	-84,993	-0,177	-0,040
-273,628	800,000	-0,021	-0,048
-272,613	-52,658	0,045	0,015
-271,599	-69,253	0,097	-0,027
-270,584	800,000	-0,022	0,057
-269,570	-15,944	-0,003	0,001
-268,555	349,007	-0,030	0,043
-267,540	800,000	-0,008	-0,020
-266,526	74,298	-0,079	-0,060
-265,511	-200,000	-0,004	0,031
-264,497	-200,000	0,037	0,153
-263,482	232,888	-0,045	0,053
-262,467	-38,041	0,102	0,039
-261,453	800,000	-0,036	-0,086
-260,438	280,458	0,070	0,090
-259,424	-200,000	-0,011	0,042
-258,409	391,052	0,080	-0,120
-257,395	-118,067	0,097	0,012
-256,380	556,165	-0,037	0,065
-255,365	-30,025	-0,093	0,038
-254,351	267,376	0,049	0,062
-253,336	84,607	-0,016	0,012
-252,322	-71,580	-0,102	0,027
-251,307	-161,656	-0,130	-0,005
-250,292	-200,000	0,036	-0,155
-249,278	-200,000	0,021	-0,134
-248,263	86,857	0,090	0,072
-247,249	800,000	0,011	0,028
-246,234	90,817	-0,111	-0,090
-245,219	-112,682	0,159	0,023
-244,205	-28,468	-0,124	-0,051
-243,190	-63,495	-0,003	0,001
-242,176	205,132	-0,054	-0,061
-241,161	-200,000	0,018	-0,085
-240,146	-200,000	0,030	0,099
-239,132	-157,821	0,085	0,004
-238,117	-200,000	0,040	-0,176
-237,103	800,000	0,027	0,059
-236,088	-41,189	0,044	-0,016
-235,073	-95,087	0,143	-0,028
-234,059	542,547	0,046	-0,080
-233,044	539,897	-0,026	-0,044
-232,030	-99,582	-0,085	-0,015
-231,015	-200,000	-0,021	0,073
-230,000	-200,000	0,004	-0,095
-228,986	800,000	0,034	-0,068
-227,971	-200,000	0,029	0,105
-226,957	-42,216	0,159	-0,058
-225,942	800,000	-0,053	0,134
-224,927	-84,372	-0,031	-0,007
-223,913	-200,000	-0,006	-0,025
-222,898	-200,000	-0,003	-0,074
-221,884	800,000	-0,039	-0,087
-220,869	-97,908	-0,047	0,009
-219,855	242,258	-0,030	0,036
-218,840	247,846	0,069	0,084
-217,825	-200,000	0,010	0,035
-216,811	-200,000	0,015	-0,091
-215,796	117,894	-0,112	-0,100
-214,782	390,162	0,119	-0,178
-213,767	-200,000	-0,008	0,106
-212,752	-200,000	0,040	0,169
-211,738	-200,000	-0,032	-0,118
-210,723	800,000	0,018	-0,042
-209,709	140,119	0,056	0,053
-208,694	0,844	-0,025	0,013
-207,679	-75,883	-0,110	-0,028
-206,665	-200,000	0,016	-0,077
-205,650	-95,732	0,169	0,032
-204,636	-60,023	0,018	0,006
-203,621	-200,000	-0,015	0,068
-202,606	37,636	0,050	-0,032
-201,592	-179,255	-0,145	0,002
-200,577	153,555	-0,054	-0,053
-199,563	-155,826	0,122	-0,006
-198,548	121,742	-0,031	-0,028
-197,533	244,575	0,111	0,135
-196,519	800,000	0,018	0,050
-195,504	23,965	-0,143	-0,085
-194,490	227,518	-0,085	-0,100
-193,475	116,465	-0,016	-0,014
-192,460	-38,522	0,064	0,024
-191,446	17,545	0,167	-0,095
-190,431	800,000	-0,031	-0,089
-189,417	-123,235	-0,040	0,005
-188,402	-77,975	-0,043	-0,011
-187,387	417,494	-0,032	-0,050
-186,373	146,611	0,029	0,028
-185,358	-162,220	0,021	-0,001
-184,344	-200,000	0,025	-0,101
-183,329	84,316	0,065	-0,052
-182,315	59,981	0,066	-0,047
-181,300	188,631	0,108	-0,116
-180,285	-200,000	0,002	-0,180
-179,271	172,020	0,048	-0,050
-178,256	380,246	-0,117	-0,174
-177,242	-184,495	0,171	-0,002
-176,227	800,000	-0,021	0,045
-175,212	-157,683	0,015	0,001
-174,198	-200,000	-0,002	0,091
-173,183	-63,453	-0,152	-0,045
-172,169	173,916	0,072	0,075
-171,154	-49,301	-0,061	-0,021
-170,139	800,000	0,038	0,106
-169,125	-200,000	0,006	0,088
-168,110	110,445	0,075	-0,065
-167,096	75,245	-0,123	0,093
-166,081	110,708	-0,077	-0,066
-165,066	-106,114	-0,086	-0,014
-164,052	-46,959	-0,078	0,027
-163,037	358,361	0,032	0,046
-162,023	153,124	0,059	-0,059
-161,008	800,000	0,084	0,230
-159,993	457,914	-0,012	0,019
-158,979	44,697	0,035	0,023
-157,964	-200,000	0,024	0,125
-156,950	800,000	0,039	-0,102
-155,935	521,474	-0,051	-0,087
-154,920	-0,114	0,126	0,064
-153,906	-105,985	-0,032	0,005
-152,891	800,000	0,016	0,036
-151,877	-200,000	0,009	0,061
-150,862	-31,570	-0,165	-0,066
-149,847	-200,000	0,009	-0,099
-148,833	591,052	0,028	0,050
-147,818	-200,000	0,012	0,098
-146,804	-21,032	0,082	-0,036
-145,789	322,677	0,085	0,117
-144,775	-1,418	-0,154	0,078
-143,760	-200,000	-0,011	0,053
-142,745	-200,000	-0,020	-0,109
-141,731	16,808	0,067	0,038
-140,716	800,000	0,074	0,175
-139,702	800,000	-0,014	0,040
-138,687	37,698	-0,053	-0,034
-137,672	431,342	-0,009	-0,015
-136,658	800,000	0,012	0,027
-135,643	-11,232	0,029	-0,014
-134,629	800,000	0,011	-0,028
-133,614	-151,460	0,247	0,013
-132,599	-17,961	0,090	0,040
-131,585	-200,000	-0,045	0,155
-130,570	580,000	0,030	-0,053
-129,556	800,000	0,072	-0,196
-128,541	85,137	-0,116	-0,091
-127,526	387,979	0,074	0,110
-126,512	800,000	0,030	0,074
-125,497	31,864	0,049	-0,031
-124,483	191,942	-0,075	0,082
-123,468	21,654	0,040	0,023
-122,453	19,368	-0,057	-0,033
-121,439	122,529	0,035	0,031
-120,424	-48,377	0,052	0,018
-119,410	-200,000	0,008	-0,030
