DTS Sentinel unit serial number:	SN410029Multiplexer serial number:	ORYXHardware model number:	OX2-SRSoftware version number:	ORYX F/W v4,00 Oryx Data Collector v3.7.2.0data status	okinstallation	B5 Nyhavnadifferential loss correction	single-endedforward channel	channel 2reverse channel	N/Adate	2023/12/13time	21:02:13forward acquisition time	300,00reverse acquisition time	0,00gamma	499,1914k internal	0,3157k external	0,3157temperature offset calibration	1,0000default loss term (dB/km)	0,3820temperature slope calibration	1,0000multiplexer offset coefficient	1,0000multiplexer slope coefficient	1,0000fibre end	0,00T internal ref (°C)	10,31T ext. ref 1 (°C)	-6,61T ext. ref 2 (°C)	-6,67length (m)	temperature (°C)	Stokes	anti-Stokes-744,400	-113,608	0,121	-0,017
-743,385	-135,389	-0,369	0,032
-742,371	26,181	0,156	0,096
-741,356	-171,447	-0,203	0,005
-740,342	378,714	0,124	0,188
-739,327	-35,642	-0,272	-0,108
-738,312	-155,603	0,077	-0,004
-737,298	-70,659	-0,271	-0,075
-736,283	-142,772	0,143	0,010
-735,269	-152,594	-0,442	-0,023
-734,254	280,782	0,099	0,131
-733,239	43,492	-0,439	-0,295
-732,225	-107,252	0,177	0,028
-731,210	-112,485	-0,233	-0,034
-730,196	-74,370	0,070	-0,018
-729,181	800,000	-0,026	0,081
-728,167	800,000	-0,051	-0,114
-727,152	194,822	-0,061	0,068
-726,137	-2,200	-0,155	0,080
-725,123	177,205	0,046	-0,050
-724,108	93,461	-0,048	-0,040
-723,094	-200,000	-0,006	-0,063
-722,079	800,000	-0,046	-0,130
-721,064	-73,193	-0,146	0,039
-720,050	-180,024	0,023	-0,000
-719,035	349,674	0,082	0,120
-718,021	800,000	-0,047	-0,129
-717,006	-200,000	-0,010	-0,146
-715,991	-200,000	0,019	-0,181
-714,977	800,000	-0,043	-0,134
-713,962	-200,000	0,020	-0,103
-712,948	800,000	0,026	0,059
-711,933	82,119	-0,065	-0,052
-710,918	-88,435	0,078	0,017
-709,904	198,172	-0,082	-0,092
-708,889	-200,000	-0,030	-0,102
-707,875	-200,000	-0,019	-0,128
-706,860	-80,394	0,075	-0,018
-705,845	357,072	-0,047	0,070
-704,831	179,638	-0,039	-0,043
-703,816	38,071	0,050	-0,032
-702,802	-149,656	0,034	0,002
-701,787	271,568	-0,021	-0,028
-700,772	-200,000	0,001	0,031
-699,758	-64,167	0,070	-0,021
-698,743	-0,397	0,156	-0,081
-697,729	800,000	-0,031	0,072
-696,714	436,570	-0,089	0,143
-695,699	194,313	-0,116	-0,130
-694,685	-111,212	-0,094	-0,014
-693,670	-108,142	0,090	0,014
-692,656	-200,000	-0,021	-0,117
-691,641	-132,062	0,103	-0,010
-690,627	84,819	-0,053	-0,043
-689,612	-200,000	0,025	0,083
-688,597	-200,000	0,026	0,167
-687,583	280,704	-0,051	-0,067
-686,568	-128,991	0,158	0,016
-685,554	168,883	-0,061	-0,064
-684,539	29,848	0,079	0,049
-683,524	207,383	0,023	-0,027
-682,510	14,236	0,081	-0,046
-681,495	0,002	0,047	0,024
-680,481	80,826	0,034	-0,027
-679,466	-51,933	-0,058	-0,020
-678,451	390,967	-0,068	-0,105
-677,437	265,347	0,044	-0,056
-676,422	-143,470	0,148	-0,010
-675,408	-200,000	-0,004	-0,016
-674,393	-200,000	-0,028	0,099
-673,378	800,000	-0,043	-0,100
-672,364	-200,000	-0,000	-0,064
-671,349	-200,000	0,007	-0,213
-670,335	-200,000	-0,001	0,031
-669,320	-72,373	-0,082	0,022
-668,305	34,884	0,150	0,096
-667,291	139,904	-0,029	0,028
-666,276	334,541	0,041	0,058
-665,262	240,211	0,065	-0,080
-664,247	800,000	0,029	-0,082
-663,232	203,827	0,062	0,071
-662,218	301,401	-0,048	0,066
-661,203	37,799	-0,078	0,051
-660,189	-164,725	-0,086	-0,003
-659,174	-183,075	-0,027	-0,000
-658,159	358,307	-0,047	0,069
-657,145	-200,000	0,031	-0,138
-656,130	-116,809	0,123	-0,016
-655,116	187,648	-0,107	-0,117
-654,101	-200,000	0,040	0,131
-653,086	234,205	-0,117	-0,142
-652,072	62,557	-0,061	0,045
-651,057	-132,878	0,042	0,004
-650,043	292,496	-0,061	-0,082
-649,028	-200,000	0,010	0,129
-648,014	159,742	0,049	0,050
-646,999	-36,818	-0,105	0,041
-645,984	-8,710	-0,077	0,038
-644,970	-200,000	-0,003	-0,072
-643,955	186,143	-0,038	0,042
-642,941	676,611	-0,088	-0,170
-641,926	800,000	-0,034	0,104
-640,911	-108,819	0,133	-0,021
-639,897	-164,868	0,027	0,001
-638,882	-139,305	-0,110	-0,009
-637,868	-200,000	-0,001	-0,102
-636,853	108,363	0,069	0,061
-635,838	-44,922	0,041	-0,015
-634,824	274,930	0,031	-0,040
-633,809	-200,000	0,016	0,074
-632,795	4,314	0,021	0,011
-631,780	-50,795	-0,060	-0,021
-630,765	324,286	-0,064	-0,090
-629,751	-200,000	0,028	-0,208
-628,736	267,543	0,121	-0,156
-627,722	-200,000	0,016	-0,105
-626,707	-200,000	0,018	-0,068
-625,692	283,563	0,086	0,113
-624,678	-111,952	-0,024	-0,004
-623,663	-200,000	0,008	-0,133
-622,649	9,578	0,009	-0,005
-621,634	-200,000	-0,004	0,145
-620,619	151,448	0,038	-0,038
-619,605	-10,070	0,100	0,048
-618,590	179,491	0,125	0,135
-617,576	309,379	-0,083	0,114
-616,561	-200,000	0,001	0,050
-615,546	338,004	0,018	-0,026
-614,532	-200,000	-0,010	-0,067
-613,517	245,100	0,019	-0,023
-612,503	800,000	0,024	-0,063
-611,488	26,047	0,076	-0,046
-610,474	-200,000	0,006	0,039
-609,459	-200,000	0,014	0,076
-608,444	800,000	-0,036	-0,077
-607,430	-200,000	-0,003	-0,068
-606,415	79,761	-0,142	-0,112
-605,401	42,539	-0,033	0,022
-604,386	31,887	0,119	0,075
-603,371	-26,168	0,202	0,087
-602,357	-200,000	-0,005	-0,019
-601,342	-51,745	-0,132	0,045
-600,328	40,078	-0,107	-0,070
-599,313	-64,546	0,035	-0,010
-598,298	-200,000	0,014	-0,074
-597,284	-125,415	0,145	-0,016
-596,269	800,000	0,031	0,085
-595,255	-200,000	-0,019	0,076
-594,240	202,055	0,116	0,132
-593,225	-200,000	0,002	-0,059
-592,211	16,852	-0,091	-0,053
-591,196	34,496	-0,057	-0,036
-590,182	601,576	-0,029	0,053
-589,167	63,583	0,032	-0,024
-588,152	-41,012	-0,099	0,037
-587,138	272,221	0,029	0,038
-586,123	-200,000	0,010	0,050
-585,109	-18,869	-0,028	-0,013
-584,094	-62,049	-0,108	0,033
-583,079	2,601	-0,070	0,037
-582,065	94,701	0,066	0,055
-581,050	143,611	0,043	-0,042
-580,036	-200,000	-0,036	-0,121
-579,021	69,292	-0,131	-0,098
-578,006	66,959	-0,156	-0,117
-576,992	800,000	0,025	-0,069
-575,977	-6,927	0,106	-0,053
-574,963	-102,715	-0,042	-0,007
-573,948	77,796	0,041	0,032
-572,934	-14,280	-0,063	0,030
-571,919	800,000	-0,024	0,053
-570,904	145,692	-0,097	-0,095
-569,890	-200,000	0,001	-0,078
-568,875	-200,000	0,013	0,092
-567,861	-200,000	0,017	-0,120
-566,846	-200,000	-0,003	0,041
-565,831	85,633	-0,093	-0,074
-564,817	800,000	-0,022	0,054
-563,802	-82,967	-0,117	-0,027
-562,788	763,922	-0,045	-0,090
-561,773	86,295	-0,080	0,065
-560,758	800,000	0,021	0,043
-559,744	81,610	-0,014	0,011
-558,729	-200,000	-0,033	0,197
-557,715	250,832	-0,027	0,033
-556,700	299,473	0,017	-0,024
-555,685	-200,000	-0,005	0,053
-554,671	183,565	-0,079	-0,086
-553,656	565,142	-0,008	0,014
-552,642	-41,944	0,209	-0,078
-551,627	535,891	-0,038	0,067
-550,612	-200,000	-0,029	0,100
-549,598	202,106	-0,040	-0,045
-548,583	394,921	-0,071	-0,108
-547,569	311,284	-0,108	0,149
-546,554	137,028	0,038	-0,037
-545,539	-68,521	-0,043	-0,012
-544,525	-48,420	0,098	-0,034
-543,510	17,670	-0,148	-0,086
-542,496	118,901	-0,041	-0,037
-541,481	136,405	-0,076	-0,072
-540,466	-96,667	-0,067	0,013
-539,452	-200,000	0,040	0,137
-538,437	-55,324	-0,131	0,043
-537,423	13,586	-0,052	-0,029
-536,408	800,000	0,036	-0,109
-535,393	-200,000	-0,011	-0,059
-534,379	-115,009	0,108	0,015
-533,364	-58,186	0,120	-0,038
-532,350	166,395	-0,061	-0,063
-531,335	800,000	0,091	-0,200
-530,321	559,006	-0,141	0,250
-529,306	-36,687	-0,101	0,040
-528,291	631,011	0,047	-0,088
-527,277	-68,759	0,138	0,039
-526,262	60,297	0,066	-0,048
-525,248	-114,983	0,198	-0,027
-524,233	153,184	-0,118	0,118
-523,218	103,230	-0,076	0,065
-522,204	-200,000	-0,003	0,021
-521,189	-101,307	-0,103	0,018
-520,175	5,847	-0,123	0,066
-519,160	-97,298	0,090	0,017
-518,145	15,080	0,079	-0,045
-517,131	-27,933	-0,090	0,038
-516,116	784,021	0,047	-0,094
-515,102	-200,000	0,019	0,158
-514,087	212,053	-0,082	0,095
-513,072	388,452	-0,025	0,038
-512,058	800,000	0,035	-0,082
-511,043	542,148	-0,030	0,052
-510,029	-105,472	-0,104	0,017
-509,014	26,628	0,078	0,048
-507,999	-200,000	0,009	0,042
-506,985	123,043	-0,114	-0,104
-505,970	100,520	0,074	-0,063
-504,956	-200,000	0,014	0,072
-503,941	-126,632	-0,108	0,012
-502,926	-58,252	0,048	0,015
-501,912	12,559	0,070	0,039
-500,897	51,255	-0,084	-0,058
-499,883	800,000	0,060	0,122
-498,868	-80,927	-0,156	-0,037
-497,853	494,749	0,052	0,087
-496,839	70,879	0,063	-0,047
-495,824	-200,000	-0,007	0,079
-494,810	-200,000	-0,022	0,120
-493,795	-200,000	0,008	-0,031
-492,781	-96,571	0,126	0,024
-491,766	162,128	-0,112	-0,114
-490,751	800,000	0,045	-0,112
-489,737	-91,414	0,132	-0,027
-488,722	800,000	-0,022	-0,068
-487,708	-53,531	-0,062	-0,021
-486,693	98,006	0,086	0,072
-485,678	-86,244	0,067	-0,015
-484,664	-25,830	-0,053	-0,023
-483,649	-200,000	-0,036	0,131
-482,635	172,352	-0,024	-0,025
-481,620	90,983	-0,026	-0,021
-480,605	228,105	0,092	-0,109
-479,591	-200,000	0,003	0,090
-478,576	70,303	0,084	0,063
-477,562	97,727	-0,030	-0,025
-476,547	-200,000	0,003	0,082
-475,532	382,365	-0,031	0,046
-474,518	-138,397	0,173	-0,014
-473,503	800,000	-0,061	0,173
-472,489	231,372	0,051	-0,061
-471,474	-200,000	-0,023	-0,095
-470,459	-87,062	-0,188	-0,041
-469,445	116,698	-0,075	-0,067
-468,430	-47,218	-0,099	0,035
-467,416	266,909	0,027	-0,035
-466,401	-76,969	-0,086	0,022
-465,386	247,812	-0,007	0,009
-464,372	86,393	0,093	-0,075
-463,357	-127,040	-0,029	0,003
-462,343	21,196	0,132	-0,078
-461,328	-107,669	0,075	0,012
-460,313	77,547	0,056	0,043
-459,299	-200,000	-0,023	0,154
-458,284	11,174	0,044	-0,025
-457,270	420,148	0,060	-0,093
-456,255	-18,119	-0,108	-0,049
-455,241	237,916	-0,039	-0,048
-454,226	-200,000	0,027	-0,114
-453,211	-3,854	0,037	0,019
-452,197	-200,000	0,006	-0,021
-451,182	-117,000	-0,082	-0,011
-450,168	-119,349	0,135	-0,017
-449,153	24,202	-0,093	-0,056
-448,138	34,471	0,080	-0,051
-447,124	800,000	-0,050	-0,113
-446,109	72,803	0,074	-0,056
-445,095	-200,000	-0,001	-0,053
-444,080	-200,000	-0,002	-0,066
-443,065	366,184	0,065	0,096
-442,051	798,849	-0,057	-0,114
-441,036	-200,000	0,028	-0,090
-440,022	800,000	-0,009	-0,024
-439,007	441,232	-0,046	-0,073
-437,992	-102,778	-0,072	-0,012
-436,978	165,634	0,031	0,032
-435,963	-200,000	0,020	0,119
-434,949	-200,000	0,005	0,066
-433,934	-100,171	0,176	-0,032
-432,919	28,832	-0,057	-0,035
-431,905	-92,606	0,146	0,030
-430,890	-140,940	0,192	0,014
-429,876	-200,000	-0,039	0,136
-428,861	-30,295	-0,049	-0,020
-427,846	-200,000	-0,014	0,084
-426,832	655,963	0,042	-0,078
-425,817	614,442	-0,049	-0,089
-424,803	-86,202	-0,037	-0,008
-423,788	-200,000	0,024	0,200
-422,773	-101,017	-0,086	0,015
-421,759	3,253	0,147	0,078
-420,744	-93,575	0,031	-0,006
-419,730	-200,000	0,000	0,045
-418,715	800,000	0,009	-0,026
-417,701	735,700	-0,039	-0,077
-416,686	-98,041	0,068	0,013
-415,671	-11,513	0,051	0,024
-414,657	-200,000	0,008	-0,097
-413,642	-154,807	0,091	0,004
-412,628	-150,682	0,079	-0,004
-411,613	-125,296	0,097	-0,011
-410,598	800,000	0,044	-0,100
-409,584	-180,104	-0,013	0,000
-408,569	-40,249	0,199	-0,075
-407,555	-156,511	0,016	0,001
-406,540	-200,000	0,033	-0,135
-405,525	-200,000	0,003	0,011
-404,511	33,483	0,050	0,032
-403,496	800,000	0,035	-0,097
-402,482	70,128	-0,089	0,067
-401,467	-200,000	0,038	-0,164
-400,452	-200,000	0,008	-0,114
-399,438	-200,000	0,010	-0,161
-398,423	800,000	0,028	-0,089
-397,409	-200,000	-0,035	0,119
-396,394	5,141	0,108	-0,058
-395,379	-28,702	-0,037	-0,015
-394,365	37,895	-0,079	-0,051
-393,350	-200,000	0,016	0,072
-392,336	-200,000	0,003	0,030
-391,321	-200,000	0,026	-0,135
-390,306	-88,460	-0,114	-0,025
-389,292	235,655	-0,017	-0,021
-388,277	257,321	-0,046	-0,057
-387,263	-154,911	0,085	-0,004
-386,248	-29,810	-0,030	0,012
-385,233	95,624	0,025	-0,021
-384,219	-200,000	-0,016	-0,084
-383,204	-24,212	-0,075	0,032
-382,190	800,000	-0,043	0,097
-381,175	800,000	-0,001	0,002
-380,160	159,016	0,035	-0,036
-379,146	19,480	0,091	0,053
-378,131	496,200	0,086	0,144
-377,117	-109,018	-0,092	0,014
-376,102	800,000	-0,037	0,107
-375,088	458,744	-0,034	0,056
-374,073	301,864	-0,110	-0,148
-373,058	-121,081	0,151	0,018
-372,044	475,916	-0,050	-0,082
-371,029	40,618	-0,039	-0,026
-370,015	-200,000	-0,011	-0,070
-369,000	-200,000	-0,022	-0,112
-367,985	3,043	0,037	0,019
-366,971	77,340	0,036	0,028
-365,956	59,437	0,053	-0,038
-364,942	162,695	-0,086	-0,087
-363,927	800,000	0,064	0,175
-362,912	154,120	-0,086	0,086
-361,898	-200,000	-0,036	-0,206
-360,883	249,141	-0,023	-0,029
-359,869	137,467	0,042	0,040
-358,854	216,582	-0,026	-0,030
-357,839	-12,887	0,099	0,047
-356,825	800,000	-0,064	0,202
-355,810	-200,000	-0,013	-0,047
-354,796	541,152	0,046	-0,079
-353,781	800,000	0,013	-0,035
-352,766	-116,079	-0,074	0,010
-351,752	415,681	0,033	-0,052
-350,737	25,418	0,038	0,023
-349,723	215,831	0,167	0,193
-348,708	422,384	0,058	0,091
-347,693	61,305	-0,058	0,042
-346,679	202,576	0,041	-0,045
-345,664	4,533	-0,088	-0,047
-344,650	-69,062	-0,111	-0,031
-343,635	-111,776	-0,048	0,007
-342,620	65,282	0,071	0,052
-341,606	800,000	-0,032	-0,078
-340,591	122,950	0,034	0,031
-339,577	483,777	0,036	-0,060
-338,562	-129,507	-0,132	-0,013
-337,548	106,865	-0,038	-0,033
-336,533	-200,000	-0,002	0,051
-335,518	107,779	-0,020	-0,017
-334,504	301,573	0,042	-0,056
-333,489	-200,000	-0,024	-0,091
-332,475	-138,803	-0,048	0,004
-331,460	-200,000	-0,014	-0,103
-330,445	73,463	-0,068	0,051
-329,431	800,000	-0,014	-0,041
-328,416	-200,000	0,027	0,108
-327,402	-64,601	0,034	-0,010
-326,387	800,000	0,019	-0,040
-325,372	59,342	-0,101	-0,072
-324,358	-6,308	-0,149	0,073
-323,343	50,366	0,073	-0,050
-322,329	800,000	0,039	-0,085
-321,314	-150,266	0,070	-0,004
-320,299	88,631	0,106	0,085
-319,285	328,024	-0,029	0,041
-318,270	800,000	-0,037	0,114
-317,256	294,007	-0,025	-0,034
-316,241	-28,558	0,009	0,004
-315,226	58,508	-0,094	-0,067
-314,212	-111,623	0,095	0,014
-313,197	-200,000	0,013	0,073
-312,183	64,210	-0,064	-0,047
-311,168	800,000	-0,005	-0,011
-310,153	800,000	0,059	-0,142
-309,139	-85,342	-0,190	-0,043
-308,124	-200,000	0,026	0,115
-307,110	160,568	0,015	-0,015
-306,095	800,000	-0,029	0,083
-305,080	178,834	-0,038	0,040
-304,066	96,879	0,067	0,056
-303,051	-47,665	-0,120	-0,042
-302,037	-200,000	0,014	-0,060
-301,022	92,783	0,048	-0,039
-300,008	-55,660	0,230	0,074
-298,993	-87,371	0,148	0,032
-297,978	19,568	-0,071	0,041
-296,964	-200,000	-0,021	0,087
-295,949	800,000	-0,049	0,108
-294,935	277,082	0,028	-0,037
-293,920	45,865	0,150	-0,100
-292,905	67,961	0,142	0,105
-291,891	-5,844	-0,089	-0,044
-290,876	218,441	0,087	-0,101
-289,862	373,316	0,032	-0,047
-288,847	-16,257	-0,142	-0,065
-287,832	-21,712	-0,078	-0,034
-286,818	370,615	0,052	-0,076
-285,803	-109,153	-0,067	0,010
-284,789	38,541	0,113	0,073
-283,774	-166,340	-0,167	-0,005
-282,759	800,000	0,020	0,040
-281,745	800,000	0,050	-0,109
-280,730	91,113	-0,104	0,084
-279,716	-200,000	0,024	-0,101
-278,701	-200,000	0,024	0,114
-277,686	-200,000	-0,025	0,121
-276,672	-200,000	-0,001	0,098
-275,657	-30,088	-0,033	-0,014
-274,643	-41,955	-0,049	0,018
-273,628	72,256	-0,019	-0,014
-272,613	111,308	-0,029	0,025
-271,599	225,621	-0,098	-0,115
-270,584	-83,130	0,054	-0,012
-269,570	165,528	-0,057	0,059
-268,555	315,070	0,070	0,096
-267,540	-200,000	-0,020	0,106
-266,526	-21,180	-0,050	-0,022
-265,511	-97,685	0,109	0,020
-264,497	-200,000	0,007	0,130
-263,482	153,106	-0,047	0,047
-262,467	800,000	0,001	0,002
-261,453	118,884	-0,044	0,039
-260,438	80,206	-0,057	-0,044
-259,424	-54,192	-0,098	0,032
-258,409	93,639	0,095	0,078
-257,395	266,325	-0,013	-0,016
-256,380	-3,791	-0,028	0,014
-255,365	-200,000	-0,006	-0,035
-254,351	645,150	-0,102	0,189
-253,336	-200,000	0,011	-0,093
-252,322	-200,000	0,013	-0,162
-251,307	50,648	-0,042	0,028
-250,292	85,919	0,076	-0,061
-249,278	119,601	0,039	-0,035
-248,263	-108,991	-0,050	0,008
-247,249	800,000	0,009	0,024
-246,234	-71,823	-0,087	-0,023
-245,219	-99,083	-0,088	-0,016
-244,205	-200,000	-0,013	0,098
-243,190	179,501	0,060	-0,063
-242,176	-150,324	0,002	0,000
-241,161	84,110	-0,081	-0,064
-240,146	41,530	0,109	0,072
-239,132	-98,703	0,029	-0,005
-238,117	-200,000	0,021	-0,166
-237,103	800,000	0,028	-0,084
-236,088	-200,000	-0,005	0,023
-235,073	477,310	-0,081	0,133
-234,059	697,793	0,030	0,057
-233,044	88,515	0,079	-0,064
-232,030	800,000	-0,030	-0,067
-231,015	-200,000	0,025	-0,083
-230,000	-200,000	0,011	0,071
-228,986	137,263	-0,043	-0,041
-227,971	800,000	-0,007	-0,020
-226,957	-200,000	-0,006	0,128
-225,942	-200,000	-0,011	0,079
-224,927	-200,000	0,002	-0,043
-223,913	79,786	-0,149	-0,115
-222,898	59,504	0,091	0,065
-221,884	148,130	0,036	0,035
-220,869	800,000	0,035	0,073
-219,855	474,966	-0,033	0,053
-218,840	28,506	0,087	0,053
-217,825	137,383	0,066	0,062
-216,811	-157,664	-0,122	0,005
-215,796	223,100	-0,076	-0,089
-214,782	-43,213	0,136	-0,050
-213,767	-200,000	0,018	0,090
-212,752	-89,287	0,033	-0,007
-211,738	-200,000	-0,017	0,116
-210,723	239,651	0,116	0,139
-209,709	-41,725	-0,052	0,019
-208,694	-200,000	-0,033	0,267
-207,679	429,385	0,043	-0,067
-206,665	-200,000	-0,028	0,000
-205,650	293,500	-0,105	0,139
-204,636	-39,728	0,086	-0,032
-203,621	269,446	0,044	-0,056
-202,606	800,000	-0,027	-0,084
-201,592	538,494	0,022	-0,038
-200,577	-186,829	0,168	-0,002
-199,563	-200,000	-0,023	0,110
-198,548	-200,000	0,012	0,140
-197,533	800,000	0,052	0,107
-196,519	-147,013	-0,189	0,012
-195,504	299,921	-0,086	-0,114
-194,490	-200,000	-0,005	0,065
-193,475	800,000	-0,039	-0,079
-192,460	-200,000	0,012	0,055
-191,446	-111,926	0,044	0,006
-190,431	-79,814	0,073	-0,018
-189,417	161,971	0,091	0,092
-188,402	600,349	-0,019	0,034
-187,387	-73,987	-0,035	-0,009
-186,373	-68,626	-0,049	0,014
-185,358	-87,118	0,054	-0,012
-184,344	-149,519	0,082	0,005
-183,329	-173,618	0,036	0,001
-182,315	133,204	0,037	0,035
-181,300	-98,905	0,149	0,027
-180,285	-23,118	-0,069	-0,030
-179,271	460,357	-0,055	-0,089
-178,256	800,000	-0,018	-0,042
-177,242	-200,000	-0,029	0,102
-176,227	220,303	-0,054	-0,062
-175,212	708,288	0,023	-0,045
-174,198	58,134	-0,052	-0,036
-173,183	243,330	-0,050	-0,061
-172,169	-200,000	-0,014	0,091
-171,154	95,626	-0,061	0,050
-170,139	374,277	-0,053	0,079
-169,125	199,763	0,038	0,042
-168,110	-70,955	0,082	-0,022
-167,096	-18,879	0,048	-0,022
-166,081	80,889	-0,017	-0,013
-165,066	-147,025	-0,122	-0,007
-164,052	-200,000	-0,002	0,030
-163,037	-66,934	0,100	0,028
-162,023	294,120	-0,057	-0,075
-161,008	172,170	0,063	0,065
-159,993	800,000	-0,056	-0,114
-158,979	229,345	-0,058	-0,068
-157,964	55,658	0,073	-0,051
-156,950	18,110	0,112	0,064
-155,935	607,627	-0,033	0,059
-154,920	65,981	0,155	0,113
-153,906	417,632	-0,071	0,110
-152,891	-98,980	-0,063	0,011
-151,877	-127,895	0,110	-0,011
-150,862	-177,809	-0,071	0,001
-149,847	114,852	0,032	0,028
-148,833	338,981	0,012	0,018
-147,818	-200,000	-0,006	0,074
-146,804	-200,000	-0,002	0,081
-145,789	123,895	0,081	0,073
-144,775	326,355	0,092	0,127
-143,760	-28,613	-0,106	0,044
-142,745	360,887	-0,009	0,012
-141,731	-80,499	0,093	0,022
-140,716	12,826	0,110	-0,061
-139,702	800,000	0,015	-0,037
-138,687	800,000	-0,016	-0,040
-137,672	309,244	0,055	0,074
-136,658	-200,000	-0,156	-0,000
-135,643	-120,492	0,112	-0,014
-134,629	-11,368	0,040	-0,019
-133,614	207,822	-0,030	0,034
-132,599	-200,000	-0,021	0,141
-131,585	47,874	0,048	-0,032
-130,570	-200,000	-0,005	0,021
-129,556	-200,000	0,019	0,075
-128,541	-200,000	0,001	-0,086
-127,526	800,000	-0,055	0,117
-126,512	38,040	0,075	0,048
-125,497	800,000	0,033	0,079
-124,483	800,000	-0,036	-0,094
-123,468	-57,764	-0,154	0,048
-122,453	201,114	0,005	0,005
-121,439	-148,696	0,041	0,002
-120,424	15,318	-0,109	0,061
-119,410	80,959	0,059	0,045
