DTS Sentinel unit serial number:	SN410029Multiplexer serial number:	ORYXHardware model number:	OX2-SRSoftware version number:	ORYX F/W v4,00 Oryx Data Collector v3.7.2.0data status	okinstallation	B5 Nyhavnadifferential loss correction	single-endedforward channel	channel 2reverse channel	N/Adate	2023/12/14time	05:47:13forward acquisition time	300,00reverse acquisition time	0,00gamma	499,1914k internal	0,3157k external	0,3157temperature offset calibration	1,0000default loss term (dB/km)	0,3820temperature slope calibration	1,0000multiplexer offset coefficient	1,0000multiplexer slope coefficient	1,0000fibre end	0,00T internal ref (°C)	7,69T ext. ref 1 (°C)	-8,79T ext. ref 2 (°C)	-8,87length (m)	temperature (°C)	Stokes	anti-Stokes-744,400	-110,398	0,325	0,049
-743,385	-81,779	-0,379	-0,091
-742,371	-163,168	0,139	0,005
-741,356	-66,741	-0,261	-0,076
-740,342	-22,662	0,237	0,105
-739,327	-150,015	-0,258	-0,015
-738,312	299,543	0,065	0,088
-737,298	-163,348	-0,451	0,016
-736,283	-116,572	0,186	0,025
-735,269	-163,328	-0,227	-0,008
-734,254	161,152	0,111	0,115
-733,239	60,248	-0,503	-0,367
-732,225	-11,048	0,272	0,132
-731,210	-48,293	0,167	-0,059
-730,196	-126,666	-0,208	0,022
-729,181	410,657	-0,007	-0,011
-728,167	47,865	0,027	0,018
-727,152	-124,042	-0,088	0,010
-726,137	-171,728	-0,082	-0,002
-725,123	-200,000	0,016	-0,077
-724,108	-200,000	-0,141	0,000
-723,094	-27,893	-0,109	-0,046
-722,079	-142,425	-0,015	-0,001
-721,064	659,789	0,060	0,114
-720,050	7,409	-0,045	-0,025
-719,035	-49,641	-0,054	-0,019
-718,021	50,086	-0,048	-0,033
-717,006	800,000	-0,047	0,106
-715,991	-52,730	-0,108	0,036
-714,977	-109,782	0,038	-0,006
-713,962	-200,000	0,006	0,061
-712,948	-200,000	-0,018	-0,097
-711,933	144,079	-0,028	0,027
-710,918	796,474	-0,001	-0,002
-709,904	-200,000	0,035	-0,139
-708,889	-68,735	0,051	-0,014
-707,875	-76,899	-0,035	-0,009
-706,860	319,850	-0,051	-0,071
-705,845	-194,941	0,159	-0,001
-704,831	4,542	0,026	-0,014
-703,816	94,143	-0,090	-0,075
-702,802	203,333	-0,107	-0,123
-701,787	305,049	-0,022	-0,030
-700,772	800,000	-0,055	-0,131
-699,758	55,994	-0,125	-0,089
-698,743	641,538	0,079	-0,148
-697,729	-94,818	0,012	-0,002
-696,714	-200,000	-0,013	0,045
-695,699	251,346	-0,045	-0,057
-694,685	-146,955	-0,047	0,003
-693,670	36,605	-0,119	0,077
-692,656	72,379	-0,054	0,041
-691,641	166,110	-0,045	-0,047
-690,627	-111,854	-0,093	0,014
-689,612	-200,000	0,030	-0,197
-688,597	800,000	-0,051	-0,114
-687,583	800,000	-0,068	-0,159
-686,568	255,429	-0,040	-0,051
-685,554	-200,000	0,002	-0,037
-684,539	292,782	0,033	0,044
-683,524	-200,000	-0,001	0,049
-682,510	69,238	-0,067	0,050
-681,495	82,038	-0,063	-0,050
-680,481	35,120	-0,028	0,018
-679,466	-44,270	0,116	0,043
-678,451	16,873	-0,087	0,051
-677,437	418,444	-0,065	-0,102
-676,422	145,078	-0,075	0,074
-675,408	800,000	0,013	-0,030
-674,393	800,000	-0,082	0,196
-673,378	155,105	0,145	-0,147
-672,364	205,639	-0,153	-0,175
-671,349	800,000	0,012	-0,040
-670,335	242,457	0,032	0,040
-669,320	729,763	0,034	-0,067
-668,305	800,000	0,045	-0,099
-667,291	-200,000	0,064	0,220
-666,276	80,545	-0,114	-0,090
-665,262	800,000	-0,050	-0,132
-664,247	-27,290	0,024	0,010
-663,232	49,795	0,130	-0,090
-662,218	-55,483	-0,127	0,042
-661,203	221,884	-0,081	0,096
-660,189	-132,818	-0,149	-0,014
-659,174	800,000	0,040	-0,098
-658,159	-13,625	-0,022	-0,011
-657,145	179,134	-0,045	-0,048
-656,130	-200,000	-0,006	0,038
-655,116	62,938	0,118	0,086
-654,101	-200,000	0,004	-0,123
-653,086	-200,000	-0,002	-0,173
-652,072	240,287	-0,100	-0,123
-651,057	22,416	0,076	0,046
-650,043	800,000	-0,053	0,118
-649,028	10,626	-0,030	0,017
-648,014	800,000	-0,015	0,031
-646,999	-200,000	0,001	-0,019
-645,984	800,000	-0,047	0,117
-644,970	394,406	-0,032	0,049
-643,955	116,066	-0,124	-0,112
-642,941	-200,000	-0,005	-0,109
-641,926	-200,000	0,003	-0,092
-640,911	-38,001	0,058	-0,023
-639,897	800,000	0,010	-0,021
-638,882	800,000	-0,040	0,114
-637,868	576,679	-0,034	-0,061
-636,853	-200,000	-0,006	0,102
-635,838	800,000	-0,012	0,033
-634,824	583,048	0,060	-0,108
-633,809	-200,000	0,018	-0,089
-632,795	-200,000	0,007	0,141
-631,780	30,361	0,043	0,027
-630,765	-48,066	-0,104	0,037
-629,751	-179,931	-0,097	-0,001
-628,736	-200,000	0,029	-0,113
-627,722	-200,000	-0,010	-0,080
-626,707	274,182	0,053	-0,070
-625,692	157,325	0,042	0,043
-624,678	120,656	-0,063	0,058
-623,663	-200,000	0,004	0,069
-622,649	-166,904	-0,055	-0,002
-621,634	-200,000	-0,030	-0,106
-620,619	-108,803	-0,094	-0,015
-619,605	126,780	-0,062	0,057
-618,590	171,939	0,109	0,115
-617,576	-25,597	0,037	-0,016
-616,561	20,276	-0,108	0,064
-615,546	346,729	0,093	-0,134
-614,532	83,069	-0,125	-0,100
-613,517	-200,000	-0,030	-0,126
-612,503	80,764	0,094	0,074
-611,488	769,030	0,060	0,120
-610,474	-63,089	-0,201	-0,060
-609,459	-42,282	-0,061	0,023
-608,444	800,000	0,038	-0,083
-607,430	-200,000	-0,002	-0,122
-606,415	572,231	-0,047	-0,084
-605,401	187,021	0,057	-0,062
-604,386	-37,741	0,148	0,058
-603,371	-74,319	-0,064	0,017
-602,357	-200,000	-0,001	-0,059
-601,342	800,000	-0,035	-0,078
-600,328	-143,765	-0,035	-0,002
-599,313	672,371	0,036	0,069
-598,298	-45,223	-0,111	0,040
-597,284	-57,308	0,182	0,058
-596,269	407,071	-0,074	0,115
-595,255	-111,949	0,077	-0,011
-594,240	14,317	0,187	0,107
-593,225	-200,000	-0,026	-0,139
-592,211	344,356	-0,076	-0,110
-591,196	-127,829	-0,031	0,003
-590,182	-200,000	-0,001	0,046
-589,167	710,168	-0,064	0,126
-588,152	312,864	-0,037	-0,050
-587,138	112,934	0,042	0,037
-586,123	-68,361	-0,207	-0,059
-585,109	800,000	-0,016	-0,043
-584,094	97,213	0,137	0,116
-583,079	-78,793	0,053	-0,013
-582,065	-200,000	0,004	-0,025
-581,050	-200,000	0,026	0,102
-580,036	-32,250	0,015	0,006
-579,021	-59,870	0,033	0,010
-578,006	348,730	-0,014	-0,020
-576,992	-200,000	0,034	-0,145
-575,977	-94,569	0,075	-0,015
-574,963	-200,000	-0,004	-0,040
-573,948	-200,000	0,009	0,049
-572,934	757,601	0,066	0,133
-571,919	800,000	-0,053	-0,113
-570,904	-200,000	0,013	-0,058
-569,890	393,424	-0,019	-0,029
-568,875	-63,622	-0,044	0,013
-567,861	73,787	0,107	0,082
-566,846	68,383	0,063	-0,047
-565,831	-173,335	-0,105	-0,002
-564,817	-107,880	0,049	-0,008
-563,802	155,075	-0,066	-0,067
-562,788	-200,000	0,027	-0,096
-561,773	-200,000	0,001	-0,086
-560,758	-200,000	-0,000	0,003
-559,744	211,276	0,075	0,086
-558,729	308,498	-0,126	0,172
-557,715	-36,634	-0,080	0,032
-556,700	-200,000	-0,001	0,055
-555,685	-200,000	-0,038	-0,157
-554,671	-200,000	-0,003	0,072
-553,656	58,716	0,108	0,078
-552,642	-200,000	0,044	-0,153
-551,627	-200,000	0,024	-0,085
-550,612	344,688	-0,060	0,086
-549,598	-71,570	0,138	-0,038
-548,583	-66,158	-0,111	-0,032
-547,569	-200,000	0,010	0,042
-546,554	97,195	0,057	-0,048
-545,539	5,106	-0,059	0,032
-544,525	1,375	-0,109	-0,057
-543,510	-68,148	-0,084	-0,024
-542,496	800,000	0,010	0,024
-541,481	5,722	0,047	0,025
-540,466	-62,004	-0,038	0,012
-539,452	-200,000	-0,017	0,073
-538,437	800,000	-0,028	0,089
-537,423	-200,000	0,018	0,058
-536,408	273,252	-0,041	-0,053
-535,393	-66,188	-0,179	0,052
-534,379	74,578	0,062	0,048
-533,364	135,813	-0,024	0,023
-532,350	-40,239	0,035	0,013
-531,335	-96,826	-0,091	-0,017
-530,321	800,000	-0,048	0,113
-529,306	800,000	-0,023	-0,066
-528,291	273,975	-0,092	-0,120
-527,277	-200,000	-0,019	-0,066
-526,262	436,349	0,027	-0,042
-525,248	378,009	-0,030	0,045
-524,233	139,665	0,056	-0,054
-523,218	-200,000	-0,007	0,079
-522,204	-138,892	0,038	0,003
-521,189	74,304	0,063	-0,048
-520,175	568,258	-0,024	-0,043
-519,160	-200,000	-0,003	-0,048
-518,145	125,905	0,027	-0,025
-517,131	378,593	-0,040	-0,060
-516,116	9,009	0,033	0,018
-515,102	-200,000	-0,008	-0,070
-514,087	-118,106	-0,166	-0,021
-513,072	83,872	-0,066	0,052
-512,058	-139,601	0,033	0,003
-511,043	-200,000	0,059	0,201
-510,029	-114,820	0,055	-0,008
-509,014	800,000	0,041	0,101
-507,999	225,856	0,082	-0,097
-506,985	800,000	-0,007	0,014
-505,970	-71,854	-0,183	0,049
-504,956	-95,399	-0,047	-0,009
-503,941	638,130	-0,083	0,154
-502,926	147,080	0,089	0,088
-501,912	559,637	-0,025	0,045
-500,897	132,506	-0,092	0,087
-499,883	103,399	-0,065	0,056
-498,868	-200,000	0,002	0,083
-497,853	-200,000	0,000	0,098
-496,839	39,420	0,118	0,077
-495,824	-0,562	0,100	0,052
-494,810	800,000	-0,036	0,089
-493,795	-200,000	0,048	0,242
-492,781	301,543	0,057	-0,077
-491,766	226,645	0,015	0,018
-490,751	800,000	0,028	0,088
-489,737	-105,626	0,096	-0,016
-488,722	-68,772	0,144	-0,040
-487,708	-73,330	0,197	-0,052
-486,693	-169,827	0,160	-0,004
-485,678	800,000	-0,035	0,077
-484,664	88,531	0,056	-0,045
-483,649	367,951	0,058	0,086
-482,635	-200,000	0,006	-0,086
-481,620	336,613	-0,039	-0,056
-480,605	184,134	0,103	0,112
-479,591	-200,000	-0,013	-0,111
-478,576	-4,442	-0,095	-0,048
-477,562	45,610	-0,132	0,089
-476,547	-200,000	-0,014	-0,126
-475,532	-115,369	0,034	-0,005
-474,518	-148,644	-0,103	0,006
-473,503	-200,000	0,011	0,050
-472,489	-151,406	-0,065	-0,003
-471,474	93,835	0,058	0,048
-470,459	800,000	0,020	0,059
-469,445	-140,518	0,021	0,002
-468,430	310,651	-0,041	-0,056
-467,416	-71,515	-0,089	0,024
-466,401	800,000	-0,025	0,056
-465,386	-200,000	-0,028	0,149
-464,372	108,691	0,120	0,104
-463,357	49,534	0,073	-0,050
-462,343	-1,925	-0,091	-0,047
-461,328	-2,544	0,070	-0,035
-460,313	148,022	0,025	-0,024
-459,299	173,551	0,046	-0,049
-458,284	-200,000	-0,005	-0,033
-457,270	320,062	-0,062	0,086
-456,255	-126,797	-0,120	0,013
-455,241	-130,406	0,074	0,007
-454,226	298,566	0,056	-0,076
-453,211	439,215	-0,024	0,039
-452,197	94,115	0,123	0,101
-451,182	-200,000	0,008	-0,039
-450,168	-19,842	0,177	-0,079
-449,153	444,930	0,024	-0,039
-448,138	316,627	-0,094	-0,130
-447,124	65,992	-0,022	0,016
-446,109	-173,893	0,088	-0,002
-445,095	-16,322	0,127	0,059
-444,080	372,397	-0,102	0,152
-443,065	-14,421	-0,019	0,009
-442,051	-200,000	-0,008	-0,137
-441,036	21,782	-0,067	0,040
-440,022	405,249	0,025	-0,038
-439,007	-200,000	-0,005	0,137
-437,992	800,000	-0,010	0,028
-436,978	40,802	0,112	0,073
-435,963	800,000	-0,025	0,056
-434,949	-200,000	-0,005	0,016
-433,934	-105,433	-0,132	-0,022
-432,919	342,453	0,018	0,026
-431,905	-8,389	0,134	-0,066
-430,890	331,553	0,078	-0,109
-429,876	800,000	0,028	-0,074
-428,861	-200,000	-0,023	0,131
-427,846	215,591	0,110	0,128
-426,832	-52,847	-0,085	0,028
-425,817	-40,154	-0,178	-0,067
-424,803	-200,000	-0,002	-0,019
-423,788	-58,495	-0,058	0,018
-422,773	395,884	-0,059	0,090
-421,759	-142,360	0,033	0,002
-420,744	514,417	-0,082	0,140
-419,730	69,020	-0,027	-0,020
-418,715	-200,000	0,036	-0,138
-417,701	26,157	-0,052	0,032
-416,686	-200,000	0,004	-0,054
-415,671	-200,000	0,015	0,056
-414,657	800,000	-0,024	0,070
-413,642	-38,379	0,066	0,025
-412,628	800,000	-0,056	-0,149
-411,613	-200,000	-0,012	-0,122
-410,598	800,000	-0,027	0,075
-409,584	-76,696	0,090	-0,023
-408,569	-71,526	-0,077	0,021
-407,555	91,038	0,141	0,115
-406,540	86,913	0,066	0,053
-405,525	-200,000	0,003	0,016
-404,511	620,897	-0,106	0,195
-403,496	17,998	0,030	0,017
-402,482	800,000	0,012	-0,036
-401,467	800,000	0,027	0,074
-400,452	28,649	-0,045	0,027
-399,438	800,000	0,044	-0,103
-398,423	-64,086	-0,041	-0,012
-397,409	9,506	0,091	-0,050
-396,394	-38,924	-0,058	0,022
-395,379	244,818	0,096	-0,118
-394,365	83,920	-0,143	0,113
-393,350	800,000	0,021	-0,048
-392,336	-140,248	-0,119	-0,009
-391,321	-200,000	-0,002	-0,083
-390,306	543,808	-0,051	-0,089
-389,292	265,055	0,033	-0,042
-388,277	83,166	0,033	-0,026
-387,263	-200,000	-0,031	0,119
-386,248	-36,110	0,144	-0,056
-385,233	-9,349	-0,092	0,045
-384,219	-1,688	0,014	0,007
-383,204	-200,000	-0,008	-0,071
-382,190	103,104	-0,095	-0,081
-381,175	-44,988	0,169	0,061
-380,160	-21,337	0,109	-0,048
-379,146	230,801	-0,014	0,017
-378,131	247,480	0,032	0,039
-377,117	334,893	-0,066	0,093
-376,102	264,947	-0,031	-0,039
-375,088	108,101	0,088	-0,076
-374,073	455,301	-0,062	-0,100
-373,058	76,900	-0,126	-0,098
-372,044	-100,938	0,152	0,027
-371,029	-200,000	0,010	-0,086
-370,015	-13,670	-0,110	-0,051
-369,000	-125,144	-0,083	-0,009
-367,985	83,405	-0,052	0,041
-366,971	800,000	0,078	-0,160
-365,956	-48,786	0,051	0,018
-364,942	63,300	0,072	0,052
-363,927	-200,000	-0,002	0,016
-362,912	-200,000	-0,000	-0,117
-361,898	-18,137	-0,093	0,042
-360,883	47,008	-0,099	-0,067
-359,869	157,487	-0,044	-0,044
-358,854	-200,000	-0,014	-0,140
-357,839	-200,000	-0,003	-0,052
-356,825	-200,000	-0,024	0,093
-355,810	800,000	-0,065	-0,157
-354,796	-2,556	0,024	0,012
-353,781	650,008	-0,007	0,014
-352,766	-200,000	0,011	0,055
-351,752	800,000	0,084	0,183
-350,737	-200,000	-0,003	-0,108
-349,723	173,021	0,081	0,085
-348,708	77,942	0,090	0,070
-347,693	378,946	-0,048	-0,072
-346,679	-200,000	-0,002	0,049
-345,664	-7,129	-0,092	0,045
-344,650	-200,000	0,002	0,055
-343,635	167,423	-0,067	0,069
-342,620	169,450	0,058	0,060
-341,606	-197,587	0,306	0,001
-340,591	355,537	0,010	-0,015
-339,577	147,154	0,096	-0,093
-338,562	139,295	-0,100	-0,095
-337,548	800,000	-0,006	0,017
-336,533	174,277	-0,028	-0,029
-335,518	800,000	0,045	-0,137
-334,504	-200,000	-0,001	0,048
-333,489	174,453	0,036	-0,038
-332,475	-55,676	-0,176	-0,057
-331,460	320,198	-0,064	-0,089
-330,445	211,784	0,026	0,030
-329,431	79,925	0,101	-0,079
-328,416	257,943	0,016	-0,020
-327,402	-200,000	-0,020	-0,093
-326,387	800,000	-0,061	-0,149
-325,372	130,953	-0,071	-0,066
-324,358	252,688	-0,007	0,009
-323,343	800,000	-0,022	0,071
-322,329	259,152	0,020	-0,025
-321,314	-31,101	0,009	-0,004
-320,299	364,420	-0,042	0,061
-319,285	481,564	0,035	0,058
-318,270	-20,702	-0,087	-0,038
-317,256	127,699	-0,087	-0,081
-316,241	-200,000	-0,028	0,097
-315,226	-95,372	-0,053	0,010
-314,212	-36,428	0,144	0,056
-313,197	-200,000	0,038	0,150
-312,183	-47,727	-0,095	-0,033
-311,168	-74,486	-0,040	0,010
-310,153	418,647	-0,036	-0,056
-309,139	-200,000	-0,000	-0,158
-308,124	227,608	0,110	-0,130
-307,110	-200,000	0,017	-0,070
-306,095	105,631	0,096	0,082
-305,080	37,572	-0,120	0,077
-304,066	-176,872	0,073	-0,001
-303,051	43,132	-0,102	-0,068
-302,037	-200,000	-0,000	-0,039
-301,022	125,577	-0,025	0,023
-300,008	122,998	0,105	0,095
-298,993	94,973	0,067	-0,055
-297,978	800,000	-0,011	0,028
-296,964	478,298	-0,056	0,092
-295,949	-200,000	-0,012	-0,091
-294,935	-200,000	-0,008	0,028
-293,920	-14,754	-0,074	-0,034
-292,905	462,774	-0,018	-0,029
-291,891	82,840	-0,011	-0,009
-290,876	4,087	0,068	0,036
-289,862	-66,831	-0,180	0,051
-288,847	-200,000	0,005	0,025
-287,832	800,000	0,042	-0,093
-286,818	-200,000	0,001	-0,051
-285,803	-108,146	0,129	-0,020
-284,789	147,489	0,082	-0,080
-283,774	-200,000	-0,021	-0,098
-282,759	-200,000	0,031	-0,127
-281,745	163,144	0,066	0,067
-280,730	-200,000	-0,006	-0,086
-279,716	-29,376	0,159	0,065
-278,701	300,446	-0,082	0,109
-277,686	800,000	0,058	0,146
-276,672	-151,825	0,095	-0,005
-275,657	-89,184	-0,155	-0,033
-274,643	604,745	-0,064	0,117
-273,628	223,675	-0,011	0,013
-272,613	-200,000	-0,014	0,085
-271,599	-200,000	-0,021	0,103
-270,584	-87,269	0,144	0,031
-269,570	-83,706	0,120	0,027
-268,555	-46,718	0,158	0,056
-267,540	800,000	0,024	0,052
-266,526	-116,087	-0,153	0,020
-265,511	242,157	0,050	-0,061
-264,497	317,437	0,099	-0,135
-263,482	-161,394	0,050	0,002
-262,467	-5,153	0,018	0,009
-261,453	79,337	0,037	0,029
-260,438	-200,000	-0,014	-0,056
-259,424	-14,932	-0,052	-0,024
-258,409	-68,896	0,079	0,022
-257,395	101,699	0,071	0,060
-256,380	703,896	0,030	0,058
-255,365	712,992	0,038	0,074
-254,351	800,000	-0,054	0,137
-253,336	800,000	-0,059	-0,178
-252,322	47,571	0,029	-0,019
-251,307	-95,078	-0,245	0,047
-250,292	36,172	-0,047	-0,030
-249,278	-113,981	-0,025	-0,003
-248,263	-107,692	0,185	-0,029
-247,249	29,492	-0,029	-0,018
-246,234	-200,000	0,017	0,069
-245,219	800,000	-0,044	-0,124
-244,205	565,898	-0,055	-0,097
-243,190	800,000	0,017	0,039
-242,176	-200,000	0,016	-0,071
-241,161	309,283	-0,065	-0,088
-240,146	-200,000	0,016	-0,081
-239,132	158,406	-0,149	0,150
-238,117	159,004	-0,069	-0,069
-237,103	-200,000	-0,003	-0,014
-236,088	-45,968	-0,081	-0,029
-235,073	-200,000	0,070	0,269
-234,059	-200,000	0,021	0,090
-233,044	-200,000	-0,004	-0,038
-232,030	36,830	-0,060	-0,038
-231,015	-25,146	-0,030	-0,013
-230,000	800,000	-0,042	0,125
-228,986	93,834	-0,079	0,065
-227,971	530,647	0,030	-0,051
-226,957	-130,911	-0,086	0,008
-225,942	92,567	0,076	-0,062
-224,927	-200,000	-0,013	0,048
-223,913	94,676	0,089	-0,073
-222,898	-8,852	-0,115	-0,056
-221,884	-200,000	0,004	-0,067
-220,869	504,344	-0,007	0,011
-219,855	-58,797	0,036	-0,011
-218,840	-28,564	0,041	-0,017
-217,825	-200,000	-0,024	-0,095
-216,811	38,709	0,074	0,048
-215,796	397,332	0,036	-0,055
-214,782	-13,637	0,110	-0,051
-213,767	-175,093	-0,023	0,000
-212,752	-200,000	-0,014	-0,096
-211,738	734,447	-0,055	0,107
-210,723	-149,214	-0,021	-0,001
-209,709	-60,266	-0,050	0,015
-208,694	209,855	-0,072	-0,082
-207,679	800,000	0,041	0,097
-206,665	-200,000	0,017	0,140
-205,650	32,423	0,079	0,049
-204,636	277,215	-0,051	0,066
-203,621	287,711	0,112	0,147
-202,606	-46,865	-0,074	0,026
-201,592	100,529	-0,126	-0,106
-200,577	-51,215	-0,012	-0,004
-199,563	-200,000	0,012	-0,115
-198,548	217,519	-0,021	0,024
-197,533	800,000	0,033	0,089
-196,519	800,000	-0,048	-0,105
-195,504	462,579	-0,049	-0,079
-194,490	-200,000	0,008	-0,071
-193,475	79,128	-0,065	-0,050
-192,460	124,987	0,051	-0,046
-191,446	-61,291	0,086	-0,026
-190,431	-20,104	0,107	0,047
-189,417	60,577	-0,039	0,028
-188,402	-200,000	-0,015	-0,121
-187,387	78,723	-0,031	-0,024
-186,373	-48,279	-0,117	0,041
-185,358	800,000	0,041	-0,113
-184,344	-138,285	0,118	-0,009
-183,329	800,000	-0,060	0,135
-182,315	43,855	0,029	0,019
-181,300	-200,000	0,009	-0,073
-180,285	800,000	0,016	-0,032
-179,271	-200,000	-0,021	0,076
-178,256	338,318	0,110	0,155
-177,242	90,503	-0,100	0,081
-176,227	69,216	0,101	-0,075
-175,212	729,441	0,028	0,053
-174,198	-83,888	-0,091	-0,021
-173,183	127,335	-0,076	-0,070
-172,169	-149,147	0,042	-0,002
-171,154	16,950	0,055	-0,032
-170,139	-152,911	0,021	0,001
-169,125	-90,503	0,131	0,027
-168,110	-200,000	0,006	0,051
-167,096	-51,843	0,111	0,037
-166,081	-44,226	-0,027	-0,010
-165,066	-200,000	-0,000	-0,059
-164,052	71,695	-0,061	-0,046
-163,037	800,000	-0,031	-0,075
-162,023	-200,000	0,043	0,136
-161,008	350,050	0,147	0,211
-159,993	-110,960	-0,133	0,019
-158,979	79,758	-0,051	-0,040
-157,964	235,668	-0,023	-0,027
-156,950	-17,207	-0,136	-0,062
-155,935	-124,749	0,198	0,022
-154,920	-200,000	0,031	-0,126
-153,906	-59,027	0,121	-0,037
-152,891	-197,059	-0,042	-0,000
-151,877	-126,552	-0,049	-0,005
-150,862	336,360	-0,030	-0,043
-149,847	127,715	0,084	-0,077
-148,833	306,589	-0,070	0,094
-147,818	-93,296	0,075	0,015
-146,804	152,562	0,050	-0,049
-145,789	-200,000	-0,026	-0,104
-144,775	594,539	-0,063	-0,113
-143,760	-84,853	-0,073	0,016
-142,745	-61,005	0,126	-0,038
-141,731	-200,000	-0,009	-0,036
-140,716	800,000	-0,070	0,160
-139,702	-200,000	0,001	0,123
-138,687	-200,000	0,031	0,102
-137,672	-120,089	-0,124	-0,015
-136,658	54,661	-0,100	0,069
-135,643	-24,243	0,034	-0,015
-134,629	168,377	0,104	0,107
-133,614	-200,000	-0,001	0,045
-132,599	800,000	0,042	0,099
-131,585	60,547	-0,036	-0,026
-130,570	800,000	-0,031	0,098
-129,556	-121,497	-0,033	-0,004
-128,541	-157,380	-0,050	-0,002
-127,526	106,029	0,108	-0,092
-126,512	-200,000	-0,018	-0,105
-125,497	326,200	0,033	0,045
-124,483	-200,000	-0,005	0,103
-123,468	-200,000	0,037	0,119
-122,453	-200,000	-0,018	0,081
-121,439	17,877	0,083	0,047
-120,424	800,000	-0,079	0,199
