DTS Sentinel unit serial number:	SN410029Multiplexer serial number:	ORYXHardware model number:	OX2-SRSoftware version number:	ORYX F/W v4,00 Oryx Data Collector v3.7.2.0data status	okinstallation	B5 Nyhavnadifferential loss correction	single-endedforward channel	channel 2reverse channel	N/Adate	2023/12/14time	06:52:13forward acquisition time	300,00reverse acquisition time	0,00gamma	499,1914k internal	0,3158k external	0,3158temperature offset calibration	1,0000default loss term (dB/km)	0,3820temperature slope calibration	1,0000multiplexer offset coefficient	1,0000multiplexer slope coefficient	1,0000fibre end	0,00T internal ref (°C)	7,33T ext. ref 1 (°C)	-9,12T ext. ref 2 (°C)	-9,21length (m)	temperature (°C)	Stokes	anti-Stokes-744,400	-70,342	0,264	-0,073
-743,385	-53,205	-0,423	-0,142
-742,371	115,936	0,127	0,114
-741,356	-119,474	-0,309	0,039
-740,342	-144,093	0,146	-0,010
-739,327	-42,874	-0,362	-0,135
-738,312	35,081	0,197	0,127
-737,298	-74,098	-0,414	-0,110
-736,283	-3,387	0,253	0,130
-735,269	-144,834	-0,384	-0,026
-734,254	246,983	0,148	0,184
-733,239	-10,483	-0,574	-0,279
-732,225	-29,768	0,248	0,104
-731,210	-200,000	-0,016	0,219
-730,196	188,685	0,117	-0,129
-729,181	60,714	-0,088	0,064
-728,167	-78,857	-0,192	0,048
-727,152	204,039	0,114	0,130
-726,137	82,777	-0,104	-0,083
-725,123	304,052	0,067	-0,091
-724,108	189,979	-0,065	-0,071
-723,094	-200,000	0,031	-0,102
-722,079	-7,288	-0,210	-0,105
-721,064	18,322	-0,093	-0,054
-720,050	138,097	-0,070	0,068
-719,035	-142,725	-0,127	0,009
-718,021	180,632	0,021	-0,023
-717,006	-200,000	0,002	0,029
-715,991	-200,000	-0,000	-0,074
-714,977	260,106	-0,024	0,031
-713,962	40,502	0,011	0,008
-712,948	62,009	-0,010	0,007
-711,933	715,905	0,073	-0,143
-710,918	-200,000	-0,004	-0,021
-709,904	800,000	0,010	-0,023
-708,889	800,000	-0,039	-0,105
-707,875	454,461	0,028	-0,046
-706,860	-200,000	0,006	-0,031
-705,845	-58,442	0,101	0,032
-704,831	-200,000	0,025	0,120
-703,816	668,803	0,067	0,129
-702,802	-133,398	-0,134	-0,012
-701,787	-200,000	0,026	0,121
-700,772	-16,388	-0,183	0,085
-699,758	800,000	-0,012	-0,027
-698,743	264,771	0,078	0,101
-697,729	240,189	-0,067	0,082
-696,714	102,708	0,044	0,038
-695,699	66,191	-0,012	-0,009
-694,685	126,243	-0,083	0,077
-693,670	-144,994	0,082	0,005
-692,656	800,000	0,052	0,118
-691,641	69,549	0,078	0,059
-690,627	-68,911	-0,137	0,039
-689,612	-200,000	-0,001	-0,016
-688,597	-34,358	-0,138	-0,055
-687,583	9,860	-0,058	-0,032
-686,568	128,747	-0,116	-0,108
-685,554	-200,000	-0,013	-0,118
-684,539	-41,891	0,053	0,020
-683,524	445,255	0,049	-0,080
-682,510	-200,000	-0,022	-0,093
-681,495	369,491	-0,084	-0,125
-680,481	-54,589	-0,104	-0,034
-679,466	-165,891	-0,112	-0,003
-678,451	-8,515	-0,059	0,029
-677,437	-200,000	0,005	-0,107
-676,422	-104,595	0,184	-0,031
-675,408	50,053	0,086	-0,060
-674,393	-120,277	-0,128	0,016
-673,378	67,997	-0,153	-0,115
-672,364	800,000	-0,014	0,043
-671,349	-127,720	-0,046	-0,005
-670,335	422,045	0,043	-0,068
-669,320	34,741	0,147	-0,094
-668,305	11,528	0,070	0,039
-667,291	-200,000	0,027	-0,106
-666,276	8,602	0,056	0,031
-665,262	800,000	-0,011	0,027
-664,247	-152,929	0,047	0,002
-663,232	-148,182	0,119	-0,007
-662,218	439,938	0,097	0,157
-661,203	-77,573	0,043	-0,011
-660,189	-29,459	0,114	0,048
-659,174	-157,424	-0,109	0,005
-658,159	274,915	0,038	-0,049
-657,145	-200,000	-0,013	-0,118
-656,130	2,928	-0,053	0,028
-655,116	175,063	0,109	0,116
-654,101	-200,000	0,006	0,148
-653,086	49,614	-0,122	-0,084
-652,072	800,000	-0,026	0,058
-651,057	105,701	-0,082	0,071
-650,043	35,484	-0,103	-0,066
-649,028	-53,006	-0,054	0,018
-648,014	45,797	-0,156	0,106
-646,999	-200,000	-0,027	0,146
-645,984	548,681	-0,059	0,105
-644,970	-142,573	-0,145	0,010
-643,955	357,016	0,086	-0,127
-642,941	206,520	-0,029	-0,033
-641,926	800,000	0,020	0,046
-640,911	-200,000	-0,025	-0,082
-639,897	334,792	0,017	-0,024
-638,882	781,729	0,020	-0,040
-637,868	800,000	0,053	0,133
-636,853	800,000	-0,075	-0,182
-635,838	-88,319	0,008	0,002
-634,824	-200,000	-0,003	0,097
-633,809	-101,867	-0,137	-0,024
-632,795	-200,000	-0,011	-0,044
-631,780	-200,000	0,020	-0,098
-630,765	-200,000	-0,008	-0,051
-629,751	71,893	-0,073	0,055
-628,736	-80,350	0,151	0,037
-627,722	800,000	0,023	-0,052
-626,707	37,553	0,061	0,039
-625,692	-133,845	0,032	-0,003
-624,678	509,899	0,050	0,085
-623,663	152,450	-0,048	0,048
-622,649	-200,000	-0,042	-0,192
-621,634	-119,185	0,088	-0,011
-620,619	-78,415	-0,127	-0,032
-619,605	448,212	0,068	0,111
-618,590	43,827	0,088	0,059
-617,576	-96,874	-0,103	-0,020
-616,561	-137,874	-0,190	-0,015
-615,546	48,196	-0,052	-0,035
-614,532	800,000	0,043	-0,089
-613,517	-81,428	-0,077	0,019
-612,503	-200,000	-0,018	-0,086
-611,488	106,361	-0,038	0,033
-610,474	-200,000	-0,012	0,152
-609,459	128,161	0,052	-0,048
-608,444	-200,000	-0,036	-0,164
-607,430	-200,000	-0,005	-0,040
-606,415	-101,451	-0,097	0,017
-605,401	-200,000	0,008	-0,081
-604,386	-200,000	-0,009	0,162
-603,371	189,708	0,082	-0,091
-602,357	156,176	0,048	-0,048
-601,342	-200,000	-0,007	-0,076
-600,328	116,675	0,076	-0,068
-599,313	800,000	-0,039	-0,093
-598,298	-66,226	-0,086	0,025
-597,284	-200,000	0,012	0,141
-596,269	99,283	-0,062	0,052
-595,255	136,976	-0,085	0,081
-594,240	800,000	0,013	0,039
-593,225	118,677	0,127	-0,115
-592,211	691,862	0,045	0,086
-591,196	800,000	-0,082	-0,203
-590,182	212,749	-0,024	0,028
-589,167	-200,000	-0,010	0,049
-588,152	-116,456	-0,060	0,008
-587,138	173,584	-0,099	0,104
-586,123	-103,075	-0,135	-0,023
-585,109	-29,643	-0,089	0,037
-584,094	800,000	0,068	-0,140
-583,079	-200,000	0,007	-0,031
-582,065	241,391	0,033	-0,041
-581,050	-200,000	-0,033	-0,123
-580,036	800,000	-0,051	-0,156
-579,021	82,223	-0,055	0,044
-578,006	187,124	-0,036	0,039
-576,992	-5,112	-0,124	-0,062
-575,977	-200,000	-0,004	-0,080
-574,963	-58,235	-0,121	-0,038
-573,948	-200,000	0,028	-0,115
-572,934	800,000	-0,048	-0,143
-571,919	-136,185	-0,141	-0,012
-570,904	800,000	-0,097	0,249
-569,890	800,000	0,040	-0,113
-568,875	356,953	0,033	-0,048
-567,861	-200,000	0,031	0,186
-566,846	-200,000	0,018	-0,066
-565,831	-200,000	-0,022	-0,083
-564,817	-33,980	0,038	0,015
-563,802	800,000	-0,033	-0,077
-562,788	800,000	-0,056	-0,146
-561,773	45,926	-0,079	-0,053
-560,758	704,395	-0,075	0,145
-559,744	-200,000	0,001	0,080
-558,729	196,109	-0,013	-0,015
-557,715	-110,623	0,027	-0,004
-556,700	-9,122	-0,170	0,083
-555,685	-200,000	0,021	-0,089
-554,671	-137,031	0,156	0,013
-553,656	-6,927	-0,038	-0,019
-552,642	107,682	0,073	-0,063
-551,627	772,827	0,038	-0,076
-550,612	578,698	-0,052	-0,093
-549,598	292,871	-0,104	0,139
-548,583	510,485	-0,053	-0,091
-547,569	101,639	-0,055	-0,047
-546,554	-200,000	-0,011	0,054
-545,539	-200,000	0,008	0,030
-544,525	-200,000	-0,008	-0,071
-543,510	176,061	0,024	-0,026
-542,496	351,857	0,048	-0,070
-541,481	-41,063	-0,125	-0,047
-540,466	-200,000	0,017	-0,065
-539,452	223,810	0,068	-0,081
-538,437	301,407	0,115	0,155
-537,423	-200,000	-0,019	0,123
-536,408	800,000	-0,057	-0,126
-535,393	800,000	-0,031	-0,092
-534,379	-139,338	-0,150	0,012
-533,364	-17,568	0,203	-0,093
-532,350	44,345	-0,093	0,062
-531,335	-62,114	0,118	-0,036
-530,321	148,637	-0,064	0,063
-529,306	531,239	0,042	-0,073
-528,291	800,000	0,062	-0,149
-527,277	-200,000	0,015	-0,061
-526,262	-114,623	0,029	-0,004
-525,248	-200,000	0,005	0,098
-524,233	-93,558	0,101	0,020
-523,218	122,710	-0,056	-0,051
-522,204	151,254	0,030	0,029
-521,189	479,702	0,032	-0,053
-520,175	-200,000	0,003	-0,089
-519,160	-52,009	0,071	-0,024
-518,145	-54,930	0,034	0,011
-517,131	-200,000	0,007	0,036
-516,116	-130,670	0,146	0,014
-515,102	-200,000	-0,012	0,085
-514,087	800,000	0,055	-0,154
-513,072	103,045	-0,118	0,101
-512,058	-80,459	0,020	0,005
-511,043	-9,090	0,099	0,048
-510,029	63,657	0,064	0,047
-509,014	27,576	-0,091	-0,056
-507,999	-200,000	-0,008	0,046
-506,985	-154,878	0,057	0,003
-505,970	-56,692	0,113	-0,036
-504,956	-130,521	-0,100	0,010
-503,941	658,865	0,010	-0,020
-502,926	-200,000	-0,030	0,136
-501,912	800,000	-0,049	0,134
-500,897	77,029	-0,037	0,029
-499,883	-127,608	-0,028	0,003
-498,868	-200,000	-0,016	-0,128
-497,853	800,000	0,036	-0,084
-496,839	-200,000	0,035	0,167
-495,824	-106,443	0,113	0,018
-494,810	476,518	-0,018	-0,029
-493,795	104,092	0,085	0,073
-492,781	140,602	-0,083	0,080
-491,766	99,664	-0,012	0,011
-490,751	-200,000	-0,006	0,029
-489,737	131,542	0,104	0,098
-488,722	37,320	-0,067	0,043
-487,708	39,877	0,061	-0,040
-486,693	-67,440	0,063	0,018
-485,678	276,099	0,046	-0,060
-484,664	-200,000	0,010	-0,217
-483,649	536,218	-0,068	0,118
-482,635	-200,000	0,007	-0,069
-481,620	-63,050	0,098	-0,029
-480,605	160,365	-0,057	-0,058
-479,591	-200,000	0,030	0,100
-478,576	800,000	0,005	-0,013
-477,562	-90,156	-0,119	-0,025
-476,547	163,690	0,108	-0,111
-475,532	-200,000	-0,016	0,103
-474,518	800,000	0,045	0,131
-473,503	608,977	0,044	0,081
-472,489	274,698	0,119	0,154
-471,474	100,698	-0,039	-0,033
-470,459	800,000	-0,034	-0,078
-469,445	-59,939	-0,028	0,009
-468,430	-200,000	-0,014	-0,078
-467,416	112,054	0,092	-0,081
-466,401	52,735	0,063	0,044
-465,386	-128,533	0,201	-0,020
-464,372	-200,000	0,004	0,132
-463,357	-4,259	-0,130	-0,065
-462,343	-3,796	-0,070	-0,035
-461,328	-200,000	-0,028	-0,096
-460,313	580,469	0,019	-0,034
-459,299	-200,000	-0,012	0,069
-458,284	800,000	0,105	0,214
-457,270	800,000	-0,021	0,053
-456,255	410,329	0,031	0,048
-455,241	-200,000	-0,027	-0,107
-454,226	52,221	-0,026	-0,018
-453,211	196,509	0,059	-0,066
-452,197	170,164	0,087	0,091
-451,182	800,000	-0,027	0,058
-450,168	118,743	-0,071	-0,064
-449,153	341,302	-0,043	0,061
-448,138	58,350	-0,126	-0,090
-447,124	-76,109	-0,081	-0,021
-446,109	-200,000	0,020	0,120
-445,095	-12,541	0,115	0,054
-444,080	114,148	-0,077	-0,068
-443,065	82,627	0,072	0,057
-442,051	-103,246	0,089	0,015
-441,036	-200,000	-0,039	-0,128
-440,022	17,345	-0,023	-0,013
-439,007	125,916	-0,012	-0,011
-437,992	-84,549	0,047	-0,011
-436,978	-149,223	0,180	0,010
-435,963	-94,250	-0,137	0,027
-434,949	-200,000	0,005	-0,093
-433,934	126,273	-0,075	-0,069
-432,919	86,364	-0,094	0,075
-431,905	623,940	0,029	0,054
-430,890	-144,336	0,090	-0,006
-429,876	-200,000	-0,003	0,036
-428,861	-200,000	-0,048	-0,169
-427,846	-151,157	-0,036	-0,002
-426,832	512,106	0,014	0,023
-425,817	800,000	-0,034	-0,086
-424,803	45,801	-0,133	0,089
-423,788	83,448	0,127	0,101
-422,773	800,000	0,039	0,105
-421,759	-59,118	-0,054	0,017
-420,744	-200,000	0,002	-0,010
-419,730	800,000	-0,031	0,099
-418,715	100,758	-0,106	-0,090
-417,701	-74,943	-0,069	0,018
-416,686	-52,990	0,062	-0,020
-415,671	8,941	0,031	0,017
-414,657	-200,000	-0,015	0,060
-413,642	-163,509	0,121	-0,004
-412,628	102,912	-0,142	-0,121
-411,613	86,175	0,028	0,022
-410,598	-77,472	0,133	-0,033
-409,584	-200,000	-0,006	-0,037
-408,569	468,841	0,078	-0,128
-407,555	-6,287	0,018	0,009
-406,540	-200,000	-0,013	0,112
-405,525	292,362	0,023	0,030
-404,511	599,254	-0,009	0,017
-403,496	800,000	-0,059	-0,120
-402,482	11,325	0,151	0,084
-401,467	-12,822	-0,037	0,017
-400,452	800,000	0,048	0,128
-399,438	-82,842	-0,034	-0,008
-398,423	-200,000	-0,004	0,129
-397,409	800,000	-0,044	-0,126
-396,394	569,982	-0,078	-0,139
-395,379	190,479	-0,033	0,036
-394,365	-200,000	0,004	-0,057
-393,350	335,136	-0,074	0,104
-392,336	108,601	0,059	0,051
-391,321	-200,000	-0,018	-0,120
-390,306	110,507	-0,136	-0,119
-389,292	191,079	0,065	0,071
-388,277	69,964	-0,151	-0,113
-387,263	-200,000	-0,008	0,042
-386,248	-11,837	0,094	-0,045
-385,233	800,000	0,012	-0,031
-384,219	3,890	0,147	0,078
-383,204	114,653	-0,050	0,045
-382,190	160,379	-0,121	-0,123
-381,175	25,824	-0,063	0,038
-380,160	718,701	-0,052	0,101
-379,146	30,555	0,021	-0,013
-378,131	800,000	0,015	-0,034
-377,117	158,860	-0,040	-0,040
-376,102	21,274	-0,101	0,060
-375,088	-56,558	-0,093	-0,030
-374,073	-88,107	-0,149	0,032
-373,058	-2,403	0,095	-0,048
-372,044	800,000	0,006	0,016
-371,029	37,387	0,166	0,107
-370,015	-122,495	0,094	0,011
-369,000	800,000	0,039	0,085
-367,985	256,692	-0,031	0,038
-366,971	281,094	-0,028	-0,037
-365,956	800,000	-0,036	0,112
-364,942	240,814	0,096	-0,117
-363,927	168,515	0,085	-0,088
-362,912	157,542	0,040	-0,040
-361,898	-30,254	0,048	-0,020
-360,883	51,361	0,065	-0,045
-359,869	156,578	0,022	0,022
-358,854	-200,000	0,017	0,112
-357,839	216,265	0,025	0,029
-356,825	454,622	-0,019	-0,031
-355,810	800,000	0,031	0,063
-354,796	-109,749	0,153	0,023
-353,781	-173,373	-0,162	0,003
-352,766	-200,000	0,020	-0,159
-351,752	503,785	-0,012	-0,020
-350,737	-12,910	0,049	0,023
-349,723	800,000	-0,025	-0,075
-348,708	-151,563	0,137	-0,007
-347,693	800,000	0,008	0,016
-346,679	800,000	-0,032	-0,068
-345,664	-200,000	0,007	0,052
-344,650	-190,255	-0,153	0,001
-343,635	38,449	0,112	-0,072
-342,620	-200,000	0,015	-0,057
-341,606	-200,000	-0,032	0,110
-340,591	800,000	0,032	-0,066
-339,577	71,199	0,181	-0,136
-338,562	188,495	-0,102	-0,111
-337,548	800,000	0,021	-0,058
-336,533	-164,662	0,188	-0,006
-335,518	-131,001	-0,076	-0,007
-334,504	-104,745	0,190	-0,031
-333,489	800,000	0,012	-0,027
-332,475	55,545	-0,074	-0,052
-331,460	620,153	-0,044	-0,080
-330,445	-200,000	-0,004	0,125
-329,431	157,249	0,126	0,126
-328,416	334,511	0,028	-0,040
-327,402	325,498	0,125	0,174
-326,387	47,292	-0,182	0,123
-325,372	800,000	0,018	-0,044
-324,358	293,116	0,073	-0,096
-323,343	476,080	0,038	0,062
-322,329	244,040	-0,033	-0,040
-321,314	-73,832	0,025	-0,007
-320,299	800,000	-0,021	-0,048
-319,285	-74,960	0,082	0,021
-318,270	-126,854	-0,095	0,010
-317,256	-26,866	-0,140	-0,059
-316,241	-195,625	0,021	0,000
-315,226	2,340	0,026	0,014
-314,212	395,125	-0,094	0,142
-313,197	116,166	0,078	-0,069
-312,183	-200,000	0,006	-0,103
-311,168	24,342	-0,187	0,112
-310,153	-20,926	-0,110	-0,049
-309,139	-200,000	-0,001	0,005
-308,124	302,173	0,088	0,118
-307,110	21,765	0,039	-0,023
-306,095	-200,000	-0,001	0,058
-305,080	-146,293	-0,132	-0,008
-304,066	-76,849	0,109	0,027
-303,051	691,020	-0,115	0,220
-302,037	136,428	-0,026	0,025
-301,022	800,000	0,029	0,060
-300,008	36,753	-0,089	-0,057
-298,993	-120,397	0,231	0,028
-297,978	-200,000	-0,021	0,078
-296,964	309,544	0,013	-0,018
-295,949	-200,000	-0,008	-0,135
-294,935	69,530	-0,057	-0,043
-293,920	800,000	0,016	0,050
-292,905	259,723	-0,096	0,121
-291,891	139,042	0,113	-0,108
-290,876	-90,406	0,088	-0,018
-289,862	418,747	0,080	0,124
-288,847	-200,000	0,002	0,041
-287,832	80,023	-0,056	-0,043
-286,818	-149,721	-0,101	-0,006
-285,803	-110,002	0,169	0,025
-284,789	-200,000	-0,005	0,076
-283,774	-200,000	-0,007	-0,062
-282,759	92,234	0,074	-0,060
-281,745	-148,240	-0,118	0,007
-280,730	-16,033	0,080	-0,037
-279,716	-200,000	-0,029	-0,166
-278,701	-132,916	0,066	-0,006
-277,686	377,017	0,093	0,137
-276,672	26,137	-0,017	-0,010
-275,657	-200,000	0,031	0,152
-274,643	-200,000	-0,000	-0,030
-273,628	-200,000	-0,034	-0,123
-272,613	-105,163	0,104	0,017
-271,599	185,583	-0,015	-0,016
-270,584	800,000	-0,019	0,046
-269,570	-139,212	-0,056	0,004
-268,555	-101,651	-0,028	-0,005
-267,540	-109,848	0,082	-0,012
-266,526	56,456	-0,013	-0,009
-265,511	135,412	0,044	0,041
-264,497	-200,000	0,019	-0,082
-263,482	137,780	-0,038	0,036
-262,467	-67,418	-0,061	0,017
-261,453	66,010	0,119	-0,087
-260,438	-148,858	-0,168	0,010
-259,424	-110,836	0,102	0,015
-258,409	540,428	0,017	0,030
-257,395	-200,000	0,020	0,085
-256,380	-200,000	0,008	0,040
-255,365	800,000	-0,037	0,105
-254,351	101,813	-0,098	-0,082
-253,336	-37,138	0,073	-0,028
-252,322	591,580	0,046	-0,083
-251,307	-108,268	-0,123	0,019
-250,292	-54,976	0,029	0,009
-249,278	672,297	-0,020	-0,037
-248,263	769,006	0,033	0,066
-247,249	800,000	-0,027	0,074
-246,234	800,000	0,049	0,127
-245,219	111,831	-0,040	-0,035
-244,205	422,482	-0,039	-0,061
-243,190	81,673	0,124	0,097
-242,176	133,625	0,025	-0,024
-241,161	60,040	-0,100	0,071
-240,146	138,778	0,076	0,072
-239,132	-200,000	0,017	-0,061
-238,117	-25,585	-0,033	0,014
-237,103	116,849	-0,041	0,037
-236,088	58,585	-0,087	0,062
-235,073	439,043	-0,031	-0,050
-234,059	550,824	0,047	0,083
-233,044	173,087	0,062	-0,065
-232,030	293,227	0,048	-0,063
-231,015	472,413	-0,013	-0,021
-230,000	478,053	0,026	-0,043
-228,986	190,391	0,099	-0,107
-227,971	-135,113	0,044	-0,004
-226,957	800,000	-0,044	0,128
-225,942	-200,000	0,007	0,164
-224,927	33,643	-0,063	0,040
-223,913	800,000	-0,068	-0,162
-222,898	12,367	-0,007	0,004
-221,884	693,602	-0,062	-0,118
-220,869	163,124	0,106	0,108
-219,855	-200,000	-0,001	0,066
-218,840	-70,377	0,063	0,017
-217,825	72,142	0,060	0,045
-216,811	192,227	-0,115	0,126
-215,796	-178,035	-0,107	-0,002
-214,782	234,135	0,050	0,060
-213,767	-51,155	0,086	0,029
-212,752	110,263	0,126	0,109
-211,738	63,791	0,103	0,075
-210,723	-73,998	-0,171	0,044
-209,709	-108,963	0,112	0,017
-208,694	800,000	-0,020	-0,045
-207,679	45,444	0,037	-0,024
-206,665	369,521	0,074	0,109
-205,650	800,000	-0,040	-0,088
-204,636	33,145	0,128	0,080
-203,621	800,000	-0,028	0,057
-202,606	-82,785	0,010	-0,002
-201,592	800,000	-0,024	-0,051
-200,577	14,861	-0,062	-0,035
-199,563	49,971	0,096	0,065
-198,548	-200,000	0,010	0,055
-197,533	33,314	0,048	0,030
-196,519	103,758	0,170	-0,144
-195,504	283,387	-0,065	-0,085
-194,490	-159,421	-0,093	-0,004
-193,475	-10,279	-0,059	-0,028
-192,460	-13,073	-0,155	-0,073
-191,446	239,850	0,075	0,090
-190,431	717,041	0,053	0,102
-189,417	17,683	0,050	0,029
-188,402	-85,774	0,017	0,004
-187,387	-2,065	-0,085	-0,043
-186,373	800,000	-0,038	-0,084
-185,358	194,839	-0,045	0,050
-184,344	80,906	0,147	-0,115
-183,329	800,000	-0,041	0,092
-182,315	43,408	-0,063	-0,041
-181,300	-114,617	-0,034	-0,005
-180,285	85,173	-0,036	-0,029
-179,271	207,481	0,029	0,032
-178,256	228,061	-0,018	-0,021
-177,242	-200,000	0,005	0,057
-176,227	-200,000	0,035	0,135
-175,212	-200,000	-0,025	-0,153
-174,198	187,233	0,078	-0,084
-173,183	104,283	-0,044	0,037
-172,169	-146,109	0,038	-0,002
-171,154	264,591	-0,087	-0,109
-170,139	-30,569	-0,098	0,040
-169,125	222,431	-0,049	-0,058
-168,110	89,697	0,055	-0,044
-167,096	-200,000	-0,009	0,042
-166,081	-200,000	0,116	0,000
-165,066	-27,196	0,085	-0,035
-164,052	-200,000	-0,009	0,080
-163,037	7,923	0,001	-0,000
-162,023	800,000	-0,073	0,162
-161,008	7,668	-0,116	-0,062
-159,993	-116,218	-0,175	-0,023
-158,979	800,000	-0,023	-0,056
-157,964	131,938	-0,079	-0,074
-156,950	-200,000	0,002	-0,040
-155,935	204,215	0,091	0,102
-154,920	28,052	0,125	0,076
-153,906	114,903	0,138	0,121
-152,891	800,000	-0,019	0,039
-151,877	-115,650	-0,149	0,020
-150,862	162,771	-0,067	-0,068
-149,847	-81,024	0,122	0,029
-148,833	-86,469	0,160	-0,035
-147,818	497,299	-0,046	0,076
-146,804	-128,081	-0,081	-0,008
-145,789	10,644	0,101	0,056
-144,775	82,688	-0,086	-0,068
-143,760	-15,797	-0,108	0,049
-142,745	386,987	-0,043	0,064
-141,731	75,073	-0,058	-0,044
-140,716	800,000	0,018	-0,039
-139,702	231,981	-0,094	0,111
-138,687	-144,881	0,036	0,002
-137,672	-200,000	-0,032	0,176
-136,658	-200,000	0,016	-0,095
-135,643	195,901	0,063	-0,069
-134,629	463,351	-0,023	-0,038
-133,614	800,000	0,036	-0,079
-132,599	262,863	0,064	0,080
-131,585	591,735	0,038	0,067
-130,570	-200,000	-0,003	-0,012
-129,556	-200,000	-0,025	-0,106
-128,541	-135,006	0,066	0,006
-127,526	-125,589	0,021	-0,002
-126,512	97,033	0,098	0,081
-125,497	-180,959	0,130	-0,002
-124,483	800,000	0,008	0,020
-123,468	-200,000	-0,024	-0,093
-122,453	556,137	-0,041	0,072
-121,439	-75,979	0,044	0,011
-120,424	290,696	-0,080	0,105
-119,410	-101,155	0,108	0,019
