DTS Sentinel unit serial number:	SN410029Multiplexer serial number:	ORYXHardware model number:	OX2-SRSoftware version number:	ORYX F/W v4,00 Oryx Data Collector v3.7.2.0data status	okinstallation	B5 Nyhavnadifferential loss correction	single-endedforward channel	channel 2reverse channel	N/Adate	2023/12/14time	12:32:13forward acquisition time	300,00reverse acquisition time	0,00gamma	499,1914k internal	0,3158k external	0,3158temperature offset calibration	1,0000default loss term (dB/km)	0,3820temperature slope calibration	1,0000multiplexer offset coefficient	1,0000multiplexer slope coefficient	1,0000fibre end	0,00T internal ref (°C)	7,85T ext. ref 1 (°C)	-7,57T ext. ref 2 (°C)	-7,63length (m)	temperature (°C)	Stokes	anti-Stokes-744,400	4,694	0,235	0,127
-743,385	-173,640	-0,416	0,009
-742,371	-27,466	0,190	0,081
-741,356	-33,086	-0,421	0,171
-740,342	100,483	0,152	0,130
-739,327	-74,827	-0,245	0,064
-738,312	-164,244	0,146	-0,005
-737,298	-1,812	-0,337	-0,174
-736,283	-19,558	0,152	0,069
-735,269	-69,287	-0,358	-0,101
-734,254	26,238	0,132	0,081
-733,239	-10,641	-0,653	-0,317
-732,225	-67,388	0,132	0,038
-731,210	-200,000	-0,009	0,030
-730,196	-122,114	-0,158	-0,019
-729,181	800,000	-0,008	-0,020
-728,167	182,566	0,024	-0,026
-727,152	-83,760	-0,084	-0,020
-726,137	194,128	-0,073	0,081
-725,123	-200,000	-0,028	0,213
-724,108	-200,000	0,006	-0,082
-723,094	-200,000	0,027	-0,203
-722,079	561,814	-0,066	-0,119
-721,064	-48,709	0,040	-0,014
-720,050	-85,869	-0,187	-0,042
-719,035	359,149	-0,035	-0,052
-718,021	493,516	-0,047	-0,079
-717,006	375,938	-0,037	-0,055
-715,991	-4,788	-0,142	-0,072
-714,977	289,732	0,059	0,079
-713,962	-2,554	0,123	-0,063
-712,948	-200,000	-0,022	0,126
-711,933	72,508	-0,114	-0,088
-710,918	-200,000	-0,027	0,121
-709,904	283,132	-0,047	0,062
-708,889	800,000	0,036	0,091
-707,875	-166,304	0,106	-0,003
-706,860	88,925	0,123	-0,101
-705,845	18,212	-0,096	0,056
-704,831	800,000	0,072	0,198
-703,816	-116,411	-0,164	-0,022
-702,802	-81,563	0,050	-0,012
-701,787	232,251	-0,051	0,061
-700,772	26,559	-0,130	-0,080
-699,758	800,000	-0,007	-0,018
-698,743	-200,000	-0,004	0,042
-697,729	-200,000	0,027	0,113
-696,714	449,447	-0,087	0,142
-695,699	12,869	-0,088	-0,050
-694,685	-200,000	0,007	0,079
-693,670	800,000	0,035	0,081
-692,656	194,680	0,102	0,114
-691,641	555,458	0,033	0,058
-690,627	-103,973	-0,092	-0,016
-689,612	-55,953	0,073	-0,024
-688,597	-200,000	0,014	-0,066
-687,583	-200,000	0,012	0,111
-686,568	24,321	-0,087	0,053
-685,554	25,254	-0,086	0,053
-684,539	-200,000	-0,008	0,065
-683,524	84,006	-0,062	0,050
-682,510	800,000	0,040	0,108
-681,495	800,000	-0,047	-0,122
-680,481	800,000	0,062	-0,137
-679,466	800,000	-0,029	-0,070
-678,451	-200,000	0,028	-0,113
-677,437	-13,671	0,092	0,043
-676,422	76,694	0,171	0,133
-675,408	178,862	0,108	-0,116
-674,393	124,465	-0,081	0,075
-673,378	41,757	-0,116	-0,077
-672,364	157,020	-0,092	-0,094
-671,349	-140,295	-0,071	0,005
-670,335	96,973	0,040	0,034
-669,320	-200,000	0,007	-0,045
-668,305	184,422	-0,001	0,001
-667,291	198,859	-0,085	-0,096
-666,276	514,891	-0,028	-0,049
-665,262	305,418	-0,049	-0,068
-664,247	-200,000	-0,025	-0,120
-663,232	-48,307	-0,075	-0,027
-662,218	-133,851	0,096	-0,009
-661,203	-200,000	-0,022	-0,166
-660,189	644,806	0,062	-0,117
-659,174	-25,241	-0,060	-0,026
-658,159	-37,879	-0,126	-0,049
-657,145	-17,969	0,035	0,016
-656,130	-82,484	0,174	-0,041
-655,116	-55,129	-0,109	0,036
-654,101	800,000	-0,022	0,070
-653,086	267,383	-0,059	0,076
-652,072	-85,499	-0,082	0,019
-651,057	229,127	-0,134	-0,161
-650,043	-101,117	0,029	0,005
-649,028	-200,000	0,005	-0,147
-648,014	15,920	-0,015	-0,009
-646,999	37,005	0,033	0,022
-645,984	800,000	0,028	0,063
-644,970	155,717	-0,044	-0,045
-643,955	10,646	-0,149	-0,083
-642,941	-22,708	-0,069	-0,030
-641,926	800,000	-0,045	-0,100
-640,911	-92,439	0,070	-0,014
-639,897	462,349	0,084	0,137
-638,882	-49,292	0,043	0,015
-637,868	800,000	-0,035	0,101
-636,853	291,133	-0,084	-0,113
-635,838	800,000	0,044	-0,102
-634,824	-200,000	-0,016	0,094
-633,809	800,000	0,025	-0,060
-632,795	-167,391	0,105	0,003
-631,780	105,417	-0,101	0,087
-630,765	212,025	-0,031	-0,036
-629,751	172,392	0,077	-0,081
-628,736	-27,339	-0,043	-0,018
-627,722	86,399	-0,102	-0,082
-626,707	61,741	0,068	0,050
-625,692	58,347	-0,098	-0,070
-624,678	66,003	-0,028	0,021
-623,663	800,000	0,029	0,077
-622,649	-200,000	-0,033	0,111
-621,634	-200,000	-0,004	0,059
-620,619	163,902	-0,072	0,074
-619,605	-200,000	0,013	-0,087
-618,590	-166,448	0,008	0,000
-617,576	158,046	-0,132	0,134
-616,561	-165,695	-0,055	-0,002
-615,546	414,016	0,063	-0,099
-614,532	800,000	-0,064	-0,178
-613,517	30,859	0,045	0,028
-612,503	800,000	-0,023	0,062
-611,488	399,811	0,017	-0,026
-610,474	-200,000	0,031	0,103
-609,459	686,770	-0,052	-0,099
-608,444	-76,991	-0,109	-0,028
-607,430	338,594	0,059	0,084
-606,415	-200,000	-0,034	-0,117
-605,401	55,220	0,038	-0,027
-604,386	-49,968	-0,048	0,017
-603,371	-162,609	0,061	0,002
-602,357	126,531	0,072	0,067
-601,342	64,372	-0,103	-0,076
-600,328	-86,596	-0,041	-0,009
-599,313	-122,789	0,089	0,010
-598,298	-68,001	-0,209	-0,059
-597,284	-200,000	0,012	0,101
-596,269	-74,247	0,071	0,019
-595,255	-19,028	0,116	0,053
-594,240	61,254	-0,026	-0,019
-593,225	800,000	-0,046	-0,111
-592,211	137,482	-0,064	-0,061
-591,196	-147,106	0,042	0,003
-590,182	-22,099	0,100	0,044
-589,167	-200,000	-0,003	0,083
-588,152	800,000	-0,019	0,057
-587,138	-200,000	-0,001	0,058
-586,123	388,091	-0,113	0,172
-585,109	-200,000	-0,005	-0,076
-584,094	800,000	0,007	0,015
-583,079	3,016	-0,042	-0,022
-582,065	-200,000	0,014	-0,216
-581,050	-106,705	0,061	-0,010
-580,036	-109,583	0,072	0,011
-579,021	-200,000	0,011	-0,098
-578,006	483,383	0,019	-0,032
-576,992	276,223	-0,018	0,023
-575,977	-200,000	0,003	0,028
-574,963	3,935	0,055	-0,029
-573,948	800,000	-0,037	0,108
-572,934	800,000	-0,025	-0,064
-571,919	-127,175	-0,115	-0,012
-570,904	134,674	0,128	-0,122
-569,890	-74,244	0,057	-0,015
-568,875	33,991	0,125	-0,079
-567,861	-200,000	-0,018	0,106
-566,846	-200,000	-0,010	0,084
-565,831	5,984	-0,037	0,020
-564,817	-200,000	-0,005	0,095
-563,802	-122,777	-0,191	-0,022
-562,788	39,436	0,112	0,074
-561,773	-200,000	-0,022	0,139
-560,758	497,070	-0,035	-0,059
-559,744	449,919	-0,041	-0,067
-558,729	800,000	0,013	0,040
-557,715	188,609	-0,065	-0,071
-556,700	-34,614	0,122	-0,049
-555,685	-46,303	-0,153	-0,055
-554,671	748,931	-0,079	0,157
-553,656	-137,903	0,029	-0,002
-552,642	800,000	-0,029	0,071
-551,627	-8,175	0,041	0,020
-550,612	800,000	-0,049	0,125
-549,598	20,244	0,054	0,032
-548,583	-40,158	0,150	-0,057
-547,569	-199,418	0,054	-0,000
-546,554	47,001	0,132	0,090
-545,539	-170,956	-0,119	-0,003
-544,525	-98,511	0,043	0,008
-543,510	637,367	-0,024	0,044
-542,496	-99,201	0,020	-0,004
-541,481	180,587	0,083	-0,090
-540,466	-147,573	0,053	-0,003
-539,452	-54,203	0,044	0,015
-538,437	777,075	0,058	0,116
-537,423	128,512	-0,058	0,054
-536,408	238,570	-0,051	0,062
-535,393	-200,000	-0,010	-0,064
-534,379	800,000	0,031	-0,063
-533,364	-200,000	0,007	-0,052
-532,350	800,000	0,007	-0,022
-531,335	443,638	0,038	0,061
-530,321	800,000	0,008	0,019
-529,306	-65,070	0,125	-0,037
-528,291	-61,270	-0,036	0,011
-527,277	96,876	-0,062	-0,052
-526,262	800,000	-0,034	0,103
-525,248	-69,175	0,177	0,049
-524,233	800,000	-0,044	0,090
-523,218	-193,833	0,106	-0,001
-522,204	-200,000	0,008	-0,074
-521,189	-200,000	0,038	-0,228
-520,175	-200,000	0,015	-0,067
-519,160	-170,120	0,114	-0,003
-518,145	800,000	-0,049	0,118
-517,131	19,742	-0,034	0,020
-516,116	348,244	0,046	0,066
-515,102	800,000	-0,011	0,035
-514,087	-200,000	-0,033	-0,139
-513,072	24,077	0,085	-0,051
-512,058	-157,121	0,096	0,004
-511,043	800,000	-0,041	0,093
-510,029	416,012	0,065	0,101
-509,014	24,451	-0,076	0,046
-507,999	230,256	0,038	-0,046
-506,985	129,165	-0,092	0,086
-505,970	-200,000	-0,015	0,096
-504,956	434,676	-0,089	-0,141
-503,941	-200,000	0,002	-0,014
-502,926	334,712	0,039	-0,055
-501,912	8,163	-0,033	-0,018
-500,897	123,939	-0,053	0,049
-499,883	800,000	-0,006	-0,015
-498,868	30,739	-0,033	-0,020
-497,853	552,086	0,005	0,010
-496,839	413,723	-0,055	-0,085
-495,824	800,000	-0,057	0,124
-494,810	-200,000	0,085	0,000
-493,795	-200,000	0,003	-0,036
-492,781	392,163	-0,025	-0,038
-491,766	-200,000	0,010	0,032
-490,751	498,874	0,046	0,078
-489,737	37,727	0,019	-0,012
-488,722	168,223	-0,093	0,097
-487,708	625,016	0,029	0,053
-486,693	-30,053	-0,086	0,035
-485,678	44,864	0,037	0,025
-484,664	-7,160	-0,065	-0,032
-483,649	-116,910	-0,065	-0,009
-482,635	371,026	-0,044	-0,065
-481,620	-19,843	-0,169	0,076
-480,605	4,728	0,032	0,017
-479,591	130,209	0,067	0,062
-478,576	259,469	-0,058	-0,073
-477,562	800,000	-0,031	-0,072
-476,547	-47,904	-0,122	0,043
-475,532	-200,000	-0,023	-0,086
-474,518	331,308	0,040	-0,057
-473,503	-129,809	0,101	-0,010
-472,489	-41,560	-0,072	0,027
-471,474	-102,579	0,078	0,013
-470,459	-189,935	-0,097	0,001
-469,445	800,000	-0,030	-0,084
-468,430	-7,514	-0,101	0,050
-467,416	512,784	0,020	-0,035
-466,401	800,000	-0,028	0,059
-465,386	800,000	0,038	0,115
-464,372	248,159	-0,088	0,108
-463,357	800,000	-0,030	-0,092
-462,343	-200,000	-0,001	-0,115
-461,328	-194,583	-0,058	0,000
-460,313	800,000	0,098	-0,231
-459,299	-102,479	-0,102	-0,018
-458,284	304,178	0,071	-0,096
-457,270	800,000	0,039	-0,083
-456,255	-94,421	0,203	0,040
-455,241	800,000	0,046	-0,099
-454,226	23,775	0,052	-0,031
-453,211	-33,042	0,062	0,025
-452,197	231,263	0,049	-0,058
-451,182	-200,000	-0,005	0,085
-450,168	-200,000	-0,001	0,096
-449,153	-200,000	-0,022	0,098
-448,138	-200,000	-0,008	-0,096
-447,124	-107,927	-0,076	-0,012
-446,109	800,000	-0,034	0,076
-445,095	92,393	-0,056	0,046
-444,080	-15,124	0,072	0,033
-443,065	-200,000	0,004	-0,154
-442,051	171,387	-0,068	0,071
-441,036	-112,391	0,112	-0,016
-440,022	-8,397	-0,070	0,034
-439,007	-111,555	-0,160	-0,023
-437,992	-75,188	0,040	-0,010
-436,978	-200,000	0,020	0,092
-435,963	81,989	-0,043	-0,034
-434,949	-65,183	-0,066	0,019
-433,934	800,000	-0,014	-0,036
-432,919	219,304	-0,101	-0,117
-431,905	-200,000	-0,002	0,132
-430,890	398,298	0,017	-0,027
-429,876	-67,134	0,052	0,015
-428,861	800,000	-0,013	0,038
-427,846	-110,155	0,105	-0,016
-426,832	72,981	-0,091	-0,069
-425,817	196,673	-0,084	-0,093
-424,803	-200,000	0,045	-0,166
-423,788	-58,626	-0,118	-0,037
-422,773	548,727	-0,055	0,096
-421,759	-55,162	0,017	-0,005
-420,744	-200,000	0,009	-0,103
-419,730	25,128	-0,063	0,038
-418,715	-127,212	0,052	0,006
-417,701	27,688	-0,028	-0,017
-416,686	800,000	0,008	0,018
-415,671	668,621	-0,048	0,091
-414,657	101,770	-0,010	-0,009
-413,642	24,043	0,105	0,063
-412,628	-44,792	-0,126	0,045
-411,613	-22,093	-0,016	0,007
-410,598	86,849	-0,063	0,050
-409,584	800,000	-0,010	0,029
-408,569	20,937	0,057	-0,034
-407,555	-150,015	0,142	0,008
-406,540	-155,320	-0,179	0,008
-405,525	-200,000	0,020	0,103
-404,511	-78,945	-0,053	0,013
-403,496	-104,852	-0,038	-0,006
-402,482	4,749	0,172	-0,091
-401,467	-11,664	0,051	-0,024
-400,452	-200,000	-0,006	-0,027
-399,438	-200,000	0,032	0,104
-398,423	-200,000	-0,010	-0,043
-397,409	-200,000	0,004	-0,050
-396,394	-200,000	-0,013	0,048
-395,379	-53,943	0,086	-0,028
-394,365	231,047	-0,056	0,067
-393,350	800,000	-0,047	0,125
-392,336	800,000	0,032	0,068
-391,321	-200,000	0,035	0,128
-390,306	-200,000	-0,012	-0,088
-389,292	800,000	-0,043	-0,112
-388,277	800,000	-0,016	-0,037
-387,263	-200,000	-0,003	0,130
-386,248	368,627	0,039	0,058
-385,233	-41,337	-0,020	-0,007
-384,219	800,000	0,035	-0,094
-383,204	227,091	-0,023	0,027
-382,190	-60,427	0,072	-0,022
-381,175	-200,000	0,021	-0,083
-380,160	734,596	-0,038	-0,075
-379,146	365,685	-0,078	0,115
-378,131	800,000	-0,022	0,047
-377,117	-73,192	0,029	0,008
-376,102	103,269	-0,028	-0,024
-375,088	800,000	-0,013	-0,035
-374,073	-114,135	0,172	0,024
-373,058	-200,000	-0,005	-0,058
-372,044	800,000	-0,017	-0,044
-371,029	-82,597	0,110	0,026
-370,015	699,276	0,084	-0,160
-369,000	-36,842	-0,037	0,014
-367,985	800,000	0,032	-0,091
-366,971	278,601	0,018	-0,024
-365,956	-200,000	0,023	-0,093
-364,942	282,294	-0,022	-0,028
-363,927	-200,000	0,019	-0,060
-362,912	-143,456	-0,177	0,012
-361,898	-200,000	-0,001	-0,030
-360,883	-12,970	-0,052	-0,024
-359,869	270,017	-0,048	-0,062
-358,854	19,888	-0,099	-0,058
-357,839	-133,658	0,113	0,010
-356,825	-200,000	-0,001	-0,055
-355,810	-179,327	-0,117	-0,002
-354,796	-108,438	-0,047	0,007
-353,781	-124,758	0,023	0,003
-352,766	-7,692	-0,039	-0,019
-351,752	332,943	-0,131	0,185
-350,737	160,314	0,098	0,099
-349,723	-110,067	0,041	-0,006
-348,708	-200,000	0,007	0,057
-347,693	12,368	-0,046	-0,026
-346,679	-200,000	-0,036	-0,135
-345,664	-159,965	0,053	-0,002
-344,650	-174,146	0,089	0,002
-343,635	-200,000	0,001	-0,016
-342,620	-200,000	0,001	0,042
-341,606	56,723	0,122	-0,086
-340,591	143,992	0,025	-0,024
-339,577	-200,000	-0,010	0,057
-338,562	-200,000	-0,005	-0,078
-337,548	-109,938	-0,056	-0,008
-336,533	-69,196	0,047	0,013
-335,518	-200,000	0,016	-0,124
-334,504	-200,000	-0,042	0,145
-333,489	-200,000	0,013	0,050
-332,475	-200,000	-0,024	-0,117
-331,460	-200,000	-0,003	-0,075
-330,445	-56,430	0,061	-0,020
-329,431	115,849	0,031	-0,028
-328,416	-178,925	0,068	0,001
-327,402	692,876	0,034	-0,064
-326,387	87,876	0,099	-0,080
-325,372	389,554	-0,033	-0,050
-324,358	800,000	-0,019	-0,051
-323,343	0,286	-0,067	0,034
-322,329	-67,244	0,071	0,020
-321,314	185,788	0,062	0,067
-320,299	383,481	0,064	-0,097
-319,285	-200,000	-0,003	0,029
-318,270	304,539	-0,058	-0,078
-317,256	-61,666	-0,112	0,034
-316,241	1,362	0,042	0,022
-315,226	-19,887	-0,042	-0,019
-314,212	224,181	0,118	0,138
-313,197	-36,930	0,033	0,013
-312,183	-200,000	-0,027	0,104
-311,168	-7,149	-0,126	-0,062
-310,153	-200,000	0,049	-0,204
-309,139	800,000	0,022	0,060
-308,124	163,124	0,089	-0,091
-307,110	-62,607	-0,095	-0,029
-306,095	-126,314	-0,076	-0,008
-305,080	230,188	0,017	-0,020
-304,066	800,000	0,061	0,144
-303,051	-34,336	-0,132	-0,052
-302,037	722,371	0,060	-0,116
-301,022	51,089	-0,052	-0,036
-300,008	800,000	0,048	-0,101
-298,993	800,000	0,054	0,117
-297,978	-200,000	0,010	0,127
-296,964	-100,711	-0,091	0,016
-295,949	138,227	-0,022	-0,021
-294,935	368,505	0,067	0,099
-293,920	-0,765	0,089	0,045
-292,905	-134,044	0,040	0,004
-291,891	157,365	0,072	0,073
-290,876	195,243	0,095	0,105
-289,862	-64,369	-0,012	0,003
-288,847	-88,956	0,142	-0,030
-287,832	310,444	-0,061	0,083
-286,818	-126,670	-0,113	-0,012
-285,803	-45,354	0,206	0,074
-284,789	-200,000	0,034	0,194
-283,774	-18,495	-0,026	-0,012
-282,759	-97,409	-0,041	0,008
-281,745	1,063	-0,091	-0,047
-280,730	-200,000	-0,026	-0,095
-279,716	329,514	0,025	0,035
-278,701	-200,000	0,010	-0,056
-277,686	325,328	0,042	0,058
-276,672	50,628	0,096	0,066
-275,657	296,899	-0,083	0,110
-274,643	-131,511	-0,049	-0,005
-273,628	71,880	-0,083	-0,062
-272,613	492,295	0,096	0,160
-271,599	298,474	-0,046	0,062
-270,584	-8,150	-0,036	-0,017
-269,570	-155,163	-0,189	0,009
-268,555	26,417	0,067	-0,041
-267,540	86,429	-0,012	0,009
-266,526	677,048	0,035	0,066
-265,511	279,762	-0,037	-0,048
-264,497	157,604	-0,112	0,112
-263,482	152,898	0,021	0,021
-262,467	-200,000	0,012	0,081
-261,453	387,757	-0,020	-0,030
-260,438	143,242	0,081	-0,078
-259,424	-156,257	0,078	0,003
-258,409	-200,000	-0,016	-0,058
-257,395	99,670	0,101	0,085
-256,380	800,000	-0,072	0,178
-255,365	259,749	0,051	0,064
-254,351	220,500	0,073	0,085
-253,336	-200,000	0,027	-0,092
-252,322	-196,611	-0,069	-0,000
-251,307	-23,651	0,104	0,045
-250,292	123,084	-0,115	-0,104
-249,278	305,072	0,013	-0,018
-248,263	-57,331	0,059	-0,019
-247,249	800,000	-0,025	0,075
-246,234	800,000	0,029	0,082
-245,219	-200,000	-0,010	-0,069
-244,205	9,099	-0,074	-0,040
-243,190	-200,000	0,007	0,107
-242,176	35,988	-0,033	0,021
-241,161	-81,632	0,150	-0,035
-240,146	381,153	-0,010	0,015
-239,132	281,149	0,048	0,063
-238,117	-76,555	-0,051	-0,013
-237,103	-125,358	0,030	-0,003
-236,088	226,808	-0,040	0,047
-235,073	-45,688	0,194	-0,069
-234,059	-200,000	-0,012	0,109
-233,044	58,197	0,039	0,028
-232,030	47,985	0,111	0,075
-231,015	800,000	0,009	0,023
-230,000	-24,602	0,051	0,022
-228,986	67,971	0,042	-0,031
-227,971	800,000	-0,013	0,028
-226,957	299,660	0,031	-0,041
-225,942	53,496	0,053	0,036
-224,927	710,970	0,024	-0,046
-223,913	-200,000	-0,020	-0,082
-222,898	64,733	0,105	0,076
-221,884	70,975	-0,114	0,086
-220,869	438,349	0,035	-0,056
-219,855	-200,000	0,014	0,061
-218,840	800,000	-0,020	0,055
-217,825	-37,931	0,141	0,054
-216,811	277,480	-0,065	0,083
-215,796	47,750	0,063	0,042
-214,782	176,912	-0,084	-0,088
-213,767	-200,000	0,018	-0,079
-212,752	800,000	0,025	0,054
-211,738	64,236	0,135	0,098
-210,723	-122,057	0,057	-0,007
-209,709	-200,000	0,002	-0,015
-208,694	17,384	0,012	-0,007
-207,679	186,177	-0,066	0,071
-206,665	800,000	0,023	0,054
-205,650	800,000	0,071	-0,170
-204,636	432,006	-0,045	0,070
-203,621	-72,308	0,020	-0,005
-202,606	-200,000	-0,012	-0,087
-201,592	-200,000	-0,011	0,054
-200,577	330,614	-0,079	-0,110
-199,563	535,805	0,020	-0,034
-198,548	-103,127	-0,089	0,015
-197,533	65,534	-0,101	0,074
-196,519	641,734	0,038	-0,071
-195,504	35,368	-0,024	-0,015
-194,490	-42,485	0,092	0,034
-193,475	703,264	-0,012	-0,023
-192,460	339,417	0,007	0,010
-191,446	-96,769	0,103	0,019
-190,431	185,314	0,138	0,148
-189,417	-114,036	-0,124	0,017
-188,402	24,490	-0,162	0,097
-187,387	248,665	-0,143	-0,175
-186,373	98,782	0,096	-0,080
-185,358	800,000	-0,030	-0,077
-184,344	-200,000	0,018	0,125
-183,329	-80,107	-0,031	-0,007
-182,315	768,117	-0,033	-0,065
-181,300	84,806	-0,100	-0,079
-180,285	-200,000	-0,004	-0,055
-179,271	-19,297	-0,080	0,036
-178,256	27,478	-0,150	-0,091
-177,242	-148,102	0,037	0,002
-176,227	-146,359	0,106	-0,007
-175,212	800,000	-0,010	-0,030
-174,198	-183,214	0,077	-0,001
-173,183	517,516	0,040	0,068
-172,169	248,465	-0,100	-0,122
-171,154	800,000	0,053	-0,118
-170,139	12,040	-0,047	0,026
-169,125	-200,000	-0,016	-0,054
-168,110	-200,000	-0,007	0,063
-167,096	-9,810	0,060	0,029
-166,081	193,264	-0,025	-0,027
-165,066	-200,000	0,024	-0,131
-164,052	466,147	0,075	-0,121
-163,037	204,742	-0,060	0,067
-162,023	74,799	-0,018	0,013
-161,008	800,000	0,019	0,050
-159,993	800,000	-0,053	0,153
-158,979	-200,000	0,011	0,041
-157,964	67,720	-0,054	-0,040
-156,950	123,245	-0,097	-0,088
-155,935	-200,000	-0,028	-0,210
-154,920	-200,000	0,007	-0,022
-153,906	-164,741	0,132	-0,004
-152,891	-200,000	0,006	-0,102
-151,877	-111,924	0,078	-0,011
-150,862	-54,105	-0,077	-0,025
-149,847	800,000	-0,021	-0,061
-148,833	800,000	0,010	-0,027
-147,818	800,000	-0,014	-0,035
-146,804	-38,857	0,043	0,016
-145,789	26,540	0,081	0,048
-144,775	-200,000	-0,010	0,034
-143,760	-200,000	0,007	0,023
-142,745	311,271	-0,020	-0,028
-141,731	368,202	0,057	0,083
-140,716	290,611	-0,055	-0,073
-139,702	404,149	-0,025	0,038
-138,687	0,655	-0,087	0,045
-137,672	-200,000	0,011	0,047
-136,658	-36,904	0,068	0,026
-135,643	622,341	-0,058	0,106
-134,629	-200,000	0,002	-0,028
-133,614	-36,602	0,014	0,005
-132,599	-71,698	0,090	0,024
-131,585	-200,000	0,009	0,056
-130,570	-200,000	0,000	0,039
-129,556	-200,000	-0,011	-0,039
-128,541	-200,000	0,003	0,115
-127,526	38,829	-0,120	-0,077
-126,512	37,052	0,109	-0,069
-125,497	-2,887	0,113	0,056
-124,483	384,057	0,050	0,074
-123,468	800,000	-0,021	-0,046
-122,453	-37,251	-0,135	0,052
-121,439	404,907	-0,055	0,084
-120,424	11,507	0,053	-0,029
-119,410	-43,634	-0,087	0,031
