DTS Sentinel unit serial number:	SN410029Multiplexer serial number:	ORYXHardware model number:	OX2-SRSoftware version number:	ORYX F/W v4,00 Oryx Data Collector v3.7.2.0data status	okinstallation	B5 Nyhavnadifferential loss correction	single-endedforward channel	channel 2reverse channel	N/Adate	2023/12/13time	19:47:13forward acquisition time	300,00reverse acquisition time	0,00gamma	499,1914k internal	0,3159k external	0,3159temperature offset calibration	1,0000default loss term (dB/km)	0,3820temperature slope calibration	1,0000multiplexer offset coefficient	1,0000multiplexer slope coefficient	1,0000fibre end	0,00T internal ref (°C)	11,40T ext. ref 1 (°C)	-5,72T ext. ref 2 (°C)	-5,77length (m)	temperature (°C)	Stokes	anti-Stokes-744,400	-73,839	0,246	0,065
-743,385	-92,840	-0,336	-0,069
-742,371	-200,000	0,001	0,093
-741,356	-119,112	-0,293	-0,037
-740,342	40,793	0,142	0,094
-739,327	-118,796	-0,415	-0,053
-738,312	40,976	0,079	0,052
-737,298	-58,794	-0,241	-0,076
-736,283	421,725	0,052	0,082
-735,269	-125,562	-0,276	-0,030
-734,254	253,286	-0,045	0,057
-733,239	-8,880	-0,474	-0,233
-732,225	69,861	0,131	-0,100
-731,210	-126,575	-0,140	-0,015
-730,196	21,365	-0,090	-0,054
-729,181	310,383	-0,067	-0,093
-728,167	138,958	0,063	-0,061
-727,152	-94,512	-0,059	0,012
-726,137	90,386	-0,168	-0,139
-725,123	260,091	-0,071	0,091
-724,108	-53,806	-0,076	-0,025
-723,094	800,000	-0,036	-0,114
-722,079	-200,000	-0,012	-0,095
-721,064	95,422	-0,121	0,102
-720,050	242,089	-0,026	0,033
-719,035	15,703	-0,021	0,012
-718,021	-161,136	-0,014	0,001
-717,006	-78,458	-0,104	-0,026
-715,991	774,928	-0,026	-0,052
-714,977	-82,563	0,110	-0,026
-713,962	-8,967	0,086	0,042
-712,948	-200,000	-0,046	0,178
-711,933	-64,026	-0,069	0,020
-710,918	615,071	0,019	-0,035
-709,904	452,407	-0,033	0,054
-708,889	138,888	-0,055	0,053
-707,875	31,954	-0,028	0,018
-706,860	800,000	0,021	-0,055
-705,845	-200,000	0,000	-0,051
-704,831	79,100	0,047	-0,037
-703,816	78,542	-0,072	0,057
-702,802	-129,494	0,052	-0,005
-701,787	-192,773	-0,153	-0,001
-700,772	-200,000	-0,001	-0,084
-699,758	-112,088	-0,099	0,015
-698,743	130,814	-0,022	0,021
-697,729	185,967	0,056	0,061
-696,714	-200,000	0,013	0,121
-695,699	146,767	0,014	-0,014
-694,685	272,704	0,061	-0,080
-693,670	800,000	-0,068	0,186
-692,656	-200,000	0,007	-0,046
-691,641	78,783	-0,134	0,105
-690,627	280,939	-0,024	-0,032
-689,612	-60,161	-0,043	0,013
-688,597	-200,000	0,025	-0,123
-687,583	371,144	0,046	-0,069
-686,568	800,000	-0,021	0,049
-685,554	800,000	-0,044	-0,091
-684,539	348,780	0,049	-0,072
-683,524	-200,000	0,016	-0,078
-682,510	12,830	0,087	-0,049
-681,495	-97,843	-0,029	0,005
-680,481	-53,149	-0,092	-0,031
-679,466	800,000	0,048	-0,144
-678,451	800,000	0,020	-0,049
-677,437	144,124	0,028	0,027
-676,422	800,000	0,006	0,017
-675,408	-153,120	-0,076	0,004
-674,393	46,714	-0,143	0,097
-673,378	-102,663	-0,189	-0,033
-672,364	412,749	-0,030	-0,048
-671,349	-112,659	-0,180	0,026
-670,335	93,683	0,039	-0,032
-669,320	126,994	0,062	0,057
-668,305	-48,318	0,050	0,017
-667,291	-120,391	0,051	0,006
-666,276	-135,468	-0,024	-0,002
-665,262	158,287	-0,053	-0,054
-664,247	-82,812	-0,063	-0,015
-663,232	-45,818	0,043	0,015
-662,218	-140,145	0,190	0,014
-661,203	800,000	-0,028	0,073
-660,189	800,000	-0,028	0,062
-659,174	3,444	-0,049	0,026
-658,159	-200,000	0,004	-0,099
-657,145	11,567	-0,024	-0,013
-656,130	126,251	-0,059	0,055
-655,116	51,337	-0,009	0,006
-654,101	534,091	-0,046	0,080
-653,086	-200,000	0,025	0,106
-652,072	50,105	0,118	-0,082
-651,057	37,139	-0,027	0,018
-650,043	-65,282	0,186	-0,055
-649,028	800,000	-0,022	0,057
-648,014	-200,000	0,025	0,110
-646,999	-200,000	0,004	0,076
-645,984	-200,000	0,004	-0,138
-644,970	305,093	0,064	-0,088
-643,955	386,400	-0,048	0,073
-642,941	113,659	-0,042	0,037
-641,926	96,996	-0,082	-0,069
-640,911	79,846	-0,050	0,039
-639,897	-155,455	0,048	0,002
-638,882	212,620	0,148	-0,172
-637,868	-10,005	0,071	-0,034
-636,853	223,166	-0,060	-0,071
-635,838	800,000	0,038	-0,106
-634,824	409,167	-0,092	-0,143
-633,809	-200,000	0,008	-0,154
-632,795	-200,000	0,016	0,080
-631,780	-140,407	-0,090	-0,007
-630,765	147,802	-0,059	0,058
-629,751	158,992	-0,125	-0,128
-628,736	40,752	-0,098	-0,065
-627,722	85,779	0,100	-0,081
-626,707	-133,018	-0,071	-0,007
-625,692	213,418	0,037	-0,043
-624,678	-151,497	0,092	0,005
-623,663	-134,304	0,133	-0,012
-622,649	71,635	-0,028	0,022
-621,634	-59,458	-0,066	-0,021
-620,619	-200,000	0,009	-0,138
-619,605	120,767	0,087	0,079
-618,590	-200,000	-0,000	-0,013
-617,576	10,685	0,140	-0,078
-616,561	116,181	-0,020	-0,018
-615,546	-200,000	-0,000	-0,076
-614,532	184,165	0,039	-0,043
-613,517	500,990	0,009	0,015
-612,503	-24,021	0,009	-0,004
-611,488	312,784	0,107	-0,148
-610,474	-116,799	0,095	0,013
-609,459	399,430	-0,062	0,096
-608,444	-200,000	-0,011	-0,050
-607,430	72,337	-0,192	-0,147
-606,415	-200,000	-0,016	0,066
-605,401	-200,000	0,010	-0,032
-604,386	-200,000	-0,003	-0,042
-603,371	77,337	0,103	0,080
-602,357	159,162	-0,024	0,024
-601,342	180,580	-0,022	-0,024
-600,328	-72,605	0,068	-0,018
-599,313	22,035	-0,093	-0,056
-598,298	800,000	0,008	-0,026
-597,284	364,721	0,012	0,018
-596,269	513,083	0,028	-0,047
-595,255	-184,306	0,056	-0,001
-594,240	-70,550	-0,055	-0,015
-593,225	-200,000	0,029	-0,151
-592,211	-200,000	-0,029	-0,159
-591,196	-26,010	-0,124	-0,053
-590,182	208,247	0,075	0,086
-589,167	470,660	-0,037	-0,062
-588,152	278,937	0,048	0,063
-587,138	90,642	-0,077	0,063
-586,123	800,000	-0,026	-0,070
-585,109	23,217	0,061	-0,037
-584,094	-200,000	0,005	-0,051
-583,079	299,668	-0,047	-0,064
-582,065	38,246	0,086	0,056
-581,050	-168,633	0,059	0,002
-580,036	45,548	0,160	-0,108
-579,021	-48,014	-0,039	0,014
-578,006	-67,354	-0,097	-0,028
-576,992	87,635	0,020	-0,016
-575,977	-125,143	0,081	0,009
-574,963	-200,000	-0,035	0,120
-573,948	800,000	0,013	0,034
-572,934	33,190	-0,130	0,082
-571,919	800,000	0,023	-0,060
-570,904	-104,070	-0,049	0,008
-569,890	372,296	0,027	-0,040
-568,875	-151,303	0,062	0,003
-567,861	-200,000	-0,008	0,097
-566,846	105,745	0,037	0,032
-565,831	-200,000	-0,001	-0,035
-564,817	-55,835	-0,077	-0,025
-563,802	-200,000	0,024	0,083
-562,788	-125,307	0,088	-0,010
-561,773	368,276	-0,091	-0,135
-560,758	-169,636	0,084	-0,002
-559,744	213,741	-0,035	-0,041
-558,729	554,345	-0,025	-0,045
-557,715	559,641	-0,028	-0,050
-556,700	98,621	-0,044	0,037
-555,685	-108,101	0,164	0,026
-554,671	311,886	0,045	0,062
-553,656	-156,964	-0,125	0,005
-552,642	-38,631	-0,067	0,026
-551,627	506,527	-0,055	-0,094
-550,612	408,906	0,021	-0,033
-549,598	-14,986	-0,054	-0,025
-548,583	-200,000	0,019	-0,081
-547,569	508,754	0,035	-0,060
-546,554	751,481	0,032	-0,064
-545,539	-121,482	0,159	0,019
-544,525	-56,935	-0,052	-0,017
-543,510	54,291	-0,151	0,106
-542,496	800,000	0,020	-0,050
-541,481	150,760	-0,080	-0,079
-540,466	119,656	0,118	0,107
-539,452	-200,000	-0,014	0,048
-538,437	334,808	-0,103	0,147
-537,423	160,034	-0,123	0,126
-536,408	208,962	-0,137	0,157
-535,393	53,236	-0,050	-0,035
-534,379	-200,000	0,002	0,021
-533,364	-200,000	0,005	0,095
-532,350	-200,000	0,018	0,215
-531,335	-109,574	-0,011	-0,002
-530,321	800,000	-0,014	0,037
-529,306	-200,000	-0,005	-0,054
-528,291	152,449	-0,169	-0,168
-527,277	-200,000	0,005	-0,050
-526,262	227,953	0,039	-0,046
-525,248	-165,214	0,113	-0,004
-524,233	800,000	0,006	0,018
-523,218	-26,395	-0,132	-0,056
-522,204	-200,000	-0,007	0,165
-521,189	-140,681	0,104	0,008
-520,175	104,949	-0,105	-0,090
-519,160	42,509	0,116	-0,077
-518,145	-144,187	-0,098	0,007
-517,131	-200,000	0,013	-0,132
-516,116	-200,000	0,024	0,091
-515,102	-64,846	0,158	-0,046
-514,087	800,000	-0,030	-0,063
-513,072	444,284	0,068	-0,110
-512,058	-164,879	-0,161	0,005
-511,043	-12,277	0,199	-0,095
-510,029	-189,224	0,092	-0,001
-509,014	-200,000	0,022	-0,135
-507,999	-200,000	-0,007	-0,102
-506,985	-124,798	0,019	-0,002
-505,970	40,896	-0,058	-0,038
-504,956	65,924	-0,063	-0,046
-503,941	-200,000	0,005	0,132
-502,926	171,698	-0,065	-0,068
-501,912	-13,749	0,073	0,034
-500,897	-74,880	0,009	0,002
-499,883	60,899	-0,105	-0,076
-498,868	63,897	-0,132	0,097
-497,853	-200,000	-0,004	0,049
-496,839	-47,913	-0,091	-0,032
-495,824	-200,000	-0,006	-0,062
-494,810	-139,549	0,205	0,016
-493,795	247,075	0,088	0,108
-492,781	-55,692	-0,153	-0,050
-491,766	-149,234	-0,040	-0,002
-490,751	-115,008	-0,205	-0,028
-489,737	3,086	0,071	-0,037
-488,722	613,088	-0,047	0,086
-487,708	-78,576	0,103	-0,025
-486,693	-200,000	-0,004	-0,047
-485,678	-131,349	0,083	0,008
-484,664	-200,000	-0,027	-0,110
-483,649	468,182	-0,075	-0,123
-482,635	791,790	-0,031	-0,062
-481,620	535,904	0,018	-0,031
-480,605	800,000	0,008	0,019
-479,591	800,000	-0,044	0,124
-478,576	579,564	-0,037	-0,066
-477,562	582,637	-0,084	-0,151
-476,547	-99,979	-0,078	-0,014
-475,532	188,638	-0,058	-0,063
-474,518	-140,951	0,099	0,007
-473,503	-39,887	0,098	-0,037
-472,489	232,354	-0,076	0,091
-471,474	534,168	-0,053	0,092
-470,459	662,832	0,043	0,081
-469,445	163,418	-0,159	0,164
-468,430	-200,000	-0,014	0,057
-467,416	800,000	-0,023	-0,054
-466,401	800,000	-0,054	-0,136
-465,386	359,710	0,047	0,069
-464,372	36,119	-0,144	-0,092
-463,357	-38,162	-0,127	-0,049
-462,343	-200,000	-0,023	-0,178
-461,328	254,121	0,020	-0,025
-460,313	334,298	0,019	0,026
-459,299	-127,209	0,153	-0,016
-458,284	379,446	0,048	-0,072
-457,270	-127,750	-0,145	-0,015
-456,255	595,905	-0,014	-0,026
-455,241	249,717	-0,116	-0,144
-454,226	-143,894	-0,082	-0,006
-453,211	71,940	-0,063	0,048
-452,197	347,616	0,067	0,097
-451,182	-14,795	-0,078	-0,036
-450,168	28,437	0,048	0,029
-449,153	-200,000	0,002	-0,033
-448,138	-200,000	-0,005	0,033
-447,124	45,151	-0,034	-0,023
-446,109	108,768	0,035	0,030
-445,095	-64,764	0,113	0,033
-444,080	-45,588	0,078	0,028
-443,065	-200,000	0,023	-0,077
-442,051	-33,102	0,124	-0,050
-441,036	-200,000	0,013	-0,078
-440,022	-200,000	0,006	-0,057
-439,007	197,712	-0,056	-0,062
-437,992	-200,000	0,018	0,103
-436,978	58,165	-0,040	0,028
-435,963	5,665	0,040	0,021
-434,949	-200,000	0,004	-0,060
-433,934	-200,000	0,001	0,028
-432,919	54,702	-0,064	0,045
-431,905	14,424	-0,072	-0,041
-430,890	-200,000	-0,007	0,022
-429,876	687,355	-0,098	0,186
-428,861	-200,000	-0,011	0,039
-427,846	-3,351	0,040	-0,020
-426,832	-200,000	0,011	-0,070
-425,817	-15,381	0,083	-0,038
-424,803	-66,226	0,147	0,042
-423,788	-200,000	0,004	0,015
-422,773	-175,203	-0,100	-0,002
-421,759	-71,290	-0,072	0,019
-420,744	84,248	-0,111	-0,088
-419,730	-200,000	0,033	-0,116
-418,715	92,588	-0,005	0,004
-417,701	26,518	0,059	0,036
-416,686	-200,000	-0,017	-0,080
-415,671	800,000	0,047	0,125
-414,657	524,278	0,050	0,086
-413,642	-105,903	-0,108	0,018
-412,628	-113,334	-0,137	-0,019
-411,613	211,694	-0,080	0,092
-410,598	-200,000	0,016	-0,061
-409,584	-23,336	0,095	-0,041
-408,569	-69,346	-0,101	-0,028
-407,555	148,430	0,036	0,036
-406,540	800,000	0,065	0,153
-405,525	770,689	0,027	0,055
-404,511	-200,000	0,017	-0,066
-403,496	48,063	0,060	0,041
-402,482	-200,000	0,002	-0,062
-401,467	800,000	0,083	-0,185
-400,452	652,999	0,004	0,008
-399,438	-200,000	-0,008	0,062
-398,423	261,935	-0,113	0,143
-397,409	421,634	-0,012	0,019
-396,394	-71,376	-0,059	0,016
-395,379	370,184	0,068	-0,100
-394,365	-94,060	-0,140	0,028
-393,350	126,630	0,051	-0,047
-392,336	121,736	0,034	-0,031
-391,321	-25,228	-0,130	-0,056
-390,306	-89,606	-0,010	-0,002
-389,292	655,501	0,041	-0,077
-388,277	437,497	-0,012	0,018
-387,263	-200,000	0,013	0,101
-386,248	70,450	0,052	-0,039
-385,233	-200,000	-0,018	-0,070
-384,219	244,239	-0,051	0,063
-383,204	526,629	-0,048	-0,083
-382,190	363,116	-0,057	-0,084
-381,175	61,225	0,104	0,075
-380,160	194,194	0,059	0,066
-379,146	-99,168	-0,080	0,015
-378,131	260,010	-0,035	0,044
-377,117	-200,000	-0,007	0,085
-376,102	128,788	-0,049	0,046
-375,088	-84,253	0,059	0,013
-374,073	-72,328	0,155	0,041
-373,058	-24,111	-0,084	0,036
-372,044	10,994	0,068	0,038
-371,029	-200,000	-0,000	-0,003
-370,015	800,000	0,061	0,124
-369,000	800,000	0,010	-0,026
-367,985	800,000	0,032	-0,071
-366,971	-50,537	-0,105	0,036
-365,956	225,620	0,021	0,024
-364,942	-31,194	0,143	0,058
-363,927	-200,000	-0,002	0,023
-362,912	-200,000	-0,012	-0,039
-361,898	-200,000	0,002	0,045
-360,883	-200,000	0,017	-0,080
-359,869	119,024	0,062	0,055
-358,854	-42,156	-0,115	0,043
-357,839	-200,000	-0,016	0,095
-356,825	61,791	-0,033	-0,024
-355,810	-200,000	-0,008	0,059
-354,796	-200,000	0,000	0,037
-353,781	430,904	-0,084	-0,132
-352,766	-200,000	-0,008	0,102
-351,752	-107,816	-0,061	0,009
-350,737	-134,587	0,006	0,001
-349,723	-200,000	0,004	0,050
-348,708	-200,000	0,004	-0,035
-347,693	173,277	-0,099	0,104
-346,679	-200,000	0,003	-0,097
-345,664	800,000	0,003	0,007
-344,650	-90,268	0,089	0,019
-343,635	305,549	0,040	0,054
-342,620	-200,000	0,005	0,152
-341,606	19,745	0,115	0,067
-340,591	28,104	-0,147	0,090
-339,577	-45,256	-0,113	0,040
-338,562	-139,062	-0,046	0,004
-337,548	800,000	-0,010	-0,022
-336,533	-200,000	-0,035	0,114
-335,518	-200,000	-0,008	0,108
-334,504	37,343	0,018	-0,011
-333,489	626,067	0,071	-0,131
-332,475	201,922	-0,099	0,111
-331,460	384,118	0,093	-0,140
-330,445	-200,000	0,001	0,036
-329,431	-200,000	0,004	0,093
-328,416	-134,939	0,136	-0,012
-327,402	183,420	0,092	-0,098
-326,387	-200,000	-0,003	-0,084
-325,372	-150,030	-0,168	-0,009
-324,358	-124,887	0,081	0,009
-323,343	174,564	-0,008	-0,008
-322,329	-36,817	0,052	-0,020
-321,314	-51,328	0,083	-0,028
-320,299	-200,000	-0,024	0,092
-319,285	69,110	0,095	0,071
-318,270	800,000	0,020	0,049
-317,256	260,250	0,062	-0,078
-316,241	-84,022	0,176	-0,040
-315,226	17,687	-0,094	-0,054
-314,212	256,600	0,026	0,032
-313,197	-200,000	0,035	-0,137
-312,183	-41,037	-0,144	-0,054
-311,168	800,000	-0,052	0,130
-310,153	-200,000	-0,028	-0,208
-309,139	-200,000	0,004	-0,038
-308,124	-19,463	-0,011	-0,005
-307,110	193,923	0,133	0,146
-306,095	-20,549	0,182	-0,081
-305,080	-200,000	-0,044	0,180
-304,066	-200,000	-0,031	-0,158
-303,051	-112,815	0,078	-0,011
-302,037	464,381	0,087	-0,142
-301,022	-73,753	-0,126	-0,033
-300,008	310,783	0,086	0,117
-298,993	80,785	0,121	0,094
-297,978	-200,000	-0,018	0,060
-296,964	-200,000	-0,000	-0,054
-295,949	27,577	0,058	-0,035
-294,935	800,000	-0,043	-0,131
-293,920	85,925	-0,099	0,079
-292,905	800,000	-0,061	0,136
-291,891	800,000	-0,022	-0,056
-290,876	-17,425	0,102	-0,046
-289,862	85,322	-0,106	0,084
-288,847	-50,089	-0,076	0,026
-287,832	125,260	0,090	0,083
-286,818	132,313	-0,030	-0,028
-285,803	-200,000	-0,010	0,129
-284,789	355,302	0,070	-0,101
-283,774	-180,242	0,188	0,003
-282,759	-200,000	-0,015	0,113
-281,745	568,982	0,047	0,084
-280,730	-200,000	-0,005	-0,118
-279,716	456,714	-0,038	0,061
-278,701	-69,923	0,101	-0,028
-277,686	48,457	-0,063	0,043
-276,672	39,341	0,066	0,042
-275,657	515,967	-0,050	-0,086
-274,643	-85,459	0,084	-0,019
-273,628	-132,168	0,057	0,005
-272,613	-143,945	0,174	-0,012
-271,599	800,000	-0,032	0,069
-270,584	-200,000	-0,034	0,121
-269,570	-200,000	-0,003	-0,083
-268,555	-200,000	0,019	-0,082
-267,540	307,919	-0,063	-0,086
-266,526	317,846	0,098	-0,135
-265,511	-27,786	-0,074	0,031
-264,497	-200,000	-0,035	-0,122
-263,482	110,396	0,176	0,153
-262,467	162,506	-0,040	-0,041
-261,453	-200,000	0,020	0,065
-260,438	-135,823	0,031	-0,003
-259,424	209,887	-0,035	0,040
-258,409	-14,299	-0,054	-0,025
-257,395	-17,369	0,013	-0,006
-256,380	-34,417	0,100	0,040
-255,365	800,000	-0,068	0,154
-254,351	-84,090	0,140	-0,032
-253,336	-138,446	-0,041	0,003
-252,322	-200,000	0,019	0,141
-251,307	113,715	-0,078	-0,069
-250,292	272,588	-0,069	-0,088
-249,278	27,864	-0,032	0,020
-248,263	-104,249	0,218	-0,036
-247,249	443,356	0,066	0,106
-246,234	124,305	-0,050	0,046
-245,219	3,433	-0,067	-0,035
-244,205	-8,052	-0,067	-0,033
-243,190	421,867	-0,065	-0,101
-242,176	511,992	0,055	0,093
-241,161	-6,431	0,072	0,035
-240,146	601,667	-0,016	-0,029
-239,132	79,327	0,052	0,040
-238,117	255,637	0,019	0,023
-237,103	-62,605	-0,119	-0,035
-236,088	-94,189	-0,165	0,032
-235,073	138,916	0,079	0,075
-234,059	-108,660	0,144	-0,022
-233,044	-28,827	0,057	0,024
-232,030	210,074	0,112	0,127
-231,015	666,206	0,050	0,094
-230,000	-200,000	0,051	-0,197
-228,986	-88,065	-0,095	-0,020
-227,971	-200,000	-0,002	-0,038
-226,957	-1,941	0,088	0,044
-225,942	-200,000	0,004	0,070
-224,927	410,112	-0,073	-0,112
-223,913	-200,000	-0,014	0,053
-222,898	106,877	-0,102	-0,088
-221,884	-55,640	-0,107	-0,034
-220,869	-200,000	-0,007	0,057
-219,855	279,047	0,040	0,052
-218,840	240,977	0,078	0,094
-217,825	-200,000	0,013	-0,091
-216,811	640,499	0,039	-0,072
-215,796	800,000	0,049	-0,106
-214,782	-200,000	0,002	0,048
-213,767	-200,000	-0,009	-0,077
-212,752	270,752	0,088	0,111
-211,738	-50,479	0,135	-0,046
-210,723	384,775	-0,053	-0,080
-209,709	39,879	0,041	0,026
-208,694	800,000	0,036	0,094
-207,679	800,000	-0,025	0,067
-206,665	-122,350	-0,075	-0,009
-205,650	108,237	0,022	0,019
-204,636	241,568	-0,067	-0,081
-203,621	-63,291	-0,036	0,011
-202,606	161,054	0,055	-0,056
-201,592	-112,756	-0,175	-0,025
-200,577	222,381	0,077	-0,090
-199,563	15,046	0,150	0,084
-198,548	800,000	-0,035	0,079
-197,533	-200,000	0,013	0,144
-196,519	800,000	-0,014	0,032
-195,504	-200,000	-0,009	0,094
-194,490	-128,281	-0,108	0,011
-193,475	-122,796	0,125	-0,014
-192,460	-130,018	0,012	0,001
-191,446	-38,887	0,077	0,029
-190,431	506,192	-0,099	0,166
-189,417	-124,052	-0,019	0,002
-188,402	-200,000	-0,012	0,056
-187,387	800,000	0,017	0,049
-186,373	138,797	-0,065	0,062
-185,358	-200,000	-0,002	0,038
-184,344	-25,666	0,077	-0,033
-183,329	-105,383	0,045	-0,007
-182,315	236,796	-0,071	-0,085
-181,300	800,000	-0,025	0,061
-180,285	53,519	-0,063	0,043
-179,271	700,647	-0,057	-0,109
-178,256	-200,000	-0,004	-0,024
-177,242	-200,000	0,005	0,062
-176,227	648,754	0,059	0,108
-175,212	163,488	-0,117	-0,119
-174,198	-200,000	0,006	0,089
-173,183	-200,000	-0,028	0,186
-172,169	-69,098	-0,057	-0,016
-171,154	800,000	-0,025	-0,071
-170,139	-200,000	-0,018	0,059
-169,125	743,671	0,059	-0,115
-168,110	451,357	-0,051	0,081
-167,096	66,445	0,099	0,073
-166,081	-133,313	-0,058	-0,005
-165,066	112,376	-0,110	-0,096
-164,052	800,000	-0,029	0,073
-163,037	-136,524	0,196	0,016
-162,023	146,443	0,090	0,087
-161,008	-200,000	0,046	0,208
-159,993	-131,029	0,057	-0,005
-158,979	354,053	0,024	-0,035
-157,964	-162,535	0,120	0,004
-156,950	-200,000	0,005	0,071
-155,935	-96,992	-0,036	0,007
-154,920	645,057	-0,079	0,147
-153,906	8,974	-0,058	0,032
-152,891	127,376	-0,083	0,076
-151,877	43,560	-0,103	0,067
-150,862	-88,689	-0,017	0,004
-149,847	-8,473	-0,069	-0,033
-148,833	-200,000	0,020	0,212
-147,818	-200,000	0,035	0,139
-146,804	46,399	-0,087	0,058
-145,789	-119,171	-0,112	0,014
-144,775	49,822	-0,055	0,037
-143,760	-200,000	0,019	0,073
-142,745	-133,259	-0,046	-0,004
-141,731	-167,207	-0,099	-0,003
-140,716	-184,588	0,058	-0,001
-139,702	265,762	-0,051	0,064
-138,687	-200,000	0,016	-0,063
-137,672	-197,292	0,055	-0,000
-136,658	9,556	0,023	-0,013
-135,643	-158,484	-0,034	0,001
-134,629	-200,000	0,005	-0,017
-133,614	-112,119	0,116	-0,017
-132,599	-200,000	0,006	0,069
-131,585	-200,000	0,005	-0,122
-130,570	534,793	0,063	0,108
-129,556	-53,633	-0,109	-0,036
-128,541	471,868	0,057	-0,092
-127,526	125,864	-0,151	-0,137
-126,512	-200,000	-0,019	0,071
-125,497	800,000	0,031	0,073
-124,483	-151,954	-0,115	-0,006
-123,468	136,878	0,040	-0,038
-122,453	-129,170	0,059	0,006
-121,439	1,470	-0,079	-0,041
-120,424	-200,000	-0,013	0,044
