DTS Sentinel unit serial number:	SN410029Multiplexer serial number:	ORYXHardware model number:	OX2-SRSoftware version number:	ORYX F/W v4,00 Oryx Data Collector v3.7.2.0data status	okinstallation	B5 Nyhavnadifferential loss correction	single-endedforward channel	channel 2reverse channel	N/Adate	2023/12/14time	18:37:13forward acquisition time	300,00reverse acquisition time	0,00gamma	499,1914k internal	0,3156k external	0,3156temperature offset calibration	1,0000default loss term (dB/km)	0,3820temperature slope calibration	1,0000multiplexer offset coefficient	1,0000multiplexer slope coefficient	1,0000fibre end	0,00T internal ref (°C)	8,54T ext. ref 1 (°C)	-6,57T ext. ref 2 (°C)	-6,64length (m)	temperature (°C)	Stokes	anti-Stokes-744,400	-167,577	0,214	0,006
-743,385	15,420	-0,376	-0,217
-742,371	10,802	0,090	0,051
-741,356	-99,392	-0,319	-0,059
-740,342	-55,241	0,207	-0,068
-739,327	-166,172	-0,326	-0,010
-738,312	-18,712	0,115	0,053
-737,298	-132,330	-0,390	-0,037
-736,283	412,317	0,131	0,206
-735,269	-98,146	-0,234	0,044
-734,254	258,602	0,072	0,092
-733,239	10,866	-0,513	-0,288
-732,225	-81,698	0,266	0,064
-731,210	-200,000	-0,005	0,034
-730,196	196,567	-0,029	-0,033
-729,181	397,071	-0,090	-0,139
-728,167	10,817	-0,055	0,031
-727,152	220,594	-0,032	0,038
-726,137	308,421	-0,052	0,072
-725,123	0,269	0,139	-0,073
-724,108	505,016	-0,046	0,079
-723,094	86,710	-0,024	-0,019
-722,079	19,252	-0,059	-0,035
-721,064	-200,000	-0,009	0,175
-720,050	109,536	0,088	0,077
-719,035	52,789	-0,083	0,058
-718,021	-12,245	0,014	-0,006
-717,006	-5,408	-0,083	0,042
-715,991	-54,227	-0,051	-0,017
-714,977	-200,000	0,008	-0,176
-713,962	800,000	-0,062	-0,167
-712,948	800,000	0,035	0,073
-711,933	-42,283	-0,125	0,047
-710,918	-200,000	-0,000	0,098
-709,904	232,743	-0,047	-0,057
-708,889	-162,222	-0,109	0,004
-707,875	174,163	0,043	-0,046
-706,860	555,661	0,038	-0,068
-705,845	522,762	0,071	0,124
-704,831	224,828	0,011	0,013
-703,816	-200,000	0,006	0,039
-702,802	-57,470	0,030	-0,010
-701,787	-65,305	-0,066	-0,019
-700,772	-200,000	0,022	-0,108
-699,758	122,399	-0,042	-0,039
-698,743	-200,000	-0,008	0,043
-697,729	168,655	0,032	-0,034
-696,714	165,514	0,028	-0,029
-695,699	-39,345	-0,053	0,020
-694,685	578,537	0,052	0,094
-693,670	-168,468	0,114	-0,003
-692,656	-200,000	-0,020	0,076
-691,641	643,060	-0,086	0,161
-690,627	191,112	-0,046	0,051
-689,612	800,000	0,028	0,079
-688,597	-13,453	-0,069	0,033
-687,583	-115,586	0,047	-0,006
-686,568	-113,743	0,113	0,016
-685,554	800,000	0,040	-0,105
-684,539	-200,000	-0,011	-0,095
-683,524	-200,000	0,034	0,142
-682,510	-131,994	0,044	0,004
-681,495	176,253	-0,091	-0,098
-680,481	132,618	-0,040	0,038
-679,466	318,258	-0,075	-0,105
-678,451	-200,000	-0,039	-0,141
-677,437	596,724	-0,011	0,021
-676,422	-200,000	0,010	-0,099
-675,408	-200,000	-0,036	-0,129
-674,393	-16,381	-0,091	0,042
-673,378	270,304	-0,057	-0,074
-672,364	-131,321	-0,068	-0,007
-671,349	-4,408	0,110	-0,056
-670,335	151,880	-0,066	-0,066
-669,320	-200,000	0,004	0,084
-668,305	-46,673	0,079	-0,028
-667,291	48,104	-0,078	0,053
-666,276	-112,768	-0,056	0,008
-665,262	306,975	-0,035	0,048
-664,247	-3,112	0,059	0,030
-663,232	170,064	0,037	0,039
-662,218	40,874	0,080	-0,053
-661,203	-69,720	-0,094	0,026
-660,189	-58,833	-0,130	0,041
-659,174	574,823	-0,060	-0,108
-658,159	102,317	-0,096	-0,082
-657,145	800,000	0,017	0,054
-656,130	-32,400	-0,037	-0,015
-655,116	-200,000	0,009	0,062
-654,101	-200,000	0,018	-0,124
-653,086	-122,858	-0,114	0,013
-652,072	800,000	0,059	0,159
-651,057	-200,000	0,001	-0,173
-650,043	95,840	0,065	-0,055
-649,028	158,310	-0,074	0,076
-648,014	-200,000	-0,019	0,078
-646,999	335,259	-0,065	-0,093
-645,984	78,441	0,118	-0,092
-644,970	-14,083	-0,027	-0,013
-643,955	-200,000	0,004	-0,046
-642,941	579,745	-0,032	-0,059
-641,926	-25,591	-0,042	0,018
-640,911	-56,345	0,032	-0,010
-639,897	-32,821	0,108	0,044
-638,882	800,000	0,056	0,163
-637,868	125,613	-0,101	0,094
-636,853	43,070	0,154	-0,103
-635,838	800,000	0,011	0,030
-634,824	-116,376	-0,012	-0,002
-633,809	-120,081	-0,117	0,015
-632,795	61,187	-0,098	0,071
-631,780	-57,091	-0,031	0,010
-630,765	-58,060	-0,149	-0,048
-629,751	800,000	0,034	-0,073
-628,736	48,867	-0,067	-0,046
-627,722	800,000	-0,026	-0,062
-626,707	38,022	0,132	0,086
-625,692	-100,736	0,138	-0,025
-624,678	-200,000	-0,045	0,163
-623,663	800,000	-0,033	-0,077
-622,649	-200,000	-0,029	-0,121
-621,634	-200,000	0,008	-0,113
-620,619	179,536	-0,041	0,044
-619,605	800,000	0,043	-0,093
-618,590	800,000	0,034	0,099
-617,576	-63,289	-0,074	0,022
-616,561	-200,000	-0,013	0,044
-615,546	92,504	-0,036	-0,030
-614,532	-200,000	0,004	-0,058
-613,517	-200,000	-0,010	-0,106
-612,503	-35,370	0,087	-0,035
-611,488	139,298	0,070	0,068
-610,474	-55,276	0,052	0,017
-609,459	171,561	0,119	0,125
-608,444	101,889	-0,090	-0,077
-607,430	-0,466	-0,071	0,037
-606,415	-200,000	-0,014	-0,051
-605,401	-89,451	0,172	-0,037
-604,386	-200,000	0,001	0,096
-603,371	-200,000	0,050	0,195
-602,357	734,089	0,032	-0,064
-601,342	-102,276	-0,133	0,023
-600,328	-2,864	0,055	-0,028
-599,313	7,930	0,064	-0,035
-598,298	-119,200	0,083	-0,010
-597,284	95,039	0,036	0,030
-596,269	256,463	-0,059	0,075
-595,255	309,604	-0,020	-0,027
-594,240	179,492	0,055	-0,059
-593,225	113,120	-0,087	-0,077
-592,211	-15,464	0,060	-0,028
-591,196	-45,602	-0,131	0,047
-590,182	-200,000	-0,016	0,084
-589,167	-30,385	0,099	0,041
-588,152	430,848	0,145	0,232
-587,138	-11,972	-0,149	0,071
-586,123	-200,000	-0,018	-0,115
-585,109	-200,000	0,019	-0,078
-584,094	-93,086	-0,102	-0,021
-583,079	391,270	-0,036	-0,055
-582,065	55,896	0,085	-0,060
-581,050	183,646	-0,062	-0,068
-580,036	-105,787	0,055	0,009
-579,021	132,067	-0,038	-0,036
-578,006	-194,663	-0,115	0,001
-576,992	-28,774	-0,132	-0,055
-575,977	254,371	0,071	-0,090
-574,963	-70,985	0,191	-0,052
-573,948	-33,092	-0,067	0,027
-572,934	588,868	0,087	-0,158
-571,919	182,064	-0,060	-0,065
-570,904	-100,779	-0,152	-0,027
-569,890	-119,283	-0,027	-0,003
-568,875	-200,000	-0,028	-0,136
-567,861	22,085	0,047	-0,028
-566,846	800,000	0,043	-0,092
-565,831	-200,000	0,009	0,123
-564,817	800,000	-0,069	0,157
-563,802	671,425	0,072	-0,137
-562,788	140,394	-0,082	-0,079
-561,773	337,937	-0,030	-0,043
-560,758	-79,395	-0,035	-0,009
-559,744	7,308	-0,050	0,027
-558,729	111,067	-0,028	-0,025
-557,715	-71,590	-0,081	-0,022
-556,700	-59,305	-0,061	0,019
-555,685	-200,000	0,024	-0,117
-554,671	0,357	-0,114	0,059
-553,656	138,663	0,079	-0,076
-552,642	110,100	-0,063	0,056
-551,627	800,000	0,035	-0,076
-550,612	-200,000	0,013	0,109
-549,598	-200,000	0,009	-0,170
-548,583	-163,419	0,125	0,004
-547,569	-10,746	0,077	0,037
-546,554	-190,455	0,062	0,000
-545,539	-87,006	-0,099	0,022
-544,525	-68,003	0,040	-0,011
-543,510	-200,000	0,030	-0,135
-542,496	800,000	-0,026	-0,055
-541,481	72,697	-0,046	-0,035
-540,466	800,000	-0,058	0,124
-539,452	208,659	0,083	-0,095
-538,437	592,100	-0,016	-0,030
-537,423	178,077	0,060	-0,064
-536,408	149,222	-0,034	-0,034
-535,393	-200,000	0,002	0,061
-534,379	38,612	-0,060	0,039
-533,364	-200,000	0,011	-0,085
-532,350	591,036	0,043	0,078
-531,335	390,987	-0,058	0,088
-530,321	-13,704	-0,018	-0,008
-529,306	105,254	0,109	-0,094
-528,291	-200,000	0,004	-0,059
-527,277	-54,498	-0,134	-0,044
-526,262	-200,000	0,029	-0,157
-525,248	8,693	-0,073	0,040
-524,233	-200,000	0,031	0,156
-523,218	-121,504	-0,056	0,007
-522,204	800,000	0,060	-0,168
-521,189	316,770	0,093	-0,129
-520,175	800,000	-0,023	-0,063
-519,160	-15,899	-0,119	-0,055
-518,145	142,296	0,093	0,091
-517,131	800,000	0,072	0,216
-516,116	-200,000	0,006	0,071
-515,102	-117,017	-0,133	0,018
-514,087	-200,000	-0,010	-0,043
-513,072	800,000	0,033	-0,100
-512,058	98,941	0,053	-0,045
-511,043	-162,527	-0,040	0,001
-510,029	6,103	0,092	0,050
-509,014	-200,000	-0,007	0,103
-507,999	-200,000	-0,010	-0,056
-506,985	182,386	-0,078	-0,084
-505,970	800,000	0,018	-0,048
-504,956	-200,000	0,035	-0,168
-503,941	314,911	-0,045	-0,062
-502,926	307,990	-0,021	0,029
-501,912	-200,000	0,021	0,077
-500,897	-200,000	-0,029	0,095
-499,883	-117,363	0,148	0,019
-498,868	635,418	-0,024	0,044
-497,853	-200,000	0,002	-0,066
-496,839	800,000	-0,039	-0,101
-495,824	-172,855	-0,090	-0,002
-494,810	800,000	0,042	0,134
-493,795	75,691	0,087	-0,067
-492,781	49,296	-0,071	0,049
-491,766	245,195	0,067	-0,083
-490,751	688,770	0,056	-0,108
-489,737	608,143	0,071	0,130
-488,722	-200,000	-0,010	0,067
-487,708	-133,448	0,019	-0,002
-486,693	-200,000	-0,027	0,100
-485,678	-200,000	0,003	0,052
-484,664	-161,279	-0,003	-0,000
-483,649	-200,000	-0,002	0,008
-482,635	-200,000	0,008	-0,028
-481,620	-200,000	-0,005	0,162
-480,605	-85,616	0,085	-0,019
-479,591	-200,000	-0,012	0,058
-478,576	171,625	0,029	-0,030
-477,562	486,955	0,056	-0,094
-476,547	77,624	-0,028	-0,021
-475,532	-200,000	-0,024	-0,137
-474,518	72,297	-0,146	0,111
-473,503	57,656	0,089	-0,064
-472,489	498,387	-0,035	0,058
-471,474	95,816	-0,039	-0,032
-470,459	-65,560	-0,019	-0,005
-469,445	20,264	-0,054	-0,032
-468,430	800,000	0,044	0,100
-467,416	-200,000	-0,005	-0,097
-466,401	282,235	0,076	0,100
-465,386	-89,935	-0,058	-0,012
-464,372	256,183	0,022	0,027
-463,357	-35,828	-0,123	-0,049
-462,343	27,660	0,100	0,062
-461,328	105,379	0,104	-0,089
-460,313	800,000	-0,034	0,079
-459,299	800,000	-0,063	0,144
-458,284	-200,000	-0,019	-0,125
-457,270	800,000	-0,042	0,097
-456,255	-200,000	-0,012	-0,052
-455,241	123,294	-0,053	-0,048
-454,226	265,682	0,064	-0,082
-453,211	-200,000	0,001	0,022
-452,197	800,000	-0,046	0,097
-451,182	-200,000	-0,010	0,040
-450,168	-2,025	0,055	-0,028
-449,153	60,948	-0,047	0,034
-448,138	211,286	0,084	-0,097
-447,124	114,197	-0,062	0,055
-446,109	-81,876	0,035	0,008
-445,095	47,162	0,047	0,032
-444,080	800,000	-0,079	-0,161
-443,065	-91,804	0,128	-0,026
-442,051	-121,891	-0,026	0,003
-441,036	243,711	0,070	-0,086
-440,022	800,000	-0,079	-0,167
-439,007	-128,154	0,078	0,008
-437,992	658,486	0,041	0,077
-436,978	181,376	0,015	-0,016
-435,963	685,175	-0,016	0,030
-434,949	-22,981	0,090	0,040
-433,934	-200,000	0,029	-0,165
-432,919	64,586	-0,131	-0,096
-431,905	769,012	-0,047	0,093
-430,890	-200,000	0,010	0,139
-429,876	59,861	0,177	0,127
-428,861	-200,000	0,030	0,139
-427,846	226,232	-0,081	0,096
-426,832	57,753	-0,031	-0,022
-425,817	800,000	0,009	0,025
-424,803	320,226	0,018	0,025
-423,788	-200,000	-0,031	-0,102
-422,773	-200,000	0,013	0,111
-421,759	-200,000	0,011	0,108
-420,744	115,592	0,024	0,021
-419,730	405,786	-0,037	0,058
-418,715	-33,545	-0,046	-0,018
-417,701	55,328	-0,072	0,051
-416,686	-45,251	0,013	0,005
-415,671	198,461	0,091	0,102
-414,657	-108,516	-0,094	0,015
-413,642	-171,724	-0,069	-0,002
-412,628	800,000	-0,061	-0,140
-411,613	66,083	0,157	0,116
-410,598	800,000	-0,006	0,018
-409,584	13,977	0,114	-0,064
-408,569	358,070	-0,082	0,120
-407,555	-200,000	0,018	0,087
-406,540	-200,000	-0,002	0,088
-405,525	318,854	0,058	-0,080
-404,511	-124,452	0,120	0,013
-403,496	507,910	-0,038	0,064
-402,482	-200,000	0,011	-0,120
-401,467	800,000	-0,006	0,016
-400,452	-200,000	-0,000	0,023
-399,438	184,558	-0,008	-0,009
-398,423	-200,000	0,006	-0,155
-397,409	202,248	-0,026	0,029
-396,394	-72,781	-0,146	-0,039
-395,379	-200,000	-0,009	-0,106
-394,365	168,169	0,079	0,082
-393,350	-75,923	0,066	0,017
-392,336	-200,000	0,011	0,071
-391,321	800,000	-0,061	0,145
-390,306	85,788	0,052	0,041
-389,292	98,980	-0,028	-0,024
-388,277	87,379	0,088	0,071
-387,263	-103,806	-0,008	0,001
-386,248	-132,293	0,058	-0,005
-385,233	122,016	-0,061	0,056
-384,219	-200,000	-0,005	0,038
-383,204	-73,470	-0,131	-0,035
-382,190	-16,670	-0,097	-0,044
-381,175	91,251	0,055	-0,045
-380,160	-200,000	0,013	0,051
-379,146	-200,000	0,010	-0,064
-378,131	13,918	0,064	0,036
-377,117	8,121	-0,088	0,048
-376,102	187,611	-0,075	-0,081
-375,088	-200,000	0,006	0,044
-374,073	20,631	0,125	0,073
-373,058	-3,894	-0,116	0,058
-372,044	800,000	0,036	-0,080
-371,029	-200,000	0,008	0,091
-370,015	148,926	-0,072	0,071
-369,000	49,200	-0,190	0,129
-367,985	364,548	-0,007	0,010
-366,971	322,514	0,073	0,101
-365,956	-145,584	-0,072	-0,005
-364,942	800,000	0,026	-0,074
-363,927	15,512	-0,067	0,038
-362,912	188,877	-0,025	0,028
-361,898	800,000	-0,023	-0,074
-360,883	158,786	-0,127	-0,129
-359,869	-181,578	0,145	0,002
-358,854	337,056	0,064	-0,091
-357,839	-200,000	-0,020	0,136
-356,825	-200,000	0,023	0,156
-355,810	-132,350	-0,081	0,008
-354,796	-93,252	0,089	-0,018
-353,781	-71,658	-0,075	0,020
-352,766	383,535	0,069	0,103
-351,752	-3,595	0,021	0,011
-350,737	201,078	-0,059	0,066
-349,723	800,000	0,026	0,075
-348,708	-200,000	0,005	-0,019
-347,693	-200,000	-0,002	0,125
-346,679	510,809	-0,049	0,084
-345,664	-165,887	-0,097	-0,003
-344,650	-200,000	0,029	-0,125
-343,635	9,023	0,124	0,068
-342,620	-200,000	-0,010	0,044
-341,606	-98,208	0,049	0,009
-340,591	800,000	-0,030	0,081
-339,577	-200,000	0,035	-0,127
-338,562	800,000	-0,027	0,070
-337,548	87,273	0,028	-0,022
-336,533	-200,000	0,001	-0,051
-335,518	800,000	-0,041	-0,094
-334,504	-100,458	0,092	-0,016
-333,489	-200,000	-0,001	-0,023
-332,475	553,540	0,044	0,076
-331,460	-200,000	-0,018	-0,081
-330,445	-200,000	0,003	-0,161
-329,431	173,123	0,050	0,052
-328,416	23,554	0,056	-0,033
-327,402	-200,000	-0,017	0,167
-326,387	-200,000	0,004	0,021
-325,372	366,326	0,037	-0,054
-324,358	-83,939	-0,070	0,016
-323,343	800,000	-0,024	0,069
-322,329	-56,834	0,066	-0,021
-321,314	2,508	-0,126	0,066
-320,299	800,000	-0,023	0,059
-319,285	-200,000	0,011	0,089
-318,270	-200,000	-0,030	0,101
-317,256	-33,495	-0,068	-0,027
-316,241	-200,000	0,002	-0,218
-315,226	800,000	-0,011	-0,037
-314,212	258,051	-0,098	-0,122
-313,197	218,270	-0,066	-0,077
-312,183	-37,267	0,070	-0,027
-311,168	13,455	0,098	-0,055
-310,153	-120,319	0,132	-0,016
-309,139	18,452	-0,054	-0,031
-308,124	-200,000	-0,006	-0,037
-307,110	-200,000	-0,003	-0,031
-306,095	-200,000	0,014	0,054
-305,080	-55,209	0,043	-0,014
-304,066	-23,907	-0,041	-0,018
-303,051	800,000	-0,056	0,128
-302,037	518,815	0,010	0,017
-301,022	31,536	-0,079	-0,049
-300,008	47,033	0,032	0,021
-298,993	-200,000	0,027	0,096
-297,978	800,000	0,074	-0,168
-296,964	-46,758	-0,035	-0,012
-295,949	-146,264	-0,041	-0,003
-294,935	33,883	-0,076	-0,048
-293,920	-200,000	0,002	0,210
-292,905	800,000	0,037	0,086
-291,891	144,182	0,057	0,055
-290,876	-200,000	0,007	-0,046
-289,862	304,358	0,005	-0,007
-288,847	800,000	-0,050	-0,154
-287,832	800,000	0,064	-0,189
-286,818	24,162	0,107	0,064
-285,803	-79,184	0,152	-0,037
-284,789	-143,511	0,075	-0,005
-283,774	-34,718	-0,007	-0,003
-282,759	547,827	-0,057	0,099
-281,745	800,000	0,063	-0,134
-280,730	800,000	0,073	-0,214
-279,716	354,580	0,029	-0,042
-278,701	800,000	0,016	0,042
-277,686	800,000	0,023	0,051
-276,672	130,793	0,052	0,049
-275,657	1,045	-0,042	0,022
-274,643	21,831	0,101	0,059
-273,628	-31,268	0,117	0,048
-272,613	-200,000	-0,009	-0,141
-271,599	-6,768	-0,119	0,058
-270,584	10,915	-0,065	0,036
-269,570	-53,308	0,110	-0,036
-268,555	45,008	-0,092	-0,062
-267,540	-200,000	-0,005	0,028
-266,526	-200,000	-0,007	-0,110
-265,511	-169,871	0,051	0,001
-264,497	57,230	0,022	0,016
-263,482	102,118	0,051	0,043
-262,467	400,336	-0,065	0,098
-261,453	-77,345	-0,013	0,003
-260,438	-200,000	0,016	-0,065
-259,424	122,296	-0,075	-0,067
-258,409	49,413	-0,043	-0,029
-257,395	39,678	-0,034	-0,022
-256,380	-200,000	0,020	0,073
-255,365	-200,000	-0,021	0,094
-254,351	800,000	0,045	0,142
-253,336	800,000	0,030	-0,076
-252,322	-87,561	-0,132	-0,029
-251,307	552,433	0,031	0,053
-250,292	-101,536	0,186	0,032
-249,278	718,622	-0,038	-0,073
-248,263	204,838	0,129	-0,146
-247,249	800,000	0,054	-0,116
-246,234	123,184	-0,058	-0,052
-245,219	180,476	0,076	-0,080
-244,205	-200,000	0,009	-0,046
-243,190	-200,000	0,005	0,057
-242,176	40,645	-0,030	0,020
-241,161	800,000	0,023	-0,051
-240,146	230,170	0,057	-0,068
-239,132	187,356	0,067	0,073
-238,117	-32,390	-0,161	-0,065
-237,103	787,082	-0,017	-0,034
-236,088	53,912	0,062	0,043
-235,073	589,413	0,027	0,048
-234,059	-200,000	-0,013	0,041
-233,044	-190,125	-0,070	-0,001
-232,030	152,746	0,030	0,030
-231,015	-200,000	-0,005	-0,078
-230,000	16,900	0,046	0,026
-228,986	215,614	0,069	-0,080
-227,971	800,000	-0,039	0,117
-226,957	-44,785	-0,138	0,049
-225,942	800,000	0,028	0,057
-224,927	-200,000	-0,002	0,050
-223,913	-27,849	0,074	-0,031
-222,898	-200,000	-0,006	0,039
-221,884	75,180	-0,102	-0,078
-220,869	-200,000	-0,011	-0,037
-219,855	114,509	-0,069	-0,060
-218,840	-13,902	-0,112	-0,052
-217,825	-200,000	-0,022	-0,073
-216,811	-97,921	-0,068	-0,013
-215,796	712,283	-0,055	-0,105
-214,782	-200,000	0,010	0,065
-213,767	-138,270	-0,038	-0,003
-212,752	-129,371	0,075	0,007
-211,738	250,323	0,049	-0,061
-210,723	4,903	-0,150	0,080
-209,709	-200,000	0,028	0,111
-208,694	-123,719	-0,048	-0,005
-207,679	-200,000	0,038	0,174
-206,665	800,000	0,021	0,059
-205,650	800,000	0,036	-0,099
-204,636	-200,000	-0,004	0,063
-203,621	148,033	0,026	-0,025
-202,606	53,735	0,056	-0,039
-201,592	-112,579	-0,233	0,033
-200,577	800,000	-0,031	-0,090
-199,563	148,868	0,005	0,005
-198,548	208,858	0,054	0,061
-197,533	251,481	-0,014	-0,017
-196,519	173,449	-0,023	0,024
-195,504	-200,000	-0,008	-0,060
-194,490	800,000	0,047	-0,142
-193,475	-23,002	-0,086	-0,037
-192,460	50,776	0,058	0,040
-191,446	88,907	0,096	0,077
-190,431	800,000	0,035	-0,097
-189,417	-200,000	-0,040	0,128
-188,402	-157,573	0,071	0,003
-187,387	313,238	-0,090	0,123
-186,373	90,759	0,157	-0,127
-185,358	-118,629	-0,053	-0,007
-184,344	-155,498	-0,170	0,008
-183,329	-106,475	0,114	0,018
-182,315	95,579	-0,104	0,085
-181,300	-177,177	0,126	-0,002
-180,285	-200,000	-0,014	0,102
-179,271	-137,222	0,038	0,003
-178,256	-200,000	-0,001	-0,063
-177,242	-88,264	0,143	-0,031
-176,227	273,265	-0,025	0,032
-175,212	-100,719	-0,103	0,018
-174,198	-42,566	0,068	-0,025
-173,183	12,690	0,071	-0,040
-172,169	-200,000	-0,017	-0,129
-171,154	153,306	-0,116	0,115
-170,139	175,601	-0,064	-0,067
-169,125	-200,000	-0,025	0,117
-168,110	261,049	-0,038	-0,047
-167,096	209,089	0,064	-0,073
-166,081	87,565	-0,083	-0,067
-165,066	-200,000	-0,007	0,069
-164,052	800,000	0,037	0,104
-163,037	-106,847	-0,174	-0,027
-162,023	17,388	0,081	0,046
-161,008	-107,680	0,097	-0,015
-159,993	662,253	-0,039	0,073
-158,979	-69,681	-0,112	0,031
-157,964	-200,000	0,021	0,203
-156,950	-92,559	0,094	0,019
-155,935	-122,082	-0,039	0,005
-154,920	-3,749	0,191	-0,095
-153,906	399,475	-0,137	0,208
-152,891	773,256	0,047	-0,092
-151,877	360,477	-0,045	-0,065
-150,862	38,481	-0,046	-0,029
-149,847	-64,536	0,045	0,013
-148,833	438,253	0,047	0,074
-147,818	-200,000	-0,004	0,043
-146,804	-9,183	0,023	-0,011
-145,789	800,000	-0,040	0,106
-144,775	-113,634	-0,072	0,010
-143,760	800,000	-0,021	-0,062
-142,745	149,468	-0,036	-0,035
-141,731	-170,599	0,115	0,003
-140,716	-200,000	-0,006	-0,093
-139,702	458,157	0,079	-0,127
-138,687	800,000	-0,049	0,099
-137,672	-17,690	-0,126	0,057
-136,658	-200,000	0,021	-0,070
-135,643	-200,000	0,007	0,023
-134,629	351,401	0,087	-0,125
-133,614	81,167	0,066	0,051
-132,599	-68,979	-0,056	-0,016
-131,585	-39,808	0,054	0,020
-130,570	-200,000	-0,005	-0,054
-129,556	-200,000	0,007	-0,025
-128,541	231,157	-0,057	0,067
-127,526	644,631	-0,034	0,062
-126,512	-24,997	-0,070	0,030
-125,497	800,000	0,041	-0,126
-124,483	800,000	-0,003	-0,007
-123,468	137,904	0,104	0,098
-122,453	-3,180	-0,095	0,048
-121,439	0,291	-0,031	0,016
-120,424	110,921	0,048	-0,041
-119,410	-200,000	0,031	0,205
