DTS Sentinel unit serial number:	SN410029Multiplexer serial number:	ORYXHardware model number:	OX2-SRSoftware version number:	ORYX F/W v4,00 Oryx Data Collector v3.7.2.0data status	okinstallation	B5 Nyhavnadifferential loss correction	single-endedforward channel	channel 2reverse channel	N/Adate	2023/12/14time	16:17:13forward acquisition time	300,00reverse acquisition time	0,00gamma	499,1914k internal	0,3157k external	0,3157temperature offset calibration	1,0000default loss term (dB/km)	0,3820temperature slope calibration	1,0000multiplexer offset coefficient	1,0000multiplexer slope coefficient	1,0000fibre end	0,00T internal ref (°C)	7,95T ext. ref 1 (°C)	-7,64T ext. ref 2 (°C)	-7,67length (m)	temperature (°C)	Stokes	anti-Stokes-744,400	25,432	0,085	-0,052
-743,385	-93,328	-0,395	-0,080
-742,371	-44,339	0,224	0,082
-741,356	-101,045	-0,417	-0,075
-740,342	722,606	0,115	0,227
-739,327	-56,994	-0,414	-0,134
-738,312	-200,000	0,012	-0,062
-737,298	-97,885	-0,317	-0,060
-736,283	47,098	0,131	0,090
-735,269	-61,534	-0,276	-0,085
-734,254	-27,084	0,163	0,070
-733,239	39,881	-0,439	-0,290
-732,225	193,482	0,206	0,230
-731,210	746,944	-0,063	0,125
-730,196	-53,518	-0,148	0,050
-729,181	187,515	0,020	-0,022
-728,167	-44,554	-0,061	-0,022
-727,152	636,785	0,005	0,010
-726,137	-176,810	-0,101	0,002
-725,123	109,155	-0,048	0,042
-724,108	-200,000	-0,042	-0,162
-723,094	322,478	-0,082	-0,116
-722,079	800,000	-0,084	-0,204
-721,064	-200,000	-0,000	-0,015
-720,050	-200,000	0,017	0,091
-719,035	-52,466	0,089	0,030
-718,021	49,693	-0,010	0,007
-717,006	-66,635	-0,098	-0,029
-715,991	-94,955	-0,119	-0,023
-714,977	-106,434	-0,088	0,014
-713,962	-200,000	-0,014	-0,120
-712,948	39,722	0,039	-0,026
-711,933	800,000	-0,037	0,095
-710,918	-200,000	0,019	-0,104
-709,904	5,349	-0,114	-0,062
-708,889	-200,000	-0,017	-0,058
-707,875	-153,738	-0,072	-0,004
-706,860	499,217	0,050	-0,084
-705,845	-34,037	0,123	0,050
-704,831	295,392	-0,057	-0,078
-703,816	-200,000	0,012	-0,065
-702,802	91,843	-0,070	-0,058
-701,787	5,005	0,139	-0,075
-700,772	-69,658	0,080	-0,022
-699,758	800,000	-0,042	-0,102
-698,743	8,018	0,049	-0,027
-697,729	12,127	-0,017	-0,010
-696,714	141,959	0,048	-0,047
-695,699	800,000	0,032	-0,079
-694,685	-122,826	0,092	0,011
-693,670	312,557	-0,032	-0,045
-692,656	479,559	0,011	0,019
-691,641	-200,000	-0,018	-0,177
-690,627	-53,413	0,132	0,044
-689,612	-200,000	-0,003	-0,096
-688,597	-200,000	-0,026	0,104
-687,583	-72,464	-0,120	-0,032
-686,568	-79,991	-0,201	0,049
-685,554	195,636	0,033	0,037
-684,539	392,088	0,075	-0,114
-683,524	103,501	0,040	0,034
-682,510	800,000	-0,016	-0,036
-681,495	-71,409	-0,050	-0,014
-680,481	-200,000	0,018	0,062
-679,466	800,000	-0,105	-0,249
-678,451	-138,891	-0,130	-0,010
-677,437	800,000	0,016	-0,041
-676,422	-200,000	-0,001	0,013
-675,408	267,170	0,017	-0,022
-674,393	-181,003	-0,090	0,001
-673,378	38,219	-0,106	-0,069
-672,364	544,542	0,040	-0,071
-671,349	200,625	-0,040	0,045
-670,335	-33,116	0,166	0,067
-669,320	36,664	-0,077	0,050
-668,305	-176,637	0,094	-0,002
-667,291	71,706	0,041	-0,031
-666,276	-60,341	-0,111	-0,035
-665,262	-97,818	0,072	0,014
-664,247	-125,228	0,069	-0,008
-663,232	800,000	-0,022	0,059
-662,218	76,964	-0,079	-0,062
-661,203	210,121	-0,027	-0,032
-660,189	800,000	0,049	0,112
-659,174	73,777	-0,108	-0,083
-658,159	800,000	-0,022	-0,061
-657,145	-164,579	-0,192	0,006
-656,130	800,000	-0,045	0,124
-655,116	-177,625	0,117	-0,002
-654,101	26,887	0,054	-0,033
-653,086	101,650	0,057	0,049
-652,072	11,118	-0,028	0,016
-651,057	53,308	0,091	-0,064
-650,043	183,075	-0,126	0,137
-649,028	-200,000	0,000	-0,048
-648,014	-55,267	0,039	0,013
-646,999	-200,000	0,011	-0,053
-645,984	800,000	-0,053	0,111
-644,970	-81,272	-0,076	-0,018
-643,955	-18,280	0,108	-0,050
-642,941	-200,000	-0,039	-0,157
-641,926	-67,300	-0,074	0,021
-640,911	-116,152	-0,060	0,008
-639,897	-200,000	-0,005	-0,081
-638,882	93,764	0,058	-0,048
-637,868	-129,386	-0,050	0,005
-636,853	442,185	0,044	-0,071
-635,838	7,696	-0,124	-0,068
-634,824	800,000	0,056	-0,137
-633,809	128,329	0,046	0,043
-632,795	-200,000	-0,012	0,101
-631,780	800,000	-0,068	0,165
-630,765	-40,028	0,048	0,018
-629,751	-73,143	-0,158	-0,042
-628,736	220,314	-0,070	0,082
-627,722	761,022	0,065	-0,131
-626,707	480,077	0,052	0,088
-625,692	267,689	-0,043	0,056
-624,678	-72,132	0,143	0,039
-623,663	-200,000	0,013	-0,102
-622,649	-32,083	-0,015	-0,006
-621,634	602,473	0,054	-0,099
-620,619	-48,637	0,051	0,018
-619,605	-200,000	0,029	-0,120
-618,590	101,753	0,055	-0,047
-617,576	10,732	0,135	0,075
-616,561	1,193	-0,109	0,057
-615,546	660,441	-0,023	-0,044
-614,532	28,749	-0,092	-0,057
-613,517	12,900	-0,031	-0,017
-612,503	87,165	0,102	-0,083
-611,488	676,721	-0,009	0,017
-610,474	59,654	0,104	0,075
-609,459	-85,808	-0,054	0,012
-608,444	-132,002	0,098	-0,009
-607,430	-93,698	-0,108	-0,022
-606,415	-200,000	-0,031	-0,125
-605,401	800,000	-0,041	0,098
-604,386	-134,290	0,061	-0,005
-603,371	-97,647	0,053	0,010
-602,357	146,936	0,005	-0,005
-601,342	410,694	0,018	-0,029
-600,328	-200,000	0,007	0,090
-599,313	-165,172	0,037	0,001
-598,298	23,709	-0,094	-0,056
-597,284	-134,032	0,111	0,010
-596,269	707,969	-0,066	0,128
-595,255	-87,808	-0,117	-0,026
-594,240	499,376	-0,043	-0,074
-593,225	-200,000	0,045	-0,161
-592,211	-176,471	-0,035	-0,001
-591,196	-200,000	0,016	0,076
-590,182	625,208	-0,038	0,071
-589,167	186,428	0,050	-0,054
-588,152	151,072	-0,107	0,107
-587,138	-37,639	-0,021	0,008
-586,123	-128,907	0,146	-0,015
-585,109	-200,000	0,000	0,036
-584,094	119,256	-0,062	-0,056
-583,079	800,000	0,029	-0,075
-582,065	-86,846	0,188	0,042
-581,050	-110,488	-0,039	-0,006
-580,036	-48,818	-0,103	-0,036
-579,021	652,246	0,035	0,066
-578,006	-200,000	-0,051	-0,176
-576,992	363,983	0,062	0,091
-575,977	-111,550	-0,139	0,020
-574,963	226,143	-0,037	0,044
-573,948	104,612	-0,063	-0,055
-572,934	-200,000	-0,002	-0,097
-571,919	188,750	-0,115	-0,126
-570,904	22,232	0,048	-0,029
-569,890	-200,000	-0,014	-0,223
-568,875	-87,347	0,147	0,032
-567,861	-48,008	-0,094	-0,033
-566,846	279,389	-0,055	-0,072
-565,831	-200,000	0,003	0,076
-564,817	-9,040	-0,049	0,024
-563,802	94,271	-0,115	-0,095
-562,788	-0,048	0,133	0,069
-561,773	100,863	-0,078	0,066
-560,758	374,636	0,084	0,126
-559,744	105,976	-0,042	0,036
-558,729	62,995	-0,057	0,041
-557,715	-68,060	-0,110	0,031
-556,700	-36,341	0,023	-0,009
-555,685	800,000	-0,004	-0,011
-554,671	-136,376	0,118	0,010
-553,656	494,558	0,073	0,123
-552,642	-75,704	-0,095	-0,025
-551,627	-135,452	-0,110	-0,009
-550,612	-200,000	-0,022	0,149
-549,598	122,852	-0,125	-0,115
-548,583	800,000	0,017	-0,039
-547,569	-104,825	-0,079	-0,013
-546,554	-200,000	0,018	0,068
-545,539	-200,000	0,008	0,070
-544,525	-159,364	0,107	0,004
-543,510	55,624	-0,151	-0,107
-542,496	800,000	0,086	-0,184
-541,481	-200,000	-0,011	-0,080
-540,466	-200,000	0,020	-0,078
-539,452	12,115	0,027	0,015
-538,437	271,849	-0,057	0,074
-537,423	340,657	-0,081	0,116
-536,408	-109,639	-0,101	0,015
-535,393	382,500	0,114	-0,173
-534,379	800,000	0,065	-0,180
-533,364	800,000	0,032	-0,103
-532,350	800,000	-0,060	-0,146
-531,335	-129,555	0,119	0,012
-530,321	331,358	-0,043	0,061
-529,306	-158,296	-0,057	-0,002
-528,291	-99,939	-0,107	-0,019
-527,277	-67,197	-0,101	-0,029
-526,262	-70,082	0,113	0,031
-525,248	174,883	0,076	0,080
-524,233	80,186	-0,073	-0,057
-523,218	32,971	0,064	-0,040
-522,204	800,000	0,042	0,131
-521,189	-200,000	-0,026	0,110
-520,175	-134,912	0,056	-0,005
-519,160	-200,000	-0,004	-0,071
-518,145	-79,218	0,099	0,024
-517,131	303,932	-0,043	-0,058
-516,116	-200,000	0,027	0,092
-515,102	800,000	-0,030	-0,068
-514,087	6,251	0,100	0,054
-513,072	800,000	0,054	-0,117
-512,058	-200,000	0,002	0,067
-511,043	800,000	-0,016	-0,048
-510,029	-200,000	0,003	0,110
-509,014	800,000	0,040	-0,087
-507,999	-200,000	-0,003	0,097
-506,985	406,252	-0,083	0,129
-505,970	-200,000	0,030	-0,117
-504,956	-85,521	-0,080	0,018
-503,941	-90,134	-0,171	-0,036
-502,926	131,101	0,064	-0,060
-501,912	-188,351	-0,060	0,001
-500,897	-41,718	-0,047	-0,018
-499,883	38,688	-0,116	-0,075
-498,868	-66,664	-0,086	-0,025
-497,853	-200,000	-0,009	-0,103
-496,839	165,863	-0,068	-0,070
-495,824	-105,025	-0,084	-0,014
-494,810	-140,363	0,108	-0,008
-493,795	-200,000	0,001	-0,006
-492,781	-200,000	0,000	-0,029
-491,766	-102,140	-0,042	0,007
-490,751	-200,000	-0,026	-0,101
-489,737	-44,553	-0,072	-0,026
-488,722	-200,000	0,000	0,146
-487,708	800,000	0,013	0,041
-486,693	-200,000	-0,008	0,091
-485,678	-200,000	0,005	-0,065
-484,664	-98,279	0,027	-0,005
-483,649	-200,000	0,016	0,089
-482,635	-92,301	-0,073	-0,015
-481,620	-20,553	0,008	-0,003
-480,605	-200,000	0,002	0,010
-479,591	69,372	0,029	0,022
-478,576	17,633	-0,051	0,030
-477,562	-129,860	-0,183	0,018
-476,547	-21,648	0,038	0,017
-475,532	-138,475	-0,094	0,007
-474,518	-200,000	-0,033	-0,122
-473,503	267,726	0,049	0,062
-472,489	122,942	-0,144	0,132
-471,474	163,138	-0,031	0,032
-470,459	-78,681	0,112	0,028
-469,445	-65,198	0,099	0,029
-468,430	-200,000	-0,006	-0,031
-467,416	41,770	0,103	0,068
-466,401	-22,231	0,135	0,059
-465,386	425,055	0,045	-0,071
-464,372	-5,547	0,065	-0,032
-463,357	-66,221	0,058	0,017
-462,343	-90,427	-0,126	0,026
-461,328	142,923	0,020	0,019
-460,313	309,497	-0,099	0,135
-459,299	322,996	0,052	-0,072
-458,284	-34,547	0,153	0,061
-457,270	11,009	0,076	-0,042
-456,255	-200,000	0,015	-0,122
-455,241	-128,373	0,063	0,006
-454,226	290,053	-0,044	-0,058
-453,211	-0,517	-0,169	-0,087
-452,197	800,000	0,055	0,166
-451,182	-34,572	0,143	-0,057
-450,168	-159,513	0,068	-0,003
-449,153	-200,000	-0,017	-0,137
-448,138	115,070	0,040	0,035
-447,124	-109,731	0,145	-0,022
-446,109	3,044	0,040	0,021
-445,095	-200,000	0,037	0,131
-444,080	800,000	-0,043	0,094
-443,065	29,434	-0,060	0,037
-442,051	112,949	0,066	-0,058
-441,036	-129,319	0,009	0,001
-440,022	-78,961	0,009	0,002
-439,007	-200,000	0,002	-0,009
-437,992	43,495	-0,077	0,051
-436,978	-200,000	-0,016	0,092
-435,963	531,884	0,073	-0,125
-434,949	-44,805	-0,089	0,032
-433,934	-200,000	0,006	0,037
-432,919	800,000	0,035	0,111
-431,905	-200,000	-0,007	-0,051
-430,890	72,058	0,164	-0,124
-429,876	99,065	-0,026	-0,022
-428,861	-93,539	0,165	0,033
-427,846	16,304	-0,068	-0,039
-426,832	800,000	0,011	0,028
-425,817	108,555	-0,115	-0,100
-424,803	800,000	-0,013	-0,030
-423,788	155,544	0,048	0,048
-422,773	571,111	-0,033	0,059
-421,759	-200,000	-0,008	0,113
-420,744	-200,000	-0,004	0,119
-419,730	-200,000	0,007	-0,091
-418,715	-64,857	-0,098	0,029
-417,701	-83,744	0,040	0,009
-416,686	800,000	-0,067	-0,141
-415,671	-33,137	0,062	-0,025
-414,657	-19,803	-0,106	0,047
-413,642	548,736	0,093	-0,163
-412,628	-20,573	-0,143	-0,064
-411,613	-200,000	-0,006	-0,041
-410,598	-39,154	0,046	0,017
-409,584	-200,000	0,003	0,134
-408,569	397,213	0,028	0,042
-407,555	-58,323	0,101	0,032
-406,540	-200,000	-0,019	-0,169
-405,525	-98,609	-0,126	0,023
-404,511	41,112	-0,116	-0,076
-403,496	-35,977	0,033	0,013
-402,482	800,000	0,043	0,103
-401,467	-200,000	-0,017	-0,067
-400,452	800,000	0,037	0,090
-399,438	-200,000	-0,000	0,109
-398,423	-78,589	-0,014	0,004
-397,409	-91,220	0,065	0,013
-396,394	-100,883	-0,097	0,017
-395,379	-200,000	0,008	0,061
-394,365	117,819	0,069	0,062
-393,350	725,605	-0,100	0,194
-392,336	-69,329	0,100	0,028
-391,321	62,081	0,046	0,033
-390,306	-8,694	-0,049	-0,024
-389,292	-200,000	-0,028	-0,173
-388,277	-27,103	0,111	-0,047
-387,263	114,416	-0,015	0,013
-386,248	163,824	0,060	-0,062
-385,233	-200,000	0,020	0,106
-384,219	800,000	0,012	0,025
-383,204	175,303	-0,059	0,062
-382,190	-73,363	0,101	-0,027
-381,175	800,000	0,024	0,058
-380,160	-162,625	0,065	0,002
-379,146	800,000	0,029	-0,062
-378,131	-108,194	0,108	-0,017
-377,117	-200,000	0,022	0,106
-376,102	-4,796	0,044	-0,022
-375,088	3,125	0,066	0,035
-374,073	-129,452	-0,119	0,012
-373,058	653,626	0,115	0,216
-372,044	246,676	0,022	0,027
-371,029	-90,794	0,073	-0,015
-370,015	800,000	0,045	-0,124
-369,000	68,308	-0,089	0,067
-367,985	-22,122	-0,028	0,012
-366,971	-19,745	-0,124	-0,055
-365,956	-200,000	0,013	-0,073
-364,942	-157,276	0,140	-0,006
-363,927	800,000	-0,044	0,089
-362,912	149,728	-0,011	-0,011
-361,898	79,567	0,041	0,032
-360,883	-200,000	-0,026	0,101
-359,869	-50,915	-0,028	-0,010
-358,854	179,959	0,095	0,101
-357,839	-200,000	-0,019	0,149
-356,825	800,000	-0,017	-0,036
-355,810	109,595	-0,017	-0,015
-354,796	-200,000	-0,017	-0,106
-353,781	180,644	0,038	0,040
-352,766	99,460	0,039	-0,033
-351,752	126,304	-0,038	-0,035
-350,737	-93,267	-0,133	-0,027
-349,723	-146,365	0,088	-0,006
-348,708	-67,805	-0,088	0,025
-347,693	-25,691	0,070	0,030
-346,679	-200,000	0,025	-0,104
-345,664	328,458	-0,111	-0,155
-344,650	114,772	0,123	0,109
-343,635	496,286	0,052	0,086
-342,620	-12,402	0,083	0,039
-341,606	-200,000	0,023	0,143
-340,591	23,686	-0,177	-0,105
-339,577	98,370	-0,218	-0,182
-338,562	26,768	-0,004	-0,003
-337,548	6,228	0,039	0,021
-336,533	297,322	-0,046	-0,062
-335,518	-41,647	0,068	0,025
-334,504	-200,000	-0,028	-0,108
-333,489	294,440	-0,020	0,026
-332,475	-78,683	-0,154	0,038
-331,460	-200,000	-0,037	-0,159
-330,445	81,235	0,064	-0,050
-329,431	-59,262	0,169	0,053
-328,416	-0,528	0,034	-0,017
-327,402	184,464	0,114	0,123
-326,387	206,089	-0,081	-0,091
-325,372	-91,285	0,044	-0,009
-324,358	-43,976	0,060	-0,022
-323,343	17,125	0,046	0,027
-322,329	207,499	0,107	0,121
-321,314	-178,956	-0,034	-0,001
-320,299	800,000	0,031	-0,085
-319,285	-70,295	-0,113	-0,031
-318,270	22,302	0,017	-0,010
-317,256	354,377	-0,069	-0,100
-316,241	-200,000	-0,003	-0,120
-315,226	311,951	0,067	-0,091
-314,212	-200,000	0,006	0,021
-313,197	-200,000	0,009	0,052
-312,183	545,156	0,053	-0,092
-311,168	-200,000	0,004	-0,029
-310,153	15,703	-0,107	-0,061
-309,139	-108,378	-0,129	0,020
-308,124	125,334	0,100	0,092
-307,110	-200,000	0,004	0,153
-306,095	167,732	0,070	0,073
-305,080	191,376	0,154	0,169
-304,066	20,551	0,027	-0,016
-303,051	556,018	0,027	-0,047
-302,037	-200,000	0,018	0,063
-301,022	418,329	-0,059	0,092
-300,008	159,978	0,024	-0,025
-298,993	350,408	-0,039	0,056
-297,978	-122,363	0,021	0,002
-296,964	96,653	0,023	0,019
-295,949	-200,000	0,023	0,084
-294,935	144,690	-0,019	-0,018
-293,920	-72,787	0,107	0,028
-292,905	292,504	-0,062	0,082
-291,891	384,225	0,064	-0,095
-290,876	-1,843	0,011	-0,005
-289,862	127,404	0,017	0,015
-288,847	800,000	-0,001	0,004
-287,832	288,817	-0,065	-0,085
-286,818	482,837	-0,014	0,023
-285,803	-47,739	0,021	-0,007
-284,789	-121,368	0,138	0,017
-283,774	800,000	-0,033	0,091
-282,759	-110,120	0,064	0,010
-281,745	-131,047	-0,182	-0,017
-280,730	-33,717	-0,049	-0,020
-279,716	290,588	0,052	0,069
-278,701	-36,757	-0,090	0,035
-277,686	-153,838	-0,024	-0,001
-276,672	800,000	0,015	-0,040
-275,657	-22,859	0,081	0,035
-274,643	323,411	0,024	-0,033
-273,628	-200,000	-0,008	-0,072
-272,613	224,029	-0,036	-0,043
-271,599	-200,000	-0,008	0,050
-270,584	-200,000	0,006	0,068
-269,570	-26,382	-0,026	0,011
-268,555	55,941	-0,021	0,015
-267,540	413,597	-0,091	-0,141
-266,526	615,844	-0,011	0,020
-265,511	-63,824	-0,143	-0,042
-264,497	-46,107	0,106	0,038
-263,482	293,449	0,034	0,045
-262,467	800,000	0,017	0,038
-261,453	-200,000	-0,003	0,115
-260,438	-200,000	0,023	0,076
-259,424	183,506	0,042	-0,045
-258,409	249,164	0,023	0,029
-257,395	26,286	-0,094	-0,057
-256,380	800,000	-0,036	0,099
-255,365	-64,476	0,111	0,032
-254,351	-3,550	-0,062	-0,031
-253,336	-200,000	-0,007	0,131
-252,322	800,000	-0,050	-0,107
-251,307	800,000	-0,014	-0,032
-250,292	-80,607	0,057	-0,014
-249,278	-4,103	-0,052	-0,026
-248,263	204,729	0,037	-0,042
-247,249	470,365	0,066	0,108
-246,234	-127,192	-0,136	0,014
-245,219	-200,000	-0,029	-0,111
-244,205	22,054	-0,101	0,059
-243,190	361,378	0,072	-0,105
-242,176	800,000	-0,030	-0,076
-241,161	-200,000	0,029	0,134
-240,146	1,769	-0,096	0,050
-239,132	525,335	-0,010	0,018
-238,117	256,055	0,035	-0,043
-237,103	800,000	0,030	0,090
-236,088	-200,000	0,106	-0,000
-235,073	-200,000	0,007	-0,034
-234,059	800,000	0,033	0,073
-233,044	345,493	0,085	0,121
-232,030	-0,178	-0,148	0,076
-231,015	-200,000	-0,021	-0,101
-230,000	211,806	-0,232	-0,264
-228,986	800,000	0,050	-0,102
-227,971	-182,290	-0,065	0,001
-226,957	800,000	0,021	-0,055
-225,942	-200,000	-0,032	-0,170
-224,927	241,730	0,092	-0,112
-223,913	118,503	-0,077	0,069
-222,898	716,845	-0,073	0,141
-221,884	-200,000	-0,001	-0,031
-220,869	-200,000	0,020	0,088
-219,855	386,826	0,064	-0,095
-218,840	-114,957	0,044	-0,006
-217,825	-118,383	-0,040	0,005
-216,811	42,284	0,044	0,029
-215,796	23,148	-0,161	-0,095
-214,782	-200,000	0,012	-0,041
-213,767	-74,948	0,091	0,023
-212,752	800,000	-0,044	0,101
-211,738	275,936	0,027	0,034
-210,723	-157,100	0,067	-0,003
-209,709	-60,251	0,044	0,013
-208,694	536,674	0,060	-0,103
-207,679	214,393	-0,118	-0,135
-206,665	112,921	0,044	0,039
-205,650	259,134	0,076	0,095
-204,636	505,107	-0,055	0,092
-203,621	-108,964	0,062	0,009
-202,606	-200,000	0,007	-0,031
-201,592	800,000	0,017	-0,053
-200,577	480,481	-0,038	-0,062
-199,563	-86,682	0,084	0,018
-198,548	-200,000	-0,016	0,103
-197,533	-112,164	0,021	-0,003
-196,519	319,287	-0,064	-0,088
-195,504	-171,085	-0,144	0,003
-194,490	13,371	-0,026	0,014
-193,475	800,000	0,034	-0,079
-192,460	146,502	0,091	-0,089
-191,446	-44,966	0,061	-0,022
-190,431	-6,411	0,147	0,072
-189,417	-200,000	0,001	0,097
-188,402	-200,000	0,005	0,032
-187,387	800,000	0,027	-0,074
-186,373	456,401	0,045	-0,072
-185,358	-200,000	0,013	-0,045
-184,344	-200,000	-0,004	-0,064
-183,329	-14,246	0,052	0,024
-182,315	800,000	-0,040	0,084
-181,300	-200,000	-0,001	0,083
-180,285	-200,000	0,013	-0,045
-179,271	-56,205	-0,086	-0,027
-178,256	398,986	-0,052	0,079
-177,242	339,274	-0,019	0,027
-176,227	800,000	0,048	0,139
-175,212	162,432	0,048	0,049
-174,198	-200,000	0,007	0,037
-173,183	-200,000	0,049	-0,211
-172,169	-67,941	-0,056	-0,016
-171,154	-103,445	-0,089	-0,015
-170,139	-98,107	0,072	0,013
-169,125	800,000	0,069	0,190
-168,110	48,603	0,114	0,077
-167,096	800,000	-0,042	-0,090
-166,081	7,040	-0,088	0,047
-165,066	215,194	-0,097	-0,111
-164,052	772,906	0,009	-0,018
-163,037	800,000	-0,025	0,059
-162,023	81,791	0,078	0,061
-161,008	-145,607	-0,153	-0,010
-159,993	-52,982	0,042	0,014
-158,979	-4,031	-0,065	0,033
-157,964	-27,431	-0,086	0,036
-156,950	-122,913	0,096	-0,011
-155,935	179,940	0,090	0,095
-154,920	-200,000	0,011	0,043
-153,906	161,477	-0,032	0,032
-152,891	320,545	0,026	-0,036
-151,877	-146,912	0,096	0,006
-150,862	316,880	0,020	0,028
-149,847	-200,000	0,002	-0,013
-148,833	-4,934	0,094	-0,046
-147,818	-148,657	0,009	-0,001
-146,804	276,994	0,050	0,064
-145,789	-60,383	-0,051	0,016
-144,775	62,036	-0,015	-0,011
-143,760	272,064	-0,062	0,079
-142,745	-200,000	-0,009	0,043
-141,731	82,062	-0,040	0,032
-140,716	-200,000	-0,003	0,116
-139,702	355,287	-0,015	-0,021
-138,687	-66,512	-0,037	0,010
-137,672	-200,000	0,007	-0,128
-136,658	-153,039	-0,104	-0,005
-135,643	800,000	0,034	0,073
-134,629	41,766	-0,083	0,054
-133,614	-83,063	0,127	-0,029
-132,599	402,508	-0,037	0,056
-131,585	262,713	0,050	-0,063
-130,570	800,000	-0,040	-0,090
-129,556	800,000	0,010	-0,027
-128,541	40,298	-0,151	-0,098
-127,526	178,343	0,123	-0,130
-126,512	28,793	-0,037	0,023
-125,497	-200,000	0,014	0,127
-124,483	800,000	-0,065	0,149
-123,468	-51,722	0,091	-0,030
-122,453	247,925	0,061	0,074
-121,439	-200,000	0,002	0,032
-120,424	-60,377	-0,098	0,030
-119,410	26,187	-0,043	0,026
-118,395	-149,928	-0,082	-0,005
