DTS Sentinel unit serial number:	SN410029Multiplexer serial number:	ORYXHardware model number:	OX2-SRSoftware version number:	ORYX F/W v4,00 Oryx Data Collector v3.7.2.0data status	okinstallation	B5 Nyhavnadifferential loss correction	single-endedforward channel	channel 2reverse channel	N/Adate	2023/12/14time	15:12:13forward acquisition time	300,00reverse acquisition time	0,00gamma	499,1914k internal	0,3157k external	0,3157temperature offset calibration	1,0000default loss term (dB/km)	0,3820temperature slope calibration	1,0000multiplexer offset coefficient	1,0000multiplexer slope coefficient	1,0000fibre end	0,00T internal ref (°C)	7,92T ext. ref 1 (°C)	-8,24T ext. ref 2 (°C)	-8,29length (m)	temperature (°C)	Stokes	anti-Stokes-744,400	76,747	0,166	0,130
-743,385	-33,997	-0,258	-0,104
-742,371	800,000	0,074	0,159
-741,356	-97,145	-0,367	-0,070
-740,342	41,355	0,076	0,050
-739,327	-101,366	-0,283	-0,050
-738,312	-27,792	0,045	-0,019
-737,298	-48,815	-0,496	-0,174
-736,283	-171,715	0,083	-0,002
-735,269	-52,299	-0,251	-0,085
-734,254	233,032	0,163	0,198
-733,239	-41,175	-0,518	-0,196
-732,225	-116,306	0,224	0,030
-731,210	-200,000	0,019	0,117
-730,196	260,945	-0,009	-0,011
-729,181	-20,790	-0,140	-0,063
-728,167	-200,000	-0,013	-0,059
-727,152	-11,284	0,057	0,027
-726,137	-116,896	-0,164	0,022
-725,123	-37,690	0,038	0,015
-724,108	-200,000	0,015	-0,093
-723,094	-81,843	-0,177	0,042
-722,079	-200,000	0,035	-0,128
-721,064	-200,000	0,010	-0,080
-720,050	-172,760	-0,114	0,003
-719,035	-37,775	-0,093	-0,036
-718,021	-200,000	-0,050	-0,177
-717,006	381,748	-0,096	-0,146
-715,991	-44,824	-0,165	-0,060
-714,977	-200,000	-0,008	0,027
-713,962	-200,000	-0,002	0,019
-712,948	-73,378	-0,106	0,028
-711,933	-200,000	0,040	-0,153
-710,918	96,559	-0,064	-0,054
-709,904	-190,146	0,086	-0,001
-708,889	-159,945	0,127	0,005
-707,875	-95,425	-0,166	0,032
-706,860	319,420	-0,077	-0,107
-705,845	14,840	0,045	0,026
-704,831	226,890	-0,025	0,030
-703,816	-169,715	-0,068	-0,002
-702,802	-200,000	0,001	0,073
-701,787	188,941	0,064	-0,071
-700,772	-200,000	-0,014	-0,069
-699,758	693,600	-0,071	-0,138
-698,743	163,173	-0,128	0,133
-697,729	11,368	0,084	0,047
-696,714	262,858	-0,085	-0,108
-695,699	131,660	0,064	0,060
-694,685	800,000	0,055	-0,124
-693,670	407,912	-0,057	-0,088
-692,656	139,217	0,103	-0,099
-691,641	256,463	0,038	0,049
-690,627	-200,000	0,006	0,107
-689,612	339,936	-0,109	0,156
-688,597	-179,898	-0,067	0,001
-687,583	-200,000	0,012	-0,102
-686,568	-200,000	-0,012	-0,059
-685,554	-35,222	-0,057	0,023
-684,539	12,679	0,058	-0,033
-683,524	140,003	0,114	0,111
-682,510	-64,417	-0,082	0,024
-681,495	-113,934	-0,051	0,007
-680,481	-193,346	-0,076	-0,000
-679,466	783,038	-0,071	-0,143
-678,451	-200,000	-0,038	0,184
-677,437	214,157	0,048	-0,056
-676,422	-91,828	-0,044	0,009
-675,408	792,207	-0,098	0,199
-674,393	-119,246	0,101	-0,013
-673,378	89,231	0,025	0,020
-672,364	25,884	-0,083	-0,051
-671,349	6,077	-0,046	-0,025
-670,335	-87,112	0,047	0,010
-669,320	-50,226	-0,092	0,032
-668,305	37,631	0,081	-0,053
-667,291	-62,614	-0,023	0,007
-666,276	800,000	-0,065	-0,181
-665,262	-106,848	-0,102	-0,016
-664,247	378,199	-0,020	0,030
-663,232	413,930	0,024	0,037
-662,218	429,247	0,047	-0,074
-661,203	238,497	0,055	0,067
-660,189	-200,000	0,011	0,143
-659,174	252,275	-0,059	-0,073
-658,159	-200,000	-0,021	0,121
-657,145	-180,198	0,088	-0,001
-656,130	124,350	0,020	0,018
-655,116	-84,024	-0,079	0,018
-654,101	489,473	-0,059	0,100
-653,086	-70,838	-0,046	0,013
-652,072	-33,391	-0,027	-0,011
-651,057	-36,342	-0,127	-0,050
-650,043	0,952	-0,054	-0,028
-649,028	800,000	0,028	-0,073
-648,014	-8,235	0,099	0,049
-646,999	180,951	0,056	0,060
-645,984	7,434	-0,092	-0,050
-644,970	800,000	0,092	0,191
-643,955	4,783	-0,088	0,047
-642,941	-95,695	0,050	-0,010
-641,926	-131,563	0,093	-0,009
-640,911	-196,390	-0,126	0,001
-639,897	-24,358	0,074	-0,032
-638,882	84,878	-0,056	0,045
-637,868	-200,000	-0,022	-0,076
-636,853	42,406	-0,040	0,027
-635,838	-200,000	-0,012	0,092
-634,824	290,906	0,024	0,032
-633,809	-2,424	0,050	0,025
-632,795	287,548	0,059	-0,079
-631,780	-200,000	0,006	0,102
-630,765	-200,000	0,011	0,037
-629,751	-200,000	0,008	-0,106
-628,736	800,000	-0,028	-0,088
-627,722	133,349	0,025	0,024
-626,707	-200,000	0,009	0,083
-625,692	-200,000	-0,012	0,063
-624,678	-86,095	0,095	-0,021
-623,663	-115,081	0,070	0,010
-622,649	189,457	-0,065	-0,072
-621,634	87,227	0,031	-0,025
-620,619	-62,168	0,095	-0,029
-619,605	107,382	-0,037	0,032
-618,590	800,000	0,048	0,149
-617,576	-200,000	-0,006	0,037
-616,561	-200,000	-0,007	-0,034
-615,546	140,628	-0,097	-0,094
-614,532	172,791	0,037	0,039
-613,517	35,885	-0,099	-0,064
-612,503	244,691	-0,087	0,107
-611,488	-200,000	-0,039	-0,139
-610,474	-78,915	0,086	-0,021
-609,459	533,905	0,075	0,132
-608,444	800,000	0,010	-0,022
-607,430	-141,625	-0,151	0,011
-606,415	105,992	-0,080	-0,069
-605,401	-24,439	0,108	0,047
-604,386	800,000	0,036	0,113
-603,371	4,920	-0,031	0,016
-602,357	85,882	-0,042	0,034
-601,342	517,814	-0,068	0,117
-600,328	-85,514	-0,187	0,042
-599,313	-200,000	-0,023	-0,135
-598,298	523,172	0,041	-0,070
-597,284	-200,000	-0,031	0,122
-596,269	800,000	-0,069	0,172
-595,255	-0,224	-0,173	0,090
-594,240	800,000	0,058	-0,138
-593,225	540,540	-0,066	-0,116
-592,211	-129,311	-0,289	-0,029
-591,196	-12,604	0,042	0,020
-590,182	246,182	-0,057	0,070
-589,167	664,734	0,095	0,180
-588,152	-46,208	-0,040	-0,014
-587,138	213,321	-0,038	0,044
-586,123	179,555	-0,015	-0,016
-585,109	283,859	-0,076	-0,100
-584,094	418,770	-0,040	-0,064
-583,079	31,468	0,049	-0,031
-582,065	647,857	-0,003	-0,007
-581,050	-68,635	0,104	0,029
-580,036	108,474	-0,038	0,033
-579,021	113,263	0,049	-0,043
-578,006	-24,492	-0,103	-0,045
-576,992	122,390	-0,074	0,068
-575,977	-200,000	0,018	0,140
-574,963	-200,000	0,019	0,129
-573,948	29,321	0,028	-0,017
-572,934	-200,000	-0,019	-0,075
-571,919	473,708	-0,009	0,015
-570,904	161,406	0,039	-0,040
-569,890	136,865	-0,044	0,042
-568,875	12,097	0,056	0,031
-567,861	-27,408	0,027	-0,011
-566,846	-104,684	-0,041	0,007
-565,831	-200,000	-0,007	-0,036
-564,817	-46,715	-0,121	-0,043
-563,802	163,227	0,044	-0,046
-562,788	303,867	-0,092	-0,126
-561,773	128,115	0,017	-0,016
-560,758	-200,000	-0,041	0,149
-559,744	-200,000	-0,017	-0,116
-558,729	53,903	0,071	-0,050
-557,715	-53,706	0,037	-0,012
-556,700	80,800	-0,027	-0,021
-555,685	-200,000	-0,035	-0,211
-554,671	-16,525	-0,050	-0,023
-553,656	199,802	0,103	0,116
-552,642	800,000	0,042	0,098
-551,627	-127,953	-0,020	-0,002
-550,612	43,193	0,068	-0,046
-549,598	-200,000	0,019	0,071
-548,583	-200,000	-0,006	0,086
-547,569	-139,354	-0,080	-0,006
-546,554	159,361	0,132	-0,135
-545,539	-52,531	-0,097	-0,033
-544,525	226,849	0,068	0,081
-543,510	-111,803	-0,154	0,023
-542,496	-29,399	0,138	-0,058
-541,481	306,251	-0,028	0,039
-540,466	-52,885	0,120	0,040
-539,452	-106,674	0,058	-0,009
-538,437	72,022	0,017	-0,013
-537,423	-200,000	0,001	0,074
-536,408	800,000	-0,006	0,014
-535,393	129,262	-0,071	0,066
-534,379	-8,013	-0,024	-0,012
-533,364	39,740	0,071	-0,046
-532,350	-112,216	-0,099	-0,014
-531,335	189,143	0,040	0,044
-530,321	25,470	-0,088	0,053
-529,306	341,929	-0,082	-0,117
-528,291	800,000	0,015	0,039
-527,277	-200,000	-0,026	-0,153
-526,262	386,427	0,038	0,057
-525,248	-200,000	-0,007	-0,066
-524,233	109,136	-0,084	-0,073
-523,218	-13,651	0,137	-0,065
-522,204	-200,000	-0,011	-0,037
-521,189	-200,000	-0,012	-0,144
-520,175	-65,674	0,116	-0,034
-519,160	-109,808	0,164	-0,025
-518,145	181,685	0,023	0,025
-517,131	800,000	0,029	-0,067
-516,116	-200,000	-0,011	0,039
-515,102	800,000	-0,051	0,142
-514,087	93,829	0,051	-0,043
-513,072	-200,000	-0,011	-0,171
-512,058	395,161	0,028	-0,042
-511,043	84,631	0,145	0,116
-510,029	-141,707	-0,042	-0,003
-509,014	563,401	0,058	0,103
-507,999	-119,333	-0,100	0,013
-506,985	-83,830	-0,110	0,025
-505,970	606,557	0,097	-0,178
-504,956	71,904	-0,082	-0,063
-503,941	-32,509	0,055	0,022
-502,926	800,000	0,031	0,087
-501,912	-200,000	-0,004	0,017
-500,897	-16,876	0,048	-0,022
-499,883	-26,419	-0,105	-0,045
-498,868	800,000	0,009	-0,018
-497,853	-168,271	-0,166	-0,005
-496,839	800,000	0,009	0,022
-495,824	47,426	0,095	0,065
-494,810	-50,740	0,094	-0,032
-493,795	-200,000	-0,041	0,137
-492,781	306,207	-0,037	-0,050
-491,766	-200,000	0,023	-0,083
-490,751	-200,000	0,019	-0,075
-489,737	-200,000	0,032	0,122
-488,722	-69,095	-0,118	-0,033
-487,708	-79,285	0,072	0,018
-486,693	72,133	0,028	0,022
-485,678	-200,000	0,025	-0,095
-484,664	110,253	-0,056	0,049
-483,649	-200,000	0,004	-0,094
-482,635	-113,762	-0,117	-0,016
-481,620	782,280	0,038	0,077
-480,605	736,546	0,057	0,113
-479,591	566,089	0,041	0,073
-478,576	13,888	-0,071	0,040
-477,562	-64,344	-0,110	-0,032
-476,547	-200,000	-0,007	-0,030
-475,532	-95,508	0,144	-0,028
-474,518	162,115	-0,054	0,055
-473,503	-43,593	0,166	0,061
-472,489	-200,000	0,007	-0,042
-471,474	20,072	-0,057	-0,034
-470,459	756,727	-0,067	-0,132
-469,445	-200,000	-0,004	-0,030
-468,430	414,499	0,030	0,047
-467,416	195,904	0,041	-0,045
-466,401	-200,000	-0,014	-0,073
-465,386	684,449	0,064	0,123
-464,372	-200,000	-0,007	0,071
-463,357	498,994	-0,085	-0,144
-462,343	-200,000	0,002	0,090
-461,328	-200,000	-0,002	-0,259
-460,313	179,073	0,038	0,040
-459,299	800,000	0,041	0,116
-458,284	176,078	-0,138	0,146
-457,270	-175,618	0,086	-0,002
-456,255	295,662	-0,072	0,097
-455,241	-12,227	-0,047	0,022
-454,226	38,010	0,072	-0,047
-453,211	-170,102	0,049	0,001
-452,197	-11,389	0,095	0,046
-451,182	-108,670	-0,081	-0,012
-450,168	-73,995	0,068	-0,018
-449,153	-122,525	0,071	0,008
-448,138	50,081	-0,065	-0,045
-447,124	241,431	0,037	-0,045
-446,109	-200,000	0,035	0,125
-445,095	85,610	0,036	-0,029
-444,080	-200,000	0,034	-0,114
-443,065	140,632	-0,062	0,059
-442,051	-19,941	0,086	0,039
-441,036	-58,951	-0,048	-0,015
-440,022	61,614	-0,100	0,073
-439,007	-114,595	-0,135	0,019
-437,992	-107,881	0,190	0,030
-436,978	-200,000	0,004	0,044
-435,963	388,236	-0,057	0,086
-434,949	-200,000	0,007	-0,034
-433,934	800,000	0,073	-0,160
-432,919	-200,000	0,002	-0,140
-431,905	43,075	-0,093	-0,061
-430,890	56,197	-0,083	-0,059
-429,876	800,000	0,009	0,023
-428,861	-137,938	-0,048	-0,004
-427,846	-200,000	-0,002	-0,028
-426,832	-200,000	-0,018	-0,074
-425,817	800,000	-0,033	-0,074
-424,803	800,000	-0,042	0,129
-423,788	96,207	0,073	-0,060
-422,773	-66,597	0,111	-0,032
-421,759	287,405	0,092	-0,122
-420,744	462,514	-0,074	-0,120
-419,730	654,269	-0,061	-0,115
-418,715	-54,622	-0,076	-0,025
-417,701	800,000	-0,042	-0,096
-416,686	-200,000	0,044	-0,164
-415,671	696,435	-0,026	-0,049
-414,657	93,731	0,055	0,046
-413,642	393,080	0,060	0,091
-412,628	-185,710	0,116	-0,001
-411,613	38,156	0,135	0,087
-410,598	19,414	-0,004	-0,002
-409,584	-200,000	0,016	-0,075
-408,569	800,000	-0,025	0,065
-407,555	800,000	0,059	0,142
-406,540	-200,000	0,009	0,092
-405,525	-119,506	-0,078	0,010
-404,511	572,291	-0,062	-0,110
-403,496	-200,000	0,009	-0,067
-402,482	560,855	-0,028	0,050
-401,467	16,057	0,036	0,021
-400,452	-200,000	-0,008	0,131
-399,438	-161,128	0,135	0,005
-398,423	-8,616	-0,118	-0,057
-397,409	294,354	-0,016	0,021
-396,394	800,000	-0,046	-0,136
-395,379	-110,699	0,006	-0,001
-394,365	-41,390	0,045	-0,017
-393,350	-200,000	-0,016	0,102
-392,336	-200,000	-0,011	0,124
-391,321	568,600	-0,054	-0,096
-390,306	203,119	0,079	-0,089
-389,292	-60,814	0,058	0,018
-388,277	-116,584	0,084	-0,011
-387,263	331,552	0,029	0,041
-386,248	-200,000	-0,029	0,096
-385,233	578,574	-0,008	0,015
-384,219	-200,000	-0,008	0,072
-383,204	800,000	0,028	-0,058
-382,190	-44,968	-0,062	-0,023
-381,175	-200,000	-0,028	0,169
-380,160	186,601	0,049	0,053
-379,146	75,459	0,055	0,042
-378,131	800,000	-0,032	0,066
-377,117	800,000	-0,027	-0,060
-376,102	-121,224	-0,059	-0,007
-375,088	-62,871	-0,103	-0,031
-374,073	-21,163	0,149	0,066
-373,058	70,089	0,067	0,050
-372,044	800,000	0,039	0,091
-371,029	30,599	-0,043	-0,027
-370,015	-200,000	0,002	-0,051
-369,000	-82,226	-0,192	0,045
-367,985	384,354	0,027	-0,040
-366,971	-86,754	-0,173	-0,038
-365,956	59,342	-0,041	0,029
-364,942	800,000	0,031	0,088
-363,927	-16,474	-0,053	0,024
-362,912	-200,000	0,031	-0,120
-361,898	-200,000	0,003	0,015
-360,883	-157,104	-0,137	-0,006
-359,869	-69,671	-0,035	-0,010
-358,854	29,984	0,052	-0,032
-357,839	172,887	0,099	0,103
-356,825	279,204	-0,128	-0,166
-355,810	-47,472	-0,039	-0,014
-354,796	-150,704	-0,035	0,002
-353,781	-126,745	0,109	-0,012
-352,766	-134,915	0,176	-0,015
-351,752	800,000	0,034	0,099
-350,737	-100,315	0,120	0,021
-349,723	442,494	0,036	-0,058
-348,708	34,486	0,139	-0,088
-347,693	-114,107	0,057	-0,008
-346,679	800,000	0,033	-0,102
-345,664	559,085	-0,038	-0,067
-344,650	354,045	-0,064	-0,092
-343,635	-200,000	0,024	-0,094
-342,620	23,388	-0,036	0,022
-341,606	764,941	-0,070	0,138
-340,591	486,232	-0,008	0,013
-339,577	-11,135	-0,070	-0,033
-338,562	48,627	0,085	-0,058
-337,548	-79,375	-0,026	-0,006
-336,533	800,000	-0,028	0,081
-335,518	800,000	0,019	0,044
-334,504	194,861	-0,053	0,059
-333,489	-94,195	0,066	0,013
-332,475	61,811	-0,020	-0,015
-331,460	69,879	0,073	-0,054
-330,445	-123,426	-0,143	0,016
-329,431	800,000	-0,033	0,072
-328,416	800,000	0,027	-0,054
-327,402	42,745	-0,060	0,040
-326,387	-64,427	0,126	0,037
-325,372	644,350	0,014	-0,026
-324,358	493,788	-0,042	0,070
-323,343	473,685	-0,033	-0,055
-322,329	594,941	0,037	0,067
-321,314	258,018	0,016	0,020
-320,299	-200,000	0,017	-0,076
-319,285	390,612	0,072	-0,108
-318,270	-93,257	0,025	-0,005
-317,256	-200,000	0,001	-0,051
-316,241	-101,693	-0,077	0,013
-315,226	-5,886	0,035	-0,017
-314,212	800,000	0,032	0,066
-313,197	160,912	-0,023	0,023
-312,183	-200,000	-0,024	0,093
-311,168	242,030	0,054	-0,065
-310,153	-163,230	-0,112	-0,004
-309,139	-112,591	-0,046	-0,007
-308,124	94,920	0,125	0,103
-307,110	-200,000	0,000	0,029
-306,095	277,983	-0,057	0,074
-305,080	7,961	-0,100	-0,054
-304,066	190,865	0,035	0,038
-303,051	450,459	-0,064	-0,103
-302,037	107,273	-0,027	-0,023
-301,022	19,948	0,035	0,020
-300,008	-124,928	-0,178	-0,020
-298,993	-129,339	-0,035	0,004
-297,978	-73,336	-0,047	0,012
-296,964	171,827	0,100	-0,104
-295,949	-200,000	0,006	-0,105
-294,935	-200,000	-0,015	0,072
-293,920	-200,000	-0,001	-0,070
-292,905	-200,000	-0,008	0,116
-291,891	129,978	0,025	-0,023
-290,876	-51,566	-0,101	0,034
-289,862	232,580	0,025	-0,030
-288,847	-48,891	-0,070	-0,024
-287,832	-200,000	-0,001	0,021
-286,818	21,690	0,087	-0,051
-285,803	-2,327	0,191	0,097
-284,789	-200,000	0,008	-0,168
-283,774	-60,541	0,039	-0,012
-282,759	-86,567	-0,023	-0,005
-281,745	-200,000	0,053	-0,183
-280,730	-47,661	0,060	-0,021
-279,716	86,038	0,117	-0,093
-278,701	-6,621	0,095	0,047
-277,686	-200,000	-0,008	-0,046
-276,672	800,000	0,058	-0,127
-275,657	800,000	0,026	0,071
-274,643	-200,000	0,006	0,045
-273,628	624,195	-0,026	-0,047
-272,613	268,549	0,067	0,085
-271,599	-112,257	-0,024	-0,003
-270,584	-11,794	0,066	-0,031
-269,570	-46,977	-0,059	-0,021
-268,555	163,050	0,008	0,008
-267,540	-8,422	-0,062	-0,030
-266,526	-200,000	0,036	-0,194
-265,511	-43,652	-0,124	0,045
-264,497	-200,000	-0,016	0,086
-263,482	-102,169	0,172	-0,030
-262,467	57,640	-0,082	0,058
-261,453	583,386	0,099	0,177
-260,438	800,000	0,086	0,206
-259,424	-200,000	0,012	0,048
-258,409	-37,333	-0,078	-0,030
-257,395	-104,590	-0,026	0,004
-256,380	-200,000	-0,026	-0,099
-255,365	-62,073	0,076	0,023
-254,351	-200,000	-0,009	-0,075
-253,336	35,096	-0,101	-0,064
-252,322	19,003	-0,048	-0,028
-251,307	351,248	-0,131	-0,188
-250,292	61,726	-0,114	-0,082
-249,278	-102,998	0,185	0,031
-248,263	-128,868	-0,038	-0,004
-247,249	-200,000	-0,003	-0,054
-246,234	800,000	-0,057	0,119
-245,219	800,000	-0,081	-0,194
-244,205	-200,000	-0,014	0,066
-243,190	-44,638	0,042	-0,015
-242,176	-200,000	-0,009	-0,119
-241,161	-200,000	0,007	-0,146
-240,146	800,000	-0,040	-0,089
-239,132	111,310	0,069	0,060
-238,117	4,766	-0,057	-0,030
-237,103	668,036	-0,064	0,121
-236,088	147,490	-0,014	-0,013
-235,073	543,222	0,031	0,054
-234,059	32,306	0,023	0,014
-233,044	125,427	0,072	0,065
-232,030	550,479	-0,025	-0,043
-231,015	-200,000	-0,026	-0,140
-230,000	-16,708	-0,131	0,060
-228,986	-200,000	0,017	0,155
-227,971	165,604	0,085	-0,087
-226,957	-62,996	0,125	0,037
-225,942	19,571	0,064	0,037
-224,927	210,396	-0,035	0,040
-223,913	231,595	-0,061	-0,072
-222,898	-200,000	-0,014	0,114
-221,884	172,435	-0,042	-0,043
-220,869	-118,137	-0,102	0,013
-219,855	122,966	0,044	0,040
-218,840	800,000	-0,057	0,173
-217,825	-57,579	-0,084	0,026
-216,811	-152,713	-0,006	0,000
-215,796	415,523	-0,030	-0,046
-214,782	-200,000	0,012	-0,094
-213,767	-50,378	-0,106	-0,036
-212,752	81,645	0,098	-0,076
-211,738	-200,000	0,002	-0,119
-210,723	5,218	-0,080	0,042
-209,709	800,000	0,054	0,129
-208,694	275,425	-0,078	0,100
-207,679	-200,000	-0,004	0,034
-206,665	199,587	-0,041	-0,045
-205,650	-89,918	0,032	0,007
-204,636	-200,000	0,009	-0,082
-203,621	167,484	-0,052	0,053
-202,606	800,000	0,042	-0,130
-201,592	-132,314	-0,091	0,008
-200,577	470,203	0,030	-0,049
-199,563	-200,000	0,004	0,054
-198,548	385,323	0,087	0,130
-197,533	-7,679	0,014	-0,007
-196,519	-39,189	0,015	0,006
-195,504	116,247	0,054	0,048
-194,490	-73,214	0,071	0,019
-193,475	40,012	0,081	0,053
-192,460	4,107	0,044	-0,023
-191,446	-48,238	0,093	0,032
-190,431	41,130	0,114	0,074
-189,417	-200,000	0,035	0,140
-188,402	193,729	-0,054	-0,060
-187,387	-11,814	-0,025	-0,012
-186,373	209,102	-0,096	-0,109
-185,358	-145,032	0,180	0,012
-184,344	651,912	-0,056	0,103
-183,329	231,266	-0,079	0,094
-182,315	-2,517	0,111	0,056
-181,300	-128,250	-0,155	0,016
-180,285	447,818	0,126	0,201
-179,271	-200,000	0,030	-0,169
-178,256	-86,417	-0,116	0,025
-177,242	-200,000	0,013	0,165
-176,227	-200,000	0,001	-0,037
-175,212	219,293	0,081	0,093
-174,198	-200,000	-0,003	0,091
-173,183	200,414	-0,028	-0,031
-172,169	-200,000	-0,017	0,057
-171,154	80,785	0,108	-0,084
-170,139	-101,823	0,070	-0,012
-169,125	-134,717	0,099	-0,009
-168,110	-9,602	-0,114	-0,055
-167,096	-200,000	0,010	0,058
-166,081	486,061	0,027	0,044
-165,066	-189,072	-0,136	0,001
-164,052	-164,878	0,081	0,003
-163,037	-46,236	0,085	-0,030
-162,023	229,853	0,099	-0,116
-161,008	-200,000	0,007	-0,071
-159,993	-182,053	-0,051	-0,001
-158,979	-200,000	-0,028	0,115
-157,964	-19,258	0,037	0,017
-156,950	-159,616	-0,056	-0,002
-155,935	-70,415	-0,057	-0,016
-154,920	-127,601	-0,054	-0,006
-153,906	27,175	-0,049	-0,030
-152,891	800,000	-0,035	0,096
-151,877	189,274	-0,015	-0,016
-150,862	-96,455	0,096	0,018
-149,847	800,000	-0,071	-0,152
-148,833	148,809	0,016	0,015
-147,818	-119,337	0,105	0,013
-146,804	-200,000	0,006	0,050
-145,789	21,459	0,164	0,096
-144,775	-200,000	0,002	-0,142
-143,760	-136,174	0,080	0,007
-142,745	-95,500	0,036	0,007
-141,731	800,000	0,067	0,145
-140,716	-37,907	0,046	-0,018
-139,702	-200,000	0,035	0,133
-138,687	281,828	-0,061	0,078
-137,672	295,732	0,113	0,150
-136,658	710,817	-0,034	-0,065
-135,643	-110,088	0,075	-0,011
-134,629	-108,434	-0,080	-0,012
-133,614	800,000	-0,030	-0,091
-132,599	-200,000	0,002	-0,069
-131,585	-200,000	-0,009	-0,096
-130,570	37,453	-0,074	-0,047
-129,556	-200,000	0,009	-0,070
-128,541	138,223	-0,068	0,065
-127,526	800,000	0,024	0,053
-126,512	93,935	0,126	-0,103
-125,497	-200,000	0,033	0,128
-124,483	2,047	-0,034	0,018
-123,468	167,962	0,025	0,025
-122,453	498,446	-0,052	0,087
-121,439	683,583	-0,075	-0,141
-120,424	406,966	0,050	0,076
-119,410	158,506	0,091	0,091
