DTS Sentinel unit serial number:	SN410029Multiplexer serial number:	ORYXHardware model number:	OX2-SRSoftware version number:	ORYX F/W v4,00 Oryx Data Collector v3.7.2.0data status	okinstallation	B5 Nyhavnadifferential loss correction	single-endedforward channel	channel 2reverse channel	N/Adate	2023/12/13time	01:22:13forward acquisition time	300,00reverse acquisition time	0,00gamma	499,1914k internal	0,3160k external	0,3160temperature offset calibration	1,0000default loss term (dB/km)	0,3820temperature slope calibration	1,0000multiplexer offset coefficient	1,0000multiplexer slope coefficient	1,0000fibre end	0,00T internal ref (°C)	14,12T ext. ref 1 (°C)	-2,36T ext. ref 2 (°C)	-2,67length (m)	temperature (°C)	Stokes	anti-Stokes-744,400	141,947	0,035	0,034
-743,385	-124,130	-0,230	-0,026
-742,371	216,212	0,166	0,195
-741,356	-129,869	-0,307	0,031
-740,342	-200,000	-0,007	0,035
-739,327	-48,821	-0,319	0,112
-738,312	-74,431	0,150	-0,040
-737,298	-97,590	-0,343	0,065
-736,283	-20,204	0,185	-0,083
-735,269	-28,628	-0,251	-0,106
-734,254	800,000	0,007	-0,016
-733,239	-76,518	-0,448	-0,115
-732,225	199,834	0,162	0,183
-731,210	612,778	-0,032	0,059
-730,196	84,615	-0,053	-0,043
-729,181	100,975	-0,010	0,009
-728,167	-69,252	0,107	-0,030
-727,152	261,545	-0,108	-0,138
-726,137	-151,087	-0,065	0,004
-725,123	516,748	-0,076	-0,132
-724,108	-200,000	-0,012	-0,064
-723,094	-200,000	0,006	-0,255
-722,079	1,998	-0,094	-0,050
-721,064	337,467	-0,075	-0,108
-720,050	-200,000	-0,001	0,046
-719,035	109,044	-0,126	-0,111
-718,021	-200,000	0,012	0,056
-717,006	320,501	-0,017	-0,024
-715,991	-138,125	-0,145	-0,012
-714,977	35,821	-0,022	-0,014
-713,962	-175,920	-0,121	-0,002
-712,948	-200,000	0,025	-0,081
-711,933	-200,000	0,005	-0,035
-710,918	800,000	-0,039	-0,079
-709,904	800,000	-0,107	-0,221
-708,889	-200,000	-0,021	-0,076
-707,875	118,238	0,053	-0,048
-706,860	15,852	0,044	-0,025
-705,845	-44,931	0,121	0,044
-704,831	-11,778	0,131	0,063
-703,816	-200,000	0,016	-0,127
-702,802	-105,204	-0,046	-0,008
-701,787	800,000	-0,031	0,064
-700,772	-41,991	0,081	0,030
-699,758	-32,816	0,057	0,023
-698,743	289,262	-0,008	0,011
-697,729	-200,000	-0,014	0,060
-696,714	-200,000	-0,011	0,067
-695,699	-200,000	0,008	0,027
-694,685	445,338	-0,094	-0,153
-693,670	-2,551	0,093	-0,048
-692,656	800,000	0,072	-0,205
-691,641	108,092	-0,059	-0,052
-690,627	169,716	0,083	-0,087
-689,612	239,012	-0,130	0,159
-688,597	130,208	-0,046	0,043
-687,583	-4,642	-0,035	-0,018
-686,568	-116,100	-0,269	0,036
-685,554	-129,905	0,084	0,008
-684,539	17,835	0,057	0,034
-683,524	226,676	0,094	0,113
-682,510	-200,000	0,004	0,087
-681,495	-58,103	-0,047	0,015
-680,481	800,000	-0,004	-0,011
-679,466	532,502	0,016	-0,027
-678,451	-79,470	0,015	0,004
-677,437	388,070	-0,092	0,141
-676,422	800,000	-0,025	0,053
-675,408	800,000	-0,049	0,128
-674,393	164,936	0,095	0,099
-673,378	-73,631	-0,122	0,032
-672,364	-163,038	-0,070	0,002
-671,349	120,053	-0,026	0,024
-670,335	800,000	0,048	-0,097
-669,320	800,000	-0,031	-0,091
-668,305	-200,000	0,003	0,044
-667,291	344,790	0,031	-0,045
-666,276	462,134	-0,075	-0,123
-665,262	-23,762	-0,101	0,044
-664,247	800,000	-0,016	0,042
-663,232	106,715	0,041	0,035
-662,218	77,182	-0,045	-0,035
-661,203	137,600	0,044	-0,042
-660,189	549,498	-0,015	-0,027
-659,174	-4,478	-0,212	-0,107
-658,159	-81,838	0,089	-0,021
-657,145	77,661	-0,114	-0,089
-656,130	11,992	-0,075	-0,042
-655,116	-95,133	-0,041	0,008
-654,101	-200,000	-0,027	0,103
-653,086	66,576	-0,075	-0,056
-652,072	-200,000	-0,001	-0,110
-651,057	-89,987	0,103	-0,022
-650,043	245,092	0,042	0,052
-649,028	800,000	-0,029	0,069
-648,014	66,561	0,071	0,053
-646,999	-200,000	-0,052	-0,197
-645,984	193,149	-0,043	0,048
-644,970	-200,000	-0,005	-0,041
-643,955	-20,784	0,017	-0,007
-642,941	-42,472	-0,179	-0,067
-641,926	28,149	0,102	-0,063
-640,911	-28,003	0,075	0,032
-639,897	-200,000	0,001	-0,096
-638,882	95,270	-0,023	-0,019
-637,868	-93,668	0,022	-0,004
-636,853	-42,539	0,042	-0,016
-635,838	-64,753	0,063	0,019
-634,824	-93,335	-0,124	0,025
-633,809	-59,588	0,043	-0,013
-632,795	-119,810	-0,023	0,003
-631,780	-43,096	0,104	0,038
-630,765	2,295	0,057	0,030
-629,751	800,000	-0,008	0,021
-628,736	71,056	-0,055	0,042
-627,722	277,985	0,078	-0,103
-626,707	800,000	-0,014	0,033
-625,692	58,074	0,076	-0,054
-624,678	-200,000	-0,011	0,112
-623,663	70,405	-0,121	0,092
-622,649	212,948	0,041	-0,047
-621,634	682,474	-0,066	0,127
-620,619	-200,000	-0,020	-0,064
-619,605	-87,481	0,068	0,015
-618,590	68,550	-0,080	-0,060
-617,576	548,813	-0,029	0,051
-616,561	98,186	-0,048	-0,040
-615,546	87,840	-0,029	-0,023
-614,532	-160,878	0,095	-0,004
-613,517	68,606	0,059	-0,044
-612,503	-160,594	-0,095	0,004
-611,488	-53,620	0,049	0,016
-610,474	800,000	-0,037	-0,096
-609,459	-62,929	-0,070	0,021
-608,444	-36,117	-0,082	-0,032
-607,430	-139,245	-0,128	-0,010
-606,415	-52,955	-0,094	-0,032
-605,401	-45,629	0,063	0,023
-604,386	-200,000	-0,007	0,087
-603,371	-35,229	0,044	0,017
-602,357	-41,642	0,218	0,081
-601,342	-200,000	0,046	0,154
-600,328	-59,399	-0,079	0,025
-599,313	143,587	0,047	0,046
-598,298	-200,000	0,000	0,051
-597,284	-200,000	-0,011	0,110
-596,269	-137,218	-0,118	0,010
-595,255	800,000	0,086	-0,248
-594,240	-200,000	0,013	-0,049
-593,225	-200,000	-0,034	-0,148
-592,211	800,000	-0,050	-0,151
-591,196	-200,000	-0,000	-0,099
-590,182	800,000	0,011	-0,026
-589,167	46,682	0,055	-0,038
-588,152	-70,374	-0,060	0,017
-587,138	-200,000	0,014	-0,065
-586,123	-29,353	0,076	-0,032
-585,109	800,000	-0,055	-0,146
-584,094	-200,000	-0,003	-0,120
-583,079	199,380	-0,091	-0,102
-582,065	-200,000	-0,005	0,104
-581,050	800,000	-0,030	0,080
-580,036	-125,384	-0,077	0,008
-579,021	-200,000	-0,003	-0,030
-578,006	800,000	-0,034	-0,074
-576,992	75,456	0,116	0,090
-575,977	-200,000	0,022	0,085
-574,963	-118,725	0,081	0,010
-573,948	-165,813	0,096	-0,003
-572,934	-4,482	0,096	-0,048
-571,919	800,000	-0,055	-0,147
-570,904	-200,000	-0,016	-0,201
-569,890	197,596	-0,079	-0,089
-568,875	800,000	0,083	0,198
-567,861	162,226	-0,043	0,044
-566,846	-200,000	0,033	0,180
-565,831	-103,396	0,075	0,013
-564,817	-23,242	-0,102	-0,045
-563,802	800,000	0,018	-0,057
-562,788	1,435	-0,024	-0,013
-561,773	-50,668	-0,129	-0,044
-560,758	62,410	-0,030	-0,022
-559,744	-200,000	0,014	-0,060
-558,729	800,000	0,044	-0,094
-557,715	312,371	0,012	-0,016
-556,700	-200,000	-0,018	0,088
-555,685	653,137	0,028	-0,053
-554,671	-44,811	0,089	-0,032
-553,656	-75,857	-0,100	-0,026
-552,642	408,483	0,082	0,127
-551,627	54,054	0,031	0,022
-550,612	-6,356	0,052	-0,026
-549,598	-200,000	0,011	-0,091
-548,583	122,744	0,093	-0,085
-547,569	-200,000	-0,004	0,082
-546,554	-40,819	0,055	0,021
-545,539	-123,049	0,121	0,014
-544,525	-200,000	-0,003	0,042
-543,510	25,229	0,105	-0,063
-542,496	528,043	0,031	-0,054
-541,481	800,000	-0,002	-0,007
-540,466	28,274	-0,066	-0,041
-539,452	-200,000	0,020	-0,118
-538,437	301,863	0,110	0,150
-537,423	-102,436	0,199	0,035
-536,408	219,447	0,005	-0,006
-535,393	-200,000	-0,002	-0,092
-534,379	-17,227	0,051	0,023
-533,364	-37,871	-0,057	-0,022
-532,350	539,950	0,042	0,073
-531,335	-200,000	0,002	0,013
-530,321	452,556	0,060	0,097
-529,306	-107,198	-0,089	0,014
-528,291	-200,000	0,006	0,062
-527,277	-200,000	-0,025	-0,155
-526,262	6,698	-0,121	0,065
-525,248	582,078	0,047	0,085
-524,233	-50,549	0,069	0,024
-523,218	-200,000	0,019	-0,166
-522,204	63,448	0,082	0,060
-521,189	31,624	-0,134	-0,084
-520,175	-200,000	-0,021	0,117
-519,160	-139,199	0,095	-0,007
-518,145	492,822	-0,017	0,029
-517,131	-200,000	0,009	0,082
-516,116	-9,388	0,019	0,009
-515,102	-127,544	0,087	0,009
-514,087	800,000	-0,027	-0,067
-513,072	530,051	-0,056	-0,097
-512,058	5,143	-0,155	-0,083
-511,043	800,000	0,009	-0,018
-510,029	-200,000	0,014	0,084
-509,014	110,185	-0,094	-0,083
-507,999	299,135	0,047	0,063
-506,985	-124,026	0,200	0,023
-505,970	222,041	0,105	-0,123
-504,956	-81,516	0,065	-0,015
-503,941	27,780	-0,074	-0,045
-502,926	-67,923	-0,071	-0,020
-501,912	800,000	0,016	-0,043
-500,897	-200,000	-0,003	0,045
-499,883	177,522	-0,068	-0,072
-498,868	273,020	-0,114	-0,147
-497,853	247,584	-0,074	-0,091
-496,839	-103,366	-0,095	-0,016
-495,824	755,546	-0,037	-0,074
-494,810	800,000	0,064	-0,168
-493,795	103,703	0,070	-0,060
-492,781	-200,000	0,014	-0,142
-491,766	800,000	-0,057	-0,136
-490,751	72,213	-0,168	-0,127
-489,737	391,303	0,095	0,145
-488,722	39,374	0,008	0,005
-487,708	-92,358	0,069	0,014
-486,693	256,208	0,111	0,139
-485,678	-21,486	-0,097	-0,043
-484,664	-200,000	-0,024	0,104
-483,649	-23,319	0,052	-0,023
-482,635	-72,974	0,031	-0,008
-481,620	79,836	0,073	-0,057
-480,605	194,364	0,043	0,048
-479,591	800,000	0,008	0,022
-478,576	800,000	0,059	-0,124
-477,562	98,303	-0,130	-0,109
-476,547	700,925	-0,046	0,089
-475,532	88,212	-0,027	-0,022
-474,518	800,000	0,040	0,082
-473,503	800,000	-0,045	0,102
-472,489	-85,203	0,061	0,014
-471,474	82,258	0,050	0,040
-470,459	800,000	-0,040	0,106
-469,445	-8,057	-0,032	-0,016
-468,430	-55,588	0,049	0,016
-467,416	303,443	0,021	-0,029
-466,401	800,000	0,019	0,042
-465,386	-113,467	-0,091	-0,013
-464,372	-162,486	0,175	-0,006
-463,357	-146,176	-0,088	-0,006
-462,343	-38,016	-0,108	0,042
-461,328	7,970	-0,133	-0,073
-460,313	-200,000	-0,039	0,150
-459,299	-99,578	0,020	-0,004
-458,284	800,000	0,067	-0,168
-457,270	-200,000	0,006	-0,022
-456,255	13,653	0,106	-0,060
-455,241	778,259	-0,023	-0,045
-454,226	-59,758	-0,080	-0,025
-453,211	148,919	-0,043	-0,042
-452,197	371,385	0,017	0,026
-451,182	8,212	-0,045	0,024
-450,168	526,334	0,034	-0,059
-449,153	4,055	0,024	0,013
-448,138	3,525	0,076	0,040
-447,124	-200,000	0,020	0,141
-446,109	-116,421	-0,057	-0,008
-445,095	260,120	-0,057	-0,072
-444,080	551,703	0,093	0,163
-443,065	-66,981	-0,148	-0,042
-442,051	352,687	0,071	-0,102
-441,036	-28,689	-0,034	0,014
-440,022	-200,000	0,011	0,046
-439,007	-175,903	0,123	-0,002
-437,992	303,567	-0,069	-0,093
-436,978	-24,185	-0,047	0,020
-435,963	800,000	-0,036	0,087
-434,949	195,276	-0,082	0,091
-433,934	705,421	0,018	-0,034
-432,919	-143,995	-0,108	-0,007
-431,905	-133,819	-0,017	-0,002
-430,890	-122,064	0,118	0,014
-429,876	800,000	0,066	0,178
-428,861	-114,678	-0,104	0,014
-427,846	800,000	0,003	0,009
-426,832	722,952	0,089	0,174
-425,817	33,888	-0,037	-0,024
-424,803	407,163	-0,017	-0,027
-423,788	-200,000	-0,008	-0,037
-422,773	42,179	0,084	0,055
-421,759	-200,000	-0,019	0,207
-420,744	18,793	-0,033	0,019
-419,730	-121,467	0,072	0,009
-418,715	800,000	-0,017	0,043
-417,701	-114,153	-0,109	0,015
-416,686	800,000	-0,037	0,095
-415,671	335,665	0,052	0,074
-414,657	-200,000	0,009	0,078
-413,642	-64,265	-0,071	-0,021
-412,628	195,601	-0,087	-0,096
-411,613	-200,000	-0,004	-0,043
-410,598	-200,000	-0,003	0,043
-409,584	-78,653	0,082	-0,020
-408,569	146,739	0,080	-0,078
-407,555	-162,104	-0,058	-0,002
-406,540	-200,000	-0,007	-0,074
-405,525	191,212	0,054	0,059
-404,511	-24,322	-0,173	-0,075
-403,496	-21,658	0,107	-0,047
-402,482	12,378	0,080	-0,045
-401,467	-200,000	-0,029	0,138
-400,452	18,739	0,046	0,027
-399,438	-108,179	-0,173	0,027
-398,423	-200,000	-0,002	0,098
-397,409	-56,889	-0,074	0,024
-396,394	-105,118	-0,051	-0,008
-395,379	800,000	-0,048	0,099
-394,365	235,789	-0,022	0,026
-393,350	483,782	0,023	-0,038
-392,336	181,384	0,055	-0,059
-391,321	268,246	0,032	-0,041
-390,306	404,693	0,077	-0,118
-389,292	800,000	0,048	0,100
-388,277	542,686	0,056	0,098
-387,263	180,221	0,044	-0,047
-386,248	-49,204	0,138	-0,048
-385,233	-200,000	-0,022	0,130
-384,219	67,393	-0,151	0,112
-383,204	555,254	0,046	-0,080
-382,190	40,503	-0,151	-0,098
-381,175	-110,007	0,150	0,023
-380,160	-200,000	-0,062	0,000
-379,146	80,171	0,080	-0,062
-378,131	-1,545	-0,020	0,010
-377,117	-36,687	0,113	0,044
-376,102	-200,000	-0,004	-0,070
-375,088	43,587	-0,151	-0,100
-374,073	-200,000	0,020	0,073
-373,058	101,527	0,038	0,032
-372,044	800,000	-0,085	0,199
-371,029	230,458	-0,094	0,112
-370,015	-120,023	0,091	0,011
-369,000	79,561	-0,095	-0,074
-367,985	108,281	0,049	-0,043
-366,971	-200,000	-0,014	0,122
-365,956	71,078	0,037	0,028
-364,942	108,623	0,042	0,036
-363,927	502,468	0,069	0,116
-362,912	-110,570	0,026	-0,004
-361,898	-23,226	-0,098	-0,043
-360,883	-200,000	0,013	0,146
-359,869	800,000	-0,030	-0,075
-358,854	-18,729	-0,044	0,020
-357,839	188,113	0,084	0,091
-356,825	112,470	-0,024	0,021
-355,810	800,000	0,024	-0,064
-354,796	-200,000	0,015	-0,049
-353,781	288,179	0,043	0,056
-352,766	193,837	-0,078	0,086
-351,752	-117,473	-0,136	0,018
-350,737	16,452	0,077	0,044
-349,723	-200,000	-0,017	0,150
-348,708	-84,041	-0,036	0,008
-347,693	-174,621	-0,072	-0,001
-346,679	13,237	0,048	-0,027
-345,664	-200,000	0,029	-0,253
-344,650	5,751	0,022	0,012
-343,635	9,777	0,082	0,045
-342,620	328,497	0,059	0,083
-341,606	332,717	-0,028	-0,039
-340,591	-172,124	-0,045	0,001
-339,577	800,000	-0,056	-0,129
-338,562	3,141	-0,076	0,040
-337,548	-200,000	-0,013	-0,111
-336,533	259,514	0,030	-0,038
-335,518	7,534	0,191	0,103
-334,504	-200,000	-0,025	-0,109
-333,489	60,622	-0,004	-0,003
-332,475	-143,459	0,096	0,007
-331,460	485,214	-0,091	-0,150
-330,445	266,921	-0,106	-0,135
-329,431	361,301	0,022	-0,032
-328,416	-109,355	0,039	-0,006
-327,402	32,491	-0,063	-0,039
-326,387	800,000	0,033	-0,069
-325,372	-98,607	0,047	-0,009
-324,358	-80,294	0,083	-0,020
-323,343	-200,000	-0,015	0,073
-322,329	383,640	0,147	0,220
-321,314	32,732	-0,039	0,024
-320,299	800,000	0,059	0,135
-319,285	78,237	-0,122	-0,094
-318,270	88,960	-0,117	0,094
-317,256	-98,678	-0,101	-0,019
-316,241	117,815	0,027	0,024
-315,226	-158,121	0,133	-0,006
-314,212	152,091	-0,053	0,053
-313,197	264,888	-0,053	0,067
-312,183	101,316	0,068	0,057
-311,168	-200,000	0,027	-0,143
-310,153	800,000	-0,079	-0,230
-309,139	-41,776	-0,032	-0,012
-308,124	800,000	-0,046	0,138
-307,110	-80,736	0,070	-0,017
-306,095	-200,000	0,015	-0,081
-305,080	202,389	-0,111	-0,124
-304,066	604,263	-0,052	0,093
-303,051	496,447	-0,027	-0,046
-302,037	171,899	0,092	-0,096
-301,022	-94,523	0,039	-0,008
-300,008	-200,000	-0,012	-0,063
-298,993	359,795	0,034	-0,049
-297,978	-36,847	0,113	-0,044
-296,964	196,046	0,077	-0,085
-295,949	-55,271	-0,102	0,033
-294,935	17,151	-0,037	-0,021
-293,920	-84,763	-0,087	-0,020
-292,905	800,000	0,050	-0,147
-291,891	-53,996	0,127	0,042
-290,876	128,365	-0,071	-0,066
-289,862	800,000	0,044	0,104
-288,847	154,972	-0,069	-0,069
-287,832	108,877	-0,058	0,050
-286,818	-22,601	-0,109	-0,048
-285,803	135,148	0,092	-0,087
-284,789	-21,390	-0,049	0,021
-283,774	-84,319	0,083	0,019
-282,759	-124,129	0,102	0,011
-281,745	-171,693	-0,054	0,001
-280,730	-200,000	-0,030	-0,110
-279,716	-144,778	-0,125	0,008
-278,701	117,927	0,063	-0,056
-277,686	-86,817	-0,051	0,011
-276,672	800,000	0,031	-0,066
-275,657	-200,000	-0,023	0,086
-274,643	409,347	-0,093	-0,142
-273,628	387,638	-0,008	0,012
-272,613	-200,000	0,008	0,142
-271,599	-200,000	-0,143	0,000
-270,584	-200,000	0,067	0,220
-269,570	-200,000	-0,013	0,151
-268,555	378,279	0,066	-0,098
-267,540	800,000	0,024	0,057
-266,526	-30,212	-0,129	-0,053
-265,511	-200,000	0,009	-0,096
-264,497	238,461	-0,029	-0,035
-263,482	434,811	0,061	-0,096
-262,467	-59,009	0,075	-0,023
-261,453	-200,000	-0,008	0,107
-260,438	71,653	-0,086	-0,064
-259,424	-18,369	0,041	0,018
-258,409	761,411	-0,039	-0,077
-257,395	800,000	0,031	-0,081
-256,380	800,000	0,037	0,088
-255,365	47,416	0,020	-0,013
-254,351	-107,724	0,043	0,007
-253,336	-200,000	-0,006	-0,082
-252,322	-200,000	0,009	0,119
-251,307	800,000	0,012	-0,032
-250,292	-36,669	0,120	-0,046
-249,278	800,000	-0,032	0,069
-248,263	466,181	-0,020	-0,032
-247,249	800,000	0,019	0,049
-246,234	-200,000	0,042	-0,139
-245,219	800,000	-0,031	0,083
-244,205	-121,065	-0,067	-0,008
-243,190	-200,000	-0,017	0,077
-242,176	590,152	0,070	0,126
-241,161	-200,000	-0,038	0,143
-240,146	-63,059	0,127	0,038
-239,132	800,000	0,014	-0,029
-238,117	-89,631	-0,012	-0,002
-237,103	217,256	-0,106	-0,123
-236,088	800,000	-0,043	0,089
-235,073	369,386	-0,027	0,040
-234,059	800,000	0,061	0,174
-233,044	-136,969	0,105	-0,009
-232,030	-75,585	-0,189	-0,048
-231,015	171,210	0,025	-0,026
-230,000	28,438	0,035	0,021
-228,986	800,000	-0,051	-0,126
-227,971	-184,171	0,088	0,001
-226,957	260,395	0,055	0,069
-225,942	-189,211	0,059	-0,000
-224,927	18,549	0,009	0,005
-223,913	-113,271	-0,201	-0,028
-222,898	185,493	-0,018	-0,019
-221,884	301,971	-0,014	-0,019
-220,869	167,372	0,019	0,020
-219,855	800,000	-0,018	-0,036
-218,840	89,204	0,007	0,006
-217,825	800,000	0,014	-0,029
-216,811	258,574	-0,057	-0,071
-215,796	-200,000	-0,073	0,000
-214,782	-24,105	0,068	0,029
-213,767	-28,249	0,082	-0,034
-212,752	800,000	-0,053	-0,139
-211,738	-30,366	-0,034	0,014
-210,723	260,347	0,122	0,152
-209,709	-79,476	0,054	0,013
-208,694	152,754	0,045	-0,045
-207,679	-200,000	0,017	0,063
-206,665	709,673	-0,046	0,088
-205,650	-200,000	0,003	0,057
-204,636	241,164	0,078	0,094
-203,621	-31,632	-0,143	0,058
-202,606	-200,000	-0,018	-0,059
-201,592	100,905	0,107	-0,090
-200,577	665,062	-0,011	-0,021
-199,563	-200,000	-0,002	0,113
-198,548	41,321	-0,069	-0,045
-197,533	85,490	0,054	0,043
-196,519	13,351	0,046	-0,026
-195,504	-103,578	-0,139	-0,023
-194,490	-8,055	0,146	-0,071
-193,475	-102,693	-0,140	-0,024
-192,460	-57,068	-0,075	0,024
-191,446	23,697	0,097	0,057
-190,431	202,875	-0,049	-0,055
-189,417	112,870	0,091	0,079
-188,402	800,000	-0,055	-0,124
-187,387	-200,000	0,004	0,151
-186,373	-64,520	0,130	0,038
-185,358	-200,000	0,030	-0,166
-184,344	-49,526	0,119	0,041
-183,329	-200,000	0,001	-0,053
-182,315	-200,000	-0,025	-0,145
-181,300	-200,000	-0,007	-0,034
-180,285	-200,000	-0,033	-0,137
-179,271	-200,000	0,001	0,075
-178,256	38,574	0,059	0,038
-177,242	-200,000	0,033	0,121
-176,227	-200,000	-0,013	0,044
-175,212	-112,633	0,172	0,024
-174,198	280,184	0,034	-0,044
-173,183	583,251	0,057	0,101
-172,169	-135,997	-0,197	-0,016
-171,154	-200,000	-0,019	0,086
-170,139	-200,000	-0,027	0,276
-169,125	30,014	-0,103	0,063
-168,110	79,122	0,038	-0,029
-167,096	100,066	0,055	0,046
-166,081	-132,002	-0,063	0,006
-165,066	581,508	-0,019	-0,034
-164,052	-200,000	0,016	-0,070
-163,037	317,440	-0,024	-0,033
-162,023	800,000	0,037	0,115
-161,008	502,683	-0,072	0,120
-159,993	691,096	0,062	0,117
-158,979	-67,017	-0,151	-0,042
-157,964	-200,000	-0,149	-0,000
-156,950	-200,000	0,002	0,241
-155,935	156,350	0,030	-0,030
-154,920	-200,000	0,016	0,080
-153,906	38,760	-0,040	0,026
-152,891	5,263	-0,044	-0,023
-151,877	-74,563	0,119	0,031
-150,862	-200,000	-0,005	-0,018
-149,847	-200,000	0,012	-0,040
-148,833	-162,855	0,137	-0,005
-147,818	800,000	-0,064	0,183
-146,804	-146,217	-0,055	-0,003
-145,789	-172,003	0,044	-0,001
-144,775	-200,000	0,009	-0,063
-143,760	-200,000	0,008	0,259
-142,745	-84,680	0,110	0,025
-141,731	-200,000	0,001	0,056
-140,716	130,121	0,024	0,022
-139,702	12,724	0,011	0,006
-138,687	-134,596	-0,089	-0,008
-137,672	-200,000	0,006	-0,036
-136,658	-116,971	-0,127	0,016
-135,643	72,333	0,086	-0,065
-134,629	-200,000	0,005	0,110
-133,614	800,000	-0,009	0,020
-132,599	-7,244	-0,132	0,064
-131,585	239,930	0,092	-0,111
-130,570	-200,000	0,022	-0,098
-129,556	366,897	0,024	0,035
-128,541	-89,376	-0,087	0,018
-127,526	-55,249	-0,077	-0,025
-126,512	-44,312	0,080	0,029
-125,497	-111,216	0,096	-0,014
-124,483	-47,413	0,091	0,032
-123,468	-200,000	-0,003	-0,029
-122,453	-110,806	0,079	0,012
-121,439	133,930	0,072	-0,067
-120,424	702,563	0,039	-0,075
-119,410	800,000	0,044	0,096
