DTS Sentinel unit serial number:	SN410029Multiplexer serial number:	ORYXHardware model number:	OX2-SRSoftware version number:	ORYX F/W v4,00 Oryx Data Collector v3.7.2.0data status	okinstallation	B5 Nyhavnadifferential loss correction	single-endedforward channel	channel 2reverse channel	N/Adate	2023/12/12time	13:37:13forward acquisition time	300,00reverse acquisition time	0,00gamma	499,1914k internal	0,3157k external	0,3157temperature offset calibration	1,0000default loss term (dB/km)	0,3820temperature slope calibration	1,0000multiplexer offset coefficient	1,0000multiplexer slope coefficient	1,0000fibre end	0,00T internal ref (°C)	15,65T ext. ref 1 (°C)	-0,33T ext. ref 2 (°C)	-0,54length (m)	temperature (°C)	Stokes	anti-Stokes-744,400	-36,118	0,068	-0,027
-743,385	-75,936	-0,294	-0,076
-742,371	17,436	0,130	0,076
-741,356	-133,159	-0,199	-0,018
-740,342	-200,000	-0,000	0,078
-739,327	-90,186	-0,248	0,053
-738,312	800,000	0,039	0,107
-737,298	-2,332	-0,269	0,139
-736,283	-43,502	0,107	-0,040
-735,269	-15,341	-0,206	0,097
-734,254	-200,000	-0,005	-0,046
-733,239	-46,688	-0,390	-0,140
-732,225	-200,000	0,003	-0,092
-731,210	33,646	-0,071	0,046
-730,196	-6,312	0,060	0,030
-729,181	-58,902	0,037	0,012
-728,167	1,995	-0,128	-0,068
-727,152	-200,000	-0,035	0,147
-726,137	-189,121	0,031	0,000
-725,123	-200,000	-0,014	-0,185
-724,108	23,589	-0,142	0,086
-723,094	362,153	-0,041	-0,061
-722,079	103,933	-0,028	0,024
-721,064	223,013	-0,095	0,113
-720,050	-200,000	-0,009	0,068
-719,035	-200,000	0,032	0,120
-718,021	800,000	-0,080	-0,219
-717,006	-139,461	-0,049	-0,004
-715,991	79,020	-0,128	-0,101
-714,977	10,568	0,084	0,047
-713,962	-44,131	-0,139	0,051
-712,948	800,000	-0,032	-0,078
-711,933	533,930	0,041	-0,071
-710,918	800,000	0,019	0,059
-709,904	-36,038	-0,136	0,054
-708,889	508,302	-0,097	-0,166
-707,875	-133,111	-0,084	0,008
-706,860	-200,000	-0,035	-0,204
-705,845	-200,000	-0,016	-0,080
-704,831	29,235	0,147	0,091
-703,816	-200,000	0,005	-0,038
-702,802	-91,871	-0,073	-0,015
-701,787	800,000	-0,037	-0,078
-700,772	-178,433	0,127	0,002
-699,758	-59,967	-0,093	-0,029
-698,743	-44,203	0,023	0,008
-697,729	798,911	0,038	-0,079
-696,714	47,466	-0,155	0,106
-695,699	28,240	-0,124	-0,077
-694,685	800,000	0,051	0,148
-693,670	350,949	0,096	-0,141
-692,656	-200,000	-0,007	-0,038
-691,641	-200,000	-0,022	0,092
-690,627	25,548	0,091	0,055
-689,612	800,000	0,077	0,166
-688,597	58,703	-0,093	-0,067
-687,583	800,000	-0,016	-0,040
-686,568	-200,000	0,003	0,053
-685,554	87,050	-0,067	-0,055
-684,539	800,000	0,048	-0,117
-683,524	-143,538	-0,048	-0,003
-682,510	-15,116	-0,077	0,036
-681,495	614,425	-0,044	-0,081
-680,481	468,497	-0,016	-0,027
-679,466	-21,113	-0,088	-0,039
-678,451	106,553	0,008	0,007
-677,437	57,375	-0,014	-0,010
-676,422	50,544	0,050	0,035
-675,408	43,709	-0,060	-0,040
-674,393	-83,309	0,138	-0,032
-673,378	258,049	-0,076	-0,097
-672,364	800,000	0,057	-0,128
-671,349	-12,917	0,050	-0,024
-670,335	-64,271	0,096	-0,028
-669,320	618,237	-0,027	-0,050
-668,305	-23,672	-0,028	0,012
-667,291	800,000	-0,057	0,134
-666,276	-158,701	-0,150	0,006
-665,262	800,000	-0,018	-0,044
-664,247	196,225	0,013	-0,014
-663,232	-35,536	-0,107	-0,042
-662,218	-200,000	-0,022	-0,074
-661,203	-101,262	-0,054	0,010
-660,189	2,745	0,083	0,044
-659,174	-200,000	0,020	-0,108
-658,159	-200,000	-0,009	-0,087
-657,145	-162,479	-0,044	0,002
-656,130	364,702	-0,104	0,154
-655,116	234,411	-0,048	-0,058
-654,101	30,262	0,080	0,050
-653,086	-200,000	0,037	-0,160
-652,072	-29,808	-0,082	-0,034
-651,057	800,000	0,072	-0,228
-650,043	-200,000	-0,023	0,081
-649,028	-200,000	-0,025	-0,084
-648,014	800,000	0,017	-0,047
-646,999	7,436	0,021	-0,012
-645,984	45,277	0,080	0,054
-644,970	14,760	-0,101	-0,058
-643,955	581,651	-0,056	-0,102
-642,941	99,667	-0,053	0,045
-641,926	-148,953	-0,068	0,004
-640,911	112,233	0,007	0,006
-639,897	645,313	0,035	-0,066
-638,882	-24,934	0,088	-0,038
-637,868	800,000	0,010	-0,022
-636,853	281,443	0,049	-0,065
-635,838	23,705	-0,053	-0,032
-634,824	-121,664	0,080	0,010
-633,809	-200,000	-0,074	-0,252
-632,795	-200,000	0,000	-0,086
-631,780	-200,000	-0,045	0,202
-630,765	-200,000	-0,024	-0,171
-629,751	55,861	0,019	-0,013
-628,736	-69,189	0,076	0,021
-627,722	-57,181	-0,113	0,036
-626,707	105,708	0,060	0,052
-625,692	800,000	0,007	-0,018
-624,678	461,259	-0,069	0,114
-623,663	-119,262	-0,077	0,010
-622,649	-42,870	-0,162	-0,060
-621,634	-200,000	0,032	-0,110
-620,619	-200,000	-0,005	0,108
-619,605	96,959	0,125	-0,105
-618,590	-41,696	0,054	-0,020
-617,576	139,486	-0,065	0,063
-616,561	-200,000	0,024	-0,125
-615,546	140,901	0,049	0,048
-614,532	-9,314	-0,020	-0,010
-613,517	-112,243	-0,127	0,019
-612,503	450,456	-0,091	0,147
-611,488	121,431	0,095	0,087
-610,474	-109,572	0,191	-0,029
-609,459	-200,000	-0,009	0,030
-608,444	106,289	-0,044	-0,039
-607,430	30,370	0,013	-0,008
-606,415	636,809	-0,034	0,063
-605,401	-31,869	0,062	0,025
-604,386	76,263	-0,176	0,137
-603,371	448,528	-0,051	0,083
-602,357	28,741	0,062	-0,039
-601,342	-200,000	0,007	-0,033
-600,328	-200,000	0,014	-0,046
-599,313	-51,279	0,049	0,017
-598,298	190,077	-0,092	-0,102
-597,284	-200,000	0,001	-0,103
-596,269	-140,911	0,049	0,004
-595,255	-107,858	0,137	0,022
-594,240	-200,000	-0,009	0,062
-593,225	310,998	0,036	0,049
-592,211	-200,000	0,017	-0,129
-591,196	5,991	-0,093	0,050
-590,182	-190,268	0,159	-0,001
-589,167	-76,759	0,104	0,027
-588,152	-134,612	-0,019	0,002
-587,138	114,208	-0,028	-0,025
-586,123	-200,000	-0,012	-0,093
-585,109	-200,000	-0,025	-0,145
-584,094	49,610	-0,046	-0,032
-583,079	800,000	-0,043	-0,100
-582,065	-84,456	0,071	-0,016
-581,050	-171,644	-0,108	0,003
-580,036	-53,678	-0,049	-0,016
-579,021	22,668	0,007	-0,004
-578,006	-51,237	-0,056	-0,019
-576,992	-50,621	-0,127	0,044
-575,977	-200,000	-0,006	0,080
-574,963	-200,000	-0,041	-0,138
-573,948	800,000	0,054	0,116
-572,934	-33,863	0,170	-0,068
-571,919	106,764	-0,013	-0,011
-570,904	800,000	0,021	0,055
-569,890	150,427	-0,178	-0,177
-568,875	399,944	-0,059	-0,091
-567,861	800,000	0,001	0,003
-566,846	232,277	0,102	0,123
-565,831	395,257	-0,023	-0,035
-564,817	695,603	-0,079	-0,153
-563,802	164,451	-0,062	-0,064
-562,788	144,843	0,093	-0,091
-561,773	29,343	0,064	0,040
-560,758	-172,014	-0,123	-0,003
-559,744	-200,000	-0,028	-0,111
-558,729	-133,447	-0,103	-0,009
-557,715	-25,988	-0,083	0,036
-556,700	-200,000	0,011	0,040
-555,685	-137,340	-0,061	0,005
-554,671	131,202	0,059	0,055
-553,656	800,000	-0,020	0,041
-552,642	-84,802	0,043	0,010
-551,627	-200,000	-0,004	0,019
-550,612	16,613	-0,035	0,020
-549,598	125,193	-0,143	0,132
-548,583	-200,000	0,017	-0,071
-547,569	-165,585	0,064	-0,002
-546,554	800,000	-0,030	-0,061
-545,539	800,000	0,046	0,098
-544,525	-146,631	-0,059	-0,004
-543,510	800,000	-0,054	-0,127
-542,496	232,780	0,050	-0,060
-541,481	-200,000	0,071	0,000
-540,466	-70,515	0,072	0,020
-539,452	82,889	-0,086	0,069
-538,437	-119,774	-0,030	0,004
-537,423	-109,907	-0,071	0,011
-536,408	355,758	0,024	-0,035
-535,393	-63,247	-0,017	-0,005
-534,379	800,000	-0,038	-0,078
-533,364	-142,788	-0,127	-0,009
-532,350	-33,866	-0,055	0,022
-531,335	800,000	0,018	-0,038
-530,321	800,000	-0,049	-0,131
-529,306	-200,000	-0,049	-0,206
-528,291	206,799	-0,041	-0,047
-527,277	779,525	0,050	-0,101
-526,262	37,310	0,092	0,060
-525,248	48,558	-0,045	-0,031
-524,233	800,000	0,041	0,116
-523,218	-200,000	0,001	0,032
-522,204	-132,265	-0,061	-0,006
-521,189	436,543	0,043	-0,068
-520,175	800,000	0,051	-0,119
-519,160	29,172	0,047	-0,029
-518,145	222,754	0,065	-0,077
-517,131	-200,000	-0,015	0,100
-516,116	800,000	-0,009	0,023
-515,102	-188,309	0,031	-0,000
-514,087	146,513	-0,070	-0,069
-513,072	-65,686	0,093	-0,027
-512,058	370,319	-0,066	-0,099
-511,043	17,559	-0,128	-0,074
-510,029	21,259	-0,072	0,043
-509,014	-121,842	0,092	-0,011
-507,999	-200,000	-0,009	0,094
-506,985	-152,341	0,105	0,005
-505,970	-147,020	0,038	0,002
-504,956	26,757	-0,134	0,082
-503,941	-50,071	-0,123	0,042
-502,926	-129,806	0,089	-0,009
-501,912	38,135	0,063	0,041
-500,897	-190,754	-0,107	0,001
-499,883	800,000	0,019	-0,056
-498,868	-200,000	-0,017	-0,120
-497,853	-147,571	-0,059	-0,004
-496,839	-200,000	-0,004	-0,032
-495,824	121,513	0,057	-0,052
-494,810	-153,093	0,134	0,007
-493,795	800,000	-0,070	0,166
-492,781	130,486	-0,037	-0,035
-491,766	-111,319	-0,079	-0,012
-490,751	-200,000	-0,011	-0,163
-489,737	51,332	0,036	-0,025
-488,722	-159,153	-0,135	0,005
-487,708	-41,240	0,128	0,048
-486,693	-166,253	0,031	-0,001
-485,678	-170,888	0,156	-0,004
-484,664	800,000	-0,053	-0,121
-483,649	-178,530	-0,102	0,002
-482,635	514,843	0,051	-0,087
-481,620	383,118	-0,023	0,034
-480,605	33,524	0,039	0,025
-479,591	-7,768	0,159	0,078
-478,576	154,756	-0,064	-0,064
-477,562	-7,358	-0,048	0,024
-476,547	326,874	0,133	0,186
-475,532	-62,577	-0,010	-0,003
-474,518	152,936	-0,060	-0,060
-473,503	-200,000	0,003	-0,035
-472,489	-200,000	0,050	-0,163
-471,474	9,854	-0,023	0,013
-470,459	240,325	-0,089	0,109
-469,445	1,189	-0,158	-0,083
-468,430	-62,397	-0,036	-0,011
-467,416	502,610	-0,038	-0,065
-466,401	-117,022	0,069	0,009
-465,386	-200,000	-0,002	0,049
-464,372	-85,553	-0,203	-0,046
-463,357	-200,000	-0,006	-0,056
-462,343	-92,596	-0,037	0,007
-461,328	64,546	0,044	0,033
-460,313	143,514	0,061	-0,060
-459,299	55,218	-0,067	-0,047
-458,284	175,019	0,079	0,084
-457,270	-16,572	-0,077	0,035
-456,255	-184,545	0,126	0,001
-455,241	-200,000	0,002	0,107
-454,226	201,432	-0,122	-0,138
-453,211	-200,000	-0,026	-0,091
-452,197	-140,516	0,154	0,011
-451,182	795,334	-0,024	0,048
-450,168	-101,881	0,138	0,024
-449,153	80,808	-0,055	0,043
-448,138	-29,663	-0,089	-0,037
-447,124	-200,000	0,006	0,036
-446,109	-160,137	-0,115	-0,004
-445,095	-75,226	0,078	-0,020
-444,080	109,652	0,049	0,043
-443,065	510,268	-0,022	0,038
-442,051	158,060	0,018	0,018
-441,036	-200,000	-0,028	-0,090
-440,022	179,183	-0,071	-0,076
-439,007	282,831	0,020	-0,026
-437,992	800,000	0,052	0,130
-436,978	-200,000	-0,008	-0,034
-435,963	115,280	0,038	-0,034
-434,949	234,147	0,095	-0,114
-433,934	-200,000	-0,018	-0,138
-432,919	201,270	0,023	-0,026
-431,905	-28,121	0,061	0,026
-430,890	215,493	0,037	0,043
-429,876	294,342	-0,028	-0,037
-428,861	-200,000	-0,021	0,119
-427,846	-25,023	-0,059	0,025
-426,832	-81,646	-0,236	-0,056
-425,817	724,265	-0,031	-0,060
-424,803	800,000	-0,040	-0,101
-423,788	-30,096	-0,020	0,008
-422,773	-178,247	0,205	0,003
-421,759	675,021	0,024	-0,046
-420,744	-32,126	0,057	0,023
-419,730	-76,619	-0,049	0,012
-418,715	57,431	0,053	-0,038
-417,701	-70,086	-0,125	-0,034
-416,686	-200,000	0,008	0,062
-415,671	800,000	0,002	-0,005
-414,657	588,315	0,054	-0,097
-413,642	-200,000	0,010	0,078
-412,628	-15,624	-0,176	0,081
-411,613	-68,552	0,108	0,030
-410,598	-200,000	0,003	-0,036
-409,584	-125,340	0,084	-0,009
-408,569	-200,000	0,010	0,074
-407,555	-15,926	0,075	-0,035
-406,540	-106,917	0,191	-0,030
-405,525	417,655	0,060	0,093
-404,511	-46,359	-0,058	-0,021
-403,496	-108,827	-0,148	-0,023
-402,482	-200,000	0,005	0,138
-401,467	-78,403	0,085	0,021
-400,452	800,000	0,026	-0,077
-399,438	4,419	-0,084	-0,045
-398,423	-48,763	0,039	-0,013
-397,409	-200,000	-0,006	-0,147
-396,394	800,000	0,036	-0,075
-395,379	232,868	0,026	-0,031
-394,365	-88,081	-0,109	-0,024
-393,350	105,155	-0,079	-0,068
-392,336	46,199	0,046	-0,031
-391,321	-200,000	-0,007	0,035
-390,306	395,126	0,014	-0,021
-389,292	70,153	0,013	0,010
-388,277	128,152	-0,082	-0,076
-387,263	122,304	0,019	0,017
-386,248	220,374	0,057	-0,067
-385,233	800,000	-0,022	0,048
-384,219	-0,712	-0,107	0,055
-383,204	-18,820	-0,014	0,006
-382,190	-200,000	0,050	-0,176
-381,175	800,000	-0,038	-0,109
-380,160	-128,532	-0,028	0,003
-379,146	-70,166	0,156	0,043
-378,131	-137,140	0,039	-0,003
-377,117	335,441	0,066	-0,093
-376,102	35,749	0,155	-0,099
-375,088	217,179	-0,035	-0,040
-374,073	96,214	0,144	0,120
-373,058	-200,000	-0,002	-0,032
-372,044	260,281	0,095	0,119
-371,029	-124,617	0,209	0,023
-370,015	542,779	-0,067	-0,116
-369,000	-200,000	0,010	0,046
-367,985	800,000	0,000	0,001
-366,971	398,389	-0,020	0,031
-365,956	-106,968	-0,110	0,017
-364,942	-200,000	0,007	0,055
-363,927	-200,000	0,014	0,144
-362,912	-116,783	0,074	0,010
-361,898	-200,000	0,001	-0,106
-360,883	-144,264	-0,114	0,008
-359,869	-200,000	0,047	0,195
-358,854	60,147	0,099	0,071
-357,839	154,680	-0,042	-0,042
-356,825	565,982	-0,062	0,110
-355,810	-117,960	0,072	0,009
-354,796	-48,446	-0,052	0,018
-353,781	-200,000	-0,003	-0,072
-352,766	-120,484	0,132	-0,016
-351,752	-200,000	0,010	-0,069
-350,737	-82,287	0,156	0,037
-349,723	186,265	-0,076	0,083
-348,708	-70,964	-0,119	0,032
-347,693	18,097	0,098	0,057
-346,679	800,000	0,078	0,165
-345,664	-85,304	0,077	0,017
-344,650	-90,019	0,102	0,021
-343,635	-200,000	-0,051	0,218
-342,620	-41,192	0,057	0,021
-341,606	-20,699	-0,062	0,027
-340,591	-97,648	0,097	-0,018
-339,577	-24,700	-0,165	-0,071
-338,562	800,000	0,028	0,063
-337,548	129,419	-0,056	-0,052
-336,533	17,995	0,148	0,085
-335,518	-200,000	-0,008	-0,044
-334,504	320,908	-0,096	-0,133
-333,489	-19,049	-0,102	0,046
-332,475	800,000	0,015	-0,034
-331,460	148,427	-0,042	-0,041
-330,445	-136,476	-0,064	0,005
-329,431	-200,000	-0,001	-0,011
-328,416	-181,239	-0,042	0,001
-327,402	203,605	0,062	-0,070
-326,387	7,977	0,079	0,043
-325,372	157,735	0,024	-0,024
-324,358	-64,818	0,105	-0,031
-323,343	-157,023	0,137	-0,006
-322,329	60,880	-0,050	0,036
-321,314	130,097	-0,067	-0,063
-320,299	-200,000	0,035	0,118
-319,285	-67,593	0,095	0,027
-318,270	800,000	-0,082	-0,227
-317,256	-200,000	-0,012	-0,057
-316,241	-200,000	-0,000	0,143
-315,226	-200,000	0,018	0,061
-314,212	499,876	-0,046	0,077
-313,197	-56,724	-0,080	0,025
-312,183	-58,337	0,034	-0,011
-311,168	103,894	0,079	0,067
-310,153	140,957	-0,110	0,106
-309,139	-2,448	0,121	0,061
-308,124	-200,000	0,002	0,010
-307,110	1,598	0,063	-0,033
-306,095	91,297	0,024	0,019
-305,080	-200,000	0,008	0,072
-304,066	-200,000	-0,015	0,156
-303,051	588,728	0,066	-0,118
-302,037	190,282	-0,059	-0,064
-301,022	800,000	0,017	-0,053
-300,008	-200,000	-0,004	-0,084
-298,993	547,819	0,048	0,084
-297,978	-200,000	-0,012	0,047
-296,964	-22,851	-0,163	0,071
-295,949	390,172	0,059	0,089
-294,935	44,828	0,085	0,057
-293,920	169,995	-0,035	0,036
-292,905	-48,431	-0,098	-0,034
-291,891	-29,859	0,141	0,058
-290,876	124,453	0,024	-0,022
-289,862	800,000	-0,037	0,105
-288,847	-149,908	0,098	-0,005
-287,832	-22,721	-0,126	0,055
-286,818	-200,000	-0,019	0,082
-285,803	800,000	-0,048	0,114
-284,789	414,699	-0,054	0,083
-283,774	362,948	0,050	-0,072
-282,759	0,600	0,077	0,040
-281,745	-200,000	0,003	-0,079
-280,730	-200,000	-0,032	-0,121
-279,716	800,000	-0,018	0,046
-278,701	82,287	0,085	0,067
-277,686	160,882	0,096	0,097
-276,672	318,432	0,034	0,047
-275,657	-200,000	0,006	-0,033
-274,643	78,884	-0,077	0,059
-273,628	-154,718	0,081	-0,004
-272,613	-200,000	0,018	0,059
-271,599	800,000	0,037	0,083
-270,584	-200,000	-0,007	-0,024
-269,570	-200,000	-0,004	0,015
-268,555	800,000	0,039	0,101
-267,540	-78,697	-0,111	-0,027
-266,526	18,640	0,076	-0,044
-265,511	-142,637	0,073	0,005
-264,497	0,335	-0,064	-0,033
-263,482	365,465	-0,051	0,074
-262,467	165,874	-0,051	0,052
-261,453	800,000	0,101	0,209
-260,438	800,000	0,007	-0,016
-259,424	-31,554	-0,082	-0,033
-258,409	-200,000	0,017	0,210
-257,395	-69,253	-0,111	0,031
-256,380	260,305	0,110	0,138
-255,365	-127,062	0,049	-0,005
-254,351	124,678	0,079	0,072
-253,336	-85,766	-0,203	0,045
-252,322	-59,017	0,035	-0,011
-251,307	22,939	-0,127	-0,075
-250,292	204,689	0,008	0,009
-249,278	427,335	-0,032	0,051
-248,263	800,000	0,042	0,129
-247,249	-200,000	-0,004	0,068
-246,234	-200,000	-0,005	0,122
-245,219	65,841	-0,033	0,024
-244,205	-89,571	-0,112	0,023
-243,190	-139,351	0,056	-0,004
-242,176	408,437	0,071	0,109
-241,161	-71,521	0,074	-0,020
-240,146	-200,000	-0,025	-0,091
-239,132	254,472	0,092	-0,113
-238,117	3,985	-0,040	-0,021
-237,103	69,490	-0,095	0,071
-236,088	40,534	0,093	-0,061
-235,073	-100,275	-0,228	0,041
-234,059	227,636	0,145	0,171
-233,044	800,000	0,071	0,192
-232,030	800,000	-0,050	0,117
-231,015	-100,567	-0,050	0,009
-230,000	137,774	0,074	0,070
-228,986	-8,232	0,042	0,020
-227,971	-200,000	0,019	-0,089
-226,957	-200,000	-0,025	0,125
-225,942	460,990	-0,082	0,133
-224,927	-200,000	0,010	-0,094
-223,913	310,736	-0,078	0,106
-222,898	103,381	0,093	-0,079
-221,884	11,602	0,053	0,030
-220,869	48,154	0,115	-0,077
-219,855	4,750	-0,038	-0,020
-218,840	110,955	-0,054	0,047
-217,825	295,700	-0,013	-0,017
-216,811	322,960	0,022	-0,030
-215,796	-184,293	-0,087	-0,001
-214,782	-114,351	-0,123	0,017
-213,767	277,372	0,087	-0,113
-212,752	442,055	0,117	-0,186
-211,738	-200,000	-0,004	-0,073
-210,723	-87,968	0,070	0,015
-209,709	-104,228	-0,088	0,015
-208,694	-61,377	-0,120	0,036
-207,679	-200,000	-0,012	0,069
-206,665	448,467	-0,030	0,048
-205,650	-89,575	0,108	-0,023
-204,636	800,000	0,013	-0,033
-203,621	-174,812	-0,063	0,001
-202,606	442,852	-0,021	0,033
-201,592	139,011	-0,084	0,080
-200,577	-76,620	-0,092	-0,023
-199,563	127,698	-0,060	-0,055
-198,548	75,034	-0,031	0,024
-197,533	-80,901	0,129	-0,031
-196,519	-44,471	0,054	0,019
-195,504	109,592	0,067	0,058
-194,490	-112,511	-0,027	-0,004
-193,475	-111,280	-0,120	-0,018
-192,460	638,823	0,027	-0,049
-191,446	800,000	-0,003	-0,010
-190,431	118,574	0,038	0,034
-189,417	631,156	0,052	0,095
-188,402	620,201	-0,042	0,076
-187,387	800,000	0,018	0,038
-186,373	-200,000	0,008	-0,037
-185,358	69,554	-0,057	-0,042
-184,344	-95,448	0,139	-0,027
-183,329	87,729	0,100	-0,080
-182,315	433,392	0,072	-0,113
-181,300	800,000	-0,036	0,079
-180,285	209,945	0,022	0,025
-179,271	-200,000	-0,013	-0,067
-178,256	-0,388	0,072	0,037
-177,242	800,000	-0,083	-0,225
-176,227	-33,019	0,083	-0,033
-175,212	-54,684	0,086	0,028
-174,198	83,002	0,018	0,014
-173,183	114,565	-0,068	-0,060
-172,169	-200,000	0,009	0,041
-171,154	-200,000	-0,004	-0,121
-170,139	54,984	-0,091	-0,063
-169,125	123,734	-0,090	0,082
-168,110	308,154	-0,002	-0,003
-167,096	-194,212	-0,101	-0,001
-166,081	-141,454	-0,067	0,005
-165,066	-200,000	0,016	-0,063
-164,052	-50,603	-0,024	0,008
-163,037	-68,392	0,025	-0,007
-162,023	800,000	-0,019	0,043
-161,008	394,265	0,020	-0,030
-159,993	258,852	0,052	0,065
-158,979	113,379	-0,071	-0,062
-157,964	-146,507	-0,104	0,006
-156,950	-58,631	-0,047	-0,015
-155,935	-119,660	0,163	0,020
-154,920	725,000	0,027	0,052
-153,906	1,510	0,046	-0,024
-152,891	-200,000	0,004	0,025
-151,877	10,759	0,074	0,041
-150,862	474,905	0,051	0,083
-149,847	-53,614	0,086	0,028
-148,833	800,000	-0,035	0,099
-147,818	-200,000	-0,002	0,073
-146,804	-200,000	-0,015	-0,096
-145,789	-58,353	0,054	-0,017
-144,775	-200,000	-0,040	-0,225
-143,760	-31,196	-0,036	-0,015
-142,745	334,565	-0,088	0,123
-141,731	-46,777	-0,012	0,004
-140,716	79,778	0,043	0,033
-139,702	-200,000	0,017	0,117
-138,687	-200,000	-0,007	-0,048
-137,672	46,573	-0,088	0,058
-136,658	229,008	0,064	-0,075
-135,643	411,228	-0,097	-0,149
-134,629	-92,125	-0,062	-0,012
-133,614	748,376	-0,046	-0,090
-132,599	-88,555	0,137	0,029
-131,585	53,626	-0,053	0,037
-130,570	-27,511	0,086	0,036
-129,556	-88,789	0,048	0,010
-128,541	-85,522	-0,056	0,012
-127,526	-200,000	-0,007	0,049
-126,512	51,947	-0,014	0,010
-125,497	-50,361	-0,097	0,033
-124,483	567,964	-0,093	0,164
-123,468	-200,000	0,005	-0,059
-122,453	380,826	-0,055	-0,081
-121,439	-15,464	-0,107	0,049
-120,424	-113,471	0,034	-0,005
-119,410	-200,000	0,034	0,168
