DTS Sentinel unit serial number:	SN410029Multiplexer serial number:	ORYXHardware model number:	OX2-SRSoftware version number:	ORYX F/W v4,00 Oryx Data Collector v3.7.2.0data status	okinstallation	B5 Nyhavnadifferential loss correction	single-endedforward channel	channel 2reverse channel	N/Adate	2023/12/13time	13:37:13forward acquisition time	300,00reverse acquisition time	0,00gamma	499,1914k internal	0,3161k external	0,3161temperature offset calibration	1,0000default loss term (dB/km)	0,3820temperature slope calibration	1,0000multiplexer offset coefficient	1,0000multiplexer slope coefficient	1,0000fibre end	0,00T internal ref (°C)	14,68T ext. ref 1 (°C)	-1,13T ext. ref 2 (°C)	-1,39length (m)	temperature (°C)	Stokes	anti-Stokes-744,400	249,806	0,078	-0,098
-743,385	-150,709	-0,322	0,018
-742,371	-120,944	-0,046	0,006
-741,356	-91,210	-0,341	0,071
-740,342	800,000	0,044	0,134
-739,327	-15,391	-0,285	-0,133
-738,312	800,000	-0,050	0,160
-737,298	-70,904	-0,202	-0,056
-736,283	-48,183	0,205	0,072
-735,269	-109,382	-0,352	-0,054
-734,254	92,689	0,086	0,072
-733,239	-24,037	-0,514	-0,225
-732,225	86,421	0,130	-0,105
-731,210	-12,814	0,024	-0,012
-730,196	800,000	-0,054	-0,142
-729,181	-79,835	-0,064	0,016
-728,167	172,536	0,101	0,108
-727,152	229,563	0,057	-0,068
-726,137	-11,303	-0,091	0,044
-725,123	-75,721	-0,186	-0,048
-724,108	-200,000	-0,038	-0,130
-723,094	132,980	-0,123	-0,116
-722,079	40,505	-0,076	-0,050
-721,064	254,639	0,055	-0,069
-720,050	136,287	-0,046	0,044
-719,035	800,000	-0,038	0,094
-718,021	22,820	-0,136	-0,082
-717,006	-124,618	-0,058	-0,007
-715,991	800,000	-0,011	-0,028
-714,977	-200,000	0,012	-0,128
-713,962	-200,000	-0,025	-0,134
-712,948	-200,000	-0,000	0,076
-711,933	552,696	-0,039	0,069
-710,918	-92,474	0,142	0,029
-709,904	216,167	-0,100	-0,117
-708,889	-200,000	-0,031	-0,125
-707,875	418,800	-0,083	-0,131
-706,860	800,000	-0,046	-0,115
-705,845	800,000	0,041	0,092
-704,831	-200,000	0,008	0,096
-703,816	-200,000	-0,005	-0,122
-702,802	-200,000	0,005	0,086
-701,787	800,000	-0,017	-0,051
-700,772	-95,411	-0,064	-0,012
-699,758	-117,754	-0,088	0,011
-698,743	33,806	-0,019	-0,012
-697,729	-200,000	0,007	0,061
-696,714	25,739	-0,041	0,025
-695,699	128,603	-0,010	-0,009
-694,685	44,941	-0,129	-0,087
-693,670	-132,302	-0,138	-0,013
-692,656	-87,045	-0,113	0,025
-691,641	-26,036	0,041	-0,017
-690,627	14,813	-0,023	0,013
-689,612	-108,376	0,016	0,003
-688,597	13,296	-0,020	-0,012
-687,583	723,927	-0,046	-0,090
-686,568	-200,000	0,005	0,026
-685,554	287,478	-0,060	-0,080
-684,539	-176,326	0,198	0,004
-683,524	218,000	-0,056	0,065
-682,510	-183,485	-0,073	0,001
-681,495	-35,098	-0,074	-0,030
-680,481	-101,698	0,051	-0,009
-679,466	-15,519	-0,011	0,005
-678,451	191,348	-0,006	0,006
-677,437	749,841	0,035	0,070
-676,422	-94,879	-0,159	-0,031
-675,408	224,226	-0,034	0,041
-674,393	395,740	-0,032	-0,049
-673,378	320,129	0,054	-0,075
-672,364	-101,880	-0,129	0,023
-671,349	334,772	-0,101	-0,145
-670,335	-200,000	-0,012	-0,047
-669,320	-40,141	-0,109	0,042
-668,305	-200,000	0,029	0,115
-667,291	16,259	0,098	-0,057
-666,276	-200,000	0,007	-0,040
-665,262	-9,467	0,038	-0,018
-664,247	37,296	-0,101	-0,065
-663,232	-50,596	-0,029	-0,010
-662,218	-107,846	-0,105	0,017
-661,203	-200,000	0,030	0,143
-660,189	-200,000	-0,010	0,082
-659,174	69,227	-0,087	-0,066
-658,159	-57,528	-0,057	-0,018
-657,145	59,821	-0,093	-0,067
-656,130	-152,669	0,163	-0,008
-655,116	-200,000	0,012	-0,211
-654,101	-200,000	0,025	0,137
-653,086	62,808	0,035	0,026
-652,072	800,000	-0,030	-0,065
-651,057	-184,955	-0,208	-0,002
-650,043	800,000	0,020	-0,060
-649,028	380,447	-0,081	-0,122
-648,014	266,165	0,068	0,087
-646,999	165,648	-0,015	-0,015
-645,984	-200,000	-0,023	0,153
-644,970	17,797	-0,096	-0,056
-643,955	202,939	0,075	-0,085
-642,941	558,218	0,053	0,095
-641,926	17,570	-0,096	0,056
-640,911	-0,740	0,109	-0,056
-639,897	-200,000	0,003	0,078
-638,882	-103,269	-0,035	0,006
-637,868	1,673	-0,034	-0,018
-636,853	-111,948	-0,164	-0,024
-635,838	-200,000	0,000	0,039
-634,824	-200,000	-0,022	-0,130
-633,809	-200,000	-0,036	-0,127
-632,795	176,733	-0,038	0,041
-631,780	228,059	-0,032	-0,039
-630,765	159,948	0,010	-0,010
-629,751	222,723	-0,100	-0,118
-628,736	800,000	0,011	-0,027
-627,722	54,412	0,075	-0,053
-626,707	-200,000	0,006	0,047
-625,692	-200,000	-0,018	0,058
-624,678	800,000	-0,028	-0,073
-623,663	464,909	0,046	-0,075
-622,649	617,747	-0,007	0,012
-621,634	-1,707	-0,075	0,038
-620,619	800,000	0,026	-0,080
-619,605	86,211	-0,073	0,059
-618,590	174,951	0,098	0,105
-617,576	444,290	0,009	-0,015
-616,561	27,095	0,057	0,035
-615,546	-58,439	0,156	-0,049
-614,532	-151,535	-0,065	0,003
-613,517	-19,657	0,017	0,008
-612,503	-35,300	-0,047	0,019
-611,488	1,925	0,039	0,021
-610,474	63,363	-0,094	0,069
-609,459	319,877	-0,037	0,051
-608,444	108,562	-0,068	-0,059
-607,430	-200,000	0,007	-0,027
-606,415	-200,000	0,015	-0,066
-605,401	140,983	-0,015	0,015
-604,386	20,186	-0,190	-0,112
-603,371	19,516	-0,047	-0,027
-602,357	302,820	-0,132	-0,179
-601,342	-13,902	-0,077	-0,036
-600,328	-107,142	-0,129	0,021
-599,313	-200,000	-0,014	-0,127
-598,298	-87,265	0,111	-0,024
-597,284	800,000	-0,071	0,147
-596,269	-94,813	0,082	-0,016
-595,255	-22,388	0,088	-0,039
-594,240	148,123	-0,072	-0,072
-593,225	-114,839	-0,143	0,020
-592,211	800,000	-0,007	0,021
-591,196	-200,000	0,009	0,154
-590,182	-200,000	-0,000	-0,078
-589,167	-200,000	0,024	0,086
-588,152	340,045	-0,086	0,123
-587,138	-43,339	-0,092	-0,034
-586,123	800,000	0,060	-0,122
-585,109	-118,405	-0,097	-0,012
-584,094	800,000	0,019	-0,043
-583,079	-89,619	0,086	0,018
-582,065	800,000	0,026	-0,066
-581,050	800,000	-0,017	-0,039
-580,036	-77,559	-0,099	-0,025
-579,021	-200,000	0,003	-0,039
-578,006	-200,000	-0,011	-0,142
-576,992	771,712	0,024	0,048
-575,977	-118,984	0,144	-0,018
-574,963	-200,000	0,008	-0,079
-573,948	-200,000	0,004	0,084
-572,934	225,887	0,036	0,042
-571,919	800,000	-0,040	-0,110
-570,904	800,000	0,016	-0,051
-569,890	-127,883	0,130	-0,013
-568,875	84,043	-0,024	-0,019
-567,861	61,717	0,066	0,048
-566,846	-200,000	0,048	0,157
-565,831	-31,036	-0,073	0,030
-564,817	-76,624	-0,045	0,011
-563,802	-108,861	-0,041	0,006
-562,788	-200,000	-0,026	-0,096
-561,773	178,930	0,057	-0,061
-560,758	-200,000	0,001	-0,020
-559,744	-200,000	0,013	0,058
-558,729	-200,000	-0,004	-0,171
-557,715	-51,607	-0,096	0,033
-556,700	300,174	-0,068	0,092
-555,685	36,240	-0,131	0,084
-554,671	660,789	0,041	-0,077
-553,656	373,874	-0,047	-0,071
-552,642	20,570	0,044	-0,026
-551,627	-200,000	-0,003	0,032
-550,612	-69,645	-0,051	0,014
-549,598	-53,317	-0,098	0,033
-548,583	173,635	-0,060	-0,063
-547,569	-200,000	0,010	0,038
-546,554	128,028	-0,056	0,052
-545,539	-62,507	0,064	-0,019
-544,525	313,015	0,049	0,067
-543,510	21,490	-0,054	-0,032
-542,496	-200,000	-0,023	0,082
-541,481	-22,460	-0,046	-0,020
-540,466	-174,645	-0,055	0,001
-539,452	258,729	0,104	0,131
-538,437	-98,094	0,117	0,022
-537,423	-200,000	-0,012	-0,067
-536,408	203,293	0,148	0,168
-535,393	212,609	-0,023	-0,026
-534,379	266,995	-0,086	0,110
-533,364	414,041	-0,048	0,075
-532,350	-111,735	-0,029	-0,004
-531,335	-159,490	0,018	-0,001
-530,321	-200,000	0,022	-0,075
-529,306	88,631	0,062	-0,051
-528,291	-123,228	-0,063	-0,007
-527,277	-200,000	-0,018	-0,063
-526,262	18,984	0,024	0,014
-525,248	643,765	-0,035	-0,066
-524,233	-101,919	0,120	-0,021
-523,218	-88,776	0,059	-0,013
-522,204	359,618	-0,060	0,088
-521,189	644,662	0,032	0,060
-520,175	-200,000	-0,003	-0,051
-519,160	-157,397	-0,222	-0,010
-518,145	145,357	0,122	0,119
-517,131	-200,000	0,018	-0,081
-516,116	-200,000	0,028	0,171
-515,102	-200,000	0,015	-0,083
-514,087	-200,000	-0,016	-0,252
-513,072	18,134	-0,041	0,024
-512,058	-200,000	-0,007	0,076
-511,043	-52,171	0,071	-0,024
-510,029	228,773	0,093	0,111
-509,014	-82,366	0,076	-0,018
-507,999	-0,106	0,076	-0,039
-506,985	-91,308	-0,090	0,019
-505,970	-190,952	0,020	0,000
-504,956	-200,000	0,008	0,058
-503,941	552,637	0,039	0,068
-502,926	296,315	-0,075	-0,101
-501,912	18,188	0,115	-0,066
-500,897	-200,000	0,001	-0,048
-499,883	-86,798	-0,077	0,017
-498,868	444,511	-0,093	-0,150
-497,853	307,897	0,073	-0,100
-496,839	193,827	-0,068	-0,075
-495,824	-200,000	-0,010	0,142
-494,810	-200,000	0,015	0,111
-493,795	800,000	-0,031	0,068
-492,781	800,000	0,053	0,119
-491,766	-87,658	-0,071	0,015
-490,751	-125,232	0,098	-0,011
-489,737	-200,000	-0,041	0,239
-488,722	-200,000	0,014	0,070
-487,708	254,503	0,053	0,066
-486,693	-29,916	-0,083	0,034
-485,678	-155,889	0,034	0,002
-484,664	-178,122	-0,062	-0,001
-483,649	287,270	-0,060	0,079
-482,635	427,512	-0,033	-0,052
-481,620	800,000	0,052	-0,149
-480,605	8,493	-0,102	0,056
-479,591	565,224	-0,033	0,058
-478,576	800,000	0,033	0,067
-477,562	-15,624	0,101	-0,047
-476,547	-83,604	-0,020	0,005
-475,532	173,781	0,065	0,069
-474,518	-200,000	0,004	0,020
-473,503	-41,615	-0,056	0,021
-472,489	123,210	0,041	0,038
-471,474	540,549	0,050	-0,087
-470,459	8,267	-0,065	0,035
-469,445	-200,000	-0,007	-0,120
-468,430	16,350	0,031	-0,018
-467,416	-104,613	0,065	0,011
-466,401	477,708	-0,059	-0,098
-465,386	-26,427	0,053	0,023
-464,372	183,302	-0,047	0,051
-463,357	-115,984	-0,086	0,012
-462,343	53,790	-0,046	-0,032
-461,328	17,849	-0,127	-0,073
-460,313	-200,000	-0,001	0,048
-459,299	800,000	0,018	0,056
-458,284	221,124	0,081	-0,095
-457,270	12,257	0,061	-0,034
-456,255	108,105	-0,086	-0,074
-455,241	158,079	-0,144	-0,146
-454,226	-26,713	-0,109	-0,046
-453,211	676,981	-0,024	-0,045
-452,197	49,892	0,045	-0,031
-451,182	-200,000	0,002	-0,056
-450,168	-112,354	0,061	-0,009
-449,153	-21,746	0,077	0,034
-448,138	-200,000	0,009	-0,176
-447,124	-200,000	0,046	0,000
-446,109	60,214	-0,010	0,007
-445,095	-108,698	0,074	0,011
-444,080	-23,613	0,067	-0,029
-443,065	196,544	0,068	-0,075
-442,051	800,000	0,056	0,128
-441,036	-72,506	-0,062	0,016
-440,022	222,726	0,056	0,065
-439,007	-23,217	0,047	0,020
-437,992	800,000	0,042	0,099
-436,978	-200,000	-0,017	0,075
-435,963	-126,512	0,079	-0,008
-434,949	800,000	-0,023	0,059
-433,934	-21,875	-0,159	-0,070
-432,919	800,000	0,013	-0,036
-431,905	-200,000	-0,038	-0,137
-430,890	23,509	0,057	-0,034
-429,876	171,999	0,046	0,048
-428,861	-200,000	0,017	0,097
-427,846	234,402	0,067	0,081
-426,832	-153,847	-0,057	-0,003
-425,817	-200,000	0,011	0,079
-424,803	800,000	0,033	-0,091
-423,788	800,000	0,049	-0,124
-422,773	41,267	0,132	-0,087
-421,759	-200,000	-0,051	0,196
-420,744	56,774	-0,076	0,054
-419,730	38,572	-0,048	-0,031
-418,715	-200,000	0,019	-0,158
-417,701	-200,000	-0,002	-0,063
-416,686	-10,067	0,055	-0,027
-415,671	-138,365	0,121	0,010
-414,657	398,161	-0,035	-0,054
-413,642	-150,574	-0,110	-0,006
-412,628	58,550	0,080	-0,057
-411,613	-200,000	0,005	0,037
-410,598	-0,734	-0,062	-0,032
-409,584	-123,150	0,062	-0,007
-408,569	-45,902	-0,066	-0,024
-407,555	800,000	-0,027	-0,066
-406,540	205,704	0,094	0,106
-405,525	-144,405	-0,165	-0,011
-404,511	487,853	-0,045	-0,075
-403,496	-79,529	-0,182	0,044
-402,482	79,272	0,028	0,022
-401,467	87,664	-0,053	-0,043
-400,452	-104,257	-0,144	0,024
-399,438	-74,109	-0,139	0,036
-398,423	-73,291	0,105	0,028
-397,409	-200,000	-0,003	0,070
-396,394	-166,709	-0,076	-0,002
-395,379	246,547	-0,074	0,091
-394,365	-200,000	0,003	0,025
-393,350	505,836	0,048	0,081
-392,336	-73,621	-0,071	0,019
-391,321	800,000	0,027	-0,077
-390,306	-200,000	0,014	-0,085
-389,292	-200,000	0,001	-0,034
-388,277	221,776	0,082	-0,096
-387,263	-83,809	0,088	0,020
-386,248	800,000	0,058	0,140
-385,233	-200,000	-0,015	-0,049
-384,219	800,000	-0,022	-0,070
-383,204	-200,000	-0,001	0,048
-382,190	323,891	-0,052	0,072
-381,175	-180,615	0,114	0,002
-380,160	87,662	0,027	0,022
-379,146	99,675	0,124	-0,104
-378,131	-200,000	-0,014	0,124
-377,117	-144,232	0,143	0,010
-376,102	151,528	-0,083	-0,082
-375,088	-121,265	-0,091	-0,011
-374,073	-200,000	-0,049	0,000
-373,058	-108,870	0,056	0,009
-372,044	-200,000	-0,008	-0,037
-371,029	-56,986	0,114	0,036
-370,015	800,000	-0,040	-0,089
-369,000	-74,860	-0,085	0,022
-367,985	414,512	0,025	-0,039
-366,971	-128,731	0,036	0,004
-365,956	47,596	0,097	0,065
-364,942	59,353	0,045	0,032
-363,927	275,283	0,101	0,130
-362,912	-200,000	-0,026	0,139
-361,898	-63,357	-0,120	-0,035
-360,883	96,776	-0,090	-0,075
-359,869	-1,849	-0,065	-0,033
-358,854	-104,374	0,090	-0,015
-357,839	82,210	0,124	0,097
-356,825	800,000	-0,033	0,089
-355,810	-75,368	-0,064	0,016
-354,796	424,183	0,100	-0,157
-353,781	-7,624	0,079	0,039
-352,766	213,107	0,015	0,017
-351,752	59,354	0,135	0,097
-350,737	101,608	-0,047	-0,040
-349,723	488,048	0,088	0,146
-348,708	-200,000	-0,015	0,155
-347,693	-200,000	0,012	-0,109
-346,679	-200,000	0,017	-0,062
-345,664	-147,349	0,060	0,004
-344,650	-200,000	-0,010	0,047
-343,635	-117,761	-0,140	-0,018
-342,620	284,991	0,054	0,070
-341,606	-200,000	-0,005	0,043
-340,591	800,000	-0,007	0,019
-339,577	-200,000	0,033	-0,170
-338,562	-200,000	-0,022	-0,117
-337,548	24,669	-0,060	0,036
-336,533	-18,872	-0,110	0,049
-335,518	637,629	0,097	0,180
-334,504	-34,902	0,030	0,012
-333,489	427,834	-0,059	-0,092
-332,475	612,062	0,075	-0,137
-331,460	-200,000	0,005	0,021
-330,445	-62,265	-0,036	0,011
-329,431	-2,743	-0,038	-0,019
-328,416	-200,000	0,000	0,038
-327,402	65,496	0,089	-0,065
-326,387	381,948	-0,044	0,066
-325,372	-102,260	-0,025	-0,004
-324,358	-200,000	0,015	0,067
-323,343	-64,797	-0,130	-0,038
-322,329	-200,000	0,024	0,139
-321,314	78,010	-0,075	0,058
-320,299	516,926	0,078	0,132
-319,285	800,000	0,027	0,065
-318,270	311,400	-0,054	0,074
-317,256	206,300	0,045	-0,050
-316,241	-106,157	0,045	-0,007
-315,226	236,653	-0,029	0,035
-314,212	225,945	0,058	0,068
-313,197	183,105	0,068	-0,073
-312,183	380,124	0,076	0,113
-311,168	44,520	0,100	-0,066
-310,153	50,775	0,035	0,024
-309,139	104,925	-0,068	-0,058
-308,124	176,824	-0,064	0,067
-307,110	406,984	0,037	0,057
-306,095	-118,260	0,085	-0,011
-305,080	-200,000	-0,012	0,070
-304,066	453,857	-0,061	0,098
-303,051	-34,975	-0,063	-0,025
-302,037	-11,848	-0,124	0,059
-301,022	157,852	0,090	0,090
-300,008	-200,000	-0,020	0,072
-298,993	800,000	-0,040	0,117
-297,978	-80,324	-0,145	-0,035
-296,964	800,000	-0,038	-0,098
-295,949	268,067	0,030	-0,038
-294,935	53,675	-0,123	-0,085
-293,920	-25,809	-0,140	0,060
-292,905	-200,000	-0,005	0,081
-291,891	3,261	0,136	0,072
-290,876	-200,000	-0,030	0,127
-289,862	800,000	-0,053	-0,111
-288,847	800,000	0,045	-0,103
-287,832	-200,000	-0,007	-0,045
-286,818	30,912	-0,064	-0,040
-285,803	64,355	0,104	0,076
-284,789	34,230	0,043	0,027
-283,774	-200,000	0,013	0,149
-282,759	-53,432	0,162	0,053
-281,745	30,694	-0,071	-0,044
-280,730	-200,000	-0,010	-0,096
-279,716	136,456	0,040	-0,038
-278,701	97,192	0,018	-0,015
-277,686	-127,840	-0,116	0,012
-276,672	493,785	-0,020	-0,034
-275,657	-0,306	-0,131	-0,067
-274,643	-200,000	0,023	-0,134
-273,628	274,756	-0,052	-0,067
-272,613	311,133	0,047	0,064
-271,599	-163,523	0,174	0,006
-270,584	-169,536	0,022	0,001
-269,570	146,912	0,132	0,128
-268,555	-200,000	-0,004	0,036
-267,540	800,000	0,058	-0,136
-266,526	554,298	-0,036	-0,064
-265,511	800,000	-0,037	0,085
-264,497	-200,000	0,013	-0,049
-263,482	-161,042	0,092	-0,003
-262,467	-68,406	0,136	0,038
-261,453	-200,000	-0,012	0,045
-260,438	483,272	-0,009	0,015
-259,424	-128,673	0,171	-0,017
-258,409	281,858	0,051	-0,066
-257,395	720,382	-0,020	-0,039
-256,380	165,083	0,057	-0,059
-255,365	-20,448	0,160	0,071
-254,351	800,000	0,026	-0,065
-253,336	-200,000	0,006	0,038
-252,322	-45,829	-0,181	-0,064
-251,307	19,244	-0,003	-0,002
-250,292	-52,418	-0,058	0,019
-249,278	-200,000	-0,006	-0,033
-248,263	800,000	-0,040	0,111
-247,249	-200,000	0,006	0,207
-246,234	-114,690	-0,048	-0,007
-245,219	-200,000	-0,035	-0,114
-244,205	-77,546	0,032	-0,008
-243,190	-140,415	0,120	-0,009
-242,176	800,000	0,025	0,073
-241,161	172,083	0,121	0,125
-240,146	242,849	-0,042	-0,051
-239,132	-200,000	0,021	-0,085
-238,117	767,210	0,004	-0,008
-237,103	61,504	0,057	0,041
-236,088	-200,000	-0,022	-0,137
-235,073	-109,588	0,116	0,017
-234,059	712,132	0,072	0,139
-233,044	-200,000	0,033	0,120
-232,030	716,831	0,024	-0,047
-231,015	-88,538	-0,128	-0,027
-230,000	-25,216	-0,071	-0,030
-228,986	-150,174	0,156	0,009
-227,971	-46,044	0,158	0,056
-226,957	-91,105	0,080	-0,016
-225,942	157,367	-0,018	-0,018
-224,927	50,502	-0,095	-0,065
-223,913	51,362	0,082	-0,056
-222,898	98,330	-0,082	-0,068
-221,884	800,000	-0,046	0,128
-220,869	-117,591	0,032	-0,004
-219,855	409,614	0,083	0,128
-218,840	-102,708	0,060	0,010
-217,825	-149,535	-0,105	-0,006
-216,811	84,316	-0,030	0,023
-215,796	-47,635	-0,071	-0,025
-214,782	-200,000	0,005	0,026
-213,767	-77,544	0,057	-0,014
-212,752	-200,000	-0,007	0,129
-211,738	35,929	0,109	0,069
-210,723	-177,203	0,103	-0,002
-209,709	-145,797	-0,098	-0,006
-208,694	-200,000	0,022	0,138
-207,679	368,151	-0,098	-0,143
-206,665	-152,507	0,067	-0,003
-205,650	-77,477	-0,069	-0,017
-204,636	-200,000	0,046	0,195
-203,621	52,669	-0,059	0,040
-202,606	375,056	0,096	0,141
-201,592	151,950	-0,068	-0,066
-200,577	-56,918	-0,048	0,015
-199,563	19,597	0,102	-0,059
-198,548	-134,117	0,093	0,008
-197,533	-4,135	0,036	0,018
-196,519	152,250	0,083	-0,082
-195,504	96,579	-0,097	-0,080
-194,490	318,181	0,035	-0,047
-193,475	800,000	-0,062	0,176
-192,460	116,113	-0,007	0,006
-191,446	-200,000	0,032	0,137
-190,431	-79,332	-0,073	0,018
-189,417	-59,018	0,065	-0,020
-188,402	181,355	0,060	0,063
-187,387	-90,782	-0,124	-0,025
-186,373	313,725	-0,055	-0,075
-185,358	800,000	-0,033	0,086
-184,344	-162,836	-0,081	-0,003
-183,329	5,987	0,026	0,014
-182,315	800,000	0,044	0,121
-181,300	104,379	-0,088	-0,075
-180,285	369,727	0,058	-0,085
-179,271	128,125	0,022	-0,020
-178,256	-82,278	-0,114	0,026
-177,242	-30,429	-0,073	-0,030
-176,227	105,657	0,106	-0,090
-175,212	-200,000	0,032	0,152
-174,198	-94,578	-0,102	-0,020
-173,183	35,595	-0,086	-0,054
-172,169	-200,000	0,025	-0,137
-171,154	800,000	-0,024	-0,051
-170,139	-200,000	0,010	-0,117
-169,125	493,390	0,039	-0,065
-168,110	-200,000	-0,003	0,040
-167,096	-200,000	0,004	-0,104
-166,081	19,082	-0,114	-0,066
-165,066	800,000	-0,033	-0,084
-164,052	175,053	0,079	-0,083
-163,037	798,364	-0,039	-0,078
-162,023	800,000	0,057	-0,169
-161,008	241,987	0,015	0,018
-159,993	-61,435	0,089	0,027
-158,979	800,000	0,018	-0,040
-157,964	-200,000	-0,037	-0,245
-156,950	422,373	-0,015	-0,023
-155,935	-0,577	-0,114	0,058
-154,920	800,000	0,025	-0,071
-153,906	-149,427	0,117	-0,007
-152,891	800,000	-0,028	-0,063
-151,877	217,125	0,063	0,072
-150,862	358,893	-0,065	-0,094
-149,847	-154,731	0,059	-0,003
-148,833	165,758	-0,097	-0,099
-147,818	491,038	-0,067	0,110
-146,804	800,000	-0,040	0,110
-145,789	387,832	-0,064	0,095
-144,775	263,288	0,103	0,130
-143,760	-130,614	-0,172	0,016
-142,745	-103,126	0,093	0,016
-141,731	-152,261	-0,062	0,003
-140,716	694,379	-0,050	0,095
-139,702	-200,000	-0,015	0,055
-138,687	-25,112	-0,073	0,031
-137,672	-46,072	0,080	-0,028
-136,658	800,000	-0,021	-0,061
-135,643	388,557	0,026	0,039
-134,629	744,428	-0,029	0,057
-133,614	179,054	0,085	0,090
-132,599	243,042	0,059	-0,071
-131,585	-116,277	-0,070	-0,009
-130,570	-138,850	-0,047	-0,004
-129,556	243,877	0,031	-0,038
-128,541	-200,000	0,040	-0,130
-127,526	-96,804	-0,071	0,013
-126,512	800,000	-0,026	-0,052
-125,497	-165,341	-0,130	0,004
-124,483	800,000	0,015	0,046
-123,468	-200,000	-0,044	0,146
-122,453	-200,000	-0,015	-0,068
-121,439	681,552	-0,029	0,054
-120,424	-61,978	0,150	0,045
