DTS Sentinel unit serial number:	SN410029Multiplexer serial number:	ORYXHardware model number:	OX2-SRSoftware version number:	ORYX F/W v4,00 Oryx Data Collector v3.7.2.0data status	okinstallation	B5 Nyhavnadifferential loss correction	single-endedforward channel	channel 2reverse channel	N/Adate	2023/12/12time	10:47:13forward acquisition time	300,00reverse acquisition time	0,00gamma	499,1914k internal	0,3158k external	0,3158temperature offset calibration	1,0000default loss term (dB/km)	0,3820temperature slope calibration	1,0000multiplexer offset coefficient	1,0000multiplexer slope coefficient	1,0000fibre end	0,00T internal ref (°C)	15,00T ext. ref 1 (°C)	-1,32T ext. ref 2 (°C)	-1,57length (m)	temperature (°C)	Stokes	anti-Stokes-744,400	-68,962	0,133	0,038
-743,385	62,504	-0,225	0,165
-742,371	-29,238	-0,053	0,022
-741,356	-190,322	-0,234	0,002
-740,342	442,113	0,098	0,158
-739,327	-27,666	-0,256	0,109
-738,312	163,151	0,047	-0,049
-737,298	24,858	-0,296	-0,180
-736,283	-200,000	0,033	0,132
-735,269	-117,129	-0,215	0,029
-734,254	-85,141	0,066	0,015
-733,239	-9,759	-0,380	-0,186
-732,225	-200,000	0,015	0,107
-731,210	504,233	0,045	0,076
-730,196	-164,963	-0,123	0,004
-729,181	158,355	-0,039	-0,040
-728,167	205,235	0,037	0,042
-727,152	-39,362	0,121	0,047
-726,137	241,755	-0,081	0,100
-725,123	415,960	-0,055	-0,087
-724,108	-67,498	-0,176	-0,051
-723,094	19,788	-0,070	-0,042
-722,079	261,761	-0,142	-0,181
-721,064	101,530	-0,129	-0,111
-720,050	30,249	-0,044	0,028
-719,035	800,000	-0,013	-0,031
-718,021	199,056	-0,072	0,082
-717,006	-7,789	-0,142	-0,071
-715,991	-200,000	-0,007	-0,037
-714,977	106,181	0,075	-0,065
-713,962	179,783	-0,059	0,064
-712,948	-124,657	0,057	0,006
-711,933	-200,000	-0,004	-0,097
-710,918	-200,000	-0,007	-0,087
-709,904	78,512	-0,055	-0,043
-708,889	800,000	0,043	0,090
-707,875	800,000	0,003	-0,007
-706,860	-200,000	0,005	-0,117
-705,845	745,072	0,018	0,036
-704,831	-130,294	-0,136	0,013
-703,816	-43,818	0,121	0,044
-702,802	800,000	-0,018	0,056
-701,787	-4,861	-0,104	0,053
-700,772	-85,237	-0,123	0,028
-699,758	-200,000	0,004	-0,045
-698,743	-200,000	0,005	0,085
-697,729	-100,416	-0,032	0,006
-696,714	-28,964	-0,118	0,050
-695,699	14,118	0,090	-0,051
-694,685	800,000	-0,087	-0,187
-693,670	-26,239	-0,095	-0,041
-692,656	-64,450	-0,020	0,006
-691,641	-93,924	0,080	0,016
-690,627	20,844	0,045	0,027
-689,612	800,000	-0,028	-0,075
-688,597	156,066	0,026	0,026
-687,583	-200,000	-0,011	-0,149
-686,568	-200,000	0,000	-0,081
-685,554	-156,984	-0,153	0,007
-684,539	687,198	0,012	-0,024
-683,524	-200,000	-0,014	0,055
-682,510	-172,353	-0,038	-0,001
-681,495	255,737	-0,105	-0,133
-680,481	800,000	-0,047	-0,103
-679,466	370,782	0,062	-0,092
-678,451	-155,752	0,117	0,005
-677,437	800,000	0,013	0,032
-676,422	774,132	0,056	-0,113
-675,408	-139,800	-0,111	-0,009
-674,393	-169,932	-0,168	-0,004
-673,378	465,408	-0,060	0,100
-672,364	-200,000	-0,004	0,023
-671,349	-67,330	-0,089	-0,026
-670,335	24,674	0,061	-0,037
-669,320	362,733	0,063	0,093
-668,305	-162,650	-0,137	-0,005
-667,291	-200,000	-0,016	0,056
-666,276	-89,414	0,052	0,011
-665,262	618,238	-0,075	-0,139
-664,247	-5,202	0,097	-0,049
-663,232	18,586	0,094	0,055
-662,218	-200,000	-0,008	0,054
-661,203	57,333	0,033	0,024
-660,189	-200,000	-0,002	0,092
-659,174	7,725	-0,021	0,011
-658,159	-15,135	-0,215	-0,101
-657,145	191,463	-0,070	-0,078
-656,130	674,347	0,045	-0,085
-655,116	-200,000	-0,004	0,024
-654,101	231,637	-0,057	-0,069
-653,086	-200,000	-0,002	0,047
-652,072	296,930	-0,078	-0,105
-651,057	-200,000	-0,018	-0,160
-650,043	-135,868	-0,056	-0,005
-649,028	-200,000	0,018	-0,100
-648,014	-120,654	-0,067	-0,008
-646,999	-53,444	-0,056	0,019
-645,984	71,839	-0,072	0,055
-644,970	-200,000	0,005	-0,118
-643,955	309,712	-0,059	-0,081
-642,941	800,000	-0,038	-0,095
-641,926	-112,078	-0,054	0,008
-640,911	-91,746	0,163	-0,034
-639,897	109,234	0,205	0,180
-638,882	6,374	0,098	-0,053
-637,868	369,360	-0,033	-0,049
-636,853	592,082	-0,047	-0,086
-635,838	-200,000	0,009	-0,114
-634,824	800,000	-0,017	-0,034
-633,809	171,464	0,130	-0,137
-632,795	-39,164	0,082	0,032
-631,780	-158,232	-0,054	0,002
-630,765	16,089	-0,147	-0,085
-629,751	420,778	0,023	0,037
-628,736	-200,000	-0,017	-0,088
-627,722	-200,000	-0,013	-0,105
-626,707	118,513	0,058	-0,053
-625,692	157,660	0,048	0,049
-624,678	800,000	0,032	0,091
-623,663	-200,000	-0,018	-0,064
-622,649	524,573	0,024	0,041
-621,634	-107,055	-0,137	-0,022
-620,619	-6,345	0,071	0,036
-619,605	-200,000	0,014	0,078
-618,590	800,000	0,029	0,086
-617,576	-76,556	-0,054	-0,014
-616,561	59,284	0,089	0,064
-615,546	-70,375	-0,055	0,015
-614,532	254,421	-0,095	-0,120
-613,517	-200,000	-0,003	0,090
-612,503	277,859	-0,088	-0,115
-611,488	87,923	0,053	-0,043
-610,474	-200,000	-0,012	0,047
-609,459	-200,000	0,077	0,000
-608,444	-35,060	-0,016	-0,006
-607,430	-46,911	0,027	-0,010
-606,415	-85,057	-0,093	-0,021
-605,401	51,558	0,143	-0,099
-604,386	-200,000	0,022	0,076
-603,371	118,383	0,133	-0,120
-602,357	800,000	-0,041	-0,100
-601,342	77,066	0,021	-0,016
-600,328	-86,775	-0,087	0,019
-599,313	-200,000	-0,015	-0,146
-598,298	-45,705	0,179	0,065
-597,284	154,587	-0,079	0,079
-596,269	669,816	-0,071	0,136
-595,255	-200,000	-0,011	0,062
-594,240	-200,000	0,011	-0,075
-593,225	-8,314	-0,123	-0,060
-592,211	190,949	-0,143	-0,158
-591,196	-200,000	0,003	0,028
-590,182	-200,000	-0,027	0,114
-589,167	-200,000	0,009	0,039
-588,152	462,647	0,013	-0,022
-587,138	-11,775	-0,066	0,032
-586,123	334,398	-0,095	-0,136
-585,109	-109,791	-0,177	-0,027
-584,094	-70,134	-0,033	0,009
-583,079	88,977	0,113	0,092
-582,065	36,456	0,133	-0,086
-581,050	218,239	-0,108	-0,127
-580,036	60,641	0,046	-0,033
-579,021	800,000	-0,013	-0,034
-578,006	-94,713	-0,074	-0,014
-576,992	-200,000	0,012	-0,056
-575,977	-200,000	0,016	0,135
-574,963	-200,000	0,011	0,039
-573,948	119,115	-0,090	-0,082
-572,934	-71,143	-0,273	0,075
-571,919	800,000	-0,022	0,046
-570,904	158,044	0,018	0,018
-569,890	-200,000	-0,019	-0,068
-568,875	800,000	-0,036	-0,108
-567,861	-34,906	0,071	0,028
-566,846	201,154	-0,047	0,054
-565,831	800,000	-0,017	0,046
-564,817	800,000	-0,013	-0,032
-563,802	62,616	-0,091	0,066
-562,788	221,554	-0,049	-0,058
-561,773	490,761	-0,043	-0,072
-560,758	-200,000	-0,007	0,085
-559,744	-133,202	0,115	-0,010
-558,729	800,000	0,051	-0,129
-557,715	-43,825	0,170	0,062
-556,700	-200,000	0,011	0,066
-555,685	-106,163	-0,104	-0,017
-554,671	-141,430	-0,102	-0,007
-553,656	-147,732	-0,010	0,001
-552,642	-138,437	-0,118	0,009
-551,627	370,945	-0,037	-0,055
-550,612	663,392	0,016	-0,031
-549,598	210,884	-0,009	0,010
-548,583	-200,000	0,024	-0,119
-547,569	-200,000	-0,010	-0,161
-546,554	248,585	-0,023	0,028
-545,539	-200,000	-0,014	0,183
-544,525	-200,000	0,007	-0,029
-543,510	261,998	0,024	0,030
-542,496	-113,550	-0,031	-0,004
-541,481	-200,000	-0,002	-0,047
-540,466	-200,000	0,002	0,033
-539,452	-200,000	0,025	0,139
-538,437	-200,000	0,010	0,133
-537,423	201,984	-0,020	-0,023
-536,408	1,633	-0,049	0,026
-535,393	-200,000	0,001	-0,072
-534,379	-93,866	0,095	-0,019
-533,364	-200,000	-0,001	-0,034
-532,350	42,029	-0,069	-0,046
-531,335	-93,937	0,081	-0,016
-530,321	134,238	-0,043	0,040
-529,306	-120,403	-0,017	0,002
-528,291	-108,318	0,019	0,003
-527,277	-7,446	0,154	0,076
-526,262	-10,336	0,068	0,033
-525,248	-200,000	0,015	0,085
-524,233	-161,782	-0,024	-0,001
-523,218	-48,249	-0,039	-0,014
-522,204	-117,236	0,054	-0,007
-521,189	-200,000	0,002	-0,089
-520,175	86,288	-0,128	-0,103
-519,160	-152,069	-0,089	-0,005
-518,145	-200,000	0,006	-0,122
-517,131	800,000	-0,049	0,100
-516,116	800,000	0,099	0,229
-515,102	81,613	0,068	0,054
-514,087	43,293	0,052	0,035
-513,072	800,000	-0,045	-0,143
-512,058	497,971	-0,023	-0,039
-511,043	559,728	-0,024	0,043
-510,029	719,865	-0,011	0,022
-509,014	-200,000	0,010	-0,034
-507,999	-200,000	0,006	0,041
-506,985	31,545	-0,182	0,114
-505,970	82,154	-0,096	-0,076
-504,956	150,355	-0,028	0,028
-503,941	800,000	0,047	-0,110
-502,926	-200,000	-0,004	0,098
-501,912	294,578	0,074	0,098
-500,897	-63,751	-0,107	-0,032
-499,883	73,051	-0,120	-0,091
-498,868	201,151	-0,028	0,032
-497,853	74,397	0,098	-0,075
-496,839	-43,538	0,118	-0,043
-495,824	30,551	0,081	0,051
-494,810	800,000	-0,040	-0,090
-493,795	163,824	0,040	0,041
-492,781	800,000	0,037	0,093
-491,766	210,243	0,073	-0,084
-490,751	25,756	-0,067	-0,040
-489,737	104,072	0,076	0,065
-488,722	-200,000	0,009	0,056
-487,708	-68,720	0,114	0,032
-486,693	131,381	-0,044	0,041
-485,678	-200,000	0,000	-0,008
-484,664	800,000	0,051	0,135
-483,649	-200,000	-0,003	-0,029
-482,635	89,896	-0,141	-0,115
-481,620	-44,036	0,049	-0,018
-480,605	-12,947	-0,077	0,036
-479,591	321,701	-0,069	0,096
-478,576	-157,817	0,020	0,001
-477,562	490,577	0,064	-0,106
-476,547	-107,945	-0,068	-0,011
-475,532	-200,000	0,114	0,000
-474,518	-25,994	0,040	0,017
-473,503	-200,000	0,031	-0,119
-472,489	-166,675	0,059	-0,002
-471,474	-93,727	-0,015	0,003
-470,459	-200,000	0,032	0,170
-469,445	-200,000	0,016	0,102
-468,430	80,468	0,074	0,058
-467,416	800,000	0,067	0,189
-466,401	800,000	0,031	-0,093
-465,386	-200,000	0,004	-0,044
-464,372	800,000	0,051	0,116
-463,357	23,684	0,157	0,094
-462,343	-200,000	0,008	-0,058
-461,328	800,000	0,011	-0,027
-460,313	6,443	0,110	-0,059
-459,299	7,340	0,074	0,040
-458,284	-26,068	0,091	0,039
-457,270	130,632	0,074	0,069
-456,255	-110,762	-0,046	-0,007
-455,241	-200,000	-0,007	-0,030
-454,226	-128,008	-0,107	-0,011
-453,211	-200,000	-0,032	0,124
-452,197	34,881	0,101	0,065
-451,182	-39,438	-0,053	-0,020
-450,168	-200,000	0,002	-0,046
-449,153	168,042	-0,024	-0,025
-448,138	467,504	-0,018	-0,030
-447,124	28,583	0,142	0,087
-446,109	-67,090	0,126	-0,036
-445,095	-120,101	0,089	0,011
-444,080	-200,000	0,170	0,001
-443,065	800,000	0,011	0,030
-442,051	800,000	0,028	-0,069
-441,036	-200,000	-0,023	-0,188
-440,022	259,921	-0,051	-0,064
-439,007	33,747	-0,077	-0,049
-437,992	-200,000	0,027	-0,114
-436,978	188,240	0,055	-0,059
-435,963	-200,000	-0,008	0,141
-434,949	-54,197	-0,128	0,042
-433,934	-151,009	-0,172	-0,009
-432,919	-167,050	-0,152	0,004
-431,905	-120,899	0,082	-0,010
-430,890	800,000	0,020	0,052
-429,876	-70,718	-0,084	-0,023
-428,861	-200,000	-0,001	0,036
-427,846	-114,061	-0,056	-0,008
-426,832	-24,935	-0,094	0,040
-425,817	-200,000	0,024	-0,168
-424,803	17,817	-0,136	-0,079
-423,788	-104,467	0,118	-0,020
-422,773	-116,311	-0,154	0,021
-421,759	236,901	0,027	0,032
-420,744	-1,121	0,152	-0,078
-419,730	270,383	-0,054	-0,069
-418,715	-200,000	-0,030	-0,112
-417,701	-51,315	-0,065	0,022
-416,686	-148,617	-0,181	0,011
-415,671	309,382	0,067	-0,091
-414,657	-140,815	0,056	0,004
-413,642	170,625	-0,123	-0,128
-412,628	501,891	-0,045	-0,076
-411,613	-200,000	-0,003	0,107
-410,598	-44,050	-0,103	-0,037
-409,584	347,729	-0,012	-0,018
-408,569	313,681	-0,074	0,101
-407,555	121,333	0,100	0,090
-406,540	800,000	0,025	-0,058
-405,525	199,857	0,103	-0,116
-404,511	-67,528	-0,104	-0,029
-403,496	712,468	-0,053	0,103
-402,482	166,340	0,067	-0,069
-401,467	-200,000	0,046	0,161
-400,452	13,219	-0,041	-0,023
-399,438	689,570	0,025	0,048
-398,423	-200,000	0,001	-0,015
-397,409	134,166	-0,084	-0,079
-396,394	-200,000	-0,021	-0,073
-395,379	-90,565	-0,068	0,014
-394,365	193,372	0,082	-0,090
-393,350	800,000	-0,021	-0,043
-392,336	66,564	0,053	-0,039
-391,321	800,000	-0,042	-0,089
-390,306	295,029	0,046	-0,062
-389,292	157,579	-0,064	-0,064
-388,277	-153,347	0,113	-0,006
-387,263	-111,224	-0,075	-0,011
-386,248	-67,893	0,195	0,055
-385,233	23,225	-0,022	0,013
-384,219	100,212	0,135	0,114
-383,204	130,056	-0,028	0,026
-382,190	-200,000	0,009	-0,053
-381,175	-200,000	0,003	0,025
-380,160	-200,000	-0,001	0,100
-379,146	55,197	0,091	0,064
-378,131	211,181	0,067	-0,076
-377,117	-129,755	-0,040	-0,004
-376,102	52,347	-0,076	-0,052
-375,088	189,114	-0,059	0,064
-374,073	-45,514	-0,075	0,027
-373,058	141,361	0,088	-0,085
-372,044	452,899	0,056	0,090
-371,029	34,770	-0,079	0,050
-370,015	800,000	0,027	-0,056
-369,000	-200,000	-0,013	-0,106
-367,985	800,000	-0,039	0,107
-366,971	-130,105	0,055	-0,005
-365,956	172,910	-0,026	0,027
-364,942	34,919	0,178	0,113
-363,927	159,524	-0,068	-0,069
-362,912	194,194	-0,047	0,051
-361,898	800,000	0,030	0,079
-360,883	-200,000	-0,003	-0,109
-359,869	-200,000	-0,016	-0,056
-358,854	800,000	0,053	0,123
-357,839	-200,000	0,027	0,093
-356,825	-95,197	0,019	0,004
-355,810	-16,935	0,051	0,023
-354,796	-200,000	-0,008	0,037
-353,781	-119,870	-0,030	0,004
-352,766	48,844	-0,063	0,043
-351,752	336,523	-0,082	0,115
-350,737	-144,476	-0,034	0,002
-349,723	245,497	0,063	0,077
-348,708	800,000	0,037	0,084
-347,693	483,332	-0,014	-0,024
-346,679	225,252	0,016	0,019
-345,664	607,848	0,050	0,092
-344,650	-200,000	-0,034	-0,215
-343,635	92,320	-0,034	0,028
-342,620	792,253	0,065	0,131
-341,606	-200,000	-0,019	0,111
-340,591	221,038	-0,089	0,104
-339,577	13,540	-0,112	-0,063
-338,562	-70,804	-0,094	0,026
-337,548	-200,000	-0,001	0,070
-336,533	800,000	0,021	0,064
-335,518	800,000	0,038	-0,082
-334,504	-200,000	0,003	0,009
-333,489	-200,000	0,029	-0,119
-332,475	-114,480	-0,071	0,010
-331,460	-200,000	-0,012	-0,049
-330,445	38,788	-0,014	-0,009
-329,431	-194,362	0,133	-0,001
-328,416	-42,030	0,040	-0,015
-327,402	800,000	-0,023	0,051
-326,387	-74,371	-0,063	0,016
-325,372	-119,677	0,153	0,019
-324,358	31,402	-0,077	0,048
-323,343	-200,000	-0,024	-0,131
-322,329	384,619	0,108	0,162
-321,314	-200,000	-0,005	0,214
-320,299	800,000	-0,029	0,084
-319,285	-200,000	-0,035	0,113
-318,270	62,166	-0,044	0,032
-317,256	800,000	0,032	0,091
-316,241	-56,238	-0,076	-0,024
-315,226	86,324	0,076	-0,060
-314,212	182,111	0,003	0,003
-313,197	136,286	0,122	0,115
-312,183	-200,000	0,004	0,111
-311,168	384,469	0,066	-0,100
-310,153	45,317	-0,176	-0,117
-309,139	127,380	0,049	0,045
-308,124	-200,000	-0,003	-0,048
-307,110	800,000	0,015	-0,043
-306,095	800,000	0,020	-0,052
-305,080	-128,627	-0,062	0,006
-304,066	73,365	-0,072	-0,055
-303,051	-200,000	-0,016	-0,154
-302,037	-83,732	-0,051	-0,012
-301,022	-200,000	-0,000	-0,024
-300,008	248,426	0,129	0,158
-298,993	-200,000	-0,023	0,166
-297,978	14,046	0,085	-0,048
-296,964	1,001	0,053	0,028
-295,949	800,000	0,020	-0,046
-294,935	647,418	-0,046	-0,085
-293,920	478,264	-0,036	0,059
-292,905	691,318	0,053	0,100
-291,891	-82,034	-0,049	-0,012
-290,876	-200,000	0,011	0,132
-289,862	-35,877	0,079	-0,031
-288,847	800,000	-0,075	-0,177
-287,832	-51,863	-0,101	-0,034
-286,818	-200,000	-0,001	-0,061
-285,803	800,000	0,021	0,053
-284,789	-19,409	0,129	-0,058
-283,774	112,996	0,052	0,045
-282,759	800,000	0,025	0,064
-281,745	303,416	-0,051	-0,068
-280,730	27,340	-0,053	-0,032
-279,716	-2,744	0,062	-0,031
-278,701	-200,000	0,001	-0,064
-277,686	-200,000	-0,000	-0,066
-276,672	-87,302	0,124	0,027
-275,657	64,248	0,069	0,050
-274,643	9,914	-0,156	0,086
-273,628	800,000	-0,028	-0,087
-272,613	-200,000	-0,019	0,065
-271,599	506,988	-0,034	0,057
-270,584	-200,000	0,006	0,036
-269,570	466,802	-0,063	0,103
-268,555	-69,218	0,150	0,042
-267,540	-200,000	0,004	-0,056
-266,526	-20,439	-0,231	-0,102
-265,511	-101,702	-0,096	0,017
-264,497	-200,000	0,014	0,122
-263,482	-148,629	0,029	0,002
-262,467	-157,996	0,101	0,004
-261,453	27,298	0,099	-0,060
-260,438	-60,921	-0,154	0,047
-259,424	172,790	-0,062	-0,064
-258,409	486,569	0,020	0,033
-257,395	-200,000	0,011	0,059
-256,380	800,000	0,035	-0,083
-255,365	302,189	0,032	-0,043
-254,351	-71,378	-0,086	0,023
-253,336	-200,000	-0,012	-0,088
-252,322	-200,000	-0,002	0,094
-251,307	-200,000	0,002	-0,079
-250,292	-71,990	0,047	-0,013
-249,278	-200,000	-0,004	0,088
-248,263	-200,000	0,011	0,246
-247,249	800,000	-0,049	0,106
-246,234	-200,000	0,013	0,122
-245,219	-106,063	0,042	0,007
-244,205	-200,000	0,003	-0,033
-243,190	4,867	-0,122	0,065
-242,176	-200,000	-0,010	-0,112
-241,161	-23,894	0,063	-0,027
-240,146	800,000	-0,021	0,065
-239,132	789,294	-0,030	-0,061
-238,117	-153,831	-0,195	0,010
-237,103	800,000	0,020	0,060
-236,088	-200,000	0,026	0,120
-235,073	-119,503	0,123	-0,015
-234,059	35,225	-0,077	-0,048
-233,044	-200,000	-0,015	-0,128
-232,030	413,200	-0,098	0,150
-231,015	312,154	0,026	-0,035
-230,000	800,000	-0,037	-0,074
-228,986	-112,811	-0,108	0,015
-227,971	-200,000	0,012	-0,107
-226,957	-49,901	-0,012	0,004
-225,942	219,415	-0,052	0,061
-224,927	-128,600	-0,087	-0,009
-223,913	800,000	0,052	-0,133
-222,898	116,767	-0,060	-0,053
-221,884	-200,000	0,014	-0,078
-220,869	-161,402	0,107	-0,004
-219,855	163,544	-0,093	0,095
-218,840	-154,922	-0,056	-0,003
-217,825	44,955	0,062	0,041
-216,811	197,147	-0,006	0,007
-215,796	17,682	-0,123	-0,071
-214,782	-2,656	-0,071	0,036
-213,767	-109,376	0,114	-0,017
-212,752	23,518	0,072	0,043
-211,738	-59,374	0,051	0,016
-210,723	-200,000	0,008	0,128
-209,709	154,599	0,063	-0,062
-208,694	-200,000	-0,008	-0,075
-207,679	-200,000	-0,023	-0,124
-206,665	85,567	-0,036	-0,028
-205,650	75,139	0,004	-0,003
-204,636	-200,000	0,016	-0,086
-203,621	279,689	0,080	0,104
-202,606	696,690	0,058	0,111
-201,592	-111,066	-0,083	0,012
-200,577	146,364	-0,105	-0,102
-199,563	202,303	0,050	0,056
-198,548	210,023	0,064	0,073
-197,533	-91,179	0,066	-0,013
-196,519	63,238	0,127	0,091
-195,504	-29,415	-0,163	-0,067
-194,490	-90,112	-0,024	-0,005
-193,475	-200,000	-0,001	-0,066
-192,460	199,313	-0,093	-0,103
-191,446	-200,000	-0,046	-0,172
-190,431	-200,000	0,029	-0,153
-189,417	-6,450	-0,009	-0,004
-188,402	-67,161	-0,045	0,013
-187,387	-200,000	0,006	-0,028
-186,373	8,054	0,150	0,081
-185,358	-200,000	0,007	-0,060
-184,344	111,617	0,103	0,090
-183,329	26,890	-0,063	0,038
-182,315	-102,718	0,107	-0,018
-181,300	-200,000	0,006	-0,055
-180,285	-131,881	0,150	0,014
-179,271	-73,060	0,058	-0,015
-178,256	266,726	0,058	-0,074
-177,242	800,000	-0,045	-0,092
-176,227	-0,780	0,159	0,081
-175,212	-80,600	0,138	0,033
-174,198	36,969	0,090	0,057
-173,183	-200,000	-0,033	-0,156
-172,169	-200,000	-0,012	-0,122
-171,154	800,000	0,037	0,097
-170,139	16,951	0,074	-0,042
-169,125	-13,811	-0,017	0,008
-168,110	-200,000	-0,038	0,152
-167,096	-200,000	-0,047	0,153
-166,081	16,832	0,097	-0,055
-165,066	173,562	0,049	-0,051
-164,052	-183,174	-0,019	-0,000
-163,037	98,425	0,143	0,119
-162,023	-152,094	0,092	0,005
-161,008	11,854	-0,093	-0,051
-159,993	-200,000	-0,011	0,065
-158,979	-32,979	-0,036	-0,014
-157,964	188,532	-0,025	-0,027
-156,950	-77,241	-0,040	-0,010
-155,935	-76,880	-0,045	-0,011
-154,920	-190,326	0,099	0,001
-153,906	92,519	-0,091	0,074
-152,891	388,806	-0,039	0,058
-151,877	212,722	-0,063	-0,071
-150,862	22,228	-0,070	0,041
-149,847	-17,174	-0,034	0,016
-148,833	606,113	0,009	-0,016
-147,818	559,686	0,018	-0,031
-146,804	-35,742	0,029	0,011
-145,789	-200,000	0,010	0,147
-144,775	800,000	0,079	0,180
-143,760	-132,662	-0,044	-0,004
-142,745	800,000	-0,017	-0,046
-141,731	-18,461	-0,095	-0,042
-140,716	800,000	-0,035	0,107
-139,702	-200,000	0,019	0,097
-138,687	202,164	0,080	0,088
-137,672	-102,249	0,075	-0,013
-136,658	800,000	-0,025	-0,057
-135,643	403,033	0,017	0,026
-134,629	269,697	-0,035	0,044
-133,614	-119,505	0,127	-0,016
-132,599	-200,000	-0,012	0,065
-131,585	-200,000	0,006	-0,037
-130,570	-19,239	0,036	0,016
-129,556	-200,000	-0,009	0,032
-128,541	-43,868	-0,105	-0,038
-127,526	385,977	-0,048	0,071
-126,512	772,029	0,062	-0,123
-125,497	46,197	0,065	0,043
-124,483	-200,000	0,004	0,030
-123,468	112,641	0,066	0,057
-122,453	87,088	0,019	0,015
-121,439	188,969	0,062	-0,067
-120,424	120,213	-0,052	0,046
