DTS Sentinel unit serial number:	SN410029Multiplexer serial number:	ORYXHardware model number:	OX2-SRSoftware version number:	ORYX F/W v4,00 Oryx Data Collector v3.7.2.0data status	okinstallation	B5 Nyhavnadifferential loss correction	single-endedforward channel	channel 2reverse channel	N/Adate	2023/12/14time	14:02:13forward acquisition time	300,00reverse acquisition time	0,00gamma	499,1914k internal	0,3157k external	0,3157temperature offset calibration	1,0000default loss term (dB/km)	0,3820temperature slope calibration	1,0000multiplexer offset coefficient	1,0000multiplexer slope coefficient	1,0000fibre end	0,00T internal ref (°C)	8,06T ext. ref 1 (°C)	-7,93T ext. ref 2 (°C)	-8,00length (m)	temperature (°C)	Stokes	anti-Stokes-744,400	80,708	0,064	0,051
-743,385	-73,086	-0,404	-0,109
-742,371	40,746	0,222	0,147
-741,356	-141,104	-0,382	0,028
-740,342	-200,000	0,031	0,110
-739,327	-101,292	-0,332	-0,059
-738,312	140,127	0,175	0,170
-737,298	-53,487	-0,403	-0,135
-736,283	-9,921	0,122	0,060
-735,269	-30,273	-0,292	-0,122
-734,254	54,187	0,204	0,144
-733,239	-52,098	-0,791	-0,269
-732,225	-108,766	0,324	0,051
-731,210	117,430	-0,053	-0,048
-730,196	-48,881	-0,089	0,031
-729,181	137,093	-0,027	0,026
-728,167	549,605	0,013	-0,022
-727,152	377,739	0,040	-0,060
-726,137	-24,510	-0,071	-0,031
-725,123	-200,000	-0,044	-0,184
-724,108	-125,316	0,087	0,010
-723,094	-17,800	-0,147	-0,068
-722,079	28,720	-0,026	0,016
-721,064	-129,009	-0,085	0,009
-720,050	-200,000	-0,028	-0,104
-719,035	-200,000	0,003	0,106
-718,021	338,765	0,013	0,019
-717,006	52,956	-0,089	-0,063
-715,991	33,483	-0,148	0,095
-714,977	-106,767	0,007	0,001
-713,962	98,619	-0,090	-0,077
-712,948	-200,000	-0,032	0,114
-711,933	282,612	-0,076	0,101
-710,918	36,223	-0,101	0,065
-709,904	-167,481	-0,053	0,002
-708,889	-200,000	-0,028	-0,092
-707,875	499,390	-0,093	-0,159
-706,860	125,306	-0,064	0,059
-705,845	78,691	-0,042	-0,033
-704,831	183,416	0,061	0,066
-703,816	702,491	0,034	0,066
-702,802	-85,712	-0,182	0,041
-701,787	538,635	0,042	-0,075
-700,772	-200,000	0,014	-0,106
-699,758	-52,338	0,015	0,005
-698,743	145,781	0,107	0,106
-697,729	-200,000	-0,034	-0,117
-696,714	-130,203	-0,019	0,002
-695,699	152,702	0,047	-0,047
-694,685	284,930	-0,038	-0,050
-693,670	800,000	-0,061	-0,134
-692,656	106,064	0,093	-0,081
-691,641	33,945	-0,109	-0,070
-690,627	-81,112	-0,037	-0,009
-689,612	93,284	-0,025	-0,020
-688,597	-115,070	0,104	-0,014
-687,583	800,000	0,006	-0,016
-686,568	-200,000	0,032	-0,110
-685,554	800,000	0,021	-0,045
-684,539	800,000	0,013	-0,043
-683,524	263,391	-0,033	0,043
-682,510	147,382	0,032	0,031
-681,495	47,203	-0,079	0,054
-680,481	-60,073	-0,066	-0,021
-679,466	7,901	-0,186	-0,102
-678,451	427,410	0,062	-0,099
-677,437	505,913	-0,003	-0,005
-676,422	800,000	0,054	0,176
-675,408	-200,000	0,010	0,054
-674,393	-95,402	-0,051	0,010
-673,378	268,402	-0,097	-0,125
-672,364	-108,364	-0,160	0,025
-671,349	36,312	-0,063	0,041
-670,335	-200,000	-0,006	0,164
-669,320	-110,659	0,025	0,004
-668,305	-94,848	-0,065	-0,013
-667,291	-200,000	-0,021	-0,136
-666,276	89,090	-0,123	-0,101
-665,262	-13,359	-0,136	-0,064
-664,247	-16,810	-0,066	-0,031
-663,232	43,688	-0,055	0,037
-662,218	-59,162	0,038	-0,012
-661,203	193,721	-0,053	0,059
-660,189	-200,000	0,007	0,173
-659,174	-200,000	0,005	-0,060
-658,159	-200,000	0,006	0,052
-657,145	-90,013	0,187	0,040
-656,130	-30,910	-0,100	-0,041
-655,116	800,000	-0,009	0,020
-654,101	-5,960	-0,101	-0,051
-653,086	180,323	0,064	-0,069
-652,072	-200,000	-0,004	0,049
-651,057	-113,015	-0,117	0,017
-650,043	123,517	-0,161	0,149
-649,028	220,833	0,069	0,081
-648,014	-60,423	-0,147	0,046
-646,999	-106,474	-0,032	-0,005
-645,984	-156,708	-0,140	0,006
-644,970	153,616	-0,060	-0,060
-643,955	117,930	-0,061	-0,055
-642,941	391,402	0,108	-0,165
-641,926	216,309	0,059	-0,069
-640,911	367,553	0,060	-0,090
-639,897	800,000	0,017	0,043
-638,882	138,493	-0,064	-0,062
-637,868	97,078	0,073	-0,062
-636,853	21,560	-0,113	-0,067
-635,838	40,613	0,071	-0,047
-634,824	252,741	-0,069	-0,086
-633,809	-53,360	-0,089	-0,030
-632,795	772,054	-0,071	0,142
-631,780	-200,000	0,008	0,126
-630,765	-112,955	0,054	0,008
-629,751	-81,134	0,098	0,024
-628,736	-104,575	-0,116	-0,020
-627,722	-200,000	-0,008	-0,094
-626,707	177,933	-0,089	0,095
-625,692	-200,000	-0,020	0,123
-624,678	90,933	0,031	0,025
-623,663	800,000	-0,016	-0,053
-622,649	800,000	-0,050	-0,156
-621,634	527,072	0,052	0,090
-620,619	-200,000	-0,020	-0,141
-619,605	-15,358	-0,022	0,010
-618,590	-7,073	-0,123	-0,061
-617,576	800,000	-0,023	-0,053
-616,561	-104,340	-0,044	-0,007
-615,546	-106,011	-0,064	-0,010
-614,532	332,336	-0,094	0,134
-613,517	288,157	-0,058	0,077
-612,503	-200,000	0,018	0,079
-611,488	-200,000	-0,015	0,066
-610,474	109,365	0,071	0,062
-609,459	800,000	-0,026	-0,055
-608,444	24,942	-0,102	0,062
-607,430	-148,753	-0,214	-0,013
-606,415	-87,822	0,063	-0,014
-605,401	70,293	-0,043	0,032
-604,386	800,000	-0,038	0,087
-603,371	-104,297	0,156	0,026
-602,357	-41,185	-0,030	0,011
-601,342	-200,000	0,016	-0,056
-600,328	452,727	-0,138	-0,224
-599,313	-25,446	-0,081	-0,035
-598,298	800,000	0,062	-0,166
-597,284	-78,159	0,172	0,043
-596,269	-137,674	-0,025	-0,002
-595,255	-200,000	-0,031	0,114
-594,240	-200,000	0,023	0,078
-593,225	-38,417	-0,047	0,018
-592,211	400,351	0,077	-0,118
-591,196	467,624	0,017	-0,029
-590,182	-200,000	0,004	-0,050
-589,167	63,766	-0,052	-0,039
-588,152	75,051	-0,091	-0,070
-587,138	-139,313	-0,082	-0,006
-586,123	800,000	0,020	-0,041
-585,109	-139,135	-0,114	-0,009
-584,094	-200,000	-0,023	-0,083
-583,079	147,539	0,054	-0,053
-582,065	203,698	-0,106	-0,120
-581,050	-5,393	0,113	0,057
-580,036	2,646	0,081	0,043
-579,021	800,000	-0,040	-0,131
-578,006	-200,000	-0,022	0,082
-576,992	-200,000	0,001	-0,091
-575,977	800,000	-0,021	0,062
-574,963	-101,169	0,168	0,030
-573,948	-200,000	0,006	-0,025
-572,934	-115,544	-0,033	-0,004
-571,919	-77,628	-0,099	-0,025
-570,904	-31,239	-0,041	0,017
-569,890	-200,000	-0,004	-0,052
-568,875	-200,000	-0,024	0,137
-567,861	71,215	0,080	-0,061
-566,846	221,367	0,044	0,052
-565,831	17,613	0,026	-0,015
-564,817	304,792	-0,004	0,006
-563,802	-53,374	-0,064	0,021
-562,788	800,000	-0,022	-0,048
-561,773	-200,000	-0,004	-0,121
-560,758	-19,772	-0,052	-0,023
-559,744	112,175	-0,054	0,048
-558,729	800,000	0,042	-0,105
-557,715	262,202	0,055	-0,070
-556,700	-200,000	0,001	0,031
-555,685	69,426	-0,063	-0,047
-554,671	18,504	-0,057	-0,033
-553,656	800,000	-0,027	-0,071
-552,642	124,121	0,080	0,074
-551,627	-151,754	-0,124	-0,007
-550,612	-142,824	0,120	-0,008
-549,598	800,000	0,035	0,100
-548,583	56,588	-0,056	-0,040
-547,569	-200,000	0,008	-0,064
-546,554	-7,798	0,056	0,028
-545,539	722,672	0,073	0,143
-544,525	374,438	-0,056	-0,084
-543,510	11,759	0,084	0,047
-542,496	-52,030	0,049	-0,017
-541,481	210,014	-0,039	-0,045
-540,466	-200,000	0,058	0,000
-539,452	450,092	-0,013	-0,020
-538,437	-200,000	0,026	0,092
-537,423	780,567	0,007	-0,015
-536,408	-200,000	0,005	0,112
-535,393	109,405	0,051	-0,044
-534,379	546,187	-0,098	-0,172
-533,364	-200,000	-0,013	-0,077
-532,350	-68,519	0,092	0,026
-531,335	-125,121	0,067	0,007
-530,321	-58,221	-0,168	0,053
-529,306	37,464	-0,070	-0,045
-528,291	-0,950	-0,101	-0,052
-527,277	-97,547	0,077	0,014
-526,262	-121,065	-0,092	-0,011
-525,248	-78,956	-0,147	-0,036
-524,233	-24,037	0,033	0,014
-523,218	800,000	-0,006	-0,014
-522,204	-200,000	-0,026	0,104
-521,189	-43,252	-0,146	0,054
-520,175	-99,292	-0,204	-0,037
-519,160	-200,000	-0,006	0,075
-518,145	-79,412	0,160	0,039
-517,131	800,000	-0,013	0,034
-516,116	81,250	0,106	-0,083
-515,102	800,000	-0,014	0,038
-514,087	111,167	-0,124	-0,109
-513,072	-200,000	0,011	-0,143
-512,058	800,000	-0,047	-0,145
-511,043	-48,154	-0,013	-0,005
-510,029	-200,000	0,000	-0,042
-509,014	-42,141	0,062	0,023
-507,999	-200,000	-0,007	-0,060
-506,985	-200,000	-0,012	0,073
-505,970	-200,000	-0,012	-0,151
-504,956	57,927	0,078	-0,055
-503,941	800,000	0,007	0,015
-502,926	800,000	0,049	-0,102
-501,912	724,230	0,041	0,080
-500,897	110,297	-0,101	-0,088
-499,883	-200,000	-0,054	-0,191
-498,868	251,770	0,019	-0,024
-497,853	800,000	-0,008	-0,025
-496,839	-200,000	0,003	-0,025
-495,824	351,914	0,053	0,078
-494,810	-35,665	0,131	-0,052
-493,795	-200,000	0,008	0,031
-492,781	-200,000	0,010	0,048
-491,766	29,538	-0,126	0,078
-490,751	161,586	0,066	-0,067
-489,737	32,171	-0,072	0,045
-488,722	-66,085	0,077	0,022
-487,708	-83,074	0,138	-0,032
-486,693	-200,000	0,017	0,081
-485,678	450,888	-0,051	0,082
-484,664	-55,353	0,131	-0,043
-483,649	800,000	0,047	-0,115
-482,635	800,000	-0,051	0,159
-481,620	-22,044	0,095	0,042
-480,605	763,557	-0,034	0,069
-479,591	-177,820	0,077	-0,001
-478,576	-200,000	0,001	0,021
-477,562	800,000	-0,016	-0,038
-476,547	-112,238	0,062	-0,009
-475,532	370,914	-0,095	-0,141
-474,518	-48,164	0,094	-0,033
-473,503	-34,578	0,141	0,056
-472,489	48,230	-0,040	-0,027
-471,474	-70,146	0,068	-0,019
-470,459	-200,000	0,001	-0,050
-469,445	19,185	0,059	0,034
-468,430	38,679	0,114	-0,074
-467,416	-200,000	0,024	0,097
-466,401	-200,000	0,005	0,081
-465,386	-200,000	-0,009	0,106
-464,372	43,069	-0,114	-0,076
-463,357	237,327	-0,027	0,032
-462,343	-200,000	-0,008	-0,035
-461,328	62,676	-0,178	0,130
-460,313	237,678	0,040	-0,048
-459,299	631,846	0,094	0,174
-458,284	-200,000	0,006	-0,136
-457,270	800,000	0,056	-0,139
-456,255	84,895	-0,127	0,101
-455,241	-200,000	0,009	-0,043
-454,226	-28,883	-0,164	-0,069
-453,211	661,815	-0,037	-0,069
-452,197	-200,000	-0,043	0,221
-451,182	156,306	0,102	0,103
-450,168	-47,273	0,043	0,015
-449,153	66,016	-0,104	-0,076
-448,138	800,000	0,009	0,020
-447,124	-200,000	-0,026	-0,106
-446,109	180,989	-0,035	0,037
-445,095	103,726	0,093	0,080
-444,080	-161,318	0,227	-0,008
-443,065	739,400	0,060	0,117
-442,051	585,212	-0,063	0,113
-441,036	800,000	0,041	-0,114
-440,022	-49,751	-0,232	-0,080
-439,007	427,947	-0,024	0,037
-437,992	17,411	-0,037	0,022
-436,978	800,000	0,012	-0,034
-435,963	-66,536	-0,062	-0,018
-434,949	-200,000	-0,002	0,062
-433,934	55,878	0,022	0,015
-432,919	231,061	-0,045	-0,053
-431,905	438,033	-0,029	-0,045
-430,890	-200,000	-0,006	0,035
-429,876	-200,000	0,004	-0,032
-428,861	343,126	-0,054	0,078
-427,846	104,921	-0,029	0,025
-426,832	800,000	-0,028	0,079
-425,817	-200,000	0,021	0,099
-424,803	-200,000	-0,000	-0,016
-423,788	-200,000	0,043	0,160
-422,773	-79,315	0,079	0,019
-421,759	397,940	-0,020	0,030
-420,744	365,785	0,107	-0,158
-419,730	-88,350	-0,198	0,043
-418,715	140,883	-0,061	0,058
-417,701	60,178	0,038	0,027
-416,686	59,853	0,048	0,035
-415,671	-200,000	0,008	-0,117
-414,657	800,000	-0,104	0,212
-413,642	-142,733	-0,162	-0,011
-412,628	99,158	-0,061	-0,052
-411,613	-69,296	0,048	0,013
-410,598	-41,312	-0,098	-0,037
-409,584	-200,000	0,005	0,140
-408,569	-153,179	0,099	0,005
-407,555	-30,687	0,029	0,012
-406,540	-70,138	-0,058	0,016
-405,525	-62,406	0,155	0,047
-404,511	44,738	-0,097	-0,065
-403,496	2,977	-0,079	-0,042
-402,482	800,000	-0,051	0,147
-401,467	-136,933	0,119	-0,010
-400,452	-63,040	0,105	-0,031
-399,438	-200,000	0,014	0,190
-398,423	-200,000	0,012	0,058
-397,409	249,077	0,041	-0,051
-396,394	7,784	0,108	-0,059
-395,379	-4,098	0,097	0,049
-394,365	-94,854	-0,134	0,026
-393,350	29,617	0,091	0,056
-392,336	-154,218	-0,134	0,006
-391,321	722,041	-0,041	0,079
-390,306	-200,000	0,018	-0,074
-389,292	-107,064	0,045	0,007
-388,277	-5,702	0,078	0,039
-387,263	-91,417	0,166	0,034
-386,248	494,757	0,025	0,041
-385,233	111,462	0,105	0,092
-384,219	800,000	-0,055	0,169
-383,204	48,119	-0,073	-0,049
-382,190	-36,110	-0,069	0,027
-381,175	654,818	0,086	-0,162
-380,160	800,000	-0,039	0,123
-379,146	-200,000	0,010	0,097
-378,131	694,952	0,046	-0,088
-377,117	171,083	-0,077	-0,080
-376,102	-66,112	0,006	-0,002
-375,088	69,224	0,084	-0,063
-374,073	560,764	-0,057	-0,101
-373,058	800,000	0,040	-0,085
-372,044	-30,419	-0,040	0,017
-371,029	474,848	0,049	0,081
-370,015	-92,647	0,096	-0,019
-369,000	-200,000	-0,015	0,050
-367,985	292,528	-0,037	-0,050
-366,971	183,249	0,029	0,031
-365,956	800,000	0,044	0,099
-364,942	58,634	0,039	0,028
-363,927	15,648	-0,104	0,059
-362,912	-165,146	0,037	-0,001
-361,898	-54,291	0,129	-0,042
-360,883	-200,000	0,020	-0,118
-359,869	-200,000	-0,010	-0,116
-358,854	-200,000	-0,003	0,023
-357,839	800,000	-0,062	0,167
-356,825	800,000	-0,032	0,087
-355,810	677,176	-0,041	0,078
-354,796	106,949	0,072	-0,062
-353,781	-200,000	-0,005	-0,052
-352,766	415,659	0,036	-0,056
-351,752	-200,000	-0,028	0,222
-350,737	703,197	-0,018	-0,035
-349,723	602,357	-0,012	-0,022
-348,708	212,487	-0,052	0,060
-347,693	5,084	0,136	-0,072
-346,679	128,950	0,070	0,065
-345,664	46,953	0,044	-0,030
-344,650	80,813	0,063	-0,049
-343,635	800,000	0,019	0,041
-342,620	558,197	-0,031	-0,054
-341,606	800,000	-0,038	0,092
-340,591	-70,578	-0,111	-0,030
-339,577	135,328	0,041	-0,039
-338,562	-160,953	-0,104	0,004
-337,548	800,000	-0,073	-0,150
-336,533	40,889	0,119	0,078
-335,518	195,753	0,068	0,075
-334,504	323,281	0,050	0,069
-333,489	800,000	0,026	-0,057
-332,475	-200,000	0,004	-0,055
-331,460	-95,633	0,003	-0,001
-330,445	107,740	0,047	0,040
-329,431	-200,000	0,009	-0,062
-328,416	14,817	0,071	0,040
-327,402	223,011	0,046	0,054
-326,387	169,060	0,060	0,062
-325,372	-157,575	0,015	0,001
-324,358	-200,000	-0,016	-0,153
-323,343	435,108	0,028	-0,044
-322,329	-34,779	0,189	-0,074
-321,314	-200,000	0,027	-0,093
-320,299	-72,259	-0,041	0,011
-319,285	-200,000	-0,023	0,112
-318,270	800,000	-0,053	-0,108
-317,256	800,000	0,026	-0,066
-316,241	585,363	-0,027	0,048
-315,226	-55,019	0,042	0,014
-314,212	-200,000	0,018	0,189
-313,197	-124,495	0,059	0,007
-312,183	-200,000	-0,030	0,208
-311,168	-200,000	-0,006	-0,116
-310,153	-200,000	-0,002	-0,075
-309,139	-73,915	0,082	-0,022
-308,124	-121,857	-0,034	-0,004
-307,110	127,294	0,146	0,134
-306,095	-200,000	0,029	0,129
-305,080	800,000	0,050	0,100
-304,066	194,921	-0,024	-0,027
-303,051	-200,000	-0,014	-0,128
-302,037	-70,786	0,101	-0,027
-301,022	441,249	-0,037	-0,059
-300,008	401,666	0,111	0,170
-298,993	79,870	0,051	0,040
-297,978	-200,000	0,014	0,067
-296,964	208,937	0,060	-0,068
-295,949	-149,692	-0,036	-0,002
-294,935	7,133	-0,037	0,020
-293,920	-46,542	0,096	-0,034
-292,905	-200,000	-0,003	-0,073
-291,891	-106,943	0,136	-0,022
-290,876	-200,000	-0,022	0,073
-289,862	9,594	0,033	0,018
-288,847	1,089	0,045	0,023
-287,832	-77,742	-0,143	0,036
-286,818	-111,519	0,017	-0,003
-285,803	208,065	0,007	-0,008
-284,789	-200,000	0,027	0,097
-283,774	368,394	-0,079	0,116
-282,759	-18,691	0,063	0,028
-281,745	729,649	0,058	-0,113
-280,730	-200,000	-0,003	-0,152
-279,716	36,586	-0,099	-0,063
-278,701	-200,000	-0,002	-0,016
-277,686	39,994	-0,038	0,025
-276,672	-125,159	0,155	0,017
-275,657	-200,000	0,019	0,071
-274,643	84,831	-0,038	0,030
-273,628	-200,000	-0,002	-0,008
-272,613	219,619	-0,074	-0,086
-271,599	46,606	0,146	0,098
-270,584	706,059	-0,014	-0,026
-269,570	-62,344	0,101	0,030
-268,555	-200,000	0,007	-0,086
-267,540	12,288	-0,037	0,021
-266,526	-25,189	-0,067	-0,028
-265,511	-27,147	0,116	-0,049
-264,497	-62,387	0,078	-0,023
-263,482	66,351	-0,072	0,053
-262,467	-132,374	0,134	0,012
-261,453	-200,000	0,008	-0,074
-260,438	742,119	-0,027	0,053
-259,424	85,774	0,085	-0,068
-258,409	-170,714	0,070	0,002
-257,395	-3,100	0,126	0,064
-256,380	54,044	-0,041	0,028
-255,365	194,220	0,066	0,073
-254,351	-200,000	0,021	0,099
-253,336	800,000	0,034	0,077
-252,322	281,727	0,120	-0,156
-251,307	201,694	-0,071	-0,080
-250,292	-200,000	0,006	0,079
-249,278	486,673	0,118	0,195
-248,263	-200,000	0,004	0,152
-247,249	156,433	-0,101	0,101
-246,234	-200,000	0,013	0,043
-245,219	122,404	-0,124	0,112
-244,205	-28,647	-0,059	0,024
-243,190	800,000	0,015	0,035
-242,176	-120,653	0,058	-0,007
-241,161	-200,000	0,023	0,101
-240,146	-93,916	-0,028	0,005
-239,132	88,087	-0,050	0,040
-238,117	52,610	-0,074	-0,051
-237,103	-15,881	-0,101	0,046
-236,088	-200,000	0,018	-0,093
-235,073	82,665	0,048	0,037
-234,059	-200,000	0,021	0,079
-233,044	-200,000	-0,035	-0,123
-232,030	-85,144	0,087	0,019
-231,015	-19,186	-0,053	0,024
-230,000	800,000	0,020	-0,043
-228,986	23,626	0,026	-0,016
-227,971	168,887	0,029	0,030
-226,957	-79,403	-0,094	-0,023
-225,942	-143,861	-0,043	0,003
-224,927	73,335	0,155	-0,117
-223,913	205,448	-0,042	-0,047
-222,898	80,293	-0,111	-0,086
-221,884	0,344	0,091	-0,047
-220,869	800,000	0,048	-0,149
-219,855	-77,830	-0,089	-0,022
-218,840	433,831	0,073	0,114
-217,825	-132,706	-0,026	0,002
-216,811	96,829	-0,061	-0,051
-215,796	-189,418	-0,023	0,000
-214,782	-69,146	0,069	0,019
-213,767	245,092	-0,032	-0,038
-212,752	-81,552	-0,115	0,027
-211,738	800,000	-0,029	-0,066
-210,723	74,031	0,073	0,055
-209,709	367,381	0,021	-0,031
-208,694	-200,000	0,032	-0,108
-207,679	-4,824	-0,159	-0,079
-206,665	332,166	-0,103	-0,143
-205,650	-20,149	0,098	0,043
-204,636	2,852	-0,068	0,036
-203,621	-200,000	-0,036	-0,156
-202,606	64,928	-0,069	-0,050
-201,592	395,523	-0,022	0,034
-200,577	199,553	-0,057	-0,064
-199,563	-52,272	-0,118	0,039
-198,548	-85,873	0,117	0,026
-197,533	-38,656	0,131	0,050
-196,519	-170,639	-0,070	-0,002
-195,504	138,725	-0,105	0,099
-194,490	800,000	0,059	-0,163
-193,475	-200,000	-0,025	-0,130
-192,460	-39,443	0,053	-0,020
-191,446	63,087	-0,052	0,038
-190,431	800,000	-0,010	0,026
-189,417	323,776	-0,049	-0,067
-188,402	-198,728	-0,079	-0,000
-187,387	-136,878	0,079	0,006
-186,373	-50,381	0,022	0,007
-185,358	258,875	0,022	0,027
-184,344	800,000	0,008	0,024
-183,329	764,655	0,056	0,110
-182,315	54,840	-0,061	0,042
-181,300	-15,593	-0,095	0,044
-180,285	-200,000	-0,013	-0,049
-179,271	-116,676	0,075	0,010
-178,256	78,499	0,058	-0,045
-177,242	800,000	-0,051	-0,127
-176,227	313,166	-0,038	0,052
-175,212	-144,799	0,186	-0,012
-174,198	-1,768	-0,066	0,033
-173,183	191,088	-0,041	-0,044
-172,169	-16,447	-0,122	-0,055
-171,154	-200,000	0,003	0,069
-170,139	-200,000	-0,013	0,095
-169,125	-41,715	0,107	-0,040
-168,110	-26,123	-0,122	-0,051
-167,096	144,953	-0,064	0,062
-166,081	53,926	-0,130	-0,090
-165,066	-111,330	-0,101	-0,015
-164,052	-200,000	-0,008	-0,050
-163,037	-14,365	-0,071	0,033
-162,023	64,416	0,041	0,030
-161,008	13,245	0,129	-0,072
-159,993	-200,000	0,035	0,144
-158,979	44,156	-0,111	-0,073
-157,964	553,351	0,028	-0,049
-156,950	232,809	-0,078	-0,092
-155,935	381,635	0,125	-0,185
-154,920	-140,238	-0,108	-0,008
-153,906	-200,000	0,009	0,216
-152,891	-200,000	0,039	0,151
-151,877	-69,342	-0,062	0,017
-150,862	58,570	-0,098	-0,069
-149,847	800,000	-0,055	-0,119
-148,833	-200,000	-0,055	0,226
-147,818	75,177	0,077	0,058
-146,804	522,260	-0,030	-0,051
-145,789	-16,479	-0,043	-0,020
-144,775	670,507	-0,061	-0,114
-143,760	800,000	-0,008	-0,016
-142,745	-200,000	-0,021	-0,171
-141,731	345,175	0,064	0,091
-140,716	-176,602	0,070	0,001
-139,702	800,000	0,030	0,068
-138,687	122,901	-0,029	-0,026
-137,672	-126,770	-0,108	0,011
-136,658	61,155	-0,094	-0,067
-135,643	-78,697	0,062	-0,015
-134,629	153,112	-0,045	0,044
-133,614	258,605	-0,022	0,027
-132,599	-200,000	-0,004	0,016
-131,585	-200,000	0,007	0,040
-130,570	72,656	-0,049	-0,037
-129,556	800,000	0,013	-0,026
-128,541	-92,284	-0,149	0,030
-127,526	131,649	0,069	0,064
-126,512	-123,410	0,057	-0,007
-125,497	654,458	0,058	-0,107
-124,483	314,900	0,056	-0,076
-123,468	-200,000	-0,011	0,076
-122,453	-37,068	-0,106	0,041
-121,439	173,028	-0,048	-0,050
-120,424	800,000	-0,045	-0,127
-119,410	623,668	0,072	-0,131
