DTS Sentinel unit serial number:	SN410029Multiplexer serial number:	ORYXHardware model number:	OX2-SRSoftware version number:	ORYX F/W v4,00 Oryx Data Collector v3.7.2.0data status	okinstallation	B5 Nyhavnadifferential loss correction	single-endedforward channel	channel 2reverse channel	N/Adate	2023/12/14time	09:12:13forward acquisition time	300,00reverse acquisition time	0,00gamma	499,1914k internal	0,3161k external	0,3161temperature offset calibration	1,0000default loss term (dB/km)	0,3820temperature slope calibration	1,0000multiplexer offset coefficient	1,0000multiplexer slope coefficient	1,0000fibre end	0,00T internal ref (°C)	6,99T ext. ref 1 (°C)	-9,21T ext. ref 2 (°C)	-9,29length (m)	temperature (°C)	Stokes	anti-Stokes-744,400	-58,717	0,190	0,060
-743,385	-35,651	-0,503	-0,200
-742,371	-21,234	0,146	0,065
-741,356	-76,359	-0,311	-0,080
-740,342	-200,000	0,029	0,155
-739,327	-123,028	-0,394	-0,046
-738,312	-122,487	0,209	0,025
-737,298	-31,591	-0,487	-0,201
-736,283	-154,820	0,237	-0,011
-735,269	-126,298	-0,338	-0,037
-734,254	-75,030	0,149	0,039
-733,239	-21,078	-0,534	-0,240
-732,225	35,617	0,142	0,092
-731,210	297,848	-0,022	-0,030
-730,196	-30,490	0,010	0,004
-729,181	-200,000	0,044	-0,151
-728,167	800,000	0,026	-0,062
-727,152	-200,000	0,025	-0,214
-726,137	-200,000	0,040	-0,168
-725,123	309,771	-0,076	-0,105
-724,108	-200,000	0,011	-0,123
-723,094	-11,919	0,053	-0,025
-722,079	-200,000	-0,018	0,101
-721,064	-46,407	0,057	-0,020
-720,050	-85,716	0,039	-0,009
-719,035	12,848	-0,113	0,064
-718,021	164,127	0,069	0,072
-717,006	-65,056	-0,115	-0,034
-715,991	-200,000	0,007	-0,079
-714,977	54,815	-0,037	-0,027
-713,962	-187,017	-0,163	-0,002
-712,948	800,000	-0,036	-0,082
-711,933	-200,000	-0,023	0,082
-710,918	-80,317	-0,077	0,019
-709,904	-174,364	-0,130	-0,003
-708,889	-200,000	-0,005	0,017
-707,875	40,787	-0,056	-0,037
-706,860	-200,000	-0,058	-0,190
-705,845	136,150	-0,118	0,113
-704,831	118,843	-0,076	-0,069
-703,816	-176,722	-0,017	-0,000
-702,802	-12,949	-0,102	-0,049
-701,787	110,211	0,094	-0,083
-700,772	3,880	-0,101	0,054
-699,758	-67,224	0,175	-0,050
-698,743	-52,203	-0,058	-0,020
-697,729	-112,136	0,107	-0,016
-696,714	579,235	-0,083	-0,151
-695,699	-127,935	-0,095	0,010
-694,685	204,400	0,162	-0,185
-693,670	-200,000	0,025	-0,103
-692,656	-21,713	-0,090	0,040
-691,641	-43,622	0,107	0,039
-690,627	73,542	0,093	-0,071
-689,612	-200,000	-0,006	0,066
-688,597	3,432	0,034	-0,018
-687,583	-80,224	-0,096	-0,024
-686,568	-200,000	0,009	-0,065
-685,554	-158,491	0,034	0,001
-684,539	800,000	0,037	-0,106
-683,524	57,246	-0,065	0,046
-682,510	-200,000	-0,009	-0,077
-681,495	246,633	0,075	-0,093
-680,481	8,124	-0,047	-0,026
-679,466	119,362	-0,092	-0,083
-678,451	11,898	0,077	-0,044
-677,437	-38,869	-0,061	0,024
-676,422	-90,782	0,150	-0,031
-675,408	-28,905	-0,042	0,018
-674,393	211,499	-0,066	0,077
-673,378	-200,000	-0,005	-0,058
-672,364	171,365	-0,159	-0,168
-671,349	20,115	-0,139	-0,082
-670,335	37,114	0,095	0,062
-669,320	33,243	-0,081	0,051
-668,305	800,000	-0,063	-0,153
-667,291	-98,469	0,023	0,004
-666,276	800,000	0,059	0,170
-665,262	-31,421	-0,219	-0,090
-664,247	-200,000	-0,004	-0,089
-663,232	68,996	0,083	0,062
-662,218	566,271	0,019	-0,035
-661,203	-200,000	0,017	-0,100
-660,189	-142,274	0,092	-0,007
-659,174	110,724	-0,101	0,089
-658,159	-99,979	0,092	-0,017
-657,145	-200,000	0,002	-0,034
-656,130	-95,590	-0,030	0,006
-655,116	39,609	0,050	-0,033
-654,101	800,000	-0,012	-0,033
-653,086	16,968	-0,040	-0,023
-652,072	141,684	-0,044	-0,042
-651,057	586,743	-0,050	-0,091
-650,043	279,909	0,046	0,061
-649,028	-54,211	0,027	-0,009
-648,014	-116,649	-0,094	0,013
-646,999	-136,916	-0,129	0,011
-645,984	321,540	-0,071	-0,100
-644,970	-200,000	-0,025	-0,093
-643,955	505,421	-0,047	-0,081
-642,941	-80,507	-0,020	-0,005
-641,926	214,101	-0,085	0,099
-640,911	752,441	-0,068	-0,135
-639,897	-200,000	-0,023	0,088
-638,882	800,000	0,045	0,145
-637,868	234,766	-0,079	-0,096
-636,853	-200,000	0,013	-0,124
-635,838	301,721	-0,019	0,026
-634,824	800,000	0,038	-0,111
-633,809	-127,198	-0,063	0,007
-632,795	800,000	0,044	0,097
-631,780	-200,000	-0,014	0,177
-630,765	-52,285	-0,071	-0,024
-629,751	215,999	-0,052	0,061
-628,736	-105,945	-0,049	-0,008
-627,722	106,120	0,166	-0,144
-626,707	-200,000	-0,021	-0,252
-625,692	-200,000	0,001	0,093
-624,678	800,000	0,012	0,033
-623,663	415,177	-0,044	0,069
-622,649	448,684	-0,124	-0,201
-621,634	256,029	-0,093	0,117
-620,619	463,716	0,056	0,091
-619,605	800,000	0,016	-0,034
-618,590	10,085	-0,025	0,014
-617,576	-200,000	0,014	0,129
-616,561	605,957	0,129	-0,236
-615,546	-200,000	-0,008	-0,055
-614,532	-31,657	-0,104	-0,043
-613,517	159,888	0,030	0,031
-612,503	276,277	-0,122	-0,159
-611,488	41,205	-0,025	-0,017
-610,474	-200,000	-0,020	-0,100
-609,459	-96,362	-0,065	-0,013
-608,444	-152,749	-0,090	-0,005
-607,430	-200,000	0,045	-0,206
-606,415	800,000	0,058	-0,175
-605,401	45,868	-0,107	-0,072
-604,386	409,697	0,069	-0,107
-603,371	347,071	-0,077	0,112
-602,357	-200,000	-0,009	-0,035
-601,342	241,045	-0,085	0,105
-600,328	-96,261	-0,134	0,026
-599,313	800,000	-0,034	-0,082
-598,298	76,653	-0,099	0,077
-597,284	-135,553	0,135	-0,012
-596,269	-155,750	-0,125	0,006
-595,255	48,600	0,126	0,086
-594,240	-145,124	0,071	0,005
-593,225	11,004	-0,040	-0,022
-592,211	49,596	-0,141	-0,097
-591,196	410,631	-0,053	-0,083
-590,182	-200,000	0,003	-0,035
-589,167	-200,000	-0,002	0,026
-588,152	98,038	0,079	0,066
-587,138	-200,000	-0,000	-0,053
-586,123	-83,917	-0,125	-0,029
-585,109	-82,847	0,039	0,009
-584,094	0,386	0,053	-0,028
-583,079	-88,478	-0,123	0,027
-582,065	800,000	0,026	0,077
-581,050	-200,000	-0,011	0,161
-580,036	-200,000	0,005	-0,052
-579,021	81,049	0,102	-0,081
-578,006	394,576	-0,079	0,121
-576,992	140,867	0,113	0,109
-575,977	-25,619	0,031	-0,013
-574,963	-120,745	0,082	-0,010
-573,948	-182,781	0,091	-0,001
-572,934	266,179	-0,012	-0,015
-571,919	-148,878	-0,152	-0,009
-570,904	-200,000	0,004	0,039
-569,890	-128,868	-0,050	-0,005
-568,875	120,273	-0,173	0,157
-567,861	-200,000	-0,038	0,130
-566,846	-4,301	0,086	0,043
-565,831	800,000	-0,034	-0,089
-564,817	800,000	-0,016	-0,041
-563,802	800,000	-0,020	-0,061
-562,788	48,293	-0,119	-0,081
-561,773	102,424	0,066	-0,057
-560,758	-200,000	0,011	-0,063
-559,744	800,000	-0,036	0,091
-558,729	13,845	-0,087	-0,049
-557,715	0,556	-0,048	-0,025
-556,700	19,837	0,024	-0,014
-555,685	48,171	-0,062	0,042
-554,671	-17,300	0,018	-0,008
-553,656	-1,242	0,055	0,028
-552,642	93,127	-0,105	0,087
-551,627	242,656	0,076	0,094
-550,612	335,024	-0,119	0,170
-549,598	-200,000	-0,024	-0,083
-548,583	800,000	0,020	-0,062
-547,569	800,000	-0,028	0,088
-546,554	409,981	0,043	-0,067
-545,539	-200,000	0,013	0,159
-544,525	-200,000	0,029	0,114
-543,510	-200,000	0,010	-0,053
-542,496	-104,599	-0,089	-0,015
-541,481	136,021	0,144	-0,137
-540,466	83,899	0,100	-0,080
-539,452	-200,000	0,029	-0,146
-538,437	-88,649	-0,079	0,017
-537,423	-22,540	0,073	-0,032
-536,408	800,000	0,074	-0,161
-535,393	800,000	0,030	-0,069
-534,379	-118,637	-0,117	0,015
-533,364	-200,000	-0,024	-0,112
-532,350	329,490	0,049	-0,069
-531,335	276,598	0,034	-0,044
-530,321	319,103	-0,059	-0,082
-529,306	167,187	-0,060	-0,062
-528,291	-4,306	-0,103	0,052
-527,277	-73,486	-0,056	0,015
-526,262	-36,493	-0,051	-0,020
-525,248	41,379	0,044	0,029
-524,233	-4,978	0,099	-0,049
-523,218	-200,000	0,070	0,234
-522,204	-80,972	0,025	0,006
-521,189	185,805	-0,101	-0,110
-520,175	-16,567	0,020	-0,009
-519,160	800,000	-0,027	-0,060
-518,145	-8,080	0,021	-0,010
-517,131	800,000	0,022	0,044
-516,116	-200,000	0,030	0,104
-515,102	185,926	-0,020	0,022
-514,087	377,180	0,025	0,037
-513,072	491,450	-0,067	-0,113
-512,058	800,000	-0,035	-0,098
-511,043	277,022	0,060	-0,078
-510,029	-145,599	0,086	0,006
-509,014	800,000	0,054	-0,151
-507,999	-131,948	-0,067	0,006
-506,985	73,727	-0,121	0,092
-505,970	467,729	-0,027	-0,044
-504,956	-98,858	-0,031	-0,006
-503,941	-107,244	0,137	-0,022
-502,926	126,070	-0,061	-0,057
-501,912	-200,000	0,014	0,107
-500,897	12,595	-0,054	-0,031
-499,883	800,000	-0,014	-0,033
-498,868	-200,000	-0,028	-0,098
-497,853	-82,208	-0,075	0,018
-496,839	800,000	-0,041	-0,115
-495,824	51,152	-0,095	-0,066
-494,810	-101,349	0,123	-0,022
-493,795	800,000	0,006	-0,014
-492,781	-92,024	-0,031	0,006
-491,766	800,000	-0,033	-0,075
-490,751	-4,704	-0,071	-0,035
-489,737	-24,997	-0,044	-0,019
-488,722	-186,105	-0,092	-0,001
-487,708	-200,000	0,026	0,102
-486,693	-110,238	0,110	-0,017
-485,678	-5,467	-0,083	-0,041
-484,664	-91,581	0,096	-0,020
-483,649	315,182	0,037	-0,050
-482,635	685,729	-0,005	-0,009
-481,620	800,000	0,068	0,192
-480,605	-51,356	0,052	0,018
-479,591	147,470	-0,024	-0,024
-478,576	-200,000	-0,010	0,071
-477,562	-108,839	-0,074	-0,011
-476,547	-98,977	-0,097	0,018
-475,532	581,996	0,057	-0,103
-474,518	13,759	0,030	0,017
-473,503	-142,853	0,101	0,007
-472,489	-44,011	0,042	0,015
-471,474	397,269	-0,008	-0,012
-470,459	800,000	-0,018	0,050
-469,445	52,185	-0,118	-0,082
-468,430	-200,000	-0,023	-0,085
-467,416	58,555	0,048	0,035
-466,401	4,043	0,019	0,010
-465,386	-200,000	-0,032	0,109
-464,372	748,818	-0,085	-0,168
-463,357	579,196	0,040	-0,072
-462,343	25,093	-0,135	-0,081
-461,328	133,104	0,081	-0,076
-460,313	-200,000	-0,004	0,098
-459,299	800,000	0,042	-0,088
-458,284	151,999	-0,067	0,067
-457,270	800,000	-0,041	-0,107
-456,255	9,338	-0,058	-0,032
-455,241	-188,907	0,138	0,001
-454,226	172,078	-0,095	-0,099
-453,211	194,320	0,083	-0,092
-452,197	480,038	0,069	0,114
-451,182	-97,153	0,036	0,007
-450,168	83,251	0,039	0,031
-449,153	-8,789	0,067	-0,033
-448,138	800,000	0,018	-0,040
-447,124	369,179	0,068	0,100
-446,109	-169,572	0,184	0,005
-445,095	-102,870	0,172	0,029
-444,080	-200,000	0,015	0,066
-443,065	391,971	0,044	0,067
-442,051	-121,264	-0,091	-0,011
-441,036	-200,000	0,015	-0,094
-440,022	-200,000	0,010	-0,038
-439,007	145,861	0,055	0,053
-437,992	35,426	-0,151	0,097
-436,978	744,995	-0,071	0,140
-435,963	-29,752	-0,044	-0,018
-434,949	-104,144	0,057	0,010
-433,934	266,827	-0,024	-0,031
-432,919	-200,000	0,005	-0,154
-431,905	18,904	-0,033	0,019
-430,890	-147,021	0,118	0,007
-429,876	98,139	0,048	-0,040
-428,861	-193,262	0,069	0,000
-427,846	344,916	-0,075	-0,107
-426,832	48,114	0,020	0,014
-425,817	-200,000	-0,002	-0,157
-424,803	-200,000	-0,004	-0,029
-423,788	-200,000	0,005	0,206
-422,773	-21,429	-0,087	0,038
-421,759	800,000	-0,015	-0,044
-420,744	-200,000	0,011	-0,079
-419,730	396,184	-0,127	-0,193
-418,715	-102,514	-0,070	0,012
-417,701	93,963	-0,158	0,130
-416,686	-46,301	0,045	0,016
-415,671	-127,856	0,073	0,008
-414,657	50,420	0,174	0,119
-413,642	175,914	-0,060	-0,063
-412,628	625,974	-0,102	-0,188
-411,613	-49,230	-0,008	-0,003
-410,598	-200,000	-0,018	-0,082
-409,584	-200,000	-0,009	0,038
-408,569	-36,251	0,118	-0,046
-407,555	222,625	0,130	0,153
-406,540	146,951	-0,064	-0,063
-405,525	110,036	0,042	-0,037
-404,511	-111,657	0,053	-0,008
-403,496	320,569	0,022	0,031
-402,482	-51,208	0,034	0,012
-401,467	-200,000	0,029	0,124
-400,452	-140,506	0,146	0,011
-399,438	20,825	-0,076	0,045
-398,423	91,585	0,027	-0,022
-397,409	493,707	-0,022	0,037
-396,394	11,493	0,010	0,005
-395,379	10,996	0,125	0,069
-394,365	-200,000	-0,006	0,028
-393,350	25,515	0,059	-0,035
-392,336	226,011	0,091	0,108
-391,321	4,768	-0,067	-0,036
-390,306	-200,000	-0,001	-0,021
-389,292	800,000	0,030	-0,067
-388,277	692,089	-0,048	0,092
-387,263	245,637	-0,120	0,148
-386,248	81,949	0,169	0,133
-385,233	133,664	0,144	0,135
-384,219	-200,000	0,006	-0,061
-383,204	243,207	-0,049	-0,060
-382,190	41,406	0,042	-0,028
-381,175	84,714	-0,109	-0,086
-380,160	-24,503	0,096	-0,041
-379,146	253,139	0,013	-0,017
-378,131	-103,079	0,106	-0,018
-377,117	574,133	0,107	0,190
-376,102	464,755	0,045	0,073
-375,088	1,159	-0,030	-0,016
-374,073	133,651	0,096	-0,090
-373,058	-200,000	-0,036	0,131
-372,044	19,625	0,070	-0,041
-371,029	800,000	0,041	-0,084
-370,015	-74,934	-0,058	0,015
-369,000	-200,000	0,017	-0,078
-367,985	148,286	0,076	0,075
-366,971	61,224	-0,051	-0,036
-365,956	-89,803	-0,034	0,007
-364,942	156,422	0,090	0,090
-363,927	-104,631	-0,121	-0,020
-362,912	-181,822	0,087	-0,001
-361,898	-200,000	0,009	-0,082
-360,883	800,000	-0,073	-0,175
-359,869	759,479	-0,027	-0,053
-358,854	-108,145	0,091	0,014
-357,839	-200,000	-0,033	0,105
-356,825	67,589	0,085	0,063
-355,810	-15,977	-0,132	0,061
-354,796	21,008	-0,089	-0,052
-353,781	403,125	0,053	-0,081
-352,766	39,121	0,054	-0,035
-351,752	222,086	-0,060	-0,070
-350,737	332,067	-0,051	0,071
-349,723	-200,000	0,004	0,106
-348,708	-200,000	0,006	0,086
-347,693	-200,000	0,001	0,065
-346,679	562,293	-0,018	-0,031
-345,664	105,387	0,078	0,067
-344,650	800,000	0,016	-0,032
-343,635	800,000	-0,075	-0,225
-342,620	382,420	-0,057	0,086
-341,606	105,054	-0,134	0,114
-340,591	142,501	-0,026	0,025
-339,577	194,042	0,049	0,054
-338,562	0,444	-0,171	0,088
-337,548	-56,446	-0,074	-0,024
-336,533	167,564	0,132	0,136
-335,518	622,901	0,096	0,176
-334,504	-200,000	0,019	-0,136
-333,489	-35,600	-0,142	-0,055
-332,475	560,883	-0,044	0,078
-331,460	800,000	-0,034	0,077
-330,445	-54,735	0,059	0,019
-329,431	-138,050	0,050	-0,004
-328,416	198,078	0,059	0,066
-327,402	-148,357	-0,035	-0,002
-326,387	800,000	-0,043	0,097
-325,372	11,494	-0,048	-0,027
-324,358	487,518	-0,041	0,068
-323,343	324,121	-0,059	-0,082
-322,329	95,082	0,099	-0,082
-321,314	466,860	0,102	0,166
-320,299	-200,000	-0,023	0,153
-319,285	3,443	0,120	0,063
-318,270	-102,680	0,051	0,009
-317,256	479,779	-0,039	0,065
-316,241	111,775	0,072	-0,063
-315,226	248,118	-0,073	0,090
-314,212	-94,911	0,147	0,029
-313,197	58,814	-0,084	-0,060
-312,183	-200,000	0,002	-0,027
-311,168	0,549	0,067	0,035
-310,153	-104,051	0,122	-0,020
-309,139	-3,215	0,035	0,017
-308,124	428,952	0,084	0,133
-307,110	126,062	0,061	0,056
-306,095	-200,000	0,016	0,108
-305,080	44,844	0,025	0,016
-304,066	178,663	-0,087	0,092
-303,051	-200,000	0,022	0,078
-302,037	800,000	0,005	0,010
-301,022	621,004	0,016	-0,030
-300,008	-200,000	-0,024	0,085
-298,993	33,264	0,053	-0,033
-297,978	-154,998	-0,141	-0,007
-296,964	800,000	-0,042	0,115
-295,949	-62,156	0,058	0,017
-294,935	-200,000	-0,007	-0,035
-293,920	-200,000	-0,010	0,035
-292,905	-93,518	0,071	0,014
-291,891	198,650	0,101	-0,112
-290,876	254,458	-0,093	0,116
-289,862	-101,870	0,085	-0,015
-288,847	106,167	-0,083	-0,071
-287,832	-200,000	-0,037	-0,119
-286,818	-26,880	-0,027	0,011
-285,803	48,856	0,101	0,068
-284,789	268,185	0,052	0,067
-283,774	283,047	-0,047	-0,061
-282,759	405,277	-0,084	-0,128
-281,745	800,000	0,006	0,016
-280,730	-200,000	-0,002	0,037
-279,716	-90,149	0,191	-0,040
-278,701	-39,344	-0,043	-0,016
-277,686	-200,000	0,028	0,146
-276,672	-200,000	-0,000	0,050
-275,657	-196,539	0,025	0,000
-274,643	93,176	0,032	-0,026
-273,628	-10,984	-0,040	-0,019
-272,613	800,000	0,056	0,119
-271,599	-117,817	0,092	-0,012
-270,584	-87,202	0,139	-0,030
-269,570	800,000	-0,025	-0,065
-268,555	-46,338	0,061	-0,022
-267,540	735,192	0,028	0,055
-266,526	-115,729	-0,113	0,015
-265,511	416,426	0,037	-0,057
-264,497	652,288	-0,037	0,068
-263,482	-200,000	0,024	0,115
-262,467	686,369	-0,039	-0,074
-261,453	145,133	0,023	0,023
-260,438	-96,707	-0,064	0,012
-259,424	26,438	0,060	-0,036
-258,409	-26,491	-0,136	-0,057
-257,395	800,000	-0,068	0,157
-256,380	-58,136	0,046	0,014
-255,365	800,000	0,033	0,084
-254,351	-37,075	0,139	-0,054
-253,336	102,239	-0,032	-0,027
-252,322	-200,000	-0,001	-0,135
-251,307	-200,000	-0,018	-0,087
-250,292	472,917	0,013	0,021
-249,278	-200,000	-0,009	0,066
-248,263	-49,836	0,056	-0,019
-247,249	-200,000	0,021	-0,068
-246,234	-200,000	-0,012	0,103
-245,219	-200,000	0,046	-0,221
-244,205	-200,000	-0,033	-0,222
-243,190	33,864	0,108	-0,067
-242,176	-200,000	0,001	-0,006
-241,161	-142,521	0,103	-0,007
-240,146	146,997	0,092	0,089
-239,132	-54,037	-0,073	0,024
-238,117	-68,612	0,105	-0,029
-237,103	-6,568	0,062	-0,030
-236,088	-30,673	0,082	0,033
-235,073	-37,081	0,060	0,023
-234,059	-0,881	-0,079	-0,040
-233,044	431,374	0,036	0,057
-232,030	495,091	0,013	0,022
-231,015	-108,618	-0,216	-0,033
-230,000	-10,665	-0,009	-0,004
-228,986	-63,233	0,054	0,016
-227,971	-200,000	-0,037	-0,131
-226,957	119,478	0,100	0,089
-225,942	158,305	0,060	-0,060
-224,927	-20,186	-0,080	-0,036
-223,913	-95,875	0,092	-0,018
-222,898	-200,000	-0,006	0,045
-221,884	-100,823	-0,026	-0,005
-220,869	512,300	-0,016	-0,027
-219,855	-26,630	0,041	-0,017
-218,840	-200,000	0,046	0,168
-217,825	-200,000	-0,009	-0,059
-216,811	-49,687	-0,036	-0,012
-215,796	-141,378	-0,130	0,009
-214,782	-93,306	0,051	0,010
-213,767	99,999	0,089	-0,074
-212,752	477,560	-0,079	0,130
-211,738	-200,000	-0,003	0,059
-210,723	305,509	0,036	0,048
-209,709	-154,011	-0,183	0,009
-208,694	-48,342	-0,023	-0,008
-207,679	59,784	-0,070	-0,050
-206,665	-200,000	0,026	0,151
-205,650	800,000	-0,047	0,150
-204,636	219,569	-0,096	0,111
-203,621	-200,000	-0,011	0,141
-202,606	-166,916	0,056	0,002
-201,592	-63,302	-0,116	0,034
-200,577	413,716	0,095	0,146
-199,563	216,646	-0,077	-0,088
-198,548	-78,693	0,132	0,032
-197,533	187,350	0,079	-0,085
-196,519	-48,539	-0,043	-0,015
-195,504	182,859	-0,068	0,072
-194,490	179,888	-0,064	0,068
-193,475	800,000	-0,044	-0,104
-192,460	43,982	-0,025	-0,017
-191,446	-161,315	-0,147	-0,005
-190,431	-200,000	0,014	0,137
-189,417	194,893	0,027	-0,030
-188,402	25,021	0,049	-0,029
-187,387	-200,000	0,009	-0,142
-186,373	111,000	-0,087	-0,076
-185,358	142,801	-0,059	-0,057
-184,344	-200,000	0,036	0,120
-183,329	-200,000	0,007	0,023
-182,315	-200,000	0,012	0,132
-181,300	800,000	0,050	-0,123
-180,285	127,656	-0,022	-0,020
-179,271	800,000	-0,023	0,048
-178,256	5,991	0,040	-0,021
-177,242	173,183	0,063	0,066
-176,227	36,459	0,117	-0,074
-175,212	-131,484	0,067	0,006
-174,198	-96,907	0,091	0,017
-173,183	-141,831	-0,049	-0,003
-172,169	-21,512	-0,054	-0,023
-171,154	244,389	-0,052	-0,063
-170,139	-200,000	0,018	0,074
-169,125	123,906	-0,130	0,118
-168,110	-40,898	-0,039	0,014
-167,096	284,170	-0,019	0,024
-166,081	43,824	0,032	-0,021
-165,066	800,000	-0,030	-0,079
-164,052	-200,000	0,010	-0,177
-163,037	-200,000	-0,006	0,054
-162,023	-200,000	0,029	0,106
-161,008	56,164	0,046	-0,032
-159,993	425,229	-0,041	0,063
-158,979	238,653	0,094	0,113
-157,964	-200,000	-0,013	-0,105
-156,950	-200,000	0,004	-0,091
-155,935	32,046	0,098	-0,061
-154,920	560,429	0,006	0,010
-153,906	-200,000	0,005	0,055
-152,891	-200,000	-0,001	0,023
-151,877	-200,000	-0,036	0,129
-150,862	-84,066	-0,083	-0,019
-149,847	-200,000	-0,002	0,049
-148,833	95,862	-0,065	0,054
-147,818	-99,659	0,037	-0,007
-146,804	-167,450	0,145	-0,004
-145,789	-200,000	-0,023	0,075
-144,775	-200,000	-0,004	0,026
-143,760	-40,532	-0,133	-0,049
-142,745	-5,670	0,105	-0,052
-141,731	201,986	-0,025	0,027
-140,716	10,697	0,155	-0,085
-139,702	415,215	-0,044	0,067
-138,687	800,000	-0,046	-0,092
-137,672	-157,585	0,064	-0,003
-136,658	800,000	0,025	0,055
-135,643	-15,480	0,086	-0,039
-134,629	-171,122	-0,018	0,000
-133,614	-116,512	0,196	-0,026
-132,599	-127,637	0,072	0,007
-131,585	-0,723	-0,056	0,028
-130,570	-92,990	-0,040	0,008
-129,556	113,184	0,073	0,064
-128,541	-37,330	-0,136	-0,052
-127,526	7,151	0,031	0,017
-126,512	-200,000	-0,008	0,077
-125,497	-112,163	0,088	-0,013
-124,483	121,571	0,008	0,007
-123,468	6,273	-0,043	0,023
-122,453	76,558	0,060	-0,045
-121,439	800,000	0,028	0,078
-120,424	264,492	-0,066	-0,083
-119,410	349,659	0,039	-0,055
