DTS Sentinel unit serial number:	SN410029Multiplexer serial number:	ORYXHardware model number:	OX2-SRSoftware version number:	ORYX F/W v4,00 Oryx Data Collector v3.7.2.0data status	okinstallation	B5 Nyhavnadifferential loss correction	single-endedforward channel	channel 2reverse channel	N/Adate	2023/12/13time	08:12:13forward acquisition time	300,00reverse acquisition time	0,00gamma	499,1914k internal	0,3160k external	0,3160temperature offset calibration	1,0000default loss term (dB/km)	0,3820temperature slope calibration	1,0000multiplexer offset coefficient	1,0000multiplexer slope coefficient	1,0000fibre end	0,00T internal ref (°C)	13,65T ext. ref 1 (°C)	-2,79T ext. ref 2 (°C)	-3,10length (m)	temperature (°C)	Stokes	anti-Stokes-744,400	29,391	0,126	0,079
-743,385	-103,933	-0,312	0,053
-742,371	483,327	0,041	0,069
-741,356	-88,790	-0,219	0,048
-740,342	-138,603	0,172	-0,014
-739,327	-75,979	-0,336	0,087
-738,312	-64,549	0,169	0,050
-737,298	-86,505	-0,213	0,048
-736,283	27,012	0,146	0,090
-735,269	-54,331	-0,163	0,054
-734,254	80,490	0,115	0,091
-733,239	-52,306	-0,604	-0,205
-732,225	62,396	0,108	0,079
-731,210	-193,258	-0,025	0,000
-730,196	-28,329	0,082	-0,035
-729,181	27,027	0,091	-0,056
-728,167	45,517	0,038	0,026
-727,152	-200,000	0,012	-0,053
-726,137	-153,101	-0,185	0,009
-725,123	-200,000	-0,005	0,064
-724,108	-110,684	0,034	0,005
-723,094	-143,606	-0,029	-0,002
-722,079	45,886	-0,031	-0,021
-721,064	-60,249	0,045	0,014
-720,050	800,000	0,019	0,050
-719,035	800,000	-0,026	-0,069
-718,021	-133,414	-0,015	0,001
-717,006	800,000	0,102	-0,227
-715,991	240,360	-0,074	-0,090
-714,977	527,980	-0,045	-0,079
-713,962	58,104	0,032	0,023
-712,948	332,309	0,099	-0,141
-711,933	319,219	-0,029	-0,040
-710,918	220,783	-0,083	0,099
-709,904	800,000	0,026	-0,054
-708,889	165,378	-0,103	-0,107
-707,875	-200,000	-0,030	-0,108
-706,860	162,140	-0,047	-0,049
-705,845	-32,757	-0,064	-0,026
-704,831	663,342	-0,058	0,111
-703,816	-200,000	0,002	0,008
-702,802	-200,000	-0,032	0,152
-701,787	-92,748	-0,065	-0,013
-700,772	-200,000	-0,018	-0,119
-699,758	-26,062	0,072	0,031
-698,743	-26,980	0,074	0,032
-697,729	64,968	0,027	0,020
-696,714	123,201	0,064	-0,059
-695,699	202,437	0,049	-0,056
-694,685	-94,636	-0,152	-0,030
-693,670	127,416	-0,104	-0,097
-692,656	-112,565	0,031	-0,004
-691,641	-200,000	0,005	-0,047
-690,627	-29,401	-0,123	0,052
-689,612	800,000	-0,001	-0,004
-688,597	379,751	-0,049	-0,074
-687,583	800,000	-0,012	0,034
-686,568	77,595	-0,105	0,082
-685,554	800,000	-0,035	-0,080
-684,539	-144,985	-0,168	-0,011
-683,524	51,480	-0,058	-0,040
-682,510	-52,427	0,092	0,031
-681,495	160,181	0,106	0,109
-680,481	-200,000	0,013	0,146
-679,466	-81,854	-0,094	0,022
-678,451	-200,000	0,016	-0,071
-677,437	519,711	0,057	0,099
-676,422	215,179	-0,126	0,147
-675,408	57,121	-0,147	0,105
-674,393	-200,000	-0,011	-0,068
-673,378	-111,641	-0,079	0,012
-672,364	800,000	-0,060	0,126
-671,349	59,365	-0,034	0,025
-670,335	-200,000	0,027	0,104
-669,320	92,385	-0,054	-0,045
-668,305	800,000	0,036	-0,082
-667,291	-200,000	0,032	-0,125
-666,276	800,000	-0,034	-0,078
-665,262	152,014	-0,094	-0,095
-664,247	-18,371	0,070	-0,032
-663,232	-113,120	-0,027	0,004
-662,218	178,641	0,143	0,154
-661,203	-200,000	0,007	-0,028
-660,189	-85,385	0,063	0,014
-659,174	-200,000	0,052	-0,188
-658,159	-105,680	0,036	-0,006
-657,145	28,267	0,123	0,076
-656,130	69,793	0,052	0,039
-655,116	800,000	-0,011	0,025
-654,101	142,035	0,128	-0,125
-653,086	-65,500	-0,108	-0,032
-652,072	605,977	0,021	0,038
-651,057	7,932	-0,067	-0,037
-650,043	-22,218	0,167	-0,074
-649,028	483,759	0,031	-0,052
-648,014	-200,000	0,021	0,080
-646,999	800,000	-0,062	-0,155
-645,984	-106,438	0,124	0,020
-644,970	800,000	-0,040	-0,097
-643,955	800,000	0,011	-0,032
-642,941	363,187	-0,083	-0,123
-641,926	-200,000	0,011	0,068
-640,911	-200,000	0,021	0,148
-639,897	-22,742	-0,042	-0,019
-638,882	-135,611	0,070	-0,006
-637,868	27,199	-0,079	-0,048
-636,853	312,329	-0,054	-0,074
-635,838	-200,000	-0,039	-0,131
-634,824	-200,000	-0,166	-0,000
-633,809	229,719	-0,032	0,038
-632,795	26,521	-0,091	0,056
-631,780	800,000	-0,051	0,110
-630,765	144,427	0,059	-0,058
-629,751	173,540	-0,135	-0,143
-628,736	71,513	-0,007	0,006
-627,722	141,533	-0,008	-0,008
-626,707	800,000	-0,020	0,059
-625,692	627,776	0,052	-0,097
-624,678	-88,838	-0,055	-0,012
-623,663	-200,000	0,001	-0,106
-622,649	-200,000	-0,024	0,000
-621,634	5,287	-0,017	-0,009
-620,619	255,960	0,027	-0,033
-619,605	-40,966	0,053	-0,020
-618,590	-200,000	0,014	0,060
-617,576	-200,000	0,009	0,053
-616,561	-78,888	-0,121	-0,030
-615,546	192,022	0,062	-0,069
-614,532	-200,000	-0,039	-0,201
-613,517	-200,000	0,002	-0,114
-612,503	40,382	-0,005	0,003
-611,488	-200,000	0,017	-0,114
-610,474	-200,000	0,038	0,126
-609,459	413,585	0,033	0,051
-608,444	57,922	-0,058	0,041
-607,430	-35,208	-0,100	-0,040
-606,415	26,886	0,022	-0,014
-605,401	31,113	0,181	0,113
-604,386	-133,574	-0,085	-0,008
-603,371	643,385	0,046	-0,087
-602,357	115,215	-0,089	-0,080
-601,342	-200,000	0,001	0,030
-600,328	-110,876	-0,089	0,013
-599,313	-200,000	-0,021	0,101
-598,298	31,160	-0,134	-0,084
-597,284	800,000	0,023	-0,055
-596,269	-8,119	0,065	-0,032
-595,255	-137,579	0,149	-0,012
-594,240	29,444	-0,159	0,099
-593,225	800,000	0,055	-0,173
-592,211	280,259	0,017	0,023
-591,196	-37,784	0,030	0,012
-590,182	44,065	0,039	0,026
-589,167	71,867	-0,050	0,038
-588,152	-200,000	0,014	-0,079
-587,138	257,509	0,086	-0,109
-586,123	-200,000	0,011	-0,117
-585,109	-39,372	-0,102	-0,039
-584,094	-8,924	-0,038	-0,018
-583,079	-78,944	-0,096	-0,024
-582,065	-100,965	0,123	-0,022
-581,050	256,676	0,064	-0,081
-580,036	-79,525	0,116	-0,028
-579,021	-82,703	-0,163	-0,038
-578,006	800,000	-0,028	-0,060
-576,992	174,643	0,045	0,048
-575,977	-45,197	0,110	-0,040
-574,963	-60,899	-0,037	0,011
-573,948	-200,000	0,054	0,000
-572,934	-200,000	-0,022	-0,123
-571,919	-200,000	0,025	-0,183
-570,904	-200,000	-0,001	-0,012
-569,890	25,127	-0,098	-0,059
-568,875	166,221	0,116	0,121
-567,861	-61,387	0,052	-0,016
-566,846	-200,000	-0,000	0,098
-565,831	120,134	-0,164	0,149
-564,817	-27,746	-0,047	0,020
-563,802	800,000	-0,013	0,028
-562,788	14,501	-0,076	0,043
-561,773	-200,000	-0,038	0,186
-560,758	-200,000	0,014	0,066
-559,744	116,061	0,034	-0,031
-558,729	709,674	0,021	0,041
-557,715	-67,169	-0,131	0,038
-556,700	-21,448	-0,082	0,037
-555,685	-39,381	-0,097	0,037
-554,671	800,000	0,026	-0,058
-553,656	-90,897	0,099	0,021
-552,642	-57,739	-0,100	-0,032
-551,627	108,142	-0,074	-0,065
-550,612	245,727	-0,040	0,050
-549,598	800,000	-0,024	-0,051
-548,583	140,661	-0,042	0,041
-547,569	19,865	0,043	-0,025
-546,554	-53,387	-0,023	0,008
-545,539	-31,061	-0,027	-0,011
-544,525	800,000	0,022	0,070
-543,510	102,034	0,069	-0,059
-542,496	351,777	-0,172	0,249
-541,481	152,928	0,049	-0,049
-540,466	-101,618	0,070	0,012
-539,452	800,000	-0,052	-0,143
-538,437	-25,469	0,050	-0,021
-537,423	-90,504	0,123	0,026
-536,408	-158,433	-0,118	-0,005
-535,393	546,984	-0,026	-0,046
-534,379	-94,233	-0,190	0,038
-533,364	800,000	0,025	-0,062
-532,350	-103,696	0,167	-0,028
-531,335	-98,661	-0,020	0,004
-530,321	-200,000	0,018	0,113
-529,306	800,000	-0,011	0,023
-528,291	363,467	0,077	-0,113
-527,277	-160,352	0,031	-0,001
-526,262	639,144	-0,056	0,105
-525,248	-166,676	0,127	0,004
-524,233	280,773	-0,012	0,016
-523,218	-200,000	-0,018	0,080
-522,204	-124,360	0,115	0,013
-521,189	-200,000	0,026	-0,110
-520,175	-200,000	-0,007	-0,119
-519,160	70,492	0,044	-0,033
-518,145	171,838	0,026	0,027
-517,131	-78,878	0,097	0,024
-516,116	800,000	-0,083	-0,198
-515,102	-200,000	0,005	-0,077
-514,087	-200,000	-0,029	0,105
-513,072	-98,099	-0,033	0,006
-512,058	77,213	-0,036	-0,028
-511,043	-200,000	0,020	-0,076
-510,029	-160,380	0,127	0,005
-509,014	-36,934	-0,059	-0,023
-507,999	-79,376	-0,037	-0,009
-506,985	-200,000	-0,009	-0,115
-505,970	-80,972	-0,190	-0,046
-504,956	-85,629	0,159	-0,036
-503,941	104,109	0,075	-0,065
-502,926	463,160	0,019	-0,031
-501,912	123,634	0,156	0,143
-500,897	800,000	-0,045	0,131
-499,883	211,996	0,064	-0,074
-498,868	10,117	-0,122	-0,068
-497,853	-8,657	-0,125	0,061
-496,839	766,027	-0,059	0,118
-495,824	-200,000	0,008	0,086
-494,810	611,057	-0,055	0,100
-493,795	800,000	-0,019	0,044
-492,781	197,100	-0,052	-0,058
-491,766	-200,000	-0,010	-0,208
-490,751	800,000	0,008	0,017
-489,737	800,000	-0,004	0,009
-488,722	74,498	0,108	0,083
-487,708	77,237	-0,076	-0,059
-486,693	800,000	0,071	0,147
-485,678	-161,375	-0,098	-0,004
-484,664	-200,000	0,007	-0,120
-483,649	800,000	-0,062	-0,127
-482,635	-200,000	0,012	0,094
-481,620	-200,000	0,026	0,112
-480,605	-61,237	0,086	0,026
-479,591	108,478	0,126	-0,109
-478,576	-94,632	-0,063	0,012
-477,562	-200,000	0,030	0,104
-476,547	-63,264	-0,105	-0,031
-475,532	-83,375	-0,082	0,019
-474,518	-79,015	0,141	-0,035
-473,503	439,298	0,080	-0,128
-472,489	-60,304	-0,078	0,024
-471,474	-122,595	-0,061	-0,007
-470,459	368,271	0,022	-0,032
-469,445	-200,000	0,042	-0,168
-468,430	-200,000	-0,008	0,082
-467,416	183,028	0,083	0,089
-466,401	800,000	0,081	0,230
-465,386	563,861	0,015	0,027
-464,372	800,000	-0,050	-0,142
-463,357	187,487	-0,119	-0,130
-462,343	149,696	-0,081	-0,080
-461,328	-200,000	-0,039	-0,156
-460,313	-52,013	-0,043	0,015
-459,299	100,849	-0,026	0,022
-458,284	-198,425	-0,162	-0,001
-457,270	194,657	-0,066	-0,073
-456,255	368,123	-0,032	-0,048
-455,241	-200,000	0,022	-0,105
-454,226	340,555	-0,035	0,050
-453,211	-160,779	0,033	-0,001
-452,197	271,541	0,051	0,065
-451,182	800,000	0,047	0,115
-450,168	-200,000	-0,015	0,162
-449,153	81,829	-0,141	-0,111
-448,138	-200,000	-0,015	-0,069
-447,124	-51,225	0,069	0,023
-446,109	-200,000	0,013	-0,101
-445,095	-69,106	0,140	0,039
-444,080	130,873	-0,041	0,039
-443,065	575,960	0,027	0,048
-442,051	126,024	0,054	-0,050
-441,036	550,190	-0,020	0,034
-440,022	43,914	-0,087	0,058
-439,007	-88,129	-0,087	-0,019
-437,992	800,000	0,009	0,023
-436,978	800,000	0,030	0,060
-435,963	344,432	0,045	0,064
-434,949	-22,242	-0,066	-0,029
-433,934	7,468	-0,109	0,059
-432,919	159,241	-0,099	-0,100
-431,905	120,074	-0,151	-0,137
-430,890	16,523	0,082	0,047
-429,876	-200,000	-0,035	0,150
-428,861	234,232	0,059	0,070
-427,846	800,000	0,035	-0,084
-426,832	50,860	-0,084	-0,058
-425,817	800,000	-0,020	-0,044
-424,803	800,000	-0,024	0,073
-423,788	8,673	0,119	-0,065
-422,773	-200,000	0,011	-0,049
-421,759	134,713	0,133	0,125
-420,744	800,000	-0,043	-0,098
-419,730	-91,195	-0,143	-0,030
-418,715	-72,457	0,106	0,028
-417,701	420,932	-0,048	-0,075
-416,686	-200,000	0,014	-0,046
-415,671	800,000	-0,032	-0,099
-414,657	800,000	-0,023	-0,063
-413,642	-200,000	-0,009	0,078
-412,628	11,086	0,069	-0,038
-411,613	57,307	-0,085	-0,060
-410,598	800,000	-0,043	-0,101
-409,584	17,064	0,066	0,038
-408,569	800,000	0,016	0,042
-407,555	91,696	0,090	-0,074
-406,540	-155,427	-0,069	0,003
-405,525	-125,902	-0,089	-0,010
-404,511	-200,000	-0,005	0,021
-403,496	158,219	-0,120	-0,121
-402,482	-200,000	-0,034	0,138
-401,467	-90,170	-0,068	0,014
-400,452	32,497	0,063	-0,040
-399,438	133,225	0,011	-0,010
-398,423	-200,000	-0,004	0,092
-397,409	-26,565	-0,079	0,033
-396,394	800,000	-0,063	-0,129
-395,379	800,000	-0,038	0,080
-394,365	-200,000	0,011	0,150
-393,350	338,872	0,064	0,091
-392,336	184,972	0,059	0,064
-391,321	-42,368	0,070	-0,026
-390,306	195,985	0,073	0,081
-389,292	-111,471	-0,050	-0,007
-388,277	140,783	0,112	0,107
-387,263	800,000	0,043	0,101
-386,248	800,000	0,024	-0,073
-385,233	800,000	-0,027	-0,086
-384,219	-117,207	-0,119	0,015
-383,204	53,834	0,142	-0,099
-382,190	800,000	-0,029	-0,092
-381,175	127,065	-0,100	0,092
-380,160	-36,379	-0,043	0,017
-379,146	-57,679	-0,065	0,021
-378,131	-164,466	0,115	0,004
-377,117	677,281	-0,054	0,103
-376,102	15,714	-0,178	-0,101
-375,088	337,348	-0,059	-0,084
-374,073	800,000	0,012	-0,025
-373,058	-73,796	0,064	0,017
-372,044	-3,865	0,040	0,020
-371,029	192,694	0,069	0,076
-370,015	106,067	0,057	-0,049
-369,000	-33,345	0,140	0,056
-367,985	737,622	-0,024	-0,047
-366,971	-200,000	0,050	-0,214
-365,956	49,145	-0,056	-0,038
-364,942	81,425	0,099	0,077
-363,927	141,144	0,093	0,089
-362,912	-134,686	0,061	0,005
-361,898	-200,000	0,003	-0,010
-360,883	23,641	0,186	-0,111
-359,869	449,015	-0,054	0,086
-358,854	127,360	0,043	0,039
-357,839	28,860	0,149	0,091
-356,825	-200,000	-0,012	0,101
-355,810	129,651	-0,039	0,036
-354,796	-200,000	0,001	0,106
-353,781	-200,000	-0,005	0,056
-352,766	-120,802	-0,028	0,003
-351,752	-200,000	0,003	-0,087
-350,737	-61,736	0,090	-0,027
-349,723	-200,000	0,010	0,065
-348,708	37,973	-0,022	0,014
-347,693	-200,000	0,010	0,056
-346,679	45,879	0,032	0,021
-345,664	-200,000	-0,014	0,058
-344,650	-197,718	-0,176	0,001
-343,635	200,374	0,130	0,145
-342,620	-114,221	0,054	0,007
-341,606	-200,000	0,004	0,028
-340,591	178,706	0,051	0,055
-339,577	58,895	0,116	-0,082
-338,562	800,000	-0,038	-0,095
-337,548	-46,353	0,035	-0,012
-336,533	-44,823	-0,067	0,024
-335,518	193,609	0,092	-0,101
-334,504	-200,000	-0,001	0,053
-333,489	-156,212	0,037	-0,002
-332,475	3,252	-0,029	-0,015
-331,460	-127,643	0,027	-0,003
-330,445	-200,000	0,002	0,013
-329,431	58,660	0,112	-0,080
-328,416	368,420	0,066	-0,098
-327,402	800,000	0,077	0,179
-326,387	-27,102	0,042	0,018
-325,372	-200,000	-0,020	-0,092
-324,358	-77,027	0,030	-0,007
-323,343	98,600	-0,096	0,080
-322,329	-195,326	0,083	-0,000
-321,314	63,097	-0,121	0,088
-320,299	-82,974	0,110	-0,025
-319,285	2,549	0,078	0,041
-318,270	-127,047	-0,090	-0,009
-317,256	-177,726	-0,091	0,002
-316,241	-116,074	0,075	-0,010
-315,226	-200,000	0,009	0,098
-314,212	-124,141	0,123	-0,014
-313,197	-108,586	0,130	0,020
-312,183	-200,000	0,038	0,171
-311,168	14,984	-0,066	-0,037
-310,153	712,662	-0,074	-0,143
-309,139	800,000	-0,052	-0,163
-308,124	800,000	-0,041	0,107
-307,110	-200,000	-0,005	0,163
-306,095	-87,688	0,132	0,029
-305,080	-200,000	0,000	0,085
-304,066	-90,275	-0,121	-0,025
-303,051	-200,000	-0,020	-0,162
-302,037	-200,000	-0,024	-0,103
-301,022	-134,564	0,154	-0,013
-300,008	177,241	-0,102	0,107
-298,993	46,164	-0,090	0,060
-297,978	-91,787	-0,105	0,021
-296,964	-200,000	0,009	0,040
-295,949	11,922	-0,108	-0,060
-294,935	-142,077	-0,173	0,012
-293,920	557,221	-0,040	0,070
-292,905	123,236	0,041	0,037
-291,891	251,675	0,066	-0,082
-290,876	-62,721	-0,094	-0,028
-289,862	-200,000	0,002	-0,050
-288,847	-137,359	0,054	0,004
-287,832	214,998	-0,036	0,042
-286,818	-150,050	0,138	-0,008
-285,803	148,214	0,090	-0,088
-284,789	256,169	0,083	0,103
-283,774	-200,000	-0,028	0,126
-282,759	87,703	0,065	0,052
-281,745	800,000	-0,014	-0,043
-280,730	108,360	-0,079	0,068
-279,716	635,461	0,033	0,060
-278,701	800,000	-0,003	-0,007
-277,686	302,857	-0,038	0,052
-276,672	-92,211	0,064	0,013
-275,657	86,256	0,091	0,072
-274,643	800,000	0,049	0,109
-273,628	41,457	0,087	-0,057
-272,613	-200,000	-0,038	0,195
-271,599	-77,340	0,118	0,029
-270,584	-200,000	-0,011	0,060
-269,570	-200,000	-0,017	-0,094
-268,555	-200,000	-0,008	0,155
-267,540	448,466	-0,041	-0,065
-266,526	63,165	0,071	-0,051
-265,511	-44,240	-0,063	0,023
-264,497	-5,591	0,114	0,056
-263,482	800,000	0,029	0,066
-262,467	-67,260	0,065	0,018
-261,453	-200,000	0,002	-0,075
-260,438	-22,385	0,044	0,019
-259,424	239,996	0,035	0,042
-258,409	7,866	0,091	0,049
-257,395	243,417	-0,008	-0,010
-256,380	12,757	0,006	0,004
-255,365	-200,000	0,006	0,082
-254,351	800,000	-0,039	-0,096
-253,336	-6,700	0,039	0,019
-252,322	-200,000	0,025	-0,137
-251,307	-129,227	0,163	0,016
-250,292	-127,476	0,017	-0,002
-249,278	-200,000	0,016	0,063
-248,263	-124,795	-0,121	0,013
-247,249	-61,757	0,089	0,027
-246,234	113,350	0,057	0,050
-245,219	-97,047	-0,142	0,027
-244,205	-127,508	0,157	-0,016
-243,190	-200,000	-0,015	-0,058
-242,176	-53,800	-0,134	0,044
-241,161	253,492	0,080	0,099
-240,146	799,994	-0,007	-0,013
-239,132	-200,000	0,010	0,053
-238,117	57,324	0,143	-0,101
-237,103	-102,988	-0,143	0,024
-236,088	66,125	0,055	0,040
-235,073	-77,504	-0,022	0,006
-234,059	145,414	0,076	0,073
-233,044	-200,000	0,036	0,130
-232,030	-200,000	-0,008	-0,030
-231,015	-83,339	0,075	-0,017
-230,000	342,825	-0,070	-0,099
-228,986	-118,005	0,067	-0,009
-227,971	800,000	-0,042	0,095
-226,957	-200,000	-0,004	0,092
-225,942	800,000	0,016	-0,039
-224,927	390,752	0,093	0,140
-223,913	171,947	-0,081	-0,084
-222,898	-200,000	-0,002	-0,013
-221,884	143,080	-0,072	-0,069
-220,869	175,074	0,074	0,078
-219,855	671,929	-0,007	-0,013
-218,840	-200,000	0,005	-0,081
-217,825	452,128	-0,065	-0,104
-216,811	181,265	-0,078	-0,083
-215,796	-120,852	-0,177	-0,021
-214,782	-28,523	0,160	-0,066
-213,767	-61,684	0,136	-0,041
-212,752	-1,690	-0,082	0,042
-211,738	2,118	0,085	-0,044
-210,723	-29,661	0,024	-0,010
-209,709	-44,488	0,077	-0,028
-208,694	-109,167	0,093	0,014
-207,679	-62,461	-0,054	0,016
-206,665	-81,124	0,044	-0,010
-205,650	-67,298	0,052	-0,015
-204,636	158,826	-0,075	0,075
-203,621	717,791	-0,048	-0,093
-202,606	800,000	0,044	-0,106
-201,592	54,378	0,026	0,018
-200,577	158,690	-0,096	-0,096
-199,563	-200,000	0,037	0,132
-198,548	-54,616	0,132	0,043
-197,533	13,688	0,121	0,068
-196,519	-200,000	-0,002	0,021
-195,504	-200,000	0,016	-0,063
-194,490	226,403	0,022	0,026
-193,475	-19,490	-0,137	-0,061
-192,460	-200,000	-0,002	0,138
-191,446	-200,000	0,005	0,166
-190,431	450,669	0,041	0,066
-189,417	555,225	-0,059	0,103
-188,402	126,315	-0,092	-0,084
-187,387	800,000	-0,008	0,020
-186,373	-200,000	0,020	0,107
-185,358	307,904	-0,054	-0,073
-184,344	-78,561	0,071	-0,017
-183,329	520,323	-0,007	0,013
-182,315	78,235	-0,097	0,074
-181,300	-200,000	0,003	-0,037
-180,285	25,959	0,075	0,045
-179,271	800,000	-0,039	0,086
-178,256	-162,186	-0,085	0,003
-177,242	312,266	0,044	0,060
-176,227	144,605	-0,047	0,045
-175,212	-200,000	0,012	-0,053
-174,198	-63,876	-0,031	-0,009
-173,183	88,719	0,033	0,026
-172,169	-70,825	0,139	-0,038
-171,154	373,719	-0,053	-0,077
-170,139	96,227	0,106	-0,088
-169,125	213,543	0,071	0,081
-168,110	47,337	-0,021	0,014
-167,096	-200,000	0,010	-0,078
-166,081	-200,000	-0,016	-0,111
-165,066	-61,076	-0,180	-0,054
-164,052	303,292	-0,051	0,068
-163,037	75,890	-0,087	0,066
-162,023	114,605	-0,013	-0,012
-161,008	275,096	-0,090	-0,116
-159,993	697,061	-0,018	0,035
-158,979	-72,459	-0,148	-0,039
-157,964	-47,198	-0,016	-0,006
-156,950	800,000	-0,078	-0,158
-155,935	800,000	-0,039	-0,122
-154,920	-165,161	-0,023	-0,001
-153,906	-44,942	0,106	0,038
-152,891	-200,000	-0,019	0,118
-151,877	221,591	-0,030	0,035
-150,862	121,272	-0,156	-0,139
-149,847	-119,003	0,055	0,007
-148,833	-36,669	-0,035	-0,014
-147,818	733,581	-0,037	0,071
-146,804	-106,344	-0,061	-0,010
-145,789	333,177	0,095	0,133
-144,775	399,963	0,016	-0,024
-143,760	-69,098	-0,118	-0,033
-142,745	37,952	-0,034	0,022
-141,731	800,000	-0,045	0,090
-140,716	-33,346	-0,063	0,025
-139,702	-200,000	0,014	-0,119
-138,687	-127,678	0,098	-0,010
-137,672	261,226	-0,015	0,019
-136,658	-200,000	0,007	0,041
-135,643	800,000	0,029	0,090
-134,629	151,930	0,011	0,011
-133,614	-34,742	0,112	-0,044
-132,599	800,000	0,155	0,329
-131,585	800,000	-0,047	-0,095
-130,570	-140,488	-0,027	0,002
-129,556	-200,000	0,006	0,099
-128,541	800,000	-0,070	0,196
-127,526	-72,498	-0,129	0,034
-126,512	-69,832	0,046	0,013
-125,497	-101,192	-0,055	0,009
-124,483	108,948	0,074	0,063
-123,468	337,277	0,031	-0,043
-122,453	-140,381	-0,093	0,007
-121,439	-200,000	-0,012	-0,058
-120,424	-200,000	0,002	0,015
-119,410	233,386	-0,048	-0,057
-118,395	21,496	-0,048	-0,028
