DTS Sentinel unit serial number:	SN410029Multiplexer serial number:	ORYXHardware model number:	OX2-SRSoftware version number:	ORYX F/W v4,00 Oryx Data Collector v3.7.2.0data status	okinstallation	B5 Nyhavnadifferential loss correction	single-endedforward channel	channel 2reverse channel	N/Adate	2023/12/12time	21:57:13forward acquisition time	300,00reverse acquisition time	0,00gamma	499,1914k internal	0,3158k external	0,3158temperature offset calibration	1,0000default loss term (dB/km)	0,3820temperature slope calibration	1,0000multiplexer offset coefficient	1,0000multiplexer slope coefficient	1,0000fibre end	0,00T internal ref (°C)	14,77T ext. ref 1 (°C)	-1,85T ext. ref 2 (°C)	-2,15length (m)	temperature (°C)	Stokes	anti-Stokes-744,400	-95,561	0,126	-0,025
-743,385	-138,648	-0,214	0,017
-742,371	-92,135	0,051	0,011
-741,356	488,467	-0,097	-0,164
-740,342	-147,451	0,070	-0,004
-739,327	-177,172	-0,190	0,003
-738,312	-73,746	0,126	-0,034
-737,298	-140,574	-0,282	-0,021
-736,283	91,972	0,151	-0,125
-735,269	-49,390	-0,210	0,073
-734,254	-14,444	0,161	0,076
-733,239	-127,690	-0,431	-0,045
-732,225	180,913	0,159	0,173
-731,210	-200,000	-0,020	0,129
-730,196	394,029	-0,069	0,106
-729,181	109,402	-0,128	0,113
-728,167	32,451	0,079	0,050
-727,152	-133,276	0,077	-0,007
-726,137	630,267	-0,054	-0,101
-725,123	-200,000	-0,015	0,050
-724,108	-83,527	0,196	-0,046
-723,094	-200,000	0,008	-0,072
-722,079	-131,763	-0,122	-0,012
-721,064	-200,000	0,036	0,137
-720,050	400,811	0,021	0,032
-719,035	89,529	-0,023	-0,019
-718,021	-25,195	-0,062	-0,027
-717,006	-200,000	0,008	0,065
-715,991	343,196	-0,089	-0,129
-714,977	423,603	-0,063	-0,099
-713,962	-200,000	-0,003	-0,195
-712,948	202,307	-0,070	-0,080
-711,933	236,483	-0,053	-0,064
-710,918	-200,000	-0,043	0,140
-709,904	-47,222	0,096	-0,034
-708,889	238,600	-0,063	0,078
-707,875	-35,641	-0,131	0,052
-706,860	-9,204	0,006	-0,003
-705,845	55,216	0,023	0,016
-704,831	-200,000	-0,021	0,094
-703,816	-154,452	-0,121	-0,006
-702,802	496,531	0,055	-0,093
-701,787	-200,000	0,013	-0,049
-700,772	-137,358	0,037	-0,003
-699,758	10,655	0,099	-0,056
-698,743	-200,000	0,020	-0,085
-697,729	-95,588	0,031	0,006
-696,714	-200,000	0,012	0,095
-695,699	37,484	0,117	-0,076
-694,685	-200,000	-0,009	-0,130
-693,670	-200,000	-0,013	-0,115
-692,656	-200,000	0,020	-0,100
-691,641	-161,674	0,028	0,001
-690,627	466,712	0,069	0,115
-689,612	-200,000	0,013	-0,058
-688,597	2,748	-0,083	0,044
-687,583	-15,075	-0,139	-0,065
-686,568	-200,000	-0,005	-0,089
-685,554	-17,925	-0,054	-0,025
-684,539	414,730	0,053	0,084
-683,524	-115,302	0,087	-0,012
-682,510	191,545	0,050	-0,055
-681,495	22,498	-0,013	-0,008
-680,481	99,212	-0,075	-0,064
-679,466	-144,730	-0,041	0,003
-678,451	169,159	-0,128	0,134
-677,437	388,163	0,055	-0,084
-676,422	2,933	0,094	0,050
-675,408	800,000	-0,010	-0,030
-674,393	102,900	-0,039	0,034
-673,378	258,855	0,062	-0,079
-672,364	15,390	-0,200	-0,115
-671,349	-200,000	0,001	0,040
-670,335	236,737	0,033	0,040
-669,320	800,000	0,024	-0,060
-668,305	62,505	-0,146	0,107
-667,291	800,000	0,039	-0,116
-666,276	33,082	-0,069	-0,044
-665,262	800,000	-0,034	-0,106
-664,247	-22,184	-0,088	-0,039
-663,232	147,561	-0,072	-0,072
-662,218	-77,882	-0,128	0,032
-661,203	51,260	-0,090	0,063
-660,189	-200,000	0,005	0,149
-659,174	248,398	-0,046	-0,057
-658,159	234,632	-0,147	-0,178
-657,145	-200,000	-0,007	-0,100
-656,130	53,576	0,089	-0,063
-655,116	-200,000	0,034	-0,154
-654,101	228,876	-0,026	0,031
-653,086	-200,000	0,019	0,062
-652,072	-200,000	-0,002	-0,120
-651,057	-200,000	-0,001	0,025
-650,043	-34,194	-0,093	-0,037
-649,028	82,322	0,082	0,065
-648,014	-115,587	-0,033	-0,004
-646,999	-45,952	-0,017	-0,006
-645,984	265,841	-0,105	0,135
-644,970	-95,021	-0,035	0,007
-643,955	162,022	-0,126	-0,130
-642,941	29,463	-0,054	0,033
-641,926	-29,893	0,145	0,060
-640,911	181,669	0,041	0,045
-639,897	-44,794	-0,096	0,035
-638,882	800,000	-0,040	0,089
-637,868	429,370	-0,021	0,033
-636,853	-200,000	-0,014	0,145
-635,838	-31,398	0,051	-0,021
-634,824	199,346	0,056	-0,064
-633,809	-200,000	0,009	-0,052
-632,795	800,000	-0,044	-0,103
-631,780	-200,000	-0,006	-0,050
-630,765	-98,019	-0,129	-0,024
-629,751	-200,000	0,003	-0,081
-628,736	800,000	-0,069	-0,146
-627,722	-103,037	0,057	-0,010
-626,707	800,000	-0,035	0,097
-625,692	-200,000	0,027	0,137
-624,678	-70,451	0,059	0,016
-623,663	125,073	-0,048	0,044
-622,649	65,417	-0,024	-0,018
-621,634	72,826	0,033	-0,025
-620,619	-35,081	-0,064	-0,025
-619,605	-30,823	-0,020	0,008
-618,590	608,124	0,015	0,028
-617,576	37,722	-0,044	0,029
-616,561	-14,365	-0,055	-0,026
-615,546	-98,696	-0,098	0,018
-614,532	-200,000	-0,038	-0,196
-613,517	-149,186	-0,070	0,004
-612,503	800,000	0,028	-0,068
-611,488	-27,948	0,031	0,013
-610,474	402,795	0,043	0,066
-609,459	800,000	-0,063	-0,167
-608,444	-84,173	-0,096	-0,022
-607,430	-4,163	-0,062	-0,031
-606,415	-11,438	-0,195	-0,094
-605,401	391,089	-0,075	0,114
-604,386	-200,000	0,010	0,045
-603,371	1,467	0,181	-0,095
-602,357	541,056	0,048	-0,084
-601,342	-179,547	0,059	-0,001
-600,328	-200,000	-0,004	-0,059
-599,313	299,587	-0,052	0,071
-598,298	800,000	-0,017	-0,037
-597,284	-200,000	0,018	0,092
-596,269	-166,689	0,103	0,003
-595,255	365,976	-0,041	-0,061
-594,240	-60,488	-0,100	0,031
-593,225	-56,255	-0,109	0,035
-592,211	91,802	0,094	0,078
-591,196	-200,000	0,002	0,040
-590,182	-70,427	0,179	-0,049
-589,167	-200,000	0,008	0,059
-588,152	-200,000	-0,003	0,041
-587,138	-16,028	-0,163	-0,076
-586,123	-200,000	0,002	-0,035
-585,109	-144,365	0,147	-0,010
-584,094	52,628	0,045	-0,031
-583,079	-42,153	-0,098	-0,036
-582,065	487,988	-0,025	-0,042
-581,050	62,139	-0,081	-0,059
-580,036	800,000	0,045	-0,134
-579,021	128,062	-0,078	-0,073
-578,006	129,631	-0,067	-0,063
-576,992	-200,000	0,004	0,187
-575,977	128,328	0,059	0,055
-574,963	-200,000	-0,001	0,055
-573,948	-44,273	0,099	-0,036
-572,934	337,845	-0,061	-0,087
-571,919	-28,046	-0,164	-0,069
-570,904	203,979	-0,145	-0,165
-569,890	-200,000	0,003	0,077
-568,875	800,000	-0,063	0,145
-567,861	800,000	0,061	0,128
-566,846	-122,389	0,144	0,017
-565,831	-31,562	-0,059	-0,024
-564,817	-110,612	0,221	-0,033
-563,802	102,985	-0,072	-0,062
-562,788	-118,465	0,041	-0,005
-561,773	-86,008	-0,137	0,031
-560,758	-13,075	0,036	-0,017
-559,744	122,553	-0,022	0,020
-558,729	-101,581	-0,069	0,012
-557,715	-200,000	-0,005	0,069
-556,700	-200,000	0,006	-0,071
-555,685	41,698	-0,114	-0,075
-554,671	-67,941	-0,071	0,020
-553,656	-200,000	-0,012	0,081
-552,642	-27,405	0,094	0,040
-551,627	-57,532	0,027	0,009
-550,612	-78,136	0,120	0,030
-549,598	411,149	0,021	-0,033
-548,583	154,544	-0,071	-0,071
-547,569	102,564	0,113	0,097
-546,554	95,289	0,033	0,028
-545,539	-200,000	-0,032	0,162
-544,525	406,250	0,042	-0,064
-543,510	-31,840	-0,114	0,047
-542,496	800,000	0,026	-0,060
-541,481	800,000	-0,075	-0,237
-540,466	800,000	-0,022	-0,056
-539,452	-197,052	0,036	-0,000
-538,437	262,007	0,105	-0,134
-537,423	-111,807	-0,051	0,008
-536,408	32,062	-0,119	-0,075
-535,393	109,136	0,061	-0,053
-534,379	-37,848	0,193	-0,075
-533,364	-102,944	-0,114	0,020
-532,350	-200,000	0,007	0,057
-531,335	-200,000	0,011	0,144
-530,321	-200,000	0,000	0,019
-529,306	253,153	-0,097	0,122
-528,291	800,000	0,049	0,106
-527,277	-59,125	-0,101	0,032
-526,262	800,000	-0,029	-0,064
-525,248	-60,082	0,075	0,023
-524,233	246,786	-0,092	0,114
-523,218	-92,701	0,084	-0,017
-522,204	119,073	-0,075	0,067
-521,189	-200,000	-0,007	0,027
-520,175	32,918	-0,147	0,093
-519,160	64,998	-0,088	-0,065
-518,145	-151,984	0,028	0,001
-517,131	-111,948	-0,046	-0,007
-516,116	-200,000	0,016	-0,083
-515,102	-96,926	0,178	0,034
-514,087	800,000	0,061	-0,126
-513,072	-179,735	-0,045	0,001
-512,058	241,415	0,110	-0,134
-511,043	612,965	-0,054	-0,100
-510,029	2,635	-0,018	0,009
-509,014	-106,503	0,125	0,020
-507,999	-2,613	-0,158	-0,081
-506,985	-58,132	0,008	-0,002
-505,970	-153,935	0,061	0,003
-504,956	800,000	0,021	-0,054
-503,941	52,328	0,044	-0,031
-502,926	189,124	0,048	-0,053
-501,912	800,000	0,010	0,024
-500,897	-32,572	-0,039	0,016
-499,883	187,313	0,036	0,040
-498,868	-36,641	0,071	-0,028
-497,853	-200,000	-0,016	-0,108
-496,839	-6,624	0,177	0,088
-495,824	-160,054	0,126	-0,005
-494,810	-200,000	-0,006	0,035
-493,795	800,000	-0,018	0,046
-492,781	123,896	0,011	0,010
-491,766	-95,771	-0,126	-0,024
-490,751	609,255	-0,064	-0,117
-489,737	-200,000	-0,012	-0,077
-488,722	-200,000	0,004	0,096
-487,708	-151,678	0,125	-0,007
-486,693	-78,220	-0,143	0,036
-485,678	-200,000	0,023	0,100
-484,664	-31,050	-0,056	0,023
-483,649	-13,077	-0,203	-0,096
-482,635	-25,516	-0,052	-0,023
-481,620	546,727	-0,038	0,066
-480,605	-200,000	0,025	0,139
-479,591	106,034	0,082	0,071
-478,576	69,605	-0,080	0,060
-477,562	-200,000	0,006	-0,055
-476,547	-200,000	-0,004	-0,130
-475,532	-200,000	0,024	-0,111
-474,518	108,185	0,079	0,069
-473,503	-157,079	0,051	0,002
-472,489	-137,764	0,030	-0,002
-471,474	213,607	-0,099	-0,114
-470,459	-200,000	0,016	0,085
-469,445	-71,942	-0,040	-0,011
-468,430	-175,276	-0,113	0,002
-467,416	-200,000	0,024	0,084
-466,401	800,000	0,012	-0,034
-465,386	5,951	-0,047	0,025
-464,372	48,595	0,023	0,016
-463,357	-69,476	-0,169	-0,047
-462,343	362,729	0,023	-0,034
-461,328	-81,263	-0,034	-0,008
-460,313	-200,000	-0,014	0,087
-459,299	-24,813	0,134	-0,058
-458,284	-200,000	0,054	0,193
-457,270	308,920	0,014	-0,019
-456,255	-200,000	-0,018	-0,057
-455,241	-200,000	-0,003	-0,040
-454,226	-132,844	-0,143	-0,013
-453,211	367,928	0,031	-0,046
-452,197	-167,135	-0,043	0,001
-451,182	-114,114	0,130	-0,018
-450,168	-148,676	-0,129	-0,008
-449,153	532,960	-0,080	0,138
-448,138	642,545	-0,050	-0,093
-447,124	-200,000	-0,007	-0,034
-446,109	-78,497	0,102	-0,025
-445,095	-101,113	0,118	0,021
-444,080	240,744	-0,067	-0,082
-443,065	800,000	-0,045	-0,132
-442,051	-200,000	0,012	-0,105
-441,036	160,083	-0,123	-0,125
-440,022	87,169	0,062	-0,050
-439,007	-21,107	0,058	-0,026
-437,992	-65,257	-0,011	-0,003
-436,978	800,000	-0,051	-0,129
-435,963	-200,000	-0,003	0,071
-434,949	-200,000	0,016	0,095
-433,934	158,094	-0,047	0,048
-432,919	36,424	-0,135	-0,086
-431,905	-130,860	-0,093	-0,009
-430,890	800,000	0,034	-0,097
-429,876	-92,748	0,087	0,018
-428,861	98,888	0,006	-0,005
-427,846	247,056	0,026	-0,032
-426,832	-51,267	0,081	0,027
-425,817	-200,000	0,024	-0,105
-424,803	-188,245	0,030	0,000
-423,788	-56,098	0,035	-0,011
-422,773	-117,000	0,103	0,014
-421,759	-135,016	0,118	-0,010
-420,744	-100,427	-0,066	-0,012
-419,730	51,658	-0,086	-0,060
-418,715	-200,000	-0,014	-0,048
-417,701	10,225	0,119	-0,066
-416,686	56,051	0,075	-0,053
-415,671	-168,234	-0,096	-0,003
-414,657	800,000	0,093	0,197
-413,642	365,131	0,112	0,165
-412,628	800,000	0,016	0,047
-411,613	734,144	0,037	-0,073
-410,598	800,000	-0,058	-0,136
-409,584	-200,000	0,026	0,161
-408,569	-6,194	0,046	-0,023
-407,555	48,343	0,071	0,048
-406,540	-50,723	-0,179	0,061
-405,525	60,254	0,069	0,049
-404,511	452,328	0,062	-0,101
-403,496	45,472	-0,036	0,024
-402,482	-132,313	0,036	0,003
-401,467	-99,436	0,145	-0,026
-400,452	-67,090	-0,075	0,021
-399,438	800,000	0,044	-0,094
-398,423	800,000	-0,024	0,066
-397,409	172,630	0,030	0,031
-396,394	738,778	-0,034	0,066
-395,379	-100,284	0,131	-0,023
-394,365	800,000	-0,053	0,145
-393,350	175,650	0,037	0,040
-392,336	-200,000	-0,016	0,150
-391,321	800,000	0,013	0,042
-390,306	117,044	-0,101	-0,090
-389,292	-23,451	-0,087	-0,038
-388,277	660,227	-0,009	-0,018
-387,263	800,000	0,019	0,053
-386,248	-200,000	0,032	0,151
-385,233	57,605	0,079	-0,056
-384,219	-59,939	-0,136	-0,042
-383,204	-200,000	0,028	-0,125
-382,190	-200,000	0,010	0,103
-381,175	-132,059	-0,014	0,001
-380,160	-23,490	-0,113	-0,049
-379,146	-200,000	-0,009	0,074
-378,131	-200,000	0,018	0,074
-377,117	-200,000	0,006	-0,042
-376,102	90,600	0,112	0,091
-375,088	-151,710	0,100	-0,005
-374,073	-200,000	-0,010	-0,034
-373,058	256,262	-0,009	-0,012
-372,044	92,879	0,073	0,060
-371,029	-130,895	0,157	0,015
-370,015	-93,796	0,045	0,009
-369,000	174,937	0,035	0,037
-367,985	800,000	-0,016	0,038
-366,971	31,637	-0,100	-0,062
-365,956	-200,000	0,000	0,062
-364,942	-200,000	0,020	-0,095
-363,927	16,345	0,067	0,038
-362,912	800,000	0,005	0,015
-361,898	62,452	-0,055	-0,040
-360,883	-200,000	-0,025	-0,102
-359,869	38,155	0,063	-0,041
-358,854	-200,000	0,017	0,136
-357,839	-55,872	0,187	0,060
-356,825	-200,000	0,019	0,139
-355,810	134,653	0,071	0,067
-354,796	720,097	-0,048	0,094
-353,781	-200,000	0,030	0,101
-352,766	-200,000	0,049	-0,166
-351,752	424,589	-0,072	-0,113
-350,737	800,000	0,049	-0,111
-349,723	-200,000	-0,008	0,197
-348,708	21,463	0,127	-0,075
-347,693	185,147	0,017	0,019
-346,679	-103,457	-0,044	0,008
-345,664	180,714	0,067	0,071
-344,650	800,000	-0,083	0,185
-343,635	-85,697	0,117	-0,026
-342,620	14,833	0,108	0,061
-341,606	85,723	-0,098	-0,078
-340,591	-161,605	-0,058	-0,002
-339,577	458,356	0,057	0,093
-338,562	-21,212	-0,122	-0,054
-337,548	31,118	0,132	-0,082
-336,533	82,861	-0,079	-0,062
-335,518	8,463	0,144	-0,078
-334,504	288,156	0,060	0,078
-333,489	57,423	-0,072	-0,051
-332,475	-173,301	0,077	0,002
-331,460	-44,832	0,042	0,015
-330,445	376,907	-0,044	-0,066
-329,431	-200,000	0,020	-0,118
-328,416	179,412	0,075	0,079
-327,402	-200,000	-0,004	0,022
-326,387	-200,000	0,009	-0,075
-325,372	-200,000	-0,011	0,053
-324,358	-11,406	-0,108	-0,051
-323,343	800,000	-0,060	-0,184
-322,329	-57,270	-0,151	-0,048
-321,314	-69,093	0,158	0,044
-320,299	800,000	-0,020	0,047
-319,285	-68,717	0,075	-0,021
-318,270	-175,174	-0,135	-0,003
-317,256	596,747	-0,019	-0,034
-316,241	-200,000	0,007	0,113
-315,226	53,745	0,064	-0,044
-314,212	-200,000	-0,014	0,095
-313,197	18,639	0,061	0,035
-312,183	25,450	-0,167	0,101
-311,168	207,397	0,037	0,042
-310,153	-37,091	-0,038	0,015
-309,139	-200,000	0,003	-0,028
-308,124	40,892	0,132	-0,086
-307,110	-72,390	-0,095	0,025
-306,095	178,597	-0,017	-0,019
-305,080	201,820	-0,066	-0,074
-304,066	-126,323	-0,056	-0,006
-303,051	-71,512	-0,174	-0,047
-302,037	-200,000	0,016	-0,102
-301,022	-200,000	-0,001	-0,028
-300,008	800,000	-0,033	0,095
-298,993	-200,000	0,021	0,130
-297,978	800,000	-0,023	-0,067
-296,964	11,081	0,168	-0,093
-295,949	800,000	0,030	-0,071
-294,935	277,467	-0,024	0,030
-293,920	54,622	0,096	0,067
-292,905	78,428	-0,133	0,103
-291,891	-92,188	0,059	-0,012
-290,876	205,043	-0,021	-0,024
-289,862	-200,000	-0,044	0,000
-288,847	-49,253	0,032	0,011
-287,832	-83,941	0,048	-0,011
-286,818	-200,000	-0,064	-0,208
-285,803	-78,786	0,106	0,026
-284,789	265,533	-0,086	0,108
-283,774	-51,009	-0,069	-0,023
-282,759	43,795	0,049	-0,032
-281,745	-29,308	-0,030	0,012
-280,730	-187,615	0,064	0,001
-279,716	-37,124	0,067	-0,026
-278,701	800,000	-0,013	-0,027
-277,686	800,000	-0,060	-0,141
-276,672	-200,000	-0,014	0,068
-275,657	17,438	-0,045	0,026
-274,643	444,349	-0,010	0,016
-273,628	-200,000	-0,001	-0,034
-272,613	240,950	0,140	-0,170
-271,599	800,000	-0,032	0,088
-270,584	335,053	0,077	0,109
-269,570	260,700	-0,011	0,014
-268,555	-90,489	0,110	0,023
-267,540	-192,540	-0,025	-0,000
-266,526	48,944	0,095	0,065
-265,511	-200,000	-0,022	0,103
-264,497	-24,439	0,025	-0,011
-263,482	-16,633	0,105	0,048
-262,467	-200,000	0,013	0,090
-261,453	-200,000	0,010	-0,059
-260,438	-24,572	0,048	0,020
-259,424	42,871	-0,059	-0,039
-258,409	72,984	-0,102	-0,077
-257,395	28,123	-0,064	0,039
-256,380	165,438	0,165	0,169
-255,365	485,683	0,061	0,101
-254,351	800,000	-0,020	-0,050
-253,336	800,000	-0,049	-0,107
-252,322	497,780	-0,007	0,012
-251,307	-62,250	0,097	0,029
-250,292	207,477	0,029	0,032
-249,278	-200,000	-0,001	-0,022
-248,263	-132,285	0,087	-0,008
-247,249	800,000	-0,054	0,129
-246,234	-200,000	-0,013	0,043
-245,219	336,510	-0,067	-0,095
-244,205	-200,000	0,011	-0,097
-243,190	-200,000	0,023	-0,144
-242,176	-196,460	0,035	0,000
-241,161	-66,606	0,071	-0,020
-240,146	-200,000	0,013	-0,043
-239,132	-19,068	-0,060	0,027
-238,117	-200,000	-0,018	0,184
-237,103	800,000	0,024	-0,061
-236,088	-167,011	-0,297	0,009
-235,073	172,118	0,096	-0,099
-234,059	77,738	-0,045	-0,035
-233,044	-97,695	0,138	0,026
-232,030	50,181	0,060	0,041
-231,015	800,000	-0,028	0,089
-230,000	-200,000	0,016	-0,086
-228,986	272,670	0,058	0,074
-227,971	800,000	-0,027	0,073
-226,957	-200,000	0,073	0,245
-225,942	58,773	0,082	0,058
-224,927	19,133	0,086	-0,050
-223,913	-54,614	-0,125	-0,041
-222,898	-38,292	-0,150	-0,057
-221,884	800,000	-0,006	-0,015
-220,869	197,236	0,085	-0,094
-219,855	-194,567	0,067	-0,000
-218,840	-200,000	0,033	0,121
-217,825	-6,319	-0,066	0,032
-216,811	13,380	0,019	0,011
-215,796	800,000	0,032	-0,101
-214,782	-84,840	-0,152	-0,034
-213,767	-200,000	-0,009	0,136
-212,752	59,718	0,052	-0,037
-211,738	-200,000	-0,008	-0,090
-210,723	-200,000	-0,031	0,132
-209,709	-200,000	-0,083	-0,000
-208,694	-200,000	0,007	0,026
-207,679	-107,348	0,039	0,006
-206,665	-15,079	0,115	0,053
-205,650	-200,000	0,011	0,037
-204,636	-200,000	-0,010	0,190
-203,621	282,784	-0,039	0,051
-202,606	-62,038	-0,098	-0,029
-201,592	591,522	-0,045	0,080
-200,577	163,071	-0,064	0,065
-199,563	29,667	0,044	-0,027
-198,548	-200,000	0,024	-0,093
-197,533	800,000	0,006	0,015
-196,519	-45,321	-0,056	-0,020
-195,504	-51,956	-0,098	-0,033
-194,490	-103,799	-0,126	-0,021
-193,475	-124,251	-0,043	-0,005
-192,460	-200,000	0,014	-0,081
-191,446	13,194	-0,036	0,020
-190,431	3,803	-0,090	0,047
-189,417	-200,000	-0,024	-0,096
-188,402	47,923	-0,199	-0,134
-187,387	608,849	0,033	-0,060
-186,373	-100,183	0,217	0,038
-185,358	800,000	-0,033	0,103
-184,344	87,441	0,057	0,045
-183,329	197,293	0,041	0,045
-182,315	-104,253	-0,133	0,022
-181,300	-2,692	0,017	-0,009
-180,285	-200,000	-0,017	-0,060
-179,271	2,750	-0,159	-0,083
-178,256	-120,288	0,117	-0,014
-177,242	-57,350	0,095	-0,030
-176,227	120,824	0,044	0,039
-175,212	-200,000	0,041	0,209
-174,198	206,431	0,066	-0,074
-173,183	337,690	-0,073	-0,103
-172,169	312,906	-0,133	-0,180
-171,154	129,956	0,080	0,074
-170,139	-200,000	0,021	0,161
-169,125	-200,000	0,018	0,101
-168,110	-49,987	0,167	0,057
-167,096	-22,903	-0,027	-0,011
-166,081	-200,000	-0,007	-0,077
-165,066	-40,912	0,088	0,033
-164,052	287,038	-0,020	0,027
-163,037	234,447	-0,107	0,127
-162,023	492,214	0,082	0,136
-161,008	-200,000	0,003	-0,085
-159,993	78,252	0,040	0,031
-158,979	-83,638	-0,106	-0,024
-157,964	412,851	0,064	-0,099
-156,950	-152,406	-0,101	-0,005
-155,935	-200,000	-0,046	-0,177
-154,920	9,738	0,135	-0,074
-153,906	97,928	0,095	-0,079
-152,891	-200,000	-0,003	0,061
-151,877	-0,142	-0,040	0,020
-150,862	800,000	-0,073	-0,146
-149,847	-146,185	-0,053	0,003
-148,833	164,219	-0,128	-0,130
-147,818	-128,298	0,114	-0,012
-146,804	-62,407	-0,080	0,024
-145,789	-28,804	-0,067	-0,028
-144,775	-172,658	0,100	-0,002
-143,760	-200,000	0,010	0,061
-142,745	-200,000	-0,019	-0,138
-141,731	306,063	-0,065	-0,087
-140,716	159,862	0,127	-0,127
-139,702	25,845	-0,018	0,011
-138,687	800,000	0,031	0,092
-137,672	-200,000	-0,017	-0,072
-136,658	615,155	-0,025	-0,045
-135,643	-4,196	-0,114	0,057
-134,629	-200,000	0,025	-0,091
-133,614	-200,000	-0,013	-0,103
-132,599	800,000	0,083	0,168
-131,585	143,556	-0,041	0,039
-130,570	-200,000	-0,012	0,131
-129,556	-102,438	-0,118	-0,020
-128,541	-200,000	0,000	-0,151
-127,526	-200,000	-0,021	0,154
-126,512	735,900	-0,059	-0,115
-125,497	-200,000	0,183	-0,000
-124,483	-200,000	-0,001	0,088
-123,468	114,671	0,046	0,041
-122,453	-66,250	-0,153	-0,044
-121,439	-200,000	-0,019	0,066
-120,424	138,596	0,050	-0,047
