DTS Sentinel unit serial number:	SN410029Multiplexer serial number:	ORYXHardware model number:	OX2-SRSoftware version number:	ORYX F/W v4,00 Oryx Data Collector v3.7.2.0data status	okinstallation	B5 Nyhavnadifferential loss correction	single-endedforward channel	channel 2reverse channel	N/Adate	2023/12/14time	10:12:13forward acquisition time	300,00reverse acquisition time	0,00gamma	499,1914k internal	0,3161k external	0,3161temperature offset calibration	1,0000default loss term (dB/km)	0,3820temperature slope calibration	1,0000multiplexer offset coefficient	1,0000multiplexer slope coefficient	1,0000fibre end	0,00T internal ref (°C)	6,87T ext. ref 1 (°C)	-9,21T ext. ref 2 (°C)	-9,23length (m)	temperature (°C)	Stokes	anti-Stokes-744,400	-130,766	0,160	0,016
-743,385	-54,900	-0,373	-0,123
-742,371	11,562	0,195	0,110
-741,356	-155,238	-0,479	0,023
-740,342	-86,535	0,149	0,033
-739,327	3,203	-0,325	-0,174
-738,312	178,886	0,123	0,133
-737,298	-169,144	-0,289	-0,008
-736,283	497,282	0,043	0,074
-735,269	-68,945	-0,357	0,101
-734,254	-200,000	-0,020	0,169
-733,239	-65,506	-0,577	-0,169
-732,225	10,860	0,278	0,156
-731,210	-68,604	-0,017	0,005
-730,196	-134,482	0,026	0,002
-729,181	-200,000	0,018	-0,095
-728,167	26,909	-0,060	0,037
-727,152	-200,000	-0,040	-0,132
-726,137	-143,971	-0,104	0,007
-725,123	-200,000	-0,004	-0,082
-724,108	40,351	0,043	-0,028
-723,094	772,646	-0,073	-0,146
-722,079	50,486	0,117	-0,081
-721,064	19,831	-0,091	0,054
-720,050	-200,000	0,021	-0,188
-719,035	-162,366	-0,116	-0,004
-718,021	389,878	-0,047	-0,072
-717,006	-158,791	-0,036	-0,001
-715,991	-3,772	-0,088	-0,045
-714,977	-200,000	0,006	0,100
-713,962	-200,000	0,006	0,113
-712,948	-138,349	-0,166	0,013
-711,933	-200,000	-0,009	-0,142
-710,918	-20,449	0,077	0,035
-709,904	-162,899	0,061	0,002
-708,889	-73,587	0,055	-0,015
-707,875	-200,000	0,001	0,032
-706,860	-142,699	0,101	0,007
-705,845	260,701	-0,022	0,028
-704,831	10,300	-0,098	-0,055
-703,816	236,230	0,051	0,062
-702,802	800,000	-0,077	0,169
-701,787	-88,547	0,012	-0,003
-700,772	303,710	-0,036	0,049
-699,758	61,131	-0,095	-0,069
-698,743	-82,879	0,175	0,041
-697,729	-200,000	0,014	0,117
-696,714	-145,051	0,122	0,008
-695,699	51,935	-0,141	0,099
-694,685	343,411	0,067	-0,097
-693,670	-41,511	-0,073	-0,028
-692,656	145,761	-0,014	-0,013
-691,641	-137,737	0,022	0,002
-690,627	-19,352	0,070	0,032
-689,612	307,513	-0,054	-0,074
-688,597	415,371	0,082	0,129
-687,583	316,782	-0,007	0,010
-686,568	-200,000	-0,032	-0,203
-685,554	800,000	-0,023	0,049
-684,539	-200,000	-0,021	0,075
-683,524	-68,283	-0,018	-0,005
-682,510	71,765	0,047	0,036
-681,495	-95,600	0,098	0,019
-680,481	-18,130	-0,192	-0,088
-679,466	-200,000	-0,006	0,066
-678,451	-200,000	-0,025	0,148
-677,437	-110,940	0,116	0,017
-676,422	85,702	0,089	0,071
-675,408	800,000	-0,070	0,181
-674,393	482,670	-0,068	0,114
-673,378	-18,015	0,098	-0,045
-672,364	170,327	-0,083	-0,088
-671,349	146,964	-0,013	-0,013
-670,335	76,882	-0,024	0,019
-669,320	-121,657	0,139	0,017
-668,305	-94,175	0,061	0,012
-667,291	80,617	0,048	0,038
-666,276	800,000	-0,022	0,056
-665,262	-200,000	-0,002	-0,103
-664,247	359,303	0,026	-0,038
-663,232	-135,499	-0,077	-0,007
-662,218	-200,000	-0,016	0,089
-661,203	-200,000	0,005	0,065
-660,189	800,000	-0,001	0,004
-659,174	800,000	-0,036	-0,074
-658,159	339,860	-0,042	-0,060
-657,145	-200,000	0,027	-0,090
-656,130	-85,024	0,062	0,014
-655,116	800,000	0,021	0,054
-654,101	-154,558	-0,147	-0,007
-653,086	-200,000	0,024	-0,085
-652,072	800,000	0,050	0,122
-651,057	48,644	-0,022	-0,015
-650,043	284,684	-0,023	-0,030
-649,028	310,380	0,066	0,090
-648,014	83,063	-0,004	0,003
-646,999	-27,765	0,150	0,063
-645,984	214,413	-0,015	0,018
-644,970	-123,871	-0,052	-0,006
-643,955	-80,761	-0,074	0,018
-642,941	315,539	-0,126	0,175
-641,926	-200,000	-0,003	0,165
-640,911	666,308	0,109	0,207
-639,897	332,204	-0,024	0,034
-638,882	-60,781	0,092	-0,029
-637,868	469,794	-0,077	-0,128
-636,853	52,700	0,055	0,038
-635,838	-136,204	-0,049	-0,004
-634,824	-86,773	-0,148	0,033
-633,809	-200,000	-0,010	-0,097
-632,795	175,383	-0,050	-0,053
-631,780	-180,991	0,100	0,001
-630,765	800,000	-0,034	-0,073
-629,751	415,707	0,051	-0,080
-628,736	-95,604	-0,192	-0,037
-627,722	374,419	0,091	-0,136
-626,707	65,066	-0,043	-0,031
-625,692	595,346	0,036	0,065
-624,678	21,961	-0,040	0,024
-623,663	-200,000	-0,005	-0,032
-622,649	800,000	0,007	0,023
-621,634	72,886	-0,108	-0,083
-620,619	-200,000	-0,038	-0,145
-619,605	-200,000	0,011	0,052
-618,590	-93,586	0,035	0,007
-617,576	-93,147	0,051	-0,010
-616,561	-100,657	-0,098	-0,018
-615,546	75,159	0,082	0,064
-614,532	463,689	-0,061	-0,101
-613,517	-104,339	-0,057	-0,010
-612,503	-147,088	0,069	-0,004
-611,488	285,472	-0,011	-0,014
-610,474	-166,378	0,026	-0,001
-609,459	12,064	0,062	0,035
-608,444	422,645	-0,098	-0,155
-607,430	-100,921	0,040	-0,007
-606,415	-83,565	-0,080	0,019
-605,401	-107,105	0,158	-0,025
-604,386	132,994	-0,062	0,059
-603,371	38,227	-0,102	-0,067
-602,357	400,624	-0,046	-0,071
-601,342	800,000	-0,029	0,080
-600,328	-63,075	-0,155	0,047
-599,313	-200,000	0,008	0,028
-598,298	-23,249	0,060	0,026
-597,284	800,000	0,044	0,129
-596,269	46,923	-0,112	-0,076
-595,255	800,000	0,042	0,107
-594,240	-33,552	-0,087	0,035
-593,225	154,782	0,076	0,076
-592,211	62,514	0,101	-0,074
-591,196	105,471	-0,023	0,019
-590,182	161,890	-0,040	-0,041
-589,167	-28,051	-0,027	0,012
-588,152	70,848	-0,154	0,117
-587,138	76,977	-0,053	0,041
-586,123	-43,575	0,156	0,057
-585,109	-143,792	-0,096	-0,007
-584,094	39,085	-0,004	-0,003
-583,079	408,981	0,054	-0,085
-582,065	577,214	-0,089	0,159
-581,050	215,682	0,015	-0,018
-580,036	800,000	0,064	0,163
-579,021	-66,054	-0,118	0,034
-578,006	-86,833	-0,104	-0,023
-576,992	-200,000	-0,030	-0,139
-575,977	113,698	0,065	0,058
-574,963	-200,000	0,010	0,114
-573,948	-200,000	-0,002	0,106
-572,934	-15,995	0,226	-0,105
-571,919	-200,000	-0,014	0,091
-570,904	-200,000	0,038	-0,134
-569,890	-200,000	0,013	0,072
-568,875	-130,861	-0,071	-0,007
-567,861	-200,000	0,002	0,088
-566,846	274,683	0,064	-0,083
-565,831	174,955	0,074	-0,078
-564,817	-200,000	-0,062	-0,213
-563,802	-200,000	0,039	-0,159
-562,788	-200,000	0,001	0,025
-561,773	-38,348	-0,004	0,002
-560,758	194,390	-0,033	0,037
-559,744	-157,118	0,014	0,001
-558,729	-88,125	0,170	0,037
-557,715	800,000	-0,025	-0,054
-556,700	-122,098	0,054	0,006
-555,685	-200,000	-0,021	-0,137
-554,671	-6,752	0,050	-0,025
-553,656	265,913	0,049	0,062
-552,642	322,388	0,021	0,030
-551,627	-200,000	0,000	0,130
-550,612	109,611	-0,078	0,068
-549,598	-200,000	0,007	-0,104
-548,583	766,827	-0,023	0,046
-547,569	126,551	0,030	0,028
-546,554	800,000	-0,004	-0,009
-545,539	206,047	0,082	-0,093
-544,525	185,600	-0,040	0,043
-543,510	317,742	-0,108	0,149
-542,496	513,504	-0,020	-0,035
-541,481	46,100	-0,027	0,018
-540,466	-28,276	-0,059	0,025
-539,452	-200,000	0,015	-0,059
-538,437	356,770	0,057	0,084
-537,423	227,270	0,046	0,055
-536,408	800,000	-0,010	-0,028
-535,393	72,838	0,041	-0,031
-534,379	1,821	0,154	0,081
-533,364	26,276	-0,108	-0,066
-532,350	149,570	0,024	0,024
-531,335	-200,000	-0,003	0,060
-530,321	-46,729	-0,062	0,022
-529,306	-200,000	0,021	0,165
-528,291	46,892	-0,065	-0,044
-527,277	284,316	-0,037	-0,049
-526,262	38,846	-0,044	0,028
-525,248	-136,715	0,086	-0,007
-524,233	61,997	-0,017	0,012
-523,218	55,122	0,010	-0,007
-522,204	533,083	0,062	-0,107
-521,189	-131,859	-0,107	-0,010
-520,175	-126,266	0,161	-0,017
-519,160	800,000	-0,016	0,042
-518,145	214,347	0,055	-0,064
-517,131	-200,000	0,011	-0,083
-516,116	800,000	-0,028	0,078
-515,102	-200,000	-0,006	0,111
-514,087	-28,378	-0,054	-0,023
-513,072	111,560	0,039	0,035
-512,058	-142,711	-0,068	0,005
-511,043	-200,000	-0,005	0,030
-510,029	800,000	-0,066	-0,190
-509,014	-20,380	-0,092	-0,041
-507,999	-165,308	0,070	0,002
-506,985	-200,000	0,000	0,076
-505,970	107,133	0,091	-0,079
-504,956	324,964	-0,021	-0,029
-503,941	-200,000	0,003	-0,115
-502,926	635,222	0,024	0,044
-501,912	80,490	0,109	0,085
-500,897	-200,000	0,037	0,000
-499,883	-1,982	-0,014	-0,007
-498,868	136,013	-0,068	0,065
-497,853	85,916	-0,081	-0,065
-496,839	800,000	0,014	-0,045
-495,824	397,338	0,068	0,103
-494,810	344,318	0,060	0,086
-493,795	-95,322	-0,031	0,006
-492,781	690,087	0,027	0,052
-491,766	-83,181	-0,038	-0,009
-490,751	18,945	0,079	0,046
-489,737	-200,000	0,019	-0,152
-488,722	-92,838	-0,061	-0,012
-487,708	-171,158	0,082	0,002
-486,693	800,000	-0,020	-0,054
-485,678	-200,000	-0,018	-0,065
-484,664	-101,844	0,063	0,011
-483,649	800,000	-0,045	-0,132
-482,635	682,713	0,072	-0,137
-481,620	466,780	0,034	-0,055
-480,605	84,383	0,102	0,081
-479,591	43,917	0,094	0,063
-478,576	800,000	0,022	-0,055
-477,562	800,000	-0,040	-0,099
-476,547	289,239	-0,066	-0,088
-475,532	800,000	0,008	-0,022
-474,518	56,412	-0,075	0,053
-473,503	-24,462	0,119	0,051
-472,489	136,463	0,028	0,026
-471,474	96,877	-0,041	0,034
-470,459	299,787	0,056	-0,075
-469,445	176,737	0,043	-0,046
-468,430	-200,000	0,035	-0,114
-467,416	-200,000	-0,007	-0,024
-466,401	-200,000	-0,005	-0,048
-465,386	800,000	-0,013	-0,036
-464,372	1,884	-0,054	0,028
-463,357	-83,808	-0,105	0,024
-462,343	-108,661	-0,057	-0,009
-461,328	373,533	0,020	-0,030
-460,313	-200,000	-0,010	-0,081
-459,299	-200,000	0,001	-0,042
-458,284	70,777	-0,080	0,060
-457,270	-173,467	-0,022	0,000
-456,255	800,000	0,019	-0,038
-455,241	40,275	-0,099	0,065
-454,226	156,938	0,105	-0,106
-453,211	-200,000	-0,023	-0,145
-452,197	-108,237	0,113	0,018
-451,182	1,602	0,036	0,019
-450,168	800,000	-0,026	-0,064
-449,153	-200,000	0,011	-0,046
-448,138	-200,000	-0,004	-0,044
-447,124	-63,205	0,222	-0,066
-446,109	800,000	0,006	0,016
-445,095	7,435	0,048	-0,026
-444,080	44,806	-0,081	-0,054
-443,065	25,457	-0,049	-0,030
-442,051	-200,000	-0,036	0,149
-441,036	-200,000	0,060	-0,223
-440,022	-86,787	-0,066	-0,015
-439,007	268,589	0,083	-0,106
-437,992	-200,000	0,002	0,034
-436,978	-121,015	0,073	-0,009
-435,963	204,402	0,094	-0,106
-434,949	159,162	-0,162	0,165
-433,934	101,368	-0,030	-0,025
-432,919	-200,000	0,001	0,042
-431,905	800,000	-0,014	0,028
-430,890	138,985	-0,004	-0,004
-429,876	36,976	0,106	0,068
-428,861	800,000	0,037	0,080
-427,846	-200,000	0,003	0,104
-426,832	52,369	0,122	-0,084
-425,817	43,921	0,066	-0,044
-424,803	-200,000	-0,005	0,121
-423,788	-52,556	0,083	0,028
-422,773	-200,000	-0,013	-0,095
-421,759	-200,000	0,002	0,056
-420,744	121,500	-0,056	0,050
-419,730	278,154	0,085	-0,111
-418,715	-20,722	0,057	0,025
-417,701	-114,341	-0,198	0,027
-416,686	448,064	-0,065	0,105
-415,671	-23,216	0,061	0,027
-414,657	66,744	0,087	0,065
-413,642	-101,839	-0,036	-0,006
-412,628	-96,359	-0,081	0,015
-411,613	-61,162	-0,213	-0,065
-410,598	800,000	-0,057	-0,146
-409,584	-200,000	0,001	0,037
-408,569	-116,772	0,055	0,007
-407,555	-96,279	0,035	0,007
-406,540	478,953	0,022	0,036
-405,525	-200,000	-0,012	0,066
-404,511	-11,969	0,053	0,025
-403,496	157,690	-0,053	-0,053
-402,482	-200,000	-0,008	-0,028
-401,467	800,000	0,027	0,077
-400,452	-200,000	-0,032	0,139
-399,438	175,119	0,076	0,080
-398,423	70,837	0,020	-0,015
-397,409	320,146	-0,096	-0,133
-396,394	-87,859	-0,038	0,008
-395,379	-43,175	0,010	-0,003
-394,365	-200,000	-0,007	0,173
-393,350	-150,591	0,138	0,008
-392,336	-200,000	-0,010	-0,037
-391,321	38,855	0,122	0,079
-390,306	-59,103	0,081	-0,025
-389,292	-70,400	-0,048	0,013
-388,277	364,734	0,070	0,103
-387,263	-200,000	-0,002	-0,019
-386,248	-11,679	0,133	-0,063
-385,233	-40,097	0,113	0,043
-384,219	28,101	-0,192	-0,118
-383,204	-200,000	-0,041	-0,171
-382,190	-66,094	0,040	0,011
-381,175	587,480	0,060	-0,107
-380,160	-200,000	-0,011	0,081
-379,146	-148,316	0,075	0,004
-378,131	93,567	0,085	0,070
-377,117	800,000	-0,009	0,021
-376,102	250,530	0,017	-0,020
-375,088	56,237	0,091	0,064
-374,073	-77,582	-0,091	0,023
-373,058	-200,000	-0,004	-0,028
-372,044	800,000	-0,039	0,090
-371,029	191,808	-0,076	0,083
-370,015	-99,049	-0,063	0,011
-369,000	-200,000	-0,007	-0,061
-367,985	5,192	-0,106	-0,056
-366,971	70,116	0,148	-0,111
-365,956	-200,000	-0,027	0,179
-364,942	-128,710	-0,140	0,014
-363,927	270,906	0,018	-0,023
-362,912	-110,306	0,134	0,020
-361,898	676,078	0,028	-0,052
-360,883	-48,045	-0,136	-0,047
-359,869	-31,403	0,060	-0,024
-358,854	-126,940	-0,059	-0,006
-357,839	-200,000	0,005	0,117
-356,825	800,000	-0,048	-0,125
-355,810	-193,370	-0,164	0,001
-354,796	-57,284	-0,071	-0,022
-353,781	-200,000	0,079	0,000
-352,766	-124,445	-0,052	-0,006
-351,752	-200,000	0,005	0,050
-350,737	-28,176	0,019	-0,008
-349,723	14,342	-0,084	-0,047
-348,708	-141,469	0,045	-0,003
-347,693	-59,216	-0,197	-0,061
-346,679	-200,000	0,023	0,107
-345,664	494,479	0,021	-0,036
-344,650	-196,007	0,072	-0,000
-343,635	58,691	0,103	0,073
-342,620	93,146	0,098	0,080
-341,606	68,010	-0,097	0,072
-340,591	-65,518	0,069	0,020
-339,577	30,084	0,080	0,049
-338,562	117,360	-0,037	-0,033
-337,548	674,685	-0,056	-0,106
-336,533	-200,000	-0,000	0,048
-335,518	-46,423	0,062	0,022
-334,504	800,000	-0,017	0,046
-333,489	-2,700	0,103	0,052
-332,475	-200,000	0,026	-0,127
-331,460	197,957	-0,040	0,045
-330,445	30,259	0,090	0,056
-329,431	123,941	-0,023	0,021
-328,416	56,465	0,069	0,048
-327,402	669,250	-0,056	0,106
-326,387	800,000	-0,053	0,161
-325,372	27,751	-0,054	-0,033
-324,358	-173,102	-0,076	-0,002
-323,343	-105,488	-0,164	-0,027
-322,329	20,817	0,119	-0,070
-321,314	-137,528	0,019	0,002
-320,299	-5,279	-0,072	-0,036
-319,285	122,815	0,085	0,077
-318,270	-24,024	-0,116	0,050
-317,256	-200,000	-0,004	-0,116
-316,241	-200,000	0,003	-0,183
-315,226	614,137	-0,061	-0,112
-314,212	-16,445	-0,023	-0,011
-313,197	76,749	-0,139	-0,107
-312,183	-200,000	0,005	0,021
-311,168	138,769	-0,050	0,047
-310,153	800,000	-0,023	0,048
-309,139	-97,844	0,062	-0,012
-308,124	303,454	0,046	-0,061
-307,110	800,000	-0,025	-0,058
-306,095	238,581	-0,047	-0,056
-305,080	-70,483	-0,062	0,017
-304,066	-132,728	-0,041	0,004
-303,051	364,061	0,086	-0,125
-302,037	-158,884	-0,185	-0,007
-301,022	113,921	-0,043	-0,038
-300,008	449,724	-0,121	0,194
-298,993	138,389	0,068	0,064
-297,978	-200,000	-0,002	-0,031
-296,964	-153,192	-0,035	0,002
-295,949	214,682	0,069	-0,079
-294,935	800,000	0,042	-0,125
-293,920	-200,000	-0,008	-0,056
-292,905	85,905	0,066	0,052
-291,891	-74,191	-0,089	-0,023
-290,876	800,000	0,056	0,141
-289,862	-126,141	0,140	0,015
-288,847	-200,000	-0,012	-0,216
-287,832	-54,117	-0,102	-0,033
-286,818	-144,136	0,138	0,009
-285,803	-120,545	0,129	0,016
-284,789	-200,000	0,004	0,154
-283,774	-200,000	0,018	-0,098
-282,759	-200,000	0,021	-0,110
-281,745	-200,000	0,011	-0,114
-280,730	19,272	-0,099	0,057
-279,716	210,751	-0,046	-0,052
-278,701	202,109	0,071	-0,080
-277,686	85,012	-0,004	0,003
-276,672	-63,884	0,128	0,038
-275,657	149,401	-0,024	-0,023
-274,643	-200,000	-0,015	-0,110
-273,628	123,305	-0,101	-0,091
-272,613	-153,645	0,049	0,002
-271,599	52,469	0,087	0,060
-270,584	222,979	-0,059	0,069
-269,570	-23,415	0,009	-0,004
-268,555	800,000	0,052	0,149
-267,540	-44,049	0,054	0,020
-266,526	324,869	-0,036	0,050
-265,511	-5,618	-0,054	-0,027
-264,497	317,809	-0,032	0,044
-263,482	-107,073	0,158	-0,025
-262,467	579,384	0,058	0,103
-261,453	-48,433	0,076	0,026
-260,438	16,656	-0,190	-0,108
-259,424	-200,000	-0,010	0,059
-258,409	-200,000	0,024	-0,105
-257,395	82,934	-0,070	-0,055
-256,380	-11,974	0,065	-0,031
-255,365	116,181	-0,062	0,055
-254,351	65,263	0,044	0,032
-253,336	12,039	-0,021	0,011
-252,322	800,000	-0,046	-0,119
-251,307	507,231	0,045	-0,075
-250,292	-43,062	-0,065	-0,024
-249,278	-200,000	-0,025	0,097
-248,263	510,239	-0,101	0,171
-247,249	185,125	-0,089	0,095
-246,234	87,045	-0,049	0,039
-245,219	73,238	-0,086	-0,065
-244,205	91,258	-0,196	-0,159
-243,190	-134,395	0,044	-0,004
-242,176	142,368	0,064	0,061
-241,161	-39,487	0,167	-0,063
-240,146	-118,262	-0,027	-0,003
-239,132	-67,545	0,081	-0,023
-238,117	-65,125	-0,128	-0,037
-237,103	-35,253	0,111	0,043
-236,088	-200,000	0,000	-0,063
-235,073	-200,000	0,008	-0,046
-234,059	-200,000	-0,007	0,139
-233,044	247,997	0,069	-0,085
-232,030	800,000	-0,019	-0,059
-231,015	23,223	-0,019	-0,011
-230,000	800,000	-0,040	-0,085
-228,986	-148,199	-0,152	0,009
-227,971	-133,924	0,139	0,012
-226,957	-87,055	0,147	0,032
-225,942	-200,000	-0,035	0,135
-224,927	-95,946	0,104	-0,020
-223,913	186,550	-0,053	-0,057
-222,898	25,038	0,157	-0,094
-221,884	-200,000	-0,011	-0,072
-220,869	113,819	0,146	-0,128
-219,855	335,097	0,060	0,084
-218,840	338,043	0,092	0,130
-217,825	311,510	0,045	0,061
-216,811	-123,979	-0,040	0,005
-215,796	21,987	-0,055	-0,032
-214,782	-124,962	-0,126	-0,014
-213,767	734,425	0,112	0,218
-212,752	-200,000	-0,006	0,104
-211,738	-200,000	-0,004	0,175
-210,723	216,895	-0,078	0,090
-209,709	-112,650	0,048	-0,007
-208,694	-200,000	-0,002	-0,011
-207,679	49,914	-0,037	0,025
-206,665	480,251	0,048	0,078
-205,650	-117,952	-0,122	-0,016
-204,636	664,203	0,003	-0,007
-203,621	236,546	0,072	0,086
-202,606	-116,869	-0,090	-0,012
-201,592	-128,575	-0,103	-0,010
-200,577	-200,000	0,002	-0,057
-199,563	2,204	0,125	0,065
-198,548	-1,836	0,107	0,054
-197,533	-200,000	0,036	0,172
-196,519	77,998	-0,071	0,054
-195,504	-26,659	-0,094	0,040
-194,490	175,749	0,079	-0,082
-193,475	332,145	-0,048	-0,068
-192,460	373,931	-0,071	-0,104
-191,446	-120,515	0,013	-0,002
-190,431	32,752	0,060	-0,037
-189,417	292,699	-0,092	-0,121
-188,402	-94,063	-0,028	-0,005
-187,387	800,000	-0,033	0,070
-186,373	50,560	0,073	-0,050
-185,358	-200,000	-0,005	0,066
-184,344	-96,927	0,143	0,027
-183,329	-85,036	-0,041	0,009
-182,315	492,798	0,005	0,008
-181,300	-80,058	0,055	-0,013
-180,285	-5,911	-0,058	0,028
-179,271	199,307	0,068	0,075
-178,256	-200,000	0,004	-0,029
-177,242	111,160	0,073	-0,063
-176,227	-45,781	-0,023	-0,008
-175,212	-165,055	0,056	0,002
-174,198	159,079	-0,105	0,105
-173,183	-49,356	-0,080	-0,027
-172,169	771,068	0,027	-0,054
-171,154	552,102	0,040	-0,069
-170,139	-174,880	0,075	0,001
-169,125	113,329	-0,022	0,019
-168,110	-200,000	-0,008	-0,049
-167,096	-13,737	0,090	-0,042
-166,081	510,031	0,022	-0,037
-165,066	-169,728	-0,189	-0,005
-164,052	-4,340	-0,049	0,024
-163,037	55,228	-0,049	0,034
-162,023	-67,413	0,135	-0,038
-161,008	-1,047	-0,058	0,030
-159,993	519,655	-0,045	0,076
-158,979	-200,000	-0,004	-0,129
-157,964	-200,000	-0,015	-0,085
-156,950	67,023	-0,025	0,018
-155,935	438,781	-0,121	0,191
-154,920	769,962	0,083	0,164
-153,906	-165,997	-0,137	-0,004
-152,891	-39,269	-0,071	-0,027
-151,877	800,000	-0,099	-0,212
-150,862	-53,414	-0,111	-0,036
-149,847	30,534	0,047	0,029
-148,833	800,000	-0,013	-0,034
-147,818	205,032	0,045	0,050
-146,804	18,243	0,036	0,020
-145,789	165,722	-0,058	0,059
-144,775	525,781	-0,016	0,028
-143,760	-200,000	-0,012	-0,108
-142,745	224,446	0,032	-0,038
-141,731	800,000	-0,007	0,019
-140,716	-200,000	-0,013	-0,146
-139,702	-195,447	-0,015	0,000
-138,687	-200,000	-0,003	0,026
-137,672	34,788	0,060	0,037
-136,658	-200,000	-0,018	-0,127
-135,643	111,842	-0,123	-0,106
-134,629	246,462	0,035	-0,043
-133,614	-42,602	-0,042	0,015
-132,599	524,639	0,060	-0,102
-131,585	411,092	0,050	0,077
-130,570	-94,418	-0,066	-0,013
-129,556	800,000	0,033	-0,080
-128,541	-5,498	-0,135	0,067
-127,526	410,468	0,045	0,069
-126,512	273,488	0,046	0,059
-125,497	-22,260	0,145	-0,063
-124,483	214,620	0,117	0,133
-123,468	665,025	-0,072	0,135
-122,453	119,547	0,069	0,061
-121,439	520,229	-0,049	-0,084
-120,424	277,369	-0,072	-0,093
-119,410	800,000	0,038	0,093
