DTS Sentinel unit serial number:	SN410029Multiplexer serial number:	ORYXHardware model number:	OX2-SRSoftware version number:	ORYX F/W v4,00 Oryx Data Collector v3.7.2.0data status	okinstallation	B5 Nyhavnadifferential loss correction	single-endedforward channel	channel 2reverse channel	N/Adate	2023/12/13time	19:27:13forward acquisition time	300,00reverse acquisition time	0,00gamma	499,1914k internal	0,3160k external	0,3160temperature offset calibration	1,0000default loss term (dB/km)	0,3820temperature slope calibration	1,0000multiplexer offset coefficient	1,0000multiplexer slope coefficient	1,0000fibre end	0,00T internal ref (°C)	11,72T ext. ref 1 (°C)	-5,40T ext. ref 2 (°C)	-5,47length (m)	temperature (°C)	Stokes	anti-Stokes-744,400	-191,483	-0,010	0,000
-743,385	-149,927	-0,257	-0,015
-742,371	218,960	0,121	0,143
-741,356	-116,293	-0,468	-0,063
-740,342	83,720	0,128	0,103
-739,327	-84,856	-0,415	0,095
-738,312	-33,878	0,141	0,057
-737,298	-59,838	-0,440	-0,138
-736,283	-29,428	0,181	0,076
-735,269	-1,015	-0,285	-0,148
-734,254	77,444	0,117	0,091
-733,239	-95,283	-0,493	-0,097
-732,225	-11,809	0,093	0,045
-731,210	426,017	-0,019	0,030
-730,196	-62,236	-0,112	0,034
-729,181	-200,000	-0,004	-0,027
-728,167	103,633	-0,030	-0,026
-727,152	9,321	-0,106	-0,059
-726,137	-31,079	-0,131	0,054
-725,123	-83,547	-0,171	-0,040
-724,108	800,000	-0,057	-0,159
-723,094	193,203	-0,121	-0,135
-722,079	295,653	-0,093	-0,126
-721,064	-200,000	-0,003	-0,099
-720,050	-162,086	0,035	0,001
-719,035	143,859	0,031	0,030
-718,021	-200,000	-0,024	-0,099
-717,006	800,000	-0,077	-0,165
-715,991	415,599	-0,104	-0,163
-714,977	87,941	0,041	-0,034
-713,962	-154,885	-0,175	-0,008
-712,948	110,435	-0,032	-0,028
-711,933	800,000	-0,036	0,085
-710,918	-107,451	0,046	-0,007
-709,904	141,742	-0,041	-0,040
-708,889	800,000	-0,010	0,031
-707,875	-16,851	0,086	-0,040
-706,860	-83,106	0,033	0,008
-705,845	800,000	0,003	-0,008
-704,831	52,700	0,115	0,081
-703,816	-2,734	-0,024	0,012
-702,802	-17,246	-0,068	0,031
-701,787	77,165	0,047	-0,037
-700,772	-200,000	0,001	0,013
-699,758	15,226	-0,138	-0,079
-698,743	-35,843	-0,065	-0,026
-697,729	115,383	0,051	-0,046
-696,714	-200,000	0,024	0,174
-695,699	-29,299	-0,092	-0,039
-694,685	101,435	-0,080	-0,068
-693,670	218,822	-0,103	-0,122
-692,656	523,187	-0,042	-0,073
-691,641	-200,000	0,029	-0,120
-690,627	-200,000	0,013	0,152
-689,612	-64,302	-0,061	0,018
-688,597	443,679	0,083	0,135
-687,583	462,642	-0,082	-0,136
-686,568	-160,205	-0,062	-0,002
-685,554	-82,430	-0,108	-0,026
-684,539	-72,232	0,079	0,021
-683,524	326,540	0,052	0,074
-682,510	37,365	-0,016	-0,010
-681,495	154,554	-0,070	-0,071
-680,481	-200,000	-0,005	-0,151
-679,466	800,000	-0,056	-0,132
-678,451	-200,000	0,007	-0,077
-677,437	-42,813	-0,116	0,043
-676,422	-157,845	-0,034	0,001
-675,408	141,777	0,074	0,072
-674,393	-1,618	-0,107	0,055
-673,378	-131,384	-0,140	0,013
-672,364	94,814	-0,113	-0,095
-671,349	-85,453	-0,064	-0,015
-670,335	-200,000	0,031	-0,153
-669,320	-52,536	0,075	-0,025
-668,305	800,000	-0,016	-0,042
-667,291	55,570	0,030	0,021
-666,276	-200,000	-0,018	-0,127
-665,262	303,445	-0,133	-0,181
-664,247	-55,990	0,071	-0,023
-663,232	-109,351	-0,082	0,013
-662,218	668,967	0,033	0,063
-661,203	-200,000	0,011	0,081
-660,189	-24,984	0,068	-0,030
-659,174	800,000	0,017	0,055
-658,159	93,089	-0,120	0,099
-657,145	604,711	0,049	-0,090
-656,130	800,000	-0,011	-0,034
-655,116	-200,000	0,006	0,083
-654,101	-10,860	0,099	0,048
-653,086	700,183	-0,074	-0,143
-652,072	317,988	-0,056	-0,078
-651,057	272,605	0,055	-0,071
-650,043	-137,082	-0,028	0,002
-649,028	-113,119	0,049	-0,007
-648,014	800,000	0,023	-0,067
-646,999	-15,000	0,113	-0,053
-645,984	-200,000	-0,011	-0,037
-644,970	800,000	-0,036	0,084
-643,955	-180,430	0,149	-0,002
-642,941	-200,000	0,033	-0,113
-641,926	571,016	0,062	0,111
-640,911	-155,913	-0,144	-0,007
-639,897	-200,000	0,004	-0,096
-638,882	800,000	-0,031	-0,090
-637,868	-133,853	-0,053	-0,005
-636,853	244,498	0,023	0,028
-635,838	-200,000	0,005	0,058
-634,824	-94,730	-0,168	-0,033
-633,809	74,184	0,045	-0,035
-632,795	800,000	0,009	-0,027
-631,780	20,253	-0,098	0,058
-630,765	-8,228	-0,117	-0,057
-629,751	354,873	-0,052	-0,076
-628,736	164,990	-0,091	-0,094
-627,722	470,757	-0,080	-0,133
-626,707	-17,918	0,126	0,058
-625,692	-126,570	-0,030	-0,003
-624,678	48,802	0,036	0,025
-623,663	-62,012	-0,058	-0,018
-622,649	-21,902	-0,137	0,061
-621,634	36,992	-0,107	-0,069
-620,619	-200,000	-0,007	0,080
-619,605	-17,387	0,055	0,025
-618,590	-124,112	-0,077	0,009
-617,576	-197,384	0,133	-0,001
-616,561	-200,000	-0,004	0,052
-615,546	-148,478	-0,158	0,009
-614,532	-200,000	0,002	-0,008
-613,517	229,583	-0,109	-0,130
-612,503	-64,893	0,167	0,049
-611,488	362,757	-0,032	-0,047
-610,474	700,683	0,032	-0,062
-609,459	236,095	-0,087	-0,106
-608,444	283,984	-0,038	-0,050
-607,430	-200,000	-0,008	-0,093
-606,415	800,000	0,045	-0,127
-605,401	281,027	-0,063	-0,082
-604,386	-60,944	0,037	0,011
-603,371	44,623	0,075	0,050
-602,357	-133,760	-0,118	-0,011
-601,342	184,234	-0,087	0,094
-600,328	110,316	-0,048	0,042
-599,313	-73,575	-0,049	-0,013
-598,298	339,046	0,040	-0,057
-597,284	-200,000	0,028	-0,131
-596,269	81,308	-0,045	0,036
-595,255	-200,000	0,005	0,042
-594,240	214,234	0,056	-0,065
-593,225	522,815	-0,065	-0,112
-592,211	626,431	0,018	0,033
-591,196	141,371	0,044	0,042
-590,182	106,931	-0,144	-0,125
-589,167	62,494	-0,087	-0,064
-588,152	800,000	-0,038	0,086
-587,138	-144,172	0,081	-0,005
-586,123	800,000	-0,040	-0,083
-585,109	21,433	-0,075	0,044
-584,094	-200,000	-0,002	0,011
-583,079	199,321	0,064	0,072
-582,065	-40,987	0,077	0,029
-581,050	-200,000	-0,009	-0,073
-580,036	-37,719	0,098	-0,038
-579,021	-39,174	-0,075	0,029
-578,006	-140,230	-0,170	0,013
-576,992	27,776	-0,096	0,059
-575,977	800,000	-0,028	0,086
-574,963	-200,000	-0,004	-0,022
-573,948	734,799	0,032	-0,064
-572,934	800,000	-0,039	-0,111
-571,919	113,803	0,085	-0,076
-570,904	-200,000	0,004	-0,161
-569,890	-115,137	0,051	-0,007
-568,875	-60,397	0,094	0,029
-567,861	-141,683	-0,094	-0,007
-566,846	109,018	0,062	0,054
-565,831	764,399	-0,006	-0,012
-564,817	-105,332	-0,175	-0,029
-563,802	-200,000	0,005	-0,095
-562,788	121,709	-0,016	-0,014
-561,773	-116,750	0,082	0,011
-560,758	262,836	0,066	0,084
-559,744	800,000	-0,035	-0,078
-558,729	401,295	0,047	-0,073
-557,715	75,290	-0,082	-0,063
-556,700	800,000	0,056	-0,114
-555,685	-200,000	-0,004	0,021
-554,671	-200,000	-0,000	0,135
-553,656	-5,353	-0,076	-0,038
-552,642	414,418	0,074	0,116
-551,627	68,637	0,054	0,041
-550,612	-200,000	0,088	-0,000
-549,598	-200,000	0,056	-0,257
-548,583	146,861	-0,038	0,037
-547,569	-55,355	-0,080	0,026
-546,554	-128,409	0,118	0,012
-545,539	628,501	-0,016	-0,029
-544,525	-36,474	0,134	0,053
-543,510	-200,000	0,001	-0,072
-542,496	279,087	-0,046	0,060
-541,481	-150,209	-0,073	0,004
-540,466	-200,000	0,019	-0,128
-539,452	503,746	0,031	0,053
-538,437	-200,000	0,009	0,152
-537,423	-15,194	0,049	-0,023
-536,408	-133,609	0,068	0,006
-535,393	11,869	0,057	0,032
-534,379	48,481	-0,028	-0,019
-533,364	16,641	-0,151	-0,087
-532,350	47,149	-0,055	0,038
-531,335	286,741	-0,069	0,091
-530,321	13,980	0,075	0,043
-529,306	-40,248	-0,100	-0,038
-528,291	-200,000	0,019	-0,071
-527,277	117,717	-0,065	0,058
-526,262	182,947	-0,025	-0,027
-525,248	-200,000	-0,004	-0,045
-524,233	697,372	-0,008	-0,015
-523,218	-200,000	0,009	0,058
-522,204	1,246	-0,068	0,035
-521,189	436,843	0,070	-0,112
-520,175	289,053	-0,050	-0,067
-519,160	-153,660	-0,152	0,008
-518,145	372,095	0,083	0,124
-517,131	-66,925	0,095	0,027
-516,116	767,013	0,021	0,042
-515,102	169,097	-0,073	0,076
-514,087	-200,000	-0,023	0,138
-513,072	-200,000	-0,003	-0,124
-512,058	800,000	0,037	0,085
-511,043	-170,478	0,033	0,001
-510,029	-149,560	0,111	0,006
-509,014	-200,000	0,002	0,072
-507,999	-85,857	-0,133	-0,030
-506,985	-200,000	-0,002	-0,185
-505,970	293,178	-0,031	0,042
-504,956	477,897	0,034	0,057
-503,941	-88,303	-0,038	-0,008
-502,926	47,099	0,030	0,020
-501,912	-26,805	0,144	0,061
-500,897	-2,542	-0,136	0,069
-499,883	205,256	-0,099	-0,112
-498,868	250,984	-0,049	-0,061
-497,853	59,615	0,067	-0,048
-496,839	208,195	-0,097	0,111
-495,824	-118,212	0,087	0,011
-494,810	222,329	-0,050	0,058
-493,795	-106,031	0,094	-0,015
-492,781	-136,913	-0,183	0,015
-491,766	-200,000	0,004	-0,140
-490,751	60,912	-0,041	-0,029
-489,737	-15,551	-0,041	-0,019
-488,722	-6,501	0,104	0,052
-487,708	-8,038	-0,115	0,056
-486,693	800,000	-0,030	0,069
-485,678	-30,375	-0,095	-0,039
-484,664	53,870	0,118	-0,083
-483,649	127,208	-0,032	0,029
-482,635	201,546	0,031	0,035
-481,620	-200,000	-0,008	0,177
-480,605	-200,000	0,026	0,094
-479,591	-78,854	-0,034	0,008
-478,576	-114,634	-0,123	0,017
-477,562	-110,106	-0,089	0,013
-476,547	23,752	0,138	-0,083
-475,532	2,477	-0,102	0,054
-474,518	-88,250	0,044	-0,010
-473,503	-200,000	-0,010	-0,095
-472,489	92,288	0,107	0,088
-471,474	-138,290	0,067	-0,005
-470,459	-30,242	-0,083	-0,034
-469,445	-92,099	-0,152	-0,031
-468,430	800,000	-0,038	-0,078
-467,416	-152,054	0,082	0,004
-466,401	-200,000	0,014	0,069
-465,386	291,047	0,068	0,090
-464,372	800,000	-0,043	0,088
-463,357	20,967	-0,148	-0,087
-462,343	57,527	0,038	-0,027
-461,328	-121,774	-0,159	-0,019
-460,313	-57,157	0,156	-0,050
-459,299	-200,000	-0,005	-0,149
-458,284	-144,439	0,067	-0,004
-457,270	-170,579	-0,050	0,001
-456,255	-149,654	-0,194	0,011
-455,241	117,129	0,085	-0,076
-454,226	-200,000	-0,035	-0,247
-453,211	-200,000	-0,004	-0,065
-452,197	75,241	0,057	0,044
-451,182	100,068	0,173	0,146
-450,168	69,637	0,175	0,131
-449,153	-200,000	0,000	-0,056
-448,138	-54,822	0,035	0,011
-447,124	-72,099	0,020	0,005
-446,109	-200,000	-0,014	-0,048
-445,095	174,577	-0,082	0,086
-444,080	99,842	-0,087	0,073
-443,065	192,043	0,050	0,055
-442,051	22,766	-0,105	0,062
-441,036	800,000	0,031	-0,084
-440,022	-200,000	0,017	-0,145
-439,007	357,418	0,036	0,053
-437,992	-69,482	-0,098	0,027
-436,978	163,184	-0,064	0,066
-435,963	38,269	0,120	0,078
-434,949	-66,119	-0,053	0,015
-433,934	-42,881	-0,186	0,069
-432,919	31,567	-0,168	-0,105
-431,905	20,577	0,065	-0,038
-430,890	-91,367	0,020	-0,004
-429,876	800,000	-0,006	-0,017
-428,861	800,000	0,032	0,081
-427,846	661,627	0,005	-0,009
-426,832	409,323	0,035	0,054
-425,817	-115,895	-0,081	-0,011
-424,803	20,768	0,071	-0,042
-423,788	-114,929	0,094	0,013
-422,773	800,000	-0,023	0,067
-421,759	558,760	0,044	0,077
-420,744	-200,000	-0,002	-0,087
-419,730	800,000	-0,018	-0,056
-418,715	-130,216	0,104	-0,010
-417,701	1,524	0,035	0,018
-416,686	-70,074	0,093	0,025
-415,671	703,766	0,051	0,099
-414,657	-200,000	0,012	0,095
-413,642	545,437	-0,038	0,066
-412,628	-159,910	0,076	-0,003
-411,613	-200,000	-0,043	-0,161
-410,598	-0,603	-0,060	0,031
-409,584	749,644	0,022	0,043
-408,569	-34,760	0,130	0,051
-407,555	-154,524	-0,051	-0,002
-406,540	-200,000	-0,012	-0,182
-405,525	-153,455	0,097	-0,005
-404,511	78,199	-0,072	0,055
-403,496	-200,000	0,010	0,064
-402,482	-116,240	-0,214	0,029
-401,467	-54,991	0,081	0,026
-400,452	198,028	0,048	-0,053
-399,438	-110,203	0,081	0,012
-398,423	-200,000	-0,008	0,059
-397,409	-200,000	0,016	-0,077
-396,394	-112,127	-0,139	0,020
-395,379	-200,000	0,014	0,057
-394,365	-199,423	0,131	-0,000
-393,350	177,062	0,041	0,044
-392,336	244,594	0,064	0,078
-391,321	-89,610	-0,016	0,003
-390,306	-112,462	0,055	-0,008
-389,292	-60,974	-0,064	0,019
-388,277	15,802	0,063	0,036
-387,263	-46,199	0,092	0,033
-386,248	-67,127	0,092	0,026
-385,233	-200,000	0,025	0,144
-384,219	-83,958	-0,162	-0,037
-383,204	581,194	0,031	0,055
-382,190	800,000	-0,065	-0,161
-381,175	21,019	-0,067	0,039
-380,160	-200,000	-0,004	0,027
-379,146	-60,300	0,052	0,016
-378,131	182,157	0,069	0,074
-377,117	-79,455	-0,018	0,004
-376,102	619,693	0,022	-0,040
-375,088	-200,000	0,017	0,059
-374,073	-200,000	-0,025	-0,165
-373,058	-118,563	0,049	0,006
-372,044	27,909	-0,029	-0,018
-371,029	421,091	0,042	-0,065
-370,015	-147,489	0,055	0,003
-369,000	-58,859	0,073	0,023
-367,985	148,190	-0,109	-0,107
-366,971	-200,000	0,016	0,052
-365,956	-61,827	0,141	0,043
-364,942	-77,964	0,083	-0,021
-363,927	-200,000	-0,016	0,094
-362,912	800,000	0,053	0,131
-361,898	-8,574	-0,103	0,050
-360,883	-105,480	-0,051	0,008
-359,869	172,092	0,075	-0,078
-358,854	800,000	-0,021	-0,064
-357,839	12,181	-0,140	0,078
-356,825	800,000	-0,000	-0,000
-355,810	223,685	0,053	0,062
-354,796	106,129	-0,038	0,032
-353,781	21,756	0,122	-0,072
-352,766	20,029	-0,061	0,036
-351,752	410,919	-0,044	0,068
-350,737	-132,479	-0,139	0,013
-349,723	346,480	0,104	0,149
-348,708	134,823	-0,017	0,016
-347,693	655,049	-0,034	-0,063
-346,679	23,576	0,137	-0,082
-345,664	46,949	-0,091	0,061
-344,650	217,192	-0,010	-0,012
-343,635	336,074	-0,072	-0,102
-342,620	-200,000	0,055	0,213
-341,606	354,392	-0,018	-0,026
-340,591	-200,000	0,006	0,044
-339,577	198,093	-0,098	-0,109
-338,562	-200,000	-0,032	-0,163
-337,548	-34,938	0,031	0,012
-336,533	-96,464	0,031	-0,006
-335,518	-149,238	0,082	0,005
-334,504	76,643	-0,060	-0,046
-333,489	-78,923	0,052	0,013
-332,475	153,029	0,064	0,063
-331,460	112,961	0,047	-0,042
-330,445	800,000	-0,024	0,073
-329,431	800,000	0,030	-0,069
-328,416	800,000	0,057	0,139
-327,402	-114,801	0,112	0,015
-326,387	-200,000	0,002	-0,020
-325,372	-200,000	-0,011	-0,037
-324,358	-105,873	-0,168	-0,027
-323,343	-200,000	0,000	-0,017
-322,329	562,281	0,030	-0,053
-321,314	-122,943	0,074	0,009
-320,299	95,667	0,100	-0,082
-319,285	362,030	-0,032	-0,047
-318,270	60,914	-0,198	-0,142
-317,256	800,000	0,038	-0,106
-316,241	167,336	-0,056	-0,058
-315,226	-92,221	-0,083	0,017
-314,212	129,930	0,088	0,082
-313,197	-53,871	-0,028	-0,009
-312,183	543,464	0,046	-0,080
-311,168	361,615	0,054	-0,079
-310,153	800,000	-0,050	-0,118
-309,139	800,000	-0,024	-0,073
-308,124	-200,000	0,037	-0,149
-307,110	-85,639	0,096	-0,021
-306,095	-200,000	-0,021	0,083
-305,080	329,812	-0,079	-0,110
-304,066	720,367	0,030	0,057
-303,051	-200,000	-0,063	-0,273
-302,037	800,000	0,015	0,045
-301,022	-200,000	0,027	0,108
-300,008	-200,000	-0,002	-0,067
-298,993	800,000	-0,039	0,091
-297,978	-200,000	-0,008	-0,034
-296,964	715,582	-0,038	-0,074
-295,949	-44,362	0,117	-0,042
-294,935	202,278	-0,035	0,039
-293,920	542,684	-0,080	-0,139
-292,905	-200,000	-0,011	0,056
-291,891	-5,291	0,109	-0,054
-290,876	-72,370	-0,045	0,012
-289,862	145,368	-0,037	-0,036
-288,847	143,905	0,035	-0,034
-287,832	57,876	0,098	-0,069
-286,818	226,559	-0,044	-0,052
-285,803	-145,401	0,021	0,001
-284,789	188,391	-0,059	0,063
-283,774	-131,986	0,041	0,004
-282,759	-85,481	-0,123	0,028
-281,745	-200,000	-0,033	0,120
-280,730	-139,926	0,157	-0,012
-279,716	800,000	0,031	0,094
-278,701	-200,000	0,004	-0,049
-277,686	41,286	0,209	-0,137
-276,672	-83,945	0,191	0,044
-275,657	142,437	-0,162	-0,155
-274,643	-200,000	0,024	-0,101
-273,628	648,474	-0,040	0,075
-272,613	800,000	0,035	-0,086
-271,599	-200,000	0,002	0,144
-270,584	800,000	-0,036	0,108
-269,570	-200,000	0,008	-0,073
-268,555	-136,849	0,109	0,009
-267,540	0,110	-0,107	0,055
-266,526	473,042	0,056	-0,091
-265,511	-24,731	0,097	-0,042
-264,497	-200,000	0,014	0,136
-263,482	-33,724	0,061	-0,024
-262,467	-133,144	-0,120	0,011
-261,453	-200,000	-0,005	-0,068
-260,438	-121,949	-0,035	-0,004
-259,424	523,354	-0,073	-0,125
-258,409	-200,000	-0,018	0,064
-257,395	452,975	-0,054	-0,087
-256,380	86,644	0,067	0,054
-255,365	-200,000	-0,063	0,254
-254,351	17,102	0,086	0,049
-253,336	102,565	0,019	-0,016
-252,322	-64,462	0,134	-0,039
-251,307	110,662	0,023	-0,020
-250,292	-130,005	-0,038	-0,004
-249,278	139,792	0,147	0,140
-248,263	-200,000	0,001	-0,021
-247,249	51,110	-0,025	0,017
-246,234	800,000	-0,058	-0,133
-245,219	291,383	-0,005	0,006
-244,205	800,000	0,019	-0,058
-243,190	409,839	-0,056	-0,086
-242,176	65,722	0,030	0,022
-241,161	-50,614	0,214	-0,072
-240,146	-200,000	-0,005	0,045
-239,132	-189,116	-0,086	0,001
-238,117	-200,000	-0,004	0,060
-237,103	9,494	-0,027	0,015
-236,088	-19,199	0,185	-0,083
-235,073	-126,312	0,047	0,005
-234,059	-200,000	-0,033	0,197
-233,044	800,000	0,044	0,137
-232,030	165,421	0,029	0,030
-231,015	-200,000	0,005	0,063
-230,000	-200,000	-0,039	-0,129
-228,986	286,200	-0,038	0,050
-227,971	114,836	-0,041	0,036
-226,957	465,226	-0,002	0,004
-225,942	45,609	0,084	0,056
-224,927	400,060	-0,079	-0,120
-223,913	176,288	-0,070	-0,073
-222,898	335,032	-0,041	-0,058
-221,884	239,269	-0,085	0,102
-220,869	426,065	0,069	0,107
-219,855	178,974	-0,069	0,073
-218,840	-200,000	-0,002	0,029
-217,825	-26,553	-0,128	0,054
-216,811	-187,601	-0,066	0,001
-215,796	800,000	0,009	-0,023
-214,782	-7,881	0,138	-0,067
-213,767	-92,376	0,042	-0,008
-212,752	358,028	-0,071	-0,103
-211,738	138,943	0,028	0,026
-210,723	-200,000	-0,011	-0,121
-209,709	90,056	-0,083	-0,067
-208,694	-84,418	0,049	0,011
-207,679	-200,000	-0,003	-0,178
-206,665	37,940	0,069	0,044
-205,650	-54,469	0,044	-0,014
-204,636	800,000	0,015	-0,037
-203,621	319,091	-0,056	0,076
-202,606	-58,813	0,052	0,016
-201,592	-27,031	-0,091	0,038
-200,577	-200,000	0,045	0,158
-199,563	29,070	-0,094	0,057
-198,548	-161,669	0,222	-0,008
-197,533	288,149	0,074	0,097
-196,519	-200,000	0,008	0,047
-195,504	123,997	0,011	0,010
-194,490	-30,568	-0,030	-0,012
-193,475	800,000	-0,014	-0,043
-192,460	430,442	-0,035	-0,054
-191,446	15,225	0,071	0,040
-190,431	-200,000	0,000	-0,015
-189,417	-159,301	0,107	-0,004
-188,402	-200,000	0,007	0,050
-187,387	-198,770	-0,098	0,000
-186,373	-39,857	0,113	0,042
-185,358	347,530	-0,060	-0,086
-184,344	-200,000	-0,013	0,065
-183,329	800,000	0,016	0,043
-182,315	224,408	-0,105	0,122
-181,300	67,046	-0,107	0,078
-180,285	-27,486	-0,148	-0,062
-179,271	-200,000	0,012	0,071
-178,256	-67,795	0,130	-0,036
-177,242	-108,000	0,092	0,014
-176,227	-200,000	0,046	0,294
-175,212	-200,000	-0,018	0,132
-174,198	366,408	-0,038	0,056
-173,183	800,000	-0,030	0,094
-172,169	19,310	-0,148	-0,086
-171,154	-200,000	-0,017	-0,095
-170,139	50,066	0,099	-0,067
-169,125	234,252	0,106	0,126
-168,110	-63,542	0,032	0,009
-167,096	-100,678	0,126	0,022
-166,081	33,646	-0,164	0,103
-165,066	-138,233	0,027	-0,002
-164,052	-200,000	0,031	-0,103
-163,037	800,000	0,024	-0,067
-162,023	249,643	-0,048	0,058
-161,008	37,805	0,034	0,022
-159,993	-200,000	-0,006	-0,021
-158,979	800,000	-0,044	0,125
-157,964	-200,000	0,006	-0,040
-156,950	-200,000	0,004	0,096
-155,935	-11,094	0,064	0,030
-154,920	127,003	0,143	0,131
-153,906	-200,000	0,055	0,178
-152,891	-200,000	0,017	0,062
-151,877	800,000	0,032	0,076
-150,862	-200,000	-0,008	-0,035
-149,847	800,000	0,035	-0,078
-148,833	-6,498	-0,050	-0,024
-147,818	21,752	-0,117	0,068
-146,804	-87,939	-0,060	0,013
-145,789	800,000	0,072	0,149
-144,775	767,214	0,032	0,063
-143,760	426,003	-0,075	0,117
-142,745	-117,835	-0,027	-0,004
-141,731	-200,000	-0,000	0,046
-140,716	800,000	0,029	0,079
-139,702	-200,000	-0,005	-0,074
-138,687	72,803	-0,053	-0,040
-137,672	-81,837	-0,020	0,005
-136,658	-102,771	-0,089	0,015
-135,643	-72,169	-0,105	-0,028
-134,629	-109,203	0,059	0,009
-133,614	-50,031	-0,039	-0,013
-132,599	-145,540	0,084	-0,005
-131,585	-200,000	0,051	0,197
-130,570	800,000	-0,037	0,083
-129,556	100,024	-0,021	-0,018
-128,541	313,094	-0,074	0,101
-127,526	762,299	-0,042	-0,082
-126,512	800,000	-0,034	0,105
-125,497	-200,000	0,008	0,162
-124,483	-6,609	0,070	0,034
-123,468	-90,867	-0,039	0,008
-122,453	-0,399	-0,086	0,044
-121,439	800,000	-0,020	-0,041
-120,424	481,234	0,059	-0,097
-119,410	7,957	-0,059	-0,032
