DTS Sentinel unit serial number:	SN410029Multiplexer serial number:	ORYXHardware model number:	OX2-SRSoftware version number:	ORYX F/W v4,00 Oryx Data Collector v3.7.2.0data status	okinstallation	B5 Nyhavnadifferential loss correction	single-endedforward channel	channel 2reverse channel	N/Adate	2023/12/14time	17:32:13forward acquisition time	300,00reverse acquisition time	0,00gamma	499,1914k internal	0,3157k external	0,3157temperature offset calibration	1,0000default loss term (dB/km)	0,3820temperature slope calibration	1,0000multiplexer offset coefficient	1,0000multiplexer slope coefficient	1,0000fibre end	0,00T internal ref (°C)	8,25T ext. ref 1 (°C)	-7,20T ext. ref 2 (°C)	-7,26length (m)	temperature (°C)	Stokes	anti-Stokes-744,400	68,432	0,158	0,119
-743,385	-110,756	-0,307	-0,046
-742,371	129,943	0,172	0,163
-741,356	-92,889	-0,318	-0,065
-740,342	800,000	0,106	0,224
-739,327	-116,284	-0,303	-0,041
-738,312	800,000	0,059	0,123
-737,298	-145,163	-0,422	-0,028
-736,283	-54,753	0,067	-0,022
-735,269	-68,564	-0,291	-0,082
-734,254	-97,561	0,248	0,047
-733,239	6,353	-0,469	-0,256
-732,225	144,829	0,144	0,142
-731,210	30,523	-0,123	0,077
-730,196	-125,809	-0,096	0,011
-729,181	119,221	0,014	-0,013
-728,167	-138,203	-0,129	0,010
-727,152	-81,699	-0,062	-0,015
-726,137	14,351	-0,060	-0,034
-725,123	-200,000	-0,015	-0,111
-724,108	-12,291	-0,158	-0,076
-723,094	-75,817	-0,175	0,045
-722,079	-69,235	-0,168	0,047
-721,064	-200,000	-0,008	0,041
-720,050	37,678	-0,088	-0,058
-719,035	-150,435	-0,048	0,003
-718,021	130,874	-0,108	0,102
-717,006	-137,788	-0,127	-0,010
-715,991	456,157	0,044	-0,072
-714,977	-133,621	-0,188	-0,017
-713,962	3,587	-0,133	-0,071
-712,948	-56,599	-0,107	-0,035
-711,933	800,000	0,013	0,028
-710,918	800,000	-0,055	-0,159
-709,904	800,000	-0,013	-0,039
-708,889	-85,874	-0,140	-0,032
-707,875	-33,671	-0,138	0,056
-706,860	-200,000	0,034	0,139
-705,845	-10,330	0,068	-0,033
-704,831	12,743	-0,095	0,054
-703,816	-194,228	-0,104	-0,001
-702,802	-79,919	-0,109	-0,027
-701,787	24,377	-0,079	0,048
-700,772	146,931	-0,053	0,053
-699,758	84,101	0,013	0,011
-698,743	-158,967	0,057	0,002
-697,729	45,352	0,106	-0,072
-696,714	-31,039	-0,087	-0,036
-695,699	-115,466	-0,166	0,023
-694,685	-200,000	-0,011	0,085
-693,670	-200,000	-0,010	-0,044
-692,656	-200,000	-0,007	-0,046
-691,641	800,000	0,025	0,052
-690,627	285,293	-0,044	0,058
-689,612	-200,000	0,014	0,050
-688,597	800,000	0,030	-0,067
-687,583	800,000	-0,025	-0,052
-686,568	110,591	-0,078	-0,069
-685,554	-200,000	0,015	-0,113
-684,539	-28,741	-0,111	-0,047
-683,524	-32,739	-0,078	-0,032
-682,510	-200,000	0,003	-0,077
-681,495	94,826	-0,054	-0,045
-680,481	-200,000	0,054	-0,180
-679,466	63,748	-0,093	-0,069
-678,451	800,000	0,013	-0,034
-677,437	288,744	-0,051	-0,068
-676,422	800,000	-0,024	0,070
-675,408	715,026	0,058	-0,113
-674,393	800,000	0,019	-0,055
-673,378	-89,121	-0,116	-0,025
-672,364	165,119	-0,053	-0,055
-671,349	91,454	-0,025	-0,021
-670,335	146,954	0,055	0,054
-669,320	-8,888	-0,019	0,009
-668,305	184,070	-0,023	0,025
-667,291	-118,715	0,038	0,005
-666,276	-98,505	-0,119	-0,022
-665,262	-200,000	0,015	0,084
-664,247	-200,000	0,008	-0,066
-663,232	104,280	-0,135	-0,117
-662,218	-51,336	-0,110	-0,038
-661,203	-200,000	-0,006	-0,127
-660,189	-111,612	-0,166	-0,024
-659,174	227,993	-0,078	0,094
-658,159	-105,762	-0,124	-0,020
-657,145	800,000	0,003	0,007
-656,130	167,520	0,054	-0,056
-655,116	-133,843	-0,048	0,004
-654,101	22,258	-0,071	0,042
-653,086	-200,000	-0,008	-0,044
-652,072	-125,634	-0,052	-0,006
-651,057	690,354	0,033	-0,064
-650,043	-53,708	-0,058	-0,019
-649,028	-1,986	0,077	-0,040
-648,014	338,570	0,069	-0,099
-646,999	89,724	0,060	0,049
-645,984	214,155	0,084	0,098
-644,970	800,000	0,020	0,058
-643,955	-66,523	-0,084	0,024
-642,941	305,279	0,042	0,057
-641,926	185,707	-0,098	0,107
-640,911	13,574	0,155	0,088
-639,897	-94,408	0,084	0,017
-638,882	-200,000	-0,047	0,169
-637,868	-71,573	-0,090	0,024
-636,853	31,870	-0,041	-0,026
-635,838	12,234	-0,047	0,027
-634,824	-50,777	0,078	0,027
-633,809	-160,700	-0,024	0,001
-632,795	91,350	-0,051	0,042
-631,780	-52,536	-0,030	-0,010
-630,765	558,648	-0,053	0,094
-629,751	11,863	-0,093	-0,052
-628,736	-200,000	0,003	-0,032
-627,722	575,745	-0,016	-0,029
-626,707	-200,000	0,016	-0,132
-625,692	-66,998	0,073	-0,021
-624,678	203,973	-0,063	0,072
-623,663	241,378	-0,043	-0,053
-622,649	-200,000	-0,030	-0,118
-621,634	800,000	0,010	-0,026
-620,619	178,242	-0,036	-0,038
-619,605	-26,505	0,002	0,001
-618,590	-200,000	0,020	-0,112
-617,576	190,295	0,024	0,026
-616,561	391,055	-0,067	-0,102
-615,546	-168,663	-0,042	0,001
-614,532	175,912	0,038	-0,041
-613,517	352,675	-0,070	0,103
-612,503	315,271	-0,028	0,039
-611,488	269,980	0,026	-0,034
-610,474	108,027	-0,040	0,035
-609,459	800,000	-0,083	-0,183
-608,444	-200,000	-0,015	0,056
-607,430	800,000	-0,018	-0,042
-606,415	-50,019	-0,023	-0,008
-605,401	800,000	0,040	0,088
-604,386	-104,719	0,057	-0,010
-603,371	-200,000	0,001	0,026
-602,357	800,000	-0,013	0,033
-601,342	144,564	-0,063	-0,062
-600,328	702,138	-0,035	-0,067
-599,313	1,549	-0,062	0,033
-598,298	-124,336	0,125	-0,014
-597,284	172,223	0,013	0,014
-596,269	-29,625	0,159	0,066
-595,255	152,053	0,098	-0,098
-594,240	81,314	-0,136	0,108
-593,225	-104,576	-0,102	-0,017
-592,211	321,689	0,056	-0,078
-591,196	340,888	0,035	-0,050
-590,182	-118,479	0,068	-0,009
-589,167	800,000	-0,053	-0,140
-588,152	-200,000	-0,013	-0,138
-587,138	-37,329	-0,167	0,065
-586,123	-105,725	0,112	0,018
-585,109	52,928	-0,150	-0,105
-584,094	-200,000	-0,030	-0,130
-583,079	12,515	0,148	-0,083
-582,065	-44,392	-0,026	-0,010
-581,050	-87,256	0,162	-0,036
-580,036	800,000	0,022	-0,056
-579,021	580,695	-0,038	-0,068
-578,006	119,181	-0,120	-0,109
-576,992	341,712	0,083	-0,119
-575,977	-74,148	-0,074	-0,020
-574,963	370,159	0,075	0,111
-573,948	800,000	0,032	0,073
-572,934	-200,000	-0,005	-0,089
-571,919	-200,000	-0,005	0,048
-570,904	170,022	-0,072	-0,076
-569,890	472,917	0,055	0,091
-568,875	381,916	-0,056	-0,084
-567,861	323,496	0,115	0,161
-566,846	800,000	0,037	0,102
-565,831	-200,000	0,002	-0,081
-564,817	-200,000	-0,019	0,097
-563,802	133,442	-0,162	0,154
-562,788	154,031	-0,030	0,030
-561,773	-164,318	-0,086	0,003
-560,758	140,248	0,082	0,079
-559,744	-82,837	0,087	-0,020
-558,729	109,492	0,049	0,043
-557,715	800,000	0,026	0,057
-556,700	-68,760	-0,099	0,028
-555,685	-107,237	-0,082	0,013
-554,671	189,962	-0,061	0,067
-553,656	80,000	-0,067	0,053
-552,642	-200,000	0,010	0,126
-551,627	388,432	0,035	-0,054
-550,612	800,000	0,028	0,078
-549,598	425,693	-0,078	-0,124
-548,583	-141,274	-0,183	-0,013
-547,569	-124,709	0,083	-0,009
-546,554	54,935	0,060	0,042
-545,539	-200,000	-0,035	-0,147
-544,525	-69,059	0,169	-0,047
-543,510	-200,000	0,017	-0,074
-542,496	5,135	-0,170	0,092
-541,481	800,000	-0,028	-0,072
-540,466	-19,888	0,114	0,051
-539,452	165,479	-0,066	0,069
-538,437	-24,282	0,097	0,042
-537,423	-128,532	-0,103	-0,011
-536,408	-200,000	0,002	-0,128
-535,393	-135,253	-0,073	0,006
-534,379	550,029	-0,029	-0,052
-533,364	-19,692	-0,045	0,020
-532,350	387,484	-0,082	-0,124
-531,335	799,697	-0,023	-0,047
-530,321	-129,874	-0,071	-0,007
-529,306	424,079	0,040	0,063
-528,291	2,079	-0,051	-0,027
-527,277	422,749	0,017	-0,027
-526,262	8,163	-0,077	0,042
-525,248	106,771	0,063	0,054
-524,233	-18,103	0,125	-0,057
-523,218	-200,000	0,000	0,032
-522,204	-98,584	-0,114	0,021
-521,189	-57,366	-0,105	0,033
-520,175	-91,338	-0,028	-0,006
-519,160	-71,932	-0,017	-0,005
-518,145	40,847	0,074	-0,049
-517,131	-200,000	-0,024	0,100
-516,116	800,000	0,031	0,080
-515,102	-34,454	-0,149	-0,060
-514,087	10,693	-0,026	-0,014
-513,072	-200,000	0,010	-0,115
-512,058	417,433	0,029	-0,045
-511,043	179,153	0,061	-0,065
-510,029	382,330	0,070	0,105
-509,014	103,780	-0,024	0,021
-507,999	-135,739	-0,068	-0,006
-506,985	551,270	-0,047	-0,082
-505,970	-200,000	-0,016	0,131
-504,956	-21,436	0,101	-0,045
-503,941	799,644	0,071	-0,144
-502,926	-102,626	0,138	0,024
-501,912	459,174	0,051	0,083
-500,897	-23,242	0,077	-0,034
-499,883	58,758	0,108	0,077
-498,868	-200,000	0,004	-0,040
-497,853	-149,879	-0,062	-0,004
-496,839	131,382	-0,037	-0,035
-495,824	800,000	-0,020	-0,051
-494,810	-3,975	-0,028	-0,014
-493,795	800,000	-0,024	-0,067
-492,781	-46,962	-0,099	-0,035
-491,766	-200,000	-0,008	-0,109
-490,751	100,763	-0,066	-0,056
-489,737	-123,675	-0,100	0,011
-488,722	-27,477	0,190	0,080
-487,708	-157,267	-0,106	-0,005
-486,693	800,000	-0,022	0,066
-485,678	42,767	0,041	0,027
-484,664	-200,000	-0,030	-0,162
-483,649	-35,120	0,099	0,039
-482,635	481,655	-0,050	-0,084
-481,620	-111,142	0,090	0,013
-480,605	-32,869	-0,085	0,034
-479,591	-200,000	0,001	-0,129
-478,576	-122,854	-0,070	0,008
-477,562	8,418	0,098	-0,054
-476,547	-152,540	0,041	-0,002
-475,532	-25,039	0,194	-0,083
-474,518	41,561	0,021	0,014
-473,503	361,263	-0,019	0,027
-472,489	800,000	0,081	0,190
-471,474	-140,387	0,119	-0,009
-470,459	800,000	0,065	-0,186
-469,445	-106,362	-0,105	-0,017
-468,430	42,334	0,086	0,057
-467,416	800,000	-0,015	0,038
-466,401	-48,509	-0,037	-0,013
-465,386	272,942	-0,029	-0,038
-464,372	466,463	-0,035	0,058
-463,357	800,000	-0,051	0,125
-462,343	-200,000	0,023	-0,097
-461,328	-172,154	0,129	0,003
-460,313	800,000	-0,008	-0,021
-459,299	-200,000	0,009	0,036
-458,284	-9,615	0,109	0,053
-457,270	-101,274	-0,072	0,013
-456,255	189,702	0,060	0,066
-455,241	-200,000	-0,009	-0,051
-454,226	141,747	0,028	-0,027
-453,211	800,000	-0,060	-0,138
-452,197	27,542	-0,110	0,068
-451,182	-7,132	0,090	-0,044
-450,168	-200,000	-0,046	-0,151
-449,153	800,000	-0,028	-0,071
-448,138	-200,000	-0,006	-0,096
-447,124	776,445	-0,070	0,140
-446,109	204,240	0,052	0,059
-445,095	-58,109	-0,075	-0,024
-444,080	-114,834	0,068	-0,009
-443,065	-200,000	0,011	-0,047
-442,051	32,116	-0,098	0,061
-441,036	-118,696	-0,085	0,011
-440,022	-57,618	-0,065	0,021
-439,007	-20,703	0,128	0,057
-437,992	-42,602	0,049	-0,018
-436,978	800,000	0,036	0,115
-435,963	800,000	-0,022	-0,046
-434,949	-16,520	0,125	0,057
-433,934	-200,000	-0,002	-0,007
-432,919	-200,000	-0,144	0,000
-431,905	35,153	-0,067	-0,042
-430,890	-74,812	0,248	0,064
-429,876	777,783	0,039	0,077
-428,861	128,588	0,065	0,061
-427,846	-153,845	0,030	-0,001
-426,832	-200,000	-0,002	0,060
-425,817	262,649	-0,091	-0,115
-424,803	800,000	0,037	-0,088
-423,788	-18,043	0,054	-0,025
-422,773	800,000	-0,025	-0,071
-421,759	-29,592	0,061	0,025
-420,744	-61,670	-0,080	-0,024
-419,730	99,314	-0,107	-0,090
-418,715	800,000	-0,037	-0,112
-417,701	-93,357	0,104	0,021
-416,686	800,000	-0,035	0,092
-415,671	238,425	0,086	-0,105
-414,657	-151,204	0,055	-0,003
-413,642	800,000	0,039	0,110
-412,628	-4,248	-0,047	0,023
-411,613	-200,000	0,011	-0,149
-410,598	-200,000	-0,031	-0,189
-409,584	-200,000	-0,005	-0,168
-408,569	644,739	-0,036	-0,067
-407,555	98,514	0,110	0,092
-406,540	-86,473	0,104	0,023
-405,525	200,448	0,094	0,105
-404,511	-12,834	0,039	0,018
-403,496	200,060	0,036	-0,040
-402,482	-99,575	0,030	-0,005
-401,467	-200,000	0,009	0,202
-400,452	621,258	-0,050	0,092
-399,438	-11,481	-0,032	-0,015
-398,423	175,096	-0,093	0,098
-397,409	27,822	-0,119	0,073
-396,394	-149,710	-0,047	-0,003
-395,379	29,224	0,108	-0,067
-394,365	128,705	0,087	0,080
-393,350	800,000	0,032	0,066
-392,336	166,671	-0,088	0,091
-391,321	75,076	-0,055	-0,042
-390,306	-200,000	-0,016	-0,115
-389,292	-200,000	-0,021	0,094
-388,277	11,043	0,059	0,033
-387,263	23,682	-0,103	-0,062
-386,248	-200,000	0,005	0,016
-385,233	62,529	0,114	-0,083
-384,219	-200,000	0,015	-0,081
-383,204	-200,000	0,001	0,061
-382,190	-200,000	-0,002	0,085
-381,175	-140,650	0,095	0,007
-380,160	-100,440	0,088	0,016
-379,146	66,436	-0,052	-0,038
-378,131	-200,000	-0,020	-0,117
-377,117	-28,994	0,099	0,041
-376,102	-200,000	0,001	0,015
-375,088	13,180	0,008	-0,004
-374,073	-200,000	0,004	-0,042
-373,058	-200,000	0,043	-0,191
-372,044	-200,000	0,013	0,137
-371,029	-200,000	0,007	0,078
-370,015	75,432	-0,074	0,057
-369,000	800,000	-0,021	-0,063
-367,985	-13,154	-0,157	-0,074
-366,971	-200,000	0,016	-0,075
-365,956	-26,656	0,057	-0,024
-364,942	800,000	0,030	0,085
-363,927	48,042	-0,058	0,039
-362,912	180,430	0,079	0,084
-361,898	93,624	-0,051	-0,042
-360,883	452,552	-0,059	-0,094
-359,869	-108,315	0,144	0,022
-358,854	-200,000	-0,008	0,193
-357,839	-42,552	0,142	-0,052
-356,825	34,972	0,090	0,057
-355,810	800,000	0,029	0,074
-354,796	488,948	-0,054	-0,090
-353,781	800,000	0,015	-0,044
-352,766	57,450	-0,028	0,020
-351,752	661,164	0,048	0,089
-350,737	320,468	0,024	0,034
-349,723	101,355	0,050	-0,042
-348,708	297,705	-0,071	0,095
-347,693	24,583	-0,088	-0,053
-346,679	-42,409	-0,178	-0,066
-345,664	-28,444	-0,108	-0,045
-344,650	800,000	-0,022	0,045
-343,635	-1,845	0,048	-0,025
-342,620	-200,000	0,009	0,078
-341,606	266,670	-0,038	-0,049
-340,591	-37,486	-0,116	-0,045
-339,577	446,880	0,073	0,117
-338,562	-167,065	0,073	-0,002
-337,548	720,612	-0,037	0,072
-336,533	-92,424	0,079	0,016
-335,518	33,702	0,124	0,078
-334,504	285,554	0,081	0,106
-333,489	-143,480	-0,053	-0,004
-332,475	35,936	-0,092	0,059
-331,460	64,149	-0,044	-0,032
-330,445	-38,767	0,036	-0,014
-329,431	67,591	0,032	0,024
-328,416	-200,000	-0,030	0,122
-327,402	800,000	-0,038	-0,116
-326,387	140,365	-0,154	-0,148
-325,372	348,486	-0,022	-0,031
-324,358	-7,440	-0,084	-0,041
-323,343	-3,315	0,166	0,084
-322,329	800,000	-0,029	0,079
-321,314	800,000	-0,027	0,055
-320,299	46,151	0,032	-0,021
-319,285	-134,872	-0,112	-0,010
-318,270	-71,181	-0,079	0,021
-317,256	800,000	-0,041	-0,119
-316,241	-47,162	-0,156	0,055
-315,226	-38,384	0,149	0,057
-314,212	-200,000	-0,006	-0,072
-313,197	-81,742	0,032	0,008
-312,183	28,684	-0,039	-0,024
-311,168	766,792	0,007	-0,014
-310,153	32,293	-0,063	-0,039
-309,139	186,138	0,044	0,048
-308,124	203,204	0,077	0,086
-307,110	-66,828	0,053	0,015
-306,095	-200,000	-0,029	0,144
-305,080	-62,888	0,040	0,012
-304,066	163,157	0,053	-0,054
-303,051	-200,000	0,009	-0,106
-302,037	800,000	-0,051	-0,109
-301,022	800,000	-0,008	0,024
-300,008	151,190	0,062	-0,061
-298,993	-89,288	0,052	0,011
-297,978	-200,000	0,003	0,083
-296,964	438,486	-0,009	-0,014
-295,949	701,028	-0,032	0,060
-294,935	-89,684	-0,117	-0,025
-293,920	800,000	0,008	-0,027
-292,905	652,226	0,035	0,065
-291,891	-89,628	0,161	0,034
-290,876	44,774	-0,165	0,110
-289,862	307,542	-0,046	-0,062
-288,847	6,204	0,088	-0,047
-287,832	-145,231	0,155	-0,010
-286,818	-37,275	0,039	0,015
-285,803	716,451	0,031	-0,060
-284,789	-120,570	0,077	0,009
-283,774	-5,893	-0,063	0,031
-282,759	8,630	0,041	-0,022
-281,745	-200,000	-0,019	-0,063
-280,730	-115,370	0,095	-0,013
-279,716	800,000	0,022	-0,044
-278,701	5,534	0,101	0,054
-277,686	175,936	0,065	0,068
-276,672	65,362	-0,070	-0,051
-275,657	800,000	0,038	-0,077
-274,643	-73,123	-0,109	0,029
-273,628	11,139	-0,035	-0,019
-272,613	-56,277	0,022	-0,007
-271,599	800,000	0,004	0,009
-270,584	800,000	-0,045	-0,103
-269,570	-107,268	-0,038	-0,006
-268,555	-130,314	0,130	-0,013
-267,540	417,782	0,033	-0,051
-266,526	-38,477	0,072	0,028
-265,511	16,714	0,081	-0,046
-264,497	145,462	0,069	-0,067
-263,482	-200,000	0,005	0,021
-262,467	-50,161	-0,036	0,012
-261,453	-41,862	-0,059	0,022
-260,438	95,470	-0,067	-0,055
-259,424	-21,263	-0,084	-0,037
-258,409	-200,000	0,034	0,109
-257,395	800,000	0,047	-0,095
-256,380	-125,159	0,131	0,014
-255,365	-91,302	0,040	0,008
-254,351	-102,226	-0,068	0,012
-253,336	208,616	-0,091	-0,104
-252,322	800,000	-0,030	0,077
-251,307	7,680	-0,086	-0,046
-250,292	-200,000	0,062	0,263
-249,278	-200,000	-0,006	-0,031
-248,263	-84,505	0,120	0,027
-247,249	-200,000	-0,021	0,085
-246,234	24,444	0,072	-0,043
-245,219	31,894	-0,065	-0,040
-244,205	800,000	-0,053	-0,126
-243,190	-200,000	-0,001	0,076
-242,176	-76,949	-0,032	0,008
-241,161	-121,835	0,086	0,010
-240,146	-69,541	-0,043	-0,012
-239,132	-200,000	-0,002	0,189
-238,117	-73,365	-0,024	0,006
-237,103	-200,000	0,003	0,073
-236,088	-28,612	-0,015	0,006
-235,073	-200,000	0,014	0,109
-234,059	-141,435	-0,076	-0,005
-233,044	-16,683	0,127	-0,058
-232,030	-200,000	0,023	0,178
-231,015	-50,641	-0,089	-0,030
-230,000	-200,000	-0,020	-0,108
-228,986	-132,273	0,151	0,014
-227,971	-69,822	-0,080	-0,022
-226,957	-137,630	0,128	0,010
-225,942	800,000	-0,017	0,051
-224,927	123,811	-0,067	0,061
-223,913	-200,000	0,023	-0,121
-222,898	-59,466	0,093	0,029
-221,884	-200,000	0,006	-0,031
-220,869	228,291	0,099	0,117
-219,855	408,882	0,070	0,107
-218,840	-138,934	-0,064	-0,005
-217,825	-200,000	-0,010	-0,039
-216,811	800,000	0,019	-0,049
-215,796	-25,809	0,121	0,051
-214,782	648,795	-0,020	-0,038
-213,767	14,244	-0,068	-0,038
-212,752	-168,734	0,058	0,002
-211,738	-200,000	-0,028	0,120
-210,723	12,934	-0,089	-0,049
-209,709	-85,092	-0,152	0,034
-208,694	436,033	0,039	-0,062
-207,679	-93,717	-0,155	-0,031
-206,665	-94,215	-0,037	0,007
-205,650	-200,000	0,010	-0,050
-204,636	-200,000	-0,003	-0,104
-203,621	800,000	-0,032	-0,076
-202,606	-0,659	-0,140	0,071
-201,592	-200,000	-0,001	-0,054
-200,577	-200,000	0,001	0,051
-199,563	129,829	-0,031	-0,028
-198,548	-87,345	0,173	0,038
-197,533	-77,453	-0,123	0,031
-196,519	238,236	0,056	0,067
-195,504	800,000	0,046	-0,092
-194,490	-93,727	-0,095	0,019
-193,475	-200,000	0,001	-0,031
-192,460	800,000	-0,051	-0,151
-191,446	800,000	0,035	0,100
-190,431	154,566	-0,095	-0,094
-189,417	-74,268	0,070	-0,018
-188,402	636,034	0,053	0,098
-187,387	-27,287	0,121	0,051
-186,373	-49,362	-0,128	-0,044
-185,358	43,183	0,009	0,006
-184,344	422,700	0,032	-0,050
-183,329	34,638	0,089	-0,056
-182,315	-200,000	0,010	0,039
-181,300	-200,000	0,010	-0,093
-180,285	491,154	0,055	-0,091
-179,271	-200,000	-0,012	-0,071
-178,256	4,070	0,034	0,018
-177,242	160,678	0,065	0,065
-176,227	-200,000	-0,013	0,125
-175,212	-11,464	-0,016	-0,008
-174,198	-87,367	-0,103	0,022
-173,183	-200,000	0,026	0,088
-172,169	-200,000	0,011	0,084
-171,154	24,095	-0,079	-0,047
-170,139	22,085	-0,075	-0,044
-169,125	-46,246	0,090	0,032
-168,110	-155,767	-0,080	0,004
-167,096	800,000	-0,026	-0,062
-166,081	-166,610	-0,108	0,003
-165,066	-50,030	-0,063	0,022
-164,052	62,596	0,094	0,068
-163,037	-200,000	-0,014	-0,102
-162,023	663,479	0,069	0,128
-161,008	1,088	-0,045	0,023
-159,993	790,618	-0,049	0,098
-158,979	-200,000	0,015	0,092
-157,964	-200,000	-0,002	-0,046
-156,950	-52,556	-0,090	0,030
-155,935	-200,000	0,016	0,095
-154,920	-0,197	-0,176	0,090
-153,906	40,501	0,073	-0,048
-152,891	-119,861	-0,111	0,014
-151,877	287,894	0,026	0,035
-150,862	-131,924	-0,044	0,004
-149,847	800,000	-0,030	0,062
-148,833	-0,218	-0,079	-0,040
-147,818	11,315	0,095	-0,052
-146,804	-87,329	0,107	0,023
-145,789	-91,657	-0,067	0,014
-144,775	-122,220	-0,041	-0,005
-143,760	83,789	0,085	-0,067
-142,745	219,373	0,032	-0,037
-141,731	156,997	0,085	0,084
-140,716	181,876	0,071	0,076
-139,702	395,613	0,056	-0,085
-138,687	333,028	0,037	-0,052
-137,672	-62,436	-0,189	-0,056
-136,658	17,353	-0,028	-0,016
-135,643	325,833	-0,038	-0,052
-134,629	-3,019	0,066	0,033
-133,614	-200,000	-0,003	0,084
-132,599	-200,000	0,030	0,105
-131,585	28,393	0,002	-0,001
-130,570	286,598	-0,036	-0,047
-129,556	254,811	-0,033	-0,041
-128,541	548,335	-0,017	-0,030
-127,526	-62,483	-0,076	-0,023
-126,512	800,000	-0,018	0,040
-125,497	679,012	0,033	0,062
-124,483	238,774	0,041	-0,049
-123,468	7,006	0,019	0,010
-122,453	-200,000	-0,001	0,018
-121,439	-149,236	-0,116	-0,007
-120,424	52,213	0,027	0,018
-119,410	-123,734	-0,068	-0,008
