DTS Sentinel unit serial number:	SN410029Multiplexer serial number:	ORYXHardware model number:	OX2-SRSoftware version number:	ORYX F/W v4,00 Oryx Data Collector v3.7.2.0data status	okinstallation	B5 Nyhavnadifferential loss correction	single-endedforward channel	channel 2reverse channel	N/Adate	2023/12/11time	22:27:13forward acquisition time	300,00reverse acquisition time	0,00gamma	499,1914k internal	0,3156k external	0,3156temperature offset calibration	1,0000default loss term (dB/km)	0,3820temperature slope calibration	1,0000multiplexer offset coefficient	1,0000multiplexer slope coefficient	1,0000fibre end	0,00T internal ref (°C)	16,31T ext. ref 1 (°C)	0,12T ext. ref 2 (°C)	-0,14length (m)	temperature (°C)	Stokes	anti-Stokes-744,400	333,619	0,054	0,078
-743,385	-16,606	-0,316	-0,147
-742,371	178,651	0,217	0,234
-741,356	-40,456	-0,222	0,085
-740,342	452,773	0,062	0,102
-739,327	-47,052	-0,313	0,112
-738,312	-74,127	0,060	0,016
-737,298	-107,703	-0,301	0,048
-736,283	115,921	0,075	0,068
-735,269	-118,680	-0,257	0,033
-734,254	36,186	0,063	0,041
-733,239	-78,644	-0,442	-0,110
-732,225	800,000	-0,020	0,059
-731,210	380,918	-0,008	-0,012
-730,196	-91,010	-0,055	0,012
-729,181	800,000	0,047	-0,113
-728,167	-200,000	0,019	0,119
-727,152	6,418	-0,126	-0,069
-726,137	21,074	-0,067	0,040
-725,123	540,441	-0,073	-0,129
-724,108	800,000	-0,058	-0,140
-723,094	-72,658	-0,026	-0,007
-722,079	-200,000	-0,017	-0,069
-721,064	-200,000	-0,016	-0,061
-720,050	254,759	-0,080	0,101
-719,035	-200,000	0,024	0,090
-718,021	-113,061	-0,131	-0,019
-717,006	-161,968	-0,213	-0,008
-715,991	-200,000	0,019	-0,092
-714,977	-31,701	-0,102	-0,042
-713,962	-50,077	-0,035	0,012
-712,948	467,172	0,039	-0,064
-711,933	220,196	-0,053	0,063
-710,918	228,435	-0,023	0,028
-709,904	-151,057	-0,123	-0,007
-708,889	40,724	0,082	-0,054
-707,875	800,000	0,011	-0,036
-706,860	-116,561	-0,079	-0,011
-705,845	205,973	0,087	0,100
-704,831	222,588	0,041	0,049
-703,816	-118,532	0,036	-0,005
-702,802	-92,707	0,082	-0,017
-701,787	67,696	0,109	-0,082
-700,772	44,332	0,064	-0,044
-699,758	45,724	0,027	-0,019
-698,743	19,457	0,068	0,040
-697,729	122,982	0,063	0,058
-696,714	377,514	0,048	-0,073
-695,699	-89,283	0,016	-0,003
-694,685	299,038	-0,067	0,091
-693,670	-128,508	-0,145	-0,015
-692,656	-148,179	0,076	0,005
-691,641	-200,000	-0,002	-0,051
-690,627	-200,000	0,012	-0,054
-689,612	80,058	-0,077	-0,061
-688,597	800,000	-0,013	0,036
-687,583	-200,000	0,023	-0,128
-686,568	181,787	-0,044	-0,047
-685,554	311,776	-0,031	-0,043
-684,539	193,149	0,027	-0,030
-683,524	-200,000	0,001	-0,053
-682,510	244,740	0,042	-0,052
-681,495	5,286	0,055	0,030
-680,481	41,311	-0,098	-0,065
-679,466	-200,000	0,031	-0,156
-678,451	438,730	-0,026	-0,042
-677,437	753,521	-0,049	0,097
-676,422	-99,102	0,081	-0,015
-675,408	-78,915	0,013	-0,003
-674,393	106,226	-0,103	-0,090
-673,378	199,948	-0,067	-0,076
-672,364	-61,002	-0,077	0,024
-671,349	-91,684	0,033	-0,007
-670,335	392,770	0,057	-0,087
-669,320	90,233	0,029	-0,024
-668,305	217,880	0,086	-0,101
-667,291	89,252	-0,045	-0,037
-666,276	-129,825	0,087	0,009
-665,262	147,846	-0,103	-0,103
-664,247	68,565	0,152	-0,115
-663,232	30,699	-0,083	0,052
-662,218	-40,959	0,091	-0,035
-661,203	680,144	-0,046	0,089
-660,189	800,000	-0,058	-0,174
-659,174	-200,000	-0,019	0,071
-658,159	-99,176	0,036	0,007
-657,145	-200,000	-0,013	0,055
-656,130	800,000	-0,010	0,024
-655,116	-200,000	0,010	-0,049
-654,101	0,283	0,171	0,089
-653,086	-179,518	-0,096	0,002
-652,072	-92,313	-0,112	-0,023
-651,057	562,590	-0,061	-0,109
-650,043	197,823	-0,050	-0,056
-649,028	-200,000	-0,011	-0,036
-648,014	-68,259	0,050	0,014
-646,999	800,000	-0,066	0,139
-645,984	-200,000	-0,005	-0,034
-644,970	800,000	-0,029	0,072
-643,955	-17,859	-0,119	-0,054
-642,941	800,000	0,037	-0,088
-641,926	137,581	-0,057	-0,054
-640,911	3,106	-0,085	-0,045
-639,897	-63,697	0,092	0,028
-638,882	-4,200	-0,127	-0,064
-637,868	239,780	0,035	0,043
-636,853	-92,963	-0,106	0,022
-635,838	64,269	-0,131	-0,096
-634,824	392,056	-0,064	-0,098
-633,809	-200,000	-0,007	0,036
-632,795	502,781	0,106	-0,181
-631,780	7,193	0,080	0,044
-630,765	-23,680	-0,085	0,037
-629,751	-200,000	0,009	-0,063
-628,736	131,893	-0,090	0,085
-627,722	13,318	-0,090	0,051
-626,707	12,785	-0,086	-0,048
-625,692	-200,000	-0,010	-0,055
-624,678	-21,564	-0,132	-0,059
-623,663	800,000	-0,078	-0,174
-622,649	486,212	0,038	-0,065
-621,634	332,281	-0,072	-0,103
-620,619	698,410	0,039	-0,076
-619,605	601,165	0,073	-0,134
-618,590	331,608	0,098	0,139
-617,576	-54,021	0,044	0,015
-616,561	-160,600	0,068	0,003
-615,546	-145,727	-0,081	-0,005
-614,532	-30,117	-0,030	-0,013
-613,517	171,877	0,017	0,018
-612,503	131,926	-0,085	-0,081
-611,488	-200,000	0,019	0,064
-610,474	-106,763	-0,118	0,019
-609,459	46,105	-0,118	-0,080
-608,444	800,000	-0,025	-0,072
-607,430	-200,000	0,014	0,080
-606,415	245,764	-0,019	-0,024
-605,401	-200,000	0,006	-0,072
-604,386	-13,629	0,137	-0,065
-603,371	449,831	-0,048	-0,078
-602,357	-75,781	0,168	-0,043
-601,342	234,663	-0,024	-0,029
-600,328	59,325	-0,020	0,015
-599,313	108,473	-0,122	-0,107
-598,298	-6,819	0,102	-0,051
-597,284	-154,382	0,091	0,004
-596,269	49,658	0,056	0,039
-595,255	192,380	0,091	0,101
-594,240	48,978	0,062	0,043
-593,225	23,881	-0,102	-0,061
-592,211	-199,226	0,058	0,000
-591,196	-165,487	-0,097	-0,003
-590,182	340,185	0,019	-0,027
-589,167	-28,257	0,101	0,043
-588,152	-200,000	-0,003	0,095
-587,138	-59,817	0,066	0,021
-586,123	-6,437	-0,161	-0,080
-585,109	-200,000	0,001	-0,164
-584,094	113,048	0,055	-0,049
-583,079	-200,000	0,002	0,025
-582,065	138,412	-0,056	0,054
-581,050	309,737	0,086	0,119
-580,036	-48,130	0,189	-0,067
-579,021	-113,007	0,012	-0,002
-578,006	108,460	-0,177	-0,155
-576,992	-43,657	-0,180	-0,066
-575,977	570,640	-0,065	0,117
-574,963	-200,000	-0,035	0,186
-573,948	629,701	0,060	-0,112
-572,934	-135,125	0,124	0,011
-571,919	-54,933	-0,209	0,069
-570,904	-200,000	0,004	0,068
-569,890	800,000	-0,042	0,122
-568,875	536,339	-0,087	-0,153
-567,861	-200,000	0,036	0,168
-566,846	-19,987	0,099	0,045
-565,831	-57,355	0,102	-0,033
-564,817	800,000	0,021	-0,055
-563,802	57,833	0,102	-0,073
-562,788	92,102	0,040	-0,033
-561,773	-102,770	0,054	-0,009
-560,758	-79,885	-0,063	0,015
-559,744	800,000	0,024	0,063
-558,729	-71,783	-0,121	0,033
-557,715	-200,000	0,008	-0,084
-556,700	-200,000	-0,020	-0,131
-555,685	-200,000	-0,001	0,084
-554,671	410,136	-0,019	0,030
-553,656	33,464	0,068	0,043
-552,642	-200,000	-0,005	0,134
-551,627	97,928	0,029	-0,025
-550,612	404,464	-0,004	-0,006
-549,598	56,201	-0,128	-0,091
-548,583	-121,493	-0,100	-0,012
-547,569	-200,000	-0,026	-0,159
-546,554	741,197	-0,030	-0,058
-545,539	211,997	0,062	-0,072
-544,525	800,000	-0,022	0,049
-543,510	-200,000	0,012	0,046
-542,496	-7,578	-0,064	0,032
-541,481	-200,000	0,021	-0,121
-540,466	800,000	0,016	-0,048
-539,452	-200,000	-0,010	-0,037
-538,437	32,553	0,139	0,088
-537,423	398,147	-0,085	0,130
-536,408	15,989	0,035	-0,020
-535,393	-200,000	-0,025	-0,111
-534,379	126,994	0,054	0,050
-533,364	86,014	-0,094	-0,076
-532,350	-0,319	0,082	-0,043
-531,335	-200,000	0,009	0,110
-530,321	800,000	0,011	0,026
-529,306	604,781	0,047	0,087
-528,291	-200,000	0,001	0,074
-527,277	41,297	-0,169	0,112
-526,262	-188,024	-0,107	-0,001
-525,248	-146,828	0,113	0,007
-524,233	-200,000	-0,016	0,109
-523,218	22,559	0,018	0,010
-522,204	337,702	-0,039	0,055
-521,189	56,182	-0,071	0,050
-520,175	133,169	-0,053	-0,050
-519,160	-200,000	-0,022	-0,078
-518,145	-200,000	-0,013	0,061
-517,131	-200,000	-0,014	-0,114
-516,116	800,000	0,010	0,030
-515,102	800,000	0,052	0,132
-514,087	-200,000	0,014	0,071
-513,072	58,220	-0,116	-0,083
-512,058	413,662	-0,053	-0,083
-511,043	34,676	-0,122	0,078
-510,029	-200,000	-0,001	-0,029
-509,014	-200,000	0,008	-0,086
-507,999	103,227	-0,059	0,051
-506,985	-138,467	-0,116	0,009
-505,970	206,358	0,027	-0,031
-504,956	-11,757	0,043	-0,021
-503,941	800,000	-0,015	-0,047
-502,926	297,087	-0,042	-0,056
-501,912	-200,000	0,023	0,077
-500,897	800,000	-0,054	0,124
-499,883	-120,670	0,037	0,005
-498,868	-200,000	-0,008	-0,080
-497,853	709,696	0,039	-0,076
-496,839	-200,000	0,021	-0,073
-495,824	-200,000	-0,013	0,103
-494,810	-43,153	0,157	-0,058
-493,795	13,136	-0,048	0,027
-492,781	-79,498	-0,067	-0,017
-491,766	140,446	0,041	0,039
-490,751	-8,454	-0,103	0,050
-489,737	800,000	-0,025	-0,058
-488,722	27,513	-0,051	0,031
-487,708	-107,192	0,065	0,010
-486,693	11,087	-0,048	-0,027
-485,678	-38,338	0,154	0,059
-484,664	45,793	-0,039	0,026
-483,649	106,932	0,049	-0,042
-482,635	-118,954	-0,103	-0,013
-481,620	-84,795	0,083	-0,019
-480,605	-113,335	0,027	-0,004
-479,591	-89,853	0,090	0,019
-478,576	-63,761	0,058	0,017
-477,562	-200,000	-0,016	-0,084
-476,547	-103,847	0,044	0,007
-475,532	106,823	0,045	-0,039
-474,518	-36,853	0,093	0,036
-473,503	-200,000	-0,037	0,139
-472,489	-200,000	-0,006	0,057
-471,474	132,461	-0,042	-0,039
-470,459	-200,000	-0,025	0,085
-469,445	-156,072	-0,005	-0,000
-468,430	189,283	-0,056	-0,062
-467,416	800,000	0,050	0,122
-466,401	526,608	0,023	0,040
-465,386	-200,000	-0,005	-0,028
-464,372	-200,000	-0,038	-0,148
-463,357	-200,000	-0,016	-0,081
-462,343	359,447	0,072	-0,105
-461,328	64,429	-0,031	-0,023
-460,313	24,610	0,091	0,055
-459,299	-200,000	0,032	-0,106
-458,284	37,137	0,059	0,038
-457,270	-200,000	-0,012	-0,054
-456,255	-86,494	0,026	-0,006
-455,241	-175,886	-0,131	-0,002
-454,226	-200,000	0,012	-0,153
-453,211	-200,000	-0,003	0,039
-452,197	-200,000	0,013	0,124
-451,182	-200,000	0,017	0,183
-450,168	-22,449	0,118	0,052
-449,153	18,163	-0,151	-0,088
-448,138	59,828	0,097	-0,070
-447,124	-200,000	0,006	0,093
-446,109	-47,239	-0,044	0,016
-445,095	-48,925	-0,065	-0,022
-444,080	-122,405	-0,035	-0,004
-443,065	141,514	-0,012	-0,011
-442,051	-200,000	0,013	-0,082
-441,036	-200,000	-0,009	0,063
-440,022	35,205	-0,031	-0,020
-439,007	262,381	0,017	0,021
-437,992	70,112	0,050	-0,037
-436,978	-200,000	0,049	0,165
-435,963	80,834	0,009	-0,007
-434,949	-200,000	-0,030	-0,119
-433,934	-122,629	-0,018	-0,002
-432,919	-200,000	-0,002	0,066
-431,905	-200,000	0,009	-0,108
-430,890	-200,000	-0,021	0,138
-429,876	324,726	0,076	0,106
-428,861	-200,000	0,016	-0,088
-427,846	-200,000	-0,015	-0,115
-426,832	800,000	0,016	-0,041
-425,817	-163,409	0,070	-0,002
-424,803	209,204	0,087	-0,099
-423,788	-110,981	-0,069	-0,010
-422,773	-200,000	-0,017	0,077
-421,759	-200,000	0,011	0,051
-420,744	-111,036	0,034	0,005
-419,730	-200,000	0,021	-0,132
-418,715	-200,000	-0,024	-0,138
-417,701	29,733	0,117	-0,073
-416,686	-200,000	0,018	0,203
-415,671	3,845	0,024	-0,013
-414,657	301,152	0,036	0,049
-413,642	177,388	-0,060	0,064
-412,628	161,391	0,061	-0,062
-411,613	-168,485	0,052	0,001
-410,598	162,608	-0,025	-0,026
-409,584	-25,791	0,115	0,049
-408,569	120,478	0,036	-0,033
-407,555	-200,000	-0,011	0,038
-406,540	57,017	0,037	-0,027
-405,525	141,742	-0,051	-0,049
-404,511	-200,000	0,017	-0,064
-403,496	348,982	0,074	-0,106
-402,482	-200,000	0,019	0,089
-401,467	800,000	0,022	0,063
-400,452	-86,076	0,204	0,045
-399,438	14,255	-0,063	0,036
-398,423	-108,623	0,049	-0,008
-397,409	106,213	-0,050	-0,044
-396,394	21,738	-0,027	-0,016
-395,379	800,000	-0,041	0,126
-394,365	-93,954	0,127	0,025
-393,350	-200,000	-0,001	-0,053
-392,336	797,238	-0,052	-0,105
-391,321	318,439	0,023	0,032
-390,306	800,000	-0,031	-0,085
-389,292	-84,179	0,079	-0,018
-388,277	377,644	0,068	-0,102
-387,263	-200,000	-0,021	-0,070
-386,248	-33,524	0,060	-0,024
-385,233	121,431	-0,050	0,045
-384,219	-109,072	-0,096	-0,015
-383,204	-200,000	-0,005	-0,118
-382,190	360,181	-0,042	0,061
-381,175	-116,126	-0,013	-0,002
-380,160	-133,656	0,104	-0,009
-379,146	130,571	0,092	-0,086
-378,131	281,060	0,051	0,067
-377,117	-200,000	0,013	0,079
-376,102	800,000	-0,081	-0,196
-375,088	-200,000	0,009	0,033
-374,073	-200,000	0,002	0,090
-373,058	-184,311	0,065	-0,001
-372,044	-200,000	0,028	-0,137
-371,029	-84,304	-0,070	-0,016
-370,015	-200,000	0,000	-0,097
-369,000	-128,142	-0,189	0,019
-367,985	59,130	-0,139	-0,099
-366,971	-116,004	0,210	-0,028
-365,956	39,460	0,022	-0,014
-364,942	-200,000	-0,016	-0,059
-363,927	-200,000	0,019	-0,117
-362,912	235,574	0,059	0,071
-361,898	68,578	0,045	0,033
-360,883	-10,321	-0,095	-0,045
-359,869	-23,518	0,061	-0,026
-358,854	82,212	0,097	0,076
-357,839	-200,000	0,018	0,110
-356,825	136,359	0,070	-0,066
-355,810	251,591	-0,044	-0,055
-354,796	-200,000	0,036	-0,211
-353,781	-141,483	-0,082	-0,006
-352,766	-200,000	0,014	0,063
-351,752	-42,346	0,051	0,019
-350,737	-200,000	0,023	0,081
-349,723	76,787	-0,070	0,054
-348,708	800,000	0,016	0,035
-347,693	-15,866	0,045	-0,021
-346,679	-200,000	-0,016	-0,058
-345,664	138,679	-0,059	0,056
-344,650	-200,000	0,005	-0,069
-343,635	-200,000	0,001	0,153
-342,620	-200,000	-0,005	-0,040
-341,606	283,551	-0,028	0,036
-340,591	-49,196	-0,112	0,039
-339,577	800,000	0,056	-0,126
-338,562	124,725	-0,050	0,045
-337,548	-165,284	-0,062	-0,002
-336,533	-200,000	-0,004	0,062
-335,518	23,737	-0,050	0,030
-334,504	-200,000	0,002	0,097
-333,489	800,000	0,020	0,050
-332,475	109,223	-0,049	-0,043
-331,460	251,675	-0,063	0,078
-330,445	218,423	-0,090	-0,105
-329,431	-6,021	0,073	0,036
-328,416	204,790	0,101	0,114
-327,402	-200,000	0,031	0,125
-326,387	800,000	-0,030	0,081
-325,372	61,101	-0,041	0,029
-324,358	-200,000	0,021	-0,114
-323,343	-56,992	-0,100	0,032
-322,329	147,941	-0,112	-0,109
-321,314	-200,000	0,016	0,053
-320,299	330,404	-0,092	0,129
-319,285	763,567	-0,040	-0,079
-318,270	186,235	-0,026	-0,028
-317,256	-54,885	-0,086	0,028
-316,241	-32,179	-0,090	-0,036
-315,226	247,171	0,028	-0,034
-314,212	-78,107	0,129	-0,032
-313,197	46,786	-0,119	-0,080
-312,183	84,970	0,116	0,093
-311,168	10,787	0,043	0,024
-310,153	564,780	-0,017	0,031
-309,139	44,198	-0,118	0,078
-308,124	800,000	-0,055	0,113
-307,110	-16,797	-0,129	0,059
-306,095	-25,986	-0,030	0,013
-305,080	-50,341	0,151	-0,052
-304,066	14,968	0,013	-0,007
-303,051	-62,622	-0,131	-0,039
-302,037	-10,166	0,057	0,027
-301,022	257,041	0,085	0,107
-300,008	366,788	0,075	0,111
-298,993	374,185	-0,048	-0,071
-297,978	670,635	0,047	0,090
-296,964	-19,567	-0,122	-0,055
-295,949	-93,081	-0,065	-0,013
-294,935	-6,874	-0,042	0,021
-293,920	597,715	0,033	0,060
-292,905	-143,921	0,148	0,010
-291,891	8,054	-0,039	0,021
-290,876	-38,647	0,160	0,061
-289,862	-200,000	-0,013	0,223
-288,847	-67,950	-0,033	-0,009
-287,832	-51,322	-0,146	-0,049
-286,818	-122,025	0,040	-0,005
-285,803	425,895	0,094	0,148
-284,789	464,188	0,038	0,062
-283,774	231,883	0,074	0,088
-282,759	66,271	-0,066	0,049
-281,745	-200,000	-0,016	0,085
-280,730	-200,000	-0,005	-0,020
-279,716	-29,260	-0,038	0,016
-278,701	-200,000	-0,010	0,112
-277,686	-200,000	0,000	0,055
-276,672	-18,686	0,151	0,068
-275,657	4,051	-0,058	-0,031
-274,643	47,784	-0,081	0,055
-273,628	433,256	-0,080	0,127
-272,613	143,684	0,075	-0,073
-271,599	-200,000	-0,016	0,167
-270,584	52,525	0,098	-0,068
-269,570	800,000	0,060	-0,189
-268,555	-158,141	0,057	0,002
-267,540	-200,000	0,002	-0,096
-266,526	-200,000	0,013	-0,102
-265,511	144,211	0,047	0,045
-264,497	-137,439	0,088	0,007
-263,482	35,238	0,213	0,135
-262,467	-200,000	-0,010	0,057
-261,453	-22,614	0,144	-0,063
-260,438	-200,000	-0,020	0,064
-259,424	-31,467	-0,093	0,038
-258,409	-35,820	0,041	-0,016
-257,395	17,908	0,076	0,044
-256,380	47,666	0,040	0,027
-255,365	-5,442	0,016	0,008
-254,351	-92,616	-0,098	-0,020
-253,336	-113,232	0,100	-0,014
-252,322	81,235	0,089	-0,069
-251,307	592,028	0,023	-0,041
-250,292	189,105	0,077	-0,084
-249,278	730,055	-0,041	-0,080
-248,263	-80,819	0,140	0,033
-247,249	47,406	0,122	0,082
-246,234	-71,805	0,042	0,011
-245,219	55,755	-0,142	-0,100
-244,205	-200,000	0,004	-0,078
-243,190	-200,000	-0,019	0,132
-242,176	-79,559	0,056	-0,014
-241,161	-200,000	0,033	0,132
-240,146	673,238	0,079	0,149
-239,132	800,000	-0,061	0,193
-238,117	56,311	0,122	0,086
-237,103	-81,701	-0,212	-0,050
-236,088	19,682	-0,052	0,030
-235,073	800,000	0,023	-0,054
-234,059	331,981	0,024	0,034
-233,044	-200,000	-0,027	0,086
-232,030	337,923	-0,102	0,144
-231,015	-200,000	0,005	-0,027
-230,000	5,539	-0,064	-0,034
-228,986	-123,385	-0,162	0,018
-227,971	-6,328	0,073	0,036
-226,957	274,165	-0,027	0,035
-225,942	800,000	-0,027	0,059
-224,927	19,100	-0,071	0,041
-223,913	-200,000	0,020	-0,251
-222,898	494,715	0,097	-0,162
-221,884	225,649	0,075	0,088
-220,869	-93,336	0,024	0,005
-219,855	83,395	-0,084	0,066
-218,840	800,000	0,012	0,036
-217,825	336,035	-0,068	-0,096
-216,811	-108,399	0,090	-0,014
-215,796	800,000	0,023	-0,050
-214,782	-200,000	-0,018	0,092
-213,767	74,510	0,136	-0,103
-212,752	6,293	0,007	0,004
-211,738	117,260	-0,023	0,021
-210,723	295,825	0,028	-0,037
-209,709	381,960	-0,099	-0,147
-208,694	-84,178	-0,016	-0,004
-207,679	-19,993	-0,082	0,036
-206,665	-124,720	-0,040	0,004
-205,650	-51,633	-0,052	-0,017
-204,636	-59,058	0,088	0,027
-203,621	-32,647	0,003	-0,001
-202,606	-83,119	0,099	0,023
-201,592	508,311	-0,034	-0,058
-200,577	166,960	-0,069	0,071
-199,563	246,824	-0,077	-0,094
-198,548	-200,000	-0,000	0,048
-197,533	683,508	0,041	0,077
-196,519	-200,000	-0,004	-0,057
-195,504	-200,000	-0,011	0,087
-194,490	-200,000	0,021	0,075
-193,475	214,070	0,053	-0,061
-192,460	-35,021	0,133	-0,052
-191,446	-200,000	-0,035	0,126
-190,431	-200,000	0,024	-0,179
-189,417	80,206	-0,115	-0,089
-188,402	-200,000	0,001	-0,108
-187,387	-145,978	-0,141	-0,009
-186,373	-200,000	0,011	-0,126
-185,358	100,878	-0,078	0,065
-184,344	141,581	0,026	0,025
-183,329	385,061	-0,116	0,173
-182,315	151,307	-0,054	-0,053
-181,300	800,000	0,032	0,078
-180,285	175,060	0,050	-0,052
-179,271	800,000	0,027	-0,087
-178,256	-85,064	0,053	-0,012
-177,242	179,599	0,084	0,088
-176,227	-200,000	0,013	0,106
-175,212	163,866	0,024	0,025
-174,198	-88,771	0,070	0,015
-173,183	-200,000	-0,017	-0,098
-172,169	-200,000	-0,003	-0,020
-171,154	72,827	-0,052	-0,039
-170,139	800,000	0,045	0,133
-169,125	-50,166	0,120	0,041
-168,110	-200,000	-0,006	0,054
-167,096	-18,709	-0,055	0,025
-166,081	-70,102	-0,112	-0,031
-165,066	-103,167	0,051	0,009
-164,052	133,601	-0,077	0,072
-163,037	-200,000	0,014	0,050
-162,023	-61,506	-0,039	0,012
-161,008	-200,000	0,007	-0,038
-159,993	-200,000	0,017	-0,202
-158,979	-200,000	0,007	0,125
-157,964	42,494	0,072	0,047
-156,950	-200,000	0,049	-0,188
-155,935	42,798	0,079	-0,052
-154,920	-200,000	0,011	-0,091
-153,906	-86,154	-0,141	0,031
-152,891	800,000	-0,025	-0,059
-151,877	800,000	-0,044	-0,088
-150,862	-200,000	0,033	-0,110
-149,847	10,087	-0,102	-0,056
-148,833	-200,000	0,009	-0,124
-147,818	-63,038	0,081	-0,024
-146,804	-162,711	0,103	0,004
-145,789	121,598	-0,014	0,013
-144,775	-200,000	-0,004	-0,021
-143,760	168,253	-0,130	-0,134
-142,745	800,000	-0,031	0,065
-141,731	-200,000	-0,014	0,146
-140,716	-200,000	-0,007	-0,043
-139,702	-99,547	0,132	0,024
-138,687	-200,000	0,003	-0,065
-137,672	-107,606	0,062	-0,010
-136,658	286,030	0,033	-0,044
-135,643	-104,353	-0,111	-0,018
-134,629	-112,569	-0,101	-0,014
-133,614	-54,681	0,073	-0,024
-132,599	22,102	0,098	0,058
-131,585	-200,000	-0,002	-0,013
-130,570	-200,000	0,002	0,092
-129,556	-18,822	-0,093	0,041
-128,541	-200,000	0,000	-0,140
-127,526	-200,000	0,026	-0,090
-126,512	-81,288	-0,029	-0,007
-125,497	156,003	-0,058	0,057
-124,483	114,457	-0,076	0,067
-123,468	-153,614	0,042	-0,002
-122,453	-44,898	-0,138	-0,049
-121,439	-0,915	-0,151	0,077
-120,424	58,359	0,079	0,056
-119,410	3,255	-0,033	0,017
