DTS Sentinel unit serial number:	SN410029Multiplexer serial number:	ORYXHardware model number:	OX2-SRSoftware version number:	ORYX F/W v4,00 Oryx Data Collector v3.7.2.0data status	okinstallation	B5 Nyhavnadifferential loss correction	single-endedforward channel	channel 2reverse channel	N/Adate	2023/12/13time	05:57:13forward acquisition time	300,00reverse acquisition time	0,00gamma	499,1914k internal	0,3160k external	0,3160temperature offset calibration	1,0000default loss term (dB/km)	0,3820temperature slope calibration	1,0000multiplexer offset coefficient	1,0000multiplexer slope coefficient	1,0000fibre end	0,00T internal ref (°C)	13,81T ext. ref 1 (°C)	-2,64T ext. ref 2 (°C)	-2,95length (m)	temperature (°C)	Stokes	anti-Stokes-744,400	-138,609	0,046	0,004
-743,385	-56,806	-0,298	0,096
-742,371	-44,268	0,233	0,085
-741,356	-56,070	-0,292	0,095
-740,342	-200,000	0,039	0,139
-739,327	-193,513	-0,325	-0,002
-738,312	-126,057	0,113	-0,012
-737,298	-120,520	-0,216	-0,027
-736,283	-115,391	0,108	-0,015
-735,269	-113,152	-0,258	0,037
-734,254	69,446	0,039	-0,030
-733,239	-54,834	-0,535	-0,177
-732,225	44,917	0,150	-0,101
-731,210	37,057	-0,046	-0,030
-730,196	35,366	-0,058	-0,037
-729,181	-97,218	-0,087	0,017
-728,167	65,523	-0,063	-0,047
-727,152	117,852	0,037	-0,033
-726,137	4,277	-0,101	0,055
-725,123	67,915	-0,047	-0,035
-724,108	-89,800	-0,150	-0,032
-723,094	141,463	0,068	-0,066
-722,079	800,000	0,033	0,069
-721,064	71,424	-0,210	-0,160
-720,050	155,602	0,071	0,072
-719,035	-19,031	-0,113	0,052
-718,021	145,314	-0,095	-0,094
-717,006	532,457	-0,028	-0,048
-715,991	142,329	-0,088	-0,086
-714,977	-143,108	-0,166	-0,012
-713,962	-200,000	-0,004	0,064
-712,948	305,073	-0,047	-0,065
-711,933	-200,000	0,013	-0,048
-710,918	-66,123	-0,169	0,049
-709,904	220,088	-0,073	-0,086
-708,889	-200,000	-0,050	-0,184
-707,875	-200,000	-0,006	-0,059
-706,860	302,012	0,048	-0,066
-705,845	-200,000	0,004	-0,015
-704,831	-95,574	0,088	0,017
-703,816	800,000	-0,047	0,137
-702,802	-67,454	-0,017	-0,005
-701,787	609,030	-0,103	-0,190
-700,772	-200,000	-0,002	-0,025
-699,758	65,188	0,027	-0,020
-698,743	314,698	-0,039	-0,054
-697,729	591,821	-0,011	-0,020
-696,714	24,200	0,050	0,030
-695,699	429,811	-0,060	-0,096
-694,685	313,117	-0,039	-0,054
-693,670	225,268	-0,031	0,037
-692,656	-169,462	0,051	-0,001
-691,641	-43,529	0,113	-0,042
-690,627	-196,490	-0,102	-0,000
-689,612	247,289	-0,025	0,031
-688,597	800,000	0,036	-0,096
-687,583	323,585	0,039	-0,055
-686,568	800,000	-0,026	-0,060
-685,554	116,045	0,075	-0,068
-684,539	76,795	-0,105	-0,082
-683,524	-149,652	0,089	-0,005
-682,510	800,000	-0,052	0,162
-681,495	-182,968	-0,117	-0,001
-680,481	47,792	-0,063	-0,043
-679,466	18,722	-0,079	0,046
-678,451	19,995	-0,059	-0,035
-677,437	-200,000	0,015	-0,079
-676,422	539,887	-0,022	-0,038
-675,408	-200,000	0,014	0,059
-674,393	285,686	0,122	-0,161
-673,378	-179,176	-0,122	0,002
-672,364	189,776	0,065	-0,072
-671,349	133,845	-0,108	-0,103
-670,335	-135,875	-0,028	0,002
-669,320	521,595	-0,069	0,120
-668,305	-83,712	0,084	-0,019
-667,291	-200,000	0,015	0,119
-666,276	730,257	0,042	-0,083
-665,262	-72,491	-0,147	-0,040
-664,247	-139,043	-0,119	-0,009
-663,232	-100,079	0,113	-0,021
-662,218	-48,763	0,076	0,027
-661,203	279,887	-0,056	-0,074
-660,189	-19,600	0,022	0,010
-659,174	-49,860	-0,035	0,012
-658,159	611,355	0,009	0,017
-657,145	35,088	0,075	-0,048
-656,130	-36,634	-0,061	0,024
-655,116	-112,550	-0,053	-0,008
-654,101	100,911	-0,006	0,005
-653,086	-200,000	-0,013	-0,042
-652,072	-116,198	0,050	-0,007
-651,057	-73,599	-0,154	0,041
-650,043	523,086	0,050	-0,087
-649,028	800,000	-0,039	-0,095
-648,014	-16,008	-0,045	0,021
-646,999	-200,000	-0,036	0,187
-645,984	800,000	-0,025	-0,059
-644,970	-121,259	-0,180	0,022
-643,955	763,429	-0,055	-0,110
-642,941	800,000	0,016	-0,044
-641,926	-76,566	0,069	0,018
-640,911	800,000	-0,009	-0,024
-639,897	-160,791	0,075	0,003
-638,882	-123,259	-0,091	-0,011
-637,868	142,264	-0,064	-0,062
-636,853	42,874	-0,066	0,044
-635,838	-200,000	-0,013	0,141
-634,824	112,934	0,103	0,091
-633,809	-200,000	0,002	0,035
-632,795	-200,000	0,024	-0,124
-631,780	6,561	0,073	-0,040
-630,765	-200,000	0,005	0,144
-629,751	-200,000	-0,019	-0,087
-628,736	-200,000	-0,004	0,034
-627,722	-81,065	-0,175	-0,042
-626,707	94,681	-0,030	-0,025
-625,692	-46,399	0,009	0,003
-624,678	800,000	0,023	0,061
-623,663	284,084	-0,059	0,078
-622,649	-200,000	0,031	-0,114
-621,634	-64,590	-0,046	0,014
-620,619	133,877	-0,082	0,078
-619,605	62,069	0,077	-0,056
-618,590	4,037	0,017	0,009
-617,576	-200,000	0,000	-0,023
-616,561	-22,756	-0,176	0,078
-615,546	-200,000	0,021	0,096
-614,532	-200,000	-0,012	0,045
-613,517	-200,000	0,014	-0,099
-612,503	-200,000	-0,019	0,214
-611,488	-48,142	-0,067	0,023
-610,474	119,694	-0,071	0,064
-609,459	240,549	-0,080	0,098
-608,444	-19,039	-0,034	0,015
-607,430	650,676	0,024	-0,046
-606,415	614,216	0,035	-0,064
-605,401	800,000	0,039	0,089
-604,386	-54,133	-0,029	-0,010
-603,371	406,446	0,032	-0,049
-602,357	-200,000	-0,023	0,099
-601,342	-200,000	0,014	-0,052
-600,328	-109,788	-0,105	0,016
-599,313	-200,000	0,046	0,000
-598,298	5,335	0,081	-0,044
-597,284	-105,218	0,124	-0,021
-596,269	-200,000	-0,025	0,106
-595,255	-200,000	-0,006	-0,042
-594,240	-200,000	0,005	-0,096
-593,225	-200,000	0,001	-0,138
-592,211	800,000	0,058	-0,139
-591,196	-200,000	-0,010	-0,064
-590,182	-62,049	0,050	-0,015
-589,167	465,164	0,053	0,087
-588,152	345,719	-0,061	0,088
-587,138	-200,000	-0,018	0,079
-586,123	-30,900	-0,216	0,089
-585,109	-123,556	-0,196	-0,023
-584,094	-200,000	-0,008	0,205
-583,079	80,910	0,060	0,047
-582,065	800,000	-0,027	0,061
-581,050	-183,841	-0,049	0,001
-580,036	186,768	-0,034	-0,037
-579,021	774,155	-0,031	0,061
-578,006	137,917	0,097	0,094
-576,992	-200,000	0,013	0,046
-575,977	-200,000	-0,027	0,139
-574,963	-108,380	0,097	0,015
-573,948	-200,000	0,020	-0,128
-572,934	270,976	0,079	-0,103
-571,919	-68,447	-0,100	0,028
-570,904	39,603	-0,086	0,056
-569,890	-200,000	-0,011	-0,113
-568,875	135,007	0,026	-0,024
-567,861	-24,193	-0,094	-0,041
-566,846	298,002	-0,028	-0,038
-565,831	12,625	-0,153	0,086
-564,817	447,667	0,023	0,038
-563,802	800,000	-0,048	-0,130
-562,788	25,213	-0,180	-0,109
-561,773	70,962	0,033	0,025
-560,758	-19,055	-0,105	-0,048
-559,744	-48,313	-0,075	0,026
-558,729	7,219	0,048	0,026
-557,715	-200,000	-0,010	-0,041
-556,700	-200,000	0,023	-0,077
-555,685	165,619	-0,072	-0,075
-554,671	-37,010	-0,070	-0,027
-553,656	153,272	0,091	-0,091
-552,642	-11,686	0,078	-0,037
-551,627	167,785	0,052	0,054
-550,612	2,465	-0,107	0,057
-549,598	-86,282	0,112	0,025
-548,583	-200,000	0,001	0,047
-547,569	-200,000	0,140	0,000
-546,554	139,180	0,070	0,068
-545,539	508,374	-0,070	0,120
-544,525	-111,680	0,112	-0,016
-543,510	-200,000	-0,004	0,046
-542,496	182,389	-0,043	0,047
-541,481	397,883	0,048	-0,073
-540,466	-147,747	-0,073	-0,004
-539,452	155,427	0,024	0,024
-538,437	132,496	0,088	-0,083
-537,423	-15,065	0,085	-0,040
-536,408	800,000	-0,029	0,082
-535,393	316,190	-0,075	0,104
-534,379	-65,363	-0,104	-0,030
-533,364	-150,930	0,070	0,004
-532,350	0,479	0,086	0,045
-531,335	-79,037	0,094	0,023
-530,321	319,552	0,052	-0,072
-529,306	133,094	-0,068	0,064
-528,291	-200,000	-0,021	-0,105
-527,277	-82,416	-0,078	0,018
-526,262	553,733	0,009	-0,016
-525,248	-200,000	-0,004	-0,058
-524,233	800,000	-0,013	0,032
-523,218	800,000	-0,030	-0,073
-522,204	-200,000	-0,010	0,043
-521,189	-193,564	0,140	-0,001
-520,175	-200,000	-0,010	-0,135
-519,160	800,000	-0,037	-0,096
-518,145	388,814	-0,047	-0,072
-517,131	3,811	0,062	0,033
-516,116	-200,000	-0,031	0,137
-515,102	26,586	0,062	0,038
-514,087	800,000	-0,016	-0,049
-513,072	800,000	0,043	-0,102
-512,058	-200,000	0,009	-0,073
-511,043	67,192	-0,121	-0,090
-510,029	-68,827	0,171	-0,048
-509,014	198,422	0,096	0,108
-507,999	-200,000	-0,010	0,032
-506,985	158,195	0,078	0,079
-505,970	707,399	0,029	0,057
-504,956	362,427	-0,110	-0,162
-503,941	-200,000	0,000	-0,072
-502,926	-27,781	-0,141	-0,059
-501,912	-200,000	-0,061	0,000
-500,897	131,746	-0,067	-0,063
-499,883	-67,727	-0,115	0,033
-498,868	800,000	-0,018	-0,044
-497,853	-172,796	0,056	-0,001
-496,839	-200,000	-0,011	-0,066
-495,824	-45,680	0,075	0,027
-494,810	-4,287	-0,074	-0,037
-493,795	800,000	0,029	0,061
-492,781	-121,509	0,074	0,009
-491,766	-200,000	0,034	-0,136
-490,751	-124,120	0,083	0,009
-489,737	-7,409	-0,088	-0,043
-488,722	-83,387	0,032	0,007
-487,708	800,000	0,020	-0,046
-486,693	187,560	0,095	-0,104
-485,678	800,000	-0,020	-0,054
-484,664	-147,859	-0,137	0,008
-483,649	-65,102	0,095	0,028
-482,635	-38,326	-0,060	-0,023
-481,620	-200,000	0,010	0,075
-480,605	800,000	-0,049	0,108
-479,591	-158,037	0,047	0,002
-478,576	121,731	0,019	-0,017
-477,562	45,304	-0,067	0,045
-476,547	-200,000	-0,046	-0,186
-475,532	7,913	-0,100	-0,054
-474,518	-200,000	0,002	0,010
-473,503	-200,000	0,018	0,104
-472,489	512,868	-0,049	0,084
-471,474	-129,318	0,025	-0,003
-470,459	195,175	0,014	-0,016
-469,445	-36,880	-0,156	-0,061
-468,430	-139,991	-0,086	0,006
-467,416	-67,035	0,038	0,011
-466,401	-143,788	-0,035	-0,002
-465,386	461,711	0,031	0,051
-464,372	-105,252	0,071	-0,012
-463,357	28,588	-0,068	0,042
-462,343	-36,962	-0,117	0,045
-461,328	61,231	-0,150	-0,109
-460,313	-200,000	-0,007	-0,112
-459,299	272,927	0,009	0,011
-458,284	-29,782	-0,055	-0,023
-457,270	202,472	-0,065	0,073
-456,255	-186,033	0,032	0,000
-455,241	-200,000	-0,012	-0,040
-454,226	178,445	-0,086	-0,091
-453,211	-102,952	0,126	-0,022
-452,197	245,253	-0,068	-0,083
-451,182	-200,000	-0,001	-0,011
-450,168	781,575	0,029	0,059
-449,153	-1,793	-0,080	0,041
-448,138	236,710	-0,043	-0,052
-447,124	-50,932	0,080	0,027
-446,109	800,000	-0,005	-0,015
-445,095	-29,806	0,037	0,015
-444,080	-62,272	0,080	0,024
-443,065	-38,738	0,095	-0,036
-442,051	-52,084	-0,068	-0,023
-441,036	276,523	-0,008	0,010
-440,022	520,222	0,094	-0,162
-439,007	-36,046	0,115	0,045
-437,992	-88,914	0,062	-0,013
-436,978	-83,963	-0,079	-0,018
-435,963	48,791	-0,111	0,075
-434,949	-189,024	0,096	-0,001
-433,934	189,296	-0,071	-0,078
-432,919	-200,000	-0,024	-0,144
-431,905	36,791	0,080	-0,051
-430,890	800,000	-0,011	-0,027
-429,876	183,707	0,072	0,077
-428,861	322,602	0,049	0,067
-427,846	-186,677	-0,064	-0,001
-426,832	-200,000	0,014	-0,089
-425,817	-200,000	-0,009	0,072
-424,803	-104,416	0,008	-0,001
-423,788	-138,185	-0,201	0,016
-422,773	-200,000	0,011	-0,044
-421,759	-58,507	-0,068	-0,021
-420,744	-51,896	-0,076	0,025
-419,730	54,123	0,022	-0,015
-418,715	748,569	-0,077	-0,152
-417,701	-200,000	0,003	0,047
-416,686	-147,794	0,123	0,007
-415,671	-200,000	0,004	0,026
-414,657	141,255	0,098	-0,094
-413,642	64,162	0,048	0,035
-412,628	800,000	-0,043	0,109
-411,613	131,801	-0,060	0,056
-410,598	-200,000	-0,031	0,106
-409,584	-42,281	-0,030	0,011
-408,569	-44,518	0,117	0,042
-407,555	800,000	0,070	0,179
-406,540	-105,487	0,156	0,026
-405,525	-116,767	-0,085	0,011
-404,511	-200,000	-0,037	-0,189
-403,496	5,510	0,048	-0,026
-402,482	-95,398	0,079	-0,015
-401,467	-200,000	-0,012	-0,064
-400,452	800,000	-0,022	-0,057
-399,438	-200,000	-0,019	0,136
-398,423	-111,210	-0,029	-0,004
-397,409	-200,000	-0,008	-0,083
-396,394	-68,438	-0,038	-0,011
-395,379	-103,670	0,137	-0,023
-394,365	9,754	0,111	-0,061
-393,350	-200,000	-0,007	-0,059
-392,336	185,431	-0,044	-0,048
-391,321	628,848	0,081	-0,149
-390,306	-132,715	-0,074	-0,007
-389,292	36,694	-0,072	-0,046
-388,277	19,019	-0,032	-0,018
-387,263	800,000	0,014	0,038
-386,248	163,988	0,051	0,052
-385,233	59,113	0,072	0,052
-384,219	-47,088	-0,065	-0,023
-383,204	-200,000	-0,001	-0,121
-382,190	-200,000	-0,013	-0,180
-381,175	-200,000	-0,020	-0,072
-380,160	27,008	-0,038	0,023
-379,146	221,670	0,125	-0,146
-378,131	561,801	-0,090	-0,159
-377,117	368,582	0,060	-0,089
-376,102	-34,770	-0,074	0,029
-375,088	584,483	0,067	-0,120
-374,073	-61,337	-0,030	0,009
-373,058	111,133	-0,032	0,028
-372,044	-200,000	0,043	0,138
-371,029	-12,803	0,050	-0,024
-370,015	92,568	0,034	-0,028
-369,000	422,879	0,057	-0,089
-367,985	-33,715	0,046	0,019
-366,971	-200,000	-0,016	-0,089
-365,956	732,955	-0,056	-0,109
-364,942	-6,071	0,067	-0,033
-363,927	-200,000	0,024	0,118
-362,912	-79,585	0,130	-0,032
-361,898	-200,000	0,007	-0,061
-360,883	-200,000	0,000	-0,005
-359,869	126,611	0,072	0,066
-358,854	475,363	0,085	-0,139
-357,839	-200,000	0,008	-0,048
-356,825	143,352	0,021	0,020
-355,810	174,400	0,089	-0,093
-354,796	-34,159	-0,097	-0,038
-353,781	-124,114	0,052	0,006
-352,766	28,756	-0,017	0,010
-351,752	88,201	0,065	0,052
-350,737	123,880	0,216	0,196
-349,723	-183,289	-0,039	0,000
-348,708	800,000	0,019	-0,055
-347,693	36,151	-0,097	-0,062
-346,679	-200,000	0,010	-0,069
-345,664	28,288	0,037	0,023
-344,650	129,507	0,028	-0,026
-343,635	92,200	0,111	0,091
-342,620	500,866	0,009	0,015
-341,606	-63,172	0,137	0,041
-340,591	-200,000	-0,003	-0,088
-339,577	248,592	-0,058	0,071
-338,562	303,213	-0,033	-0,044
-337,548	800,000	-0,060	-0,163
-336,533	-116,796	-0,085	0,011
-335,518	800,000	0,021	0,063
-334,504	258,552	-0,061	0,077
-333,489	800,000	-0,035	-0,075
-332,475	123,794	-0,068	-0,062
-331,460	800,000	-0,016	-0,045
-330,445	64,337	0,073	-0,053
-329,431	-66,452	0,038	0,011
-328,416	-81,671	0,021	-0,005
-327,402	441,145	-0,085	0,135
-326,387	284,982	0,097	0,127
-325,372	-200,000	0,013	-0,067
-324,358	85,202	-0,065	-0,052
-323,343	-200,000	0,038	0,136
-322,329	800,000	0,055	0,131
-321,314	-200,000	-0,014	0,108
-320,299	-196,255	0,025	0,000
-319,285	140,478	0,047	0,045
-318,270	-200,000	0,003	0,115
-317,256	248,515	-0,030	-0,037
-316,241	44,526	-0,091	-0,061
-315,226	-53,264	-0,104	0,034
-314,212	200,981	0,064	0,071
-313,197	669,740	-0,105	0,198
-312,183	245,086	-0,052	-0,064
-311,168	-26,625	-0,056	0,024
-310,153	-200,000	0,034	-0,110
-309,139	-134,669	0,020	0,002
-308,124	355,015	-0,045	-0,065
-307,110	787,829	-0,052	0,104
-306,095	3,070	-0,105	-0,055
-305,080	358,966	0,060	0,087
-304,066	388,025	0,064	0,096
-303,051	-101,481	-0,083	-0,015
-302,037	56,986	0,076	0,053
-301,022	330,148	0,031	0,043
-300,008	-133,201	0,068	0,006
-298,993	3,960	-0,090	0,047
-297,978	118,890	-0,053	0,047
-296,964	54,830	0,096	-0,067
-295,949	-200,000	-0,015	0,066
-294,935	-82,930	-0,128	0,030
-293,920	-140,531	-0,095	-0,007
-292,905	308,632	0,085	0,115
-291,891	-200,000	0,014	0,089
-290,876	92,492	-0,035	0,029
-289,862	-98,907	0,068	0,012
-288,847	64,509	-0,093	0,068
-287,832	79,313	0,030	0,023
-286,818	-5,333	-0,056	-0,028
-285,803	-200,000	0,042	-0,276
-284,789	-200,000	-0,040	-0,136
-283,774	-200,000	-0,014	0,080
-282,759	-62,305	-0,066	0,020
-281,745	231,568	0,089	-0,105
-280,730	94,876	-0,021	0,017
-279,716	369,682	-0,044	0,065
-278,701	800,000	-0,019	0,040
-277,686	-133,654	0,058	0,005
-276,672	369,132	-0,021	0,031
-275,657	254,329	0,030	0,038
-274,643	-29,590	-0,146	0,060
-273,628	-175,889	-0,074	-0,001
-272,613	-111,994	-0,125	-0,018
-271,599	89,606	0,076	-0,061
-270,584	224,647	0,129	-0,151
-269,570	89,303	0,116	-0,094
-268,555	-68,160	0,063	-0,018
-267,540	-113,780	0,122	-0,017
-266,526	-200,000	-0,007	-0,096
-265,511	800,000	0,032	0,095
-264,497	31,050	0,136	-0,084
-263,482	-200,000	0,028	0,145
-262,467	-200,000	0,034	0,197
-261,453	91,055	0,087	-0,071
-260,438	125,370	-0,074	0,068
-259,424	-200,000	-0,005	0,042
-258,409	-200,000	-0,018	0,129
-257,395	131,280	0,177	0,164
-256,380	133,460	0,021	-0,020
-255,365	800,000	-0,018	-0,038
-254,351	-200,000	-0,014	-0,070
-253,336	247,982	-0,067	-0,082
-252,322	-146,230	-0,058	-0,004
-251,307	-58,459	0,115	-0,036
-250,292	-45,048	0,126	-0,045
-249,278	800,000	-0,027	0,075
-248,263	-200,000	-0,029	0,144
-247,249	-77,575	0,038	-0,009
-246,234	228,463	-0,048	-0,057
-245,219	238,292	-0,086	0,103
-244,205	183,946	-0,035	-0,037
-243,190	-84,200	0,043	-0,010
-242,176	800,000	-0,025	-0,054
-241,161	-179,760	0,212	-0,003
-240,146	172,378	-0,098	0,102
-239,132	-38,119	0,077	-0,029
-238,117	-27,861	-0,085	-0,036
-237,103	-47,292	-0,106	-0,037
-236,088	-200,000	0,029	-0,188
-235,073	-119,895	0,088	0,011
-234,059	-145,040	0,092	0,006
-233,044	-14,006	0,141	0,065
-232,030	-81,511	0,055	-0,013
-231,015	258,966	0,069	0,086
-230,000	-109,937	-0,098	0,015
-228,986	375,352	-0,110	0,163
-227,971	-75,283	-0,061	0,016
-226,957	-200,000	0,003	0,156
-225,942	-200,000	-0,016	0,075
-224,927	-25,118	-0,086	0,037
-223,913	-200,000	0,001	0,204
-222,898	29,372	0,081	-0,050
-221,884	20,308	0,080	0,047
-220,869	-93,812	0,009	-0,002
-219,855	-157,474	0,088	-0,004
-218,840	-19,686	-0,072	-0,032
-217,825	61,561	0,056	-0,040
-216,811	-49,093	-0,065	0,022
-215,796	461,667	0,076	-0,122
-214,782	-200,000	-0,002	-0,043
-213,767	128,344	-0,062	0,057
-212,752	-48,159	-0,068	0,024
-211,738	-53,721	-0,137	-0,045
-210,723	-200,000	0,020	-0,072
-209,709	-200,000	-0,004	0,097
-208,694	120,359	-0,017	0,015
-207,679	-69,244	0,133	0,037
-206,665	225,926	0,044	-0,052
-205,650	299,402	0,067	0,090
-204,636	104,449	0,044	0,037
-203,621	75,288	0,051	0,039
-202,606	338,149	-0,034	-0,047
-201,592	-200,000	-0,011	-0,102
-200,577	-200,000	0,008	-0,064
-199,563	-99,685	0,083	0,015
-198,548	-2,568	-0,039	-0,020
-197,533	-128,893	0,100	0,010
-196,519	-200,000	-0,016	-0,084
-195,504	-98,469	-0,088	-0,016
-194,490	-200,000	-0,022	-0,164
-193,475	281,958	0,083	-0,107
-192,460	164,915	-0,079	0,081
-191,446	128,264	0,069	0,064
-190,431	-200,000	0,023	0,219
-189,417	339,774	0,048	0,067
-188,402	-200,000	0,030	-0,120
-187,387	-69,915	0,053	-0,014
-186,373	-200,000	-0,009	0,033
-185,358	432,413	0,026	-0,041
-184,344	800,000	0,031	0,085
-183,329	128,849	0,037	0,034
-182,315	800,000	-0,038	0,120
-181,300	593,719	-0,034	-0,061
-180,285	203,385	-0,095	0,106
-179,271	121,146	0,036	-0,033
-178,256	-63,705	0,120	0,035
-177,242	49,225	0,041	0,027
-176,227	50,526	-0,082	0,056
-175,212	-200,000	-0,026	0,097
-174,198	800,000	-0,026	0,079
-173,183	800,000	-0,040	0,120
-172,169	349,480	0,117	-0,166
-171,154	-200,000	0,024	-0,085
-170,139	-75,387	-0,062	-0,016
-169,125	800,000	0,025	0,067
-168,110	342,125	-0,083	0,117
-167,096	583,755	-0,025	0,045
-166,081	105,944	-0,033	-0,028
-165,066	800,000	-0,055	-0,113
-164,052	297,297	-0,103	0,136
-163,037	-200,000	0,015	0,065
-162,023	436,102	0,072	-0,114
-161,008	-121,461	0,097	-0,012
-159,993	98,969	0,057	0,047
-158,979	-200,000	-0,005	0,098
-157,964	343,261	0,051	-0,072
-156,950	223,828	-0,033	-0,038
-155,935	116,824	-0,060	0,053
-154,920	-54,942	0,077	0,025
-153,906	166,470	0,078	-0,079
-152,891	243,155	-0,064	-0,077
-151,877	-200,000	0,010	0,084
-150,862	-59,372	-0,100	0,031
-149,847	-200,000	0,001	-0,037
-148,833	-200,000	-0,036	-0,129
-147,818	103,572	0,135	0,114
-146,804	-200,000	0,020	-0,189
-145,789	160,815	0,064	0,065
-144,775	800,000	-0,043	-0,099
-143,760	-200,000	0,005	-0,023
-142,745	-29,183	-0,147	-0,060
-141,731	177,086	0,076	-0,080
-140,716	-200,000	0,017	0,066
-139,702	-200,000	-0,006	-0,061
-138,687	800,000	0,007	0,016
-137,672	180,137	0,077	-0,082
-136,658	422,105	-0,052	-0,081
-135,643	-102,664	-0,084	0,014
-134,629	-41,969	0,030	0,011
-133,614	-200,000	-0,016	0,106
-132,599	22,322	-0,012	-0,007
-131,585	289,066	-0,063	0,083
-130,570	446,140	0,023	-0,036
-129,556	800,000	0,022	-0,056
-128,541	73,911	-0,055	0,042
-127,526	-133,425	-0,040	0,004
-126,512	0,758	-0,070	0,036
-125,497	800,000	0,069	0,190
-124,483	-184,824	0,112	-0,001
-123,468	420,469	-0,032	0,049
-122,453	-200,000	-0,016	-0,092
-121,439	-200,000	-0,007	-0,053
-120,424	44,032	-0,104	0,068
