DTS Sentinel unit serial number:	SN410029Multiplexer serial number:	ORYXHardware model number:	OX2-SRSoftware version number:	ORYX F/W v4,00 Oryx Data Collector v3.7.2.0data status	okinstallation	B5 Nyhavnadifferential loss correction	single-endedforward channel	channel 2reverse channel	N/Adate	2023/12/12time	10:07:13forward acquisition time	300,00reverse acquisition time	0,00gamma	499,1914k internal	0,3158k external	0,3158temperature offset calibration	1,0000default loss term (dB/km)	0,3820temperature slope calibration	1,0000multiplexer offset coefficient	1,0000multiplexer slope coefficient	1,0000fibre end	0,00T internal ref (°C)	15,00T ext. ref 1 (°C)	-1,31T ext. ref 2 (°C)	-1,61length (m)	temperature (°C)	Stokes	anti-Stokes-744,400	151,152	0,031	-0,031
-743,385	-139,359	-0,283	0,022
-742,371	166,103	0,053	0,055
-741,356	-168,145	-0,211	-0,006
-740,342	-27,659	0,123	0,052
-739,327	-121,556	-0,377	0,046
-738,312	-8,126	0,093	0,046
-737,298	-106,326	-0,292	0,048
-736,283	-94,317	0,160	0,032
-735,269	-89,046	-0,318	0,069
-734,254	-200,000	-0,026	0,145
-733,239	-51,045	-0,469	-0,161
-732,225	-141,269	0,144	-0,011
-731,210	369,911	-0,033	0,049
-730,196	-200,000	-0,024	0,116
-729,181	399,698	-0,032	-0,050
-728,167	-200,000	-0,008	0,086
-727,152	63,426	0,047	-0,035
-726,137	470,366	-0,084	-0,139
-725,123	106,084	-0,090	0,079
-724,108	162,379	-0,068	-0,070
-723,094	-16,878	-0,041	0,019
-722,079	389,438	0,086	-0,132
-721,064	-200,000	0,014	-0,090
-720,050	24,261	-0,196	-0,119
-719,035	57,072	-0,021	0,015
-718,021	-200,000	0,030	-0,113
-717,006	10,157	-0,053	-0,030
-715,991	5,524	-0,036	0,020
-714,977	5,531	-0,080	0,043
-713,962	69,984	-0,007	-0,005
-712,948	-186,469	0,128	0,001
-711,933	-29,021	-0,146	0,061
-710,918	-200,000	0,007	0,040
-709,904	201,771	-0,131	0,149
-708,889	-126,158	-0,129	-0,014
-707,875	800,000	0,003	0,009
-706,860	800,000	-0,033	0,069
-705,845	-200,000	-0,027	0,116
-704,831	800,000	-0,046	-0,107
-703,816	623,312	-0,034	0,064
-702,802	220,220	-0,029	0,034
-701,787	-96,203	-0,123	-0,024
-700,772	-124,225	0,079	-0,009
-699,758	-29,484	-0,088	0,037
-698,743	21,544	0,139	-0,083
-697,729	369,474	-0,066	-0,099
-696,714	-200,000	-0,009	0,094
-695,699	248,790	-0,028	-0,035
-694,685	151,913	-0,031	0,031
-693,670	-2,379	-0,088	-0,045
-692,656	-81,994	-0,016	-0,004
-691,641	215,181	0,025	0,030
-690,627	800,000	0,064	0,141
-689,612	-70,774	0,065	-0,018
-688,597	427,718	0,039	0,062
-687,583	65,421	-0,086	-0,064
-686,568	-104,799	-0,140	-0,023
-685,554	-200,000	0,005	-0,098
-684,539	350,028	-0,010	0,014
-683,524	179,494	0,022	-0,024
-682,510	3,971	0,157	-0,084
-681,495	-31,343	0,031	-0,013
-680,481	673,858	-0,072	-0,137
-679,466	-25,710	-0,077	-0,033
-678,451	800,000	-0,022	-0,063
-677,437	45,755	-0,048	0,033
-676,422	800,000	-0,015	0,038
-675,408	75,662	0,119	0,092
-674,393	36,434	-0,128	0,083
-673,378	-149,352	-0,136	0,008
-672,364	-85,085	0,048	-0,011
-671,349	800,000	-0,045	0,102
-670,335	-35,832	0,045	0,018
-669,320	-94,714	0,069	0,014
-668,305	-59,979	-0,043	0,014
-667,291	-35,010	0,051	0,020
-666,276	800,000	0,004	0,009
-665,262	486,801	-0,081	-0,136
-664,247	-143,229	-0,102	-0,007
-663,232	-67,888	-0,134	-0,038
-662,218	-200,000	-0,000	-0,100
-661,203	-13,573	-0,111	-0,053
-660,189	-200,000	-0,002	0,008
-659,174	500,860	-0,024	-0,041
-658,159	-43,605	0,003	-0,001
-657,145	30,761	-0,026	-0,016
-656,130	11,728	0,041	-0,023
-655,116	-158,575	0,087	0,004
-654,101	-104,393	0,041	0,007
-653,086	800,000	0,074	0,189
-652,072	78,863	0,013	0,011
-651,057	22,753	0,075	0,045
-650,043	-200,000	0,011	-0,109
-649,028	267,559	0,025	0,032
-648,014	-6,277	0,037	-0,019
-646,999	23,658	0,064	-0,038
-645,984	-114,675	0,118	0,016
-644,970	-71,354	-0,117	0,032
-643,955	2,133	-0,088	0,047
-642,941	-200,000	0,009	-0,093
-641,926	-200,000	-0,005	0,051
-640,911	-149,849	-0,045	0,003
-639,897	-55,516	0,147	-0,048
-638,882	-200,000	0,003	0,103
-637,868	-200,000	-0,001	-0,012
-636,853	-200,000	-0,008	-0,050
-635,838	598,785	-0,073	-0,134
-634,824	457,208	0,031	-0,050
-633,809	374,941	-0,032	0,048
-632,795	-200,000	-0,012	0,072
-631,780	702,333	0,015	0,029
-630,765	-88,322	0,016	0,003
-629,751	-200,000	0,018	-0,154
-628,736	28,195	-0,053	0,033
-627,722	285,859	0,079	-0,104
-626,707	1,627	0,066	-0,035
-625,692	0,086	0,017	-0,009
-624,678	-74,942	0,066	-0,017
-623,663	800,000	0,041	0,120
-622,649	178,330	0,110	0,118
-621,634	-190,924	0,099	-0,001
-620,619	-27,662	-0,044	0,019
-619,605	153,980	-0,114	0,115
-618,590	800,000	0,018	0,059
-617,576	47,142	-0,092	0,063
-616,561	451,647	-0,047	0,076
-615,546	134,726	0,073	-0,070
-614,532	19,548	-0,156	0,092
-613,517	78,227	-0,046	0,036
-612,503	116,411	-0,094	-0,085
-611,488	200,724	0,111	-0,125
-610,474	560,485	0,015	0,027
-609,459	-65,414	-0,151	0,044
-608,444	-200,000	-0,009	-0,118
-607,430	-200,000	-0,007	-0,125
-606,415	31,139	-0,016	-0,010
-605,401	81,756	0,102	0,081
-604,386	-200,000	-0,010	0,051
-603,371	27,578	-0,073	0,045
-602,357	-145,475	-0,103	-0,007
-601,342	-67,371	-0,195	-0,056
-600,328	-155,993	-0,051	-0,002
-599,313	19,293	-0,032	-0,019
-598,298	-84,050	-0,132	0,031
-597,284	63,915	0,039	0,029
-596,269	800,000	0,052	-0,105
-595,255	-200,000	-0,006	-0,107
-594,240	257,226	-0,099	-0,125
-593,225	-61,866	0,076	-0,023
-592,211	325,392	-0,045	-0,063
-591,196	186,791	0,075	0,081
-590,182	-31,001	-0,078	-0,032
-589,167	-109,192	0,076	-0,012
-588,152	101,328	0,016	0,013
-587,138	800,000	-0,030	-0,089
-586,123	246,896	0,049	-0,061
-585,109	-200,000	-0,007	-0,037
-584,094	341,308	-0,083	0,119
-583,079	149,306	0,082	0,082
-582,065	-24,507	-0,037	0,016
-581,050	-200,000	0,002	0,047
-580,036	-21,066	-0,084	0,038
-579,021	-20,442	-0,127	0,057
-578,006	-147,885	-0,054	0,003
-576,992	614,143	0,055	0,102
-575,977	158,614	-0,099	-0,101
-574,963	221,196	0,070	0,082
-573,948	-65,845	0,034	-0,010
-572,934	-42,803	0,078	-0,029
-571,919	-200,000	0,006	-0,052
-570,904	457,574	-0,029	-0,048
-569,890	74,633	0,047	-0,036
-568,875	-34,574	0,084	0,033
-567,861	800,000	0,064	0,137
-566,846	800,000	0,044	0,114
-565,831	800,000	0,044	0,133
-564,817	-82,006	-0,112	0,026
-563,802	512,428	-0,071	-0,122
-562,788	188,920	-0,032	-0,035
-561,773	524,249	-0,010	-0,018
-560,758	-65,525	0,114	0,033
-559,744	-200,000	-0,005	0,088
-558,729	147,730	-0,041	0,040
-557,715	185,820	0,127	-0,139
-556,700	303,383	-0,093	-0,126
-555,685	-91,323	0,060	-0,012
-554,671	99,782	0,038	-0,032
-553,656	506,990	0,033	-0,056
-552,642	173,530	-0,065	0,069
-551,627	115,255	0,088	0,078
-550,612	800,000	0,037	-0,093
-549,598	22,955	-0,152	-0,091
-548,583	-200,000	-0,026	0,113
-547,569	-17,872	-0,082	-0,037
-546,554	-96,960	0,047	-0,009
-545,539	-137,469	0,124	0,010
-544,525	-59,440	-0,080	-0,025
-543,510	-200,000	0,013	-0,107
-542,496	800,000	-0,047	0,118
-541,481	-16,335	-0,144	-0,066
-540,466	-174,121	-0,046	-0,001
-539,452	800,000	-0,033	0,090
-538,437	1,208	0,080	-0,042
-537,423	6,518	0,087	-0,047
-536,408	-108,005	-0,161	-0,025
-535,393	-200,000	0,008	-0,043
-534,379	-200,000	-0,011	-0,074
-533,364	271,853	-0,054	-0,070
-532,350	16,206	0,075	-0,043
-531,335	-200,000	-0,028	-0,103
-530,321	-134,247	0,115	0,010
-529,306	-200,000	0,013	0,105
-528,291	648,196	-0,036	-0,068
-527,277	-38,494	0,095	-0,037
-526,262	-128,210	-0,023	0,002
-525,248	47,391	-0,127	0,086
-524,233	-60,631	0,062	0,019
-523,218	5,613	-0,090	-0,048
-522,204	-200,000	0,028	-0,150
-521,189	-92,955	-0,072	0,015
-520,175	-127,966	-0,109	0,011
-519,160	383,451	-0,038	-0,057
-518,145	-200,000	-0,015	0,081
-517,131	171,163	0,031	-0,033
-516,116	800,000	0,040	0,094
-515,102	-124,689	-0,045	0,005
-514,087	-51,837	-0,079	-0,027
-513,072	70,341	-0,060	-0,045
-512,058	469,010	0,050	0,083
-511,043	800,000	-0,039	-0,088
-510,029	183,241	0,104	0,112
-509,014	800,000	-0,010	-0,032
-507,999	800,000	0,034	0,082
-506,985	-200,000	-0,012	0,047
-505,970	800,000	0,047	-0,096
-504,956	241,653	-0,020	0,024
-503,941	-77,889	-0,053	-0,013
-502,926	101,875	0,052	-0,045
-501,912	133,312	-0,060	0,056
-500,897	-138,734	0,127	-0,010
-499,883	37,174	-0,094	0,061
-498,868	-150,363	0,134	-0,007
-497,853	-7,113	-0,098	-0,048
-496,839	236,323	-0,006	-0,007
-495,824	-106,582	-0,073	0,012
-494,810	-200,000	-0,030	-0,158
-493,795	-129,697	-0,139	-0,014
-492,781	-200,000	0,004	0,032
-491,766	15,691	0,065	0,037
-490,751	800,000	-0,045	0,142
-489,737	23,949	-0,080	-0,048
-488,722	208,669	0,061	-0,070
-487,708	39,094	0,051	-0,033
-486,693	-95,666	0,123	0,024
-485,678	140,071	-0,043	0,042
-484,664	-52,005	-0,034	-0,011
-483,649	457,726	0,043	-0,069
-482,635	444,888	0,047	-0,075
-481,620	-105,819	-0,051	-0,008
-480,605	-11,669	0,120	0,057
-479,591	-200,000	-0,015	0,057
-478,576	256,541	-0,060	0,076
-477,562	800,000	0,011	-0,029
-476,547	-200,000	0,011	-0,055
-475,532	19,206	-0,081	-0,047
-474,518	-73,469	0,065	0,017
-473,503	-200,000	-0,007	-0,043
-472,489	170,740	0,124	0,129
-471,474	800,000	-0,048	0,100
-470,459	10,180	-0,150	0,083
-469,445	21,011	0,024	0,014
-468,430	-200,000	0,014	-0,059
-467,416	306,365	0,051	0,069
-466,401	800,000	0,019	0,050
-465,386	147,600	0,058	-0,057
-464,372	275,541	0,092	0,119
-463,357	-8,297	-0,096	0,047
-462,343	-200,000	-0,036	0,127
-461,328	-78,578	0,025	0,006
-460,313	800,000	0,014	-0,029
-459,299	-200,000	-0,002	0,007
-458,284	-78,196	0,068	0,017
-457,270	-200,000	-0,023	-0,146
-456,255	800,000	0,065	-0,192
-455,241	590,255	0,053	-0,096
-454,226	64,012	0,042	0,030
-453,211	-200,000	0,015	-0,099
-452,197	-47,085	0,061	0,022
-451,182	347,594	-0,056	0,081
-450,168	44,858	0,082	0,055
-449,153	-40,845	-0,163	0,061
-448,138	129,636	-0,042	-0,039
-447,124	116,353	0,027	0,024
-446,109	-176,980	0,098	0,002
-445,095	-48,306	0,048	0,017
-444,080	-47,020	0,066	-0,023
-443,065	288,350	0,084	0,111
-442,051	800,000	-0,028	-0,090
-441,036	518,813	-0,056	-0,095
-440,022	-124,901	0,104	0,012
-439,007	-106,106	-0,105	0,017
-437,992	8,410	-0,073	0,040
-436,978	-200,000	0,002	0,079
-435,963	463,633	0,069	0,113
-434,949	800,000	-0,028	-0,086
-433,934	-200,000	0,020	-0,100
-432,919	394,891	-0,062	-0,094
-431,905	377,803	0,071	-0,106
-430,890	-8,850	0,014	0,007
-429,876	95,641	-0,041	-0,034
-428,861	-35,148	0,036	-0,014
-427,846	406,653	0,037	0,056
-426,832	-198,174	-0,048	-0,000
-425,817	104,428	0,115	-0,099
-424,803	-200,000	0,022	-0,079
-423,788	23,584	0,088	0,053
-422,773	-200,000	0,005	0,083
-421,759	-68,370	-0,106	0,030
-420,744	177,563	-0,036	-0,039
-419,730	185,524	-0,060	0,065
-418,715	-121,110	0,016	-0,002
-417,701	800,000	0,047	0,097
-416,686	14,501	-0,073	-0,041
-415,671	-200,000	0,002	-0,033
-414,657	35,320	-0,106	0,068
-413,642	573,868	-0,084	-0,151
-412,628	-200,000	0,033	0,130
-411,613	800,000	0,026	0,062
-410,598	51,263	-0,010	0,007
-409,584	109,119	0,061	0,053
-408,569	148,588	0,058	0,057
-407,555	427,908	-0,046	0,073
-406,540	77,423	-0,038	-0,030
-405,525	99,739	-0,147	-0,124
-404,511	324,442	0,044	-0,061
-403,496	114,477	0,077	0,068
-402,482	-120,154	0,163	0,020
-401,467	800,000	-0,032	0,073
-400,452	639,226	0,020	0,037
-399,438	298,732	-0,049	0,065
-398,423	312,475	0,053	-0,072
-397,409	-84,922	-0,055	-0,012
-396,394	-200,000	-0,040	-0,146
-395,379	-200,000	0,017	0,110
-394,365	43,548	0,083	0,055
-393,350	539,435	0,014	0,024
-392,336	-140,620	-0,094	-0,007
-391,321	800,000	0,015	-0,040
-390,306	697,917	-0,024	0,046
-389,292	-106,474	-0,091	0,015
-388,277	-16,786	0,054	0,025
-387,263	800,000	-0,026	-0,066
-386,248	-200,000	-0,023	0,075
-385,233	87,340	0,002	0,002
-384,219	-67,296	-0,083	-0,024
-383,204	-200,000	-0,005	-0,020
-382,190	-20,494	-0,070	0,031
-381,175	800,000	-0,023	-0,074
-380,160	800,000	0,078	0,179
-379,146	646,517	-0,009	0,017
-378,131	-200,000	-0,004	-0,050
-377,117	-101,098	-0,038	-0,007
-376,102	-200,000	-0,012	-0,121
-375,088	-200,000	-0,025	-0,122
-374,073	-200,000	-0,014	-0,167
-373,058	800,000	-0,058	0,127
-372,044	96,914	-0,077	0,064
-371,029	136,344	0,056	-0,053
-370,015	-200,000	0,040	0,143
-369,000	3,233	-0,136	-0,072
-367,985	-200,000	0,014	-0,164
-366,971	91,969	-0,090	-0,074
-365,956	-200,000	0,031	-0,102
-364,942	800,000	0,060	0,169
-363,927	-162,856	0,133	-0,005
-362,912	-200,000	0,024	0,104
-361,898	-200,000	0,015	-0,084
-360,883	-30,667	0,087	0,036
-359,869	-200,000	-0,019	0,094
-358,854	267,507	0,123	0,156
-357,839	-200,000	-0,016	0,107
-356,825	41,463	0,051	-0,034
-355,810	-130,472	-0,059	-0,006
-354,796	-200,000	-0,013	0,054
-353,781	116,859	0,037	-0,033
-352,766	-100,378	-0,129	-0,023
-351,752	800,000	0,037	-0,095
-350,737	83,740	-0,031	-0,025
-349,723	800,000	-0,022	0,051
-348,708	800,000	0,055	0,136
-347,693	-18,611	0,045	-0,020
-346,679	-76,194	-0,071	0,018
-345,664	-99,686	-0,119	0,021
-344,650	390,019	0,011	0,017
-343,635	-116,241	0,071	0,009
-342,620	-92,988	-0,030	-0,006
-341,606	-150,896	0,108	0,006
-340,591	189,641	-0,083	-0,091
-339,577	-62,972	-0,089	0,027
-338,562	40,172	-0,053	-0,035
-337,548	-49,950	-0,115	0,039
-336,533	143,730	0,079	-0,077
-335,518	220,075	-0,073	-0,085
-334,504	-200,000	0,023	-0,112
-333,489	-119,652	-0,138	0,017
-332,475	-24,527	-0,181	-0,078
-331,460	252,986	-0,058	-0,072
-330,445	223,182	-0,040	0,047
-329,431	-182,102	0,066	0,001
-328,416	800,000	-0,056	0,124
-327,402	-74,435	0,091	0,024
-326,387	97,947	-0,077	-0,064
-325,372	43,228	-0,093	0,062
-324,358	421,274	-0,068	-0,106
-323,343	42,467	-0,055	0,036
-322,329	-60,967	0,122	0,037
-321,314	-200,000	-0,027	0,129
-320,299	-200,000	-0,001	0,035
-319,285	35,442	0,085	0,054
-318,270	-79,573	-0,075	-0,018
-317,256	-200,000	-0,001	-0,052
-316,241	-200,000	-0,024	-0,088
-315,226	83,989	0,201	0,159
-314,212	-200,000	0,011	0,072
-313,197	335,546	0,043	0,060
-312,183	-200,000	0,005	0,097
-311,168	-200,000	0,015	-0,061
-310,153	-200,000	-0,001	0,081
-309,139	329,830	0,037	-0,051
-308,124	800,000	0,009	0,022
-307,110	-61,198	-0,076	-0,023
-306,095	3,089	-0,137	-0,072
-305,080	800,000	-0,064	0,169
-304,066	145,907	0,083	0,080
-303,051	-200,000	0,031	0,129
-302,037	105,033	-0,078	0,067
-301,022	55,766	0,132	-0,093
-300,008	-200,000	-0,003	0,183
-298,993	28,964	0,037	-0,023
-297,978	800,000	-0,030	0,089
-296,964	614,266	0,090	0,164
-295,949	800,000	-0,035	-0,070
-294,935	1,513	0,015	0,008
-293,920	634,254	0,038	-0,070
-292,905	-200,000	0,013	0,061
-291,891	283,264	-0,059	0,076
-290,876	-200,000	0,019	0,134
-289,862	800,000	-0,012	-0,025
-288,847	55,953	-0,154	-0,108
-287,832	-200,000	0,047	-0,159
-286,818	-3,836	0,148	-0,074
-285,803	-200,000	-0,007	-0,039
-284,789	-23,325	0,159	-0,069
-283,774	-40,304	0,109	-0,041
-282,759	-12,601	-0,164	-0,077
-281,745	-93,607	0,049	0,010
-280,730	-123,964	0,101	-0,011
-279,716	248,973	0,060	-0,074
-278,701	-200,000	0,004	0,056
-277,686	407,597	-0,095	-0,146
-276,672	-200,000	-0,022	-0,074
-275,657	482,260	-0,018	-0,030
-274,643	17,625	0,028	-0,016
-273,628	-130,802	-0,143	0,014
-272,613	21,877	-0,071	-0,042
-271,599	145,870	0,090	0,087
-270,584	42,670	-0,083	-0,055
-269,570	-200,000	-0,003	-0,071
-268,555	-30,084	0,161	-0,066
-267,540	800,000	-0,005	-0,015
-266,526	-102,615	-0,094	0,016
-265,511	800,000	0,080	-0,187
-264,497	800,000	-0,016	0,049
-263,482	-99,473	0,032	-0,006
-262,467	-75,921	0,126	0,032
-261,453	-34,754	-0,048	0,019
-260,438	-200,000	0,017	-0,194
-259,424	-123,010	-0,033	0,004
-258,409	-130,708	-0,115	0,011
-257,395	800,000	0,005	0,011
-256,380	-200,000	0,016	-0,150
-255,365	124,968	0,057	-0,052
-254,351	69,055	0,086	-0,064
-253,336	223,517	0,017	-0,020
-252,322	-25,142	0,049	-0,021
-251,307	-200,000	-0,010	0,053
-250,292	17,715	-0,023	-0,013
-249,278	-65,339	0,094	0,027
-248,263	-34,504	0,025	-0,010
-247,249	800,000	0,053	0,111
-246,234	-6,141	0,044	-0,022
-245,219	516,596	-0,048	-0,081
-244,205	-28,688	0,115	0,048
-243,190	417,565	0,082	0,127
-242,176	99,804	0,073	-0,061
-241,161	800,000	-0,013	0,035
-240,146	2,175	-0,093	-0,048
-239,132	97,545	0,056	-0,046
-238,117	-200,000	-0,011	-0,111
-237,103	-33,082	0,036	-0,015
-236,088	-200,000	-0,006	-0,034
-235,073	176,930	0,108	0,114
-234,059	51,832	0,085	0,058
-233,044	800,000	-0,027	0,054
-232,030	-200,000	0,021	0,082
-231,015	192,689	0,065	-0,071
-230,000	-200,000	-0,005	-0,250
-228,986	-65,810	0,087	-0,025
-227,971	800,000	0,050	-0,135
-226,957	168,061	0,047	0,049
-225,942	-35,021	0,079	0,031
-224,927	62,666	-0,027	-0,020
-223,913	-200,000	-0,009	-0,148
-222,898	-89,965	0,038	0,008
-221,884	-166,313	-0,151	-0,005
-220,869	-69,778	0,053	-0,015
-219,855	726,908	0,037	0,071
-218,840	278,540	-0,088	0,114
-217,825	800,000	0,015	0,047
-216,811	-200,000	-0,031	0,118
-215,796	769,191	-0,021	0,042
-214,782	-70,675	-0,033	-0,009
-213,767	32,917	0,038	0,023
-212,752	-84,426	0,098	-0,022
-211,738	-10,835	-0,026	0,012
-210,723	-53,868	-0,056	-0,018
-209,709	-39,254	-0,040	-0,015
-208,694	7,368	-0,084	-0,045
-207,679	83,369	-0,049	-0,039
-206,665	-91,342	0,176	-0,036
-205,650	-200,000	0,006	0,115
-204,636	-86,450	0,037	-0,008
-203,621	74,827	-0,159	0,121
-202,606	11,872	0,123	0,068
-201,592	-200,000	0,003	-0,032
-200,577	-200,000	-0,017	-0,107
-199,563	-200,000	0,012	-0,164
-198,548	-124,363	0,147	-0,016
-197,533	-52,132	0,047	0,016
-196,519	-17,779	0,044	0,020
-195,504	800,000	0,075	0,166
-194,490	-4,534	0,132	0,066
-193,475	330,056	0,019	-0,027
-192,460	43,876	-0,057	0,037
-191,446	-19,479	0,073	-0,033
-190,431	800,000	-0,079	0,194
-189,417	347,179	-0,020	0,028
-188,402	-74,491	-0,136	0,035
-187,387	257,452	0,042	-0,052
-186,373	-200,000	0,019	-0,112
-185,358	-124,108	0,112	-0,013
-184,344	122,822	0,071	0,064
-183,329	94,053	-0,085	-0,069
-182,315	800,000	0,016	-0,035
-181,300	-91,128	0,046	0,009
-180,285	664,558	0,019	-0,035
-179,271	275,977	-0,055	0,071
-178,256	-116,640	0,089	-0,012
-177,242	-200,000	-0,006	0,067
-176,227	800,000	0,030	-0,065
-175,212	800,000	0,054	-0,110
-174,198	-93,953	-0,118	0,023
-173,183	-200,000	0,002	0,047
-172,169	14,668	-0,049	0,028
-171,154	-42,833	0,012	0,004
-170,139	800,000	0,040	-0,085
-169,125	80,019	-0,059	0,046
-168,110	800,000	-0,016	0,048
-167,096	-3,508	0,150	0,075
-166,081	89,180	-0,084	-0,067
-165,066	-200,000	-0,013	0,052
-164,052	800,000	0,025	0,079
-163,037	800,000	-0,021	0,062
-162,023	-200,000	0,016	-0,070
-161,008	-70,411	-0,081	0,022
-159,993	79,401	0,017	-0,013
-158,979	-78,187	-0,043	-0,011
-157,964	686,335	-0,027	-0,051
-156,950	-98,532	-0,134	-0,024
-155,935	634,835	-0,067	0,123
-154,920	-200,000	0,061	0,210
-153,906	145,665	0,028	-0,027
-152,891	-67,598	-0,115	-0,032
-151,877	69,813	-0,142	0,105
-150,862	-16,176	0,036	0,017
-149,847	-75,131	-0,116	-0,030
-148,833	749,902	0,032	-0,062
-147,818	-11,186	0,096	-0,046
-146,804	-200,000	-0,007	0,136
-145,789	-200,000	-0,015	0,109
-144,775	67,914	-0,036	-0,026
-143,760	-200,000	-0,014	-0,073
-142,745	800,000	0,016	-0,035
-141,731	637,895	0,081	-0,149
-140,716	-200,000	0,009	-0,070
-139,702	800,000	0,053	-0,114
-138,687	677,034	-0,031	-0,058
-137,672	96,828	-0,092	0,076
-136,658	-77,979	-0,078	-0,019
-135,643	256,635	-0,030	-0,038
-134,629	-52,347	0,122	0,040
-133,614	7,814	0,051	-0,027
-132,599	-37,495	0,181	-0,069
-131,585	-146,321	-0,088	-0,005
-130,570	-149,463	-0,130	-0,007
-129,556	-9,446	-0,045	0,022
-128,541	206,384	0,033	-0,037
-127,526	-200,000	-0,015	0,069
-126,512	-200,000	-0,001	0,022
-125,497	65,562	0,127	-0,092
-124,483	147,439	-0,110	0,106
-123,468	107,475	-0,097	0,083
-122,453	263,993	0,074	0,092
-121,439	-200,000	0,009	0,073
-120,424	-118,273	-0,006	-0,001
-119,410	-86,468	0,147	0,032
-118,395	-200,000	-0,007	0,263
