DTS Sentinel unit serial number:	SN410029Multiplexer serial number:	ORYXHardware model number:	OX2-SRSoftware version number:	ORYX F/W v4,00 Oryx Data Collector v3.7.2.0data status	okinstallation	B5 Nyhavnadifferential loss correction	single-endedforward channel	channel 2reverse channel	N/Adate	2023/12/11time	15:42:13forward acquisition time	300,00reverse acquisition time	0,00gamma	499,1914k internal	0,3166k external	0,3166temperature offset calibration	1,0000default loss term (dB/km)	0,3820temperature slope calibration	1,0000multiplexer offset coefficient	1,0000multiplexer slope coefficient	1,0000fibre end	0,00T internal ref (°C)	13,49T ext. ref 1 (°C)	-1,68T ext. ref 2 (°C)	-1,77length (m)	temperature (°C)	Stokes	anti-Stokes-744,400	-27,407	-0,064	0,027
-743,385	-100,490	-0,447	0,081
-742,371	-18,605	0,198	0,090
-741,356	-115,663	-0,323	0,044
-740,342	479,609	-0,085	0,142
-739,327	-126,374	-0,252	0,027
-738,312	46,502	0,112	-0,077
-737,298	-139,353	-0,354	-0,028
-736,283	-106,479	0,161	-0,026
-735,269	-48,505	-0,315	0,111
-734,254	-200,000	-0,005	-0,059
-733,239	-19,743	-0,482	-0,218
-732,225	-35,079	0,137	0,054
-731,210	-75,870	0,095	0,025
-730,196	-61,902	-0,147	0,045
-729,181	185,801	-0,045	0,049
-728,167	-9,600	0,093	0,045
-727,152	98,259	-0,065	0,055
-726,137	19,335	-0,147	-0,086
-725,123	-200,000	-0,000	-0,080
-724,108	-73,265	-0,125	-0,033
-723,094	800,000	-0,052	-0,139
-722,079	-200,000	0,003	-0,099
-721,064	-95,313	-0,081	-0,016
-720,050	305,473	0,038	-0,052
-719,035	28,308	0,045	0,028
-718,021	-99,525	0,036	0,007
-717,006	-200,000	-0,005	-0,157
-715,991	52,535	-0,174	-0,122
-714,977	357,018	-0,068	-0,099
-713,962	-69,705	-0,152	0,042
-712,948	-54,224	-0,102	0,034
-711,933	-200,000	0,016	0,092
-710,918	800,000	-0,042	0,091
-709,904	232,335	-0,091	-0,109
-708,889	-200,000	0,025	-0,105
-707,875	800,000	0,020	-0,062
-706,860	44,231	-0,133	-0,090
-705,845	72,898	-0,055	-0,042
-704,831	-93,479	-0,143	0,029
-703,816	247,319	0,009	0,011
-702,802	448,821	0,055	-0,089
-701,787	800,000	0,017	0,044
-700,772	-200,000	-0,009	-0,056
-699,758	-200,000	-0,007	-0,076
-698,743	-200,000	0,001	-0,101
-697,729	-128,961	0,136	-0,014
-696,714	115,240	-0,068	0,061
-695,699	20,972	0,025	-0,015
-694,685	-100,613	-0,107	0,019
-693,670	-104,117	-0,189	0,032
-692,656	129,430	-0,013	-0,012
-691,641	800,000	0,015	0,031
-690,627	335,970	-0,034	-0,048
-689,612	-152,285	-0,064	-0,003
-688,597	9,236	-0,097	-0,054
-687,583	-200,000	-0,113	0,000
-686,568	-200,000	0,006	0,073
-685,554	-160,257	-0,092	0,004
-684,539	-8,859	0,095	-0,046
-683,524	0,083	-0,054	-0,028
-682,510	800,000	-0,012	-0,032
-681,495	-167,652	-0,069	0,002
-680,481	61,051	-0,097	-0,070
-679,466	-93,700	-0,111	0,022
-678,451	-200,000	0,030	0,179
-677,437	-200,000	-0,008	0,123
-676,422	71,262	-0,049	0,037
-675,408	-132,546	-0,123	-0,011
-674,393	-200,000	0,005	0,120
-673,378	800,000	-0,026	-0,074
-672,364	-27,716	-0,151	-0,064
-671,349	-113,937	-0,101	0,014
-670,335	800,000	0,008	-0,022
-669,320	800,000	0,033	-0,068
-668,305	-200,000	0,003	-0,043
-667,291	201,852	-0,072	0,082
-666,276	-200,000	0,024	0,104
-665,262	303,107	-0,045	-0,062
-664,247	-200,000	0,022	-0,196
-663,232	-15,918	-0,021	0,010
-662,218	8,182	-0,171	-0,094
-661,203	125,065	-0,034	0,032
-660,189	384,435	0,033	-0,051
-659,174	-95,613	-0,102	0,020
-658,159	584,564	-0,051	0,093
-657,145	99,934	-0,065	-0,056
-656,130	183,491	0,114	-0,124
-655,116	520,878	-0,017	0,029
-654,101	267,433	-0,090	0,115
-653,086	88,607	-0,101	-0,082
-652,072	800,000	-0,020	0,055
-651,057	-100,630	-0,075	-0,013
-650,043	0,154	-0,111	-0,058
-649,028	-200,000	0,001	-0,015
-648,014	800,000	0,031	0,088
-646,999	-200,000	-0,025	0,083
-645,984	-42,617	-0,110	-0,041
-644,970	800,000	-0,049	0,136
-643,955	-73,702	0,086	-0,023
-642,941	-173,056	-0,084	0,002
-641,926	559,344	-0,036	0,063
-640,911	-118,387	0,140	0,018
-639,897	610,531	-0,012	-0,021
-638,882	-39,238	-0,067	0,026
-637,868	800,000	-0,068	-0,163
-636,853	257,468	-0,057	-0,072
-635,838	800,000	-0,021	-0,053
-634,824	-200,000	-0,006	0,086
-633,809	-42,349	0,045	0,017
-632,795	119,608	-0,015	0,014
-631,780	67,410	0,125	0,094
-630,765	-34,672	0,062	0,025
-629,751	126,501	-0,085	-0,079
-628,736	151,220	-0,054	-0,054
-627,722	800,000	-0,084	-0,211
-626,707	761,098	0,024	0,048
-625,692	-200,000	-0,004	-0,021
-624,678	536,134	-0,041	-0,072
-623,663	89,910	0,042	0,034
-622,649	162,609	-0,048	-0,050
-621,634	-200,000	-0,013	-0,086
-620,619	-118,717	0,028	0,004
-619,605	-143,475	-0,067	0,005
-618,590	-121,503	-0,118	0,014
-617,576	49,372	-0,033	-0,023
-616,561	800,000	-0,024	0,052
-615,546	387,154	-0,083	-0,125
-614,532	-200,000	-0,034	0,111
-613,517	387,595	-0,051	0,078
-612,503	-200,000	-0,001	-0,124
-611,488	-133,807	-0,091	0,008
-610,474	-130,388	0,062	0,006
-609,459	-147,967	-0,102	0,006
-608,444	-155,614	0,163	-0,008
-607,430	-111,765	-0,115	-0,017
-606,415	800,000	0,024	0,048
-605,401	431,297	-0,046	-0,073
-604,386	-88,945	0,084	-0,018
-603,371	-135,960	0,072	-0,006
-602,357	271,471	0,045	0,059
-601,342	-200,000	-0,002	0,063
-600,328	-126,165	-0,094	0,010
-599,313	-132,039	-0,103	-0,010
-598,298	325,205	0,033	-0,047
-597,284	-200,000	-0,011	-0,119
-596,269	-72,094	0,064	0,017
-595,255	-200,000	-0,029	0,097
-594,240	600,778	0,031	0,057
-593,225	-200,000	0,000	0,036
-592,211	106,626	0,026	0,022
-591,196	-200,000	-0,032	-0,113
-590,182	23,038	0,055	-0,033
-589,167	696,988	0,053	-0,103
-588,152	189,520	0,107	-0,117
-587,138	-92,880	0,093	-0,019
-586,123	-20,673	-0,150	-0,067
-585,109	203,912	-0,129	-0,146
-584,094	-44,702	0,020	-0,007
-583,079	-49,264	0,083	-0,029
-582,065	800,000	-0,061	-0,137
-581,050	-200,000	-0,006	0,032
-580,036	227,485	-0,102	-0,122
-579,021	-200,000	-0,005	-0,067
-578,006	-97,100	-0,063	0,012
-576,992	383,527	-0,064	-0,097
-575,977	299,717	0,025	-0,034
-574,963	-94,714	0,087	-0,017
-573,948	-200,000	0,011	0,046
-572,934	9,519	-0,039	0,022
-571,919	-33,836	-0,025	0,010
-570,904	167,604	-0,136	-0,142
-569,890	-11,781	0,051	0,024
-568,875	-200,000	0,026	0,101
-567,861	-16,053	0,060	0,028
-566,846	569,797	-0,039	-0,069
-565,831	-200,000	-0,004	-0,088
-564,817	-200,000	0,019	-0,100
-563,802	-127,952	-0,112	0,012
-562,788	-48,479	-0,076	0,027
-561,773	-200,000	0,032	0,128
-560,758	522,383	-0,006	-0,010
-559,744	-200,000	0,039	0,135
-558,729	-92,115	0,054	0,011
-557,715	386,918	-0,048	-0,072
-556,700	17,756	0,062	-0,036
-555,685	-200,000	-0,010	0,046
-554,671	800,000	0,029	0,091
-553,656	800,000	0,034	0,087
-552,642	-200,000	-0,002	0,025
-551,627	574,719	0,026	-0,046
-550,612	-200,000	0,002	0,145
-549,598	-123,274	0,126	0,014
-548,583	425,814	-0,083	-0,132
-547,569	-200,000	0,011	-0,051
-546,554	62,419	0,074	0,054
-545,539	-200,000	-0,025	-0,082
-544,525	-200,000	0,006	0,122
-543,510	800,000	0,012	-0,028
-542,496	11,299	-0,106	-0,059
-541,481	79,181	0,087	0,068
-540,466	-200,000	0,005	-0,016
-539,452	800,000	0,017	-0,043
-538,437	800,000	0,048	0,114
-537,423	657,106	-0,045	0,084
-536,408	800,000	0,010	0,023
-535,393	800,000	-0,018	-0,050
-534,379	-62,976	-0,038	-0,011
-533,364	-200,000	-0,011	0,094
-532,350	-200,000	-0,005	-0,064
-531,335	158,676	0,060	0,061
-530,321	651,435	0,040	0,075
-529,306	-160,542	-0,037	0,001
-528,291	800,000	-0,022	-0,051
-527,277	-80,521	-0,093	0,022
-526,262	307,115	0,101	0,138
-525,248	800,000	-0,023	-0,064
-524,233	800,000	0,020	-0,046
-523,218	579,547	-0,030	0,054
-522,204	457,030	0,027	-0,044
-521,189	237,733	-0,044	0,053
-520,175	596,297	-0,059	0,107
-519,160	-200,000	0,000	0,083
-518,145	-108,732	-0,106	-0,016
-517,131	201,993	-0,062	-0,070
-516,116	535,557	-0,047	0,081
-515,102	-55,743	-0,065	-0,021
-514,087	176,712	0,086	0,091
-513,072	-200,000	0,008	-0,099
-512,058	800,000	-0,052	0,132
-511,043	-103,711	-0,031	0,005
-510,029	-107,744	0,080	-0,013
-509,014	7,846	-0,054	-0,029
-507,999	-200,000	0,000	-0,015
-506,985	-200,000	-0,032	-0,119
-505,970	-53,080	-0,062	0,021
-504,956	-7,958	-0,140	0,069
-503,941	109,590	-0,042	0,036
-502,926	-124,944	-0,060	-0,007
-501,912	-200,000	-0,009	0,168
-500,897	535,530	-0,052	0,090
-499,883	-169,574	0,072	-0,002
-498,868	800,000	0,014	0,041
-497,853	800,000	-0,051	0,140
-496,839	-120,723	0,083	0,010
-495,824	77,533	0,065	0,051
-494,810	515,966	0,086	-0,146
-493,795	-36,771	0,180	0,070
-492,781	487,278	-0,028	-0,047
-491,766	-200,000	-0,006	-0,056
-490,751	55,003	-0,012	-0,008
-489,737	350,115	-0,038	0,055
-488,722	234,273	-0,055	-0,066
-487,708	-126,405	0,116	0,012
-486,693	122,143	-0,030	-0,028
-485,678	60,849	-0,047	0,034
-484,664	-200,000	0,034	-0,138
-483,649	666,529	-0,053	-0,101
-482,635	-200,000	-0,011	-0,049
-481,620	-59,406	0,077	0,024
-480,605	-200,000	0,020	0,106
-479,591	-86,336	-0,029	0,006
-478,576	-163,495	-0,088	-0,003
-477,562	-200,000	0,004	-0,033
-476,547	-200,000	0,049	0,000
-475,532	800,000	-0,040	0,087
-474,518	-149,001	-0,088	-0,005
-473,503	-200,000	0,012	0,067
-472,489	9,396	0,064	-0,035
-471,474	-106,167	0,175	0,028
-470,459	-200,000	-0,004	-0,022
-469,445	-200,000	-0,038	-0,162
-468,430	-166,399	-0,071	-0,002
-467,416	800,000	-0,018	-0,036
-466,401	-200,000	-0,011	0,060
-465,386	-200,000	0,008	0,106
-464,372	800,000	-0,006	0,012
-463,357	-33,413	0,020	0,008
-462,343	47,261	-0,086	-0,058
-461,328	-200,000	0,006	-0,092
-460,313	-200,000	0,022	0,158
-459,299	188,533	0,075	0,081
-458,284	-141,331	0,233	0,017
-457,270	96,127	-0,052	0,043
-456,255	-200,000	-0,003	0,054
-455,241	-152,185	-0,099	-0,005
-454,226	71,577	-0,037	-0,028
-453,211	-66,899	-0,124	-0,035
-452,197	-93,553	0,158	0,032
-451,182	800,000	-0,061	-0,128
-450,168	800,000	0,018	0,050
-449,153	215,572	0,098	-0,113
-448,138	-144,661	-0,109	-0,007
-447,124	-41,009	-0,105	0,039
-446,109	-200,000	-0,172	-0,000
-445,095	-59,325	0,072	-0,022
-444,080	65,801	0,111	-0,082
-443,065	-200,000	0,011	-0,044
-442,051	34,265	0,089	0,057
-441,036	-200,000	0,012	-0,051
-440,022	35,794	-0,048	-0,030
-439,007	193,123	-0,067	-0,074
-437,992	800,000	0,048	0,115
-436,978	58,158	0,046	-0,033
-435,963	113,821	0,018	-0,016
-434,949	-59,880	-0,128	-0,039
-433,934	173,437	0,073	-0,076
-432,919	335,078	-0,063	-0,089
-431,905	9,392	-0,044	0,024
-430,890	46,413	-0,049	-0,033
-429,876	-200,000	0,007	0,038
-428,861	-171,644	0,164	0,004
-427,846	-57,624	-0,091	-0,029
-426,832	172,026	-0,090	-0,094
-425,817	-134,696	0,104	0,009
-424,803	-24,975	0,052	0,022
-423,788	340,811	-0,056	-0,080
-422,773	800,000	0,021	-0,054
-421,759	800,000	-0,060	0,144
-420,744	21,686	0,044	-0,026
-419,730	-200,000	0,001	0,040
-418,715	-28,062	0,011	0,005
-417,701	800,000	0,044	-0,097
-416,686	800,000	-0,015	0,045
-415,671	-200,000	0,002	-0,024
-414,657	-63,535	-0,071	-0,021
-413,642	-200,000	-0,007	0,212
-412,628	744,995	0,040	0,078
-411,613	-61,599	0,192	0,058
-410,598	-145,143	0,128	0,008
-409,584	-200,000	0,010	0,124
-408,569	184,374	-0,123	0,132
-407,555	-200,000	-0,005	0,035
-406,540	-91,346	-0,059	0,012
-405,525	245,933	0,064	-0,078
-404,511	-200,000	-0,002	-0,025
-403,496	656,057	0,004	0,007
-402,482	391,469	0,056	-0,085
-401,467	-26,736	-0,073	-0,031
-400,452	592,853	0,062	0,112
-399,438	800,000	-0,045	-0,103
-398,423	-200,000	0,035	-0,167
-397,409	-48,117	-0,072	0,025
-396,394	800,000	-0,064	0,135
-395,379	-35,898	0,128	-0,050
-394,365	-200,000	-0,013	0,074
-393,350	341,422	-0,017	-0,024
-392,336	800,000	-0,048	0,122
-391,321	213,452	-0,068	-0,078
-390,306	-200,000	0,006	0,078
-389,292	-200,000	-0,009	0,118
-388,277	-200,000	0,025	-0,098
-387,263	85,623	-0,087	-0,070
-386,248	403,738	0,069	0,105
-385,233	239,394	0,053	0,064
-384,219	-29,958	-0,083	-0,034
-383,204	800,000	-0,040	0,113
-382,190	577,411	0,038	0,067
-381,175	800,000	-0,028	0,081
-380,160	410,652	0,034	-0,053
-379,146	68,359	0,066	0,049
-378,131	-56,206	0,144	0,046
-377,117	-200,000	-0,022	0,099
-376,102	-26,893	-0,017	-0,007
-375,088	800,000	0,023	-0,060
-374,073	-200,000	0,008	-0,089
-373,058	-72,384	0,040	0,011
-372,044	-200,000	-0,007	-0,036
-371,029	650,911	-0,036	0,067
-370,015	1,242	0,199	-0,103
-369,000	-200,000	0,004	-0,048
-367,985	245,568	-0,059	-0,072
-366,971	-107,531	-0,065	-0,010
-365,956	-101,094	0,079	0,014
-364,942	231,400	0,056	0,066
-363,927	82,685	-0,173	0,136
-362,912	263,179	0,083	0,105
-361,898	-200,000	-0,037	0,170
-360,883	196,107	0,112	-0,124
-359,869	-59,095	-0,212	-0,066
-358,854	15,579	0,082	0,047
-357,839	-200,000	-0,009	-0,056
-356,825	-42,986	0,123	-0,045
-355,810	-65,090	-0,044	0,013
-354,796	138,915	0,013	-0,013
-353,781	-18,177	0,033	-0,015
-352,766	-200,000	-0,009	-0,036
-351,752	382,666	0,076	0,114
-350,737	391,449	0,064	0,097
-349,723	800,000	-0,013	-0,035
-348,708	-117,423	0,089	-0,012
-347,693	-34,281	-0,073	0,029
-346,679	71,486	-0,080	-0,060
-345,664	207,357	-0,018	-0,021
-344,650	3,730	0,166	-0,088
-343,635	248,098	-0,032	-0,039
-342,620	800,000	0,009	-0,024
-341,606	-200,000	0,035	0,115
-340,591	111,171	0,041	0,036
-339,577	522,828	-0,031	0,053
-338,562	770,637	-0,033	-0,066
-337,548	-4,940	-0,043	0,021
-336,533	44,549	0,131	0,087
-335,518	171,403	0,051	0,053
-334,504	-200,000	-0,003	-0,098
-333,489	307,002	-0,036	-0,049
-332,475	-200,000	0,037	-0,124
-331,460	-60,602	-0,121	0,037
-330,445	-166,550	0,105	-0,003
-329,431	-200,000	0,014	0,070
-328,416	-200,000	0,027	-0,108
-327,402	712,170	-0,070	0,135
-326,387	-139,718	0,109	-0,008
-325,372	-28,566	-0,078	-0,032
-324,358	-200,000	-0,017	-0,133
-323,343	-200,000	0,010	-0,086
-322,329	-200,000	-0,017	-0,060
-321,314	250,986	0,171	0,211
-320,299	800,000	-0,015	-0,045
-319,285	-200,000	0,031	0,136
-318,270	277,452	-0,061	0,079
-317,256	87,957	0,074	-0,060
-316,241	-120,953	0,047	-0,006
-315,226	-15,036	0,119	-0,055
-314,212	563,853	0,022	0,039
-313,197	356,427	-0,033	0,048
-312,183	800,000	-0,057	0,166
-311,168	68,780	-0,046	-0,034
-310,153	226,198	0,050	-0,059
-309,139	-185,111	-0,056	0,001
-308,124	-80,693	0,006	0,002
-307,110	120,668	0,079	-0,071
-306,095	-166,817	0,214	-0,006
-305,080	420,502	-0,049	0,076
-304,066	-119,658	-0,127	0,016
-303,051	148,426	-0,063	-0,061
-302,037	-200,000	-0,017	-0,143
-301,022	171,251	-0,090	-0,093
-300,008	502,292	-0,005	0,008
-298,993	-13,921	-0,050	0,023
-297,978	-139,325	-0,120	-0,009
-296,964	-200,000	0,031	-0,144
-295,949	-200,000	0,036	0,000
-294,935	165,272	-0,101	-0,103
-293,920	800,000	-0,024	0,052
-292,905	-79,750	-0,059	-0,014
-291,891	477,043	0,080	0,132
-290,876	-200,000	-0,008	-0,033
-289,862	-133,036	-0,088	-0,008
-288,847	-37,619	0,046	0,017
-287,832	-70,421	-0,138	0,037
-286,818	42,232	0,157	-0,103
-285,803	-24,075	0,044	0,019
-284,789	800,000	-0,018	-0,047
-283,774	-56,972	0,135	0,043
-282,759	-138,451	-0,062	-0,005
-281,745	22,538	-0,065	0,038
-280,730	-200,000	-0,023	-0,086
-279,716	-200,000	0,012	0,049
-278,701	17,756	0,056	-0,032
-277,686	500,584	-0,045	0,075
-276,672	-136,691	-0,058	-0,005
-275,657	-13,904	0,094	0,044
-274,643	276,564	0,059	0,076
-273,628	800,000	0,010	0,022
-272,613	175,145	-0,067	0,070
-271,599	-113,186	0,105	0,015
-270,584	-87,748	-0,032	-0,007
-269,570	278,319	-0,041	0,053
-268,555	-63,961	0,087	-0,026
-267,540	725,726	-0,074	-0,144
-266,526	-182,584	-0,098	0,001
-265,511	96,132	-0,095	0,079
-264,497	-200,000	-0,017	-0,077
-263,482	-87,972	-0,125	-0,027
-262,467	800,000	-0,005	-0,015
-261,453	220,081	0,108	-0,125
-260,438	-5,445	-0,113	-0,056
-259,424	-57,303	-0,106	-0,034
-258,409	-200,000	0,002	0,017
-257,395	-145,493	0,130	-0,008
-256,380	197,183	0,058	0,064
-255,365	51,406	0,030	-0,021
-254,351	36,894	-0,033	-0,021
-253,336	800,000	0,009	-0,027
-252,322	-200,000	-0,002	-0,015
-251,307	81,990	0,081	-0,063
-250,292	57,220	-0,018	-0,013
-249,278	-140,018	-0,117	0,009
-248,263	-100,486	0,110	-0,019
-247,249	40,847	0,167	0,109
-246,234	-200,000	0,020	0,082
-245,219	-200,000	-0,013	-0,076
-244,205	550,722	0,021	0,037
-243,190	800,000	0,027	0,085
-242,176	442,700	-0,051	0,080
-241,161	-200,000	0,012	0,068
-240,146	106,272	0,061	-0,052
-239,132	108,813	0,059	-0,050
-238,117	-158,377	0,041	0,002
-237,103	144,573	0,028	0,027
-236,088	779,149	0,031	0,062
-235,073	-200,000	-0,015	0,106
-234,059	-29,619	0,075	-0,031
-233,044	-95,838	-0,042	0,008
-232,030	-200,000	-0,005	0,089
-231,015	-71,731	0,064	-0,017
-230,000	14,697	-0,022	-0,012
-228,986	216,588	-0,116	-0,133
-227,971	-123,751	0,090	0,010
-226,957	42,223	-0,142	0,093
-225,942	-69,240	-0,027	-0,007
-224,927	-200,000	0,009	-0,164
-223,913	174,887	0,050	0,053
-222,898	320,257	-0,055	-0,076
-221,884	383,207	0,016	-0,023
-220,869	-200,000	-0,018	0,064
-219,855	-16,110	0,085	0,039
-218,840	98,628	-0,142	0,118
-217,825	-130,692	-0,139	-0,013
-216,811	800,000	0,022	-0,069
-215,796	239,000	-0,076	-0,091
-214,782	-200,000	-0,015	-0,131
-213,767	215,435	0,069	-0,080
-212,752	-55,902	-0,081	-0,026
-211,738	6,278	0,104	0,055
-210,723	70,149	0,020	0,014
-209,709	17,533	-0,046	-0,026
-208,694	742,361	-0,080	-0,156
-207,679	-22,360	-0,054	-0,023
-206,665	109,375	-0,051	-0,044
-205,650	184,696	0,058	0,062
-204,636	-77,161	0,097	-0,024
-203,621	-200,000	0,015	-0,053
-202,606	537,354	0,034	0,058
-201,592	800,000	0,069	-0,164
-200,577	588,852	-0,061	-0,109
-199,563	-110,068	0,025	0,004
-198,548	-143,501	0,073	-0,005
-197,533	800,000	0,053	0,153
-196,519	-200,000	-0,012	0,108
-195,504	248,119	0,129	-0,157
-194,490	88,067	-0,129	-0,103
-193,475	368,693	0,034	0,049
-192,460	-200,000	0,002	0,018
-191,446	-200,000	-0,004	0,080
-190,431	-200,000	-0,015	0,063
-189,417	174,705	0,013	-0,014
-188,402	95,120	-0,028	-0,023
-187,387	-106,089	0,188	0,030
-186,373	37,792	-0,008	-0,005
-185,358	71,388	0,065	0,048
-184,344	-133,583	-0,114	-0,010
-183,329	531,789	0,039	-0,066
-182,315	-200,000	0,007	-0,034
-181,300	127,355	0,144	-0,132
-180,285	-86,482	-0,118	0,026
-179,271	586,156	0,004	-0,008
-178,256	800,000	-0,070	0,175
-177,242	-122,133	0,106	-0,012
-176,227	-184,443	0,054	-0,001
-175,212	-200,000	0,010	0,109
-174,198	-116,565	0,046	0,006
-173,183	-200,000	0,023	0,145
-172,169	-200,000	-0,015	-0,115
-171,154	80,551	-0,052	0,040
-170,139	55,173	-0,184	0,128
-169,125	800,000	-0,057	-0,137
-168,110	-27,879	0,125	-0,052
-167,096	8,402	0,024	-0,013
-166,081	-20,996	0,060	-0,026
-165,066	-200,000	0,011	-0,038
-164,052	194,561	-0,072	-0,079
-163,037	-38,753	-0,051	-0,019
-162,023	128,629	0,057	-0,052
-161,008	800,000	0,079	0,193
-159,993	-11,096	-0,052	-0,025
-158,979	-200,000	0,000	-0,078
-157,964	-200,000	0,028	-0,136
-156,950	-200,000	-0,024	0,086
-155,935	435,635	-0,054	0,084
-154,920	800,000	-0,045	0,095
-153,906	94,294	0,099	0,081
-152,891	4,368	0,074	0,039
-151,877	-80,652	-0,026	0,006
-150,862	-200,000	0,009	0,070
-149,847	144,877	-0,101	-0,097
-148,833	204,381	-0,063	0,070
-147,818	-118,360	-0,081	0,010
-146,804	-62,541	-0,130	0,038
-145,789	-200,000	0,022	-0,128
-144,775	-200,000	-0,026	0,089
-143,760	-16,863	0,052	-0,024
-142,745	439,924	-0,078	0,124
-141,731	-138,812	0,037	-0,003
-140,716	-85,342	0,087	-0,019
-139,702	-200,000	-0,003	0,083
-138,687	-136,596	0,050	0,004
-137,672	-200,000	-0,015	-0,047
-136,658	-134,329	-0,080	0,007
-135,643	686,531	0,028	0,053
-134,629	169,429	0,076	0,078
-133,614	-200,000	-0,007	0,084
-132,599	-125,515	0,079	0,009
-131,585	-20,201	-0,062	0,027
-130,570	30,547	-0,073	-0,045
-129,556	-200,000	0,017	-0,139
-128,541	-200,000	-0,057	-0,193
-127,526	-200,000	-0,007	-0,052
-126,512	-28,364	0,049	-0,020
-125,497	295,697	0,114	0,150
-124,483	-140,873	0,136	0,010
-123,468	23,902	-0,126	-0,074
-122,453	-200,000	-0,005	0,022
-121,439	317,199	0,028	-0,039
