DTS Sentinel unit serial number:	SN410029Multiplexer serial number:	ORYXHardware model number:	OX2-SRSoftware version number:	ORYX F/W v4,00 Oryx Data Collector v3.7.2.0data status	okinstallation	B5 Nyhavnadifferential loss correction	single-endedforward channel	channel 2reverse channel	N/Adate	2023/12/13time	10:52:14forward acquisition time	300,00reverse acquisition time	0,00gamma	499,1914k internal	0,3160k external	0,3160temperature offset calibration	1,0000default loss term (dB/km)	0,3820temperature slope calibration	1,0000multiplexer offset coefficient	1,0000multiplexer slope coefficient	1,0000fibre end	0,00T internal ref (°C)	13,66T ext. ref 1 (°C)	-2,59T ext. ref 2 (°C)	-2,91length (m)	temperature (°C)	Stokes	anti-Stokes-744,400	643,244	0,063	0,119
-743,385	-149,523	-0,356	0,020
-742,371	-61,693	0,266	0,082
-741,356	-164,395	-0,258	-0,009
-740,342	70,427	0,097	0,074
-739,327	-141,694	-0,218	-0,016
-738,312	-120,937	0,171	0,021
-737,298	-200,000	-0,379	0,001
-736,283	-200,000	-0,002	0,017
-735,269	-154,217	-0,219	0,011
-734,254	-200,000	0,008	0,073
-733,239	86,028	-0,432	-0,350
-732,225	18,958	0,180	0,106
-731,210	-51,046	0,048	0,016
-730,196	-60,275	0,062	0,019
-729,181	174,369	-0,054	-0,057
-728,167	-166,561	0,107	-0,003
-727,152	-19,911	-0,058	0,026
-726,137	71,304	-0,097	-0,074
-725,123	408,884	0,112	0,175
-724,108	800,000	-0,052	-0,153
-723,094	111,304	-0,095	-0,084
-722,079	-14,465	-0,141	-0,066
-721,064	-175,796	0,117	-0,002
-720,050	27,731	0,064	0,040
-719,035	-135,757	-0,161	0,014
-718,021	800,000	0,056	-0,129
-717,006	-92,296	-0,231	0,048
-715,991	800,000	0,028	-0,079
-714,977	232,725	-0,037	-0,044
-713,962	-95,973	-0,049	-0,010
-712,948	-41,550	-0,054	-0,020
-711,933	79,072	0,060	-0,047
-710,918	29,247	0,126	0,078
-709,904	14,196	-0,104	-0,059
-708,889	476,120	-0,130	-0,216
-707,875	-12,091	-0,022	-0,011
-706,860	593,169	0,060	0,110
-705,845	87,924	-0,112	0,091
-704,831	-106,743	-0,087	0,014
-703,816	-41,255	-0,096	-0,036
-702,802	49,580	-0,057	-0,039
-701,787	259,055	0,089	-0,114
-700,772	467,332	-0,035	-0,058
-699,758	800,000	0,006	-0,015
-698,743	-27,047	0,039	0,017
-697,729	-46,192	0,047	0,017
-696,714	0,998	-0,143	-0,075
-695,699	-53,634	-0,016	-0,005
-694,685	-113,173	0,028	0,004
-693,670	-200,000	0,053	-0,265
-692,656	-200,000	-0,022	-0,105
-691,641	-73,993	-0,106	-0,028
-690,627	120,742	0,121	0,111
-689,612	-200,000	-0,009	0,098
-688,597	355,920	-0,048	0,071
-687,583	-96,694	0,063	-0,012
-686,568	490,064	0,028	-0,048
-685,554	399,714	-0,035	0,055
-684,539	-140,543	0,082	0,006
-683,524	-200,000	0,004	0,092
-682,510	100,663	0,034	-0,029
-681,495	404,288	-0,070	-0,108
-680,481	356,982	0,041	-0,060
-679,466	-132,193	-0,124	0,012
-678,451	-200,000	0,000	0,102
-677,437	239,916	-0,069	-0,084
-676,422	-200,000	-0,001	0,087
-675,408	-15,654	-0,066	-0,031
-674,393	-200,000	0,004	-0,033
-673,378	158,614	0,059	-0,060
-672,364	185,364	-0,072	-0,079
-671,349	-72,394	-0,105	-0,028
-670,335	-200,000	-0,003	-0,024
-669,320	800,000	0,009	-0,020
-668,305	23,886	0,170	0,103
-667,291	-28,968	0,088	-0,037
-666,276	-149,907	0,050	0,003
-665,262	73,482	0,033	-0,026
-664,247	-87,984	-0,194	-0,043
-663,232	800,000	-0,035	0,102
-662,218	150,999	-0,061	-0,061
-661,203	-200,000	-0,004	-0,027
-660,189	-56,930	-0,070	-0,022
-659,174	800,000	-0,019	-0,040
-658,159	54,293	0,040	0,028
-657,145	740,641	0,048	0,095
-656,130	-49,274	-0,129	0,045
-655,116	-200,000	-0,003	0,057
-654,101	-73,332	0,106	-0,028
-653,086	305,437	-0,058	0,079
-652,072	-200,000	-0,009	-0,079
-651,057	800,000	0,027	0,068
-650,043	127,658	0,096	-0,090
-649,028	800,000	0,027	-0,059
-648,014	-200,000	-0,014	0,060
-646,999	20,429	-0,065	-0,038
-645,984	-119,173	-0,066	-0,008
-644,970	246,160	-0,088	0,110
-643,955	800,000	-0,047	-0,125
-642,941	110,063	0,049	-0,044
-641,926	138,472	0,028	0,027
-640,911	800,000	-0,053	-0,132
-639,897	258,315	0,086	-0,109
-638,882	44,926	-0,041	-0,027
-637,868	-200,000	0,033	-0,117
-636,853	11,407	0,066	-0,037
-635,838	-200,000	0,012	0,060
-634,824	-111,893	-0,108	0,016
-633,809	-200,000	-0,012	0,066
-632,795	521,234	-0,031	-0,054
-631,780	-200,000	-0,004	0,018
-630,765	487,841	-0,049	-0,082
-629,751	-39,020	0,062	-0,024
-628,736	800,000	-0,067	-0,150
-627,722	-200,000	-0,008	-0,142
-626,707	-200,000	-0,000	0,170
-625,692	-156,314	0,115	0,005
-624,678	17,174	-0,119	0,069
-623,663	-141,045	-0,108	-0,008
-622,649	-200,000	0,027	-0,097
-621,634	-122,392	-0,109	-0,013
-620,619	-55,357	0,077	0,025
-619,605	-153,084	0,074	-0,004
-618,590	-200,000	-0,012	0,069
-617,576	120,385	-0,070	0,064
-616,561	-30,793	-0,100	0,041
-615,546	800,000	-0,084	-0,180
-614,532	-51,245	-0,088	-0,030
-613,517	-170,513	-0,064	-0,002
-612,503	800,000	0,051	0,148
-611,488	544,871	-0,072	-0,126
-610,474	61,676	0,113	-0,082
-609,459	155,448	0,049	0,050
-608,444	369,605	-0,094	-0,140
-607,430	165,945	0,055	-0,057
-606,415	84,524	-0,097	-0,077
-605,401	-32,020	0,078	-0,032
-604,386	91,067	0,090	-0,074
-603,371	-114,105	-0,068	-0,010
-602,357	-128,020	-0,192	0,020
-601,342	-195,181	-0,102	0,001
-600,328	282,317	-0,049	-0,065
-599,313	800,000	0,045	0,097
-598,298	576,046	-0,020	0,035
-597,284	128,309	-0,034	-0,032
-596,269	-200,000	-0,021	0,118
-595,255	-200,000	0,034	0,186
-594,240	-200,000	0,056	-0,198
-593,225	800,000	0,032	-0,078
-592,211	194,994	-0,153	-0,170
-591,196	-200,000	-0,001	-0,032
-590,182	800,000	0,034	0,084
-589,167	199,678	-0,112	0,126
-588,152	-93,781	0,049	-0,010
-587,138	-77,578	0,039	0,010
-586,123	304,792	0,053	-0,072
-585,109	-200,000	-0,020	0,096
-584,094	316,030	0,054	0,075
-583,079	-137,680	-0,025	-0,002
-582,065	-200,000	0,007	0,038
-581,050	800,000	-0,012	-0,024
-580,036	-200,000	-0,019	-0,081
-579,021	-200,000	-0,040	-0,133
-578,006	120,317	0,095	-0,087
-576,992	338,808	-0,012	-0,017
-575,977	-24,356	0,133	0,058
-574,963	255,776	0,079	0,099
-573,948	-11,818	-0,037	0,018
-572,934	-200,000	-0,034	-0,161
-571,919	-200,000	-0,003	-0,046
-570,904	303,574	0,020	-0,028
-569,890	-200,000	-0,025	-0,087
-568,875	-200,000	0,008	0,077
-567,861	800,000	-0,059	0,174
-566,846	-145,375	-0,038	0,002
-565,831	194,514	-0,063	-0,070
-564,817	457,459	0,049	-0,080
-563,802	800,000	-0,056	-0,142
-562,788	800,000	0,012	-0,025
-561,773	-200,000	-0,009	0,077
-560,758	460,779	0,013	-0,021
-559,744	-96,390	0,121	0,023
-558,729	-50,069	0,032	-0,011
-557,715	-22,085	-0,051	-0,022
-556,700	435,062	-0,033	-0,053
-555,685	-34,787	-0,019	-0,007
-554,671	-200,000	0,005	-0,056
-553,656	800,000	0,052	-0,112
-552,642	-36,240	-0,040	-0,016
-551,627	-200,000	-0,013	-0,078
-550,612	483,150	0,066	-0,109
-549,598	-107,176	-0,044	-0,007
-548,583	-200,000	-0,010	0,138
-547,569	36,747	0,042	-0,027
-546,554	-134,317	0,040	-0,004
-545,539	91,805	-0,076	0,062
-544,525	99,374	0,044	-0,038
-543,510	-52,070	-0,073	0,025
-542,496	-104,893	-0,054	-0,009
-541,481	127,152	0,022	-0,020
-540,466	-200,000	0,026	-0,132
-539,452	-12,378	0,087	-0,041
-538,437	0,943	0,081	0,043
-537,423	216,642	0,068	0,079
-536,408	-55,142	-0,033	0,011
-535,393	534,481	-0,026	-0,046
-534,379	-32,018	-0,093	-0,038
-533,364	-49,342	-0,030	-0,011
-532,350	800,000	0,037	-0,077
-531,335	250,001	0,068	0,085
-530,321	-154,904	0,075	0,004
-529,306	334,772	0,089	0,126
-528,291	-182,943	0,186	-0,002
-527,277	12,719	-0,136	-0,077
-526,262	-200,000	-0,012	0,132
-525,248	800,000	0,004	-0,011
-524,233	-200,000	0,020	0,103
-523,218	122,034	0,082	-0,074
-522,204	24,582	0,095	0,057
-521,189	63,916	-0,125	0,092
-520,175	-200,000	0,026	0,092
-519,160	-20,523	0,027	0,012
-518,145	180,320	0,123	-0,132
-517,131	800,000	-0,062	-0,188
-516,116	150,906	0,060	0,059
-515,102	168,669	-0,049	0,051
-514,087	-6,525	-0,131	-0,065
-513,072	-200,000	0,006	-0,152
-512,058	-200,000	0,015	-0,059
-511,043	-56,057	-0,013	-0,004
-510,029	-60,039	0,074	0,023
-509,014	235,041	-0,024	-0,028
-507,999	-200,000	-0,048	0,158
-506,985	127,453	0,054	-0,050
-505,970	-82,237	-0,238	-0,056
-504,956	112,273	-0,032	-0,028
-503,941	470,944	0,061	-0,101
-502,926	-110,818	0,164	-0,024
-501,912	-200,000	0,003	-0,043
-500,897	451,883	-0,090	0,145
-499,883	684,078	-0,032	-0,061
-498,868	-118,293	-0,112	0,014
-497,853	46,630	0,073	-0,049
-496,839	-72,969	0,029	0,008
-495,824	36,633	-0,026	-0,016
-494,810	800,000	0,040	0,116
-493,795	-14,613	0,032	0,015
-492,781	34,034	-0,089	0,056
-491,766	207,035	-0,015	0,017
-490,751	-200,000	0,025	-0,158
-489,737	-200,000	-0,032	0,112
-488,722	320,162	-0,055	0,077
-487,708	81,998	0,099	0,079
-486,693	-23,934	-0,051	0,022
-485,678	275,073	0,089	-0,116
-484,664	13,734	-0,117	-0,066
-483,649	800,000	-0,025	-0,057
-482,635	57,778	0,073	-0,052
-481,620	221,368	0,089	0,104
-480,605	168,149	-0,059	-0,061
-479,591	-200,000	0,043	0,173
-478,576	-200,000	-0,012	0,053
-477,562	86,514	-0,153	0,123
-476,547	-105,740	0,027	0,004
-475,532	-31,723	-0,094	-0,038
-474,518	441,134	0,066	-0,105
-473,503	-3,785	-0,071	0,036
-472,489	76,774	0,111	-0,085
-471,474	-87,364	-0,059	-0,013
-470,459	-200,000	0,010	0,059
-469,445	-43,415	-0,062	-0,023
-468,430	404,529	-0,020	0,030
-467,416	136,116	0,093	0,088
-466,401	48,895	0,052	0,035
-465,386	-200,000	-0,071	0,245
-464,372	-200,000	-0,010	-0,071
-463,357	800,000	0,041	-0,124
-462,343	-67,572	-0,154	0,044
-461,328	26,509	0,044	-0,027
-460,313	596,196	-0,070	-0,127
-459,299	40,526	0,098	-0,064
-458,284	200,106	-0,039	0,044
-457,270	163,804	0,133	-0,136
-456,255	455,184	0,039	-0,063
-455,241	714,892	-0,007	-0,013
-454,226	-71,669	0,081	-0,022
-453,211	327,290	-0,037	-0,052
-452,197	-200,000	-0,013	0,183
-451,182	800,000	0,018	0,046
-450,168	800,000	-0,046	0,102
-449,153	-57,657	0,080	-0,025
-448,138	159,882	-0,055	0,055
-447,124	800,000	-0,023	-0,069
-446,109	800,000	0,079	-0,171
-445,095	800,000	-0,044	0,137
-444,080	-200,000	-0,015	0,124
-443,065	-59,395	-0,090	-0,028
-442,051	-64,634	-0,146	0,043
-441,036	-200,000	0,002	-0,059
-440,022	800,000	-0,015	-0,036
-439,007	-41,048	0,054	0,020
-437,992	603,518	0,073	0,134
-436,978	143,810	-0,060	0,058
-435,963	-46,184	0,089	-0,032
-434,949	154,662	0,042	-0,042
-433,934	-148,751	-0,191	-0,011
-432,919	-200,000	-0,004	-0,016
-431,905	-94,720	-0,111	-0,022
-430,890	25,751	0,059	0,036
-429,876	800,000	0,055	-0,121
-428,861	11,929	-0,046	0,025
-427,846	-157,465	0,012	-0,001
-426,832	-200,000	-0,003	-0,119
-425,817	-200,000	-0,016	0,121
-424,803	479,568	0,029	0,048
-423,788	-200,000	-0,006	-0,138
-422,773	-200,000	0,000	-0,035
-421,759	-171,999	0,097	-0,002
-420,744	-200,000	-0,029	0,098
-419,730	301,556	-0,045	0,060
-418,715	92,241	-0,044	-0,036
-417,701	-200,000	-0,001	-0,139
-416,686	-17,150	-0,052	0,024
-415,671	300,024	-0,025	-0,033
-414,657	800,000	-0,006	0,014
-413,642	216,097	-0,059	0,069
-412,628	-24,132	-0,100	0,043
-411,613	27,240	-0,015	-0,009
-410,598	245,213	-0,076	0,094
-409,584	347,699	0,041	0,059
-408,569	-50,272	0,028	0,009
-407,555	486,523	0,091	0,151
-406,540	593,241	-0,035	0,063
-405,525	86,337	0,029	-0,023
-404,511	-200,000	0,002	0,043
-403,496	-48,749	0,110	0,038
-402,482	-200,000	-0,007	0,124
-401,467	-65,070	0,132	-0,038
-400,452	800,000	0,016	0,034
-399,438	283,314	0,079	-0,104
-398,423	15,487	-0,136	0,078
-397,409	382,232	-0,047	-0,071
-396,394	-164,313	-0,129	0,004
-395,379	78,477	0,089	0,069
-394,365	800,000	0,039	0,079
-393,350	-200,000	0,029	0,173
-392,336	373,295	-0,060	0,089
-391,321	800,000	0,030	0,067
-390,306	238,312	-0,060	0,073
-389,292	14,080	0,068	-0,038
-388,277	510,158	0,057	-0,096
-387,263	117,681	0,073	-0,066
-386,248	-111,830	0,112	0,016
-385,233	332,317	0,035	0,049
-384,219	-65,893	-0,100	0,029
-383,204	800,000	0,022	0,059
-382,190	800,000	0,017	0,055
-381,175	-200,000	0,009	0,065
-380,160	-200,000	-0,012	-0,038
-379,146	-187,841	0,074	0,001
-378,131	-200,000	-0,005	0,071
-377,117	-25,814	-0,101	-0,043
-376,102	-200,000	0,006	0,000
-375,088	-35,313	0,155	0,061
-374,073	-200,000	0,030	0,112
-373,058	163,787	0,039	-0,040
-372,044	299,725	0,032	-0,043
-371,029	-38,261	-0,088	0,034
-370,015	-34,975	-0,060	0,024
-369,000	-200,000	-0,010	-0,093
-367,985	7,770	-0,070	-0,038
-366,971	523,267	0,059	0,101
-365,956	-96,376	0,036	0,007
-364,942	292,191	0,047	-0,063
-363,927	-200,000	0,014	0,073
-362,912	-118,224	-0,125	-0,016
-361,898	800,000	0,036	0,079
-360,883	-200,000	0,010	-0,057
-359,869	405,646	-0,074	-0,113
-358,854	50,098	0,153	0,104
-357,839	350,974	0,018	-0,026
-356,825	800,000	0,049	0,109
-355,810	800,000	-0,045	-0,097
-354,796	-104,023	-0,083	0,014
-353,781	85,708	0,075	-0,060
-352,766	186,997	0,007	0,007
-351,752	-200,000	0,022	0,122
-350,737	60,221	-0,050	-0,036
-349,723	800,000	-0,038	0,094
-348,708	443,765	-0,067	0,107
-347,693	800,000	0,040	-0,122
-346,679	-200,000	0,056	0,185
-345,664	-142,372	0,090	-0,006
-344,650	-189,253	-0,060	-0,001
-343,635	39,889	-0,037	0,024
-342,620	1,090	0,114	0,059
-341,606	-200,000	0,108	0,000
-340,591	-200,000	0,006	0,075
-339,577	-200,000	-0,001	-0,092
-338,562	5,530	-0,108	-0,058
-337,548	-199,944	-0,121	-0,000
-336,533	31,613	-0,085	0,053
-335,518	-200,000	0,018	0,072
-334,504	31,357	0,078	0,048
-333,489	-200,000	0,037	-0,121
-332,475	242,510	-0,094	-0,114
-331,460	-200,000	-0,001	-0,122
-330,445	-65,931	0,036	0,010
-329,431	83,109	-0,079	0,062
-328,416	-103,873	0,120	0,020
-327,402	60,425	-0,109	0,078
-326,387	-88,816	0,171	0,036
-325,372	-200,000	-0,001	0,033
-324,358	-69,110	0,043	-0,012
-323,343	34,228	0,050	0,032
-322,329	104,319	0,087	0,074
-321,314	-134,810	-0,177	-0,015
-320,299	-92,555	-0,027	0,006
-319,285	-130,089	0,039	-0,004
-318,270	-113,341	0,043	0,006
-317,256	-32,825	-0,162	0,065
-316,241	-200,000	0,003	-0,093
-315,226	475,224	0,040	-0,066
-314,212	694,060	-0,014	-0,026
-313,197	-200,000	-0,023	0,078
-312,183	-95,101	-0,062	0,012
-311,168	544,806	0,031	0,054
-310,153	719,833	-0,053	0,102
-309,139	-200,000	0,001	0,038
-308,124	-200,000	0,003	0,134
-307,110	113,002	0,060	-0,053
-306,095	800,000	0,059	0,176
-305,080	-116,613	-0,040	-0,005
-304,066	-107,349	-0,058	0,009
-303,051	713,686	-0,068	-0,132
-302,037	800,000	0,026	-0,083
-301,022	216,916	0,039	-0,045
-300,008	406,591	-0,068	-0,104
-298,993	-2,412	-0,112	0,056
-297,978	146,954	-0,147	0,143
-296,964	47,035	-0,055	0,037
-295,949	-200,000	-0,024	-0,078
-294,935	-102,082	0,169	-0,029
-293,920	781,652	-0,055	-0,110
-292,905	-200,000	0,015	0,098
-291,891	-35,623	0,165	0,064
-290,876	-104,773	0,157	-0,026
-289,862	-200,000	-0,031	0,125
-288,847	24,112	0,089	0,053
-287,832	-200,000	-0,039	0,153
-286,818	-171,292	-0,082	0,002
-285,803	-66,685	0,082	0,023
-284,789	-12,399	-0,015	0,007
-283,774	153,261	0,036	0,035
-282,759	365,940	-0,063	0,093
-281,745	-46,102	-0,111	-0,039
-280,730	-157,581	-0,056	0,002
-279,716	-200,000	0,012	0,106
-278,701	20,055	-0,028	0,016
-277,686	-200,000	0,018	0,102
-276,672	112,018	-0,078	-0,068
-275,657	800,000	-0,016	0,047
-274,643	177,747	-0,083	-0,088
-273,628	-12,419	-0,040	0,019
-272,613	733,232	0,024	0,047
-271,599	344,772	0,147	-0,210
-270,584	111,282	0,083	-0,072
-269,570	278,171	-0,008	-0,011
-268,555	800,000	-0,027	0,083
-267,540	-200,000	-0,002	-0,098
-266,526	-200,000	-0,006	-0,170
-265,511	25,077	-0,042	-0,025
-264,497	-81,138	-0,113	0,027
-263,482	-200,000	0,028	0,129
-262,467	672,959	0,097	0,184
-261,453	20,003	-0,044	0,026
-260,438	-108,205	-0,049	-0,008
-259,424	319,469	0,063	-0,087
-258,409	712,374	0,022	-0,042
-257,395	168,316	0,075	0,077
-256,380	663,456	-0,048	-0,090
-255,365	-75,776	0,104	0,026
-254,351	15,460	-0,024	-0,014
-253,336	-200,000	0,038	0,136
-252,322	143,164	0,044	0,043
-251,307	800,000	-0,029	-0,076
-250,292	788,534	0,057	0,114
-249,278	385,403	0,084	-0,125
-248,263	340,586	-0,020	0,028
-247,249	51,119	0,056	-0,038
-246,234	578,208	-0,025	-0,044
-245,219	-200,000	-0,021	-0,164
-244,205	45,827	-0,027	-0,018
-243,190	-200,000	-0,004	0,028
-242,176	97,413	-0,043	-0,036
-241,161	-200,000	-0,003	-0,024
-240,146	61,548	0,158	-0,113
-239,132	-146,465	0,091	0,006
-238,117	12,025	-0,131	-0,072
-237,103	496,725	0,011	0,019
-236,088	111,487	0,134	0,116
-235,073	-184,179	0,049	0,001
-234,059	23,136	0,074	-0,044
-233,044	800,000	-0,012	0,029
-232,030	-200,000	0,033	0,113
-231,015	78,607	-0,082	-0,063
-230,000	-200,000	0,000	-0,107
-228,986	680,241	-0,043	0,082
-227,971	-10,709	0,193	0,092
-226,957	15,737	-0,081	0,046
-225,942	588,594	-0,033	0,058
-224,927	55,421	-0,036	-0,025
-223,913	800,000	0,025	-0,074
-222,898	800,000	0,011	0,033
-221,884	220,056	0,091	-0,105
-220,869	134,692	0,100	0,093
-219,855	-30,331	0,028	-0,011
-218,840	-92,841	0,070	-0,014
-217,825	-120,246	-0,107	-0,013
-216,811	-151,335	-0,160	0,008
-215,796	195,824	0,076	0,083
-214,782	800,000	-0,037	-0,107
-213,767	46,465	-0,096	-0,064
-212,752	-169,310	-0,064	0,002
-211,738	201,178	0,100	-0,112
-210,723	-45,602	-0,024	-0,008
-209,709	800,000	0,036	-0,106
-208,694	144,771	-0,046	-0,044
-207,679	-108,479	0,117	0,018
-206,665	89,381	0,141	0,113
-205,650	-200,000	0,012	-0,130
-204,636	73,430	-0,066	0,049
-203,621	-200,000	0,054	0,331
-202,606	-200,000	-0,008	0,033
-201,592	800,000	-0,017	-0,049
-200,577	-76,347	-0,147	-0,037
-199,563	-200,000	0,019	-0,065
-198,548	-200,000	0,027	-0,181
-197,533	340,542	-0,046	0,064
-196,519	303,862	0,018	0,025
-195,504	-58,609	0,025	0,008
-194,490	450,985	-0,018	-0,029
-193,475	732,744	-0,029	0,056
-192,460	717,094	0,020	-0,038
-191,446	-19,954	0,123	-0,054
-190,431	-47,067	-0,112	0,039
-189,417	133,755	0,035	-0,033
-188,402	7,558	-0,060	-0,032
-187,387	-200,000	0,007	-0,126
-186,373	-45,386	-0,035	-0,012
-185,358	800,000	-0,009	-0,028
-184,344	728,276	0,047	-0,091
-183,329	800,000	0,026	0,067
-182,315	212,336	0,052	0,060
-181,300	282,637	0,043	-0,056
-180,285	-37,664	0,029	-0,011
-179,271	-11,867	0,109	-0,051
-178,256	-200,000	-0,013	-0,114
-177,242	66,448	0,141	0,103
-176,227	502,376	0,064	0,107
-175,212	782,526	0,003	-0,006
-174,198	-46,304	-0,111	0,039
-173,183	-63,376	-0,184	0,054
-172,169	-200,000	0,029	-0,123
-171,154	552,614	-0,055	-0,096
-170,139	800,000	-0,026	0,078
-169,125	-200,000	-0,176	0,000
-168,110	-147,255	0,114	-0,007
-167,096	51,994	-0,089	-0,061
-166,081	-106,475	0,020	-0,003
-165,066	121,310	0,073	-0,066
-164,052	90,370	0,057	0,046
-163,037	730,624	-0,112	0,216
-162,023	-200,000	0,012	0,053
-161,008	-200,000	-0,025	0,099
-159,993	-133,507	0,120	-0,011
-158,979	35,027	0,171	-0,108
-157,964	580,617	0,008	-0,013
-156,950	168,708	-0,074	-0,076
-155,935	-200,000	-0,004	0,126
-154,920	-200,000	0,017	-0,071
-153,906	-200,000	0,032	-0,184
-152,891	399,877	0,016	0,024
-151,877	800,000	0,005	0,014
-150,862	526,512	-0,006	-0,011
-149,847	-7,393	0,037	0,018
-148,833	230,441	0,065	0,076
-147,818	-14,061	0,036	-0,017
-146,804	42,765	0,095	0,062
-145,789	-59,337	0,038	-0,012
-144,775	800,000	0,007	0,021
-143,760	423,559	0,011	-0,016
-142,745	-90,805	-0,032	-0,007
-141,731	-76,030	0,077	0,019
-140,716	-22,377	0,123	-0,054
-139,702	-200,000	-0,006	0,056
-138,687	342,316	-0,023	0,033
-137,672	-171,046	-0,096	0,002
-136,658	673,301	0,070	0,131
-135,643	-135,864	0,036	-0,003
-134,629	16,339	-0,055	0,031
-133,614	-77,347	0,143	0,035
-132,599	-152,198	0,070	0,004
-131,585	-23,031	0,017	0,007
-130,570	-14,189	0,050	-0,023
-129,556	-200,000	0,006	0,092
-128,541	-115,450	-0,106	0,014
-127,526	-94,285	-0,067	0,013
-126,512	-200,000	0,015	0,091
-125,497	139,422	0,120	0,113
-124,483	800,000	0,076	0,238
-123,468	111,673	-0,082	0,071
-122,453	142,646	0,085	-0,081
-121,439	800,000	0,019	0,055
-120,424	-200,000	0,027	-0,129
-119,410	-3,936	0,030	0,015
