DTS Sentinel unit serial number:	SN410029Multiplexer serial number:	ORYXHardware model number:	OX2-SRSoftware version number:	ORYX F/W v4,00 Oryx Data Collector v3.7.2.0data status	okinstallation	B5 Nyhavnadifferential loss correction	single-endedforward channel	channel 2reverse channel	N/Adate	2023/12/12time	17:37:13forward acquisition time	300,00reverse acquisition time	0,00gamma	499,1914k internal	0,3156k external	0,3156temperature offset calibration	1,0000default loss term (dB/km)	0,3820temperature slope calibration	1,0000multiplexer offset coefficient	1,0000multiplexer slope coefficient	1,0000fibre end	0,00T internal ref (°C)	15,69T ext. ref 1 (°C)	-0,82T ext. ref 2 (°C)	-1,14length (m)	temperature (°C)	Stokes	anti-Stokes-744,400	-116,756	0,120	-0,016
-743,385	-100,714	-0,338	-0,061
-742,371	800,000	0,058	-0,122
-741,356	-116,572	-0,202	0,027
-740,342	-147,211	0,097	0,006
-739,327	21,251	-0,248	0,148
-738,312	-57,894	0,252	-0,081
-737,298	-150,425	-0,275	-0,015
-736,283	-200,000	-0,008	-0,036
-735,269	-43,099	-0,187	-0,070
-734,254	354,227	0,087	0,128
-733,239	-62,378	-0,430	-0,131
-732,225	-109,125	0,255	0,040
-731,210	165,789	-0,053	0,055
-730,196	318,486	0,050	0,070
-729,181	122,637	-0,124	0,115
-728,167	-38,711	-0,056	0,022
-727,152	98,450	-0,083	-0,070
-726,137	-200,000	-0,004	-0,044
-725,123	29,780	-0,132	-0,082
-724,108	505,046	-0,064	-0,109
-723,094	-200,000	-0,032	0,110
-722,079	124,238	-0,144	-0,134
-721,064	40,867	0,092	-0,061
-720,050	-200,000	-0,002	0,013
-719,035	-47,614	-0,034	-0,012
-718,021	293,467	0,066	-0,089
-717,006	-9,869	-0,114	-0,056
-715,991	94,689	0,038	0,032
-714,977	-200,000	-0,030	-0,174
-713,962	111,263	-0,036	-0,032
-712,948	-200,000	-0,010	0,209
-711,933	-71,784	-0,105	0,029
-710,918	-148,338	0,100	-0,006
-709,904	-76,063	0,094	-0,024
-708,889	-160,270	0,052	0,002
-707,875	-200,000	-0,044	-0,153
-706,860	-117,674	-0,081	-0,011
-705,845	543,576	-0,036	-0,063
-704,831	-200,000	-0,016	0,146
-703,816	800,000	0,037	0,111
-702,802	229,578	0,074	-0,089
-701,787	-114,564	-0,147	-0,021
-700,772	-2,330	0,060	0,031
-699,758	302,185	-0,043	-0,059
-698,743	-200,000	0,010	-0,041
-697,729	-28,828	0,065	0,028
-696,714	394,784	-0,054	0,082
-695,699	-61,309	-0,033	-0,010
-694,685	-37,095	0,037	-0,014
-693,670	-200,000	-0,005	-0,077
-692,656	-200,000	0,011	-0,187
-691,641	800,000	0,019	-0,060
-690,627	-102,450	0,127	0,022
-689,612	-120,940	0,100	0,012
-688,597	-200,000	0,000	-0,112
-687,583	-200,000	-0,024	-0,084
-686,568	-200,000	0,015	-0,135
-685,554	-10,549	-0,174	-0,085
-684,539	28,516	-0,099	-0,061
-683,524	800,000	-0,015	-0,043
-682,510	-200,000	0,010	0,125
-681,495	-77,885	0,055	-0,014
-680,481	172,392	-0,059	0,062
-679,466	-133,698	-0,134	-0,012
-678,451	63,204	0,039	-0,029
-677,437	-19,468	0,027	-0,012
-676,422	-86,380	-0,066	0,015
-675,408	511,654	-0,074	-0,126
-674,393	81,461	0,079	-0,063
-673,378	800,000	0,029	-0,070
-672,364	119,092	-0,064	0,058
-671,349	39,080	-0,077	-0,051
-670,335	-200,000	-0,002	0,089
-669,320	800,000	-0,043	0,116
-668,305	197,993	0,103	-0,116
-667,291	-29,979	-0,061	0,025
-666,276	-200,000	-0,027	-0,104
-665,262	252,114	-0,040	0,050
-664,247	-37,269	0,148	0,058
-663,232	51,251	0,024	0,017
-662,218	-20,538	0,086	0,039
-661,203	-108,859	0,090	0,014
-660,189	81,200	0,086	0,068
-659,174	-200,000	-0,002	-0,073
-658,159	575,281	-0,014	-0,024
-657,145	800,000	-0,070	-0,189
-656,130	32,941	-0,045	-0,029
-655,116	287,245	-0,034	-0,045
-654,101	84,593	0,064	-0,052
-653,086	77,499	0,111	-0,087
-652,072	-40,632	-0,053	0,020
-651,057	-200,000	-0,012	-0,072
-650,043	375,709	-0,052	0,078
-649,028	-15,277	-0,012	0,006
-648,014	1,506	0,074	0,039
-646,999	342,326	0,042	0,061
-645,984	800,000	-0,018	-0,045
-644,970	63,500	-0,109	0,080
-643,955	198,992	-0,075	-0,085
-642,941	-200,000	-0,006	-0,081
-641,926	105,662	0,089	-0,077
-640,911	98,584	-0,098	-0,083
-639,897	180,513	-0,114	0,123
-638,882	106,256	-0,075	-0,065
-637,868	-200,000	0,014	0,117
-636,853	75,791	-0,143	-0,111
-635,838	91,408	0,038	-0,032
-634,824	-73,114	-0,064	-0,017
-633,809	297,065	0,064	-0,086
-632,795	-200,000	-0,004	0,108
-631,780	-27,553	-0,184	0,078
-630,765	800,000	0,019	0,054
-629,751	24,484	-0,077	-0,047
-628,736	5,982	-0,047	-0,025
-627,722	-28,945	0,113	-0,048
-626,707	197,134	-0,042	0,047
-625,692	-76,521	0,082	-0,021
-624,678	186,288	0,055	-0,060
-623,663	99,674	-0,078	-0,066
-622,649	272,122	-0,096	-0,125
-621,634	-184,390	-0,119	0,001
-620,619	-200,000	-0,015	-0,117
-619,605	-71,987	-0,134	-0,036
-618,590	-200,000	-0,012	-0,073
-617,576	226,228	0,102	0,121
-616,561	-36,806	0,134	-0,053
-615,546	800,000	0,033	0,108
-614,532	676,441	-0,088	-0,169
-613,517	800,000	-0,012	0,031
-612,503	651,185	-0,010	-0,018
-611,488	51,444	0,133	-0,093
-610,474	621,000	0,042	-0,078
-609,459	-200,000	0,008	-0,070
-608,444	-107,342	0,124	-0,020
-607,430	278,753	0,054	0,071
-606,415	338,127	-0,041	0,059
-605,401	-200,000	0,010	0,097
-604,386	21,073	0,056	0,033
-603,371	656,876	0,020	0,039
-602,357	188,667	-0,094	-0,103
-601,342	-200,000	-0,003	0,213
-600,328	800,000	-0,092	-0,195
-599,313	-200,000	0,011	-0,072
-598,298	793,345	0,047	0,095
-597,284	660,341	-0,014	0,026
-596,269	129,350	0,085	0,080
-595,255	-126,072	0,089	0,010
-594,240	800,000	-0,067	-0,163
-593,225	409,537	0,020	0,031
-592,211	-200,000	0,003	-0,055
-591,196	228,182	0,037	0,044
-590,182	35,450	-0,017	0,011
-589,167	375,221	0,091	0,136
-588,152	629,921	0,020	0,036
-587,138	443,730	0,094	-0,152
-586,123	800,000	0,052	-0,118
-585,109	-114,788	-0,088	-0,012
-584,094	-17,269	0,037	-0,017
-583,079	278,140	0,024	-0,031
-582,065	53,751	-0,058	-0,041
-581,050	800,000	0,053	0,126
-580,036	226,809	0,028	-0,034
-579,021	26,614	-0,125	-0,076
-578,006	-161,451	-0,059	0,002
-576,992	800,000	-0,021	0,047
-575,977	-56,548	0,051	0,017
-574,963	800,000	0,004	-0,014
-573,948	-200,000	-0,091	-0,000
-572,934	-22,392	-0,086	0,038
-571,919	-200,000	-0,017	-0,105
-570,904	800,000	0,050	-0,118
-569,890	38,254	-0,055	-0,036
-568,875	-171,482	-0,058	0,001
-567,861	-200,000	0,014	0,092
-566,846	-200,000	-0,002	0,100
-565,831	-200,000	-0,020	-0,133
-564,817	-147,581	0,041	-0,003
-563,802	-200,000	-0,021	-0,174
-562,788	217,613	0,057	-0,066
-561,773	12,633	0,086	-0,048
-560,758	800,000	0,051	-0,139
-559,744	-138,771	-0,116	0,009
-558,729	-88,149	0,033	0,007
-557,715	-176,420	-0,091	-0,002
-556,700	-200,000	-0,003	-0,111
-555,685	-51,286	-0,124	0,042
-554,671	-188,597	-0,186	-0,002
-553,656	585,090	-0,008	-0,014
-552,642	-27,193	0,054	0,023
-551,627	1,875	-0,054	-0,028
-550,612	213,002	-0,050	0,058
-549,598	-200,000	-0,025	0,111
-548,583	21,503	-0,200	-0,118
-547,569	347,877	0,072	-0,104
-546,554	-91,575	0,169	0,035
-545,539	-140,233	0,084	-0,006
-544,525	85,056	-0,097	-0,078
-543,510	28,172	0,095	0,059
-542,496	353,223	0,067	-0,097
-541,481	800,000	0,017	-0,040
-540,466	134,084	-0,072	0,069
-539,452	75,951	0,171	0,132
-538,437	800,000	0,042	0,113
-537,423	-143,943	0,082	0,006
-536,408	-200,000	0,001	-0,004
-535,393	598,893	0,035	-0,064
-534,379	168,480	-0,064	0,066
-533,364	237,565	-0,052	-0,063
-532,350	325,211	-0,034	0,048
-531,335	-200,000	0,010	0,109
-530,321	57,091	-0,065	-0,046
-529,306	777,684	-0,036	0,073
-528,291	23,855	-0,057	0,034
-527,277	-167,542	-0,126	0,004
-526,262	503,959	0,039	-0,067
-525,248	-200,000	-0,001	-0,116
-524,233	800,000	0,034	0,078
-523,218	800,000	0,014	0,036
-522,204	800,000	0,014	-0,029
-521,189	-100,749	0,060	0,011
-520,175	605,028	-0,073	-0,133
-519,160	81,693	-0,070	-0,056
-518,145	-95,714	-0,124	0,024
-517,131	395,979	0,111	0,170
-516,116	-200,000	0,019	0,064
-515,102	186,450	-0,072	0,078
-514,087	91,594	0,131	-0,107
-513,072	23,083	0,009	-0,005
-512,058	-112,748	-0,132	-0,019
-511,043	-200,000	-0,009	-0,105
-510,029	-200,000	0,050	0,190
-509,014	203,371	0,087	0,098
-507,999	-117,603	-0,163	0,021
-506,985	-32,035	-0,105	-0,043
-505,970	-86,609	-0,053	-0,012
-504,956	-4,692	0,143	0,072
-503,941	415,957	0,040	0,063
-502,926	800,000	-0,036	0,097
-501,912	168,820	-0,054	0,056
-500,897	-113,037	-0,146	0,021
-499,883	634,800	0,030	0,055
-498,868	368,457	0,030	-0,045
-497,853	14,645	-0,041	-0,023
-496,839	-200,000	0,003	0,047
-495,824	-68,672	0,124	-0,035
-494,810	47,245	0,105	0,071
-493,795	168,188	0,073	-0,076
-492,781	-32,070	-0,040	-0,016
-491,766	-26,340	-0,027	-0,012
-490,751	90,495	-0,132	-0,108
-489,737	-102,843	0,036	0,006
-488,722	-200,000	-0,020	-0,079
-487,708	91,412	-0,054	-0,044
-486,693	-200,000	0,024	-0,079
-485,678	-200,000	0,001	-0,088
-484,664	91,058	0,074	-0,061
-483,649	-200,000	-0,003	0,105
-482,635	49,303	0,110	-0,075
-481,620	-10,100	-0,013	-0,006
-480,605	-200,000	0,033	0,202
-479,591	196,901	0,031	0,034
-478,576	-200,000	-0,036	0,127
-477,562	356,909	-0,119	0,174
-476,547	30,385	-0,034	0,021
-475,532	-200,000	0,009	-0,036
-474,518	160,598	0,107	0,109
-473,503	-13,504	-0,070	-0,033
-472,489	201,016	0,025	-0,028
-471,474	-61,516	-0,103	0,031
-470,459	-78,080	0,073	-0,018
-469,445	-9,268	-0,020	-0,010
-468,430	190,580	0,096	-0,106
-467,416	-41,544	0,049	-0,018
-466,401	799,759	-0,023	-0,047
-465,386	-200,000	0,023	0,155
-464,372	800,000	-0,007	-0,022
-463,357	-100,120	-0,037	-0,007
-462,343	-42,293	-0,129	0,048
-461,328	800,000	-0,009	0,020
-460,313	-10,563	0,119	0,057
-459,299	83,603	0,111	0,088
-458,284	-200,000	-0,005	0,087
-457,270	30,943	-0,085	-0,053
-456,255	237,535	-0,032	0,039
-455,241	284,336	0,062	0,082
-454,226	101,502	-0,089	-0,076
-453,211	-58,934	0,089	0,028
-452,197	709,582	0,090	0,173
-451,182	-47,931	-0,063	-0,022
-450,168	-47,312	0,052	-0,018
-449,153	90,301	-0,139	0,114
-448,138	-200,000	-0,031	0,153
-447,124	349,409	-0,070	-0,101
-446,109	-200,000	0,010	0,078
-445,095	-42,465	0,114	-0,042
-444,080	23,649	0,024	0,015
-443,065	80,672	-0,080	-0,063
-442,051	-111,858	0,069	-0,010
-441,036	183,579	-0,005	-0,005
-440,022	-200,000	-0,025	-0,130
-439,007	28,930	-0,016	-0,010
-437,992	147,850	-0,041	0,040
-436,978	224,364	-0,039	0,046
-435,963	-200,000	0,004	-0,017
-434,949	-200,000	0,003	-0,036
-433,934	-200,000	0,005	-0,030
-432,919	-200,000	-0,007	0,022
-431,905	-1,478	0,109	0,056
-430,890	258,431	-0,062	0,078
-429,876	-200,000	0,011	0,133
-428,861	77,386	0,077	0,060
-427,846	138,237	-0,094	0,090
-426,832	20,263	-0,140	-0,082
-425,817	-200,000	-0,011	-0,052
-424,803	-60,773	0,172	0,053
-423,788	-200,000	-0,020	-0,107
-422,773	-162,074	-0,052	-0,002
-421,759	-16,407	0,122	0,056
-420,744	159,888	0,061	-0,062
-419,730	134,698	-0,050	0,048
-418,715	800,000	-0,075	-0,151
-417,701	-134,243	-0,041	-0,004
-416,686	689,813	-0,023	0,044
-415,671	68,313	-0,067	0,050
-414,657	463,736	-0,028	0,045
-413,642	-189,433	-0,047	-0,000
-412,628	-17,365	0,034	-0,015
-411,613	244,807	-0,067	-0,082
-410,598	-59,459	0,029	-0,009
-409,584	451,201	0,015	-0,024
-408,569	-200,000	-0,011	-0,085
-407,555	-32,452	-0,040	0,016
-406,540	253,491	-0,044	0,054
-405,525	800,000	-0,016	0,047
-404,511	-91,371	0,117	0,024
-403,496	80,185	0,039	-0,031
-402,482	253,673	-0,083	-0,103
-401,467	-107,011	0,154	0,025
-400,452	650,879	-0,046	-0,087
-399,438	142,492	-0,053	-0,051
-398,423	310,800	0,095	0,129
-397,409	-200,000	-0,005	0,064
-396,394	800,000	0,029	0,084
-395,379	350,286	0,074	-0,106
-394,365	427,340	0,031	-0,048
-393,350	-200,000	-0,013	-0,050
-392,336	365,705	-0,028	-0,041
-391,321	391,493	0,046	0,070
-390,306	272,580	-0,010	-0,012
-389,292	-94,818	0,076	0,015
-388,277	486,064	-0,083	0,138
-387,263	172,055	0,105	0,110
-386,248	20,199	0,037	0,021
-385,233	246,399	-0,044	-0,054
-384,219	-100,751	0,176	0,031
-383,204	800,000	-0,018	-0,046
-382,190	233,373	0,045	-0,054
-381,175	-140,161	-0,061	0,005
-380,160	800,000	0,035	0,090
-379,146	17,873	0,093	0,054
-378,131	-200,000	0,003	0,029
-377,117	-134,840	-0,101	0,009
-376,102	195,381	0,100	-0,111
-375,088	201,307	-0,002	-0,003
-374,073	-71,236	0,137	-0,037
-373,058	189,514	-0,030	0,033
-372,044	112,571	0,028	0,025
-371,029	800,000	0,023	0,069
-370,015	-200,000	0,011	0,155
-369,000	-200,000	-0,010	-0,059
-367,985	-37,730	0,051	-0,020
-366,971	-63,165	0,130	0,039
-365,956	-149,517	-0,019	-0,001
-364,942	116,496	-0,017	0,015
-363,927	800,000	0,056	0,131
-362,912	208,379	0,093	0,106
-361,898	557,127	0,044	-0,078
-360,883	800,000	-0,052	-0,116
-359,869	-200,000	0,035	-0,125
-358,854	142,313	0,143	0,138
-357,839	429,612	0,037	0,058
-356,825	800,000	0,024	0,061
-355,810	-200,000	-0,008	0,060
-354,796	349,339	-0,047	-0,067
-353,781	117,164	0,144	0,128
-352,766	82,269	-0,048	-0,038
-351,752	24,499	-0,104	-0,062
-350,737	800,000	0,050	0,120
-349,723	800,000	-0,047	0,147
-348,708	-34,727	-0,114	0,045
-347,693	53,205	0,135	0,094
-346,679	-54,900	-0,066	-0,021
-345,664	800,000	-0,057	-0,154
-344,650	75,966	0,028	0,022
-343,635	521,148	-0,037	0,064
-342,620	-53,457	0,012	0,004
-341,606	419,416	0,015	0,023
-340,591	-110,602	-0,016	0,002
-339,577	-200,000	0,005	0,017
-338,562	-200,000	-0,028	-0,141
-337,548	-113,751	0,086	0,012
-336,533	315,852	-0,030	0,041
-335,518	-200,000	0,009	0,111
-334,504	292,184	-0,063	0,084
-333,489	-50,410	-0,188	-0,064
-332,475	153,862	0,088	-0,088
-331,460	297,584	0,018	0,024
-330,445	598,065	0,065	0,118
-329,431	-33,055	-0,040	0,016
-328,416	-200,000	0,022	0,146
-327,402	481,719	0,045	0,074
-326,387	8,255	-0,087	-0,047
-325,372	-180,524	-0,124	0,002
-324,358	-200,000	-0,004	0,157
-323,343	675,575	0,046	0,086
-322,329	31,820	0,013	0,008
-321,314	-7,240	0,043	0,021
-320,299	-200,000	0,001	-0,073
-319,285	-83,244	-0,112	-0,026
-318,270	-200,000	-0,004	-0,056
-317,256	-200,000	-0,002	-0,026
-316,241	-65,517	-0,074	0,021
-315,226	8,754	0,070	0,038
-314,212	65,672	0,144	-0,106
-313,197	-127,505	-0,119	0,012
-312,183	11,724	-0,039	0,022
-311,168	800,000	0,019	-0,040
-310,153	-130,329	0,032	-0,003
-309,139	-101,780	-0,140	-0,024
-308,124	791,294	0,078	-0,156
-307,110	191,331	0,092	0,101
-306,095	-200,000	0,028	0,149
-305,080	-200,000	0,012	0,047
-304,066	-200,000	-0,013	0,155
-303,051	-112,909	-0,030	0,004
-302,037	800,000	-0,038	-0,098
-301,022	664,633	0,064	-0,119
-300,008	364,318	0,031	-0,045
-298,993	-139,404	-0,093	0,007
-297,978	282,881	-0,047	0,061
-296,964	800,000	-0,062	0,133
-295,949	75,603	-0,020	-0,015
-294,935	-108,686	0,013	0,002
-293,920	4,209	-0,037	0,020
-292,905	-200,000	0,007	-0,060
-291,891	105,169	-0,076	-0,065
-290,876	-123,149	0,161	-0,018
-289,862	-3,677	-0,120	0,060
-288,847	162,957	-0,121	-0,123
-287,832	800,000	-0,040	0,110
-286,818	-172,940	0,088	0,002
-285,803	-41,981	0,153	-0,057
-284,789	201,816	0,008	0,009
-283,774	-12,510	0,060	-0,028
-282,759	-26,221	0,098	-0,041
-281,745	-200,000	0,019	-0,102
-280,730	-200,000	0,002	0,035
-279,716	-200,000	0,029	0,098
-278,701	96,006	0,086	0,071
-277,686	800,000	0,047	0,135
-276,672	-200,000	-0,033	-0,164
-275,657	326,259	0,081	0,113
-274,643	423,936	-0,059	-0,092
-273,628	125,344	0,041	-0,037
-272,613	-61,552	-0,055	0,017
-271,599	19,237	-0,040	0,023
-270,584	-200,000	0,002	-0,047
-269,570	-173,512	-0,069	-0,001
-268,555	-85,479	0,056	0,013
-267,540	-200,000	-0,013	0,080
-266,526	-57,710	0,053	-0,017
-265,511	59,984	-0,193	0,138
-264,497	-86,487	0,036	0,008
-263,482	-9,363	-0,079	0,038
-262,467	-110,826	0,086	0,013
-261,453	800,000	0,017	0,048
-260,438	570,218	-0,087	-0,154
-259,424	37,779	0,036	0,023
-258,409	800,000	0,057	-0,129
-257,395	-200,000	0,009	0,100
-256,380	241,897	0,036	0,043
-255,365	800,000	-0,060	-0,163
-254,351	-133,535	-0,114	-0,010
-253,336	800,000	-0,088	-0,224
-252,322	288,841	-0,061	-0,080
-251,307	307,474	-0,013	0,018
-250,292	-130,598	-0,075	-0,007
-249,278	-200,000	0,021	-0,077
-248,263	-71,163	0,093	-0,025
-247,249	-200,000	0,016	0,106
-246,234	-200,000	0,008	0,094
-245,219	296,088	-0,028	-0,037
-244,205	-200,000	0,005	-0,140
-243,190	-113,293	0,209	-0,029
-242,176	-200,000	0,002	0,039
-241,161	-200,000	-0,020	0,078
-240,146	-104,981	0,080	-0,013
-239,132	-109,060	0,097	-0,015
-238,117	-200,000	-0,031	0,284
-237,103	174,661	0,014	0,015
-236,088	229,941	-0,083	-0,099
-235,073	-31,123	-0,078	-0,032
-234,059	-31,466	0,103	0,042
-233,044	-128,832	-0,134	0,013
-232,030	-36,375	-0,062	-0,024
-231,015	-200,000	-0,011	-0,133
-230,000	118,755	0,048	-0,043
-228,986	800,000	-0,020	-0,041
-227,971	-200,000	-0,038	-0,195
-226,957	585,483	0,044	-0,078
-225,942	239,696	-0,083	-0,100
-224,927	296,066	-0,089	0,118
-223,913	-200,000	0,002	-0,056
-222,898	93,642	0,005	0,004
-221,884	146,423	0,042	-0,041
-220,869	411,130	0,092	-0,142
-219,855	71,175	-0,021	0,016
-218,840	-200,000	0,003	0,072
-217,825	-200,000	0,003	0,119
-216,811	-40,733	-0,140	-0,052
-215,796	286,599	0,082	-0,107
-214,782	-29,959	0,069	0,028
-213,767	107,469	-0,034	0,029
-212,752	-200,000	0,013	-0,081
-211,738	784,054	-0,011	0,023
-210,723	800,000	0,040	-0,124
-209,709	108,455	-0,068	-0,059
-208,694	73,818	-0,021	0,016
-207,679	-29,413	0,101	-0,041
-206,665	371,421	0,065	-0,096
-205,650	4,971	0,034	-0,018
-204,636	-126,539	-0,066	-0,007
-203,621	-48,424	0,138	-0,048
-202,606	-81,779	0,125	0,029
-201,592	-200,000	0,003	-0,085
-200,577	203,232	-0,077	0,087
-199,563	-135,556	0,049	-0,004
-198,548	-200,000	0,004	-0,036
-197,533	-200,000	-0,019	-0,102
-196,519	-35,592	-0,018	0,007
-195,504	-116,163	-0,101	-0,013
-194,490	103,822	0,027	-0,023
-193,475	800,000	-0,037	0,114
-192,460	-200,000	0,011	-0,081
-191,446	-200,000	0,010	0,040
-190,431	-200,000	0,009	0,056
-189,417	313,775	0,060	-0,081
-188,402	203,379	0,045	-0,051
-187,387	-103,490	-0,083	-0,014
-186,373	800,000	-0,015	0,040
-185,358	800,000	-0,044	0,110
-184,344	-200,000	-0,036	0,137
-183,329	-90,323	0,038	0,008
-182,315	72,320	0,103	0,077
-181,300	12,620	-0,176	0,098
-180,285	-137,674	-0,024	-0,002
-179,271	-200,000	-0,048	-0,171
-178,256	160,303	-0,074	-0,075
-177,242	-200,000	-0,008	-0,146
-176,227	61,272	0,048	0,034
-175,212	-200,000	0,045	0,146
-174,198	442,891	0,078	0,124
-173,183	-45,516	-0,023	-0,008
-172,169	631,644	0,053	0,097
-171,154	46,753	-0,122	-0,082
-170,139	716,685	0,043	-0,083
-169,125	-200,000	-0,013	-0,052
-168,110	-36,990	0,078	-0,030
-167,096	15,749	0,077	-0,044
-166,081	-200,000	-0,009	-0,139
-165,066	-200,000	-0,031	-0,185
-164,052	34,649	-0,036	0,022
-163,037	6,306	0,123	0,066
-162,023	-200,000	-0,005	0,057
-161,008	-117,130	0,085	0,011
-159,993	800,000	0,007	0,021
-158,979	800,000	0,013	-0,041
-157,964	387,637	-0,095	-0,142
-156,950	5,230	-0,066	0,035
-155,935	154,479	-0,027	0,027
-154,920	-79,384	0,183	-0,044
-153,906	800,000	0,020	0,040
-152,891	800,000	-0,048	0,137
-151,877	88,328	0,075	-0,060
-150,862	-121,610	-0,090	-0,011
-149,847	-200,000	0,003	0,035
-148,833	800,000	0,022	0,050
-147,818	100,207	0,061	-0,051
-146,804	800,000	-0,023	-0,054
-145,789	486,138	-0,026	-0,044
-144,775	-200,000	-0,021	-0,126
-143,760	284,541	-0,095	-0,123
-142,745	262,968	0,053	-0,066
-141,731	157,836	0,073	0,073
-140,716	369,923	-0,023	0,034
-139,702	286,438	0,044	0,057
-138,687	-200,000	0,001	0,136
-137,672	-200,000	0,006	0,086
-136,658	800,000	-0,043	-0,126
-135,643	-57,009	-0,119	-0,038
-134,629	800,000	-0,032	0,065
-133,614	800,000	0,050	0,143
-132,599	397,822	0,084	0,127
-131,585	204,656	0,073	0,082
-130,570	43,349	-0,096	-0,063
-129,556	800,000	0,039	-0,086
-128,541	-145,500	-0,029	-0,002
-127,526	2,200	-0,093	-0,048
-126,512	-55,859	-0,039	-0,013
-125,497	75,707	0,129	-0,098
-124,483	473,660	-0,031	0,050
-123,468	-74,133	0,063	0,016
-122,453	-118,465	-0,059	-0,007
-121,439	-61,103	-0,084	-0,025
-120,424	800,000	-0,039	-0,108
-119,410	391,886	0,062	0,093
