DTS Sentinel unit serial number:	SN410029Multiplexer serial number:	ORYXHardware model number:	OX2-SRSoftware version number:	ORYX F/W v4,00 Oryx Data Collector v3.7.2.0data status	okinstallation	B5 Nyhavnadifferential loss correction	single-endedforward channel	channel 2reverse channel	N/Adate	2023/12/13time	23:22:13forward acquisition time	300,00reverse acquisition time	0,00gamma	499,1914k internal	0,3154k external	0,3154temperature offset calibration	1,0000default loss term (dB/km)	0,3820temperature slope calibration	1,0000multiplexer offset coefficient	1,0000multiplexer slope coefficient	1,0000fibre end	0,00T internal ref (°C)	8,93T ext. ref 1 (°C)	-7,53T ext. ref 2 (°C)	-7,54length (m)	temperature (°C)	Stokes	anti-Stokes-744,400	199,323	0,084	-0,095
-743,385	-2,395	-0,307	-0,158
-742,371	33,203	0,263	0,168
-741,356	-73,806	-0,278	-0,074
-740,342	41,793	0,169	0,113
-739,327	-113,248	-0,487	-0,070
-738,312	98,630	-0,013	0,011
-737,298	-142,883	-0,284	-0,020
-736,283	800,000	0,024	0,074
-735,269	-58,264	-0,351	-0,112
-734,254	-94,643	0,234	0,046
-733,239	-44,141	-0,560	-0,206
-732,225	-134,324	0,157	0,014
-731,210	-200,000	-0,013	0,218
-730,196	-200,000	-0,011	0,060
-729,181	-96,958	-0,119	0,023
-728,167	-200,000	-0,009	0,107
-727,152	146,901	-0,060	0,059
-726,137	-200,000	-0,029	-0,130
-725,123	20,119	-0,048	0,028
-724,108	474,882	-0,017	0,029
-723,094	-147,908	-0,179	0,011
-722,079	699,339	-0,010	0,020
-721,064	-200,000	-0,000	-0,126
-720,050	461,016	0,027	-0,045
-719,035	-200,000	0,010	0,109
-718,021	-200,000	0,005	-0,062
-717,006	800,000	0,033	-0,097
-715,991	-200,000	-0,013	-0,100
-714,977	-173,725	-0,132	0,003
-713,962	43,822	-0,059	-0,040
-712,948	-200,000	-0,025	-0,140
-711,933	-76,592	0,016	-0,004
-710,918	67,868	0,077	-0,058
-709,904	-200,000	0,001	-0,110
-708,889	23,193	-0,090	0,054
-707,875	-101,404	0,063	0,011
-706,860	-159,671	-0,013	-0,001
-705,845	-106,874	-0,014	0,002
-704,831	-200,000	-0,022	0,082
-703,816	-24,875	-0,043	-0,019
-702,802	-83,758	0,058	0,014
-701,787	367,802	-0,044	-0,066
-700,772	362,040	0,043	0,064
-699,758	-200,000	0,030	-0,106
-698,743	18,678	0,112	0,066
-697,729	148,973	0,123	0,123
-696,714	32,279	0,025	0,016
-695,699	10,227	-0,087	-0,048
-694,685	381,227	0,022	-0,034
-693,670	-36,097	-0,082	-0,033
-692,656	-9,180	0,088	0,043
-691,641	800,000	-0,022	-0,063
-690,627	-60,833	-0,085	0,026
-689,612	86,678	-0,012	0,010
-688,597	-95,112	-0,049	-0,010
-687,583	-26,202	-0,179	-0,077
-686,568	165,630	0,033	0,034
-685,554	265,288	0,029	-0,037
-684,539	393,482	-0,040	-0,062
-683,524	800,000	0,023	-0,060
-682,510	-37,226	-0,105	0,041
-681,495	-200,000	-0,003	0,053
-680,481	-200,000	0,031	0,130
-679,466	221,232	-0,036	0,043
-678,451	-200,000	-0,006	0,033
-677,437	-109,549	-0,057	0,009
-676,422	-16,115	-0,056	0,026
-675,408	129,344	-0,057	0,053
-674,393	686,274	0,035	-0,068
-673,378	100,819	-0,027	0,023
-672,364	78,415	-0,157	-0,124
-671,349	558,748	0,021	-0,037
-670,335	-122,588	-0,117	-0,014
-669,320	235,392	-0,134	0,163
-668,305	286,796	-0,095	-0,127
-667,291	32,567	0,023	-0,015
-666,276	-95,616	-0,037	0,007
-665,262	-97,967	0,119	-0,022
-664,247	22,199	-0,058	-0,035
-663,232	22,967	0,054	0,032
-662,218	61,323	-0,023	0,016
-661,203	-140,602	-0,035	0,003
-660,189	-33,042	-0,106	0,043
-659,174	-155,075	-0,116	0,006
-658,159	120,504	-0,109	0,100
-657,145	205,243	0,090	0,103
-656,130	78,140	0,148	-0,116
-655,116	-200,000	0,038	0,127
-654,101	-19,495	0,060	0,027
-653,086	157,568	-0,031	-0,032
-652,072	-200,000	0,008	-0,155
-651,057	312,954	0,036	0,050
-650,043	3,074	-0,028	-0,015
-649,028	-1,723	-0,159	-0,082
-648,014	741,080	0,030	-0,059
-646,999	-31,735	0,044	0,018
-645,984	-50,624	-0,014	0,005
-644,970	-200,000	0,006	-0,056
-643,955	343,895	-0,060	-0,087
-642,941	177,456	-0,119	-0,128
-641,926	-67,784	0,074	-0,021
-640,911	-200,000	-0,006	0,019
-639,897	-200,000	0,021	0,165
-638,882	65,008	-0,189	0,140
-637,868	201,381	-0,057	-0,064
-636,853	-134,724	-0,121	0,011
-635,838	29,420	-0,035	0,022
-634,824	306,212	-0,024	0,033
-633,809	71,354	-0,092	0,070
-632,795	-200,000	0,010	-0,150
-631,780	92,670	-0,032	0,027
-630,765	-15,147	0,065	-0,030
-629,751	532,132	-0,002	0,004
-628,736	-45,980	-0,096	-0,035
-627,722	-200,000	0,004	0,062
-626,707	800,000	0,042	0,113
-625,692	-36,073	0,070	-0,028
-624,678	800,000	0,038	0,105
-623,663	800,000	-0,016	0,051
-622,649	128,926	-0,008	-0,007
-621,634	489,321	0,040	-0,068
-620,619	800,000	-0,024	-0,063
-619,605	-200,000	-0,147	0,000
-618,590	163,825	0,033	0,034
-617,576	126,330	-0,020	0,019
-616,561	-200,000	-0,017	0,116
-615,546	52,866	-0,170	0,119
-614,532	-22,260	-0,056	0,025
-613,517	-200,000	0,004	-0,128
-612,503	-52,706	-0,065	-0,022
-611,488	-200,000	0,009	0,132
-610,474	-200,000	0,003	-0,140
-609,459	32,915	0,124	-0,079
-608,444	-25,320	0,054	-0,023
-607,430	497,987	0,033	-0,056
-606,415	-134,279	-0,160	0,014
-605,401	-99,647	0,063	-0,011
-604,386	-200,000	-0,041	-0,140
-603,371	800,000	-0,006	0,020
-602,357	-141,736	0,094	-0,007
-601,342	229,621	-0,054	-0,065
-600,328	286,934	0,062	-0,083
-599,313	-35,783	-0,048	0,019
-598,298	472,564	-0,055	-0,091
-597,284	-168,462	0,060	0,002
-596,269	65,043	-0,057	0,042
-595,255	-50,917	-0,093	0,032
-594,240	-50,383	-0,066	0,023
-593,225	143,740	-0,083	-0,081
-592,211	-200,000	0,001	0,043
-591,196	-200,000	-0,027	-0,117
-590,182	-200,000	0,013	0,048
-589,167	143,958	0,070	-0,068
-588,152	-3,014	0,092	0,047
-587,138	800,000	-0,011	0,033
-586,123	-62,060	-0,046	0,014
-585,109	-25,666	-0,165	-0,071
-584,094	50,804	-0,038	0,026
-583,079	800,000	0,039	-0,086
-582,065	-30,207	0,119	0,050
-581,050	62,564	0,019	-0,014
-580,036	-77,662	-0,143	-0,036
-579,021	269,640	-0,082	-0,106
-578,006	-200,000	0,007	-0,029
-576,992	-5,065	0,091	-0,046
-575,977	9,851	-0,024	0,014
-574,963	25,988	-0,192	-0,117
-573,948	37,318	0,048	-0,031
-572,934	-67,718	-0,125	-0,035
-571,919	76,841	0,067	-0,052
-570,904	-133,275	-0,078	-0,007
-569,890	34,519	0,058	0,037
-568,875	-89,603	-0,153	-0,033
-567,861	-73,661	0,126	-0,033
-566,846	-90,928	0,122	-0,025
-565,831	224,017	-0,061	0,072
-564,817	404,581	0,014	-0,022
-563,802	629,424	-0,043	-0,080
-562,788	-72,648	-0,034	-0,009
-561,773	-91,348	-0,067	0,014
-560,758	-144,859	0,116	-0,008
-559,744	74,648	0,087	0,067
-558,729	-63,314	0,037	0,011
-557,715	1,077	-0,251	0,132
-556,700	-18,838	-0,119	-0,054
-555,685	-106,198	0,135	-0,022
-554,671	155,987	-0,178	0,180
-553,656	83,629	0,047	0,038
-552,642	88,941	-0,181	0,147
-551,627	-71,181	-0,063	-0,017
-550,612	495,423	0,067	0,114
-549,598	96,958	-0,039	-0,032
-548,583	-67,751	-0,044	0,013
-547,569	228,367	0,053	0,063
-546,554	-200,000	-0,042	0,220
-545,539	6,814	0,110	0,060
-544,525	-52,697	0,156	0,052
-543,510	-200,000	-0,050	0,000
-542,496	800,000	-0,003	0,010
-541,481	-200,000	0,016	-0,065
-540,466	41,986	-0,081	-0,054
-539,452	412,462	0,062	-0,097
-538,437	98,368	0,057	0,048
-537,423	-24,124	-0,063	0,027
-536,408	-102,963	-0,050	0,009
-535,393	800,000	-0,038	-0,108
-534,379	168,389	-0,023	-0,024
-533,364	-200,000	-0,006	-0,110
-532,350	470,264	-0,050	-0,082
-531,335	-200,000	0,004	-0,031
-530,321	-200,000	0,029	0,150
-529,306	-200,000	-0,025	-0,124
-528,291	-54,920	-0,019	0,006
-527,277	110,276	0,057	-0,050
-526,262	-200,000	-0,021	0,099
-525,248	54,870	-0,014	-0,010
-524,233	-200,000	-0,029	-0,165
-523,218	275,086	0,083	-0,108
-522,204	-200,000	0,004	0,070
-521,189	708,476	0,036	0,070
-520,175	-62,216	-0,104	-0,031
-519,160	-152,756	0,188	-0,010
-518,145	-125,446	0,097	-0,011
-517,131	-156,855	0,051	-0,002
-516,116	-170,761	-0,069	-0,002
-515,102	259,860	-0,087	-0,110
-514,087	-200,000	0,004	0,118
-513,072	-78,019	-0,049	-0,012
-512,058	-200,000	0,000	-0,072
-511,043	-37,034	0,101	-0,040
-510,029	-200,000	0,003	-0,086
-509,014	-27,858	0,091	-0,038
-507,999	-200,000	-0,000	-0,012
-506,985	106,267	-0,029	0,025
-505,970	432,991	0,029	-0,046
-504,956	-3,776	0,131	0,066
-503,941	-87,247	0,209	-0,046
-502,926	800,000	0,009	0,019
-501,912	-159,224	0,084	0,003
-500,897	800,000	0,053	-0,143
-499,883	800,000	0,032	-0,071
-498,868	165,893	-0,081	-0,084
-497,853	-200,000	-0,040	-0,198
-496,839	258,753	0,128	0,161
-495,824	436,984	0,039	0,062
-494,810	445,036	-0,047	0,075
-493,795	-189,797	0,077	-0,001
-492,781	-15,818	0,080	-0,037
-491,766	487,247	0,060	-0,101
-490,751	159,522	-0,100	0,102
-489,737	529,621	-0,059	-0,103
-488,722	195,476	0,061	0,068
-487,708	800,000	0,028	0,089
-486,693	-15,073	0,075	-0,035
-485,678	-200,000	-0,002	0,077
-484,664	-200,000	0,010	0,060
-483,649	402,979	-0,019	0,030
-482,635	-200,000	-0,001	-0,031
-481,620	83,863	0,093	0,074
-480,605	132,427	0,094	0,088
-479,591	-200,000	-0,000	0,014
-478,576	101,202	0,062	-0,053
-477,562	-5,644	-0,108	-0,054
-476,547	574,825	-0,021	0,038
-475,532	580,389	-0,032	-0,058
-474,518	-123,636	-0,024	-0,003
-473,503	800,000	-0,050	0,106
-472,489	93,066	0,108	0,089
-471,474	-59,229	-0,233	-0,073
-470,459	800,000	-0,047	-0,119
-469,445	246,023	-0,011	0,014
-468,430	800,000	-0,021	-0,043
-467,416	-134,339	0,132	-0,012
-466,401	-59,742	0,040	0,013
-465,386	-43,145	0,165	0,061
-464,372	528,295	-0,035	0,060
-463,357	-193,168	0,108	0,001
-462,343	-200,000	0,003	-0,026
-461,328	-61,260	-0,083	-0,025
-460,313	85,289	0,053	-0,042
-459,299	-200,000	-0,025	0,092
-458,284	-200,000	-0,007	0,143
-457,270	56,732	0,032	0,022
-456,255	351,931	-0,071	-0,102
-455,241	-200,000	-0,014	0,063
-454,226	-200,000	-0,010	-0,043
-453,211	-200,000	-0,002	0,059
-452,197	211,793	0,105	-0,121
-451,182	209,294	-0,089	0,101
-450,168	-200,000	0,006	-0,156
-449,153	8,672	-0,085	-0,047
-448,138	-4,488	-0,119	-0,060
-447,124	604,311	-0,007	0,013
-446,109	-111,433	-0,030	0,004
-445,095	527,890	0,069	0,119
-444,080	-200,000	0,029	-0,095
-443,065	-200,000	-0,005	0,020
-442,051	10,392	0,064	-0,035
-441,036	-200,000	-0,009	0,111
-440,022	-200,000	-0,024	-0,109
-439,007	-200,000	-0,011	0,070
-437,992	-200,000	-0,003	-0,106
-436,978	-23,790	0,117	0,051
-435,963	109,920	-0,050	-0,044
-434,949	158,698	-0,038	0,039
-433,934	191,745	-0,067	-0,074
-432,919	-200,000	-0,017	-0,065
-431,905	654,234	0,065	-0,121
-430,890	19,643	0,168	0,098
-429,876	151,972	-0,096	-0,095
-428,861	200,466	0,107	-0,120
-427,846	130,041	-0,138	0,129
-426,832	86,063	-0,053	-0,042
-425,817	-170,589	0,022	0,001
-424,803	50,757	-0,077	0,053
-423,788	548,132	0,021	-0,037
-422,773	800,000	-0,010	-0,030
-421,759	85,547	0,039	0,031
-420,744	38,153	-0,085	-0,055
-419,730	444,118	-0,039	-0,063
-418,715	-6,189	0,054	-0,027
-417,701	-25,539	0,057	-0,025
-416,686	-200,000	-0,011	0,057
-415,671	-71,175	0,054	-0,015
-414,657	-5,781	0,119	0,059
-413,642	-200,000	-0,027	-0,233
-412,628	192,001	0,018	-0,019
-411,613	168,131	-0,141	-0,147
-410,598	-200,000	-0,038	-0,146
-409,584	-92,913	-0,053	0,011
-408,569	-51,846	-0,036	-0,012
-407,555	-29,210	0,062	-0,026
-406,540	25,585	0,028	-0,017
-405,525	-33,285	-0,091	0,037
-404,511	-101,172	0,053	-0,009
-403,496	48,321	0,064	-0,043
-402,482	-200,000	0,009	-0,179
-401,467	-122,192	-0,070	-0,008
-400,452	-7,275	0,053	0,026
-399,438	304,159	-0,056	0,076
-398,423	-78,773	0,027	0,007
-397,409	-200,000	-0,026	0,094
-396,394	135,883	-0,013	0,012
-395,379	-115,522	-0,088	-0,012
-394,365	-200,000	0,033	0,112
-393,350	248,982	-0,091	-0,113
-392,336	-200,000	0,010	0,045
-391,321	-9,650	0,080	-0,039
-390,306	418,560	-0,034	-0,053
-389,292	-195,336	-0,063	0,000
-388,277	292,878	-0,027	0,036
-387,263	800,000	0,030	-0,083
-386,248	-200,000	0,006	0,044
-385,233	-200,000	0,017	-0,073
-384,219	-49,668	0,123	0,042
-383,204	-200,000	-0,008	0,049
-382,190	800,000	-0,009	-0,028
-381,175	-77,628	0,035	-0,009
-380,160	-200,000	0,023	0,074
-379,146	-200,000	0,012	0,169
-378,131	800,000	0,068	0,149
-377,117	-41,862	-0,038	-0,014
-376,102	192,868	-0,046	0,051
-375,088	800,000	0,030	-0,089
-374,073	800,000	-0,042	0,111
-373,058	55,239	0,087	0,061
-372,044	-200,000	-0,062	0,223
-371,029	800,000	0,045	0,095
-370,015	-89,881	0,076	0,016
-369,000	-200,000	-0,027	-0,092
-367,985	22,847	-0,093	0,055
-366,971	-58,140	-0,108	-0,034
-365,956	649,474	0,023	-0,042
-364,942	20,201	0,169	-0,099
-363,927	8,607	-0,082	-0,045
-362,912	161,171	0,060	0,061
-361,898	-200,000	-0,013	0,065
-360,883	22,336	0,057	0,034
-359,869	-156,022	-0,113	0,005
-358,854	8,293	0,160	0,087
-357,839	-200,000	-0,002	-0,039
-356,825	800,000	0,042	0,108
-355,810	-200,000	-0,012	-0,086
-354,796	-111,161	-0,056	-0,008
-353,781	-200,000	-0,017	-0,070
-352,766	800,000	-0,012	-0,030
-351,752	8,463	-0,070	-0,038
-350,737	-117,695	0,012	-0,002
-349,723	-59,309	0,172	0,054
-348,708	263,659	-0,087	0,110
-347,693	-200,000	0,055	0,000
-346,679	-156,639	-0,125	0,006
-345,664	-200,000	0,000	0,033
-344,650	-147,434	-0,061	-0,004
-343,635	238,775	0,054	-0,065
-342,620	-123,440	0,234	-0,027
-341,606	800,000	0,073	0,198
-340,591	-18,872	-0,100	0,045
-339,577	22,005	0,017	-0,010
-338,562	-34,038	-0,096	0,038
-337,548	-75,193	-0,048	-0,012
-336,533	1,853	-0,029	0,015
-335,518	-200,000	-0,004	0,073
-334,504	323,122	0,045	0,063
-333,489	-13,514	-0,005	-0,002
-332,475	84,403	0,027	0,021
-331,460	130,572	0,075	-0,070
-330,445	31,789	0,040	-0,025
-329,431	36,560	-0,042	0,027
-328,416	800,000	0,057	0,144
-327,402	800,000	-0,048	0,133
-326,387	-200,000	-0,003	0,023
-325,372	-11,960	0,142	-0,067
-324,358	-106,143	-0,092	-0,015
-323,343	-200,000	0,016	0,070
-322,329	-108,771	0,076	-0,012
-321,314	73,279	-0,033	0,025
-320,299	-200,000	0,022	0,086
-319,285	-86,690	0,067	-0,015
-318,270	-155,721	-0,057	0,003
-317,256	-200,000	0,024	-0,102
-316,241	196,158	0,054	-0,060
-315,226	545,993	-0,071	-0,124
-314,212	800,000	0,017	0,039
-313,197	800,000	0,036	0,076
-312,183	189,155	0,055	-0,060
-311,168	-200,000	-0,004	-0,130
-310,153	-136,042	0,058	0,005
-309,139	-77,013	-0,048	-0,012
-308,124	-200,000	-0,016	0,139
-307,110	153,651	0,056	-0,056
-306,095	-145,541	0,089	0,006
-305,080	47,712	0,107	0,073
-304,066	-20,345	-0,113	0,050
-303,051	-60,167	-0,035	-0,011
-302,037	626,108	-0,061	0,112
-301,022	6,226	0,016	-0,009
-300,008	96,355	0,195	0,162
-298,993	-118,373	-0,020	-0,003
-297,978	-83,414	0,086	-0,020
-296,964	715,945	0,037	0,071
-295,949	-128,182	-0,142	0,014
-294,935	-138,191	0,113	0,009
-293,920	-119,524	-0,031	0,004
-292,905	-34,724	-0,086	0,034
-291,891	800,000	0,035	0,080
-290,876	71,003	0,064	-0,048
-289,862	-44,718	-0,088	-0,032
-288,847	543,304	-0,038	-0,066
-287,832	-98,560	-0,149	0,027
-286,818	-31,686	0,161	0,065
-285,803	664,573	0,053	-0,100
-284,789	83,180	-0,065	0,052
-283,774	-22,787	-0,088	0,038
-282,759	800,000	-0,040	-0,082
-281,745	-200,000	0,009	-0,101
-280,730	-200,000	-0,023	-0,099
-279,716	-125,168	0,082	0,009
-278,701	-200,000	0,004	-0,091
-277,686	-47,425	0,033	0,012
-276,672	429,880	-0,074	-0,116
-275,657	-200,000	0,015	-0,060
-274,643	-200,000	-0,004	-0,037
-273,628	-200,000	0,008	-0,191
-272,613	800,000	0,034	0,092
-271,599	-60,236	-0,033	0,010
-270,584	-16,559	0,120	0,055
-269,570	340,176	-0,046	0,065
-268,555	97,971	-0,042	-0,035
-267,540	800,000	0,050	-0,112
-266,526	-153,471	-0,118	-0,006
-265,511	-200,000	0,007	0,111
-264,497	-78,175	0,120	-0,030
-263,482	561,393	0,090	-0,158
-262,467	-17,136	-0,066	0,030
-261,453	-12,565	0,027	-0,013
-260,438	210,131	-0,067	-0,076
-259,424	-200,000	-0,059	-0,255
-258,409	297,306	0,054	-0,072
-257,395	43,678	0,023	-0,015
-256,380	-23,325	0,098	0,043
-255,365	-82,369	0,123	-0,029
-254,351	-30,212	-0,172	0,070
-253,336	86,495	0,046	-0,036
-252,322	800,000	0,028	-0,069
-251,307	269,601	-0,056	0,071
-250,292	-91,574	0,061	0,013
-249,278	-49,138	0,126	-0,043
-248,263	22,735	-0,056	0,033
-247,249	41,311	-0,113	0,074
-246,234	-189,470	-0,096	0,001
-245,219	439,169	-0,106	0,169
-244,205	800,000	-0,022	0,050
-243,190	54,874	0,228	0,159
-242,176	65,314	-0,084	0,061
-241,161	-22,080	-0,026	0,011
-240,146	-11,080	0,066	-0,032
-239,132	348,609	0,070	0,100
-238,117	-200,000	0,026	-0,114
-237,103	-128,336	0,048	-0,005
-236,088	-20,293	0,051	-0,023
-235,073	800,000	0,032	-0,082
-234,059	145,102	0,057	-0,055
-233,044	-179,175	0,042	0,001
-232,030	-101,631	0,233	-0,040
-231,015	-5,691	-0,148	0,073
-230,000	-156,747	0,124	0,005
-228,986	800,000	-0,002	0,006
-227,971	-40,773	-0,021	-0,008
-226,957	-200,000	0,027	0,098
-225,942	-200,000	-0,018	-0,162
-224,927	16,075	-0,047	0,027
-223,913	358,050	-0,104	-0,150
-222,898	565,685	0,043	0,076
-221,884	736,151	0,074	-0,144
-220,869	-200,000	0,020	0,091
-219,855	42,811	0,081	0,053
-218,840	357,874	0,087	0,125
-217,825	684,555	0,005	-0,010
-216,811	-40,111	0,059	0,022
-215,796	-200,000	-0,023	-0,125
-214,782	-27,031	-0,109	0,046
-213,767	-200,000	-0,028	-0,144
-212,752	507,654	0,080	0,134
-211,738	800,000	0,100	0,247
-210,723	-41,699	-0,086	0,032
-209,709	-62,009	-0,244	0,073
-208,694	-200,000	-0,015	0,100
-207,679	-157,827	-0,085	0,004
-206,665	800,000	-0,075	0,181
-205,650	-7,167	-0,079	0,039
-204,636	228,489	-0,052	0,061
-203,621	41,055	0,063	-0,041
-202,606	-200,000	-0,008	0,105
-201,592	-122,409	0,050	0,006
-200,577	-81,884	0,070	0,017
-199,563	-128,753	0,118	0,012
-198,548	-200,000	0,068	-0,000
-197,533	-200,000	-0,041	0,146
-196,519	54,058	-0,035	0,024
-195,504	10,657	0,078	0,043
-194,490	-86,857	-0,136	0,030
-193,475	-200,000	0,016	-0,086
-192,460	237,336	0,032	0,039
-191,446	-140,912	-0,165	-0,012
-190,431	800,000	0,047	0,107
-189,417	-158,080	0,058	0,002
-188,402	-6,841	-0,194	-0,095
-187,387	-164,189	-0,092	-0,003
-186,373	-15,324	-0,115	-0,053
-185,358	106,801	0,116	0,100
-184,344	800,000	-0,070	0,194
-183,329	249,366	-0,038	-0,047
-182,315	-200,000	-0,014	-0,096
-181,300	-57,237	-0,099	-0,031
-180,285	495,107	-0,043	-0,072
-179,271	-48,216	0,051	-0,018
-178,256	-49,992	0,055	0,019
-177,242	430,617	0,013	0,020
-176,227	110,725	0,092	0,080
-175,212	-200,000	-0,010	0,118
-174,198	573,069	0,035	-0,062
-173,183	36,042	-0,047	0,030
-172,169	800,000	0,029	-0,082
-171,154	-121,736	0,165	-0,019
-170,139	96,793	-0,109	-0,090
-169,125	-200,000	0,011	-0,067
-168,110	-57,069	0,029	-0,009
-167,096	650,966	-0,023	-0,044
-166,081	122,060	-0,119	-0,108
-165,066	-161,160	-0,165	0,006
-164,052	-200,000	-0,025	0,120
-163,037	800,000	0,072	0,170
-162,023	277,309	0,114	0,146
-161,008	11,748	0,122	-0,067
-159,993	-200,000	-0,000	-0,031
-158,979	800,000	-0,061	-0,168
-157,964	61,950	-0,018	0,013
-156,950	45,475	0,080	0,053
-155,935	-35,526	0,020	-0,008
-154,920	-181,508	0,029	-0,000
-153,906	-6,145	0,040	-0,020
-152,891	52,544	0,057	-0,039
-151,877	305,309	-0,121	-0,162
-150,862	150,713	-0,038	-0,037
-149,847	-116,091	0,038	0,005
-148,833	-13,921	0,053	0,024
-147,818	-200,000	0,016	0,052
-146,804	41,756	0,046	0,030
-145,789	800,000	0,045	0,115
-144,775	138,949	-0,020	-0,019
-143,760	-200,000	-0,001	-0,080
-142,745	800,000	0,051	0,138
-141,731	129,855	0,070	-0,065
-140,716	22,139	-0,073	-0,043
-139,702	760,943	0,024	-0,048
-138,687	-19,028	0,042	-0,019
-137,672	-52,804	0,050	0,017
-136,658	-107,768	-0,134	0,021
-135,643	23,715	-0,091	0,054
-134,629	-164,000	0,121	-0,004
-133,614	-14,528	-0,015	0,007
-132,599	-63,183	0,104	0,031
-131,585	196,141	-0,030	-0,033
-130,570	-100,833	0,022	0,004
-129,556	63,387	-0,109	-0,079
-128,541	-200,000	0,006	-0,057
-127,526	-200,000	0,002	0,084
-126,512	-200,000	0,032	0,106
-125,497	-49,109	-0,126	0,043
-124,483	-157,805	0,120	-0,005
-123,468	800,000	-0,058	0,125
-122,453	-79,451	0,132	-0,032
-121,439	800,000	0,014	0,028
-120,424	-200,000	-0,007	-0,034
-119,410	-200,000	-0,019	-0,108
-118,395	426,994	0,046	0,072
