DTS Sentinel unit serial number:	SN410029Multiplexer serial number:	ORYXHardware model number:	OX2-SRSoftware version number:	ORYX F/W v4,00 Oryx Data Collector v3.7.2.0data status	okinstallation	B5 Nyhavnadifferential loss correction	single-endedforward channel	channel 2reverse channel	N/Adate	2023/12/12time	03:37:13forward acquisition time	300,00reverse acquisition time	0,00gamma	499,1914k internal	0,3156k external	0,3156temperature offset calibration	1,0000default loss term (dB/km)	0,3820temperature slope calibration	1,0000multiplexer offset coefficient	1,0000multiplexer slope coefficient	1,0000fibre end	0,00T internal ref (°C)	15,66T ext. ref 1 (°C)	-0,82T ext. ref 2 (°C)	-1,12length (m)	temperature (°C)	Stokes	anti-Stokes-744,400	-17,615	0,103	-0,048
-743,385	27,858	-0,171	-0,106
-742,371	170,320	0,064	0,067
-741,356	-106,375	-0,315	-0,051
-740,342	36,963	0,139	0,090
-739,327	-143,590	-0,287	-0,020
-738,312	-67,914	0,066	-0,019
-737,298	-200,000	-0,302	0,000
-736,283	800,000	0,019	0,060
-735,269	-15,395	-0,132	0,062
-734,254	-81,637	0,056	0,013
-733,239	-107,389	-0,464	-0,074
-732,225	120,244	0,093	0,085
-731,210	-31,859	0,131	0,054
-730,196	800,000	0,053	-0,108
-729,181	416,353	-0,045	-0,072
-728,167	176,560	-0,058	0,062
-727,152	205,191	0,011	0,013
-726,137	91,350	-0,039	-0,032
-725,123	-200,000	0,011	-0,098
-724,108	800,000	0,049	-0,150
-723,094	-135,275	-0,184	0,016
-722,079	-37,591	-0,048	0,019
-721,064	-45,019	-0,083	-0,030
-720,050	-119,516	-0,207	-0,026
-719,035	-32,716	-0,059	0,024
-718,021	-200,000	0,016	-0,193
-717,006	369,526	0,046	-0,069
-715,991	800,000	-0,096	-0,256
-714,977	-156,166	-0,011	-0,001
-713,962	-200,000	-0,002	-0,129
-712,948	1,667	-0,124	0,065
-711,933	-100,674	0,069	-0,012
-710,918	-165,905	0,094	-0,003
-709,904	143,642	-0,186	-0,183
-708,889	-200,000	0,002	-0,105
-707,875	-200,000	0,015	-0,089
-706,860	-200,000	0,017	0,056
-705,845	-50,656	-0,064	-0,022
-704,831	800,000	-0,024	0,065
-703,816	-200,000	-0,096	0,000
-702,802	-200,000	0,045	-0,168
-701,787	14,515	-0,075	-0,043
-700,772	-104,461	0,074	0,013
-699,758	-77,091	-0,162	0,041
-698,743	800,000	0,035	-0,084
-697,729	-200,000	-0,006	0,097
-696,714	117,516	-0,080	0,073
-695,699	250,475	-0,054	0,068
-694,685	170,011	-0,080	-0,084
-693,670	-200,000	0,000	0,054
-692,656	-200,000	0,000	-0,116
-691,641	176,148	0,079	-0,085
-690,627	105,284	-0,056	0,049
-689,612	-200,000	-0,013	-0,132
-688,597	-200,000	-0,050	-0,182
-687,583	-45,352	-0,119	-0,043
-686,568	-73,630	-0,057	-0,015
-685,554	139,308	0,040	0,039
-684,539	-200,000	0,015	0,079
-683,524	248,845	-0,078	-0,097
-682,510	-58,607	0,094	0,030
-681,495	267,986	-0,007	-0,008
-680,481	342,910	-0,033	0,048
-679,466	-9,340	-0,114	0,056
-678,451	-200,000	0,031	0,120
-677,437	-155,349	0,052	0,002
-676,422	16,889	-0,044	0,025
-675,408	800,000	-0,043	0,097
-674,393	44,813	0,050	0,034
-673,378	800,000	-0,040	-0,102
-672,364	-28,886	-0,099	0,041
-671,349	800,000	0,063	-0,192
-670,335	328,631	-0,074	-0,104
-669,320	385,399	0,014	-0,021
-668,305	-36,819	0,068	-0,027
-667,291	31,537	-0,030	-0,019
-666,276	-200,000	0,005	0,044
-665,262	-200,000	-0,009	-0,039
-664,247	-8,273	-0,136	-0,067
-663,232	119,539	-0,054	0,049
-662,218	6,743	-0,057	0,031
-661,203	800,000	-0,042	0,090
-660,189	-200,000	0,010	0,114
-659,174	163,453	-0,068	-0,070
-658,159	-40,978	-0,023	0,009
-657,145	800,000	0,030	0,065
-656,130	-21,261	-0,193	0,087
-655,116	-200,000	0,005	-0,029
-654,101	-200,000	-0,008	-0,034
-653,086	-200,000	0,010	-0,107
-652,072	-90,341	-0,052	0,011
-651,057	502,304	-0,090	-0,153
-650,043	305,911	0,031	-0,042
-649,028	-200,000	0,026	-0,119
-648,014	78,781	0,043	0,034
-646,999	-200,000	-0,013	-0,108
-645,984	352,442	0,025	-0,037
-644,970	800,000	0,027	0,088
-643,955	-200,000	0,004	-0,070
-642,941	4,292	-0,067	-0,036
-641,926	-82,817	0,126	-0,030
-640,911	800,000	0,052	-0,118
-639,897	-2,251	0,117	-0,060
-638,882	-88,323	-0,060	0,013
-637,868	800,000	0,090	0,200
-636,853	-76,739	-0,072	-0,018
-635,838	-200,000	0,164	0,000
-634,824	-173,343	-0,072	0,002
-633,809	405,418	0,044	0,068
-632,795	-200,000	0,012	-0,073
-631,780	-88,323	0,306	0,067
-630,765	-38,459	-0,030	-0,012
-629,751	38,214	-0,085	-0,056
-628,736	-0,608	-0,076	0,040
-627,722	-200,000	0,009	0,079
-626,707	119,935	0,087	0,079
-625,692	-34,942	0,069	0,028
-624,678	29,296	-0,098	0,061
-623,663	-200,000	-0,015	0,103
-622,649	-29,774	0,046	0,019
-621,634	215,710	-0,063	-0,074
-620,619	-91,532	-0,045	0,009
-619,605	-200,000	0,018	-0,163
-618,590	18,102	-0,064	-0,037
-617,576	-78,198	0,050	0,012
-616,561	510,523	-0,046	0,079
-615,546	-18,103	-0,103	-0,047
-614,532	375,991	-0,139	-0,208
-613,517	-200,000	-0,020	-0,102
-612,503	-36,254	-0,156	-0,061
-611,488	800,000	-0,012	0,030
-610,474	-200,000	0,003	-0,046
-609,459	446,929	0,079	0,128
-608,444	149,825	-0,144	0,143
-607,430	800,000	-0,092	-0,225
-606,415	-90,372	-0,011	0,002
-605,401	-200,000	0,007	-0,034
-604,386	800,000	0,028	-0,090
-603,371	800,000	-0,005	-0,012
-602,357	800,000	0,033	-0,075
-601,342	223,653	-0,032	-0,038
-600,328	719,613	-0,047	-0,093
-599,313	800,000	-0,052	-0,112
-598,298	302,034	0,087	-0,119
-597,284	-67,084	0,040	-0,012
-596,269	-42,944	0,047	-0,017
-595,255	233,834	0,110	0,133
-594,240	-71,675	0,061	-0,016
-593,225	473,883	-0,014	0,023
-592,211	800,000	-0,006	-0,017
-591,196	800,000	-0,008	-0,023
-590,182	-65,185	-0,106	-0,031
-589,167	-200,000	-0,004	-0,038
-588,152	-200,000	-0,007	0,068
-587,138	-170,136	-0,094	0,002
-586,123	-79,413	-0,074	-0,018
-585,109	724,432	0,026	-0,051
-584,094	0,135	-0,078	0,041
-583,079	-160,442	0,056	-0,002
-582,065	-147,824	0,064	-0,004
-581,050	373,859	0,035	0,052
-580,036	390,087	0,012	0,018
-579,021	-200,000	-0,044	-0,181
-578,006	-77,880	-0,164	-0,041
-576,992	-8,254	0,053	-0,026
-575,977	-123,267	0,138	0,016
-574,963	40,824	-0,066	-0,044
-573,948	-136,845	-0,084	-0,007
-572,934	800,000	0,003	-0,008
-571,919	-200,000	-0,017	-0,130
-570,904	-54,910	-0,129	-0,042
-569,890	-200,000	-0,012	-0,145
-568,875	-147,461	0,055	-0,003
-567,861	-187,220	0,128	-0,001
-566,846	222,907	0,101	0,120
-565,831	800,000	0,023	0,059
-564,817	-33,396	-0,073	0,029
-563,802	800,000	0,034	-0,093
-562,788	98,938	0,060	0,051
-561,773	0,808	0,033	-0,017
-560,758	118,119	0,031	0,028
-559,744	-200,000	0,003	0,016
-558,729	54,891	-0,041	0,029
-557,715	-200,000	-0,013	0,077
-556,700	-66,366	-0,093	0,027
-555,685	800,000	0,034	-0,087
-554,671	-200,000	0,004	0,080
-553,656	-40,815	-0,070	-0,026
-552,642	800,000	-0,044	0,101
-551,627	-11,858	-0,067	0,032
-550,612	-200,000	0,006	0,038
-549,598	130,859	-0,013	0,012
-548,583	268,931	-0,087	-0,111
-547,569	3,820	-0,084	0,045
-546,554	-17,634	0,131	-0,060
-545,539	5,883	0,040	0,022
-544,525	261,705	-0,072	-0,091
-543,510	-54,114	-0,005	0,002
-542,496	30,777	-0,139	-0,087
-541,481	-12,764	0,078	-0,037
-540,466	-8,031	-0,099	-0,048
-539,452	31,216	0,040	0,025
-538,437	64,285	0,141	-0,104
-537,423	104,990	-0,036	0,031
-536,408	295,463	-0,005	0,007
-535,393	-51,089	-0,141	0,048
-534,379	128,547	0,046	0,043
-533,364	702,684	0,082	0,158
-532,350	800,000	-0,010	0,022
-531,335	-200,000	0,028	0,156
-530,321	-200,000	-0,019	0,079
-529,306	87,561	-0,059	0,047
-528,291	307,263	0,024	-0,032
-527,277	-200,000	-0,001	-0,170
-526,262	-119,070	-0,078	-0,010
-525,248	2,542	0,067	-0,035
-524,233	43,613	0,114	0,076
-523,218	800,000	0,059	0,120
-522,204	800,000	-0,016	0,041
-521,189	54,771	-0,045	-0,031
-520,175	-107,366	0,103	0,016
-519,160	148,638	-0,078	0,077
-518,145	800,000	0,075	0,168
-517,131	800,000	0,019	0,047
-516,116	-200,000	0,001	0,047
-515,102	68,306	-0,108	0,081
-514,087	75,787	-0,106	-0,082
-513,072	284,126	-0,078	-0,102
-512,058	-200,000	-0,002	-0,125
-511,043	-121,898	0,194	0,023
-510,029	83,428	0,036	0,029
-509,014	51,756	0,128	0,089
-507,999	5,724	0,132	0,071
-506,985	800,000	0,037	-0,114
-505,970	266,028	0,060	-0,077
-504,956	25,946	-0,028	-0,017
-503,941	-167,144	0,090	0,003
-502,926	-186,733	0,102	0,001
-501,912	-200,000	0,017	-0,154
-500,897	580,450	0,056	0,102
-499,883	-200,000	-0,022	0,181
-498,868	-66,388	-0,049	0,014
-497,853	666,266	-0,063	-0,119
-496,839	14,888	0,206	-0,117
-495,824	-200,000	-0,006	0,119
-494,810	765,102	0,035	0,070
-493,795	733,316	0,014	0,028
-492,781	58,834	0,077	0,055
-491,766	-200,000	-0,007	-0,030
-490,751	-143,823	-0,130	-0,009
-489,737	7,522	-0,027	0,015
-488,722	10,783	-0,072	0,040
-487,708	-50,015	0,051	-0,018
-486,693	-16,260	-0,027	-0,012
-485,678	488,492	-0,036	0,060
-484,664	73,851	-0,168	-0,128
-483,649	4,107	-0,040	0,021
-482,635	800,000	-0,023	0,053
-481,620	236,225	0,025	-0,030
-480,605	-19,339	0,038	0,017
-479,591	84,352	-0,052	0,041
-478,576	-6,806	-0,048	-0,024
-477,562	-185,849	-0,114	0,001
-476,547	-72,738	0,111	-0,030
-475,532	-200,000	-0,005	0,039
-474,518	-36,229	0,035	0,014
-473,503	608,160	-0,014	-0,026
-472,489	-200,000	0,012	0,070
-471,474	-154,137	-0,135	-0,007
-470,459	-122,311	-0,130	0,015
-469,445	-200,000	-0,025	-0,081
-468,430	241,933	-0,112	0,138
-467,416	778,901	-0,042	-0,083
-466,401	330,284	-0,045	0,063
-465,386	-47,899	0,082	0,029
-464,372	202,866	0,065	0,073
-463,357	172,642	0,050	-0,053
-462,343	183,024	-0,139	-0,150
-461,328	-200,000	0,009	-0,064
-460,313	134,461	0,110	-0,104
-459,299	266,637	-0,074	0,095
-458,284	9,881	0,111	0,061
-457,270	387,211	-0,014	0,021
-456,255	61,575	0,055	-0,040
-455,241	77,535	-0,106	-0,083
-454,226	800,000	0,032	-0,069
-453,211	-200,000	0,005	-0,134
-452,197	77,668	-0,046	-0,036
-451,182	-36,681	0,148	0,058
-450,168	-28,373	-0,086	-0,036
-449,153	-85,942	0,068	-0,015
-448,138	250,308	0,032	0,039
-447,124	57,673	-0,125	-0,089
-446,109	-8,787	0,051	-0,025
-445,095	88,151	0,048	0,039
-444,080	721,891	0,025	-0,049
-443,065	800,000	-0,037	-0,097
-442,051	-11,264	0,073	0,035
-441,036	-200,000	0,005	0,086
-440,022	800,000	-0,025	-0,055
-439,007	389,007	-0,114	0,173
-437,992	33,791	0,045	0,028
-436,978	-107,402	0,039	-0,006
-435,963	120,844	-0,015	-0,014
-434,949	63,492	-0,036	0,027
-433,934	-200,000	0,013	-0,159
-432,919	406,037	-0,035	-0,054
-431,905	-200,000	-0,002	0,148
-430,890	295,038	0,044	-0,059
-429,876	-200,000	0,020	0,110
-428,861	-200,000	0,003	0,156
-427,846	800,000	0,056	-0,126
-426,832	-200,000	-0,001	-0,051
-425,817	10,888	-0,066	-0,037
-424,803	-68,710	0,076	0,021
-423,788	53,931	0,097	-0,068
-422,773	-200,000	0,052	0,205
-421,759	211,079	0,039	0,045
-420,744	-92,620	0,085	0,017
-419,730	-200,000	0,022	0,107
-418,715	143,582	0,040	0,038
-417,701	-12,155	0,076	-0,036
-416,686	34,943	0,023	-0,015
-415,671	-200,000	0,024	0,103
-414,657	-92,852	0,053	-0,011
-413,642	-51,855	-0,097	0,033
-412,628	-200,000	-0,024	-0,092
-411,613	-131,681	-0,208	0,020
-410,598	84,667	0,057	0,046
-409,584	-20,835	-0,030	0,013
-408,569	319,206	0,070	0,096
-407,555	-200,000	-0,042	-0,177
-406,540	113,178	0,044	0,039
-405,525	257,116	0,087	0,109
-404,511	626,940	-0,015	0,028
-403,496	93,695	0,067	-0,055
-402,482	263,897	-0,060	0,077
-401,467	-200,000	0,151	-0,000
-400,452	630,581	0,059	0,110
-399,438	800,000	0,075	0,166
-398,423	2,719	0,084	0,044
-397,409	344,470	-0,032	-0,046
-396,394	-47,093	0,078	-0,027
-395,379	800,000	0,022	0,056
-394,365	-200,000	-0,014	-0,072
-393,350	-200,000	0,016	0,167
-392,336	-41,495	-0,119	-0,044
-391,321	-200,000	-0,013	-0,116
-390,306	-102,504	-0,137	0,024
-389,292	328,010	-0,043	-0,061
-388,277	-145,391	-0,137	0,009
-387,263	-82,153	0,113	0,027
-386,248	-48,392	0,035	-0,012
-385,233	319,498	-0,050	-0,069
-384,219	13,577	-0,082	-0,046
-383,204	207,038	0,075	-0,085
-382,190	277,828	-0,094	-0,121
-381,175	238,355	-0,023	0,028
-380,160	247,489	-0,056	0,069
-379,146	81,412	0,085	0,067
-378,131	784,407	0,054	0,107
-377,117	800,000	-0,023	-0,047
-376,102	72,288	-0,117	-0,089
-375,088	800,000	-0,015	0,046
-374,073	-122,044	0,123	-0,015
-373,058	-200,000	-0,002	-0,102
-372,044	-123,026	-0,010	0,001
-371,029	-13,010	0,049	0,023
-370,015	679,332	-0,031	0,060
-369,000	50,855	0,067	0,046
-367,985	197,195	-0,031	0,035
-366,971	800,000	0,026	-0,063
-365,956	-175,495	0,150	-0,003
-364,942	109,662	0,052	-0,045
-363,927	39,642	0,192	0,125
-362,912	271,096	0,038	0,048
-361,898	770,156	-0,049	-0,097
-360,883	34,321	-0,075	0,048
-359,869	116,240	-0,055	0,049
-358,854	798,840	0,032	0,064
-357,839	-21,125	-0,154	0,068
-356,825	800,000	0,051	0,126
-355,810	85,389	0,065	-0,052
-354,796	-200,000	0,007	-0,076
-353,781	-83,716	-0,107	0,025
-352,766	-200,000	0,023	-0,075
-351,752	-44,646	0,056	-0,020
-350,737	225,501	-0,068	-0,080
-349,723	-105,578	-0,035	-0,006
-348,708	162,969	0,069	-0,070
-347,693	-79,877	-0,099	0,024
-346,679	-23,940	-0,134	-0,058
-345,664	-101,509	-0,126	-0,022
-344,650	421,980	0,045	-0,070
-343,635	-200,000	-0,004	-0,033
-342,620	1,968	-0,090	0,047
-341,606	573,265	-0,053	-0,094
-340,591	-57,247	-0,076	0,024
-339,577	-200,000	-0,008	0,082
-338,562	800,000	-0,024	0,067
-337,548	648,824	-0,054	0,102
-336,533	800,000	-0,037	0,094
-335,518	-200,000	-0,009	-0,044
-334,504	758,011	0,073	0,145
-333,489	-200,000	0,004	-0,050
-332,475	248,475	-0,013	-0,015
-331,460	35,138	0,063	0,040
-330,445	-200,000	0,001	0,051
-329,431	-200,000	0,001	0,068
-328,416	183,399	-0,068	0,073
-327,402	-115,775	0,078	-0,010
-326,387	18,967	-0,072	-0,042
-325,372	-200,000	0,006	-0,035
-324,358	-157,880	0,094	-0,004
-323,343	1,287	0,092	0,048
-322,329	111,288	0,027	-0,024
-321,314	362,703	0,083	-0,122
-320,299	-94,312	-0,039	0,008
-319,285	-172,352	-0,033	-0,001
-318,270	327,612	0,018	-0,025
-317,256	-89,263	0,050	-0,011
-316,241	-200,000	-0,009	0,070
-315,226	-200,000	0,015	0,239
-314,212	-200,000	-0,008	-0,069
-313,197	10,950	0,045	-0,025
-312,183	208,981	-0,031	-0,036
-311,168	800,000	0,040	0,107
-310,153	-200,000	0,011	-0,112
-309,139	554,620	0,083	-0,145
-308,124	220,283	0,067	-0,078
-307,110	-200,000	0,004	-0,054
-306,095	-141,986	0,049	0,004
-305,080	178,556	0,101	0,107
-304,066	-114,556	0,051	0,007
-303,051	-63,479	-0,124	-0,037
-302,037	279,332	-0,088	-0,115
-301,022	-189,353	-0,115	-0,001
-300,008	-200,000	-0,032	0,121
-298,993	120,156	0,090	0,081
-297,978	300,848	-0,020	-0,027
-296,964	-63,411	-0,156	0,046
-295,949	-31,728	-0,100	-0,041
-294,935	-200,000	0,028	-0,094
-293,920	800,000	0,020	-0,045
-292,905	479,947	-0,073	0,121
-291,891	-106,957	-0,038	-0,006
-290,876	-6,781	-0,035	0,017
-289,862	-88,120	0,066	0,014
-288,847	44,901	0,067	-0,044
-287,832	-35,341	0,172	-0,067
-286,818	49,750	0,047	0,032
-285,803	82,979	-0,074	0,058
-284,789	52,869	0,115	0,080
-283,774	-200,000	0,030	0,133
-282,759	68,279	0,033	-0,024
-281,745	175,749	0,073	-0,077
-280,730	116,150	-0,113	-0,100
-279,716	-166,865	0,109	0,003
-278,701	-200,000	-0,003	-0,130
-277,686	-134,903	-0,041	0,004
-276,672	38,861	0,026	0,017
-275,657	-81,532	0,148	-0,035
-274,643	309,898	-0,055	-0,075
-273,628	305,795	-0,031	-0,042
-272,613	-200,000	-0,014	0,096
-271,599	-122,610	0,106	-0,012
-270,584	800,000	-0,021	-0,053
-269,570	73,722	-0,095	0,072
-268,555	435,028	-0,044	0,070
-267,540	34,967	-0,038	-0,024
-266,526	9,005	-0,079	0,043
-265,511	-49,081	-0,086	0,030
-264,497	516,437	-0,015	0,026
-263,482	81,351	0,037	-0,029
-262,467	-200,000	0,016	0,115
-261,453	572,178	-0,036	0,063
-260,438	-11,642	-0,158	0,075
-259,424	14,018	-0,035	0,020
-258,409	800,000	0,061	0,127
-257,395	-77,735	0,068	-0,017
-256,380	163,232	0,110	0,112
-255,365	-200,000	-0,002	0,061
-254,351	-200,000	0,019	-0,083
-253,336	49,060	-0,072	-0,049
-252,322	43,523	0,043	0,028
-251,307	563,066	0,084	0,147
-250,292	-51,951	-0,048	-0,016
-249,278	94,880	0,055	-0,045
-248,263	800,000	-0,031	-0,064
-247,249	800,000	-0,017	0,045
-246,234	800,000	0,042	0,097
-245,219	-200,000	0,002	-0,010
-244,205	-200,000	0,041	-0,158
-243,190	473,408	0,028	-0,046
-242,176	-200,000	-0,005	0,041
-241,161	800,000	-0,017	0,041
-240,146	800,000	-0,045	-0,096
-239,132	676,451	-0,072	-0,136
-238,117	285,724	0,014	0,018
-237,103	800,000	-0,016	0,038
-236,088	-43,816	0,023	-0,008
-235,073	327,507	0,058	0,080
-234,059	-200,000	0,001	0,031
-233,044	-200,000	-0,055	0,283
-232,030	122,252	-0,055	0,049
-231,015	256,891	0,076	-0,094
-230,000	-56,882	-0,105	0,033
-228,986	-46,794	0,051	-0,018
-227,971	-200,000	-0,005	0,028
-226,957	-10,594	0,066	0,031
-225,942	800,000	-0,028	-0,074
-224,927	510,744	0,063	-0,106
-223,913	-41,921	-0,168	-0,062
-222,898	-122,414	0,141	0,016
-221,884	800,000	-0,017	-0,034
-220,869	-56,147	0,090	0,029
-219,855	-121,628	0,111	0,013
-218,840	-200,000	-0,018	-0,163
-217,825	800,000	0,052	-0,137
-216,811	506,317	-0,028	0,047
-215,796	800,000	-0,052	-0,151
-214,782	7,616	-0,038	0,020
-213,767	474,292	-0,050	0,081
-212,752	-11,139	0,126	0,060
-211,738	-200,000	0,015	0,109
-210,723	-25,759	0,119	-0,050
-209,709	-20,798	-0,079	-0,035
-208,694	207,421	-0,095	-0,108
-207,679	-92,308	0,137	-0,028
-206,665	97,071	-0,082	0,068
-205,650	-21,490	0,082	-0,036
-204,636	-200,000	-0,006	-0,047
-203,621	115,164	-0,045	0,039
-202,606	-81,259	-0,035	-0,008
-201,592	395,699	-0,058	-0,088
-200,577	-200,000	-0,012	-0,075
-199,563	-45,016	-0,108	-0,039
-198,548	291,644	0,070	0,092
-197,533	77,348	0,098	-0,075
-196,519	27,263	-0,111	-0,067
-195,504	282,701	0,051	-0,066
-194,490	-109,124	-0,118	-0,018
-193,475	-200,000	0,032	-0,132
-192,460	216,265	0,043	-0,049
-191,446	366,557	0,040	0,059
-190,431	-61,141	-0,048	0,015
-189,417	-79,456	-0,130	-0,031
-188,402	88,312	-0,103	0,083
-187,387	152,027	-0,088	-0,086
-186,373	462,854	-0,098	-0,159
-185,358	-16,141	0,070	-0,032
-184,344	658,676	-0,026	0,049
-183,329	-200,000	-0,000	0,075
-182,315	142,024	0,108	0,104
-181,300	24,407	0,076	0,045
-180,285	-138,049	0,022	0,002
-179,271	-200,000	-0,003	0,052
-178,256	-4,345	-0,036	-0,018
-177,242	-96,874	-0,070	-0,013
-176,227	97,903	0,111	0,092
-175,212	393,131	-0,015	-0,022
-174,198	-44,193	-0,069	0,025
-173,183	39,501	-0,058	-0,037
-172,169	-91,578	0,099	0,020
-171,154	-200,000	0,015	-0,090
-170,139	147,285	-0,054	-0,052
-169,125	-200,000	0,003	-0,013
-168,110	245,630	0,096	0,117
-167,096	111,866	0,065	0,057
-166,081	-7,961	-0,130	0,063
-165,066	-35,913	0,128	-0,050
-164,052	-70,042	-0,089	0,024
-163,037	295,367	-0,069	0,091
-162,023	282,880	0,022	0,029
-161,008	194,608	-0,066	0,072
-159,993	-200,000	-0,023	0,115
-158,979	292,372	-0,025	0,033
-157,964	176,628	0,036	-0,038
-156,950	118,954	-0,079	-0,070
-155,935	800,000	0,038	0,090
-154,920	-47,655	-0,066	-0,023
-153,906	-68,796	-0,132	-0,037
-152,891	-200,000	0,037	-0,128
-151,877	92,791	-0,057	0,046
-150,862	583,954	-0,056	-0,100
-149,847	800,000	-0,060	-0,169
-148,833	-146,440	0,049	0,003
-147,818	-48,494	-0,114	0,039
-146,804	-104,257	-0,100	-0,017
-145,789	800,000	-0,053	0,140
-144,775	-78,623	0,016	0,004
-143,760	12,092	-0,115	0,063
-142,745	45,928	-0,077	-0,051
-141,731	470,794	-0,048	-0,078
-140,716	800,000	-0,018	-0,040
-139,702	-200,000	-0,004	-0,062
-138,687	-200,000	0,011	0,167
-137,672	-141,985	-0,045	0,003
-136,658	51,944	-0,193	0,132
-135,643	95,879	0,156	-0,129
-134,629	27,471	-0,108	0,065
-133,614	171,388	-0,084	0,086
-132,599	14,951	0,185	0,104
-131,585	154,440	0,028	0,027
-130,570	-200,000	-0,006	0,124
-129,556	204,576	-0,033	0,036
-128,541	66,246	-0,100	-0,073
-127,526	-200,000	0,019	0,098
-126,512	-200,000	-0,011	0,043
-125,497	231,695	0,057	0,067
-124,483	371,456	0,030	0,045
-123,468	-178,353	-0,063	-0,001
-122,453	-200,000	0,008	-0,119
-121,439	378,100	-0,019	-0,029
-120,424	-119,429	-0,031	-0,004
-119,410	-168,457	-0,070	-0,002
-118,395	439,426	-0,018	0,028
