DTS Sentinel unit serial number:	SN410029Multiplexer serial number:	ORYXHardware model number:	OX2-SRSoftware version number:	ORYX F/W v4,00 Oryx Data Collector v3.7.2.0data status	okinstallation	B5 Nyhavnadifferential loss correction	single-endedforward channel	channel 2reverse channel	N/Adate	2023/12/12time	15:07:14forward acquisition time	300,00reverse acquisition time	0,00gamma	499,1914k internal	0,3156k external	0,3156temperature offset calibration	1,0000default loss term (dB/km)	0,3820temperature slope calibration	1,0000multiplexer offset coefficient	1,0000multiplexer slope coefficient	1,0000fibre end	0,00T internal ref (°C)	15,92T ext. ref 1 (°C)	-0,37T ext. ref 2 (°C)	-0,63length (m)	temperature (°C)	Stokes	anti-Stokes-744,400	102,266	-0,035	-0,030
-743,385	-131,173	-0,224	-0,022
-742,371	61,048	0,156	-0,114
-741,356	-110,259	-0,297	-0,045
-740,342	176,064	-0,033	0,036
-739,327	-5,957	-0,138	-0,069
-738,312	-44,542	0,075	0,028
-737,298	-101,976	-0,384	-0,068
-736,283	-200,000	0,018	0,090
-735,269	-52,760	-0,149	-0,050
-734,254	36,989	-0,020	0,013
-733,239	-114,315	-0,440	-0,062
-732,225	-109,459	0,155	-0,024
-731,210	170,591	-0,094	0,100
-730,196	151,296	-0,029	0,029
-729,181	157,171	-0,025	0,026
-728,167	536,402	0,028	-0,049
-727,152	16,379	0,069	0,040
-726,137	164,687	0,042	-0,044
-725,123	800,000	-0,047	0,120
-724,108	-58,966	-0,170	0,054
-723,094	-200,000	-0,022	-0,135
-722,079	-200,000	-0,011	-0,109
-721,064	-7,325	-0,111	-0,055
-720,050	-200,000	0,014	-0,105
-719,035	129,896	-0,018	-0,017
-718,021	260,067	0,057	0,073
-717,006	119,596	-0,076	-0,069
-715,991	-80,154	0,074	0,018
-714,977	-57,623	-0,156	-0,050
-713,962	142,288	0,025	-0,025
-712,948	-59,169	-0,069	0,022
-711,933	139,243	-0,049	-0,048
-710,918	599,652	0,052	0,095
-709,904	68,973	0,034	-0,025
-708,889	-200,000	0,017	-0,086
-707,875	-200,000	-0,031	-0,168
-706,860	-47,493	0,059	-0,021
-705,845	-85,253	0,045	-0,010
-704,831	-200,000	0,012	-0,047
-703,816	-200,000	0,006	-0,055
-702,802	601,469	-0,083	-0,152
-701,787	-200,000	-0,019	-0,078
-700,772	629,531	-0,032	-0,060
-699,758	164,817	-0,035	-0,037
-698,743	51,406	-0,060	0,042
-697,729	-77,461	0,110	-0,028
-696,714	-172,690	0,036	-0,001
-695,699	800,000	-0,028	0,060
-694,685	49,171	0,079	0,055
-693,670	121,837	0,027	-0,025
-692,656	-105,191	-0,085	-0,014
-691,641	800,000	-0,034	-0,111
-690,627	306,153	0,050	-0,068
-689,612	172,867	-0,065	-0,069
-688,597	123,635	-0,040	-0,037
-687,583	-39,130	-0,065	-0,025
-686,568	-200,000	0,037	-0,121
-685,554	-134,268	-0,131	0,012
-684,539	-25,956	0,172	0,074
-683,524	100,544	-0,029	0,025
-682,510	-136,894	0,139	0,012
-681,495	266,903	-0,060	-0,078
-680,481	800,000	-0,029	-0,062
-679,466	-72,306	-0,174	-0,047
-678,451	53,586	0,089	-0,063
-677,437	-200,000	0,005	0,023
-676,422	658,326	-0,007	-0,013
-675,408	136,308	0,073	0,070
-674,393	800,000	0,021	0,047
-673,378	82,774	-0,097	-0,078
-672,364	79,530	0,110	0,087
-671,349	184,786	-0,039	-0,042
-670,335	-200,000	-0,014	-0,070
-669,320	-82,058	0,140	0,033
-668,305	800,000	0,068	-0,170
-667,291	-1,237	0,111	-0,058
-666,276	271,027	-0,075	-0,098
-665,262	74,358	-0,103	-0,080
-664,247	800,000	-0,046	-0,115
-663,232	235,799	0,090	-0,110
-662,218	-200,000	-0,009	0,108
-661,203	14,571	-0,051	-0,029
-660,189	-37,719	0,028	0,011
-659,174	272,751	-0,104	0,135
-658,159	-54,391	-0,095	0,031
-657,145	-98,581	-0,094	-0,017
-656,130	-9,009	-0,162	0,079
-655,116	75,716	-0,096	0,074
-654,101	31,526	0,041	0,026
-653,086	800,000	-0,036	0,086
-652,072	-157,143	0,099	-0,004
-651,057	-17,777	0,041	0,019
-650,043	755,950	0,038	0,075
-649,028	6,996	-0,081	0,044
-648,014	-200,000	-0,007	0,078
-646,999	-6,279	0,048	-0,024
-645,984	-200,000	0,004	0,017
-644,970	-56,893	-0,110	0,035
-643,955	50,685	-0,045	0,031
-642,941	677,239	-0,063	-0,122
-641,926	800,000	-0,056	-0,125
-640,911	-52,203	0,065	-0,022
-639,897	-200,000	0,005	-0,095
-638,882	-29,401	-0,102	0,043
-637,868	-31,847	0,132	-0,054
-636,853	-200,000	0,026	-0,118
-635,838	-200,000	0,005	-0,024
-634,824	-200,000	-0,008	0,026
-633,809	-200,000	0,002	0,029
-632,795	250,114	0,019	-0,024
-631,780	-40,963	0,030	0,011
-630,765	16,713	-0,023	0,013
-629,751	173,145	-0,023	0,024
-628,736	800,000	-0,019	-0,052
-627,722	4,055	0,041	-0,022
-626,707	-200,000	-0,017	0,098
-625,692	-200,000	-0,059	0,194
-624,678	254,220	-0,096	0,121
-623,663	-200,000	-0,005	-0,027
-622,649	-200,000	-0,010	0,098
-621,634	271,941	-0,037	-0,048
-620,619	63,999	-0,063	0,047
-619,605	309,618	-0,047	-0,065
-618,590	137,426	0,069	0,066
-617,576	-200,000	0,003	-0,168
-616,561	262,996	-0,006	-0,008
-615,546	-200,000	0,001	-0,099
-614,532	-19,998	-0,141	0,064
-613,517	135,682	-0,047	-0,045
-612,503	-80,690	0,053	-0,013
-611,488	-86,448	0,160	0,036
-610,474	-53,649	-0,078	-0,026
-609,459	-143,938	-0,125	0,008
-608,444	-200,000	0,012	0,082
-607,430	-70,528	-0,078	-0,022
-606,415	46,358	-0,026	-0,018
-605,401	800,000	-0,034	-0,082
-604,386	-47,310	-0,020	0,007
-603,371	-33,139	0,141	-0,057
-602,357	800,000	0,015	0,042
-601,342	800,000	-0,027	-0,059
-600,328	-14,974	-0,070	0,033
-599,313	-2,596	-0,051	-0,026
-598,298	177,009	0,061	-0,066
-597,284	-192,212	-0,104	0,001
-596,269	-200,000	0,002	-0,017
-595,255	157,156	0,095	-0,097
-594,240	-151,647	0,071	-0,004
-593,225	-200,000	0,006	0,051
-592,211	375,149	0,072	0,108
-591,196	132,614	-0,083	-0,078
-590,182	56,914	0,089	-0,063
-589,167	-108,514	0,078	0,012
-588,152	-76,990	-0,125	-0,032
-587,138	-158,493	-0,139	-0,006
-586,123	800,000	-0,055	-0,144
-585,109	-200,000	-0,036	-0,185
-584,094	800,000	-0,033	-0,104
-583,079	1,859	-0,095	0,050
-582,065	204,124	0,060	-0,068
-581,050	-200,000	-0,009	-0,060
-580,036	-200,000	0,056	0,000
-579,021	31,519	-0,104	-0,065
-578,006	185,131	-0,071	0,077
-576,992	800,000	0,044	0,100
-575,977	649,010	0,012	-0,023
-574,963	-158,047	-0,040	0,002
-573,948	-87,756	-0,084	-0,018
-572,934	-200,000	0,026	0,108
-571,919	-58,594	-0,121	-0,038
-570,904	-200,000	-0,007	-0,028
-569,890	800,000	0,009	0,023
-568,875	27,792	-0,097	-0,059
-567,861	-59,060	-0,008	-0,002
-566,846	380,959	0,071	-0,107
-565,831	19,592	-0,178	-0,105
-564,817	-200,000	0,018	-0,138
-563,802	800,000	0,064	-0,149
-562,788	-200,000	-0,014	-0,116
-561,773	104,960	-0,070	0,061
-560,758	-36,825	0,045	0,018
-559,744	118,448	0,053	0,048
-558,729	-200,000	0,001	-0,113
-557,715	800,000	0,003	-0,008
-556,700	-200,000	-0,003	0,088
-555,685	-47,183	0,078	0,028
-554,671	-0,864	0,115	0,059
-553,656	-200,000	0,046	0,157
-552,642	-200,000	0,006	0,131
-551,627	-200,000	0,010	0,065
-550,612	509,459	-0,015	0,026
-549,598	800,000	0,017	-0,038
-548,583	36,941	-0,108	-0,070
-547,569	136,928	0,058	-0,055
-546,554	800,000	0,041	0,116
-545,539	-200,000	-0,001	0,261
-544,525	199,926	0,037	0,041
-543,510	-40,627	-0,088	-0,033
-542,496	578,102	0,053	0,095
-541,481	800,000	-0,044	-0,108
-540,466	285,115	-0,087	-0,115
-539,452	800,000	0,028	0,079
-538,437	201,106	0,045	0,051
-537,423	800,000	0,019	0,054
-536,408	800,000	0,018	0,050
-535,393	-200,000	-0,003	0,078
-534,379	296,411	-0,146	-0,196
-533,364	-127,437	0,078	-0,008
-532,350	-200,000	0,056	0,183
-531,335	800,000	0,044	-0,103
-530,321	72,844	0,030	0,023
-529,306	320,828	-0,029	-0,041
-528,291	800,000	0,031	-0,066
-527,277	-106,239	0,045	0,007
-526,262	-41,975	0,104	0,039
-525,248	-79,974	-0,067	0,016
-524,233	-58,164	0,029	0,009
-523,218	191,386	0,054	0,059
-522,204	-200,000	0,002	-0,072
-521,189	474,656	-0,033	-0,055
-520,175	-146,399	-0,088	-0,006
-519,160	414,953	-0,029	-0,046
-518,145	-72,730	0,133	0,036
-517,131	-200,000	0,010	-0,057
-516,116	-61,773	0,120	-0,037
-515,102	184,460	0,056	-0,061
-514,087	162,878	0,037	0,038
-513,072	-158,470	-0,132	-0,006
-512,058	-62,734	-0,053	-0,016
-511,043	259,159	0,001	-0,001
-510,029	-87,792	0,085	0,019
-509,014	-22,368	0,019	-0,009
-507,999	-200,000	0,013	0,061
-506,985	-200,000	-0,011	-0,093
-505,970	-25,566	0,120	0,051
-504,956	-158,831	-0,171	0,007
-503,941	-53,651	0,115	0,038
-502,926	396,094	0,099	-0,152
-501,912	800,000	0,013	0,038
-500,897	146,285	0,012	0,012
-499,883	164,836	-0,059	-0,061
-498,868	75,216	-0,077	-0,059
-497,853	7,532	-0,088	0,048
-496,839	-93,653	-0,163	0,033
-495,824	-84,944	-0,092	-0,021
-494,810	57,688	0,140	-0,100
-493,795	65,030	-0,043	-0,032
-492,781	-152,415	-0,077	-0,004
-491,766	780,353	-0,051	-0,103
-490,751	-6,217	0,075	-0,037
-489,737	800,000	-0,033	0,082
-488,722	131,130	-0,059	-0,056
-487,708	13,948	0,077	0,044
-486,693	-171,374	-0,109	0,003
-485,678	70,299	-0,060	-0,045
-484,664	33,533	-0,063	-0,040
-483,649	-79,174	-0,211	-0,052
-482,635	274,981	0,042	-0,054
-481,620	-200,000	-0,021	0,107
-480,605	800,000	0,033	0,067
-479,591	23,126	0,093	-0,056
-478,576	-200,000	-0,009	0,065
-477,562	494,320	-0,065	0,109
-476,547	-200,000	0,010	-0,070
-475,532	0,963	-0,157	-0,082
-474,518	543,232	-0,028	-0,049
-473,503	109,371	0,119	0,104
-472,489	-200,000	0,003	-0,038
-471,474	-118,845	-0,153	-0,019
-470,459	69,205	0,124	0,093
-469,445	800,000	0,027	-0,062
-468,430	754,200	-0,041	0,081
-467,416	800,000	-0,018	-0,051
-466,401	214,887	-0,048	0,056
-465,386	-118,216	0,075	-0,010
-464,372	-200,000	0,014	0,066
-463,357	109,270	0,082	-0,072
-462,343	-81,457	-0,078	-0,019
-461,328	800,000	0,038	-0,120
-460,313	2,569	-0,074	-0,039
-459,299	12,164	-0,148	0,083
-458,284	92,806	0,076	-0,063
-457,270	161,245	0,054	0,056
-456,255	-200,000	0,029	-0,161
-455,241	-200,000	0,002	-0,028
-454,226	-65,784	-0,203	0,059
-453,211	-200,000	-0,007	0,052
-452,197	397,121	-0,019	-0,029
-451,182	-110,832	0,074	0,011
-450,168	-46,882	-0,063	-0,022
-449,153	-42,172	0,153	0,057
-448,138	64,593	0,040	0,029
-447,124	-200,000	-0,002	-0,093
-446,109	800,000	0,011	0,029
-445,095	-65,748	0,106	-0,031
-444,080	-3,620	0,053	0,027
-443,065	-94,606	0,062	-0,012
-442,051	-200,000	-0,025	0,105
-441,036	-133,262	0,089	-0,008
-440,022	800,000	0,045	-0,145
-439,007	-64,939	-0,100	0,029
-437,992	-200,000	-0,011	-0,046
-436,978	154,382	0,025	-0,025
-435,963	-120,620	0,159	0,019
-434,949	800,000	-0,035	-0,086
-433,934	-29,575	0,049	-0,020
-432,919	800,000	0,033	0,097
-431,905	101,858	-0,106	0,090
-430,890	95,706	-0,083	-0,069
-429,876	-25,572	0,112	-0,048
-428,861	800,000	-0,027	0,080
-427,846	6,668	0,163	-0,088
-426,832	-200,000	-0,010	-0,086
-425,817	-104,046	-0,078	-0,013
-424,803	-200,000	0,013	-0,124
-423,788	405,486	-0,075	-0,115
-422,773	-90,021	0,060	0,013
-421,759	-200,000	0,017	0,103
-420,744	625,794	0,080	0,147
-419,730	209,980	0,020	-0,023
-418,715	800,000	-0,050	0,104
-417,701	-200,000	-0,004	-0,036
-416,686	800,000	-0,037	-0,082
-415,671	800,000	0,037	-0,100
-414,657	-200,000	-0,040	0,140
-413,642	-200,000	0,004	0,153
-412,628	-200,000	-0,010	-0,073
-411,613	800,000	0,017	-0,037
-410,598	-52,749	0,086	-0,029
-409,584	800,000	0,014	0,046
-408,569	-112,737	0,050	0,007
-407,555	-102,111	0,070	0,012
-406,540	58,774	-0,120	0,086
-405,525	-20,436	-0,066	0,029
-404,511	91,789	-0,049	-0,040
-403,496	800,000	0,019	0,062
-402,482	347,146	0,056	-0,081
-401,467	-200,000	0,011	0,219
-400,452	162,495	-0,068	0,070
-399,438	800,000	0,060	0,159
-398,423	474,907	-0,032	-0,052
-397,409	-200,000	-0,003	0,026
-396,394	60,119	-0,048	-0,034
-395,379	-51,107	0,047	-0,016
-394,365	48,491	0,068	0,047
-393,350	208,233	-0,094	0,107
-392,336	-92,460	0,078	-0,016
-391,321	0,818	-0,078	0,041
-390,306	113,531	-0,019	0,017
-389,292	132,604	0,067	-0,063
-388,277	-49,955	-0,039	-0,013
-387,263	-153,945	0,091	-0,004
-386,248	64,970	-0,040	-0,029
-385,233	583,543	0,036	-0,064
-384,219	-120,310	-0,089	-0,011
-383,204	-71,382	0,097	0,026
-382,190	316,533	0,040	-0,055
-381,175	800,000	-0,026	-0,066
-380,160	-99,758	0,152	-0,027
-379,146	-149,399	0,121	-0,007
-378,131	-94,708	0,042	0,008
-377,117	800,000	0,046	-0,093
-376,102	-200,000	0,007	-0,132
-375,088	800,000	0,014	0,032
-374,073	-126,118	-0,107	0,012
-373,058	671,683	0,029	-0,056
-372,044	-5,136	0,044	-0,022
-371,029	-7,406	0,024	-0,012
-370,015	40,569	0,172	0,112
-369,000	-200,000	-0,011	0,116
-367,985	-200,000	0,004	-0,027
-366,971	118,464	-0,064	-0,057
-365,956	-200,000	0,011	-0,075
-364,942	304,849	0,030	-0,041
-363,927	-47,403	0,095	-0,033
-362,912	165,407	0,112	0,115
-361,898	559,820	-0,057	-0,101
-360,883	-16,114	-0,040	0,019
-359,869	-10,717	-0,097	-0,046
-358,854	65,099	0,181	-0,133
-357,839	-200,000	-0,021	0,099
-356,825	-60,805	0,053	0,016
-355,810	-200,000	-0,003	0,062
-354,796	-200,000	0,018	-0,059
-353,781	-115,813	0,064	0,009
-352,766	-200,000	-0,003	-0,009
-351,752	-152,287	-0,108	0,006
-350,737	21,420	0,144	0,085
-349,723	672,985	-0,038	-0,073
-348,708	489,796	0,043	-0,071
-347,693	-200,000	0,124	0,000
-346,679	-200,000	0,044	-0,148
-345,664	-200,000	0,021	0,111
-344,650	-200,000	0,045	0,157
-343,635	-200,000	0,001	-0,155
-342,620	-123,568	0,010	0,001
-341,606	-125,041	-0,037	0,004
-340,591	-46,535	-0,064	-0,023
-339,577	800,000	-0,032	-0,066
-338,562	-63,467	0,110	0,033
-337,548	167,190	0,032	0,033
-336,533	59,843	0,066	0,047
-335,518	-35,090	-0,082	0,032
-334,504	247,178	0,121	0,148
-333,489	69,743	-0,125	-0,093
-332,475	-164,657	-0,034	0,001
-331,460	222,836	-0,055	0,065
-330,445	327,900	0,042	0,059
-329,431	1,666	0,077	0,040
-328,416	800,000	-0,057	0,127
-327,402	-200,000	0,015	0,216
-326,387	-152,777	0,119	0,006
-325,372	95,411	-0,061	-0,050
-324,358	-131,133	-0,104	-0,010
-323,343	56,777	-0,130	-0,092
-322,329	77,605	-0,079	-0,061
-321,314	800,000	0,026	0,071
-320,299	-200,000	-0,005	0,068
-319,285	-200,000	0,026	0,122
-318,270	721,455	-0,023	0,044
-317,256	164,348	-0,049	-0,050
-316,241	16,531	0,055	0,031
-315,226	299,139	0,044	-0,059
-314,212	-200,000	0,023	-0,085
-313,197	-200,000	-0,013	0,049
-312,183	-200,000	-0,010	-0,047
-311,168	-200,000	-0,022	-0,089
-310,153	416,017	0,035	-0,054
-309,139	-34,115	0,075	0,030
-308,124	-115,708	0,035	-0,005
-307,110	-113,922	0,194	0,027
-306,095	800,000	-0,107	-0,228
-305,080	-200,000	-0,014	-0,050
-304,066	156,815	0,120	-0,120
-303,051	137,865	-0,044	0,042
-302,037	1,751	-0,029	-0,015
-301,022	29,913	0,055	-0,034
-300,008	226,517	0,080	-0,094
-298,993	92,967	-0,055	0,045
-297,978	-200,000	-0,030	0,139
-296,964	338,876	-0,050	-0,070
-295,949	-165,407	0,059	-0,002
-294,935	800,000	-0,057	-0,149
-293,920	22,398	0,033	-0,019
-292,905	75,783	0,204	0,156
-291,891	183,992	-0,003	-0,003
-290,876	-135,093	0,215	-0,019
-289,862	-72,859	-0,065	0,017
-288,847	254,619	0,026	-0,032
-287,832	-200,000	-0,019	-0,144
-286,818	407,063	-0,016	-0,024
-285,803	-38,453	-0,048	0,018
-284,789	-34,038	-0,111	-0,044
-283,774	412,135	-0,046	0,071
-282,759	-150,221	0,089	-0,005
-281,745	36,033	-0,238	-0,152
-280,730	-65,578	-0,119	0,034
-279,716	29,159	-0,055	0,034
-278,701	-44,803	0,068	-0,024
-277,686	145,695	0,142	0,138
-276,672	-200,000	-0,002	0,109
-275,657	794,329	0,025	-0,050
-274,643	8,413	0,071	-0,039
-273,628	-29,342	0,104	0,043
-272,613	-200,000	-0,010	0,043
-271,599	218,236	0,022	-0,025
-270,584	139,935	-0,015	-0,015
-269,570	-41,783	-0,094	0,035
-268,555	-200,000	-0,024	0,082
-267,540	-200,000	-0,017	0,088
-266,526	800,000	-0,040	-0,105
-265,511	-105,907	0,065	-0,010
-264,497	521,660	-0,058	0,098
-263,482	96,024	0,072	0,060
-262,467	800,000	0,025	0,069
-261,453	741,949	-0,068	0,134
-260,438	119,698	-0,083	0,074
-259,424	-200,000	-0,012	-0,054
-258,409	-41,517	-0,128	-0,047
-257,395	98,315	0,029	-0,024
-256,380	495,318	-0,091	0,152
-255,365	6,260	0,090	-0,048
-254,351	-43,062	0,052	-0,019
-253,336	652,425	0,021	0,038
-252,322	75,882	-0,028	0,021
-251,307	68,971	-0,109	-0,081
-250,292	-200,000	-0,041	0,182
-249,278	-85,310	-0,064	0,014
-248,263	-96,237	0,033	-0,006
-247,249	600,426	0,050	-0,091
-246,234	-51,990	-0,135	-0,045
-245,219	15,181	0,145	-0,082
-244,205	-200,000	0,024	-0,124
-243,190	186,577	-0,036	-0,039
-242,176	63,971	0,061	0,044
-241,161	-200,000	-0,030	-0,154
-240,146	800,000	0,017	0,045
-239,132	-2,087	0,060	0,030
-238,117	800,000	-0,022	0,054
-237,103	-37,672	0,119	-0,046
-236,088	-58,372	-0,028	-0,009
-235,073	23,751	0,023	0,014
-234,059	210,877	0,078	-0,089
-233,044	259,130	0,040	0,050
-232,030	-91,799	-0,061	0,012
-231,015	800,000	-0,050	-0,142
-230,000	315,079	-0,044	0,060
-228,986	147,590	0,123	-0,120
-227,971	-15,820	0,075	-0,034
-226,957	484,896	0,043	0,071
-225,942	10,415	0,034	-0,019
-224,927	-200,000	-0,001	0,078
-223,913	800,000	-0,033	-0,095
-222,898	132,396	-0,057	0,053
-221,884	796,533	0,011	-0,022
-220,869	-200,000	-0,017	0,076
-219,855	118,886	-0,117	0,105
-218,840	-81,789	0,092	-0,022
-217,825	800,000	-0,013	0,029
-216,811	-54,431	-0,074	-0,024
-215,796	676,161	0,037	-0,069
-214,782	-200,000	-0,001	-0,021
-213,767	116,973	0,056	0,050
-212,752	-200,000	0,002	-0,007
-211,738	139,713	-0,079	0,076
-210,723	310,635	0,055	-0,075
-209,709	-200,000	0,010	-0,045
-208,694	-134,098	-0,083	0,007
-207,679	329,663	0,062	-0,086
-206,665	7,748	0,063	-0,034
-205,650	800,000	-0,035	-0,082
-204,636	800,000	0,017	-0,037
-203,621	-79,224	-0,057	0,014
-202,606	-200,000	-0,002	0,054
-201,592	289,130	-0,051	0,067
-200,577	-139,413	-0,072	0,006
-199,563	63,973	0,107	0,078
-198,548	227,209	-0,013	-0,015
-197,533	499,025	0,050	0,083
-196,519	-200,000	-0,017	0,088
-195,504	244,814	-0,012	0,014
-194,490	-20,073	-0,131	-0,058
-193,475	-200,000	-0,004	-0,098
-192,460	44,730	-0,085	-0,056
-191,446	43,518	0,211	0,139
-190,431	-200,000	-0,027	-0,098
-189,417	-92,109	0,045	0,009
-188,402	800,000	-0,023	-0,061
-187,387	-158,679	-0,158	-0,006
-186,373	252,768	-0,022	0,027
-185,358	707,856	0,028	0,053
-184,344	90,816	0,011	-0,009
-183,329	800,000	0,057	0,115
-182,315	-200,000	0,018	0,085
-181,300	-200,000	0,000	-0,025
-180,285	-143,759	-0,130	0,009
-179,271	-88,028	-0,078	-0,017
-178,256	800,000	-0,042	0,094
-177,242	-19,846	0,060	0,027
-176,227	244,013	0,055	0,066
-175,212	-59,740	-0,056	0,017
-174,198	-6,565	0,058	0,028
-173,183	-180,863	0,088	0,001
-172,169	-200,000	0,008	-0,049
-171,154	34,602	0,040	0,025
-170,139	800,000	-0,060	0,152
-169,125	-200,000	-0,028	0,094
-168,110	-200,000	-0,010	0,114
-167,096	319,724	0,063	0,087
-166,081	75,311	-0,078	-0,059
-165,066	22,577	-0,102	0,060
-164,052	50,443	-0,134	0,091
-163,037	-32,565	0,113	-0,045
-162,023	800,000	-0,039	0,097
-161,008	-200,000	-0,002	0,129
-159,993	-196,003	-0,131	-0,001
-158,979	70,865	-0,074	0,055
-157,964	782,658	-0,059	0,117
-156,950	-200,000	-0,032	-0,111
-155,935	678,448	0,036	-0,069
-154,920	-200,000	0,139	0,000
-153,906	142,486	0,168	0,161
-152,891	344,047	-0,063	0,089
-151,877	269,241	0,049	-0,062
-150,862	618,386	-0,049	0,089
-149,847	-200,000	-0,033	0,138
-148,833	223,807	-0,085	-0,099
-147,818	83,821	-0,023	-0,018
-146,804	-95,625	0,105	-0,020
-145,789	-81,287	-0,105	-0,025
-144,775	-200,000	-0,005	-0,170
-143,760	800,000	0,063	-0,129
-142,745	461,969	-0,034	-0,054
-141,731	-200,000	-0,003	-0,086
-140,716	-144,299	0,045	0,003
-139,702	-187,584	-0,104	-0,001
-138,687	260,654	0,028	0,035
-137,672	414,112	-0,060	0,092
-136,658	-1,471	-0,177	-0,090
-135,643	-200,000	0,012	0,103
-134,629	-200,000	-0,008	-0,083
-133,614	800,000	0,045	-0,100
-132,599	-200,000	0,016	0,174
-131,585	290,946	-0,058	0,076
-130,570	434,922	0,044	0,069
-129,556	-102,018	-0,031	0,005
-128,541	-200,000	-0,023	0,123
-127,526	33,128	0,076	0,047
-126,512	-200,000	-0,012	0,055
-125,497	24,429	-0,068	-0,040
-124,483	118,045	-0,067	0,060
-123,468	-115,312	0,088	0,012
-122,453	190,696	-0,155	-0,167
-121,439	-200,000	0,006	0,031
-120,424	496,651	-0,034	0,056
-119,410	-200,000	-0,007	-0,044
