DTS Sentinel unit serial number:	SN410029Multiplexer serial number:	ORYXHardware model number:	OX2-SRSoftware version number:	ORYX F/W v4,00 Oryx Data Collector v3.7.2.0data status	okinstallation	B5 Nyhavnadifferential loss correction	single-endedforward channel	channel 2reverse channel	N/Adate	2023/12/12time	15:02:13forward acquisition time	300,00reverse acquisition time	0,00gamma	499,1914k internal	0,3156k external	0,3156temperature offset calibration	1,0000default loss term (dB/km)	0,3820temperature slope calibration	1,0000multiplexer offset coefficient	1,0000multiplexer slope coefficient	1,0000fibre end	0,00T internal ref (°C)	15,91T ext. ref 1 (°C)	-0,35T ext. ref 2 (°C)	-0,61length (m)	temperature (°C)	Stokes	anti-Stokes-744,400	-200,000	0,023	0,108
-743,385	-25,842	-0,267	-0,115
-742,371	-68,371	0,126	0,036
-741,356	-138,977	-0,260	-0,020
-740,342	-161,077	0,136	0,005
-739,327	-134,136	-0,380	0,034
-738,312	-8,964	0,109	0,054
-737,298	-104,632	-0,288	0,048
-736,283	222,311	0,157	-0,187
-735,269	16,660	-0,253	0,147
-734,254	788,821	0,078	0,160
-733,239	-142,981	-0,518	-0,036
-732,225	-137,585	0,130	0,011
-731,210	-64,043	-0,047	-0,014
-730,196	93,849	-0,059	-0,049
-729,181	-7,354	-0,036	-0,018
-728,167	-200,000	0,039	-0,133
-727,152	-63,999	-0,026	-0,008
-726,137	-200,000	0,008	0,035
-725,123	-0,236	-0,092	-0,048
-724,108	-160,700	-0,068	-0,003
-723,094	-200,000	-0,022	-0,078
-722,079	149,204	-0,181	-0,181
-721,064	-200,000	-0,006	-0,122
-720,050	173,115	-0,020	-0,021
-719,035	-200,000	0,007	-0,112
-718,021	96,699	0,098	0,083
-717,006	454,785	-0,049	-0,080
-715,991	185,396	-0,109	-0,120
-714,977	-200,000	0,024	-0,124
-713,962	68,619	-0,195	-0,147
-712,948	-25,867	-0,136	-0,059
-711,933	47,715	-0,105	0,072
-710,918	-31,908	-0,037	-0,015
-709,904	505,501	-0,032	0,055
-708,889	146,310	-0,064	-0,063
-707,875	-200,000	-0,023	0,080
-706,860	564,484	-0,069	0,123
-705,845	107,490	0,040	0,035
-704,831	-200,000	-0,007	0,112
-703,816	-200,000	-0,011	0,042
-702,802	800,000	-0,024	-0,056
-701,787	14,347	-0,107	-0,061
-700,772	-107,012	0,087	-0,014
-699,758	800,000	-0,035	0,093
-698,743	-81,895	0,093	0,022
-697,729	-0,640	0,067	-0,035
-696,714	-200,000	-0,006	0,058
-695,699	800,000	0,086	-0,183
-694,685	35,453	-0,102	0,066
-693,670	-58,188	-0,095	-0,030
-692,656	-130,617	0,109	0,011
-691,641	-115,714	0,059	0,008
-690,627	-8,321	-0,104	-0,051
-689,612	-47,786	-0,059	0,021
-688,597	-13,621	-0,106	0,050
-687,583	-200,000	-0,028	0,092
-686,568	-56,314	0,061	-0,020
-685,554	-200,000	0,024	-0,079
-684,539	194,994	-0,007	-0,008
-683,524	-103,290	-0,065	0,011
-682,510	-46,788	0,127	-0,045
-681,495	-127,613	-0,148	0,016
-680,481	800,000	-0,018	-0,047
-679,466	-200,000	-0,026	-0,148
-678,451	-106,778	-0,168	-0,027
-677,437	1,764	-0,105	0,056
-676,422	276,768	0,060	0,079
-675,408	589,130	0,028	-0,051
-674,393	-126,802	-0,078	0,008
-673,378	1,482	-0,025	-0,013
-672,364	-53,078	-0,051	0,017
-671,349	800,000	-0,068	-0,164
-670,335	-200,000	-0,017	0,063
-669,320	508,098	0,032	0,054
-668,305	512,142	-0,026	0,045
-667,291	26,088	-0,100	0,061
-666,276	-65,905	0,108	0,032
-665,262	19,648	-0,030	-0,018
-664,247	-22,745	-0,040	0,018
-663,232	354,255	0,018	0,026
-662,218	206,683	-0,059	-0,067
-661,203	-200,000	-0,007	0,032
-660,189	-84,091	-0,065	-0,015
-659,174	-63,247	-0,160	0,048
-658,159	800,000	-0,041	-0,093
-657,145	194,837	-0,084	0,094
-656,130	-54,909	0,161	-0,053
-655,116	-56,546	-0,079	0,026
-654,101	800,000	-0,072	0,153
-653,086	-121,158	-0,101	0,012
-652,072	54,486	0,102	0,072
-651,057	-95,209	-0,145	-0,028
-650,043	-200,000	0,006	-0,044
-649,028	-200,000	0,019	-0,099
-648,014	230,596	-0,022	-0,027
-646,999	-200,000	0,006	0,162
-645,984	1,873	-0,043	0,023
-644,970	-107,749	-0,096	-0,015
-643,955	-118,835	-0,112	0,014
-642,941	-105,718	-0,065	-0,011
-641,926	214,002	0,065	-0,076
-640,911	157,685	-0,053	0,054
-639,897	-145,623	0,116	-0,008
-638,882	-131,576	-0,060	0,006
-637,868	214,070	-0,059	0,069
-636,853	428,106	-0,032	0,052
-635,838	213,918	-0,019	0,022
-634,824	0,692	0,026	-0,014
-633,809	17,974	0,155	-0,090
-632,795	-200,000	-0,010	0,129
-631,780	85,621	-0,108	-0,087
-630,765	800,000	0,040	-0,097
-629,751	-123,724	-0,096	0,011
-628,736	47,526	-0,108	0,073
-627,722	135,093	0,065	-0,062
-626,707	800,000	-0,055	0,135
-625,692	197,915	0,111	0,125
-624,678	-112,005	0,037	0,005
-623,663	-59,925	-0,085	-0,027
-622,649	49,302	0,071	0,049
-621,634	351,066	-0,086	-0,125
-620,619	3,233	-0,073	-0,039
-619,605	-71,624	0,110	0,030
-618,590	-24,165	0,183	-0,080
-617,576	800,000	-0,049	0,142
-616,561	-151,285	0,073	-0,004
-615,546	-74,415	-0,186	-0,049
-614,532	168,104	-0,108	-0,113
-613,517	-20,385	0,079	-0,035
-612,503	-129,168	0,080	0,008
-611,488	800,000	-0,034	-0,071
-610,474	-185,004	0,071	-0,001
-609,459	-37,550	-0,100	0,039
-608,444	57,641	-0,104	-0,075
-607,430	699,524	0,022	-0,042
-606,415	749,026	-0,034	0,067
-605,401	-200,000	-0,006	0,085
-604,386	800,000	0,032	-0,072
-603,371	-200,000	0,025	0,106
-602,357	-165,088	0,163	-0,005
-601,342	-71,045	0,165	-0,045
-600,328	87,829	-0,012	-0,010
-599,313	-200,000	-0,002	-0,113
-598,298	-200,000	-0,022	-0,072
-597,284	-15,557	0,094	0,044
-596,269	-90,402	-0,025	0,005
-595,255	-200,000	-0,014	-0,053
-594,240	-200,000	0,022	-0,072
-593,225	602,254	-0,017	-0,032
-592,211	800,000	-0,050	-0,139
-591,196	800,000	0,053	-0,157
-590,182	800,000	-0,053	-0,159
-589,167	13,942	0,042	0,024
-588,152	-105,210	-0,012	-0,002
-587,138	210,624	0,020	-0,023
-586,123	120,617	-0,049	0,044
-585,109	59,574	-0,145	-0,104
-584,094	800,000	-0,059	0,142
-583,079	-123,468	-0,091	-0,010
-582,065	-69,525	0,090	-0,025
-581,050	-50,546	0,021	-0,007
-580,036	-102,267	-0,083	0,014
-579,021	800,000	0,037	-0,094
-578,006	64,650	-0,050	-0,037
-576,992	800,000	0,052	0,131
-575,977	363,615	0,098	-0,144
-574,963	800,000	-0,024	-0,054
-573,948	-79,478	0,061	0,015
-572,934	-200,000	0,003	-0,062
-571,919	171,309	-0,030	-0,032
-570,904	800,000	-0,029	0,059
-569,890	800,000	-0,013	-0,035
-568,875	-200,000	-0,018	-0,072
-567,861	-87,426	-0,080	0,018
-566,846	210,751	-0,006	-0,007
-565,831	-200,000	-0,011	0,113
-564,817	-168,126	-0,071	0,002
-563,802	-127,921	0,115	-0,012
-562,788	161,097	-0,052	-0,053
-561,773	240,219	0,105	0,129
-560,758	349,090	-0,094	0,136
-559,744	13,540	0,049	0,027
-558,729	113,632	0,046	-0,041
-557,715	-20,900	-0,039	0,017
-556,700	-200,000	-0,000	-0,192
-555,685	-29,301	-0,118	-0,049
-554,671	-44,296	-0,093	-0,034
-553,656	116,807	0,081	-0,073
-552,642	152,649	0,083	-0,083
-551,627	-200,000	-0,002	-0,150
-550,612	166,695	0,120	0,125
-549,598	-200,000	-0,001	0,085
-548,583	56,577	-0,029	0,021
-547,569	104,429	0,168	-0,144
-546,554	-96,646	0,091	0,017
-545,539	-80,156	-0,049	0,012
-544,525	800,000	-0,033	0,091
-543,510	14,551	-0,069	-0,039
-542,496	-200,000	-0,010	0,094
-541,481	-117,492	-0,154	-0,020
-540,466	-200,000	0,009	-0,052
-539,452	-200,000	-0,000	0,192
-538,437	-51,151	-0,197	0,067
-537,423	25,294	-0,058	-0,035
-536,408	251,678	-0,106	-0,132
-535,393	352,346	-0,043	-0,063
-534,379	220,593	0,070	0,083
-533,364	126,423	-0,026	0,024
-532,350	21,072	0,045	-0,027
-531,335	182,960	0,129	-0,140
-530,321	-15,743	-0,086	0,040
-529,306	476,108	0,024	0,040
-528,291	219,624	0,015	-0,018
-527,277	-200,000	0,001	-0,020
-526,262	90,965	-0,089	0,073
-525,248	34,556	-0,049	0,031
-524,233	-4,882	0,086	0,043
-523,218	345,566	0,042	0,061
-522,204	-92,837	0,020	0,004
-521,189	215,980	-0,110	-0,128
-520,175	414,484	0,052	-0,081
-519,160	473,154	0,065	0,108
-518,145	-2,360	0,081	-0,041
-517,131	-200,000	-0,003	0,058
-516,116	20,612	0,064	-0,038
-515,102	-35,270	-0,121	0,048
-514,087	200,965	-0,096	-0,109
-513,072	-24,588	0,063	0,027
-512,058	106,555	-0,050	0,043
-511,043	407,477	-0,080	0,124
-510,029	428,570	-0,023	0,036
-509,014	-200,000	-0,001	0,123
-507,999	62,429	-0,074	0,054
-506,985	-62,223	-0,103	0,031
-505,970	-1,420	0,033	0,017
-504,956	230,834	0,035	-0,042
-503,941	-200,000	0,001	0,030
-502,926	230,621	0,111	-0,133
-501,912	-200,000	-0,063	0,206
-500,897	-200,000	0,032	0,149
-499,883	-10,286	-0,147	-0,071
-498,868	19,897	-0,069	-0,040
-497,853	431,603	-0,072	-0,115
-496,839	66,794	-0,044	-0,033
-495,824	287,007	-0,055	-0,073
-494,810	-200,000	-0,001	-0,098
-493,795	112,515	0,093	-0,082
-492,781	-98,699	-0,069	-0,013
-491,766	30,495	-0,051	-0,032
-490,751	355,778	-0,033	-0,048
-489,737	-148,278	-0,119	0,007
-488,722	800,000	0,086	0,200
-487,708	481,208	-0,059	0,099
-486,693	800,000	0,023	0,068
-485,678	800,000	0,065	0,184
-484,664	14,532	-0,100	0,057
-483,649	-135,797	-0,023	0,002
-482,635	-144,762	-0,074	-0,005
-481,620	65,009	-0,081	-0,060
-480,605	731,553	0,059	-0,116
-479,591	242,759	0,058	0,071
-478,576	800,000	-0,046	-0,108
-477,562	243,878	0,031	-0,038
-476,547	-28,924	-0,054	-0,022
-475,532	145,188	0,030	-0,029
-474,518	-192,124	0,106	0,001
-473,503	263,338	0,028	-0,036
-472,489	149,499	-0,053	-0,053
-471,474	293,450	-0,057	0,077
-470,459	-115,435	-0,079	0,011
-469,445	-29,182	-0,078	0,033
-468,430	-81,831	0,031	-0,007
-467,416	-159,872	-0,094	0,004
-466,401	-200,000	-0,017	0,059
-465,386	-97,809	0,049	0,009
-464,372	-66,125	0,067	0,019
-463,357	800,000	-0,054	0,129
-462,343	800,000	0,015	-0,034
-461,328	504,508	-0,071	-0,120
-460,313	87,847	-0,154	0,125
-459,299	-200,000	-0,013	0,136
-458,284	-200,000	0,012	0,092
-457,270	146,044	0,043	-0,042
-456,255	-200,000	-0,006	-0,050
-455,241	351,940	0,076	0,110
-454,226	25,356	-0,106	-0,064
-453,211	-35,863	0,071	-0,028
-452,197	302,174	-0,069	0,093
-451,182	800,000	0,026	0,083
-450,168	511,843	0,052	-0,089
-449,153	-32,821	-0,093	-0,038
-448,138	747,517	-0,037	0,073
-447,124	-65,634	-0,065	-0,019
-446,109	-48,627	0,104	-0,036
-445,095	148,654	-0,103	0,102
-444,080	800,000	0,002	-0,005
-443,065	-200,000	-0,014	-0,147
-442,051	-200,000	-0,018	-0,090
-441,036	800,000	0,026	-0,058
-440,022	159,008	0,042	0,043
-439,007	-200,000	0,012	-0,077
-437,992	-86,511	0,049	0,011
-436,978	20,858	0,124	0,073
-435,963	-200,000	0,008	0,090
-434,949	286,147	-0,064	0,084
-433,934	800,000	0,009	0,027
-432,919	-94,694	0,082	0,016
-431,905	279,137	0,062	-0,080
-430,890	-200,000	0,001	-0,041
-429,876	-200,000	-0,006	-0,040
-428,861	17,746	0,067	0,039
-427,846	-200,000	-0,007	0,144
-426,832	800,000	0,020	0,061
-425,817	-200,000	-0,010	0,112
-424,803	-12,714	-0,156	-0,074
-423,788	-2,712	0,069	0,035
-422,773	-33,107	-0,050	0,020
-421,759	-38,591	0,065	-0,025
-420,744	-85,054	0,018	-0,004
-419,730	-200,000	-0,000	-0,014
-418,715	-174,273	0,061	-0,001
-417,701	800,000	-0,038	0,098
-416,686	54,274	-0,038	0,026
-415,671	28,009	-0,021	-0,013
-414,657	228,415	-0,060	0,072
-413,642	-122,585	-0,011	-0,001
-412,628	26,907	-0,013	0,008
-411,613	-132,397	0,076	-0,007
-410,598	-200,000	0,008	-0,029
-409,584	-200,000	-0,017	-0,069
-408,569	-69,455	0,089	0,025
-407,555	-200,000	0,009	0,057
-406,540	-111,551	0,140	0,021
-405,525	129,664	-0,096	-0,089
-404,511	41,636	-0,105	-0,069
-403,496	-200,000	-0,010	-0,035
-402,482	-137,656	0,064	-0,005
-401,467	147,967	-0,031	0,030
-400,452	121,194	0,107	-0,097
-399,438	69,289	0,182	0,136
-398,423	-89,294	-0,062	0,013
-397,409	800,000	0,041	-0,115
-396,394	454,195	0,032	0,051
-395,379	-91,561	0,180	-0,037
-394,365	-200,000	-0,029	0,114
-393,350	-200,000	-0,001	0,233
-392,336	-200,000	-0,014	0,156
-391,321	267,505	-0,049	0,062
-390,306	20,969	0,176	-0,104
-389,292	-200,000	-0,000	-0,061
-388,277	-100,656	-0,110	-0,020
-387,263	246,092	0,038	-0,047
-386,248	132,931	0,074	0,070
-385,233	-170,224	-0,046	0,001
-384,219	8,667	-0,089	0,049
-383,204	-200,000	0,013	-0,073
-382,190	-22,125	-0,051	-0,022
-381,175	277,763	-0,044	-0,057
-380,160	-200,000	0,004	-0,096
-379,146	-200,000	-0,001	0,066
-378,131	-200,000	-0,001	0,008
-377,117	-200,000	0,007	-0,040
-376,102	473,944	-0,070	-0,115
-375,088	-46,875	-0,059	-0,021
-374,073	635,340	0,023	-0,043
-373,058	563,719	0,083	0,147
-372,044	399,221	0,026	0,040
-371,029	680,347	0,087	-0,165
-370,015	205,739	-0,063	0,072
-369,000	-200,000	-0,033	0,119
-367,985	60,691	-0,089	-0,064
-366,971	-58,469	-0,043	-0,014
-365,956	31,370	0,048	-0,030
-364,942	-79,414	-0,059	0,014
-363,927	24,997	0,082	0,049
-362,912	21,977	-0,033	-0,020
-361,898	161,987	0,053	0,054
-360,883	-136,488	0,056	-0,005
-359,869	275,773	0,026	0,034
-358,854	146,477	0,050	-0,049
-357,839	-98,088	0,162	0,030
-356,825	-9,633	-0,069	0,033
-355,810	-200,000	0,020	0,126
-354,796	-200,000	-0,002	-0,033
-353,781	-200,000	-0,011	0,041
-352,766	90,489	0,110	0,090
-351,752	-154,068	0,160	-0,008
-350,737	39,578	-0,132	0,086
-349,723	800,000	0,039	0,115
-348,708	-200,000	0,044	0,174
-347,693	-108,172	-0,053	-0,008
-346,679	800,000	0,015	-0,040
-345,664	800,000	0,039	-0,089
-344,650	800,000	0,060	-0,165
-343,635	-117,499	0,134	0,017
-342,620	-76,274	0,023	0,006
-341,606	29,891	-0,059	-0,036
-340,591	800,000	-0,042	0,105
-339,577	-200,000	-0,009	-0,043
-338,562	-61,117	0,117	-0,036
-337,548	800,000	-0,033	0,084
-336,533	403,638	-0,131	0,201
-335,518	-34,303	0,088	-0,035
-334,504	-200,000	0,029	0,162
-333,489	800,000	-0,037	0,079
-332,475	-200,000	-0,047	-0,244
-331,460	-200,000	0,060	-0,195
-330,445	-15,731	-0,098	-0,045
-329,431	-200,000	0,008	0,045
-328,416	255,932	-0,091	0,114
-327,402	800,000	-0,023	0,064
-326,387	481,999	-0,048	-0,080
-325,372	-152,655	-0,049	0,003
-324,358	450,336	0,058	-0,093
-323,343	-1,216	-0,101	0,052
-322,329	54,473	0,052	-0,036
-321,314	-186,584	-0,126	-0,001
-320,299	-11,000	0,075	0,036
-319,285	-134,226	-0,106	-0,009
-318,270	-3,171	-0,099	0,050
-317,256	-200,000	-0,012	-0,103
-316,241	-65,158	-0,083	-0,024
-315,226	-54,465	0,070	-0,023
-314,212	-8,142	0,093	-0,045
-313,197	800,000	0,081	0,174
-312,183	800,000	0,001	-0,002
-311,168	145,839	-0,038	0,037
-310,153	-200,000	-0,023	-0,172
-309,139	19,337	-0,013	0,008
-308,124	-18,611	0,042	-0,019
-307,110	459,835	0,094	0,152
-306,095	-200,000	0,005	0,082
-305,080	-200,000	-0,004	-0,085
-304,066	-111,858	0,054	0,008
-303,051	-200,000	-0,020	-0,068
-302,037	555,920	0,041	-0,072
-301,022	133,478	-0,020	0,019
-300,008	-200,000	-0,011	0,076
-298,993	47,880	-0,055	-0,037
-297,978	-164,336	0,061	-0,002
-296,964	262,422	0,085	-0,107
-295,949	-0,863	-0,067	0,035
-294,935	800,000	0,036	0,087
-293,920	-44,480	-0,122	-0,044
-292,905	-200,000	-0,013	-0,054
-291,891	63,049	0,049	0,035
-290,876	800,000	-0,009	0,027
-289,862	800,000	0,049	0,104
-288,847	-200,000	0,013	0,060
-287,832	495,098	-0,021	0,035
-286,818	214,967	-0,049	-0,056
-285,803	647,405	0,073	0,136
-284,789	522,209	-0,046	0,079
-283,774	-200,000	-0,001	-0,096
-282,759	-200,000	-0,029	0,103
-281,745	568,568	-0,003	-0,006
-280,730	81,914	-0,049	0,039
-279,716	124,253	-0,051	-0,047
-278,701	800,000	0,039	0,108
-277,686	421,031	-0,032	0,049
-276,672	-200,000	0,002	0,072
-275,657	-200,000	-0,041	0,161
-274,643	-46,188	0,114	-0,040
-273,628	279,464	0,096	-0,125
-272,613	495,496	0,086	-0,143
-271,599	2,693	0,043	-0,022
-270,584	-200,000	0,022	-0,121
-269,570	668,700	-0,085	0,159
-268,555	-114,468	-0,076	-0,010
-267,540	216,322	0,036	0,042
-266,526	134,762	0,075	0,071
-265,511	-0,181	-0,125	-0,064
-264,497	58,190	-0,008	0,005
-263,482	35,496	0,084	0,053
-262,467	638,814	0,041	-0,076
-261,453	-117,006	-0,076	-0,010
-260,438	800,000	-0,027	-0,081
-259,424	-200,000	0,009	-0,041
-258,409	47,689	0,037	0,025
-257,395	-170,434	0,060	0,001
-256,380	281,303	0,033	0,043
-255,365	-77,285	0,095	0,024
-254,351	-59,402	0,072	0,022
-253,336	-157,803	-0,078	-0,003
-252,322	-141,904	-0,141	0,010
-251,307	-200,000	-0,007	-0,024
-250,292	-152,319	0,062	0,003
-249,278	-8,360	-0,047	-0,023
-248,263	9,077	0,096	0,052
-247,249	178,612	0,068	0,072
-246,234	-82,686	-0,237	-0,055
-245,219	-57,735	0,074	0,023
-244,205	-200,000	-0,009	-0,037
-243,190	800,000	0,030	-0,070
-242,176	293,712	0,045	-0,059
-241,161	-38,585	0,056	0,021
-240,146	-200,000	-0,036	-0,200
-239,132	107,073	0,015	-0,013
-238,117	268,852	0,021	-0,027
-237,103	522,846	0,030	-0,052
-236,088	251,489	0,088	0,109
-235,073	-45,909	-0,031	-0,011
-234,059	410,611	0,028	0,042
-233,044	31,986	-0,044	0,027
-232,030	-200,000	-0,008	0,222
-231,015	-200,000	0,025	-0,095
-230,000	-200,000	-0,021	-0,111
-228,986	-125,776	0,082	-0,009
-227,971	252,056	-0,130	-0,161
-226,957	63,045	-0,083	0,060
-225,942	800,000	0,042	0,114
-224,927	521,454	0,025	-0,042
-223,913	-190,886	0,098	-0,001
-222,898	-200,000	-0,013	0,081
-221,884	-200,000	-0,007	0,077
-220,869	218,169	0,054	-0,063
-219,855	-200,000	-0,019	0,073
-218,840	-39,061	0,013	-0,005
-217,825	58,405	0,066	-0,046
-216,811	-200,000	0,010	0,089
-215,796	552,995	0,028	0,049
-214,782	617,705	0,012	0,022
-213,767	-200,000	0,032	0,104
-212,752	-200,000	-0,012	-0,040
-211,738	-67,417	-0,015	0,004
-210,723	-200,000	-0,016	-0,178
-209,709	340,509	0,055	-0,078
-208,694	-200,000	0,003	-0,060
-207,679	-200,000	0,035	-0,173
-206,665	800,000	-0,012	-0,033
-205,650	-200,000	-0,007	-0,101
-204,636	-101,057	0,060	0,010
-203,621	227,660	0,015	0,018
-202,606	-183,616	0,057	-0,001
-201,592	254,164	0,026	-0,032
-200,577	84,190	0,036	0,028
-199,563	299,021	-0,042	0,056
-198,548	-200,000	0,001	0,056
-197,533	-180,449	0,094	-0,001
-196,519	-108,426	-0,083	-0,013
-195,504	800,000	0,055	-0,122
-194,490	800,000	0,003	-0,008
-193,475	37,296	0,078	0,050
-192,460	186,054	0,054	-0,058
-191,446	324,026	-0,073	0,101
-190,431	-200,000	-0,027	0,091
-189,417	94,920	0,102	-0,084
-188,402	-128,828	-0,108	-0,011
-187,387	49,761	-0,061	-0,041
-186,373	90,768	-0,126	-0,102
-185,358	-200,000	-0,012	0,072
-184,344	-68,343	0,045	-0,012
-183,329	140,985	-0,118	0,113
-182,315	13,490	0,093	0,052
-181,300	196,277	-0,059	0,064
-180,285	641,615	-0,016	-0,029
-179,271	68,753	0,076	0,056
-178,256	-200,000	0,005	-0,091
-177,242	446,911	0,062	-0,099
-176,227	71,946	-0,097	-0,073
-175,212	-200,000	-0,014	0,073
-174,198	743,674	-0,020	-0,038
-173,183	-200,000	-0,011	0,036
-172,169	-129,767	-0,086	-0,008
-171,154	2,029	0,109	-0,056
-170,139	800,000	-0,014	-0,043
-169,125	-200,000	0,002	-0,077
-168,110	691,287	0,011	-0,020
-167,096	87,692	0,072	0,057
-166,081	107,951	-0,074	-0,064
-165,066	110,744	0,062	0,053
-164,052	-200,000	0,014	-0,122
-163,037	-200,000	-0,000	-0,075
-162,023	435,842	0,050	0,079
-161,008	409,398	0,041	-0,063
-159,993	-39,864	0,032	-0,012
-158,979	-200,000	-0,032	-0,126
-157,964	238,118	0,046	0,055
-156,950	800,000	0,019	0,043
-155,935	-49,624	0,105	0,036
-154,920	299,248	-0,050	-0,066
-153,906	11,376	0,154	-0,085
-152,891	291,896	-0,086	-0,113
-151,877	800,000	0,030	-0,060
-150,862	-68,701	0,052	0,015
-149,847	-98,876	-0,167	-0,030
-148,833	-200,000	-0,022	0,177
-147,818	384,621	0,049	0,073
-146,804	-200,000	0,107	0,000
-145,789	556,635	-0,050	0,088
-144,775	-83,542	-0,079	-0,018
-143,760	-200,000	0,032	-0,215
-142,745	668,864	-0,030	0,057
-141,731	152,438	-0,086	-0,084
-140,716	-200,000	-0,045	0,178
-139,702	-75,370	0,057	0,015
-138,687	68,260	0,032	-0,023
-137,672	563,394	-0,095	-0,167
-136,658	16,224	-0,115	0,065
-135,643	239,174	-0,089	-0,107
-134,629	-200,000	-0,016	0,053
-133,614	203,001	-0,029	0,032
-132,599	800,000	0,036	0,096
-131,585	123,526	-0,070	0,064
-130,570	-200,000	-0,003	-0,144
-129,556	-200,000	-0,013	-0,077
-128,541	-35,779	-0,118	-0,046
-127,526	-128,096	-0,239	-0,024
-126,512	-200,000	0,013	-0,085
-125,497	-200,000	-0,008	0,040
-124,483	-80,125	-0,096	0,023
-123,468	-200,000	-0,019	-0,101
-122,453	-178,887	0,049	0,001
-121,439	-200,000	-0,021	-0,092
-120,424	800,000	0,030	-0,079
