DTS Sentinel unit serial number:	SN410029Multiplexer serial number:	ORYXHardware model number:	OX2-SRSoftware version number:	ORYX F/W v4,00 Oryx Data Collector v3.7.2.0data status	okinstallation	B5 Nyhavnadifferential loss correction	single-endedforward channel	channel 2reverse channel	N/Adate	2023/12/13time	20:47:14forward acquisition time	300,00reverse acquisition time	0,00gamma	499,1914k internal	0,3157k external	0,3157temperature offset calibration	1,0000default loss term (dB/km)	0,3820temperature slope calibration	1,0000multiplexer offset coefficient	1,0000multiplexer slope coefficient	1,0000fibre end	0,00T internal ref (°C)	10,51T ext. ref 1 (°C)	-6,49T ext. ref 2 (°C)	-6,55length (m)	temperature (°C)	Stokes	anti-Stokes-744,400	168,577	0,080	0,084
-743,385	-143,754	-0,396	0,027
-742,371	266,181	0,095	0,123
-741,356	-86,291	-0,383	0,086
-740,342	59,553	0,160	0,116
-739,327	-147,242	-0,449	0,028
-738,312	-200,000	0,006	0,218
-737,298	-112,036	-0,317	-0,047
-736,283	-24,250	0,153	-0,067
-735,269	-116,241	-0,324	-0,044
-734,254	-81,266	0,158	-0,038
-733,239	-99,567	-0,689	-0,126
-732,225	-108,387	0,180	-0,028
-731,210	800,000	0,080	0,194
-730,196	56,526	-0,049	0,035
-729,181	183,281	-0,072	-0,079
-728,167	-200,000	0,008	-0,085
-727,152	33,717	0,084	-0,053
-726,137	-67,387	-0,122	0,035
-725,123	394,166	0,073	-0,113
-724,108	-60,965	-0,183	-0,057
-723,094	800,000	0,029	0,073
-722,079	-110,729	0,032	-0,005
-721,064	-74,464	-0,092	0,024
-720,050	-200,000	-0,001	0,049
-719,035	-168,062	-0,223	-0,006
-718,021	-80,645	-0,031	-0,008
-717,006	32,172	-0,034	-0,021
-715,991	-81,861	-0,102	-0,024
-714,977	277,297	-0,033	-0,044
-713,962	-200,000	-0,009	-0,038
-712,948	107,550	-0,080	-0,070
-711,933	305,799	-0,043	-0,059
-710,918	53,746	-0,033	0,023
-709,904	-200,000	-0,015	-0,184
-708,889	357,511	-0,038	-0,056
-707,875	-142,204	-0,109	0,008
-706,860	-200,000	-0,006	0,086
-705,845	-48,563	-0,088	0,031
-704,831	800,000	0,043	0,133
-703,816	-63,796	-0,098	0,029
-702,802	-111,829	-0,125	0,018
-701,787	602,903	-0,088	-0,162
-700,772	9,236	-0,073	-0,040
-699,758	143,267	-0,065	0,064
-698,743	-130,217	-0,090	-0,009
-697,729	173,957	0,059	0,063
-696,714	-57,769	-0,155	0,050
-695,699	57,959	-0,112	-0,080
-694,685	419,775	-0,027	0,043
-693,670	-200,000	-0,021	-0,203
-692,656	800,000	0,051	0,124
-691,641	170,567	0,083	-0,087
-690,627	-16,408	0,066	-0,031
-689,612	-200,000	-0,032	-0,108
-688,597	-20,011	-0,195	0,088
-687,583	-200,000	-0,013	-0,149
-686,568	-58,066	-0,101	0,032
-685,554	62,042	-0,094	0,069
-684,539	-101,971	-0,052	0,009
-683,524	800,000	0,038	0,095
-682,510	34,471	-0,111	0,071
-681,495	-200,000	-0,032	-0,131
-680,481	77,552	-0,065	-0,051
-679,466	-200,000	0,007	-0,077
-678,451	-121,238	0,067	-0,008
-677,437	181,163	0,070	0,075
-676,422	-100,744	-0,072	-0,013
-675,408	-105,283	-0,163	0,027
-674,393	471,922	0,035	-0,059
-673,378	67,432	-0,092	-0,069
-672,364	72,048	0,038	0,029
-671,349	111,683	-0,132	-0,117
-670,335	-77,425	0,109	0,028
-669,320	213,597	0,030	-0,035
-668,305	505,808	-0,034	0,058
-667,291	-200,000	0,009	0,082
-666,276	657,116	-0,031	0,058
-665,262	0,898	-0,130	-0,068
-664,247	142,702	0,066	-0,065
-663,232	103,920	-0,032	0,027
-662,218	50,155	0,058	0,040
-661,203	-1,052	0,070	0,036
-660,189	-200,000	0,005	0,025
-659,174	-200,000	-0,007	-0,105
-658,159	-71,668	0,188	-0,051
-657,145	-53,475	-0,101	0,034
-656,130	-18,713	0,089	-0,040
-655,116	189,550	-0,058	-0,063
-654,101	-136,397	-0,049	0,004
-653,086	-17,136	-0,050	0,023
-652,072	-121,574	-0,108	0,013
-651,057	98,769	-0,069	-0,059
-650,043	-101,358	0,032	-0,006
-649,028	45,191	0,026	0,017
-648,014	-39,494	0,058	-0,022
-646,999	-9,485	0,090	0,044
-645,984	16,607	-0,087	0,051
-644,970	-37,539	-0,194	-0,076
-643,955	-33,953	-0,059	-0,024
-642,941	800,000	0,037	-0,112
-641,926	247,682	-0,107	-0,133
-640,911	-27,326	0,060	0,025
-639,897	-200,000	0,031	-0,109
-638,882	-122,384	0,070	-0,008
-637,868	177,361	-0,060	-0,064
-636,853	-133,935	-0,201	-0,018
-635,838	800,000	0,021	-0,066
-634,824	-0,107	-0,099	0,052
-633,809	-200,000	0,019	0,126
-632,795	-69,979	0,071	-0,020
-631,780	-47,236	0,018	-0,006
-630,765	-200,000	-0,008	0,106
-629,751	36,838	0,148	0,096
-628,736	598,306	-0,098	0,178
-627,722	-44,362	0,010	0,004
-626,707	59,585	0,049	0,035
-625,692	597,839	-0,068	0,124
-624,678	800,000	-0,042	-0,110
-623,663	800,000	-0,029	-0,088
-622,649	10,231	-0,034	0,019
-621,634	-200,000	0,002	-0,139
-620,619	272,114	-0,054	-0,071
-619,605	-200,000	-0,014	-0,051
-618,590	314,181	0,036	0,050
-617,576	-200,000	-0,009	-0,070
-616,561	172,002	0,019	-0,021
-615,546	-200,000	-0,024	-0,108
-614,532	-200,000	-0,011	-0,170
-613,517	-200,000	-0,025	0,082
-612,503	191,594	-0,032	-0,036
-611,488	-139,296	0,088	-0,007
-610,474	800,000	-0,038	-0,087
-609,459	-200,000	-0,000	-0,093
-608,444	-71,560	0,105	0,029
-607,430	24,389	-0,074	0,044
-606,415	-18,368	0,019	0,009
-605,401	-16,936	-0,088	0,041
-604,386	425,808	0,104	0,165
-603,371	80,881	0,052	-0,041
-602,357	800,000	-0,039	0,092
-601,342	-200,000	-0,001	-0,035
-600,328	-200,000	0,004	-0,062
-599,313	800,000	-0,016	-0,043
-598,298	-171,088	0,131	0,003
-597,284	-4,741	-0,039	0,020
-596,269	283,149	0,042	0,056
-595,255	-28,258	0,065	-0,028
-594,240	323,450	0,036	-0,050
-593,225	-75,830	-0,136	0,035
-592,211	271,175	-0,015	0,019
-591,196	-162,785	0,040	0,001
-590,182	297,542	0,037	-0,050
-589,167	278,990	0,028	-0,037
-588,152	800,000	-0,023	0,064
-587,138	-69,361	-0,149	-0,042
-586,123	-200,000	-0,005	-0,080
-585,109	-96,774	-0,034	0,006
-584,094	-113,342	-0,114	0,016
-583,079	284,885	0,109	0,144
-582,065	154,727	-0,014	0,014
-581,050	-125,161	0,083	-0,009
-580,036	-200,000	0,018	0,066
-579,021	-161,574	-0,073	0,003
-578,006	148,592	-0,180	-0,179
-576,992	-91,495	0,071	0,015
-575,977	384,675	0,018	0,027
-574,963	-127,815	0,087	0,009
-573,948	-5,660	-0,053	-0,026
-572,934	196,181	-0,077	-0,086
-571,919	14,547	-0,091	-0,052
-570,904	66,696	-0,034	0,025
-569,890	-30,091	0,045	-0,019
-568,875	273,213	0,058	-0,075
-567,861	-111,679	0,100	0,015
-566,846	-200,000	-0,024	-0,091
-565,831	21,788	-0,147	-0,087
-564,817	563,833	0,044	-0,078
-563,802	43,513	-0,055	0,037
-562,788	97,715	-0,057	-0,048
-561,773	-200,000	0,011	0,063
-560,758	-63,007	-0,132	0,040
-559,744	8,717	0,070	-0,038
-558,729	11,280	-0,214	-0,120
-557,715	-200,000	-0,014	-0,050
-556,700	-0,161	-0,046	-0,024
-555,685	344,926	-0,131	-0,189
-554,671	150,043	-0,031	-0,031
-553,656	-200,000	0,010	-0,037
-552,642	-200,000	-0,008	0,031
-551,627	182,005	0,093	0,100
-550,612	-14,732	-0,053	0,025
-549,598	183,759	-0,039	-0,042
-548,583	-132,368	-0,089	-0,008
-547,569	800,000	-0,031	0,077
-546,554	-13,994	0,037	-0,017
-545,539	119,010	0,071	0,064
-544,525	-47,987	-0,110	0,039
-543,510	35,273	-0,046	0,029
-542,496	244,147	-0,023	-0,028
-541,481	800,000	-0,065	-0,153
-540,466	800,000	0,049	0,101
-539,452	-12,474	0,037	0,017
-538,437	-200,000	-0,015	0,068
-537,423	305,060	-0,015	-0,021
-536,408	-58,263	-0,006	-0,002
-535,393	-16,180	-0,129	-0,060
-534,379	-117,605	-0,094	0,012
-533,364	384,052	0,053	-0,080
-532,350	26,130	-0,065	-0,040
-531,335	572,696	-0,007	0,012
-530,321	201,657	-0,025	-0,028
-529,306	291,914	-0,039	0,052
-528,291	-156,534	0,078	-0,003
-527,277	800,000	0,025	-0,072
-526,262	9,564	0,154	-0,085
-525,248	-89,755	0,033	-0,007
-524,233	-200,000	-0,005	-0,029
-523,218	-200,000	-0,005	0,046
-522,204	108,431	-0,059	0,052
-521,189	191,240	-0,096	-0,105
-520,175	-11,262	-0,109	-0,052
-519,160	-200,000	-0,002	-0,084
-518,145	-200,000	0,035	-0,167
-517,131	244,441	-0,078	0,096
-516,116	-200,000	0,016	0,055
-515,102	-62,647	-0,077	0,023
-514,087	231,269	0,070	-0,084
-513,072	-200,000	-0,010	-0,078
-512,058	800,000	-0,031	0,072
-511,043	56,359	-0,012	0,009
-510,029	115,419	-0,039	0,035
-509,014	-12,616	0,048	-0,023
-507,999	-83,219	-0,136	0,032
-506,985	44,432	0,020	0,013
-505,970	263,162	-0,057	0,073
-504,956	-200,000	-0,023	-0,173
-503,941	-62,054	0,037	-0,011
-502,926	140,027	0,180	-0,174
-501,912	-59,167	0,218	-0,068
-500,897	-103,411	0,061	-0,010
-499,883	-37,774	-0,066	-0,026
-498,868	337,314	-0,133	-0,189
-497,853	800,000	-0,016	0,049
-496,839	46,439	-0,087	-0,059
-495,824	-142,994	0,039	0,003
-494,810	800,000	0,038	0,117
-493,795	-155,314	0,132	-0,006
-492,781	800,000	0,033	-0,071
-491,766	-200,000	0,008	-0,055
-490,751	106,120	-0,122	-0,105
-489,737	238,792	-0,050	-0,061
-488,722	-130,388	-0,092	-0,009
-487,708	15,280	-0,091	-0,052
-486,693	125,975	-0,055	0,050
-485,678	800,000	-0,054	0,119
-484,664	256,363	-0,151	-0,190
-483,649	-147,451	0,131	0,008
-482,635	-200,000	-0,002	-0,087
-481,620	-172,070	0,061	-0,001
-480,605	210,533	-0,045	0,052
-479,591	199,183	-0,098	0,110
-478,576	-200,000	0,016	0,055
-477,562	281,247	0,058	0,076
-476,547	-55,602	0,130	0,042
-475,532	-200,000	0,016	-0,098
-474,518	168,946	0,057	-0,060
-473,503	800,000	-0,008	0,022
-472,489	69,337	0,139	0,104
-471,474	54,388	0,028	-0,020
-470,459	800,000	0,042	-0,088
-469,445	239,611	0,035	-0,042
-468,430	208,959	0,005	0,006
-467,416	-200,000	0,012	0,118
-466,401	-41,013	-0,040	-0,015
-465,386	-124,786	-0,073	0,008
-464,372	175,722	-0,049	0,052
-463,357	-72,424	0,124	0,033
-462,343	-200,000	-0,015	-0,104
-461,328	142,555	-0,055	-0,054
-460,313	-123,842	0,003	-0,000
-459,299	48,238	-0,021	-0,014
-458,284	50,110	0,007	0,004
-457,270	-200,000	0,011	0,088
-456,255	470,461	-0,047	0,078
-455,241	440,388	-0,057	0,091
-454,226	-104,605	-0,096	-0,016
-453,211	800,000	-0,022	0,054
-452,197	-200,000	-0,001	-0,032
-451,182	310,296	-0,085	-0,117
-450,168	-200,000	0,005	0,091
-449,153	50,517	-0,050	-0,035
-448,138	0,311	-0,106	0,055
-447,124	-0,859	-0,145	-0,075
-446,109	283,912	0,024	0,031
-445,095	-200,000	0,026	0,144
-444,080	-200,000	-0,040	0,131
-443,065	397,695	-0,068	-0,104
-442,051	64,094	0,081	0,059
-441,036	55,917	-0,055	0,039
-440,022	20,878	-0,065	0,038
-439,007	-144,242	0,026	-0,002
-437,992	-43,685	0,043	-0,016
-436,978	-49,234	0,058	0,020
-435,963	-200,000	-0,011	-0,036
-434,949	-200,000	0,019	0,112
-433,934	148,563	0,070	0,069
-432,919	-200,000	0,010	0,051
-431,905	276,061	0,044	-0,057
-430,890	292,533	-0,064	-0,085
-429,876	-179,322	0,065	-0,001
-428,861	96,336	0,060	0,050
-427,846	-94,458	0,147	0,029
-426,832	-200,000	-0,026	-0,180
-425,817	-90,475	0,064	0,013
-424,803	151,056	0,038	0,038
-423,788	-12,179	0,072	-0,034
-422,773	-200,000	0,000	0,020
-421,759	-200,000	-0,023	0,077
-420,744	-116,729	-0,056	-0,007
-419,730	-129,583	0,017	0,002
-418,715	150,201	0,123	-0,122
-417,701	-28,802	-0,078	-0,032
-416,686	63,785	0,017	0,013
-415,671	-200,000	-0,005	0,096
-414,657	-200,000	-0,004	-0,016
-413,642	-200,000	0,010	0,039
-412,628	-106,823	-0,114	-0,018
-411,613	-200,000	0,004	0,019
-410,598	800,000	-0,030	0,064
-409,584	27,144	0,028	0,017
-408,569	399,628	0,050	0,076
-407,555	29,504	-0,069	0,043
-406,540	132,865	-0,062	-0,059
-405,525	-139,917	0,145	0,011
-404,511	71,054	0,025	-0,018
-403,496	-76,344	-0,016	0,004
-402,482	-57,041	0,121	0,038
-401,467	-71,370	0,049	0,013
-400,452	-200,000	0,011	0,106
-399,438	735,083	0,062	0,122
-398,423	800,000	-0,038	-0,110
-397,409	-200,000	-0,014	-0,133
-396,394	-200,000	-0,010	-0,117
-395,379	75,171	0,099	-0,076
-394,365	-58,823	0,022	-0,007
-393,350	71,055	0,059	0,045
-392,336	38,729	-0,044	0,029
-391,321	58,868	0,079	0,056
-390,306	-134,281	0,054	0,005
-389,292	-200,000	0,000	-0,044
-388,277	739,966	0,015	0,029
-387,263	-2,553	0,098	0,050
-386,248	-0,863	-0,036	0,019
-385,233	-127,320	0,067	0,007
-384,219	-200,000	-0,009	0,041
-383,204	108,440	-0,051	-0,044
-382,190	304,615	-0,037	0,050
-381,175	132,000	0,115	-0,108
-380,160	142,787	-0,029	-0,028
-379,146	-200,000	-0,001	-0,059
-378,131	162,176	-0,060	0,062
-377,117	-115,987	-0,032	-0,004
-376,102	-200,000	0,002	-0,088
-375,088	-83,710	-0,141	-0,032
-374,073	-122,355	-0,133	-0,016
-373,058	447,792	0,061	-0,097
-372,044	6,537	0,101	0,054
-371,029	-200,000	-0,009	0,092
-370,015	-200,000	-0,009	0,091
-369,000	380,223	0,080	0,119
-367,985	24,027	-0,106	-0,064
-366,971	-130,284	0,110	0,011
-365,956	-40,673	0,078	0,029
-364,942	-22,903	0,139	0,061
-363,927	74,160	-0,077	-0,059
-362,912	543,785	-0,014	0,025
-361,898	12,596	-0,030	-0,017
-360,883	12,882	-0,097	0,054
-359,869	800,000	0,062	-0,195
-358,854	536,546	0,068	-0,118
-357,839	-141,536	0,064	-0,005
-356,825	-200,000	0,012	-0,040
-355,810	-102,228	-0,045	-0,008
-354,796	-42,272	-0,065	-0,024
-353,781	-91,089	-0,041	0,009
-352,766	-0,040	-0,057	-0,029
-351,752	-90,975	0,106	-0,022
-350,737	254,044	-0,099	0,123
-349,723	-99,884	0,182	0,033
-348,708	-94,660	-0,043	0,008
-347,693	29,095	0,087	-0,054
-346,679	-52,582	0,064	0,021
-345,664	-200,000	-0,006	-0,065
-344,650	320,066	-0,075	0,103
-343,635	-51,333	0,142	-0,048
-342,620	800,000	0,017	0,044
-341,606	-200,000	-0,019	0,077
-340,591	-52,856	0,072	0,024
-339,577	800,000	-0,050	-0,110
-338,562	48,296	-0,063	-0,043
-337,548	-200,000	0,029	0,141
-336,533	-200,000	-0,026	0,214
-335,518	800,000	-0,019	0,042
-334,504	-200,000	-0,014	0,137
-333,489	800,000	0,026	0,062
-332,475	-200,000	0,017	-0,129
-331,460	285,161	-0,029	-0,038
-330,445	800,000	0,081	-0,198
-329,431	-43,061	0,114	-0,042
-328,416	-200,000	-0,000	0,081
-327,402	800,000	-0,027	0,085
-326,387	-143,839	0,070	0,005
-325,372	-150,212	0,041	0,002
-324,358	800,000	-0,081	-0,233
-323,343	-92,283	0,029	0,006
-322,329	-200,000	0,012	0,085
-321,314	-200,000	-0,016	0,095
-320,299	312,752	-0,036	0,049
-319,285	-200,000	0,018	-0,063
-318,270	-59,240	-0,018	-0,005
-317,256	-32,564	-0,151	-0,061
-316,241	607,809	0,061	0,112
-315,226	800,000	0,051	-0,108
-314,212	-121,392	0,123	-0,015
-313,197	460,921	0,099	0,161
-312,183	74,800	0,055	-0,042
-311,168	615,921	-0,022	-0,039
-310,153	186,444	-0,060	-0,065
-309,139	216,888	-0,056	0,065
-308,124	-64,621	-0,083	0,024
-307,110	11,623	0,056	-0,031
-306,095	260,948	0,090	0,113
-305,080	116,837	0,016	-0,014
-304,066	50,600	-0,197	-0,135
-303,051	29,605	-0,070	-0,043
-302,037	208,148	0,068	0,077
-301,022	222,023	-0,069	-0,081
-300,008	-131,324	0,063	-0,006
-298,993	-200,000	0,021	0,193
-297,978	61,359	-0,108	0,078
-296,964	-163,915	0,075	-0,002
-295,949	56,628	0,030	-0,021
-294,935	-66,088	0,184	0,053
-293,920	192,766	0,077	0,084
-292,905	161,146	-0,056	0,057
-291,891	28,968	0,049	-0,030
-290,876	-200,000	0,058	0,194
-289,862	140,024	-0,078	-0,074
-288,847	-200,000	-0,000	0,020
-287,832	-132,476	-0,093	0,009
-286,818	-130,054	0,120	0,012
-285,803	-200,000	0,002	0,068
-284,789	-200,000	-0,012	0,100
-283,774	71,990	0,034	-0,025
-282,759	177,147	-0,039	-0,041
-281,745	-39,264	0,131	-0,050
-280,730	-112,486	-0,145	0,021
-279,716	30,007	0,124	0,076
-278,701	800,000	-0,045	0,140
-277,686	-55,840	0,048	0,015
-276,672	-64,097	-0,096	-0,028
-275,657	-200,000	0,007	0,111
-274,643	-159,514	0,071	0,003
-273,628	-140,587	0,018	0,001
-272,613	11,251	0,051	0,028
-271,599	78,312	-0,052	-0,040
-270,584	202,801	-0,013	-0,014
-269,570	-200,000	0,002	-0,013
-268,555	-6,007	-0,078	-0,039
-267,540	380,947	-0,057	-0,085
-266,526	130,551	-0,029	0,026
-265,511	156,714	0,025	0,025
-264,497	319,698	-0,049	0,067
-263,482	84,023	0,073	-0,058
-262,467	-116,044	0,127	0,017
-261,453	-92,398	-0,013	0,003
-260,438	-200,000	-0,010	-0,066
-259,424	800,000	-0,030	-0,065
-258,409	-65,064	-0,101	-0,029
-257,395	-200,000	0,005	-0,071
-256,380	275,725	0,042	-0,054
-255,365	74,539	0,043	0,032
-254,351	32,305	0,100	-0,062
-253,336	-200,000	-0,003	-0,020
-252,322	-200,000	-0,036	-0,134
-251,307	800,000	0,030	0,062
-250,292	-200,000	-0,018	-0,095
-249,278	-46,388	0,050	-0,018
-248,263	218,965	0,113	0,131
-247,249	-60,520	0,050	0,015
-246,234	-200,000	-0,003	0,103
-245,219	192,831	-0,069	-0,075
-244,205	666,634	0,056	0,106
-243,190	-200,000	0,006	0,033
-242,176	800,000	0,037	-0,082
-241,161	-12,602	-0,075	-0,035
-240,146	-82,109	0,172	-0,040
-239,132	161,867	0,033	0,034
-238,117	138,393	-0,097	-0,092
-237,103	12,406	-0,192	-0,107
-236,088	-200,000	0,052	-0,179
-235,073	686,898	-0,053	-0,101
-234,059	32,104	-0,055	-0,034
-233,044	-200,000	-0,008	0,039
-232,030	800,000	0,041	0,089
-231,015	5,754	-0,073	-0,039
-230,000	-200,000	-0,027	0,129
-228,986	662,787	-0,078	0,146
-227,971	368,926	0,053	0,078
-226,957	166,423	0,109	0,112
-225,942	756,847	0,041	0,080
-224,927	-200,000	-0,001	-0,084
-223,913	-200,000	0,040	0,143
-222,898	-75,792	-0,115	-0,029
-221,884	-200,000	0,000	-0,026
-220,869	-200,000	-0,027	0,097
-219,855	6,292	0,147	0,078
-218,840	-10,546	0,047	0,022
-217,825	800,000	-0,018	0,038
-216,811	103,391	0,036	-0,030
-215,796	211,530	0,106	-0,121
-214,782	-77,751	0,057	-0,014
-213,767	73,255	0,071	0,054
-212,752	-102,769	0,031	-0,005
-211,738	-200,000	0,019	-0,158
-210,723	138,778	-0,093	0,089
-209,709	572,960	-0,070	0,123
-208,694	800,000	0,036	0,106
-207,679	143,139	-0,069	0,067
-206,665	-126,349	-0,032	0,003
-205,650	50,058	0,039	0,026
-204,636	-105,394	0,061	-0,010
-203,621	113,601	0,052	0,045
-202,606	-75,989	-0,081	-0,020
-201,592	-200,000	-0,021	0,083
-200,577	248,490	-0,055	0,067
-199,563	800,000	-0,008	0,018
-198,548	-107,381	0,107	0,017
-197,533	202,537	-0,061	-0,068
-196,519	-23,225	-0,040	0,017
-195,504	363,175	-0,031	0,045
-194,490	75,914	-0,108	-0,083
-193,475	636,270	0,076	-0,140
-192,460	-30,240	-0,103	0,042
-191,446	567,729	-0,075	0,132
-190,431	-90,199	0,133	-0,028
-189,417	-200,000	0,018	0,161
-188,402	207,929	0,148	0,167
-187,387	-52,406	-0,109	0,036
-186,373	-123,383	0,044	0,005
-185,358	-180,484	-0,081	0,001
-184,344	-200,000	-0,004	0,079
-183,329	385,478	0,067	-0,099
-182,315	-28,629	-0,030	0,012
-181,300	81,061	0,044	-0,034
-180,285	166,780	-0,158	0,161
-179,271	735,021	0,020	-0,039
-178,256	-98,412	0,026	0,005
-177,242	-200,000	-0,020	0,098
-176,227	164,393	0,019	0,019
-175,212	-80,399	0,114	-0,027
-174,198	800,000	-0,042	0,091
-173,183	-200,000	-0,016	-0,108
-172,169	-200,000	-0,055	-0,221
-171,154	638,705	0,052	-0,097
-170,139	116,721	0,048	-0,042
-169,125	437,586	-0,008	0,013
-168,110	512,665	0,082	0,139
-167,096	10,131	0,054	-0,029
-166,081	800,000	-0,016	-0,049
-165,066	800,000	0,010	0,025
-164,052	-200,000	0,003	-0,083
-163,037	182,476	0,030	0,032
-162,023	19,063	0,067	-0,039
-161,008	475,138	-0,029	-0,047
-159,993	34,732	-0,045	-0,028
-158,979	576,373	-0,046	-0,081
-157,964	108,163	0,065	0,056
-156,950	-134,820	0,120	0,010
-155,935	-200,000	0,002	0,095
-154,920	80,582	0,086	0,067
-153,906	-200,000	0,008	0,066
-152,891	128,295	-0,126	0,115
-151,877	5,455	-0,204	-0,108
-150,862	182,677	0,044	-0,047
-149,847	-27,358	-0,085	-0,035
-148,833	-200,000	-0,023	0,116
-147,818	682,314	0,103	0,194
-146,804	-200,000	0,010	0,069
-145,789	-95,205	0,046	-0,009
-144,775	-132,142	0,027	-0,002
-143,760	353,878	0,051	-0,074
-142,745	-111,670	-0,136	-0,020
-141,731	-200,000	-0,006	-0,074
-140,716	513,596	0,055	0,093
-139,702	800,000	-0,039	0,109
-138,687	98,317	-0,096	0,080
-137,672	270,882	-0,011	-0,014
-136,658	106,711	-0,088	-0,075
-135,643	116,076	-0,033	0,029
-134,629	137,683	-0,028	-0,027
-133,614	-150,468	-0,059	0,003
-132,599	-18,214	0,156	0,070
-131,585	139,427	-0,104	-0,099
-130,570	-200,000	-0,007	-0,043
-129,556	-144,531	-0,062	0,004
-128,541	-200,000	-0,026	-0,119
-127,526	69,211	0,076	-0,056
-126,512	26,697	-0,044	0,027
-125,497	800,000	0,042	-0,094
-124,483	-23,530	-0,152	0,066
-123,468	-35,470	0,096	-0,037
-122,453	93,876	0,046	-0,038
-121,439	108,710	-0,072	-0,062
-120,424	41,339	-0,033	-0,022
-119,410	-21,625	0,021	-0,009
