DTS Sentinel unit serial number:	SN410029Multiplexer serial number:	ORYXHardware model number:	OX2-SRSoftware version number:	ORYX F/W v4,00 Oryx Data Collector v3.7.2.0data status	okinstallation	B5 Nyhavnadifferential loss correction	single-endedforward channel	channel 2reverse channel	N/Adate	2023/12/11time	16:07:13forward acquisition time	300,00reverse acquisition time	0,00gamma	499,1914k internal	0,3166k external	0,3166temperature offset calibration	1,0000default loss term (dB/km)	0,3820temperature slope calibration	1,0000multiplexer offset coefficient	1,0000multiplexer slope coefficient	1,0000fibre end	0,00T internal ref (°C)	13,78T ext. ref 1 (°C)	-1,19T ext. ref 2 (°C)	-1,28length (m)	temperature (°C)	Stokes	anti-Stokes-744,400	408,286	0,143	0,223
-743,385	-63,049	-0,340	0,103
-742,371	-73,582	0,204	0,054
-741,356	-44,870	-0,232	0,085
-740,342	-118,733	0,192	0,025
-739,327	-144,724	-0,383	-0,026
-738,312	-200,000	0,003	0,088
-737,298	-54,170	-0,228	0,076
-736,283	387,645	-0,010	0,015
-735,269	25,289	-0,215	0,131
-734,254	120,502	0,161	0,147
-733,239	13,480	-0,425	-0,242
-732,225	-127,916	0,085	0,009
-731,210	210,852	0,050	0,058
-730,196	88,341	0,088	-0,072
-729,181	-29,899	-0,035	-0,014
-728,167	471,784	0,036	-0,060
-727,152	30,027	-0,067	-0,042
-726,137	-200,000	-0,024	-0,119
-725,123	-45,947	-0,091	0,033
-724,108	-200,000	0,013	-0,230
-723,094	-48,107	-0,132	-0,047
-722,079	202,927	0,035	-0,040
-721,064	-88,056	-0,082	-0,018
-720,050	-162,769	-0,103	0,004
-719,035	352,351	-0,016	-0,023
-718,021	-200,000	-0,007	-0,065
-717,006	-70,563	-0,144	-0,040
-715,991	-200,000	0,005	-0,038
-714,977	-34,309	0,049	-0,019
-713,962	-16,477	-0,105	-0,049
-712,948	35,369	0,149	-0,096
-711,933	661,173	-0,075	0,143
-710,918	-89,761	-0,116	-0,025
-709,904	276,098	-0,071	-0,092
-708,889	800,000	-0,025	-0,056
-707,875	672,241	-0,072	-0,138
-706,860	800,000	0,048	0,150
-705,845	-6,583	0,049	-0,025
-704,831	-110,026	0,122	-0,019
-703,816	-200,000	0,017	-0,072
-702,802	84,209	-0,063	-0,051
-701,787	348,792	0,020	0,029
-700,772	-168,297	0,124	0,003
-699,758	60,395	-0,061	-0,044
-698,743	-200,000	-0,012	-0,130
-697,729	-87,517	-0,068	0,015
-696,714	410,929	-0,053	-0,083
-695,699	800,000	-0,049	-0,103
-694,685	-200,000	0,027	-0,151
-693,670	-72,072	-0,091	0,025
-692,656	38,812	0,007	0,005
-691,641	-200,000	0,007	-0,167
-690,627	16,106	-0,047	0,027
-689,612	-200,000	-0,004	0,061
-688,597	0,568	0,061	-0,032
-687,583	116,400	0,101	-0,091
-686,568	-52,904	-0,107	0,036
-685,554	-40,260	-0,058	0,022
-684,539	113,902	0,025	-0,022
-683,524	274,401	-0,066	0,086
-682,510	-200,000	-0,002	0,084
-681,495	699,372	-0,059	-0,115
-680,481	-195,778	-0,121	0,001
-679,466	-15,409	-0,170	-0,080
-678,451	-79,715	-0,197	0,048
-677,437	-10,447	-0,067	-0,032
-676,422	628,688	0,022	0,041
-675,408	-200,000	-0,019	-0,087
-674,393	-84,083	-0,091	0,021
-673,378	-18,656	-0,113	-0,052
-672,364	800,000	0,080	-0,170
-671,349	-200,000	-0,021	-0,070
-670,335	-48,256	0,112	-0,039
-669,320	368,447	0,006	-0,010
-668,305	12,372	0,131	0,074
-667,291	-108,967	-0,085	-0,013
-666,276	-200,000	-0,006	0,099
-665,262	-58,260	-0,080	-0,026
-664,247	-54,668	-0,018	-0,006
-663,232	-50,841	-0,138	-0,047
-662,218	-111,231	0,090	0,013
-661,203	-13,963	0,140	0,066
-660,189	160,100	-0,127	-0,130
-659,174	-200,000	0,002	-0,045
-658,159	800,000	-0,063	-0,167
-657,145	447,035	0,043	-0,070
-656,130	414,263	-0,046	0,072
-655,116	128,580	0,050	0,046
-654,101	135,581	0,109	0,104
-653,086	-200,000	-0,023	0,120
-652,072	609,738	0,010	0,018
-651,057	-90,802	-0,074	-0,016
-650,043	-57,089	-0,131	-0,042
-649,028	-133,573	-0,022	-0,002
-648,014	800,000	-0,036	-0,080
-646,999	800,000	-0,016	-0,044
-645,984	-87,280	-0,190	-0,042
-644,970	-43,706	-0,167	0,061
-643,955	111,916	-0,161	0,142
-642,941	-200,000	-0,044	-0,145
-641,926	-90,920	-0,133	0,028
-640,911	-88,200	-0,168	-0,037
-639,897	-200,000	-0,018	-0,173
-638,882	-51,349	-0,113	-0,038
-637,868	202,045	0,018	0,020
-636,853	661,929	0,007	0,012
-635,838	-78,026	-0,171	-0,043
-634,824	-200,000	-0,014	-0,132
-633,809	-7,931	0,097	0,048
-632,795	-200,000	0,008	0,058
-631,780	105,958	0,038	0,033
-630,765	800,000	-0,067	-0,168
-629,751	-200,000	0,005	0,048
-628,736	124,791	-0,102	-0,094
-627,722	86,237	0,106	-0,085
-626,707	800,000	0,006	-0,015
-625,692	147,732	-0,087	-0,086
-624,678	-200,000	-0,005	0,040
-623,663	-200,000	0,005	-0,051
-622,649	118,833	-0,076	-0,069
-621,634	13,686	-0,085	0,048
-620,619	3,926	0,061	0,032
-619,605	-89,784	-0,126	0,027
-618,590	42,339	0,017	-0,011
-617,576	-63,680	0,100	0,030
-616,561	47,754	0,130	0,089
-615,546	-127,351	-0,139	-0,015
-614,532	333,927	0,072	-0,102
-613,517	-146,423	-0,128	0,008
-612,503	-200,000	0,001	0,070
-611,488	423,446	-0,020	0,031
-610,474	-200,000	-0,004	0,175
-609,459	-200,000	-0,018	-0,078
-608,444	-200,000	-0,007	-0,091
-607,430	800,000	-0,037	-0,112
-606,415	533,509	0,051	-0,089
-605,401	-30,760	0,106	0,044
-604,386	-200,000	-0,004	0,030
-603,371	-200,000	-0,005	-0,198
-602,357	152,836	0,070	-0,070
-601,342	-110,308	0,057	-0,009
-600,328	476,980	0,068	0,112
-599,313	800,000	-0,014	-0,036
-598,298	800,000	-0,062	-0,131
-597,284	-200,000	-0,027	0,090
-596,269	-55,843	0,075	-0,024
-595,255	-200,000	-0,040	0,145
-594,240	682,957	-0,040	-0,077
-593,225	231,160	0,047	-0,056
-592,211	40,242	-0,059	0,038
-591,196	-49,566	-0,127	-0,044
-590,182	88,103	0,013	0,011
-589,167	-200,000	-0,028	0,126
-588,152	-88,845	-0,110	-0,024
-587,138	264,921	0,089	0,113
-586,123	49,621	0,059	0,041
-585,109	-200,000	0,004	-0,099
-584,094	150,712	-0,082	-0,081
-583,079	-200,000	-0,012	-0,165
-582,065	-92,833	-0,081	-0,016
-581,050	-200,000	-0,056	0,186
-580,036	800,000	0,042	-0,133
-579,021	-200,000	-0,004	0,093
-578,006	-200,000	-0,019	-0,129
-576,992	91,924	-0,100	-0,082
-575,977	-64,271	0,070	-0,021
-574,963	-200,000	-0,006	-0,026
-573,948	-200,000	0,003	0,137
-572,934	800,000	0,015	0,043
-571,919	800,000	-0,006	-0,018
-570,904	-136,986	-0,103	0,009
-569,890	70,321	-0,029	-0,022
-568,875	-27,648	0,084	-0,036
-567,861	-93,638	-0,074	0,015
-566,846	800,000	0,025	0,052
-565,831	90,270	-0,117	0,095
-564,817	-38,135	0,119	0,046
-563,802	-20,243	0,049	0,022
-562,788	44,367	-0,101	-0,068
-561,773	409,597	-0,013	0,020
-560,758	-56,113	0,175	0,056
-559,744	-200,000	-0,020	0,070
-558,729	-160,085	0,026	-0,001
-557,715	108,142	-0,064	-0,056
-556,700	-200,000	-0,008	-0,069
-555,685	-107,573	-0,116	-0,018
-554,671	-200,000	0,028	-0,141
-553,656	88,456	0,059	0,048
-552,642	-200,000	0,005	0,044
-551,627	-200,000	0,015	0,068
-550,612	43,902	0,117	0,078
-549,598	-124,245	-0,126	-0,014
-548,583	545,682	0,082	-0,144
-547,569	60,088	-0,121	-0,087
-546,554	800,000	0,022	-0,060
-545,539	185,937	0,106	0,115
-544,525	-28,195	-0,111	0,046
-543,510	135,627	-0,033	0,031
-542,496	-200,000	-0,011	-0,082
-541,481	-91,894	-0,066	0,014
-540,466	137,082	-0,088	-0,084
-539,452	132,574	0,097	-0,091
-538,437	348,451	-0,048	-0,069
-537,423	-65,503	-0,140	-0,041
-536,408	-33,009	-0,060	-0,024
-535,393	-64,653	-0,078	-0,023
-534,379	-200,000	0,019	-0,129
-533,364	-200,000	0,009	0,031
-532,350	63,042	0,124	0,090
-531,335	54,574	0,058	0,041
-530,321	-122,112	0,074	0,009
-529,306	-87,804	0,043	-0,009
-528,291	-29,818	-0,101	-0,042
-527,277	63,923	0,027	-0,020
-526,262	-200,000	-0,029	-0,118
-525,248	-1,470	0,054	-0,027
-524,233	4,032	0,295	0,157
-523,218	197,708	0,012	-0,014
-522,204	520,819	0,017	-0,030
-521,189	34,371	-0,143	0,091
-520,175	800,000	0,013	0,041
-519,160	-64,547	0,143	0,042
-518,145	-200,000	0,010	-0,071
-517,131	-200,000	-0,010	0,071
-516,116	-19,571	-0,077	0,035
-515,102	68,447	0,113	0,084
-514,087	-200,000	0,009	0,096
-513,072	800,000	-0,015	0,045
-512,058	476,310	-0,029	0,048
-511,043	146,906	0,040	0,040
-510,029	-200,000	-0,029	0,239
-509,014	800,000	0,059	0,135
-507,999	-200,000	-0,009	0,146
-506,985	-39,091	-0,052	-0,020
-505,970	-142,542	-0,076	-0,005
-504,956	2,638	0,123	0,065
-503,941	284,785	-0,025	-0,033
-502,926	13,104	0,113	0,063
-501,912	391,129	0,046	0,069
-500,897	-200,000	-0,000	0,037
-499,883	12,747	0,049	-0,027
-498,868	-58,490	-0,132	0,042
-497,853	62,415	0,078	-0,057
-496,839	164,288	-0,070	0,072
-495,824	-59,919	-0,111	0,034
-494,810	-89,899	0,086	0,018
-493,795	-66,889	-0,046	-0,013
-492,781	60,890	-0,020	0,014
-491,766	203,929	-0,051	-0,058
-490,751	-200,000	0,017	-0,065
-489,737	172,307	0,075	0,078
-488,722	800,000	-0,041	0,095
-487,708	511,160	0,037	-0,062
-486,693	491,701	0,067	0,112
-485,678	800,000	0,024	-0,060
-484,664	-20,500	-0,016	-0,007
-483,649	-168,681	0,017	-0,000
-482,635	-85,993	-0,118	-0,026
-481,620	3,237	0,043	0,023
-480,605	221,660	-0,079	-0,093
-479,591	185,531	0,092	-0,099
-478,576	800,000	0,027	0,083
-477,562	800,000	-0,035	0,093
-476,547	-59,388	0,124	0,039
-475,532	557,401	-0,089	0,158
-474,518	8,601	0,054	-0,030
-473,503	94,193	-0,075	0,062
-472,489	-49,945	0,113	0,039
-471,474	-200,000	-0,006	-0,117
-470,459	800,000	-0,097	-0,278
-469,445	-200,000	0,032	-0,164
-468,430	-200,000	-0,016	-0,145
-467,416	-160,681	-0,097	-0,004
-466,401	152,361	0,057	0,057
-465,386	141,314	0,044	-0,043
-464,372	800,000	0,035	0,088
-463,357	-123,766	-0,067	0,008
-462,343	-118,865	-0,083	-0,011
-461,328	-68,705	-0,098	0,028
-460,313	-200,000	-0,009	-0,092
-459,299	-189,289	0,146	-0,001
-458,284	282,922	-0,105	0,138
-457,270	64,235	0,111	0,081
-456,255	-18,248	0,078	0,035
-455,241	-200,000	-0,011	-0,049
-454,226	-38,325	-0,025	0,009
-453,211	-200,000	-0,026	0,086
-452,197	549,709	-0,033	0,058
-451,182	-97,927	0,156	0,029
-450,168	-200,000	-0,027	0,144
-449,153	291,418	0,015	0,020
-448,138	223,656	0,029	-0,034
-447,124	-200,000	0,007	-0,134
-446,109	262,979	0,110	0,139
-445,095	360,548	0,021	-0,030
-444,080	-8,058	0,116	-0,057
-443,065	159,526	0,069	-0,070
-442,051	798,614	0,066	0,133
-441,036	-200,000	-0,022	-0,174
-440,022	213,374	0,051	-0,058
-439,007	-200,000	-0,011	0,088
-437,992	31,393	0,048	0,030
-436,978	-200,000	0,006	0,053
-435,963	154,224	-0,057	0,057
-434,949	291,645	0,054	-0,071
-433,934	178,482	-0,038	0,040
-432,919	-100,217	-0,070	0,013
-431,905	800,000	0,035	-0,083
-430,890	800,000	0,048	0,152
-429,876	-100,754	0,017	0,003
-428,861	266,710	-0,075	0,095
-427,846	-86,036	0,081	-0,018
-426,832	603,854	-0,052	-0,094
-425,817	278,681	-0,044	-0,057
-424,803	188,186	-0,080	0,087
-423,788	-93,702	0,128	0,025
-422,773	36,871	-0,020	-0,013
-421,759	2,292	-0,061	0,032
-420,744	-200,000	0,009	-0,070
-419,730	-200,000	-0,031	-0,122
-418,715	174,993	0,085	0,090
-417,701	-4,321	-0,042	0,021
-416,686	729,014	0,052	0,101
-415,671	-64,666	0,064	0,019
-414,657	-0,628	0,114	0,059
-413,642	-200,000	-0,013	-0,093
-412,628	-143,441	-0,077	0,005
-411,613	220,926	-0,058	-0,067
-410,598	-25,018	0,125	-0,054
-409,584	196,999	0,008	-0,009
-408,569	-200,000	-0,011	0,140
-407,555	31,266	0,037	-0,023
-406,540	-200,000	-0,001	0,024
-405,525	45,488	0,109	-0,073
-404,511	800,000	-0,034	-0,094
-403,496	-15,404	-0,100	-0,046
-402,482	6,232	-0,126	-0,068
-401,467	-16,502	-0,017	-0,008
-400,452	-93,287	-0,026	-0,005
-399,438	-99,836	0,015	-0,003
-398,423	262,634	0,040	-0,050
-397,409	709,440	0,046	-0,088
-396,394	156,895	0,125	-0,125
-395,379	800,000	-0,017	0,040
-394,365	17,652	0,235	0,135
-393,350	-19,261	-0,017	0,008
-392,336	499,546	-0,033	0,056
-391,321	-200,000	0,022	-0,104
-390,306	22,214	-0,101	-0,060
-389,292	125,039	-0,104	-0,095
-388,277	-140,770	-0,126	0,009
-387,263	800,000	-0,029	0,060
-386,248	50,026	0,103	0,070
-385,233	800,000	0,005	-0,017
-384,219	-79,306	0,118	-0,029
-383,204	-66,602	0,130	0,037
-382,190	-200,000	0,005	-0,048
-381,175	-92,953	0,171	-0,034
-380,160	582,716	-0,031	-0,056
-379,146	-98,465	0,066	-0,012
-378,131	-200,000	-0,009	0,131
-377,117	35,269	-0,058	0,037
-376,102	-200,000	-0,016	-0,118
-375,088	-98,024	-0,125	-0,023
-374,073	-31,519	0,038	-0,015
-373,058	467,647	-0,067	0,109
-372,044	800,000	-0,019	0,051
-371,029	-200,000	-0,015	0,053
-370,015	208,388	0,080	0,090
-369,000	7,759	0,116	0,063
-367,985	-60,598	0,007	0,002
-366,971	525,977	-0,048	0,081
-365,956	-200,000	-0,038	0,138
-364,942	97,191	-0,050	-0,041
-363,927	364,311	0,032	-0,047
-362,912	-200,000	0,001	0,034
-361,898	21,303	-0,041	-0,024
-360,883	-131,093	0,047	0,005
-359,869	2,490	0,144	-0,075
-358,854	53,200	-0,072	0,050
-357,839	78,129	0,057	-0,044
-356,825	-200,000	0,005	0,101
-355,810	-146,582	0,066	0,004
-354,796	-74,123	0,044	0,011
-353,781	15,720	-0,049	-0,028
-352,766	800,000	-0,031	-0,066
-351,752	135,484	0,041	-0,039
-350,737	-200,000	0,005	-0,023
-349,723	-200,000	-0,011	-0,060
-348,708	239,978	0,059	0,071
-347,693	-200,000	0,002	0,013
-346,679	-200,000	0,006	0,106
-345,664	269,880	0,115	-0,147
-344,650	-130,150	0,104	0,010
-343,635	11,419	-0,063	0,035
-342,620	124,800	-0,111	-0,101
-341,606	-200,000	-0,019	0,256
-340,591	-142,263	-0,041	0,003
-339,577	431,281	-0,061	0,095
-338,562	-66,404	-0,053	0,015
-337,548	377,191	0,053	0,079
-336,533	132,402	0,059	0,055
-335,518	800,000	-0,090	0,211
-334,504	-140,889	-0,112	-0,008
-333,489	-28,892	-0,044	0,018
-332,475	-200,000	0,010	-0,040
-331,460	473,155	0,060	-0,098
-330,445	-200,000	0,030	-0,106
-329,431	-118,269	-0,068	0,009
-328,416	50,192	0,060	0,041
-327,402	423,206	-0,034	-0,053
-326,387	-200,000	-0,009	-0,056
-325,372	15,642	-0,035	-0,020
-324,358	-200,000	-0,016	-0,069
-323,343	-31,438	-0,028	0,011
-322,329	35,791	0,062	0,039
-321,314	-63,050	0,160	0,047
-320,299	46,011	-0,089	0,059
-319,285	-14,356	-0,134	-0,062
-318,270	211,773	0,032	-0,036
-317,256	800,000	0,070	-0,165
-316,241	540,236	0,047	0,081
-315,226	-200,000	-0,001	-0,043
-314,212	209,089	0,118	-0,134
-313,197	162,857	-0,081	0,082
-312,183	689,396	-0,043	0,081
-311,168	800,000	-0,021	-0,063
-310,153	800,000	-0,058	-0,129
-309,139	-200,000	0,022	-0,138
-308,124	800,000	0,012	-0,037
-307,110	-143,930	0,066	-0,004
-306,095	-200,000	-0,004	0,100
-305,080	36,708	0,054	-0,034
-304,066	800,000	0,037	-0,079
-303,051	-65,776	-0,022	-0,006
-302,037	-200,000	0,004	0,035
-301,022	-200,000	-0,008	-0,087
-300,008	-200,000	0,009	-0,048
-298,993	-84,235	0,101	-0,023
-297,978	50,235	0,050	-0,034
-296,964	-15,749	-0,154	0,070
-295,949	118,846	0,086	-0,077
-294,935	-200,000	-0,063	-0,203
-293,920	800,000	0,035	-0,071
-292,905	75,827	0,051	0,039
-291,891	94,314	-0,044	0,036
-290,876	-200,000	-0,010	-0,081
-289,862	800,000	0,029	0,092
-288,847	-149,787	0,060	0,003
-287,832	119,035	-0,086	-0,076
-286,818	159,193	0,060	-0,060
-285,803	-67,133	0,140	0,040
-284,789	601,855	0,005	0,009
-283,774	800,000	0,012	0,039
-282,759	159,098	-0,080	-0,081
-281,745	528,715	0,036	-0,062
-280,730	393,426	-0,031	-0,047
-279,716	409,244	-0,043	0,067
-278,701	-200,000	0,025	0,084
-277,686	-10,871	0,113	0,054
-276,672	-4,940	0,137	-0,068
-275,657	607,997	-0,026	0,046
-274,643	-200,000	-0,005	0,051
-273,628	-200,000	0,032	-0,144
-272,613	419,615	-0,064	-0,100
-271,599	-73,694	0,029	0,008
-270,584	52,672	-0,047	0,032
-269,570	-70,103	0,068	-0,018
-268,555	-200,000	-0,011	0,123
-267,540	46,236	-0,030	-0,020
-266,526	-41,176	-0,063	-0,023
-265,511	526,828	-0,033	0,056
-264,497	-31,078	0,110	0,045
-263,482	-101,394	-0,134	0,023
-262,467	-30,091	0,086	-0,035
-261,453	-24,000	0,109	-0,047
-260,438	225,820	0,062	0,073
-259,424	81,858	-0,026	0,020
-258,409	800,000	0,062	-0,162
-257,395	-200,000	0,020	0,081
-256,380	41,319	-0,042	0,028
-255,365	83,213	-0,083	0,066
-254,351	0,414	0,151	0,077
-253,336	43,808	0,094	0,062
-252,322	-200,000	-0,001	-0,026
-251,307	167,739	-0,095	-0,097
-250,292	51,469	0,016	-0,011
-249,278	-200,000	0,020	0,099
-248,263	-200,000	0,023	0,190
-247,249	800,000	-0,037	-0,097
-246,234	-200,000	-0,002	0,089
-245,219	51,361	-0,033	-0,023
-244,205	10,425	-0,078	0,043
-243,190	95,817	-0,027	0,022
-242,176	352,281	0,032	0,046
-241,161	-200,000	0,008	0,051
-240,146	-200,000	0,001	0,129
-239,132	46,785	0,086	0,058
-238,117	800,000	0,023	0,050
-237,103	20,957	0,062	0,036
-236,088	72,682	-0,086	0,064
-235,073	-200,000	0,019	0,082
-234,059	800,000	-0,026	0,079
-233,044	198,229	-0,066	-0,073
-232,030	-187,398	0,100	0,001
-231,015	72,503	-0,007	-0,005
-230,000	209,161	-0,020	0,023
-228,986	-109,654	-0,232	-0,035
-227,971	-152,625	0,184	-0,009
-226,957	-200,000	-0,009	0,035
-225,942	-65,057	-0,056	0,016
-224,927	309,306	-0,020	0,027
-223,913	-127,099	-0,138	-0,014
-222,898	703,122	-0,045	-0,087
-221,884	800,000	0,017	-0,051
-220,869	-200,000	0,018	-0,109
-219,855	194,118	0,045	-0,049
-218,840	-200,000	0,024	0,117
-217,825	88,853	0,108	0,086
-216,811	16,576	-0,043	0,024
-215,796	647,132	-0,077	-0,143
-214,782	-200,000	-0,032	-0,221
-213,767	157,253	0,023	0,023
-212,752	-75,029	-0,005	-0,001
-211,738	-159,672	0,028	-0,001
-210,723	666,546	0,067	-0,125
-209,709	-135,671	-0,104	-0,009
-208,694	14,286	0,055	-0,031
-207,679	-125,983	0,068	0,007
-206,665	800,000	-0,034	-0,079
-205,650	100,637	-0,081	0,068
-204,636	35,151	0,053	0,034
-203,621	-200,000	-0,113	0,000
-202,606	-132,985	0,141	0,013
-201,592	632,431	-0,008	-0,014
-200,577	65,343	-0,093	-0,068
-199,563	715,785	0,056	-0,108
-198,548	-200,000	0,006	0,054
-197,533	3,734	-0,045	0,024
-196,519	-21,962	-0,094	-0,041
-195,504	-172,041	0,058	-0,001
-194,490	212,137	0,145	-0,164
-193,475	-82,887	-0,116	-0,027
-192,460	-200,000	-0,011	0,052
-191,446	128,668	0,111	0,101
-190,431	800,000	-0,054	0,154
-189,417	493,950	0,045	0,075
-188,402	31,447	-0,075	-0,047
-187,387	80,340	-0,080	-0,062
-186,373	295,288	-0,007	0,010
-185,358	-200,000	-0,015	-0,060
-184,344	-200,000	0,011	0,071
-183,329	-200,000	-0,010	0,047
-182,315	-141,903	0,052	-0,004
-181,300	15,237	-0,105	0,059
-180,285	-1,400	-0,132	-0,067
-179,271	220,666	0,069	-0,080
-178,256	621,866	0,033	0,061
-177,242	219,506	-0,110	0,127
-176,227	200,578	0,115	0,127
-175,212	-73,071	-0,039	0,010
-174,198	800,000	0,032	0,076
-173,183	427,066	-0,036	-0,056
-172,169	-200,000	-0,002	0,042
-171,154	-89,387	-0,120	0,025
-170,139	800,000	0,066	0,177
-169,125	-200,000	0,017	0,096
-168,110	218,580	0,078	-0,089
-167,096	-200,000	0,001	-0,026
-166,081	16,805	-0,059	-0,033
-165,066	277,225	0,110	-0,140
-164,052	-200,000	0,004	0,043
-163,037	200,711	0,014	0,015
-162,023	151,128	0,022	0,021
-161,008	745,111	0,007	-0,013
-159,993	-200,000	0,010	-0,077
-158,979	-200,000	-0,010	0,088
-157,964	450,312	-0,050	-0,080
-156,950	-2,296	-0,084	0,042
-155,935	763,449	0,031	0,061
-154,920	-47,775	0,084	-0,029
-153,906	-200,000	-0,011	-0,066
-152,891	-200,000	-0,016	-0,102
-151,877	800,000	-0,029	-0,060
-150,862	-177,633	-0,081	0,001
-149,847	40,791	-0,051	0,033
-148,833	-48,903	0,033	-0,011
-147,818	81,330	0,042	-0,032
-146,804	-200,000	0,001	-0,023
-145,789	-143,684	0,165	-0,011
-144,775	231,333	-0,049	0,058
-143,760	800,000	-0,032	-0,089
-142,745	9,451	-0,059	0,032
-141,731	800,000	0,054	-0,111
-140,716	124,983	-0,018	0,016
-139,702	-200,000	0,009	0,085
-138,687	-18,032	0,024	0,011
-137,672	800,000	-0,044	-0,136
-136,658	-82,933	-0,069	-0,016
-135,643	-165,160	-0,153	-0,005
-134,629	-200,000	0,005	0,080
-133,614	-61,027	-0,098	0,029
-132,599	-200,000	0,013	-0,078
-131,585	-200,000	0,020	0,094
-130,570	230,887	0,092	-0,108
-129,556	-200,000	0,012	-0,116
-128,541	800,000	-0,015	0,046
-127,526	-200,000	0,020	-0,102
-126,512	800,000	-0,026	0,080
-125,497	359,964	0,060	0,086
-124,483	-126,781	0,056	-0,006
-123,468	358,675	-0,100	0,144
-122,453	-200,000	-0,015	-0,050
-121,439	-200,000	-0,036	0,143
-120,424	5,458	0,067	0,036
-119,410	164,226	-0,016	0,016
