DTS Sentinel unit serial number:	SN410029Multiplexer serial number:	ORYXHardware model number:	OX2-SRSoftware version number:	ORYX F/W v4,00 Oryx Data Collector v3.7.2.0data status	okinstallation	B5 Nyhavnadifferential loss correction	single-endedforward channel	channel 2reverse channel	N/Adate	2023/12/11time	23:17:13forward acquisition time	300,00reverse acquisition time	0,00gamma	499,1914k internal	0,3156k external	0,3156temperature offset calibration	1,0000default loss term (dB/km)	0,3820temperature slope calibration	1,0000multiplexer offset coefficient	1,0000multiplexer slope coefficient	1,0000fibre end	0,00T internal ref (°C)	16,27T ext. ref 1 (°C)	-0,02T ext. ref 2 (°C)	-0,28length (m)	temperature (°C)	Stokes	anti-Stokes-744,400	-200,000	0,004	-0,132
-743,385	-108,054	-0,161	0,026
-742,371	-84,251	0,194	0,045
-741,356	-123,816	-0,432	0,050
-740,342	-72,504	0,051	0,014
-739,327	-170,538	-0,471	0,012
-738,312	800,000	-0,029	0,072
-737,298	-109,841	-0,214	-0,033
-736,283	-200,000	0,017	-0,058
-735,269	-170,789	-0,164	0,004
-734,254	800,000	0,035	-0,089
-733,239	-89,354	-0,523	-0,113
-732,225	-33,769	0,214	0,086
-731,210	-200,000	-0,054	0,191
-730,196	144,445	-0,031	-0,031
-729,181	2,712	-0,030	0,016
-728,167	588,711	0,037	0,068
-727,152	800,000	0,016	-0,033
-726,137	-200,000	0,032	-0,120
-725,123	-146,921	-0,098	0,006
-724,108	800,000	-0,019	-0,047
-723,094	-5,042	-0,194	-0,098
-722,079	49,647	0,040	-0,028
-721,064	417,069	-0,020	0,032
-720,050	-166,726	0,145	0,004
-719,035	800,000	-0,001	-0,002
-718,021	-200,000	-0,013	-0,112
-717,006	3,910	0,091	0,049
-715,991	-156,492	0,062	0,003
-714,977	-139,699	-0,062	-0,005
-713,962	-200,000	-0,027	-0,107
-712,948	10,761	-0,056	0,031
-711,933	51,477	-0,023	-0,016
-710,918	-200,000	-0,003	0,021
-709,904	10,370	0,216	-0,121
-708,889	51,830	-0,043	-0,030
-707,875	800,000	0,056	-0,128
-706,860	-200,000	-0,006	-0,142
-705,845	358,413	0,027	0,040
-704,831	269,012	0,069	0,090
-703,816	800,000	0,056	-0,138
-702,802	331,939	0,006	-0,008
-701,787	42,375	-0,069	-0,046
-700,772	-200,000	0,006	0,026
-699,758	-200,000	0,012	-0,058
-698,743	800,000	-0,033	-0,076
-697,729	179,703	0,065	0,071
-696,714	167,054	0,046	0,048
-695,699	165,121	0,091	0,094
-694,685	479,171	0,036	-0,060
-693,670	-104,150	-0,011	0,002
-692,656	-145,345	-0,123	0,008
-691,641	-32,235	0,119	0,049
-690,627	148,945	0,063	0,063
-689,612	-80,704	0,132	-0,032
-688,597	216,336	0,042	-0,049
-687,583	222,789	-0,026	0,031
-686,568	-129,349	-0,069	-0,007
-685,554	-41,837	0,149	-0,056
-684,539	770,434	-0,025	0,051
-683,524	-138,439	-0,064	0,005
-682,510	-51,211	0,176	0,060
-681,495	-91,007	-0,055	-0,012
-680,481	34,703	-0,043	-0,027
-679,466	123,009	0,031	-0,029
-678,451	-200,000	-0,008	0,072
-677,437	800,000	-0,053	0,125
-676,422	62,709	0,129	0,095
-675,408	800,000	-0,022	0,068
-674,393	800,000	0,024	0,051
-673,378	17,434	-0,110	-0,064
-672,364	-107,343	-0,062	-0,010
-671,349	-24,796	-0,086	0,037
-670,335	-21,892	-0,113	0,050
-669,320	-42,334	0,039	-0,014
-668,305	-121,761	0,115	0,014
-667,291	-76,447	-0,116	-0,030
-666,276	18,013	0,020	-0,011
-665,262	-37,403	-0,086	-0,033
-664,247	800,000	-0,046	-0,137
-663,232	54,748	-0,004	0,003
-662,218	800,000	0,070	0,167
-661,203	-200,000	-0,004	0,043
-660,189	-14,959	-0,152	-0,071
-659,174	8,288	0,012	0,007
-658,159	298,766	0,042	-0,057
-657,145	-106,429	-0,199	-0,032
-656,130	-176,869	0,192	-0,003
-655,116	2,210	-0,088	-0,047
-654,101	265,769	-0,059	-0,076
-653,086	-54,506	-0,126	-0,042
-652,072	-200,000	-0,004	0,035
-651,057	800,000	0,047	-0,103
-650,043	-87,229	-0,081	0,018
-649,028	71,990	-0,106	0,081
-648,014	-7,251	0,009	0,004
-646,999	256,737	0,033	-0,042
-645,984	146,131	-0,031	-0,030
-644,970	-200,000	-0,016	-0,147
-643,955	61,564	-0,045	-0,033
-642,941	367,390	-0,046	-0,068
-641,926	57,176	-0,075	-0,054
-640,911	-47,449	-0,160	-0,057
-639,897	-200,000	-0,018	0,123
-638,882	800,000	-0,075	-0,161
-637,868	99,411	0,020	-0,017
-636,853	153,004	-0,114	0,115
-635,838	-16,637	-0,143	-0,066
-634,824	-101,227	-0,070	0,013
-633,809	-200,000	-0,008	0,054
-632,795	40,002	0,138	0,091
-631,780	622,868	-0,079	0,146
-630,765	-103,694	-0,065	-0,011
-629,751	800,000	-0,053	0,163
-628,736	543,386	-0,062	-0,109
-627,722	130,008	-0,030	-0,028
-626,707	-132,442	0,130	-0,012
-625,692	-200,000	0,003	0,157
-624,678	-200,000	-0,057	-0,000
-623,663	247,288	0,028	0,034
-622,649	-146,403	-0,174	0,011
-621,634	-200,000	-0,023	-0,129
-620,619	142,961	0,096	0,094
-619,605	-91,631	-0,036	0,008
-618,590	-200,000	0,010	0,083
-617,576	-195,582	-0,028	-0,000
-616,561	70,297	-0,064	0,048
-615,546	-123,270	-0,079	0,009
-614,532	-200,000	-0,005	-0,098
-613,517	647,173	-0,028	-0,053
-612,503	-200,000	0,018	-0,112
-611,488	-200,000	0,027	0,120
-610,474	-200,000	0,003	-0,060
-609,459	-24,922	0,119	-0,052
-608,444	309,934	0,065	-0,090
-607,430	-38,027	-0,080	-0,031
-606,415	800,000	-0,040	0,085
-605,401	-200,000	0,018	0,065
-604,386	800,000	-0,021	0,064
-603,371	18,509	0,153	0,090
-602,357	138,560	-0,078	-0,075
-601,342	44,440	-0,118	-0,079
-600,328	174,215	0,029	-0,030
-599,313	-124,346	-0,072	-0,008
-598,298	-200,000	0,005	0,040
-597,284	800,000	0,056	-0,119
-596,269	15,502	-0,054	0,031
-595,255	15,832	0,107	0,061
-594,240	800,000	0,036	0,101
-593,225	205,230	-0,039	-0,044
-592,211	800,000	0,068	-0,186
-591,196	-135,339	-0,166	-0,014
-590,182	-200,000	0,002	0,046
-589,167	37,688	0,100	-0,065
-588,152	-200,000	-0,031	-0,102
-587,138	-33,462	0,096	-0,039
-586,123	-200,000	-0,055	-0,000
-585,109	126,231	-0,046	-0,043
-584,094	542,596	-0,025	0,043
-583,079	-2,621	-0,012	-0,006
-582,065	186,259	0,066	0,072
-581,050	-118,835	-0,155	-0,020
-580,036	-200,000	0,009	0,034
-579,021	800,000	0,020	-0,044
-578,006	-200,000	-0,015	-0,096
-576,992	-54,826	0,071	-0,023
-575,977	126,324	-0,027	0,025
-574,963	-162,597	0,203	0,007
-573,948	-200,000	0,020	0,073
-572,934	-200,000	0,002	0,034
-571,919	90,218	-0,070	-0,057
-570,904	325,491	-0,019	-0,027
-569,890	800,000	0,051	0,126
-568,875	800,000	0,042	0,099
-567,861	89,646	-0,035	-0,029
-566,846	-143,199	0,058	-0,004
-565,831	-200,000	-0,017	0,091
-564,817	-7,875	-0,144	-0,071
-563,802	-51,683	-0,097	0,033
-562,788	74,729	-0,095	-0,073
-561,773	-200,000	0,035	-0,139
-560,758	-200,000	-0,028	-0,099
-559,744	-139,362	-0,039	-0,003
-558,729	-82,141	0,077	0,018
-557,715	-73,206	-0,223	-0,059
-556,700	-200,000	0,012	-0,052
-555,685	164,871	-0,049	0,051
-554,671	257,493	0,018	-0,023
-553,656	-200,000	0,033	-0,116
-552,642	-124,191	0,099	0,011
-551,627	111,187	-0,066	0,058
-550,612	-200,000	-0,017	-0,121
-549,598	-200,000	0,012	-0,086
-548,583	-128,381	-0,113	-0,012
-547,569	278,946	0,053	-0,069
-546,554	-189,879	0,072	-0,001
-545,539	-109,885	-0,076	-0,012
-544,525	800,000	0,028	0,074
-543,510	24,095	0,062	-0,037
-542,496	-88,393	-0,100	-0,022
-541,481	540,642	-0,035	0,061
-540,466	370,397	-0,078	-0,117
-539,452	-34,569	-0,045	0,018
-538,437	117,536	0,127	0,115
-537,423	138,920	0,059	0,057
-536,408	29,115	0,046	-0,029
-535,393	176,023	0,077	-0,082
-534,379	-200,000	-0,005	0,029
-533,364	-124,499	-0,107	-0,012
-532,350	-151,058	-0,136	-0,007
-531,335	-33,227	-0,048	-0,019
-530,321	-27,979	0,031	0,013
-529,306	-200,000	-0,002	-0,049
-528,291	-200,000	-0,031	-0,111
-527,277	-200,000	-0,045	-0,162
-526,262	392,194	0,004	0,006
-525,248	-74,157	0,101	-0,027
-524,233	-125,083	0,119	0,013
-523,218	62,634	-0,012	0,009
-522,204	800,000	0,021	-0,046
-521,189	800,000	-0,039	-0,102
-520,175	-200,000	-0,011	-0,096
-519,160	90,064	0,058	-0,047
-518,145	246,051	0,073	-0,090
-517,131	128,202	-0,029	0,027
-516,116	-116,508	0,031	0,004
-515,102	-200,000	-0,031	-0,107
-514,087	800,000	0,066	-0,148
-513,072	71,593	0,009	0,007
-512,058	-132,197	0,064	-0,006
-511,043	-200,000	-0,016	0,088
-510,029	222,559	0,064	-0,075
-509,014	800,000	0,043	0,118
-507,999	75,313	0,098	-0,075
-506,985	216,360	-0,027	0,032
-505,970	-105,145	-0,165	-0,027
-504,956	-200,000	0,014	-0,144
-503,941	-78,028	0,103	-0,026
-502,926	218,557	0,100	-0,117
-501,912	-200,000	0,010	0,046
-500,897	-63,289	0,090	-0,027
-499,883	198,363	0,040	-0,045
-498,868	-51,934	-0,174	-0,059
-497,853	417,910	0,105	-0,164
-496,839	97,361	0,111	-0,093
-495,824	100,351	0,011	-0,009
-494,810	53,572	-0,029	0,020
-493,795	88,437	0,080	0,065
-492,781	22,585	0,067	-0,040
-491,766	27,815	-0,083	-0,051
-490,751	365,488	0,007	-0,010
-489,737	214,551	0,108	-0,126
-488,722	166,414	0,055	-0,057
-487,708	-200,000	-0,006	-0,057
-486,693	116,584	-0,122	0,109
-485,678	-119,762	-0,140	-0,017
-484,664	-43,566	-0,096	0,035
-483,649	800,000	-0,019	0,056
-482,635	-189,800	-0,040	-0,000
-481,620	0,792	-0,024	-0,013
-480,605	245,555	-0,102	-0,125
-479,591	103,770	0,012	-0,010
-478,576	10,816	0,022	0,012
-477,562	-91,332	-0,116	-0,024
-476,547	-200,000	0,000	-0,053
-475,532	211,494	-0,104	-0,120
-474,518	199,505	0,029	-0,032
-473,503	-200,000	-0,008	0,052
-472,489	-178,700	0,126	-0,002
-471,474	800,000	-0,041	-0,116
-470,459	93,281	-0,110	-0,091
-469,445	-200,000	0,027	0,118
-468,430	-109,743	0,077	0,012
-467,416	402,685	-0,044	0,067
-466,401	-200,000	-0,017	0,088
-465,386	-200,000	0,012	0,064
-464,372	401,068	-0,036	0,055
-463,357	-8,802	-0,192	-0,094
-462,343	-200,000	-0,024	-0,094
-461,328	135,393	0,069	-0,066
-460,313	800,000	0,011	0,034
-459,299	-18,262	0,054	-0,024
-458,284	438,893	0,049	-0,078
-457,270	198,502	-0,026	0,029
-456,255	-200,000	-0,004	-0,057
-455,241	-106,179	-0,144	-0,023
-454,226	-200,000	-0,012	-0,101
-453,211	-98,615	0,125	-0,023
-452,197	-24,788	-0,126	0,054
-451,182	559,376	0,074	0,131
-450,168	4,956	0,062	0,033
-449,153	800,000	0,053	0,119
-448,138	168,212	-0,074	-0,077
-447,124	-200,000	0,014	0,102
-446,109	152,182	0,092	-0,092
-445,095	-128,301	0,236	-0,024
-444,080	171,944	-0,037	-0,039
-443,065	-200,000	-0,015	0,050
-442,051	109,024	0,057	-0,050
-441,036	177,816	-0,042	-0,045
-440,022	-52,734	0,122	-0,041
-439,007	-106,135	-0,074	-0,012
-437,992	-200,000	0,033	0,245
-436,978	800,000	0,042	0,108
-435,963	53,713	0,085	0,059
-434,949	-200,000	-0,001	0,046
-433,934	800,000	0,019	-0,055
-432,919	-200,000	-0,010	-0,037
-431,905	-22,181	0,017	0,007
-430,890	-35,665	0,142	0,056
-429,876	800,000	-0,011	0,031
-428,861	220,733	-0,025	-0,030
-427,846	-200,000	-0,007	0,115
-426,832	94,907	0,025	-0,021
-425,817	-200,000	-0,048	-0,234
-424,803	-107,327	0,101	-0,016
-423,788	789,100	-0,035	0,070
-422,773	-200,000	0,008	0,051
-421,759	133,494	0,037	0,035
-420,744	-141,453	-0,209	0,015
-419,730	-200,000	-0,016	-0,125
-418,715	339,053	0,015	-0,021
-417,701	174,898	-0,081	0,086
-416,686	509,010	-0,043	0,073
-415,671	468,988	-0,032	0,052
-414,657	-200,000	-0,000	-0,071
-413,642	-200,000	0,000	0,033
-412,628	190,516	-0,102	0,112
-411,613	-200,000	0,003	-0,117
-410,598	-24,733	-0,057	-0,024
-409,584	81,979	-0,058	-0,046
-408,569	-128,289	0,029	0,003
-407,555	198,535	-0,037	0,041
-406,540	-200,000	0,005	-0,219
-405,525	280,373	0,080	0,104
-404,511	-122,341	-0,123	-0,014
-403,496	133,594	-0,038	0,036
-402,482	379,989	-0,012	-0,018
-401,467	554,494	0,106	-0,187
-400,452	-200,000	0,001	0,029
-399,438	75,436	0,098	0,075
-398,423	-200,000	-0,028	-0,128
-397,409	-88,177	-0,162	0,035
-396,394	-99,142	0,056	0,010
-395,379	1,108	0,182	0,095
-394,365	-200,000	-0,025	0,145
-393,350	-64,330	0,066	0,019
-392,336	800,000	0,057	0,152
-391,321	-87,644	0,043	-0,009
-390,306	800,000	-0,044	-0,115
-389,292	800,000	-0,029	0,084
-388,277	748,726	-0,015	-0,029
-387,263	38,905	0,023	0,015
-386,248	-200,000	-0,004	-0,095
-385,233	-200,000	0,014	-0,047
-384,219	-94,942	0,170	0,033
-383,204	-31,131	-0,144	0,059
-382,190	409,607	0,028	0,043
-381,175	-200,000	-0,003	0,052
-380,160	-111,816	-0,060	-0,009
-379,146	63,433	0,163	0,119
-378,131	4,454	-0,051	0,027
-377,117	-200,000	0,004	-0,064
-376,102	207,503	-0,028	0,032
-375,088	278,654	-0,062	-0,080
-374,073	496,667	-0,028	0,047
-373,058	-200,000	0,031	0,154
-372,044	-2,824	0,128	0,065
-371,029	123,220	-0,087	-0,079
-370,015	90,657	0,051	-0,042
-369,000	15,045	-0,057	-0,032
-367,985	242,663	-0,091	-0,110
-366,971	800,000	-0,041	-0,117
-365,956	137,513	-0,026	0,024
-364,942	13,078	0,044	0,025
-363,927	226,198	0,076	0,090
-362,912	147,825	0,065	0,063
-361,898	217,527	0,042	-0,049
-360,883	-69,048	0,106	0,029
-359,869	534,908	0,070	0,120
-358,854	-200,000	-0,023	0,088
-357,839	-200,000	0,005	-0,059
-356,825	-200,000	0,007	0,048
-355,810	-200,000	0,052	0,176
-354,796	-200,000	-0,010	-0,100
-353,781	-55,905	-0,095	-0,031
-352,766	800,000	0,073	-0,196
-351,752	40,643	-0,117	-0,076
-350,737	79,886	0,107	0,083
-349,723	-200,000	0,001	0,053
-348,708	208,428	-0,015	0,018
-347,693	-200,000	-0,005	0,169
-346,679	-200,000	-0,003	-0,023
-345,664	571,450	-0,033	-0,058
-344,650	62,702	-0,123	-0,089
-343,635	800,000	-0,029	-0,082
-342,620	465,189	0,036	0,058
-341,606	-200,000	0,012	0,063
-340,591	-200,000	-0,034	-0,160
-339,577	114,344	-0,063	-0,056
-338,562	291,509	-0,070	-0,092
-337,548	-97,712	0,029	-0,005
-336,533	-122,286	0,091	-0,011
-335,518	-53,003	0,134	0,045
-334,504	-200,000	0,025	0,090
-333,489	75,401	-0,114	-0,087
-332,475	3,937	-0,042	-0,022
-331,460	800,000	-0,019	-0,048
-330,445	800,000	-0,024	-0,062
-329,431	-98,055	-0,094	-0,017
-328,416	-16,524	0,131	0,060
-327,402	171,991	-0,053	0,055
-326,387	23,111	0,057	-0,034
-325,372	800,000	0,063	-0,179
-324,358	800,000	0,006	0,012
-323,343	-94,844	0,103	-0,020
-322,329	158,332	-0,082	0,082
-321,314	-89,073	0,066	-0,014
-320,299	-50,957	0,159	0,054
-319,285	800,000	0,054	0,150
-318,270	174,166	0,099	-0,104
-317,256	-42,242	0,157	0,058
-316,241	52,188	-0,013	0,009
-315,226	-21,103	0,022	-0,010
-314,212	759,830	0,064	0,126
-313,197	63,220	0,105	0,077
-312,183	452,780	-0,037	0,060
-311,168	32,100	0,025	-0,016
-310,153	444,221	-0,066	0,106
-309,139	130,545	-0,067	-0,063
-308,124	66,781	0,090	-0,067
-307,110	779,852	0,055	-0,109
-306,095	21,600	0,102	-0,060
-305,080	225,266	0,080	-0,094
-304,066	-200,000	-0,002	0,071
-303,051	800,000	-0,031	-0,090
-302,037	-62,007	0,062	0,019
-301,022	182,566	0,101	0,108
-300,008	-200,000	0,017	0,056
-298,993	800,000	0,054	0,139
-297,978	-61,627	0,148	-0,045
-296,964	800,000	0,038	0,086
-295,949	-200,000	0,003	-0,127
-294,935	197,511	-0,064	0,071
-293,920	-200,000	0,015	-0,153
-292,905	634,233	-0,025	-0,045
-291,891	-28,220	0,049	0,021
-290,876	50,726	-0,116	0,080
-289,862	-200,000	0,018	0,071
-288,847	-161,293	0,093	0,003
-287,832	111,551	0,063	-0,055
-286,818	332,789	-0,021	-0,030
-285,803	441,554	-0,048	0,076
-284,789	-0,723	0,078	0,040
-283,774	-125,037	0,072	0,008
-282,759	-200,000	-0,002	0,021
-281,745	577,122	-0,041	0,072
-280,730	133,418	-0,025	0,023
-279,716	-200,000	0,022	-0,110
-278,701	106,672	0,023	0,020
-277,686	-34,007	-0,049	-0,019
-276,672	-81,659	-0,105	0,025
-275,657	535,768	0,058	0,101
-274,643	42,353	-0,082	-0,054
-273,628	-35,295	-0,048	-0,019
-272,613	440,711	-0,069	-0,109
-271,599	-109,470	0,208	-0,032
-270,584	-73,612	0,125	0,033
-269,570	800,000	0,081	0,174
-268,555	330,671	-0,077	-0,107
-267,540	-200,000	0,000	0,092
-266,526	278,779	0,064	-0,082
-265,511	-200,000	0,014	-0,075
-264,497	800,000	-0,033	0,077
-263,482	304,143	0,066	0,090
-262,467	576,370	-0,025	0,045
-261,453	133,879	0,091	0,086
-260,438	-88,187	0,095	0,020
-259,424	50,166	-0,062	-0,043
-258,409	800,000	-0,027	0,055
-257,395	138,632	-0,064	-0,061
-256,380	-200,000	-0,031	0,114
-255,365	-23,921	0,011	-0,005
-254,351	-200,000	-0,025	0,101
-253,336	-22,412	-0,069	0,030
-252,322	573,655	-0,035	0,062
-251,307	800,000	-0,055	0,123
-250,292	767,122	-0,027	0,053
-249,278	342,670	-0,093	-0,132
-248,263	36,653	-0,085	0,054
-247,249	470,755	-0,072	0,118
-246,234	155,249	-0,042	0,042
-245,219	362,803	-0,160	0,233
-244,205	800,000	0,037	0,083
-243,190	582,954	-0,078	0,139
-242,176	-200,000	0,023	0,081
-241,161	-90,587	0,027	0,006
-240,146	-156,926	-0,055	-0,002
-239,132	800,000	-0,057	0,153
-238,117	800,000	-0,028	-0,070
-237,103	7,834	0,082	-0,044
-236,088	-200,000	0,026	-0,087
-235,073	-132,864	0,057	0,005
-234,059	237,838	-0,050	-0,061
-233,044	-200,000	0,001	-0,118
-232,030	-101,318	0,062	0,011
-231,015	800,000	-0,026	-0,081
-230,000	800,000	0,031	0,069
-228,986	-84,756	0,073	-0,016
-227,971	-16,342	0,058	-0,026
-226,957	619,605	-0,063	0,114
-225,942	-200,000	0,009	0,058
-224,927	800,000	0,047	-0,125
-223,913	-57,348	-0,171	-0,054
-222,898	84,366	-0,115	-0,091
-221,884	41,057	-0,056	0,036
-220,869	800,000	0,010	0,026
-219,855	-200,000	-0,005	0,079
-218,840	800,000	0,024	0,072
-217,825	782,737	0,013	-0,027
-216,811	-200,000	0,008	0,089
-215,796	-8,949	0,034	-0,016
-214,782	-200,000	0,023	-0,092
-213,767	-200,000	0,013	0,067
-212,752	-200,000	-0,013	-0,101
-211,738	-200,000	-0,016	-0,087
-210,723	800,000	0,010	0,025
-209,709	800,000	0,019	-0,046
-208,694	-143,955	-0,095	0,006
-207,679	531,245	0,047	-0,081
-206,665	200,302	0,047	0,052
-205,650	-200,000	-0,014	0,084
-204,636	-42,756	0,091	-0,033
-203,621	-120,927	-0,096	0,012
-202,606	800,000	-0,028	0,081
-201,592	503,652	0,050	0,084
-200,577	659,390	0,051	-0,095
-199,563	-200,000	0,019	0,120
-198,548	-200,000	0,053	0,170
-197,533	-45,827	0,042	0,015
-196,519	119,148	0,070	-0,063
-195,504	-200,000	0,013	-0,093
-194,490	21,419	-0,045	0,026
-193,475	-200,000	-0,005	0,051
-192,460	-200,000	0,030	-0,111
-191,446	10,364	0,071	-0,039
-190,431	800,000	0,069	0,186
-189,417	800,000	-0,088	0,232
-188,402	-198,243	-0,186	0,001
-187,387	800,000	0,051	-0,108
-186,373	-87,672	0,012	-0,003
-185,358	-74,511	-0,051	0,013
-184,344	-55,014	-0,044	0,014
-183,329	-6,847	0,061	0,030
-182,315	-87,961	0,036	0,008
-181,300	800,000	-0,034	0,081
-180,285	-200,000	-0,012	-0,038
-179,271	-10,663	-0,143	-0,068
-178,256	20,634	-0,079	-0,046
-177,242	-8,862	0,158	-0,076
-176,227	800,000	-0,026	0,053
-175,212	800,000	-0,029	-0,089
-174,198	206,990	0,026	0,029
-173,183	800,000	-0,014	-0,030
-172,169	-65,730	0,064	0,018
-171,154	106,926	0,019	-0,016
-170,139	800,000	-0,062	0,170
-169,125	-65,778	0,079	0,023
-168,110	2,102	-0,072	0,037
-167,096	125,095	-0,043	0,039
-166,081	-200,000	-0,002	0,123
-165,066	-80,536	-0,114	0,027
-164,052	-162,409	0,194	0,007
-163,037	-47,025	-0,034	-0,012
-162,023	338,411	0,065	0,091
-161,008	-51,043	0,083	0,028
-159,993	-81,797	-0,103	-0,024
-158,979	-200,000	0,002	-0,054
-157,964	130,554	-0,056	0,052
-156,950	-122,752	-0,117	0,013
-155,935	-200,000	0,006	-0,035
-154,920	-107,372	0,092	-0,014
-153,906	-200,000	0,027	0,149
-152,891	197,422	0,058	0,064
-151,877	40,617	-0,068	-0,044
-150,862	106,675	-0,047	0,040
-149,847	-116,350	0,140	0,018
-148,833	800,000	0,042	0,088
-147,818	154,374	0,094	0,094
-146,804	77,052	0,140	0,107
-145,789	420,679	-0,072	0,111
-144,775	-200,000	-0,039	0,153
-143,760	-200,000	0,016	-0,141
-142,745	147,700	0,021	-0,020
-141,731	-200,000	-0,006	0,196
-140,716	311,682	-0,016	0,021
-139,702	47,097	0,062	0,041
-138,687	123,437	0,024	0,021
-137,672	-200,000	-0,043	-0,170
-136,658	800,000	-0,009	0,021
-135,643	-200,000	-0,036	0,000
-134,629	76,782	0,109	-0,083
-133,614	-172,376	0,130	-0,003
-132,599	800,000	0,030	-0,085
-131,585	800,000	0,010	-0,021
-130,570	3,063	-0,080	-0,042
-129,556	181,896	0,088	0,093
-128,541	-200,000	-0,032	-0,153
-127,526	599,184	0,039	0,070
-126,512	-17,915	0,109	0,049
-125,497	-200,000	0,048	0,185
-124,483	-153,602	0,127	-0,006
-123,468	53,386	-0,112	-0,077
-122,453	-161,076	-0,115	-0,004
-121,439	-200,000	-0,008	-0,064
-120,424	-93,353	-0,175	0,035
-119,410	423,868	0,087	0,135
