DTS Sentinel unit serial number:	SN410029Multiplexer serial number:	ORYXHardware model number:	OX2-SRSoftware version number:	ORYX F/W v4,00 Oryx Data Collector v3.7.2.0data status	okinstallation	B5 Nyhavnadifferential loss correction	single-endedforward channel	channel 2reverse channel	N/Adate	2023/12/13time	23:52:13forward acquisition time	300,00reverse acquisition time	0,00gamma	499,1914k internal	0,3154k external	0,3154temperature offset calibration	1,0000default loss term (dB/km)	0,3820temperature slope calibration	1,0000multiplexer offset coefficient	1,0000multiplexer slope coefficient	1,0000fibre end	0,00T internal ref (°C)	8,77T ext. ref 1 (°C)	-7,56T ext. ref 2 (°C)	-7,57length (m)	temperature (°C)	Stokes	anti-Stokes-744,400	-75,052	0,150	-0,039
-743,385	-91,575	-0,177	0,037
-742,371	33,436	0,188	0,120
-741,356	-40,422	-0,330	-0,126
-740,342	-2,579	0,107	0,055
-739,327	-64,188	-0,330	-0,099
-738,312	-200,000	0,026	0,117
-737,298	4,158	-0,252	-0,136
-736,283	112,126	0,132	0,117
-735,269	-135,159	-0,293	-0,026
-734,254	-61,040	0,182	0,056
-733,239	-110,412	-0,566	-0,086
-732,225	92,614	0,189	0,157
-731,210	-2,244	0,022	0,011
-730,196	152,969	0,032	-0,032
-729,181	-200,000	-0,003	0,074
-728,167	-110,535	0,076	0,012
-727,152	-91,887	-0,074	-0,015
-726,137	-125,167	-0,039	0,004
-725,123	-91,821	-0,109	-0,023
-724,108	158,189	-0,106	-0,109
-723,094	-10,073	-0,138	0,067
-722,079	-59,449	-0,087	0,027
-721,064	800,000	-0,055	0,117
-720,050	158,415	-0,109	-0,111
-719,035	250,306	-0,068	0,085
-718,021	45,012	-0,088	-0,060
-717,006	127,066	-0,068	-0,063
-715,991	-4,254	-0,182	0,092
-714,977	118,771	-0,047	-0,043
-713,962	-200,000	-0,005	0,031
-712,948	139,747	0,110	-0,107
-711,933	-200,000	-0,015	-0,117
-710,918	231,572	-0,081	0,098
-709,904	146,141	-0,081	-0,080
-708,889	72,268	-0,181	-0,139
-707,875	-134,801	-0,145	0,013
-706,860	800,000	-0,061	-0,130
-705,845	800,000	-0,027	-0,056
-704,831	-183,563	-0,071	-0,001
-703,816	-200,000	-0,011	-0,138
-702,802	800,000	-0,020	-0,048
-701,787	-153,177	-0,020	0,001
-700,772	559,170	0,052	-0,092
-699,758	-84,478	-0,062	0,014
-698,743	473,842	-0,068	-0,113
-697,729	649,603	0,024	-0,046
-696,714	-73,330	-0,046	0,012
-695,699	28,785	-0,107	-0,067
-694,685	-115,522	-0,134	-0,018
-693,670	35,375	0,050	-0,032
-692,656	108,673	0,079	-0,070
-691,641	29,600	0,063	-0,039
-690,627	-105,401	0,028	0,005
-689,612	-200,000	-0,029	0,146
-688,597	82,450	0,052	-0,042
-687,583	800,000	-0,029	-0,083
-686,568	435,991	-0,095	-0,153
-685,554	345,047	0,020	0,030
-684,539	-200,000	0,018	0,061
-683,524	-64,262	0,146	-0,043
-682,510	399,971	-0,055	0,085
-681,495	94,501	0,044	0,037
-680,481	-67,948	-0,093	0,027
-679,466	18,141	-0,053	-0,031
-678,451	-200,000	0,020	-0,206
-677,437	-150,257	-0,086	-0,005
-676,422	-200,000	-0,007	0,046
-675,408	-23,255	-0,055	-0,024
-674,393	800,000	-0,011	-0,030
-673,378	-200,000	0,008	-0,108
-672,364	800,000	-0,034	-0,079
-671,349	800,000	0,025	0,075
-670,335	-38,879	-0,118	-0,046
-669,320	-200,000	-0,001	0,101
-668,305	-200,000	0,016	0,130
-667,291	-82,276	-0,200	-0,048
-666,276	56,165	-0,236	-0,168
-665,262	197,893	-0,059	-0,067
-664,247	38,101	-0,054	-0,036
-663,232	-23,524	0,055	0,024
-662,218	800,000	0,022	0,049
-661,203	137,373	-0,075	0,072
-660,189	800,000	-0,046	-0,108
-659,174	235,795	-0,064	-0,078
-658,159	-200,000	-0,014	0,082
-657,145	75,485	-0,026	-0,020
-656,130	-200,000	-0,033	0,129
-655,116	343,793	0,062	-0,090
-654,101	-154,963	0,116	-0,006
-653,086	-7,982	-0,086	0,043
-652,072	68,484	0,049	0,037
-651,057	396,436	-0,054	-0,084
-650,043	-14,703	0,091	-0,043
-649,028	379,550	0,040	0,060
-648,014	-190,694	0,017	-0,000
-646,999	58,841	-0,117	-0,084
-645,984	77,937	-0,026	0,020
-644,970	-200,000	-0,012	-0,043
-643,955	425,126	-0,121	-0,192
-642,941	800,000	0,058	-0,130
-641,926	124,053	-0,052	-0,048
-640,911	30,939	-0,060	-0,038
-639,897	-54,842	0,068	0,022
-638,882	67,278	-0,030	-0,023
-637,868	800,000	-0,014	0,029
-636,853	475,860	-0,050	-0,084
-635,838	-108,042	-0,152	-0,024
-634,824	-200,000	-0,014	0,072
-633,809	-200,000	-0,024	0,163
-632,795	800,000	0,047	-0,123
-631,780	-200,000	0,009	0,096
-630,765	458,935	-0,040	0,066
-629,751	157,665	0,077	-0,078
-628,736	481,293	0,055	-0,092
-627,722	-132,918	0,091	-0,008
-626,707	-71,828	-0,030	0,008
-625,692	5,209	-0,077	0,042
-624,678	-144,783	0,053	-0,004
-623,663	185,671	0,032	0,035
-622,649	-93,937	-0,171	-0,034
-621,634	417,754	-0,009	0,014
-620,619	64,663	-0,199	-0,147
-619,605	-200,000	-0,013	-0,042
-618,590	800,000	-0,059	-0,130
-617,576	-134,116	0,014	0,001
-616,561	177,655	-0,055	-0,058
-615,546	393,756	-0,054	-0,083
-614,532	191,177	-0,156	-0,173
-613,517	525,733	0,058	0,101
-612,503	45,346	-0,064	0,043
-611,488	454,715	0,129	-0,211
-610,474	167,735	0,111	0,115
-609,459	-200,000	0,004	0,155
-608,444	57,023	0,066	-0,047
-607,430	-65,394	-0,122	-0,036
-606,415	-24,296	0,045	0,020
-605,401	-200,000	0,015	0,071
-604,386	787,402	-0,049	0,098
-603,371	140,268	-0,082	-0,079
-602,357	691,438	0,045	0,088
-601,342	-200,000	-0,007	0,044
-600,328	800,000	-0,013	0,040
-599,313	-68,691	-0,159	-0,045
-598,298	209,895	0,138	-0,159
-597,284	-200,000	0,006	-0,077
-596,269	-173,130	0,095	-0,002
-595,255	-29,021	-0,108	-0,045
-594,240	-137,343	-0,064	-0,005
-593,225	-48,222	-0,036	-0,013
-592,211	118,351	-0,125	-0,113
-591,196	113,075	0,085	-0,076
-590,182	531,545	0,056	-0,098
-589,167	-106,330	-0,094	-0,015
-588,152	-20,894	0,061	-0,027
-587,138	200,168	0,052	0,059
-586,123	-54,856	-0,014	0,005
-585,109	139,139	-0,012	0,012
-584,094	-200,000	0,001	0,098
-583,079	264,759	-0,031	-0,040
-582,065	800,000	0,026	0,056
-581,050	-200,000	-0,021	0,098
-580,036	-31,839	-0,206	0,084
-579,021	-99,130	0,012	-0,002
-578,006	145,373	0,013	0,013
-576,992	-141,620	0,042	-0,003
-575,977	-133,138	-0,052	-0,005
-574,963	-110,357	0,013	0,002
-573,948	115,281	0,086	-0,077
-572,934	-93,053	0,120	-0,024
-571,919	-65,144	-0,018	0,005
-570,904	146,385	0,064	-0,063
-569,890	-41,913	-0,111	0,041
-568,875	-3,029	0,094	-0,048
-567,861	800,000	0,012	0,036
-566,846	81,595	-0,060	-0,048
-565,831	-200,000	-0,007	-0,083
-564,817	-146,561	0,062	0,004
-563,802	373,000	0,085	0,128
-562,788	-123,842	0,229	-0,026
-561,773	308,868	0,115	0,158
-560,758	-200,000	0,003	-0,031
-559,744	800,000	0,088	-0,186
-558,729	249,307	0,060	0,075
-557,715	11,684	0,125	-0,070
-556,700	-144,611	-0,102	0,007
-555,685	-200,000	-0,017	-0,077
-554,671	-154,109	-0,070	0,003
-553,656	32,407	0,043	0,027
-552,642	-200,000	-0,013	0,125
-551,627	162,598	-0,106	0,110
-550,612	34,487	0,113	-0,072
-549,598	-200,000	0,021	-0,098
-548,583	-48,899	0,133	0,046
-547,569	111,668	0,047	0,042
-546,554	-200,000	0,022	0,095
-545,539	241,222	-0,042	0,051
-544,525	-200,000	0,012	0,108
-543,510	293,387	-0,075	-0,100
-542,496	-200,000	-0,019	0,070
-541,481	426,793	0,034	0,054
-540,466	61,288	-0,041	0,030
-539,452	113,924	-0,049	-0,044
-538,437	-200,000	-0,023	-0,138
-537,423	668,591	-0,030	-0,057
-536,408	-69,596	0,097	0,027
-535,393	110,052	0,030	-0,027
-534,379	-30,432	-0,116	0,048
-533,364	-200,000	0,015	0,103
-532,350	-65,409	0,113	0,033
-531,335	-200,000	0,054	0,235
-530,321	-53,558	0,046	0,015
-529,306	-200,000	0,004	0,039
-528,291	22,410	-0,059	-0,035
-527,277	-200,000	0,014	0,073
-526,262	-65,627	0,151	-0,044
-525,248	800,000	-0,047	0,096
-524,233	-200,000	0,023	0,088
-523,218	-151,370	0,106	-0,006
-522,204	-14,183	0,028	0,013
-521,189	172,253	0,032	0,034
-520,175	40,345	-0,084	-0,055
-519,160	-3,527	0,009	-0,005
-518,145	-9,650	0,113	-0,055
-517,131	-164,706	0,052	0,002
-516,116	-200,000	0,015	0,199
-515,102	-96,214	-0,096	0,019
-514,087	-164,110	-0,085	-0,003
-513,072	-200,000	-0,003	0,027
-512,058	-144,309	0,114	0,008
-511,043	-85,941	0,069	-0,016
-510,029	-133,713	0,153	0,014
-509,014	-17,544	-0,130	-0,060
-507,999	199,797	0,013	-0,015
-506,985	800,000	-0,017	-0,038
-505,970	-200,000	-0,017	0,057
-504,956	-115,149	-0,078	-0,011
-503,941	417,241	0,036	0,056
-502,926	564,891	0,058	0,103
-501,912	511,820	0,056	-0,095
-500,897	293,485	-0,054	0,072
-499,883	-200,000	-0,013	-0,060
-498,868	-200,000	-0,002	-0,101
-497,853	38,634	-0,142	0,092
-496,839	-68,224	-0,093	0,026
-495,824	-45,172	0,029	-0,010
-494,810	800,000	0,021	0,046
-493,795	-200,000	-0,005	0,066
-492,781	-25,501	-0,071	-0,031
-491,766	800,000	-0,013	0,030
-490,751	434,946	-0,057	0,090
-489,737	-200,000	-0,003	0,108
-488,722	315,156	0,097	-0,134
-487,708	-10,421	-0,005	-0,002
-486,693	-99,719	-0,060	0,011
-485,678	-200,000	-0,035	-0,143
-484,664	-28,430	-0,097	-0,041
-483,649	-95,887	-0,207	-0,040
-482,635	70,034	0,070	0,053
-481,620	99,711	0,025	-0,021
-480,605	-126,088	0,086	0,009
-479,591	-3,859	0,129	0,065
-478,576	-200,000	-0,000	0,047
-477,562	-200,000	0,015	-0,111
-476,547	-37,131	-0,203	-0,079
-475,532	-106,111	-0,067	0,011
-474,518	688,495	-0,029	0,056
-473,503	-200,000	-0,019	-0,071
-472,489	-156,251	-0,040	0,002
-471,474	111,223	0,084	-0,074
-470,459	-23,638	0,108	-0,047
-469,445	-200,000	0,019	-0,066
-468,430	-200,000	0,004	0,036
-467,416	-200,000	-0,001	0,022
-466,401	-172,691	-0,022	0,000
-465,386	562,039	-0,042	-0,075
-464,372	-60,987	0,190	-0,058
-463,357	319,052	-0,071	-0,099
-462,343	501,774	0,034	-0,057
-461,328	47,766	-0,055	-0,038
-460,313	-21,095	0,054	0,024
-459,299	-131,236	-0,063	0,006
-458,284	-200,000	-0,017	0,079
-457,270	-200,000	0,017	0,098
-456,255	-200,000	-0,040	-0,187
-455,241	132,004	-0,093	0,088
-454,226	800,000	0,032	-0,075
-453,211	-134,196	0,085	-0,008
-452,197	-50,317	0,157	-0,054
-451,182	104,464	0,049	0,042
-450,168	-200,000	-0,015	0,110
-449,153	-200,000	-0,008	-0,053
-448,138	-20,243	-0,085	-0,038
-447,124	405,141	0,115	-0,178
-446,109	-5,791	0,140	0,069
-445,095	320,267	-0,007	-0,010
-444,080	148,632	0,064	-0,063
-443,065	92,976	-0,047	0,039
-442,051	129,235	-0,049	-0,045
-441,036	800,000	-0,053	-0,119
-440,022	348,166	0,094	-0,136
-439,007	43,240	-0,058	-0,038
-437,992	39,769	0,103	0,067
-436,978	240,039	0,074	0,090
-435,963	-200,000	-0,013	0,073
-434,949	800,000	-0,030	0,087
-433,934	-102,322	-0,033	0,006
-432,919	287,639	-0,040	-0,052
-431,905	102,529	0,046	0,039
-430,890	130,467	0,018	-0,017
-429,876	630,089	-0,107	-0,198
-428,861	800,000	0,040	0,082
-427,846	-200,000	0,006	0,096
-426,832	-200,000	-0,037	-0,125
-425,817	443,303	0,025	-0,040
-424,803	-200,000	-0,005	-0,033
-423,788	449,509	0,084	-0,135
-422,773	-78,426	0,075	0,019
-421,759	800,000	-0,047	0,124
-420,744	-142,745	0,155	-0,011
-419,730	800,000	-0,020	0,049
-418,715	-134,193	0,077	-0,007
-417,701	393,158	-0,052	0,079
-416,686	421,012	0,062	0,097
-415,671	257,713	-0,037	0,046
-414,657	128,969	0,080	0,075
-413,642	-43,900	0,078	-0,028
-412,628	10,558	0,034	-0,019
-411,613	-74,345	-0,069	-0,018
-410,598	737,343	0,030	0,060
-409,584	50,891	-0,066	0,045
-408,569	-72,290	0,101	0,027
-407,555	351,318	-0,052	-0,075
-406,540	102,432	-0,090	0,077
-405,525	-195,009	0,031	0,000
-404,511	306,520	-0,174	-0,237
-403,496	-200,000	-0,003	-0,065
-402,482	-51,121	0,107	0,036
-401,467	-200,000	-0,010	0,036
-400,452	167,410	-0,047	-0,048
-399,438	39,141	-0,039	0,025
-398,423	800,000	-0,029	-0,064
-397,409	504,149	0,052	-0,089
-396,394	17,225	-0,105	-0,060
-395,379	295,954	-0,041	0,054
-394,365	-128,868	0,083	0,008
-393,350	-200,000	0,068	0,221
-392,336	-200,000	-0,031	0,178
-391,321	307,484	0,045	0,061
-390,306	800,000	-0,022	-0,069
-389,292	321,017	0,041	-0,057
-388,277	86,374	-0,047	-0,038
-387,263	-200,000	-0,021	0,105
-386,248	-200,000	0,044	0,159
-385,233	-45,008	-0,043	-0,015
-384,219	117,722	0,049	0,044
-383,204	-133,920	-0,093	0,008
-382,190	575,154	-0,007	0,012
-381,175	125,666	0,045	0,042
-380,160	-200,000	-0,004	-0,025
-379,146	-200,000	-0,017	0,070
-378,131	-200,000	-0,031	0,158
-377,117	323,510	0,100	0,140
-376,102	42,565	-0,131	-0,086
-375,088	2,071	-0,114	0,059
-374,073	-106,445	0,095	-0,015
-373,058	-41,956	0,042	-0,016
-372,044	-200,000	0,005	-0,126
-371,029	64,080	0,087	0,064
-370,015	1,014	-0,061	-0,032
-369,000	630,223	-0,038	0,070
-367,985	42,174	-0,099	0,065
-366,971	-3,522	-0,085	-0,043
-365,956	6,476	-0,068	-0,037
-364,942	120,738	0,118	0,107
-363,927	-20,239	-0,031	0,014
-362,912	-155,952	0,049	-0,002
-361,898	-104,356	0,128	-0,021
-360,883	-200,000	-0,009	0,075
-359,869	186,013	-0,058	-0,063
-358,854	-200,000	-0,009	0,034
-357,839	260,869	0,076	0,096
-356,825	-180,567	0,034	0,000
-355,810	-116,380	0,064	-0,008
-354,796	800,000	-0,018	-0,045
-353,781	685,284	0,026	-0,049
-352,766	358,107	0,029	-0,042
-351,752	239,118	-0,010	0,012
-350,737	187,613	-0,024	0,026
-349,723	-27,840	-0,137	0,057
-348,708	345,113	0,081	0,115
-347,693	800,000	-0,030	-0,076
-346,679	-200,000	-0,023	-0,102
-345,664	60,680	-0,027	0,020
-344,650	182,336	0,094	0,101
-343,635	192,097	0,060	0,065
-342,620	800,000	0,028	-0,059
-341,606	-200,000	0,012	0,071
-340,591	11,059	-0,082	-0,045
-339,577	-148,028	-0,049	-0,003
-338,562	220,170	-0,080	0,093
-337,548	-196,779	0,143	-0,001
-336,533	-200,000	-0,005	-0,096
-335,518	132,234	-0,024	0,022
-334,504	-66,938	-0,116	0,033
-333,489	-200,000	-0,011	0,074
-332,475	-156,942	0,024	0,001
-331,460	9,038	-0,095	0,052
-330,445	-53,204	0,018	0,006
-329,431	-68,080	0,133	-0,037
-328,416	800,000	-0,023	-0,054
-327,402	362,104	0,006	-0,009
-326,387	-200,000	0,005	-0,057
-325,372	115,345	0,140	-0,125
-324,358	-200,000	0,008	-0,104
-323,343	-200,000	0,038	0,124
-322,329	40,094	-0,031	-0,020
-321,314	392,860	0,147	0,222
-320,299	800,000	-0,024	0,067
-319,285	112,162	-0,040	0,035
-318,270	-200,000	-0,003	-0,016
-317,256	82,900	-0,085	-0,067
-316,241	-200,000	-0,009	-0,049
-315,226	800,000	-0,018	-0,043
-314,212	-39,227	-0,071	0,027
-313,197	116,684	-0,094	-0,084
-312,183	326,361	0,039	0,054
-311,168	-126,602	-0,085	-0,009
-310,153	-96,818	-0,132	-0,025
-309,139	9,844	-0,089	-0,049
-308,124	-200,000	-0,007	-0,026
-307,110	90,204	0,028	-0,023
-306,095	594,707	-0,047	0,085
-305,080	94,428	0,073	0,060
-304,066	-128,102	-0,111	0,011
-303,051	7,186	-0,007	0,004
-302,037	-118,177	0,142	0,018
-301,022	265,813	0,109	0,138
-300,008	445,271	0,031	-0,050
-298,993	79,716	0,059	0,046
-297,978	-200,000	-0,001	0,074
-296,964	-77,503	0,118	-0,029
-295,949	-200,000	0,024	-0,108
-294,935	-200,000	0,013	-0,054
-293,920	800,000	-0,066	0,140
-292,905	427,356	0,046	0,072
-291,891	122,489	-0,086	0,078
-290,876	462,119	-0,031	-0,051
-289,862	0,887	0,068	0,035
-288,847	115,237	-0,067	-0,060
-287,832	197,434	-0,046	-0,051
-286,818	14,587	0,114	-0,064
-285,803	-88,048	0,081	0,017
-284,789	800,000	0,041	-0,111
-283,774	-83,113	-0,136	-0,031
-282,759	-200,000	0,005	-0,093
-281,745	-140,167	-0,028	-0,002
-280,730	800,000	-0,059	-0,145
-279,716	-30,087	0,104	-0,042
-278,701	-37,479	0,063	-0,024
-277,686	703,482	0,047	0,089
-276,672	373,364	0,040	0,059
-275,657	60,555	-0,033	-0,023
-274,643	180,881	-0,049	0,053
-273,628	18,215	-0,057	-0,033
-272,613	-200,000	-0,026	0,118
-271,599	-48,319	0,044	0,015
-270,584	-10,283	0,071	-0,034
-269,570	-48,096	0,055	-0,019
-268,555	-200,000	-0,017	-0,067
-267,540	800,000	0,020	0,050
-266,526	250,788	0,025	-0,031
-265,511	-200,000	0,012	-0,047
-264,497	800,000	-0,044	0,116
-263,482	-68,956	-0,064	-0,018
-262,467	800,000	-0,041	0,083
-261,453	25,240	-0,086	0,051
-260,438	-200,000	0,003	0,039
-259,424	-140,751	-0,089	-0,007
-258,409	-31,938	-0,080	0,032
-257,395	57,328	0,071	-0,050
-256,380	249,109	-0,062	0,076
-255,365	-200,000	-0,003	0,040
-254,351	-32,013	-0,062	0,025
-253,336	62,047	0,125	0,090
-252,322	-200,000	-0,030	-0,220
-251,307	-102,108	0,072	-0,012
-250,292	-200,000	-0,001	0,037
-249,278	318,046	-0,013	-0,018
-248,263	143,626	0,066	0,063
-247,249	-200,000	-0,003	0,019
-246,234	388,654	0,048	-0,072
-245,219	800,000	-0,034	0,088
-244,205	-2,128	-0,103	-0,052
-243,190	-113,324	0,149	-0,021
-242,176	174,657	-0,021	-0,022
-241,161	800,000	0,045	-0,117
-240,146	5,550	-0,046	0,024
-239,132	-33,258	0,027	0,011
-238,117	209,324	-0,087	0,099
-237,103	-6,613	-0,049	0,024
-236,088	800,000	-0,038	0,095
-235,073	315,983	0,071	-0,098
-234,059	-200,000	-0,036	-0,128
-233,044	-154,729	0,061	-0,003
-232,030	-113,391	0,140	0,020
-231,015	800,000	-0,047	-0,122
-230,000	104,421	0,064	-0,054
-228,986	-106,120	-0,088	-0,014
-227,971	31,518	0,107	0,067
-226,957	120,041	-0,090	0,081
-225,942	-80,329	0,013	0,003
-224,927	-34,651	0,109	0,043
-223,913	800,000	-0,058	-0,151
-222,898	155,863	0,091	-0,090
-221,884	245,622	-0,098	-0,120
-220,869	-200,000	-0,016	0,117
-219,855	-43,296	0,097	0,035
-218,840	392,588	0,040	0,061
-217,825	-37,491	-0,147	-0,056
-216,811	472,091	0,074	-0,121
-215,796	44,070	0,042	-0,028
-214,782	-146,125	-0,058	-0,004
-213,767	800,000	-0,016	0,042
-212,752	-200,000	-0,009	-0,086
-211,738	-139,989	-0,101	-0,008
-210,723	273,627	-0,092	0,117
-209,709	-200,000	-0,011	-0,045
-208,694	-200,000	-0,010	-0,214
-207,679	-200,000	0,003	-0,132
-206,665	-200,000	0,004	0,035
-205,650	-200,000	-0,003	0,112
-204,636	49,161	-0,050	-0,034
-203,621	-200,000	0,019	0,065
-202,606	-200,000	-0,022	0,099
-201,592	414,261	-0,031	-0,048
-200,577	-37,443	-0,033	0,013
-199,563	-200,000	0,014	0,137
-198,548	44,536	0,175	-0,116
-197,533	469,382	-0,019	0,032
-196,519	382,907	-0,057	-0,084
-195,504	-57,186	-0,124	-0,039
-194,490	800,000	-0,035	-0,106
-193,475	211,749	-0,051	-0,059
-192,460	-52,303	-0,037	0,012
-191,446	-78,027	0,031	-0,008
-190,431	611,419	0,100	0,180
-189,417	312,214	-0,059	0,080
-188,402	-200,000	0,009	0,061
-187,387	491,724	0,019	-0,031
-186,373	800,000	-0,034	-0,099
-185,358	663,262	0,078	0,146
-184,344	470,925	0,052	0,084
-183,329	-73,439	-0,056	0,015
-182,315	-71,574	0,218	0,058
-181,300	12,061	-0,025	0,014
-180,285	34,535	-0,034	0,021
-179,271	800,000	-0,034	-0,074
-178,256	800,000	0,065	-0,158
-177,242	-200,000	0,001	0,025
-176,227	-71,762	-0,102	0,027
-175,212	800,000	0,026	-0,068
-174,198	-200,000	-0,016	0,085
-173,183	31,152	-0,026	-0,016
-172,169	-200,000	0,034	-0,116
-171,154	-90,250	-0,112	0,023
-170,139	4,171	0,175	0,092
-169,125	153,340	0,065	-0,065
-168,110	-66,819	0,024	0,007
-167,096	149,025	-0,065	0,063
-166,081	-200,000	0,001	-0,008
-165,066	436,696	0,016	0,026
-164,052	228,776	-0,055	-0,064
-163,037	800,000	0,024	-0,068
-162,023	-200,000	-0,015	-0,086
-161,008	-200,000	-0,025	0,129
-159,993	-139,601	-0,072	-0,005
-158,979	79,614	0,063	-0,049
-157,964	241,549	0,018	-0,022
-156,950	-48,882	-0,173	-0,060
-155,935	-200,000	0,000	0,100
-154,920	-200,000	0,002	0,134
-153,906	-107,449	-0,057	0,009
-152,891	7,348	-0,015	-0,008
-151,877	-36,357	0,077	0,030
-150,862	1,125	-0,148	-0,076
-149,847	303,177	-0,121	-0,162
-148,833	-200,000	0,024	0,000
-147,818	290,982	-0,013	-0,017
-146,804	187,881	0,008	0,008
-145,789	297,058	-0,092	0,122
-144,775	40,194	-0,122	0,079
-143,760	103,191	0,035	-0,030
-142,745	36,796	-0,092	-0,059
-141,731	335,678	-0,061	0,086
-140,716	-200,000	0,027	0,000
-139,702	387,878	0,050	-0,075
-138,687	168,027	-0,061	0,063
-137,672	156,311	-0,134	-0,133
-136,658	417,876	-0,031	0,048
-135,643	123,626	-0,056	-0,051
-134,629	512,828	-0,100	-0,168
-133,614	-200,000	0,010	0,073
-132,599	800,000	0,043	0,097
-131,585	242,458	0,075	0,091
-130,570	-200,000	-0,008	-0,084
-129,556	115,146	0,017	0,015
-128,541	-46,705	-0,100	0,035
-127,526	-1,693	0,059	-0,030
-126,512	81,260	-0,044	-0,034
-125,497	-200,000	-0,012	-0,043
-124,483	104,834	0,046	-0,039
-123,468	-7,970	0,054	-0,026
-122,453	-32,800	-0,231	0,092
-121,439	78,288	0,053	0,041
-120,424	4,837	-0,027	0,014
