DTS Sentinel unit serial number:	SN410029Multiplexer serial number:	ORYXHardware model number:	OX2-SRSoftware version number:	ORYX F/W v4,00 Oryx Data Collector v3.7.2.0data status	okinstallation	B5 Nyhavnadifferential loss correction	single-endedforward channel	channel 2reverse channel	N/Adate	2023/12/11time	22:52:13forward acquisition time	300,00reverse acquisition time	0,00gamma	499,1914k internal	0,3156k external	0,3156temperature offset calibration	1,0000default loss term (dB/km)	0,3820temperature slope calibration	1,0000multiplexer offset coefficient	1,0000multiplexer slope coefficient	1,0000fibre end	0,00T internal ref (°C)	16,31T ext. ref 1 (°C)	-0,00T ext. ref 2 (°C)	-0,28length (m)	temperature (°C)	Stokes	anti-Stokes-744,400	-31,490	0,096	-0,040
-743,385	-87,209	-0,218	0,048
-742,371	165,524	0,154	0,160
-741,356	-171,926	-0,139	-0,003
-740,342	-200,000	-0,002	0,131
-739,327	88,899	-0,173	0,142
-738,312	74,476	0,059	-0,046
-737,298	-144,351	-0,227	0,015
-736,283	-200,000	0,003	-0,031
-735,269	-117,811	-0,316	-0,041
-734,254	9,365	0,127	-0,071
-733,239	-54,828	-0,410	-0,136
-732,225	-114,394	0,227	0,032
-731,210	800,000	-0,024	0,070
-730,196	-54,490	-0,046	0,015
-729,181	575,026	-0,083	-0,149
-728,167	-80,103	0,020	0,005
-727,152	-108,920	-0,097	0,015
-726,137	733,918	-0,027	-0,053
-725,123	-82,138	-0,180	0,043
-724,108	-200,000	-0,009	-0,084
-723,094	-159,461	-0,085	0,003
-722,079	185,873	0,072	-0,079
-721,064	233,937	-0,111	-0,135
-720,050	800,000	0,015	0,046
-719,035	30,407	0,048	-0,030
-718,021	-200,000	-0,002	0,024
-717,006	176,955	0,038	-0,040
-715,991	-90,113	-0,047	-0,010
-714,977	800,000	0,052	-0,114
-713,962	-30,058	-0,084	-0,035
-712,948	-122,232	-0,043	0,005
-711,933	-11,183	-0,014	-0,007
-710,918	-200,000	-0,006	-0,209
-709,904	-200,000	-0,005	-0,080
-708,889	-200,000	0,008	0,037
-707,875	-200,000	0,006	0,068
-706,860	-200,000	-0,013	-0,116
-705,845	86,990	-0,028	0,023
-704,831	800,000	-0,039	0,114
-703,816	-36,489	0,068	-0,027
-702,802	51,547	-0,093	-0,065
-701,787	-117,198	-0,032	-0,004
-700,772	219,842	-0,073	-0,086
-699,758	-200,000	-0,001	-0,039
-698,743	330,941	0,035	-0,050
-697,729	800,000	0,036	-0,097
-696,714	341,765	0,139	0,201
-695,699	21,881	-0,082	-0,049
-694,685	-200,000	0,006	-0,113
-693,670	-36,759	0,010	-0,004
-692,656	-75,594	-0,060	0,016
-691,641	800,000	0,036	-0,086
-690,627	66,684	0,080	-0,060
-689,612	53,961	0,055	0,039
-688,597	800,000	0,044	0,114
-687,583	-108,152	-0,084	0,013
-686,568	93,015	0,074	0,061
-685,554	-200,000	-0,031	-0,106
-684,539	-200,000	0,001	0,009
-683,524	800,000	0,043	-0,097
-682,510	-200,000	-0,001	-0,053
-681,495	65,993	-0,139	-0,104
-680,481	14,310	-0,056	0,032
-679,466	-53,608	-0,104	-0,035
-678,451	70,125	-0,051	-0,038
-677,437	125,537	-0,033	-0,030
-676,422	286,230	-0,026	-0,035
-675,408	-200,000	0,018	0,071
-674,393	-180,738	0,068	-0,001
-673,378	136,957	0,068	-0,065
-672,364	800,000	-0,059	-0,142
-671,349	99,890	-0,026	0,022
-670,335	141,847	-0,049	-0,048
-669,320	54,231	-0,080	0,057
-668,305	106,706	-0,041	0,036
-667,291	319,322	-0,055	0,077
-666,276	-200,000	-0,005	-0,037
-665,262	60,676	-0,128	-0,093
-664,247	70,131	-0,101	0,077
-663,232	-16,074	0,036	-0,017
-662,218	-157,265	0,182	0,008
-661,203	-23,760	0,045	-0,020
-660,189	84,950	0,052	-0,042
-659,174	404,211	-0,021	0,033
-658,159	-200,000	-0,013	0,048
-657,145	32,510	-0,163	-0,103
-656,130	-200,000	-0,019	-0,128
-655,116	-200,000	0,006	0,026
-654,101	117,529	-0,135	-0,122
-653,086	-200,000	-0,004	-0,129
-652,072	352,381	-0,040	0,058
-651,057	2,083	-0,214	-0,113
-650,043	63,548	-0,134	-0,099
-649,028	-135,762	0,116	-0,010
-648,014	15,733	-0,013	0,007
-646,999	-115,368	-0,040	-0,005
-645,984	41,545	-0,089	-0,059
-644,970	657,609	-0,048	0,092
-643,955	-29,071	0,053	0,022
-642,941	-40,120	0,082	0,031
-641,926	245,703	0,057	-0,070
-640,911	-50,984	0,144	0,050
-639,897	-200,000	-0,004	0,037
-638,882	82,012	0,022	-0,018
-637,868	-200,000	0,010	-0,050
-636,853	659,675	-0,115	-0,219
-635,838	800,000	-0,035	-0,089
-634,824	-102,351	-0,084	0,015
-633,809	800,000	-0,025	0,057
-632,795	32,619	0,161	0,102
-631,780	-200,000	-0,012	-0,066
-630,765	66,042	-0,123	0,092
-629,751	800,000	0,020	0,043
-628,736	-58,210	-0,081	-0,026
-627,722	-200,000	-0,004	-0,139
-626,707	-154,295	0,138	-0,007
-625,692	-200,000	0,029	0,161
-624,678	234,473	0,013	0,016
-623,663	-145,212	-0,028	0,002
-622,649	-82,709	0,044	-0,010
-621,634	-146,145	0,076	0,005
-620,619	-139,564	-0,110	0,008
-619,605	-168,988	0,108	0,003
-618,590	-105,275	-0,048	0,008
-617,576	-200,000	0,018	0,074
-616,561	89,049	-0,065	-0,053
-615,546	-32,447	-0,042	-0,017
-614,532	-200,000	-0,000	0,038
-613,517	-200,000	0,006	0,103
-612,503	164,287	0,078	0,081
-611,488	187,453	-0,005	0,005
-610,474	-200,000	-0,044	-0,144
-609,459	371,969	-0,016	-0,024
-608,444	27,166	-0,144	-0,088
-607,430	93,746	0,092	-0,076
-606,415	-97,634	0,047	-0,009
-605,401	342,965	-0,106	-0,152
-604,386	204,896	-0,085	0,097
-603,371	-200,000	0,023	0,093
-602,357	-86,003	0,054	-0,012
-601,342	-45,915	0,133	0,048
-600,328	-37,512	-0,037	-0,014
-599,313	-68,194	-0,066	-0,019
-598,298	425,213	-0,069	-0,109
-597,284	800,000	0,039	-0,119
-596,269	-83,083	0,064	0,015
-595,255	265,391	-0,049	-0,062
-594,240	48,795	-0,107	0,074
-593,225	-200,000	0,007	0,074
-592,211	27,874	-0,174	-0,107
-591,196	-130,454	-0,049	-0,005
-590,182	-72,246	0,064	-0,017
-589,167	261,105	0,040	-0,051
-588,152	-127,216	0,022	-0,002
-587,138	-200,000	-0,006	0,063
-586,123	67,508	-0,075	-0,056
-585,109	124,442	0,104	-0,096
-584,094	331,621	-0,006	-0,009
-583,079	-200,000	-0,006	0,091
-582,065	-66,094	0,119	-0,034
-581,050	-61,528	-0,072	0,022
-580,036	-200,000	-0,012	-0,191
-579,021	14,783	-0,071	-0,041
-578,006	511,485	0,075	-0,128
-576,992	800,000	-0,023	-0,054
-575,977	163,157	0,054	0,056
-574,963	-200,000	0,001	0,036
-573,948	-21,433	0,047	-0,021
-572,934	322,039	0,013	0,018
-571,919	127,386	-0,168	-0,157
-570,904	800,000	-0,022	-0,051
-569,890	-13,154	-0,078	-0,037
-568,875	56,125	0,059	-0,042
-567,861	321,028	0,032	-0,045
-566,846	474,958	-0,017	0,029
-565,831	2,000	-0,109	-0,057
-564,817	147,660	0,096	0,095
-563,802	-64,081	0,103	-0,030
-562,788	-200,000	0,012	-0,073
-561,773	-63,737	0,047	0,014
-560,758	-169,562	0,125	-0,003
-559,744	91,137	-0,159	-0,130
-558,729	19,052	0,074	0,043
-557,715	-200,000	-0,002	0,107
-556,700	-200,000	-0,026	-0,146
-555,685	-200,000	-0,010	-0,089
-554,671	83,122	-0,087	-0,069
-553,656	171,544	0,015	0,016
-552,642	-158,731	0,026	0,001
-551,627	-113,971	-0,043	-0,006
-550,612	43,001	-0,019	-0,012
-549,598	-116,579	0,133	-0,018
-548,583	-102,492	-0,153	-0,027
-547,569	-107,664	-0,062	-0,010
-546,554	-104,785	0,105	0,018
-545,539	27,235	-0,057	-0,035
-544,525	-200,000	-0,033	0,126
-543,510	191,606	-0,081	0,089
-542,496	-200,000	0,003	0,084
-541,481	450,865	-0,026	0,043
-540,466	-25,310	0,096	-0,041
-539,452	-200,000	0,005	-0,105
-538,437	50,249	-0,038	-0,026
-537,423	393,870	0,042	0,065
-536,408	-155,369	-0,109	-0,005
-535,393	800,000	0,062	0,140
-534,379	357,996	0,090	0,132
-533,364	-7,117	0,089	-0,044
-532,350	218,416	0,117	0,137
-531,335	-200,000	-0,011	0,089
-530,321	800,000	-0,026	-0,056
-529,306	-21,470	0,096	0,043
-528,291	-60,303	-0,174	0,054
-527,277	-200,000	0,012	-0,136
-526,262	32,257	0,079	-0,050
-525,248	-0,192	0,134	-0,069
-524,233	-200,000	-0,009	0,030
-523,218	500,418	-0,056	0,095
-522,204	69,666	-0,027	-0,020
-521,189	-56,108	-0,176	0,057
-520,175	-154,455	-0,109	0,005
-519,160	0,584	-0,197	-0,103
-518,145	800,000	0,033	0,102
-517,131	800,000	0,063	0,144
-516,116	765,967	0,130	0,259
-515,102	-200,000	-0,001	0,027
-514,087	70,424	-0,053	-0,040
-513,072	800,000	-0,039	0,086
-512,058	-200,000	-0,003	0,064
-511,043	-200,000	-0,001	0,041
-510,029	187,310	-0,036	0,039
-509,014	178,641	0,044	0,047
-507,999	-65,390	-0,010	0,003
-506,985	-82,039	0,090	-0,021
-505,970	-200,000	-0,001	0,085
-504,956	25,094	-0,059	-0,036
-503,941	175,700	-0,049	-0,052
-502,926	31,362	-0,055	-0,034
-501,912	77,103	0,068	0,053
-500,897	-200,000	-0,036	0,148
-499,883	38,237	-0,111	-0,072
-498,868	800,000	-0,043	-0,125
-497,853	-141,588	0,029	0,002
-496,839	263,213	0,069	0,088
-495,824	180,040	0,047	0,050
-494,810	220,689	0,079	-0,093
-493,795	-200,000	-0,012	0,059
-492,781	800,000	-0,034	-0,104
-491,766	5,847	-0,017	0,009
-490,751	-200,000	-0,015	-0,079
-489,737	-53,329	0,112	0,037
-488,722	-200,000	0,001	-0,058
-487,708	260,208	0,086	0,109
-486,693	58,207	-0,078	0,056
-485,678	260,644	-0,099	-0,126
-484,664	-74,530	-0,049	-0,013
-483,649	511,885	-0,045	0,077
-482,635	800,000	-0,024	0,065
-481,620	-200,000	0,005	0,089
-480,605	-200,000	0,030	-0,148
-479,591	86,475	-0,070	-0,056
-478,576	369,231	0,086	0,127
-477,562	-200,000	-0,036	0,132
-476,547	-142,922	-0,069	0,005
-475,532	800,000	0,068	-0,162
-474,518	268,162	0,052	-0,066
-473,503	-200,000	0,013	-0,047
-472,489	-200,000	0,006	0,061
-471,474	800,000	-0,022	-0,053
-470,459	-89,570	-0,026	-0,005
-469,445	125,812	0,046	0,042
-468,430	800,000	0,015	-0,032
-467,416	51,518	-0,063	-0,043
-466,401	387,260	0,035	0,053
-465,386	82,062	0,114	0,090
-464,372	190,433	-0,091	0,099
-463,357	-200,000	-0,012	-0,039
-462,343	-138,246	0,024	0,002
-461,328	-200,000	0,000	-0,182
-460,313	566,399	0,072	0,128
-459,299	-200,000	-0,020	0,099
-458,284	49,523	-0,071	-0,048
-457,270	1,341	0,052	0,027
-456,255	-200,000	-0,030	-0,114
-455,241	653,301	0,053	-0,099
-454,226	579,854	0,049	-0,089
-453,211	361,934	0,019	-0,028
-452,197	-165,831	0,071	-0,002
-451,182	800,000	0,010	0,026
-450,168	9,301	-0,061	0,034
-449,153	-200,000	0,006	0,150
-448,138	-88,045	-0,075	0,016
-447,124	-200,000	0,012	-0,065
-446,109	-111,795	-0,076	-0,011
-445,095	-168,019	0,043	-0,001
-444,080	-26,558	0,087	0,037
-443,065	800,000	-0,025	0,062
-442,051	-200,000	-0,012	0,051
-441,036	-200,000	0,010	0,040
-440,022	-200,000	-0,011	-0,143
-439,007	181,660	-0,084	-0,091
-437,992	47,230	-0,045	0,030
-436,978	784,020	0,036	0,073
-435,963	190,558	0,084	0,092
-434,949	-200,000	-0,009	0,066
-433,934	529,959	-0,118	-0,204
-432,919	53,080	-0,099	-0,069
-431,905	275,149	-0,047	-0,061
-430,890	-116,207	0,176	0,024
-429,876	108,414	-0,037	0,032
-428,861	540,723	0,014	-0,024
-427,846	221,623	0,036	-0,042
-426,832	-200,000	-0,019	0,164
-425,817	38,729	0,054	0,035
-424,803	5,392	-0,029	-0,015
-423,788	-15,860	0,030	-0,014
-422,773	158,835	-0,071	0,072
-421,759	-32,694	0,037	-0,015
-420,744	-173,749	-0,157	0,003
-419,730	800,000	-0,009	0,026
-418,715	-104,762	-0,062	0,010
-417,701	-48,230	-0,081	0,028
-416,686	494,097	-0,018	0,031
-415,671	-11,509	0,111	0,053
-414,657	-120,359	0,039	-0,005
-413,642	-200,000	0,009	0,047
-412,628	100,008	-0,069	-0,058
-411,613	-142,546	-0,162	-0,011
-410,598	-200,000	0,031	-0,186
-409,584	-200,000	-0,036	0,131
-408,569	373,789	0,139	0,206
-407,555	-95,007	0,135	0,026
-406,540	701,308	-0,081	-0,156
-405,525	-200,000	-0,006	-0,052
-404,511	-71,052	-0,097	0,026
-403,496	-200,000	-0,007	0,036
-402,482	-66,520	0,073	-0,021
-401,467	184,633	0,065	-0,070
-400,452	-50,645	-0,080	0,027
-399,438	-74,182	-0,174	0,046
-398,423	-57,993	-0,119	0,038
-397,409	800,000	-0,021	-0,050
-396,394	800,000	0,062	-0,142
-395,379	-96,028	-0,070	0,013
-394,365	800,000	0,032	-0,065
-393,350	210,866	0,101	0,116
-392,336	336,307	0,037	-0,053
-391,321	-84,636	-0,056	-0,013
-390,306	218,553	0,086	-0,100
-389,292	-74,734	0,095	0,025
-388,277	12,787	0,042	-0,023
-387,263	96,882	0,141	0,117
-386,248	101,724	0,034	-0,029
-385,233	-200,000	0,008	0,049
-384,219	37,731	-0,104	-0,067
-383,204	10,635	0,059	0,033
-382,190	800,000	-0,049	-0,147
-381,175	-200,000	0,019	0,070
-380,160	-59,308	0,133	0,041
-379,146	72,140	0,120	0,091
-378,131	-54,563	0,167	0,055
-377,117	310,786	-0,066	0,089
-376,102	509,496	-0,032	-0,055
-375,088	800,000	-0,033	-0,069
-374,073	41,937	-0,093	-0,061
-373,058	553,106	-0,034	-0,060
-372,044	-200,000	0,008	0,133
-371,029	-200,000	0,018	-0,084
-370,015	-171,929	0,071	-0,002
-369,000	-200,000	0,033	-0,174
-367,985	-19,679	-0,013	0,006
-366,971	-200,000	0,003	-0,035
-365,956	-135,917	-0,073	0,006
-364,942	96,624	-0,064	0,054
-363,927	-200,000	0,024	0,177
-362,912	41,675	0,056	-0,037
-361,898	-200,000	-0,010	0,116
-360,883	-200,000	0,011	-0,036
-359,869	-200,000	0,004	-0,062
-358,854	-200,000	-0,006	-0,071
-357,839	323,881	0,050	0,070
-356,825	104,972	0,058	0,050
-355,810	-119,634	-0,083	0,010
-354,796	-73,533	-0,056	-0,015
-353,781	-200,000	-0,007	-0,098
-352,766	-200,000	0,007	-0,097
-351,752	677,412	0,053	0,101
-350,737	-200,000	0,002	-0,028
-349,723	-200,000	-0,004	0,078
-348,708	-80,986	-0,113	0,027
-347,693	108,299	0,074	0,064
-346,679	72,416	0,102	-0,077
-345,664	153,879	-0,064	-0,064
-344,650	63,930	0,106	0,077
-343,635	22,828	-0,090	-0,053
-342,620	800,000	-0,026	0,077
-341,606	298,228	0,095	0,127
-340,591	-60,481	-0,143	-0,044
-339,577	457,347	-0,055	-0,089
-338,562	-84,564	0,137	0,031
-337,548	-120,355	0,092	-0,011
-336,533	154,492	-0,097	0,097
-335,518	-200,000	-0,013	-0,044
-334,504	119,259	0,115	0,104
-333,489	54,585	0,067	0,047
-332,475	33,617	-0,042	-0,026
-331,460	800,000	0,071	0,212
-330,445	-200,000	0,015	-0,069
-329,431	274,545	-0,069	0,090
-328,416	117,198	0,060	0,053
-327,402	-200,000	-0,009	-0,103
-326,387	-200,000	-0,023	0,118
-325,372	-13,369	0,033	0,016
-324,358	174,224	-0,051	-0,053
-323,343	-200,000	-0,039	0,000
-322,329	800,000	-0,035	0,092
-321,314	-117,577	-0,064	-0,008
-320,299	-56,842	0,139	-0,044
-319,285	-173,298	0,036	-0,001
-318,270	-12,030	0,065	0,031
-317,256	800,000	-0,071	-0,181
-316,241	-180,138	-0,056	0,001
-315,226	-138,622	0,058	-0,005
-314,212	-200,000	0,022	-0,097
-313,197	-52,242	-0,047	-0,016
-312,183	186,711	0,134	0,145
-311,168	-200,000	0,011	-0,070
-310,153	-72,286	-0,076	0,020
-309,139	-200,000	-0,007	0,064
-308,124	-104,872	-0,009	-0,002
-307,110	163,733	0,048	-0,049
-306,095	-200,000	0,004	0,032
-305,080	73,069	-0,086	0,065
-304,066	634,993	0,054	-0,100
-303,051	-19,977	-0,072	0,032
-302,037	236,525	0,056	-0,067
-301,022	-200,000	0,005	-0,084
-300,008	137,091	-0,024	-0,023
-298,993	-22,484	0,043	-0,019
-297,978	-22,976	0,178	0,078
-296,964	8,564	0,117	0,064
-295,949	-200,000	-0,003	-0,077
-294,935	-200,000	0,007	-0,029
-293,920	247,661	0,020	0,024
-292,905	231,409	-0,065	-0,077
-291,891	295,804	0,090	0,120
-290,876	333,612	-0,037	-0,052
-289,862	-97,415	-0,139	0,026
-288,847	800,000	-0,026	-0,078
-287,832	-26,845	0,098	0,041
-286,818	-5,257	0,095	-0,047
-285,803	623,183	0,013	-0,024
-284,789	800,000	-0,043	-0,091
-283,774	-38,739	0,069	-0,026
-282,759	15,663	0,097	0,055
-281,745	162,432	-0,080	-0,081
-280,730	-200,000	-0,010	0,067
-279,716	-154,005	0,092	-0,004
-278,701	130,417	0,080	0,074
-277,686	66,820	0,030	-0,022
-276,672	-20,550	0,037	0,016
-275,657	-22,345	-0,076	0,033
-274,643	50,861	-0,027	-0,019
-273,628	-34,360	0,075	-0,030
-272,613	-10,579	-0,150	-0,072
-271,599	682,249	-0,031	0,059
-270,584	118,277	0,064	-0,057
-269,570	-6,926	0,076	-0,037
-268,555	34,831	0,076	0,048
-267,540	-74,599	-0,043	0,011
-266,526	-124,065	0,091	0,010
-265,511	-11,484	0,076	0,036
-264,497	79,485	0,071	0,055
-263,482	-149,669	-0,116	-0,007
-262,467	-67,700	0,164	0,046
-261,453	-102,109	-0,146	0,025
-260,438	-113,207	0,034	0,005
-259,424	-200,000	0,027	-0,103
-258,409	74,145	-0,125	-0,095
-257,395	149,387	0,050	-0,049
-256,380	229,366	0,108	0,128
-255,365	139,626	0,048	0,046
-254,351	90,503	0,064	0,052
-253,336	800,000	-0,033	0,082
-252,322	-200,000	0,005	-0,051
-251,307	-200,000	0,007	-0,072
-250,292	800,000	0,049	-0,132
-249,278	800,000	0,055	-0,165
-248,263	-200,000	0,023	0,136
-247,249	187,657	0,101	0,110
-246,234	3,751	0,060	-0,032
-245,219	358,033	-0,032	-0,047
-244,205	53,780	-0,039	0,027
-243,190	-65,204	0,074	-0,021
-242,176	120,301	0,105	-0,095
-241,161	-200,000	-0,008	0,091
-240,146	7,109	-0,158	0,085
-239,132	366,600	0,036	0,053
-238,117	118,280	-0,122	-0,109
-237,103	558,928	-0,054	0,095
-236,088	-77,575	0,040	-0,010
-235,073	-97,368	0,022	-0,004
-234,059	35,718	0,136	0,086
-233,044	457,994	-0,094	0,152
-232,030	-78,048	-0,100	-0,025
-231,015	363,300	-0,016	-0,023
-230,000	-200,000	-0,095	0,000
-228,986	-6,091	0,097	-0,048
-227,971	-200,000	0,015	-0,164
-226,957	-36,910	0,093	0,036
-225,942	-103,278	0,129	-0,022
-224,927	-200,000	-0,004	-0,017
-223,913	-200,000	-0,010	-0,035
-222,898	800,000	-0,042	-0,086
-221,884	-49,097	-0,080	-0,027
-220,869	-127,601	0,139	-0,014
-219,855	451,707	0,012	0,019
-218,840	148,659	-0,045	-0,044
-217,825	678,666	-0,044	0,082
-216,811	164,156	-0,083	-0,084
-215,796	59,450	-0,133	0,094
-214,782	-200,000	0,004	0,064
-213,767	-200,000	-0,010	0,062
-212,752	-200,000	-0,007	0,127
-211,738	571,847	0,021	0,037
-210,723	311,394	0,064	-0,086
-209,709	472,536	-0,061	-0,099
-208,694	-200,000	-0,003	0,059
-207,679	1,138	-0,170	-0,088
-206,665	270,313	0,022	-0,028
-205,650	800,000	0,062	0,138
-204,636	-37,793	0,182	0,070
-203,621	-79,087	-0,122	0,030
-202,606	793,563	-0,073	0,146
-201,592	6,428	-0,130	-0,070
-200,577	-200,000	0,007	0,039
-199,563	800,000	0,070	-0,158
-198,548	103,266	-0,055	0,047
-197,533	-147,934	-0,039	-0,002
-196,519	-200,000	0,009	0,035
-195,504	-39,762	-0,107	0,040
-194,490	-53,190	-0,075	-0,025
-193,475	39,397	-0,147	0,095
-192,460	-71,361	0,020	-0,005
-191,446	154,657	0,036	-0,035
-190,431	114,226	0,046	-0,041
-189,417	-5,415	0,064	0,032
-188,402	800,000	-0,015	-0,032
-187,387	-200,000	0,016	-0,128
-186,373	-9,550	-0,123	0,059
-185,358	-10,746	-0,079	0,038
-184,344	326,325	-0,081	0,112
-183,329	35,619	0,096	-0,061
-182,315	-200,000	-0,008	0,068
-181,300	61,176	-0,186	-0,133
-180,285	-13,597	-0,179	-0,084
-179,271	56,926	0,031	-0,022
-178,256	-74,847	-0,105	-0,027
-177,242	144,452	-0,032	0,031
-176,227	-157,088	0,021	-0,001
-175,212	-200,000	0,008	-0,168
-174,198	112,016	-0,099	0,087
-173,183	-59,690	-0,118	-0,036
-172,169	111,055	0,066	-0,057
-171,154	-200,000	-0,015	-0,099
-170,139	-60,090	0,061	0,019
-169,125	-200,000	0,002	0,075
-168,110	-200,000	-0,025	0,145
-167,096	-200,000	-0,003	0,253
-166,081	800,000	0,041	-0,097
-165,066	136,946	-0,053	-0,050
-164,052	471,089	0,025	-0,040
-163,037	149,043	0,027	0,026
-162,023	64,726	0,127	0,093
-161,008	-200,000	0,002	0,200
-159,993	81,512	-0,092	-0,072
-158,979	800,000	0,019	-0,051
-157,964	-200,000	-0,012	-0,072
-156,950	283,818	0,129	-0,167
-155,935	350,719	-0,082	-0,118
-154,920	433,019	0,040	-0,064
-153,906	-200,000	0,009	-0,034
-152,891	800,000	0,023	0,068
-151,877	-200,000	-0,005	0,048
-150,862	-200,000	-0,042	-0,134
-149,847	-174,054	0,111	-0,002
-148,833	18,353	-0,101	-0,058
-147,818	16,264	0,053	-0,030
-146,804	31,185	-0,112	0,069
-145,789	336,563	0,018	0,025
-144,775	539,278	0,021	-0,035
-143,760	135,031	-0,048	-0,045
-142,745	-200,000	0,010	0,064
-141,731	-200,000	-0,019	-0,078
-140,716	14,357	0,012	0,006
-139,702	-200,000	-0,021	-0,081
-138,687	155,297	0,062	-0,061
-137,672	-38,323	-0,091	0,035
-136,658	534,171	0,049	-0,084
-135,643	43,466	-0,130	-0,086
-134,629	206,390	-0,068	-0,077
-133,614	49,988	0,104	0,071
-132,599	197,472	0,033	0,037
-131,585	36,794	-0,077	-0,049
-130,570	-200,000	-0,016	0,059
-129,556	800,000	-0,017	0,036
-128,541	32,525	-0,106	0,066
-127,526	-200,000	-0,006	0,022
-126,512	-200,000	0,010	0,075
-125,497	46,262	0,126	0,084
-124,483	124,324	-0,045	-0,041
-123,468	404,238	0,035	-0,053
-122,453	526,985	-0,099	-0,169
-121,439	73,062	-0,038	0,028
-120,424	-36,573	-0,060	0,023
-119,410	18,988	-0,044	-0,025
