DTS Sentinel unit serial number:	SN410029Multiplexer serial number:	ORYXHardware model number:	OX2-SRSoftware version number:	ORYX F/W v4,00 Oryx Data Collector v3.7.2.0data status	okinstallation	B5 Nyhavnadifferential loss correction	single-endedforward channel	channel 2reverse channel	N/Adate	2023/12/11time	17:12:13forward acquisition time	300,00reverse acquisition time	0,00gamma	499,1914k internal	0,3164k external	0,3164temperature offset calibration	1,0000default loss term (dB/km)	0,3820temperature slope calibration	1,0000multiplexer offset coefficient	1,0000multiplexer slope coefficient	1,0000fibre end	0,00T internal ref (°C)	14,54T ext. ref 1 (°C)	-0,66T ext. ref 2 (°C)	-0,85length (m)	temperature (°C)	Stokes	anti-Stokes-744,400	85,182	0,054	-0,043
-743,385	-92,166	-0,350	-0,072
-742,371	-15,329	0,135	0,063
-741,356	-114,631	-0,322	0,045
-740,342	-92,827	0,200	-0,041
-739,327	25,510	-0,134	0,082
-738,312	-41,173	0,113	0,043
-737,298	-101,889	-0,386	-0,068
-736,283	-14,689	0,095	0,045
-735,269	136,069	-0,229	-0,220
-734,254	-200,000	0,038	0,138
-733,239	-33,162	-0,567	-0,230
-732,225	-200,000	-0,020	0,082
-731,210	71,179	-0,059	0,045
-730,196	488,660	0,099	-0,168
-729,181	16,145	-0,045	-0,026
-728,167	-16,522	-0,064	-0,030
-727,152	-3,416	-0,059	-0,030
-726,137	800,000	-0,080	-0,181
-725,123	13,582	-0,081	-0,046
-724,108	12,797	0,088	0,050
-723,094	604,396	-0,042	-0,077
-722,079	-67,076	-0,082	-0,024
-721,064	-58,706	0,039	0,012
-720,050	-89,634	0,119	0,026
-719,035	139,259	0,057	-0,055
-718,021	800,000	-0,034	0,071
-717,006	-200,000	0,033	-0,123
-715,991	35,631	-0,042	-0,027
-714,977	125,350	-0,073	-0,067
-713,962	-200,000	-0,012	0,045
-712,948	-12,788	-0,068	-0,032
-711,933	101,859	-0,110	-0,094
-710,918	83,789	0,079	0,063
-709,904	40,641	-0,058	0,038
-708,889	321,424	-0,037	-0,052
-707,875	347,720	-0,064	-0,094
-706,860	-84,451	0,051	-0,012
-705,845	-84,622	0,052	0,012
-704,831	260,475	-0,090	0,114
-703,816	-200,000	0,000	-0,017
-702,802	268,645	0,132	-0,171
-701,787	114,348	-0,057	0,051
-700,772	44,707	-0,149	-0,100
-699,758	800,000	-0,005	-0,010
-698,743	604,270	0,008	-0,015
-697,729	-76,461	0,019	-0,005
-696,714	384,548	-0,028	-0,043
-695,699	215,367	0,071	-0,083
-694,685	170,450	-0,033	-0,035
-693,670	35,961	-0,085	-0,055
-692,656	800,000	0,009	-0,021
-691,641	155,066	0,041	-0,041
-690,627	126,189	-0,056	0,052
-689,612	800,000	0,043	-0,102
-688,597	653,974	-0,036	-0,068
-687,583	192,138	-0,088	-0,097
-686,568	-200,000	0,003	0,082
-685,554	281,026	-0,028	-0,037
-684,539	369,398	0,008	-0,012
-683,524	-200,000	0,002	-0,020
-682,510	-39,861	0,122	0,046
-681,495	129,169	-0,054	-0,051
-680,481	77,454	-0,092	-0,072
-679,466	-144,022	-0,229	-0,016
-678,451	122,293	0,145	0,133
-677,437	-89,966	-0,106	0,022
-676,422	277,869	0,034	-0,045
-675,408	-29,737	-0,119	0,049
-674,393	-200,000	0,018	-0,084
-673,378	132,630	-0,069	0,066
-672,364	291,771	-0,049	-0,066
-671,349	-135,891	0,044	-0,004
-670,335	-200,000	0,002	0,069
-669,320	145,977	-0,098	0,097
-668,305	-200,000	-0,022	0,156
-667,291	-200,000	-0,006	-0,160
-666,276	800,000	-0,029	0,072
-665,262	-200,000	0,030	-0,131
-664,247	609,290	-0,029	-0,053
-663,232	-2,983	-0,084	-0,043
-662,218	-200,000	0,022	-0,148
-661,203	224,656	0,072	0,086
-660,189	-200,000	-0,007	-0,047
-659,174	-200,000	-0,022	-0,191
-658,159	800,000	0,019	-0,050
-657,145	328,314	-0,111	-0,157
-656,130	-57,020	-0,072	-0,023
-655,116	36,483	-0,052	0,033
-654,101	106,799	0,036	0,031
-653,086	-85,338	0,062	0,014
-652,072	70,756	-0,097	-0,073
-651,057	-12,663	-0,129	-0,062
-650,043	-200,000	0,007	-0,095
-649,028	185,993	-0,034	-0,037
-648,014	504,623	-0,053	0,090
-646,999	800,000	-0,014	0,031
-645,984	-2,646	0,038	-0,019
-644,970	58,679	-0,088	0,063
-643,955	-200,000	-0,009	-0,153
-642,941	159,457	-0,034	-0,035
-641,926	-200,000	-0,008	-0,066
-640,911	-11,919	0,014	0,007
-639,897	339,618	0,095	-0,135
-638,882	800,000	-0,037	-0,107
-637,868	-200,000	-0,001	-0,042
-636,853	-200,000	0,007	-0,086
-635,838	112,363	-0,066	-0,059
-634,824	-200,000	0,009	-0,033
-633,809	139,781	-0,047	0,045
-632,795	-110,868	0,048	-0,007
-631,780	396,036	0,012	-0,018
-630,765	800,000	0,010	-0,031
-629,751	800,000	0,034	0,089
-628,736	-59,036	-0,166	-0,052
-627,722	-165,299	-0,024	-0,001
-626,707	50,421	0,051	0,035
-625,692	-200,000	0,005	0,041
-624,678	800,000	-0,039	-0,099
-623,663	-20,499	-0,082	-0,037
-622,649	800,000	0,012	0,031
-621,634	-59,335	0,067	0,021
-620,619	20,091	-0,062	-0,037
-619,605	-48,463	0,102	0,036
-618,590	38,030	-0,124	-0,081
-617,576	207,115	-0,078	0,090
-616,561	800,000	-0,034	-0,075
-615,546	-108,094	0,072	0,011
-614,532	-0,430	-0,057	-0,029
-613,517	800,000	-0,074	-0,209
-612,503	455,323	0,049	0,080
-611,488	800,000	0,009	-0,021
-610,474	800,000	0,006	0,014
-609,459	347,184	0,082	-0,118
-608,444	611,901	-0,037	-0,067
-607,430	-69,458	-0,125	0,035
-606,415	57,254	-0,189	-0,135
-605,401	-175,441	-0,072	-0,001
-604,386	-200,000	-0,006	0,022
-603,371	433,046	0,064	0,101
-602,357	-200,000	-0,032	-0,157
-601,342	-103,710	0,096	0,016
-600,328	-200,000	-0,010	-0,057
-599,313	147,816	0,060	0,059
-598,298	-200,000	0,060	-0,231
-597,284	-84,806	-0,060	-0,014
-596,269	-172,732	0,126	0,003
-595,255	54,959	0,067	0,047
-594,240	15,061	0,096	-0,055
-593,225	133,281	-0,054	0,051
-592,211	800,000	-0,036	-0,084
-591,196	-180,270	0,216	0,003
-590,182	39,139	-0,088	-0,057
-589,167	77,248	-0,034	0,027
-588,152	278,726	-0,073	0,096
-587,138	-99,462	-0,053	0,010
-586,123	113,275	-0,074	-0,066
-585,109	800,000	0,051	-0,134
-584,094	-189,166	-0,087	-0,001
-583,079	92,873	0,047	0,038
-582,065	-57,076	-0,053	-0,017
-581,050	117,564	0,104	0,093
-580,036	47,617	-0,083	-0,056
-579,021	-200,000	0,024	-0,127
-578,006	800,000	0,010	-0,031
-576,992	-163,093	-0,031	0,001
-575,977	-200,000	0,153	0,000
-574,963	-200,000	-0,002	0,089
-573,948	-61,235	0,106	0,032
-572,934	-38,109	0,112	-0,043
-571,919	-152,719	-0,081	0,004
-570,904	800,000	0,034	-0,110
-569,890	563,535	-0,036	0,064
-568,875	-174,967	0,189	0,004
-567,861	-200,000	0,000	0,038
-566,846	-18,771	0,056	0,025
-565,831	9,304	-0,188	0,104
-564,817	800,000	0,025	0,067
-563,802	800,000	0,034	-0,077
-562,788	-127,265	-0,105	0,011
-561,773	-200,000	0,007	0,073
-560,758	-200,000	-0,022	0,073
-559,744	450,577	0,094	-0,151
-558,729	-2,333	0,060	0,030
-557,715	-200,000	0,025	-0,086
-556,700	-200,000	-0,052	-0,215
-555,685	23,239	-0,102	0,061
-554,671	-115,154	0,133	0,018
-553,656	195,870	-0,062	0,069
-552,642	-76,509	-0,040	0,010
-551,627	-35,465	0,061	-0,024
-550,612	800,000	-0,085	-0,180
-549,598	-110,744	-0,047	0,007
-548,583	25,806	0,055	0,034
-547,569	431,408	0,049	-0,078
-546,554	-48,269	0,013	-0,004
-545,539	-200,000	0,028	0,110
-544,525	-200,000	0,001	-0,021
-543,510	800,000	-0,011	0,024
-542,496	-200,000	-0,015	-0,139
-541,481	800,000	-0,047	-0,115
-540,466	35,346	-0,035	-0,022
-539,452	449,053	-0,021	0,033
-538,437	-142,177	0,041	0,003
-537,423	800,000	0,015	0,040
-536,408	-71,533	-0,125	-0,034
-535,393	370,091	-0,004	0,006
-534,379	480,033	-0,045	-0,074
-533,364	-200,000	0,004	0,252
-532,350	114,245	-0,081	0,072
-531,335	-105,818	0,148	-0,024
-530,321	90,688	-0,074	0,060
-529,306	0,688	0,086	0,045
-528,291	29,510	-0,125	-0,077
-527,277	617,053	-0,090	-0,166
-526,262	96,914	-0,050	0,042
-525,248	800,000	0,030	0,060
-524,233	-109,191	-0,056	-0,009
-523,218	-76,691	0,022	0,006
-522,204	105,265	0,001	-0,001
-521,189	188,131	-0,067	-0,073
-520,175	-200,000	0,032	0,154
-519,160	-54,816	0,103	0,034
-518,145	-41,687	-0,047	-0,017
-517,131	-112,030	0,141	0,021
-516,116	278,466	0,066	0,086
-515,102	437,829	0,031	0,049
-514,087	507,159	0,065	-0,110
-513,072	-59,296	-0,170	-0,053
-512,058	340,021	0,083	0,118
-511,043	49,509	0,060	0,041
-510,029	-43,800	0,161	0,059
-509,014	126,292	0,075	-0,070
-507,999	800,000	-0,071	0,176
-506,985	127,698	0,031	-0,029
-505,970	-200,000	-0,000	-0,014
-504,956	419,034	-0,044	0,068
-503,941	-90,186	0,102	0,021
-502,926	190,120	0,049	0,054
-501,912	-200,000	-0,010	-0,033
-500,897	6,237	-0,071	-0,038
-499,883	-200,000	-0,031	-0,213
-498,868	46,341	0,028	0,019
-497,853	-200,000	-0,008	-0,083
-496,839	-81,396	-0,086	0,020
-495,824	191,115	0,082	0,090
-494,810	459,697	-0,021	-0,035
-493,795	282,373	0,106	-0,139
-492,781	58,512	0,090	-0,064
-491,766	67,025	-0,141	0,104
-490,751	-200,000	0,048	-0,171
-489,737	346,969	-0,077	0,110
-488,722	584,809	0,019	-0,033
-487,708	663,523	-0,031	-0,059
-486,693	-200,000	-0,009	0,152
-485,678	259,692	-0,078	-0,098
-484,664	378,511	-0,091	-0,136
-483,649	166,979	0,040	0,041
-482,635	34,711	0,113	-0,072
-481,620	-200,000	0,012	-0,222
-480,605	212,138	0,019	0,022
-479,591	7,342	0,189	0,103
-478,576	-200,000	0,012	0,068
-477,562	-200,000	0,032	-0,114
-476,547	-133,718	-0,167	0,015
-475,532	24,034	0,084	-0,050
-474,518	800,000	-0,017	0,041
-473,503	-130,796	0,075	-0,007
-472,489	-200,000	-0,010	-0,127
-471,474	-141,776	0,034	0,002
-470,459	-129,773	0,150	0,015
-469,445	-200,000	-0,007	-0,198
-468,430	-200,000	-0,021	0,086
-467,416	-132,762	0,015	0,001
-466,401	60,002	0,064	-0,046
-465,386	-53,030	0,132	-0,044
-464,372	-200,000	-0,028	-0,111
-463,357	-200,000	0,029	-0,100
-462,343	-113,414	-0,071	-0,010
-461,328	-0,444	0,106	-0,055
-460,313	-167,011	0,168	0,005
-459,299	-200,000	-0,001	0,127
-458,284	-76,252	0,094	0,024
-457,270	56,032	-0,024	0,017
-456,255	-200,000	0,004	-0,023
-455,241	67,975	0,062	0,046
-454,226	-174,397	0,083	-0,002
-453,211	-200,000	0,011	0,045
-452,197	239,732	0,054	0,066
-451,182	800,000	-0,039	0,086
-450,168	-45,809	0,090	0,032
-449,153	-200,000	0,028	-0,135
-448,138	-1,264	-0,099	0,051
-447,124	800,000	0,037	-0,094
-446,109	140,348	-0,082	0,079
-445,095	800,000	0,051	0,130
-444,080	41,603	0,028	-0,018
-443,065	-200,000	-0,001	-0,077
-442,051	-132,691	-0,117	-0,011
-441,036	-200,000	0,000	0,064
-440,022	-200,000	0,015	-0,140
-439,007	-63,038	0,060	0,018
-437,992	-66,436	-0,025	0,007
-436,978	187,715	-0,018	0,019
-435,963	719,601	-0,033	-0,064
-434,949	-200,000	-0,016	-0,137
-433,934	-107,468	-0,074	-0,012
-432,919	675,743	-0,041	-0,079
-431,905	800,000	0,017	0,043
-430,890	-3,778	-0,074	-0,037
-429,876	-102,378	0,031	-0,005
-428,861	-87,265	-0,103	0,023
-427,846	-141,258	-0,152	-0,011
-426,832	416,162	0,069	-0,107
-425,817	-200,000	0,021	0,120
-424,803	511,534	-0,032	0,055
-423,788	800,000	0,012	0,026
-422,773	9,131	-0,068	0,037
-421,759	-200,000	-0,005	-0,035
-420,744	225,778	-0,120	0,142
-419,730	319,156	0,061	-0,085
-418,715	-200,000	0,012	0,140
-417,701	-200,000	0,056	0,000
-416,686	-123,232	0,082	0,009
-415,671	-200,000	0,008	0,157
-414,657	-200,000	-0,008	0,111
-413,642	217,864	0,029	0,034
-412,628	-9,457	0,042	0,020
-411,613	800,000	-0,039	-0,086
-410,598	72,225	-0,078	-0,059
-409,584	290,957	0,024	0,032
-408,569	437,502	0,062	0,098
-407,555	583,125	0,056	0,101
-406,540	-200,000	0,025	0,095
-405,525	10,457	-0,100	-0,055
-404,511	87,475	-0,083	0,067
-403,496	-200,000	0,011	-0,132
-402,482	389,084	-0,053	-0,080
-401,467	-0,626	0,063	0,032
-400,452	-195,044	0,141	-0,001
-399,438	-102,195	-0,068	-0,012
-398,423	-200,000	0,012	0,049
-397,409	29,420	0,006	-0,004
-396,394	-6,135	-0,073	-0,036
-395,379	663,759	-0,045	0,084
-394,365	256,411	0,083	0,103
-393,350	146,611	0,053	-0,052
-392,336	800,000	0,037	-0,079
-391,321	800,000	0,031	0,083
-390,306	-50,419	-0,065	-0,022
-389,292	-200,000	-0,032	-0,149
-388,277	-200,000	0,013	0,089
-387,263	-134,971	0,025	0,002
-386,248	110,683	0,057	0,050
-385,233	800,000	0,015	-0,038
-384,219	800,000	-0,052	-0,125
-383,204	800,000	0,033	-0,101
-382,190	-200,000	-0,008	-0,080
-381,175	321,689	0,049	-0,068
-380,160	610,616	0,118	-0,216
-379,146	-154,483	0,101	-0,005
-378,131	608,089	0,054	0,097
-377,117	93,138	-0,085	-0,070
-376,102	-86,606	-0,132	-0,029
-375,088	-200,000	-0,009	-0,080
-374,073	61,687	-0,053	0,038
-373,058	-9,915	0,091	0,044
-372,044	494,750	-0,005	0,009
-371,029	72,293	-0,103	-0,078
-370,015	-90,121	0,168	-0,035
-369,000	45,412	-0,071	-0,047
-367,985	-200,000	-0,013	-0,076
-366,971	215,210	-0,020	-0,023
-365,956	-200,000	-0,006	-0,098
-364,942	155,212	0,095	0,095
-363,927	26,718	-0,083	0,050
-362,912	488,427	-0,051	0,085
-361,898	-64,978	-0,058	-0,017
-360,883	-200,000	-0,012	-0,066
-359,869	-67,855	-0,107	-0,030
-358,854	319,173	-0,051	0,070
-357,839	594,452	-0,107	0,192
-356,825	456,940	0,018	0,030
-355,810	43,379	-0,031	0,020
-354,796	383,335	0,025	0,037
-353,781	311,386	0,059	-0,080
-352,766	326,895	0,054	-0,075
-351,752	39,667	0,041	-0,026
-350,737	193,820	-0,052	-0,057
-349,723	-61,490	0,064	0,019
-348,708	299,468	0,074	0,099
-347,693	800,000	0,018	-0,052
-346,679	-51,845	-0,095	-0,032
-345,664	45,822	-0,053	0,035
-344,650	31,610	0,046	0,029
-343,635	-200,000	0,022	0,073
-342,620	-90,415	0,037	-0,008
-341,606	97,203	-0,052	-0,043
-340,591	800,000	-0,032	0,096
-339,577	-87,432	-0,052	-0,011
-338,562	-154,537	-0,118	-0,006
-337,548	800,000	-0,038	-0,089
-336,533	800,000	0,033	-0,086
-335,518	451,811	-0,053	0,085
-334,504	-200,000	0,001	0,115
-333,489	-13,287	0,023	0,011
-332,475	800,000	0,026	0,059
-331,460	587,673	-0,054	-0,096
-330,445	-200,000	-0,010	-0,067
-329,431	-200,000	-0,008	-0,110
-328,416	305,160	-0,097	0,130
-327,402	-70,134	0,057	0,016
-326,387	-20,279	-0,102	0,045
-325,372	211,861	-0,043	-0,049
-324,358	-19,297	0,055	-0,024
-323,343	629,425	-0,035	0,063
-322,329	-87,386	-0,104	0,023
-321,314	-200,000	-0,029	0,141
-320,299	-200,000	-0,017	0,072
-319,285	-73,538	-0,016	0,004
-318,270	-200,000	0,016	0,117
-317,256	800,000	-0,045	-0,094
-316,241	800,000	-0,045	0,111
-315,226	-189,541	0,092	0,001
-314,212	243,072	0,033	-0,040
-313,197	-200,000	-0,018	0,114
-312,183	-61,452	-0,136	0,041
-311,168	-75,046	-0,042	0,011
-310,153	334,777	-0,049	-0,069
-309,139	-39,385	0,099	-0,037
-308,124	-200,000	0,009	0,066
-307,110	800,000	-0,071	0,197
-306,095	117,336	-0,077	0,069
-305,080	800,000	0,020	0,044
-304,066	-181,139	0,147	0,002
-303,051	-25,392	-0,004	0,002
-302,037	800,000	-0,025	-0,068
-301,022	192,514	-0,024	0,027
-300,008	792,827	-0,038	0,077
-298,993	-200,000	0,010	0,090
-297,978	418,560	0,032	-0,049
-296,964	800,000	-0,036	-0,091
-295,949	-120,043	-0,161	0,020
-294,935	-48,274	0,047	0,016
-293,920	-200,000	0,005	0,036
-292,905	31,242	-0,119	0,074
-291,891	800,000	0,015	0,036
-290,876	418,243	0,039	0,060
-289,862	-200,000	-0,007	0,095
-288,847	120,905	0,014	0,013
-287,832	12,818	0,097	-0,054
-286,818	10,330	0,145	-0,080
-285,803	-19,644	0,061	-0,027
-284,789	-147,558	-0,061	-0,004
-283,774	-200,000	-0,031	0,186
-282,759	634,233	-0,041	-0,076
-281,745	-128,270	0,038	-0,004
-280,730	800,000	-0,060	-0,139
-279,716	1,806	0,055	-0,029
-278,701	-200,000	-0,014	-0,154
-277,686	72,289	0,059	0,045
-276,672	74,444	0,038	0,029
-275,657	414,796	0,038	-0,059
-274,643	104,487	0,048	0,041
-273,628	86,311	0,063	0,050
-272,613	-122,195	-0,118	-0,014
-271,599	-23,369	0,091	0,039
-270,584	-64,552	-0,086	-0,025
-269,570	-200,000	0,009	0,048
-268,555	288,085	0,020	-0,026
-267,540	-177,973	-0,143	0,002
-266,526	186,668	-0,071	-0,076
-265,511	59,268	0,020	-0,015
-264,497	164,363	-0,064	-0,065
-263,482	-182,117	-0,047	-0,001
-262,467	28,080	0,036	0,022
-261,453	-49,275	0,056	0,019
-260,438	-119,135	-0,055	0,007
-259,424	-0,592	0,009	-0,005
-258,409	-32,947	-0,040	0,016
-257,395	-63,922	0,122	-0,036
-256,380	105,571	0,091	0,078
-255,365	348,209	0,044	0,063
-254,351	-59,546	-0,094	0,029
-253,336	800,000	-0,033	-0,086
-252,322	625,712	-0,063	-0,115
-251,307	800,000	-0,039	0,080
-250,292	562,238	0,077	0,135
-249,278	392,164	-0,020	-0,030
-248,263	-200,000	-0,025	-0,106
-247,249	123,755	0,042	0,038
-246,234	-58,138	-0,118	0,037
-245,219	-13,988	-0,006	-0,003
-244,205	73,951	0,016	-0,012
-243,190	-74,296	0,162	0,042
-242,176	296,748	0,033	0,043
-241,161	-87,706	0,199	0,043
-240,146	-200,000	-0,032	-0,116
-239,132	-12,568	0,086	-0,040
-238,117	-200,000	-0,020	0,084
-237,103	-200,000	0,006	0,034
-236,088	283,406	0,054	-0,070
-235,073	-157,807	0,102	-0,004
-234,059	-69,163	0,105	0,029
-233,044	-200,000	0,021	0,159
-232,030	-200,000	-0,003	-0,083
-231,015	37,896	0,035	-0,022
-230,000	101,133	-0,069	-0,058
-228,986	800,000	-0,034	-0,088
-227,971	52,084	0,077	-0,053
-226,957	595,530	-0,133	0,239
-225,942	105,358	0,042	0,036
-224,927	-200,000	-0,027	0,099
-223,913	-200,000	0,011	-0,093
-222,898	470,482	0,019	0,031
-221,884	194,718	-0,082	0,090
-220,869	-200,000	-0,006	-0,062
-219,855	-124,762	0,164	0,018
-218,840	-200,000	0,003	-0,169
-217,825	-200,000	0,056	0,248
-216,811	800,000	-0,055	0,133
-215,796	-82,103	-0,061	-0,014
-214,782	-125,126	-0,157	-0,017
-213,767	646,851	-0,018	-0,033
-212,752	-200,000	0,003	0,066
-211,738	12,094	-0,137	0,076
-210,723	-133,993	0,173	-0,015
-209,709	199,280	0,036	0,040
-208,694	652,675	-0,040	-0,075
-207,679	-76,267	-0,057	-0,014
-206,665	-25,897	0,070	-0,030
-205,650	-31,137	-0,032	-0,013
-204,636	-132,390	-0,025	0,002
-203,621	-70,498	0,064	0,017
-202,606	-123,136	-0,094	0,011
-201,592	-200,000	0,108	-0,000
-200,577	342,577	0,055	-0,078
-199,563	219,153	-0,035	0,041
-198,548	800,000	0,009	0,023
-197,533	-200,000	-0,035	0,121
-196,519	-81,611	0,136	-0,032
-195,504	433,232	-0,059	0,093
-194,490	-53,786	-0,037	-0,012
-193,475	120,607	-0,061	0,054
-192,460	664,884	-0,077	0,144
-191,446	-200,000	0,041	-0,145
-190,431	38,350	-0,052	-0,033
-189,417	162,061	-0,080	-0,081
-188,402	-200,000	-0,025	0,109
-187,387	371,334	-0,063	0,093
-186,373	-101,780	0,046	0,008
-185,358	237,678	0,026	0,031
-184,344	-200,000	-0,017	0,106
-183,329	-200,000	0,030	0,135
-182,315	-129,985	0,031	-0,003
-181,300	-200,000	0,007	0,099
-180,285	-62,972	0,055	0,016
-179,271	-200,000	-0,011	-0,058
-178,256	-61,991	-0,055	-0,017
-177,242	560,952	0,045	0,079
-176,227	-200,000	0,001	-0,018
-175,212	-34,638	0,036	0,014
-174,198	-200,000	-0,003	-0,056
-173,183	-64,207	-0,133	0,039
-172,169	-102,069	0,043	-0,007
-171,154	-200,000	-0,004	0,104
-170,139	-10,995	0,081	0,038
-169,125	54,108	-0,111	0,077
-168,110	-84,653	-0,058	-0,013
-167,096	-38,059	-0,057	0,022
-166,081	800,000	-0,024	-0,069
-165,066	-200,000	0,003	-0,128
-164,052	-200,000	-0,016	0,125
-163,037	94,107	0,087	0,071
-162,023	-200,000	0,001	-0,004
-161,008	399,444	0,039	-0,058
-159,993	322,594	-0,016	-0,022
-158,979	323,056	0,059	0,082
-157,964	-51,035	0,042	-0,014
-156,950	-41,458	-0,123	0,045
-155,935	-200,000	-0,022	-0,134
-154,920	62,429	0,057	-0,041
-153,906	258,971	0,124	0,154
-152,891	309,665	-0,069	0,093
-151,877	252,126	0,037	-0,045
-150,862	-200,000	-0,005	-0,028
-149,847	-91,319	-0,082	0,017
-148,833	-200,000	-0,019	0,126
-147,818	-200,000	0,002	0,131
-146,804	-14,217	-0,079	-0,036
-145,789	-200,000	-0,010	0,032
-144,775	136,763	-0,047	-0,045
-143,760	-200,000	-0,012	-0,070
-142,745	438,496	0,009	-0,014
-141,731	800,000	-0,018	0,045
-140,716	274,216	-0,041	-0,053
-139,702	133,609	-0,070	0,065
-138,687	-109,842	-0,056	-0,008
-137,672	779,469	-0,020	-0,040
-136,658	295,954	-0,030	0,040
-135,643	-200,000	0,016	0,070
-134,629	-37,827	-0,022	-0,009
-133,614	-6,793	-0,044	-0,021
-132,599	346,850	0,113	-0,160
-131,585	-200,000	0,008	-0,048
-130,570	-200,000	-0,016	-0,172
-129,556	28,806	0,050	-0,030
-128,541	-49,774	0,039	0,013
-127,526	-15,541	0,063	0,029
-126,512	-200,000	-0,020	-0,083
-125,497	187,113	0,042	-0,045
-124,483	-125,236	-0,091	-0,010
-123,468	-118,727	-0,124	-0,016
-122,453	-200,000	-0,020	-0,073
-121,439	2,741	-0,059	0,031
-120,424	54,568	-0,056	0,039
-119,410	137,088	-0,026	-0,024
