DTS Sentinel unit serial number:	SN410029Multiplexer serial number:	ORYXHardware model number:	OX2-SRSoftware version number:	ORYX F/W v4,00 Oryx Data Collector v3.7.2.0data status	okinstallation	B5 Nyhavnadifferential loss correction	single-endedforward channel	channel 2reverse channel	N/Adate	2023/12/14time	09:57:13forward acquisition time	300,00reverse acquisition time	0,00gamma	499,1914k internal	0,3161k external	0,3161temperature offset calibration	1,0000default loss term (dB/km)	0,3820temperature slope calibration	1,0000multiplexer offset coefficient	1,0000multiplexer slope coefficient	1,0000fibre end	0,00T internal ref (°C)	6,88T ext. ref 1 (°C)	-9,30T ext. ref 2 (°C)	-9,32length (m)	temperature (°C)	Stokes	anti-Stokes-744,400	220,129	0,144	0,170
-743,385	9,017	-0,491	-0,272
-742,371	156,062	0,168	0,170
-741,356	-74,485	-0,306	0,081
-740,342	259,744	0,213	0,272
-739,327	-19,304	-0,277	-0,126
-738,312	165,685	0,189	0,197
-737,298	-67,510	-0,397	-0,114
-736,283	55,326	0,280	0,199
-735,269	-66,417	-0,451	-0,131
-734,254	-195,057	0,134	0,001
-733,239	48,767	-0,580	-0,400
-732,225	192,932	0,122	0,136
-731,210	231,329	-0,110	0,133
-730,196	-200,000	0,028	-0,101
-729,181	161,342	-0,071	0,073
-728,167	442,625	-0,026	0,043
-727,152	16,645	0,065	-0,038
-726,137	-200,000	0,004	-0,122
-725,123	-16,206	0,052	0,024
-724,108	-62,895	-0,098	-0,030
-723,094	-54,090	-0,130	-0,043
-722,079	-59,995	-0,047	0,015
-721,064	326,676	0,047	-0,066
-720,050	44,601	-0,088	0,060
-719,035	-80,597	-0,162	-0,039
-718,021	-90,761	-0,043	-0,009
-717,006	378,611	0,067	-0,101
-715,991	43,663	-0,145	-0,097
-714,977	60,446	-0,146	-0,106
-713,962	-200,000	0,015	-0,056
-712,948	800,000	-0,048	0,107
-711,933	43,479	-0,086	0,058
-710,918	-108,733	0,043	-0,007
-709,904	-200,000	-0,013	-0,078
-708,889	390,956	-0,097	-0,148
-707,875	353,766	-0,019	-0,027
-706,860	43,619	-0,069	-0,047
-705,845	734,187	0,080	0,159
-704,831	10,342	-0,027	0,015
-703,816	-200,000	-0,010	0,049
-702,802	-21,421	-0,103	0,046
-701,787	-200,000	-0,008	-0,055
-700,772	800,000	0,040	-0,084
-699,758	-200,000	0,013	0,077
-698,743	187,343	0,079	0,087
-697,729	125,681	0,043	-0,040
-696,714	-200,000	-0,001	-0,016
-695,699	490,915	-0,036	0,061
-694,685	605,793	-0,008	0,016
-693,670	159,285	0,032	-0,032
-692,656	254,691	0,036	-0,046
-691,641	-200,000	0,000	-0,019
-690,627	-23,831	0,111	0,049
-689,612	-200,000	-0,013	0,056
-688,597	341,543	-0,041	-0,058
-687,583	-14,785	-0,050	0,024
-686,568	285,464	-0,059	-0,078
-685,554	-200,000	-0,006	-0,071
-684,539	-34,344	0,071	0,029
-683,524	1,836	0,054	-0,028
-682,510	-122,616	0,087	0,010
-681,495	800,000	-0,025	0,071
-680,481	93,873	-0,095	-0,079
-679,466	-107,468	-0,070	0,011
-678,451	800,000	0,049	-0,139
-677,437	154,962	0,079	-0,079
-676,422	437,423	-0,032	0,051
-675,408	-12,624	-0,058	-0,027
-674,393	202,293	0,042	-0,047
-673,378	-121,848	-0,055	-0,007
-672,364	-200,000	-0,017	-0,084
-671,349	-8,182	-0,114	-0,056
-670,335	-96,678	-0,109	-0,021
-669,320	162,520	0,093	-0,096
-668,305	-17,100	0,112	-0,052
-667,291	-147,375	-0,113	-0,007
-666,276	20,523	-0,106	0,063
-665,262	57,483	-0,050	-0,036
-664,247	800,000	0,043	0,110
-663,232	-11,462	-0,078	-0,037
-662,218	-121,610	0,103	0,012
-661,203	-102,746	-0,115	-0,020
-660,189	-9,564	-0,115	0,056
-659,174	-27,760	-0,122	-0,052
-658,159	-200,000	0,016	-0,069
-657,145	-200,000	0,026	-0,115
-656,130	-183,829	-0,114	-0,001
-655,116	-200,000	0,069	0,252
-654,101	3,613	-0,050	-0,027
-653,086	152,407	-0,047	0,047
-652,072	-35,888	-0,067	0,026
-651,057	-200,000	-0,025	-0,223
-650,043	-27,601	-0,035	-0,015
-649,028	-132,625	0,131	0,012
-648,014	176,258	0,043	0,046
-646,999	476,532	-0,095	-0,158
-645,984	164,164	-0,096	0,100
-644,970	88,093	-0,039	0,032
-643,955	-157,938	0,054	0,002
-642,941	-137,729	-0,100	-0,008
-641,926	-200,000	0,021	-0,136
-640,911	-63,575	0,170	0,051
-639,897	209,937	-0,110	0,126
-638,882	800,000	-0,022	0,063
-637,868	599,275	0,058	-0,107
-636,853	800,000	-0,074	0,154
-635,838	126,664	-0,065	-0,060
-634,824	151,833	-0,047	0,047
-633,809	122,494	-0,106	0,097
-632,795	800,000	0,007	-0,017
-631,780	-199,589	-0,036	0,000
-630,765	800,000	0,056	-0,120
-629,751	11,078	-0,191	-0,107
-628,736	800,000	-0,028	-0,058
-627,722	82,246	-0,083	-0,066
-626,707	155,499	-0,070	-0,071
-625,692	91,614	-0,024	0,020
-624,678	-200,000	0,015	-0,076
-623,663	-61,938	-0,042	0,013
-622,649	-166,031	-0,071	-0,002
-621,634	-125,751	-0,053	-0,006
-620,619	-200,000	0,003	0,025
-619,605	330,257	0,064	0,091
-618,590	-24,138	0,063	0,028
-617,576	79,097	-0,123	0,096
-616,561	-200,000	0,015	-0,116
-615,546	-199,280	0,051	-0,000
-614,532	417,677	-0,087	0,136
-613,517	175,408	-0,059	0,063
-612,503	-24,767	0,095	0,041
-611,488	43,164	0,091	0,061
-610,474	-101,090	0,091	-0,016
-609,459	800,000	-0,037	-0,094
-608,444	800,000	-0,013	-0,039
-607,430	569,497	0,090	-0,160
-606,415	-200,000	0,011	0,048
-605,401	-200,000	0,001	0,032
-604,386	-131,941	-0,023	0,002
-603,371	800,000	0,045	0,143
-602,357	-85,163	-0,160	-0,036
-601,342	379,030	-0,106	-0,160
-600,328	102,621	-0,143	-0,122
-599,313	800,000	-0,026	-0,067
-598,298	-99,104	-0,118	-0,022
-597,284	-19,682	0,186	0,084
-596,269	123,427	-0,098	0,090
-595,255	-200,000	-0,011	-0,116
-594,240	-29,935	-0,061	-0,025
-593,225	-37,447	-0,052	0,020
-592,211	288,541	-0,023	-0,031
-591,196	-200,000	0,003	-0,039
-590,182	152,702	0,035	0,035
-589,167	-39,628	0,052	0,020
-588,152	800,000	-0,061	0,145
-587,138	309,251	0,065	0,089
-586,123	-200,000	0,008	-0,188
-585,109	800,000	-0,048	-0,124
-584,094	800,000	-0,029	0,068
-583,079	-138,648	0,069	0,005
-582,065	-200,000	-0,021	0,136
-581,050	800,000	-0,002	0,006
-580,036	800,000	0,026	0,054
-579,021	214,234	0,043	-0,050
-578,006	-200,000	0,000	-0,024
-576,992	3,980	0,200	0,107
-575,977	-112,526	0,138	0,020
-574,963	800,000	-0,020	0,061
-573,948	800,000	0,052	0,111
-572,934	-42,649	-0,080	-0,029
-571,919	-65,501	-0,189	-0,055
-570,904	-200,000	0,013	0,086
-569,890	33,751	-0,122	-0,078
-568,875	167,399	-0,061	0,064
-567,861	514,862	0,055	-0,094
-566,846	-200,000	-0,003	-0,015
-565,831	65,742	-0,192	-0,142
-564,817	530,094	0,060	-0,104
-563,802	-200,000	-0,006	-0,084
-562,788	158,071	-0,138	0,140
-561,773	800,000	0,040	0,086
-560,758	-40,978	0,073	0,028
-559,744	-31,581	-0,134	-0,055
-558,729	671,009	-0,036	-0,068
-557,715	-200,000	0,023	-0,131
-556,700	800,000	0,041	-0,127
-555,685	-96,708	-0,103	-0,020
-554,671	-200,000	-0,001	0,054
-553,656	-42,660	0,106	0,039
-552,642	184,181	-0,078	-0,085
-551,627	105,291	0,068	0,058
-550,612	-79,568	-0,109	0,027
-549,598	800,000	0,019	0,052
-548,583	280,769	0,071	0,093
-547,569	6,736	-0,015	-0,008
-546,554	63,656	0,042	-0,031
-545,539	800,000	0,040	0,097
-544,525	800,000	0,049	-0,103
-543,510	-110,256	-0,062	-0,009
-542,496	-200,000	0,006	-0,029
-541,481	800,000	0,016	0,047
-540,466	-200,000	0,014	-0,101
-539,452	-200,000	-0,027	0,172
-538,437	208,273	0,076	0,087
-537,423	605,266	-0,055	0,100
-536,408	-36,397	-0,083	-0,032
-535,393	-62,337	0,050	-0,015
-534,379	318,032	0,161	-0,223
-533,364	-200,000	-0,001	0,127
-532,350	420,661	-0,019	-0,029
-531,335	347,798	-0,097	0,140
-530,321	-175,127	0,135	-0,003
-529,306	20,871	-0,024	-0,014
-528,291	-200,000	0,033	-0,120
-527,277	-116,625	-0,165	-0,022
-526,262	-118,711	-0,067	0,009
-525,248	800,000	0,019	0,058
-524,233	-144,722	0,103	-0,007
-523,218	403,434	-0,042	0,066
-522,204	-114,332	-0,147	-0,020
-521,189	800,000	0,069	-0,141
-520,175	565,805	-0,029	-0,052
-519,160	158,645	-0,079	-0,080
-518,145	-200,000	0,023	-0,077
-517,131	140,776	-0,033	0,032
-516,116	800,000	-0,034	0,101
-515,102	-200,000	0,005	-0,027
-514,087	-200,000	0,008	-0,047
-513,072	183,861	-0,119	-0,129
-512,058	-122,502	-0,054	-0,006
-511,043	6,865	0,189	0,103
-510,029	793,311	0,054	0,110
-509,014	496,672	0,075	-0,126
-507,999	-161,703	0,098	0,004
-506,985	145,192	-0,110	-0,107
-505,970	-46,067	-0,111	0,040
-504,956	-114,948	-0,033	-0,005
-503,941	438,288	0,052	0,083
-502,926	-200,000	-0,016	0,149
-501,912	-200,000	-0,001	0,084
-500,897	65,732	0,115	-0,085
-499,883	800,000	-0,024	-0,076
-498,868	221,119	-0,042	-0,049
-497,853	29,091	-0,103	-0,064
-496,839	524,970	0,023	0,040
-495,824	494,868	0,020	-0,034
-494,810	-200,000	0,019	-0,111
-493,795	800,000	0,041	0,127
-492,781	92,990	0,098	0,081
-491,766	-200,000	0,009	0,061
-490,751	800,000	-0,033	-0,077
-489,737	-200,000	-0,027	-0,087
-488,722	546,263	-0,062	0,109
-487,708	104,086	0,109	0,094
-486,693	800,000	0,012	-0,032
-485,678	-99,944	0,093	0,017
-484,664	427,634	0,048	0,076
-483,649	176,575	-0,077	-0,082
-482,635	650,664	0,052	0,097
-481,620	-98,113	0,070	-0,013
-480,605	-52,287	0,048	-0,016
-479,591	-200,000	0,005	-0,077
-478,576	-19,586	-0,028	0,012
-477,562	800,000	0,042	-0,101
-476,547	110,836	-0,143	-0,126
-475,532	181,542	0,055	0,059
-474,518	-200,000	0,018	0,087
-473,503	199,728	-0,067	-0,075
-472,489	795,288	0,061	-0,122
-471,474	186,008	-0,049	-0,053
-470,459	37,816	0,069	-0,044
-469,445	143,129	-0,151	0,147
-468,430	493,927	-0,055	-0,093
-467,416	172,570	-0,080	0,084
-466,401	-177,738	0,218	0,004
-465,386	-57,218	0,012	0,004
-464,372	-66,473	0,172	0,049
-463,357	-16,233	-0,117	0,054
-462,343	-200,000	0,002	0,029
-461,328	36,591	-0,128	0,082
-460,313	487,144	-0,011	0,018
-459,299	479,066	-0,060	0,099
-458,284	49,221	-0,076	-0,052
-457,270	2,898	0,081	0,043
-456,255	583,663	-0,038	0,068
-455,241	691,441	-0,034	-0,064
-454,226	70,410	0,011	0,008
-453,211	-200,000	-0,000	-0,051
-452,197	800,000	0,049	-0,137
-451,182	95,782	0,080	0,067
-450,168	46,106	-0,173	0,116
-449,153	44,413	-0,034	0,023
-448,138	38,871	0,084	-0,055
-447,124	-200,000	0,013	0,117
-446,109	-92,526	-0,037	-0,007
-445,095	-48,759	0,104	-0,036
-444,080	-86,051	-0,120	-0,027
-443,065	-159,196	0,011	0,000
-442,051	90,177	0,023	-0,019
-441,036	800,000	0,052	0,125
-440,022	-200,000	-0,016	-0,078
-439,007	97,127	0,032	0,026
-437,992	-130,549	0,128	0,012
-436,978	-63,001	-0,071	0,021
-435,963	800,000	0,016	0,051
-434,949	295,652	-0,043	0,057
-433,934	800,000	-0,074	-0,161
-432,919	-108,428	0,115	-0,018
-431,905	-148,689	0,097	-0,006
-430,890	-120,270	0,118	-0,014
-429,876	2,935	0,075	0,039
-428,861	-97,416	0,093	-0,017
-427,846	29,561	0,031	-0,019
-426,832	407,850	-0,053	-0,082
-425,817	186,389	0,058	0,063
-424,803	-51,306	0,106	0,036
-423,788	-78,264	-0,073	-0,018
-422,773	-110,146	0,086	0,013
-421,759	785,784	0,060	-0,121
-420,744	674,759	-0,015	-0,028
-419,730	-200,000	0,006	-0,033
-418,715	800,000	-0,049	-0,099
-417,701	32,954	0,045	0,028
-416,686	81,954	0,080	-0,063
-415,671	-200,000	0,050	0,165
-414,657	-200,000	0,012	0,074
-413,642	17,749	-0,003	0,002
-412,628	800,000	-0,069	0,150
-411,613	128,574	0,094	-0,087
-410,598	-200,000	-0,001	0,006
-409,584	662,999	0,041	0,077
-408,569	93,507	0,135	0,111
-407,555	-200,000	0,028	0,105
-406,540	800,000	-0,056	0,124
-405,525	226,778	-0,053	-0,063
-404,511	-45,602	-0,094	-0,034
-403,496	800,000	-0,039	0,088
-402,482	-55,849	0,047	0,015
-401,467	44,872	0,110	0,074
-400,452	-35,103	0,023	0,009
-399,438	-155,320	0,136	-0,006
-398,423	-84,922	-0,100	-0,023
-397,409	214,139	0,050	0,058
-396,394	-136,834	-0,018	-0,001
-395,379	66,479	0,141	0,104
-394,365	-87,800	0,142	0,031
-393,350	-145,634	-0,051	-0,003
-392,336	50,232	0,116	0,079
-391,321	112,093	0,024	0,021
-390,306	146,854	0,078	0,076
-389,292	-75,816	-0,027	0,007
-388,277	-99,220	0,070	0,013
-387,263	93,335	0,118	0,097
-386,248	23,516	0,076	-0,046
-385,233	-50,520	0,110	-0,037
-384,219	-20,913	0,191	0,085
-383,204	-200,000	0,003	-0,032
-382,190	76,738	-0,072	-0,055
-381,175	37,191	0,094	-0,061
-380,160	-56,673	-0,068	-0,022
-379,146	50,012	0,129	0,088
-378,131	-135,109	-0,079	0,007
-377,117	-1,527	-0,057	-0,029
-376,102	427,038	0,036	-0,057
-375,088	-200,000	0,002	-0,036
-374,073	-189,581	0,024	-0,000
-373,058	797,586	0,029	0,058
-372,044	-200,000	0,002	-0,097
-371,029	800,000	0,052	-0,141
-370,015	55,238	-0,156	0,109
-369,000	138,216	0,026	0,025
-367,985	87,445	0,124	-0,100
-366,971	-19,454	0,081	-0,036
-365,956	-11,782	0,083	0,039
-364,942	116,250	0,111	0,098
-363,927	571,303	0,054	0,097
-362,912	-200,000	-0,004	-0,031
-361,898	251,787	-0,089	-0,110
-360,883	-200,000	0,011	0,045
-359,869	-171,247	-0,078	0,002
-358,854	-6,730	0,086	0,042
-357,839	297,220	0,046	0,061
-356,825	-145,845	0,074	0,005
-355,810	101,162	-0,071	0,060
-354,796	295,492	0,026	0,034
-353,781	-200,000	-0,019	-0,120
-352,766	-75,018	-0,071	0,018
-351,752	145,263	0,084	0,082
-350,737	-74,218	-0,094	0,025
-349,723	574,831	0,068	0,122
-348,708	-200,000	-0,003	0,079
-347,693	34,201	-0,073	0,046
-346,679	-142,493	0,043	-0,003
-345,664	327,655	0,048	-0,067
-344,650	-64,289	-0,132	0,039
-343,635	-58,366	0,068	0,021
-342,620	49,542	0,079	-0,054
-341,606	-200,000	0,008	0,086
-340,591	-200,000	0,000	-0,035
-339,577	-71,546	-0,190	0,051
-338,562	800,000	-0,010	-0,020
-337,548	-200,000	-0,015	-0,126
-336,533	197,331	0,029	-0,032
-335,518	-200,000	0,012	0,089
-334,504	-62,781	-0,058	0,017
-333,489	800,000	-0,036	-0,079
-332,475	-200,000	-0,034	-0,114
-331,460	91,811	0,096	-0,078
-330,445	33,248	-0,105	-0,066
-329,431	800,000	-0,111	0,250
-328,416	63,558	0,136	-0,099
-327,402	55,421	0,105	-0,074
-326,387	301,043	-0,073	0,098
-325,372	-200,000	-0,043	-0,139
-324,358	97,374	-0,068	-0,057
-323,343	800,000	-0,078	-0,157
-322,329	132,283	0,079	0,074
-321,314	234,680	-0,024	-0,029
-320,299	3,025	0,157	0,082
-319,285	382,338	-0,031	0,047
-318,270	800,000	0,030	-0,076
-317,256	-200,000	0,005	-0,037
-316,241	109,082	-0,105	0,091
-315,226	-53,714	0,079	0,026
-314,212	-36,631	0,069	0,027
-313,197	-200,000	-0,009	-0,076
-312,183	-125,255	0,051	-0,006
-311,168	-55,145	0,091	0,029
-310,153	-200,000	-0,001	0,033
-309,139	277,976	-0,027	0,035
-308,124	-200,000	-0,020	-0,071
-307,110	-48,741	-0,062	0,021
-306,095	8,704	-0,091	0,049
-305,080	78,989	0,020	0,015
-304,066	-35,239	-0,086	0,034
-303,051	7,678	0,037	0,020
-302,037	-200,000	0,018	0,081
-301,022	141,922	0,099	0,095
-300,008	-200,000	-0,012	0,203
-298,993	120,440	0,072	0,065
-297,978	122,182	-0,139	-0,125
-296,964	-200,000	0,019	0,114
-295,949	800,000	0,030	0,097
-294,935	260,610	0,005	0,007
-293,920	-154,098	-0,077	-0,004
-292,905	115,531	0,154	-0,136
-291,891	20,653	0,062	0,036
-290,876	3,318	-0,129	-0,068
-289,862	42,478	-0,121	-0,079
-288,847	-121,820	-0,051	0,006
-287,832	-64,521	0,101	-0,030
-286,818	59,277	-0,049	-0,035
-285,803	-200,000	-0,029	-0,171
-284,789	17,886	0,104	-0,060
-283,774	113,512	0,086	0,075
-282,759	-200,000	-0,013	-0,096
-281,745	-91,112	-0,083	0,017
-280,730	-200,000	-0,003	-0,056
-279,716	426,498	-0,066	0,103
-278,701	-192,581	0,070	0,000
-277,686	77,892	-0,148	0,114
-276,672	-34,939	-0,059	0,023
-275,657	21,723	0,035	0,021
-274,643	555,310	-0,075	0,131
-273,628	256,321	0,077	0,096
-272,613	-29,254	0,068	-0,028
-271,599	56,233	-0,018	-0,013
-270,584	-55,502	0,090	0,029
-269,570	142,625	0,082	0,079
-268,555	22,293	0,112	0,066
-267,540	-200,000	-0,022	-0,142
-266,526	374,880	-0,080	-0,119
-265,511	800,000	0,019	0,047
-264,497	150,138	0,107	0,105
-263,482	253,120	-0,039	-0,048
-262,467	95,889	-0,067	0,056
-261,453	-200,000	0,006	0,167
-260,438	273,499	-0,044	0,057
-259,424	-165,335	-0,058	0,002
-258,409	358,670	-0,046	-0,067
-257,395	800,000	-0,054	-0,136
-256,380	-32,762	0,137	-0,055
-255,365	-200,000	0,012	-0,076
-254,351	638,307	-0,030	-0,055
-253,336	-13,300	-0,112	-0,052
-252,322	208,203	-0,050	-0,056
-251,307	76,838	-0,090	-0,069
-250,292	-81,668	-0,043	-0,010
-249,278	-200,000	0,013	0,078
-248,263	-128,360	-0,149	-0,015
-247,249	-99,617	0,119	0,021
-246,234	766,927	-0,047	0,094
-245,219	-24,443	-0,045	-0,019
-244,205	59,316	-0,084	-0,060
-243,190	800,000	0,051	-0,102
-242,176	-103,923	0,078	-0,013
-241,161	427,689	-0,042	-0,065
-240,146	800,000	-0,061	0,144
-239,132	-179,176	0,029	-0,000
-238,117	437,198	-0,025	-0,039
-237,103	150,772	0,110	-0,108
-236,088	377,954	-0,096	-0,142
-235,073	434,540	0,062	0,097
-234,059	-153,940	0,124	-0,006
-233,044	0,639	0,019	0,010
-232,030	154,010	0,102	-0,101
-231,015	183,414	-0,093	-0,099
-230,000	339,689	-0,025	-0,035
-228,986	361,858	-0,056	-0,081
-227,971	-200,000	-0,001	0,070
-226,957	36,992	-0,055	0,035
-225,942	70,091	-0,073	0,054
-224,927	306,595	-0,034	0,046
-223,913	-72,533	-0,106	-0,028
-222,898	302,843	-0,061	-0,082
-221,884	192,684	-0,032	-0,035
-220,869	-200,000	0,026	0,156
-219,855	800,000	-0,060	0,131
-218,840	-82,952	0,119	0,028
-217,825	-84,096	-0,062	0,014
-216,811	800,000	0,049	0,120
-215,796	800,000	-0,028	0,073
-214,782	109,167	-0,025	0,022
-213,767	-200,000	0,022	0,086
-212,752	-43,562	0,033	-0,012
-211,738	-85,832	0,115	-0,025
-210,723	-200,000	-0,021	0,100
-209,709	-27,697	-0,097	0,041
-208,694	-143,219	-0,105	-0,007
-207,679	-95,869	0,112	0,021
-206,665	-14,859	0,054	0,025
-205,650	24,075	0,058	0,034
-204,636	618,577	-0,029	-0,053
-203,621	-53,964	-0,015	0,005
-202,606	-200,000	0,001	0,134
-201,592	-3,834	-0,084	-0,042
-200,577	-16,085	0,043	0,020
-199,563	36,857	0,084	-0,053
-198,548	47,495	-0,029	-0,019
-197,533	800,000	-0,072	0,145
-196,519	82,288	0,088	-0,069
-195,504	-84,061	-0,266	-0,060
-194,490	-68,654	0,137	-0,038
-193,475	-200,000	-0,005	-0,042
-192,460	-200,000	0,002	-0,017
-191,446	-64,564	0,078	0,023
-190,431	800,000	0,020	-0,064
-189,417	-84,910	0,022	-0,005
-188,402	99,443	-0,105	-0,088
-187,387	-200,000	-0,004	-0,062
-186,373	-119,636	0,062	-0,008
-185,358	63,308	-0,030	-0,022
-184,344	502,670	0,097	0,163
-183,329	35,271	0,088	-0,056
-182,315	-94,321	-0,064	-0,012
-181,300	800,000	-0,048	-0,112
-180,285	800,000	-0,082	-0,194
-179,271	-200,000	0,003	-0,156
-178,256	4,879	-0,157	-0,083
-177,242	287,462	0,054	0,071
-176,227	42,840	0,005	0,003
-175,212	123,716	-0,082	0,075
-174,198	232,133	-0,013	-0,015
-173,183	51,405	0,070	-0,048
-172,169	41,229	-0,149	-0,097
-171,154	164,140	-0,083	0,084
-170,139	214,998	-0,053	0,060
-169,125	800,000	0,015	-0,042
-168,110	116,190	-0,057	0,050
-167,096	31,478	-0,141	-0,087
-166,081	-46,918	0,100	-0,035
-165,066	298,010	-0,055	-0,073
-164,052	-108,709	0,147	-0,022
-163,037	-138,775	-0,047	-0,004
-162,023	-150,060	0,065	-0,004
-161,008	800,000	0,044	0,124
-159,993	111,247	0,082	-0,072
-158,979	-200,000	0,002	-0,182
-157,964	-82,806	-0,089	-0,021
-156,950	-200,000	0,024	-0,092
-155,935	800,000	-0,066	-0,163
-154,920	470,464	0,032	0,051
-153,906	216,151	-0,022	-0,025
-152,891	-200,000	-0,012	-0,085
-151,877	20,146	-0,061	0,035
-150,862	-200,000	-0,020	-0,188
-149,847	242,921	-0,073	0,089
-148,833	-200,000	-0,000	-0,027
-147,818	-47,032	0,047	0,016
-146,804	-173,037	0,138	-0,003
-145,789	780,833	-0,050	-0,098
-144,775	800,000	0,052	-0,146
-143,760	-58,607	-0,086	-0,027
-142,745	800,000	0,065	-0,163
-141,731	377,731	0,010	0,015
-140,716	-38,442	0,103	0,039
-139,702	133,567	0,055	-0,051
-138,687	99,503	-0,077	0,064
-137,672	183,470	0,059	0,063
-136,658	-157,770	-0,222	0,009
-135,643	-98,848	0,047	-0,009
-134,629	38,907	-0,039	0,025
-133,614	-200,000	0,009	0,127
-132,599	800,000	-0,066	0,148
-131,585	36,691	0,071	-0,045
-130,570	800,000	0,021	0,059
-129,556	800,000	-0,021	-0,044
-128,541	137,091	-0,041	-0,038
-127,526	361,644	0,081	0,117
-126,512	-200,000	-0,004	-0,059
-125,497	-52,225	0,069	-0,023
-124,483	800,000	0,033	0,070
-123,468	800,000	0,045	-0,117
-122,453	-58,120	0,137	-0,043
-121,439	120,565	-0,107	-0,096
-120,424	119,596	0,035	-0,031
-119,410	64,926	-0,042	-0,030
-118,395	301,795	-0,073	0,097
