DTS Sentinel unit serial number:	SN410029Multiplexer serial number:	ORYXHardware model number:	OX2-SRSoftware version number:	ORYX F/W v4,00 Oryx Data Collector v3.7.2.0data status	okinstallation	B5 Nyhavnadifferential loss correction	single-endedforward channel	channel 2reverse channel	N/Adate	2023/12/14time	05:02:13forward acquisition time	300,00reverse acquisition time	0,00gamma	499,1914k internal	0,3157k external	0,3157temperature offset calibration	1,0000default loss term (dB/km)	0,3820temperature slope calibration	1,0000multiplexer offset coefficient	1,0000multiplexer slope coefficient	1,0000fibre end	0,00T internal ref (°C)	7,83T ext. ref 1 (°C)	-8,73T ext. ref 2 (°C)	-8,81length (m)	temperature (°C)	Stokes	anti-Stokes-744,400	112,979	0,103	0,092
-743,385	-130,612	-0,282	-0,028
-742,371	-40,695	0,186	0,071
-741,356	-94,451	-0,222	-0,044
-740,342	122,722	0,153	0,141
-739,327	-139,921	-0,478	0,037
-738,312	70,590	0,160	0,122
-737,298	-90,239	-0,435	-0,092
-736,283	-34,178	0,166	0,067
-735,269	-149,292	-0,250	0,014
-734,254	28,815	0,281	0,175
-733,239	21,261	-0,443	-0,264
-732,225	108,100	0,202	0,177
-731,210	-200,000	0,004	-0,034
-730,196	100,800	-0,051	-0,043
-729,181	-183,386	-0,069	-0,001
-728,167	-90,650	0,118	-0,025
-727,152	-88,315	0,101	-0,022
-726,137	-97,980	-0,094	-0,018
-725,123	12,887	0,105	-0,060
-724,108	-200,000	-0,008	0,050
-723,094	800,000	-0,031	0,069
-722,079	211,910	0,092	-0,107
-721,064	135,985	-0,020	0,019
-720,050	147,503	-0,079	0,079
-719,035	-35,417	0,070	-0,028
-718,021	101,591	-0,063	0,054
-717,006	592,788	-0,052	-0,095
-715,991	491,946	-0,082	-0,139
-714,977	-200,000	0,021	-0,087
-713,962	43,070	-0,123	0,083
-712,948	39,704	0,071	-0,047
-711,933	247,235	0,081	-0,101
-710,918	42,589	-0,018	-0,012
-709,904	336,449	-0,137	-0,196
-708,889	-200,000	0,012	0,053
-707,875	706,898	0,031	-0,060
-706,860	-94,036	-0,033	0,007
-705,845	156,279	0,028	0,029
-704,831	58,933	0,090	0,065
-703,816	24,834	-0,097	-0,059
-702,802	-109,677	-0,096	0,015
-701,787	473,476	-0,034	-0,056
-700,772	-200,000	-0,014	-0,100
-699,758	-200,000	-0,026	-0,114
-698,743	469,045	-0,010	0,016
-697,729	-90,239	-0,139	-0,029
-696,714	252,311	0,077	-0,097
-695,699	58,811	-0,016	-0,012
-694,685	141,034	-0,141	-0,138
-693,670	-200,000	0,050	-0,167
-692,656	10,979	0,032	-0,018
-691,641	800,000	0,045	0,094
-690,627	-200,000	-0,010	-0,046
-689,612	339,054	-0,035	-0,051
-688,597	239,156	-0,079	-0,096
-687,583	-200,000	-0,002	-0,170
-686,568	-71,048	-0,049	0,014
-685,554	218,772	0,033	0,039
-684,539	545,138	-0,022	-0,039
-683,524	-200,000	-0,023	0,078
-682,510	120,991	-0,049	0,045
-681,495	78,535	-0,150	0,118
-680,481	41,700	0,092	0,061
-679,466	800,000	-0,028	-0,080
-678,451	154,512	-0,036	0,036
-677,437	461,952	-0,057	0,093
-676,422	13,767	-0,041	-0,023
-675,408	228,507	-0,117	-0,141
-674,393	16,808	0,052	-0,030
-673,378	-100,382	-0,210	-0,038
-672,364	335,631	0,059	-0,085
-671,349	360,956	0,077	-0,114
-670,335	174,558	0,059	0,063
-669,320	13,974	0,114	0,065
-668,305	105,037	0,039	-0,034
-667,291	-67,061	-0,098	0,028
-666,276	464,650	0,051	0,084
-665,262	619,845	0,034	-0,063
-664,247	800,000	-0,022	0,053
-663,232	171,370	0,025	-0,027
-662,218	-200,000	0,024	0,090
-661,203	2,493	0,059	-0,031
-660,189	634,708	0,030	-0,056
-659,174	-72,572	0,007	-0,002
-658,159	202,438	-0,046	0,053
-657,145	-200,000	0,006	-0,159
-656,130	221,540	-0,063	0,074
-655,116	-200,000	0,028	-0,148
-654,101	61,971	0,101	-0,074
-653,086	-200,000	-0,001	0,047
-652,072	31,022	0,099	0,062
-651,057	-200,000	0,013	-0,074
-650,043	167,359	-0,134	-0,140
-649,028	-200,000	-0,010	-0,074
-648,014	629,652	-0,072	-0,134
-646,999	-9,415	-0,014	-0,007
-645,984	37,435	0,084	0,054
-644,970	-56,676	-0,146	0,047
-643,955	470,835	-0,042	-0,070
-642,941	250,469	-0,091	0,113
-641,926	-123,291	0,040	0,005
-640,911	-200,000	0,009	-0,031
-639,897	-200,000	-0,026	0,120
-638,882	21,525	0,068	-0,041
-637,868	-41,110	-0,078	-0,030
-636,853	-200,000	0,009	-0,043
-635,838	-200,000	-0,035	-0,143
-634,824	-200,000	-0,008	0,117
-633,809	-200,000	0,004	-0,017
-632,795	83,712	0,150	-0,120
-631,780	-118,394	-0,111	0,014
-630,765	-42,430	0,129	-0,048
-629,751	-200,000	-0,012	-0,124
-628,736	-50,693	-0,053	-0,018
-627,722	-200,000	-0,009	-0,076
-626,707	-54,693	0,087	0,029
-625,692	800,000	-0,026	0,059
-624,678	6,141	-0,060	-0,032
-623,663	-28,798	-0,117	0,049
-622,649	-175,270	-0,079	-0,002
-621,634	-86,475	-0,037	0,008
-620,619	-116,559	0,017	0,002
-619,605	-200,000	0,033	-0,133
-618,590	-43,339	-0,010	0,004
-617,576	-82,218	0,037	0,009
-616,561	235,703	-0,075	-0,091
-615,546	-56,299	-0,123	-0,040
-614,532	658,758	-0,063	-0,119
-613,517	102,007	-0,077	-0,066
-612,503	-35,362	0,131	0,052
-611,488	2,851	-0,048	0,026
-610,474	-101,358	-0,165	0,029
-609,459	60,730	0,131	0,095
-608,444	-200,000	-0,044	-0,202
-607,430	588,712	-0,041	-0,075
-606,415	273,323	0,040	-0,052
-605,401	669,728	-0,032	0,062
-604,386	77,205	0,143	0,111
-603,371	221,132	-0,052	-0,061
-602,357	-200,000	-0,027	0,098
-601,342	-200,000	0,011	-0,113
-600,328	204,747	-0,050	-0,057
-599,313	437,125	0,034	-0,055
-598,298	-148,087	-0,037	0,002
-597,284	-200,000	-0,004	0,052
-596,269	440,287	-0,042	0,067
-595,255	-200,000	-0,016	-0,090
-594,240	800,000	0,017	0,054
-593,225	-200,000	-0,004	-0,016
-592,211	800,000	0,008	0,026
-591,196	63,822	-0,077	0,056
-590,182	-200,000	0,002	0,008
-589,167	153,411	-0,091	0,091
-588,152	319,025	0,070	0,097
-587,138	-4,187	0,050	-0,025
-586,123	212,664	0,098	-0,114
-585,109	-200,000	0,000	0,001
-584,094	-37,141	-0,075	0,029
-583,079	-200,000	-0,011	0,061
-582,065	-5,496	-0,045	-0,023
-581,050	-200,000	-0,020	0,066
-580,036	102,201	0,019	-0,016
-579,021	-20,988	-0,115	0,051
-578,006	-200,000	-0,007	-0,044
-576,992	800,000	-0,014	0,040
-575,977	38,399	0,065	-0,043
-574,963	56,368	0,069	0,049
-573,948	13,376	-0,183	-0,103
-572,934	-165,413	0,038	-0,001
-571,919	110,809	0,071	-0,062
-570,904	800,000	0,017	-0,042
-569,890	299,922	-0,030	0,040
-568,875	336,570	0,085	0,122
-567,861	-200,000	0,015	0,057
-566,846	-200,000	0,009	-0,060
-565,831	-200,000	0,003	-0,048
-564,817	126,165	0,080	-0,074
-563,802	115,075	0,083	0,074
-562,788	-63,705	-0,121	-0,036
-561,773	9,680	0,084	0,046
-560,758	4,068	-0,033	-0,017
-559,744	49,201	-0,087	0,060
-558,729	169,949	-0,038	-0,039
-557,715	82,522	-0,131	-0,104
-556,700	800,000	-0,019	-0,059
-555,685	-178,813	0,150	0,002
-554,671	-117,559	-0,154	0,020
-553,656	800,000	-0,056	0,121
-552,642	168,227	-0,072	0,075
-551,627	800,000	0,040	0,115
-550,612	0,130	-0,125	0,065
-549,598	-63,320	-0,044	-0,013
-548,583	-200,000	-0,015	0,091
-547,569	-200,000	-0,029	-0,105
-546,554	-13,284	0,106	0,050
-545,539	10,481	0,053	0,030
-544,525	124,551	0,051	0,047
-543,510	-12,998	-0,041	0,019
-542,496	-200,000	-0,010	-0,097
-541,481	-57,748	-0,045	-0,014
-540,466	381,617	0,047	-0,071
-539,452	35,785	-0,154	0,099
-538,437	22,438	0,099	0,059
-537,423	331,461	0,058	0,083
-536,408	82,483	-0,123	-0,097
-535,393	-200,000	0,004	0,015
-534,379	-0,374	0,085	-0,044
-533,364	-169,789	0,010	-0,000
-532,350	130,749	-0,092	0,086
-531,335	-7,888	0,096	-0,047
-530,321	43,321	0,123	0,082
-529,306	55,404	-0,017	-0,012
-528,291	210,872	-0,087	-0,100
-527,277	-76,761	0,047	0,012
-526,262	654,952	0,043	-0,080
-525,248	-20,018	-0,068	0,030
-524,233	800,000	0,037	0,111
-523,218	-200,000	-0,014	0,062
-522,204	-140,977	-0,028	-0,002
-521,189	800,000	0,019	-0,042
-520,175	800,000	0,062	-0,142
-519,160	-200,000	0,000	-0,037
-518,145	66,441	-0,145	0,108
-517,131	89,224	0,079	0,065
-516,116	561,951	0,064	0,114
-515,102	17,920	-0,074	-0,043
-514,087	100,068	0,113	-0,095
-513,072	-74,440	-0,147	0,039
-512,058	168,894	-0,014	-0,015
-511,043	-33,015	0,093	-0,037
-510,029	248,607	-0,030	-0,038
-509,014	30,871	0,116	-0,072
-507,999	800,000	-0,037	0,075
-506,985	-64,186	0,074	-0,022
-505,970	800,000	0,045	-0,123
-504,956	-124,653	-0,123	0,014
-503,941	-47,267	0,093	0,033
-502,926	228,813	0,027	-0,032
-501,912	82,256	0,180	0,143
-500,897	277,513	-0,035	0,045
-499,883	34,175	-0,120	0,076
-498,868	357,501	0,031	-0,045
-497,853	-104,509	0,175	0,029
-496,839	-74,867	-0,157	0,041
-495,824	-200,000	0,020	0,070
-494,810	258,131	-0,055	0,069
-493,795	-57,271	-0,098	-0,031
-492,781	103,048	0,077	-0,066
-491,766	-6,073	0,076	0,038
-490,751	82,672	0,032	0,025
-489,737	77,192	0,092	0,071
-488,722	483,993	0,049	-0,081
-487,708	38,140	0,074	0,048
-486,693	-200,000	0,002	-0,008
-485,678	128,453	-0,079	-0,074
-484,664	-200,000	0,006	-0,039
-483,649	-64,836	0,155	-0,045
-482,635	-74,944	-0,127	0,033
-481,620	417,090	0,081	-0,127
-480,605	-32,349	-0,089	0,036
-479,591	19,804	0,136	0,080
-478,576	14,856	0,033	-0,019
-477,562	2,374	-0,075	0,039
-476,547	86,377	-0,072	-0,058
-475,532	390,889	0,048	0,072
-474,518	120,197	0,081	-0,073
-473,503	800,000	-0,020	-0,055
-472,489	-200,000	-0,011	-0,073
-471,474	-63,592	-0,138	0,041
-470,459	162,713	-0,068	-0,069
-469,445	-79,150	0,126	0,031
-468,430	251,302	-0,031	-0,038
-467,416	172,676	0,077	0,080
-466,401	-200,000	0,002	0,154
-465,386	-200,000	0,012	0,045
-464,372	112,665	0,047	-0,042
-463,357	-78,559	-0,063	0,016
-462,343	73,201	0,112	-0,085
-461,328	497,570	-0,043	0,072
-460,313	-76,329	-0,108	-0,028
-459,299	-200,000	0,027	0,113
-458,284	800,000	-0,027	0,075
-457,270	281,116	-0,048	-0,063
-456,255	-186,656	0,026	-0,000
-455,241	-200,000	-0,012	-0,124
-454,226	-92,391	0,037	0,008
-453,211	-36,878	-0,118	0,046
-452,197	800,000	-0,025	0,062
-451,182	-200,000	-0,013	0,146
-450,168	304,051	0,032	0,044
-449,153	800,000	0,036	-0,096
-448,138	800,000	-0,013	0,038
-447,124	-34,777	0,104	-0,041
-446,109	-200,000	-0,014	-0,054
-445,095	100,771	-0,152	0,129
-444,080	-44,215	0,032	0,012
-443,065	-200,000	-0,013	0,100
-442,051	-47,327	0,101	0,036
-441,036	-116,619	-0,044	-0,006
-440,022	800,000	0,008	-0,021
-439,007	-200,000	-0,000	0,017
-437,992	800,000	-0,033	0,105
-436,978	176,562	-0,071	0,075
-435,963	-0,433	0,077	-0,040
-434,949	-200,000	-0,016	-0,109
-433,934	-36,199	-0,260	-0,102
-432,919	53,694	0,107	0,075
-431,905	111,951	-0,056	0,049
-430,890	225,821	0,035	-0,041
-429,876	85,110	-0,073	-0,058
-428,861	800,000	0,035	0,082
-427,846	441,782	-0,064	0,102
-426,832	800,000	0,057	-0,160
-425,817	-200,000	-0,037	-0,179
-424,803	800,000	0,025	-0,070
-423,788	-200,000	0,015	0,101
-422,773	125,700	0,114	0,105
-421,759	-200,000	-0,005	0,102
-420,744	-200,000	-0,014	-0,112
-419,730	-62,540	-0,062	0,019
-418,715	-110,369	0,028	-0,004
-417,701	120,384	-0,028	-0,025
-416,686	-61,481	0,043	0,013
-415,671	688,357	0,017	-0,033
-414,657	577,096	-0,055	0,098
-413,642	398,415	0,039	0,059
-412,628	605,648	0,044	-0,081
-411,613	800,000	-0,066	-0,134
-410,598	7,169	-0,084	-0,045
-409,584	155,458	0,044	-0,045
-408,569	800,000	0,057	0,130
-407,555	-200,000	-0,007	0,085
-406,540	-200,000	0,010	0,062
-405,525	256,356	-0,009	-0,012
-404,511	44,264	-0,084	0,056
-403,496	148,275	0,023	0,022
-402,482	-14,859	-0,016	-0,007
-401,467	800,000	0,013	-0,029
-400,452	33,368	0,055	0,035
-399,438	800,000	-0,059	0,136
-398,423	21,332	-0,044	-0,026
-397,409	-33,902	-0,011	-0,004
-396,394	-82,257	0,095	-0,022
-395,379	75,793	0,213	0,163
-394,365	35,719	0,040	-0,026
-393,350	259,699	-0,014	-0,018
-392,336	-22,554	-0,079	-0,035
-391,321	112,718	0,040	0,036
-390,306	186,240	-0,071	0,077
-389,292	-169,675	-0,018	-0,000
-388,277	-152,230	-0,063	0,003
-387,263	-23,716	0,067	0,029
-386,248	800,000	-0,021	-0,060
-385,233	-200,000	-0,038	-0,148
-384,219	-32,996	-0,040	0,016
-383,204	254,053	-0,082	-0,102
-382,190	800,000	-0,048	-0,114
-381,175	-139,205	0,044	0,003
-380,160	-200,000	-0,027	0,115
-379,146	-200,000	-0,010	0,119
-378,131	-145,564	-0,089	-0,006
-377,117	-200,000	-0,003	-0,080
-376,102	-200,000	-0,001	-0,010
-375,088	642,622	-0,056	-0,104
-374,073	146,261	-0,061	-0,059
-373,058	289,096	0,063	0,083
-372,044	-200,000	-0,008	0,120
-371,029	-200,000	0,001	0,042
-370,015	34,871	0,034	-0,021
-369,000	-200,000	-0,037	0,162
-367,985	-86,754	-0,212	0,047
-366,971	-186,338	0,123	0,001
-365,956	134,584	0,041	-0,039
-364,942	-200,000	-0,009	-0,116
-363,927	108,665	0,166	0,144
-362,912	-200,000	0,008	0,041
-361,898	-200,000	-0,055	0,222
-360,883	464,968	-0,026	-0,043
-359,869	1,403	0,038	-0,020
-358,854	-86,610	0,067	-0,015
-357,839	-99,742	0,041	0,007
-356,825	425,462	0,081	0,127
-355,810	119,739	0,087	0,078
-354,796	-200,000	-0,016	0,089
-353,781	106,928	-0,085	-0,073
-352,766	800,000	0,014	0,036
-351,752	75,853	0,054	-0,041
-350,737	-200,000	-0,003	0,041
-349,723	-200,000	-0,006	0,060
-348,708	-26,379	0,132	0,056
-347,693	800,000	-0,035	0,091
-346,679	-5,431	0,067	0,033
-345,664	256,621	0,096	-0,120
-344,650	124,322	0,054	-0,050
-343,635	3,129	0,081	-0,043
-342,620	-75,902	-0,030	0,008
-341,606	75,553	0,112	0,086
-340,591	-41,333	0,059	0,022
-339,577	35,021	0,059	-0,038
-338,562	-158,542	0,119	-0,005
-337,548	66,975	0,032	-0,024
-336,533	217,037	0,045	0,052
-335,518	86,838	0,044	-0,035
-334,504	-108,204	0,165	0,026
-333,489	-0,651	-0,036	-0,018
-332,475	-26,114	0,028	-0,012
-331,460	76,253	-0,059	0,045
-330,445	-200,000	0,008	-0,146
-329,431	21,548	-0,026	0,015
-328,416	77,319	-0,075	-0,058
-327,402	102,224	0,133	0,112
-326,387	-22,983	-0,016	0,007
-325,372	462,371	0,016	0,027
-324,358	-200,000	-0,004	0,028
-323,343	227,617	-0,098	0,116
-322,329	2,075	-0,063	-0,033
-321,314	-124,525	-0,035	-0,004
-320,299	-27,259	-0,089	0,037
-319,285	484,620	0,019	-0,031
-318,270	-84,073	-0,166	-0,038
-317,256	-17,904	-0,133	-0,060
-316,241	185,182	-0,015	0,016
-315,226	300,188	0,077	-0,104
-314,212	-200,000	-0,025	0,313
-313,197	-200,000	0,015	0,114
-312,183	15,225	0,120	-0,068
-311,168	-132,030	0,060	-0,006
-310,153	736,615	-0,055	-0,108
-309,139	-112,130	-0,090	-0,013
-308,124	99,543	-0,053	0,044
-307,110	160,874	0,100	0,101
-306,095	131,326	0,044	0,041
-305,080	273,871	0,040	0,051
-304,066	54,063	-0,111	-0,077
-303,051	-80,620	-0,083	-0,020
-302,037	194,640	0,050	-0,056
-301,022	-47,770	0,015	-0,005
-300,008	-155,264	0,062	0,003
-298,993	-85,451	0,042	-0,009
-297,978	467,184	-0,037	0,060
-296,964	-32,412	0,111	-0,045
-295,949	-20,434	-0,051	0,023
-294,935	-200,000	-0,011	-0,107
-293,920	406,073	-0,039	-0,059
-292,905	-104,911	0,065	-0,011
-291,891	46,622	0,107	0,072
-290,876	49,883	-0,022	-0,015
-289,862	-200,000	0,027	-0,103
-288,847	72,115	-0,123	-0,093
-287,832	87,918	0,121	-0,097
-286,818	246,302	0,054	-0,066
-285,803	800,000	0,082	0,237
-284,789	231,728	0,022	-0,027
-283,774	40,656	0,140	-0,091
-282,759	27,755	0,092	0,056
-281,745	-80,805	-0,020	-0,005
-280,730	-21,242	0,081	0,036
-279,716	41,973	0,019	0,012
-278,701	373,464	0,031	-0,045
-277,686	27,482	0,051	-0,031
-276,672	800,000	-0,002	-0,007
-275,657	427,206	0,040	0,062
-274,643	-200,000	-0,003	-0,098
-273,628	-125,776	-0,186	-0,020
-272,613	800,000	0,021	0,052
-271,599	685,817	0,081	-0,153
-270,584	214,857	-0,088	0,101
-269,570	-56,262	0,192	0,061
-268,555	-200,000	-0,013	-0,072
-267,540	-200,000	-0,005	-0,141
-266,526	161,830	-0,087	-0,089
-265,511	-13,360	-0,080	0,037
-264,497	-200,000	-0,006	-0,034
-263,482	-200,000	0,011	0,098
-262,467	-37,731	0,023	0,009
-261,453	800,000	-0,043	0,109
-260,438	-200,000	-0,008	-0,092
-259,424	61,895	0,016	0,012
-258,409	486,954	0,043	-0,071
-257,395	-200,000	0,031	0,132
-256,380	-200,000	0,003	0,158
-255,365	528,925	0,071	0,121
-254,351	-200,000	0,010	0,046
-253,336	55,473	-0,026	-0,018
-252,322	-42,283	-0,106	0,039
-251,307	4,609	-0,064	-0,034
-250,292	800,000	0,044	0,095
-249,278	-33,892	0,154	0,061
-248,263	-78,527	-0,059	0,015
-247,249	17,014	-0,038	-0,022
-246,234	800,000	-0,077	-0,163
-245,219	-44,034	0,123	-0,044
-244,205	40,097	0,103	-0,067
-243,190	53,084	-0,033	0,023
-242,176	-90,609	0,087	0,018
-241,161	-27,627	-0,085	0,035
-240,146	561,180	-0,022	0,038
-239,132	-200,000	0,017	-0,092
-238,117	110,947	-0,124	-0,108
-237,103	-200,000	-0,030	-0,144
-236,088	-143,852	0,064	-0,004
-235,073	800,000	0,026	-0,068
-234,059	800,000	0,027	0,068
-233,044	102,870	0,069	-0,058
-232,030	-106,803	-0,139	-0,022
-231,015	748,857	-0,042	-0,082
-230,000	-200,000	0,000	-0,212
-228,986	471,819	0,017	0,028
-227,971	-190,743	-0,057	0,000
-226,957	25,403	0,023	0,014
-225,942	446,058	0,035	-0,055
-224,927	-19,972	-0,029	0,013
-223,913	589,066	-0,064	-0,114
-222,898	-35,443	-0,006	0,002
-221,884	-200,000	-0,002	-0,036
-220,869	800,000	0,027	-0,074
-219,855	260,156	-0,022	0,027
-218,840	800,000	0,010	-0,032
-217,825	-200,000	0,003	-0,065
-216,811	428,828	-0,062	-0,097
-215,796	161,162	-0,078	-0,079
-214,782	9,990	-0,131	-0,072
-213,767	231,826	0,068	0,081
-212,752	-200,000	-0,001	-0,040
-211,738	-102,809	0,105	-0,018
-210,723	-114,905	-0,055	0,008
-209,709	-163,234	-0,057	-0,002
-208,694	62,926	0,029	-0,021
-207,679	179,723	-0,084	-0,088
-206,665	285,766	0,085	0,111
-205,650	184,100	0,104	0,111
-204,636	-137,869	-0,158	-0,013
-203,621	468,739	0,023	0,038
-202,606	800,000	-0,082	-0,199
-201,592	-200,000	-0,002	-0,013
-200,577	180,686	0,039	-0,042
-199,563	-41,561	0,096	-0,035
-198,548	-134,296	0,114	0,010
-197,533	-200,000	-0,013	0,057
-196,519	-200,000	-0,004	-0,047
-195,504	40,382	-0,095	-0,061
-194,490	-138,515	-0,093	-0,007
-193,475	-101,838	-0,053	0,009
-192,460	-119,323	0,085	0,011
-191,446	800,000	0,046	0,103
-190,431	68,109	0,050	0,037
-189,417	295,783	-0,033	-0,043
-188,402	-103,969	-0,216	0,036
-187,387	-150,735	0,046	0,002
-186,373	796,239	-0,099	-0,198
-185,358	-13,563	0,056	-0,026
-184,344	800,000	-0,023	-0,072
-183,329	-200,000	-0,010	0,049
-182,315	731,472	-0,031	0,061
-181,300	369,670	0,063	-0,093
-180,285	68,840	-0,062	0,046
-179,271	185,254	-0,023	0,025
-178,256	-133,495	0,081	0,007
-177,242	336,550	-0,065	-0,091
-176,227	-162,322	0,108	-0,004
-175,212	-200,000	-0,010	0,102
-174,198	800,000	0,055	0,139
-173,183	-200,000	0,034	-0,176
-172,169	184,670	-0,094	0,100
-171,154	800,000	-0,026	0,057
-170,139	20,597	0,062	0,036
-169,125	-200,000	0,030	-0,105
-168,110	9,231	-0,014	0,008
-167,096	24,296	0,095	-0,056
-166,081	-122,129	-0,110	0,013
-165,066	100,210	-0,121	-0,101
-164,052	-153,654	0,072	-0,003
-163,037	-138,155	0,201	0,016
-162,023	536,480	0,060	-0,103
-161,008	-200,000	-0,006	0,082
-159,993	800,000	-0,015	0,043
-158,979	-53,406	-0,088	0,029
-157,964	77,897	-0,075	-0,058
-156,950	-94,587	-0,148	0,029
-155,935	218,478	0,049	0,057
-154,920	-87,502	0,189	0,041
-153,906	800,000	-0,046	0,132
-152,891	-158,631	-0,074	0,003
-151,877	-82,220	-0,169	-0,039
-150,862	-177,879	-0,019	0,000
-149,847	-180,561	0,055	-0,001
-148,833	800,000	0,022	0,056
-147,818	126,941	0,108	-0,099
-146,804	171,837	0,100	-0,104
-145,789	800,000	-0,037	-0,091
-144,775	800,000	-0,005	-0,011
-143,760	134,176	0,050	-0,047
-142,745	376,862	-0,071	-0,105
-141,731	-19,507	-0,100	0,045
-140,716	355,450	0,014	0,020
-139,702	-157,595	0,078	-0,003
-138,687	-56,378	-0,043	-0,014
-137,672	-200,000	-0,002	-0,019
-136,658	-200,000	-0,005	-0,029
-135,643	145,741	-0,074	-0,071
-134,629	-107,650	-0,129	-0,020
-133,614	-200,000	0,002	-0,072
-132,599	580,068	-0,092	0,164
-131,585	-200,000	-0,028	0,113
-130,570	-116,043	-0,132	-0,017
-129,556	800,000	0,021	0,059
-128,541	-0,999	-0,109	-0,055
-127,526	-200,000	-0,020	0,124
-126,512	-98,500	-0,082	-0,015
-125,497	-70,328	0,005	0,001
-124,483	-40,879	0,087	0,032
-123,468	800,000	0,038	0,103
-122,453	-126,065	-0,183	-0,020
-121,439	-0,203	0,034	-0,017
-120,424	63,982	-0,077	0,056
-119,410	75,467	-0,082	0,062
-118,395	-200,000	0,007	0,072
