DTS Sentinel unit serial number:	SN410029Multiplexer serial number:	ORYXHardware model number:	OX2-SRSoftware version number:	ORYX F/W v4,00 Oryx Data Collector v3.7.2.0data status	okinstallation	B5 Nyhavnadifferential loss correction	single-endedforward channel	channel 2reverse channel	N/Adate	2023/12/12time	15:17:13forward acquisition time	300,00reverse acquisition time	0,00gamma	499,1914k internal	0,3157k external	0,3157temperature offset calibration	1,0000default loss term (dB/km)	0,3820temperature slope calibration	1,0000multiplexer offset coefficient	1,0000multiplexer slope coefficient	1,0000fibre end	0,00T internal ref (°C)	15,93T ext. ref 1 (°C)	-0,40T ext. ref 2 (°C)	-0,67length (m)	temperature (°C)	Stokes	anti-Stokes-744,400	-40,628	0,133	0,051
-743,385	-60,093	-0,234	-0,073
-742,371	-200,000	0,074	0,258
-741,356	-145,177	-0,159	-0,010
-740,342	-159,195	0,229	0,009
-739,327	-196,158	-0,253	-0,001
-738,312	-200,000	-0,010	-0,035
-737,298	-64,582	-0,221	0,066
-736,283	-118,078	0,196	-0,026
-735,269	-117,085	-0,288	0,038
-734,254	-200,000	-0,015	0,068
-733,239	-171,737	-0,421	0,010
-732,225	-75,482	0,209	0,054
-731,210	800,000	-0,046	0,104
-730,196	-98,381	-0,045	0,008
-729,181	349,090	-0,059	-0,086
-728,167	-45,042	-0,074	0,027
-727,152	182,402	0,059	0,064
-726,137	-5,760	-0,033	-0,017
-725,123	-200,000	0,032	-0,129
-724,108	36,624	-0,081	-0,053
-723,094	662,404	-0,069	-0,132
-722,079	-55,156	-0,035	0,011
-721,064	-150,177	-0,033	0,002
-720,050	-200,000	0,017	-0,221
-719,035	800,000	-0,062	-0,183
-718,021	23,049	0,107	-0,065
-717,006	-200,000	-0,130	-0,000
-715,991	-46,905	-0,117	-0,042
-714,977	800,000	-0,093	-0,197
-713,962	-44,009	-0,108	-0,040
-712,948	51,591	0,066	-0,046
-711,933	-2,056	-0,024	-0,012
-710,918	800,000	-0,030	0,072
-709,904	101,927	-0,113	-0,097
-708,889	-24,943	-0,029	-0,012
-707,875	725,739	-0,098	-0,194
-706,860	-123,766	0,088	-0,010
-705,845	800,000	0,059	-0,120
-704,831	38,305	-0,049	-0,032
-703,816	32,051	0,027	-0,017
-702,802	8,206	-0,075	-0,041
-701,787	-200,000	-0,006	-0,250
-700,772	-200,000	0,023	-0,109
-699,758	-56,659	0,063	-0,020
-698,743	-25,547	0,064	-0,028
-697,729	278,058	0,050	-0,066
-696,714	364,284	-0,029	-0,044
-695,699	-32,339	-0,184	0,075
-694,685	-200,000	-0,019	0,082
-693,670	45,371	-0,077	-0,052
-692,656	-133,074	-0,033	0,003
-691,641	21,810	-0,093	-0,056
-690,627	181,985	-0,070	0,076
-689,612	474,693	0,043	0,072
-688,597	32,552	0,063	-0,040
-687,583	-61,032	0,062	-0,019
-686,568	658,940	-0,043	-0,081
-685,554	-5,835	0,111	0,056
-684,539	142,164	-0,071	0,069
-683,524	520,795	-0,014	0,024
-682,510	387,030	-0,014	0,021
-681,495	254,464	0,067	0,085
-680,481	-192,604	-0,142	-0,001
-679,466	-143,060	-0,042	-0,003
-678,451	722,320	-0,009	-0,019
-677,437	210,959	-0,013	0,015
-676,422	-143,023	0,156	0,011
-675,408	46,891	0,135	0,092
-674,393	15,496	-0,115	-0,066
-673,378	-164,884	-0,109	-0,004
-672,364	19,491	0,104	-0,061
-671,349	-200,000	0,011	-0,115
-670,335	800,000	-0,040	0,126
-669,320	-79,297	-0,069	-0,017
-668,305	26,301	0,050	0,031
-667,291	-200,000	-0,028	0,096
-666,276	800,000	0,051	0,110
-665,262	23,317	0,056	-0,034
-664,247	800,000	-0,019	-0,039
-663,232	705,769	0,017	0,034
-662,218	-63,304	0,082	0,025
-661,203	410,200	0,069	0,107
-660,189	159,804	-0,105	-0,107
-659,174	-155,814	-0,095	-0,004
-658,159	150,480	0,053	-0,053
-657,145	317,582	0,041	0,057
-656,130	-13,442	-0,159	-0,076
-655,116	-28,556	-0,110	0,046
-654,101	-200,000	0,041	0,171
-653,086	-200,000	0,011	-0,058
-652,072	693,498	0,035	-0,068
-651,057	34,093	-0,198	-0,126
-650,043	-150,423	0,057	0,003
-649,028	-200,000	-0,057	-0,214
-648,014	568,037	0,013	-0,023
-646,999	431,108	0,029	0,046
-645,984	-50,007	-0,159	0,055
-644,970	-200,000	0,035	-0,122
-643,955	238,828	-0,086	-0,105
-642,941	427,815	-0,109	-0,174
-641,926	-142,985	0,112	-0,008
-640,911	39,980	0,095	0,062
-639,897	-70,600	-0,153	-0,042
-638,882	-200,000	0,011	-0,053
-637,868	-200,000	0,026	-0,179
-636,853	29,080	0,041	-0,025
-635,838	28,976	-0,079	-0,049
-634,824	-200,000	-0,006	0,043
-633,809	775,269	-0,037	0,074
-632,795	800,000	0,020	0,062
-631,780	192,692	0,116	0,128
-630,765	-104,210	-0,039	0,007
-629,751	138,817	0,040	0,038
-628,736	26,675	-0,086	-0,053
-627,722	-24,234	-0,094	-0,041
-626,707	-200,000	0,009	-0,054
-625,692	102,832	0,045	0,039
-624,678	122,211	-0,050	-0,046
-623,663	-71,544	-0,062	0,017
-622,649	133,037	-0,066	0,063
-621,634	269,815	-0,065	-0,084
-620,619	-23,257	-0,130	0,057
-619,605	-166,108	-0,062	-0,002
-618,590	238,858	0,016	0,019
-617,576	-25,367	0,081	0,035
-616,561	-121,694	-0,219	0,026
-615,546	143,820	-0,011	-0,010
-614,532	-200,000	0,034	-0,174
-613,517	-61,070	0,041	0,013
-612,503	-126,997	0,049	-0,005
-611,488	281,013	-0,033	-0,044
-610,474	-200,000	-0,001	-0,032
-609,459	387,310	-0,037	0,056
-608,444	800,000	0,007	-0,017
-607,430	800,000	0,007	0,020
-606,415	-42,589	-0,057	-0,021
-605,401	-144,302	-0,148	0,010
-604,386	684,832	-0,053	0,102
-603,371	-103,282	0,090	-0,015
-602,357	-200,000	-0,030	0,150
-601,342	34,344	0,016	-0,010
-600,328	-116,701	-0,128	0,017
-599,313	800,000	0,010	0,032
-598,298	36,448	0,046	-0,030
-597,284	720,128	0,021	0,042
-596,269	448,943	-0,057	-0,093
-595,255	70,093	-0,090	-0,068
-594,240	-6,418	-0,211	-0,105
-593,225	800,000	-0,019	-0,043
-592,211	2,732	-0,126	-0,067
-591,196	88,687	0,134	0,109
-590,182	129,957	-0,029	-0,027
-589,167	-146,204	-0,077	0,005
-588,152	-70,051	0,067	0,019
-587,138	24,930	-0,013	-0,008
-586,123	-117,417	-0,120	-0,016
-585,109	479,945	-0,068	0,113
-584,094	-27,662	-0,054	-0,023
-583,079	-200,000	0,001	0,018
-582,065	259,508	0,094	0,119
-581,050	-200,000	0,003	-0,017
-580,036	264,979	-0,050	-0,063
-579,021	-3,542	-0,067	0,034
-578,006	800,000	-0,035	-0,102
-576,992	-200,000	-0,002	0,041
-575,977	-77,980	0,045	0,011
-574,963	800,000	0,060	0,139
-573,948	-57,212	0,060	0,019
-572,934	-52,563	-0,139	0,047
-571,919	-200,000	-0,011	-0,049
-570,904	-51,601	-0,046	-0,016
-569,890	-130,854	-0,012	0,001
-568,875	210,707	-0,034	-0,039
-567,861	-156,553	0,081	-0,004
-566,846	-73,310	-0,106	0,028
-565,831	69,154	-0,042	0,031
-564,817	432,684	-0,014	-0,023
-563,802	217,501	0,080	-0,094
-562,788	312,962	-0,096	-0,133
-561,773	-10,533	0,128	0,062
-560,758	680,037	0,064	-0,124
-559,744	1,178	-0,072	-0,038
-558,729	145,987	0,084	-0,082
-557,715	-144,998	-0,132	0,009
-556,700	229,981	-0,048	-0,058
-555,685	411,492	-0,074	-0,115
-554,671	-47,524	-0,009	0,003
-553,656	-21,550	0,127	0,057
-552,642	-16,162	0,048	-0,022
-551,627	-79,285	-0,112	-0,028
-550,612	-38,229	0,099	-0,038
-549,598	-131,037	-0,044	-0,004
-548,583	6,183	-0,089	-0,048
-547,569	-83,422	0,160	-0,037
-546,554	59,202	-0,079	-0,057
-545,539	-134,687	-0,036	-0,003
-544,525	118,796	-0,065	-0,059
-543,510	492,022	0,059	0,100
-542,496	88,229	-0,045	-0,036
-541,481	-50,385	0,136	-0,047
-540,466	88,932	0,124	-0,101
-539,452	5,722	-0,089	0,048
-538,437	298,931	0,081	0,110
-537,423	-15,860	-0,069	0,032
-536,408	-200,000	0,011	-0,075
-535,393	73,344	-0,093	-0,071
-534,379	800,000	-0,017	0,039
-533,364	122,999	-0,070	-0,064
-532,350	251,745	0,135	0,169
-531,335	9,653	-0,057	0,032
-530,321	532,035	0,057	0,099
-529,306	-200,000	-0,018	0,133
-528,291	53,501	-0,051	0,035
-527,277	-200,000	-0,008	-0,041
-526,262	214,947	-0,020	0,024
-525,248	79,166	-0,052	-0,040
-524,233	-200,000	0,007	-0,060
-523,218	-43,296	-0,014	-0,005
-522,204	-170,306	-0,074	0,002
-521,189	-90,732	-0,103	-0,021
-520,175	800,000	-0,051	-0,134
-519,160	378,874	-0,080	-0,120
-518,145	-62,860	-0,044	-0,013
-517,131	-200,000	0,029	0,104
-516,116	-63,548	-0,048	0,014
-515,102	124,429	-0,005	-0,004
-514,087	182,442	-0,072	0,078
-513,072	223,364	-0,104	-0,122
-512,058	-200,000	0,020	0,164
-511,043	-39,835	-0,046	0,017
-510,029	189,741	-0,026	0,029
-509,014	-44,710	-0,065	0,024
-507,999	540,866	0,043	0,075
-506,985	208,719	0,079	0,090
-505,970	-200,000	-0,021	-0,079
-504,956	265,744	-0,026	-0,033
-503,941	-49,314	-0,043	0,015
-502,926	500,617	-0,066	0,112
-501,912	56,512	0,034	-0,024
-500,897	189,196	0,044	0,048
-499,883	-137,483	-0,115	-0,009
-498,868	134,250	0,074	-0,070
-497,853	-200,000	0,025	-0,149
-496,839	800,000	-0,043	-0,122
-495,824	-42,568	-0,062	0,023
-494,810	-146,241	0,049	-0,003
-493,795	102,602	0,025	0,021
-492,781	1,769	-0,057	-0,030
-491,766	-190,452	0,103	0,001
-490,751	584,423	-0,061	0,110
-489,737	800,000	0,034	-0,101
-488,722	224,650	-0,053	-0,062
-487,708	-200,000	0,012	0,050
-486,693	96,987	0,093	-0,078
-485,678	291,521	0,063	-0,083
-484,664	781,874	0,037	-0,075
-483,649	-70,372	-0,024	0,007
-482,635	466,132	-0,028	0,046
-481,620	800,000	-0,046	0,106
-480,605	-81,869	0,154	0,037
-479,591	-135,501	-0,046	0,004
-478,576	114,288	-0,045	-0,040
-477,562	198,884	-0,055	-0,062
-476,547	-200,000	-0,011	-0,135
-475,532	16,345	-0,133	0,076
-474,518	110,414	0,080	0,070
-473,503	443,101	-0,060	0,096
-472,489	735,950	-0,039	0,077
-471,474	-200,000	0,028	-0,188
-470,459	800,000	0,029	-0,074
-469,445	125,505	-0,077	-0,071
-468,430	-200,000	-0,013	0,091
-467,416	33,650	-0,038	-0,024
-466,401	-120,437	-0,046	0,006
-465,386	750,479	0,093	0,184
-464,372	-62,380	-0,074	-0,022
-463,357	144,563	0,004	0,004
-462,343	413,814	-0,033	-0,051
-461,328	15,099	0,076	0,043
-460,313	740,899	-0,040	0,080
-459,299	-135,842	0,130	0,011
-458,284	1,997	0,094	0,049
-457,270	-37,916	0,074	-0,029
-456,255	550,232	-0,031	-0,055
-455,241	-88,550	0,052	0,011
-454,226	562,180	-0,037	0,065
-453,211	92,307	0,089	-0,073
-452,197	800,000	0,025	-0,080
-451,182	-200,000	0,008	0,041
-450,168	-28,677	0,152	0,063
-449,153	-70,796	-0,024	-0,007
-448,138	-17,700	-0,105	-0,048
-447,124	97,031	0,054	0,045
-446,109	171,631	-0,039	0,041
-445,095	190,963	-0,035	0,038
-444,080	159,092	-0,057	-0,057
-443,065	800,000	-0,036	0,076
-442,051	800,000	-0,025	-0,065
-441,036	-60,306	0,100	0,031
-440,022	15,017	-0,056	0,032
-439,007	-41,001	-0,045	-0,017
-437,992	768,837	0,048	0,095
-436,978	41,631	-0,062	-0,041
-435,963	113,859	0,068	-0,061
-434,949	-144,577	-0,105	-0,007
-433,934	-67,245	0,159	0,045
-432,919	-9,869	-0,081	-0,039
-431,905	-200,000	0,029	0,156
-430,890	63,996	-0,038	0,028
-429,876	-109,099	0,067	0,010
-428,861	-28,643	0,060	-0,025
-427,846	-200,000	0,004	0,030
-426,832	224,729	-0,029	0,034
-425,817	800,000	0,039	-0,090
-424,803	133,686	0,060	0,057
-423,788	175,786	0,125	0,132
-422,773	473,129	0,054	0,089
-421,759	-200,000	0,036	0,157
-420,744	-54,217	-0,054	-0,018
-419,730	-200,000	-0,023	0,139
-418,715	-113,099	-0,155	0,022
-417,701	108,211	0,068	-0,059
-416,686	-40,618	0,110	-0,041
-415,671	-200,000	0,018	-0,124
-414,657	43,269	0,150	0,100
-413,642	800,000	-0,064	0,159
-412,628	-111,366	-0,029	0,004
-411,613	-33,367	0,025	-0,010
-410,598	-200,000	-0,028	-0,127
-409,584	-96,496	0,089	0,017
-408,569	34,859	0,088	-0,056
-407,555	800,000	0,076	0,161
-406,540	-200,000	0,017	0,065
-405,525	-124,034	0,047	0,005
-404,511	465,118	0,048	-0,078
-403,496	271,740	0,074	0,096
-402,482	515,703	0,026	0,045
-401,467	426,585	0,067	0,105
-400,452	-168,009	0,061	-0,002
-399,438	-200,000	0,024	0,081
-398,423	42,996	-0,030	0,020
-397,409	-73,312	-0,044	-0,012
-396,394	384,058	0,056	0,084
-395,379	111,760	0,006	-0,005
-394,365	29,755	0,192	0,119
-393,350	106,450	-0,041	-0,036
-392,336	-13,732	0,110	0,052
-391,321	21,590	0,077	0,046
-390,306	456,226	0,082	0,132
-389,292	127,346	0,081	-0,075
-388,277	421,380	-0,043	-0,068
-387,263	98,902	0,080	0,067
-386,248	-200,000	0,026	0,146
-385,233	97,989	0,118	-0,099
-384,219	800,000	-0,045	-0,091
-383,204	112,582	0,151	-0,133
-382,190	120,684	0,052	-0,047
-381,175	-200,000	-0,001	-0,059
-380,160	-98,394	0,218	0,040
-379,146	55,569	-0,108	0,076
-378,131	-200,000	-0,022	-0,109
-377,117	800,000	-0,030	-0,061
-376,102	-136,308	-0,113	0,009
-375,088	681,164	0,047	0,089
-374,073	586,835	0,071	-0,127
-373,058	72,213	0,083	0,063
-372,044	607,007	0,091	0,166
-371,029	-122,292	0,174	0,020
-370,015	-137,926	0,063	-0,005
-369,000	-200,000	-0,009	-0,056
-367,985	250,159	0,069	-0,085
-366,971	304,373	0,076	-0,103
-365,956	271,967	-0,034	0,043
-364,942	-9,965	-0,079	-0,038
-363,927	-128,137	0,153	0,016
-362,912	-73,671	0,135	-0,035
-361,898	-39,436	-0,115	-0,044
-360,883	-3,681	0,038	-0,019
-359,869	-58,028	0,101	-0,032
-358,854	617,245	-0,051	-0,093
-357,839	-33,539	0,107	-0,043
-356,825	288,548	0,059	-0,078
-355,810	-157,649	0,064	0,003
-354,796	631,931	-0,015	0,029
-353,781	-129,320	-0,083	-0,008
-352,766	800,000	0,030	-0,068
-351,752	-200,000	0,028	0,115
-350,737	-85,092	0,022	-0,005
-349,723	-200,000	-0,011	-0,148
-348,708	-200,000	0,000	0,003
-347,693	-78,914	0,068	-0,017
-346,679	323,409	-0,088	0,122
-345,664	-200,000	-0,005	-0,027
-344,650	65,893	0,067	0,050
-343,635	-200,000	-0,019	0,099
-342,620	363,815	-0,028	0,041
-341,606	338,755	0,055	0,078
-340,591	615,693	0,007	-0,013
-339,577	477,038	0,029	0,047
-338,562	-66,556	-0,047	0,013
-337,548	800,000	0,055	-0,142
-336,533	233,362	0,019	-0,023
-335,518	-200,000	0,032	0,158
-334,504	129,123	0,118	0,109
-333,489	177,508	0,022	0,024
-332,475	-133,578	-0,156	-0,014
-331,460	-200,000	-0,002	0,043
-330,445	-200,000	-0,006	-0,067
-329,431	-200,000	0,006	0,128
-328,416	605,936	-0,053	-0,096
-327,402	22,358	0,103	-0,061
-326,387	-200,000	0,035	0,143
-325,372	-200,000	0,002	-0,101
-324,358	-175,164	-0,036	-0,001
-323,343	-200,000	-0,046	0,157
-322,329	-107,420	-0,026	-0,004
-321,314	-200,000	-0,020	-0,073
-320,299	-15,336	0,061	0,028
-319,285	-125,978	0,012	-0,001
-318,270	41,043	-0,084	-0,055
-317,256	-200,000	-0,005	-0,071
-316,241	-29,656	-0,060	0,025
-315,226	-165,829	0,140	-0,004
-314,212	800,000	0,040	0,122
-313,197	3,942	0,054	0,029
-312,183	-200,000	-0,052	0,188
-311,168	-127,224	-0,101	0,011
-310,153	-200,000	0,021	0,070
-309,139	665,399	-0,062	-0,117
-308,124	-90,455	0,064	0,013
-307,110	-87,616	-0,139	-0,030
-306,095	-106,595	0,081	0,013
-305,080	127,635	0,039	-0,036
-304,066	584,961	0,060	-0,108
-303,051	284,425	-0,021	0,027
-302,037	565,608	-0,029	-0,051
-301,022	-0,724	0,087	0,044
-300,008	-71,348	0,095	0,026
-298,993	800,000	-0,017	0,045
-297,978	-125,212	0,040	-0,004
-296,964	251,758	-0,067	-0,083
-295,949	134,831	-0,229	-0,216
-294,935	-200,000	0,008	-0,136
-293,920	-70,174	0,097	0,026
-292,905	248,222	-0,034	-0,041
-291,891	800,000	0,041	0,112
-290,876	69,972	0,109	-0,081
-289,862	800,000	0,012	-0,035
-288,847	-87,465	-0,161	-0,035
-287,832	-132,419	0,031	-0,003
-286,818	-61,522	-0,105	0,032
-285,803	419,419	-0,020	0,031
-284,789	-89,868	0,022	-0,005
-283,774	-200,000	0,018	0,067
-282,759	-21,388	0,069	0,030
-281,745	-29,456	-0,123	-0,051
-280,730	411,459	-0,045	0,070
-279,716	504,834	0,031	-0,052
-278,701	-51,678	0,042	-0,014
-277,686	-132,819	0,159	0,015
-276,672	36,872	-0,122	0,078
-275,657	800,000	-0,052	0,118
-274,643	800,000	0,064	-0,142
-273,628	-200,000	-0,024	-0,131
-272,613	299,641	-0,027	0,036
-271,599	-27,309	0,042	0,017
-270,584	383,188	-0,024	0,036
-269,570	-200,000	-0,006	0,105
-268,555	-97,688	-0,059	0,011
-267,540	800,000	-0,002	-0,004
-266,526	-83,859	-0,226	0,052
-265,511	218,417	-0,026	0,030
-264,497	-16,733	0,020	-0,009
-263,482	44,153	0,065	0,043
-262,467	-200,000	-0,014	-0,079
-261,453	-200,000	0,007	-0,153
-260,438	-45,528	-0,038	0,013
-259,424	-200,000	0,001	0,064
-258,409	-200,000	-0,031	-0,143
-257,395	133,668	-0,044	-0,041
-256,380	-200,000	0,016	0,132
-255,365	-27,298	0,063	-0,027
-254,351	17,462	0,110	0,063
-253,336	229,777	-0,089	-0,105
-252,322	9,439	0,044	0,024
-251,307	800,000	0,025	-0,063
-250,292	118,531	-0,094	0,084
-249,278	341,319	-0,025	0,036
-248,263	756,177	-0,062	0,121
-247,249	800,000	0,043	-0,119
-246,234	288,954	-0,030	-0,039
-245,219	212,474	0,067	-0,077
-244,205	96,954	-0,075	-0,062
-243,190	-90,444	0,088	-0,018
-242,176	-200,000	-0,025	-0,128
-241,161	-134,220	-0,046	-0,004
-240,146	-175,342	0,132	-0,003
-239,132	10,227	-0,091	0,050
-238,117	50,178	0,040	-0,027
-237,103	-88,088	0,049	0,011
-236,088	78,459	0,085	-0,066
-235,073	-36,837	0,132	0,051
-234,059	36,954	-0,042	-0,027
-233,044	800,000	0,054	0,144
-232,030	90,867	-0,062	0,050
-231,015	-200,000	-0,013	-0,052
-230,000	-83,177	-0,077	0,018
-228,986	-200,000	0,010	-0,055
-227,971	-102,732	0,045	-0,008
-226,957	-200,000	-0,005	0,034
-225,942	373,360	-0,045	0,067
-224,927	-98,114	0,099	-0,018
-223,913	800,000	-0,056	-0,119
-222,898	-200,000	-0,013	-0,076
-221,884	121,275	-0,061	0,055
-220,869	-200,000	-0,001	0,063
-219,855	-200,000	0,013	0,063
-218,840	42,452	-0,093	-0,061
-217,825	-14,970	0,051	0,024
-216,811	-81,126	-0,173	0,041
-215,796	257,325	0,070	0,087
-214,782	358,588	0,057	0,082
-213,767	-200,000	-0,017	0,079
-212,752	101,747	0,046	0,039
-211,738	295,689	-0,025	0,033
-210,723	-44,369	0,130	0,047
-209,709	-187,867	-0,039	0,000
-208,694	-4,358	-0,077	-0,038
-207,679	800,000	-0,020	-0,041
-206,665	800,000	-0,050	-0,115
-205,650	-73,889	0,129	-0,034
-204,636	215,265	-0,028	0,032
-203,621	-70,081	0,045	-0,012
-202,606	-31,031	-0,004	0,002
-201,592	502,241	-0,028	-0,047
-200,577	670,350	0,019	0,035
-199,563	-29,341	-0,029	0,012
-198,548	99,212	0,084	0,070
-197,533	-67,463	0,097	-0,027
-196,519	-200,000	-0,016	0,062
-195,504	6,916	0,077	0,041
-194,490	800,000	-0,042	-0,118
-193,475	132,817	-0,032	0,030
-192,460	372,503	-0,081	0,119
-191,446	800,000	0,039	0,101
-190,431	-65,541	0,072	0,021
-189,417	-122,798	-0,083	-0,010
-188,402	800,000	0,037	0,111
-187,387	-20,041	0,064	-0,028
-186,373	256,436	-0,071	0,088
-185,358	-4,682	-0,059	0,029
-184,344	-200,000	0,011	0,083
-183,329	-34,757	0,009	-0,004
-182,315	800,000	0,014	0,031
-181,300	-200,000	-0,003	0,057
-180,285	158,517	-0,019	-0,019
-179,271	82,174	-0,017	-0,014
-178,256	182,957	0,027	0,029
-177,242	-200,000	-0,010	-0,033
-176,227	-33,208	-0,064	0,026
-175,212	800,000	0,058	-0,116
-174,198	281,219	0,077	0,100
-173,183	-94,062	-0,083	0,016
-172,169	368,515	0,060	-0,088
-171,154	-200,000	0,014	-0,084
-170,139	-200,000	0,003	-0,038
-169,125	-90,553	0,092	-0,019
-168,110	747,058	-0,004	0,008
-167,096	14,403	-0,079	-0,044
-166,081	-24,874	-0,081	0,035
-165,066	283,124	-0,038	-0,050
-164,052	-200,000	-0,024	-0,085
-163,037	532,315	-0,016	-0,028
-162,023	-138,229	-0,131	0,010
-161,008	188,057	0,037	0,040
-159,993	800,000	-0,049	-0,110
-158,979	800,000	0,045	-0,125
-157,964	-200,000	-0,014	-0,059
-156,950	173,236	-0,070	-0,073
-155,935	-200,000	0,027	-0,087
-154,920	39,899	0,065	0,042
-153,906	370,985	-0,053	0,078
-152,891	48,155	-0,026	0,017
-151,877	11,930	-0,028	0,015
-150,862	-130,663	-0,125	-0,012
-149,847	1,102	-0,031	0,016
-148,833	4,366	0,129	0,068
-147,818	-200,000	0,006	0,159
-146,804	-200,000	-0,027	0,134
-145,789	134,639	0,059	0,055
-144,775	490,409	-0,049	-0,081
-143,760	-200,000	-0,004	-0,028
-142,745	82,869	-0,095	-0,075
-141,731	-200,000	-0,011	0,098
-140,716	-56,588	0,032	0,010
-139,702	-200,000	0,016	0,078
-138,687	71,908	-0,046	-0,034
-137,672	322,644	0,048	0,065
-136,658	192,625	-0,051	-0,055
-135,643	548,671	-0,047	0,082
-134,629	-145,109	0,046	-0,003
-133,614	444,285	-0,053	0,085
-132,599	800,000	-0,039	0,118
-131,585	800,000	-0,039	-0,082
-130,570	229,833	0,032	0,037
-129,556	47,807	-0,098	0,066
-128,541	558,700	-0,047	-0,082
-127,526	-69,241	0,048	-0,013
-126,512	-200,000	-0,003	-0,021
-125,497	152,634	0,138	0,136
-124,483	18,271	-0,111	0,063
-123,468	-200,000	0,031	-0,199
-122,453	443,371	-0,067	0,106
-121,439	285,025	-0,039	0,051
-120,424	100,549	0,136	-0,113
-119,410	-22,572	0,067	-0,029
