DTS Sentinel unit serial number:	SN410029Multiplexer serial number:	ORYXHardware model number:	OX2-SRSoftware version number:	ORYX F/W v4,00 Oryx Data Collector v3.7.2.0data status	okinstallation	B5 Nyhavnadifferential loss correction	single-endedforward channel	channel 2reverse channel	N/Adate	2023/12/13time	20:42:13forward acquisition time	300,00reverse acquisition time	0,00gamma	499,1914k internal	0,3158k external	0,3158temperature offset calibration	1,0000default loss term (dB/km)	0,3820temperature slope calibration	1,0000multiplexer offset coefficient	1,0000multiplexer slope coefficient	1,0000fibre end	0,00T internal ref (°C)	10,58T ext. ref 1 (°C)	-6,43T ext. ref 2 (°C)	-6,48length (m)	temperature (°C)	Stokes	anti-Stokes-744,400	-200,000	-0,003	-0,028
-743,385	-62,419	-0,303	-0,092
-742,371	349,627	0,123	0,179
-741,356	-151,598	-0,398	-0,021
-740,342	800,000	0,084	0,177
-739,327	-166,219	-0,338	-0,010
-738,312	-109,433	0,216	-0,033
-737,298	-76,757	-0,370	-0,095
-736,283	-42,104	0,145	-0,054
-735,269	-166,706	-0,312	-0,009
-734,254	800,000	0,022	0,071
-733,239	-42,561	-0,546	-0,204
-732,225	353,395	0,151	0,222
-731,210	-133,452	0,047	-0,004
-730,196	61,301	0,110	-0,080
-729,181	482,800	-0,116	-0,194
-728,167	142,183	-0,091	-0,089
-727,152	-47,211	-0,037	0,013
-726,137	20,330	-0,082	-0,049
-725,123	122,226	-0,101	-0,093
-724,108	50,886	-0,106	-0,074
-723,094	41,973	0,030	-0,020
-722,079	27,416	-0,106	-0,066
-721,064	-89,116	0,148	-0,032
-720,050	-200,000	0,031	-0,126
-719,035	-200,000	-0,027	-0,097
-718,021	-126,355	-0,033	-0,004
-717,006	-130,037	-0,145	0,014
-715,991	-64,802	-0,031	-0,009
-714,977	324,391	-0,048	0,068
-713,962	-195,845	-0,118	0,001
-712,948	-200,000	0,005	0,024
-711,933	-61,668	0,044	0,013
-710,918	-200,000	0,025	0,084
-709,904	28,874	-0,082	-0,051
-708,889	800,000	-0,054	-0,139
-707,875	122,268	-0,122	-0,112
-706,860	-101,599	0,186	0,033
-705,845	800,000	-0,009	0,028
-704,831	-200,000	-0,008	0,156
-703,816	593,088	-0,043	-0,079
-702,802	66,852	-0,019	0,014
-701,787	-62,352	-0,059	-0,018
-700,772	461,096	-0,043	-0,071
-699,758	114,285	-0,061	0,054
-698,743	800,000	-0,024	-0,064
-697,729	710,018	-0,048	-0,093
-696,714	-70,490	-0,045	-0,012
-695,699	800,000	-0,022	-0,065
-694,685	-12,130	0,127	0,061
-693,670	385,641	-0,029	0,044
-692,656	-200,000	-0,013	-0,081
-691,641	32,211	0,044	0,028
-690,627	209,551	-0,038	0,044
-689,612	-25,981	-0,122	-0,053
-688,597	109,105	0,058	-0,051
-687,583	54,311	-0,106	-0,075
-686,568	-200,000	0,000	0,166
-685,554	796,190	-0,081	-0,166
-684,539	-113,339	0,049	0,007
-683,524	-45,043	0,101	-0,037
-682,510	-200,000	-0,108	0,000
-681,495	0,502	-0,030	0,016
-680,481	152,034	0,070	-0,071
-679,466	-200,000	0,007	-0,047
-678,451	-45,193	0,180	0,065
-677,437	800,000	-0,052	-0,128
-676,422	-200,000	-0,007	0,116
-675,408	800,000	-0,080	-0,171
-674,393	-81,106	-0,194	-0,047
-673,378	40,182	-0,116	-0,077
-672,364	479,247	-0,025	0,042
-671,349	35,330	-0,045	-0,029
-670,335	-102,493	0,039	-0,007
-669,320	24,693	-0,041	0,025
-668,305	800,000	-0,045	0,095
-667,291	-200,000	0,037	-0,131
-666,276	10,177	-0,131	-0,073
-665,262	410,224	-0,050	-0,079
-664,247	-70,077	0,058	0,016
-663,232	173,255	-0,047	0,050
-662,218	401,228	-0,045	-0,070
-661,203	115,862	-0,024	-0,022
-660,189	-90,689	0,039	-0,008
-659,174	-200,000	0,005	-0,090
-658,159	-106,263	0,031	0,005
-657,145	800,000	-0,084	-0,209
-656,130	-35,446	-0,072	-0,029
-655,116	-51,170	0,085	-0,029
-654,101	301,326	0,138	-0,188
-653,086	26,896	0,080	0,049
-652,072	-200,000	0,005	0,110
-651,057	-68,717	-0,126	0,036
-650,043	-57,135	-0,042	0,013
-649,028	7,596	-0,088	-0,048
-648,014	-200,000	0,001	0,128
-646,999	-200,000	-0,012	0,151
-645,984	-56,806	-0,123	-0,040
-644,970	800,000	-0,028	-0,076
-643,955	-200,000	-0,024	-0,159
-642,941	387,991	0,069	-0,105
-641,926	-9,117	-0,088	0,043
-640,911	-22,764	0,057	-0,025
-639,897	83,983	0,057	-0,046
-638,882	-9,003	-0,095	0,046
-637,868	-64,249	0,041	-0,012
-636,853	347,838	-0,044	-0,064
-635,838	-17,022	-0,160	-0,074
-634,824	-200,000	-0,027	-0,123
-633,809	-200,000	0,010	0,049
-632,795	800,000	0,044	0,090
-631,780	47,403	0,021	-0,014
-630,765	-159,498	-0,136	-0,005
-629,751	193,875	-0,051	-0,057
-628,736	93,807	-0,052	-0,043
-627,722	329,018	0,066	-0,093
-626,707	-81,019	0,023	-0,005
-625,692	-48,691	-0,047	0,016
-624,678	88,597	0,030	-0,024
-623,663	-130,962	-0,072	0,007
-622,649	19,874	0,028	0,016
-621,634	-140,171	-0,113	0,009
-620,619	-200,000	0,040	0,136
-619,605	-12,143	0,093	0,045
-618,590	800,000	0,037	-0,086
-617,576	-200,000	0,003	0,086
-616,561	-200,000	-0,003	-0,021
-615,546	-112,926	0,098	0,014
-614,532	-97,623	0,085	0,016
-613,517	52,744	-0,118	-0,083
-612,503	4,548	0,137	-0,073
-611,488	105,883	-0,094	0,082
-610,474	-200,000	0,003	0,025
-609,459	398,334	-0,048	-0,074
-608,444	-200,000	-0,028	-0,158
-607,430	-29,497	0,067	-0,028
-606,415	-200,000	0,010	-0,076
-605,401	67,351	-0,037	-0,028
-604,386	674,307	0,014	0,027
-603,371	138,153	-0,047	0,045
-602,357	115,408	0,085	-0,076
-601,342	-200,000	-0,028	-0,119
-600,328	50,514	-0,181	-0,125
-599,313	800,000	-0,047	-0,102
-598,298	133,043	-0,103	-0,098
-597,284	90,963	-0,061	-0,050
-596,269	-110,870	0,050	0,008
-595,255	800,000	0,015	0,047
-594,240	800,000	0,038	-0,091
-593,225	170,743	-0,062	0,066
-592,211	-19,444	0,099	-0,045
-591,196	346,122	-0,030	-0,044
-590,182	256,529	-0,058	0,073
-589,167	19,515	0,069	0,040
-588,152	120,962	0,063	-0,058
-587,138	-159,143	0,092	0,004
-586,123	213,923	-0,067	0,078
-585,109	-200,000	-0,001	-0,057
-584,094	-169,163	0,071	-0,002
-583,079	-68,057	-0,133	0,038
-582,065	800,000	-0,038	0,100
-581,050	-107,219	0,055	0,009
-580,036	-200,000	-0,013	-0,147
-579,021	-200,000	0,030	-0,135
-578,006	-16,352	-0,035	0,016
-576,992	-200,000	-0,022	0,076
-575,977	-200,000	-0,011	-0,099
-574,963	-191,449	0,098	-0,001
-573,948	244,464	0,028	-0,034
-572,934	-94,325	-0,085	0,017
-571,919	-26,310	-0,051	-0,022
-570,904	216,656	-0,119	-0,139
-569,890	-200,000	-0,002	-0,137
-568,875	800,000	0,035	-0,105
-567,861	-131,106	-0,101	0,010
-566,846	-99,221	-0,108	0,020
-565,831	-56,896	-0,114	-0,037
-564,817	-73,805	-0,047	0,012
-563,802	631,386	0,050	-0,094
-562,788	486,453	0,050	-0,084
-561,773	426,124	0,069	0,109
-560,758	800,000	-0,037	0,095
-559,744	-3,184	-0,111	-0,057
-558,729	-200,000	0,016	-0,153
-557,715	472,631	-0,076	0,125
-556,700	5,329	-0,098	-0,053
-555,685	51,687	0,033	-0,023
-554,671	-200,000	0,019	-0,154
-553,656	-154,945	0,086	0,004
-552,642	-71,287	-0,078	0,021
-551,627	-108,752	-0,078	0,012
-550,612	-19,212	-0,116	0,052
-549,598	800,000	0,052	-0,112
-548,583	313,334	0,070	0,096
-547,569	-200,000	0,046	-0,171
-546,554	-86,408	0,088	-0,020
-545,539	-10,663	0,117	-0,056
-544,525	-200,000	0,029	-0,108
-543,510	89,854	-0,131	0,107
-542,496	67,838	-0,074	0,056
-541,481	-47,039	0,040	-0,014
-540,466	287,458	-0,105	0,139
-539,452	174,765	-0,052	0,055
-538,437	800,000	-0,059	0,171
-537,423	189,460	-0,121	-0,133
-536,408	17,581	-0,098	-0,057
-535,393	-146,257	0,075	0,005
-534,379	800,000	0,015	0,040
-533,364	326,890	-0,056	0,078
-532,350	-200,000	0,008	0,167
-531,335	194,049	-0,023	-0,026
-530,321	-27,214	0,152	0,064
-529,306	-200,000	-0,012	-0,053
-528,291	-200,000	0,036	-0,137
-527,277	77,710	-0,106	0,083
-526,262	53,531	-0,076	-0,053
-525,248	428,136	-0,013	0,021
-524,233	218,266	-0,020	0,024
-523,218	-118,635	-0,080	-0,010
-522,204	-200,000	0,001	-0,085
-521,189	-200,000	-0,003	0,069
-520,175	-200,000	-0,014	-0,123
-519,160	298,237	0,050	-0,068
-518,145	-200,000	-0,007	0,060
-517,131	-124,365	0,121	0,014
-516,116	-15,726	-0,098	0,045
-515,102	-2,781	0,142	0,072
-514,087	13,402	-0,022	-0,012
-513,072	-200,000	0,007	-0,064
-512,058	-36,445	-0,024	0,010
-511,043	531,474	-0,067	-0,116
-510,029	52,203	0,134	0,093
-509,014	-166,892	-0,053	-0,002
-507,999	-200,000	0,022	0,074
-506,985	195,516	0,044	-0,049
-505,970	-200,000	0,006	-0,046
-504,956	800,000	-0,028	-0,086
-503,941	327,964	0,028	-0,039
-502,926	429,100	0,015	0,024
-501,912	-157,748	0,082	0,004
-500,897	800,000	-0,031	0,075
-499,883	108,498	0,064	-0,055
-498,868	743,538	-0,079	-0,156
-497,853	-200,000	-0,006	-0,101
-496,839	121,451	0,062	0,056
-495,824	25,942	-0,068	0,041
-494,810	-200,000	-0,043	0,177
-493,795	-200,000	-0,003	0,103
-492,781	395,076	-0,028	0,043
-491,766	-81,263	-0,073	-0,018
-490,751	187,401	-0,124	0,135
-489,737	-18,378	0,095	0,043
-488,722	231,838	0,078	-0,093
-487,708	-92,254	0,067	-0,014
-486,693	-150,561	-0,111	-0,006
-485,678	-200,000	-0,031	0,116
-484,664	-41,286	-0,122	-0,046
-483,649	62,757	-0,058	-0,042
-482,635	-98,195	0,026	0,005
-481,620	-154,965	-0,088	-0,004
-480,605	582,920	-0,036	0,064
-479,591	280,497	0,062	0,081
-478,576	-200,000	-0,012	-0,181
-477,562	800,000	0,021	0,057
-476,547	-117,191	-0,027	-0,003
-475,532	800,000	0,020	0,057
-474,518	338,348	0,057	0,082
-473,503	401,846	-0,068	0,104
-472,489	49,234	0,046	-0,032
-471,474	-165,400	-0,019	-0,001
-470,459	131,181	-0,030	-0,028
-469,445	763,315	0,038	-0,075
-468,430	55,442	-0,110	0,077
-467,416	-141,842	0,083	0,006
-466,401	800,000	0,015	0,047
-465,386	-200,000	0,031	-0,104
-464,372	791,544	0,053	-0,108
-463,357	-113,342	-0,040	-0,006
-462,343	-87,096	0,098	-0,022
-461,328	41,352	0,147	0,096
-460,313	173,134	0,039	0,041
-459,299	224,748	-0,053	-0,062
-458,284	94,137	-0,145	-0,120
-457,270	-15,908	-0,097	0,045
-456,255	-30,750	0,088	0,036
-455,241	800,000	0,023	0,058
-454,226	72,397	0,040	-0,030
-453,211	-200,000	0,009	0,040
-452,197	-171,554	0,094	0,002
-451,182	342,469	0,078	0,111
-450,168	800,000	-0,016	0,045
-449,153	-111,560	-0,043	0,006
-448,138	-71,312	-0,113	0,031
-447,124	43,855	0,077	0,051
-446,109	-46,680	-0,037	-0,013
-445,095	-23,265	0,047	0,020
-444,080	-163,628	-0,008	0,000
-443,065	-149,639	-0,074	-0,004
-442,051	119,413	0,062	-0,056
-441,036	700,834	0,037	0,070
-440,022	24,962	-0,099	0,060
-439,007	800,000	0,034	0,079
-437,992	-200,000	0,019	-0,069
-436,978	269,106	-0,027	0,035
-435,963	-200,000	-0,014	0,051
-434,949	-200,000	0,017	0,097
-433,934	543,092	-0,079	0,138
-432,919	800,000	-0,018	0,039
-431,905	-90,361	-0,043	0,009
-430,890	-200,000	0,006	-0,091
-429,876	252,246	-0,039	0,048
-428,861	800,000	0,015	0,038
-427,846	800,000	-0,076	0,194
-426,832	607,082	-0,034	0,062
-425,817	-79,330	-0,110	0,027
-424,803	-141,893	-0,078	-0,006
-423,788	-200,000	0,009	0,039
-422,773	-142,082	0,146	-0,010
-421,759	227,007	0,093	0,110
-420,744	-42,432	0,107	-0,040
-419,730	-73,999	-0,079	0,021
-418,715	50,830	0,019	-0,013
-417,701	234,150	0,115	0,138
-416,686	-82,260	0,212	-0,050
-415,671	507,754	0,031	-0,052
-414,657	432,974	0,054	-0,086
-413,642	96,593	0,097	-0,081
-412,628	-103,044	-0,175	-0,030
-411,613	-122,583	0,114	0,013
-410,598	-200,000	0,028	-0,094
-409,584	30,858	0,137	0,085
-408,569	-200,000	0,005	0,034
-407,555	119,426	0,110	0,100
-406,540	23,603	0,055	-0,033
-405,525	114,069	-0,163	-0,144
-404,511	223,889	-0,023	-0,027
-403,496	42,111	-0,152	-0,100
-402,482	800,000	-0,020	0,042
-401,467	-200,000	0,002	0,050
-400,452	-27,903	-0,034	-0,014
-399,438	6,909	0,110	0,059
-398,423	-200,000	-0,012	0,109
-397,409	311,816	0,027	0,036
-396,394	800,000	0,078	-0,181
-395,379	347,402	-0,032	0,046
-394,365	-200,000	-0,028	0,185
-393,350	322,762	0,035	-0,049
-392,336	772,272	-0,058	0,115
-391,321	42,930	0,036	-0,024
-390,306	33,182	0,066	0,042
-389,292	800,000	-0,074	0,189
-388,277	800,000	-0,033	0,073
-387,263	-107,360	-0,144	-0,023
-386,248	291,236	-0,085	0,112
-385,233	-71,642	0,172	0,046
-384,219	182,684	0,029	-0,031
-383,204	-200,000	-0,009	0,076
-382,190	738,107	-0,041	0,080
-381,175	-92,757	0,077	0,016
-380,160	-159,286	0,063	-0,003
-379,146	44,475	-0,053	0,035
-378,131	345,929	0,065	-0,093
-377,117	692,418	-0,032	0,061
-376,102	178,547	0,101	-0,107
-375,088	-86,529	0,150	0,033
-374,073	800,000	-0,047	0,100
-373,058	800,000	-0,044	0,099
-372,044	-200,000	0,040	0,128
-371,029	201,836	-0,127	0,142
-370,015	-200,000	-0,010	0,106
-369,000	-137,488	-0,059	0,005
-367,985	95,792	0,077	-0,064
-366,971	296,393	-0,065	-0,087
-365,956	26,549	0,085	-0,052
-364,942	-71,348	-0,099	-0,027
-363,927	-200,000	-0,002	0,059
-362,912	-200,000	0,009	-0,096
-361,898	188,727	-0,067	0,073
-360,883	-55,114	-0,080	-0,026
-359,869	-132,710	-0,050	-0,005
-358,854	-200,000	-0,009	-0,064
-357,839	-99,623	0,129	0,023
-356,825	-200,000	-0,018	0,176
-355,810	-11,135	0,132	0,063
-354,796	308,882	-0,024	-0,032
-353,781	-126,493	-0,088	-0,009
-352,766	-17,312	-0,063	-0,029
-351,752	-146,581	-0,027	0,002
-350,737	-200,000	0,020	-0,074
-349,723	-200,000	-0,017	-0,092
-348,708	84,538	0,057	-0,046
-347,693	-200,000	0,016	0,063
-346,679	14,723	-0,162	0,091
-345,664	333,560	0,137	0,193
-344,650	42,343	0,035	-0,023
-343,635	209,097	0,062	0,071
-342,620	-200,000	0,022	-0,144
-341,606	-18,884	0,054	-0,024
-340,591	52,235	0,064	-0,044
-339,577	116,443	0,105	0,094
-338,562	-139,129	-0,076	-0,006
-337,548	-73,229	-0,105	0,028
-336,533	800,000	0,085	0,216
-335,518	-94,992	0,061	0,012
-334,504	-66,208	0,068	0,019
-333,489	-157,971	-0,040	0,002
-332,475	-200,000	0,001	-0,138
-331,460	349,395	-0,020	-0,029
-330,445	-11,820	0,107	-0,051
-329,431	-125,532	0,021	0,002
-328,416	91,972	-0,030	0,024
-327,402	332,311	-0,042	-0,058
-326,387	-115,640	-0,118	0,016
-325,372	-54,000	0,060	-0,020
-324,358	68,876	-0,028	-0,021
-323,343	301,042	0,040	0,053
-322,329	143,392	-0,094	-0,091
-321,314	167,893	0,061	-0,063
-320,299	-200,000	0,083	-0,000
-319,285	-117,220	-0,145	-0,019
-318,270	-200,000	0,006	-0,162
-317,256	800,000	-0,031	-0,088
-316,241	71,420	0,036	-0,027
-315,226	-200,000	-0,022	0,116
-314,212	-54,894	0,184	0,060
-313,197	156,651	0,074	0,074
-312,183	-162,931	0,083	0,003
-311,168	124,901	-0,121	0,111
-310,153	800,000	-0,016	-0,037
-309,139	704,732	0,027	-0,051
-308,124	-179,622	0,087	-0,001
-307,110	175,038	-0,071	0,075
-306,095	-137,057	0,158	0,013
-305,080	258,190	0,034	-0,042
-304,066	800,000	-0,041	0,120
-303,051	133,800	-0,115	-0,107
-302,037	270,391	0,080	-0,102
-301,022	304,114	-0,027	0,037
-300,008	-102,197	0,060	0,010
-298,993	37,713	0,102	0,066
-297,978	-200,000	-0,046	0,000
-296,964	-18,234	-0,092	-0,042
-295,949	800,000	0,030	-0,081
-294,935	144,788	-0,036	-0,035
-293,920	-57,441	0,061	0,019
-292,905	43,061	-0,042	-0,028
-291,891	-200,000	0,047	0,211
-290,876	-16,806	0,220	0,100
-289,862	423,919	0,049	-0,076
-288,847	176,631	0,031	-0,033
-287,832	-200,000	0,049	-0,169
-286,818	-200,000	-0,022	-0,080
-285,803	87,783	0,074	0,060
-284,789	-200,000	0,020	-0,089
-283,774	-200,000	0,000	-0,059
-282,759	-200,000	-0,004	-0,083
-281,745	-136,523	0,097	0,008
-280,730	137,508	0,039	0,037
-279,716	198,578	-0,070	0,077
-278,701	101,204	0,043	-0,036
-277,686	-200,000	-0,033	0,179
-276,672	800,000	0,041	0,099
-275,657	-34,742	-0,049	0,019
-274,643	-200,000	0,023	-0,138
-273,628	-101,038	-0,137	0,024
-272,613	-200,000	0,007	-0,072
-271,599	-126,830	0,058	-0,006
-270,584	144,968	0,132	0,128
-269,570	-200,000	-0,020	0,073
-268,555	-200,000	0,001	0,006
-267,540	-200,000	0,006	-0,056
-266,526	151,451	-0,065	-0,064
-265,511	-200,000	0,015	-0,056
-264,497	344,162	-0,076	-0,108
-263,482	101,369	0,109	0,092
-262,467	-19,680	0,080	0,036
-261,453	-43,161	-0,061	0,022
-260,438	-200,000	-0,005	-0,067
-259,424	349,197	0,065	-0,093
-258,409	235,023	0,118	-0,141
-257,395	37,882	0,050	-0,032
-256,380	147,302	-0,039	-0,038
-255,365	-200,000	0,002	0,122
-254,351	497,034	0,022	-0,037
-253,336	74,670	0,054	-0,041
-252,322	149,648	-0,036	0,035
-251,307	-200,000	0,015	-0,086
-250,292	62,581	-0,032	0,023
-249,278	-200,000	0,017	0,067
-248,263	651,682	0,046	-0,086
-247,249	-100,012	0,119	0,021
-246,234	319,197	0,033	0,046
-245,219	-200,000	-0,021	-0,097
-244,205	-177,419	-0,122	-0,002
-243,190	99,062	-0,055	0,046
-242,176	-200,000	0,000	-0,053
-241,161	-98,144	0,085	0,016
-240,146	-200,000	0,017	0,059
-239,132	800,000	-0,050	-0,139
-238,117	705,615	0,065	-0,125
-237,103	-200,000	-0,003	-0,192
-236,088	58,106	-0,089	0,063
-235,073	-200,000	0,020	0,126
-234,059	673,129	-0,052	-0,098
-233,044	59,317	0,051	0,036
-232,030	118,137	-0,087	0,077
-231,015	-53,348	0,140	-0,046
-230,000	800,000	-0,001	0,004
-228,986	440,733	-0,041	0,065
-227,971	-22,491	-0,023	0,010
-226,957	-61,475	-0,131	0,040
-225,942	800,000	-0,047	-0,105
-224,927	63,558	-0,086	-0,063
-223,913	800,000	-0,061	-0,192
-222,898	11,288	0,088	-0,048
-221,884	-200,000	0,033	-0,116
-220,869	-200,000	0,040	0,175
-219,855	-84,181	0,115	0,026
-218,840	-10,083	-0,144	-0,069
-217,825	-83,397	-0,098	-0,023
-216,811	36,812	-0,116	0,074
-215,796	800,000	-0,050	-0,109
-214,782	522,564	-0,069	-0,118
-213,767	159,353	0,069	-0,070
-212,752	271,810	0,085	0,109
-211,738	-68,779	0,112	0,031
-210,723	-26,212	-0,037	-0,016
-209,709	800,000	-0,012	0,037
-208,694	143,352	-0,040	0,039
-207,679	33,033	-0,082	0,051
-206,665	-200,000	-0,012	0,043
-205,650	-122,813	0,064	-0,007
-204,636	88,920	-0,105	0,084
-203,621	8,530	0,103	0,056
-202,606	93,951	-0,045	0,037
-201,592	-200,000	0,035	-0,155
-200,577	-83,429	-0,091	-0,021
-199,563	242,673	0,037	-0,044
-198,548	-93,120	0,050	-0,010
-197,533	32,609	-0,013	-0,008
-196,519	-200,000	0,038	-0,122
-195,504	-9,800	0,061	-0,029
-194,490	15,882	-0,068	0,038
-193,475	71,843	0,075	-0,056
-192,460	76,536	0,036	0,028
-191,446	-144,707	0,029	0,002
-190,431	-200,000	0,006	0,048
-189,417	98,695	0,051	0,043
-188,402	-200,000	0,010	0,034
-187,387	7,475	-0,054	0,029
-186,373	-200,000	-0,032	0,141
-185,358	-9,988	0,166	0,079
-184,344	201,695	0,085	0,094
-183,329	-126,023	-0,147	0,016
-182,315	-200,000	-0,097	-0,000
-181,300	89,153	-0,057	0,046
-180,285	125,391	0,043	-0,039
-179,271	120,751	0,027	-0,024
-178,256	-55,122	0,098	0,032
-177,242	41,102	-0,038	-0,025
-176,227	-139,561	0,113	0,009
-175,212	-44,229	0,080	-0,029
-174,198	580,717	0,055	-0,097
-173,183	184,852	0,050	-0,053
-172,169	469,986	-0,028	0,045
-171,154	800,000	0,042	0,092
-170,139	312,131	-0,025	0,034
-169,125	248,656	-0,080	0,098
-168,110	82,515	0,103	0,080
-167,096	225,399	-0,035	0,041
-166,081	-155,224	-0,083	0,004
-165,066	800,000	-0,028	-0,067
-164,052	22,658	0,131	-0,077
-163,037	106,805	-0,067	-0,057
-162,023	406,783	0,060	0,092
-161,008	-200,000	0,007	0,080
-159,993	-35,390	-0,072	0,028
-158,979	-152,626	-0,104	-0,005
-157,964	-78,161	0,051	0,012
-156,950	-200,000	0,015	-0,088
-155,935	47,889	-0,153	-0,103
-154,920	-200,000	0,020	0,102
-153,906	-47,100	0,137	0,048
-152,891	-157,958	-0,131	0,005
-151,877	-200,000	-0,026	0,086
-150,862	-52,208	-0,068	-0,023
-149,847	-133,620	-0,079	-0,007
-148,833	100,762	-0,033	-0,028
-147,818	-34,715	0,054	0,021
-146,804	-76,548	-0,085	-0,021
-145,789	28,046	0,082	0,050
-144,775	-200,000	0,021	-0,181
-143,760	-101,067	-0,099	0,017
-142,745	-89,403	-0,051	-0,011
-141,731	-34,000	-0,060	-0,024
-140,716	800,000	-0,018	0,045
-139,702	467,655	-0,052	0,084
-138,687	2,158	-0,029	-0,015
-137,672	42,244	0,021	-0,014
-136,658	30,587	-0,126	0,077
-135,643	800,000	0,014	-0,031
-134,629	197,886	0,075	-0,083
-133,614	-59,510	0,043	0,013
-132,599	41,227	0,105	0,068
-131,585	283,848	0,028	0,037
-130,570	62,750	-0,105	0,076
-129,556	800,000	0,026	-0,070
-128,541	358,026	-0,048	0,070
-127,526	155,383	-0,054	0,054
-126,512	177,519	-0,025	-0,027
-125,497	64,775	-0,027	-0,019
-124,483	41,431	-0,167	0,109
-123,468	800,000	0,004	-0,013
-122,453	-92,933	0,081	-0,016
-121,439	134,638	0,024	-0,022
-120,424	-39,114	0,077	-0,029
-119,410	301,302	0,066	-0,088
