DTS Sentinel unit serial number:	SN410029Multiplexer serial number:	ORYXHardware model number:	OX2-SRSoftware version number:	ORYX F/W v4,00 Oryx Data Collector v3.7.2.0data status	okinstallation	B5 Nyhavnadifferential loss correction	single-endedforward channel	channel 2reverse channel	N/Adate	2023/12/13time	19:32:13forward acquisition time	300,00reverse acquisition time	0,00gamma	499,1914k internal	0,3160k external	0,3160temperature offset calibration	1,0000default loss term (dB/km)	0,3820temperature slope calibration	1,0000multiplexer offset coefficient	1,0000multiplexer slope coefficient	1,0000fibre end	0,00T internal ref (°C)	11,65T ext. ref 1 (°C)	-5,48T ext. ref 2 (°C)	-5,55length (m)	temperature (°C)	Stokes	anti-Stokes-744,400	26,417	0,089	0,055
-743,385	-164,647	-0,441	0,014
-742,371	18,446	0,136	0,080
-741,356	-168,622	-0,317	0,009
-740,342	31,081	0,147	-0,093
-739,327	-116,146	-0,379	-0,051
-738,312	-106,568	0,200	-0,033
-737,298	-76,267	-0,362	-0,093
-736,283	800,000	0,046	0,121
-735,269	-160,208	-0,277	-0,011
-734,254	-29,525	0,179	0,075
-733,239	1,802	-0,493	-0,261
-732,225	-42,051	0,153	-0,057
-731,210	131,949	-0,017	0,016
-730,196	-9,841	-0,053	0,026
-729,181	-0,981	0,019	0,010
-728,167	-29,779	-0,123	0,051
-727,152	800,000	-0,034	0,079
-726,137	329,121	0,064	0,092
-725,123	-98,757	-0,208	-0,039
-724,108	800,000	-0,048	-0,148
-723,094	17,446	-0,117	0,069
-722,079	-200,000	-0,005	0,024
-721,064	56,337	-0,008	-0,005
-720,050	-200,000	0,028	-0,142
-719,035	103,664	-0,083	0,072
-718,021	-79,171	-0,042	0,010
-717,006	-55,570	-0,128	-0,042
-715,991	-200,000	0,020	-0,065
-714,977	-200,000	0,007	-0,061
-713,962	-200,000	0,005	-0,127
-712,948	41,965	-0,014	0,009
-711,933	229,440	-0,017	0,021
-710,918	-200,000	0,008	0,046
-709,904	167,968	0,025	-0,026
-708,889	-59,065	-0,109	-0,035
-707,875	132,316	-0,095	-0,090
-706,860	32,193	0,041	0,026
-705,845	-37,070	-0,044	-0,017
-704,831	150,362	-0,034	-0,034
-703,816	800,000	0,062	-0,148
-702,802	355,629	0,081	-0,119
-701,787	113,501	-0,134	-0,119
-700,772	-200,000	0,013	-0,085
-699,758	800,000	0,051	-0,159
-698,743	-200,000	-0,013	0,059
-697,729	165,190	0,060	-0,063
-696,714	-53,795	-0,117	0,039
-695,699	547,382	0,042	-0,075
-694,685	-35,558	-0,052	-0,021
-693,670	168,037	-0,016	0,016
-692,656	800,000	0,000	-0,001
-691,641	-148,229	-0,162	-0,010
-690,627	800,000	0,034	-0,078
-689,612	-200,000	0,002	0,009
-688,597	-30,558	-0,152	-0,063
-687,583	-200,000	0,010	-0,107
-686,568	-136,030	-0,039	0,003
-685,554	-82,007	0,032	0,008
-684,539	49,590	-0,106	0,073
-683,524	-200,000	0,003	-0,090
-682,510	-200,000	-0,031	0,198
-681,495	181,694	0,016	-0,017
-680,481	10,362	0,183	0,102
-679,466	137,260	-0,096	-0,092
-678,451	327,758	0,015	0,021
-677,437	-200,000	-0,008	0,081
-676,422	-114,778	0,075	0,010
-675,408	800,000	0,058	0,135
-674,393	-73,466	-0,103	0,027
-673,378	800,000	-0,039	-0,080
-672,364	708,760	-0,038	0,073
-671,349	339,381	-0,025	-0,035
-670,335	800,000	-0,026	-0,064
-669,320	488,030	0,017	-0,028
-668,305	111,472	0,054	0,048
-667,291	-200,000	0,012	-0,139
-666,276	793,401	0,063	-0,128
-665,262	-45,647	-0,081	0,029
-664,247	-200,000	-0,032	0,176
-663,232	127,622	-0,005	0,005
-662,218	-174,137	-0,121	0,003
-661,203	-120,583	-0,040	0,005
-660,189	-123,925	0,068	0,008
-659,174	-200,000	-0,035	-0,136
-658,159	157,399	0,046	-0,047
-657,145	308,563	-0,106	-0,146
-656,130	800,000	-0,031	-0,080
-655,116	306,304	0,044	0,061
-654,101	800,000	-0,022	-0,065
-653,086	800,000	-0,033	0,084
-652,072	-200,000	-0,001	-0,157
-651,057	-200,000	0,043	-0,184
-650,043	-79,755	-0,210	-0,051
-649,028	19,404	0,076	-0,044
-648,014	-111,741	-0,123	0,018
-646,999	-72,384	-0,015	-0,004
-645,984	316,493	-0,082	0,114
-644,970	611,158	-0,028	-0,052
-643,955	-26,495	0,021	0,009
-642,941	103,511	0,065	-0,056
-641,926	-200,000	-0,001	-0,041
-640,911	249,008	0,064	-0,080
-639,897	-133,799	-0,191	0,017
-638,882	60,495	-0,013	0,009
-637,868	-53,043	-0,122	-0,041
-636,853	61,441	-0,084	-0,061
-635,838	800,000	-0,016	0,052
-634,824	553,594	0,054	-0,095
-633,809	322,132	-0,010	0,014
-632,795	-200,000	0,008	0,097
-631,780	382,887	0,038	-0,057
-630,765	-2,894	-0,066	-0,034
-629,751	-200,000	0,029	-0,142
-628,736	-200,000	0,014	-0,169
-627,722	-62,723	-0,152	0,046
-626,707	-200,000	-0,000	-0,127
-625,692	800,000	0,041	-0,085
-624,678	79,929	-0,024	0,019
-623,663	88,008	-0,079	0,064
-622,649	-98,162	-0,062	-0,011
-621,634	43,331	-0,035	0,024
-620,619	164,242	0,045	-0,046
-619,605	-20,824	-0,096	-0,043
-618,590	-200,000	0,005	-0,086
-617,576	615,653	0,041	-0,075
-616,561	800,000	-0,027	0,056
-615,546	-200,000	0,017	-0,090
-614,532	-200,000	-0,010	-0,088
-613,517	-95,782	-0,120	0,023
-612,503	146,280	-0,125	0,123
-611,488	388,545	-0,049	0,074
-610,474	11,450	0,103	0,058
-609,459	-200,000	-0,014	-0,082
-608,444	-88,454	-0,055	-0,012
-607,430	-139,106	-0,151	0,012
-606,415	-1,838	-0,179	-0,092
-605,401	-115,888	0,136	-0,018
-604,386	-167,196	-0,054	0,002
-603,371	690,996	-0,055	-0,106
-602,357	214,360	-0,044	-0,051
-601,342	-87,167	0,060	-0,013
-600,328	206,660	-0,086	-0,098
-599,313	662,247	-0,017	-0,032
-598,298	-20,712	0,039	-0,017
-597,284	800,000	-0,014	-0,028
-596,269	800,000	-0,047	-0,113
-595,255	77,345	0,038	-0,030
-594,240	178,117	0,067	0,072
-593,225	-184,875	-0,129	-0,001
-592,211	-200,000	-0,005	-0,157
-591,196	-200,000	-0,016	0,084
-590,182	96,591	0,109	-0,091
-589,167	110,314	-0,040	0,035
-588,152	-48,425	-0,119	-0,042
-587,138	-44,903	0,134	-0,049
-586,123	800,000	-0,017	-0,055
-585,109	800,000	-0,002	-0,005
-584,094	-160,707	-0,123	0,005
-583,079	27,128	0,085	-0,052
-582,065	47,104	-0,071	0,048
-581,050	-185,174	-0,151	-0,002
-580,036	-104,458	0,081	0,014
-579,021	-86,701	0,096	0,021
-578,006	179,239	-0,151	-0,162
-576,992	397,990	-0,087	-0,133
-575,977	-57,121	0,121	-0,039
-574,963	148,115	0,052	-0,051
-573,948	23,823	-0,126	0,076
-572,934	220,696	0,025	0,030
-571,919	800,000	-0,040	-0,123
-570,904	-55,565	0,105	0,034
-569,890	-122,075	-0,017	0,002
-568,875	50,058	0,066	0,046
-567,861	34,577	0,047	-0,030
-566,846	193,614	0,038	-0,042
-565,831	800,000	0,024	-0,051
-564,817	-1,599	0,049	0,025
-563,802	-200,000	0,026	-0,126
-562,788	65,608	-0,033	0,025
-561,773	-86,926	0,184	-0,041
-560,758	238,203	-0,044	0,053
-559,744	-200,000	-0,006	0,109
-558,729	18,977	0,110	0,064
-557,715	800,000	-0,076	0,159
-556,700	-1,439	-0,054	0,028
-555,685	-101,800	0,048	0,008
-554,671	-82,608	0,039	0,009
-553,656	-66,009	-0,081	0,024
-552,642	-166,760	0,111	0,003
-551,627	-100,233	-0,064	-0,012
-550,612	89,554	-0,104	0,085
-549,598	-200,000	0,011	-0,077
-548,583	301,394	0,060	0,081
-547,569	493,035	0,015	-0,026
-546,554	-200,000	0,006	0,083
-545,539	800,000	0,023	0,064
-544,525	-49,118	-0,175	0,061
-543,510	-56,572	-0,089	0,029
-542,496	9,103	-0,102	-0,056
-541,481	315,347	-0,150	-0,207
-540,466	29,619	0,029	0,018
-539,452	800,000	-0,040	0,098
-538,437	215,135	0,016	0,018
-537,423	102,791	0,113	-0,096
-536,408	-126,954	-0,241	-0,026
-535,393	-200,000	-0,021	-0,116
-534,379	23,591	0,053	-0,032
-533,364	-50,102	0,035	0,012
-532,350	120,769	-0,055	0,050
-531,335	33,520	-0,032	0,020
-530,321	92,945	0,031	0,026
-529,306	378,238	0,036	0,054
-528,291	135,496	-0,130	0,124
-527,277	158,814	-0,053	-0,054
-526,262	16,844	0,072	-0,041
-525,248	-141,450	-0,047	0,003
-524,233	19,177	0,124	-0,073
-523,218	-200,000	-0,023	-0,089
-522,204	-173,360	-0,117	-0,003
-521,189	87,622	-0,045	-0,036
-520,175	800,000	-0,028	-0,058
-519,160	-29,010	-0,022	0,009
-518,145	-200,000	0,002	-0,115
-517,131	246,367	0,119	0,147
-516,116	800,000	0,003	0,008
-515,102	-54,431	-0,170	-0,056
-514,087	32,063	-0,116	0,073
-513,072	-9,885	0,102	0,049
-512,058	572,253	0,047	-0,085
-511,043	-15,608	0,098	0,045
-510,029	-160,666	0,118	0,004
-509,014	-76,645	-0,072	-0,018
-507,999	-103,750	0,056	-0,009
-506,985	-34,143	-0,092	0,037
-505,970	-26,449	-0,101	-0,043
-504,956	800,000	0,016	-0,047
-503,941	-74,781	0,037	-0,010
-502,926	321,955	0,060	0,083
-501,912	-94,286	0,091	-0,018
-500,897	123,171	-0,030	0,028
-499,883	11,457	-0,098	0,055
-498,868	-200,000	0,000	-0,090
-497,853	65,766	0,146	-0,108
-496,839	-44,629	0,025	-0,009
-495,824	607,333	0,064	0,117
-494,810	86,648	0,053	0,043
-493,795	196,041	-0,078	-0,087
-492,781	-57,427	0,059	0,019
-491,766	-169,353	0,031	0,001
-490,751	-22,809	0,118	-0,052
-489,737	-128,656	0,087	-0,009
-488,722	-62,873	0,074	0,022
-487,708	-200,000	0,002	0,025
-486,693	-117,832	-0,056	-0,007
-485,678	800,000	0,026	0,069
-484,664	-126,978	-0,050	-0,005
-483,649	-77,494	0,091	0,023
-482,635	-200,000	-0,001	-0,072
-481,620	800,000	0,028	0,059
-480,605	28,860	0,029	-0,018
-479,591	-200,000	0,001	0,049
-478,576	-37,496	-0,012	-0,005
-477,562	304,197	0,087	0,117
-476,547	-157,075	-0,053	0,002
-475,532	131,643	0,085	0,080
-474,518	781,898	0,017	-0,033
-473,503	26,900	0,068	0,041
-472,489	-200,000	-0,002	-0,045
-471,474	-97,264	0,020	0,004
-470,459	-200,000	-0,012	0,057
-469,445	-153,500	-0,021	0,001
-468,430	-200,000	0,014	-0,059
-467,416	734,510	0,088	-0,173
-466,401	337,143	-0,049	0,070
-465,386	595,770	-0,069	0,125
-464,372	17,175	-0,041	0,023
-463,357	126,481	0,071	0,065
-462,343	56,092	0,061	-0,043
-461,328	196,339	0,032	0,036
-460,313	-39,574	0,074	0,028
-459,299	661,377	0,052	0,098
-458,284	-28,372	0,103	-0,043
-457,270	800,000	0,035	-0,080
-456,255	657,643	0,076	0,142
-455,241	12,012	-0,091	-0,051
-454,226	800,000	0,045	0,111
-453,211	-46,987	-0,139	-0,049
-452,197	-116,206	0,101	0,013
-451,182	-200,000	0,036	0,130
-450,168	54,973	-0,059	-0,042
-449,153	242,275	-0,042	0,052
-448,138	180,792	-0,064	-0,068
-447,124	34,602	-0,039	-0,024
-446,109	17,758	-0,072	-0,042
-445,095	-58,921	0,056	0,017
-444,080	123,684	0,089	0,081
-443,065	-200,000	0,004	-0,132
-442,051	800,000	-0,013	-0,033
-441,036	-131,774	-0,157	-0,015
-440,022	-200,000	-0,014	-0,135
-439,007	297,490	-0,055	0,073
-437,992	254,547	-0,028	-0,035
-436,978	-81,624	0,087	-0,021
-435,963	467,523	0,088	0,144
-434,949	-3,111	-0,127	0,064
-433,934	-99,202	0,022	0,004
-432,919	55,841	0,093	-0,065
-431,905	-200,000	0,004	0,081
-430,890	-143,202	0,040	-0,003
-429,876	-159,690	-0,157	-0,006
-428,861	-57,818	-0,072	-0,023
-427,846	-200,000	-0,030	0,256
-426,832	75,746	-0,038	-0,029
-425,817	-74,906	0,091	-0,024
-424,803	-151,034	0,049	-0,003
-423,788	-200,000	0,030	0,146
-422,773	152,152	0,109	0,108
-421,759	800,000	-0,011	-0,034
-420,744	59,480	-0,131	-0,094
-419,730	-200,000	0,019	-0,080
-418,715	-200,000	0,009	-0,076
-417,701	37,170	-0,102	0,066
-416,686	800,000	0,032	-0,072
-415,671	243,367	-0,100	-0,122
-414,657	-177,483	0,115	-0,002
-413,642	19,217	0,119	0,069
-412,628	265,880	-0,099	-0,126
-411,613	800,000	-0,042	0,102
-410,598	-181,130	0,042	-0,001
-409,584	-200,000	-0,020	0,122
-408,569	800,000	0,072	0,220
-407,555	-32,414	0,115	0,046
-406,540	300,645	-0,014	0,018
-405,525	-145,763	-0,173	-0,011
-404,511	8,142	-0,037	-0,020
-403,496	-146,311	-0,059	-0,004
-402,482	-138,103	0,106	0,008
-401,467	270,539	0,074	0,095
-400,452	298,085	0,115	0,153
-399,438	35,351	-0,119	0,076
-398,423	217,364	-0,094	0,109
-397,409	269,347	-0,039	-0,049
-396,394	-200,000	-0,014	-0,115
-395,379	-107,613	0,080	0,013
-394,365	402,824	0,098	0,150
-393,350	-200,000	0,019	0,088
-392,336	-58,626	0,003	-0,001
-391,321	-74,379	0,061	-0,016
-390,306	183,670	-0,037	-0,040
-389,292	105,918	-0,101	-0,087
-388,277	268,369	-0,098	-0,125
-387,263	-62,494	-0,053	0,016
-386,248	254,778	-0,074	0,093
-385,233	800,000	-0,020	-0,042
-384,219	-200,000	0,017	-0,176
-383,204	-86,857	-0,033	0,007
-382,190	-122,157	-0,053	0,006
-381,175	-117,167	-0,121	0,016
-380,160	-200,000	0,001	0,040
-379,146	-81,090	0,125	0,030
-378,131	240,449	-0,038	-0,046
-377,117	3,058	0,109	0,057
-376,102	41,815	-0,118	-0,077
-375,088	60,597	-0,074	-0,053
-374,073	-200,000	0,000	0,026
-373,058	-200,000	0,023	0,108
-372,044	319,389	0,043	0,059
-371,029	-200,000	-0,017	0,073
-370,015	800,000	-0,058	0,167
-369,000	800,000	-0,021	0,053
-367,985	-0,118	-0,112	0,058
-366,971	-76,759	0,050	-0,013
-365,956	-143,222	0,103	-0,007
-364,942	494,238	0,104	0,174
-363,927	118,015	0,055	-0,049
-362,912	162,786	0,045	0,046
-361,898	-200,000	0,013	-0,049
-360,883	800,000	-0,038	0,094
-359,869	800,000	0,023	0,056
-358,854	-200,000	0,033	-0,118
-357,839	-200,000	-0,023	0,089
-356,825	215,397	0,022	0,025
-355,810	-25,797	-0,117	0,050
-354,796	800,000	0,054	-0,110
-353,781	-124,247	0,011	0,001
-352,766	249,112	0,084	-0,103
-351,752	-31,716	0,055	-0,022
-350,737	184,096	0,061	0,065
-349,723	-200,000	-0,023	-0,102
-348,708	-52,068	0,011	0,004
-347,693	-92,131	0,170	0,034
-346,679	700,414	0,058	-0,111
-345,664	-148,730	0,068	0,004
-344,650	24,966	0,151	0,091
-343,635	-26,009	0,140	0,059
-342,620	-200,000	0,020	0,121
-341,606	800,000	0,043	0,118
-340,591	10,372	-0,053	0,029
-339,577	-181,258	-0,050	-0,001
-338,562	-91,442	-0,124	0,026
-337,548	-200,000	-0,004	-0,038
-336,533	800,000	-0,043	0,087
-335,518	-200,000	0,034	0,117
-334,504	626,382	0,070	0,128
-333,489	-135,392	0,126	-0,011
-332,475	68,143	-0,034	0,025
-331,460	-200,000	-0,031	-0,120
-330,445	25,836	0,009	0,005
-329,431	-200,000	-0,045	0,164
-328,416	-0,925	-0,024	-0,012
-327,402	-20,370	-0,121	0,054
-326,387	42,721	0,115	0,076
-325,372	-46,634	-0,074	0,026
-324,358	-23,812	0,061	0,027
-323,343	2,744	0,065	-0,034
-322,329	438,192	0,011	-0,018
-321,314	-38,114	0,106	-0,041
-320,299	800,000	0,035	0,107
-319,285	-65,909	0,025	-0,007
-318,270	55,353	0,008	0,005
-317,256	-56,526	-0,080	-0,026
-316,241	-194,194	-0,083	-0,000
-315,226	80,147	0,100	0,078
-314,212	44,674	0,083	0,055
-313,197	750,247	-0,018	-0,035
-312,183	800,000	-0,014	0,033
-311,168	167,590	0,100	0,103
-310,153	800,000	-0,016	-0,033
-309,139	-31,903	-0,023	-0,009
-308,124	-200,000	0,037	0,133
-307,110	-200,000	-0,007	0,044
-306,095	382,379	0,076	0,114
-305,080	769,767	-0,005	-0,011
-304,066	-190,234	-0,089	-0,001
-303,051	800,000	0,055	-0,130
-302,037	454,390	0,037	-0,059
-301,022	23,174	-0,067	-0,040
-300,008	-200,000	-0,004	0,044
-298,993	800,000	-0,033	-0,097
-297,978	-200,000	0,011	-0,065
-296,964	121,890	-0,032	0,029
-295,949	-133,389	-0,122	-0,011
-294,935	-200,000	-0,004	-0,031
-293,920	5,289	0,044	0,023
-292,905	773,929	0,034	0,068
-291,891	233,630	0,062	0,073
-290,876	452,236	-0,031	0,050
-289,862	800,000	0,014	-0,030
-288,847	-127,924	-0,051	0,005
-287,832	-41,043	-0,110	-0,041
-286,818	-200,000	-0,004	0,025
-285,803	-200,000	0,005	-0,130
-284,789	9,223	-0,050	0,027
-283,774	147,912	0,071	0,070
-282,759	800,000	-0,021	0,052
-281,745	38,575	-0,045	-0,029
-280,730	-200,000	0,013	-0,197
-279,716	309,563	-0,043	-0,058
-278,701	-67,437	-0,198	-0,056
-277,686	800,000	0,015	-0,037
-276,672	-200,000	-0,019	0,068
-275,657	208,725	-0,035	0,040
-274,643	-200,000	0,004	-0,031
-273,628	800,000	-0,024	0,069
-272,613	-34,743	-0,049	-0,019
-271,599	680,384	-0,022	-0,042
-270,584	41,582	0,055	-0,036
-269,570	143,605	0,065	-0,063
-268,555	800,000	-0,024	0,066
-267,540	24,685	0,032	-0,019
-266,526	800,000	-0,042	-0,106
-265,511	171,692	-0,070	-0,073
-264,497	91,851	-0,083	-0,068
-263,482	800,000	-0,010	0,031
-262,467	-200,000	0,007	0,149
-261,453	800,000	-0,036	-0,112
-260,438	-200,000	0,009	-0,069
-259,424	100,219	0,015	0,013
-258,409	380,994	0,044	-0,065
-257,395	-200,000	-0,011	-0,079
-256,380	-18,658	-0,139	0,062
-255,365	-200,000	0,001	-0,031
-254,351	49,189	0,022	-0,015
-253,336	207,879	0,041	-0,047
-252,322	-67,697	-0,130	-0,037
-251,307	161,340	0,067	-0,068
-250,292	175,874	0,105	-0,110
-249,278	-200,000	0,021	0,089
-248,263	199,606	0,033	0,036
-247,249	300,908	0,048	-0,064
-246,234	-75,301	0,039	0,010
-245,219	-200,000	0,005	-0,090
-244,205	-200,000	0,010	-0,111
-243,190	19,447	0,074	0,043
-242,176	75,432	0,138	0,105
-241,161	-200,000	0,007	-0,137
-240,146	-200,000	-0,006	-0,036
-239,132	800,000	0,023	0,050
-238,117	-200,000	0,007	-0,073
-237,103	163,297	0,068	-0,069
-236,088	34,611	-0,042	0,027
-235,073	-20,632	0,072	0,032
-234,059	600,007	0,041	-0,073
-233,044	-200,000	0,003	0,052
-232,030	2,494	-0,057	-0,030
-231,015	800,000	0,026	0,058
-230,000	-200,000	0,016	0,091
-228,986	-200,000	-0,032	-0,145
-227,971	-14,734	-0,011	-0,005
-226,957	800,000	-0,010	-0,029
-225,942	193,240	-0,033	0,036
-224,927	277,319	-0,026	-0,034
-223,913	-200,000	0,012	0,055
-222,898	-85,952	-0,128	0,028
-221,884	800,000	0,028	-0,057
-220,869	-200,000	-0,000	0,040
-219,855	-200,000	0,029	0,109
-218,840	-167,480	-0,051	-0,001
-217,825	-200,000	0,021	-0,070
-216,811	510,859	0,047	-0,079
-215,796	109,653	0,074	-0,064
-214,782	217,486	-0,124	0,142
-213,767	-7,155	0,116	0,057
-212,752	99,974	0,115	0,096
-211,738	60,568	0,101	0,072
-210,723	335,947	-0,093	0,130
-209,709	-200,000	0,011	-0,042
-208,694	800,000	0,010	-0,021
-207,679	-200,000	-0,037	-0,126
-206,665	-35,162	0,061	0,024
-205,650	-102,081	0,010	-0,002
-204,636	79,173	0,073	0,057
-203,621	359,175	0,073	0,106
-202,606	-58,932	-0,143	0,044
-201,592	-200,000	-0,008	-0,146
-200,577	167,916	0,049	-0,050
-199,563	-47,384	0,052	-0,018
-198,548	-89,117	0,165	-0,035
-197,533	515,729	0,053	-0,090
-196,519	153,318	-0,012	-0,011
-195,504	-74,805	0,119	-0,031
-194,490	-200,000	0,013	0,141
-193,475	160,719	0,076	-0,077
-192,460	503,250	-0,055	-0,091
-191,446	382,277	0,042	-0,063
-190,431	-51,673	-0,128	0,043
-189,417	207,417	-0,101	0,113
-188,402	800,000	0,042	-0,131
-187,387	-200,000	0,008	-0,095
-186,373	102,876	0,106	-0,090
-185,358	-200,000	-0,005	-0,023
-184,344	800,000	-0,018	0,042
-183,329	-73,409	0,073	-0,019
-182,315	394,060	-0,061	-0,092
-181,300	800,000	0,019	-0,043
-180,285	-63,298	-0,132	-0,039
-179,271	-51,141	0,162	-0,054
-178,256	-85,994	0,028	-0,006
-177,242	234,319	-0,044	0,053
-176,227	-39,215	0,184	0,069
-175,212	-200,000	-0,024	0,110
-174,198	-112,000	0,030	-0,004
-173,183	-200,000	0,009	0,050
-172,169	242,911	0,063	-0,076
-171,154	272,906	-0,062	-0,079
-170,139	48,945	-0,031	0,021
-169,125	-4,907	-0,077	-0,038
-168,110	-200,000	-0,004	0,294
-167,096	-103,350	0,091	0,015
-166,081	-60,001	-0,079	-0,024
-165,066	254,779	-0,099	-0,122
-164,052	-77,709	0,066	-0,016
-163,037	-68,851	0,103	0,028
-162,023	356,587	0,028	0,040
-161,008	-200,000	-0,015	0,083
-159,993	-66,705	-0,124	-0,035
-158,979	111,513	-0,112	0,097
-157,964	-164,184	-0,009	0,000
-156,950	143,588	-0,065	-0,062
-155,935	433,195	-0,053	0,083
-154,920	-101,570	0,061	0,011
-153,906	64,874	0,055	0,040
-152,891	16,368	0,019	0,011
-151,877	114,270	-0,139	0,122
-150,862	-83,067	0,069	0,016
-149,847	-35,445	-0,027	-0,010
-148,833	-28,473	-0,072	0,030
-147,818	-200,000	0,013	0,083
-146,804	-200,000	-0,001	0,013
-145,789	-200,000	-0,018	0,061
-144,775	52,968	-0,042	-0,029
-143,760	65,461	-0,085	0,062
-142,745	800,000	0,040	-0,116
-141,731	-143,828	-0,064	-0,004
-140,716	-200,000	0,005	0,046
-139,702	454,121	0,034	-0,055
-138,687	-94,070	0,044	0,009
-137,672	800,000	-0,024	0,072
-136,658	-42,134	-0,107	-0,039
-135,643	-142,668	-0,076	0,005
-134,629	-25,317	-0,121	-0,051
-133,614	64,708	0,047	0,034
-132,599	532,861	0,039	0,067
-131,585	-200,000	0,003	0,100
-130,570	800,000	-0,045	-0,104
-129,556	23,789	-0,062	-0,036
-128,541	-200,000	-0,003	0,083
-127,526	800,000	0,040	-0,127
-126,512	-96,277	-0,068	-0,013
-125,497	443,098	-0,044	-0,070
-124,483	-200,000	-0,012	0,052
-123,468	24,232	-0,104	-0,062
-122,453	99,834	-0,130	0,108
-121,439	296,838	0,044	0,058
-120,424	-200,000	-0,005	-0,021
-119,410	-108,788	0,121	0,018
-118,395	800,000	-0,025	-0,056
