DTS Sentinel unit serial number:	SN410029Multiplexer serial number:	ORYXHardware model number:	OX2-SRSoftware version number:	ORYX F/W v4,00 Oryx Data Collector v3.7.2.0data status	okinstallation	B5 Nyhavnadifferential loss correction	single-endedforward channel	channel 2reverse channel	N/Adate	2023/12/11time	17:37:13forward acquisition time	300,00reverse acquisition time	0,00gamma	499,1914k internal	0,3163k external	0,3163temperature offset calibration	1,0000default loss term (dB/km)	0,3820temperature slope calibration	1,0000multiplexer offset coefficient	1,0000multiplexer slope coefficient	1,0000fibre end	0,00T internal ref (°C)	14,79T ext. ref 1 (°C)	-0,69T ext. ref 2 (°C)	-0,90length (m)	temperature (°C)	Stokes	anti-Stokes-744,400	588,370	-0,019	-0,034
-743,385	-120,041	-0,383	-0,048
-742,371	467,003	0,140	0,232
-741,356	-184,212	-0,299	0,004
-740,342	126,120	0,082	0,076
-739,327	-139,396	-0,202	0,016
-738,312	-200,000	-0,020	0,102
-737,298	201,606	-0,123	0,140
-736,283	-200,000	0,012	0,048
-735,269	-69,868	-0,219	-0,061
-734,254	-178,137	0,187	0,003
-733,239	-36,525	-0,481	-0,190
-732,225	-179,452	0,242	0,004
-731,210	-200,000	0,019	0,186
-730,196	415,671	-0,050	0,079
-729,181	150,471	-0,101	0,101
-728,167	-200,000	0,007	-0,026
-727,152	800,000	-0,016	0,038
-726,137	-102,948	-0,103	-0,018
-725,123	194,277	-0,052	0,058
-724,108	-178,194	-0,208	-0,004
-723,094	350,680	0,091	-0,132
-722,079	136,954	-0,110	-0,105
-721,064	180,395	-0,025	0,027
-720,050	-200,000	-0,026	-0,103
-719,035	206,473	-0,010	-0,011
-718,021	-172,363	-0,124	0,003
-717,006	379,184	-0,045	-0,068
-715,991	81,337	0,063	-0,050
-714,977	217,045	-0,078	-0,092
-713,962	617,196	0,046	-0,085
-712,948	-17,776	0,045	-0,021
-711,933	-45,194	0,029	0,011
-710,918	-62,681	0,084	0,025
-709,904	280,595	-0,032	-0,042
-708,889	800,000	-0,031	-0,072
-707,875	-67,752	-0,126	0,036
-706,860	800,000	-0,016	-0,044
-705,845	58,406	0,022	0,016
-704,831	338,901	0,109	0,157
-703,816	50,808	-0,026	0,018
-702,802	-55,465	0,020	0,006
-701,787	318,157	-0,080	-0,112
-700,772	-200,000	0,008	-0,058
-699,758	-200,000	-0,021	-0,086
-698,743	-154,773	-0,009	-0,000
-697,729	-9,880	0,046	-0,022
-696,714	306,282	0,102	0,139
-695,699	11,144	-0,160	0,090
-694,685	412,156	0,075	-0,117
-693,670	800,000	0,052	-0,113
-692,656	54,292	0,115	-0,081
-691,641	-200,000	0,013	-0,102
-690,627	324,768	0,076	0,107
-689,612	-4,764	0,034	-0,017
-688,597	-200,000	-0,016	-0,079
-687,583	-69,185	-0,106	-0,030
-686,568	6,771	-0,033	0,018
-685,554	193,330	-0,155	-0,172
-684,539	800,000	0,058	-0,132
-683,524	-93,890	-0,117	-0,023
-682,510	573,902	0,064	-0,115
-681,495	367,455	-0,053	-0,079
-680,481	359,681	-0,133	-0,196
-679,466	-200,000	0,005	-0,114
-678,451	357,178	0,065	-0,096
-677,437	800,000	0,010	0,033
-676,422	138,303	0,097	0,094
-675,408	291,269	-0,089	0,119
-674,393	-200,000	-0,012	-0,116
-673,378	208,207	0,145	-0,167
-672,364	-200,000	-0,001	0,039
-671,349	-200,000	0,005	0,052
-670,335	69,964	0,067	0,051
-669,320	800,000	-0,054	0,111
-668,305	-85,775	0,163	-0,037
-667,291	-38,454	-0,146	-0,056
-666,276	84,260	-0,038	-0,030
-665,262	-200,000	0,000	-0,014
-664,247	139,833	-0,122	-0,118
-663,232	800,000	-0,019	0,048
-662,218	44,636	-0,081	0,055
-661,203	165,560	-0,041	0,043
-660,189	70,111	-0,118	-0,089
-659,174	451,911	-0,083	-0,134
-658,159	18,320	-0,059	-0,034
-657,145	73,516	-0,133	-0,102
-656,130	-143,288	-0,042	-0,003
-655,116	-57,112	-0,100	0,032
-654,101	-9,674	0,075	0,036
-653,086	101,291	-0,066	0,056
-652,072	-78,625	-0,037	0,009
-651,057	-48,421	-0,116	-0,041
-650,043	-135,192	-0,075	-0,006
-649,028	-121,068	0,068	-0,008
-648,014	-200,000	0,012	0,055
-646,999	366,792	-0,057	0,085
-645,984	313,629	0,040	-0,056
-644,970	72,551	-0,055	-0,042
-643,955	-18,428	-0,166	-0,076
-642,941	245,895	-0,036	-0,045
-641,926	204,034	-0,094	-0,106
-640,911	-200,000	-0,020	0,089
-639,897	-200,000	-0,046	0,165
-638,882	-114,480	-0,110	-0,015
-637,868	46,237	0,103	-0,070
-636,853	691,042	-0,036	-0,070
-635,838	-158,147	-0,053	0,002
-634,824	69,986	0,015	-0,011
-633,809	230,928	0,111	0,134
-632,795	-59,674	0,072	-0,023
-631,780	571,767	-0,062	0,110
-630,765	-200,000	-0,000	0,043
-629,751	-47,577	-0,170	-0,060
-628,736	-200,000	0,033	-0,134
-627,722	136,732	0,010	0,009
-626,707	-200,000	-0,019	-0,071
-625,692	-119,627	0,012	0,001
-624,678	30,051	0,035	-0,022
-623,663	-200,000	-0,008	0,063
-622,649	329,646	-0,067	-0,095
-621,634	5,762	0,034	-0,018
-620,619	-122,343	-0,032	0,004
-619,605	-34,961	-0,111	-0,044
-618,590	800,000	0,005	0,014
-617,576	-200,000	-0,026	0,109
-616,561	313,014	0,044	0,061
-615,546	-200,000	-0,032	-0,125
-614,532	-20,950	-0,135	-0,060
-613,517	174,324	0,071	-0,075
-612,503	340,786	0,055	-0,079
-611,488	-200,000	-0,005	-0,027
-610,474	-149,894	0,082	-0,005
-609,459	-200,000	0,005	-0,092
-608,444	800,000	-0,031	-0,090
-607,430	-71,289	-0,090	0,024
-606,415	29,356	0,059	-0,037
-605,401	-200,000	0,000	0,042
-604,386	276,496	-0,024	0,032
-603,371	185,956	0,039	0,042
-602,357	800,000	0,041	0,119
-601,342	275,196	-0,069	-0,090
-600,328	-118,787	-0,172	-0,022
-599,313	-18,803	0,133	0,060
-598,298	800,000	-0,053	-0,160
-597,284	800,000	-0,029	-0,081
-596,269	120,588	0,106	0,096
-595,255	485,159	0,062	0,103
-594,240	254,850	0,050	-0,063
-593,225	-142,109	-0,115	-0,008
-592,211	-54,977	-0,072	-0,024
-591,196	-200,000	-0,001	0,073
-590,182	800,000	-0,033	0,095
-589,167	149,328	-0,037	-0,037
-588,152	-200,000	-0,005	0,089
-587,138	-200,000	0,003	0,098
-586,123	-73,600	-0,082	0,022
-585,109	-104,315	-0,058	0,010
-584,094	-200,000	0,004	-0,048
-583,079	162,992	-0,034	-0,035
-582,065	-171,581	0,152	0,004
-581,050	58,652	-0,138	0,099
-580,036	800,000	0,048	0,140
-579,021	372,072	0,037	-0,056
-578,006	299,844	-0,005	-0,006
-576,992	-200,000	-0,039	-0,131
-575,977	-158,153	-0,093	0,004
-574,963	5,272	0,052	0,028
-573,948	-200,000	-0,031	-0,118
-572,934	-200,000	-0,016	-0,128
-571,919	278,143	0,050	0,066
-570,904	-200,000	-0,001	-0,022
-569,890	272,523	-0,008	0,011
-568,875	800,000	0,052	-0,154
-567,861	800,000	0,025	-0,062
-566,846	-59,995	-0,098	-0,030
-565,831	100,450	0,073	0,062
-564,817	-81,004	0,075	-0,018
-563,802	34,150	-0,048	-0,030
-562,788	-101,583	-0,068	-0,012
-561,773	-67,914	-0,092	-0,026
-560,758	-28,386	-0,108	-0,045
-559,744	154,092	0,046	0,046
-558,729	-34,743	0,105	-0,042
-557,715	93,231	0,047	-0,039
-556,700	-4,308	-0,128	-0,064
-555,685	-36,466	0,094	-0,037
-554,671	89,153	0,028	0,023
-553,656	52,460	0,112	-0,078
-552,642	548,421	0,038	-0,067
-551,627	-85,846	0,139	-0,031
-550,612	800,000	-0,066	0,136
-549,598	-200,000	0,010	-0,051
-548,583	800,000	0,028	0,084
-547,569	800,000	0,012	0,037
-546,554	84,114	-0,071	0,056
-545,539	-200,000	-0,008	0,035
-544,525	-200,000	-0,041	0,152
-543,510	195,082	-0,055	-0,062
-542,496	-80,905	0,059	0,014
-541,481	-99,415	0,080	-0,015
-540,466	-104,249	0,069	0,012
-539,452	800,000	0,015	0,041
-538,437	800,000	-0,039	-0,116
-537,423	12,738	0,091	0,051
-536,408	-200,000	-0,016	0,073
-535,393	-13,124	0,051	-0,024
-534,379	-200,000	0,044	-0,162
-533,364	-200,000	0,009	-0,094
-532,350	106,692	0,052	-0,045
-531,335	61,363	0,075	-0,054
-530,321	-111,911	0,097	0,014
-529,306	-200,000	-0,019	0,125
-528,291	46,486	0,099	-0,067
-527,277	-200,000	0,003	-0,022
-526,262	295,751	-0,064	0,086
-525,248	-200,000	-0,003	-0,042
-524,233	-85,870	0,058	0,013
-523,218	800,000	0,016	-0,045
-522,204	100,799	0,045	-0,038
-521,189	-71,955	-0,198	0,053
-520,175	436,340	-0,025	-0,040
-519,160	-128,878	-0,028	0,003
-518,145	250,041	-0,051	0,063
-517,131	22,219	0,188	0,112
-516,116	59,638	-0,098	-0,070
-515,102	29,706	-0,024	-0,015
-514,087	-200,000	0,017	-0,063
-513,072	-200,000	-0,007	-0,123
-512,058	-57,866	0,066	0,021
-511,043	152,060	0,114	0,114
-510,029	800,000	-0,049	-0,119
-509,014	-30,436	0,064	-0,026
-507,999	800,000	0,046	0,118
-506,985	800,000	-0,017	0,042
-505,970	235,068	-0,032	-0,039
-504,956	-200,000	-0,033	-0,132
-503,941	-200,000	-0,017	-0,076
-502,926	-200,000	0,024	-0,091
-501,912	-200,000	0,211	-0,001
-500,897	-138,410	0,081	0,006
-499,883	-200,000	-0,026	-0,089
-498,868	60,255	-0,077	-0,056
-497,853	-107,426	-0,079	-0,012
-496,839	-52,170	0,114	0,038
-495,824	-200,000	0,009	-0,056
-494,810	-200,000	0,000	-0,003
-493,795	23,172	0,022	0,013
-492,781	414,892	0,032	0,050
-491,766	-78,562	-0,039	-0,010
-490,751	82,382	0,030	-0,024
-489,737	-200,000	-0,001	0,103
-488,722	-200,000	-0,004	0,078
-487,708	-200,000	0,006	0,126
-486,693	665,487	0,065	0,122
-485,678	302,538	0,042	0,056
-484,664	49,763	-0,099	-0,068
-483,649	-13,534	-0,033	-0,015
-482,635	-84,029	0,083	0,019
-481,620	-200,000	-0,019	0,062
-480,605	800,000	-0,062	0,127
-479,591	800,000	0,003	-0,007
-478,576	36,183	0,042	-0,027
-477,562	800,000	-0,025	-0,051
-476,547	-200,000	0,043	-0,203
-475,532	371,185	-0,037	-0,055
-474,518	-200,000	-0,007	-0,040
-473,503	-36,275	0,145	0,057
-472,489	2,050	-0,159	-0,083
-471,474	-43,933	0,154	-0,056
-470,459	-75,680	-0,125	0,032
-469,445	177,109	0,013	0,013
-468,430	571,373	-0,073	-0,130
-467,416	-200,000	-0,013	-0,052
-466,401	216,095	-0,020	0,023
-465,386	328,848	-0,061	0,086
-464,372	521,861	-0,060	0,103
-463,357	790,232	-0,029	-0,059
-462,343	248,977	0,077	-0,095
-461,328	313,401	0,060	0,083
-460,313	-200,000	0,014	0,109
-459,299	-164,884	0,054	0,002
-458,284	366,778	0,065	0,096
-457,270	-85,326	0,170	-0,038
-456,255	-52,197	-0,030	-0,010
-455,241	-80,619	-0,106	0,025
-454,226	-74,461	0,093	-0,024
-453,211	800,000	0,036	-0,087
-452,197	-200,000	-0,037	0,144
-451,182	800,000	0,022	-0,060
-450,168	-200,000	-0,024	0,151
-449,153	-39,206	0,042	0,016
-448,138	341,270	-0,067	0,096
-447,124	-21,731	-0,086	0,038
-446,109	259,826	0,065	-0,082
-445,095	800,000	-0,041	-0,083
-444,080	78,564	-0,069	-0,054
-443,065	-200,000	0,016	-0,056
-442,051	-4,669	0,117	0,059
-441,036	-94,825	0,124	-0,024
-440,022	-200,000	-0,009	-0,120
-439,007	285,913	0,011	0,014
-437,992	90,740	-0,017	0,014
-436,978	-171,471	-0,091	0,002
-435,963	-106,322	0,093	0,015
-434,949	-7,637	0,011	0,005
-433,934	-46,687	-0,121	0,043
-432,919	-18,234	-0,172	-0,078
-431,905	78,738	-0,104	-0,081
-430,890	329,107	-0,045	0,064
-429,876	44,440	0,067	0,044
-428,861	48,661	0,083	0,057
-427,846	-101,247	-0,079	-0,014
-426,832	-200,000	-0,020	-0,104
-425,817	82,738	-0,111	0,088
-424,803	-61,981	0,112	0,034
-423,788	12,506	0,111	-0,062
-422,773	725,239	-0,009	0,018
-421,759	-86,818	0,082	0,018
-420,744	95,700	-0,044	-0,036
-419,730	-200,000	-0,025	-0,133
-418,715	800,000	0,026	-0,074
-417,701	63,712	0,091	-0,067
-416,686	109,014	0,081	-0,070
-415,671	58,589	-0,091	0,065
-414,657	-200,000	0,007	0,049
-413,642	-22,913	0,113	0,049
-412,628	-200,000	-0,017	0,183
-411,613	800,000	-0,065	-0,134
-410,598	41,607	0,091	0,060
-409,584	-147,301	0,102	0,006
-408,569	800,000	0,046	-0,121
-407,555	421,499	-0,041	-0,065
-406,540	-200,000	-0,020	-0,083
-405,525	56,394	0,044	-0,031
-404,511	-68,663	-0,185	0,052
-403,496	28,033	-0,075	0,046
-402,482	-105,314	0,070	-0,011
-401,467	233,419	-0,067	-0,080
-400,452	56,801	0,068	-0,048
-399,438	465,301	-0,013	0,022
-398,423	800,000	-0,010	0,020
-397,409	-66,532	-0,128	-0,037
-396,394	533,380	0,039	-0,068
-395,379	87,117	0,101	-0,081
-394,365	-74,331	0,104	-0,027
-393,350	161,273	-0,078	0,079
-392,336	199,813	-0,040	0,044
-391,321	526,941	0,082	0,140
-390,306	-78,426	0,081	0,020
-389,292	18,365	-0,034	0,020
-388,277	-15,157	-0,133	0,062
-387,263	800,000	0,052	-0,120
-386,248	-0,770	0,078	-0,040
-385,233	132,165	0,083	-0,077
-384,219	-94,099	-0,068	0,013
-383,204	367,776	-0,045	-0,066
-382,190	-200,000	-0,002	0,052
-381,175	110,812	0,052	-0,045
-380,160	-200,000	0,010	0,084
-379,146	389,826	0,027	0,041
-378,131	6,399	-0,144	0,078
-377,117	28,812	0,038	0,024
-376,102	56,281	-0,206	-0,145
-375,088	-200,000	0,036	-0,151
-374,073	199,795	-0,086	-0,095
-373,058	97,857	0,228	0,190
-372,044	463,240	-0,031	0,051
-371,029	-81,570	0,186	0,044
-370,015	-69,528	-0,137	-0,038
-369,000	-200,000	0,005	-0,076
-367,985	35,868	0,030	0,019
-366,971	294,973	-0,069	0,092
-365,956	800,000	0,076	0,186
-364,942	407,885	0,049	-0,075
-363,927	156,555	-0,141	0,141
-362,912	104,256	0,100	0,086
-361,898	272,402	-0,084	0,108
-360,883	39,053	-0,095	0,061
-359,869	235,689	0,055	-0,066
-358,854	-200,000	-0,019	0,068
-357,839	-200,000	0,022	0,105
-356,825	-200,000	0,040	0,130
-355,810	-200,000	0,006	-0,073
-354,796	31,815	0,021	0,013
-353,781	189,723	-0,050	0,054
-352,766	-82,197	-0,079	-0,018
-351,752	-100,443	0,128	-0,023
-350,737	800,000	0,010	0,033
-349,723	66,693	0,095	0,070
-348,708	-200,000	-0,004	0,158
-347,693	-200,000	0,024	0,222
-346,679	-103,100	-0,126	-0,021
-345,664	-189,381	-0,119	-0,001
-344,650	-8,556	0,062	0,030
-343,635	800,000	-0,031	0,098
-342,620	-26,073	0,066	0,028
-341,606	384,630	-0,093	0,139
-340,591	-50,458	-0,075	-0,025
-339,577	84,375	-0,074	-0,059
-338,562	-200,000	-0,002	-0,067
-337,548	9,071	0,125	-0,068
-336,533	-53,635	-0,112	-0,037
-335,518	-73,665	-0,026	-0,007
-334,504	-110,716	0,086	0,013
-333,489	-200,000	-0,006	0,040
-332,475	177,078	-0,046	0,049
-331,460	69,659	-0,037	-0,027
-330,445	800,000	0,038	-0,083
-329,431	-159,291	0,063	-0,002
-328,416	-41,263	-0,026	-0,010
-327,402	-181,469	0,110	-0,002
-326,387	448,337	0,038	0,061
-325,372	-48,847	0,078	0,027
-324,358	513,166	-0,063	-0,106
-323,343	800,000	0,023	-0,058
-322,329	198,254	-0,032	-0,036
-321,314	271,674	0,010	-0,013
-320,299	800,000	0,041	-0,126
-319,285	19,927	0,083	0,048
-318,270	-200,000	-0,041	0,136
-317,256	320,544	0,052	0,072
-316,241	-200,000	-0,007	-0,048
-315,226	-50,799	0,075	0,025
-314,212	800,000	0,023	-0,070
-313,197	454,684	0,036	0,058
-312,183	-22,630	0,023	0,010
-311,168	15,477	0,038	-0,021
-310,153	-157,888	-0,086	0,004
-309,139	660,800	-0,033	-0,062
-308,124	800,000	-0,074	0,163
-307,110	-200,000	0,029	0,145
-306,095	88,208	0,047	0,038
-305,080	87,069	-0,031	0,025
-304,066	-21,432	0,048	-0,021
-303,051	-113,748	-0,257	-0,036
-302,037	-200,000	-0,025	-0,105
-301,022	-94,706	-0,056	0,011
-300,008	-99,601	-0,090	0,016
-298,993	174,267	0,103	-0,108
-297,978	162,234	0,099	-0,100
-296,964	-152,663	-0,134	-0,007
-295,949	-98,955	0,082	-0,015
-294,935	-14,105	-0,190	0,088
-293,920	-2,452	0,061	0,031
-292,905	336,103	-0,060	0,084
-291,891	175,118	0,125	0,131
-290,876	149,847	0,079	0,078
-289,862	-194,914	-0,228	0,001
-288,847	-121,501	-0,033	0,004
-287,832	290,872	-0,046	0,061
-286,818	-200,000	0,005	0,021
-285,803	-104,582	0,093	-0,015
-284,789	-200,000	0,001	0,083
-283,774	529,977	0,060	0,103
-282,759	-200,000	0,011	0,130
-281,745	800,000	0,056	-0,118
-280,730	751,545	0,018	-0,035
-279,716	340,297	0,048	0,068
-278,701	-59,210	0,161	-0,050
-277,686	-5,220	-0,008	-0,004
-276,672	1,453	-0,136	0,070
-275,657	-200,000	-0,024	0,105
-274,643	800,000	0,039	0,081
-273,628	198,884	-0,104	-0,115
-272,613	-200,000	0,019	-0,188
-271,599	-91,607	0,064	0,013
-270,584	-110,246	0,071	-0,011
-269,570	75,435	-0,061	0,047
-268,555	94,161	0,133	0,109
-267,540	610,376	-0,090	-0,162
-266,526	13,191	0,093	-0,052
-265,511	-100,994	-0,040	0,007
-264,497	800,000	0,009	-0,018
-263,482	800,000	-0,029	0,065
-262,467	-200,000	-0,030	0,100
-261,453	-200,000	-0,012	0,149
-260,438	800,000	-0,006	-0,015
-259,424	-126,894	-0,064	-0,007
-258,409	-200,000	0,003	-0,093
-257,395	800,000	0,032	0,100
-256,380	-200,000	-0,025	-0,138
-255,365	800,000	-0,053	0,125
-254,351	-25,831	-0,133	-0,056
-253,336	112,721	-0,106	0,093
-252,322	-15,017	-0,067	0,031
-251,307	-107,254	0,020	-0,003
-250,292	-40,303	-0,015	-0,006
-249,278	50,361	0,034	0,023
-248,263	132,350	0,039	0,036
-247,249	-7,110	-0,100	0,049
-246,234	-149,737	0,093	0,005
-245,219	800,000	0,002	-0,005
-244,205	-174,323	-0,073	0,001
-243,190	276,119	-0,022	0,029
-242,176	-139,272	0,055	0,004
-241,161	67,374	0,071	0,052
-240,146	-200,000	0,039	-0,146
-239,132	8,346	-0,088	0,048
-238,117	-19,142	-0,037	0,016
-237,103	87,044	-0,072	-0,058
-236,088	57,399	-0,047	-0,033
-235,073	-119,705	-0,113	0,014
-234,059	-200,000	-0,011	-0,041
-233,044	-200,000	-0,026	-0,088
-232,030	533,654	0,055	0,095
-231,015	-1,254	-0,104	-0,053
-230,000	203,661	0,010	-0,012
-228,986	-164,263	0,042	-0,001
-227,971	45,272	0,199	0,132
-226,957	318,761	0,104	0,142
-225,942	-40,896	0,215	0,080
-224,927	800,000	-0,028	0,065
-223,913	-200,000	-0,004	0,050
-222,898	800,000	0,029	-0,067
-221,884	237,791	0,052	-0,063
-220,869	96,815	0,054	-0,045
-219,855	-200,000	0,056	0,193
-218,840	20,839	0,032	0,019
-217,825	23,545	0,090	0,054
-216,811	74,950	-0,083	0,063
-215,796	-200,000	-0,000	-0,095
-214,782	800,000	-0,025	0,053
-213,767	9,788	-0,110	-0,060
-212,752	-125,000	0,018	0,002
-211,738	-127,994	-0,055	-0,006
-210,723	-200,000	-0,023	-0,088
-209,709	800,000	-0,043	0,113
-208,694	166,799	0,127	-0,130
-207,679	391,515	-0,116	-0,174
-206,665	-200,000	-0,004	-0,220
-205,650	-74,798	0,163	0,042
-204,636	-200,000	0,021	0,070
-203,621	19,899	-0,037	-0,022
-202,606	199,428	0,070	0,078
-201,592	119,452	-0,104	-0,093
-200,577	-200,000	0,015	-0,114
-199,563	-33,623	-0,097	-0,039
-198,548	91,829	0,027	0,022
-197,533	-94,458	-0,015	0,003
-196,519	-200,000	-0,011	-0,045
-195,504	-117,494	-0,082	0,011
-194,490	-111,084	-0,062	-0,009
-193,475	124,385	-0,051	-0,046
-192,460	-61,359	-0,058	0,017
-191,446	152,276	0,046	0,045
-190,431	800,000	0,036	0,100
-189,417	56,817	0,022	0,016
-188,402	-200,000	0,014	0,055
-187,387	422,858	0,026	0,041
-186,373	27,588	-0,127	0,077
-185,358	-200,000	0,009	-0,091
-184,344	7,875	-0,051	0,027
-183,329	222,076	0,105	-0,121
-182,315	-63,181	0,046	-0,014
-181,300	402,635	-0,062	-0,094
-180,285	-45,905	-0,159	-0,056
-179,271	-70,268	0,008	-0,002
-178,256	-200,000	-0,031	-0,154
-177,242	-53,154	0,087	0,028
-176,227	151,655	0,068	0,067
-175,212	140,513	-0,062	0,059
-174,198	-60,911	-0,063	0,019
-173,183	100,764	-0,083	-0,070
-172,169	-158,793	0,071	-0,003
-171,154	464,456	-0,054	-0,088
-170,139	2,278	0,089	-0,046
-169,125	-33,339	0,041	-0,016
-168,110	368,615	0,035	-0,051
-167,096	588,588	0,095	0,170
-166,081	-142,295	0,156	0,011
-165,066	-200,000	0,004	0,019
-164,052	17,983	-0,101	0,057
-163,037	-23,633	0,062	-0,027
-162,023	-109,352	0,153	0,023
-161,008	-200,000	0,005	0,035
-159,993	-110,352	-0,127	-0,019
-158,979	-200,000	0,027	-0,114
-157,964	-67,402	-0,177	0,050
-156,950	800,000	-0,020	-0,040
-155,935	-2,265	-0,060	-0,030
-154,920	503,177	0,041	-0,068
-153,906	-11,558	-0,091	-0,043
-152,891	127,299	0,158	-0,145
-151,877	-74,967	-0,058	-0,015
-150,862	158,136	-0,177	0,176
-149,847	-157,343	-0,113	-0,005
-148,833	-200,000	-0,015	0,169
-147,818	232,760	0,033	0,038
-146,804	648,683	-0,070	0,129
-145,789	238,295	-0,042	-0,050
-144,775	46,768	0,002	0,001
-143,760	201,961	-0,066	-0,074
-142,745	-25,365	-0,138	0,058
-141,731	-200,000	0,005	-0,068
-140,716	42,612	0,067	-0,044
-139,702	800,000	0,039	-0,091
-138,687	-200,000	0,001	0,166
-137,672	20,053	0,118	-0,068
-136,658	-44,970	0,096	-0,034
-135,643	-200,000	0,020	-0,111
-134,629	82,059	-0,032	0,025
-133,614	-85,088	-0,043	-0,010
-132,599	-89,331	0,053	0,011
-131,585	361,549	0,060	0,086
-130,570	800,000	0,043	0,098
-129,556	699,725	-0,089	-0,169
-128,541	800,000	-0,031	0,071
-127,526	-200,000	0,001	-0,081
-126,512	287,656	-0,029	-0,037
-125,497	193,764	0,057	0,062
-124,483	-41,563	-0,128	0,047
-123,468	234,480	0,038	-0,045
-122,453	-200,000	-0,013	-0,160
-121,439	-200,000	0,007	-0,102
-120,424	-121,687	0,163	-0,019
-119,410	800,000	0,018	0,042
-118,395	31,205	0,132	-0,081
