DTS Sentinel unit serial number:	SN410029Multiplexer serial number:	ORYXHardware model number:	OX2-SRSoftware version number:	ORYX F/W v4,00 Oryx Data Collector v3.7.2.0data status	okinstallation	B5 Nyhavnadifferential loss correction	single-endedforward channel	channel 2reverse channel	N/Adate	2023/12/12time	12:27:13forward acquisition time	300,00reverse acquisition time	0,00gamma	499,1914k internal	0,3158k external	0,3158temperature offset calibration	1,0000default loss term (dB/km)	0,3820temperature slope calibration	1,0000multiplexer offset coefficient	1,0000multiplexer slope coefficient	1,0000fibre end	0,00T internal ref (°C)	15,30T ext. ref 1 (°C)	-0,62T ext. ref 2 (°C)	-0,88length (m)	temperature (°C)	Stokes	anti-Stokes-744,400	345,973	0,088	-0,128
-743,385	-20,211	-0,049	-0,022
-742,371	-200,000	-0,014	0,058
-741,356	-176,986	-0,217	0,004
-740,342	800,000	0,045	0,093
-739,327	-76,447	-0,197	-0,051
-738,312	71,207	0,032	0,025
-737,298	-111,891	-0,312	-0,046
-736,283	1,608	0,101	0,054
-735,269	-20,181	-0,275	0,124
-734,254	411,644	0,110	0,173
-733,239	-169,568	-0,507	0,013
-732,225	153,090	0,107	0,108
-731,210	199,710	0,157	0,178
-730,196	567,783	-0,021	0,037
-729,181	-200,000	0,004	-0,026
-728,167	305,568	-0,065	-0,090
-727,152	246,895	-0,030	-0,037
-726,137	800,000	-0,043	-0,091
-725,123	-30,210	-0,081	-0,034
-724,108	450,511	-0,071	-0,115
-723,094	-23,343	-0,130	-0,057
-722,079	-200,000	-0,001	0,019
-721,064	68,703	-0,113	-0,085
-720,050	73,254	0,134	-0,103
-719,035	560,042	0,057	-0,101
-718,021	441,409	-0,158	-0,255
-717,006	680,200	-0,076	-0,147
-715,991	-72,830	-0,207	0,056
-714,977	-106,444	0,093	-0,015
-713,962	800,000	-0,023	0,051
-712,948	63,238	0,058	0,043
-711,933	-43,864	-0,042	0,016
-710,918	-22,634	-0,172	0,076
-709,904	7,936	0,057	0,031
-708,889	-67,254	-0,074	0,021
-707,875	-200,000	0,006	-0,037
-706,860	400,912	0,069	-0,108
-705,845	-0,686	0,049	-0,025
-704,831	353,641	-0,063	0,092
-703,816	-87,659	-0,026	-0,006
-702,802	-200,000	0,018	-0,077
-701,787	-10,678	-0,196	-0,095
-700,772	100,374	0,028	-0,024
-699,758	800,000	0,025	-0,061
-698,743	-92,898	-0,081	0,016
-697,729	-45,856	0,082	-0,030
-696,714	-117,118	-0,054	-0,007
-695,699	72,617	-0,146	-0,112
-694,685	-78,222	-0,106	0,026
-693,670	-9,552	-0,103	-0,050
-692,656	-200,000	0,008	-0,073
-691,641	-99,015	-0,074	-0,014
-690,627	20,071	0,024	-0,014
-689,612	-200,000	-0,009	0,051
-688,597	488,510	-0,012	-0,020
-687,583	42,741	-0,047	0,031
-686,568	-52,310	0,073	0,025
-685,554	-55,132	-0,082	-0,027
-684,539	580,293	-0,044	0,079
-683,524	800,000	0,028	0,072
-682,510	800,000	-0,006	0,015
-681,495	344,602	-0,061	0,088
-680,481	32,873	-0,147	-0,093
-679,466	-100,597	-0,095	-0,017
-678,451	-13,704	-0,053	-0,025
-677,437	268,907	0,051	-0,066
-676,422	-200,000	-0,010	-0,058
-675,408	800,000	-0,028	-0,063
-674,393	66,399	-0,044	-0,032
-673,378	-54,276	-0,136	-0,045
-672,364	230,967	-0,044	-0,054
-671,349	800,000	-0,035	0,077
-670,335	64,906	-0,065	-0,048
-669,320	-200,000	0,010	0,046
-668,305	515,751	-0,048	-0,082
-667,291	-38,586	-0,100	-0,039
-666,276	61,538	-0,109	0,080
-665,262	-200,000	0,009	0,032
-664,247	-95,399	0,121	0,024
-663,232	16,250	-0,044	0,025
-662,218	800,000	0,021	0,045
-661,203	-200,000	-0,003	0,025
-660,189	253,495	-0,093	-0,116
-659,174	-66,006	0,039	-0,011
-658,159	-59,793	0,083	-0,026
-657,145	-107,301	-0,161	0,026
-656,130	-145,929	-0,111	-0,007
-655,116	-200,000	0,020	0,150
-654,101	9,952	0,085	-0,047
-653,086	265,359	-0,011	0,015
-652,072	602,341	0,038	-0,070
-651,057	217,473	-0,070	-0,083
-650,043	146,310	-0,106	-0,104
-649,028	-200,000	0,030	0,110
-648,014	218,880	-0,008	0,009
-646,999	53,158	0,032	0,023
-645,984	42,084	0,034	0,022
-644,970	-81,066	-0,090	0,022
-643,955	-200,000	-0,007	-0,096
-642,941	800,000	0,047	0,149
-641,926	800,000	-0,037	-0,077
-640,911	228,442	-0,060	0,072
-639,897	-200,000	-0,010	0,082
-638,882	-200,000	-0,000	-0,122
-637,868	23,719	0,061	-0,037
-636,853	-141,270	-0,061	-0,004
-635,838	164,233	-0,116	-0,120
-634,824	-141,606	0,141	-0,010
-633,809	225,478	-0,025	0,030
-632,795	-90,279	0,123	-0,026
-631,780	627,055	-0,084	0,156
-630,765	114,752	-0,050	0,045
-629,751	259,200	-0,052	0,066
-628,736	-43,736	0,041	0,015
-627,722	132,456	-0,019	0,018
-626,707	800,000	-0,079	0,172
-625,692	243,294	-0,085	-0,105
-624,678	-200,000	0,015	0,224
-623,663	490,539	0,056	0,095
-622,649	54,366	-0,047	0,033
-621,634	-42,938	-0,032	0,012
-620,619	47,995	0,040	0,027
-619,605	168,843	-0,089	-0,093
-618,590	243,921	-0,086	0,106
-617,576	-200,000	-0,006	-0,061
-616,561	-61,099	-0,049	-0,015
-615,546	-115,688	-0,127	-0,017
-614,532	1,470	-0,160	-0,084
-613,517	-200,000	-0,012	-0,214
-612,503	19,993	-0,127	-0,075
-611,488	133,413	0,074	-0,070
-610,474	-37,471	-0,109	0,043
-609,459	-200,000	-0,024	-0,127
-608,444	-153,856	-0,094	0,005
-607,430	-86,131	0,111	0,025
-606,415	-200,000	0,001	-0,068
-605,401	-142,694	0,035	-0,002
-604,386	-200,000	0,008	-0,067
-603,371	-37,495	-0,042	0,016
-602,357	-19,555	0,025	0,011
-601,342	-200,000	0,042	0,170
-600,328	-16,695	-0,090	-0,042
-599,313	234,163	0,008	-0,010
-598,298	574,921	-0,037	0,066
-597,284	-200,000	-0,005	0,029
-596,269	-200,000	-0,043	0,176
-595,255	75,366	0,026	0,020
-594,240	-167,838	-0,156	0,004
-593,225	-24,827	-0,101	-0,044
-592,211	-200,000	0,033	-0,142
-591,196	-51,668	-0,091	-0,031
-590,182	800,000	0,054	-0,146
-589,167	339,198	0,067	0,096
-588,152	800,000	-0,017	-0,054
-587,138	-200,000	0,045	-0,151
-586,123	-200,000	-0,022	-0,113
-585,109	109,979	-0,064	-0,057
-584,094	-160,814	-0,100	-0,004
-583,079	8,309	-0,092	-0,050
-582,065	176,757	0,066	0,070
-581,050	114,562	0,052	0,046
-580,036	800,000	-0,066	-0,181
-579,021	-144,709	0,032	-0,002
-578,006	-54,685	-0,153	-0,050
-576,992	715,889	-0,090	-0,176
-575,977	-200,000	0,020	-0,105
-574,963	-49,453	0,033	-0,012
-573,948	-200,000	-0,027	0,146
-572,934	120,405	0,037	-0,034
-571,919	-96,780	-0,096	0,018
-570,904	-129,853	-0,105	-0,010
-569,890	-90,580	0,115	-0,024
-568,875	-29,405	0,037	-0,015
-567,861	-48,141	-0,089	-0,031
-566,846	170,192	0,101	0,106
-565,831	-2,209	-0,021	-0,011
-564,817	177,431	-0,078	0,083
-563,802	-77,449	-0,115	0,029
-562,788	800,000	0,074	0,178
-561,773	520,404	-0,042	0,072
-560,758	-193,363	0,093	0,001
-559,744	-148,972	0,061	0,004
-558,729	-200,000	-0,005	-0,066
-557,715	-25,326	0,150	0,065
-556,700	378,178	-0,103	-0,154
-555,685	674,088	-0,059	-0,112
-554,671	799,664	-0,033	-0,067
-553,656	373,674	0,073	0,110
-552,642	-200,000	0,010	-0,035
-551,627	39,143	0,052	0,034
-550,612	14,947	-0,104	0,059
-549,598	800,000	0,034	0,096
-548,583	-26,363	0,022	0,009
-547,569	-49,384	-0,079	-0,027
-546,554	-200,000	0,006	0,068
-545,539	-18,083	-0,025	0,011
-544,525	560,790	0,071	0,127
-543,510	-55,817	0,034	0,011
-542,496	-200,000	-0,013	0,059
-541,481	93,911	-0,072	-0,060
-540,466	54,990	-0,131	0,092
-539,452	217,295	0,081	0,094
-538,437	-27,117	-0,042	0,018
-537,423	-63,086	-0,060	-0,018
-536,408	-113,926	0,073	0,010
-535,393	-91,767	-0,214	0,044
-534,379	-200,000	-0,017	-0,162
-533,364	800,000	-0,025	-0,080
-532,350	-91,317	0,151	-0,031
-531,335	800,000	0,020	-0,048
-530,321	58,058	-0,062	-0,044
-529,306	-200,000	0,021	0,074
-528,291	-132,124	-0,083	-0,008
-527,277	-200,000	-0,005	-0,034
-526,262	648,212	-0,010	-0,018
-525,248	-18,640	0,052	-0,024
-524,233	800,000	-0,020	0,046
-523,218	800,000	0,044	-0,135
-522,204	-200,000	-0,032	0,128
-521,189	-43,885	-0,053	0,019
-520,175	-134,984	-0,078	-0,007
-519,160	-200,000	0,013	-0,120
-518,145	-200,000	0,005	-0,112
-517,131	30,498	0,072	-0,045
-516,116	-118,483	0,102	-0,013
-515,102	-145,600	0,023	0,001
-514,087	-67,238	0,091	-0,026
-513,072	-31,533	-0,052	-0,021
-512,058	-200,000	0,005	0,072
-511,043	-7,103	0,051	-0,025
-510,029	548,884	0,063	0,111
-509,014	-78,944	-0,039	-0,010
-507,999	16,763	0,044	-0,025
-506,985	-200,000	-0,015	0,064
-505,970	800,000	0,041	0,132
-504,956	-200,000	-0,009	0,038
-503,941	39,846	0,036	-0,023
-502,926	-200,000	0,000	-0,055
-501,912	800,000	0,036	0,107
-500,897	-129,611	-0,057	0,006
-499,883	-200,000	0,028	0,156
-498,868	-87,492	-0,119	0,026
-497,853	460,207	-0,061	-0,099
-496,839	-170,604	0,158	-0,004
-495,824	76,896	-0,107	0,083
-494,810	374,888	-0,085	0,127
-493,795	37,266	-0,024	-0,015
-492,781	800,000	-0,064	-0,146
-491,766	-200,000	-0,014	-0,079
-490,751	323,811	0,034	-0,047
-489,737	34,131	0,030	-0,019
-488,722	14,531	-0,069	0,039
-487,708	-0,723	0,087	-0,045
-486,693	165,273	0,085	-0,087
-485,678	-200,000	-0,002	-0,100
-484,664	-200,000	-0,027	-0,125
-483,649	-3,697	-0,014	-0,007
-482,635	31,765	-0,016	0,010
-481,620	-96,985	0,184	0,035
-480,605	-200,000	0,024	-0,092
-479,591	800,000	0,046	0,119
-478,576	-200,000	0,004	0,022
-477,562	348,822	-0,047	0,068
-476,547	-47,017	0,170	-0,060
-475,532	-200,000	-0,020	0,128
-474,518	-172,360	-0,101	-0,002
-473,503	390,657	0,045	-0,068
-472,489	-72,772	0,027	-0,007
-471,474	-92,334	0,081	0,016
-470,459	-36,675	-0,193	-0,075
-469,445	-200,000	0,007	-0,029
-468,430	343,214	-0,056	-0,080
-467,416	-200,000	-0,023	-0,092
-466,401	-156,510	0,135	0,006
-465,386	-200,000	-0,004	-0,067
-464,372	47,011	-0,113	0,077
-463,357	-2,149	0,162	0,082
-462,343	156,085	0,018	-0,018
-461,328	-26,095	0,007	0,003
-460,313	197,217	-0,028	0,031
-459,299	724,839	-0,035	0,068
-458,284	1,132	0,074	-0,038
-457,270	-200,000	-0,023	0,102
-456,255	220,206	0,063	0,073
-455,241	472,806	-0,059	-0,098
-454,226	148,251	0,034	-0,034
-453,211	-200,000	-0,012	0,077
-452,197	800,000	0,047	0,098
-451,182	256,426	-0,029	0,037
-450,168	-125,008	0,102	0,011
-449,153	3,068	0,058	-0,031
-448,138	133,135	-0,006	0,005
-447,124	-200,000	-0,000	0,054
-446,109	-200,000	-0,012	-0,138
-445,095	25,600	0,008	-0,005
-444,080	-89,375	-0,087	0,018
-443,065	800,000	0,034	0,098
-442,051	-137,543	-0,096	-0,008
-441,036	800,000	-0,028	-0,066
-440,022	-200,000	-0,009	0,114
-439,007	-103,511	0,141	-0,024
-437,992	-97,700	0,076	-0,014
-436,978	162,165	-0,029	-0,029
-435,963	-94,931	0,137	0,027
-434,949	-178,089	0,041	0,001
-433,934	800,000	-0,065	0,184
-432,919	-200,000	-0,017	-0,079
-431,905	-27,244	0,163	0,069
-430,890	-121,749	0,029	-0,003
-429,876	149,753	-0,065	-0,064
-428,861	-93,748	0,079	-0,016
-427,846	350,126	0,035	-0,051
-426,832	-200,000	-0,008	-0,077
-425,817	-37,989	-0,138	-0,053
-424,803	-89,639	-0,139	-0,029
-423,788	-200,000	-0,027	0,088
-422,773	38,846	0,051	0,033
-421,759	-200,000	-0,001	0,087
-420,744	-188,275	0,016	0,000
-419,730	-200,000	0,000	-0,046
-418,715	214,616	0,051	0,059
-417,701	-200,000	0,030	-0,151
-416,686	-190,705	-0,109	-0,001
-415,671	-10,206	0,161	-0,078
-414,657	414,604	0,064	-0,099
-413,642	-9,557	0,042	0,020
-412,628	237,235	-0,063	-0,076
-411,613	-99,472	-0,078	0,014
-410,598	-87,659	-0,119	0,026
-409,584	729,427	0,019	-0,037
-408,569	-96,292	0,092	0,018
-407,555	190,837	-0,046	0,051
-406,540	-50,865	-0,114	-0,039
-405,525	9,770	-0,083	0,045
-404,511	27,304	-0,052	-0,032
-403,496	-93,430	-0,085	0,017
-402,482	-79,110	-0,041	-0,010
-401,467	800,000	0,031	0,064
-400,452	19,360	0,118	-0,069
-399,438	84,979	0,114	0,091
-398,423	-33,050	-0,014	0,006
-397,409	678,786	0,056	-0,106
-396,394	-77,418	0,021	-0,005
-395,379	36,813	-0,030	0,020
-394,365	-105,378	0,198	-0,032
-393,350	195,624	0,129	-0,143
-392,336	-27,344	0,025	0,011
-391,321	800,000	0,059	-0,158
-390,306	116,253	-0,055	-0,049
-389,292	-200,000	-0,048	-0,172
-388,277	-17,480	0,105	-0,048
-387,263	-21,532	-0,022	-0,010
-386,248	-167,856	-0,041	-0,001
-385,233	-200,000	0,000	-0,015
-384,219	146,128	-0,109	0,107
-383,204	-51,000	0,049	0,016
-382,190	800,000	-0,069	0,142
-381,175	-174,668	-0,124	-0,003
-380,160	-58,966	0,187	-0,058
-379,146	79,097	0,201	0,157
-378,131	402,215	0,018	0,027
-377,117	800,000	-0,056	0,140
-376,102	-200,000	0,010	-0,137
-375,088	105,344	0,065	-0,055
-374,073	15,462	-0,087	-0,050
-373,058	-73,923	0,031	0,008
-372,044	-200,000	0,008	-0,062
-371,029	-200,000	-0,009	0,074
-370,015	-200,000	-0,008	-0,028
-369,000	-200,000	0,003	-0,023
-367,985	-200,000	0,001	-0,119
-366,971	-200,000	-0,001	-0,033
-365,956	800,000	-0,059	-0,133
-364,942	17,979	0,027	0,015
-363,927	-200,000	0,033	0,178
-362,912	800,000	0,040	0,116
-361,898	332,892	-0,009	-0,013
-360,883	-200,000	-0,033	0,142
-359,869	175,935	0,115	-0,121
-358,854	18,508	0,099	0,057
-357,839	-2,466	-0,052	0,026
-356,825	-200,000	0,129	-0,000
-355,810	19,165	-0,086	0,050
-354,796	480,151	-0,078	-0,129
-353,781	-200,000	0,040	0,130
-352,766	800,000	-0,027	-0,077
-351,752	-58,124	0,149	0,047
-350,737	-144,403	0,053	0,004
-349,723	-167,366	0,150	-0,004
-348,708	-200,000	0,017	0,116
-347,693	473,971	-0,054	0,088
-346,679	176,365	-0,091	0,096
-345,664	-200,000	-0,001	0,007
-344,650	-200,000	0,014	0,088
-343,635	-200,000	0,009	0,034
-342,620	-200,000	-0,006	0,057
-341,606	41,788	-0,035	-0,023
-340,591	800,000	0,018	-0,045
-339,577	800,000	0,009	-0,020
-338,562	118,547	0,060	0,053
-337,548	800,000	0,014	-0,030
-336,533	-200,000	-0,020	0,170
-335,518	-106,302	-0,124	0,020
-334,504	-200,000	-0,027	0,113
-333,489	105,566	-0,015	0,013
-332,475	-200,000	-0,016	-0,125
-331,460	-78,989	-0,223	-0,054
-330,445	639,797	0,040	0,074
-329,431	800,000	0,039	0,115
-328,416	96,782	-0,116	0,096
-327,402	-200,000	0,023	0,101
-326,387	-111,856	0,123	0,018
-325,372	800,000	0,026	-0,082
-324,358	-130,613	0,075	-0,007
-323,343	233,405	-0,071	-0,085
-322,329	800,000	-0,019	-0,047
-321,314	268,799	0,028	-0,035
-320,299	166,123	-0,027	0,028
-319,285	85,587	0,114	0,091
-318,270	63,550	0,135	0,098
-317,256	-11,140	-0,047	-0,022
-316,241	-200,000	0,042	-0,185
-315,226	397,554	0,068	-0,104
-314,212	-200,000	-0,048	0,210
-313,197	355,608	0,046	0,067
-312,183	-200,000	-0,013	-0,093
-311,168	75,950	-0,095	-0,073
-310,153	284,312	-0,122	-0,159
-309,139	62,879	0,037	0,027
-308,124	208,216	0,050	0,057
-307,110	672,084	0,038	0,072
-306,095	-200,000	-0,031	-0,102
-305,080	-141,150	-0,132	0,010
-304,066	800,000	-0,010	0,023
-303,051	131,719	-0,110	-0,103
-302,037	-54,647	0,066	0,022
-301,022	206,432	-0,060	0,068
-300,008	63,522	-0,036	-0,026
-298,993	-166,305	0,176	-0,005
-297,978	800,000	-0,007	-0,016
-296,964	56,420	0,089	0,063
-295,949	-200,000	-0,001	-0,032
-294,935	-189,785	-0,018	0,000
-293,920	155,618	0,061	-0,061
-292,905	53,543	0,070	0,049
-291,891	-200,000	-0,008	-0,139
-290,876	4,834	0,092	0,049
-289,862	-20,978	-0,084	0,037
-288,847	42,918	-0,140	-0,092
-287,832	-200,000	-0,002	-0,109
-286,818	566,703	0,024	0,042
-285,803	1,856	0,074	0,039
-284,789	118,724	0,098	-0,087
-283,774	71,449	0,098	0,074
-282,759	306,433	0,085	-0,115
-281,745	122,729	-0,025	0,023
-280,730	174,551	0,057	0,059
-279,716	-200,000	-0,018	0,064
-278,701	722,032	-0,068	0,131
-277,686	90,927	0,059	0,048
-276,672	323,271	0,023	0,031
-275,657	-200,000	-0,021	0,101
-274,643	18,490	-0,069	-0,040
-273,628	154,747	0,022	-0,022
-272,613	-200,000	-0,016	0,060
-271,599	-89,502	0,155	-0,033
-270,584	-57,724	-0,074	-0,023
-269,570	800,000	-0,072	-0,174
-268,555	-200,000	0,006	0,089
-267,540	-200,000	-0,009	0,061
-266,526	330,784	0,057	0,079
-265,511	-103,422	0,073	0,012
-264,497	-106,048	-0,083	0,013
-263,482	206,666	-0,074	-0,083
-262,467	48,957	-0,048	0,033
-261,453	247,497	-0,029	0,036
-260,438	4,250	-0,139	-0,073
-259,424	-200,000	0,003	0,029
-258,409	59,518	0,130	-0,093
-257,395	-200,000	-0,003	-0,013
-256,380	241,644	-0,032	0,039
-255,365	84,481	0,094	0,074
-254,351	144,719	-0,038	0,036
-253,336	-144,272	0,079	0,005
-252,322	-200,000	-0,015	-0,048
-251,307	-100,786	-0,090	0,016
-250,292	48,701	0,063	0,042
-249,278	-112,581	0,199	0,028
-248,263	-149,055	0,081	-0,005
-247,249	94,006	-0,063	-0,052
-246,234	93,512	-0,088	-0,072
-245,219	370,397	-0,083	-0,122
-244,205	800,000	0,041	-0,130
-243,190	800,000	0,027	0,070
-242,176	-200,000	-0,013	0,086
-241,161	-200,000	-0,017	0,093
-240,146	-192,117	-0,054	0,000
-239,132	248,210	0,163	-0,199
-238,117	-69,951	0,046	-0,013
-237,103	-200,000	0,007	-0,121
-236,088	-132,562	-0,105	-0,010
-235,073	-176,626	0,043	-0,001
-234,059	324,699	0,029	0,040
-233,044	87,247	0,126	-0,101
-232,030	-75,220	-0,121	0,031
-231,015	153,134	0,079	-0,078
-230,000	433,672	-0,031	-0,049
-228,986	687,927	-0,022	0,042
-227,971	128,436	0,090	-0,083
-226,957	800,000	0,047	-0,119
-225,942	-200,000	-0,019	0,077
-224,927	37,653	-0,072	-0,046
-223,913	-192,648	0,190	0,001
-222,898	143,956	-0,028	-0,027
-221,884	800,000	-0,019	0,056
-220,869	-200,000	-0,039	0,169
-219,855	190,296	-0,027	-0,030
-218,840	688,499	0,059	0,111
-217,825	-101,966	0,133	0,023
-216,811	108,594	0,056	0,048
-215,796	85,848	-0,025	-0,020
-214,782	-58,320	-0,079	0,025
-213,767	-181,054	0,043	-0,001
-212,752	237,295	-0,054	0,065
-211,738	106,920	-0,064	0,055
-210,723	753,970	0,010	0,020
-209,709	88,530	-0,045	-0,036
-208,694	-200,000	-0,030	-0,113
-207,679	24,785	0,124	-0,074
-206,665	-200,000	-0,006	-0,026
-205,650	-200,000	0,034	0,127
-204,636	-199,743	0,099	-0,000
-203,621	662,804	-0,048	0,089
-202,606	115,462	-0,044	-0,039
-201,592	-200,000	0,006	-0,041
-200,577	-200,000	0,016	0,108
-199,563	800,000	0,068	0,148
-198,548	-113,287	0,061	0,009
-197,533	54,168	0,119	-0,082
-196,519	-200,000	-0,008	-0,030
-195,504	39,124	0,026	-0,017
-194,490	281,505	0,032	-0,042
-193,475	-20,318	-0,132	-0,058
-192,460	9,826	-0,073	-0,040
-191,446	800,000	-0,032	-0,085
-190,431	-77,498	0,119	0,029
-189,417	74,103	0,064	-0,048
-188,402	135,490	-0,106	0,099
-187,387	-149,379	0,149	-0,008
-186,373	-200,000	-0,021	-0,070
-185,358	-200,000	0,006	0,033
-184,344	-200,000	0,021	0,103
-183,329	-51,938	-0,105	0,035
-182,315	8,121	-0,059	0,032
-181,300	83,755	-0,035	-0,027
-180,285	-17,266	-0,089	-0,040
-179,271	-101,063	0,045	0,008
-178,256	352,719	0,036	-0,052
-177,242	-200,000	-0,008	-0,038
-176,227	12,052	0,196	-0,108
-175,212	-28,892	-0,124	0,051
-174,198	-200,000	-0,006	0,033
-173,183	-200,000	-0,002	-0,071
-172,169	-200,000	-0,014	-0,053
-171,154	-200,000	-0,004	-0,046
-170,139	-18,558	-0,095	0,042
-169,125	186,104	-0,110	0,118
-168,110	-34,044	-0,083	-0,033
-167,096	800,000	0,009	-0,024
-166,081	-121,772	-0,014	0,002
-165,066	-130,386	0,041	-0,004
-164,052	-81,984	-0,029	-0,007
-163,037	120,333	-0,089	0,079
-162,023	-200,000	0,002	0,042
-161,008	-200,000	0,007	0,087
-159,993	196,307	-0,064	0,070
-158,979	-136,698	0,063	-0,005
-157,964	322,609	-0,067	0,092
-156,950	0,390	-0,149	-0,076
-155,935	718,601	0,095	-0,183
-154,920	-200,000	-0,000	0,025
-153,906	-129,602	0,095	-0,009
-152,891	110,005	-0,059	0,051
-151,877	215,015	-0,018	0,021
-150,862	-164,986	-0,054	-0,002
-149,847	-200,000	-0,001	-0,130
-148,833	134,006	-0,101	-0,094
-147,818	-200,000	0,022	-0,140
-146,804	274,235	-0,047	0,060
-145,789	-107,209	-0,008	-0,001
-144,775	-200,000	0,028	-0,119
-143,760	-67,114	-0,066	0,019
-142,745	-82,580	0,105	-0,024
-141,731	-119,335	0,036	-0,004
-140,716	116,823	-0,123	-0,109
-139,702	206,148	0,120	-0,134
-138,687	129,653	-0,040	-0,037
-137,672	-5,686	0,024	-0,012
-136,658	280,435	-0,067	-0,086
-135,643	269,211	-0,121	0,154
-134,629	126,733	-0,036	0,033
-133,614	404,524	-0,069	0,105
-132,599	17,770	-0,032	0,019
-131,585	297,923	-0,095	0,126
-130,570	-0,538	-0,129	0,066
-129,556	800,000	-0,057	-0,115
-128,541	186,486	-0,077	0,082
-127,526	-28,452	-0,119	0,049
-126,512	-200,000	-0,021	0,099
-125,497	800,000	0,044	0,117
-124,483	389,618	-0,078	0,116
-123,468	-30,677	-0,153	0,062
-122,453	-156,323	-0,042	0,002
-121,439	191,535	-0,071	-0,077
-120,424	-200,000	0,009	0,076
