DTS Sentinel unit serial number:	SN410029Multiplexer serial number:	ORYXHardware model number:	OX2-SRSoftware version number:	ORYX F/W v4,00 Oryx Data Collector v3.7.2.0data status	okinstallation	B5 Nyhavnadifferential loss correction	single-endedforward channel	channel 2reverse channel	N/Adate	2023/12/11time	18:52:13forward acquisition time	300,00reverse acquisition time	0,00gamma	499,1914k internal	0,3160k external	0,3160temperature offset calibration	1,0000default loss term (dB/km)	0,3820temperature slope calibration	1,0000multiplexer offset coefficient	1,0000multiplexer slope coefficient	1,0000fibre end	0,00T internal ref (°C)	15,38T ext. ref 1 (°C)	-0,28T ext. ref 2 (°C)	-0,50length (m)	temperature (°C)	Stokes	anti-Stokes-744,400	233,122	0,100	-0,121
-743,385	-65,338	-0,327	0,096
-742,371	-62,796	0,063	-0,019
-741,356	-108,202	-0,262	0,041
-740,342	-192,841	0,054	0,000
-739,327	6,693	-0,254	0,139
-738,312	-37,562	0,025	0,010
-737,298	-77,714	-0,299	-0,076
-736,283	-175,447	0,092	-0,002
-735,269	-94,863	-0,323	0,064
-734,254	-167,675	0,103	0,003
-733,239	-39,392	-0,425	-0,163
-732,225	-169,626	0,174	0,005
-731,210	560,800	-0,031	0,056
-730,196	-92,602	-0,198	0,041
-729,181	-200,000	-0,019	0,098
-728,167	800,000	0,014	-0,032
-727,152	-63,400	0,068	0,021
-726,137	125,173	0,025	-0,023
-725,123	-147,415	0,069	0,004
-724,108	620,035	-0,094	-0,175
-723,094	-200,000	-0,033	-0,109
-722,079	38,351	-0,056	-0,037
-721,064	-19,414	0,084	-0,038
-720,050	-200,000	-0,018	-0,080
-719,035	800,000	0,010	-0,030
-718,021	-131,588	-0,144	-0,014
-717,006	-200,000	0,032	-0,105
-715,991	-42,435	-0,152	-0,057
-714,977	161,564	0,092	0,095
-713,962	-200,000	-0,015	0,110
-712,948	-78,375	0,172	0,043
-711,933	189,410	0,058	0,064
-710,918	-101,165	-0,063	-0,011
-709,904	21,076	-0,193	-0,115
-708,889	-200,000	0,027	0,093
-707,875	280,785	-0,068	-0,090
-706,860	-97,189	-0,111	0,021
-705,845	-104,979	0,243	0,041
-704,831	93,364	-0,096	0,080
-703,816	-200,000	-0,021	0,076
-702,802	-200,000	-0,018	-0,081
-701,787	252,299	0,078	-0,098
-700,772	-145,110	0,087	-0,006
-699,758	-31,109	-0,084	0,035
-698,743	-111,491	-0,026	0,004
-697,729	-109,397	-0,115	0,018
-696,714	-200,000	0,025	0,181
-695,699	622,167	-0,023	-0,042
-694,685	-5,368	-0,076	0,038
-693,670	220,418	0,029	-0,034
-692,656	-41,141	0,154	-0,058
-691,641	800,000	0,034	-0,077
-690,627	4,359	0,031	0,017
-689,612	-200,000	0,014	0,050
-688,597	107,444	0,081	-0,071
-687,583	-72,652	-0,118	0,032
-686,568	-49,275	-0,077	-0,027
-685,554	-200,000	-0,011	0,083
-684,539	-200,000	-0,052	0,000
-683,524	-200,000	0,006	0,102
-682,510	60,155	-0,047	-0,034
-681,495	-106,289	-0,072	0,012
-680,481	30,614	0,039	0,025
-679,466	-80,091	-0,032	-0,008
-678,451	800,000	-0,008	-0,024
-677,437	167,413	0,021	0,022
-676,422	774,844	-0,024	-0,047
-675,408	800,000	0,012	0,033
-674,393	141,956	-0,070	0,068
-673,378	3,213	0,045	-0,024
-672,364	-200,000	-0,003	0,089
-671,349	-200,000	-0,007	-0,080
-670,335	218,662	-0,066	0,077
-669,320	-63,930	0,038	0,011
-668,305	200,665	0,027	0,031
-667,291	123,192	-0,041	0,038
-666,276	-200,000	-0,022	0,113
-665,262	800,000	0,023	-0,053
-664,247	630,113	-0,043	0,080
-663,232	10,434	0,075	0,042
-662,218	50,217	-0,024	0,016
-661,203	-94,061	-0,117	-0,023
-660,189	-83,424	0,018	-0,004
-659,174	-200,000	-0,022	-0,145
-658,159	-78,570	-0,069	0,017
-657,145	103,409	0,125	-0,108
-656,130	-200,000	0,000	-0,031
-655,116	-151,636	-0,048	-0,003
-654,101	-200,000	-0,008	-0,046
-653,086	149,578	0,047	0,047
-652,072	-200,000	0,024	0,083
-651,057	89,313	-0,101	-0,083
-650,043	513,278	-0,035	0,060
-649,028	35,538	0,123	-0,079
-648,014	339,355	0,028	-0,040
-646,999	-112,515	0,087	0,013
-645,984	-200,000	0,005	0,134
-644,970	201,519	-0,081	-0,092
-643,955	-20,448	-0,046	-0,021
-642,941	-200,000	-0,001	-0,128
-641,926	234,694	0,103	0,125
-640,911	-200,000	0,003	0,144
-639,897	19,021	0,058	0,034
-638,882	-200,000	0,001	-0,105
-637,868	-200,000	-0,025	0,119
-636,853	215,739	-0,142	0,165
-635,838	800,000	-0,021	-0,047
-634,824	269,825	-0,040	-0,051
-633,809	611,795	0,032	0,058
-632,795	6,167	0,054	0,029
-631,780	-33,401	0,132	0,053
-630,765	13,825	-0,057	-0,032
-629,751	-167,352	-0,102	0,003
-628,736	-147,467	-0,061	0,004
-627,722	141,958	0,113	-0,109
-626,707	268,619	0,017	0,022
-625,692	800,000	-0,011	0,028
-624,678	-200,000	0,007	0,084
-623,663	30,744	-0,037	0,023
-622,649	-144,296	-0,205	-0,014
-621,634	-176,444	-0,077	0,001
-620,619	246,927	0,050	-0,062
-619,605	158,942	-0,074	0,076
-618,590	-157,060	0,093	-0,004
-617,576	-10,437	-0,153	-0,074
-616,561	-200,000	0,009	0,059
-615,546	572,913	0,053	-0,096
-614,532	-166,949	-0,052	0,002
-613,517	-50,506	-0,074	-0,026
-612,503	292,021	-0,055	-0,074
-611,488	-83,068	-0,025	0,006
-610,474	-200,000	0,003	-0,031
-609,459	82,820	0,042	0,034
-608,444	78,464	-0,035	0,028
-607,430	-200,000	-0,040	-0,134
-606,415	-200,000	-0,024	0,114
-605,401	-200,000	-0,034	0,151
-604,386	81,972	0,071	0,056
-603,371	-31,446	0,080	-0,033
-602,357	-200,000	0,006	0,027
-601,342	800,000	-0,016	0,040
-600,328	-79,394	0,063	0,015
-599,313	-188,543	-0,124	0,001
-598,298	-200,000	0,000	-0,015
-597,284	-124,912	0,145	0,016
-596,269	12,877	0,019	-0,011
-595,255	-3,275	-0,055	-0,028
-594,240	-19,467	-0,120	-0,054
-593,225	155,780	-0,049	0,049
-592,211	-142,363	-0,152	0,011
-591,196	800,000	0,030	-0,085
-590,182	311,667	-0,039	-0,053
-589,167	194,485	-0,055	0,062
-588,152	-39,670	0,041	-0,016
-587,138	-200,000	0,007	0,091
-586,123	800,000	0,089	-0,210
-585,109	800,000	-0,029	-0,062
-584,094	-59,187	-0,067	0,021
-583,079	111,584	-0,031	-0,028
-582,065	10,979	0,050	0,028
-581,050	134,366	-0,108	0,103
-580,036	-1,010	0,064	0,033
-579,021	-200,000	-0,009	-0,042
-578,006	-152,785	-0,126	-0,006
-576,992	14,860	0,126	-0,072
-575,977	143,376	0,084	-0,082
-574,963	590,862	0,007	-0,012
-573,948	76,940	-0,082	-0,064
-572,934	3,865	0,033	0,018
-571,919	-200,000	-0,023	0,083
-570,904	47,156	-0,078	-0,053
-569,890	-200,000	-0,006	-0,052
-568,875	-63,979	0,032	-0,009
-567,861	-46,673	-0,014	0,005
-566,846	-14,523	0,043	-0,020
-565,831	800,000	0,047	0,102
-564,817	71,485	-0,073	-0,055
-563,802	-167,766	-0,054	0,002
-562,788	19,116	-0,101	-0,059
-561,773	328,011	-0,041	-0,058
-560,758	-50,678	0,068	0,023
-559,744	-40,310	0,105	0,040
-558,729	31,464	0,185	0,116
-557,715	705,563	-0,052	-0,101
-556,700	79,531	-0,049	-0,038
-555,685	651,528	-0,060	-0,112
-554,671	-122,240	0,064	0,008
-553,656	-63,526	0,072	0,021
-552,642	101,597	0,033	0,028
-551,627	-106,669	-0,139	-0,022
-550,612	-200,000	-0,010	-0,067
-549,598	800,000	-0,022	-0,068
-548,583	609,100	-0,036	0,067
-547,569	222,639	0,092	0,109
-546,554	-32,674	0,183	0,074
-545,539	-200,000	0,005	0,039
-544,525	209,307	-0,024	0,027
-543,510	800,000	-0,036	-0,088
-542,496	327,309	0,031	-0,043
-541,481	-17,949	-0,104	0,047
-540,466	-200,000	-0,006	-0,028
-539,452	-200,000	-0,001	0,100
-538,437	146,619	-0,040	0,040
-537,423	11,639	-0,083	0,046
-536,408	590,211	-0,040	0,072
-535,393	263,031	-0,011	0,014
-534,379	-122,370	0,098	-0,012
-533,364	164,542	-0,080	-0,083
-532,350	116,474	0,072	-0,064
-531,335	-200,000	0,018	0,107
-530,321	151,123	-0,031	0,031
-529,306	800,000	0,021	-0,054
-528,291	133,019	-0,084	-0,080
-527,277	-200,000	-0,004	-0,114
-526,262	317,434	-0,024	-0,033
-525,248	800,000	-0,008	0,024
-524,233	44,491	0,056	-0,038
-523,218	800,000	0,026	0,066
-522,204	-48,099	-0,059	0,021
-521,189	-200,000	0,013	0,062
-520,175	434,028	-0,053	-0,085
-519,160	-29,522	-0,173	0,072
-518,145	343,688	-0,015	0,022
-517,131	-52,751	0,161	0,054
-516,116	22,125	0,116	0,069
-515,102	290,836	-0,066	0,087
-514,087	-85,142	-0,151	-0,034
-513,072	-105,963	0,134	0,022
-512,058	-143,258	-0,058	-0,004
-511,043	10,196	-0,164	0,091
-510,029	38,074	0,066	-0,043
-509,014	-42,422	0,134	0,050
-507,999	-200,000	0,007	0,041
-506,985	-200,000	0,005	0,062
-505,970	800,000	-0,024	-0,070
-504,956	-200,000	0,028	-0,103
-503,941	107,805	-0,032	0,028
-502,926	258,465	-0,047	-0,059
-501,912	800,000	-0,017	0,036
-500,897	51,977	-0,054	-0,038
-499,883	-78,660	-0,089	-0,022
-498,868	-105,699	-0,095	0,016
-497,853	-88,133	0,116	-0,025
-496,839	-128,894	0,082	0,008
-495,824	-25,281	-0,093	0,040
-494,810	-87,964	0,121	0,026
-493,795	-200,000	-0,011	0,058
-492,781	51,374	-0,022	-0,015
-491,766	-8,673	-0,041	-0,020
-490,751	105,015	-0,096	-0,083
-489,737	800,000	0,028	-0,082
-488,722	80,979	-0,080	0,063
-487,708	34,716	0,091	0,058
-486,693	800,000	0,034	0,095
-485,678	202,866	-0,067	-0,076
-484,664	-98,101	-0,033	0,006
-483,649	141,109	0,087	-0,084
-482,635	800,000	-0,038	-0,115
-481,620	358,711	0,046	-0,067
-480,605	-37,580	0,140	0,054
-479,591	-200,000	-0,013	-0,094
-478,576	-200,000	-0,000	-0,018
-477,562	800,000	-0,022	0,067
-476,547	452,279	-0,040	0,065
-475,532	1,969	0,030	-0,016
-474,518	196,651	0,034	0,037
-473,503	-200,000	0,020	0,132
-472,489	312,826	-0,035	-0,049
-471,474	800,000	-0,049	-0,119
-470,459	-128,097	-0,057	0,006
-469,445	-200,000	0,006	0,113
-468,430	-61,209	-0,063	-0,019
-467,416	96,797	0,056	0,047
-466,401	-75,831	-0,066	0,017
-465,386	0,949	-0,062	-0,032
-464,372	508,872	-0,079	-0,134
-463,357	397,867	-0,101	-0,155
-462,343	-38,712	0,042	-0,016
-461,328	61,895	-0,128	0,093
-460,313	-200,000	0,016	0,084
-459,299	-92,368	0,070	-0,014
-458,284	31,780	-0,056	0,035
-457,270	201,629	0,078	0,088
-456,255	800,000	-0,012	0,029
-455,241	-90,476	-0,095	0,020
-454,226	-200,000	0,017	-0,142
-453,211	741,788	-0,054	-0,106
-452,197	-200,000	-0,014	0,048
-451,182	-133,190	0,063	-0,006
-450,168	113,094	0,034	-0,030
-449,153	800,000	-0,033	-0,083
-448,138	-200,000	0,003	0,073
-447,124	800,000	0,015	0,037
-446,109	-94,860	-0,110	-0,022
-445,095	800,000	0,032	0,085
-444,080	-138,190	0,063	-0,005
-443,065	-200,000	0,014	0,052
-442,051	70,165	-0,036	0,027
-441,036	509,790	0,047	0,081
-440,022	-200,000	-0,019	-0,104
-439,007	36,722	0,096	-0,061
-437,992	800,000	0,079	0,161
-436,978	336,683	0,121	0,171
-435,963	195,803	-0,073	0,081
-434,949	268,851	0,086	-0,110
-433,934	-137,930	0,023	0,002
-432,919	-70,001	-0,111	0,031
-431,905	-200,000	-0,016	-0,080
-430,890	36,953	0,185	0,119
-429,876	-125,786	0,117	-0,013
-428,861	-200,000	0,000	-0,070
-427,846	-49,995	0,031	0,011
-426,832	800,000	0,013	-0,030
-425,817	-200,000	-0,031	-0,157
-424,803	-200,000	-0,026	0,114
-423,788	80,320	-0,040	-0,031
-422,773	-17,825	0,110	0,050
-421,759	124,346	0,073	0,066
-420,744	-200,000	0,008	-0,079
-419,730	-200,000	-0,001	-0,073
-418,715	319,803	-0,085	-0,118
-417,701	-200,000	0,003	-0,068
-416,686	335,199	0,077	-0,109
-415,671	-142,674	0,074	0,005
-414,657	128,129	0,100	0,093
-413,642	-109,667	0,063	0,010
-412,628	-88,113	0,064	0,014
-411,613	-200,000	-0,004	-0,023
-410,598	-200,000	-0,006	0,022
-409,584	177,475	0,042	-0,044
-408,569	800,000	0,060	-0,160
-407,555	-200,000	-0,003	-0,077
-406,540	244,977	-0,016	-0,019
-405,525	301,636	0,092	-0,124
-404,511	-200,000	-0,028	-0,194
-403,496	-200,000	-0,013	0,054
-402,482	109,892	-0,005	-0,004
-401,467	-200,000	-0,033	0,116
-400,452	-55,473	0,022	-0,007
-399,438	277,419	0,040	0,052
-398,423	-200,000	-0,030	-0,160
-397,409	-2,363	-0,089	-0,045
-396,394	800,000	-0,038	0,101
-395,379	285,342	-0,052	-0,069
-394,365	263,345	0,063	0,080
-393,350	800,000	0,033	-0,068
-392,336	-90,051	0,021	0,004
-391,321	86,348	0,071	0,057
-390,306	-31,525	-0,099	-0,040
-389,292	-200,000	-0,010	-0,035
-388,277	416,565	-0,037	0,058
-387,263	800,000	0,059	0,139
-386,248	207,406	-0,073	-0,083
-385,233	-92,739	-0,043	-0,009
-384,219	-167,810	-0,070	0,002
-383,204	800,000	-0,047	-0,144
-382,190	119,549	-0,074	-0,067
-381,175	-163,200	-0,043	-0,001
-380,160	60,342	0,068	0,049
-379,146	-200,000	0,000	0,062
-378,131	-30,709	-0,134	0,055
-377,117	800,000	0,018	0,042
-376,102	73,051	-0,087	0,066
-375,088	-200,000	0,003	-0,124
-374,073	-200,000	0,020	-0,088
-373,058	17,291	0,051	0,030
-372,044	216,864	0,067	0,077
-371,029	-142,221	0,062	-0,004
-370,015	-58,156	-0,156	0,049
-369,000	-200,000	0,023	-0,164
-367,985	417,792	-0,054	-0,084
-366,971	-20,309	0,124	-0,055
-365,956	-44,046	0,089	0,032
-364,942	-150,501	0,094	-0,005
-363,927	20,883	0,105	-0,062
-362,912	-200,000	0,012	0,150
-361,898	240,461	-0,075	0,091
-360,883	-23,348	-0,032	0,014
-359,869	-145,007	-0,032	0,002
-358,854	-200,000	-0,006	0,022
-357,839	106,290	0,082	0,070
-356,825	178,680	0,075	-0,079
-355,810	-118,947	-0,064	0,008
-354,796	800,000	-0,045	-0,131
-353,781	-69,986	-0,044	0,012
-352,766	-200,000	-0,010	-0,086
-351,752	-200,000	-0,006	0,027
-350,737	-32,387	-0,081	-0,033
-349,723	-200,000	0,030	0,163
-348,708	667,849	-0,078	0,147
-347,693	348,109	-0,056	-0,081
-346,679	-45,504	-0,077	-0,028
-345,664	-200,000	0,023	-0,076
-344,650	414,724	0,026	0,041
-343,635	98,464	0,093	0,078
-342,620	-200,000	-0,050	0,169
-341,606	800,000	-0,043	0,118
-340,591	-200,000	0,013	0,062
-339,577	17,217	-0,081	0,046
-338,562	-200,000	-0,042	-0,150
-337,548	401,296	-0,040	0,061
-336,533	800,000	0,046	0,097
-335,518	-200,000	0,029	0,124
-334,504	800,000	0,038	0,100
-333,489	-142,007	-0,079	0,006
-332,475	-58,484	-0,120	-0,038
-331,460	-77,998	0,109	0,027
-330,445	19,621	-0,106	-0,062
-329,431	800,000	-0,018	0,039
-328,416	169,638	-0,015	-0,016
-327,402	365,732	0,060	0,088
-326,387	133,740	0,025	0,023
-325,372	336,178	0,016	0,022
-324,358	44,701	-0,010	0,007
-323,343	-200,000	-0,012	0,072
-322,329	-70,337	0,036	-0,010
-321,314	29,364	0,058	-0,036
-320,299	424,324	-0,042	0,066
-319,285	-123,761	-0,152	-0,017
-318,270	184,405	-0,023	0,024
-317,256	-200,000	0,008	-0,046
-316,241	309,014	0,017	0,023
-315,226	206,985	-0,060	-0,068
-314,212	582,886	0,040	0,071
-313,197	-200,000	0,013	-0,122
-312,183	0,445	-0,106	0,054
-311,168	127,162	-0,061	-0,056
-310,153	41,006	-0,041	-0,027
-309,139	800,000	-0,078	0,158
-308,124	-139,243	0,154	-0,012
-307,110	134,144	0,102	0,096
-306,095	-90,082	-0,027	0,006
-305,080	135,544	0,033	-0,031
-304,066	-59,978	-0,032	0,010
-303,051	57,454	-0,093	-0,066
-302,037	123,489	0,131	-0,119
-301,022	-200,000	-0,004	0,062
-300,008	790,915	0,027	-0,055
-298,993	-118,389	-0,039	0,005
-297,978	-156,963	0,069	-0,003
-296,964	-95,569	0,087	0,017
-295,949	6,824	0,071	-0,038
-294,935	153,162	-0,060	-0,059
-293,920	800,000	0,050	0,111
-292,905	545,659	-0,073	-0,128
-291,891	-200,000	-0,006	0,083
-290,876	229,460	0,023	-0,027
-289,862	283,421	-0,041	0,054
-288,847	97,405	0,056	-0,047
-287,832	800,000	0,025	-0,055
-286,818	800,000	0,027	-0,066
-285,803	406,134	-0,015	0,023
-284,789	-200,000	0,034	0,114
-283,774	-6,727	-0,092	-0,045
-282,759	-127,427	0,052	-0,005
-281,745	91,782	-0,079	0,064
-280,730	374,015	-0,012	0,017
-279,716	-200,000	0,025	-0,108
-278,701	4,441	-0,030	-0,016
-277,686	100,655	0,022	0,019
-276,672	-46,889	0,157	-0,055
-275,657	-200,000	0,006	0,090
-274,643	-200,000	-0,004	-0,033
-273,628	-200,000	-0,001	-0,010
-272,613	-106,224	-0,058	-0,009
-271,599	-200,000	-0,058	0,190
-270,584	-123,956	0,234	0,026
-269,570	159,936	0,017	-0,017
-268,555	-200,000	0,039	0,136
-267,540	-23,430	-0,010	-0,004
-266,526	11,078	-0,162	-0,089
-265,511	-91,592	0,118	0,024
-264,497	-37,713	-0,071	0,027
-263,482	800,000	-0,056	0,143
-262,467	136,581	0,021	0,020
-261,453	214,144	0,086	-0,099
-260,438	-95,735	-0,093	-0,018
-259,424	117,573	-0,034	0,030
-258,409	63,440	-0,083	-0,060
-257,395	514,943	0,027	0,046
-256,380	41,190	0,199	0,130
-255,365	-200,000	0,068	0,000
-254,351	-200,000	-0,016	-0,149
-253,336	520,954	0,027	-0,046
-252,322	800,000	0,042	-0,086
-251,307	800,000	0,027	-0,083
-250,292	-11,142	-0,135	0,064
-249,278	-200,000	-0,013	0,148
-248,263	-73,616	0,120	0,031
-247,249	26,630	-0,016	0,010
-246,234	119,510	0,044	0,039
-245,219	119,324	-0,093	-0,083
-244,205	800,000	0,036	-0,082
-243,190	-113,035	-0,076	-0,011
-242,176	-200,000	-0,016	0,081
-241,161	58,643	0,064	0,045
-240,146	-6,042	0,080	0,040
-239,132	48,358	-0,071	0,048
-238,117	-125,072	-0,066	-0,007
-237,103	800,000	0,025	0,076
-236,088	800,000	0,021	-0,048
-235,073	800,000	-0,020	-0,041
-234,059	-69,854	0,148	0,041
-233,044	-0,700	0,021	-0,011
-232,030	289,624	0,068	-0,090
-231,015	193,661	-0,048	-0,053
-230,000	479,866	-0,036	-0,059
-228,986	-200,000	0,003	-0,022
-227,971	140,428	0,067	0,064
-226,957	30,715	0,042	0,026
-225,942	-125,385	-0,133	-0,014
-224,927	557,218	0,113	-0,198
-223,913	16,427	-0,040	-0,023
-222,898	-200,000	-0,008	0,054
-221,884	-200,000	-0,001	-0,091
-220,869	-124,354	0,101	-0,011
-219,855	-16,709	-0,143	0,065
-218,840	-64,328	0,146	0,043
-217,825	0,179	-0,032	-0,017
-216,811	-200,000	-0,005	-0,059
-215,796	-97,096	0,012	-0,002
-214,782	-200,000	0,038	-0,148
-213,767	-30,011	0,028	-0,012
-212,752	-48,662	-0,151	-0,052
-211,738	-10,004	0,058	0,028
-210,723	15,376	-0,047	0,026
-209,709	800,000	0,011	0,026
-208,694	197,704	0,029	-0,032
-207,679	0,099	-0,055	-0,028
-206,665	45,899	0,121	-0,081
-205,650	-77,483	-0,076	-0,019
-204,636	-200,000	-0,010	0,211
-203,621	-178,416	-0,159	0,003
-202,606	800,000	0,037	-0,097
-201,592	176,809	0,085	-0,090
-200,577	77,078	0,156	-0,119
-199,563	-200,000	0,015	-0,061
-198,548	60,385	0,020	-0,014
-197,533	293,836	0,041	0,054
-196,519	371,952	-0,024	0,036
-195,504	-53,190	-0,052	0,017
-194,490	800,000	-0,070	-0,143
-193,475	-200,000	0,066	-0,213
-192,460	518,418	0,103	0,174
-191,446	633,602	0,024	0,045
-190,431	-200,000	-0,001	0,126
-189,417	800,000	-0,013	0,037
-188,402	800,000	-0,044	-0,107
-187,387	-200,000	0,027	-0,145
-186,373	99,155	-0,088	-0,073
-185,358	193,695	0,102	0,111
-184,344	-200,000	-0,014	0,164
-183,329	-200,000	0,008	-0,029
-182,315	30,680	0,072	0,044
-181,300	0,809	0,072	0,037
-180,285	-122,602	-0,133	0,015
-179,271	9,461	-0,038	-0,021
-178,256	96,995	-0,131	-0,109
-177,242	-200,000	0,003	-0,015
-176,227	-144,957	0,070	-0,005
-175,212	-166,732	0,107	-0,003
-174,198	800,000	-0,021	-0,061
-173,183	75,298	-0,119	0,090
-172,169	-200,000	-0,001	-0,011
-171,154	-200,000	-0,034	-0,147
-170,139	113,849	0,051	0,045
-169,125	279,069	0,111	0,143
-168,110	389,533	0,035	-0,052
-167,096	90,216	0,053	0,042
-166,081	-89,908	0,105	0,022
-165,066	-200,000	0,027	-0,101
-164,052	800,000	0,052	-0,119
-163,037	271,745	-0,074	-0,094
-162,023	-200,000	-0,015	0,129
-161,008	-20,095	-0,066	0,029
-159,993	800,000	-0,025	0,069
-158,979	-22,388	0,021	0,009
-157,964	-31,826	0,061	-0,025
-156,950	-30,112	-0,058	-0,024
-155,935	-69,936	0,166	0,045
-154,920	-200,000	-0,017	0,069
-153,906	-200,000	0,027	0,129
-152,891	216,180	-0,051	0,059
-151,877	-200,000	0,017	0,110
-150,862	76,805	0,066	0,050
-149,847	251,771	0,049	0,060
-148,833	390,631	0,028	-0,042
-147,818	-153,338	0,168	-0,008
-146,804	800,000	0,070	0,163
-145,789	256,336	0,073	-0,090
-144,775	-30,773	-0,099	0,040
-143,760	-29,738	-0,030	0,012
-142,745	23,160	-0,055	-0,033
-141,731	-200,000	0,019	-0,067
-140,716	800,000	0,035	-0,083
-139,702	75,938	0,012	-0,009
-138,687	27,022	0,084	-0,050
-137,672	282,961	0,021	0,027
-136,658	-8,514	-0,006	-0,003
-135,643	800,000	-0,004	-0,008
-134,629	800,000	-0,053	0,158
-133,614	180,617	-0,074	-0,078
-132,599	648,695	-0,026	-0,048
-131,585	-107,105	0,131	0,021
-130,570	58,845	0,057	0,040
-129,556	401,623	0,029	-0,044
-128,541	-200,000	0,000	-0,004
-127,526	419,805	-0,083	-0,128
-126,512	-91,583	-0,016	0,003
-125,497	800,000	-0,004	-0,012
-124,483	800,000	0,039	0,097
-123,468	-99,451	-0,074	-0,013
-122,453	63,187	0,106	-0,076
-121,439	-69,608	-0,047	-0,013
-120,424	1,385	-0,045	0,023
-119,410	45,499	0,027	0,018
-118,395	-200,000	-0,001	-0,027
