DTS Sentinel unit serial number:	SN410029Multiplexer serial number:	ORYXHardware model number:	OX2-SRSoftware version number:	ORYX F/W v4,00 Oryx Data Collector v3.7.2.0data status	okinstallation	B5 Nyhavnadifferential loss correction	single-endedforward channel	channel 2reverse channel	N/Adate	2023/12/14time	01:02:13forward acquisition time	300,00reverse acquisition time	0,00gamma	499,1914k internal	0,3155k external	0,3155temperature offset calibration	1,0000default loss term (dB/km)	0,3820temperature slope calibration	1,0000multiplexer offset coefficient	1,0000multiplexer slope coefficient	1,0000fibre end	0,00T internal ref (°C)	8,68T ext. ref 1 (°C)	-7,16T ext. ref 2 (°C)	-7,16length (m)	temperature (°C)	Stokes	anti-Stokes-744,400	200,419	0,101	0,114
-743,385	-119,856	-0,222	-0,028
-742,371	-11,363	0,218	0,106
-741,356	-48,553	-0,330	-0,117
-740,342	-33,183	0,078	0,032
-739,327	-113,674	-0,367	-0,052
-738,312	800,000	0,026	0,065
-737,298	-7,588	-0,348	-0,173
-736,283	-8,454	0,154	0,076
-735,269	-189,043	-0,291	0,003
-734,254	-29,713	0,178	0,075
-733,239	-6,914	-0,512	-0,256
-732,225	7,380	0,163	0,089
-731,210	-200,000	0,013	0,057
-730,196	-200,000	-0,005	-0,058
-729,181	358,056	-0,087	-0,128
-728,167	341,793	0,046	-0,066
-727,152	46,200	-0,085	0,058
-726,137	-53,496	-0,086	0,029
-725,123	800,000	-0,065	-0,188
-724,108	-23,534	-0,183	-0,081
-723,094	800,000	-0,074	-0,241
-722,079	62,256	-0,112	-0,082
-721,064	784,349	0,032	-0,065
-720,050	-91,666	0,097	-0,020
-719,035	-200,000	-0,009	-0,138
-718,021	648,920	0,042	0,079
-717,006	11,221	-0,126	0,071
-715,991	-83,037	-0,193	0,046
-714,977	800,000	0,037	-0,107
-713,962	800,000	-0,062	-0,133
-712,948	-116,793	-0,128	-0,017
-711,933	547,957	-0,034	-0,060
-710,918	800,000	0,038	-0,113
-709,904	71,516	0,035	0,027
-708,889	-1,794	-0,075	-0,039
-707,875	800,000	0,056	-0,127
-706,860	187,891	0,092	-0,102
-705,845	10,648	-0,055	-0,031
-704,831	-66,931	0,030	0,009
-703,816	-116,988	-0,104	0,014
-702,802	-200,000	0,007	-0,064
-701,787	138,294	-0,108	0,104
-700,772	-151,681	0,049	0,003
-699,758	65,415	-0,078	0,058
-698,743	800,000	0,063	0,173
-697,729	12,340	0,094	-0,053
-696,714	85,683	-0,080	-0,065
-695,699	-200,000	-0,020	-0,140
-694,685	541,251	-0,026	0,045
-693,670	-200,000	0,017	-0,056
-692,656	800,000	-0,041	-0,113
-691,641	-103,344	0,122	0,021
-690,627	412,704	-0,095	0,150
-689,612	-200,000	-0,001	0,031
-688,597	-200,000	-0,006	-0,083
-687,583	553,146	0,047	-0,084
-686,568	-132,433	-0,207	0,019
-685,554	166,458	0,099	0,103
-684,539	-200,000	-0,044	0,166
-683,524	800,000	-0,016	0,034
-682,510	-179,285	-0,211	0,003
-681,495	-59,116	-0,016	0,005
-680,481	83,713	0,048	0,038
-679,466	1,362	-0,225	-0,119
-678,451	74,324	0,016	0,012
-677,437	800,000	0,010	-0,026
-676,422	366,890	0,044	0,065
-675,408	-135,739	-0,100	0,009
-674,393	-176,016	-0,129	-0,002
-673,378	370,914	-0,151	0,226
-672,364	-63,584	-0,125	-0,038
-671,349	-38,154	-0,079	-0,031
-670,335	800,000	-0,030	-0,071
-669,320	508,334	0,022	-0,037
-668,305	-200,000	0,013	0,065
-667,291	-200,000	0,005	-0,112
-666,276	800,000	0,040	-0,082
-665,262	174,259	-0,127	0,136
-664,247	-96,348	-0,073	-0,014
-663,232	-200,000	-0,012	-0,070
-662,218	800,000	-0,017	0,047
-661,203	246,290	-0,036	-0,045
-660,189	37,895	0,039	-0,025
-659,174	1,865	0,076	-0,040
-658,159	-200,000	-0,001	-0,004
-657,145	-152,347	-0,063	0,003
-656,130	570,780	0,047	0,085
-655,116	800,000	-0,061	0,125
-654,101	-84,108	0,148	0,034
-653,086	-45,763	0,091	-0,033
-652,072	214,137	-0,068	-0,080
-651,057	800,000	-0,016	0,043
-650,043	21,406	0,139	0,083
-649,028	-200,000	-0,030	0,116
-648,014	-143,934	-0,020	-0,001
-646,999	-200,000	-0,004	-0,057
-645,984	152,357	-0,081	0,081
-644,970	188,450	-0,081	-0,089
-643,955	800,000	0,026	-0,062
-642,941	-195,221	0,128	-0,001
-641,926	-47,590	0,038	-0,013
-640,911	-159,667	0,099	0,004
-639,897	-137,613	-0,172	-0,014
-638,882	-120,142	0,147	0,018
-637,868	800,000	0,003	-0,008
-636,853	634,615	-0,031	-0,057
-635,838	800,000	-0,015	0,047
-634,824	29,975	-0,049	-0,030
-633,809	-200,000	0,002	-0,009
-632,795	601,131	0,076	0,139
-631,780	49,646	-0,168	-0,116
-630,765	-18,851	-0,090	0,041
-629,751	-200,000	-0,020	-0,124
-628,736	518,500	-0,054	-0,093
-627,722	-129,390	0,110	0,011
-626,707	-200,000	-0,020	-0,073
-625,692	-200,000	-0,014	0,164
-624,678	-200,000	-0,016	0,099
-623,663	187,499	-0,066	0,072
-622,649	-16,495	0,069	-0,032
-621,634	33,588	-0,145	-0,092
-620,619	456,162	-0,067	0,109
-619,605	273,710	0,094	0,122
-618,590	-64,752	-0,134	0,040
-617,576	158,465	0,051	0,052
-616,561	-200,000	0,006	-0,056
-615,546	-200,000	0,013	-0,053
-614,532	-56,463	0,068	-0,022
-613,517	142,793	-0,087	-0,085
-612,503	70,301	-0,116	0,088
-611,488	246,228	0,032	-0,040
-610,474	800,000	-0,115	-0,238
-609,459	-200,000	-0,011	0,042
-608,444	58,155	-0,123	-0,088
-607,430	104,476	0,095	-0,082
-606,415	714,965	-0,056	-0,110
-605,401	-43,362	-0,168	-0,062
-604,386	350,633	-0,090	0,131
-603,371	424,012	-0,057	0,090
-602,357	-200,000	-0,018	-0,081
-601,342	-200,000	0,004	0,017
-600,328	125,075	0,109	-0,101
-599,313	79,448	0,050	0,040
-598,298	-21,277	0,088	-0,039
-597,284	-160,335	0,155	-0,006
-596,269	-200,000	0,003	0,115
-595,255	158,079	0,056	0,057
-594,240	64,748	0,063	-0,047
-593,225	74,558	-0,048	0,037
-592,211	800,000	-0,030	-0,068
-591,196	-200,000	-0,002	0,070
-590,182	-200,000	0,001	-0,072
-589,167	415,353	-0,106	-0,167
-588,152	-200,000	0,010	0,068
-587,138	-138,576	0,096	0,008
-586,123	-61,701	0,115	0,035
-585,109	800,000	-0,036	0,111
-584,094	93,825	0,100	0,083
-583,079	199,493	-0,011	-0,012
-582,065	800,000	-0,036	-0,074
-581,050	-84,759	-0,100	0,023
-580,036	-131,874	-0,071	-0,007
-579,021	53,037	-0,084	0,059
-578,006	-200,000	-0,012	-0,150
-576,992	-27,542	0,154	-0,065
-575,977	93,909	0,079	0,066
-574,963	-39,801	0,117	-0,045
-573,948	602,391	0,011	-0,021
-572,934	-9,622	0,067	-0,032
-571,919	800,000	0,003	0,008
-570,904	-67,836	-0,088	0,025
-569,890	208,201	-0,078	-0,089
-568,875	769,151	-0,025	0,050
-567,861	800,000	-0,037	-0,079
-566,846	316,936	-0,029	0,041
-565,831	-117,946	-0,075	0,010
-564,817	-16,674	-0,079	-0,036
-563,802	800,000	-0,037	-0,080
-562,788	-200,000	-0,012	-0,072
-561,773	175,084	-0,006	-0,007
-560,758	-117,305	-0,097	0,013
-559,744	271,304	0,020	0,025
-558,729	-84,037	0,164	0,038
-557,715	156,868	-0,106	0,108
-556,700	305,616	-0,024	-0,033
-555,685	54,523	-0,083	0,059
-554,671	193,349	0,041	0,045
-553,656	-2,065	0,040	-0,021
-552,642	-113,465	0,102	-0,014
-551,627	50,242	0,047	-0,033
-550,612	-32,030	-0,065	0,026
-549,598	401,167	-0,049	-0,076
-548,583	89,685	0,081	0,066
-547,569	143,431	-0,071	0,069
-546,554	800,000	-0,019	0,048
-545,539	-200,000	0,011	0,058
-544,525	-200,000	0,021	0,079
-543,510	-104,226	-0,070	-0,012
-542,496	306,338	-0,056	0,076
-541,481	-33,392	-0,084	0,034
-540,466	-70,245	-0,087	-0,024
-539,452	-200,000	0,001	0,089
-538,437	252,186	0,062	0,077
-537,423	279,747	0,075	0,098
-536,408	225,927	0,048	-0,057
-535,393	-200,000	-0,025	-0,097
-534,379	5,955	-0,062	0,033
-533,364	102,644	0,080	0,068
-532,350	-63,790	0,076	0,023
-531,335	-141,199	0,046	0,003
-530,321	538,272	0,065	0,114
-529,306	4,692	-0,133	0,071
-528,291	262,950	0,068	-0,087
-527,277	747,678	-0,070	-0,138
-526,262	73,638	-0,107	0,082
-525,248	-108,497	-0,155	-0,024
-524,233	-38,637	0,178	-0,068
-523,218	-151,787	0,056	-0,003
-522,204	800,000	-0,018	0,047
-521,189	-163,422	0,049	-0,002
-520,175	198,553	-0,082	-0,092
-519,160	28,285	-0,073	-0,045
-518,145	-200,000	-0,018	0,222
-517,131	-125,665	-0,074	-0,008
-516,116	67,707	-0,078	-0,058
-515,102	-35,209	-0,065	0,026
-514,087	-200,000	-0,016	0,089
-513,072	-69,884	0,067	0,019
-512,058	-124,352	0,042	0,005
-511,043	-112,985	-0,077	-0,011
-510,029	-120,252	0,101	0,012
-509,014	-36,794	0,061	-0,024
-507,999	110,903	0,099	0,087
-506,985	-155,981	-0,129	0,006
-505,970	-98,643	-0,060	0,011
-504,956	-200,000	-0,006	0,032
-503,941	-175,618	0,146	0,003
-502,926	800,000	0,051	0,129
-501,912	119,930	0,033	0,030
-500,897	272,906	0,017	-0,022
-499,883	-200,000	0,002	0,083
-498,868	464,966	0,038	-0,062
-497,853	385,105	-0,039	-0,059
-496,839	47,495	0,202	-0,137
-495,824	-27,980	-0,123	0,052
-494,810	-109,994	0,028	0,004
-493,795	430,145	-0,035	-0,055
-492,781	443,690	0,031	-0,049
-491,766	-200,000	0,035	-0,126
-490,751	377,132	-0,106	-0,158
-489,737	-20,099	0,019	-0,009
-488,722	-129,168	0,122	-0,012
-487,708	-200,000	-0,016	-0,060
-486,693	-121,199	-0,053	-0,006
-485,678	256,474	0,043	-0,054
-484,664	-200,000	0,002	0,035
-483,649	800,000	-0,018	-0,045
-482,635	-148,088	-0,135	0,008
-481,620	69,593	-0,060	0,045
-480,605	-108,614	-0,089	-0,014
-479,591	118,923	-0,047	-0,042
-478,576	94,805	-0,067	0,056
-477,562	-200,000	0,017	-0,104
-476,547	-76,447	0,085	-0,022
-475,532	-166,812	-0,290	0,009
-474,518	-200,000	0,113	0,000
-473,503	133,937	0,007	0,007
-472,489	-200,000	-0,017	0,129
-471,474	-116,999	-0,177	0,023
-470,459	74,494	0,032	-0,024
-469,445	-18,839	-0,098	-0,044
-468,430	-188,497	-0,105	0,001
-467,416	800,000	-0,026	0,071
-466,401	-1,193	0,019	0,010
-465,386	800,000	0,016	0,046
-464,372	286,196	-0,019	-0,025
-463,357	-200,000	0,073	0,249
-462,343	709,976	-0,025	0,048
-461,328	-40,615	-0,036	0,014
-460,313	118,606	-0,150	0,135
-459,299	21,339	0,078	0,046
-458,284	-59,795	0,082	-0,025
-457,270	-38,336	0,040	-0,015
-456,255	-200,000	0,014	-0,111
-455,241	125,060	-0,078	-0,072
-454,226	-200,000	0,011	-0,036
-453,211	-200,000	0,002	0,016
-452,197	-200,000	0,014	0,051
-451,182	263,187	-0,042	-0,053
-450,168	-73,085	-0,070	0,019
-449,153	-141,849	0,185	0,013
-448,138	143,044	-0,013	-0,012
-447,124	-200,000	-0,047	-0,231
-446,109	227,463	-0,039	0,046
-445,095	137,340	-0,027	-0,025
-444,080	-200,000	0,027	0,141
-443,065	84,616	-0,043	0,034
-442,051	800,000	0,062	-0,131
-441,036	82,672	0,084	-0,067
-440,022	426,798	-0,017	-0,027
-439,007	301,390	-0,019	-0,026
-437,992	269,687	-0,018	0,023
-436,978	46,736	0,075	0,051
-435,963	251,295	0,064	0,080
-434,949	57,888	-0,032	-0,023
-433,934	-160,089	-0,077	0,003
-432,919	352,186	0,030	-0,043
-431,905	15,547	0,113	0,065
-430,890	-200,000	0,037	0,119
-429,876	77,982	0,060	0,046
-428,861	84,749	0,034	-0,027
-427,846	-200,000	-0,005	0,063
-426,832	800,000	0,022	0,050
-425,817	-50,278	-0,106	-0,036
-424,803	59,034	0,103	-0,074
-423,788	-200,000	-0,000	-0,159
-422,773	80,830	-0,084	0,066
-421,759	-200,000	-0,012	0,125
-420,744	33,755	-0,052	-0,033
-419,730	-200,000	-0,018	-0,233
-418,715	-59,378	-0,045	0,014
-417,701	-200,000	0,006	-0,030
-416,686	-200,000	-0,003	0,121
-415,671	315,463	-0,059	0,081
-414,657	8,625	-0,101	-0,055
-413,642	-200,000	0,003	-0,113
-412,628	-102,642	0,083	0,014
-411,613	-6,136	-0,027	-0,013
-410,598	35,233	-0,040	-0,025
-409,584	-180,455	0,012	0,000
-408,569	49,287	0,101	0,069
-407,555	-182,816	0,071	-0,001
-406,540	168,585	0,076	0,079
-405,525	80,664	-0,021	0,016
-404,511	-200,000	-0,018	-0,074
-403,496	160,753	0,027	0,028
-402,482	-200,000	-0,033	-0,136
-401,467	-133,211	0,207	-0,019
-400,452	-200,000	0,002	-0,029
-399,438	71,914	-0,083	0,063
-398,423	800,000	-0,021	-0,062
-397,409	98,367	-0,074	-0,062
-396,394	-4,345	-0,068	0,034
-395,379	-83,488	0,089	0,020
-394,365	92,921	-0,038	0,031
-393,350	747,725	-0,045	-0,089
-392,336	31,913	0,064	-0,040
-391,321	-200,000	-0,003	0,043
-390,306	-76,878	0,067	-0,017
-389,292	800,000	0,051	0,121
-388,277	800,000	-0,022	-0,053
-387,263	-200,000	0,047	-0,166
-386,248	38,246	0,062	0,040
-385,233	800,000	0,006	0,014
-384,219	-53,225	0,115	-0,038
-383,204	-54,342	-0,046	-0,015
-382,190	800,000	0,063	-0,190
-381,175	-72,396	-0,054	0,015
-380,160	435,614	-0,027	-0,042
-379,146	-2,775	0,118	0,060
-378,131	102,879	-0,086	0,073
-377,117	56,259	-0,072	0,051
-376,102	800,000	0,042	0,114
-375,088	-200,000	-0,025	-0,106
-374,073	445,658	0,042	-0,068
-373,058	-125,272	0,097	0,011
-372,044	596,600	-0,047	0,086
-371,029	-80,761	0,097	0,023
-370,015	367,737	-0,020	0,030
-369,000	-195,037	-0,093	0,000
-367,985	-200,000	0,008	0,037
-366,971	318,589	0,065	0,090
-365,956	-200,000	-0,001	-0,007
-364,942	-200,000	0,026	-0,089
-363,927	14,739	0,026	-0,015
-362,912	-200,000	-0,006	0,024
-361,898	276,946	0,050	0,065
-360,883	-200,000	-0,001	-0,027
-359,869	93,475	-0,047	0,038
-358,854	254,933	0,060	0,074
-357,839	800,000	-0,005	0,015
-356,825	800,000	-0,043	0,096
-355,810	-38,022	-0,064	-0,024
-354,796	-183,539	-0,109	-0,001
-353,781	-94,018	0,048	0,009
-352,766	-200,000	0,004	-0,197
-351,752	800,000	0,027	-0,084
-350,737	800,000	-0,041	0,090
-349,723	604,249	0,061	0,111
-348,708	710,216	0,056	-0,109
-347,693	39,432	-0,037	-0,024
-346,679	183,037	0,003	-0,003
-345,664	10,128	-0,056	0,031
-344,650	746,828	-0,048	-0,095
-343,635	-156,347	0,188	-0,008
-342,620	800,000	0,015	0,035
-341,606	800,000	0,023	-0,053
-340,591	182,558	-0,098	-0,105
-339,577	61,277	0,022	-0,016
-338,562	-96,234	0,015	-0,003
-337,548	-60,866	0,121	0,037
-336,533	246,784	-0,038	0,047
-335,518	-66,043	0,099	-0,028
-334,504	30,995	0,060	0,037
-333,489	800,000	-0,024	-0,072
-332,475	-15,473	-0,081	-0,037
-331,460	-200,000	0,039	-0,141
-330,445	800,000	-0,007	0,022
-329,431	-163,673	0,080	-0,003
-328,416	-160,706	0,095	-0,004
-327,402	800,000	0,043	0,102
-326,387	269,961	0,043	-0,055
-325,372	167,543	-0,080	0,083
-324,358	-200,000	-0,006	0,091
-323,343	27,980	-0,102	-0,062
-322,329	172,128	-0,012	0,012
-321,314	209,955	-0,054	-0,061
-320,299	800,000	0,026	-0,065
-319,285	151,791	0,033	-0,032
-318,270	701,185	-0,057	-0,109
-317,256	95,174	-0,110	-0,091
-316,241	52,747	0,073	0,051
-315,226	-94,377	-0,183	0,036
-314,212	-24,363	0,141	-0,061
-313,197	79,006	-0,018	-0,014
-312,183	546,901	0,049	-0,085
-311,168	800,000	-0,076	0,195
-310,153	4,113	-0,058	0,031
-309,139	800,000	0,002	0,005
-308,124	800,000	0,066	0,138
-307,110	179,641	-0,051	0,054
-306,095	-93,163	0,156	0,031
-305,080	-200,000	0,006	0,049
-304,066	79,313	0,070	0,054
-303,051	800,000	-0,024	-0,058
-302,037	-8,722	0,078	0,038
-301,022	191,058	-0,102	0,111
-300,008	-32,174	0,125	0,050
-298,993	-13,366	0,061	-0,028
-297,978	-200,000	-0,009	-0,074
-296,964	800,000	-0,072	-0,222
-295,949	-16,452	-0,071	-0,032
-294,935	100,332	-0,124	0,105
-293,920	-200,000	0,005	-0,058
-292,905	344,774	0,040	0,056
-291,891	800,000	-0,023	0,058
-290,876	-76,231	0,068	-0,017
-289,862	800,000	0,030	-0,062
-288,847	524,599	-0,042	0,072
-287,832	10,580	-0,016	0,009
-286,818	-200,000	-0,003	0,049
-285,803	231,954	-0,082	-0,098
-284,789	-163,170	0,086	0,003
-283,774	235,717	-0,052	0,063
-282,759	50,541	0,082	-0,056
-281,745	-18,952	-0,056	-0,025
-280,730	-96,381	0,077	0,015
-279,716	68,642	-0,003	-0,002
-278,701	-68,109	0,049	-0,014
-277,686	693,524	0,054	0,104
-276,672	800,000	0,006	0,013
-275,657	-146,659	0,149	-0,009
-274,643	673,008	-0,122	-0,230
-273,628	125,808	-0,066	-0,060
-272,613	8,702	-0,090	-0,049
-271,599	-88,712	0,191	-0,041
-270,584	800,000	-0,010	0,021
-269,570	-200,000	0,000	0,226
-268,555	-148,214	0,024	-0,001
-267,540	-116,891	-0,114	0,015
-266,526	637,686	0,066	-0,123
-265,511	99,796	-0,105	-0,088
-264,497	-74,032	0,128	-0,033
-263,482	57,068	0,093	-0,066
-262,467	800,000	0,040	-0,100
-261,453	-35,813	0,071	0,028
-260,438	-58,097	-0,065	0,021
-259,424	-180,496	-0,042	0,001
-258,409	800,000	0,032	-0,066
-257,395	532,695	0,099	0,170
-256,380	120,080	0,043	0,039
-255,365	-175,473	0,093	0,002
-254,351	-200,000	0,014	0,053
-253,336	-200,000	0,005	0,073
-252,322	47,070	-0,129	-0,087
-251,307	278,450	0,062	-0,080
-250,292	-154,046	-0,005	0,000
-249,278	585,315	-0,036	-0,063
-248,263	578,934	0,040	0,071
-247,249	-65,041	-0,204	-0,059
-246,234	795,819	0,048	0,097
-245,219	-13,042	-0,081	-0,038
-244,205	61,171	-0,072	-0,052
-243,190	475,132	-0,058	0,096
-242,176	-200,000	0,030	0,143
-241,161	384,838	0,079	-0,118
-240,146	800,000	-0,051	0,112
-239,132	800,000	-0,019	-0,039
-238,117	81,373	0,071	0,056
-237,103	-94,549	-0,111	0,022
-236,088	108,667	-0,096	0,083
-235,073	-22,264	0,130	0,057
-234,059	-200,000	-0,007	0,143
-233,044	-73,314	-0,055	-0,014
-232,030	186,725	0,062	-0,067
-231,015	-3,734	0,044	-0,022
-230,000	-200,000	0,063	-0,000
-228,986	-13,946	-0,068	0,032
-227,971	-91,505	-0,029	-0,006
-226,957	67,953	0,049	0,036
-225,942	-36,491	0,068	-0,026
-224,927	106,776	-0,116	0,099
-223,913	-200,000	-0,025	0,093
-222,898	576,045	0,002	0,004
-221,884	562,342	0,049	0,085
-220,869	-133,410	0,040	-0,004
-219,855	800,000	0,024	0,054
-218,840	92,343	0,018	-0,015
-217,825	-140,942	0,155	0,011
-216,811	-200,000	-0,037	0,137
-215,796	20,672	-0,231	-0,135
-214,782	800,000	-0,057	0,144
-213,767	800,000	0,054	0,163
-212,752	-148,236	0,072	-0,004
-211,738	476,204	0,060	0,098
-210,723	209,708	0,039	0,044
-209,709	-89,354	0,055	0,012
-208,694	118,832	-0,046	-0,041
-207,679	256,833	0,081	-0,100
-206,665	195,583	-0,092	-0,101
-205,650	800,000	-0,009	0,019
-204,636	372,176	0,039	0,057
-203,621	45,509	0,067	-0,045
-202,606	-175,376	0,082	0,002
-201,592	310,347	-0,040	-0,055
-200,577	244,788	0,049	-0,060
-199,563	-200,000	0,012	-0,087
-198,548	-200,000	-0,069	0,246
-197,533	-200,000	-0,015	0,122
-196,519	38,780	0,104	-0,067
-195,504	226,567	-0,017	-0,020
-194,490	382,843	-0,088	-0,131
-193,475	-200,000	0,047	-0,215
-192,460	800,000	-0,024	-0,062
-191,446	272,329	0,054	0,068
-190,431	800,000	-0,047	0,114
-189,417	-200,000	0,006	0,168
-188,402	36,319	0,079	0,050
-187,387	-200,000	0,011	-0,067
-186,373	29,431	-0,028	0,017
-185,358	800,000	0,044	-0,128
-184,344	234,250	0,073	0,088
-183,329	-172,647	-0,098	0,002
-182,315	254,433	-0,050	-0,062
-181,300	-36,231	0,059	0,023
-180,285	-200,000	0,014	0,096
-179,271	711,768	-0,041	-0,078
-178,256	-200,000	0,004	-0,034
-177,242	19,037	-0,140	-0,081
-176,227	381,998	-0,026	0,039
-175,212	128,538	-0,128	-0,118
-174,198	-127,091	0,196	0,020
-173,183	-54,239	-0,041	-0,013
-172,169	80,616	-0,058	0,045
-171,154	114,175	0,059	-0,052
-170,139	448,807	-0,060	-0,096
-169,125	211,019	0,034	0,039
-168,110	800,000	0,018	-0,055
-167,096	-200,000	0,015	0,060
-166,081	-12,801	0,014	0,006
-165,066	14,633	-0,041	-0,023
-164,052	-29,308	0,043	-0,018
-163,037	564,769	0,056	-0,098
-162,023	255,132	0,088	0,109
-161,008	35,312	0,099	-0,063
-159,993	800,000	0,041	0,113
-158,979	-64,290	0,069	-0,020
-157,964	-145,576	0,089	-0,006
-156,950	312,023	-0,077	-0,105
-155,935	-3,214	-0,053	-0,027
-154,920	15,624	0,127	0,072
-153,906	258,005	-0,015	0,019
-152,891	94,556	-0,171	-0,140
-151,877	-59,005	0,078	-0,024
-150,862	800,000	-0,051	-0,148
-149,847	459,709	-0,051	-0,083
-148,833	800,000	0,042	-0,084
-147,818	-35,205	0,111	-0,043
-146,804	-200,000	-0,064	0,224
-145,789	800,000	-0,101	0,207
-144,775	78,471	-0,151	-0,116
-143,760	800,000	0,031	-0,067
-142,745	-23,969	0,012	0,005
-141,731	86,764	0,085	0,068
-140,716	137,849	0,124	0,117
-139,702	131,542	-0,073	-0,068
-138,687	-200,000	-0,025	-0,085
-137,672	-3,062	0,096	0,048
-136,658	182,314	-0,068	-0,072
-135,643	-188,044	-0,043	0,000
-134,629	800,000	0,024	-0,055
-133,614	-103,130	0,058	-0,010
-132,599	136,725	0,040	0,037
-131,585	-127,710	-0,091	0,009
-130,570	163,791	-0,137	-0,139
-129,556	98,074	0,079	0,065
-128,541	120,421	-0,062	0,056
-127,526	-200,000	0,004	-0,030
-126,512	193,588	0,133	-0,146
-125,497	-200,000	0,035	0,143
-124,483	5,438	0,081	-0,043
-123,468	-200,000	0,014	0,048
-122,453	-99,657	-0,101	-0,018
-121,439	-200,000	-0,013	-0,098
-120,424	796,752	-0,042	-0,084
-119,410	-200,000	0,008	0,083
-118,395	166,278	-0,083	0,085
