DTS Sentinel unit serial number:	SN410029Multiplexer serial number:	ORYXHardware model number:	OX2-SRSoftware version number:	ORYX F/W v4,00 Oryx Data Collector v3.7.2.0data status	okinstallation	B5 Nyhavnadifferential loss correction	single-endedforward channel	channel 2reverse channel	N/Adate	2023/12/13time	22:32:13forward acquisition time	300,00reverse acquisition time	0,00gamma	499,1914k internal	0,3154k external	0,3154temperature offset calibration	1,0000default loss term (dB/km)	0,3820temperature slope calibration	1,0000multiplexer offset coefficient	1,0000multiplexer slope coefficient	1,0000fibre end	0,00T internal ref (°C)	9,34T ext. ref 1 (°C)	-7,38T ext. ref 2 (°C)	-7,41length (m)	temperature (°C)	Stokes	anti-Stokes-744,400	-63,313	0,146	-0,044
-743,385	-55,514	-0,390	-0,128
-742,371	-99,914	0,151	-0,028
-741,356	-9,732	-0,310	-0,152
-740,342	65,547	0,150	0,112
-739,327	-1,520	-0,467	-0,242
-738,312	262,738	0,049	-0,063
-737,298	-113,847	-0,332	-0,047
-736,283	218,939	0,129	0,152
-735,269	-98,907	-0,343	-0,064
-734,254	112,918	0,121	0,108
-733,239	14,147	-0,422	-0,242
-732,225	22,035	0,241	0,145
-731,210	644,461	0,099	0,186
-730,196	-200,000	-0,006	0,068
-729,181	-129,179	-0,156	0,016
-728,167	103,227	-0,084	0,073
-727,152	-96,025	-0,211	0,041
-726,137	-101,782	-0,034	0,006
-725,123	-200,000	0,016	-0,069
-724,108	201,951	0,099	-0,113
-723,094	297,576	-0,023	-0,032
-722,079	-135,887	-0,117	0,010
-721,064	-200,000	0,002	0,147
-720,050	-13,190	-0,065	0,031
-719,035	-200,000	0,033	0,112
-718,021	-200,000	0,006	-0,063
-717,006	-89,508	-0,079	0,017
-715,991	-189,384	-0,143	0,001
-714,977	-200,000	0,001	-0,102
-713,962	-49,353	-0,122	0,043
-712,948	122,536	0,018	-0,017
-711,933	-22,238	0,127	0,057
-710,918	-200,000	-0,020	0,152
-709,904	194,121	-0,041	-0,045
-708,889	373,860	-0,102	-0,154
-707,875	-55,542	-0,122	0,040
-706,860	15,415	-0,121	0,070
-705,845	237,221	-0,023	-0,029
-704,831	-200,000	-0,001	-0,122
-703,816	-23,163	-0,035	-0,015
-702,802	37,451	0,014	0,009
-701,787	-88,114	-0,090	0,020
-700,772	-15,482	0,018	-0,009
-699,758	-183,211	0,025	-0,000
-698,743	-105,227	-0,039	0,007
-697,729	-161,194	-0,020	0,001
-696,714	295,225	-0,045	0,061
-695,699	-47,641	0,139	0,049
-694,685	9,988	0,053	0,029
-693,670	-200,000	0,004	-0,048
-692,656	-82,765	0,094	-0,022
-691,641	170,347	-0,126	-0,133
-690,627	747,367	-0,024	0,049
-689,612	800,000	-0,005	-0,012
-688,597	344,397	-0,065	-0,094
-687,583	-124,520	-0,014	0,002
-686,568	-200,000	0,014	0,078
-685,554	128,482	-0,055	-0,052
-684,539	-200,000	-0,030	0,119
-683,524	800,000	0,020	0,041
-682,510	800,000	-0,014	-0,029
-681,495	439,932	-0,037	-0,060
-680,481	6,166	-0,112	-0,061
-679,466	260,075	-0,078	-0,099
-678,451	534,810	-0,023	0,040
-677,437	-200,000	0,004	0,065
-676,422	340,493	0,060	-0,087
-675,408	-200,000	0,029	-0,124
-674,393	-106,405	-0,162	0,026
-673,378	-106,063	-0,171	0,028
-672,364	-111,499	0,156	0,023
-671,349	-5,756	-0,029	-0,015
-670,335	-200,000	-0,002	0,012
-669,320	-90,038	-0,130	-0,028
-668,305	-120,751	0,103	0,013
-667,291	-86,541	-0,193	0,043
-666,276	253,101	-0,080	-0,101
-665,262	-106,853	-0,163	-0,026
-664,247	-200,000	-0,030	0,000
-663,232	183,404	0,041	-0,044
-662,218	199,142	0,104	-0,117
-661,203	244,270	-0,094	-0,116
-660,189	255,890	0,028	-0,036
-659,174	333,415	-0,058	0,083
-658,159	-6,673	0,031	-0,015
-657,145	143,492	-0,085	-0,083
-656,130	-103,981	0,166	-0,028
-655,116	-28,396	0,125	-0,053
-654,101	-150,137	-0,039	-0,002
-653,086	19,681	0,096	-0,056
-652,072	418,676	0,061	-0,096
-651,057	-2,106	-0,067	-0,034
-650,043	-200,000	-0,033	-0,110
-649,028	-42,006	-0,022	0,008
-648,014	-108,077	-0,035	-0,006
-646,999	-200,000	0,017	-0,109
-645,984	-5,037	0,053	0,027
-644,970	800,000	0,032	0,093
-643,955	44,229	-0,120	-0,081
-642,941	36,440	-0,081	0,053
-641,926	183,120	0,035	0,038
-640,911	-200,000	0,006	0,038
-639,897	611,568	-0,002	-0,004
-638,882	800,000	0,017	0,045
-637,868	43,442	-0,158	-0,106
-636,853	417,275	-0,039	-0,062
-635,838	182,634	0,124	-0,134
-634,824	490,701	0,102	-0,172
-633,809	-200,000	0,016	0,139
-632,795	27,832	0,081	-0,050
-631,780	-200,000	0,024	0,178
-630,765	47,301	-0,089	0,061
-629,751	-35,498	-0,092	-0,037
-628,736	-200,000	0,005	-0,104
-627,722	-200,000	-0,001	-0,157
-626,707	99,236	-0,132	0,112
-625,692	756,436	0,034	0,067
-624,678	-200,000	-0,009	0,047
-623,663	168,990	-0,091	0,095
-622,649	14,005	0,102	-0,058
-621,634	112,197	-0,107	-0,095
-620,619	61,908	-0,083	-0,060
-619,605	186,356	0,023	0,025
-618,590	63,759	0,042	0,031
-617,576	-200,000	0,020	0,079
-616,561	800,000	0,011	0,032
-615,546	401,051	-0,043	-0,066
-614,532	147,954	-0,029	0,028
-613,517	439,398	0,074	-0,119
-612,503	-152,309	0,060	0,003
-611,488	-200,000	0,014	-0,110
-610,474	-1,460	0,082	0,042
-609,459	-200,000	0,022	-0,093
-608,444	-149,676	-0,114	0,006
-607,430	110,388	0,068	-0,060
-606,415	51,904	-0,043	-0,030
-605,401	315,749	-0,104	-0,144
-604,386	12,023	0,130	-0,073
-603,371	-200,000	0,031	0,147
-602,357	800,000	-0,031	-0,066
-601,342	-200,000	-0,013	-0,120
-600,328	-165,334	-0,143	-0,005
-599,313	-91,133	-0,094	-0,020
-598,298	-186,074	0,145	0,002
-597,284	27,424	-0,013	-0,008
-596,269	800,000	0,018	-0,056
-595,255	-200,000	0,023	0,140
-594,240	-140,940	-0,057	0,004
-593,225	800,000	0,030	0,076
-592,211	-180,267	0,035	-0,001
-591,196	308,915	0,060	-0,082
-590,182	-6,090	-0,119	-0,060
-589,167	-164,986	0,103	0,003
-588,152	85,971	0,055	-0,044
-587,138	-63,139	0,048	0,014
-586,123	613,503	-0,059	-0,109
-585,109	-200,000	0,001	-0,015
-584,094	145,638	-0,056	-0,055
-583,079	-44,059	0,191	-0,070
-582,065	194,812	0,027	0,030
-581,050	800,000	0,039	0,114
-580,036	191,029	0,037	0,041
-579,021	-200,000	0,005	-0,082
-578,006	800,000	0,008	-0,020
-576,992	-101,146	-0,085	-0,015
-575,977	-200,000	-0,013	0,133
-574,963	554,503	-0,081	-0,144
-573,948	-200,000	0,003	0,051
-572,934	168,445	0,028	-0,030
-571,919	247,032	-0,054	0,067
-570,904	-49,319	0,085	0,030
-569,890	-79,330	-0,103	-0,025
-568,875	13,989	0,140	0,079
-567,861	-36,977	0,066	0,026
-566,846	-200,000	-0,025	0,175
-565,831	241,270	0,106	0,130
-564,817	-200,000	-0,039	-0,143
-563,802	-200,000	0,001	-0,066
-562,788	247,842	-0,144	-0,179
-561,773	-200,000	0,023	-0,102
-560,758	116,659	-0,032	-0,029
-559,744	260,552	0,070	0,089
-558,729	-200,000	-0,018	0,102
-557,715	-25,426	-0,050	-0,022
-556,700	-200,000	-0,008	0,035
-555,685	800,000	-0,015	-0,032
-554,671	283,510	-0,055	-0,073
-553,656	-10,141	0,026	0,013
-552,642	6,380	-0,101	0,055
-551,627	-12,064	0,093	-0,044
-550,612	426,524	-0,009	-0,015
-549,598	132,624	-0,080	-0,076
-548,583	108,004	0,107	-0,094
-547,569	800,000	-0,033	0,096
-546,554	225,208	0,036	0,042
-545,539	215,949	0,102	0,119
-544,525	-200,000	0,010	-0,036
-543,510	-200,000	-0,006	-0,121
-542,496	-200,000	0,025	-0,104
-541,481	60,581	-0,113	0,082
-540,466	570,701	-0,010	-0,019
-539,452	800,000	0,022	-0,054
-538,437	800,000	-0,043	-0,122
-537,423	800,000	0,026	-0,070
-536,408	-200,000	0,014	-0,065
-535,393	220,264	-0,052	0,061
-534,379	-4,729	-0,090	-0,046
-533,364	-57,432	-0,108	0,034
-532,350	106,313	-0,130	0,113
-531,335	800,000	0,032	0,100
-530,321	800,000	-0,069	0,196
-529,306	-200,000	0,006	0,062
-528,291	233,439	-0,051	0,061
-527,277	-40,775	-0,063	-0,024
-526,262	198,526	0,013	0,015
-525,248	765,219	0,008	-0,017
-524,233	800,000	0,071	0,146
-523,218	-200,000	-0,004	0,075
-522,204	24,786	0,056	0,034
-521,189	-80,316	0,055	-0,013
-520,175	-200,000	-0,013	0,046
-519,160	800,000	-0,023	-0,067
-518,145	-200,000	-0,005	0,057
-517,131	-200,000	-0,010	-0,052
-516,116	800,000	0,057	0,132
-515,102	53,638	-0,054	-0,038
-514,087	-33,589	-0,039	0,016
-513,072	800,000	-0,041	-0,131
-512,058	733,279	0,090	-0,177
-511,043	-89,218	-0,054	-0,012
-510,029	-130,848	0,079	0,008
-509,014	-200,000	0,015	0,107
-507,999	-29,603	-0,089	0,037
-506,985	800,000	0,017	-0,035
-505,970	73,348	0,038	-0,029
-504,956	-0,848	0,104	-0,054
-503,941	800,000	-0,037	0,108
-502,926	-200,000	-0,017	0,164
-501,912	457,546	-0,052	-0,085
-500,897	143,641	0,109	-0,106
-499,883	51,727	-0,108	-0,075
-498,868	247,787	0,028	0,035
-497,853	-111,885	-0,062	0,009
-496,839	257,547	-0,035	-0,045
-495,824	178,026	0,126	-0,135
-494,810	-200,000	0,005	0,023
-493,795	316,341	0,026	0,037
-492,781	-200,000	0,018	0,062
-491,766	14,179	0,066	-0,037
-490,751	381,540	0,042	-0,063
-489,737	-68,500	0,119	-0,033
-488,722	-157,433	0,137	-0,006
-487,708	9,213	-0,141	-0,078
-486,693	107,972	0,056	-0,048
-485,678	-61,660	-0,076	-0,023
-484,664	101,383	0,076	-0,064
-483,649	-136,418	0,051	-0,004
-482,635	-137,647	-0,085	-0,007
-481,620	-4,129	0,090	0,046
-480,605	-200,000	0,000	0,010
-479,591	-76,827	0,024	0,006
-478,576	800,000	0,013	-0,034
-477,562	800,000	0,017	-0,053
-476,547	737,749	0,055	-0,109
-475,532	624,241	-0,076	-0,141
-474,518	800,000	0,006	0,017
-473,503	352,310	-0,053	0,077
-472,489	-6,049	0,183	0,091
-471,474	338,819	-0,059	0,084
-470,459	800,000	-0,077	-0,166
-469,445	-35,027	0,015	-0,006
-468,430	232,028	0,028	-0,034
-467,416	-200,000	0,013	0,082
-466,401	-91,285	-0,018	-0,004
-465,386	226,142	0,077	0,091
-464,372	170,492	-0,113	-0,118
-463,357	-143,058	0,138	0,010
-462,343	-86,153	-0,193	0,043
-461,328	-200,000	-0,024	-0,145
-460,313	800,000	0,034	-0,085
-459,299	-23,838	0,092	0,040
-458,284	-31,420	-0,039	0,016
-457,270	95,057	-0,124	0,103
-456,255	-3,612	-0,035	0,018
-455,241	82,212	-0,050	-0,040
-454,226	15,823	0,066	0,038
-453,211	275,393	-0,076	-0,099
-452,197	-37,366	0,135	0,052
-451,182	-200,000	-0,012	0,100
-450,168	9,488	-0,119	-0,066
-449,153	-34,208	0,124	0,050
-448,138	800,000	-0,017	0,051
-447,124	131,515	0,079	0,074
-446,109	305,459	-0,075	0,102
-445,095	679,671	0,022	0,042
-444,080	184,406	0,036	0,039
-443,065	454,589	-0,039	0,064
-442,051	256,932	-0,055	-0,069
-441,036	27,502	-0,061	-0,037
-440,022	429,876	0,088	-0,139
-439,007	-200,000	0,013	0,044
-437,992	-27,987	-0,038	-0,016
-436,978	291,169	0,076	0,101
-435,963	510,360	-0,057	0,096
-434,949	-111,072	0,084	0,012
-433,934	119,641	-0,074	-0,067
-432,919	269,242	0,035	-0,045
-431,905	800,000	-0,023	-0,051
-430,890	-200,000	0,005	-0,072
-429,876	15,340	0,094	0,054
-428,861	-7,729	-0,061	-0,030
-427,846	50,456	0,102	-0,071
-426,832	736,266	-0,015	-0,030
-425,817	-92,750	-0,152	-0,031
-424,803	800,000	0,016	0,035
-423,788	420,596	0,080	0,125
-422,773	800,000	-0,009	0,021
-421,759	410,983	0,069	0,107
-420,744	-200,000	0,011	0,093
-419,730	375,613	-0,086	-0,128
-418,715	800,000	0,004	-0,008
-417,701	159,863	-0,165	-0,167
-416,686	-200,000	0,005	-0,054
-415,671	-155,149	0,117	-0,005
-414,657	635,923	-0,063	0,116
-413,642	-125,657	-0,021	0,002
-412,628	-200,000	-0,029	0,107
-411,613	103,560	0,025	0,021
-410,598	-191,782	-0,101	-0,001
-409,584	800,000	0,013	0,037
-408,569	205,232	0,119	0,135
-407,555	-200,000	0,001	0,221
-406,540	702,118	0,082	0,158
-405,525	102,899	-0,112	-0,095
-404,511	800,000	0,066	-0,159
-403,496	-200,000	-0,096	0,000
-402,482	800,000	0,076	0,157
-401,467	-81,623	-0,049	0,012
-400,452	577,126	-0,050	0,089
-399,438	247,850	-0,075	0,093
-398,423	54,276	-0,130	-0,091
-397,409	303,062	0,046	-0,062
-396,394	800,000	-0,032	-0,090
-395,379	800,000	-0,031	0,092
-394,365	185,030	-0,068	0,073
-393,350	-200,000	0,002	0,079
-392,336	-157,241	-0,096	0,004
-391,321	-68,574	0,142	0,040
-390,306	800,000	-0,028	-0,082
-389,292	-79,573	-0,097	0,024
-388,277	800,000	0,071	0,149
-387,263	-200,000	0,036	0,192
-386,248	17,684	0,041	-0,023
-385,233	-200,000	-0,011	0,141
-384,219	160,064	0,056	0,057
-383,204	41,293	0,079	-0,052
-382,190	32,624	0,117	0,073
-381,175	-200,000	0,029	0,115
-380,160	675,594	-0,042	0,079
-379,146	-200,000	0,035	0,121
-378,131	-200,000	0,019	0,141
-377,117	-91,119	-0,171	0,035
-376,102	68,212	-0,144	-0,107
-375,088	-200,000	0,018	-0,151
-374,073	705,670	0,082	0,158
-373,058	309,771	-0,048	0,066
-372,044	800,000	0,077	0,191
-371,029	343,965	0,104	0,148
-370,015	-200,000	0,021	0,119
-369,000	394,602	0,041	0,062
-367,985	182,616	0,058	-0,062
-366,971	70,424	0,050	-0,037
-365,956	526,859	-0,014	0,023
-364,942	-200,000	-0,002	-0,082
-363,927	-200,000	0,012	-0,083
-362,912	800,000	0,012	-0,034
-361,898	59,010	-0,071	0,050
-360,883	174,073	-0,173	-0,182
-359,869	-200,000	0,035	0,126
-358,854	414,422	0,024	0,037
-357,839	229,867	-0,019	0,023
-356,825	28,359	0,074	0,046
-355,810	159,188	0,036	-0,036
-354,796	-171,625	-0,028	0,001
-353,781	94,346	0,027	0,022
-352,766	800,000	-0,010	-0,023
-351,752	17,927	0,125	0,072
-350,737	-121,838	-0,051	0,006
-349,723	10,117	0,140	0,077
-348,708	188,748	0,032	0,035
-347,693	-91,111	0,035	0,007
-346,679	115,013	-0,058	0,051
-345,664	-200,000	0,048	0,180
-344,650	-86,535	-0,180	-0,040
-343,635	800,000	-0,004	-0,009
-342,620	800,000	-0,053	-0,116
-341,606	800,000	-0,006	0,012
-340,591	455,462	0,040	-0,064
-339,577	-10,254	-0,100	-0,048
-338,562	-43,419	-0,044	-0,016
-337,548	800,000	-0,013	-0,039
-336,533	261,798	0,039	0,049
-335,518	-65,774	0,069	0,020
-334,504	-150,150	0,134	-0,007
-333,489	800,000	-0,015	-0,039
-332,475	-49,541	-0,087	0,030
-331,460	-102,580	-0,096	-0,017
-330,445	618,568	0,051	-0,093
-329,431	-21,614	-0,052	0,023
-328,416	800,000	0,035	0,081
-327,402	723,240	0,039	0,076
-326,387	-62,941	0,100	0,030
-325,372	-71,429	0,103	0,028
-324,358	-150,136	-0,177	-0,010
-323,343	417,266	-0,050	-0,078
-322,329	26,667	0,073	-0,044
-321,314	-41,680	0,056	0,021
-320,299	35,389	0,083	0,053
-319,285	-200,000	-0,000	0,115
-318,270	113,165	-0,140	-0,123
-317,256	-200,000	-0,014	-0,142
-316,241	-200,000	-0,009	-0,074
-315,226	-96,238	0,063	0,012
-314,212	206,222	0,091	0,103
-313,197	244,202	0,105	0,129
-312,183	2,121	0,073	0,038
-311,168	149,361	-0,154	-0,151
-310,153	39,982	-0,075	-0,049
-309,139	-184,870	0,082	-0,001
-308,124	165,626	-0,030	0,031
-307,110	-200,000	-0,012	0,045
-306,095	800,000	0,081	0,199
-305,080	-40,275	0,078	-0,029
-304,066	-200,000	0,005	-0,043
-303,051	794,983	0,048	-0,096
-302,037	-81,817	-0,174	-0,041
-301,022	-170,127	0,139	-0,004
-300,008	-200,000	-0,000	-0,035
-298,993	800,000	0,039	0,095
-297,978	-200,000	-0,016	0,112
-296,964	-148,835	-0,147	-0,008
-295,949	-37,761	-0,097	-0,037
-294,935	-30,988	0,004	-0,002
-293,920	800,000	-0,033	-0,081
-292,905	-79,899	0,155	0,038
-291,891	16,612	0,025	0,014
-290,876	-200,000	-0,025	-0,105
-289,862	-200,000	-0,017	-0,056
-288,847	593,715	0,030	0,054
-287,832	-200,000	0,021	-0,081
-286,818	-145,467	-0,031	-0,002
-285,803	44,577	0,096	0,064
-284,789	-105,315	0,061	0,010
-283,774	-109,760	0,036	-0,005
-282,759	10,240	-0,049	-0,027
-281,745	154,472	-0,070	-0,070
-280,730	169,944	-0,072	0,075
-279,716	-200,000	0,023	-0,116
-278,701	-147,249	0,191	0,012
-277,686	800,000	-0,037	0,108
-276,672	77,180	0,062	-0,048
-275,657	-200,000	0,016	-0,122
-274,643	-71,367	-0,110	0,030
-273,628	333,779	-0,008	0,011
-272,613	62,883	0,071	0,052
-271,599	-107,581	0,138	0,022
-270,584	-88,715	0,165	-0,035
-269,570	-200,000	0,004	0,139
-268,555	-101,566	-0,109	-0,019
-267,540	-200,000	0,027	0,094
-266,526	56,025	-0,012	-0,008
-265,511	-49,259	-0,050	0,017
-264,497	102,214	0,099	0,084
-263,482	19,664	0,047	0,027
-262,467	800,000	-0,075	-0,157
-261,453	-90,769	0,052	-0,011
-260,438	-200,000	-0,023	-0,104
-259,424	177,816	0,065	-0,069
-258,409	-35,912	-0,097	-0,038
-257,395	-123,344	0,130	0,015
-256,380	-82,465	-0,110	-0,026
-255,365	-9,313	0,151	0,073
-254,351	-200,000	-0,000	0,024
-253,336	21,026	-0,060	0,035
-252,322	790,486	-0,070	0,141
-251,307	-173,041	0,123	-0,003
-250,292	-200,000	-0,023	-0,110
-249,278	-15,471	-0,038	-0,017
-248,263	184,494	-0,107	-0,115
-247,249	57,763	-0,030	0,021
-246,234	800,000	0,060	-0,152
-245,219	53,284	-0,038	-0,027
-244,205	117,515	0,033	0,029
-243,190	130,449	0,081	0,076
-242,176	2,133	-0,057	-0,030
-241,161	23,858	-0,053	0,032
-240,146	145,182	-0,021	0,020
-239,132	-78,474	-0,041	0,010
-238,117	-52,286	-0,127	-0,042
-237,103	-44,796	-0,117	-0,042
-236,088	-155,752	0,127	-0,006
-235,073	23,882	0,040	-0,024
-234,059	-11,006	0,070	-0,034
-233,044	-72,852	-0,125	0,033
-232,030	58,709	-0,125	-0,089
-231,015	50,118	-0,065	-0,045
-230,000	-35,801	-0,082	0,032
-228,986	-200,000	-0,037	0,000
-227,971	459,670	0,047	0,077
-226,957	120,615	-0,035	0,031
-225,942	74,893	0,094	-0,071
-224,927	-88,799	-0,058	0,012
-223,913	217,363	-0,036	-0,041
-222,898	-200,000	0,007	-0,204
-221,884	54,101	-0,068	-0,047
-220,869	-200,000	0,014	0,059
-219,855	48,214	0,173	0,117
-218,840	-114,482	0,051	-0,007
-217,825	99,920	-0,046	0,038
-216,811	-200,000	-0,013	0,079
-215,796	44,848	-0,158	-0,105
-214,782	-85,429	-0,030	-0,007
-213,767	-158,859	-0,057	-0,002
-212,752	800,000	0,026	0,055
-211,738	-200,000	0,002	0,016
-210,723	-27,971	0,083	-0,035
-209,709	46,269	-0,095	0,063
-208,694	800,000	0,058	-0,134
-207,679	-143,163	0,185	-0,013
-206,665	-89,263	0,143	0,030
-205,650	609,527	0,034	0,061
-204,636	-200,000	-0,006	0,122
-203,621	-62,684	-0,139	-0,042
-202,606	240,903	0,082	0,099
-201,592	-200,000	0,026	-0,207
-200,577	-109,668	-0,136	0,021
-199,563	28,200	0,113	-0,069
-198,548	89,422	0,064	-0,052
-197,533	800,000	-0,010	-0,030
-196,519	-6,688	0,002	0,001
-195,504	120,422	-0,111	0,100
-194,490	123,369	0,122	0,110
-193,475	-200,000	-0,031	-0,154
-192,460	374,356	-0,045	-0,067
-191,446	-1,187	0,064	-0,032
-190,431	-90,009	0,165	0,034
-189,417	235,377	-0,047	0,056
-188,402	-200,000	-0,009	-0,045
-187,387	16,150	-0,175	-0,099
-186,373	800,000	0,041	0,091
-185,358	800,000	0,042	0,123
-184,344	166,043	-0,095	-0,097
-183,329	-81,392	0,075	0,018
-182,315	60,320	0,042	0,030
-181,300	800,000	-0,019	-0,051
-180,285	-45,330	-0,182	0,065
-179,271	-67,582	0,130	-0,036
-178,256	-200,000	0,017	-0,166
-177,242	-40,940	-0,061	-0,023
-176,227	-63,638	-0,053	-0,016
-175,212	167,501	0,044	0,045
-174,198	73,616	-0,177	0,134
-173,183	78,784	-0,055	-0,042
-172,169	800,000	0,044	-0,127
-171,154	380,237	0,072	-0,107
-170,139	-139,805	-0,049	-0,004
-169,125	52,934	-0,113	0,078
-168,110	-128,450	0,142	0,014
-167,096	759,502	-0,072	-0,141
-166,081	196,395	0,029	-0,032
-165,066	18,049	-0,155	-0,089
-164,052	327,778	-0,016	-0,023
-163,037	-200,000	0,015	0,070
-162,023	235,266	0,052	-0,062
-161,008	115,691	-0,073	0,065
-159,993	-200,000	0,021	0,084
-158,979	-200,000	0,001	-0,011
-157,964	661,728	-0,048	-0,090
-156,950	334,080	-0,077	-0,108
-155,935	-18,075	0,117	-0,053
-154,920	-200,000	-0,000	-0,046
-153,906	-200,000	0,015	0,054
-152,891	-200,000	0,001	-0,069
-151,877	-200,000	0,020	0,070
-150,862	154,395	-0,069	-0,068
-149,847	-112,148	-0,216	0,031
-148,833	800,000	-0,007	-0,022
-147,818	50,996	0,105	0,071
-146,804	-112,136	0,086	-0,012
-145,789	-24,429	-0,166	0,071
-144,775	-37,840	-0,057	0,022
-143,760	800,000	-0,019	0,039
-142,745	-86,824	0,085	0,019
-141,731	-49,496	0,099	0,034
-140,716	-200,000	0,006	0,026
-139,702	800,000	0,028	-0,073
-138,687	-103,770	-0,030	-0,005
-137,672	-200,000	-0,036	0,124
-136,658	632,831	-0,043	0,079
-135,643	-200,000	-0,000	-0,040
-134,629	-200,000	0,011	-0,095
-133,614	110,816	-0,004	0,004
-132,599	-12,104	-0,126	0,059
-131,585	-200,000	-0,002	-0,032
-130,570	-200,000	0,031	-0,114
-129,556	519,023	-0,074	0,126
-128,541	62,005	0,026	0,019
-127,526	501,956	-0,043	0,071
-126,512	-200,000	0,019	0,106
-125,497	81,408	0,122	0,095
-124,483	0,170	-0,056	0,029
-123,468	800,000	0,011	-0,032
-122,453	66,917	0,047	-0,034
-121,439	-200,000	-0,001	-0,084
-120,424	603,410	0,056	0,101
-119,410	66,454	-0,085	0,062
-118,395	189,436	0,103	0,111
