DTS Sentinel unit serial number:	SN410029Multiplexer serial number:	ORYXHardware model number:	OX2-SRSoftware version number:	ORYX F/W v4,00 Oryx Data Collector v3.7.2.0data status	okinstallation	B5 Nyhavnadifferential loss correction	single-endedforward channel	channel 2reverse channel	N/Adate	2023/12/11time	23:07:13forward acquisition time	300,00reverse acquisition time	0,00gamma	499,1914k internal	0,3156k external	0,3156temperature offset calibration	1,0000default loss term (dB/km)	0,3820temperature slope calibration	1,0000multiplexer offset coefficient	1,0000multiplexer slope coefficient	1,0000fibre end	0,00T internal ref (°C)	16,29T ext. ref 1 (°C)	-0,04T ext. ref 2 (°C)	-0,33length (m)	temperature (°C)	Stokes	anti-Stokes-744,400	172,753	0,062	0,066
-743,385	-98,977	-0,279	0,052
-742,371	156,304	0,123	0,125
-741,356	71,496	-0,227	0,174
-740,342	754,068	-0,054	0,108
-739,327	13,309	-0,246	0,140
-738,312	147,877	-0,055	0,054
-737,298	-17,273	-0,304	0,141
-736,283	195,557	0,078	-0,088
-735,269	17,695	-0,165	0,096
-734,254	-95,042	0,063	0,012
-733,239	-29,313	-0,569	-0,239
-732,225	48,672	0,048	0,033
-731,210	-155,636	-0,177	0,008
-730,196	124,777	-0,068	-0,063
-729,181	-52,998	-0,135	-0,045
-728,167	-55,308	-0,059	0,019
-727,152	-200,000	-0,027	0,098
-726,137	176,368	-0,122	-0,131
-725,123	-200,000	-0,038	-0,136
-724,108	-200,000	-0,025	-0,098
-723,094	800,000	-0,055	-0,152
-722,079	-200,000	-0,014	-0,140
-721,064	187,262	-0,076	-0,084
-720,050	-200,000	0,002	0,013
-719,035	-200,000	-0,021	0,111
-718,021	-67,889	0,167	0,048
-717,006	762,005	0,026	-0,052
-715,991	-29,675	-0,153	-0,064
-714,977	-200,000	-0,009	-0,036
-713,962	-170,701	-0,215	-0,005
-712,948	187,028	-0,057	-0,063
-711,933	35,627	0,145	0,094
-710,918	-200,000	-0,010	-0,102
-709,904	276,379	0,181	-0,238
-708,889	153,657	-0,021	0,022
-707,875	-200,000	-0,002	0,059
-706,860	-200,000	-0,022	0,076
-705,845	-200,000	0,050	0,168
-704,831	58,119	0,038	-0,027
-703,816	-21,093	0,048	0,022
-702,802	800,000	-0,029	0,061
-701,787	-59,505	-0,166	0,052
-700,772	61,359	-0,070	-0,051
-699,758	-200,000	0,005	-0,139
-698,743	-23,203	-0,089	0,039
-697,729	-200,000	0,006	0,125
-696,714	0,175	-0,115	0,060
-695,699	133,371	-0,101	0,096
-694,685	-0,575	-0,056	-0,029
-693,670	-200,000	-0,021	-0,114
-692,656	696,725	0,020	-0,040
-691,641	14,839	-0,027	0,015
-690,627	800,000	0,047	0,103
-689,612	166,222	-0,043	0,045
-688,597	47,580	-0,096	-0,066
-687,583	87,684	0,063	-0,052
-686,568	-96,055	-0,039	-0,008
-685,554	-169,027	0,142	0,004
-684,539	-1,651	0,094	0,049
-683,524	490,392	-0,023	-0,038
-682,510	-166,166	0,046	0,001
-681,495	66,357	-0,060	-0,045
-680,481	-1,316	0,019	0,010
-679,466	-200,000	0,004	-0,153
-678,451	212,600	0,031	0,037
-677,437	76,507	0,078	0,061
-676,422	-200,000	-0,021	0,108
-675,408	-19,615	0,016	-0,007
-674,393	-2,782	-0,116	0,059
-673,378	57,964	-0,114	-0,082
-672,364	-200,000	0,003	-0,171
-671,349	371,376	-0,092	0,138
-670,335	157,089	-0,138	0,141
-669,320	84,719	0,102	-0,082
-668,305	-200,000	0,009	0,179
-667,291	88,145	-0,089	0,072
-666,276	147,900	-0,113	0,112
-665,262	-91,206	-0,147	0,031
-664,247	-200,000	-0,025	0,092
-663,232	389,769	-0,025	-0,039
-662,218	154,587	0,020	-0,021
-661,203	46,864	0,077	0,053
-660,189	-200,000	-0,022	0,077
-659,174	294,180	-0,058	0,078
-658,159	256,988	-0,092	-0,116
-657,145	249,971	-0,065	-0,081
-656,130	-75,537	-0,091	0,024
-655,116	252,216	0,061	0,076
-654,101	-7,135	0,010	0,005
-653,086	85,229	0,121	0,097
-652,072	25,875	0,076	-0,046
-651,057	-200,000	-0,038	-0,194
-650,043	117,242	-0,046	-0,042
-649,028	-29,553	0,069	-0,029
-648,014	-200,000	-0,019	0,067
-646,999	-17,584	-0,064	0,029
-645,984	34,755	-0,054	0,035
-644,970	-200,000	-0,008	0,058
-643,955	-200,000	0,000	-0,031
-642,941	-200,000	0,034	0,124
-641,926	233,381	-0,071	-0,087
-640,911	330,347	-0,051	-0,073
-639,897	800,000	-0,019	0,060
-638,882	-2,043	0,023	-0,012
-637,868	-200,000	0,021	0,084
-636,853	49,041	-0,125	0,086
-635,838	800,000	0,029	-0,091
-634,824	-22,194	0,065	-0,029
-633,809	296,432	0,007	0,009
-632,795	627,185	0,060	-0,112
-631,780	-27,860	-0,027	-0,012
-630,765	800,000	0,033	-0,104
-629,751	-33,489	0,033	0,013
-628,736	-57,845	-0,045	0,014
-627,722	207,455	-0,048	0,055
-626,707	86,072	-0,047	0,038
-625,692	-89,137	-0,069	-0,015
-624,678	-200,000	0,000	0,030
-623,663	179,520	0,089	-0,096
-622,649	-22,454	-0,089	-0,039
-621,634	-69,295	-0,020	0,006
-620,619	800,000	0,016	0,047
-619,605	110,566	-0,052	0,045
-618,590	305,016	0,087	-0,119
-617,576	16,755	-0,063	0,037
-616,561	800,000	-0,021	-0,060
-615,546	-115,792	-0,132	-0,018
-614,532	12,729	0,069	0,039
-613,517	-200,000	-0,002	-0,068
-612,503	-33,126	0,139	-0,056
-611,488	-108,173	-0,061	-0,010
-610,474	-71,225	0,005	0,001
-609,459	-71,801	-0,058	0,016
-608,444	-99,315	-0,130	0,024
-607,430	-41,450	-0,031	0,012
-606,415	-72,601	-0,199	-0,053
-605,401	125,180	0,116	-0,107
-604,386	-128,126	0,048	0,005
-603,371	3,498	0,098	-0,052
-602,357	68,702	-0,078	-0,058
-601,342	290,244	-0,049	-0,065
-600,328	800,000	0,028	0,088
-599,313	-200,000	0,023	-0,084
-598,298	-200,000	-0,010	-0,103
-597,284	495,666	-0,039	0,067
-596,269	238,768	0,098	0,119
-595,255	800,000	-0,029	0,065
-594,240	96,253	-0,042	0,036
-593,225	-86,769	-0,098	-0,022
-592,211	-200,000	0,006	0,124
-591,196	184,823	0,038	-0,041
-590,182	233,079	-0,060	0,072
-589,167	529,436	0,024	0,041
-588,152	-3,993	-0,060	-0,030
-587,138	-120,719	0,109	0,013
-586,123	-50,441	-0,117	-0,040
-585,109	-13,877	-0,092	-0,043
-584,094	34,893	-0,068	0,043
-583,079	800,000	-0,045	0,092
-582,065	94,498	-0,051	0,043
-581,050	237,649	0,042	-0,051
-580,036	800,000	-0,038	-0,101
-579,021	737,573	-0,022	0,044
-578,006	240,679	0,088	-0,107
-576,992	327,030	-0,097	-0,137
-575,977	-164,652	-0,088	0,003
-574,963	800,000	0,011	0,031
-573,948	-42,824	-0,060	-0,022
-572,934	-110,155	-0,100	0,015
-571,919	-200,000	0,020	0,076
-570,904	400,747	0,046	-0,071
-569,890	-200,000	-0,003	0,102
-568,875	6,453	-0,061	-0,033
-567,861	-200,000	0,029	0,103
-566,846	800,000	0,057	0,147
-565,831	32,855	-0,060	0,038
-564,817	68,393	0,078	0,059
-563,802	-200,000	0,001	0,031
-562,788	-13,913	-0,076	0,036
-561,773	18,935	0,032	-0,019
-560,758	179,366	0,055	0,059
-559,744	-200,000	0,003	-0,068
-558,729	304,154	-0,117	-0,159
-557,715	-200,000	-0,002	-0,224
-556,700	-68,293	-0,106	0,030
-555,685	-111,491	-0,117	-0,017
-554,671	-64,887	0,133	0,039
-553,656	800,000	0,023	-0,058
-552,642	0,784	0,085	0,044
-551,627	139,576	-0,022	-0,021
-550,612	-200,000	-0,014	-0,096
-549,598	-200,000	-0,010	-0,052
-548,583	290,477	-0,071	0,095
-547,569	800,000	-0,050	-0,102
-546,554	180,431	0,089	0,096
-545,539	800,000	0,043	0,136
-544,525	214,959	-0,054	-0,062
-543,510	225,665	-0,088	-0,105
-542,496	-200,000	-0,007	-0,135
-541,481	93,066	-0,036	0,030
-540,466	-200,000	-0,054	0,000
-539,452	-63,667	0,053	0,016
-538,437	800,000	-0,031	0,076
-537,423	-200,000	0,016	-0,060
-536,408	-200,000	-0,015	-0,077
-535,393	-200,000	-0,019	-0,070
-534,379	-101,396	-0,079	0,014
-533,364	-200,000	0,036	0,136
-532,350	-50,374	0,156	0,053
-531,335	-133,162	0,071	-0,006
-530,321	800,000	0,027	0,057
-529,306	485,357	0,043	-0,072
-528,291	159,288	0,077	-0,078
-527,277	-144,617	-0,085	0,006
-526,262	-200,000	-0,012	-0,076
-525,248	-99,300	-0,058	0,011
-524,233	-24,775	0,035	-0,015
-523,218	800,000	-0,062	0,166
-522,204	207,186	0,043	-0,049
-521,189	-108,225	0,087	-0,014
-520,175	338,562	0,046	-0,066
-519,160	-119,253	0,118	0,015
-518,145	608,496	-0,035	0,064
-517,131	243,958	0,043	0,053
-516,116	100,694	-0,024	0,020
-515,102	87,485	0,056	-0,045
-514,087	354,694	-0,028	0,041
-513,072	-186,331	-0,161	0,002
-512,058	621,361	0,052	-0,097
-511,043	20,650	0,069	-0,041
-510,029	800,000	0,012	-0,026
-509,014	800,000	-0,024	0,060
-507,999	-200,000	0,006	-0,029
-506,985	176,257	-0,053	-0,056
-505,970	67,063	-0,113	-0,084
-504,956	-39,947	-0,066	-0,025
-503,941	-3,387	0,120	-0,061
-502,926	427,186	-0,040	0,063
-501,912	652,410	-0,030	0,057
-500,897	-12,273	-0,053	-0,025
-499,883	800,000	-0,052	0,106
-498,868	-200,000	-0,013	-0,165
-497,853	-17,073	-0,117	-0,054
-496,839	-200,000	-0,027	0,135
-495,824	-87,574	0,109	0,024
-494,810	240,522	0,075	-0,091
-493,795	105,351	-0,126	0,109
-492,781	110,947	0,050	-0,044
-491,766	800,000	0,045	-0,109
-490,751	-71,502	-0,147	-0,040
-489,737	-200,000	-0,022	-0,075
-488,722	779,895	0,044	0,088
-487,708	-71,086	0,122	0,033
-486,693	-123,631	-0,084	0,010
-485,678	118,257	0,060	-0,054
-484,664	-200,000	-0,019	-0,124
-483,649	52,511	-0,112	-0,078
-482,635	800,000	-0,064	0,189
-481,620	5,324	0,105	-0,056
-480,605	65,773	0,095	0,070
-479,591	-200,000	-0,053	0,244
-478,576	-200,000	0,025	0,153
-477,562	26,701	0,020	0,012
-476,547	49,119	-0,064	-0,044
-475,532	183,688	-0,065	0,071
-474,518	137,008	0,049	0,047
-473,503	606,363	0,074	0,135
-472,489	-200,000	-0,005	-0,018
-471,474	-38,040	-0,147	-0,057
-470,459	-23,906	-0,124	-0,054
-469,445	51,456	0,097	-0,067
-468,430	0,740	-0,064	-0,033
-467,416	360,852	-0,032	-0,046
-466,401	68,716	-0,134	0,100
-465,386	-68,691	0,112	0,032
-464,372	80,915	-0,215	0,169
-463,357	566,653	0,051	-0,092
-462,343	668,987	-0,065	-0,123
-461,328	613,007	-0,082	-0,150
-460,313	-200,000	0,023	0,094
-459,299	-126,151	0,103	-0,011
-458,284	-200,000	0,010	0,113
-457,270	-200,000	0,032	0,118
-456,255	800,000	0,039	0,084
-455,241	354,292	-0,011	-0,017
-454,226	-137,100	-0,049	0,004
-453,211	-142,622	0,082	0,006
-452,197	-38,402	0,120	0,046
-451,182	47,565	0,069	-0,047
-450,168	216,239	0,037	-0,042
-449,153	58,488	-0,178	0,127
-448,138	-18,946	-0,060	0,027
-447,124	-28,956	0,020	0,009
-446,109	421,766	-0,044	0,069
-445,095	-42,621	0,174	-0,064
-444,080	13,205	0,094	0,053
-443,065	108,372	-0,017	-0,015
-442,051	-200,000	0,003	0,079
-441,036	800,000	-0,037	0,077
-440,022	-200,000	-0,002	-0,052
-439,007	112,157	0,082	-0,072
-437,992	-28,793	0,062	0,026
-436,978	800,000	0,069	0,186
-435,963	-43,852	0,051	-0,019
-434,949	-130,958	-0,083	-0,008
-433,934	327,495	-0,080	-0,112
-432,919	99,417	0,054	-0,045
-431,905	-28,060	-0,095	-0,040
-430,890	-45,683	0,074	-0,027
-429,876	238,530	0,130	0,158
-428,861	603,173	0,038	0,068
-427,846	-200,000	-0,029	-0,127
-426,832	10,050	0,005	-0,003
-425,817	-200,000	0,015	0,115
-424,803	279,488	0,062	-0,080
-423,788	92,259	-0,026	0,021
-422,773	800,000	-0,048	0,150
-421,759	32,432	0,068	0,043
-420,744	-12,874	-0,072	0,034
-419,730	732,138	0,033	0,065
-418,715	-68,323	0,059	-0,017
-417,701	-200,000	-0,020	0,072
-416,686	265,219	0,062	0,079
-415,671	-200,000	-0,037	0,244
-414,657	-200,000	0,008	0,083
-413,642	5,149	-0,059	0,031
-412,628	34,771	0,130	0,083
-411,613	372,132	-0,053	-0,078
-410,598	-85,274	-0,068	0,015
-409,584	13,053	-0,088	-0,049
-408,569	205,608	-0,083	0,094
-407,555	-108,168	0,039	-0,006
-406,540	-200,000	0,015	-0,094
-405,525	457,296	0,107	-0,174
-404,511	268,069	-0,021	-0,027
-403,496	26,821	0,024	-0,015
-402,482	51,340	-0,022	0,015
-401,467	-98,848	0,076	-0,014
-400,452	197,419	0,066	0,073
-399,438	-200,000	0,000	-0,154
-398,423	-132,834	-0,172	-0,016
-397,409	668,184	0,042	-0,080
-396,394	135,047	0,017	0,016
-395,379	-35,384	0,120	-0,047
-394,365	-83,077	0,013	-0,003
-393,350	-83,936	0,023	-0,005
-392,336	-137,268	-0,204	0,017
-391,321	-200,000	-0,019	-0,157
-390,306	800,000	-0,079	-0,168
-389,292	-53,251	0,103	-0,034
-388,277	68,064	-0,156	0,116
-387,263	252,706	-0,078	-0,096
-386,248	800,000	-0,022	0,068
-385,233	48,056	0,040	0,027
-384,219	-138,839	-0,106	-0,008
-383,204	221,052	-0,036	-0,042
-382,190	-27,196	-0,097	0,041
-381,175	-112,103	0,102	0,015
-380,160	-200,000	0,029	-0,136
-379,146	-155,782	0,051	-0,002
-378,131	323,655	-0,084	0,117
-377,117	-25,832	-0,079	-0,034
-376,102	800,000	-0,008	-0,020
-375,088	165,853	0,026	0,027
-374,073	-154,397	0,119	-0,006
-373,058	-36,581	0,074	-0,029
-372,044	-200,000	0,021	0,140
-371,029	176,670	-0,053	0,056
-370,015	-94,434	-0,059	0,012
-369,000	47,020	0,045	-0,031
-367,985	3,054	-0,040	-0,021
-366,971	-200,000	-0,006	0,050
-365,956	-200,000	-0,002	0,024
-364,942	32,328	0,132	0,083
-363,927	-200,000	0,009	0,087
-362,912	-117,854	0,055	-0,007
-361,898	-76,363	-0,091	-0,023
-360,883	380,796	0,035	0,052
-359,869	800,000	0,027	0,056
-358,854	330,708	-0,121	-0,170
-357,839	85,943	0,037	0,030
-356,825	497,428	-0,042	0,070
-355,810	342,405	0,059	0,084
-354,796	151,794	-0,066	0,065
-353,781	125,603	-0,057	-0,052
-352,766	-200,000	0,018	-0,129
-351,752	-91,535	-0,067	0,014
-350,737	-200,000	0,006	-0,035
-349,723	138,247	-0,097	0,092
-348,708	-86,494	-0,095	0,021
-347,693	800,000	0,016	-0,035
-346,679	-146,364	0,073	0,005
-345,664	-200,000	0,008	-0,122
-344,650	-200,000	-0,002	-0,174
-343,635	-40,217	0,087	-0,033
-342,620	-46,975	0,038	-0,014
-341,606	-200,000	0,017	0,071
-340,591	97,062	0,039	0,033
-339,577	-200,000	-0,003	-0,098
-338,562	-200,000	0,007	-0,038
-337,548	-200,000	-0,029	-0,104
-336,533	553,010	0,113	0,198
-335,518	-169,059	0,025	0,001
-334,504	362,697	0,061	0,089
-333,489	-97,411	0,060	-0,011
-332,475	800,000	-0,050	0,119
-331,460	134,993	-0,029	0,027
-330,445	546,757	0,019	-0,033
-329,431	800,000	0,030	0,062
-328,416	-16,636	0,058	0,027
-327,402	25,278	0,135	0,081
-326,387	363,138	0,025	-0,036
-325,372	-200,000	0,031	-0,143
-324,358	-200,000	-0,060	-0,239
-323,343	769,929	-0,018	-0,036
-322,329	800,000	-0,002	-0,006
-321,314	346,578	0,047	0,067
-320,299	-129,348	0,114	-0,011
-319,285	-127,060	0,037	0,004
-318,270	124,444	0,060	-0,055
-317,256	259,325	0,044	0,056
-316,241	-200,000	0,022	-0,073
-315,226	-200,000	0,001	-0,049
-314,212	-200,000	0,045	0,168
-313,197	-139,901	0,093	-0,007
-312,183	510,804	-0,092	0,156
-311,168	244,346	-0,026	0,032
-310,153	189,665	-0,088	0,096
-309,139	800,000	-0,051	-0,128
-308,124	450,614	0,034	0,055
-307,110	-70,738	0,092	0,025
-306,095	-200,000	-0,002	-0,075
-305,080	800,000	-0,023	0,072
-304,066	142,305	0,103	-0,099
-303,051	-200,000	-0,005	-0,132
-302,037	800,000	0,042	0,101
-301,022	407,873	0,027	0,041
-300,008	-32,557	0,123	0,049
-298,993	-127,172	0,224	0,023
-297,978	-80,717	0,096	-0,023
-296,964	-66,729	-0,110	-0,031
-295,949	-156,563	-0,033	0,001
-294,935	-160,626	-0,055	0,002
-293,920	186,590	-0,015	0,017
-292,905	220,934	0,086	-0,100
-291,891	-200,000	-0,013	-0,084
-290,876	-138,609	0,102	0,008
-289,862	392,955	-0,025	-0,038
-288,847	800,000	-0,031	-0,078
-287,832	44,419	-0,044	-0,029
-286,818	-5,278	-0,139	-0,069
-285,803	-67,992	0,065	0,018
-284,789	-200,000	0,015	0,052
-283,774	-73,008	-0,037	0,010
-282,759	38,900	0,075	-0,049
-281,745	800,000	-0,010	-0,025
-280,730	-11,048	-0,092	-0,044
-279,716	591,621	0,077	0,139
-278,701	-87,194	0,213	-0,046
-277,686	180,335	0,105	0,112
-276,672	-200,000	0,000	0,093
-275,657	213,288	0,025	0,028
-274,643	-200,000	-0,038	0,156
-273,628	800,000	-0,027	-0,064
-272,613	-86,607	0,143	-0,032
-271,599	-74,950	0,125	-0,032
-270,584	-64,630	0,150	0,044
-269,570	-200,000	0,031	-0,107
-268,555	800,000	-0,067	0,152
-267,540	800,000	-0,037	-0,089
-266,526	-77,323	-0,129	-0,032
-265,511	150,505	0,087	0,085
-264,497	-200,000	-0,009	0,079
-263,482	199,429	0,086	0,096
-262,467	478,706	0,068	0,112
-261,453	342,351	0,027	0,038
-260,438	-179,600	-0,050	0,001
-259,424	-124,486	-0,080	-0,009
-258,409	135,955	0,112	-0,106
-257,395	-51,296	-0,063	-0,021
-256,380	246,806	-0,035	-0,043
-255,365	208,897	-0,012	0,013
-254,351	-155,285	0,124	0,006
-253,336	-200,000	-0,036	-0,159
-252,322	392,472	-0,016	0,024
-251,307	165,922	0,048	0,049
-250,292	-200,000	-0,007	-0,051
-249,278	-23,290	0,186	-0,081
-248,263	800,000	-0,026	0,075
-247,249	545,724	0,061	0,107
-246,234	-94,573	-0,129	-0,025
-245,219	-200,000	0,025	-0,083
-244,205	176,631	0,061	-0,065
-243,190	283,285	-0,039	0,050
-242,176	-200,000	-0,001	0,075
-241,161	800,000	0,068	0,147
-240,146	62,505	-0,050	0,036
-239,132	545,856	0,029	0,050
-238,117	800,000	0,013	0,041
-237,103	800,000	0,033	0,082
-236,088	-200,000	-0,001	-0,128
-235,073	-145,784	0,064	0,004
-234,059	2,934	0,100	0,052
-233,044	241,168	0,074	-0,090
-232,030	-200,000	0,033	-0,187
-231,015	49,052	-0,105	-0,071
-230,000	198,785	-0,093	-0,103
-228,986	7,118	-0,063	0,034
-227,971	-72,182	0,023	0,006
-226,957	-200,000	0,012	-0,110
-225,942	559,605	0,044	-0,077
-224,927	29,501	0,090	-0,055
-223,913	-200,000	0,015	-0,134
-222,898	-30,130	-0,059	0,024
-221,884	466,845	0,046	0,075
-220,869	-83,108	0,075	0,017
-219,855	780,903	0,039	0,077
-218,840	800,000	0,056	-0,122
-217,825	411,697	-0,084	-0,129
-216,811	28,918	-0,074	-0,046
-215,796	-121,239	0,123	0,015
-214,782	98,268	-0,092	-0,077
-213,767	-200,000	0,018	-0,063
-212,752	585,020	0,047	0,084
-211,738	50,989	0,029	-0,020
-210,723	-26,464	-0,183	0,077
-209,709	-54,644	-0,091	-0,030
-208,694	-56,653	-0,051	0,016
-207,679	214,130	-0,060	-0,069
-206,665	-200,000	-0,003	-0,019
-205,650	-200,000	-0,005	-0,047
-204,636	-200,000	0,017	-0,099
-203,621	331,938	-0,059	0,082
-202,606	800,000	-0,017	-0,052
-201,592	167,989	0,011	-0,012
-200,577	7,396	0,063	-0,034
-199,563	800,000	-0,047	0,094
-198,548	-162,088	0,148	-0,005
-197,533	481,795	0,102	-0,168
-196,519	-200,000	0,009	-0,094
-195,504	20,230	-0,068	0,039
-194,490	-21,680	-0,130	-0,057
-193,475	-58,542	0,174	-0,054
-192,460	800,000	0,012	0,035
-191,446	2,611	0,099	0,052
-190,431	116,525	-0,113	0,100
-189,417	-200,000	0,015	0,128
-188,402	783,633	0,034	0,067
-187,387	-200,000	-0,005	0,036
-186,373	-85,617	0,035	0,008
-185,358	-200,000	0,001	0,153
-184,344	-200,000	0,006	0,186
-183,329	-200,000	0,024	-0,077
-182,315	-36,142	-0,100	-0,039
-181,300	-150,278	0,084	-0,005
-180,285	800,000	-0,033	0,083
-179,271	-200,000	-0,004	0,020
-178,256	570,043	-0,068	-0,120
-177,242	-47,169	0,063	-0,022
-176,227	24,900	-0,073	0,044
-175,212	-93,943	-0,074	-0,015
-174,198	187,074	0,040	-0,043
-173,183	-200,000	-0,019	-0,083
-172,169	61,906	-0,110	-0,079
-171,154	114,677	-0,109	-0,096
-170,139	-200,000	0,002	0,036
-169,125	-8,935	-0,087	0,042
-168,110	94,513	-0,076	0,062
-167,096	-123,611	-0,170	-0,019
-166,081	-130,905	0,054	-0,005
-165,066	800,000	-0,019	-0,043
-164,052	37,106	0,013	-0,008
-163,037	800,000	0,036	0,091
-162,023	-194,772	0,112	-0,001
-161,008	-53,453	-0,082	-0,027
-159,993	592,776	0,020	-0,035
-158,979	149,858	-0,069	0,068
-157,964	-200,000	-0,023	-0,090
-156,950	538,052	-0,045	-0,078
-155,935	423,688	0,037	-0,058
-154,920	-200,000	-0,010	0,095
-153,906	-134,521	-0,055	-0,005
-152,891	159,157	0,081	0,081
-151,877	-200,000	-0,020	0,117
-150,862	-200,000	0,010	0,110
-149,847	646,745	-0,052	-0,097
-148,833	-200,000	0,014	0,101
-147,818	331,893	-0,073	-0,102
-146,804	49,229	-0,163	-0,110
-145,789	598,742	0,020	0,036
-144,775	800,000	0,063	0,127
-143,760	89,739	-0,105	0,084
-142,745	-74,226	0,080	0,021
-141,731	97,626	-0,082	-0,068
-140,716	-200,000	-0,005	0,034
-139,702	-78,822	0,158	-0,039
-138,687	495,065	-0,021	-0,034
-137,672	-200,000	0,023	0,116
-136,658	27,620	-0,023	0,014
-135,643	-89,467	0,111	0,023
-134,629	-34,540	-0,110	0,043
-133,614	440,597	0,126	0,199
-132,599	-63,787	0,034	-0,010
-131,585	-50,761	0,195	-0,066
-130,570	-23,252	-0,127	-0,055
-129,556	-200,000	-0,004	0,167
-128,541	-94,553	-0,156	-0,030
-127,526	-137,548	0,040	-0,003
-126,512	-200,000	-0,030	0,110
-125,497	-200,000	-0,004	-0,032
-124,483	800,000	-0,073	0,162
-123,468	200,382	0,072	0,080
-122,453	-200,000	-0,012	0,137
-121,439	-200,000	0,017	-0,074
-120,424	-200,000	-0,009	0,099
-119,410	107,925	-0,011	0,009
-118,395	-161,085	0,097	0,004
