DTS Sentinel unit serial number:	SN410029Multiplexer serial number:	ORYXHardware model number:	OX2-SRSoftware version number:	ORYX F/W v4,00 Oryx Data Collector v3.7.2.0data status	okinstallation	B5 Nyhavnadifferential loss correction	single-endedforward channel	channel 2reverse channel	N/Adate	2023/12/13time	04:27:13forward acquisition time	300,00reverse acquisition time	0,00gamma	499,1914k internal	0,3160k external	0,3160temperature offset calibration	1,0000default loss term (dB/km)	0,3820temperature slope calibration	1,0000multiplexer offset coefficient	1,0000multiplexer slope coefficient	1,0000fibre end	0,00T internal ref (°C)	13,93T ext. ref 1 (°C)	-2,44T ext. ref 2 (°C)	-2,74length (m)	temperature (°C)	Stokes	anti-Stokes-744,400	396,194	0,090	0,139
-743,385	-76,470	-0,221	-0,057
-742,371	-43,581	0,128	0,047
-741,356	-31,281	-0,171	0,071
-740,342	800,000	0,068	0,151
-739,327	-33,939	-0,212	-0,086
-738,312	668,287	0,056	0,107
-737,298	-147,015	-0,387	0,024
-736,283	-27,516	0,084	-0,036
-735,269	-102,853	-0,220	-0,038
-734,254	52,813	0,140	0,099
-733,239	-98,816	-0,561	-0,104
-732,225	88,986	0,257	0,211
-731,210	242,911	-0,108	0,134
-730,196	621,341	0,055	0,102
-729,181	-200,000	-0,005	-0,126
-728,167	800,000	-0,011	0,028
-727,152	143,360	-0,058	0,057
-726,137	800,000	-0,030	-0,068
-725,123	177,695	0,045	-0,049
-724,108	148,823	-0,023	0,023
-723,094	-33,624	0,048	-0,019
-722,079	33,278	-0,074	0,047
-721,064	52,897	-0,064	0,045
-720,050	97,395	0,062	0,053
-719,035	374,717	0,023	0,034
-718,021	-200,000	0,006	-0,172
-717,006	-86,146	-0,065	-0,015
-715,991	-124,571	-0,141	-0,016
-714,977	-200,000	-0,003	0,031
-713,962	81,131	-0,032	-0,025
-712,948	89,621	0,041	-0,034
-711,933	-152,139	-0,031	0,002
-710,918	26,785	0,105	-0,065
-709,904	24,340	-0,141	-0,086
-708,889	-89,404	-0,081	-0,017
-707,875	-123,967	-0,219	0,025
-706,860	417,070	0,083	0,130
-705,845	350,615	0,108	-0,157
-704,831	-160,787	-0,041	-0,002
-703,816	130,260	-0,159	-0,150
-702,802	165,457	-0,041	-0,043
-701,787	59,877	-0,100	-0,073
-700,772	-130,209	-0,014	-0,001
-699,758	66,564	-0,066	-0,049
-698,743	800,000	0,062	-0,143
-697,729	798,791	0,061	-0,124
-696,714	136,972	0,063	0,061
-695,699	114,228	-0,013	0,012
-694,685	-200,000	0,022	-0,103
-693,670	752,855	0,037	-0,074
-692,656	271,002	-0,028	-0,037
-691,641	158,803	-0,099	-0,101
-690,627	291,886	0,026	0,035
-689,612	-38,280	-0,047	0,018
-688,597	-200,000	-0,000	-0,124
-687,583	-200,000	0,001	-0,158
-686,568	9,866	-0,162	-0,090
-685,554	-200,000	0,037	0,121
-684,539	47,111	-0,048	0,033
-683,524	800,000	-0,053	-0,146
-682,510	250,772	0,074	0,092
-681,495	-57,939	-0,042	-0,013
-680,481	800,000	-0,047	0,106
-679,466	105,005	-0,094	-0,081
-678,451	-200,000	-0,093	0,000
-677,437	250,258	0,053	0,066
-676,422	11,548	0,136	0,076
-675,408	-57,087	-0,114	0,037
-674,393	-36,032	0,047	0,019
-673,378	172,465	-0,063	0,067
-672,364	96,935	-0,083	0,070
-671,349	-75,969	-0,127	-0,033
-670,335	-50,762	0,091	-0,031
-669,320	-51,203	0,122	-0,042
-668,305	661,054	-0,041	-0,077
-667,291	-200,000	-0,026	-0,099
-666,276	800,000	0,039	-0,085
-665,262	-200,000	0,011	-0,067
-664,247	398,266	-0,043	-0,066
-663,232	158,577	0,063	-0,064
-662,218	-147,445	0,070	-0,004
-661,203	130,359	0,019	0,018
-660,189	-200,000	0,041	0,152
-659,174	-128,351	-0,257	0,027
-658,159	-200,000	0,012	-0,069
-657,145	-200,000	0,009	-0,048
-656,130	-79,026	-0,098	-0,024
-655,116	-200,000	-0,001	-0,027
-654,101	-135,496	0,078	0,007
-653,086	-154,239	-0,020	-0,001
-652,072	42,657	-0,097	-0,065
-651,057	17,381	0,033	0,019
-650,043	13,989	-0,062	0,035
-649,028	82,890	-0,070	-0,056
-648,014	-184,034	0,122	0,001
-646,999	-200,000	-0,017	0,070
-645,984	223,215	0,076	0,090
-644,970	-200,000	-0,006	0,140
-643,955	-200,000	-0,012	0,103
-642,941	300,543	0,057	-0,078
-641,926	-200,000	0,004	-0,104
-640,911	-109,215	-0,127	-0,020
-639,897	104,180	0,032	0,028
-638,882	366,410	0,029	-0,044
-637,868	286,204	-0,031	-0,041
-636,853	178,996	-0,110	-0,118
-635,838	-128,356	-0,061	-0,006
-634,824	-200,000	-0,017	-0,085
-633,809	298,536	0,076	0,103
-632,795	-100,280	0,039	0,007
-631,780	-49,132	0,085	0,030
-630,765	-31,980	0,047	0,019
-629,751	-173,600	-0,063	0,001
-628,736	-200,000	-0,018	0,191
-627,722	135,250	0,067	0,064
-626,707	-115,338	-0,095	0,013
-625,692	800,000	0,100	0,207
-624,678	714,467	-0,034	0,066
-623,663	135,585	-0,025	0,023
-622,649	800,000	-0,050	-0,111
-621,634	353,973	0,084	-0,123
-620,619	-200,000	-0,005	0,109
-619,605	-50,811	-0,096	-0,033
-618,590	355,317	0,063	-0,093
-617,576	-200,000	0,010	0,128
-616,561	-53,448	-0,083	0,028
-615,546	10,283	-0,100	0,056
-614,532	235,403	-0,097	-0,117
-613,517	733,799	-0,039	-0,077
-612,503	137,777	0,126	-0,121
-611,488	-73,933	0,063	0,017
-610,474	414,244	-0,070	0,109
-609,459	-134,523	0,168	0,015
-608,444	32,750	-0,226	-0,143
-607,430	315,310	-0,024	0,034
-606,415	95,241	-0,119	-0,099
-605,401	179,305	0,098	0,105
-604,386	-159,943	0,057	0,002
-603,371	113,969	0,060	0,054
-602,357	-200,000	0,013	0,095
-601,342	-200,000	-0,005	0,098
-600,328	-200,000	-0,018	-0,081
-599,313	-50,827	-0,021	-0,007
-598,298	-200,000	-0,032	0,106
-597,284	-200,000	-0,009	-0,051
-596,269	506,781	0,052	0,088
-595,255	172,789	0,053	0,056
-594,240	122,107	-0,078	0,072
-593,225	-131,064	0,079	0,008
-592,211	558,498	-0,045	0,080
-591,196	258,899	-0,081	-0,102
-590,182	-200,000	0,017	0,143
-589,167	232,228	0,058	-0,070
-588,152	-132,960	0,128	0,012
-587,138	-46,214	-0,214	0,077
-586,123	582,274	-0,025	0,044
-585,109	20,365	0,017	0,010
-584,094	-200,000	-0,001	0,008
-583,079	-159,461	0,142	0,006
-582,065	-109,372	0,129	0,020
-581,050	569,205	0,023	0,041
-580,036	-104,231	0,122	0,021
-579,021	236,257	0,025	0,030
-578,006	-200,000	-0,045	0,158
-576,992	-125,678	0,135	0,015
-575,977	155,392	0,139	0,140
-574,963	-192,442	-0,056	-0,000
-573,948	-200,000	-0,009	0,139
-572,934	-96,262	0,056	0,011
-571,919	17,499	0,097	0,056
-570,904	146,455	-0,120	-0,118
-569,890	-61,749	-0,135	-0,041
-568,875	113,868	-0,018	0,016
-567,861	-107,807	0,058	-0,009
-566,846	-200,000	-0,011	0,055
-565,831	800,000	0,026	-0,060
-564,817	535,373	-0,083	-0,145
-563,802	54,982	-0,043	-0,030
-562,788	122,900	0,093	0,085
-561,773	-19,182	-0,056	-0,025
-560,758	12,099	0,113	-0,064
-559,744	-136,496	-0,058	-0,005
-558,729	-200,000	0,000	-0,058
-557,715	800,000	-0,018	-0,058
-556,700	-200,000	-0,004	-0,044
-555,685	357,045	-0,051	-0,074
-554,671	248,653	-0,068	-0,084
-553,656	88,406	0,078	0,063
-552,642	-200,000	0,049	-0,166
-551,627	163,076	0,099	-0,102
-550,612	180,055	-0,090	0,096
-549,598	800,000	0,037	0,093
-548,583	-194,715	-0,086	-0,000
-547,569	184,511	0,054	0,059
-546,554	-200,000	0,009	0,212
-545,539	207,973	0,073	0,084
-544,525	743,011	0,046	0,092
-543,510	179,990	0,059	-0,064
-542,496	101,523	-0,125	0,107
-541,481	-30,003	-0,100	-0,041
-540,466	800,000	-0,030	-0,084
-539,452	69,272	0,115	0,086
-538,437	-200,000	-0,012	0,105
-537,423	-200,000	0,012	0,045
-536,408	-200,000	-0,016	0,083
-535,393	800,000	-0,053	-0,152
-534,379	275,179	0,107	-0,139
-533,364	98,200	-0,017	0,014
-532,350	-64,739	0,088	0,026
-531,335	-200,000	0,004	-0,148
-530,321	-169,636	0,023	0,001
-529,306	188,004	0,057	0,062
-528,291	171,754	-0,005	-0,006
-527,277	360,007	-0,020	-0,029
-526,262	676,406	-0,014	0,027
-525,248	-93,531	0,021	-0,004
-524,233	6,610	-0,051	0,028
-523,218	-40,528	-0,075	-0,028
-522,204	-102,066	0,139	0,024
-521,189	-163,105	-0,128	0,004
-520,175	47,174	-0,144	-0,098
-519,160	58,137	-0,070	-0,050
-518,145	677,704	0,010	0,019
-517,131	-200,000	0,018	-0,131
-516,116	-200,000	0,002	-0,043
-515,102	-200,000	-0,013	-0,083
-514,087	386,352	-0,040	-0,060
-513,072	13,374	-0,112	-0,063
-512,058	-36,057	0,056	-0,022
-511,043	604,498	0,063	0,116
-510,029	117,612	0,042	0,038
-509,014	185,755	-0,077	0,083
-507,999	-189,012	0,170	-0,001
-506,985	-29,248	-0,083	0,035
-505,970	287,486	0,050	-0,066
-504,956	-200,000	-0,005	0,046
-503,941	51,576	-0,030	-0,021
-502,926	150,190	-0,035	0,035
-501,912	-91,359	0,046	0,010
-500,897	800,000	0,041	0,086
-499,883	90,356	-0,122	-0,100
-498,868	-200,000	0,001	-0,065
-497,853	-96,245	0,022	0,004
-496,839	-200,000	-0,017	-0,120
-495,824	469,015	-0,064	0,105
-494,810	218,596	0,049	-0,057
-493,795	562,561	0,063	0,112
-492,781	-200,000	0,020	0,177
-491,766	399,861	0,034	-0,052
-490,751	341,917	-0,046	0,066
-489,737	160,113	-0,064	-0,065
-488,722	800,000	0,025	0,077
-487,708	128,450	0,114	-0,106
-486,693	-200,000	-0,006	-0,154
-485,678	-29,950	0,221	0,091
-484,664	-200,000	-0,007	-0,052
-483,649	800,000	0,005	-0,016
-482,635	112,673	0,028	0,025
-481,620	-200,000	-0,002	-0,076
-480,605	424,740	-0,059	0,093
-479,591	800,000	0,010	0,021
-478,576	-55,054	-0,178	0,058
-477,562	-9,563	0,109	-0,053
-476,547	-75,427	-0,106	-0,027
-475,532	-160,981	0,022	0,001
-474,518	115,162	0,166	-0,148
-473,503	-200,000	-0,009	0,091
-472,489	-48,431	0,157	-0,055
-471,474	12,999	-0,090	0,051
-470,459	800,000	-0,079	-0,171
-469,445	401,547	0,028	-0,043
-468,430	77,667	0,049	-0,038
-467,416	800,000	-0,023	0,067
-466,401	800,000	-0,009	0,019
-465,386	-200,000	-0,003	-0,059
-464,372	-200,000	-0,004	-0,049
-463,357	-57,474	0,102	0,032
-462,343	-200,000	0,015	-0,107
-461,328	-200,000	-0,013	-0,087
-460,313	-200,000	-0,041	-0,143
-459,299	122,766	0,050	0,045
-458,284	457,042	-0,044	-0,072
-457,270	390,617	-0,047	0,072
-456,255	188,620	-0,016	-0,017
-455,241	13,415	0,053	-0,030
-454,226	-157,124	0,003	-0,000
-453,211	735,116	-0,066	0,130
-452,197	-118,945	-0,184	-0,023
-451,182	349,404	0,035	0,050
-450,168	-200,000	0,003	0,082
-449,153	-175,579	-0,137	-0,003
-448,138	259,285	0,030	-0,038
-447,124	-6,129	-0,039	-0,019
-446,109	-22,716	0,110	-0,048
-445,095	418,902	0,086	0,135
-444,080	-102,060	0,079	-0,014
-443,065	800,000	-0,021	-0,066
-442,051	-200,000	0,029	0,133
-441,036	-37,253	-0,037	-0,014
-440,022	-200,000	-0,018	-0,059
-439,007	-46,395	0,073	0,026
-437,992	-200,000	-0,021	0,237
-436,978	2,591	-0,080	0,042
-435,963	-200,000	-0,023	-0,104
-434,949	279,236	-0,092	-0,120
-433,934	9,667	-0,130	-0,071
-432,919	230,445	-0,078	-0,093
-431,905	-200,000	-0,026	0,095
-430,890	-200,000	0,015	0,058
-429,876	-15,119	0,097	0,045
-428,861	271,309	0,060	-0,077
-427,846	-184,496	-0,076	-0,001
-426,832	800,000	-0,028	-0,082
-425,817	124,967	-0,084	0,077
-424,803	-60,977	0,107	0,033
-423,788	-200,000	0,007	0,059
-422,773	52,562	0,159	-0,110
-421,759	50,548	0,051	0,035
-420,744	116,564	-0,052	-0,046
-419,730	-79,089	-0,094	-0,023
-418,715	-72,067	-0,118	-0,032
-417,701	800,000	-0,058	-0,123
-416,686	800,000	0,047	0,117
-415,671	-200,000	0,001	0,040
-414,657	800,000	-0,013	0,031
-413,642	-136,067	-0,121	-0,010
-412,628	-12,161	-0,101	-0,048
-411,613	129,029	0,068	-0,063
-410,598	800,000	0,030	0,088
-409,584	221,743	-0,041	-0,048
-408,569	-170,252	0,058	0,001
-407,555	41,055	-0,053	-0,035
-406,540	-200,000	0,004	-0,048
-405,525	-115,217	-0,104	0,014
-404,511	-200,000	0,001	-0,202
-403,496	109,406	0,054	0,047
-402,482	-24,912	-0,124	0,053
-401,467	82,793	0,122	0,096
-400,452	-200,000	-0,009	-0,035
-399,438	-200,000	0,027	0,126
-398,423	388,152	0,022	-0,032
-397,409	800,000	-0,018	-0,049
-396,394	386,195	-0,033	-0,050
-395,379	800,000	0,048	-0,098
-394,365	519,486	-0,077	0,131
-393,350	-76,616	0,202	-0,051
-392,336	80,470	0,064	0,050
-391,321	194,892	-0,071	0,079
-390,306	80,040	0,065	-0,051
-389,292	326,366	-0,028	-0,039
-388,277	578,602	0,071	-0,127
-387,263	2,392	0,050	0,026
-386,248	76,218	-0,083	-0,064
-385,233	-200,000	-0,006	-0,034
-384,219	800,000	0,026	-0,062
-383,204	-34,633	0,039	0,015
-382,190	218,499	0,022	0,025
-381,175	551,677	0,020	-0,035
-380,160	127,244	0,117	0,108
-379,146	589,164	0,071	-0,127
-378,131	-6,831	0,041	0,020
-377,117	-73,753	0,088	0,023
-376,102	124,881	-0,114	-0,104
-375,088	-200,000	0,010	-0,037
-374,073	800,000	0,038	-0,111
-373,058	76,470	0,076	-0,059
-372,044	800,000	-0,047	-0,126
-371,029	-200,000	0,017	-0,114
-370,015	-13,017	0,134	0,063
-369,000	-54,738	-0,085	0,028
-367,985	232,500	0,059	0,071
-366,971	800,000	0,028	-0,078
-365,956	-85,371	0,075	-0,017
-364,942	136,528	-0,070	0,066
-363,927	-40,488	0,040	0,015
-362,912	91,616	0,121	-0,098
-361,898	170,912	-0,061	-0,064
-360,883	-44,388	-0,084	-0,030
-359,869	-58,698	-0,218	0,068
-358,854	-200,000	0,004	0,048
-357,839	539,639	-0,044	-0,077
-356,825	800,000	-0,040	0,081
-355,810	7,744	-0,151	-0,082
-354,796	131,438	0,073	0,068
-353,781	-200,000	-0,018	0,071
-352,766	800,000	0,069	0,181
-351,752	-200,000	0,001	-0,110
-350,737	800,000	-0,035	0,077
-349,723	228,054	0,042	-0,050
-348,708	800,000	-0,003	0,008
-347,693	-200,000	-0,007	-0,173
-346,679	-140,745	-0,095	-0,007
-345,664	-8,464	-0,041	0,020
-344,650	20,965	-0,148	-0,087
-343,635	800,000	0,026	0,069
-342,620	30,192	0,059	0,037
-341,606	-200,000	0,022	0,091
-340,591	746,694	0,065	-0,128
-339,577	32,969	-0,123	0,077
-338,562	800,000	0,032	0,098
-337,548	228,122	-0,033	-0,039
-336,533	23,745	-0,079	0,047
-335,518	186,018	0,081	0,087
-334,504	-117,757	-0,052	-0,007
-333,489	800,000	-0,022	-0,065
-332,475	-117,351	-0,171	-0,022
-331,460	-200,000	0,014	-0,045
-330,445	-200,000	-0,026	0,090
-329,431	-200,000	-0,009	-0,063
-328,416	-51,401	0,149	-0,050
-327,402	-145,566	0,077	0,005
-326,387	-200,000	-0,013	0,063
-325,372	609,533	0,057	-0,104
-324,358	-184,389	0,048	-0,001
-323,343	-200,000	-0,024	-0,108
-322,329	4,029	-0,099	0,052
-321,314	-200,000	-0,007	0,046
-320,299	-142,024	0,087	-0,006
-319,285	192,842	-0,105	-0,115
-318,270	800,000	0,065	-0,134
-317,256	-146,665	-0,156	0,010
-316,241	-74,401	0,040	-0,010
-315,226	224,961	-0,043	0,050
-314,212	-200,000	-0,002	0,124
-313,197	387,934	-0,020	-0,030
-312,183	93,822	0,076	0,062
-311,168	152,817	-0,124	-0,123
-310,153	-200,000	0,023	-0,120
-309,139	-200,000	0,002	-0,074
-308,124	-51,668	0,147	-0,049
-307,110	284,375	0,024	0,031
-306,095	55,700	-0,019	0,013
-305,080	18,221	-0,038	-0,022
-304,066	416,605	-0,012	0,019
-303,051	771,190	-0,020	0,039
-302,037	-178,508	0,020	-0,000
-301,022	-12,504	-0,037	0,017
-300,008	45,318	0,048	0,032
-298,993	-200,000	-0,045	0,169
-297,978	-200,000	-0,005	0,125
-296,964	-111,786	-0,053	-0,008
-295,949	5,308	-0,040	0,021
-294,935	-200,000	-0,015	-0,093
-293,920	120,432	0,026	0,023
-292,905	329,465	0,108	-0,151
-291,891	116,299	0,026	-0,023
-290,876	800,000	0,060	0,162
-289,862	0,122	0,053	-0,027
-288,847	8,650	-0,122	0,066
-287,832	-33,069	-0,099	-0,040
-286,818	-81,292	0,067	-0,016
-285,803	694,719	-0,078	0,149
-284,789	388,712	0,048	0,073
-283,774	-200,000	-0,004	0,021
-282,759	157,029	-0,061	0,061
-281,745	159,403	-0,059	0,059
-280,730	-26,169	-0,131	-0,055
-279,716	800,000	0,035	-0,082
-278,701	583,165	0,040	-0,072
-277,686	64,803	-0,052	-0,038
-276,672	38,086	-0,121	-0,078
-275,657	65,620	0,063	0,046
-274,643	86,866	-0,047	0,038
-273,628	-200,000	0,003	0,040
-272,613	291,294	-0,050	0,065
-271,599	35,645	0,172	0,109
-270,584	94,782	-0,009	-0,008
-269,570	-200,000	-0,005	-0,112
-268,555	142,645	0,027	0,026
-267,540	-200,000	-0,025	-0,147
-266,526	-118,474	-0,104	-0,013
-265,511	-200,000	-0,030	-0,136
-264,497	134,710	-0,018	-0,017
-263,482	653,014	0,080	0,148
-262,467	413,385	0,036	0,056
-261,453	74,724	-0,120	0,091
-260,438	73,166	-0,052	-0,039
-259,424	800,000	-0,042	-0,112
-258,409	525,604	0,015	0,026
-257,395	800,000	0,042	0,117
-256,380	-77,018	0,070	0,017
-255,365	112,785	0,089	0,078
-254,351	-133,659	-0,221	-0,020
-253,336	-60,644	-0,196	-0,060
-252,322	-72,780	0,089	0,024
-251,307	-73,791	0,104	-0,027
-250,292	-3,824	-0,025	-0,012
-249,278	396,005	-0,024	-0,036
-248,263	124,945	-0,014	-0,013
-247,249	481,999	-0,043	0,071
-246,234	-179,538	0,116	0,002
-245,219	-200,000	-0,020	-0,079
-244,205	-122,138	0,187	-0,022
-243,190	800,000	-0,025	-0,079
-242,176	800,000	0,034	0,096
-241,161	-200,000	-0,015	0,178
-240,146	-200,000	0,006	0,166
-239,132	146,105	0,137	0,133
-238,117	106,409	-0,129	-0,110
-237,103	268,091	-0,096	-0,122
-236,088	800,000	0,016	-0,048
-235,073	-136,146	-0,106	0,009
-234,059	-200,000	-0,047	-0,156
-233,044	-200,000	-0,045	0,170
-232,030	-200,000	-0,011	-0,068
-231,015	-200,000	0,002	-0,083
-230,000	-13,333	-0,127	0,059
-228,986	396,735	-0,052	-0,078
-227,971	-99,438	-0,080	-0,014
-226,957	-29,378	0,139	0,057
-225,942	-124,602	-0,109	0,012
-224,927	81,079	-0,057	-0,044
-223,913	-57,208	-0,117	-0,037
-222,898	-200,000	0,021	0,071
-221,884	602,731	-0,046	0,083
-220,869	-18,964	0,031	0,014
-219,855	800,000	-0,063	0,174
-218,840	374,720	0,045	0,066
-217,825	800,000	0,041	0,119
-216,811	783,155	-0,030	0,059
-215,796	-200,000	-0,017	-0,088
-214,782	-58,287	-0,065	0,020
-213,767	272,344	0,137	0,175
-212,752	176,629	0,010	0,011
-211,738	470,428	-0,025	-0,041
-210,723	90,908	0,034	-0,027
-209,709	-200,000	0,006	-0,018
-208,694	44,847	-0,061	-0,040
-207,679	-88,672	-0,126	0,027
-206,665	-60,358	0,127	0,039
-205,650	108,991	-0,055	0,047
-204,636	-200,000	-0,002	-0,020
-203,621	10,071	0,181	0,099
-202,606	736,952	0,020	0,039
-201,592	492,086	-0,046	-0,077
-200,577	25,772	0,108	-0,065
-199,563	-182,573	0,097	0,001
-198,548	-12,403	0,141	0,066
-197,533	140,406	-0,053	0,050
-196,519	633,184	0,009	-0,016
-195,504	-200,000	-0,003	-0,034
-194,490	800,000	0,050	-0,142
-193,475	422,607	-0,048	0,074
-192,460	-94,156	0,101	-0,020
-191,446	660,379	0,028	-0,052
-190,431	387,711	0,019	-0,028
-189,417	800,000	0,019	0,044
-188,402	26,664	-0,049	0,030
-187,387	476,868	0,062	-0,101
-186,373	-200,000	-0,016	-0,082
-185,358	-200,000	-0,003	-0,062
-184,344	-200,000	0,005	-0,152
-183,329	-200,000	-0,017	-0,077
-182,315	-200,000	0,006	0,046
-181,300	-164,703	-0,100	0,003
-180,285	-200,000	0,011	-0,112
-179,271	42,390	-0,064	-0,042
-178,256	189,795	-0,025	0,027
-177,242	-200,000	-0,005	0,028
-176,227	-87,511	0,168	-0,036
-175,212	56,466	0,099	0,070
-174,198	475,087	-0,048	-0,079
-173,183	177,819	0,074	0,078
-172,169	95,284	0,116	0,096
-171,154	-97,599	0,060	-0,011
-170,139	-200,000	0,015	-0,068
-169,125	112,002	0,108	0,094
-168,110	-42,403	0,126	-0,046
-167,096	-95,184	-0,085	-0,016
-166,081	103,029	0,096	-0,081
-165,066	120,188	-0,026	-0,023
-164,052	-130,121	0,087	-0,008
-163,037	254,995	-0,035	0,043
-162,023	116,100	0,038	0,033
-161,008	800,000	-0,024	0,059
-159,993	-40,280	-0,109	0,041
-158,979	67,672	-0,043	-0,032
-157,964	7,363	-0,093	0,050
-156,950	-107,837	0,112	-0,017
-155,935	-27,202	-0,043	0,018
-154,920	100,270	0,110	-0,092
-153,906	-65,993	-0,132	-0,038
-152,891	-196,718	0,106	0,000
-151,877	800,000	0,047	-0,129
-150,862	709,150	-0,039	-0,074
-149,847	-119,427	-0,081	0,010
-148,833	-200,000	0,029	0,223
-147,818	368,512	0,132	0,193
-146,804	-44,975	0,017	-0,006
-145,789	-200,000	0,018	-0,059
-144,775	120,780	-0,037	-0,034
-143,760	193,786	-0,054	-0,059
-142,745	-129,089	0,161	0,016
-141,731	-180,670	0,157	0,002
-140,716	53,195	0,074	0,051
-139,702	800,000	-0,017	-0,040
-138,687	-135,198	-0,081	0,007
-137,672	200,401	-0,094	0,104
-136,658	-200,000	-0,015	0,053
-135,643	-108,186	0,110	0,017
-134,629	-100,198	-0,137	0,024
-133,614	-175,071	-0,094	-0,002
-132,599	-200,000	-0,008	0,027
-131,585	-200,000	-0,012	0,064
-130,570	158,130	0,042	-0,042
-129,556	-12,004	-0,074	-0,035
-128,541	800,000	-0,035	-0,077
-127,526	800,000	-0,068	0,137
-126,512	327,947	0,083	0,115
-125,497	-200,000	0,012	0,070
-124,483	158,352	0,052	-0,052
-123,468	266,417	0,053	-0,066
-122,453	-157,141	-0,069	-0,003
-121,439	-200,000	-0,019	-0,067
-120,424	180,806	0,110	-0,116
-119,410	675,784	-0,030	0,057
