DTS Sentinel unit serial number:	SN410029Multiplexer serial number:	ORYXHardware model number:	OX2-SRSoftware version number:	ORYX F/W v4,00 Oryx Data Collector v3.7.2.0data status	okinstallation	B5 Nyhavnadifferential loss correction	single-endedforward channel	channel 2reverse channel	N/Adate	2023/12/14time	10:42:13forward acquisition time	300,00reverse acquisition time	0,00gamma	499,1914k internal	0,3161k external	0,3161temperature offset calibration	1,0000default loss term (dB/km)	0,3820temperature slope calibration	1,0000multiplexer offset coefficient	1,0000multiplexer slope coefficient	1,0000fibre end	0,00T internal ref (°C)	7,02T ext. ref 1 (°C)	-8,48T ext. ref 2 (°C)	-8,51length (m)	temperature (°C)	Stokes	anti-Stokes-744,400	20,926	0,145	0,086
-743,385	-108,002	-0,516	-0,082
-742,371	177,487	0,255	0,273
-741,356	-98,649	-0,314	0,058
-740,342	-91,495	0,173	0,036
-739,327	-105,905	-0,427	-0,070
-738,312	261,020	0,024	0,030
-737,298	-13,493	-0,429	-0,204
-736,283	-21,787	0,172	0,077
-735,269	-140,380	-0,381	0,029
-734,254	-118,272	0,068	-0,009
-733,239	-5,405	-0,510	-0,257
-732,225	20,941	0,225	0,134
-731,210	0,060	-0,142	0,074
-730,196	123,003	0,057	0,053
-729,181	-50,093	0,070	0,024
-728,167	195,388	0,054	0,061
-727,152	566,946	-0,034	0,061
-726,137	176,753	-0,143	0,153
-725,123	393,648	-0,031	-0,048
-724,108	-23,549	-0,082	0,036
-723,094	28,248	-0,038	-0,023
-722,079	-200,000	-0,001	0,011
-721,064	90,512	-0,066	0,054
-720,050	101,928	0,153	-0,131
-719,035	-96,877	0,118	-0,023
-718,021	-200,000	0,001	0,144
-717,006	800,000	-0,010	-0,026
-715,991	-159,641	0,042	0,002
-714,977	-177,669	0,021	0,000
-713,962	800,000	-0,048	0,126
-712,948	800,000	0,072	0,165
-711,933	800,000	0,040	0,094
-710,918	13,941	-0,077	0,044
-709,904	-52,639	-0,134	-0,045
-708,889	-17,994	-0,125	-0,057
-707,875	107,496	0,091	-0,080
-706,860	-141,749	-0,062	0,004
-705,845	-90,560	0,028	0,006
-704,831	-126,416	-0,100	0,011
-703,816	-40,716	-0,075	0,028
-702,802	129,509	-0,086	-0,081
-701,787	-38,273	-0,041	0,016
-700,772	-98,426	-0,054	0,010
-699,758	123,006	-0,028	-0,026
-698,743	-89,733	0,030	0,006
-697,729	-200,000	0,010	0,047
-696,714	800,000	-0,005	0,013
-695,699	-200,000	0,009	0,038
-694,685	20,426	-0,047	0,028
-693,670	800,000	-0,039	-0,120
-692,656	-58,550	-0,054	0,017
-691,641	142,017	-0,046	0,044
-690,627	-200,000	0,022	0,188
-689,612	-168,870	-0,022	-0,001
-688,597	524,492	0,034	0,060
-687,583	387,751	-0,043	-0,065
-686,568	-200,000	0,035	-0,123
-685,554	-128,149	-0,082	0,008
-684,539	-74,510	0,104	0,027
-683,524	197,058	-0,037	-0,041
-682,510	33,071	0,030	0,019
-681,495	800,000	-0,014	-0,041
-680,481	-181,266	0,041	0,001
-679,466	53,605	0,094	-0,066
-678,451	-200,000	0,007	0,031
-677,437	-103,764	-0,033	0,006
-676,422	295,175	-0,057	-0,076
-675,408	-65,725	-0,099	-0,029
-674,393	691,676	-0,008	-0,015
-673,378	-137,309	0,026	-0,002
-672,364	-127,662	-0,067	0,007
-671,349	46,362	-0,052	-0,035
-670,335	299,988	0,037	-0,050
-669,320	-72,145	-0,119	0,032
-668,305	-200,000	0,021	0,104
-667,291	694,694	-0,048	0,092
-666,276	-72,026	-0,057	0,015
-665,262	546,665	0,008	-0,014
-664,247	-200,000	-0,062	-0,264
-663,232	161,200	0,041	0,042
-662,218	-200,000	-0,012	-0,126
-661,203	-153,661	-0,168	0,008
-660,189	157,164	0,048	0,049
-659,174	49,685	-0,054	-0,037
-658,159	-141,447	0,085	0,006
-657,145	-200,000	-0,007	-0,065
-656,130	-200,000	-0,001	0,013
-655,116	177,223	0,067	0,072
-654,101	-83,723	0,104	-0,024
-653,086	43,684	-0,140	0,094
-652,072	478,770	-0,111	-0,184
-651,057	-45,921	-0,099	-0,036
-650,043	414,334	-0,065	-0,102
-649,028	29,148	-0,149	-0,092
-648,014	682,353	0,065	-0,124
-646,999	284,910	-0,036	-0,048
-645,984	301,222	-0,056	0,076
-644,970	-108,304	-0,061	-0,010
-643,955	-200,000	0,007	-0,088
-642,941	75,232	0,027	-0,021
-641,926	-138,727	0,061	-0,005
-640,911	12,421	0,094	0,053
-639,897	-200,000	-0,039	0,131
-638,882	800,000	-0,020	-0,048
-637,868	51,612	-0,120	-0,083
-636,853	31,339	-0,131	-0,082
-635,838	-119,114	0,104	-0,013
-634,824	34,894	-0,110	-0,070
-633,809	507,824	-0,016	-0,027
-632,795	800,000	0,006	-0,014
-631,780	348,941	0,054	0,079
-630,765	800,000	0,033	-0,089
-629,751	442,578	-0,118	-0,190
-628,736	-200,000	-0,052	-0,171
-627,722	212,377	-0,063	0,073
-626,707	602,878	-0,043	-0,079
-625,692	-200,000	0,009	0,037
-624,678	450,710	-0,066	0,107
-623,663	-130,738	0,055	0,005
-622,649	-200,000	-0,008	-0,042
-621,634	-118,582	-0,078	0,010
-620,619	53,497	-0,105	-0,074
-619,605	-200,000	0,004	-0,067
-618,590	-103,762	0,070	-0,012
-617,576	-33,230	0,034	-0,014
-616,561	-116,110	-0,061	-0,008
-615,546	35,763	-0,101	-0,065
-614,532	84,968	-0,170	-0,137
-613,517	-200,000	-0,003	0,023
-612,503	28,290	-0,118	0,073
-611,488	5,578	0,053	0,028
-610,474	358,594	-0,047	0,069
-609,459	572,488	0,133	-0,238
-608,444	-80,412	-0,151	0,037
-607,430	-136,845	-0,051	-0,004
-606,415	157,765	-0,046	-0,047
-605,401	-69,147	-0,124	0,035
-604,386	356,339	-0,124	0,181
-603,371	26,566	0,092	-0,056
-602,357	800,000	-0,015	-0,048
-601,342	388,156	0,043	0,065
-600,328	-200,000	-0,002	-0,200
-599,313	-200,000	-0,032	-0,119
-598,298	800,000	0,050	-0,148
-597,284	800,000	-0,030	0,063
-596,269	-92,340	-0,058	-0,012
-595,255	756,974	-0,023	0,047
-594,240	35,898	-0,067	0,043
-593,225	-200,000	0,000	-0,108
-592,211	-35,277	-0,096	-0,038
-591,196	193,664	0,058	-0,065
-590,182	-184,722	0,014	0,000
-589,167	-200,000	-0,004	-0,027
-588,152	407,529	0,017	-0,026
-587,138	-3,357	0,091	0,046
-586,123	-200,000	-0,011	-0,102
-585,109	-32,629	-0,127	-0,051
-584,094	28,359	0,189	0,117
-583,079	474,257	0,044	-0,074
-582,065	-200,000	-0,002	0,042
-581,050	800,000	-0,031	-0,088
-580,036	514,743	-0,075	-0,129
-579,021	48,721	0,061	-0,042
-578,006	13,200	0,065	-0,037
-576,992	-200,000	-0,008	0,062
-575,977	-200,000	0,011	0,061
-574,963	-200,000	0,002	-0,077
-573,948	-59,746	-0,123	0,038
-572,934	225,863	-0,057	-0,068
-571,919	-16,606	-0,107	0,049
-570,904	-15,312	-0,104	0,049
-569,890	800,000	-0,053	-0,115
-568,875	49,256	0,101	-0,069
-567,861	-40,352	-0,067	0,026
-566,846	-200,000	0,019	0,178
-565,831	12,229	0,121	0,068
-564,817	18,482	-0,102	-0,059
-563,802	-197,788	-0,115	-0,000
-562,788	-150,924	-0,031	0,002
-561,773	34,920	0,084	-0,054
-560,758	123,996	0,034	0,032
-559,744	160,395	0,028	0,029
-558,729	-133,725	-0,024	-0,002
-557,715	-200,000	-0,021	0,137
-556,700	17,289	-0,117	-0,068
-555,685	-51,350	0,128	-0,043
-554,671	778,505	-0,070	0,140
-553,656	9,720	-0,029	0,016
-552,642	-154,256	0,157	-0,008
-551,627	-32,451	-0,023	-0,009
-550,612	-97,880	0,096	-0,018
-549,598	-12,635	0,099	0,047
-548,583	-200,000	-0,027	-0,155
-547,569	800,000	0,084	-0,190
-546,554	-37,782	0,127	0,049
-545,539	301,712	0,019	0,026
-544,525	295,207	0,024	0,033
-543,510	640,891	-0,055	0,102
-542,496	167,597	-0,115	-0,119
-541,481	800,000	-0,051	-0,130
-540,466	93,068	-0,088	0,073
-539,452	66,106	-0,052	0,039
-538,437	800,000	0,046	0,124
-537,423	-101,811	0,074	0,013
-536,408	92,041	-0,122	0,100
-535,393	90,534	0,121	-0,099
-534,379	-54,882	-0,068	-0,022
-533,364	-20,927	0,079	-0,035
-532,350	-24,429	-0,080	0,035
-531,335	-200,000	0,010	0,066
-530,321	-200,000	0,013	0,084
-529,306	800,000	0,076	0,154
-528,291	57,973	-0,133	-0,095
-527,277	260,262	0,057	-0,072
-526,262	800,000	0,023	-0,053
-525,248	96,548	-0,038	-0,031
-524,233	20,508	0,039	0,023
-523,218	-53,851	0,081	-0,027
-522,204	271,718	0,028	-0,036
-521,189	-200,000	-0,001	-0,034
-520,175	-64,065	-0,077	0,023
-519,160	-102,959	-0,027	-0,005
-518,145	-200,000	-0,002	-0,048
-517,131	800,000	0,061	-0,134
-516,116	-200,000	0,031	0,149
-515,102	-200,000	0,025	0,195
-514,087	-41,020	-0,114	-0,043
-513,072	-50,671	0,050	-0,017
-512,058	-200,000	0,030	0,135
-511,043	57,254	0,066	0,047
-510,029	757,366	0,015	-0,030
-509,014	-21,937	0,128	0,057
-507,999	13,653	-0,150	0,085
-506,985	-32,549	0,075	0,030
-505,970	133,489	0,058	0,054
-504,956	-72,449	-0,085	-0,023
-503,941	-30,940	-0,034	0,014
-502,926	-76,038	0,017	0,004
-501,912	-200,000	0,025	0,112
-500,897	395,631	0,036	0,054
-499,883	-200,000	0,007	0,039
-498,868	-55,375	-0,119	-0,039
-497,853	628,721	0,037	-0,069
-496,839	-200,000	0,006	-0,138
-495,824	0,954	0,060	0,031
-494,810	170,511	0,068	0,071
-493,795	67,411	-0,101	0,075
-492,781	-26,165	-0,055	-0,023
-491,766	800,000	0,029	-0,062
-490,751	-200,000	0,014	-0,083
-489,737	-22,815	0,079	0,035
-488,722	800,000	-0,059	-0,181
-487,708	630,884	0,050	0,093
-486,693	84,537	0,049	0,039
-485,678	322,984	-0,076	0,106
-484,664	-200,000	0,060	-0,195
-483,649	800,000	-0,054	-0,134
-482,635	96,498	-0,044	-0,037
-481,620	800,000	0,022	0,050
-480,605	-200,000	0,037	-0,124
-479,591	-93,386	-0,100	-0,020
-478,576	181,075	0,038	-0,041
-477,562	-200,000	0,001	-0,114
-476,547	332,355	0,057	0,080
-475,532	345,390	-0,073	-0,105
-474,518	-200,000	0,044	0,000
-473,503	65,529	0,038	0,028
-472,489	-38,489	-0,056	-0,021
-471,474	-5,279	0,086	0,043
-470,459	132,919	-0,058	0,054
-469,445	800,000	0,068	-0,197
-468,430	520,997	-0,018	-0,030
-467,416	34,835	-0,062	0,040
-466,401	91,769	-0,106	0,087
-465,386	394,889	0,075	0,115
-464,372	147,043	-0,019	0,019
-463,357	185,278	-0,103	0,112
-462,343	800,000	-0,003	0,006
-461,328	32,456	-0,037	0,023
-460,313	37,666	0,027	0,017
-459,299	-200,000	0,054	0,187
-458,284	-200,000	-0,002	0,108
-457,270	346,686	-0,028	-0,040
-456,255	-3,458	-0,042	0,021
-455,241	-146,895	0,038	0,002
-454,226	487,642	-0,063	0,105
-453,211	114,056	0,091	-0,081
-452,197	-200,000	0,170	-0,000
-451,182	-200,000	-0,028	0,146
-450,168	177,214	0,059	-0,063
-449,153	-142,719	-0,072	-0,005
-448,138	299,703	-0,024	0,032
-447,124	310,609	0,064	-0,087
-446,109	-103,756	-0,066	0,011
-445,095	330,447	0,076	0,107
-444,080	-151,376	0,092	-0,005
-443,065	-19,363	0,053	0,024
-442,051	-114,822	-0,061	-0,008
-441,036	-10,808	-0,085	-0,041
-440,022	-200,000	0,002	0,043
-439,007	54,473	-0,039	0,027
-437,992	800,000	-0,013	0,026
-436,978	-200,000	-0,007	0,068
-435,963	7,426	-0,086	0,046
-434,949	-200,000	0,003	0,083
-433,934	800,000	-0,033	0,091
-432,919	-200,000	-0,005	0,021
-431,905	-200,000	-0,014	-0,050
-430,890	10,653	0,131	-0,072
-429,876	101,816	0,045	0,038
-428,861	210,203	-0,044	-0,051
-427,846	-200,000	0,006	-0,070
-426,832	-99,812	-0,071	-0,013
-425,817	-38,696	-0,089	-0,034
-424,803	-61,858	-0,097	-0,029
-423,788	800,000	0,041	-0,102
-422,773	-200,000	0,009	0,175
-421,759	130,336	-0,032	0,030
-420,744	257,971	0,022	-0,028
-419,730	266,749	0,043	0,054
-418,715	-200,000	-0,009	-0,094
-417,701	-79,427	-0,078	0,019
-416,686	800,000	-0,012	0,024
-415,671	-181,187	0,066	-0,001
-414,657	-200,000	0,008	0,026
-413,642	800,000	0,007	-0,015
-412,628	495,073	-0,087	-0,145
-411,613	-65,420	0,013	0,004
-410,598	-200,000	-0,006	0,077
-409,584	-57,504	0,059	0,019
-408,569	151,167	0,030	0,030
-407,555	800,000	-0,103	0,230
-406,540	49,918	-0,068	-0,046
-405,525	113,184	-0,025	-0,022
-404,511	582,495	-0,066	-0,118
-403,496	-200,000	-0,012	0,045
-402,482	184,251	-0,096	0,103
-401,467	-136,271	0,118	0,010
-400,452	800,000	0,016	-0,042
-399,438	49,376	-0,018	-0,012
-398,423	-200,000	0,010	-0,145
-397,409	800,000	-0,048	-0,101
-396,394	619,412	0,043	-0,079
-395,379	185,497	-0,046	0,050
-394,365	-200,000	0,038	-0,159
-393,350	800,000	-0,075	0,190
-392,336	-14,650	0,094	-0,044
-391,321	-92,488	0,127	-0,026
-390,306	-200,000	-0,015	0,066
-389,292	800,000	0,008	0,024
-388,277	-146,832	0,078	-0,005
-387,263	242,120	-0,064	0,078
-386,248	324,851	0,027	-0,037
-385,233	-97,575	0,062	-0,012
-384,219	-77,916	0,033	0,008
-383,204	45,428	0,054	-0,036
-382,190	800,000	-0,040	-0,088
-381,175	-101,561	0,103	-0,018
-380,160	143,279	-0,134	0,130
-379,146	141,349	0,130	0,125
-378,131	439,977	-0,074	0,118
-377,117	800,000	-0,025	0,072
-376,102	-200,000	-0,010	-0,051
-375,088	-153,268	-0,103	0,005
-374,073	800,000	-0,043	-0,094
-373,058	266,064	-0,024	-0,030
-372,044	739,862	0,019	0,036
-371,029	359,686	0,028	-0,041
-370,015	-200,000	-0,008	0,192
-369,000	206,232	-0,044	0,050
-367,985	386,223	0,052	0,079
-366,971	-2,389	0,047	-0,024
-365,956	800,000	-0,048	0,112
-364,942	-200,000	0,006	0,159
-363,927	-15,469	0,102	0,047
-362,912	621,258	0,061	0,112
-361,898	-200,000	-0,023	-0,097
-360,883	50,169	0,044	0,030
-359,869	-200,000	-0,037	0,135
-358,854	176,275	0,046	-0,049
-357,839	-200,000	0,011	0,136
-356,825	-166,138	0,073	0,002
-355,810	-71,415	0,124	0,033
-354,796	800,000	0,010	0,023
-353,781	113,671	0,035	0,031
-352,766	97,860	0,037	-0,031
-351,752	18,727	0,026	-0,015
-350,737	-71,640	-0,103	0,028
-349,723	-0,297	0,041	0,021
-348,708	44,342	-0,090	-0,060
-347,693	-200,000	-0,017	-0,090
-346,679	-200,000	-0,027	0,095
-345,664	38,413	0,071	-0,046
-344,650	-200,000	0,011	-0,103
-343,635	-200,000	-0,013	0,089
-342,620	800,000	-0,022	-0,061
-341,606	266,470	0,070	-0,089
-340,591	-200,000	0,008	-0,088
-339,577	-200,000	-0,025	-0,216
-338,562	-200,000	-0,035	0,114
-337,548	-200,000	0,001	-0,021
-336,533	-200,000	0,021	0,086
-335,518	-200,000	-0,008	-0,035
-334,504	800,000	0,028	0,081
-333,489	-103,120	0,136	0,023
-332,475	800,000	-0,024	-0,052
-331,460	800,000	0,047	-0,120
-330,445	-6,317	0,163	-0,080
-329,431	-200,000	-0,073	0,242
-328,416	-161,866	-0,115	0,004
-327,402	287,361	0,053	0,070
-326,387	253,288	0,093	0,115
-325,372	254,847	-0,036	0,045
-324,358	186,930	0,035	-0,038
-323,343	275,458	-0,057	0,073
-322,329	341,361	0,028	-0,040
-321,314	-16,512	0,054	0,025
-320,299	-6,220	0,070	0,034
-319,285	-20,668	-0,085	-0,037
-318,270	258,422	0,035	0,044
-317,256	445,192	0,043	-0,069
-316,241	-110,012	-0,041	-0,006
-315,226	-200,000	-0,020	0,078
-314,212	-200,000	0,014	-0,141
-313,197	-32,191	0,205	0,083
-312,183	-144,579	0,120	0,008
-311,168	800,000	0,011	0,029
-310,153	32,900	-0,188	-0,118
-309,139	-24,435	-0,062	-0,027
-308,124	-141,358	0,016	0,001
-307,110	507,029	0,018	0,030
-306,095	143,737	-0,066	-0,064
-305,080	-115,602	-0,098	-0,013
-304,066	800,000	-0,040	-0,091
-303,051	-200,000	0,014	0,107
-302,037	172,825	0,093	-0,097
-301,022	-40,278	0,090	-0,034
-300,008	33,117	0,048	0,030
-298,993	-200,000	-0,002	-0,099
-297,978	376,302	-0,023	-0,033
-296,964	50,897	-0,091	-0,062
-295,949	800,000	-0,058	-0,167
-294,935	-200,000	-0,003	-0,134
-293,920	78,889	0,040	-0,031
-292,905	-79,391	0,081	-0,020
-291,891	-200,000	0,029	0,138
-290,876	-97,346	-0,082	0,015
-289,862	-192,823	-0,128	-0,001
-288,847	476,107	0,028	-0,045
-287,832	61,596	-0,103	0,074
-286,818	-17,564	0,028	-0,013
-285,803	6,990	0,166	0,089
-284,789	800,000	0,019	0,060
-283,774	-200,000	-0,015	-0,064
-282,759	97,258	-0,050	-0,042
-281,745	-79,265	0,079	-0,019
-280,730	290,762	-0,046	-0,060
-279,716	-117,405	-0,119	0,015
-278,701	376,769	0,058	0,086
-277,686	161,561	-0,115	0,116
-276,672	206,504	0,097	0,110
-275,657	58,302	-0,113	0,080
-274,643	800,000	0,067	-0,175
-273,628	447,585	-0,047	0,076
-272,613	-153,975	-0,072	0,004
-271,599	-142,652	0,064	-0,004
-270,584	800,000	-0,006	-0,019
-269,570	-55,646	-0,059	-0,019
-268,555	184,102	0,064	0,068
-267,540	17,034	0,048	0,028
-266,526	-82,542	-0,034	0,008
-265,511	-112,357	0,057	-0,008
-264,497	-200,000	-0,010	0,051
-263,482	164,463	-0,090	0,091
-262,467	1,964	0,034	0,018
-261,453	-176,513	0,075	-0,001
-260,438	-200,000	0,028	-0,141
-259,424	449,996	0,077	-0,123
-258,409	-200,000	-0,014	-0,049
-257,395	800,000	-0,073	0,195
-256,380	456,706	0,064	-0,103
-255,365	-42,095	0,042	0,015
-254,351	126,029	0,095	-0,086
-253,336	-111,985	-0,152	0,022
-252,322	-67,277	-0,051	-0,014
-251,307	3,205	-0,084	-0,044
-250,292	-40,227	0,068	0,025
-249,278	-45,583	0,058	0,021
-248,263	3,313	0,077	0,040
-247,249	-38,954	0,041	-0,016
-246,234	-165,101	-0,135	0,004
-245,219	242,443	0,068	0,083
-244,205	800,000	0,058	0,127
-243,190	48,570	0,034	-0,023
-242,176	-42,257	0,174	0,064
-241,161	56,255	0,145	0,101
-240,146	708,389	0,065	-0,125
-239,132	-3,670	0,070	-0,035
-238,117	-200,000	-0,023	-0,092
-237,103	-53,610	-0,073	0,024
-236,088	283,344	0,023	0,030
-235,073	800,000	-0,036	0,086
-234,059	-200,000	-0,005	0,149
-233,044	800,000	0,016	-0,049
-232,030	-76,611	-0,110	-0,028
-231,015	12,300	-0,090	0,050
-230,000	3,075	0,063	-0,033
-228,986	99,627	0,052	0,043
-227,971	-11,010	-0,139	-0,066
-226,957	35,168	0,096	0,061
-225,942	-99,153	-0,081	-0,015
-224,927	800,000	-0,027	0,077
-223,913	706,252	-0,075	-0,143
-222,898	10,105	0,045	0,024
-221,884	-180,044	0,084	-0,001
-220,869	-97,041	0,139	0,026
-219,855	-114,948	-0,065	0,009
-218,840	26,475	0,071	-0,043
-217,825	800,000	0,018	-0,047
-216,811	800,000	-0,027	0,056
-215,796	-200,000	0,018	-0,144
-214,782	712,141	-0,064	-0,124
-213,767	104,478	0,114	0,097
-212,752	82,915	0,124	0,097
-211,738	-200,000	-0,015	0,103
-210,723	7,423	0,066	-0,036
-209,709	-200,000	-0,010	0,085
-208,694	-154,878	-0,073	0,003
-207,679	10,328	-0,052	0,028
-206,665	70,899	0,109	0,081
-205,650	30,888	-0,079	0,049
-204,636	176,168	0,070	0,074
-203,621	800,000	0,024	0,061
-202,606	-200,000	-0,003	-0,014
-201,592	800,000	-0,032	-0,084
-200,577	-179,158	0,044	0,001
-199,563	14,295	0,161	-0,090
-198,548	-4,604	-0,080	-0,040
-197,533	510,784	-0,024	-0,041
-196,519	-99,302	0,066	-0,012
-195,504	800,000	0,019	-0,047
-194,490	21,616	-0,169	0,099
-193,475	-200,000	-0,003	0,034
-192,460	576,791	0,026	0,047
-191,446	-147,771	0,017	-0,001
-190,431	91,290	0,081	0,066
-189,417	-200,000	-0,011	0,042
-188,402	-8,489	0,069	0,033
-187,387	-200,000	0,002	-0,155
-186,373	-200,000	-0,035	-0,116
-185,358	132,056	-0,071	-0,066
-184,344	389,887	0,043	0,065
-183,329	704,920	0,033	0,062
-182,315	191,718	0,076	0,083
-181,300	800,000	-0,020	0,061
-180,285	-156,582	-0,104	0,005
-179,271	49,307	-0,113	-0,076
-178,256	-200,000	-0,003	-0,138
-177,242	-200,000	-0,030	-0,128
-176,227	800,000	0,029	-0,068
-175,212	800,000	-0,023	0,062
-174,198	-200,000	-0,042	-0,140
-173,183	-150,834	-0,082	-0,004
-172,169	-200,000	-0,007	-0,127
-171,154	-172,237	-0,040	0,001
-170,139	240,703	-0,044	-0,053
-169,125	33,786	0,045	0,028
-168,110	209,475	0,074	-0,084
-167,096	63,299	0,113	0,081
-166,081	-200,000	0,005	0,043
-165,066	-117,977	-0,105	0,013
-164,052	-44,542	-0,141	-0,050
-163,037	25,161	0,117	0,070
-162,023	-41,305	0,084	0,031
-161,008	-54,764	0,109	-0,035
-159,993	69,141	-0,048	0,036
-158,979	60,476	0,110	0,078
-157,964	265,385	-0,038	0,048
-156,950	-74,844	0,093	-0,024
-155,935	-186,541	-0,082	-0,001
-154,920	-200,000	-0,023	0,086
-153,906	-59,643	0,202	-0,062
-152,891	373,979	-0,082	0,121
-151,877	-200,000	-0,006	0,202
-150,862	260,201	-0,069	-0,086
-149,847	-2,987	-0,097	-0,048
-148,833	374,746	-0,043	-0,063
-147,818	-63,450	0,013	-0,004
-146,804	-8,655	0,049	-0,024
-145,789	68,511	0,119	-0,088
-144,775	-200,000	0,018	0,072
-143,760	-200,000	0,011	-0,048
-142,745	-126,661	-0,093	0,010
-141,731	125,089	0,083	0,075
-140,716	800,000	-0,028	-0,075
-139,702	-175,250	0,064	-0,001
-138,687	20,734	0,069	-0,040
-137,672	-114,103	-0,029	0,004
-136,658	-181,045	-0,158	-0,002
-135,643	585,800	0,050	-0,089
-134,629	215,858	0,072	0,082
-133,614	-87,340	-0,036	-0,008
-132,599	-200,000	-0,006	-0,042
-131,585	50,848	0,081	0,055
-130,570	14,534	-0,060	0,033
-129,556	1,997	0,056	-0,029
-128,541	-94,084	-0,041	-0,008
-127,526	800,000	-0,018	0,049
-126,512	-142,437	-0,153	0,011
-125,497	253,330	-0,143	0,175
-124,483	302,203	-0,098	0,131
-123,468	670,315	0,092	-0,173
-122,453	-103,353	-0,045	-0,008
-121,439	-68,577	-0,069	0,019
-120,424	-132,547	-0,080	-0,007
-119,410	-100,358	0,112	0,020
-118,395	542,725	0,023	0,039
