DTS Sentinel unit serial number:	SN410029Multiplexer serial number:	ORYXHardware model number:	OX2-SRSoftware version number:	ORYX F/W v4,00 Oryx Data Collector v3.7.2.0data status	okinstallation	B5 Nyhavnadifferential loss correction	single-endedforward channel	channel 2reverse channel	N/Adate	2023/12/12time	14:57:13forward acquisition time	300,00reverse acquisition time	0,00gamma	499,1914k internal	0,3157k external	0,3157temperature offset calibration	1,0000default loss term (dB/km)	0,3820temperature slope calibration	1,0000multiplexer offset coefficient	1,0000multiplexer slope coefficient	1,0000fibre end	0,00T internal ref (°C)	15,91T ext. ref 1 (°C)	-0,38T ext. ref 2 (°C)	-0,62length (m)	temperature (°C)	Stokes	anti-Stokes-744,400	-56,186	0,091	-0,030
-743,385	-59,165	-0,320	0,101
-742,371	-19,024	0,125	0,057
-741,356	19,580	-0,192	0,113
-740,342	-200,000	-0,023	0,095
-739,327	-138,936	-0,254	0,020
-738,312	-16,665	0,083	0,038
-737,298	-107,134	-0,384	0,062
-736,283	45,509	-0,092	0,062
-735,269	-189,099	-0,255	-0,002
-734,254	-91,475	0,054	-0,011
-733,239	-109,073	-0,421	-0,065
-732,225	25,203	0,214	0,130
-731,210	-50,986	0,077	0,027
-730,196	256,764	-0,110	-0,139
-729,181	-2,676	-0,045	-0,023
-728,167	-200,000	-0,012	-0,050
-727,152	-200,000	0,007	0,024
-726,137	-200,000	0,018	-0,078
-725,123	209,012	-0,148	-0,171
-724,108	-200,000	-0,015	-0,122
-723,094	-200,000	-0,009	-0,046
-722,079	64,555	-0,050	-0,037
-721,064	-10,596	-0,017	-0,008
-720,050	800,000	-0,027	-0,066
-719,035	-200,000	0,023	-0,121
-718,021	800,000	-0,106	-0,234
-717,006	44,412	-0,056	0,038
-715,991	498,995	-0,123	-0,209
-714,977	800,000	-0,058	-0,146
-713,962	320,136	-0,071	-0,099
-712,948	-95,732	0,168	-0,033
-711,933	-200,000	-0,022	0,102
-710,918	110,843	0,056	0,049
-709,904	-200,000	-0,003	-0,040
-708,889	529,020	-0,051	-0,089
-707,875	800,000	0,044	-0,110
-706,860	-200,000	-0,021	-0,070
-705,845	-200,000	-0,033	-0,134
-704,831	800,000	0,016	0,037
-703,816	-117,131	0,149	-0,020
-702,802	-164,053	-0,096	0,003
-701,787	8,200	-0,148	-0,081
-700,772	250,521	-0,050	-0,062
-699,758	579,332	0,040	-0,073
-698,743	-49,610	0,148	0,051
-697,729	171,333	0,093	0,098
-696,714	-200,000	0,007	0,154
-695,699	-200,000	-0,021	-0,081
-694,685	220,652	-0,023	-0,028
-693,670	50,903	0,083	-0,058
-692,656	191,868	0,102	-0,114
-691,641	164,056	-0,031	-0,032
-690,627	800,000	0,025	0,071
-689,612	116,086	0,074	0,067
-688,597	49,775	-0,022	0,015
-687,583	43,339	0,021	0,014
-686,568	75,402	-0,141	-0,110
-685,554	-200,000	-0,000	0,060
-684,539	-14,896	0,074	0,035
-683,524	69,594	-0,091	-0,069
-682,510	-200,000	0,018	0,178
-681,495	800,000	0,022	0,055
-680,481	-200,000	0,011	-0,051
-679,466	-119,337	-0,135	0,017
-678,451	-185,975	-0,089	0,001
-677,437	386,860	-0,039	-0,060
-676,422	80,564	0,075	0,059
-675,408	83,432	-0,063	0,051
-674,393	269,485	0,048	0,062
-673,378	526,685	0,037	-0,064
-672,364	154,708	-0,048	0,048
-671,349	-200,000	-0,022	-0,109
-670,335	-105,983	0,141	0,023
-669,320	136,270	0,086	-0,082
-668,305	-25,299	-0,098	0,043
-667,291	284,726	-0,071	0,095
-666,276	-12,827	-0,093	0,044
-665,262	14,171	-0,090	0,051
-664,247	-200,000	0,008	0,031
-663,232	475,190	-0,036	0,060
-662,218	-200,000	-0,005	0,062
-661,203	-131,102	0,067	-0,006
-660,189	800,000	0,063	0,175
-659,174	800,000	0,030	-0,077
-658,159	337,489	-0,033	-0,047
-657,145	-30,509	0,107	-0,045
-656,130	-48,866	-0,007	0,003
-655,116	-31,835	0,147	-0,060
-654,101	799,273	0,044	0,090
-653,086	-200,000	0,028	0,179
-652,072	319,049	0,063	0,088
-651,057	-36,898	-0,086	-0,034
-650,043	-200,000	-0,023	-0,121
-649,028	216,259	-0,083	-0,097
-648,014	144,532	0,044	0,044
-646,999	714,474	0,088	0,172
-645,984	800,000	-0,049	-0,110
-644,970	-48,503	0,084	0,030
-643,955	-48,129	-0,149	-0,053
-642,941	800,000	-0,047	0,097
-641,926	-141,554	-0,023	0,002
-640,911	-140,642	-0,091	0,007
-639,897	-19,161	-0,097	0,044
-638,882	-1,821	0,033	-0,017
-637,868	-37,297	-0,066	0,026
-636,853	166,341	0,029	0,030
-635,838	-200,000	-0,005	0,019
-634,824	-200,000	-0,015	0,094
-633,809	71,599	0,066	0,050
-632,795	-200,000	0,026	0,131
-631,780	653,742	-0,071	0,134
-630,765	19,822	0,124	-0,073
-629,751	453,345	0,048	0,078
-628,736	28,710	0,104	0,065
-627,722	-200,000	0,004	-0,025
-626,707	69,562	0,024	0,018
-625,692	-109,028	-0,072	0,011
-624,678	366,767	-0,058	-0,085
-623,663	-200,000	0,029	-0,119
-622,649	-136,824	-0,077	0,006
-621,634	-200,000	-0,018	-0,138
-620,619	-200,000	0,044	-0,167
-619,605	-27,115	0,074	-0,031
-618,590	43,593	0,144	-0,097
-617,576	800,000	-0,037	-0,081
-616,561	-200,000	0,023	-0,103
-615,546	61,192	-0,015	-0,011
-614,532	756,978	0,038	-0,075
-613,517	188,987	0,031	-0,034
-612,503	83,104	-0,108	0,086
-611,488	241,360	0,066	0,081
-610,474	-6,559	0,043	0,022
-609,459	-76,712	0,082	-0,021
-608,444	-192,058	-0,027	-0,000
-607,430	-200,000	0,004	-0,016
-606,415	-9,625	-0,078	-0,038
-605,401	-200,000	-0,002	-0,121
-604,386	123,233	0,059	0,054
-603,371	-46,597	0,043	0,015
-602,357	-40,420	-0,141	0,054
-601,342	-200,000	-0,006	-0,039
-600,328	94,838	0,081	0,067
-599,313	56,891	-0,118	0,084
-598,298	-127,360	-0,075	-0,008
-597,284	-20,639	0,154	0,069
-596,269	-54,210	0,081	-0,027
-595,255	185,792	-0,121	0,132
-594,240	-11,355	-0,222	-0,107
-593,225	-200,000	0,006	-0,038
-592,211	11,240	0,084	-0,047
-591,196	541,937	-0,079	0,138
-590,182	-200,000	0,018	0,080
-589,167	106,400	-0,003	0,003
-588,152	-200,000	-0,011	-0,098
-587,138	-200,000	0,001	-0,019
-586,123	-7,342	0,016	0,008
-585,109	112,777	0,050	0,045
-584,094	-200,000	0,017	0,101
-583,079	-200,000	0,002	-0,034
-582,065	-200,000	-0,000	-0,108
-581,050	786,253	0,056	0,113
-580,036	-142,943	0,087	0,006
-579,021	220,650	-0,055	0,065
-578,006	110,404	-0,083	-0,073
-576,992	-200,000	0,004	-0,060
-575,977	-200,000	-0,004	0,040
-574,963	-7,972	0,126	0,062
-573,948	-129,736	-0,041	-0,004
-572,934	146,501	-0,021	0,021
-571,919	432,896	-0,081	-0,128
-570,904	-187,811	-0,159	0,001
-569,890	-200,000	-0,005	0,106
-568,875	-61,239	0,024	0,007
-567,861	73,125	0,080	0,061
-566,846	123,418	-0,027	0,024
-565,831	747,198	-0,025	-0,050
-564,817	-200,000	-0,019	0,090
-563,802	-110,781	0,058	0,009
-562,788	800,000	0,049	-0,132
-561,773	140,794	-0,016	0,015
-560,758	-85,418	0,086	-0,019
-559,744	-24,851	0,062	-0,027
-558,729	-77,217	-0,074	0,019
-557,715	-121,207	-0,161	0,019
-556,700	624,756	0,041	0,076
-555,685	-166,930	0,100	0,003
-554,671	-200,000	-0,007	-0,087
-553,656	100,854	0,110	0,094
-552,642	-200,000	0,001	-0,105
-551,627	248,418	0,045	-0,055
-550,612	800,000	-0,042	0,119
-549,598	-23,073	0,056	-0,024
-548,583	800,000	-0,034	0,075
-547,569	-43,457	-0,139	0,051
-546,554	-131,835	0,155	0,015
-545,539	-57,564	-0,042	-0,013
-544,525	-57,573	-0,046	0,015
-543,510	-200,000	0,023	-0,079
-542,496	-4,244	-0,008	-0,004
-541,481	800,000	-0,024	-0,052
-540,466	98,368	-0,110	-0,093
-539,452	3,781	0,234	0,125
-538,437	800,000	-0,051	0,131
-537,423	-163,493	-0,050	-0,002
-536,408	411,534	-0,046	0,071
-535,393	800,000	0,030	0,065
-534,379	-200,000	-0,043	-0,166
-533,364	-200,000	-0,008	-0,115
-532,350	-200,000	0,016	0,054
-531,335	-73,712	0,141	0,037
-530,321	-200,000	0,021	0,127
-529,306	-108,948	0,113	0,017
-528,291	-76,894	0,077	-0,020
-527,277	-200,000	-0,000	-0,066
-526,262	200,159	0,061	0,069
-525,248	143,278	0,135	0,131
-524,233	18,655	0,034	0,020
-523,218	36,249	0,132	0,085
-522,204	-133,122	-0,039	-0,004
-521,189	-200,000	0,004	0,017
-520,175	-147,968	0,011	-0,001
-519,160	83,454	-0,072	-0,057
-518,145	541,836	-0,034	-0,060
-517,131	-200,000	0,000	-0,027
-516,116	-200,000	-0,022	0,079
-515,102	-114,029	-0,128	0,018
-514,087	188,307	0,028	0,031
-513,072	-10,315	-0,106	0,051
-512,058	-152,031	-0,066	0,003
-511,043	-200,000	-0,006	0,044
-510,029	-200,000	0,046	0,000
-509,014	214,890	-0,028	-0,032
-507,999	-200,000	0,012	0,046
-506,985	-105,105	-0,109	-0,018
-505,970	800,000	-0,030	-0,077
-504,956	-163,298	0,037	-0,001
-503,941	-19,618	-0,109	-0,049
-502,926	-195,504	0,109	0,001
-501,912	339,246	-0,029	0,041
-500,897	615,492	-0,095	-0,174
-499,883	557,675	-0,093	-0,164
-498,868	-200,000	-0,010	-0,078
-497,853	800,000	-0,055	0,148
-496,839	271,297	0,021	0,027
-495,824	800,000	-0,046	0,099
-494,810	735,865	-0,007	-0,013
-493,795	56,436	0,023	0,016
-492,781	-117,121	-0,071	0,009
-491,766	-109,565	-0,083	0,013
-490,751	-200,000	0,019	-0,117
-489,737	27,674	-0,070	0,043
-488,722	31,018	0,104	0,065
-487,708	127,662	-0,067	0,063
-486,693	-200,000	0,013	0,061
-485,678	41,866	-0,075	-0,049
-484,664	241,323	-0,026	-0,032
-483,649	20,059	0,061	0,036
-482,635	45,560	0,082	0,055
-481,620	4,717	0,162	-0,087
-480,605	-6,758	0,028	-0,014
-479,591	1,966	-0,068	-0,036
-478,576	800,000	0,042	0,093
-477,562	-200,000	0,005	-0,033
-476,547	800,000	0,067	-0,141
-475,532	-60,832	0,102	0,031
-474,518	800,000	0,047	-0,105
-473,503	222,087	0,112	-0,132
-472,489	-200,000	0,013	0,134
-471,474	302,515	0,055	-0,074
-470,459	94,908	-0,103	-0,085
-469,445	-200,000	-0,008	-0,089
-468,430	-200,000	0,001	-0,104
-467,416	272,108	-0,088	0,113
-466,401	417,058	-0,083	0,130
-465,386	16,428	0,112	-0,064
-464,372	60,277	0,060	0,043
-463,357	-132,363	-0,097	-0,009
-462,343	800,000	-0,039	-0,091
-461,328	-200,000	-0,006	0,052
-460,313	800,000	-0,037	0,115
-459,299	276,555	0,037	-0,047
-458,284	78,319	0,144	0,112
-457,270	800,000	0,012	-0,035
-456,255	-126,497	0,075	-0,008
-455,241	34,435	0,056	-0,036
-454,226	308,778	0,077	-0,105
-453,211	-86,621	-0,014	0,003
-452,197	28,120	0,064	-0,039
-451,182	2,691	0,148	0,078
-450,168	800,000	-0,024	-0,076
-449,153	101,805	-0,043	-0,037
-448,138	234,624	-0,070	-0,085
-447,124	83,109	-0,126	-0,100
-446,109	82,220	-0,058	-0,046
-445,095	800,000	-0,028	0,058
-444,080	86,461	0,013	0,011
-443,065	-23,012	-0,064	0,028
-442,051	800,000	0,053	-0,116
-441,036	-104,658	-0,163	0,027
-440,022	800,000	0,012	0,027
-439,007	-87,250	-0,116	0,026
-437,992	-200,000	0,044	-0,157
-436,978	800,000	0,043	0,128
-435,963	-135,809	-0,039	-0,003
-434,949	-78,075	-0,154	-0,038
-433,934	247,090	0,124	-0,153
-432,919	750,578	-0,055	-0,108
-431,905	-62,822	-0,110	0,033
-430,890	800,000	-0,020	0,049
-429,876	421,549	-0,085	0,133
-428,861	-200,000	0,007	-0,123
-427,846	38,313	-0,121	0,078
-426,832	452,043	-0,051	-0,083
-425,817	-23,360	0,092	-0,040
-424,803	-31,863	0,084	0,034
-423,788	-200,000	0,089	0,000
-422,773	44,262	0,056	0,038
-421,759	-200,000	-0,014	0,106
-420,744	154,441	-0,083	-0,083
-419,730	-36,606	-0,049	0,019
-418,715	-200,000	-0,008	-0,129
-417,701	800,000	0,041	-0,094
-416,686	52,164	-0,042	-0,029
-415,671	120,175	-0,136	0,123
-414,657	710,913	0,059	-0,114
-413,642	-200,000	-0,015	0,105
-412,628	-4,701	-0,055	-0,028
-411,613	8,090	-0,020	-0,011
-410,598	346,132	-0,043	-0,062
-409,584	508,617	0,030	-0,051
-408,569	10,436	0,047	-0,026
-407,555	-200,000	-0,014	0,093
-406,540	-20,994	0,179	-0,079
-405,525	-49,229	-0,082	-0,028
-404,511	-95,996	-0,110	0,021
-403,496	800,000	-0,044	0,096
-402,482	167,003	0,082	0,085
-401,467	-57,027	0,113	-0,036
-400,452	0,163	0,076	0,039
-399,438	-120,993	0,075	-0,009
-398,423	-200,000	-0,027	-0,092
-397,409	-200,000	-0,008	-0,060
-396,394	-15,796	0,025	0,012
-395,379	-121,750	0,148	0,018
-394,365	-200,000	0,002	0,122
-393,350	-200,000	-0,034	-0,115
-392,336	-119,253	-0,085	-0,011
-391,321	-58,160	0,104	-0,033
-390,306	-200,000	-0,001	-0,077
-389,292	53,015	-0,088	-0,061
-388,277	183,330	0,056	0,061
-387,263	66,948	-0,089	-0,066
-386,248	-128,175	0,084	0,009
-385,233	800,000	0,055	-0,140
-384,219	-200,000	-0,022	-0,073
-383,204	-62,871	-0,025	-0,007
-382,190	-200,000	0,007	-0,130
-381,175	497,751	0,034	-0,056
-380,160	435,985	0,035	-0,055
-379,146	314,555	0,036	-0,050
-378,131	-82,862	-0,095	-0,022
-377,117	800,000	-0,029	-0,084
-376,102	248,453	-0,077	0,094
-375,088	-200,000	0,018	0,137
-374,073	182,334	-0,048	-0,052
-373,058	-7,782	-0,087	-0,043
-372,044	272,532	0,098	-0,125
-371,029	-200,000	-0,000	-0,073
-370,015	-200,000	0,025	0,116
-369,000	257,060	-0,042	0,053
-367,985	460,679	0,071	0,116
-366,971	800,000	0,018	0,038
-365,956	-200,000	-0,034	0,125
-364,942	-29,474	0,100	-0,042
-363,927	-47,303	0,113	0,040
-362,912	-7,365	-0,025	-0,012
-361,898	-200,000	0,026	-0,112
-360,883	715,459	-0,063	0,123
-359,869	459,340	-0,056	0,091
-358,854	-100,321	-0,029	-0,005
-357,839	-13,223	0,109	0,051
-356,825	-200,000	0,022	0,073
-355,810	278,571	-0,035	-0,045
-354,796	-27,854	-0,182	-0,076
-353,781	-200,000	-0,018	-0,191
-352,766	800,000	0,021	-0,057
-351,752	3,215	0,019	-0,010
-350,737	-200,000	-0,004	0,016
-349,723	62,054	-0,007	0,005
-348,708	8,795	-0,083	-0,045
-347,693	375,726	-0,003	0,005
-346,679	64,535	-0,104	-0,076
-345,664	-19,822	-0,062	0,028
-344,650	-34,037	-0,018	-0,007
-343,635	-68,446	-0,037	0,010
-342,620	204,639	0,117	0,132
-341,606	522,351	-0,064	0,109
-340,591	800,000	-0,056	0,126
-339,577	618,878	-0,069	-0,126
-338,562	-200,000	-0,020	-0,102
-337,548	-186,323	0,135	0,001
-336,533	-200,000	-0,011	-0,048
-335,518	318,418	-0,062	-0,086
-334,504	-5,012	0,018	-0,009
-333,489	800,000	-0,022	0,070
-332,475	159,084	-0,076	-0,077
-331,460	736,196	0,014	-0,028
-330,445	800,000	-0,036	-0,112
-329,431	7,487	0,156	0,084
-328,416	-200,000	0,001	-0,008
-327,402	-200,000	-0,024	-0,112
-326,387	-76,771	0,147	-0,037
-325,372	-200,000	-0,020	-0,105
-324,358	-200,000	-0,026	-0,137
-323,343	-93,334	-0,114	-0,023
-322,329	-200,000	0,022	0,075
-321,314	-200,000	-0,002	0,024
-320,299	261,262	0,115	0,145
-319,285	-99,106	-0,072	0,013
-318,270	52,199	-0,141	-0,097
-317,256	307,699	-0,040	-0,055
-316,241	-91,466	-0,040	-0,008
-315,226	61,744	-0,153	0,110
-314,212	569,514	0,089	0,157
-313,197	-200,000	-0,002	0,121
-312,183	166,700	-0,029	-0,030
-311,168	-183,271	0,120	0,001
-310,153	6,059	0,037	-0,020
-309,139	800,000	-0,057	0,147
-308,124	-24,183	0,060	-0,026
-307,110	-63,624	0,129	0,038
-306,095	-51,984	0,044	-0,015
-305,080	-63,602	0,069	0,020
-304,066	-2,134	-0,092	-0,047
-303,051	72,217	0,053	0,040
-302,037	21,359	-0,025	0,015
-301,022	-137,149	-0,111	0,009
-300,008	565,901	-0,070	0,124
-298,993	62,497	0,113	0,081
-297,978	-81,210	0,095	0,023
-296,964	215,037	-0,061	-0,070
-295,949	65,690	-0,056	0,041
-294,935	800,000	0,013	0,033
-293,920	56,078	0,020	-0,014
-292,905	800,000	-0,024	0,056
-291,891	-55,687	0,116	-0,037
-290,876	-200,000	0,016	-0,066
-289,862	-41,450	0,069	-0,026
-288,847	74,852	-0,083	-0,064
-287,832	70,536	-0,029	0,022
-286,818	81,940	0,046	-0,036
-285,803	-200,000	-0,025	0,096
-284,789	800,000	0,039	-0,084
-283,774	35,555	-0,084	-0,054
-282,759	319,953	0,114	0,157
-281,745	232,946	-0,112	0,134
-280,730	85,191	0,112	-0,089
-279,716	-123,586	-0,173	-0,020
-278,701	800,000	0,031	0,082
-277,686	38,422	-0,016	0,010
-276,672	-24,919	-0,020	-0,009
-275,657	55,273	-0,041	0,029
-274,643	-125,138	0,075	-0,008
-273,628	-200,000	-0,008	-0,138
-272,613	128,763	0,113	-0,104
-271,599	256,449	0,137	0,170
-270,584	29,259	0,064	0,039
-269,570	-66,926	0,125	0,036
-268,555	572,059	0,002	0,004
-267,540	51,716	0,046	-0,032
-266,526	365,563	-0,096	0,140
-265,511	-200,000	0,013	0,042
-264,497	177,776	-0,025	0,026
-263,482	-38,573	0,067	-0,026
-262,467	625,806	0,063	0,115
-261,453	800,000	-0,042	0,105
-260,438	198,750	-0,068	0,075
-259,424	41,031	-0,117	-0,076
-258,409	70,904	-0,057	-0,042
-257,395	44,593	0,019	0,013
-256,380	135,094	0,143	0,134
-255,365	800,000	-0,012	0,037
-254,351	98,493	0,091	0,076
-253,336	-190,473	-0,109	-0,001
-252,322	104,666	-0,103	0,088
-251,307	118,909	0,059	-0,052
-250,292	221,871	0,060	0,070
-249,278	800,000	-0,057	0,164
-248,263	326,675	0,036	-0,050
-247,249	-16,420	0,096	0,044
-246,234	-187,771	-0,138	0,001
-245,219	-28,591	-0,121	-0,050
-244,205	800,000	-0,082	-0,178
-243,190	-115,016	0,080	-0,011
-242,176	152,964	0,087	0,086
-241,161	21,974	0,035	0,021
-240,146	14,782	0,030	0,017
-239,132	-35,571	0,086	-0,033
-238,117	421,965	0,073	-0,114
-237,103	800,000	0,049	-0,116
-236,088	453,199	-0,037	-0,060
-235,073	-200,000	0,030	0,101
-234,059	152,866	-0,089	0,088
-233,044	-200,000	-0,015	0,071
-232,030	800,000	-0,045	-0,115
-231,015	21,818	0,072	-0,043
-230,000	61,987	0,070	0,050
-228,986	-200,000	0,007	0,038
-227,971	92,469	-0,074	0,060
-226,957	-73,843	0,070	-0,018
-225,942	316,817	-0,032	0,044
-224,927	-196,748	-0,110	-0,001
-223,913	-35,319	-0,128	-0,050
-222,898	800,000	0,038	-0,102
-221,884	-200,000	0,012	-0,107
-220,869	215,569	0,042	-0,048
-219,855	-103,903	0,106	0,018
-218,840	-13,664	0,180	0,084
-217,825	389,922	0,059	-0,089
-216,811	-200,000	0,002	-0,029
-215,796	209,933	-0,085	0,096
-214,782	-200,000	0,004	-0,069
-213,767	-145,091	0,060	-0,004
-212,752	-200,000	-0,001	-0,069
-211,738	-67,199	0,071	-0,020
-210,723	-116,353	0,079	0,011
-209,709	76,378	-0,118	0,090
-208,694	513,664	0,035	-0,059
-207,679	385,114	0,088	-0,132
-206,665	201,414	-0,089	0,099
-205,650	144,493	0,105	-0,101
-204,636	-46,319	0,058	0,020
-203,621	-200,000	0,002	0,014
-202,606	-144,549	-0,138	-0,009
-201,592	800,000	0,063	-0,155
-200,577	152,739	0,012	-0,012
-199,563	-129,539	0,053	-0,005
-198,548	800,000	-0,062	0,134
-197,533	56,529	0,072	0,050
-196,519	-5,615	-0,091	0,045
-195,504	795,506	0,058	-0,116
-194,490	-184,801	-0,041	0,000
-193,475	200,499	-0,057	-0,063
-192,460	770,469	-0,053	-0,104
-191,446	800,000	0,059	0,130
-190,431	-13,883	0,039	-0,018
-189,417	-129,769	-0,099	0,010
-188,402	-200,000	0,011	-0,050
-187,387	-150,249	0,156	-0,009
-186,373	-90,919	-0,024	0,005
-185,358	-200,000	-0,002	-0,084
-184,344	351,754	0,056	0,080
-183,329	-200,000	0,004	-0,085
-182,315	800,000	-0,047	0,134
-181,300	-19,889	-0,061	0,027
-180,285	174,374	-0,088	-0,092
-179,271	-127,389	-0,136	-0,014
-178,256	800,000	-0,065	0,140
-177,242	687,275	0,013	0,024
-176,227	169,829	-0,035	0,036
-175,212	278,320	0,037	-0,048
-174,198	113,156	0,029	0,026
-173,183	-6,677	-0,061	0,030
-172,169	800,000	-0,016	0,040
-171,154	176,304	0,142	-0,149
-170,139	5,309	-0,148	-0,078
-169,125	303,843	0,091	-0,122
-168,110	-200,000	-0,009	0,042
-167,096	77,839	0,047	-0,036
-166,081	32,023	-0,111	-0,069
-165,066	800,000	-0,029	-0,077
-164,052	11,995	-0,106	0,059
-163,037	-18,078	0,105	0,047
-162,023	800,000	-0,039	0,084
-161,008	177,448	0,073	0,077
-159,993	275,497	-0,075	0,097
-158,979	18,327	-0,086	0,049
-157,964	-64,466	0,072	0,021
-156,950	690,284	-0,081	0,153
-155,935	-26,536	0,044	-0,018
-154,920	-200,000	0,016	0,054
-153,906	497,149	-0,044	0,073
-152,891	-200,000	0,030	0,103
-151,877	251,894	-0,050	-0,061
-150,862	-200,000	-0,012	-0,048
-149,847	-130,948	0,127	-0,012
-148,833	23,774	0,075	0,044
-147,818	800,000	0,025	0,062
-146,804	640,363	0,057	-0,105
-145,789	-165,395	0,187	-0,006
-144,775	158,994	-0,075	-0,075
-143,760	-200,000	-0,005	0,022
-142,745	6,846	0,107	-0,057
-141,731	6,093	0,061	0,032
-140,716	-200,000	-0,036	0,157
-139,702	-66,382	0,185	0,053
-138,687	106,280	0,022	-0,019
-137,672	800,000	-0,025	-0,067
-136,658	174,850	0,052	-0,054
-135,643	409,184	-0,070	-0,107
-134,629	299,949	0,092	0,122
-133,614	483,099	0,043	0,070
-132,599	-79,024	-0,057	0,014
-131,585	-113,760	0,094	0,013
-130,570	332,995	0,024	-0,033
-129,556	172,413	0,046	-0,047
-128,541	93,263	0,057	0,047
-127,526	-176,817	0,044	0,001
-126,512	-39,971	-0,088	-0,033
-125,497	118,567	-0,055	-0,049
-124,483	-200,000	0,035	0,111
-123,468	-57,079	-0,050	-0,016
-122,453	94,116	-0,058	-0,047
-121,439	-200,000	-0,004	0,069
-120,424	-200,000	-0,022	0,088
-119,410	-80,641	0,112	-0,027
-118,395	6,592	-0,087	0,046
