DTS Sentinel unit serial number:	SN410029Multiplexer serial number:	ORYXHardware model number:	OX2-SRSoftware version number:	ORYX F/W v4,00 Oryx Data Collector v3.7.2.0data status	okinstallation	B5 Nyhavnadifferential loss correction	single-endedforward channel	channel 2reverse channel	N/Adate	2023/12/14time	07:02:13forward acquisition time	300,00reverse acquisition time	0,00gamma	499,1914k internal	0,3159k external	0,3159temperature offset calibration	1,0000default loss term (dB/km)	0,3820temperature slope calibration	1,0000multiplexer offset coefficient	1,0000multiplexer slope coefficient	1,0000fibre end	0,00T internal ref (°C)	7,28T ext. ref 1 (°C)	-9,15T ext. ref 2 (°C)	-9,25length (m)	temperature (°C)	Stokes	anti-Stokes-744,400	-95,776	0,144	-0,028
-743,385	-123,738	-0,335	-0,039
-742,371	-107,759	0,236	0,037
-741,356	-101,648	-0,354	-0,063
-740,342	318,034	0,140	0,196
-739,327	-76,001	-0,432	-0,112
-738,312	-101,534	0,148	0,026
-737,298	-134,412	-0,395	-0,035
-736,283	-60,033	0,168	-0,053
-735,269	-82,177	-0,431	0,103
-734,254	56,120	0,200	0,143
-733,239	-50,035	-0,517	-0,180
-732,225	96,522	0,252	0,213
-731,210	104,095	-0,031	0,027
-730,196	-143,860	-0,052	-0,004
-729,181	485,362	0,066	-0,111
-728,167	800,000	0,074	-0,171
-727,152	64,973	0,044	0,033
-726,137	4,046	-0,188	0,101
-725,123	-17,215	-0,086	-0,040
-724,108	800,000	0,037	-0,088
-723,094	-141,898	-0,232	-0,017
-722,079	-200,000	-0,012	-0,049
-721,064	800,000	-0,017	-0,041
-720,050	-200,000	-0,003	-0,086
-719,035	494,807	-0,056	-0,095
-718,021	-200,000	0,004	0,018
-717,006	198,840	0,035	-0,040
-715,991	83,490	-0,053	-0,042
-714,977	-117,989	-0,115	-0,015
-713,962	35,737	0,084	0,054
-712,948	800,000	-0,076	0,209
-711,933	-112,694	-0,135	0,020
-710,918	201,820	-0,080	0,091
-709,904	150,289	-0,028	-0,028
-708,889	353,881	-0,054	-0,080
-707,875	216,753	-0,086	-0,101
-706,860	-200,000	-0,013	-0,078
-705,845	90,716	-0,147	0,121
-704,831	138,103	-0,063	0,061
-703,816	-200,000	-0,002	-0,029
-702,802	30,229	-0,020	0,013
-701,787	117,098	0,070	0,063
-700,772	30,337	-0,076	-0,048
-699,758	-116,037	0,052	-0,007
-698,743	-44,211	-0,063	0,023
-697,729	47,661	0,124	-0,085
-696,714	-49,867	0,206	-0,071
-695,699	-200,000	0,001	0,077
-694,685	55,959	-0,024	-0,017
-693,670	-200,000	-0,050	-0,218
-692,656	7,652	-0,053	0,029
-691,641	-200,000	0,006	-0,023
-690,627	-174,284	0,063	0,001
-689,612	142,043	0,022	0,022
-688,597	800,000	-0,042	0,111
-687,583	-89,084	-0,122	-0,026
-686,568	-200,000	-0,004	-0,060
-685,554	-23,166	0,071	-0,032
-684,539	206,127	0,099	-0,113
-683,524	800,000	0,046	0,103
-682,510	-135,054	-0,040	0,003
-681,495	529,289	-0,018	-0,032
-680,481	-200,000	-0,033	0,114
-679,466	-82,732	0,011	0,002
-678,451	-200,000	0,001	-0,074
-677,437	800,000	-0,017	-0,040
-676,422	-167,331	0,014	-0,000
-675,408	18,851	-0,106	-0,062
-674,393	-162,395	-0,063	-0,002
-673,378	568,285	-0,066	-0,119
-672,364	800,000	-0,029	-0,063
-671,349	200,153	-0,068	-0,077
-670,335	800,000	0,021	0,049
-669,320	137,359	0,184	0,177
-668,305	-85,128	0,039	0,009
-667,291	104,350	0,031	-0,027
-666,276	71,017	-0,066	-0,050
-665,262	-142,617	-0,051	0,004
-664,247	-200,000	0,009	-0,157
-663,232	-200,000	0,004	0,050
-662,218	296,431	0,107	0,145
-661,203	-34,662	-0,054	0,022
-660,189	-124,912	-0,073	0,008
-659,174	151,533	-0,021	0,021
-658,159	-200,000	0,000	-0,083
-657,145	81,868	-0,059	0,047
-656,130	-102,241	-0,009	-0,002
-655,116	204,229	0,029	-0,033
-654,101	-95,609	0,133	0,026
-653,086	-200,000	-0,023	-0,087
-652,072	-23,258	-0,128	-0,056
-651,057	-140,734	-0,130	-0,010
-650,043	415,345	-0,070	0,110
-649,028	-200,000	-0,008	-0,068
-648,014	52,385	0,053	0,037
-646,999	-200,000	0,008	-0,160
-645,984	72,012	0,068	0,052
-644,970	59,080	-0,061	0,044
-643,955	23,984	-0,125	-0,076
-642,941	-200,000	0,023	0,074
-641,926	76,789	0,112	0,087
-640,911	800,000	0,038	-0,087
-639,897	360,874	-0,031	0,045
-638,882	708,483	0,028	-0,055
-637,868	800,000	-0,047	-0,107
-636,853	-200,000	0,036	0,154
-635,838	86,927	0,045	-0,037
-634,824	-200,000	0,001	-0,008
-633,809	800,000	-0,047	-0,132
-632,795	-200,000	-0,049	-0,164
-631,780	82,596	0,089	0,071
-630,765	800,000	0,031	0,093
-629,751	-124,966	-0,066	-0,007
-628,736	91,440	-0,045	-0,037
-627,722	31,398	-0,042	-0,026
-626,707	-58,512	0,095	-0,030
-625,692	800,000	0,026	0,078
-624,678	-200,000	-0,005	0,149
-623,663	726,996	0,052	-0,101
-622,649	217,846	-0,093	-0,109
-621,634	107,009	0,050	0,044
-620,619	119,687	-0,068	0,062
-619,605	-200,000	0,005	-0,054
-618,590	-6,202	0,024	-0,012
-617,576	800,000	0,069	-0,189
-616,561	188,854	-0,018	-0,020
-615,546	158,159	-0,050	-0,051
-614,532	324,986	-0,094	-0,132
-613,517	-92,938	-0,034	0,007
-612,503	-109,112	0,075	-0,012
-611,488	-124,318	0,051	-0,006
-610,474	350,204	-0,058	-0,084
-609,459	-200,000	0,047	-0,162
-608,444	-200,000	0,031	0,129
-607,430	-200,000	0,001	0,081
-606,415	342,886	-0,129	-0,186
-605,401	93,008	-0,119	-0,099
-604,386	-200,000	0,005	-0,066
-603,371	-91,790	0,083	0,017
-602,357	15,382	0,099	0,057
-601,342	201,155	0,084	-0,095
-600,328	-200,000	-0,002	-0,017
-599,313	-200,000	0,010	0,033
-598,298	111,958	-0,071	-0,063
-597,284	26,238	0,136	-0,083
-596,269	-49,056	-0,081	0,028
-595,255	-33,548	-0,091	0,037
-594,240	143,413	-0,053	0,052
-593,225	-111,442	-0,180	-0,027
-592,211	-200,000	-0,008	-0,033
-591,196	107,296	0,082	0,072
-590,182	157,114	0,068	-0,069
-589,167	-61,289	0,111	0,034
-588,152	77,785	-0,111	0,086
-587,138	-200,000	0,006	0,022
-586,123	-200,000	0,023	-0,162
-585,109	-57,400	0,077	0,025
-584,094	-135,008	-0,098	0,009
-583,079	800,000	-0,036	-0,102
-582,065	-200,000	0,057	0,252
-581,050	800,000	-0,040	0,114
-580,036	31,421	-0,022	0,014
-579,021	-200,000	-0,035	-0,145
-578,006	269,413	0,034	0,044
-576,992	-75,044	0,038	0,010
-575,977	-120,623	-0,070	0,009
-574,963	482,863	0,034	0,056
-573,948	-200,000	0,006	0,130
-572,934	-200,000	0,053	-0,178
-571,919	137,360	-0,062	-0,059
-570,904	-200,000	-0,003	-0,023
-569,890	-8,716	-0,156	0,076
-568,875	800,000	0,065	0,142
-567,861	508,555	0,006	-0,011
-566,846	-143,893	0,030	-0,002
-565,831	-200,000	0,005	-0,030
-564,817	800,000	0,056	-0,172
-563,802	26,343	-0,090	0,055
-562,788	800,000	0,052	0,120
-561,773	-200,000	0,032	-0,239
-560,758	147,365	0,119	-0,118
-559,744	221,299	-0,072	0,085
-558,729	800,000	-0,048	0,122
-557,715	99,195	-0,045	0,038
-556,700	-117,467	-0,072	0,009
-555,685	556,360	0,026	0,046
-554,671	-200,000	0,020	-0,086
-553,656	-200,000	0,016	0,062
-552,642	-18,247	0,060	0,027
-551,627	800,000	0,033	0,107
-550,612	142,106	-0,038	0,037
-549,598	-13,858	0,038	-0,018
-548,583	-82,886	-0,179	-0,042
-547,569	37,599	-0,075	0,049
-546,554	167,898	0,056	-0,058
-545,539	-121,599	-0,037	-0,004
-544,525	-97,436	-0,025	0,005
-543,510	800,000	-0,062	-0,200
-542,496	-184,208	-0,145	-0,002
-541,481	-83,492	-0,075	-0,017
-540,466	-37,136	-0,162	-0,063
-539,452	93,345	0,117	0,096
-538,437	800,000	-0,069	0,169
-537,423	-12,421	-0,104	0,050
-536,408	-82,254	0,132	-0,031
-535,393	-74,456	-0,096	-0,025
-534,379	-121,167	-0,070	-0,009
-533,364	-81,384	-0,101	0,024
-532,350	800,000	0,044	0,111
-531,335	-102,493	0,030	-0,005
-530,321	-200,000	0,005	-0,067
-529,306	-49,974	0,055	-0,019
-528,291	-62,983	-0,009	-0,003
-527,277	76,820	-0,053	0,041
-526,262	64,357	-0,122	-0,090
-525,248	58,678	0,076	-0,054
-524,233	8,493	0,122	0,067
-523,218	753,149	-0,018	0,035
-522,204	-200,000	-0,008	-0,050
-521,189	231,156	0,088	-0,106
-520,175	800,000	0,011	-0,030
-519,160	235,647	0,098	-0,119
-518,145	800,000	0,009	-0,024
-517,131	-124,334	0,089	-0,010
-516,116	800,000	-0,042	-0,110
-515,102	-85,438	-0,137	0,031
-514,087	-35,320	-0,071	-0,028
-513,072	-200,000	-0,006	-0,083
-512,058	800,000	0,049	-0,128
-511,043	206,282	0,062	0,071
-510,029	800,000	0,024	-0,060
-509,014	-145,362	0,156	-0,010
-507,999	-200,000	-0,019	-0,095
-506,985	44,735	-0,117	-0,078
-505,970	-200,000	-0,013	-0,114
-504,956	-200,000	0,014	-0,199
-503,941	338,331	0,075	-0,107
-502,926	314,820	0,012	-0,016
-501,912	-200,000	-0,033	0,145
-500,897	-200,000	-0,009	0,037
-499,883	800,000	-0,019	0,058
-498,868	-132,278	-0,072	0,007
-497,853	-169,292	0,097	-0,003
-496,839	269,975	-0,021	0,026
-495,824	-79,026	-0,064	0,016
-494,810	800,000	-0,041	0,103
-493,795	666,884	0,075	-0,142
-492,781	-126,109	-0,050	0,005
-491,766	20,604	-0,087	-0,051
-490,751	138,863	0,088	-0,085
-489,737	-200,000	-0,008	-0,077
-488,722	61,097	0,120	0,087
-487,708	24,722	0,064	0,039
-486,693	-156,028	0,031	-0,001
-485,678	-50,046	-0,127	0,044
-484,664	-193,943	0,094	0,001
-483,649	350,360	-0,096	0,139
-482,635	-1,573	0,050	-0,026
-481,620	435,895	0,077	0,122
-480,605	94,661	0,085	-0,071
-479,591	-200,000	0,050	-0,179
-478,576	-53,824	0,049	-0,016
-477,562	-200,000	-0,006	-0,085
-476,547	532,075	0,016	-0,028
-475,532	-36,284	-0,146	0,057
-474,518	-200,000	-0,006	-0,021
-473,503	12,270	0,070	0,039
-472,489	364,742	0,045	0,066
-471,474	-196,342	-0,062	-0,000
-470,459	367,157	-0,055	-0,082
-469,445	-153,782	0,091	0,004
-468,430	-6,367	0,084	0,042
-467,416	-200,000	-0,015	-0,077
-466,401	383,923	-0,063	-0,095
-465,386	-200,000	-0,037	0,231
-464,372	111,891	-0,059	-0,052
-463,357	9,914	-0,074	-0,041
-462,343	323,161	-0,084	-0,117
-461,328	493,097	0,033	-0,056
-460,313	800,000	-0,029	0,066
-459,299	-37,375	0,083	0,032
-458,284	632,661	-0,120	0,223
-457,270	-200,000	-0,001	-0,046
-456,255	25,623	-0,145	-0,088
-455,241	-200,000	0,002	-0,127
-454,226	536,892	0,097	0,169
-453,211	-37,671	-0,103	-0,040
-452,197	-200,000	0,027	-0,121
-451,182	575,617	-0,017	-0,030
-450,168	510,098	0,011	-0,018
-449,153	-71,498	-0,034	0,009
-448,138	173,184	-0,042	-0,044
-447,124	-130,731	-0,056	0,005
-446,109	-76,996	0,027	0,007
-445,095	29,468	-0,080	0,049
-444,080	356,818	0,023	0,034
-443,065	-26,010	0,040	-0,017
-442,051	-200,000	-0,003	-0,108
-441,036	65,076	-0,083	-0,061
-440,022	125,933	-0,020	0,018
-439,007	-200,000	-0,004	-0,125
-437,992	-200,000	0,030	0,100
-436,978	-42,111	0,029	0,011
-435,963	-200,000	-0,003	0,082
-434,949	29,005	0,025	0,015
-433,934	-173,623	0,036	0,001
-432,919	66,931	0,030	0,023
-431,905	293,472	-0,033	-0,044
-430,890	-48,803	0,111	0,038
-429,876	506,235	0,051	0,086
-428,861	-54,518	-0,019	0,006
-427,846	-200,000	0,005	0,101
-426,832	-200,000	0,006	0,029
-425,817	-51,929	-0,074	-0,025
-424,803	238,778	-0,036	-0,044
-423,788	-200,000	-0,010	0,063
-422,773	-63,877	0,138	0,041
-421,759	550,722	0,096	-0,168
-420,744	-102,922	-0,024	-0,004
-419,730	18,736	0,073	-0,042
-418,715	-126,119	-0,045	-0,005
-417,701	800,000	-0,034	0,072
-416,686	-11,289	0,199	0,095
-415,671	-125,175	-0,146	-0,016
-414,657	-200,000	-0,017	0,127
-413,642	800,000	0,045	-0,117
-412,628	16,703	0,126	0,072
-411,613	-30,369	-0,067	0,027
-410,598	21,466	0,105	0,062
-409,584	47,279	0,067	0,046
-408,569	-125,636	0,062	-0,007
-407,555	-3,643	0,036	-0,018
-406,540	145,885	0,113	0,110
-405,525	-23,680	-0,086	-0,037
-404,511	10,868	-0,070	0,039
-403,496	-200,000	0,000	0,009
-402,482	44,040	0,080	-0,053
-401,467	109,410	0,038	0,033
-400,452	800,000	0,009	-0,021
-399,438	-118,642	-0,077	-0,010
-398,423	59,987	0,117	0,084
-397,409	-116,391	0,112	-0,015
-396,394	-142,890	-0,104	0,007
-395,379	459,477	0,040	-0,065
-394,365	-200,000	0,002	0,035
-393,350	166,052	0,114	-0,117
-392,336	333,902	0,042	0,059
-391,321	189,340	0,093	0,101
-390,306	-81,147	0,038	-0,009
-389,292	72,552	-0,108	-0,082
-388,277	100,065	0,037	-0,031
-387,263	-97,974	-0,073	0,014
-386,248	800,000	0,012	-0,029
-385,233	-200,000	0,021	0,154
-384,219	167,786	-0,106	0,109
-383,204	-200,000	-0,010	-0,061
-382,190	-200,000	-0,031	-0,102
-381,175	746,841	-0,052	-0,102
-380,160	-200,000	-0,015	0,089
-379,146	51,111	-0,068	-0,047
-378,131	-67,857	0,047	0,013
-377,117	-89,050	-0,144	0,031
-376,102	-8,352	0,046	0,022
-375,088	-141,213	-0,092	0,007
-374,073	431,413	-0,031	-0,049
-373,058	229,626	-0,032	-0,038
-372,044	-200,000	-0,014	0,062
-371,029	16,470	0,088	0,050
-370,015	800,000	0,039	0,109
-369,000	253,052	-0,077	0,095
-367,985	208,675	0,034	0,039
-366,971	570,149	0,040	0,071
-365,956	44,390	-0,020	0,014
-364,942	-200,000	0,002	-0,090
-363,927	800,000	0,042	0,097
-362,912	800,000	0,005	0,012
-361,898	-200,000	-0,013	-0,087
-360,883	-142,546	-0,205	-0,014
-359,869	-122,472	0,070	0,008
-358,854	-200,000	0,015	-0,073
-357,839	442,114	0,051	0,081
-356,825	55,717	0,016	-0,012
-355,810	-200,000	-0,017	0,063
-354,796	-6,082	0,052	-0,026
-353,781	-93,822	-0,099	-0,020
-352,766	-200,000	0,042	-0,208
-351,752	-73,291	-0,080	0,021
-350,737	-200,000	-0,019	0,165
-349,723	-200,000	-0,065	-0,000
-348,708	209,235	-0,022	0,025
-347,693	4,808	-0,086	-0,046
-346,679	-200,000	0,018	-0,117
-345,664	-178,073	-0,198	-0,003
-344,650	228,901	-0,035	0,042
-343,635	295,778	-0,025	0,033
-342,620	55,929	0,041	0,029
-341,606	-200,000	0,062	0,224
-340,591	-200,000	-0,004	0,029
-339,577	-200,000	-0,024	-0,086
-338,562	745,109	-0,045	-0,089
-337,548	800,000	0,013	0,039
-336,533	-1,534	0,073	0,037
-335,518	12,752	0,022	-0,012
-334,504	-200,000	0,001	-0,041
-333,489	275,455	-0,089	0,115
-332,475	302,126	-0,079	-0,106
-331,460	-200,000	-0,001	-0,014
-330,445	-200,000	-0,002	0,033
-329,431	166,980	0,103	0,107
-328,416	507,479	-0,111	0,188
-327,402	-90,318	-0,053	-0,011
-326,387	550,765	0,096	-0,167
-325,372	249,428	-0,070	-0,087
-324,358	800,000	0,032	-0,080
-323,343	561,829	-0,030	-0,054
-322,329	-200,000	-0,000	0,076
-321,314	-35,479	-0,074	0,029
-320,299	-200,000	-0,016	0,225
-319,285	-200,000	0,007	0,085
-318,270	-88,386	0,085	0,018
-317,256	499,351	0,029	0,049
-316,241	6,190	-0,060	-0,032
-315,226	-200,000	-0,002	0,008
-314,212	-100,262	-0,102	-0,018
-313,197	-200,000	-0,024	0,135
-312,183	-200,000	-0,020	0,095
-311,168	-139,913	-0,137	-0,010
-310,153	-200,000	-0,010	-0,050
-309,139	162,073	-0,055	-0,056
-308,124	51,524	0,092	0,063
-307,110	-15,184	0,041	0,019
-306,095	4,769	0,007	0,004
-305,080	-79,299	-0,100	0,024
-304,066	-100,914	0,031	0,006
-303,051	-100,363	0,123	0,022
-302,037	-122,247	0,017	-0,002
-301,022	-200,000	0,001	0,126
-300,008	722,364	-0,049	0,095
-298,993	783,582	0,067	0,133
-297,978	297,650	-0,075	-0,100
-296,964	660,745	-0,029	-0,055
-295,949	120,259	-0,043	0,038
-294,935	497,121	-0,041	0,068
-293,920	-26,118	-0,133	-0,057
-292,905	800,000	0,014	-0,040
-291,891	-100,544	-0,035	0,006
-290,876	77,167	-0,090	-0,069
-289,862	44,336	0,137	-0,091
-288,847	-156,855	-0,193	0,008
-287,832	19,920	0,089	-0,052
-286,818	-55,363	0,123	-0,040
-285,803	800,000	0,041	0,099
-284,789	-200,000	-0,010	0,056
-283,774	69,198	0,110	0,082
-282,759	379,070	-0,074	-0,110
-281,745	26,278	0,045	-0,027
-280,730	113,979	0,082	0,072
-279,716	-90,297	0,050	0,010
-278,701	203,027	0,045	0,050
-277,686	146,723	0,025	-0,024
-276,672	55,337	-0,097	0,068
-275,657	-13,415	-0,096	0,045
-274,643	-200,000	0,004	0,024
-273,628	-60,610	0,123	-0,038
-272,613	-200,000	-0,034	-0,133
-271,599	-109,440	-0,013	-0,002
-270,584	128,867	0,108	0,100
-269,570	739,333	-0,017	0,033
-268,555	800,000	-0,010	0,029
-267,540	-200,000	0,036	-0,132
-266,526	-200,000	-0,028	-0,106
-265,511	-81,209	0,037	0,009
-264,497	-200,000	0,042	0,167
-263,482	126,016	0,072	0,066
-262,467	-28,121	0,092	-0,038
-261,453	-133,024	-0,080	-0,007
-260,438	671,448	0,032	-0,061
-259,424	26,222	-0,029	-0,017
-258,409	-200,000	-0,006	-0,158
-257,395	-200,000	0,000	0,107
-256,380	396,059	-0,025	0,038
-255,365	-200,000	0,033	0,191
-254,351	-18,716	0,056	-0,025
-253,336	-200,000	0,027	-0,098
-252,322	507,081	0,037	-0,062
-251,307	-122,449	-0,067	-0,008
-250,292	-200,000	0,002	0,043
-249,278	142,800	0,081	0,078
-248,263	105,898	0,090	0,077
-247,249	800,000	0,019	0,048
-246,234	-10,688	0,110	-0,052
-245,219	800,000	0,055	-0,111
-244,205	66,252	-0,009	0,007
-243,190	-200,000	-0,007	0,127
-242,176	159,692	-0,018	-0,018
-241,161	-165,057	0,131	0,004
-240,146	-155,163	0,054	0,003
-239,132	451,672	-0,030	0,049
-238,117	-200,000	0,013	0,051
-237,103	-200,000	-0,045	-0,176
-236,088	131,848	-0,086	-0,080
-235,073	32,918	0,090	-0,056
-234,059	324,480	0,016	0,022
-233,044	-115,659	0,159	-0,021
-232,030	465,703	0,070	0,113
-231,015	-200,000	0,021	-0,080
-230,000	-90,179	0,092	0,019
-228,986	56,260	0,093	0,065
-227,971	109,470	-0,121	0,105
-226,957	-78,517	0,184	0,045
-225,942	9,134	0,049	-0,027
-224,927	538,676	-0,107	0,184
-223,913	9,044	-0,086	0,047
-222,898	560,946	0,080	0,140
-221,884	-36,867	-0,088	0,034
-220,869	-93,600	-0,060	0,012
-219,855	-200,000	-0,010	0,084
-218,840	168,229	0,014	-0,014
-217,825	-200,000	-0,036	-0,174
-216,811	131,511	0,021	-0,020
-215,796	63,428	0,079	0,057
-214,782	800,000	-0,033	0,069
-213,767	-200,000	0,003	0,035
-212,752	473,627	0,042	0,069
-211,738	-10,592	0,058	-0,028
-210,723	-200,000	-0,000	-0,050
-209,709	-200,000	0,009	-0,113
-208,694	-200,000	0,009	-0,143
-207,679	800,000	0,016	-0,041
-206,665	-200,000	-0,004	0,070
-205,650	-83,151	-0,157	0,036
-204,636	-200,000	-0,003	0,066
-203,621	-200,000	0,008	-0,125
-202,606	150,053	-0,058	-0,057
-201,592	-200,000	-0,019	-0,115
-200,577	0,627	-0,040	-0,021
-199,563	-200,000	0,000	-0,045
-198,548	-145,697	0,107	-0,007
-197,533	-177,191	0,020	0,000
-196,519	-129,434	-0,083	-0,008
-195,504	195,310	-0,090	-0,099
-194,490	800,000	0,070	-0,207
-193,475	34,700	-0,097	-0,061
-192,460	-116,339	-0,041	0,005
-191,446	-115,099	-0,105	0,014
-190,431	0,546	0,124	0,064
-189,417	-200,000	-0,014	0,129
-188,402	211,708	-0,037	0,042
-187,387	-120,485	-0,028	-0,003
-186,373	800,000	-0,038	-0,081
-185,358	745,087	-0,068	-0,133
-184,344	800,000	0,033	0,072
-183,329	-45,111	0,096	0,034
-182,315	45,534	0,067	-0,045
-181,300	-135,509	0,060	-0,005
-180,285	772,632	-0,033	0,066
-179,271	-200,000	0,019	-0,088
-178,256	800,000	0,117	0,262
-177,242	-200,000	-0,007	0,067
-176,227	536,700	-0,045	-0,078
-175,212	415,029	0,056	0,086
-174,198	66,982	0,114	-0,084
-173,183	765,505	-0,030	0,060
-172,169	453,964	-0,062	-0,099
-171,154	-112,616	-0,091	0,013
-170,139	-200,000	0,007	0,063
-169,125	-200,000	-0,002	-0,048
-168,110	800,000	0,020	0,045
-167,096	800,000	0,056	0,126
-166,081	215,464	-0,114	0,130
-165,066	-77,856	-0,050	0,012
-164,052	-200,000	0,008	0,049
-163,037	800,000	0,019	-0,046
-162,023	-145,997	-0,067	0,004
-161,008	260,140	-0,019	-0,024
-159,993	-171,624	0,089	0,002
-158,979	-66,130	-0,025	0,007
-157,964	-200,000	0,007	0,034
-156,950	83,513	0,060	-0,047
-155,935	526,533	0,023	0,040
-154,920	-141,308	0,149	-0,011
-153,906	267,767	0,020	-0,025
-152,891	212,161	-0,049	0,056
-151,877	-200,000	0,040	0,165
-150,862	741,012	0,053	0,103
-149,847	424,070	0,034	-0,054
-148,833	4,322	0,046	0,024
-147,818	-153,697	-0,053	-0,003
-146,804	-65,293	-0,071	0,021
-145,789	516,161	0,061	-0,103
-144,775	-41,341	-0,130	-0,048
-143,760	55,676	-0,031	-0,022
-142,745	-200,000	-0,020	-0,134
-141,731	-94,258	0,026	-0,005
-140,716	-49,909	0,084	-0,029
-139,702	562,789	0,078	0,137
-138,687	698,267	0,021	0,041
-137,672	169,235	0,023	0,024
-136,658	7,641	0,044	0,023
-135,643	125,844	-0,036	-0,033
-134,629	237,379	0,025	0,030
-133,614	444,628	-0,098	0,155
-132,599	800,000	0,023	0,056
-131,585	149,918	-0,072	0,070
-130,570	363,193	-0,049	-0,071
-129,556	-117,399	0,074	0,010
-128,541	28,364	-0,055	-0,033
-127,526	65,583	-0,107	-0,078
-126,512	-161,851	0,093	-0,003
-125,497	392,451	0,100	0,150
-124,483	53,471	0,064	0,044
-123,468	50,354	-0,052	0,035
-122,453	-200,000	0,004	0,126
-121,439	-200,000	-0,014	-0,066
-120,424	50,328	-0,057	-0,039
-119,410	-112,209	0,033	0,005
