DTS Sentinel unit serial number:	SN410029Multiplexer serial number:	ORYXHardware model number:	OX2-SRSoftware version number:	ORYX F/W v4,00 Oryx Data Collector v3.7.2.0data status	okinstallation	B5 Nyhavnadifferential loss correction	single-endedforward channel	channel 2reverse channel	N/Adate	2023/12/13time	12:17:13forward acquisition time	300,00reverse acquisition time	0,00gamma	499,1914k internal	0,3161k external	0,3161temperature offset calibration	1,0000default loss term (dB/km)	0,3820temperature slope calibration	1,0000multiplexer offset coefficient	1,0000multiplexer slope coefficient	1,0000fibre end	0,00T internal ref (°C)	14,05T ext. ref 1 (°C)	-1,78T ext. ref 2 (°C)	-2,07length (m)	temperature (°C)	Stokes	anti-Stokes-744,400	-39,090	0,070	0,027
-743,385	-157,418	-0,348	0,015
-742,371	-100,931	0,057	0,010
-741,356	-137,840	-0,239	-0,019
-740,342	431,770	0,056	0,089
-739,327	-38,602	-0,348	-0,135
-738,312	65,720	0,121	0,090
-737,298	-171,648	-0,335	-0,008
-736,283	-200,000	0,018	-0,093
-735,269	-52,799	-0,151	0,051
-734,254	-200,000	0,018	0,067
-733,239	-181,460	-0,617	0,009
-732,225	-21,418	0,080	0,036
-731,210	-200,000	0,025	0,095
-730,196	800,000	0,049	-0,129
-729,181	67,475	0,117	-0,088
-728,167	-17,819	-0,097	0,044
-727,152	800,000	0,031	0,089
-726,137	27,573	-0,013	-0,008
-725,123	205,649	-0,069	0,079
-724,108	-200,000	-0,031	-0,133
-723,094	2,623	-0,126	-0,067
-722,079	91,283	-0,098	-0,081
-721,064	247,184	0,028	0,035
-720,050	-170,314	-0,114	0,003
-719,035	800,000	-0,041	-0,124
-718,021	-50,182	-0,062	0,021
-717,006	-120,737	-0,101	-0,012
-715,991	73,349	-0,109	-0,084
-714,977	-200,000	0,021	0,071
-713,962	110,869	0,117	-0,104
-712,948	666,690	0,037	-0,070
-711,933	-200,000	0,001	-0,114
-710,918	-200,000	0,000	0,026
-709,904	-61,282	-0,093	-0,029
-708,889	-67,975	-0,043	0,012
-707,875	66,703	-0,054	-0,041
-706,860	-51,346	-0,045	0,015
-705,845	-130,478	0,082	-0,008
-704,831	-200,000	-0,020	0,124
-703,816	-22,827	-0,113	0,050
-702,802	131,202	-0,076	-0,072
-701,787	800,000	0,064	-0,152
-700,772	800,000	0,012	-0,033
-699,758	-96,301	-0,090	-0,017
-698,743	800,000	-0,035	-0,089
-697,729	-200,000	0,009	-0,206
-696,714	143,824	0,088	0,086
-695,699	-200,000	0,005	0,041
-694,685	125,652	-0,153	-0,142
-693,670	47,831	-0,054	-0,037
-692,656	-200,000	-0,009	-0,092
-691,641	189,632	0,076	-0,083
-690,627	386,990	0,067	-0,102
-689,612	-55,066	0,083	-0,027
-688,597	-79,132	-0,044	0,011
-687,583	145,578	-0,065	-0,064
-686,568	-57,824	-0,083	-0,027
-685,554	-200,000	0,004	-0,172
-684,539	-164,536	-0,093	0,003
-683,524	800,000	0,053	-0,139
-682,510	-29,174	-0,143	-0,060
-681,495	55,191	0,063	0,044
-680,481	-172,771	-0,196	-0,004
-679,466	442,884	-0,082	-0,132
-678,451	3,599	-0,066	-0,035
-677,437	-30,719	0,078	0,032
-676,422	800,000	0,034	0,083
-675,408	-14,586	0,023	-0,011
-674,393	178,879	-0,054	-0,058
-673,378	220,946	0,085	0,100
-672,364	-146,535	-0,185	-0,012
-671,349	56,428	-0,061	-0,043
-670,335	800,000	0,025	0,061
-669,320	-18,040	0,176	0,080
-668,305	-23,458	-0,099	0,043
-667,291	800,000	0,048	0,102
-666,276	-53,185	-0,059	0,020
-665,262	-124,208	-0,173	0,020
-664,247	-18,545	-0,229	0,104
-663,232	-200,000	-0,011	0,049
-662,218	800,000	0,030	0,068
-661,203	-41,547	-0,067	-0,025
-660,189	34,002	-0,138	-0,088
-659,174	109,019	-0,085	-0,075
-658,159	800,000	-0,039	-0,116
-657,145	638,358	-0,041	-0,078
-656,130	-200,000	0,018	0,214
-655,116	-57,660	-0,046	-0,015
-654,101	-120,775	-0,085	-0,010
-653,086	-88,836	0,114	-0,025
-652,072	197,606	-0,063	0,071
-651,057	-183,926	-0,196	0,002
-650,043	-171,463	0,049	-0,001
-649,028	800,000	0,021	0,056
-648,014	-74,583	-0,083	-0,022
-646,999	157,034	-0,107	-0,108
-645,984	5,068	-0,015	-0,008
-644,970	800,000	-0,044	0,125
-643,955	-200,000	-0,011	-0,042
-642,941	486,099	-0,038	-0,063
-641,926	60,132	-0,079	0,057
-640,911	58,341	0,084	0,061
-639,897	249,700	0,080	0,100
-638,882	-58,681	-0,121	0,038
-637,868	-200,000	-0,005	-0,104
-636,853	-117,653	0,045	-0,006
-635,838	800,000	-0,037	-0,084
-634,824	-94,464	-0,060	0,012
-633,809	-19,481	-0,063	0,028
-632,795	-131,639	0,066	-0,006
-631,780	88,693	0,150	0,123
-630,765	-81,092	-0,006	0,001
-629,751	-76,220	-0,111	0,028
-628,736	-200,000	-0,052	-0,190
-627,722	-200,000	0,002	-0,100
-626,707	20,590	-0,146	0,087
-625,692	800,000	0,061	0,184
-624,678	-200,000	-0,009	0,205
-623,663	621,213	-0,094	0,173
-622,649	223,658	-0,024	0,028
-621,634	-200,000	-0,008	-0,083
-620,619	-180,442	-0,089	-0,001
-619,605	-91,683	0,161	0,033
-618,590	67,573	0,123	0,092
-617,576	800,000	-0,015	0,036
-616,561	-25,898	0,045	-0,019
-615,546	378,005	0,014	-0,021
-614,532	265,249	-0,091	-0,116
-613,517	-200,000	-0,012	-0,120
-612,503	-200,000	-0,000	-0,137
-611,488	70,869	0,085	0,064
-610,474	193,523	0,053	-0,058
-609,459	190,207	0,121	0,134
-608,444	-5,205	-0,084	-0,042
-607,430	-78,873	-0,134	-0,033
-606,415	-29,229	-0,061	-0,026
-605,401	-200,000	0,042	-0,151
-604,386	29,057	-0,096	0,059
-603,371	-99,100	0,082	0,015
-602,357	-200,000	0,028	-0,092
-601,342	204,612	-0,026	0,030
-600,328	566,491	-0,046	-0,083
-599,313	800,000	-0,037	-0,106
-598,298	420,193	0,040	0,063
-597,284	21,486	-0,109	-0,065
-596,269	800,000	0,040	-0,099
-595,255	-35,743	0,081	-0,032
-594,240	-200,000	0,008	-0,095
-593,225	106,015	-0,053	0,046
-592,211	-89,068	-0,032	0,007
-591,196	254,513	-0,023	0,028
-590,182	205,148	-0,020	-0,023
-589,167	-18,516	-0,039	-0,018
-588,152	294,801	0,053	-0,071
-587,138	-1,360	0,091	-0,047
-586,123	204,945	-0,101	-0,115
-585,109	-200,000	0,028	-0,204
-584,094	-200,000	-0,022	-0,096
-583,079	109,240	0,081	0,071
-582,065	427,580	0,112	0,178
-581,050	88,817	0,065	-0,053
-580,036	-169,037	0,178	-0,005
-579,021	559,091	-0,045	-0,080
-578,006	-200,000	-0,029	-0,102
-576,992	21,151	0,019	-0,012
-575,977	-11,626	0,016	0,007
-574,963	800,000	-0,076	0,160
-573,948	304,596	-0,048	0,065
-572,934	267,745	-0,109	-0,140
-571,919	40,393	0,076	0,050
-570,904	-156,366	0,104	0,005
-569,890	-48,618	-0,175	0,061
-568,875	800,000	0,011	0,025
-567,861	464,237	0,048	-0,078
-566,846	800,000	-0,076	0,169
-565,831	175,655	0,042	0,045
-564,817	360,833	0,037	0,055
-563,802	552,301	-0,004	0,008
-562,788	-200,000	-0,046	-0,160
-561,773	8,924	0,055	0,030
-560,758	800,000	-0,016	-0,035
-559,744	-200,000	0,019	0,116
-558,729	-200,000	0,003	0,033
-557,715	-148,284	-0,114	0,007
-556,700	-104,032	-0,100	-0,017
-555,685	172,664	0,161	-0,169
-554,671	-85,643	0,096	0,022
-553,656	195,770	0,033	0,036
-552,642	23,252	-0,067	0,040
-551,627	-31,613	-0,014	0,006
-550,612	449,206	-0,092	-0,149
-549,598	-43,057	-0,075	0,028
-548,583	378,795	-0,040	-0,061
-547,569	-2,594	-0,110	-0,056
-546,554	364,838	-0,072	0,106
-545,539	177,565	0,084	0,089
-544,525	-200,000	0,003	0,029
-543,510	-200,000	0,002	-0,088
-542,496	-1,120	-0,068	0,035
-541,481	-116,464	-0,013	-0,002
-540,466	23,915	-0,062	-0,037
-539,452	-66,887	0,078	0,022
-538,437	133,212	0,023	0,022
-537,423	321,099	0,036	0,051
-536,408	-200,000	0,002	-0,043
-535,393	-57,503	-0,087	0,028
-534,379	800,000	-0,033	-0,098
-533,364	-200,000	-0,005	0,105
-532,350	-134,957	0,078	0,007
-531,335	74,485	-0,059	0,045
-530,321	-200,000	-0,009	0,034
-529,306	429,469	-0,012	-0,019
-528,291	-26,382	0,046	-0,020
-527,277	-200,000	0,012	-0,182
-526,262	-70,790	-0,037	0,010
-525,248	800,000	-0,019	0,043
-524,233	98,430	-0,070	0,059
-523,218	-200,000	0,006	-0,033
-522,204	-12,367	-0,167	-0,079
-521,189	173,864	0,050	-0,053
-520,175	337,209	-0,111	-0,159
-519,160	65,717	-0,101	-0,075
-518,145	-88,902	-0,020	0,004
-517,131	800,000	-0,054	0,134
-516,116	-93,726	0,057	-0,011
-515,102	-69,374	0,025	-0,007
-514,087	92,698	0,101	-0,083
-513,072	-200,000	-0,024	-0,096
-512,058	800,000	0,010	-0,026
-511,043	115,837	0,047	0,042
-510,029	545,983	0,048	0,085
-509,014	-200,000	-0,004	-0,047
-507,999	654,510	0,028	-0,052
-506,985	800,000	-0,067	-0,138
-505,970	-200,000	0,016	-0,125
-504,956	-200,000	-0,013	0,052
-503,941	218,137	0,018	0,021
-502,926	326,657	-0,111	0,156
-501,912	-166,472	0,199	0,006
-500,897	-39,135	-0,082	-0,031
-499,883	-51,737	-0,147	-0,050
-498,868	102,873	-0,065	0,056
-497,853	-200,000	-0,010	-0,068
-496,839	178,054	0,017	-0,018
-495,824	330,288	0,041	-0,057
-494,810	11,003	0,109	-0,061
-493,795	-85,563	-0,107	-0,024
-492,781	-37,504	-0,137	-0,053
-491,766	187,898	-0,028	0,031
-490,751	-53,264	0,144	-0,048
-489,737	-88,706	0,014	-0,003
-488,722	108,930	0,103	-0,090
-487,708	-200,000	-0,025	-0,121
-486,693	-58,663	0,056	0,018
-485,678	273,054	-0,104	-0,134
-484,664	800,000	0,044	-0,102
-483,649	-60,800	0,121	0,037
-482,635	286,300	-0,024	-0,031
-481,620	-200,000	0,010	0,040
-480,605	-34,898	-0,090	-0,036
-479,591	311,770	0,069	-0,094
-478,576	800,000	0,033	0,094
-477,562	-15,804	-0,100	-0,046
-476,547	-200,000	0,013	-0,057
-475,532	-200,000	-0,005	-0,068
-474,518	16,668	0,044	-0,025
-473,503	-200,000	0,002	0,060
-472,489	800,000	-0,009	0,022
-471,474	440,540	0,015	0,023
-470,459	-81,115	0,022	-0,005
-469,445	800,000	0,026	-0,082
-468,430	-122,084	-0,088	0,010
-467,416	-127,265	-0,108	0,011
-466,401	-19,569	0,120	0,054
-465,386	-200,000	0,038	0,128
-464,372	-72,026	-0,100	-0,027
-463,357	-200,000	-0,018	-0,059
-462,343	-200,000	-0,023	-0,154
-461,328	-82,165	-0,168	0,040
-460,313	156,712	-0,046	-0,046
-459,299	510,219	0,029	0,050
-458,284	686,263	0,021	0,041
-457,270	800,000	0,010	0,024
-456,255	-125,019	-0,106	-0,012
-455,241	188,702	-0,068	-0,074
-454,226	255,043	0,140	-0,174
-453,211	800,000	-0,035	0,102
-452,197	181,965	0,065	0,070
-451,182	260,896	0,056	0,071
-450,168	91,694	-0,043	-0,036
-449,153	-1,804	-0,171	0,087
-448,138	96,315	-0,061	0,051
-447,124	53,587	-0,078	-0,055
-446,109	-200,000	0,005	0,088
-445,095	800,000	0,053	0,113
-444,080	-97,858	0,086	-0,016
-443,065	20,051	-0,139	0,082
-442,051	800,000	-0,057	-0,148
-441,036	347,234	0,047	0,067
-440,022	-32,145	-0,134	0,054
-439,007	15,307	0,149	0,085
-437,992	525,525	0,024	0,041
-436,978	215,508	-0,095	0,110
-435,963	416,441	0,026	0,040
-434,949	-41,024	-0,075	0,028
-433,934	40,988	-0,099	-0,065
-432,919	148,783	0,075	0,073
-431,905	-146,080	0,205	-0,013
-430,890	-193,043	0,038	0,000
-429,876	16,887	-0,139	0,080
-428,861	-57,049	-0,073	-0,023
-427,846	-200,000	0,023	-0,135
-426,832	-200,000	0,069	-0,242
-425,817	20,160	-0,028	0,016
-424,803	204,679	0,082	0,092
-423,788	-200,000	-0,016	-0,127
-422,773	157,141	0,033	0,033
-421,759	255,006	0,076	0,095
-420,744	72,420	-0,095	0,072
-419,730	800,000	-0,034	-0,081
-418,715	-21,054	-0,094	-0,042
-417,701	357,211	0,063	0,092
-416,686	-200,000	-0,002	-0,035
-415,671	-16,033	0,044	-0,020
-414,657	169,939	0,028	-0,029
-413,642	800,000	-0,025	0,055
-412,628	-11,022	-0,003	0,002
-411,613	167,627	0,076	0,079
-410,598	-0,546	-0,037	0,019
-409,584	-200,000	0,002	0,041
-408,569	-177,287	0,103	-0,002
-407,555	-84,637	-0,119	-0,027
-406,540	-200,000	0,029	0,233
-405,525	354,503	0,074	-0,108
-404,511	206,204	0,107	-0,121
-403,496	-91,371	-0,119	-0,025
-402,482	98,445	-0,026	0,021
-401,467	480,652	0,045	0,074
-400,452	104,453	0,026	-0,022
-399,438	-129,326	0,102	0,010
-398,423	-37,431	0,121	-0,047
-397,409	75,423	-0,034	0,026
-396,394	-200,000	-0,003	0,074
-395,379	-84,140	-0,202	-0,046
-394,365	-62,489	0,153	-0,046
-393,350	-71,679	-0,058	-0,016
-392,336	68,659	0,098	0,073
-391,321	165,462	-0,069	0,070
-390,306	-41,214	0,044	-0,016
-389,292	-200,000	0,009	-0,049
-388,277	-64,391	-0,090	-0,026
-387,263	-200,000	-0,009	-0,058
-386,248	-31,557	0,143	0,058
-385,233	-88,743	-0,060	-0,013
-384,219	350,388	0,096	0,139
-383,204	306,255	-0,057	-0,077
-382,190	-83,064	0,117	0,027
-381,175	384,980	-0,028	0,043
-380,160	-200,000	0,014	0,046
-379,146	-200,000	-0,001	0,112
-378,131	-124,874	-0,039	-0,004
-377,117	179,281	0,041	0,044
-376,102	-67,953	0,257	-0,072
-375,088	165,930	-0,084	-0,086
-374,073	281,609	0,049	-0,063
-373,058	-73,672	0,097	0,025
-372,044	-101,223	0,143	0,025
-371,029	592,629	0,036	-0,064
-370,015	349,916	-0,054	-0,077
-369,000	99,049	0,098	0,082
-367,985	-35,719	-0,137	-0,054
-366,971	800,000	0,030	-0,062
-365,956	-200,000	-0,040	0,146
-364,942	186,980	-0,052	0,056
-363,927	221,023	0,048	-0,056
-362,912	-51,032	-0,029	-0,010
-361,898	516,343	-0,023	0,040
-360,883	117,038	-0,054	-0,048
-359,869	289,099	-0,023	-0,030
-358,854	800,000	-0,059	0,133
-357,839	-200,000	-0,009	-0,056
-356,825	23,430	0,105	-0,062
-355,810	-162,222	0,087	-0,003
-354,796	800,000	-0,029	0,074
-353,781	18,331	-0,090	-0,052
-352,766	-32,167	0,060	0,024
-351,752	46,434	0,155	-0,104
-350,737	-133,804	0,141	-0,013
-349,723	-200,000	-0,005	-0,049
-348,708	36,000	0,102	0,065
-347,693	-5,964	0,044	-0,022
-346,679	-105,637	-0,156	-0,025
-345,664	26,975	-0,048	0,029
-344,650	-77,234	-0,024	-0,006
-343,635	-54,914	0,055	0,018
-342,620	800,000	-0,028	0,071
-341,606	800,000	-0,046	0,110
-340,591	99,831	0,040	0,033
-339,577	20,451	-0,048	0,028
-338,562	7,189	-0,096	-0,052
-337,548	-53,086	0,081	-0,027
-336,533	398,706	-0,043	0,066
-335,518	-24,662	0,040	-0,017
-334,504	-200,000	0,031	0,116
-333,489	377,688	-0,072	0,107
-332,475	-116,882	0,059	-0,008
-331,460	45,968	-0,076	-0,051
-330,445	-97,900	-0,007	-0,001
-329,431	218,164	0,057	0,066
-328,416	190,646	0,090	-0,098
-327,402	-113,408	0,072	-0,010
-326,387	218,945	0,070	0,081
-325,372	800,000	0,078	-0,245
-324,358	-142,699	0,097	0,007
-323,343	-200,000	-0,023	-0,147
-322,329	-130,838	0,088	-0,008
-321,314	-200,000	0,034	0,152
-320,299	148,131	-0,079	-0,077
-319,285	382,506	0,028	0,042
-318,270	-112,078	0,117	0,017
-317,256	-101,888	-0,067	-0,012
-316,241	320,664	-0,039	-0,054
-315,226	800,000	0,046	0,129
-314,212	-90,835	0,197	0,041
-313,197	19,805	0,025	0,014
-312,183	-200,000	-0,001	0,100
-311,168	195,425	0,038	-0,042
-310,153	-128,893	-0,123	0,012
-309,139	540,854	0,028	-0,049
-308,124	223,278	0,066	-0,077
-307,110	-142,951	0,084	-0,006
-306,095	13,088	0,048	-0,027
-305,080	406,693	-0,057	-0,087
-304,066	-200,000	0,018	-0,103
-303,051	55,401	-0,119	-0,083
-302,037	164,412	0,063	-0,065
-301,022	-200,000	0,019	0,128
-300,008	40,637	0,085	0,056
-298,993	8,867	0,156	0,085
-297,978	-38,374	-0,060	-0,023
-296,964	-200,000	0,003	0,084
-295,949	800,000	0,027	0,077
-294,935	-41,810	0,055	-0,020
-293,920	-63,648	-0,132	0,039
-292,905	537,098	0,061	-0,105
-291,891	-200,000	-0,031	0,105
-290,876	-0,289	0,137	0,070
-289,862	29,380	-0,085	-0,052
-288,847	800,000	-0,032	0,069
-287,832	-200,000	-0,017	-0,150
-286,818	-200,000	0,024	-0,106
-285,803	-200,000	-0,007	-0,034
-284,789	12,410	0,020	-0,011
-283,774	552,356	-0,105	0,183
-282,759	-200,000	0,009	0,129
-281,745	-22,730	0,019	-0,008
-280,730	405,500	-0,054	-0,083
-279,716	-31,635	0,040	0,016
-278,701	-200,000	-0,009	0,097
-277,686	617,985	0,051	0,092
-276,672	-37,878	0,089	-0,034
-275,657	4,540	0,061	-0,032
-274,643	288,847	0,087	-0,115
-273,628	800,000	0,024	-0,068
-272,613	9,809	-0,217	0,119
-271,599	99,846	0,034	0,029
-270,584	308,922	0,036	0,049
-269,570	-122,743	0,138	0,016
-268,555	11,529	0,026	-0,014
-267,540	266,657	-0,052	-0,065
-266,526	-200,000	-0,036	-0,128
-265,511	225,924	-0,046	-0,054
-264,497	-23,437	0,115	-0,050
-263,482	-38,746	0,116	-0,044
-262,467	-11,219	0,040	-0,019
-261,453	611,585	-0,018	-0,032
-260,438	800,000	-0,054	0,138
-259,424	379,205	-0,070	0,103
-258,409	78,771	-0,064	-0,049
-257,395	-200,000	0,004	-0,105
-256,380	-200,000	-0,005	0,071
-255,365	9,655	-0,039	-0,021
-254,351	694,315	0,015	-0,029
-253,336	-11,438	-0,061	-0,029
-252,322	-68,486	-0,031	-0,009
-251,307	800,000	-0,059	0,134
-250,292	110,317	-0,115	0,099
-249,278	3,664	0,112	-0,059
-248,263	-200,000	-0,009	0,055
-247,249	259,489	-0,072	0,090
-246,234	76,435	-0,040	-0,031
-245,219	-17,898	0,050	0,022
-244,205	-95,255	-0,029	0,006
-243,190	-200,000	0,020	0,073
-242,176	-158,241	-0,027	0,001
-241,161	-200,000	-0,011	0,038
-240,146	131,073	-0,021	-0,019
-239,132	673,295	-0,037	0,070
-238,117	-200,000	-0,018	0,134
-237,103	-200,000	-0,002	-0,080
-236,088	-0,395	0,141	-0,072
-235,073	209,893	0,016	-0,019
-234,059	-200,000	-0,013	0,169
-233,044	368,293	-0,029	0,042
-232,030	-172,061	0,044	0,001
-231,015	-170,069	-0,158	0,004
-230,000	-110,326	-0,127	0,019
-228,986	800,000	0,029	0,058
-227,971	173,054	-0,057	0,059
-226,957	800,000	-0,033	0,092
-225,942	58,198	-0,095	-0,067
-224,927	-200,000	-0,008	0,052
-223,913	800,000	0,036	0,081
-222,898	-200,000	-0,024	-0,092
-221,884	587,935	0,029	0,052
-220,869	182,721	0,059	0,063
-219,855	62,371	0,027	-0,020
-218,840	800,000	-0,029	-0,087
-217,825	-106,667	0,195	0,031
-216,811	20,144	-0,072	0,042
-215,796	92,458	-0,035	-0,028
-214,782	85,939	0,119	0,094
-213,767	147,301	-0,047	0,046
-212,752	173,603	-0,026	-0,027
-211,738	34,778	-0,087	0,055
-210,723	800,000	-0,032	0,093
-209,709	14,329	-0,055	-0,031
-208,694	-112,150	0,077	-0,011
-207,679	-18,409	-0,134	-0,060
-206,665	-200,000	0,029	0,112
-205,650	-200,000	0,009	-0,058
-204,636	45,612	-0,044	-0,029
-203,621	800,000	-0,016	0,039
-202,606	-87,273	0,116	0,025
-201,592	-83,488	-0,123	0,028
-200,577	-122,283	0,077	0,009
-199,563	596,432	0,058	-0,104
-198,548	800,000	-0,036	0,078
-197,533	800,000	-0,014	-0,042
-196,519	-200,000	0,007	0,130
-195,504	-57,181	-0,093	-0,029
-194,490	51,632	-0,037	-0,025
-193,475	90,355	0,032	-0,026
-192,460	113,998	0,024	0,021
-191,446	-120,779	0,100	0,012
-190,431	454,783	0,051	0,082
-189,417	800,000	-0,009	-0,026
-188,402	-200,000	0,011	-0,078
-187,387	-200,000	-0,016	-0,077
-186,373	800,000	-0,023	0,052
-185,358	-121,057	0,074	0,009
-184,344	190,430	-0,024	0,026
-183,329	465,969	0,058	0,094
-182,315	-123,522	-0,036	0,004
-181,300	-72,184	-0,017	-0,004
-180,285	42,222	-0,046	0,030
-179,271	8,235	-0,084	-0,046
-178,256	-88,587	0,122	-0,026
-177,242	156,243	-0,107	0,106
-176,227	-195,526	0,102	0,001
-175,212	97,274	-0,131	-0,108
-174,198	768,191	0,056	-0,111
-173,183	33,620	-0,066	-0,041
-172,169	40,371	-0,090	-0,058
-171,154	-30,536	0,043	-0,017
-170,139	800,000	0,022	-0,069
-169,125	-142,546	-0,077	-0,005
-168,110	255,455	0,100	0,124
-167,096	36,571	-0,031	-0,020
-166,081	-35,592	0,076	-0,029
-165,066	800,000	0,072	-0,182
-164,052	532,095	-0,066	-0,114
-163,037	-200,000	0,024	0,109
-162,023	39,163	0,056	0,036
-161,008	25,565	-0,110	0,066
-159,993	168,097	-0,058	0,059
-158,979	41,117	0,137	0,089
-157,964	608,085	-0,026	-0,047
-156,950	115,158	0,014	0,013
-155,935	-197,727	0,055	-0,000
-154,920	-200,000	-0,012	0,070
-153,906	32,766	0,098	0,061
-152,891	70,356	-0,068	-0,051
-151,877	-200,000	0,011	-0,079
-150,862	-200,000	0,015	-0,092
-149,847	-200,000	-0,037	-0,131
-148,833	512,448	-0,071	-0,120
-147,818	-200,000	-0,012	0,144
-146,804	800,000	0,045	0,097
-145,789	38,581	-0,102	0,065
-144,775	-200,000	0,041	-0,143
-143,760	800,000	-0,065	-0,202
-142,745	-200,000	-0,008	-0,038
-141,731	224,870	-0,049	-0,058
-140,716	584,765	-0,051	0,090
-139,702	11,215	0,052	0,028
-138,687	42,564	0,070	0,046
-137,672	-61,690	-0,100	0,030
-136,658	721,833	-0,034	-0,066
-135,643	800,000	0,072	-0,177
-134,629	-200,000	0,016	0,068
-133,614	-82,076	-0,079	0,018
-132,599	-7,842	0,042	0,021
-131,585	-124,954	0,110	0,012
-130,570	-200,000	-0,014	-0,068
-129,556	-200,000	-0,002	0,017
-128,541	65,051	0,096	0,069
-127,526	93,046	0,094	0,076
-126,512	-25,076	0,066	-0,028
-125,497	-107,901	0,149	0,023
-124,483	-200,000	-0,002	0,053
-123,468	-79,566	-0,108	0,026
-122,453	124,846	-0,059	-0,054
-121,439	167,116	-0,044	0,044
-120,424	-200,000	0,006	0,036
-119,410	718,651	0,046	0,088
-118,395	78,685	0,044	-0,034
