DTS Sentinel unit serial number:	SN410029Multiplexer serial number:	ORYXHardware model number:	OX2-SRSoftware version number:	ORYX F/W v4,00 Oryx Data Collector v3.7.2.0data status	okinstallation	B5 Nyhavnadifferential loss correction	single-endedforward channel	channel 2reverse channel	N/Adate	2023/12/14time	05:22:13forward acquisition time	300,00reverse acquisition time	0,00gamma	499,1914k internal	0,3156k external	0,3156temperature offset calibration	1,0000default loss term (dB/km)	0,3820temperature slope calibration	1,0000multiplexer offset coefficient	1,0000multiplexer slope coefficient	1,0000fibre end	0,00T internal ref (°C)	7,80T ext. ref 1 (°C)	-8,72T ext. ref 2 (°C)	-8,82length (m)	temperature (°C)	Stokes	anti-Stokes-744,400	-44,729	0,245	0,090
-743,385	17,378	-0,359	-0,210
-742,371	-66,814	0,268	0,078
-741,356	-152,335	-0,435	0,023
-740,342	-33,181	0,164	0,067
-739,327	-97,233	-0,412	-0,079
-738,312	-3,507	0,054	-0,027
-737,298	-23,775	-0,309	-0,136
-736,283	11,440	0,193	0,109
-735,269	-155,753	-0,355	0,016
-734,254	-200,000	-0,004	0,086
-733,239	-14,687	-0,619	-0,292
-732,225	-101,906	0,292	0,052
-731,210	428,724	0,023	-0,036
-730,196	245,777	-0,052	0,065
-729,181	-200,000	-0,002	-0,127
-728,167	164,077	0,073	-0,076
-727,152	-62,524	0,015	-0,005
-726,137	50,394	-0,074	-0,051
-725,123	-161,058	-0,013	-0,000
-724,108	-200,000	-0,003	-0,101
-723,094	-153,182	-0,150	-0,008
-722,079	129,591	-0,108	-0,102
-721,064	-61,950	0,086	0,026
-720,050	59,893	-0,047	0,034
-719,035	43,704	0,078	-0,052
-718,021	-52,083	0,015	-0,005
-717,006	212,623	-0,024	0,028
-715,991	191,966	-0,036	-0,041
-714,977	142,543	-0,031	-0,030
-713,962	-107,291	-0,085	-0,014
-712,948	129,021	-0,081	-0,076
-711,933	74,617	-0,067	-0,052
-710,918	10,409	0,181	0,101
-709,904	2,581	-0,026	-0,014
-708,889	585,592	0,048	-0,087
-707,875	114,342	0,070	-0,062
-706,860	-52,883	-0,060	0,020
-705,845	18,024	0,065	0,038
-704,831	82,604	-0,083	-0,066
-703,816	275,079	0,051	-0,067
-702,802	-132,294	-0,041	0,004
-701,787	367,723	-0,041	-0,061
-700,772	22,846	0,106	0,064
-699,758	-59,866	-0,113	0,035
-698,743	-46,491	0,107	-0,039
-697,729	-200,000	-0,013	0,082
-696,714	-124,429	-0,059	0,007
-695,699	-200,000	-0,035	-0,128
-694,685	449,382	0,036	-0,059
-693,670	800,000	-0,055	-0,142
-692,656	-68,428	-0,083	0,024
-691,641	-4,127	-0,038	0,019
-690,627	727,219	0,074	0,145
-689,612	3,481	-0,077	-0,041
-688,597	-200,000	0,025	-0,101
-687,583	65,341	-0,163	-0,121
-686,568	140,127	-0,078	-0,076
-685,554	48,175	-0,083	-0,057
-684,539	-200,000	-0,004	-0,055
-683,524	-92,109	0,057	0,012
-682,510	800,000	-0,034	-0,086
-681,495	-90,518	-0,098	-0,021
-680,481	-123,587	-0,106	0,012
-679,466	800,000	-0,015	-0,038
-678,451	800,000	-0,020	-0,051
-677,437	-26,050	0,147	0,063
-676,422	771,184	-0,047	0,095
-675,408	-26,219	-0,073	0,031
-674,393	-200,000	-0,001	-0,082
-673,378	176,721	-0,055	-0,059
-672,364	579,587	-0,018	-0,032
-671,349	57,235	-0,158	0,113
-670,335	-159,510	-0,069	-0,003
-669,320	31,295	0,073	-0,046
-668,305	800,000	0,028	0,088
-667,291	-200,000	0,005	-0,034
-666,276	56,299	-0,011	0,008
-665,262	216,819	-0,076	0,089
-664,247	35,089	0,131	-0,084
-663,232	71,807	0,010	-0,008
-662,218	30,598	0,022	-0,014
-661,203	-127,002	-0,073	0,008
-660,189	75,005	-0,101	0,078
-659,174	-69,828	-0,074	-0,020
-658,159	-153,309	0,035	0,002
-657,145	-200,000	-0,002	-0,106
-656,130	4,528	0,137	-0,074
-655,116	110,154	0,093	-0,082
-654,101	-159,733	0,064	-0,003
-653,086	188,577	-0,059	-0,065
-652,072	800,000	-0,088	-0,232
-651,057	1,091	-0,102	-0,054
-650,043	126,368	-0,084	-0,078
-649,028	-126,791	-0,079	0,008
-648,014	-101,876	0,124	0,022
-646,999	19,236	0,043	-0,025
-645,984	-4,113	-0,067	0,034
-644,970	-175,505	-0,090	0,002
-643,955	-200,000	0,019	-0,066
-642,941	-200,000	-0,017	0,058
-641,926	-200,000	-0,017	-0,105
-640,911	230,671	0,062	-0,075
-639,897	-54,864	0,052	-0,017
-638,882	518,662	-0,046	0,079
-637,868	-200,000	-0,039	0,142
-636,853	-96,045	0,093	-0,018
-635,838	-200,000	-0,005	-0,078
-634,824	-21,231	-0,057	0,026
-633,809	800,000	0,057	0,123
-632,795	399,588	-0,009	0,014
-631,780	-200,000	0,000	0,123
-630,765	114,896	-0,069	0,062
-629,751	21,538	-0,047	0,028
-628,736	-25,692	0,031	0,013
-627,722	-117,010	0,123	-0,016
-626,707	191,793	-0,036	-0,040
-625,692	800,000	0,023	0,062
-624,678	178,970	-0,119	0,128
-623,663	-137,434	0,136	0,011
-622,649	-18,051	-0,189	-0,087
-621,634	52,451	-0,165	-0,116
-620,619	-200,000	-0,045	-0,153
-619,605	59,575	0,149	-0,108
-618,590	74,618	0,082	-0,064
-617,576	-114,554	-0,052	-0,007
-616,561	21,438	-0,117	-0,070
-615,546	-86,164	-0,118	-0,026
-614,532	55,501	0,074	-0,052
-613,517	263,389	-0,031	-0,040
-612,503	800,000	0,026	0,076
-611,488	13,795	0,049	-0,028
-610,474	-200,000	0,013	0,071
-609,459	-32,798	-0,064	0,026
-608,444	800,000	-0,025	-0,062
-607,430	-200,000	0,020	-0,108
-606,415	-200,000	-0,017	0,097
-605,401	99,012	-0,103	0,087
-604,386	318,893	-0,075	0,104
-603,371	-200,000	-0,012	0,133
-602,357	48,652	0,019	0,013
-601,342	240,499	-0,012	-0,015
-600,328	-200,000	-0,007	0,118
-599,313	800,000	0,050	-0,147
-598,298	-88,579	-0,144	0,031
-597,284	-54,573	0,027	-0,009
-596,269	23,165	-0,070	-0,042
-595,255	-85,629	0,129	0,029
-594,240	-82,408	-0,136	0,032
-593,225	-200,000	-0,014	-0,116
-592,211	-108,264	0,079	0,012
-591,196	-200,000	0,016	-0,107
-590,182	-15,331	-0,090	0,042
-589,167	93,411	-0,031	0,026
-588,152	-97,933	0,120	-0,022
-587,138	-200,000	0,010	-0,056
-586,123	-14,759	-0,133	-0,062
-585,109	-96,619	-0,082	-0,016
-584,094	17,676	-0,021	-0,012
-583,079	-140,488	-0,106	-0,008
-582,065	377,577	-0,084	0,126
-581,050	800,000	0,011	-0,031
-580,036	-200,000	-0,002	0,056
-579,021	800,000	0,009	0,027
-578,006	-10,071	-0,212	-0,103
-576,992	-95,028	0,066	0,013
-575,977	93,468	-0,104	-0,086
-574,963	600,079	-0,085	-0,154
-573,948	-200,000	-0,018	0,072
-572,934	-189,381	-0,060	-0,000
-571,919	13,923	-0,124	0,070
-570,904	188,879	-0,029	-0,031
-569,890	90,515	0,087	-0,071
-568,875	92,538	-0,103	0,085
-567,861	-34,991	0,137	0,054
-566,846	-200,000	0,035	0,138
-565,831	351,205	0,065	-0,094
-564,817	-200,000	0,027	0,099
-563,802	800,000	-0,059	-0,140
-562,788	-19,183	-0,087	0,039
-561,773	-22,728	-0,087	0,038
-560,758	173,176	0,063	0,067
-559,744	-200,000	-0,007	0,069
-558,729	-200,000	-0,015	0,063
-557,715	-200,000	0,002	-0,009
-556,700	-71,435	-0,152	0,041
-555,685	800,000	0,051	0,141
-554,671	81,940	0,091	0,072
-553,656	-200,000	0,026	-0,111
-552,642	-200,000	0,004	0,114
-551,627	-200,000	0,012	-0,128
-550,612	-200,000	0,011	-0,097
-549,598	-89,903	-0,073	0,015
-548,583	-40,329	0,080	-0,030
-547,569	424,927	0,019	-0,030
-546,554	275,760	0,051	0,067
-545,539	214,910	0,123	0,143
-544,525	-127,723	0,073	0,008
-543,510	-8,561	-0,097	-0,048
-542,496	245,371	0,077	-0,095
-541,481	420,510	0,032	0,050
-540,466	36,048	0,042	0,027
-539,452	-75,620	0,183	0,047
-538,437	496,974	-0,051	-0,086
-537,423	-24,166	0,010	0,005
-536,408	-200,000	-0,013	0,045
-535,393	-69,240	-0,105	0,029
-534,379	-200,000	0,004	-0,060
-533,364	-141,930	0,101	0,007
-532,350	604,107	-0,036	0,065
-531,335	-130,772	0,093	0,009
-530,321	800,000	-0,024	0,050
-529,306	-192,333	0,005	0,000
-528,291	800,000	-0,023	-0,052
-527,277	800,000	-0,021	0,054
-526,262	-108,678	-0,029	0,004
-525,248	156,398	-0,031	-0,032
-524,233	294,533	0,041	0,055
-523,218	-36,269	-0,060	-0,024
-522,204	-38,050	0,099	0,038
-521,189	-200,000	-0,010	0,122
-520,175	-7,242	0,094	0,046
-519,160	-200,000	-0,004	-0,057
-518,145	-36,817	0,081	0,032
-517,131	43,939	0,066	-0,044
-516,116	-200,000	-0,010	0,076
-515,102	57,434	-0,060	0,043
-514,087	-24,676	-0,090	-0,039
-513,072	-119,264	0,061	0,008
-512,058	17,182	0,044	0,025
-511,043	526,906	-0,081	0,140
-510,029	-97,717	0,125	0,023
-509,014	-200,000	0,043	0,142
-507,999	743,367	0,010	0,019
-506,985	800,000	0,044	-0,114
-505,970	-15,901	-0,144	-0,067
-504,956	-18,247	-0,076	0,035
-503,941	-20,271	0,138	-0,062
-502,926	50,982	0,063	-0,044
-501,912	-27,415	-0,132	-0,056
-500,897	-95,393	0,090	-0,017
-499,883	459,184	0,014	0,023
-498,868	800,000	-0,033	-0,089
-497,853	-113,719	0,078	-0,011
-496,839	-36,804	0,101	-0,039
-495,824	83,335	-0,047	0,037
-494,810	590,858	-0,071	0,129
-493,795	257,025	-0,066	0,084
-492,781	-200,000	-0,004	-0,017
-491,766	149,533	0,085	0,084
-490,751	-200,000	0,043	-0,159
-489,737	-200,000	0,017	0,069
-488,722	-140,751	0,101	-0,008
-487,708	-200,000	-0,010	-0,109
-486,693	800,000	0,034	0,082
-485,678	-32,201	0,157	0,064
-484,664	-200,000	-0,009	-0,085
-483,649	345,090	-0,049	0,070
-482,635	485,322	0,072	-0,121
-481,620	-200,000	-0,004	-0,054
-480,605	-200,000	-0,014	0,074
-479,591	175,651	0,054	0,057
-478,576	199,836	0,060	-0,067
-477,562	421,172	-0,016	-0,024
-476,547	31,074	-0,060	0,037
-475,532	135,001	-0,027	-0,026
-474,518	800,000	-0,012	0,033
-473,503	-78,162	-0,066	-0,016
-472,489	327,642	0,040	-0,056
-471,474	174,728	0,010	-0,011
-470,459	252,702	0,037	-0,047
-469,445	-104,872	-0,138	-0,023
-468,430	146,003	0,023	-0,023
-467,416	800,000	0,043	0,125
-466,401	-200,000	0,021	0,120
-465,386	800,000	-0,060	-0,151
-464,372	117,465	-0,069	-0,062
-463,357	126,400	0,041	-0,037
-462,343	116,081	-0,065	-0,058
-461,328	-41,383	0,098	-0,037
-460,313	-96,972	0,063	-0,012
-459,299	-9,898	-0,127	0,062
-458,284	41,479	-0,032	0,021
-457,270	313,117	-0,027	0,037
-456,255	64,624	0,057	0,042
-455,241	60,476	-0,051	-0,037
-454,226	-200,000	0,022	-0,149
-453,211	784,612	-0,026	0,052
-452,197	40,810	-0,053	0,035
-451,182	800,000	0,032	0,069
-450,168	800,000	-0,033	-0,074
-449,153	168,697	0,022	0,023
-448,138	-200,000	0,004	0,156
-447,124	-200,000	0,027	-0,138
-446,109	800,000	0,049	-0,105
-445,095	6,912	0,135	-0,073
-444,080	385,644	0,068	0,103
-443,065	558,854	-0,013	-0,023
-442,051	111,698	-0,064	-0,056
-441,036	-200,000	-0,022	-0,087
-440,022	85,043	0,118	-0,094
-439,007	-88,169	-0,042	0,009
-437,992	-96,018	-0,070	-0,013
-436,978	-38,534	0,116	0,044
-435,963	-200,000	0,002	0,108
-434,949	-12,800	-0,114	0,054
-433,934	319,504	-0,047	-0,066
-432,919	800,000	0,014	0,030
-431,905	-200,000	-0,001	-0,014
-430,890	-94,755	0,050	0,010
-429,876	-147,453	0,137	-0,008
-428,861	-31,729	-0,113	-0,046
-427,846	69,617	0,051	0,038
-426,832	641,321	0,073	-0,136
-425,817	560,321	0,031	0,055
-424,803	313,549	-0,087	-0,120
-423,788	588,908	-0,047	0,085
-422,773	51,355	-0,039	0,027
-421,759	417,863	-0,062	0,097
-420,744	76,744	0,027	-0,021
-419,730	-200,000	-0,032	-0,132
-418,715	143,550	-0,045	0,044
-417,701	-200,000	0,020	-0,187
-416,686	95,786	-0,036	-0,030
-415,671	-59,466	0,168	0,052
-414,657	-200,000	0,015	0,088
-413,642	621,273	-0,011	0,020
-412,628	235,152	0,106	0,128
-411,613	-47,386	-0,174	-0,061
-410,598	800,000	0,033	-0,078
-409,584	-122,331	-0,141	0,017
-408,569	80,485	-0,086	-0,067
-407,555	-200,000	-0,031	-0,124
-406,540	151,044	0,090	-0,090
-405,525	83,506	-0,077	0,061
-404,511	461,161	-0,067	-0,110
-403,496	99,129	-0,091	-0,076
-402,482	-200,000	0,003	0,051
-401,467	393,926	0,153	0,233
-400,452	-200,000	0,011	0,127
-399,438	86,283	0,028	0,023
-398,423	507,984	-0,078	0,132
-397,409	125,748	0,061	0,056
-396,394	-93,563	-0,091	-0,018
-395,379	496,868	0,054	-0,091
-394,365	-200,000	-0,000	0,088
-393,350	-2,736	0,002	-0,001
-392,336	-137,484	0,063	-0,005
-391,321	277,077	0,054	-0,071
-390,306	800,000	-0,031	-0,098
-389,292	336,944	0,041	-0,057
-388,277	-120,732	0,025	-0,003
-387,263	-200,000	0,031	0,000
-386,248	183,454	-0,133	0,143
-385,233	203,394	-0,039	-0,044
-384,219	-200,000	0,018	0,093
-383,204	-200,000	0,005	-0,025
-382,190	-150,508	-0,047	-0,003
-381,175	-60,823	0,118	-0,036
-380,160	800,000	0,055	0,113
-379,146	-81,074	0,108	0,026
-378,131	-200,000	0,001	-0,053
-377,117	-30,502	-0,080	-0,033
-376,102	-105,515	0,048	-0,008
-375,088	-200,000	0,001	-0,053
-374,073	-200,000	0,018	-0,072
-373,058	-200,000	0,001	0,007
-372,044	-100,900	0,102	0,018
-371,029	-200,000	0,005	0,068
-370,015	-129,730	0,231	0,023
-369,000	118,723	0,137	0,123
-367,985	-200,000	-0,026	-0,155
-366,971	-200,000	-0,018	-0,064
-365,956	-93,625	0,070	0,014
-364,942	-200,000	-0,009	-0,073
-363,927	105,774	0,036	-0,031
-362,912	-200,000	-0,044	-0,156
-361,898	-80,805	0,074	-0,018
-360,883	-40,666	-0,039	-0,015
-359,869	-26,324	-0,053	-0,022
-358,854	-200,000	-0,017	0,105
-357,839	12,979	0,049	0,027
-356,825	0,002	0,028	-0,014
-355,810	-92,941	0,037	-0,008
-354,796	188,286	0,052	0,057
-353,781	117,872	-0,157	-0,141
-352,766	194,290	-0,068	0,075
-351,752	-200,000	0,025	0,115
-350,737	654,299	-0,063	-0,118
-349,723	-139,968	-0,052	0,004
-348,708	384,339	-0,012	0,019
-347,693	-200,000	0,016	-0,082
-346,679	800,000	-0,055	-0,149
-345,664	-23,719	0,044	0,019
-344,650	510,511	-0,049	0,084
-343,635	188,911	0,175	0,190
-342,620	242,668	-0,052	0,064
-341,606	-12,571	-0,187	0,088
-340,591	-200,000	0,060	0,193
-339,577	246,437	-0,034	-0,042
-338,562	-80,383	0,027	-0,006
-337,548	487,949	0,017	0,029
-336,533	161,253	0,099	-0,101
-335,518	800,000	0,005	-0,013
-334,504	-35,262	-0,188	-0,074
-333,489	-96,558	-0,096	-0,018
-332,475	123,716	0,052	0,047
-331,460	81,793	0,094	0,074
-330,445	-134,201	0,080	0,007
-329,431	107,572	0,078	0,068
-328,416	-200,000	-0,004	0,043
-327,402	120,379	-0,028	0,025
-326,387	230,167	-0,058	0,069
-325,372	800,000	-0,050	-0,138
-324,358	-200,000	0,022	-0,075
-323,343	-200,000	0,009	-0,033
-322,329	494,541	0,054	0,090
-321,314	348,940	0,030	0,044
-320,299	-86,184	-0,062	0,014
-319,285	233,296	0,028	-0,033
-318,270	-200,000	0,000	-0,087
-317,256	789,107	-0,016	-0,033
-316,241	-54,520	0,134	0,044
-315,226	18,579	-0,101	-0,058
-314,212	-52,285	0,122	0,041
-313,197	-77,632	0,100	0,025
-312,183	-200,000	-0,001	-0,034
-311,168	44,013	0,110	0,073
-310,153	-60,288	0,109	0,034
-309,139	-200,000	0,005	-0,024
-308,124	800,000	0,026	0,065
-307,110	534,338	-0,078	0,134
-306,095	671,809	0,020	-0,038
-305,080	800,000	0,028	-0,060
-304,066	153,035	0,082	0,082
-303,051	115,931	-0,053	-0,047
-302,037	-121,430	-0,042	-0,005
-301,022	78,871	0,068	0,053
-300,008	800,000	0,051	0,156
-298,993	-145,707	-0,060	0,004
-297,978	276,705	0,076	0,099
-296,964	-47,779	-0,124	-0,043
-295,949	73,051	-0,022	-0,016
-294,935	-200,000	-0,016	-0,094
-293,920	507,748	-0,045	-0,075
-292,905	800,000	-0,027	0,055
-291,891	800,000	-0,045	0,099
-290,876	-200,000	0,010	-0,034
-289,862	200,281	-0,032	-0,036
-288,847	-166,696	-0,167	-0,005
-287,832	-45,569	0,113	-0,040
-286,818	94,969	-0,143	0,118
-285,803	-200,000	-0,007	0,038
-284,789	90,852	-0,049	-0,040
-283,774	-200,000	-0,002	0,080
-282,759	-72,621	-0,058	-0,015
-281,745	24,731	0,078	-0,047
-280,730	293,218	0,057	-0,075
-279,716	-139,013	-0,097	-0,008
-278,701	23,292	0,044	-0,026
-277,686	26,084	-0,071	0,043
-276,672	-38,499	0,140	0,053
-275,657	-200,000	-0,038	-0,145
-274,643	237,739	-0,117	-0,140
-273,628	800,000	0,066	-0,139
-272,613	135,890	0,032	-0,030
-271,599	-143,452	0,130	0,009
-270,584	-200,000	-0,017	0,082
-269,570	-62,471	0,084	0,025
-268,555	572,077	0,025	-0,043
-267,540	778,389	-0,074	-0,147
-266,526	-65,621	-0,137	-0,039
-265,511	71,014	-0,026	-0,019
-264,497	800,000	-0,003	0,008
-263,482	-54,813	0,038	-0,012
-262,467	221,627	-0,095	0,110
-261,453	21,555	0,086	0,051
-260,438	239,987	-0,051	-0,062
-259,424	-15,527	-0,155	-0,072
-258,409	-132,815	0,086	0,008
-257,395	90,844	0,075	0,061
-256,380	-88,145	0,098	0,021
-255,365	168,098	0,092	0,094
-254,351	800,000	0,026	0,065
-253,336	-61,427	-0,096	-0,029
-252,322	-200,000	0,016	-0,076
-251,307	296,680	0,080	-0,106
-250,292	800,000	-0,042	-0,096
-249,278	-74,201	0,096	0,025
-248,263	-200,000	0,026	-0,126
-247,249	119,022	0,102	-0,091
-246,234	296,231	-0,058	-0,078
-245,219	43,845	-0,084	-0,055
-244,205	800,000	-0,059	-0,177
-243,190	800,000	0,023	-0,058
-242,176	36,140	0,045	-0,029
-241,161	-82,651	-0,020	-0,005
-240,146	15,502	-0,040	0,023
-239,132	-26,852	0,086	0,036
-238,117	260,808	-0,060	-0,076
-237,103	800,000	0,012	-0,030
-236,088	220,150	0,079	-0,092
-235,073	-9,445	0,089	0,043
-234,059	800,000	-0,025	-0,072
-233,044	-200,000	0,018	-0,069
-232,030	-58,971	0,083	0,026
-231,015	730,313	-0,066	-0,127
-230,000	-60,470	-0,133	-0,041
-228,986	109,761	0,066	-0,057
-227,971	-127,239	-0,057	-0,006
-226,957	-200,000	-0,009	0,146
-225,942	-159,113	-0,031	-0,001
-224,927	367,420	0,014	0,020
-223,913	-200,000	0,001	0,047
-222,898	-200,000	-0,021	-0,092
-221,884	694,564	-0,038	-0,073
-220,869	-47,907	-0,052	0,018
-219,855	-200,000	0,011	0,058
-218,840	-200,000	-0,044	0,193
-217,825	111,053	0,100	0,087
-216,811	-200,000	-0,015	-0,072
-215,796	800,000	-0,033	-0,097
-214,782	-200,000	-0,014	-0,114
-213,767	-63,060	-0,053	-0,016
-212,752	427,070	0,026	0,041
-211,738	-200,000	-0,018	0,075
-210,723	-200,000	0,018	0,110
-209,709	155,757	-0,061	0,060
-208,694	20,650	-0,102	-0,060
-207,679	430,662	0,010	-0,015
-206,665	-71,766	-0,137	-0,037
-205,650	128,191	0,046	-0,043
-204,636	383,320	0,064	0,095
-203,621	169,086	0,059	0,061
-202,606	-50,014	-0,144	-0,049
-201,592	-200,000	-0,011	0,108
-200,577	-200,000	-0,009	-0,102
-199,563	-200,000	0,026	0,087
-198,548	438,481	-0,030	-0,048
-197,533	-171,523	-0,103	0,002
-196,519	202,741	0,018	-0,020
-195,504	101,496	0,020	0,017
-194,490	230,115	-0,078	-0,092
-193,475	157,426	-0,033	-0,033
-192,460	-152,964	0,046	0,002
-191,446	290,564	-0,059	-0,078
-190,431	6,552	0,081	0,043
-189,417	-200,000	0,023	0,094
-188,402	745,335	0,047	-0,091
-187,387	-200,000	0,010	-0,136
-186,373	-80,162	-0,132	0,032
-185,358	-2,730	0,115	0,058
-184,344	-200,000	0,013	0,077
-183,329	218,923	-0,054	0,062
-182,315	-107,315	0,078	-0,012
-181,300	574,390	0,011	-0,019
-180,285	800,000	-0,028	0,080
-179,271	-172,712	0,066	-0,001
-178,256	-200,000	-0,005	0,089
-177,242	-200,000	0,002	0,147
-176,227	-15,391	0,125	0,058
-175,212	800,000	0,022	0,062
-174,198	-200,000	0,002	0,024
-173,183	-200,000	0,005	-0,195
-172,169	-72,142	0,012	0,003
-171,154	800,000	0,033	-0,105
-170,139	-200,000	-0,010	-0,072
-169,125	142,424	0,092	-0,088
-168,110	459,268	0,059	0,094
-167,096	-34,273	0,116	0,046
-166,081	-137,546	-0,107	-0,009
-165,066	72,391	0,014	-0,010
-164,052	111,133	-0,138	0,119
-163,037	-39,273	0,058	0,022
-162,023	-88,574	0,050	0,011
-161,008	-200,000	0,025	0,139
-159,993	-45,379	-0,094	0,033
-158,979	200,138	0,033	0,036
-157,964	-200,000	-0,026	-0,096
-156,950	110,644	-0,024	-0,021
-155,935	60,237	0,055	-0,039
-154,920	233,298	-0,063	0,075
-153,906	-200,000	-0,030	0,104
-152,891	290,299	-0,081	0,106
-151,877	308,941	-0,039	-0,053
-150,862	-200,000	0,020	-0,073
-149,847	-200,000	-0,006	-0,143
-148,833	-108,353	0,108	-0,017
-147,818	-39,265	0,081	0,030
-146,804	-200,000	0,004	0,106
-145,789	21,698	-0,113	0,066
-144,775	-200,000	-0,020	0,107
-143,760	793,652	-0,018	0,037
-142,745	-200,000	-0,001	-0,066
-141,731	-104,140	0,057	0,009
-140,716	187,723	0,096	0,103
-139,702	743,360	0,061	0,118
-138,687	-12,192	-0,010	0,005
-137,672	-87,520	0,037	0,008
-136,658	-200,000	0,020	-0,070
-135,643	693,777	-0,104	-0,198
-134,629	800,000	-0,053	0,138
-133,614	800,000	0,033	0,098
-132,599	-118,981	-0,033	0,004
-131,585	800,000	0,008	-0,025
-130,570	308,117	-0,058	-0,078
-129,556	211,881	0,022	0,024
-128,541	-19,214	-0,121	0,054
-127,526	-98,306	0,135	0,025
-126,512	151,705	0,130	0,128
-125,497	24,501	0,022	-0,013
-124,483	182,433	0,114	0,121
-123,468	17,842	0,057	0,032
-122,453	43,652	-0,053	-0,035
-121,439	800,000	-0,060	0,157
-120,424	-200,000	0,003	-0,025
-119,410	-171,100	0,092	0,002
