DTS Sentinel unit serial number:	SN410029Multiplexer serial number:	ORYXHardware model number:	OX2-SRSoftware version number:	ORYX F/W v4,00 Oryx Data Collector v3.7.2.0data status	okinstallation	B5 Nyhavnadifferential loss correction	single-endedforward channel	channel 2reverse channel	N/Adate	2023/12/12time	03:52:13forward acquisition time	300,00reverse acquisition time	0,00gamma	499,1914k internal	0,3156k external	0,3156temperature offset calibration	1,0000default loss term (dB/km)	0,3820temperature slope calibration	1,0000multiplexer offset coefficient	1,0000multiplexer slope coefficient	1,0000fibre end	0,00T internal ref (°C)	15,62T ext. ref 1 (°C)	-0,83T ext. ref 2 (°C)	-1,14length (m)	temperature (°C)	Stokes	anti-Stokes-744,400	-111,499	0,152	-0,023
-743,385	-31,250	-0,224	0,093
-742,371	-81,593	0,149	0,036
-741,356	-88,078	-0,324	-0,071
-740,342	-26,699	0,130	0,056
-739,327	-71,938	-0,366	-0,100
-738,312	142,682	-0,015	0,015
-737,298	-174,944	-0,422	0,009
-736,283	-195,267	0,126	-0,001
-735,269	-25,531	-0,258	0,112
-734,254	65,058	0,071	0,053
-733,239	-9,904	-0,431	-0,210
-732,225	-58,884	0,168	0,053
-731,210	800,000	-0,079	0,161
-730,196	800,000	0,026	0,076
-729,181	-200,000	-0,007	0,042
-728,167	-20,933	-0,108	-0,049
-727,152	800,000	0,004	0,008
-726,137	-200,000	0,007	0,044
-725,123	33,652	0,054	0,034
-724,108	-8,617	0,102	0,050
-723,094	-132,455	-0,136	-0,013
-722,079	115,834	0,095	-0,085
-721,064	-19,048	-0,025	-0,011
-720,050	7,611	0,086	-0,047
-719,035	-200,000	0,020	-0,178
-718,021	138,137	-0,055	-0,054
-717,006	393,253	-0,060	-0,093
-715,991	-52,953	-0,253	-0,085
-714,977	800,000	-0,043	-0,107
-713,962	-64,700	0,131	-0,039
-712,948	-200,000	-0,057	0,246
-711,933	45,604	-0,131	0,089
-710,918	106,690	-0,127	0,111
-709,904	-60,054	0,068	0,021
-708,889	800,000	-0,061	-0,149
-707,875	-200,000	-0,033	0,264
-706,860	302,835	0,015	-0,020
-705,845	-75,922	-0,104	-0,027
-704,831	-98,410	-0,082	-0,015
-703,816	253,564	0,074	-0,093
-702,802	118,060	-0,038	-0,034
-701,787	-200,000	0,005	0,058
-700,772	-23,146	0,062	0,027
-699,758	54,586	0,081	-0,057
-698,743	-86,139	-0,033	0,007
-697,729	-200,000	-0,015	0,098
-696,714	67,061	-0,077	0,058
-695,699	115,141	-0,162	-0,146
-694,685	183,016	-0,148	-0,161
-693,670	-200,000	-0,029	0,119
-692,656	3,123	0,087	-0,047
-691,641	-38,289	-0,067	0,026
-690,627	-200,000	-0,020	-0,068
-689,612	39,220	-0,055	-0,036
-688,597	23,983	-0,109	0,066
-687,583	199,595	0,035	0,039
-686,568	-172,934	-0,155	-0,003
-685,554	15,458	-0,122	0,071
-684,539	64,504	0,242	-0,179
-683,524	354,068	0,052	-0,077
-682,510	-200,000	-0,021	-0,147
-681,495	800,000	-0,068	-0,175
-680,481	-32,168	0,070	0,029
-679,466	347,714	-0,079	-0,115
-678,451	10,446	-0,103	-0,057
-677,437	124,518	-0,019	-0,018
-676,422	236,102	0,058	-0,071
-675,408	800,000	0,020	-0,048
-674,393	180,277	0,064	0,069
-673,378	300,377	-0,058	-0,079
-672,364	600,773	0,038	-0,069
-671,349	800,000	-0,027	-0,066
-670,335	-60,014	-0,118	0,037
-669,320	104,330	-0,047	-0,041
-668,305	-108,798	-0,037	0,006
-667,291	800,000	-0,024	0,056
-666,276	-101,992	-0,111	-0,020
-665,262	20,235	0,078	-0,046
-664,247	43,756	-0,135	-0,091
-663,232	292,179	-0,064	0,086
-662,218	-72,604	0,198	0,053
-661,203	102,198	0,061	-0,053
-660,189	79,481	0,027	-0,022
-659,174	381,168	0,031	0,047
-658,159	-200,000	-0,005	-0,033
-657,145	-200,000	-0,006	0,056
-656,130	128,285	-0,034	0,032
-655,116	290,760	-0,031	-0,042
-654,101	175,021	0,053	0,057
-653,086	11,685	0,102	-0,057
-652,072	6,826	0,059	0,032
-651,057	451,892	-0,025	-0,041
-650,043	-74,419	-0,075	-0,020
-649,028	-200,000	0,019	-0,101
-648,014	10,535	0,037	0,021
-646,999	364,137	-0,048	-0,072
-645,984	-1,847	-0,120	-0,062
-644,970	256,547	0,016	0,020
-643,955	-200,000	-0,028	-0,250
-642,941	-200,000	0,031	-0,136
-641,926	781,061	-0,052	-0,104
-640,911	269,033	0,070	0,090
-639,897	800,000	0,018	0,047
-638,882	-81,438	0,136	0,033
-637,868	6,785	-0,029	-0,016
-636,853	-200,000	-0,014	-0,104
-635,838	-200,000	0,001	-0,222
-634,824	-101,958	0,090	0,016
-633,809	-120,119	0,052	0,006
-632,795	-43,363	0,081	0,030
-631,780	48,906	-0,112	-0,077
-630,765	167,146	-0,064	-0,067
-629,751	507,914	-0,067	-0,115
-628,736	-200,000	0,007	-0,097
-627,722	800,000	-0,038	-0,082
-626,707	163,955	-0,085	0,088
-625,692	368,891	0,055	0,082
-624,678	28,331	-0,096	-0,059
-623,663	-112,255	-0,110	-0,016
-622,649	170,551	-0,053	-0,056
-621,634	-183,568	-0,132	-0,002
-620,619	-32,228	-0,105	0,043
-619,605	90,969	0,135	0,111
-618,590	184,297	0,071	0,077
-617,576	-11,374	0,118	0,057
-616,561	800,000	0,019	0,043
-615,546	-25,045	0,090	-0,039
-614,532	666,690	0,005	-0,010
-613,517	43,199	-0,027	0,018
-612,503	153,713	-0,040	0,040
-611,488	11,786	-0,022	0,013
-610,474	-53,717	0,093	-0,031
-609,459	-200,000	-0,004	-0,018
-608,444	-120,977	-0,095	-0,012
-607,430	800,000	0,055	-0,171
-606,415	149,706	-0,066	-0,066
-605,401	-104,469	0,029	0,005
-604,386	336,903	-0,049	-0,070
-603,371	800,000	0,041	0,128
-602,357	-41,600	0,046	0,017
-601,342	800,000	0,020	-0,058
-600,328	180,637	0,015	0,017
-599,313	490,047	-0,064	0,107
-598,298	-20,993	-0,029	0,013
-597,284	-84,961	0,154	-0,035
-596,269	200,591	-0,049	-0,056
-595,255	173,991	0,036	0,038
-594,240	466,223	0,034	0,056
-593,225	340,226	0,030	-0,043
-592,211	-6,163	-0,114	-0,057
-591,196	800,000	0,015	0,045
-590,182	28,308	-0,041	-0,025
-589,167	800,000	-0,052	-0,116
-588,152	171,294	0,080	0,084
-587,138	30,724	-0,130	0,081
-586,123	800,000	0,020	0,051
-585,109	-0,558	-0,110	0,057
-584,094	-98,107	-0,010	-0,002
-583,079	-200,000	0,016	0,086
-582,065	-200,000	-0,031	0,108
-581,050	-200,000	0,018	0,078
-580,036	-130,246	-0,108	0,011
-579,021	-143,124	-0,192	0,013
-578,006	-200,000	-0,003	0,034
-576,992	54,347	-0,013	0,009
-575,977	-200,000	-0,031	0,112
-574,963	84,418	0,089	-0,072
-573,948	800,000	0,064	0,151
-572,934	-200,000	0,009	-0,084
-571,919	159,840	-0,080	-0,082
-570,904	-200,000	0,024	-0,178
-569,890	-200,000	0,033	-0,116
-568,875	-29,015	0,060	0,025
-567,861	-147,317	0,121	0,007
-566,846	-200,000	0,029	0,182
-565,831	-200,000	-0,001	0,076
-564,817	-36,306	-0,047	-0,018
-563,802	-98,472	-0,192	-0,036
-562,788	-168,219	0,047	-0,001
-561,773	800,000	-0,074	0,170
-560,758	131,400	0,049	0,047
-559,744	-141,116	0,042	0,003
-558,729	200,196	-0,028	-0,032
-557,715	134,245	-0,039	-0,037
-556,700	98,837	-0,069	-0,058
-555,685	52,076	-0,057	0,040
-554,671	28,720	0,084	0,052
-553,656	-30,316	0,079	-0,033
-552,642	800,000	0,013	-0,028
-551,627	800,000	-0,077	-0,161
-550,612	-200,000	0,009	-0,088
-549,598	134,281	-0,023	0,022
-548,583	60,268	0,052	0,037
-547,569	557,996	-0,080	0,142
-546,554	77,561	-0,159	0,124
-545,539	-162,075	-0,082	-0,003
-544,525	800,000	-0,018	-0,051
-543,510	-59,416	-0,061	0,019
-542,496	403,075	0,037	0,057
-541,481	-200,000	-0,002	-0,066
-540,466	-51,570	-0,068	0,023
-539,452	800,000	0,029	0,082
-538,437	403,068	0,045	0,069
-537,423	9,461	-0,039	-0,022
-536,408	53,659	-0,068	-0,048
-535,393	490,724	0,067	0,112
-534,379	107,428	-0,052	-0,046
-533,364	58,746	0,036	-0,026
-532,350	-57,490	0,118	-0,038
-531,335	338,655	0,016	0,023
-530,321	-200,000	0,003	-0,062
-529,306	-67,939	-0,058	-0,016
-528,291	182,415	-0,212	-0,228
-527,277	-131,905	0,093	-0,009
-526,262	618,707	0,037	-0,069
-525,248	135,208	-0,016	-0,015
-524,233	800,000	-0,029	0,069
-523,218	-200,000	0,001	-0,125
-522,204	8,392	0,054	-0,030
-521,189	281,466	-0,081	-0,106
-520,175	442,027	0,067	-0,107
-519,160	-200,000	-0,008	0,047
-518,145	298,954	0,048	0,064
-517,131	238,101	0,029	-0,035
-516,116	-200,000	0,021	0,175
-515,102	-147,979	0,055	0,003
-514,087	-52,160	-0,196	-0,066
-513,072	265,643	0,062	-0,080
-512,058	-200,000	-0,005	-0,057
-511,043	-200,000	0,009	-0,041
-510,029	749,776	-0,053	0,105
-509,014	-200,000	0,015	0,118
-507,999	159,160	-0,088	0,090
-506,985	106,670	-0,095	0,083
-505,970	800,000	0,041	-0,105
-504,956	-200,000	0,033	0,133
-503,941	535,901	-0,021	-0,036
-502,926	-61,348	0,045	-0,014
-501,912	1,264	-0,144	0,075
-500,897	248,126	0,047	-0,058
-499,883	440,623	-0,028	-0,044
-498,868	8,741	-0,060	0,033
-497,853	134,267	-0,097	-0,091
-496,839	-86,873	0,121	-0,027
-495,824	62,639	0,089	-0,065
-494,810	800,000	0,033	-0,093
-493,795	-146,800	0,037	-0,002
-492,781	800,000	-0,007	-0,016
-491,766	80,084	-0,120	-0,094
-490,751	51,485	0,081	0,056
-489,737	-200,000	0,004	0,085
-488,722	-1,858	0,103	0,053
-487,708	-63,576	0,021	-0,006
-486,693	54,341	-0,038	-0,027
-485,678	-200,000	-0,012	-0,054
-484,664	-106,929	0,065	0,010
-483,649	73,143	0,061	-0,047
-482,635	-200,000	0,010	-0,036
-481,620	252,558	0,078	0,097
-480,605	-148,106	0,185	0,011
-479,591	-71,596	0,052	-0,014
-478,576	-61,229	-0,125	0,038
-477,562	262,611	0,068	-0,087
-476,547	-80,042	-0,102	0,025
-475,532	0,256	0,074	0,038
-474,518	-30,842	-0,037	-0,015
-473,503	49,484	-0,060	-0,041
-472,489	-200,000	0,030	0,126
-471,474	-106,446	-0,088	0,014
-470,459	-27,322	0,037	-0,016
-469,445	168,455	-0,157	-0,164
-468,430	-82,304	0,036	-0,009
-467,416	-119,657	-0,013	0,002
-466,401	-63,956	-0,096	0,029
-465,386	-46,995	0,208	0,074
-464,372	-131,245	-0,020	0,002
-463,357	83,070	0,052	-0,041
-462,343	123,560	0,032	0,029
-461,328	11,296	-0,020	-0,011
-460,313	257,828	0,042	0,052
-459,299	168,047	-0,080	0,083
-458,284	-200,000	0,006	-0,048
-457,270	-200,000	0,028	0,100
-456,255	-200,000	-0,009	0,129
-455,241	185,366	0,021	-0,023
-454,226	-200,000	0,009	-0,058
-453,211	-69,280	-0,031	-0,009
-452,197	37,670	-0,134	0,087
-451,182	78,156	0,150	0,117
-450,168	-200,000	0,005	0,097
-449,153	578,029	-0,047	0,084
-448,138	85,972	0,099	-0,080
-447,124	31,828	-0,084	0,053
-446,109	-46,590	0,004	-0,001
-445,095	-120,435	0,129	0,016
-444,080	162,313	0,058	0,059
-443,065	-88,428	0,104	0,022
-442,051	800,000	-0,019	0,045
-441,036	-95,991	0,053	0,010
-440,022	415,594	0,109	-0,170
-439,007	99,257	0,091	-0,077
-437,992	152,814	-0,059	0,059
-436,978	-69,494	0,095	-0,026
-435,963	-200,000	0,028	0,094
-434,949	-3,478	0,123	-0,062
-433,934	155,108	-0,083	0,083
-432,919	-86,363	0,111	0,025
-431,905	234,542	0,069	-0,083
-430,890	-200,000	0,009	0,052
-429,876	-159,999	0,096	0,004
-428,861	22,724	0,107	0,063
-427,846	131,351	-0,120	0,112
-426,832	-1,093	-0,067	0,035
-425,817	-103,458	-0,134	0,023
-424,803	175,211	-0,028	-0,030
-423,788	-200,000	-0,005	0,076
-422,773	204,117	0,099	0,112
-421,759	241,341	-0,088	0,108
-420,744	-200,000	0,006	0,104
-419,730	-64,811	-0,155	-0,045
-418,715	-101,663	-0,112	0,020
-417,701	3,784	0,043	-0,023
-416,686	-11,074	0,100	-0,048
-415,671	-200,000	0,007	0,131
-414,657	-105,390	0,081	0,013
-413,642	572,889	-0,026	0,046
-412,628	-200,000	-0,002	0,083
-411,613	6,638	-0,085	0,046
-410,598	52,295	0,154	0,107
-409,584	-200,000	0,002	-0,051
-408,569	-68,696	0,047	-0,013
-407,555	-43,847	-0,153	-0,056
-406,540	79,889	-0,078	0,061
-405,525	800,000	-0,027	0,056
-404,511	-123,631	0,037	0,004
-403,496	76,100	0,057	-0,044
-402,482	-103,967	-0,113	-0,019
-401,467	-43,278	0,084	-0,031
-400,452	29,618	0,108	0,067
-399,438	567,927	0,053	0,095
-398,423	-70,742	0,058	0,016
-397,409	89,976	-0,051	-0,041
-396,394	-200,000	0,031	-0,122
-395,379	-200,000	0,011	0,131
-394,365	-200,000	0,000	-0,041
-393,350	-200,000	0,008	-0,057
-392,336	-200,000	-0,012	0,098
-391,321	121,097	0,047	-0,043
-390,306	-5,928	-0,042	-0,021
-389,292	90,398	-0,022	0,018
-388,277	-62,641	0,040	0,012
-387,263	-70,849	0,132	0,036
-386,248	-43,474	0,066	-0,024
-385,233	800,000	0,030	0,087
-384,219	-200,000	0,021	0,233
-383,204	259,585	-0,066	0,083
-382,190	-39,430	0,064	-0,024
-381,175	-200,000	0,000	0,062
-380,160	-200,000	0,010	0,059
-379,146	86,787	0,053	-0,042
-378,131	-35,077	0,114	0,045
-377,117	-85,296	0,059	-0,013
-376,102	-200,000	-0,014	-0,049
-375,088	741,507	-0,060	-0,117
-374,073	800,000	-0,017	-0,040
-373,058	800,000	0,049	-0,117
-372,044	-36,964	0,126	0,049
-371,029	-200,000	0,007	-0,063
-370,015	-74,367	-0,133	0,035
-369,000	189,716	-0,040	0,044
-367,985	-200,000	0,008	0,086
-366,971	297,848	-0,067	-0,090
-365,956	-39,298	0,111	0,042
-364,942	88,869	0,110	0,089
-363,927	270,581	-0,025	-0,032
-362,912	-200,000	-0,025	-0,095
-361,898	800,000	0,050	-0,141
-360,883	103,149	-0,099	0,084
-359,869	167,131	-0,106	-0,110
-358,854	497,311	-0,030	-0,050
-357,839	-38,238	0,057	0,022
-356,825	-200,000	0,003	0,026
-355,810	39,707	-0,167	0,109
-354,796	104,231	0,087	0,074
-353,781	224,079	0,040	0,047
-352,766	-150,416	-0,099	-0,005
-351,752	800,000	0,030	0,061
-350,737	-200,000	0,019	0,108
-349,723	-200,000	0,010	0,159
-348,708	176,258	-0,032	-0,034
-347,693	43,770	-0,041	0,028
-346,679	-80,707	0,035	-0,008
-345,664	575,147	-0,085	-0,151
-344,650	191,116	0,053	-0,057
-343,635	-60,988	0,114	0,035
-342,620	114,676	0,067	0,060
-341,606	-28,343	-0,039	-0,016
-340,591	-200,000	-0,018	0,084
-339,577	2,079	-0,033	0,017
-338,562	-200,000	-0,032	0,121
-337,548	-100,878	0,068	0,012
-336,533	-137,007	-0,110	-0,009
-335,518	800,000	0,035	0,106
-334,504	-200,000	-0,019	0,062
-333,489	326,072	0,072	0,100
-332,475	39,465	0,118	0,077
-331,460	800,000	-0,055	0,119
-330,445	259,193	-0,034	-0,043
-329,431	-122,831	-0,069	0,008
-328,416	202,592	-0,129	0,145
-327,402	-9,185	0,215	-0,104
-326,387	800,000	-0,043	-0,107
-325,372	694,773	0,100	-0,191
-324,358	556,397	0,092	-0,162
-323,343	152,974	-0,123	0,122
-322,329	406,995	0,014	0,022
-321,314	187,830	-0,043	0,047
-320,299	479,073	0,016	0,026
-319,285	-200,000	0,036	0,132
-318,270	208,258	-0,039	0,045
-317,256	800,000	0,013	-0,041
-316,241	409,246	0,022	-0,034
-315,226	389,558	-0,031	-0,047
-314,212	-200,000	0,012	0,075
-313,197	355,870	0,017	0,025
-312,183	-25,632	0,042	-0,018
-311,168	800,000	-0,015	-0,040
-310,153	-49,264	-0,067	0,023
-309,139	-200,000	0,008	0,055
-308,124	-4,108	-0,087	-0,044
-307,110	-1,502	0,057	-0,029
-306,095	78,168	0,075	0,058
-305,080	800,000	-0,041	0,090
-304,066	176,267	0,039	-0,041
-303,051	-114,762	-0,094	-0,013
-302,037	-24,162	0,076	-0,033
-301,022	-200,000	0,021	0,092
-300,008	-200,000	0,004	-0,177
-298,993	221,748	0,039	0,045
-297,978	-200,000	-0,020	0,108
-296,964	412,664	-0,078	-0,120
-295,949	-120,323	0,181	-0,022
-294,935	443,650	-0,117	-0,186
-293,920	-54,024	-0,121	0,040
-292,905	-200,000	0,003	-0,010
-291,891	-145,065	-0,047	-0,003
-290,876	-125,264	0,071	0,008
-289,862	222,761	0,089	0,105
-288,847	-145,552	-0,171	-0,011
-287,832	357,140	0,089	-0,129
-286,818	-116,441	-0,033	0,004
-285,803	166,759	-0,119	0,122
-284,789	-200,000	0,032	0,158
-283,774	71,845	0,034	0,026
-282,759	-12,655	0,108	-0,051
-281,745	-200,000	-0,003	-0,082
-280,730	385,662	-0,030	-0,045
-279,716	151,307	0,026	-0,026
-278,701	-62,999	0,147	-0,044
-277,686	-6,418	0,069	0,034
-276,672	24,229	-0,024	0,015
-275,657	-11,631	-0,102	0,048
-274,643	-138,178	-0,041	-0,003
-273,628	165,802	0,029	-0,029
-272,613	-133,278	0,062	0,006
-271,599	-36,235	0,199	-0,077
-270,584	48,092	0,053	-0,036
-269,570	-107,852	0,155	-0,024
-268,555	-21,633	0,033	-0,014
-267,540	-156,513	-0,195	0,009
-266,526	-42,294	-0,100	0,037
-265,511	-200,000	-0,018	0,060
-264,497	-98,813	-0,144	-0,026
-263,482	72,789	0,019	-0,014
-262,467	-200,000	-0,002	0,095
-261,453	198,709	0,088	-0,097
-260,438	61,074	-0,029	-0,021
-259,424	256,527	-0,136	-0,169
-258,409	-6,491	0,163	-0,080
-257,395	-10,468	0,031	-0,015
-256,380	106,781	0,105	0,090
-255,365	648,778	0,101	0,187
-254,351	-82,953	0,146	0,034
-253,336	-200,000	0,012	-0,102
-252,322	435,873	0,033	-0,052
-251,307	-200,000	-0,021	-0,092
-250,292	800,000	0,032	0,098
-249,278	-98,973	-0,082	-0,015
-248,263	800,000	-0,035	-0,104
-247,249	-69,250	0,071	-0,020
-246,234	800,000	-0,052	-0,125
-245,219	-97,329	0,125	0,023
-244,205	-53,710	-0,167	-0,055
-243,190	43,579	-0,035	-0,023
-242,176	681,399	0,021	0,039
-241,161	800,000	-0,024	0,048
-240,146	-200,000	0,023	0,101
-239,132	-200,000	-0,008	-0,085
-238,117	349,994	0,020	-0,029
-237,103	47,626	-0,139	0,094
-236,088	-200,000	-0,003	-0,188
-235,073	-41,201	-0,028	-0,010
-234,059	-200,000	0,022	-0,074
-233,044	-200,000	-0,014	-0,054
-232,030	157,258	-0,100	0,100
-231,015	-200,000	-0,011	-0,157
-230,000	800,000	-0,023	-0,061
-228,986	-200,000	-0,022	-0,123
-227,971	-168,940	-0,069	0,002
-226,957	800,000	-0,019	-0,056
-225,942	518,753	0,012	0,021
-224,927	120,907	-0,073	-0,066
-223,913	299,378	-0,047	-0,063
-222,898	-200,000	-0,007	-0,045
-221,884	-200,000	-0,016	-0,201
-220,869	800,000	0,037	-0,076
-219,855	800,000	-0,014	0,041
-218,840	54,677	0,118	-0,082
-217,825	458,011	-0,083	-0,134
-216,811	587,904	0,012	-0,022
-215,796	800,000	-0,045	-0,106
-214,782	-179,793	0,133	0,002
-213,767	-37,576	0,038	0,015
-212,752	174,602	0,029	0,030
-211,738	-13,802	0,117	0,054
-210,723	-2,756	0,014	0,007
-209,709	-200,000	0,010	-0,100
-208,694	-138,138	-0,082	0,006
-207,679	-145,882	-0,110	-0,007
-206,665	-200,000	0,005	-0,024
-205,650	-200,000	0,007	0,046
-204,636	160,250	0,176	-0,177
-203,621	-120,466	0,090	0,011
-202,606	-200,000	-0,035	-0,116
-201,592	-200,000	-0,014	0,075
-200,577	-120,640	-0,036	-0,004
-199,563	-33,315	0,092	0,037
-198,548	800,000	0,042	0,088
-197,533	800,000	-0,081	0,214
-196,519	800,000	-0,020	-0,044
-195,504	-58,796	-0,115	0,036
-194,490	-174,617	-0,058	0,001
-193,475	-200,000	0,005	0,061
-192,460	-97,272	0,071	-0,013
-191,446	800,000	-0,057	-0,153
-190,431	214,133	-0,080	0,092
-189,417	-173,760	0,087	0,002
-188,402	117,283	-0,120	0,107
-187,387	-200,000	-0,017	-0,141
-186,373	71,545	-0,093	-0,070
-185,358	24,084	-0,135	-0,080
-184,344	-119,363	0,178	0,022
-183,329	795,063	-0,044	0,088
-182,315	650,272	0,037	-0,069
-181,300	-74,463	-0,124	-0,032
-180,285	-200,000	0,003	-0,076
-179,271	-86,465	-0,142	0,031
-178,256	26,249	-0,069	-0,042
-177,242	-39,915	-0,103	0,039
-176,227	670,720	0,052	-0,097
-175,212	800,000	0,016	0,040
-174,198	335,603	0,063	0,089
-173,183	252,124	0,048	0,059
-172,169	800,000	-0,058	-0,154
-171,154	323,599	0,071	0,097
-170,139	69,508	-0,068	0,051
-169,125	-12,645	-0,069	0,032
-168,110	31,370	0,129	0,080
-167,096	-162,166	-0,040	0,001
-166,081	391,461	-0,049	0,073
-165,066	-42,234	-0,147	0,054
-164,052	14,763	0,168	-0,095
-163,037	-7,908	-0,061	-0,029
-162,023	-102,025	0,108	-0,019
-161,008	83,191	0,039	0,031
-159,993	72,562	-0,062	-0,047
-158,979	-72,737	-0,029	0,008
-157,964	-91,515	-0,165	0,034
-156,950	116,031	-0,118	-0,104
-155,935	-200,000	0,012	0,119
-154,920	-11,817	0,131	0,062
-153,906	-200,000	-0,012	-0,079
-152,891	65,354	0,089	-0,064
-151,877	-200,000	-0,002	-0,045
-150,862	103,690	0,052	-0,044
-149,847	136,079	-0,099	-0,093
-148,833	-2,359	0,125	-0,063
-147,818	122,231	0,064	-0,058
-146,804	-200,000	-0,017	0,059
-145,789	800,000	0,023	-0,057
-144,775	-200,000	-0,036	0,145
-143,760	147,289	-0,077	-0,075
-142,745	-200,000	-0,027	-0,093
-141,731	-157,929	0,072	0,003
-140,716	76,103	0,059	0,045
-139,702	-80,235	0,131	0,031
-138,687	106,168	-0,026	-0,022
-137,672	-200,000	0,019	0,087
-136,658	-34,405	0,045	-0,018
-135,643	63,958	-0,016	-0,012
-134,629	-18,196	-0,088	0,039
-133,614	-200,000	-0,017	0,154
-132,599	-200,000	-0,019	0,074
-131,585	58,288	0,092	0,065
-130,570	-200,000	0,009	0,035
-129,556	-200,000	-0,018	-0,146
-128,541	-126,457	-0,134	0,014
-127,526	23,541	-0,067	-0,040
-126,512	145,755	0,056	0,054
-125,497	590,720	-0,064	0,114
-124,483	-85,411	-0,084	0,019
-123,468	-51,058	0,136	-0,046
-122,453	-82,318	-0,061	-0,014
-121,439	-71,625	-0,026	0,007
-120,424	-200,000	-0,013	-0,054
-119,410	56,508	0,018	0,012
-118,395	30,840	-0,092	0,056
