DTS Sentinel unit serial number:	SN410029Multiplexer serial number:	ORYXHardware model number:	OX2-SRSoftware version number:	ORYX F/W v4,00 Oryx Data Collector v3.7.2.0data status	okinstallation	B5 Nyhavnadifferential loss correction	single-endedforward channel	channel 2reverse channel	N/Adate	2023/12/13time	05:17:13forward acquisition time	300,00reverse acquisition time	0,00gamma	499,1914k internal	0,3160k external	0,3160temperature offset calibration	1,0000default loss term (dB/km)	0,3820temperature slope calibration	1,0000multiplexer offset coefficient	1,0000multiplexer slope coefficient	1,0000fibre end	0,00T internal ref (°C)	13,87T ext. ref 1 (°C)	-2,54T ext. ref 2 (°C)	-2,83length (m)	temperature (°C)	Stokes	anti-Stokes-744,400	71,309	0,091	0,069
-743,385	-187,791	-0,273	-0,003
-742,371	-138,656	0,126	0,010
-741,356	-148,443	-0,337	0,020
-740,342	-143,832	0,172	0,012
-739,327	-60,068	-0,229	0,071
-738,312	-200,000	0,029	0,137
-737,298	-59,608	-0,387	0,121
-736,283	-104,413	0,221	0,037
-735,269	7,225	-0,233	0,128
-734,254	-50,154	0,143	-0,050
-733,239	-127,455	-0,383	0,041
-732,225	-161,344	0,179	-0,007
-731,210	-128,436	0,114	-0,012
-730,196	800,000	0,065	-0,133
-729,181	583,988	-0,077	-0,140
-728,167	800,000	0,040	0,105
-727,152	511,429	-0,052	0,089
-726,137	-51,983	-0,120	-0,041
-725,123	-57,530	0,084	0,027
-724,108	-114,325	-0,036	-0,005
-723,094	6,186	-0,112	-0,061
-722,079	-150,129	-0,179	-0,010
-721,064	-113,898	0,102	0,014
-720,050	-184,170	-0,109	0,001
-719,035	-36,041	-0,081	-0,032
-718,021	-200,000	-0,007	0,028
-717,006	198,219	-0,084	-0,094
-715,991	-200,000	-0,013	-0,204
-714,977	158,824	-0,034	-0,034
-713,962	31,844	0,097	-0,062
-712,948	199,805	0,114	-0,129
-711,933	800,000	0,054	-0,114
-710,918	52,185	-0,068	0,048
-709,904	275,360	-0,060	-0,079
-708,889	-27,104	-0,156	0,066
-707,875	-99,068	0,063	0,012
-706,860	-200,000	0,038	0,131
-705,845	-200,000	0,023	-0,099
-704,831	-200,000	0,010	-0,036
-703,816	417,524	0,058	-0,091
-702,802	-200,000	-0,040	-0,138
-701,787	43,103	-0,086	-0,057
-700,772	714,624	0,068	0,133
-699,758	28,486	-0,025	0,016
-698,743	-65,590	0,150	-0,044
-697,729	54,006	-0,057	0,040
-696,714	662,721	0,044	0,084
-695,699	46,760	-0,056	-0,038
-694,685	101,309	-0,086	-0,074
-693,670	218,412	0,109	0,128
-692,656	-200,000	-0,015	-0,102
-691,641	800,000	0,074	0,164
-690,627	-200,000	-0,021	0,070
-689,612	-200,000	0,030	0,128
-688,597	510,528	-0,045	0,077
-687,583	400,382	0,121	-0,187
-686,568	800,000	-0,023	-0,062
-685,554	204,091	0,016	0,018
-684,539	413,636	0,034	0,054
-683,524	-114,277	0,213	0,030
-682,510	51,282	-0,085	0,059
-681,495	-102,705	-0,037	-0,006
-680,481	-85,075	-0,173	0,040
-679,466	80,664	-0,026	-0,021
-678,451	757,895	-0,058	-0,116
-677,437	368,266	-0,049	0,073
-676,422	-200,000	0,035	0,140
-675,408	170,789	-0,042	-0,044
-674,393	-74,128	-0,126	0,033
-673,378	-182,655	0,066	-0,001
-672,364	-182,673	-0,097	-0,001
-671,349	800,000	0,049	-0,143
-670,335	196,291	0,011	-0,012
-669,320	-200,000	-0,017	-0,075
-668,305	-137,693	-0,070	-0,006
-667,291	602,058	0,047	0,086
-666,276	318,726	-0,093	0,129
-665,262	-61,266	0,031	-0,009
-664,247	165,708	-0,085	-0,088
-663,232	-8,640	0,055	-0,027
-662,218	335,336	0,066	0,094
-661,203	48,172	-0,092	0,063
-660,189	-91,891	-0,141	-0,029
-659,174	-200,000	-0,022	-0,074
-658,159	-26,693	0,106	-0,045
-657,145	-200,000	-0,002	-0,109
-656,130	82,509	-0,016	-0,013
-655,116	-148,778	0,122	0,007
-654,101	-200,000	0,015	0,095
-653,086	-200,000	-0,062	0,252
-652,072	-141,276	-0,083	-0,006
-651,057	-68,540	0,089	-0,025
-650,043	201,316	-0,032	0,036
-649,028	-200,000	0,000	-0,011
-648,014	-70,070	0,050	0,014
-646,999	365,109	-0,068	0,101
-645,984	-81,944	-0,027	-0,006
-644,970	800,000	0,034	-0,105
-643,955	-200,000	0,020	-0,065
-642,941	-85,639	0,095	0,021
-641,926	120,714	-0,045	0,041
-640,911	17,329	-0,037	-0,021
-639,897	-200,000	-0,004	0,091
-638,882	800,000	-0,024	-0,050
-637,868	445,015	-0,024	0,039
-636,853	800,000	0,050	0,110
-635,838	140,240	-0,064	-0,062
-634,824	152,994	-0,054	0,054
-633,809	800,000	-0,032	0,067
-632,795	-41,207	-0,129	0,049
-631,780	-50,239	-0,085	0,029
-630,765	-200,000	0,002	0,122
-629,751	9,382	-0,023	-0,013
-628,736	-200,000	-0,007	-0,118
-627,722	249,341	-0,060	-0,075
-626,707	-200,000	-0,000	0,070
-625,692	800,000	-0,023	0,058
-624,678	299,145	0,034	-0,046
-623,663	-16,727	-0,136	-0,063
-622,649	-200,000	-0,015	-0,062
-621,634	-123,271	-0,094	-0,011
-620,619	-118,210	-0,072	-0,009
-619,605	-196,226	0,191	-0,001
-618,590	-200,000	-0,008	0,133
-617,576	124,120	-0,101	-0,093
-616,561	800,000	-0,031	-0,080
-615,546	-200,000	-0,010	-0,049
-614,532	48,973	-0,075	-0,052
-613,517	-48,603	-0,123	0,043
-612,503	-200,000	0,031	0,143
-611,488	-200,000	0,019	-0,070
-610,474	-97,216	0,124	-0,024
-609,459	-200,000	-0,006	0,070
-608,444	800,000	-0,075	0,164
-607,430	30,343	0,043	0,027
-606,415	56,191	0,081	-0,058
-605,401	-30,975	-0,028	-0,012
-604,386	76,567	0,076	0,059
-603,371	316,786	-0,065	-0,090
-602,357	-115,352	0,048	-0,007
-601,342	546,582	0,036	0,063
-600,328	65,392	-0,096	-0,071
-599,313	290,948	0,038	0,051
-598,298	-72,139	-0,107	-0,029
-597,284	-38,168	0,054	-0,021
-596,269	27,844	0,101	0,062
-595,255	85,270	-0,061	-0,049
-594,240	-114,067	-0,227	-0,032
-593,225	87,528	0,045	-0,036
-592,211	11,031	-0,088	0,049
-591,196	166,274	-0,037	-0,039
-590,182	282,356	0,034	0,044
-589,167	800,000	0,056	-0,122
-588,152	-200,000	-0,009	-0,049
-587,138	-7,202	0,053	-0,026
-586,123	-200,000	-0,006	-0,057
-585,109	46,495	-0,050	-0,034
-584,094	-200,000	-0,007	-0,032
-583,079	-200,000	-0,013	0,045
-582,065	-200,000	-0,002	0,063
-581,050	241,472	-0,067	0,082
-580,036	-75,493	0,069	-0,018
-579,021	-99,963	-0,056	0,010
-578,006	95,371	0,106	-0,088
-576,992	196,231	0,044	-0,049
-575,977	35,585	0,027	0,017
-574,963	583,308	0,046	0,082
-573,948	-200,000	0,019	0,120
-572,934	402,660	-0,065	0,101
-571,919	64,788	0,039	-0,029
-570,904	-132,180	-0,176	0,016
-569,890	-13,294	-0,099	-0,047
-568,875	-111,660	0,235	0,034
-567,861	-200,000	0,023	0,086
-566,846	0,832	-0,036	0,019
-565,831	760,427	0,030	-0,059
-564,817	-65,076	0,093	-0,027
-563,802	-200,000	0,023	-0,156
-562,788	218,117	0,043	0,051
-561,773	-131,363	-0,049	-0,005
-560,758	437,389	0,068	-0,108
-559,744	-114,301	-0,077	0,011
-558,729	-200,000	-0,022	-0,109
-557,715	-200,000	-0,007	0,122
-556,700	-34,878	-0,020	0,008
-555,685	87,954	0,120	-0,097
-554,671	-133,290	-0,110	0,010
-553,656	62,582	-0,122	0,089
-552,642	88,904	0,045	0,036
-551,627	65,270	0,121	-0,089
-550,612	800,000	-0,019	0,044
-549,598	-200,000	0,005	-0,089
-548,583	-200,000	-0,001	-0,169
-547,569	-110,825	0,122	-0,018
-546,554	216,165	0,143	0,166
-545,539	115,274	0,095	-0,085
-544,525	115,024	-0,018	0,016
-543,510	-200,000	-0,006	0,184
-542,496	-53,924	0,071	-0,024
-541,481	-200,000	-0,012	0,073
-540,466	102,500	0,089	-0,076
-539,452	-107,188	0,042	0,007
-538,437	167,184	0,134	0,139
-537,423	766,323	-0,002	-0,005
-536,408	800,000	-0,058	0,163
-535,393	-200,000	-0,011	-0,114
-534,379	-200,000	-0,037	-0,153
-533,364	800,000	-0,021	-0,064
-532,350	-22,800	-0,051	0,023
-531,335	-200,000	-0,002	-0,048
-530,321	800,000	0,033	-0,072
-529,306	86,080	0,075	-0,060
-528,291	100,153	0,143	0,121
-527,277	-28,167	-0,074	-0,031
-526,262	251,311	-0,076	-0,095
-525,248	-42,724	0,107	-0,040
-524,233	-125,326	0,022	0,002
-523,218	-200,000	0,061	-0,000
-522,204	-200,000	0,022	-0,113
-521,189	-200,000	-0,032	-0,124
-520,175	-31,098	0,080	-0,033
-519,160	-84,007	0,137	-0,032
-518,145	-100,631	-0,049	-0,009
-517,131	-200,000	0,013	0,073
-516,116	-141,353	0,148	0,011
-515,102	603,732	0,078	-0,141
-514,087	800,000	-0,093	-0,194
-513,072	800,000	-0,028	-0,089
-512,058	-200,000	0,020	-0,147
-511,043	-93,351	-0,120	-0,024
-510,029	-200,000	-0,020	-0,091
-509,014	-57,377	0,124	0,040
-507,999	-88,522	-0,152	0,033
-506,985	-53,388	0,041	-0,014
-505,970	800,000	-0,015	-0,037
-504,956	228,845	-0,145	-0,173
-503,941	-120,322	0,078	-0,010
-502,926	4,208	-0,069	0,037
-501,912	59,742	0,179	0,129
-500,897	-200,000	-0,015	0,186
-499,883	-91,638	-0,047	0,010
-498,868	-5,050	0,093	-0,047
-497,853	-200,000	-0,008	-0,117
-496,839	211,219	0,054	0,062
-495,824	-61,769	0,048	0,015
-494,810	407,716	0,008	0,013
-493,795	148,543	0,064	0,063
-492,781	-145,387	0,015	-0,001
-491,766	800,000	-0,025	-0,057
-490,751	-128,082	-0,177	-0,018
-489,737	183,002	0,148	-0,160
-488,722	103,836	-0,057	-0,049
-487,708	800,000	0,043	0,104
-486,693	-86,204	-0,062	-0,014
-485,678	-200,000	-0,004	-0,034
-484,664	800,000	-0,075	-0,232
-483,649	-72,269	-0,120	-0,032
-482,635	147,478	-0,019	0,019
-481,620	-42,806	-0,038	-0,014
-480,605	-95,870	-0,048	-0,009
-479,591	800,000	0,029	-0,087
-478,576	-42,695	0,022	0,008
-477,562	163,312	-0,089	-0,091
-476,547	-19,669	-0,102	-0,046
-475,532	374,427	-0,065	-0,097
-474,518	-1,304	-0,049	0,025
-473,503	-200,000	-0,001	0,017
-472,489	-57,678	0,099	-0,031
-471,474	-200,000	0,022	0,107
-470,459	-200,000	-0,010	0,083
-469,445	437,685	0,038	-0,061
-468,430	-92,983	0,100	-0,020
-467,416	81,780	0,033	0,026
-466,401	-122,111	-0,043	0,005
-465,386	800,000	0,023	0,053
-464,372	300,889	-0,011	0,015
-463,357	800,000	0,024	0,053
-462,343	2,657	0,071	-0,037
-461,328	-7,892	0,076	-0,037
-460,313	266,890	0,025	-0,031
-459,299	19,668	0,139	0,081
-458,284	-200,000	0,004	-0,015
-457,270	231,036	-0,082	0,098
-456,255	-85,819	-0,021	0,005
-455,241	-78,277	-0,057	-0,014
-454,226	513,968	-0,047	-0,080
-453,211	134,035	0,079	0,075
-452,197	-108,214	0,120	0,019
-451,182	-42,505	-0,215	-0,079
-450,168	0,388	0,067	-0,035
-449,153	-11,396	-0,214	-0,102
-448,138	-163,292	0,101	-0,003
-447,124	49,111	0,015	0,010
-446,109	-100,624	0,055	-0,010
-445,095	53,530	0,069	0,048
-444,080	178,490	0,067	-0,071
-443,065	800,000	0,041	-0,104
-442,051	-120,678	-0,074	0,009
-441,036	73,719	-0,169	-0,129
-440,022	88,949	-0,098	0,080
-439,007	5,338	-0,073	-0,039
-437,992	67,252	0,158	0,117
-436,978	3,428	-0,075	0,040
-435,963	-200,000	-0,021	0,077
-434,949	68,515	-0,106	0,079
-433,934	668,831	-0,034	-0,064
-432,919	-120,502	-0,113	0,014
-431,905	600,565	0,031	-0,056
-430,890	343,983	0,049	0,069
-429,876	-200,000	0,002	-0,027
-428,861	404,340	-0,077	-0,118
-427,846	800,000	0,058	-0,117
-426,832	-200,000	-0,020	-0,139
-425,817	17,638	-0,074	-0,043
-424,803	773,873	-0,032	0,064
-423,788	800,000	0,054	0,123
-422,773	616,651	0,065	0,118
-421,759	-48,231	-0,066	0,023
-420,744	376,973	0,034	0,050
-419,730	-163,916	-0,010	-0,000
-418,715	-131,010	-0,134	-0,013
-417,701	-200,000	-0,011	0,072
-416,686	-22,777	-0,075	0,033
-415,671	800,000	0,059	0,125
-414,657	-200,000	0,023	-0,102
-413,642	153,468	0,062	-0,062
-412,628	37,326	-0,043	-0,028
-411,613	44,740	0,096	-0,064
-410,598	-83,899	-0,041	-0,009
-409,584	800,000	0,040	0,090
-408,569	82,969	0,124	0,098
-407,555	-68,580	0,070	0,020
-406,540	-200,000	0,026	-0,105
-405,525	-200,000	-0,038	-0,162
-404,511	250,071	0,033	-0,041
-403,496	-84,422	-0,029	0,007
-402,482	15,264	-0,148	-0,084
-401,467	-151,747	-0,099	-0,005
-400,452	-200,000	0,010	0,093
-399,438	237,395	0,016	0,019
-398,423	-200,000	-0,069	-0,264
-397,409	-200,000	-0,012	-0,070
-396,394	64,421	0,080	-0,058
-395,379	-200,000	0,005	0,084
-394,365	-200,000	0,024	0,083
-393,350	30,095	0,168	0,104
-392,336	-134,594	-0,070	-0,006
-391,321	81,181	-0,061	-0,048
-390,306	43,636	0,049	0,032
-389,292	800,000	0,039	0,091
-388,277	-96,561	-0,077	-0,015
-387,263	234,704	-0,035	-0,042
-386,248	-107,469	0,079	-0,012
-385,233	-92,512	0,112	-0,023
-384,219	-119,053	0,020	-0,003
-383,204	-200,000	-0,001	0,068
-382,190	-51,568	-0,062	0,021
-381,175	188,771	-0,061	-0,066
-380,160	-41,911	0,095	-0,035
-379,146	224,107	-0,054	-0,064
-378,131	-9,564	0,097	-0,047
-377,117	371,397	-0,069	0,102
-376,102	361,411	0,016	0,024
-375,088	-200,000	-0,014	-0,060
-374,073	-101,563	0,090	-0,016
-373,058	218,401	-0,098	-0,114
-372,044	284,166	0,019	0,026
-371,029	800,000	-0,017	0,036
-370,015	-29,842	0,085	-0,035
-369,000	450,913	-0,056	-0,089
-367,985	-165,143	-0,180	-0,006
-366,971	-168,051	0,144	0,004
-365,956	521,497	0,016	-0,028
-364,942	8,177	0,045	0,024
-363,927	800,000	0,036	0,079
-362,912	-26,577	-0,038	-0,016
-361,898	101,755	-0,033	-0,028
-360,883	-48,888	0,100	-0,034
-359,869	-200,000	0,008	0,036
-358,854	-200,000	0,009	-0,071
-357,839	-200,000	-0,019	0,109
-356,825	-200,000	0,004	0,107
-355,810	-128,874	-0,022	-0,002
-354,796	524,728	0,018	-0,030
-353,781	122,651	0,060	0,054
-352,766	800,000	0,017	0,043
-351,752	-28,726	0,077	-0,032
-350,737	317,642	0,115	0,159
-349,723	-3,650	-0,045	0,023
-348,708	-200,000	-0,021	-0,071
-347,693	-200,000	-0,003	-0,071
-346,679	641,327	-0,043	0,081
-345,664	135,846	0,008	0,008
-344,650	179,639	-0,075	-0,080
-343,635	330,872	0,045	0,063
-342,620	800,000	0,045	0,111
-341,606	-96,717	0,103	0,019
-340,591	-56,054	-0,107	-0,034
-339,577	-48,809	0,064	0,022
-338,562	368,515	0,042	0,062
-337,548	448,889	-0,067	0,108
-336,533	-148,542	0,130	-0,008
-335,518	-200,000	0,017	0,118
-334,504	-52,163	0,100	-0,033
-333,489	3,503	-0,068	-0,036
-332,475	673,823	-0,144	-0,272
-331,460	800,000	0,054	-0,144
-330,445	149,963	-0,107	-0,105
-329,431	180,826	0,041	0,043
-328,416	-118,908	0,136	-0,017
-327,402	146,966	-0,061	-0,059
-326,387	-200,000	0,009	-0,082
-325,372	-200,000	0,013	-0,048
-324,358	248,806	-0,022	-0,027
-323,343	193,283	0,019	0,020
-322,329	178,523	0,063	0,067
-321,314	-84,393	0,092	0,021
-320,299	140,234	-0,139	0,133
-319,285	-200,000	-0,011	0,049
-318,270	50,849	0,017	0,012
-317,256	48,545	0,074	0,050
-316,241	800,000	-0,033	0,072
-315,226	-103,032	-0,115	-0,020
-314,212	726,177	0,049	0,096
-313,197	632,100	-0,044	0,082
-312,183	75,297	-0,098	0,075
-311,168	164,393	-0,026	-0,026
-310,153	-18,859	-0,058	-0,026
-309,139	-58,020	-0,095	0,030
-308,124	-96,446	0,088	0,017
-307,110	38,132	0,048	0,031
-306,095	118,096	-0,036	0,032
-305,080	194,474	0,014	0,015
-304,066	-200,000	-0,020	0,089
-303,051	41,887	0,062	0,041
-302,037	-69,795	-0,110	-0,030
-301,022	36,155	0,081	0,052
-300,008	-47,948	0,100	-0,035
-298,993	31,776	0,195	0,121
-297,978	-77,251	0,011	-0,003
-296,964	130,141	-0,140	-0,130
-295,949	800,000	0,047	0,126
-294,935	-20,452	0,063	-0,028
-293,920	61,596	-0,038	-0,027
-292,905	-37,566	0,037	0,014
-291,891	-117,525	0,139	-0,018
-290,876	-49,680	0,142	-0,049
-289,862	350,947	-0,060	-0,086
-288,847	98,725	-0,070	-0,059
-287,832	56,246	0,033	-0,023
-286,818	-200,000	0,016	0,058
-285,803	-200,000	0,012	0,090
-284,789	50,602	-0,023	-0,016
-283,774	-96,202	-0,089	-0,017
-282,759	800,000	0,028	-0,081
-281,745	-200,000	-0,016	0,065
-280,730	47,911	0,027	-0,018
-279,716	500,610	-0,043	0,071
-278,701	-70,251	-0,086	0,023
-277,686	-21,925	-0,043	0,019
-276,672	78,257	-0,080	0,061
-275,657	-118,559	-0,064	-0,008
-274,643	692,946	-0,048	-0,092
-273,628	133,410	-0,057	-0,053
-272,613	-7,783	-0,122	0,059
-271,599	800,000	0,028	0,067
-270,584	-66,488	0,126	0,036
-269,570	-200,000	0,018	0,108
-268,555	800,000	-0,053	-0,107
-267,540	-200,000	-0,012	0,064
-266,526	-200,000	-0,013	-0,057
-265,511	800,000	0,043	-0,111
-264,497	-90,149	0,102	0,021
-263,482	-200,000	0,010	0,101
-262,467	-143,359	0,151	0,010
-261,453	800,000	0,041	-0,091
-260,438	-40,320	0,100	-0,038
-259,424	135,545	-0,112	-0,105
-258,409	645,266	-0,069	-0,129
-257,395	708,947	-0,081	-0,155
-256,380	-89,747	0,079	0,017
-255,365	-200,000	0,002	0,120
-254,351	492,868	0,059	0,099
-253,336	-4,790	0,098	0,048
-252,322	349,239	-0,020	-0,028
-251,307	-4,384	-0,168	0,084
-250,292	-200,000	0,015	0,167
-249,278	800,000	-0,014	0,036
-248,263	-127,865	-0,105	0,011
-247,249	-55,181	-0,004	-0,001
-246,234	-118,728	-0,079	-0,010
-245,219	800,000	0,023	-0,054
-244,205	322,420	0,026	-0,035
-243,190	91,614	0,052	-0,042
-242,176	-99,856	0,060	-0,011
-241,161	-40,795	0,094	0,035
-240,146	-200,000	0,002	0,106
-239,132	-200,000	-0,002	-0,172
-238,117	-200,000	-0,008	-0,032
-237,103	-136,468	-0,115	0,010
-236,088	179,456	0,033	0,035
-235,073	-134,386	-0,105	0,009
-234,059	800,000	0,044	0,103
-233,044	800,000	-0,011	0,033
-232,030	800,000	-0,020	0,053
-231,015	-200,000	0,019	-0,080
-230,000	264,762	-0,069	0,087
-228,986	-6,930	-0,126	-0,062
-227,971	-78,249	0,156	0,038
-226,957	193,015	0,021	0,023
-225,942	-88,801	0,086	0,018
-224,927	-98,563	-0,044	-0,008
-223,913	-199,698	-0,040	0,000
-222,898	-70,835	0,093	-0,025
-221,884	-200,000	0,016	0,054
-220,869	-173,334	0,156	-0,003
-219,855	-200,000	0,000	0,122
-218,840	366,441	0,106	0,154
-217,825	800,000	0,026	0,071
-216,811	-170,763	-0,080	-0,002
-215,796	80,478	-0,069	-0,054
-214,782	-200,000	-0,001	0,060
-213,767	800,000	-0,042	0,120
-212,752	-14,266	0,154	0,071
-211,738	15,595	0,091	-0,052
-210,723	-200,000	0,009	-0,097
-209,709	-25,140	-0,060	0,026
-208,694	494,054	-0,032	0,053
-207,679	-33,095	-0,124	-0,049
-206,665	-200,000	-0,009	-0,047
-205,650	117,597	0,115	0,102
-204,636	0,330	-0,121	0,062
-203,621	217,345	0,026	0,030
-202,606	800,000	0,013	0,028
-201,592	215,790	-0,101	-0,115
-200,577	-200,000	0,022	-0,073
-199,563	418,287	-0,033	-0,051
-198,548	-42,078	-0,124	-0,045
-197,533	202,494	0,013	-0,015
-196,519	385,958	-0,094	0,140
-195,504	-100,977	0,024	0,004
-194,490	-9,254	0,068	-0,033
-193,475	-141,970	-0,076	-0,005
-192,460	-96,721	-0,097	0,018
-191,446	-48,869	0,078	-0,027
-190,431	301,359	-0,016	-0,022
-189,417	800,000	0,012	0,030
-188,402	-127,246	-0,062	0,006
-187,387	175,414	-0,051	0,054
-186,373	-81,071	-0,105	-0,025
-185,358	78,204	-0,031	0,024
-184,344	-200,000	0,023	0,086
-183,329	-41,289	-0,045	0,017
-182,315	-200,000	-0,021	0,079
-181,300	54,037	-0,163	0,113
-180,285	-77,471	0,030	-0,007
-179,271	-200,000	-0,018	-0,189
-178,256	216,670	-0,055	0,063
-177,242	-200,000	0,026	0,110
-176,227	-200,000	-0,008	0,105
-175,212	-200,000	0,000	0,050
-174,198	81,130	0,065	-0,051
-173,183	-14,961	-0,175	-0,081
-172,169	353,229	0,061	-0,087
-171,154	191,577	0,045	0,049
-170,139	800,000	0,014	-0,030
-169,125	-186,443	0,190	-0,002
-168,110	28,190	0,064	0,039
-167,096	542,496	0,119	0,206
-166,081	-200,000	-0,012	0,072
-165,066	-200,000	-0,026	-0,192
-164,052	-50,904	-0,068	-0,023
-163,037	-10,774	0,074	0,035
-162,023	249,781	-0,016	-0,019
-161,008	103,120	0,113	0,095
-159,993	344,041	0,023	-0,033
-158,979	-114,732	-0,142	0,019
-157,964	171,407	0,072	0,075
-156,950	-200,000	-0,014	-0,128
-155,935	-20,691	-0,103	0,045
-154,920	-200,000	-0,013	0,108
-153,906	-20,153	0,109	0,048
-152,891	-47,827	-0,073	0,025
-151,877	282,031	-0,088	0,113
-150,862	-106,860	-0,168	0,027
-149,847	140,623	0,079	0,076
-148,833	800,000	-0,009	-0,024
-147,818	544,793	0,022	-0,039
-146,804	-49,963	0,132	0,045
-145,789	-19,439	-0,130	0,058
-144,775	497,601	0,080	0,132
-143,760	414,611	0,025	-0,038
-142,745	33,897	0,074	-0,046
-141,731	3,411	0,175	0,091
-140,716	-24,423	-0,032	0,014
-139,702	-72,022	0,132	0,035
-138,687	16,874	-0,047	0,027
-137,672	-200,000	-0,011	0,090
-136,658	-200,000	0,009	-0,076
-135,643	-200,000	0,014	0,067
-134,629	-59,108	0,110	-0,034
-133,614	-200,000	0,002	-0,024
-132,599	107,523	0,050	-0,043
-131,585	-200,000	0,016	-0,077
-130,570	-69,432	-0,009	-0,003
-129,556	-121,250	-0,035	0,004
-128,541	-200,000	0,001	0,031
-127,526	112,466	0,083	0,072
-126,512	-78,452	0,149	0,036
-125,497	-200,000	-0,012	0,148
-124,483	-35,399	0,079	-0,031
-123,468	-200,000	-0,021	0,232
-122,453	495,068	0,063	-0,104
-121,439	-124,927	-0,100	-0,011
-120,424	-200,000	0,025	-0,085
-119,410	447,014	0,043	0,069
