DTS Sentinel unit serial number:	SN410029Multiplexer serial number:	ORYXHardware model number:	OX2-SRSoftware version number:	ORYX F/W v4,00 Oryx Data Collector v3.7.2.0data status	okinstallation	B5 Nyhavnadifferential loss correction	single-endedforward channel	channel 2reverse channel	N/Adate	2023/12/12time	21:37:13forward acquisition time	300,00reverse acquisition time	0,00gamma	499,1914k internal	0,3158k external	0,3158temperature offset calibration	1,0000default loss term (dB/km)	0,3820temperature slope calibration	1,0000multiplexer offset coefficient	1,0000multiplexer slope coefficient	1,0000fibre end	0,00T internal ref (°C)	14,87T ext. ref 1 (°C)	-1,77T ext. ref 2 (°C)	-2,07length (m)	temperature (°C)	Stokes	anti-Stokes-744,400	800,000	-0,020	0,053
-743,385	-130,785	-0,326	0,032
-742,371	33,943	0,132	0,085
-741,356	-131,504	-0,352	0,034
-740,342	-0,175	0,153	0,080
-739,327	-154,200	-0,195	-0,010
-738,312	-200,000	0,007	0,145
-737,298	-150,333	-0,289	-0,016
-736,283	-32,637	0,148	0,060
-735,269	-195,164	-0,251	0,001
-734,254	325,078	0,117	0,165
-733,239	-3,043	-0,537	-0,275
-732,225	25,079	0,104	0,063
-731,210	671,158	-0,045	-0,087
-730,196	-137,511	-0,064	0,005
-729,181	113,696	-0,090	-0,080
-728,167	-173,823	-0,134	0,003
-727,152	19,144	0,099	-0,058
-726,137	-79,723	-0,178	0,044
-725,123	-200,000	-0,022	0,129
-724,108	-154,257	-0,023	0,001
-723,094	-200,000	-0,014	-0,091
-722,079	-48,117	-0,100	-0,035
-721,064	123,939	0,075	-0,070
-720,050	-62,836	-0,068	-0,020
-719,035	-19,367	0,092	-0,042
-718,021	-18,173	-0,104	-0,048
-717,006	-13,694	-0,066	-0,031
-715,991	-104,732	-0,176	-0,030
-714,977	-111,327	0,064	0,009
-713,962	247,229	0,018	0,023
-712,948	-200,000	0,009	-0,104
-711,933	-44,036	0,066	0,024
-710,918	-200,000	0,012	-0,066
-709,904	504,865	0,086	-0,148
-708,889	-15,114	-0,101	-0,047
-707,875	490,082	-0,033	-0,055
-706,860	800,000	0,039	-0,092
-705,845	-111,116	0,017	0,003
-704,831	800,000	0,019	0,052
-703,816	-200,000	-0,011	0,060
-702,802	-28,426	-0,197	-0,083
-701,787	-106,701	-0,047	0,008
-700,772	-200,000	-0,013	-0,098
-699,758	800,000	0,035	-0,112
-698,743	-200,000	0,015	-0,057
-697,729	-167,355	-0,117	0,003
-696,714	592,464	-0,019	-0,034
-695,699	143,861	-0,111	-0,109
-694,685	89,475	-0,125	0,102
-693,670	-19,803	-0,108	-0,049
-692,656	472,247	0,040	0,066
-691,641	-200,000	0,009	0,196
-690,627	800,000	-0,021	-0,061
-689,612	28,287	-0,069	0,043
-688,597	-103,820	-0,133	-0,023
-687,583	436,305	0,048	0,077
-686,568	366,265	-0,015	-0,023
-685,554	800,000	0,028	-0,089
-684,539	-51,825	-0,051	0,017
-683,524	-200,000	0,008	0,061
-682,510	800,000	-0,016	-0,034
-681,495	-30,690	0,095	-0,039
-680,481	-200,000	-0,027	-0,133
-679,466	196,348	-0,119	-0,134
-678,451	466,024	-0,085	-0,141
-677,437	-123,424	-0,094	0,011
-676,422	-120,385	0,064	0,008
-675,408	-160,901	-0,055	0,002
-674,393	678,930	0,037	0,070
-673,378	-23,671	-0,073	-0,032
-672,364	109,296	-0,121	-0,106
-671,349	295,139	-0,023	-0,031
-670,335	-131,679	0,035	0,003
-669,320	263,764	-0,057	0,072
-668,305	-183,057	-0,140	0,002
-667,291	-131,161	-0,145	0,014
-666,276	668,066	-0,020	0,037
-665,262	-62,102	-0,101	0,031
-664,247	-26,068	-0,068	-0,029
-663,232	-95,025	-0,083	-0,016
-662,218	466,028	0,010	0,016
-661,203	-81,394	-0,084	-0,020
-660,189	10,315	-0,028	-0,015
-659,174	-134,161	-0,181	0,016
-658,159	800,000	0,045	0,097
-657,145	57,171	-0,065	0,046
-656,130	158,368	0,085	0,087
-655,116	116,038	-0,071	0,064
-654,101	369,764	-0,052	0,077
-653,086	7,515	0,066	-0,036
-652,072	210,396	0,028	0,032
-651,057	29,968	-0,125	0,078
-650,043	90,882	-0,091	-0,075
-649,028	240,636	-0,126	0,155
-648,014	122,411	0,065	0,059
-646,999	413,352	0,060	-0,095
-645,984	129,648	-0,048	-0,045
-644,970	190,628	-0,068	-0,075
-643,955	-91,861	-0,115	-0,024
-642,941	-69,449	-0,159	-0,044
-641,926	58,864	-0,087	0,062
-640,911	37,372	0,147	0,096
-639,897	-200,000	-0,008	-0,039
-638,882	438,664	-0,027	-0,044
-637,868	-158,731	0,135	0,006
-636,853	800,000	0,014	-0,030
-635,838	419,571	0,014	0,022
-634,824	-200,000	-0,003	0,081
-633,809	80,587	0,058	-0,046
-632,795	-42,775	-0,004	0,001
-631,780	33,031	-0,027	0,017
-630,765	-200,000	0,026	-0,143
-629,751	-59,566	0,070	-0,022
-628,736	-114,882	-0,041	-0,006
-627,722	779,984	-0,035	-0,070
-626,707	-86,336	0,127	-0,028
-625,692	-60,187	-0,037	0,011
-624,678	-200,000	-0,016	-0,076
-623,663	2,004	-0,065	0,034
-622,649	-131,784	-0,100	-0,009
-621,634	800,000	0,017	0,049
-620,619	-11,768	0,130	-0,062
-619,605	214,978	0,052	0,060
-618,590	-200,000	0,008	-0,112
-617,576	-200,000	0,001	0,207
-616,561	281,576	-0,032	-0,042
-615,546	22,738	0,047	-0,028
-614,532	69,250	-0,019	-0,014
-613,517	-40,831	-0,100	-0,038
-612,503	326,365	-0,047	-0,066
-611,488	-39,130	0,111	-0,042
-610,474	181,370	-0,068	0,073
-609,459	-18,460	-0,077	0,035
-608,444	88,233	-0,076	-0,062
-607,430	23,587	-0,202	-0,122
-606,415	-200,000	-0,003	-0,122
-605,401	117,261	-0,055	-0,049
-604,386	402,350	0,034	0,053
-603,371	-11,931	0,065	0,031
-602,357	18,657	0,051	0,030
-601,342	-200,000	-0,007	0,040
-600,328	800,000	-0,045	-0,122
-599,313	-79,599	-0,034	-0,008
-598,298	-115,279	-0,080	-0,011
-597,284	34,335	0,042	-0,027
-596,269	553,987	-0,088	0,155
-595,255	-117,580	0,085	-0,011
-594,240	1,439	-0,126	-0,066
-593,225	-131,955	0,114	-0,011
-592,211	-20,131	-0,077	-0,035
-591,196	114,564	0,045	0,041
-590,182	-57,803	0,186	0,059
-589,167	-180,664	0,143	-0,002
-588,152	-200,000	-0,018	-0,094
-587,138	800,000	-0,042	-0,103
-586,123	160,716	-0,032	0,033
-585,109	143,355	0,094	-0,092
-584,094	-86,869	0,015	0,003
-583,079	-28,449	-0,104	0,044
-582,065	-28,890	0,155	0,065
-581,050	184,077	-0,126	0,137
-580,036	800,000	0,043	-0,126
-579,021	16,606	-0,059	-0,034
-578,006	-17,763	0,087	0,040
-576,992	-200,000	0,001	0,032
-575,977	800,000	0,009	-0,021
-574,963	800,000	0,026	0,078
-573,948	-200,000	0,012	0,096
-572,934	350,210	0,038	-0,055
-571,919	533,253	-0,083	-0,144
-570,904	389,041	0,009	0,013
-569,890	-200,000	-0,005	0,114
-568,875	113,410	0,056	0,050
-567,861	-90,989	-0,017	-0,004
-566,846	-200,000	-0,015	0,098
-565,831	-34,218	0,172	-0,069
-564,817	-200,000	-0,017	-0,105
-563,802	251,781	-0,083	-0,104
-562,788	766,015	-0,074	0,148
-561,773	177,053	0,016	0,017
-560,758	-11,037	-0,065	-0,031
-559,744	800,000	0,021	-0,043
-558,729	608,162	-0,020	0,038
-557,715	-112,914	-0,127	0,018
-556,700	305,068	-0,072	-0,099
-555,685	-59,485	-0,145	-0,045
-554,671	250,169	-0,034	-0,042
-553,656	415,793	-0,019	0,029
-552,642	-16,030	0,169	0,078
-551,627	-200,000	-0,011	0,036
-550,612	-200,000	-0,029	-0,121
-549,598	-200,000	0,009	-0,131
-548,583	-200,000	0,014	-0,167
-547,569	353,495	-0,113	-0,165
-546,554	800,000	-0,048	-0,129
-545,539	268,305	0,066	-0,085
-544,525	448,757	0,080	-0,130
-543,510	-200,000	0,032	-0,199
-542,496	531,405	-0,047	0,081
-541,481	128,982	0,024	-0,023
-540,466	-173,543	-0,093	-0,002
-539,452	800,000	0,038	0,098
-538,437	-5,697	0,049	0,024
-537,423	46,602	0,037	-0,025
-536,408	35,158	-0,032	0,021
-535,393	-200,000	0,015	-0,112
-534,379	60,232	0,150	-0,108
-533,364	301,571	0,072	0,097
-532,350	109,626	0,070	0,061
-531,335	800,000	-0,023	-0,057
-530,321	-200,000	-0,000	-0,073
-529,306	-193,671	-0,134	-0,001
-528,291	252,961	-0,110	-0,137
-527,277	-93,287	0,074	0,015
-526,262	800,000	-0,029	-0,081
-525,248	-142,040	0,055	0,004
-524,233	149,246	0,119	-0,118
-523,218	-200,000	-0,018	0,078
-522,204	-200,000	-0,022	0,074
-521,189	-143,506	-0,057	-0,004
-520,175	-83,277	-0,141	-0,033
-519,160	-200,000	-0,003	0,016
-518,145	-200,000	-0,002	0,027
-517,131	-108,486	0,060	-0,009
-516,116	117,078	-0,107	0,096
-515,102	107,450	0,053	0,046
-514,087	9,534	0,047	0,026
-513,072	-66,050	-0,070	0,020
-512,058	-119,031	0,140	-0,018
-511,043	-2,876	-0,022	-0,011
-510,029	-58,471	-0,124	-0,039
-509,014	-200,000	-0,008	0,084
-507,999	180,262	0,022	-0,024
-506,985	800,000	0,019	-0,058
-505,970	3,886	-0,040	0,021
-504,956	800,000	-0,023	0,070
-503,941	-63,225	0,050	0,015
-502,926	800,000	-0,013	-0,036
-501,912	357,520	0,077	0,113
-500,897	-200,000	0,025	-0,110
-499,883	800,000	-0,063	0,178
-498,868	-200,000	-0,001	0,124
-497,853	86,001	0,111	-0,089
-496,839	-200,000	0,013	-0,072
-495,824	204,978	0,036	0,041
-494,810	800,000	0,030	0,077
-493,795	-13,468	0,094	0,044
-492,781	32,415	0,054	0,034
-491,766	-148,764	0,075	-0,004
-490,751	207,792	-0,077	-0,088
-489,737	84,719	0,133	-0,106
-488,722	-200,000	0,000	0,012
-487,708	-200,000	0,109	0,000
-486,693	-200,000	0,027	-0,119
-485,678	-200,000	-0,018	-0,093
-484,664	800,000	0,087	-0,197
-483,649	32,677	-0,124	-0,078
-482,635	152,131	0,003	-0,003
-481,620	-63,848	-0,082	0,024
-480,605	113,426	0,101	-0,090
-479,591	-200,000	0,004	-0,038
-478,576	139,637	0,076	0,073
-477,562	-113,478	-0,069	0,010
-476,547	-0,783	-0,079	-0,041
-475,532	-4,795	0,015	-0,008
-474,518	552,121	0,096	0,169
-473,503	-7,492	0,098	-0,048
-472,489	508,490	-0,060	0,101
-471,474	3,342	0,065	-0,034
-470,459	225,152	-0,002	0,003
-469,445	333,038	-0,093	-0,131
-468,430	-28,127	0,095	-0,040
-467,416	-200,000	-0,036	-0,117
-466,401	-167,720	0,090	0,003
-465,386	383,431	-0,056	0,084
-464,372	-48,852	-0,135	0,047
-463,357	-38,461	0,007	0,003
-462,343	356,580	-0,108	-0,157
-461,328	270,967	-0,095	-0,122
-460,313	-200,000	0,003	0,031
-459,299	800,000	0,080	0,218
-458,284	-11,284	-0,136	0,065
-457,270	800,000	0,037	0,102
-456,255	267,998	-0,060	-0,077
-455,241	57,174	-0,144	-0,102
-454,226	522,283	-0,098	-0,168
-453,211	-200,000	-0,007	0,102
-452,197	-107,314	0,026	-0,004
-451,182	495,774	0,068	0,114
-450,168	141,095	0,064	0,062
-449,153	286,488	-0,073	-0,097
-448,138	-71,358	-0,072	0,020
-447,124	-139,371	-0,029	-0,002
-446,109	-200,000	0,022	-0,082
-445,095	-200,000	0,016	0,135
-444,080	-55,645	0,086	0,028
-443,065	-112,486	-0,091	0,013
-442,051	-0,320	-0,158	0,082
-441,036	95,675	0,056	-0,046
-440,022	-2,608	-0,037	0,019
-439,007	-45,154	0,060	-0,022
-437,992	-200,000	0,017	0,090
-436,978	560,763	0,029	-0,051
-435,963	-72,418	0,067	-0,018
-434,949	127,539	0,080	-0,074
-433,934	-200,000	-0,006	-0,165
-432,919	-92,723	-0,058	-0,012
-431,905	-200,000	0,002	0,033
-430,890	800,000	0,006	-0,018
-429,876	171,424	-0,056	0,059
-428,861	435,365	-0,012	0,020
-427,846	-200,000	0,021	0,148
-426,832	-200,000	0,018	-0,098
-425,817	97,076	-0,078	-0,065
-424,803	727,938	0,045	0,087
-423,788	-167,170	0,147	0,004
-422,773	-1,020	-0,135	-0,069
-421,759	-146,585	-0,107	-0,007
-420,744	76,509	-0,033	0,025
-419,730	-200,000	-0,026	-0,185
-418,715	-14,005	0,050	-0,024
-417,701	-58,253	-0,064	0,020
-416,686	-147,146	-0,080	0,005
-415,671	800,000	-0,034	0,099
-414,657	290,781	-0,066	0,087
-413,642	401,975	-0,069	0,106
-412,628	-161,786	-0,028	0,001
-411,613	189,008	-0,059	-0,065
-410,598	-162,500	0,014	-0,000
-409,584	-200,000	-0,008	0,143
-408,569	-78,545	-0,052	-0,013
-407,555	504,719	-0,045	-0,075
-406,540	205,794	0,041	0,047
-405,525	-4,652	-0,065	0,033
-404,511	-200,000	-0,005	-0,063
-403,496	31,863	-0,210	-0,131
-402,482	266,804	0,016	-0,020
-401,467	571,766	0,056	-0,099
-400,452	21,586	-0,027	0,016
-399,438	800,000	0,014	0,046
-398,423	114,476	-0,069	-0,061
-397,409	97,374	0,047	-0,039
-396,394	406,756	0,014	-0,021
-395,379	179,371	-0,061	0,065
-394,365	-200,000	0,021	0,100
-393,350	478,639	0,090	0,150
-392,336	-200,000	0,004	-0,120
-391,321	-200,000	-0,004	-0,071
-390,306	522,812	0,036	0,061
-389,292	-29,969	-0,108	0,044
-388,277	13,724	0,128	0,072
-387,263	800,000	0,043	-0,087
-386,248	800,000	0,024	0,072
-385,233	800,000	0,027	-0,083
-384,219	-200,000	-0,011	0,071
-383,204	-111,881	0,103	0,015
-382,190	-77,264	0,035	-0,009
-381,175	-200,000	0,011	0,038
-380,160	-52,056	-0,159	0,053
-379,146	473,275	0,045	0,075
-378,131	800,000	0,027	0,079
-377,117	800,000	-0,021	-0,066
-376,102	-133,486	0,080	0,007
-375,088	179,192	-0,046	0,048
-374,073	-140,700	0,091	0,007
-373,058	-140,964	0,015	-0,001
-372,044	-38,883	0,051	0,020
-371,029	800,000	0,054	-0,133
-370,015	191,119	-0,014	0,015
-369,000	-87,930	0,126	0,027
-367,985	149,382	-0,027	0,027
-366,971	343,710	-0,059	-0,084
-365,956	-33,578	0,012	0,005
-364,942	67,601	0,162	0,120
-363,927	-183,384	-0,074	-0,001
-362,912	800,000	0,037	0,091
-361,898	112,527	-0,099	-0,087
-360,883	714,891	-0,060	-0,117
-359,869	-17,103	-0,061	-0,028
-358,854	800,000	0,012	0,025
-357,839	-200,000	0,019	-0,094
-356,825	-124,345	0,080	-0,009
-355,810	-200,000	-0,000	0,127
-354,796	-133,205	0,022	0,002
-353,781	-76,542	-0,056	-0,014
-352,766	-74,623	-0,030	-0,008
-351,752	-44,799	-0,111	0,040
-350,737	-24,650	0,059	-0,025
-349,723	800,000	0,026	0,053
-348,708	-200,000	-0,005	0,126
-347,693	235,036	-0,081	0,098
-346,679	-200,000	-0,011	-0,055
-345,664	405,516	0,013	0,019
-344,650	800,000	0,020	0,050
-343,635	48,432	0,131	0,089
-342,620	-200,000	-0,001	0,024
-341,606	800,000	-0,060	0,129
-340,591	-200,000	-0,045	0,144
-339,577	-21,328	-0,160	-0,071
-338,562	157,853	-0,105	0,106
-337,548	-140,371	0,031	0,002
-336,533	746,934	0,053	0,104
-335,518	800,000	0,011	-0,023
-334,504	-200,000	0,006	-0,033
-333,489	800,000	0,065	-0,143
-332,475	730,265	0,068	-0,132
-331,460	336,945	0,020	-0,029
-330,445	130,974	-0,116	-0,108
-329,431	236,192	-0,020	0,024
-328,416	-53,599	0,030	0,010
-327,402	-169,996	0,087	-0,002
-326,387	22,559	0,085	0,050
-325,372	765,029	0,073	0,145
-324,358	-200,000	-0,015	-0,056
-323,343	-200,000	-0,006	0,026
-322,329	634,748	0,061	0,112
-321,314	236,602	-0,032	0,039
-320,299	75,233	-0,073	0,056
-319,285	-54,310	0,075	0,025
-318,270	800,000	0,045	-0,115
-317,256	-77,811	-0,070	-0,017
-316,241	-200,000	-0,005	0,099
-315,226	-87,257	0,168	-0,037
-314,212	399,829	-0,028	0,043
-313,197	-47,318	0,063	-0,022
-312,183	374,512	0,064	0,095
-311,168	-14,938	-0,061	0,028
-310,153	-47,175	-0,092	0,032
-309,139	247,506	-0,051	-0,062
-308,124	52,527	-0,081	0,056
-307,110	-56,991	0,084	-0,027
-306,095	563,587	0,011	-0,019
-305,080	800,000	-0,037	0,095
-304,066	30,681	-0,042	0,026
-303,051	-200,000	-0,016	-0,159
-302,037	7,632	-0,048	-0,026
-301,022	-200,000	-0,016	0,113
-300,008	-86,642	0,165	-0,036
-298,993	-46,745	0,041	0,014
-297,978	800,000	-0,012	0,034
-296,964	-103,616	-0,082	0,014
-295,949	170,293	-0,083	0,086
-294,935	201,060	0,075	-0,084
-293,920	278,028	0,085	0,110
-292,905	268,628	0,027	0,034
-291,891	-200,000	0,009	0,098
-290,876	-200,000	-0,005	-0,080
-289,862	-200,000	0,007	-0,103
-288,847	-136,063	-0,056	-0,005
-287,832	-96,477	-0,060	-0,011
-286,818	-200,000	0,017	-0,095
-285,803	-89,427	0,084	-0,018
-284,789	-200,000	0,042	0,167
-283,774	154,477	-0,041	0,041
-282,759	352,868	-0,052	-0,075
-281,745	-200,000	0,011	-0,051
-280,730	-88,983	0,129	0,027
-279,716	-55,646	-0,038	-0,012
-278,701	644,275	0,018	0,033
-277,686	800,000	0,023	0,072
-276,672	800,000	-0,042	0,098
-275,657	53,148	-0,086	0,059
-274,643	-25,547	-0,090	-0,038
-273,628	-200,000	0,031	-0,133
-272,613	-200,000	0,011	-0,115
-271,599	-200,000	-0,006	0,042
-270,584	27,770	-0,050	0,031
-269,570	127,394	-0,085	0,078
-268,555	58,688	-0,046	-0,033
-267,540	-58,340	-0,028	0,009
-266,526	-168,800	-0,055	0,001
-265,511	-106,115	-0,030	-0,005
-264,497	-49,207	-0,058	-0,020
-263,482	182,397	0,028	-0,030
-262,467	-10,286	-0,061	0,029
-261,453	314,829	0,027	-0,037
-260,438	-28,207	0,079	-0,033
-259,424	124,649	-0,060	-0,055
-258,409	-38,398	-0,116	0,044
-257,395	-170,981	0,078	-0,002
-256,380	-147,288	-0,054	-0,003
-255,365	-11,616	0,136	0,064
-254,351	800,000	0,077	0,200
-253,336	738,585	0,023	-0,045
-252,322	6,839	0,077	0,041
-251,307	-35,089	-0,051	0,020
-250,292	-22,348	0,156	0,068
-249,278	85,087	0,054	0,043
-248,263	-62,232	0,135	-0,040
-247,249	418,550	-0,046	-0,071
-246,234	-61,572	0,150	0,045
-245,219	-51,394	-0,181	-0,061
-244,205	-125,751	0,198	0,021
-243,190	-200,000	-0,003	-0,086
-242,176	800,000	0,021	-0,044
-241,161	15,041	0,160	-0,090
-240,146	-72,912	0,169	0,045
-239,132	105,829	-0,060	-0,051
-238,117	800,000	-0,041	-0,118
-237,103	514,747	-0,107	-0,181
-236,088	800,000	-0,027	-0,084
-235,073	-31,383	0,070	0,028
-234,059	285,990	0,047	-0,062
-233,044	92,826	0,132	-0,108
-232,030	-106,339	-0,131	0,021
-231,015	800,000	-0,016	-0,041
-230,000	-76,949	-0,165	-0,041
-228,986	475,857	-0,030	0,049
-227,971	800,000	0,008	-0,025
-226,957	-200,000	-0,027	0,097
-225,942	-127,599	-0,074	0,008
-224,927	160,435	-0,088	0,089
-223,913	-200,000	-0,005	-0,052
-222,898	800,000	0,017	-0,052
-221,884	243,015	-0,099	-0,119
-220,869	-200,000	-0,021	0,144
-219,855	-97,266	0,174	-0,032
-218,840	-200,000	0,021	0,081
-217,825	-27,540	0,069	0,029
-216,811	637,275	-0,092	-0,169
-215,796	-92,111	-0,045	-0,009
-214,782	-64,267	-0,067	-0,020
-213,767	-200,000	-0,013	0,134
-212,752	201,661	-0,028	0,032
-211,738	-136,666	-0,057	-0,005
-210,723	-200,000	0,028	0,131
-209,709	-52,368	-0,067	0,022
-208,694	23,047	0,127	0,075
-207,679	-200,000	-0,027	-0,097
-206,665	800,000	0,027	-0,068
-205,650	-140,556	0,047	-0,004
-204,636	800,000	-0,042	0,109
-203,621	-84,830	0,102	0,023
-202,606	-127,893	0,122	0,012
-201,592	154,961	-0,125	-0,124
-200,577	-90,110	-0,064	-0,013
-199,563	210,090	-0,023	0,027
-198,548	-124,682	0,236	-0,026
-197,533	46,045	0,035	-0,024
-196,519	196,368	0,036	-0,040
-195,504	-200,000	0,020	0,115
-194,490	-200,000	-0,011	0,090
-193,475	89,434	-0,055	-0,044
-192,460	-21,427	-0,058	-0,025
-191,446	800,000	0,075	0,153
-190,431	119,276	-0,056	0,050
-189,417	101,478	-0,085	-0,072
-188,402	134,489	0,036	0,033
-187,387	-148,732	-0,147	-0,008
-186,373	800,000	0,056	-0,139
-185,358	-71,468	0,068	0,018
-184,344	-103,349	-0,049	0,008
-183,329	209,832	0,132	0,149
-182,315	-159,259	-0,099	0,004
-181,300	-11,508	0,093	0,044
-180,285	-18,136	0,045	0,020
-179,271	18,483	-0,050	-0,029
-178,256	549,860	-0,054	0,094
-177,242	-200,000	0,004	-0,063
-176,227	-200,000	0,031	0,239
-175,212	-200,000	0,005	0,036
-174,198	-200,000	0,005	0,121
-173,183	800,000	-0,017	0,039
-172,169	800,000	-0,006	0,013
-171,154	-151,423	-0,103	-0,005
-170,139	-67,499	0,210	0,059
-169,125	800,000	-0,028	-0,077
-168,110	44,059	0,206	0,136
-167,096	-155,421	-0,109	-0,005
-166,081	115,939	-0,034	0,030
-165,066	-200,000	-0,003	-0,049
-164,052	188,570	0,028	0,031
-163,037	-77,171	-0,109	0,027
-162,023	21,035	0,231	0,135
-161,008	58,794	0,039	0,028
-159,993	47,388	0,129	0,087
-158,979	-95,233	0,079	0,015
-157,964	86,347	-0,109	-0,086
-156,950	-10,246	0,100	0,047
-155,935	-200,000	-0,017	-0,091
-154,920	-15,286	0,038	0,017
-153,906	206,294	-0,101	0,113
-152,891	61,452	-0,097	-0,069
-151,877	-82,552	-0,175	0,041
-150,862	-200,000	-0,020	-0,072
-149,847	-84,458	-0,046	-0,010
-148,833	-200,000	-0,008	-0,079
-147,818	800,000	-0,044	0,104
-146,804	174,138	0,070	0,073
-145,789	392,297	-0,022	0,032
-144,775	800,000	-0,035	0,107
-143,760	181,630	-0,140	0,149
-142,745	278,965	-0,054	-0,070
-141,731	800,000	0,111	0,225
-140,716	800,000	-0,029	0,090
-139,702	800,000	0,055	0,122
-138,687	-161,832	-0,182	-0,007
-137,672	235,312	0,060	0,071
-136,658	47,248	0,034	0,023
-135,643	275,702	-0,037	0,047
-134,629	800,000	-0,051	0,118
-133,614	-18,778	0,022	-0,010
-132,599	-200,000	-0,011	0,061
-131,585	800,000	0,055	0,113
-130,570	800,000	-0,061	0,139
-129,556	800,000	-0,015	0,033
-128,541	-180,834	-0,042	0,001
-127,526	800,000	-0,024	0,071
-126,512	-200,000	0,013	0,089
-125,497	-94,896	0,053	0,010
-124,483	-200,000	-0,015	0,071
-123,468	800,000	-0,047	0,137
-122,453	-7,250	-0,053	-0,026
-121,439	-200,000	-0,003	0,012
-120,424	44,261	0,065	0,043
-119,410	-102,046	0,207	0,035
