DTS Sentinel unit serial number:	SN410029Multiplexer serial number:	ORYXHardware model number:	OX2-SRSoftware version number:	ORYX F/W v4,00 Oryx Data Collector v3.7.2.0data status	okinstallation	B5 Nyhavnadifferential loss correction	single-endedforward channel	channel 2reverse channel	N/Adate	2023/12/13time	13:12:13forward acquisition time	300,00reverse acquisition time	0,00gamma	499,1914k internal	0,3161k external	0,3161temperature offset calibration	1,0000default loss term (dB/km)	0,3820temperature slope calibration	1,0000multiplexer offset coefficient	1,0000multiplexer slope coefficient	1,0000fibre end	0,00T internal ref (°C)	14,45T ext. ref 1 (°C)	-1,34T ext. ref 2 (°C)	-1,61length (m)	temperature (°C)	Stokes	anti-Stokes-744,400	-141,033	0,061	0,005
-743,385	-47,871	-0,322	0,114
-742,371	158,082	0,208	0,212
-741,356	85,893	-0,205	0,166
-740,342	141,128	0,093	0,091
-739,327	-106,723	-0,247	0,040
-738,312	86,405	0,114	0,093
-737,298	-19,493	-0,227	-0,103
-736,283	-34,637	0,163	-0,065
-735,269	24,227	-0,211	0,128
-734,254	-82,617	0,166	-0,039
-733,239	-121,263	-0,581	-0,071
-732,225	376,884	0,066	0,099
-731,210	683,372	0,038	0,072
-730,196	-200,000	0,024	-0,095
-729,181	583,893	-0,052	-0,093
-728,167	-200,000	0,002	-0,030
-727,152	23,677	-0,047	0,029
-726,137	243,477	0,035	-0,043
-725,123	-200,000	0,003	0,097
-724,108	42,236	-0,057	0,038
-723,094	-77,813	0,009	0,002
-722,079	137,168	-0,147	0,141
-721,064	775,245	-0,011	-0,022
-720,050	-200,000	-0,031	0,104
-719,035	174,368	0,104	0,110
-718,021	-15,116	-0,063	0,030
-717,006	87,309	-0,103	0,084
-715,991	-200,000	0,029	-0,128
-714,977	260,348	0,042	-0,054
-713,962	-35,726	-0,151	-0,060
-712,948	-94,688	-0,122	-0,024
-711,933	-200,000	0,006	-0,030
-710,918	-200,000	0,005	0,100
-709,904	172,946	-0,146	-0,155
-708,889	-35,062	-0,148	-0,059
-707,875	42,903	-0,130	0,087
-706,860	78,558	-0,096	0,075
-705,845	-47,454	-0,047	-0,017
-704,831	264,063	0,044	-0,056
-703,816	-108,670	-0,078	-0,012
-702,802	114,987	-0,068	0,061
-701,787	-38,391	-0,143	-0,055
-700,772	-33,033	0,076	0,031
-699,758	198,797	-0,071	0,080
-698,743	99,537	-0,063	0,054
-697,729	342,750	0,030	-0,043
-696,714	-28,520	-0,064	-0,027
-695,699	63,585	0,119	-0,088
-694,685	-142,713	0,124	0,009
-693,670	146,108	-0,064	-0,063
-692,656	-200,000	0,006	-0,064
-691,641	-200,000	0,002	0,033
-690,627	-41,083	-0,008	-0,003
-689,612	609,244	0,066	0,122
-688,597	191,463	-0,079	0,088
-687,583	2,920	-0,179	-0,095
-686,568	-200,000	-0,037	-0,241
-685,554	287,423	-0,015	-0,020
-684,539	-200,000	-0,002	-0,039
-683,524	-135,164	-0,038	-0,003
-682,510	-9,420	-0,036	0,018
-681,495	-200,000	-0,004	-0,071
-680,481	176,588	-0,089	-0,095
-679,466	32,490	-0,109	-0,069
-678,451	20,737	0,075	-0,044
-677,437	-102,743	-0,133	-0,023
-676,422	-118,688	0,047	0,006
-675,408	-44,218	0,041	-0,015
-674,393	-20,936	-0,085	0,038
-673,378	-4,064	-0,112	-0,057
-672,364	-44,040	-0,070	-0,026
-671,349	800,000	-0,005	0,011
-670,335	146,038	-0,031	-0,031
-669,320	-200,000	-0,037	-0,127
-668,305	695,222	-0,078	0,150
-667,291	354,092	-0,042	-0,061
-666,276	-128,113	-0,092	0,010
-665,262	251,207	0,058	-0,073
-664,247	-68,586	-0,116	-0,033
-663,232	-200,000	0,004	0,016
-662,218	-12,273	0,039	0,019
-661,203	-141,593	-0,016	0,001
-660,189	-200,000	-0,004	-0,090
-659,174	55,106	0,071	0,050
-658,159	58,216	-0,068	0,049
-657,145	-46,629	0,161	-0,057
-656,130	800,000	0,054	-0,114
-655,116	160,401	0,008	-0,009
-654,101	-4,082	-0,076	-0,039
-653,086	-20,768	-0,097	-0,044
-652,072	-200,000	-0,002	0,097
-651,057	92,839	-0,056	-0,046
-650,043	559,540	0,026	0,046
-649,028	-200,000	-0,000	0,067
-648,014	688,601	-0,026	-0,050
-646,999	-118,161	0,140	0,018
-645,984	433,129	-0,047	0,075
-644,970	127,857	-0,045	-0,042
-643,955	-200,000	-0,011	-0,054
-642,941	383,057	-0,040	-0,061
-641,926	17,530	0,047	-0,027
-640,911	-200,000	0,018	0,093
-639,897	-89,120	-0,039	-0,008
-638,882	-200,000	-0,020	-0,142
-637,868	-89,177	-0,176	-0,038
-636,853	-155,364	-0,222	0,010
-635,838	800,000	-0,035	0,100
-634,824	126,374	0,098	-0,091
-633,809	93,908	0,038	0,032
-632,795	800,000	0,040	-0,121
-631,780	-200,000	0,010	0,141
-630,765	23,424	-0,063	0,038
-629,751	97,390	0,065	-0,055
-628,736	-200,000	0,002	-0,049
-627,722	138,654	-0,044	-0,043
-626,707	-200,000	0,006	0,050
-625,692	-85,322	0,062	-0,014
-624,678	16,764	-0,066	-0,038
-623,663	550,872	0,065	0,116
-622,649	670,400	-0,057	-0,108
-621,634	-60,936	-0,056	0,017
-620,619	26,633	-0,080	-0,049
-619,605	508,694	0,048	0,082
-618,590	800,000	-0,050	-0,124
-617,576	-7,208	-0,085	0,042
-616,561	-200,000	-0,012	-0,077
-615,546	-200,000	-0,036	-0,209
-614,532	191,666	-0,128	-0,142
-613,517	121,660	0,092	-0,084
-612,503	247,097	-0,047	-0,058
-611,488	-200,000	0,015	0,061
-610,474	49,508	0,115	-0,079
-609,459	-200,000	0,004	0,032
-608,444	469,455	0,027	-0,045
-607,430	769,388	0,062	0,124
-606,415	686,284	-0,067	-0,128
-605,401	-161,257	0,082	0,003
-604,386	225,706	-0,071	-0,085
-603,371	-11,033	0,072	0,035
-602,357	-200,000	-0,006	0,126
-601,342	-75,124	-0,059	0,015
-600,328	-200,000	0,001	-0,055
-599,313	-67,419	-0,155	-0,044
-598,298	800,000	0,018	0,043
-597,284	644,549	0,059	0,111
-596,269	-200,000	-0,024	0,182
-595,255	178,106	-0,083	0,088
-594,240	293,315	-0,057	0,076
-593,225	-39,541	0,007	-0,003
-592,211	-155,325	-0,023	-0,001
-591,196	800,000	0,013	0,030
-590,182	-86,930	0,003	-0,001
-589,167	228,410	-0,048	0,058
-588,152	5,240	0,102	-0,055
-587,138	-200,000	-0,025	-0,135
-586,123	-107,434	-0,116	-0,018
-585,109	-200,000	-0,009	-0,081
-584,094	273,834	-0,041	0,053
-583,079	144,296	0,071	0,069
-582,065	-149,928	-0,071	-0,004
-581,050	534,318	-0,018	-0,031
-580,036	800,000	-0,014	0,035
-579,021	261,286	0,098	-0,124
-578,006	-200,000	-0,005	-0,059
-576,992	-5,180	0,050	0,025
-575,977	69,481	0,072	-0,054
-574,963	-148,174	-0,025	-0,001
-573,948	800,000	-0,035	0,106
-572,934	-61,839	0,035	-0,011
-571,919	60,659	0,095	-0,069
-570,904	-200,000	-0,045	-0,150
-569,890	756,767	-0,018	-0,037
-568,875	-130,088	-0,068	0,007
-567,861	1,363	-0,056	-0,029
-566,846	-110,021	0,073	0,011
-565,831	488,116	0,010	0,017
-564,817	436,534	-0,044	0,070
-563,802	16,705	0,131	-0,076
-562,788	74,047	-0,047	-0,036
-561,773	-130,735	0,169	-0,016
-560,758	-122,034	0,121	-0,014
-559,744	-200,000	-0,002	0,067
-558,729	653,564	-0,052	0,098
-557,715	-75,766	0,149	0,038
-556,700	-47,652	-0,027	0,010
-555,685	-88,724	0,031	-0,007
-554,671	271,468	0,022	0,029
-553,656	175,469	-0,007	-0,008
-552,642	483,479	0,086	0,144
-551,627	252,657	-0,017	-0,021
-550,612	-126,597	-0,054	0,006
-549,598	17,656	-0,068	0,040
-548,583	192,740	-0,019	0,021
-547,569	-200,000	-0,005	0,107
-546,554	-62,252	0,182	-0,055
-545,539	800,000	0,023	0,064
-544,525	749,071	0,028	-0,056
-543,510	-30,497	0,049	0,020
-542,496	49,248	0,072	-0,049
-541,481	175,665	-0,043	0,045
-540,466	-200,000	0,001	0,024
-539,452	800,000	0,048	-0,108
-538,437	-103,839	-0,097	0,016
-537,423	-200,000	-0,001	-0,025
-536,408	-200,000	0,054	-0,176
-535,393	-48,504	-0,080	-0,028
-534,379	-126,915	0,082	-0,009
-533,364	-42,143	-0,055	-0,020
-532,350	132,294	-0,073	0,069
-531,335	-200,000	-0,011	0,083
-530,321	106,701	-0,032	0,028
-529,306	11,002	-0,028	-0,015
-528,291	52,271	-0,113	-0,079
-527,277	436,068	-0,019	0,030
-526,262	-110,931	0,061	-0,009
-525,248	-90,471	0,031	-0,006
-524,233	-200,000	-0,000	0,032
-523,218	724,011	0,062	0,120
-522,204	-200,000	-0,012	-0,114
-521,189	-116,941	-0,052	-0,007
-520,175	800,000	-0,094	-0,206
-519,160	570,839	0,073	-0,130
-518,145	243,475	-0,020	0,024
-517,131	800,000	-0,071	0,220
-516,116	-130,304	0,045	-0,004
-515,102	9,764	-0,086	0,048
-514,087	-200,000	0,015	-0,141
-513,072	-132,260	-0,146	0,014
-512,058	495,604	-0,012	0,021
-511,043	345,861	0,071	0,103
-510,029	-74,340	0,127	0,033
-509,014	-75,429	0,118	0,030
-507,999	800,000	-0,031	-0,074
-506,985	-40,625	0,062	-0,023
-505,970	-89,586	-0,098	-0,021
-504,956	800,000	-0,023	-0,070
-503,941	-149,112	0,108	-0,006
-502,926	-21,814	-0,093	-0,041
-501,912	-200,000	-0,068	-0,000
-500,897	-14,215	-0,099	0,047
-499,883	-25,330	0,046	0,020
-498,868	-200,000	-0,009	-0,040
-497,853	285,410	-0,056	-0,074
-496,839	800,000	-0,030	0,080
-495,824	387,050	0,016	-0,024
-494,810	1,927	0,119	0,062
-493,795	560,444	0,050	0,088
-492,781	-78,688	0,153	0,038
-491,766	-153,963	-0,037	-0,002
-490,751	-52,853	-0,061	0,020
-489,737	325,587	-0,047	0,066
-488,722	629,821	-0,028	-0,053
-487,708	-200,000	0,033	0,127
-486,693	129,738	0,059	0,055
-485,678	105,577	-0,072	-0,062
-484,664	74,910	-0,048	-0,037
-483,649	165,774	-0,056	-0,058
-482,635	-124,697	0,117	-0,013
-481,620	-200,000	-0,014	-0,057
-480,605	-200,000	-0,003	0,028
-479,591	49,217	0,069	0,047
-478,576	247,327	-0,059	0,073
-477,562	506,884	0,015	0,025
-476,547	87,526	-0,028	-0,023
-475,532	800,000	0,041	-0,122
-474,518	231,950	-0,042	0,050
-473,503	800,000	0,026	0,054
-472,489	-200,000	0,018	0,059
-471,474	-200,000	-0,041	0,157
-470,459	-132,479	-0,139	-0,013
-469,445	387,410	0,077	-0,116
-468,430	17,458	-0,103	0,059
-467,416	-200,000	0,006	0,050
-466,401	-200,000	-0,007	-0,068
-465,386	-200,000	-0,019	0,115
-464,372	-200,000	-0,004	-0,015
-463,357	800,000	0,024	0,075
-462,343	800,000	0,036	-0,077
-461,328	271,256	0,073	0,094
-460,313	800,000	-0,066	0,139
-459,299	-116,450	-0,079	-0,010
-458,284	800,000	0,025	-0,064
-457,270	-12,301	-0,117	-0,055
-456,255	800,000	0,006	0,014
-455,241	-110,808	-0,094	-0,014
-454,226	-200,000	-0,002	-0,053
-453,211	-0,074	0,066	-0,034
-452,197	20,557	0,104	0,061
-451,182	127,824	0,090	0,083
-450,168	-200,000	0,003	-0,024
-449,153	-80,884	-0,172	0,041
-448,138	-124,358	-0,142	0,016
-447,124	1,568	-0,064	-0,034
-446,109	20,498	-0,086	0,050
-445,095	179,084	0,056	-0,059
-444,080	202,310	0,088	-0,099
-443,065	40,888	-0,040	0,026
-442,051	800,000	-0,018	-0,038
-441,036	-200,000	-0,030	-0,153
-440,022	395,897	-0,085	-0,129
-439,007	-200,000	0,038	0,121
-437,992	-200,000	0,013	0,109
-436,978	58,813	-0,068	-0,049
-435,963	-17,746	0,113	0,051
-434,949	-200,000	-0,007	0,126
-433,934	800,000	-0,014	0,036
-432,919	572,141	-0,015	-0,026
-431,905	-200,000	-0,016	0,066
-430,890	-4,885	0,093	0,046
-429,876	-200,000	-0,014	0,051
-428,861	-200,000	-0,023	0,127
-427,846	-200,000	0,007	-0,115
-426,832	153,609	-0,117	-0,117
-425,817	-17,794	0,039	-0,018
-424,803	94,807	-0,096	0,079
-423,788	737,242	-0,055	0,109
-422,773	-9,435	-0,015	0,007
-421,759	-89,390	0,127	-0,027
-420,744	103,833	-0,053	-0,046
-419,730	-139,927	0,113	-0,009
-418,715	53,961	-0,111	0,078
-417,701	-19,173	0,038	-0,017
-416,686	-111,942	0,091	0,013
-415,671	-200,000	-0,010	0,048
-414,657	-67,307	-0,032	0,009
-413,642	-79,097	-0,098	0,024
-412,628	-132,780	0,039	-0,004
-411,613	-55,476	-0,134	-0,044
-410,598	800,000	0,079	-0,179
-409,584	-128,338	0,030	0,003
-408,569	-40,237	0,074	0,028
-407,555	451,704	0,008	0,013
-406,540	-200,000	0,011	0,058
-405,525	-200,000	-0,004	0,157
-404,511	-200,000	-0,003	-0,135
-403,496	-200,000	-0,005	0,110
-402,482	360,692	-0,072	-0,105
-401,467	-56,008	-0,095	0,031
-400,452	-80,572	0,146	0,035
-399,438	-84,091	0,061	0,014
-398,423	-16,061	-0,136	-0,063
-397,409	226,835	-0,097	0,114
-396,394	8,598	-0,045	-0,024
-395,379	404,308	0,053	-0,082
-394,365	-184,362	0,141	0,002
-393,350	462,508	-0,035	0,057
-392,336	800,000	0,018	0,057
-391,321	-200,000	0,037	-0,125
-390,306	-138,925	0,043	0,003
-389,292	-200,000	-0,009	-0,053
-388,277	439,684	-0,035	0,056
-387,263	-200,000	0,042	0,147
-386,248	310,641	0,005	0,007
-385,233	26,931	-0,064	0,039
-384,219	600,594	0,030	0,054
-383,204	14,981	0,053	-0,030
-382,190	800,000	0,053	-0,137
-381,175	-126,410	0,048	-0,005
-380,160	-155,422	0,147	-0,007
-379,146	593,545	0,045	0,081
-378,131	59,899	0,106	0,076
-377,117	90,127	0,056	-0,045
-376,102	691,979	-0,044	-0,084
-375,088	-32,815	0,092	-0,037
-374,073	527,309	-0,024	0,041
-373,058	514,269	0,051	0,087
-372,044	1,011	0,136	0,070
-371,029	-68,345	-0,057	0,016
-370,015	-200,000	0,030	0,132
-369,000	157,201	-0,072	-0,073
-367,985	146,368	0,156	-0,152
-366,971	627,407	-0,097	-0,179
-365,956	596,286	0,024	-0,043
-364,942	-200,000	-0,000	0,047
-363,927	190,752	0,051	0,055
-362,912	10,224	-0,088	-0,048
-361,898	305,107	-0,011	-0,015
-360,883	-98,258	0,032	-0,006
-359,869	-200,000	0,038	0,185
-358,854	10,871	0,009	-0,005
-357,839	104,950	-0,047	-0,040
-356,825	-131,179	-0,069	-0,007
-355,810	800,000	-0,028	-0,065
-354,796	-200,000	0,062	-0,203
-353,781	-200,000	-0,017	-0,116
-352,766	-200,000	0,005	0,135
-351,752	276,255	0,087	-0,112
-350,737	800,000	0,039	0,117
-349,723	107,819	0,046	-0,040
-348,708	313,321	0,075	0,102
-347,693	715,498	0,019	0,037
-346,679	-200,000	0,004	0,095
-345,664	74,373	0,048	-0,037
-344,650	-200,000	-0,037	0,142
-343,635	-200,000	-0,004	0,063
-342,620	-200,000	0,025	0,151
-341,606	-12,445	0,014	-0,007
-340,591	-200,000	-0,001	0,020
-339,577	-200,000	0,004	-0,145
-338,562	-91,536	-0,018	-0,004
-337,548	6,589	-0,111	-0,060
-336,533	681,905	-0,034	0,064
-335,518	-40,633	-0,169	0,063
-334,504	-64,944	0,113	-0,033
-333,489	-50,050	-0,130	0,045
-332,475	-42,206	0,062	-0,023
-331,460	-29,526	0,030	-0,012
-330,445	-58,545	0,154	-0,048
-329,431	800,000	-0,071	-0,167
-328,416	-143,293	0,071	-0,005
-327,402	-115,796	-0,040	0,005
-326,387	-76,114	0,095	-0,024
-325,372	-49,102	0,224	-0,077
-324,358	-103,406	-0,056	0,009
-323,343	-63,819	-0,040	0,012
-322,329	413,886	0,070	0,109
-321,314	233,359	0,024	-0,029
-320,299	-154,158	-0,125	-0,006
-319,285	-200,000	-0,002	-0,033
-318,270	188,757	-0,023	-0,025
-317,256	-114,596	-0,097	-0,013
-316,241	-200,000	-0,011	0,041
-315,226	-200,000	-0,029	-0,107
-314,212	250,363	0,049	-0,061
-313,197	-27,492	-0,134	-0,056
-312,183	-200,000	0,018	0,115
-311,168	800,000	0,064	-0,138
-310,153	-105,787	-0,107	-0,017
-309,139	-127,312	0,071	0,007
-308,124	800,000	0,030	0,065
-307,110	442,884	0,067	0,107
-306,095	-88,598	-0,119	-0,025
-305,080	30,327	0,018	0,011
-304,066	259,120	-0,095	-0,119
-303,051	-200,000	-0,004	-0,087
-302,037	-58,196	0,123	-0,038
-301,022	-52,563	-0,102	0,034
-300,008	-200,000	0,008	-0,214
-298,993	424,074	0,048	0,074
-297,978	-200,000	-0,003	0,107
-296,964	-200,000	-0,002	0,121
-295,949	18,855	0,118	-0,068
-294,935	-106,967	-0,033	-0,005
-293,920	-40,416	0,032	0,012
-292,905	-54,014	0,125	0,041
-291,891	-81,280	-0,066	0,016
-290,876	-200,000	-0,009	0,039
-289,862	258,323	0,008	0,010
-288,847	-15,062	-0,122	0,056
-287,832	-200,000	-0,001	-0,184
-286,818	800,000	0,037	0,092
-285,803	800,000	-0,030	0,072
-284,789	-97,288	0,056	-0,010
-283,774	800,000	0,053	0,121
-282,759	-115,476	-0,128	0,017
-281,745	-200,000	-0,010	0,079
-280,730	-69,688	0,062	-0,017
-279,716	15,915	0,083	-0,047
-278,701	5,635	-0,052	-0,028
-277,686	-200,000	-0,004	0,231
-276,672	122,285	-0,016	-0,014
-275,657	219,967	-0,084	-0,098
-274,643	542,140	-0,044	0,075
-273,628	-200,000	0,004	-0,020
-272,613	-3,703	-0,121	0,061
-271,599	-200,000	0,015	0,091
-270,584	800,000	-0,020	0,049
-269,570	-110,614	-0,039	0,006
-268,555	60,796	-0,026	-0,019
-267,540	183,918	0,038	-0,041
-266,526	800,000	0,029	-0,059
-265,511	572,625	0,061	-0,108
-264,497	-94,142	0,168	0,033
-263,482	-200,000	-0,016	-0,069
-262,467	67,885	-0,087	-0,064
-261,453	-200,000	-0,014	-0,075
-260,438	-48,019	-0,032	0,011
-259,424	-200,000	0,008	-0,102
-258,409	-200,000	0,006	-0,076
-257,395	-200,000	-0,016	-0,100
-256,380	348,758	0,046	0,065
-255,365	0,464	0,092	-0,047
-254,351	-37,126	-0,102	0,039
-253,336	380,603	-0,059	0,088
-252,322	-72,870	0,088	-0,023
-251,307	800,000	0,044	-0,089
-250,292	-200,000	0,022	-0,074
-249,278	628,011	0,034	-0,063
-248,263	252,796	0,007	0,009
-247,249	80,748	0,013	-0,010
-246,234	222,503	-0,056	0,066
-245,219	78,378	-0,107	-0,082
-244,205	-200,000	0,012	-0,098
-243,190	-48,345	-0,071	-0,024
-242,176	-200,000	-0,000	-0,046
-241,161	-200,000	0,009	-0,078
-240,146	428,102	0,090	0,140
-239,132	-200,000	-0,017	-0,157
-238,117	-200,000	0,014	0,060
-237,103	6,452	-0,065	0,035
-236,088	-200,000	-0,012	-0,038
-235,073	-123,220	-0,131	0,015
-234,059	30,517	0,084	0,052
-233,044	-200,000	0,029	0,158
-232,030	-200,000	-0,024	0,106
-231,015	34,203	-0,075	0,047
-230,000	-200,000	0,007	0,066
-228,986	505,757	0,028	0,048
-227,971	-99,276	0,128	-0,023
-226,957	-200,000	0,005	0,061
-225,942	54,652	0,058	0,040
-224,927	482,401	0,014	0,024
-223,913	496,196	-0,061	0,102
-222,898	-200,000	0,008	0,036
-221,884	-95,205	-0,092	-0,018
-220,869	-200,000	0,002	0,039
-219,855	10,944	-0,126	-0,069
-218,840	58,354	-0,048	0,034
-217,825	-16,297	0,103	0,047
-216,811	-136,809	-0,030	-0,002
-215,796	123,242	0,050	-0,045
-214,782	134,398	-0,062	0,058
-213,767	-124,823	0,102	0,011
-212,752	525,699	0,021	-0,036
-211,738	629,564	-0,048	0,088
-210,723	195,895	0,132	-0,145
-209,709	800,000	0,061	-0,129
-208,694	104,920	0,090	-0,076
-207,679	800,000	0,056	-0,161
-206,665	784,829	-0,047	0,092
-205,650	800,000	-0,077	0,158
-204,636	55,950	0,086	0,060
-203,621	-90,843	0,076	0,016
-202,606	-131,889	-0,116	-0,011
-201,592	-200,000	-0,001	-0,128
-200,577	611,322	-0,070	-0,127
-199,563	-63,725	0,085	0,025
-198,548	-3,064	0,076	0,038
-197,533	-94,906	-0,095	-0,018
-196,519	439,216	-0,042	-0,067
-195,504	36,234	-0,052	0,033
-194,490	70,026	0,064	-0,047
-193,475	-200,000	0,012	0,117
-192,460	-200,000	-0,008	0,102
-191,446	-200,000	-0,001	0,012
-190,431	800,000	0,021	-0,059
-189,417	383,251	-0,048	-0,072
-188,402	506,709	0,071	0,120
-187,387	-52,996	0,099	0,033
-186,373	-200,000	0,035	-0,113
-185,358	-200,000	-0,003	0,099
-184,344	-150,379	-0,006	-0,000
-183,329	-63,859	-0,061	0,018
-182,315	-200,000	0,005	-0,057
-181,300	-64,454	-0,201	0,058
-180,285	112,172	0,072	-0,063
-179,271	0,615	-0,057	0,029
-178,256	-163,850	0,036	0,001
-177,242	486,648	0,015	0,025
-176,227	32,812	-0,027	0,017
-175,212	-146,211	0,032	0,002
-174,198	122,179	0,044	-0,040
-173,183	-105,897	0,068	-0,011
-172,169	800,000	-0,060	0,125
-171,154	-39,413	-0,028	-0,010
-170,139	299,528	0,024	0,031
-169,125	800,000	-0,032	-0,069
-168,110	375,117	-0,013	0,019
-167,096	800,000	-0,033	-0,073
-166,081	541,051	0,034	-0,059
-165,066	263,549	-0,054	-0,068
-164,052	-95,812	0,057	-0,011
-163,037	-158,161	-0,037	0,002
-162,023	800,000	-0,002	0,005
-161,008	-146,254	0,114	-0,007
-159,993	-104,127	0,021	0,004
-158,979	114,347	0,053	0,047
-157,964	-24,345	0,029	-0,012
-156,950	9,043	-0,043	0,023
-155,935	-85,278	0,133	-0,030
-154,920	800,000	-0,006	0,018
-153,906	144,568	-0,011	-0,011
-152,891	-149,536	-0,138	-0,008
-151,877	8,642	-0,067	0,036
-150,862	347,915	0,065	0,092
-149,847	-200,000	-0,000	-0,130
-148,833	-200,000	-0,012	0,120
-147,818	-77,814	0,195	0,048
-146,804	-42,095	0,140	0,051
-145,789	353,053	-0,076	-0,109
-144,775	-200,000	0,004	-0,015
-143,760	129,781	-0,063	-0,058
-142,745	74,569	-0,122	-0,092
-141,731	12,510	0,076	0,042
-140,716	90,990	-0,065	0,052
-139,702	-27,007	0,070	-0,029
-138,687	105,750	-0,038	-0,032
-137,672	345,068	0,027	-0,039
-136,658	0,103	-0,036	0,019
-135,643	800,000	-0,057	-0,128
-134,629	8,656	-0,044	-0,024
-133,614	56,910	0,161	-0,113
-132,599	-200,000	0,021	0,241
-131,585	444,331	0,141	0,224
-130,570	-200,000	-0,005	0,072
-129,556	-4,110	0,032	-0,016
-128,541	53,441	-0,127	-0,087
-127,526	-200,000	-0,000	-0,047
-126,512	-97,791	0,213	0,039
-125,497	-200,000	-0,022	0,094
-124,483	7,683	-0,067	0,036
-123,468	229,420	0,095	-0,112
-122,453	800,000	-0,023	0,046
-121,439	250,783	0,051	0,063
-120,424	105,698	-0,069	-0,059
-119,410	179,645	0,094	-0,099
