DTS Sentinel unit serial number:	SN410029Multiplexer serial number:	ORYXHardware model number:	OX2-SRSoftware version number:	ORYX F/W v4,00 Oryx Data Collector v3.7.2.0data status	okinstallation	B5 Nyhavnadifferential loss correction	single-endedforward channel	channel 2reverse channel	N/Adate	2023/12/12time	04:42:13forward acquisition time	300,00reverse acquisition time	0,00gamma	499,1914k internal	0,3156k external	0,3156temperature offset calibration	1,0000default loss term (dB/km)	0,3820temperature slope calibration	1,0000multiplexer offset coefficient	1,0000multiplexer slope coefficient	1,0000fibre end	0,00T internal ref (°C)	15,45T ext. ref 1 (°C)	-1,02T ext. ref 2 (°C)	-1,31length (m)	temperature (°C)	Stokes	anti-Stokes-744,400	-80,829	0,170	-0,041
-743,385	-200,000	-0,324	-0,001
-742,371	570,569	0,091	0,164
-741,356	-63,525	-0,367	0,110
-740,342	-199,936	0,135	-0,000
-739,327	-15,178	-0,342	0,161
-738,312	-133,048	0,151	-0,014
-737,298	-46,437	-0,222	0,080
-736,283	-0,665	0,172	-0,090
-735,269	-69,964	-0,225	-0,063
-734,254	800,000	0,028	-0,058
-733,239	-85,983	-0,494	-0,112
-732,225	161,602	0,107	0,111
-731,210	800,000	-0,028	0,077
-730,196	-197,769	-0,188	0,001
-729,181	96,587	-0,065	-0,055
-728,167	-25,867	0,054	0,023
-727,152	165,738	-0,057	-0,059
-726,137	-9,277	-0,075	-0,037
-725,123	291,363	0,062	-0,084
-724,108	53,879	0,014	0,010
-723,094	-60,372	-0,182	-0,057
-722,079	146,030	-0,081	-0,080
-721,064	54,136	-0,062	-0,044
-720,050	-169,770	0,089	0,002
-719,035	-200,000	0,025	-0,085
-718,021	-86,555	-0,112	-0,025
-717,006	56,868	-0,077	-0,055
-715,991	554,434	-0,107	-0,191
-714,977	800,000	0,006	0,015
-713,962	160,745	0,027	0,027
-712,948	-200,000	-0,006	0,092
-711,933	800,000	-0,013	-0,042
-710,918	-75,653	-0,120	0,031
-709,904	60,768	-0,147	-0,107
-708,889	-59,460	0,089	-0,028
-707,875	-200,000	-0,017	-0,109
-706,860	800,000	0,052	-0,116
-705,845	-200,000	0,003	0,045
-704,831	800,000	0,041	-0,085
-703,816	-80,313	-0,032	-0,008
-702,802	-29,401	-0,066	-0,028
-701,787	187,388	0,089	0,098
-700,772	-200,000	-0,021	-0,070
-699,758	141,522	-0,080	0,078
-698,743	-108,639	-0,117	0,018
-697,729	800,000	-0,021	0,044
-696,714	-133,399	-0,076	0,007
-695,699	-48,556	-0,098	0,034
-694,685	800,000	0,031	-0,073
-693,670	-115,671	0,035	0,005
-692,656	-200,000	-0,034	-0,144
-691,641	23,049	0,059	0,036
-690,627	-133,341	0,124	0,011
-689,612	-60,558	-0,060	0,019
-688,597	800,000	0,034	0,088
-687,583	-79,769	0,086	0,021
-686,568	800,000	0,060	-0,141
-685,554	19,158	-0,080	-0,047
-684,539	-78,403	0,139	0,035
-683,524	30,813	0,057	-0,036
-682,510	-200,000	-0,005	0,079
-681,495	-40,034	-0,041	0,016
-680,481	266,875	-0,026	0,034
-679,466	-32,099	-0,085	0,035
-678,451	-200,000	0,027	-0,120
-677,437	-200,000	0,001	0,159
-676,422	248,563	0,023	-0,029
-675,408	-200,000	-0,019	0,134
-674,393	355,532	0,048	0,070
-673,378	324,899	-0,023	-0,033
-672,364	-200,000	-0,003	-0,141
-671,349	-141,945	-0,066	-0,005
-670,335	517,300	0,004	-0,007
-669,320	-200,000	-0,001	-0,088
-668,305	-64,137	0,199	0,059
-667,291	85,147	0,025	-0,020
-666,276	-123,083	-0,067	0,008
-665,262	-47,192	-0,166	-0,059
-664,247	659,747	0,047	0,088
-663,232	144,782	-0,105	-0,103
-662,218	190,702	0,065	0,072
-661,203	84,711	0,074	0,059
-660,189	-14,412	0,090	-0,042
-659,174	-138,939	0,023	0,002
-658,159	55,047	-0,125	-0,089
-657,145	-200,000	0,006	-0,047
-656,130	182,594	0,071	-0,077
-655,116	800,000	-0,113	0,233
-654,101	-22,824	-0,103	-0,045
-653,086	-22,748	0,109	-0,048
-652,072	-200,000	0,017	-0,194
-651,057	-145,928	0,061	-0,004
-650,043	385,173	-0,023	-0,034
-649,028	800,000	-0,031	0,098
-648,014	-200,000	0,004	0,047
-646,999	-124,516	0,156	0,018
-645,984	-200,000	0,003	0,047
-644,970	-56,708	-0,125	-0,041
-643,955	-6,210	-0,031	-0,016
-642,941	-200,000	-0,012	-0,084
-641,926	-113,895	-0,067	-0,010
-640,911	88,414	-0,074	0,060
-639,897	403,596	-0,079	-0,122
-638,882	800,000	-0,034	0,099
-637,868	-53,532	-0,166	0,056
-636,853	-65,862	-0,063	-0,018
-635,838	-29,266	-0,148	0,062
-634,824	-157,379	0,083	-0,004
-633,809	-129,462	0,101	-0,010
-632,795	800,000	-0,009	0,021
-631,780	-88,612	-0,090	0,020
-630,765	73,961	-0,109	0,084
-629,751	106,417	-0,066	-0,057
-628,736	-200,000	-0,003	-0,122
-627,722	-96,606	0,093	0,018
-626,707	126,301	-0,040	0,037
-625,692	90,595	0,057	-0,047
-624,678	-81,330	-0,071	-0,017
-623,663	0,317	-0,097	-0,050
-622,649	-45,611	-0,051	-0,018
-621,634	316,820	0,013	0,018
-620,619	-58,408	-0,129	-0,041
-619,605	257,610	0,115	-0,145
-618,590	-200,000	-0,013	-0,109
-617,576	-99,673	-0,203	0,037
-616,561	133,804	-0,057	-0,054
-615,546	-182,363	-0,097	0,001
-614,532	-125,040	0,077	-0,009
-613,517	752,870	0,070	-0,140
-612,503	712,651	-0,073	-0,142
-611,488	17,250	0,123	0,071
-610,474	213,040	-0,039	0,045
-609,459	248,614	0,054	0,067
-608,444	-200,000	-0,003	0,052
-607,430	800,000	0,025	-0,051
-606,415	392,882	0,067	-0,102
-605,401	-200,000	-0,038	0,144
-604,386	-82,469	0,040	0,009
-603,371	-32,672	-0,123	-0,050
-602,357	-200,000	0,028	0,106
-601,342	-200,000	0,003	-0,077
-600,328	-200,000	0,009	-0,086
-599,313	187,267	0,089	-0,098
-598,298	33,955	0,070	-0,045
-597,284	800,000	0,104	0,232
-596,269	800,000	-0,043	0,134
-595,255	-54,281	0,016	0,005
-594,240	-200,000	-0,002	-0,090
-593,225	-200,000	0,010	-0,089
-592,211	-200,000	-0,010	0,059
-591,196	-200,000	-0,031	-0,139
-590,182	-200,000	0,046	0,161
-589,167	270,464	0,023	0,030
-588,152	646,073	0,042	0,078
-587,138	-10,053	-0,052	-0,025
-586,123	76,457	-0,137	0,106
-585,109	-40,415	-0,083	-0,031
-584,094	29,911	0,032	0,020
-583,079	349,346	-0,037	-0,054
-582,065	110,643	-0,025	-0,022
-581,050	-17,684	0,071	-0,033
-580,036	312,268	-0,097	-0,133
-579,021	800,000	-0,059	-0,122
-578,006	-200,000	0,034	-0,122
-576,992	800,000	0,027	-0,063
-575,977	103,597	-0,086	0,074
-574,963	121,026	-0,068	0,062
-573,948	800,000	0,035	-0,091
-572,934	-173,956	0,061	0,001
-571,919	11,098	-0,071	0,040
-570,904	-24,832	0,078	0,034
-569,890	-97,481	-0,143	0,027
-568,875	-123,621	0,070	-0,008
-567,861	696,913	0,029	0,056
-566,846	-73,334	0,128	-0,034
-565,831	90,215	0,028	0,023
-564,817	-200,000	-0,027	0,149
-563,802	-200,000	0,001	-0,109
-562,788	-43,002	-0,164	-0,061
-561,773	-200,000	-0,014	-0,111
-560,758	61,071	0,076	0,055
-559,744	27,688	0,088	0,054
-558,729	-111,467	-0,106	0,016
-557,715	-55,482	0,111	0,036
-556,700	513,093	-0,026	-0,045
-555,685	800,000	-0,060	0,182
-554,671	-200,000	-0,000	-0,024
-553,656	-200,000	-0,001	0,024
-552,642	135,779	0,030	0,028
-551,627	-141,230	-0,081	-0,006
-550,612	240,554	0,041	0,050
-549,598	-38,201	-0,102	0,039
-548,583	-37,343	-0,074	0,029
-547,569	487,204	-0,075	-0,126
-546,554	263,509	-0,050	0,064
-545,539	-200,000	0,033	0,121
-544,525	428,124	-0,078	-0,124
-543,510	391,385	-0,066	-0,100
-542,496	-200,000	-0,008	-0,126
-541,481	-86,734	0,035	0,008
-540,466	-146,903	-0,090	0,006
-539,452	800,000	0,016	-0,032
-538,437	321,147	0,006	-0,008
-537,423	303,118	-0,016	-0,022
-536,408	108,727	-0,042	-0,037
-535,393	-146,810	0,044	0,003
-534,379	-18,528	0,090	-0,041
-533,364	106,453	0,039	0,034
-532,350	303,928	-0,018	-0,024
-531,335	394,577	-0,041	0,062
-530,321	-200,000	0,023	0,091
-529,306	24,773	0,123	0,074
-528,291	-200,000	-0,016	-0,093
-527,277	214,818	0,034	0,039
-526,262	179,624	0,065	-0,070
-525,248	-60,280	0,087	-0,027
-524,233	-200,000	-0,010	0,086
-523,218	27,143	-0,073	-0,045
-522,204	41,532	-0,160	-0,106
-521,189	-200,000	0,011	-0,242
-520,175	-200,000	-0,033	-0,127
-519,160	297,465	-0,104	-0,141
-518,145	6,057	0,075	-0,040
-517,131	478,140	0,070	-0,116
-516,116	-73,844	0,122	0,032
-515,102	101,961	-0,038	0,033
-514,087	-200,000	0,005	-0,021
-513,072	64,836	-0,142	0,105
-512,058	-29,649	-0,036	0,015
-511,043	16,818	0,149	0,086
-510,029	-200,000	0,011	0,069
-509,014	-200,000	-0,013	-0,106
-507,999	-147,154	0,041	-0,002
-506,985	6,378	-0,136	-0,074
-505,970	-200,000	-0,019	0,087
-504,956	-89,829	0,060	-0,013
-503,941	-200,000	0,117	0,000
-502,926	-200,000	-0,045	0,149
-501,912	-10,421	-0,051	0,025
-500,897	-23,187	0,155	-0,068
-499,883	800,000	0,027	-0,069
-498,868	-15,852	-0,060	0,028
-497,853	96,701	-0,128	0,107
-496,839	-75,911	-0,053	-0,014
-495,824	162,442	0,060	0,062
-494,810	25,611	-0,120	0,073
-493,795	-200,000	-0,003	0,075
-492,781	800,000	-0,068	-0,160
-491,766	152,867	-0,134	-0,134
-490,751	233,948	-0,053	-0,064
-489,737	-200,000	0,014	0,169
-488,722	800,000	0,036	0,083
-487,708	276,740	0,106	0,138
-486,693	-200,000	0,013	0,067
-485,678	786,650	-0,028	0,056
-484,664	-53,423	-0,042	0,014
-483,649	-200,000	0,006	-0,036
-482,635	800,000	-0,016	-0,043
-481,620	-186,417	0,147	0,001
-480,605	386,870	0,063	0,096
-479,591	-200,000	0,006	0,089
-478,576	-77,832	-0,197	0,049
-477,562	-116,859	-0,109	-0,014
-476,547	-32,692	-0,030	-0,012
-475,532	-92,667	0,060	0,012
-474,518	-82,858	-0,054	0,013
-473,503	-55,557	-0,051	-0,017
-472,489	800,000	-0,037	0,096
-471,474	-200,000	0,012	-0,144
-470,459	-40,017	-0,031	0,012
-469,445	8,444	-0,085	0,047
-468,430	-200,000	-0,002	-0,015
-467,416	-200,000	-0,004	0,084
-466,401	-173,703	-0,134	-0,003
-465,386	467,549	0,029	-0,048
-464,372	44,281	-0,101	-0,068
-463,357	34,763	-0,175	0,112
-462,343	-156,879	-0,100	0,004
-461,328	-112,383	0,073	-0,011
-460,313	-200,000	0,012	-0,058
-459,299	652,198	-0,008	-0,016
-458,284	-2,693	0,132	0,067
-457,270	428,462	0,055	-0,088
-456,255	-200,000	0,006	0,076
-455,241	-200,000	-0,011	0,063
-454,226	62,908	0,083	0,061
-453,211	800,000	0,029	0,071
-452,197	47,823	-0,047	0,032
-451,182	-200,000	-0,007	0,066
-450,168	-166,937	-0,061	-0,002
-449,153	64,677	0,078	0,057
-448,138	800,000	-0,071	-0,158
-447,124	-194,568	0,079	-0,000
-446,109	-200,000	0,002	0,021
-445,095	169,073	-0,015	0,015
-444,080	-200,000	0,007	-0,023
-443,065	-107,218	0,069	-0,011
-442,051	478,379	0,060	-0,099
-441,036	-65,430	0,112	-0,033
-440,022	-28,174	-0,114	-0,048
-439,007	97,997	-0,128	-0,108
-437,992	791,163	0,106	-0,213
-436,978	362,089	-0,042	0,062
-435,963	156,103	0,024	0,024
-434,949	-65,727	-0,071	0,021
-433,934	19,455	-0,085	-0,049
-432,919	474,195	-0,048	0,080
-431,905	-200,000	0,022	-0,135
-430,890	23,058	0,083	0,049
-429,876	567,047	0,023	0,041
-428,861	-200,000	-0,001	0,077
-427,846	-200,000	0,032	0,180
-426,832	-181,558	-0,149	-0,002
-425,817	221,648	-0,073	-0,086
-424,803	237,915	-0,071	-0,085
-423,788	-132,000	-0,041	0,004
-422,773	564,034	0,057	0,101
-421,759	-200,000	-0,020	-0,071
-420,744	655,315	0,049	0,093
-419,730	-58,701	-0,040	0,013
-418,715	-200,000	-0,015	0,089
-417,701	455,934	0,094	0,152
-416,686	91,401	0,106	0,087
-415,671	-152,945	0,127	0,006
-414,657	-200,000	-0,020	-0,107
-413,642	143,031	0,124	-0,120
-412,628	-200,000	-0,030	0,148
-411,613	800,000	-0,059	-0,143
-410,598	77,636	0,068	0,053
-409,584	-200,000	-0,005	0,072
-408,569	-200,000	-0,009	0,061
-407,555	-200,000	0,006	-0,048
-406,540	-200,000	0,005	0,038
-405,525	-125,209	0,161	-0,018
-404,511	142,920	0,097	-0,094
-403,496	581,753	-0,075	-0,135
-402,482	-85,127	-0,096	-0,022
-401,467	618,394	0,064	0,117
-400,452	-200,000	0,013	0,186
-399,438	-195,627	0,030	-0,000
-398,423	800,000	0,022	-0,064
-397,409	338,181	-0,085	-0,121
-396,394	250,295	0,085	-0,105
-395,379	800,000	-0,021	0,061
-394,365	477,528	0,049	0,081
-393,350	144,194	0,037	0,036
-392,336	-137,659	0,089	-0,007
-391,321	-42,332	-0,122	-0,045
-390,306	-200,000	0,016	-0,057
-389,292	45,172	0,089	-0,060
-388,277	-200,000	0,001	0,134
-387,263	-29,956	0,114	0,047
-386,248	-30,398	0,070	-0,029
-385,233	188,577	0,087	0,095
-384,219	276,900	0,032	0,041
-383,204	432,645	-0,020	0,032
-382,190	-33,976	-0,087	-0,035
-381,175	29,592	0,142	0,088
-380,160	84,993	0,097	-0,078
-379,146	-75,201	-0,057	0,015
-378,131	102,130	0,132	-0,112
-377,117	-200,000	-0,036	-0,134
-376,102	72,132	-0,160	-0,121
-375,088	-75,252	-0,037	0,010
-374,073	-200,000	-0,013	-0,069
-373,058	-100,024	0,015	0,003
-372,044	-129,497	0,043	-0,004
-371,029	296,309	-0,067	-0,090
-370,015	-200,000	0,002	0,020
-369,000	-66,828	0,114	-0,032
-367,985	-16,045	0,052	0,024
-366,971	124,189	0,022	0,020
-365,956	111,008	-0,033	0,029
-364,942	4,716	0,103	-0,055
-363,927	-62,015	-0,045	0,014
-362,912	210,808	-0,021	0,024
-361,898	-72,776	0,050	-0,013
-360,883	-200,000	-0,009	-0,104
-359,869	-200,000	0,000	0,015
-358,854	-73,012	0,114	0,030
-357,839	-66,918	-0,061	0,017
-356,825	-200,000	0,000	-0,036
-355,810	732,438	0,023	-0,046
-354,796	800,000	-0,021	-0,063
-353,781	147,316	-0,096	-0,094
-352,766	-200,000	-0,023	0,106
-351,752	-12,667	0,125	0,059
-350,737	87,604	0,101	0,081
-349,723	-41,134	0,127	0,047
-348,708	-200,000	0,025	0,119
-347,693	800,000	0,025	-0,053
-346,679	800,000	-0,042	0,100
-345,664	-200,000	0,000	-0,024
-344,650	594,640	0,045	-0,080
-343,635	-92,217	0,157	0,032
-342,620	800,000	-0,019	0,052
-341,606	800,000	-0,018	-0,051
-340,591	27,981	-0,050	-0,030
-339,577	-115,804	-0,107	-0,014
-338,562	83,902	0,090	0,071
-337,548	89,934	-0,054	0,044
-336,533	-200,000	0,002	0,053
-335,518	800,000	0,019	-0,042
-334,504	89,291	0,003	-0,002
-333,489	242,301	-0,036	0,043
-332,475	449,526	0,058	0,092
-331,460	-65,323	0,156	0,045
-330,445	-154,121	-0,041	0,002
-329,431	-197,005	0,068	0,000
-328,416	-105,901	0,083	-0,013
-327,402	509,878	-0,033	-0,056
-326,387	282,633	0,034	-0,044
-325,372	151,969	0,050	-0,050
-324,358	-200,000	-0,032	0,127
-323,343	731,982	-0,031	-0,060
-322,329	-37,465	0,177	0,068
-321,314	-156,025	0,071	0,003
-320,299	210,961	0,084	0,096
-319,285	764,167	-0,013	-0,025
-318,270	-56,284	-0,046	-0,015
-317,256	107,501	0,034	-0,029
-316,241	-33,198	0,143	-0,057
-315,226	66,017	-0,051	-0,037
-314,212	4,348	0,108	0,057
-313,197	388,685	-0,082	-0,123
-312,183	-200,000	0,005	0,024
-311,168	-200,000	0,021	-0,079
-310,153	73,740	-0,040	-0,030
-309,139	-184,834	-0,068	-0,001
-308,124	-44,481	0,077	-0,028
-307,110	294,206	0,050	0,066
-306,095	-37,308	0,157	0,060
-305,080	-200,000	-0,015	0,101
-304,066	-200,000	0,006	0,052
-303,051	31,296	-0,116	-0,072
-302,037	166,750	0,101	-0,104
-301,022	54,623	0,038	0,027
-300,008	186,753	-0,069	-0,075
-298,993	114,434	0,080	-0,070
-297,978	800,000	-0,016	0,048
-296,964	-42,294	-0,115	-0,042
-295,949	-45,311	0,130	-0,046
-294,935	350,251	-0,119	-0,171
-293,920	-95,700	0,172	0,033
-292,905	-200,000	-0,013	0,047
-291,891	800,000	0,050	-0,109
-290,876	-57,817	-0,029	0,009
-289,862	248,141	0,037	-0,046
-288,847	-200,000	0,018	0,076
-287,832	734,555	-0,027	0,053
-286,818	-100,743	0,073	-0,013
-285,803	217,611	-0,054	0,062
-284,789	-15,330	0,041	-0,019
-283,774	-103,767	-0,112	0,019
-282,759	-83,342	-0,044	-0,010
-281,745	-6,333	0,075	-0,037
-280,730	-3,503	-0,035	0,018
-279,716	800,000	0,026	-0,057
-278,701	-113,392	-0,150	-0,021
-277,686	462,440	-0,014	0,022
-276,672	98,882	0,023	-0,020
-275,657	800,000	-0,020	-0,046
-274,643	10,061	-0,067	0,037
-273,628	-59,661	0,030	0,009
-272,613	-200,000	-0,014	0,138
-271,599	220,232	0,028	0,033
-270,584	93,968	-0,054	0,045
-269,570	-100,455	0,045	-0,008
-268,555	628,736	-0,062	-0,114
-267,540	-37,419	0,102	0,039
-266,526	800,000	0,014	-0,041
-265,511	800,000	-0,034	-0,090
-264,497	28,930	-0,018	0,011
-263,482	629,708	0,045	0,082
-262,467	81,124	0,023	-0,018
-261,453	-200,000	0,029	0,160
-260,438	-122,645	-0,140	-0,016
-259,424	-27,229	-0,035	-0,015
-258,409	558,642	-0,020	-0,035
-257,395	-200,000	0,003	0,033
-256,380	151,638	0,005	-0,005
-255,365	156,455	-0,042	0,042
-254,351	73,605	-0,062	0,047
-253,336	53,410	0,106	-0,073
-252,322	659,986	0,067	-0,126
-251,307	-200,000	-0,008	-0,123
-250,292	-200,000	-0,013	0,049
-249,278	-200,000	-0,008	-0,067
-248,263	251,569	0,099	0,122
-247,249	-200,000	0,009	0,103
-246,234	183,968	-0,075	0,080
-245,219	492,207	-0,056	0,093
-244,205	53,688	-0,116	0,080
-243,190	-126,726	-0,069	0,007
-242,176	291,292	0,023	0,030
-241,161	-102,306	-0,103	-0,018
-240,146	-28,256	0,056	-0,023
-239,132	212,015	0,068	0,077
-238,117	224,528	-0,140	-0,164
-237,103	430,416	-0,071	-0,112
-236,088	60,207	0,085	-0,061
-235,073	636,796	-0,024	0,043
-234,059	-200,000	0,015	0,069
-233,044	800,000	0,040	0,091
-232,030	-200,000	0,014	0,114
-231,015	410,732	-0,054	0,082
-230,000	420,722	0,047	0,073
-228,986	-148,972	-0,025	-0,001
-227,971	94,437	0,046	0,038
-226,957	273,650	0,049	-0,063
-225,942	184,681	0,063	0,067
-224,927	-137,209	-0,078	0,006
-223,913	-200,000	0,022	-0,083
-222,898	1,179	-0,142	-0,073
-221,884	-110,428	-0,043	-0,006
-220,869	800,000	0,024	0,061
-219,855	195,149	-0,049	0,054
-218,840	342,558	0,045	0,063
-217,825	618,453	0,032	-0,058
-216,811	43,840	-0,034	0,022
-215,796	-38,938	0,064	0,024
-214,782	225,451	-0,049	-0,057
-213,767	-200,000	0,051	-0,173
-212,752	480,693	-0,019	-0,030
-211,738	132,413	-0,065	0,061
-210,723	-25,333	-0,050	-0,021
-209,709	-46,136	-0,032	0,011
-208,694	72,427	0,011	-0,008
-207,679	93,309	-0,041	-0,033
-206,665	665,837	0,010	-0,019
-205,650	183,308	0,081	0,086
-204,636	248,024	-0,082	0,100
-203,621	-200,000	-0,007	-0,035
-202,606	-200,000	-0,003	-0,055
-201,592	-200,000	-0,003	-0,117
-200,577	-159,443	-0,146	0,006
-199,563	-200,000	0,005	0,237
-198,548	160,187	0,091	0,092
-197,533	267,149	-0,032	-0,040
-196,519	-200,000	-0,010	0,091
-195,504	-92,292	0,096	0,019
-194,490	157,829	-0,087	-0,087
-193,475	348,315	0,113	0,161
-192,460	242,217	-0,057	-0,069
-191,446	-188,032	-0,046	0,000
-190,431	123,597	-0,056	-0,051
-189,417	-200,000	-0,005	0,086
-188,402	-133,350	-0,076	-0,007
-187,387	-94,984	0,115	-0,022
-186,373	15,854	-0,052	0,030
-185,358	163,525	-0,142	-0,145
-184,344	-102,553	0,067	-0,011
-183,329	-200,000	0,013	0,062
-182,315	359,191	0,081	-0,117
-181,300	-90,650	-0,107	0,022
-180,285	800,000	-0,037	-0,109
-179,271	-200,000	0,012	-0,153
-178,256	-64,999	-0,059	0,017
-177,242	-200,000	0,013	0,141
-176,227	7,367	0,177	-0,095
-175,212	-169,234	0,049	0,001
-174,198	-103,079	0,079	0,013
-173,183	127,295	0,123	-0,113
-172,169	-200,000	-0,005	0,072
-171,154	-4,426	-0,105	-0,052
-170,139	-31,773	0,139	-0,056
-169,125	676,894	0,028	0,053
-168,110	800,000	0,029	0,060
-167,096	-139,335	0,123	0,009
-166,081	-62,652	-0,056	-0,017
-165,066	44,789	-0,059	-0,039
-164,052	800,000	0,014	-0,030
-163,037	-152,431	0,172	-0,009
-162,023	159,526	0,058	0,058
-161,008	91,952	0,073	0,059
-159,993	92,782	-0,086	0,070
-158,979	-200,000	-0,027	0,089
-157,964	-31,412	0,057	-0,023
-156,950	-200,000	-0,001	-0,120
-155,935	777,904	-0,041	0,081
-154,920	479,392	0,035	-0,057
-153,906	146,294	0,083	0,081
-152,891	395,511	-0,041	-0,062
-151,877	-74,886	-0,070	-0,018
-150,862	-200,000	0,015	-0,065
-149,847	-168,487	-0,122	0,003
-148,833	-19,250	-0,084	-0,037
-147,818	-76,069	0,109	0,028
-146,804	331,689	-0,057	0,080
-145,789	800,000	0,031	-0,090
-144,775	181,014	-0,118	0,125
-143,760	72,303	-0,082	-0,061
-142,745	370,240	-0,044	0,064
-141,731	83,050	-0,027	-0,021
-140,716	271,083	0,074	-0,094
-139,702	-64,119	0,068	-0,020
-138,687	-200,000	-0,013	-0,108
-137,672	-94,523	-0,062	0,012
-136,658	539,519	-0,065	-0,111
-135,643	-200,000	0,021	-0,182
-134,629	80,675	-0,051	-0,040
-133,614	22,040	0,067	0,039
-132,599	-100,283	0,069	-0,012
-131,585	-200,000	-0,004	-0,052
-130,570	-200,000	0,006	-0,049
-129,556	800,000	0,042	-0,100
-128,541	-83,884	-0,103	-0,023
-127,526	-200,000	0,001	0,113
-126,512	-25,524	0,153	0,065
-125,497	49,568	0,071	0,048
-124,483	-37,668	0,145	-0,055
-123,468	103,211	0,024	0,020
-122,453	800,000	-0,016	0,034
-121,439	-200,000	-0,003	-0,158
-120,424	302,999	-0,052	-0,070
-119,410	-100,761	0,048	0,008
