DTS Sentinel unit serial number:	SN410029Multiplexer serial number:	ORYXHardware model number:	OX2-SRSoftware version number:	ORYX F/W v4,00 Oryx Data Collector v3.7.2.0data status	okinstallation	B5 Nyhavnadifferential loss correction	single-endedforward channel	channel 2reverse channel	N/Adate	2023/12/12time	03:42:13forward acquisition time	300,00reverse acquisition time	0,00gamma	499,1914k internal	0,3156k external	0,3156temperature offset calibration	1,0000default loss term (dB/km)	0,3820temperature slope calibration	1,0000multiplexer offset coefficient	1,0000multiplexer slope coefficient	1,0000fibre end	0,00T internal ref (°C)	15,63T ext. ref 1 (°C)	-0,84T ext. ref 2 (°C)	-1,16length (m)	temperature (°C)	Stokes	anti-Stokes-744,400	-72,380	0,167	-0,045
-743,385	-67,920	-0,287	-0,082
-742,371	489,361	0,081	0,137
-741,356	-63,021	-0,305	0,092
-740,342	-200,000	0,004	0,062
-739,327	-128,784	-0,307	0,032
-738,312	85,934	0,128	0,103
-737,298	-90,737	-0,339	0,072
-736,283	490,078	-0,024	-0,040
-735,269	-42,275	-0,230	0,086
-734,254	-200,000	0,017	0,136
-733,239	-25,552	-0,501	-0,217
-732,225	-163,273	0,095	0,003
-731,210	-137,565	0,073	0,006
-730,196	-142,569	-0,063	0,004
-729,181	-73,795	-0,115	0,031
-728,167	-200,000	0,016	-0,084
-727,152	-200,000	0,005	-0,064
-726,137	-200,000	0,010	-0,048
-725,123	213,918	-0,036	-0,043
-724,108	237,253	-0,051	-0,062
-723,094	800,000	-0,018	-0,045
-722,079	53,638	-0,103	-0,073
-721,064	157,799	-0,085	0,087
-720,050	570,003	0,080	0,144
-719,035	-39,321	-0,135	-0,052
-718,021	525,968	-0,030	0,053
-717,006	395,676	0,090	-0,139
-715,991	93,325	-0,074	-0,061
-714,977	-105,457	0,063	-0,010
-713,962	90,739	-0,023	-0,019
-712,948	-116,768	0,100	-0,013
-711,933	-102,170	0,062	-0,011
-710,918	68,572	-0,098	0,074
-709,904	12,646	-0,046	-0,026
-708,889	-200,000	0,015	-0,195
-707,875	295,426	-0,096	0,129
-706,860	57,544	0,042	-0,030
-705,845	-146,095	0,078	-0,005
-704,831	13,700	0,128	0,073
-703,816	-118,470	0,033	0,004
-702,802	-200,000	-0,021	-0,085
-701,787	800,000	-0,026	0,061
-700,772	800,000	-0,018	0,054
-699,758	-53,751	-0,069	0,023
-698,743	3,636	-0,059	0,032
-697,729	-200,000	0,007	-0,062
-696,714	-65,867	-0,042	0,012
-695,699	-151,422	-0,127	-0,007
-694,685	-115,631	0,027	0,004
-693,670	800,000	-0,007	0,014
-692,656	-147,931	0,043	-0,003
-691,641	800,000	-0,022	-0,052
-690,627	-200,000	0,033	-0,124
-689,612	79,313	-0,015	0,012
-688,597	-200,000	-0,009	-0,112
-687,583	-1,330	0,058	0,030
-686,568	53,808	0,033	-0,023
-685,554	-200,000	-0,012	-0,048
-684,539	314,896	-0,110	0,154
-683,524	24,860	-0,155	-0,094
-682,510	285,266	-0,004	-0,006
-681,495	232,475	-0,022	0,027
-680,481	417,023	-0,049	-0,078
-679,466	325,477	-0,050	-0,071
-678,451	-26,933	0,053	-0,023
-677,437	279,796	0,039	0,051
-676,422	-114,731	-0,057	0,008
-675,408	-200,000	-0,002	-0,103
-674,393	36,782	-0,098	-0,064
-673,378	-18,931	-0,133	-0,060
-672,364	563,750	0,039	0,070
-671,349	315,719	-0,140	-0,195
-670,335	87,506	-0,093	-0,076
-669,320	-137,765	0,048	-0,004
-668,305	204,924	0,068	0,078
-667,291	-139,522	-0,066	0,005
-666,276	167,436	-0,137	0,144
-665,262	-6,191	-0,075	-0,037
-664,247	-139,809	-0,047	0,004
-663,232	-47,392	-0,149	0,053
-662,218	-200,000	0,008	0,118
-661,203	464,177	-0,028	0,046
-660,189	800,000	-0,028	0,080
-659,174	-101,916	-0,164	-0,029
-658,159	51,638	0,057	0,040
-657,145	35,156	-0,063	0,041
-656,130	-100,717	0,031	0,006
-655,116	374,926	0,103	0,155
-654,101	388,839	-0,086	0,131
-653,086	51,503	0,034	0,024
-652,072	-200,000	-0,009	-0,096
-651,057	-3,978	-0,020	0,010
-650,043	-50,323	-0,047	0,016
-649,028	-200,000	-0,021	-0,172
-648,014	-91,709	-0,122	-0,025
-646,999	-30,946	0,079	0,033
-645,984	518,625	0,018	-0,031
-644,970	118,896	0,029	-0,026
-643,955	-38,871	-0,056	0,022
-642,941	-200,000	-0,012	0,072
-641,926	-22,293	-0,090	0,040
-640,911	-187,515	0,095	-0,001
-639,897	800,000	-0,043	0,089
-638,882	-59,207	-0,032	-0,010
-637,868	-196,962	-0,052	-0,000
-636,853	402,822	-0,060	-0,093
-635,838	3,540	-0,089	-0,048
-634,824	-155,736	0,130	-0,006
-633,809	-42,219	-0,163	0,061
-632,795	-95,566	-0,035	-0,007
-631,780	78,033	0,044	0,034
-630,765	-200,000	0,036	-0,118
-629,751	63,455	-0,060	0,044
-628,736	599,752	-0,019	-0,035
-627,722	-200,000	-0,005	-0,156
-626,707	-200,000	-0,023	0,136
-625,692	114,914	0,048	0,043
-624,678	-150,221	-0,080	0,004
-623,663	509,017	-0,025	-0,043
-622,649	-51,002	-0,072	0,025
-621,634	107,529	-0,006	0,005
-620,619	-200,000	-0,025	-0,158
-619,605	-200,000	0,005	0,032
-618,590	405,824	0,038	0,059
-617,576	-77,585	-0,040	0,010
-616,561	-141,318	-0,079	0,006
-615,546	462,288	-0,051	-0,083
-614,532	50,581	-0,144	-0,100
-613,517	-149,564	-0,081	0,005
-612,503	7,360	-0,124	0,068
-611,488	148,273	-0,022	0,021
-610,474	-32,510	-0,091	0,037
-609,459	-55,492	-0,046	0,015
-608,444	-168,360	-0,053	0,001
-607,430	56,943	-0,013	-0,009
-606,415	-129,297	-0,145	0,015
-605,401	-200,000	-0,017	0,124
-604,386	-10,119	0,017	0,008
-603,371	54,461	0,052	-0,037
-602,357	148,103	0,126	0,124
-601,342	-119,939	0,131	0,016
-600,328	-66,196	-0,043	-0,012
-599,313	-28,902	-0,017	0,007
-598,298	-24,069	-0,102	-0,045
-597,284	-123,210	-0,031	0,004
-596,269	-109,681	-0,124	0,019
-595,255	8,604	0,066	0,036
-594,240	-126,625	0,133	-0,014
-593,225	-186,167	0,033	-0,000
-592,211	163,303	-0,079	-0,082
-591,196	-198,401	0,074	0,000
-590,182	-71,121	0,080	-0,022
-589,167	-132,767	-0,025	0,002
-588,152	556,647	-0,050	0,089
-587,138	143,725	-0,093	-0,091
-586,123	-200,000	0,020	0,086
-585,109	189,596	-0,067	0,074
-584,094	-200,000	-0,006	-0,082
-583,079	-81,014	0,117	-0,028
-582,065	800,000	0,042	0,100
-581,050	150,206	0,085	0,085
-580,036	800,000	-0,056	0,158
-579,021	800,000	-0,028	-0,068
-578,006	147,590	-0,123	-0,122
-576,992	127,154	-0,083	0,077
-575,977	-200,000	-0,014	0,102
-574,963	5,489	0,143	0,077
-573,948	225,520	0,024	0,028
-572,934	800,000	0,045	-0,140
-571,919	-200,000	-0,016	-0,129
-570,904	-104,524	-0,193	-0,032
-569,890	-200,000	-0,017	0,086
-568,875	800,000	0,013	0,029
-567,861	-200,000	0,010	0,072
-566,846	-200,000	-0,008	0,040
-565,831	-200,000	-0,006	0,020
-564,817	-45,532	0,114	0,041
-563,802	-135,202	-0,190	0,016
-562,788	194,790	-0,084	0,094
-561,773	720,051	-0,032	0,062
-560,758	359,950	0,044	0,065
-559,744	95,173	0,080	-0,066
-558,729	45,684	-0,085	0,058
-557,715	-18,839	-0,081	0,037
-556,700	30,254	0,041	-0,026
-555,685	-62,427	-0,054	-0,016
-554,671	143,591	-0,082	-0,080
-553,656	-200,000	-0,006	0,078
-552,642	-43,360	0,057	-0,021
-551,627	191,065	0,084	0,092
-550,612	800,000	0,016	-0,040
-549,598	305,055	-0,028	0,038
-548,583	-200,000	-0,022	-0,085
-547,569	80,755	-0,011	-0,008
-546,554	800,000	0,066	0,134
-545,539	-96,582	-0,146	-0,028
-544,525	-120,385	-0,062	-0,008
-543,510	44,248	-0,032	0,022
-542,496	95,097	0,040	0,033
-541,481	-15,519	-0,149	-0,069
-540,466	-200,000	0,004	0,015
-539,452	800,000	-0,024	0,078
-538,437	-62,916	0,162	0,049
-537,423	800,000	0,040	0,120
-536,408	234,920	-0,120	-0,146
-535,393	-200,000	0,005	-0,145
-534,379	-117,088	0,085	-0,011
-533,364	127,030	0,066	0,062
-532,350	-75,605	0,052	0,013
-531,335	800,000	0,057	0,144
-530,321	60,807	-0,087	0,063
-529,306	-83,709	0,068	-0,016
-528,291	-162,374	-0,079	-0,003
-527,277	-200,000	-0,018	-0,125
-526,262	-200,000	0,010	-0,061
-525,248	-110,015	0,035	0,005
-524,233	251,016	-0,037	0,047
-523,218	155,759	0,100	0,101
-522,204	285,914	0,042	-0,056
-521,189	-180,857	0,079	0,001
-520,175	-93,954	-0,146	0,029
-519,160	158,594	0,052	0,053
-518,145	296,082	-0,068	-0,091
-517,131	800,000	0,045	-0,101
-516,116	-106,919	-0,148	0,024
-515,102	141,306	-0,086	0,083
-514,087	100,904	-0,061	0,052
-513,072	72,608	-0,091	0,069
-512,058	246,443	0,040	0,049
-511,043	655,687	0,028	-0,052
-510,029	-144,555	0,104	-0,007
-509,014	414,969	-0,061	-0,095
-507,999	-93,353	0,016	-0,003
-506,985	-200,000	-0,024	0,094
-505,970	90,510	-0,058	0,047
-504,956	-22,587	0,128	-0,056
-503,941	-33,476	0,232	-0,093
-502,926	-125,069	0,179	-0,020
-501,912	154,160	0,080	0,080
-500,897	253,645	-0,070	-0,088
-499,883	-200,000	-0,018	0,093
-498,868	-157,775	-0,156	-0,007
-497,853	595,203	0,020	-0,036
-496,839	-200,000	-0,022	-0,080
-495,824	534,718	-0,033	0,058
-494,810	127,907	0,154	0,143
-493,795	-128,964	0,110	-0,011
-492,781	-101,432	-0,116	0,020
-491,766	800,000	-0,029	0,064
-490,751	-70,953	-0,082	-0,023
-489,737	-200,000	0,002	-0,016
-488,722	-142,907	0,023	0,002
-487,708	294,802	0,023	0,030
-486,693	-200,000	-0,027	0,170
-485,678	-200,000	0,017	0,087
-484,664	17,464	-0,178	-0,103
-483,649	0,590	0,092	-0,048
-482,635	800,000	-0,049	-0,115
-481,620	-105,702	0,080	0,013
-480,605	-200,000	-0,012	0,130
-479,591	800,000	0,027	0,079
-478,576	0,532	0,121	0,063
-477,562	-200,000	0,003	-0,087
-476,547	-200,000	0,001	-0,105
-475,532	100,291	0,107	-0,090
-474,518	-200,000	-0,022	0,109
-473,503	-53,868	0,087	0,029
-472,489	-173,500	-0,203	-0,004
-471,474	-85,001	-0,119	0,027
-470,459	-200,000	-0,019	-0,097
-469,445	800,000	-0,037	0,094
-468,430	80,125	0,061	-0,048
-467,416	365,511	0,017	-0,025
-466,401	341,246	0,063	0,090
-465,386	-113,386	0,048	-0,007
-464,372	-200,000	0,033	0,124
-463,357	-142,254	0,104	0,007
-462,343	-200,000	0,006	-0,070
-461,328	-200,000	-0,009	0,111
-460,313	56,469	0,037	0,026
-459,299	-94,598	0,082	0,016
-458,284	449,758	0,034	0,055
-457,270	179,972	-0,049	-0,052
-456,255	-91,710	-0,084	-0,017
-455,241	527,359	0,029	-0,049
-454,226	4,450	-0,095	-0,051
-453,211	-120,922	0,100	-0,012
-452,197	-200,000	-0,016	0,062
-451,182	233,629	-0,061	-0,073
-450,168	390,080	-0,079	0,120
-449,153	403,344	-0,055	0,084
-448,138	-125,971	-0,047	0,005
-447,124	-87,573	-0,085	0,019
-446,109	800,000	0,059	0,127
-445,095	-114,046	0,033	-0,005
-444,080	435,498	0,060	-0,095
-443,065	-200,000	-0,010	0,122
-442,051	30,779	0,055	-0,034
-441,036	7,491	-0,153	-0,083
-440,022	800,000	0,013	-0,038
-439,007	800,000	0,064	-0,169
-437,992	270,351	0,033	-0,043
-436,978	-108,607	0,142	-0,022
-435,963	-104,400	0,031	-0,005
-434,949	559,176	-0,026	-0,046
-433,934	36,199	-0,067	-0,043
-432,919	-200,000	-0,112	-0,000
-431,905	-56,027	-0,113	-0,037
-430,890	155,600	-0,056	0,056
-429,876	-69,871	0,079	0,022
-428,861	-35,234	-0,086	0,034
-427,846	-200,000	0,027	-0,107
-426,832	800,000	-0,025	-0,068
-425,817	413,327	0,048	-0,074
-424,803	800,000	-0,041	0,088
-423,788	-34,640	-0,060	-0,024
-422,773	800,000	-0,027	-0,087
-421,759	295,306	-0,086	-0,115
-420,744	-64,074	0,042	-0,013
-419,730	164,058	0,031	-0,031
-418,715	90,039	0,056	0,046
-417,701	800,000	-0,058	-0,169
-416,686	328,860	0,064	0,090
-415,671	157,949	-0,047	0,048
-414,657	-131,147	0,079	-0,008
-413,642	86,349	0,072	0,057
-412,628	-200,000	-0,002	0,024
-411,613	-100,488	-0,061	0,011
-410,598	-152,755	0,075	-0,004
-409,584	350,279	-0,075	-0,108
-408,569	14,607	0,121	0,069
-407,555	327,317	-0,026	0,036
-406,540	109,383	-0,149	0,130
-405,525	-200,000	0,022	-0,087
-404,511	-3,132	-0,080	-0,040
-403,496	39,919	0,045	0,030
-402,482	127,515	0,156	0,144
-401,467	159,093	-0,028	-0,028
-400,452	71,855	-0,067	-0,051
-399,438	-200,000	-0,015	0,121
-398,423	-200,000	-0,003	-0,103
-397,409	136,634	-0,065	-0,061
-396,394	59,681	0,024	-0,017
-395,379	-200,000	0,032	0,119
-394,365	30,964	0,035	0,022
-393,350	-154,005	0,070	0,003
-392,336	92,000	0,155	-0,127
-391,321	-102,930	-0,042	0,007
-390,306	7,156	-0,090	0,049
-389,292	15,332	0,108	-0,062
-388,277	-161,863	0,150	-0,005
-387,263	52,550	-0,094	0,065
-386,248	-178,013	0,107	0,002
-385,233	-200,000	-0,017	0,080
-384,219	69,186	-0,036	-0,027
-383,204	152,535	-0,083	0,083
-382,190	-143,677	-0,150	-0,010
-381,175	452,458	-0,016	0,027
-380,160	-147,579	-0,055	0,003
-379,146	19,057	0,049	0,029
-378,131	-98,439	0,201	-0,037
-377,117	-184,443	-0,071	0,001
-376,102	-200,000	-0,009	0,062
-375,088	-7,725	-0,074	-0,036
-374,073	79,554	0,012	-0,010
-373,058	126,884	0,062	0,058
-372,044	105,887	-0,079	0,068
-371,029	385,817	0,029	0,044
-370,015	-200,000	-0,003	0,017
-369,000	328,005	0,060	-0,084
-367,985	432,836	0,145	-0,230
-366,971	107,703	-0,008	0,007
-365,956	-109,654	-0,061	-0,009
-364,942	-200,000	0,041	0,180
-363,927	-200,000	0,010	0,103
-362,912	451,558	0,006	-0,010
-361,898	800,000	0,031	-0,094
-360,883	177,381	-0,100	-0,106
-359,869	96,373	0,036	0,030
-358,854	-200,000	-0,003	0,096
-357,839	-46,332	0,103	-0,036
-356,825	-39,640	0,139	-0,053
-355,810	-200,000	0,005	0,044
-354,796	159,827	0,124	-0,125
-353,781	-79,286	-0,093	-0,023
-352,766	53,352	-0,069	-0,048
-351,752	-200,000	0,006	-0,090
-350,737	158,295	0,048	0,048
-349,723	729,214	0,038	-0,073
-348,708	-200,000	0,000	-0,081
-347,693	800,000	-0,032	-0,100
-346,679	-200,000	0,001	0,025
-345,664	-198,129	0,177	0,001
-344,650	634,851	0,053	-0,098
-343,635	-200,000	0,021	0,123
-342,620	800,000	0,072	0,175
-341,606	-63,206	-0,060	-0,018
-340,591	653,083	-0,095	-0,177
-339,577	-118,603	0,139	0,018
-338,562	-10,447	0,067	0,032
-337,548	207,226	0,040	-0,045
-336,533	-71,980	-0,078	0,021
-335,518	109,147	0,036	-0,032
-334,504	619,503	-0,006	0,010
-333,489	-27,980	-0,109	-0,046
-332,475	-23,055	0,135	-0,059
-331,460	620,335	-0,046	-0,084
-330,445	183,563	0,107	-0,115
-329,431	-200,000	0,007	-0,117
-328,416	316,135	-0,043	-0,060
-327,402	-200,000	0,019	-0,072
-326,387	133,121	-0,043	0,040
-325,372	62,038	-0,127	-0,092
-324,358	41,084	0,080	-0,052
-323,343	800,000	0,030	-0,084
-322,329	26,918	0,023	0,014
-321,314	-200,000	-0,002	-0,066
-320,299	343,970	-0,038	-0,054
-319,285	18,867	-0,055	-0,032
-318,270	-1,787	-0,024	0,012
-317,256	-200,000	-0,012	-0,056
-316,241	-200,000	-0,002	-0,019
-315,226	800,000	-0,025	-0,075
-314,212	-200,000	0,006	0,100
-313,197	-200,000	0,017	0,054
-312,183	493,085	0,081	-0,135
-311,168	-200,000	-0,006	-0,187
-310,153	-40,934	-0,049	0,018
-309,139	800,000	-0,061	0,151
-308,124	800,000	0,024	0,072
-307,110	109,564	0,089	0,078
-306,095	4,798	-0,079	0,042
-305,080	-200,000	-0,052	0,170
-304,066	146,741	0,062	0,060
-303,051	-50,672	0,104	0,035
-302,037	-74,408	0,152	0,039
-301,022	-111,704	0,043	0,006
-300,008	-95,332	0,143	0,028
-298,993	-200,000	0,019	0,112
-297,978	-67,993	0,018	0,005
-296,964	-151,969	0,072	0,004
-295,949	-55,436	0,069	-0,022
-294,935	10,657	-0,038	0,021
-293,920	-200,000	-0,017	-0,081
-292,905	487,222	-0,059	0,099
-291,891	410,953	-0,021	-0,032
-290,876	-200,000	0,008	-0,040
-289,862	800,000	0,066	0,159
-288,847	800,000	-0,017	-0,054
-287,832	-200,000	0,016	-0,149
-286,818	-187,389	-0,088	0,001
-285,803	800,000	0,066	0,183
-284,789	-22,394	0,022	0,010
-283,774	108,840	-0,035	-0,030
-282,759	120,410	0,059	0,053
-281,745	98,044	0,031	-0,026
-280,730	32,419	0,069	0,043
-279,716	-64,956	-0,123	0,036
-278,701	-65,404	-0,010	0,003
-277,686	264,633	0,062	0,078
-276,672	-200,000	-0,013	0,056
-275,657	-39,058	-0,046	-0,017
-274,643	800,000	-0,049	-0,099
-273,628	-51,406	-0,012	-0,004
-272,613	336,364	0,040	-0,056
-271,599	573,404	-0,064	0,113
-270,584	62,276	-0,069	0,050
-269,570	9,173	0,102	0,056
-268,555	-9,464	-0,087	0,042
-267,540	800,000	0,046	0,094
-266,526	45,610	0,153	0,102
-265,511	-200,000	-0,011	-0,143
-264,497	-94,917	0,042	-0,008
-263,482	190,276	0,028	0,030
-262,467	36,977	0,083	0,053
-261,453	15,141	0,034	-0,019
-260,438	-30,511	-0,074	-0,030
-259,424	-11,383	-0,072	0,034
-258,409	-12,499	0,039	-0,018
-257,395	-24,792	0,146	-0,062
-256,380	211,055	-0,058	-0,067
-255,365	-51,106	0,123	0,041
-254,351	691,586	-0,037	0,070
-253,336	-145,183	-0,058	0,004
-252,322	-200,000	-0,018	-0,122
-251,307	-61,842	0,118	0,035
-250,292	800,000	-0,042	-0,115
-249,278	-48,172	-0,091	0,032
-248,263	392,164	0,052	0,079
-247,249	698,282	0,052	-0,100
-246,234	162,658	-0,069	0,070
-245,219	-200,000	-0,001	-0,047
-244,205	152,902	0,028	0,028
-243,190	800,000	-0,023	-0,054
-242,176	549,691	-0,045	-0,079
-241,161	51,370	-0,031	0,021
-240,146	-135,667	-0,157	-0,013
-239,132	-200,000	0,014	-0,048
-238,117	-200,000	0,001	0,150
-237,103	-200,000	-0,024	-0,082
-236,088	-200,000	0,019	-0,171
-235,073	37,631	-0,084	-0,054
-234,059	153,131	0,018	0,018
-233,044	-200,000	-0,012	0,071
-232,030	-82,053	-0,102	0,024
-231,015	-4,372	0,064	-0,032
-230,000	130,319	-0,083	0,077
-228,986	800,000	-0,039	-0,090
-227,971	-138,956	-0,086	0,007
-226,957	800,000	0,013	0,035
-225,942	287,644	-0,014	0,018
-224,927	-187,508	0,076	0,001
-223,913	56,575	0,146	-0,102
-222,898	-76,534	0,020	0,005
-221,884	-89,772	-0,129	0,027
-220,869	-101,195	0,051	-0,009
-219,855	108,457	0,073	-0,063
-218,840	476,911	-0,046	0,076
-217,825	433,680	-0,051	-0,081
-216,811	55,703	-0,125	-0,087
-215,796	800,000	0,044	-0,100
-214,782	-200,000	0,010	0,071
-213,767	121,047	-0,036	-0,032
-212,752	800,000	0,083	0,192
-211,738	122,104	0,041	-0,037
-210,723	125,262	-0,060	-0,055
-209,709	-200,000	-0,003	-0,099
-208,694	-200,000	-0,027	-0,090
-207,679	263,154	-0,106	-0,134
-206,665	-200,000	0,107	-0,000
-205,650	42,670	-0,105	0,069
-204,636	-45,422	0,122	-0,043
-203,621	-200,000	-0,014	-0,054
-202,606	621,241	0,025	-0,045
-201,592	-200,000	-0,005	0,030
-200,577	13,893	-0,083	-0,047
-199,563	13,412	0,141	-0,079
-198,548	-200,000	-0,033	0,155
-197,533	-83,005	0,136	0,031
-196,519	168,856	0,105	0,109
-195,504	-138,513	-0,113	0,009
-194,490	559,942	0,025	-0,044
-193,475	2,734	-0,025	0,013
-192,460	800,000	0,066	-0,190
-191,446	-8,882	-0,057	0,028
-190,431	-146,635	-0,081	-0,005
-189,417	-200,000	-0,004	0,073
-188,402	283,639	0,066	-0,086
-187,387	183,780	0,088	-0,094
-186,373	-51,090	-0,146	-0,049
-185,358	800,000	0,032	-0,079
-184,344	426,762	-0,055	-0,085
-183,329	684,910	-0,012	0,023
-182,315	-31,792	0,089	-0,036
-181,300	-191,826	0,035	-0,000
-180,285	-200,000	0,041	0,177
-179,271	800,000	0,070	0,159
-178,256	619,418	-0,041	0,076
-177,242	800,000	0,009	-0,023
-176,227	-46,800	0,116	0,041
-175,212	221,602	0,090	0,104
-174,198	-200,000	0,149	0,000
-173,183	502,898	-0,053	-0,089
-172,169	-107,111	0,058	-0,009
-171,154	-64,833	-0,106	-0,031
-170,139	800,000	0,087	0,174
-169,125	800,000	-0,014	0,032
-168,110	-200,000	0,020	-0,081
-167,096	-19,005	-0,096	-0,043
-166,081	-200,000	-0,018	-0,138
-165,066	111,822	-0,148	0,128
-164,052	460,667	0,061	-0,098
-163,037	16,918	0,070	0,040
-162,023	-121,083	-0,057	0,007
-161,008	175,568	0,077	0,081
-159,993	-134,239	0,088	-0,008
-158,979	-119,970	0,077	0,009
-157,964	-51,520	-0,093	0,031
-156,950	-113,190	-0,033	0,005
-155,935	116,637	-0,015	-0,013
-154,920	800,000	0,024	0,059
-153,906	-200,000	0,020	-0,118
-152,891	-37,301	-0,031	-0,012
-151,877	-200,000	-0,009	0,058
-150,862	-132,953	-0,128	-0,012
-149,847	26,757	0,088	-0,053
-148,833	501,126	-0,042	-0,071
-147,818	-178,612	0,056	-0,001
-146,804	401,183	0,040	0,061
-145,789	112,827	0,049	-0,043
-144,775	1,245	-0,027	-0,014
-143,760	25,362	0,039	-0,023
-142,745	-200,000	-0,011	-0,070
-141,731	104,892	0,100	-0,085
-140,716	-200,000	0,086	-0,000
-139,702	-104,879	0,058	0,009
-138,687	8,443	-0,095	0,051
-137,672	536,286	-0,059	0,101
-136,658	-200,000	-0,020	-0,091
-135,643	-106,983	-0,206	-0,032
-134,629	-200,000	0,015	0,054
-133,614	39,792	0,041	-0,026
-132,599	-200,000	0,005	0,107
-131,585	553,347	-0,128	0,223
-130,570	-81,022	-0,132	0,031
-129,556	629,907	0,109	-0,199
-128,541	76,995	-0,100	0,076
-127,526	94,058	-0,036	0,029
-126,512	1,585	-0,051	-0,027
-125,497	-1,889	-0,079	0,040
-124,483	-200,000	0,015	-0,083
-123,468	199,257	-0,031	-0,034
-122,453	71,382	-0,035	0,026
-121,439	-95,768	-0,124	-0,024
-120,424	556,714	-0,052	-0,091
-119,410	800,000	0,025	0,065
