DTS Sentinel unit serial number:	SN410029Multiplexer serial number:	ORYXHardware model number:	OX2-SRSoftware version number:	ORYX F/W v4,00 Oryx Data Collector v3.7.2.0data status	okinstallation	B5 Nyhavnadifferential loss correction	single-endedforward channel	channel 2reverse channel	N/Adate	2023/12/14time	11:12:13forward acquisition time	300,00reverse acquisition time	0,00gamma	499,1914k internal	0,3160k external	0,3160temperature offset calibration	1,0000default loss term (dB/km)	0,3820temperature slope calibration	1,0000multiplexer offset coefficient	1,0000multiplexer slope coefficient	1,0000fibre end	0,00T internal ref (°C)	7,27T ext. ref 1 (°C)	-8,01T ext. ref 2 (°C)	-8,06length (m)	temperature (°C)	Stokes	anti-Stokes-744,400	111,708	0,121	-0,107
-743,385	-52,413	-0,440	-0,149
-742,371	139,770	0,116	0,113
-741,356	-191,154	-0,343	0,003
-740,342	-25,053	0,306	0,133
-739,327	-26,640	-0,402	-0,173
-738,312	-187,247	0,040	-0,000
-737,298	-97,758	-0,434	0,082
-736,283	-78,118	0,107	0,027
-735,269	-120,290	-0,508	0,063
-734,254	-110,380	0,324	0,049
-733,239	-39,505	-0,688	-0,264
-732,225	-57,609	0,223	0,072
-731,210	-98,809	-0,109	0,020
-730,196	-200,000	0,089	0,000
-729,181	507,035	-0,075	-0,129
-728,167	800,000	0,011	-0,023
-727,152	800,000	0,063	0,152
-726,137	800,000	-0,020	-0,059
-725,123	-57,812	-0,052	-0,017
-724,108	708,047	-0,054	0,105
-723,094	-47,582	-0,133	-0,047
-722,079	-138,836	0,042	0,003
-721,064	-78,550	-0,078	0,019
-720,050	596,508	-0,012	-0,023
-719,035	125,069	0,068	-0,063
-718,021	505,541	-0,036	-0,062
-717,006	146,543	0,006	-0,006
-715,991	-94,666	-0,128	-0,025
-714,977	409,966	0,077	0,120
-713,962	225,343	-0,158	-0,189
-712,948	800,000	-0,053	0,115
-711,933	373,196	0,041	-0,061
-710,918	379,397	-0,024	0,037
-709,904	431,763	-0,088	-0,141
-708,889	-2,459	0,049	0,025
-707,875	-200,000	-0,007	-0,093
-706,860	-100,951	-0,093	-0,017
-705,845	-128,044	0,119	-0,012
-704,831	143,706	0,105	-0,103
-703,816	800,000	0,002	0,005
-702,802	187,614	-0,071	0,078
-701,787	800,000	0,043	-0,106
-700,772	-200,000	-0,007	-0,024
-699,758	-200,000	-0,021	-0,088
-698,743	-200,000	0,026	0,118
-697,729	-200,000	-0,066	-0,214
-696,714	143,994	0,061	-0,060
-695,699	-200,000	-0,023	-0,088
-694,685	-101,193	-0,122	0,022
-693,670	79,122	-0,077	-0,061
-692,656	183,168	-0,048	-0,052
-691,641	-62,554	-0,056	0,017
-690,627	-200,000	0,002	0,124
-689,612	684,497	0,056	0,108
-688,597	-126,223	-0,062	0,007
-687,583	-35,521	0,078	0,031
-686,568	783,918	-0,098	-0,198
-685,554	-19,733	0,096	-0,044
-684,539	85,641	-0,095	-0,077
-683,524	10,349	0,157	0,088
-682,510	800,000	-0,058	0,122
-681,495	138,051	-0,084	0,081
-680,481	-2,131	-0,004	0,002
-679,466	-43,842	-0,096	0,035
-678,451	182,072	-0,025	0,027
-677,437	32,756	-0,061	0,039
-676,422	-138,053	0,028	-0,002
-675,408	-200,000	0,002	-0,098
-674,393	126,788	-0,076	-0,071
-673,378	-200,000	0,007	-0,080
-672,364	118,888	0,070	-0,064
-671,349	137,912	-0,114	-0,110
-670,335	-200,000	0,025	-0,105
-669,320	378,380	0,157	0,237
-668,305	-65,247	0,057	0,017
-667,291	-200,000	0,001	0,032
-666,276	-200,000	0,003	-0,047
-665,262	250,405	-0,030	-0,038
-664,247	-176,107	0,060	0,001
-663,232	322,449	0,012	0,016
-662,218	192,436	0,059	0,066
-661,203	439,029	-0,032	-0,052
-660,189	93,297	-0,071	-0,059
-659,174	-2,106	-0,152	-0,078
-658,159	-125,498	0,137	0,015
-657,145	-44,139	-0,081	0,030
-656,130	-200,000	0,005	0,146
-655,116	-122,752	-0,031	-0,004
-654,101	-47,494	0,121	-0,043
-653,086	-189,995	-0,127	0,001
-652,072	-200,000	-0,028	-0,190
-651,057	-115,659	-0,033	-0,004
-650,043	-200,000	0,008	-0,036
-649,028	800,000	0,025	-0,055
-648,014	-72,986	0,027	0,007
-646,999	71,038	0,122	0,093
-645,984	225,609	-0,088	0,105
-644,970	-97,974	-0,080	-0,015
-643,955	-200,000	-0,024	-0,104
-642,941	192,432	-0,055	0,061
-641,926	-26,927	0,029	-0,012
-640,911	87,575	0,061	0,050
-639,897	244,305	-0,061	0,075
-638,882	-200,000	0,000	0,062
-637,868	-200,000	-0,006	-0,085
-636,853	-200,000	0,006	-0,045
-635,838	296,637	-0,035	0,047
-634,824	436,523	-0,041	0,066
-633,809	638,099	-0,032	-0,061
-632,795	32,805	-0,181	0,115
-631,780	-79,941	-0,119	0,029
-630,765	25,839	-0,008	-0,005
-629,751	-93,432	0,118	-0,024
-628,736	38,874	0,074	-0,049
-627,722	-200,000	0,002	0,011
-626,707	-128,310	0,077	-0,008
-625,692	-200,000	0,017	0,124
-624,678	348,415	-0,034	-0,049
-623,663	-145,260	0,122	-0,008
-622,649	-102,734	-0,079	0,014
-621,634	541,213	-0,085	-0,149
-620,619	-38,436	-0,112	-0,043
-619,605	800,000	-0,029	-0,077
-618,590	-20,209	0,030	0,013
-617,576	47,974	-0,050	-0,034
-616,561	131,315	-0,076	-0,072
-615,546	-200,000	0,007	-0,031
-614,532	-81,627	0,131	0,031
-613,517	800,000	0,023	0,059
-612,503	187,102	0,079	-0,087
-611,488	-8,265	0,110	-0,054
-610,474	-142,309	-0,184	-0,013
-609,459	-142,563	0,085	0,006
-608,444	-27,948	-0,079	0,033
-607,430	-200,000	0,019	-0,214
-606,415	800,000	0,013	-0,035
-605,401	344,474	0,078	-0,112
-604,386	-200,000	-0,010	-0,109
-603,371	-101,246	-0,150	-0,027
-602,357	800,000	0,014	-0,036
-601,342	609,610	-0,065	-0,120
-600,328	-200,000	-0,011	-0,077
-599,313	585,270	-0,060	-0,108
-598,298	-49,625	0,104	0,036
-597,284	-41,490	0,037	0,014
-596,269	366,183	0,023	0,034
-595,255	325,814	0,045	-0,064
-594,240	737,060	-0,019	0,037
-593,225	-10,787	0,160	-0,077
-592,211	-55,956	-0,043	0,014
-591,196	206,051	0,029	-0,034
-590,182	800,000	0,004	-0,009
-589,167	-200,000	-0,031	0,136
-588,152	484,379	-0,027	0,045
-587,138	73,137	0,087	-0,066
-586,123	360,580	-0,073	-0,107
-585,109	211,111	-0,014	-0,016
-584,094	800,000	-0,028	-0,067
-583,079	-160,294	0,104	0,004
-582,065	145,560	-0,046	-0,045
-581,050	63,249	-0,030	-0,022
-580,036	-22,199	-0,111	-0,049
-579,021	85,805	-0,061	0,049
-578,006	-143,253	-0,132	-0,009
-576,992	22,696	0,071	-0,043
-575,977	62,608	-0,080	0,058
-574,963	-200,000	-0,017	0,115
-573,948	-200,000	0,000	0,019
-572,934	800,000	-0,028	-0,079
-571,919	-35,108	0,096	-0,038
-570,904	359,565	-0,044	-0,065
-569,890	9,473	0,123	0,068
-568,875	29,407	-0,078	-0,048
-567,861	87,132	0,010	0,008
-566,846	800,000	0,048	0,118
-565,831	275,841	0,052	-0,068
-564,817	-200,000	0,018	-0,150
-563,802	81,761	-0,091	-0,072
-562,788	116,164	0,118	0,106
-561,773	3,665	0,073	-0,039
-560,758	-90,489	0,070	-0,015
-559,744	-200,000	-0,008	0,056
-558,729	-49,809	0,121	0,042
-557,715	0,254	-0,122	-0,063
-556,700	-119,564	-0,043	0,005
-555,685	92,481	0,037	0,030
-554,671	566,008	0,020	0,036
-553,656	160,556	0,096	-0,098
-552,642	63,898	-0,034	0,025
-551,627	800,000	-0,024	-0,066
-550,612	120,993	-0,153	0,139
-549,598	174,152	-0,039	0,041
-548,583	-149,047	0,107	0,006
-547,569	481,328	0,016	0,026
-546,554	-200,000	0,025	0,175
-545,539	-30,088	0,113	-0,047
-544,525	29,546	0,028	0,017
-543,510	-200,000	-0,008	-0,047
-542,496	8,763	0,180	-0,099
-541,481	-200,000	-0,007	-0,084
-540,466	151,530	0,017	-0,017
-539,452	-22,125	-0,065	-0,029
-538,437	-34,655	-0,047	0,019
-537,423	-200,000	-0,008	0,141
-536,408	130,998	-0,083	0,078
-535,393	17,856	0,089	-0,052
-534,379	800,000	0,057	0,151
-533,364	-200,000	-0,003	-0,028
-532,350	215,806	0,024	-0,028
-531,335	-200,000	-0,021	0,089
-530,321	800,000	0,108	0,260
-529,306	-117,505	-0,020	-0,003
-528,291	621,172	0,057	-0,106
-527,277	224,042	-0,099	-0,117
-526,262	-82,128	0,104	0,025
-525,248	800,000	0,074	0,195
-524,233	-200,000	-0,007	0,065
-523,218	-21,752	-0,047	-0,021
-522,204	-200,000	0,026	0,104
-521,189	212,622	-0,056	0,065
-520,175	-200,000	-0,001	-0,166
-519,160	106,623	0,081	0,070
-518,145	-200,000	0,001	0,040
-517,131	-143,414	-0,026	-0,002
-516,116	-200,000	0,001	0,019
-515,102	800,000	-0,030	0,080
-514,087	-200,000	-0,014	0,055
-513,072	-156,319	0,107	0,005
-512,058	-40,778	0,033	0,012
-511,043	55,386	0,088	-0,062
-510,029	120,316	0,125	-0,114
-509,014	69,905	0,096	0,072
-507,999	-74,835	-0,067	0,017
-506,985	-68,755	-0,120	0,034
-505,970	-200,000	0,012	0,056
-504,956	-200,000	0,005	-0,037
-503,941	-161,020	0,056	0,002
-502,926	-105,508	0,165	-0,027
-501,912	-58,182	0,072	-0,023
-500,897	800,000	-0,026	0,080
-499,883	306,277	-0,087	-0,119
-498,868	275,665	-0,041	-0,054
-497,853	-71,153	0,125	0,034
-496,839	-200,000	-0,005	0,145
-495,824	45,022	-0,017	-0,012
-494,810	125,929	0,079	0,073
-493,795	-200,000	-0,005	0,027
-492,781	-87,414	0,053	0,012
-491,766	-200,000	0,006	0,068
-490,751	-200,000	-0,016	0,098
-489,737	-200,000	-0,009	0,119
-488,722	-126,145	0,102	0,011
-487,708	-69,997	0,053	0,015
-486,693	-19,001	0,089	0,040
-485,678	800,000	-0,019	-0,050
-484,664	-198,422	0,064	0,000
-483,649	-101,831	-0,075	0,013
-482,635	653,128	0,020	-0,037
-481,620	-200,000	0,021	-0,116
-480,605	-97,816	0,084	-0,016
-479,591	608,683	0,046	-0,084
-478,576	-200,000	-0,016	-0,116
-477,562	56,860	-0,050	0,036
-476,547	-39,317	-0,029	-0,011
-475,532	-34,565	-0,059	0,024
-474,518	-66,082	0,098	-0,028
-473,503	238,296	0,153	-0,186
-472,489	-200,000	0,024	0,088
-471,474	-200,000	0,022	-0,080
-470,459	2,822	-0,053	-0,028
-469,445	800,000	-0,079	0,228
-468,430	628,909	0,043	-0,079
-467,416	-200,000	0,008	0,057
-466,401	-200,000	0,003	0,054
-465,386	-104,992	0,075	0,012
-464,372	-200,000	-0,007	-0,043
-463,357	740,568	0,009	0,019
-462,343	-200,000	-0,025	-0,092
-461,328	90,594	0,104	0,085
-460,313	181,037	-0,091	0,098
-459,299	-155,206	0,040	0,002
-458,284	-200,000	-0,000	0,055
-457,270	-165,427	0,092	-0,003
-456,255	188,617	-0,072	-0,079
-455,241	-69,276	-0,089	-0,025
-454,226	-51,590	0,183	0,062
-453,211	-200,000	0,001	0,041
-452,197	625,004	0,036	-0,066
-451,182	800,000	0,030	-0,071
-450,168	63,658	0,128	-0,093
-449,153	-200,000	-0,008	-0,033
-448,138	800,000	0,058	-0,119
-447,124	-200,000	-0,028	0,095
-446,109	-40,730	-0,092	0,035
-445,095	558,741	-0,018	0,033
-444,080	-200,000	0,005	0,026
-443,065	180,464	0,048	0,052
-442,051	30,933	-0,158	-0,098
-441,036	-128,238	0,148	-0,015
-440,022	-200,000	-0,021	-0,076
-439,007	-67,507	0,026	0,007
-437,992	26,800	0,066	-0,040
-436,978	-200,000	-0,039	0,169
-435,963	110,147	-0,080	0,070
-434,949	-124,716	-0,064	0,007
-433,934	-105,524	-0,094	0,015
-432,919	800,000	-0,033	-0,078
-431,905	435,968	0,125	0,199
-430,890	-39,817	0,097	0,037
-429,876	-200,000	-0,010	0,083
-428,861	800,000	0,035	0,095
-427,846	-130,829	-0,174	0,017
-426,832	-94,890	0,145	-0,028
-425,817	88,023	-0,042	0,034
-424,803	-112,082	0,061	0,009
-423,788	-98,509	0,085	0,016
-422,773	693,424	-0,017	0,033
-421,759	306,359	0,061	0,083
-420,744	-64,046	-0,053	-0,016
-419,730	800,000	0,050	-0,125
-418,715	-104,310	-0,090	0,015
-417,701	-87,199	-0,050	0,011
-416,686	-200,000	0,033	0,161
-415,671	-200,000	-0,017	0,134
-414,657	-111,226	0,071	0,010
-413,642	800,000	0,011	0,030
-412,628	116,186	-0,050	-0,044
-411,613	282,687	-0,053	-0,069
-410,598	-200,000	0,002	-0,076
-409,584	188,727	0,062	-0,067
-408,569	800,000	0,065	0,161
-407,555	-200,000	0,008	0,057
-406,540	-74,440	-0,120	0,031
-405,525	-97,761	0,033	0,006
-404,511	-166,437	-0,157	0,005
-403,496	-30,697	-0,040	0,017
-402,482	33,400	-0,083	0,052
-401,467	19,610	0,088	-0,051
-400,452	-106,460	0,110	-0,018
-399,438	-93,457	0,069	0,014
-398,423	-200,000	-0,010	0,157
-397,409	-200,000	-0,008	-0,070
-396,394	170,009	-0,061	-0,063
-395,379	-34,595	0,069	-0,027
-394,365	-38,713	0,059	0,023
-393,350	739,696	-0,026	0,051
-392,336	5,604	0,084	-0,045
-391,321	-153,317	0,122	0,006
-390,306	-49,028	-0,068	-0,024
-389,292	800,000	-0,012	-0,026
-388,277	-200,000	-0,019	-0,137
-387,263	531,713	0,066	0,114
-386,248	643,748	0,056	-0,104
-385,233	630,051	0,053	0,098
-384,219	-185,476	-0,056	-0,001
-383,204	-200,000	0,002	0,062
-382,190	-80,543	0,183	0,044
-381,175	800,000	0,029	-0,091
-380,160	260,371	0,077	0,097
-379,146	74,044	-0,110	0,084
-378,131	559,399	-0,070	0,123
-377,117	54,702	-0,058	-0,040
-376,102	-30,795	-0,140	-0,057
-375,088	-200,000	-0,029	-0,186
-374,073	-90,025	0,060	-0,013
-373,058	-200,000	-0,015	0,157
-372,044	122,135	0,102	0,092
-371,029	-200,000	-0,010	0,043
-370,015	137,401	-0,040	0,038
-369,000	-38,109	0,095	-0,036
-367,985	-200,000	-0,032	-0,159
-366,971	-200,000	0,035	-0,122
-365,956	-89,866	-0,146	0,031
-364,942	64,102	-0,058	0,042
-363,927	83,651	0,090	-0,071
-362,912	361,232	-0,039	0,057
-361,898	-200,000	-0,033	-0,118
-360,883	464,480	-0,081	-0,131
-359,869	800,000	0,056	-0,116
-358,854	-68,547	-0,066	0,019
-357,839	26,707	-0,052	-0,031
-356,825	-200,000	-0,029	0,096
-355,810	33,266	-0,058	0,036
-354,796	-178,771	0,083	0,001
-353,781	-200,000	0,002	-0,043
-352,766	-200,000	-0,017	-0,057
-351,752	-58,251	-0,095	-0,030
-350,737	-169,569	0,035	0,001
-349,723	-200,000	0,010	0,034
-348,708	137,141	0,047	0,044
-347,693	-200,000	-0,005	-0,107
-346,679	45,125	0,085	-0,057
-345,664	274,042	-0,040	-0,051
-344,650	336,818	0,014	0,020
-343,635	-200,000	-0,007	-0,092
-342,620	1,430	-0,155	0,081
-341,606	75,150	0,016	0,012
-340,591	800,000	0,045	-0,125
-339,577	125,333	-0,116	-0,106
-338,562	-49,224	0,066	0,023
-337,548	-30,658	0,153	-0,063
-336,533	85,793	0,147	-0,117
-335,518	275,767	0,128	0,165
-334,504	-29,799	-0,045	-0,018
-333,489	-200,000	0,019	-0,099
-332,475	-97,625	-0,094	-0,017
-331,460	159,599	-0,030	-0,030
-330,445	48,405	-0,045	-0,030
-329,431	63,805	0,076	0,055
-328,416	-200,000	0,005	-0,081
-327,402	19,698	0,105	-0,061
-326,387	-32,411	0,035	0,014
-325,372	124,057	-0,083	-0,075
-324,358	-96,222	0,162	0,031
-323,343	460,956	-0,058	-0,094
-322,329	-30,592	0,045	0,018
-321,314	-62,899	-0,061	0,018
-320,299	12,713	-0,098	-0,055
-319,285	-31,070	-0,057	0,023
-318,270	-121,058	-0,109	0,013
-317,256	-61,422	-0,071	-0,021
-316,241	800,000	-0,077	-0,157
-315,226	331,945	0,042	0,059
-314,212	-200,000	-0,017	0,081
-313,197	-200,000	-0,018	0,145
-312,183	-200,000	-0,004	-0,157
-311,168	240,421	-0,030	-0,036
-310,153	74,064	-0,167	-0,127
-309,139	-68,113	-0,047	0,013
-308,124	31,668	-0,028	-0,018
-307,110	-200,000	-0,006	0,039
-306,095	800,000	0,044	0,097
-305,080	181,686	-0,006	-0,006
-304,066	-75,279	-0,148	0,038
-303,051	-200,000	-0,009	-0,104
-302,037	265,191	-0,106	-0,134
-301,022	314,406	-0,023	0,032
-300,008	-200,000	-0,020	0,123
-298,993	-200,000	-0,006	0,179
-297,978	-200,000	-0,017	0,111
-296,964	800,000	-0,052	0,126
-295,949	-157,085	-0,049	-0,002
-294,935	-30,012	-0,056	0,023
-293,920	61,798	-0,071	-0,051
-292,905	-0,517	-0,111	0,057
-291,891	348,000	0,110	0,157
-290,876	89,782	0,118	0,096
-289,862	-200,000	-0,018	0,100
-288,847	-93,566	0,052	0,010
-287,832	57,656	-0,118	-0,083
-286,818	-200,000	0,001	0,071
-285,803	13,655	0,043	0,024
-284,789	172,541	0,046	0,048
-283,774	181,849	0,095	0,102
-282,759	-41,298	0,058	-0,021
-281,745	800,000	0,048	0,151
-280,730	-200,000	-0,022	-0,100
-279,716	32,006	-0,063	-0,039
-278,701	-200,000	0,009	-0,035
-277,686	-36,062	0,148	0,057
-276,672	-200,000	-0,013	0,073
-275,657	84,753	0,182	0,144
-274,643	-51,573	-0,130	0,044
-273,628	-99,939	-0,016	0,003
-272,613	-200,000	0,001	-0,061
-271,599	-200,000	0,010	0,111
-270,584	-5,345	-0,074	-0,037
-269,570	800,000	-0,024	0,050
-268,555	94,173	-0,019	0,015
-267,540	331,069	-0,023	-0,032
-266,526	40,110	-0,095	-0,062
-265,511	-75,691	0,050	-0,013
-264,497	800,000	0,033	0,089
-263,482	399,178	-0,067	0,102
-262,467	-159,562	0,100	-0,004
-261,453	22,015	-0,025	-0,015
-260,438	215,959	0,044	-0,051
-259,424	88,612	-0,096	-0,077
-258,409	800,000	-0,059	-0,145
-257,395	-141,092	-0,027	0,002
-256,380	630,065	0,048	0,088
-255,365	119,088	-0,028	0,025
-254,351	344,173	-0,016	0,023
-253,336	-5,777	-0,172	-0,085
-252,322	364,232	-0,101	-0,148
-251,307	-63,729	0,037	-0,011
-250,292	8,845	-0,013	-0,007
-249,278	800,000	0,028	-0,078
-248,263	-200,000	-0,001	0,012
-247,249	-200,000	0,016	0,119
-246,234	49,498	-0,068	0,046
-245,219	-11,354	-0,067	-0,032
-244,205	89,330	-0,123	0,099
-243,190	16,442	0,038	-0,022
-242,176	-200,000	0,002	0,016
-241,161	158,594	0,032	-0,032
-240,146	333,389	-0,114	0,160
-239,132	85,961	-0,038	-0,030
-238,117	134,214	-0,060	0,056
-237,103	800,000	0,051	-0,146
-236,088	163,400	-0,097	-0,099
-235,073	800,000	0,044	0,139
-234,059	-102,492	0,090	-0,015
-233,044	-92,098	0,032	-0,006
-232,030	2,746	0,073	-0,038
-231,015	-21,607	-0,055	-0,024
-230,000	758,263	-0,090	-0,177
-228,986	6,090	0,033	-0,018
-227,971	-82,678	0,179	-0,042
-226,957	-200,000	-0,032	-0,103
-225,942	-200,000	0,000	0,006
-224,927	618,603	-0,075	-0,136
-223,913	47,947	-0,030	0,020
-222,898	296,202	-0,114	0,151
-221,884	344,764	0,067	0,095
-220,869	-200,000	0,002	-0,046
-219,855	-134,549	0,072	-0,006
-218,840	7,427	0,190	0,102
-217,825	-49,510	-0,148	0,051
-216,811	800,000	0,018	0,041
-215,796	-200,000	-0,039	-0,151
-214,782	-200,000	-0,034	-0,115
-213,767	800,000	0,020	0,049
-212,752	-95,522	0,080	0,015
-211,738	3,540	-0,060	0,031
-210,723	-188,746	-0,108	-0,001
-209,709	-200,000	-0,037	-0,125
-208,694	120,060	-0,065	-0,058
-207,679	-200,000	-0,008	0,053
-206,665	278,751	-0,052	0,067
-205,650	123,307	0,054	0,049
-204,636	-200,000	-0,006	0,069
-203,621	218,799	-0,032	-0,037
-202,606	102,294	0,014	-0,012
-201,592	-200,000	0,026	-0,193
-200,577	313,272	0,103	-0,140
-199,563	-200,000	0,005	0,019
-198,548	-200,000	-0,004	-0,022
-197,533	57,597	0,033	0,023
-196,519	-92,900	-0,094	0,019
-195,504	48,000	-0,027	0,018
-194,490	10,778	-0,128	-0,070
-193,475	-200,000	0,027	0,135
-192,460	-200,000	-0,020	-0,120
-191,446	377,850	-0,042	0,063
-190,431	-84,353	0,064	-0,014
-189,417	57,444	0,043	0,030
-188,402	-200,000	0,015	0,061
-187,387	782,983	-0,021	-0,042
-186,373	594,459	0,019	-0,035
-185,358	-52,805	-0,228	-0,075
-184,344	-169,458	0,102	0,003
-183,329	800,000	-0,051	-0,105
-182,315	172,206	-0,052	0,053
-181,300	111,559	-0,070	-0,061
-180,285	-4,463	-0,110	-0,055
-179,271	39,103	-0,110	0,071
-178,256	158,012	0,047	0,047
-177,242	-67,930	0,057	0,016
-176,227	-200,000	0,012	0,080
-175,212	-193,435	0,010	0,000
-174,198	92,427	-0,020	0,016
-173,183	84,645	-0,041	-0,033
-172,169	800,000	-0,058	-0,145
-171,154	796,484	-0,064	-0,128
-170,139	16,231	0,069	-0,039
-169,125	800,000	0,048	0,151
-168,110	-200,000	0,023	0,138
-167,096	120,315	-0,115	-0,103
-166,081	-81,578	-0,050	0,012
-165,066	86,903	-0,078	0,062
-164,052	-103,108	0,084	-0,014
-163,037	800,000	0,038	-0,119
-162,023	305,265	0,005	0,007
-161,008	128,664	-0,057	-0,052
-159,993	35,010	0,092	0,058
-158,979	-148,096	-0,091	0,005
-157,964	-177,797	0,074	-0,001
-156,950	633,709	-0,040	-0,074
-155,935	-59,604	0,069	0,021
-154,920	-200,000	0,019	0,159
-153,906	800,000	0,007	-0,020
-152,891	-102,194	0,145	0,025
-151,877	-200,000	-0,005	0,074
-150,862	-141,804	0,089	-0,006
-149,847	800,000	0,037	-0,101
-148,833	-200,000	-0,012	-0,085
-147,818	132,913	-0,038	0,036
-146,804	586,342	-0,036	0,063
-145,789	177,188	0,093	-0,097
-144,775	-161,252	-0,087	0,003
-143,760	800,000	0,024	-0,049
-142,745	-200,000	0,008	-0,128
-141,731	-49,128	0,108	0,037
-140,716	-200,000	0,003	-0,075
-139,702	-200,000	0,027	-0,103
-138,687	-85,337	0,038	0,008
-137,672	75,856	-0,051	0,039
-136,658	-14,084	0,103	0,048
-135,643	-200,000	-0,026	0,147
-134,629	466,075	-0,034	0,055
-133,614	-200,000	-0,002	0,059
-132,599	-58,926	0,109	-0,034
-131,585	342,682	-0,044	-0,062
-130,570	104,933	-0,125	0,106
-129,556	800,000	-0,039	-0,116
-128,541	800,000	-0,045	-0,115
-127,526	618,308	-0,008	0,015
-126,512	800,000	-0,030	0,075
-125,497	-200,000	0,026	-0,134
-124,483	800,000	0,045	-0,136
-123,468	-74,666	-0,092	0,024
-122,453	-73,407	-0,017	0,004
-121,439	50,517	-0,116	0,079
-120,424	-200,000	-0,017	0,103
-119,410	572,420	-0,053	0,094
