DTS Sentinel unit serial number:	SN410029Multiplexer serial number:	ORYXHardware model number:	OX2-SRSoftware version number:	ORYX F/W v4,00 Oryx Data Collector v3.7.2.0data status	okinstallation	B5 Nyhavnadifferential loss correction	single-endedforward channel	channel 2reverse channel	N/Adate	2023/12/14time	09:07:13forward acquisition time	300,00reverse acquisition time	0,00gamma	499,1914k internal	0,3161k external	0,3161temperature offset calibration	1,0000default loss term (dB/km)	0,3820temperature slope calibration	1,0000multiplexer offset coefficient	1,0000multiplexer slope coefficient	1,0000fibre end	0,00T internal ref (°C)	7,00T ext. ref 1 (°C)	-9,20T ext. ref 2 (°C)	-9,26length (m)	temperature (°C)	Stokes	anti-Stokes-744,400	800,000	0,055	0,134
-743,385	-173,502	-0,401	0,009
-742,371	-28,932	0,243	0,102
-741,356	-176,260	-0,452	0,008
-740,342	144,689	0,225	0,222
-739,327	-43,548	-0,418	-0,155
-738,312	-200,000	0,002	0,120
-737,298	-39,012	-0,384	-0,148
-736,283	97,080	0,105	0,089
-735,269	-101,863	-0,327	-0,058
-734,254	179,054	0,166	0,179
-733,239	40,807	-0,392	-0,260
-732,225	39,551	0,183	0,120
-731,210	800,000	0,026	0,081
-730,196	800,000	-0,012	0,034
-729,181	800,000	-0,043	-0,094
-728,167	294,205	-0,083	-0,111
-727,152	-200,000	0,002	-0,010
-726,137	-46,483	-0,082	-0,029
-725,123	380,224	-0,029	-0,043
-724,108	-39,562	-0,125	0,048
-723,094	-127,308	-0,114	-0,012
-722,079	-1,252	0,046	0,024
-721,064	-0,696	-0,043	0,022
-720,050	800,000	0,041	0,116
-719,035	-67,818	0,138	0,039
-718,021	-200,000	-0,005	-0,058
-717,006	-89,746	0,067	0,014
-715,991	800,000	-0,075	-0,191
-714,977	97,332	-0,094	-0,080
-713,962	237,860	-0,033	-0,040
-712,948	-146,758	-0,075	0,005
-711,933	-200,000	0,012	0,152
-710,918	-200,000	0,002	-0,155
-709,904	234,694	-0,049	-0,059
-708,889	44,156	-0,127	-0,085
-707,875	800,000	-0,055	-0,115
-706,860	800,000	0,039	-0,100
-705,845	16,980	-0,043	0,025
-704,831	-13,270	0,062	0,030
-703,816	388,300	0,012	0,018
-702,802	-36,503	-0,033	0,013
-701,787	384,918	-0,035	0,054
-700,772	-200,000	-0,001	-0,076
-699,758	88,768	0,036	0,030
-698,743	-200,000	-0,013	0,194
-697,729	-21,223	-0,200	0,089
-696,714	20,054	-0,030	-0,018
-695,699	57,448	0,041	0,029
-694,685	-52,649	-0,075	-0,025
-693,670	-27,453	-0,101	-0,043
-692,656	-7,256	-0,078	0,039
-691,641	258,407	0,038	0,048
-690,627	-200,000	0,023	0,080
-689,612	-200,000	0,024	0,117
-688,597	-200,000	-0,008	-0,082
-687,583	487,796	-0,039	0,065
-686,568	288,984	-0,062	-0,083
-685,554	-39,447	-0,074	-0,028
-684,539	-30,102	0,122	-0,051
-683,524	-39,439	-0,216	-0,083
-682,510	-98,267	0,115	0,021
-681,495	-190,469	-0,131	-0,001
-680,481	328,341	-0,055	0,078
-679,466	-72,797	0,070	-0,019
-678,451	513,570	-0,043	0,074
-677,437	346,006	-0,071	0,102
-676,422	50,130	-0,108	0,075
-675,408	-173,354	0,092	0,002
-674,393	800,000	0,040	0,128
-673,378	357,515	-0,080	-0,117
-672,364	167,590	0,023	-0,025
-671,349	20,258	0,029	-0,017
-670,335	-200,000	0,002	-0,039
-669,320	-200,000	0,011	0,065
-668,305	800,000	0,028	-0,077
-667,291	365,099	0,033	-0,050
-666,276	-34,567	-0,146	0,059
-665,262	107,572	0,054	-0,047
-664,247	-200,000	0,035	0,137
-663,232	756,421	0,061	-0,121
-662,218	69,478	0,022	0,017
-661,203	-180,652	-0,151	0,002
-660,189	712,693	-0,031	0,060
-659,174	249,759	-0,129	0,161
-658,159	-33,472	0,093	0,038
-657,145	99,870	-0,065	0,055
-656,130	333,089	-0,027	0,039
-655,116	-7,511	0,133	0,066
-654,101	143,930	0,134	0,131
-653,086	85,742	-0,095	0,076
-652,072	121,468	-0,033	0,030
-651,057	158,469	-0,075	0,076
-650,043	-200,000	-0,024	0,077
-649,028	-1,509	0,052	-0,027
-648,014	97,780	-0,044	-0,037
-646,999	172,415	0,114	0,120
-645,984	-200,000	-0,027	-0,111
-644,970	-143,936	-0,031	-0,002
-643,955	800,000	0,021	0,051
-642,941	10,120	-0,083	-0,046
-641,926	-133,084	0,125	-0,011
-640,911	113,546	-0,021	0,019
-639,897	79,669	0,084	0,066
-638,882	-7,337	-0,129	-0,064
-637,868	800,000	0,002	-0,004
-636,853	-200,000	-0,012	0,092
-635,838	139,423	-0,069	0,066
-634,824	362,730	-0,060	0,088
-633,809	39,157	0,070	0,046
-632,795	246,850	0,075	0,093
-631,780	-128,043	0,157	-0,016
-630,765	222,657	-0,027	-0,032
-629,751	62,224	-0,027	-0,020
-628,736	206,157	-0,122	-0,139
-627,722	245,410	-0,009	0,011
-626,707	-10,100	0,143	-0,069
-625,692	-200,000	0,021	0,116
-624,678	-20,384	-0,115	-0,052
-623,663	292,723	-0,087	0,116
-622,649	320,873	0,036	0,050
-621,634	800,000	0,016	-0,036
-620,619	-8,845	-0,181	0,089
-619,605	-200,000	0,051	0,181
-618,590	30,013	-0,102	0,063
-617,576	800,000	0,047	0,114
-616,561	238,740	-0,059	0,072
-615,546	-28,232	0,030	-0,012
-614,532	800,000	0,050	0,117
-613,517	221,042	-0,024	-0,028
-612,503	-41,469	0,057	0,021
-611,488	-200,000	0,001	0,055
-610,474	683,494	0,034	0,064
-609,459	800,000	0,021	0,063
-608,444	74,062	0,026	-0,020
-607,430	410,153	0,055	-0,086
-606,415	-200,000	-0,002	0,011
-605,401	-86,981	0,169	0,037
-604,386	360,216	0,069	-0,101
-603,371	-133,339	0,066	-0,006
-602,357	36,247	0,093	0,060
-601,342	-200,000	0,016	-0,157
-600,328	-73,507	-0,113	-0,030
-599,313	568,378	-0,045	0,081
-598,298	144,778	-0,078	-0,076
-597,284	437,780	-0,077	-0,123
-596,269	-200,000	0,001	-0,090
-595,255	-75,678	-0,151	0,039
-594,240	-200,000	0,036	0,183
-593,225	630,994	-0,034	-0,063
-592,211	193,446	-0,034	-0,038
-591,196	404,705	-0,018	-0,028
-590,182	446,016	0,066	-0,107
-589,167	-69,342	0,105	-0,029
-588,152	454,424	-0,087	0,142
-587,138	-38,857	-0,112	0,043
-586,123	-200,000	0,022	-0,161
-585,109	-124,837	0,066	0,007
-584,094	113,621	0,122	0,108
-583,079	185,020	0,032	0,035
-582,065	188,091	-0,050	0,055
-581,050	94,249	0,127	0,106
-580,036	-200,000	-0,008	0,045
-579,021	-200,000	-0,006	-0,093
-578,006	0,850	-0,105	0,055
-576,992	46,469	0,078	-0,053
-575,977	-200,000	-0,008	0,032
-574,963	-2,947	0,105	-0,054
-573,948	-31,471	-0,088	0,036
-572,934	216,909	0,081	-0,094
-571,919	174,627	-0,129	-0,137
-570,904	263,937	0,057	0,073
-569,890	-2,398	0,005	-0,003
-568,875	467,829	0,018	-0,029
-567,861	-61,328	0,030	0,009
-566,846	-200,000	-0,004	-0,049
-565,831	50,656	-0,045	-0,031
-564,817	-59,702	-0,165	0,051
-563,802	-47,762	-0,102	0,036
-562,788	502,070	0,038	-0,065
-561,773	210,070	-0,049	0,056
-560,758	195,691	-0,038	-0,042
-559,744	-200,000	0,006	-0,029
-558,729	-146,162	-0,026	-0,002
-557,715	-30,875	0,100	-0,041
-556,700	34,378	0,152	0,097
-555,685	-70,164	-0,095	-0,026
-554,671	-103,083	0,119	0,020
-553,656	-200,000	-0,003	-0,061
-552,642	23,327	0,100	0,060
-551,627	-56,218	0,070	-0,023
-550,612	-64,942	0,133	-0,039
-549,598	-200,000	-0,018	-0,201
-548,583	-200,000	0,040	-0,141
-547,569	800,000	0,045	-0,112
-546,554	310,654	0,113	-0,156
-545,539	800,000	0,044	-0,088
-544,525	5,338	-0,049	-0,026
-543,510	800,000	0,085	-0,177
-542,496	421,338	-0,048	-0,075
-541,481	-69,235	0,155	-0,043
-540,466	-51,600	-0,081	0,027
-539,452	178,519	0,093	-0,099
-538,437	764,075	0,075	0,149
-537,423	-200,000	0,013	0,128
-536,408	-16,583	-0,095	-0,044
-535,393	-37,391	-0,202	-0,078
-534,379	-23,442	-0,097	-0,043
-533,364	-49,104	-0,079	-0,027
-532,350	35,799	0,154	-0,099
-531,335	85,747	-0,076	-0,061
-530,321	800,000	-0,068	0,146
-529,306	-79,200	-0,025	0,006
-528,291	800,000	0,012	-0,030
-527,277	-112,160	-0,051	-0,007
-526,262	472,192	-0,080	0,132
-525,248	-200,000	0,040	0,146
-524,233	145,132	0,138	0,135
-523,218	106,813	-0,060	0,052
-522,204	-53,490	-0,083	-0,028
-521,189	49,997	-0,015	-0,010
-520,175	250,203	0,039	-0,048
-519,160	-200,000	-0,004	0,076
-518,145	287,120	0,033	0,044
-517,131	-113,629	-0,026	0,004
-516,116	800,000	0,008	-0,019
-515,102	179,259	0,127	-0,136
-514,087	-26,808	-0,177	-0,075
-513,072	435,350	-0,050	-0,080
-512,058	-200,000	0,004	-0,028
-511,043	430,542	-0,038	0,061
-510,029	-200,000	0,021	-0,073
-509,014	800,000	0,013	-0,037
-507,999	-105,246	0,177	0,029
-506,985	209,336	-0,035	-0,040
-505,970	-200,000	0,019	-0,173
-504,956	-95,559	0,100	0,019
-503,941	-200,000	0,003	0,030
-502,926	-22,843	-0,033	-0,014
-501,912	-200,000	0,009	0,071
-500,897	166,503	0,046	0,047
-499,883	-200,000	-0,004	-0,062
-498,868	-35,317	-0,128	-0,051
-497,853	32,552	0,022	0,014
-496,839	-127,191	0,144	-0,015
-495,824	-200,000	-0,017	0,109
-494,810	-33,910	-0,035	-0,014
-493,795	269,569	0,096	0,124
-492,781	800,000	0,005	0,012
-491,766	27,965	-0,126	-0,077
-490,751	-145,138	-0,075	0,005
-489,737	367,278	-0,095	-0,140
-488,722	-200,000	-0,023	0,090
-487,708	-103,166	0,168	-0,029
-486,693	-114,538	-0,021	0,003
-485,678	126,635	-0,085	-0,079
-484,664	250,160	0,085	-0,106
-483,649	-84,084	-0,180	0,041
-482,635	-200,000	0,008	-0,032
-481,620	132,346	-0,049	-0,046
-480,605	561,235	0,043	0,076
-479,591	4,510	-0,008	-0,004
-478,576	-200,000	-0,004	-0,018
-477,562	633,968	-0,015	-0,027
-476,547	-19,352	-0,126	0,057
-475,532	-200,000	-0,002	0,020
-474,518	-131,096	0,071	-0,007
-473,503	-200,000	-0,008	0,105
-472,489	190,440	0,069	-0,076
-471,474	-47,217	0,139	0,049
-470,459	-200,000	0,009	0,035
-469,445	138,809	0,082	-0,079
-468,430	-118,398	0,055	-0,007
-467,416	47,937	-0,070	0,048
-466,401	334,342	0,109	0,154
-465,386	-200,000	-0,001	-0,016
-464,372	417,611	0,002	0,003
-463,357	800,000	-0,031	-0,097
-462,343	-38,825	-0,087	0,033
-461,328	439,041	0,064	-0,103
-460,313	-140,902	0,035	0,003
-459,299	-200,000	0,043	0,149
-458,284	-25,313	0,146	0,063
-457,270	-40,002	0,050	0,019
-456,255	-200,000	0,012	0,082
-455,241	-54,856	0,105	0,034
-454,226	-35,047	0,152	-0,060
-453,211	37,471	0,054	0,035
-452,197	130,734	0,108	0,101
-451,182	-147,459	-0,103	0,006
-450,168	-200,000	0,019	-0,085
-449,153	-69,432	-0,134	0,037
-448,138	210,301	-0,118	0,135
-447,124	-158,129	-0,064	0,003
-446,109	-200,000	-0,020	0,113
-445,095	-113,599	0,118	-0,017
-444,080	107,235	0,034	0,029
-443,065	-68,051	-0,104	0,029
-442,051	-60,029	-0,040	0,012
-441,036	-200,000	0,003	0,025
-440,022	-162,176	0,047	-0,002
-439,007	-200,000	0,006	0,099
-437,992	-133,995	0,060	0,005
-436,978	136,699	0,056	0,054
-435,963	-126,187	0,123	-0,013
-434,949	-115,755	-0,121	0,016
-433,934	-115,853	0,004	-0,000
-432,919	800,000	-0,041	-0,100
-431,905	-200,000	0,010	0,142
-430,890	-64,708	0,143	0,042
-429,876	263,853	-0,058	-0,073
-428,861	-77,757	-0,088	-0,022
-427,846	-62,049	-0,042	-0,013
-426,832	-200,000	0,022	0,107
-425,817	453,828	-0,030	0,049
-424,803	153,987	0,071	-0,071
-423,788	-10,891	-0,137	0,066
-422,773	746,604	-0,028	0,055
-421,759	-140,407	-0,059	0,004
-420,744	-84,946	0,089	-0,020
-419,730	-102,189	0,055	0,009
-418,715	68,297	-0,113	-0,084
-417,701	100,538	0,026	-0,022
-416,686	658,755	0,030	-0,057
-415,671	514,419	0,007	-0,012
-414,657	350,643	0,062	0,089
-413,642	142,229	0,063	-0,061
-412,628	-200,000	0,026	0,122
-411,613	-21,541	-0,073	-0,032
-410,598	800,000	0,042	-0,098
-409,584	-69,535	0,026	-0,007
-408,569	-75,716	0,118	-0,030
-407,555	-85,510	0,044	-0,010
-406,540	143,261	-0,050	0,048
-405,525	800,000	-0,018	-0,054
-404,511	-147,700	0,082	0,005
-403,496	180,674	-0,005	-0,005
-402,482	479,006	0,080	-0,133
-401,467	-200,000	0,011	-0,094
-400,452	-200,000	0,032	0,138
-399,438	800,000	-0,024	0,051
-398,423	136,041	-0,080	-0,076
-397,409	-200,000	-0,018	-0,137
-396,394	68,888	-0,021	0,016
-395,379	118,931	-0,023	-0,021
-394,365	-200,000	-0,016	0,095
-393,350	43,758	-0,035	0,023
-392,336	100,504	-0,072	0,061
-391,321	151,281	-0,027	0,027
-390,306	800,000	-0,033	-0,089
-389,292	-200,000	0,032	-0,154
-388,277	-9,788	-0,137	-0,066
-387,263	114,341	0,109	-0,096
-386,248	-200,000	-0,005	0,073
-385,233	-134,315	-0,084	-0,007
-384,219	-200,000	0,043	-0,145
-383,204	151,638	-0,064	-0,063
-382,190	111,476	0,089	-0,078
-381,175	800,000	-0,024	-0,073
-380,160	12,076	-0,124	-0,069
-379,146	-200,000	0,008	-0,114
-378,131	-47,313	0,092	0,032
-377,117	472,173	0,062	0,103
-376,102	800,000	-0,041	0,092
-375,088	-200,000	0,027	0,152
-374,073	-107,383	-0,189	0,030
-373,058	0,660	0,227	0,118
-372,044	-42,678	0,043	0,016
-371,029	-200,000	0,073	0,256
-370,015	-200,000	0,007	-0,045
-369,000	581,774	0,028	-0,051
-367,985	610,844	0,065	-0,118
-366,971	-48,669	-0,097	-0,034
-365,956	800,000	0,040	0,095
-364,942	-200,000	0,021	0,100
-363,927	632,663	-0,089	0,164
-362,912	430,821	0,029	-0,045
-361,898	251,890	-0,071	0,088
-360,883	21,974	0,092	-0,054
-359,869	347,785	-0,034	-0,049
-358,854	-40,386	0,131	0,049
-357,839	-200,000	0,006	0,138
-356,825	83,366	0,097	-0,076
-355,810	94,540	-0,019	0,016
-354,796	56,234	0,088	0,062
-353,781	800,000	-0,061	-0,167
-352,766	214,443	0,020	-0,023
-351,752	488,614	0,045	0,075
-350,737	-96,436	0,094	0,018
-349,723	-200,000	-0,026	0,129
-348,708	800,000	-0,036	0,090
-347,693	-199,314	-0,154	-0,001
-346,679	-120,238	0,135	-0,017
-345,664	-200,000	0,016	-0,165
-344,650	147,336	0,019	0,019
-343,635	353,238	-0,037	0,053
-342,620	-171,677	0,118	0,003
-341,606	-200,000	-0,012	0,061
-340,591	-76,757	-0,166	-0,042
-339,577	-46,003	-0,048	-0,017
-338,562	48,668	-0,132	-0,090
-337,548	239,854	-0,083	0,100
-336,533	677,272	0,083	0,156
-335,518	-200,000	0,050	0,172
-334,504	-104,703	0,068	-0,011
-333,489	233,703	0,103	0,123
-332,475	-200,000	-0,011	-0,102
-331,460	-200,000	0,008	-0,102
-330,445	65,013	-0,157	-0,114
-329,431	799,826	0,053	0,107
-328,416	39,103	0,040	-0,026
-327,402	-12,832	0,128	-0,060
-326,387	-81,771	0,034	-0,008
-325,372	-69,004	-0,070	0,020
-324,358	800,000	0,010	-0,030
-323,343	-200,000	0,039	-0,139
-322,329	-101,792	0,063	-0,011
-321,314	-72,742	0,143	0,038
-320,299	-119,941	0,085	-0,010
-319,285	-143,865	-0,113	0,008
-318,270	-200,000	-0,030	0,110
-317,256	-200,000	-0,001	-0,066
-316,241	77,161	-0,031	-0,024
-315,226	-38,585	0,181	0,069
-314,212	800,000	0,039	0,114
-313,197	-1,338	-0,056	0,028
-312,183	800,000	-0,068	0,145
-311,168	117,233	0,080	-0,071
-310,153	800,000	-0,020	-0,061
-309,139	-200,000	0,005	-0,073
-308,124	-200,000	0,012	-0,177
-307,110	229,184	0,022	0,026
-306,095	800,000	-0,026	0,064
-305,080	-200,000	0,001	0,153
-304,066	690,824	-0,030	-0,056
-303,051	301,143	0,057	0,077
-302,037	-121,552	-0,132	0,016
-301,022	-37,777	0,056	-0,022
-300,008	-69,393	-0,057	0,016
-298,993	-200,000	0,016	-0,061
-297,978	-200,000	0,010	0,148
-296,964	62,121	-0,149	-0,107
-295,949	26,137	-0,071	0,043
-294,935	-54,320	-0,076	-0,025
-293,920	5,082	0,028	-0,015
-292,905	125,661	0,192	0,175
-291,891	-54,797	-0,057	0,018
-290,876	61,813	-0,043	0,031
-289,862	-136,990	-0,105	0,009
-288,847	-200,000	-0,032	-0,145
-287,832	15,698	0,090	0,051
-286,818	-200,000	-0,017	-0,099
-285,803	-17,916	0,034	-0,015
-284,789	5,480	0,071	0,038
-283,774	-56,230	-0,192	-0,061
-282,759	36,759	-0,066	0,042
-281,745	2,766	-0,129	0,067
-280,730	800,000	0,015	0,035
-279,716	381,119	0,042	-0,062
-278,701	-87,949	0,120	-0,026
-277,686	-200,000	0,007	0,086
-276,672	-200,000	0,003	0,136
-275,657	-86,600	-0,130	0,029
-274,643	-200,000	-0,023	-0,160
-273,628	-151,734	0,054	-0,003
-272,613	339,050	-0,061	0,085
-271,599	-30,735	-0,056	-0,023
-270,584	467,340	0,034	0,055
-269,570	-200,000	0,051	0,225
-268,555	118,598	-0,063	0,056
-267,540	-138,938	-0,140	-0,011
-266,526	37,724	-0,043	-0,028
-265,511	800,000	-0,030	-0,062
-264,497	-156,457	0,150	0,007
-263,482	58,868	0,059	-0,042
-262,467	73,803	-0,107	-0,081
-261,453	-200,000	0,005	-0,048
-260,438	-200,000	0,003	0,046
-259,424	129,220	-0,127	-0,117
-258,409	118,447	0,095	-0,085
-257,395	-200,000	-0,003	0,123
-256,380	-200,000	0,028	0,122
-255,365	508,768	-0,040	0,068
-254,351	94,592	-0,047	-0,039
-253,336	5,829	0,063	0,034
-252,322	14,010	-0,032	0,018
-251,307	-200,000	0,004	-0,012
-250,292	-200,000	-0,010	0,041
-249,278	-82,257	-0,096	0,022
-248,263	44,805	0,035	0,023
-247,249	33,013	-0,070	-0,043
-246,234	402,811	-0,055	-0,083
-245,219	-200,000	0,008	-0,087
-244,205	800,000	0,057	-0,115
-243,190	190,978	-0,080	-0,087
-242,176	-13,508	-0,106	0,049
-241,161	31,241	0,045	-0,028
-240,146	-29,689	0,078	0,032
-239,132	156,349	0,006	0,006
-238,117	138,561	-0,053	-0,050
-237,103	-74,792	-0,049	-0,013
-236,088	214,317	0,057	-0,065
-235,073	-200,000	0,008	0,099
-234,059	-102,874	0,177	-0,030
-233,044	390,379	-0,059	0,088
-232,030	-200,000	-0,003	-0,157
-231,015	38,790	0,030	-0,019
-230,000	275,757	-0,138	-0,177
-228,986	-3,156	-0,030	0,015
-227,971	432,323	0,061	0,096
-226,957	-71,177	-0,105	0,028
-225,942	-103,661	-0,093	0,016
-224,927	-164,538	-0,025	-0,001
-223,913	-68,158	-0,140	0,039
-222,898	-51,839	0,083	-0,028
-221,884	277,268	-0,098	-0,126
-220,869	380,705	-0,061	-0,090
-219,855	198,331	0,046	-0,051
-218,840	-200,000	0,001	-0,044
-217,825	-20,027	-0,142	-0,063
-216,811	-36,406	0,146	0,057
-215,796	800,000	-0,041	-0,108
-214,782	478,484	-0,043	0,071
-213,767	-101,616	0,078	0,014
-212,752	48,937	-0,056	-0,038
-211,738	-200,000	-0,009	-0,162
-210,723	-121,038	-0,008	-0,001
-209,709	-7,699	-0,071	-0,035
-208,694	27,601	-0,059	-0,035
-207,679	800,000	0,019	-0,049
-206,665	160,740	0,081	0,082
-205,650	800,000	0,022	0,050
-204,636	-200,000	0,002	0,027
-203,621	-122,280	0,077	-0,009
-202,606	101,002	0,040	-0,034
-201,592	-200,000	0,018	-0,098
-200,577	22,924	-0,101	-0,059
-199,563	23,896	-0,074	-0,044
-198,548	-51,384	0,097	0,033
-197,533	586,465	-0,052	0,092
-196,519	-134,867	0,130	-0,011
-195,504	-8,633	0,043	0,021
-194,490	800,000	-0,044	-0,089
-193,475	-48,603	-0,215	-0,074
-192,460	56,616	0,095	0,067
-191,446	-131,409	0,023	0,002
-190,431	-200,000	0,003	0,038
-189,417	-75,302	-0,146	0,037
-188,402	-120,702	-0,015	-0,002
-187,387	-35,750	0,048	-0,019
-186,373	228,446	-0,064	-0,075
-185,358	-200,000	0,011	0,082
-184,344	732,530	0,034	-0,066
-183,329	785,775	-0,054	0,108
-182,315	-192,018	0,153	0,001
-181,300	800,000	-0,024	0,073
-180,285	-165,200	0,150	-0,005
-179,271	-27,718	0,019	-0,008
-178,256	-17,185	-0,050	-0,023
-177,242	-60,558	0,029	0,009
-176,227	11,137	0,069	0,038
-175,212	467,842	0,056	-0,091
-174,198	101,899	-0,117	0,099
-173,183	2,672	-0,140	-0,073
-172,169	800,000	-0,090	-0,187
-171,154	-58,747	-0,150	0,046
-170,139	374,831	0,083	-0,122
-169,125	259,211	-0,067	0,083
-168,110	-137,395	-0,146	0,012
-167,096	8,108	-0,115	-0,062
-166,081	-82,369	0,075	0,017
-165,066	174,815	0,045	0,047
-164,052	-200,000	0,038	-0,121
-163,037	499,873	-0,092	0,153
-162,023	-61,716	0,095	0,028
-161,008	142,117	-0,034	-0,033
-159,993	278,568	0,015	0,020
-158,979	314,508	-0,075	-0,102
-157,964	282,979	0,089	-0,115
-156,950	105,390	-0,017	0,015
-155,935	369,330	-0,058	0,085
-154,920	800,000	0,011	0,031
-153,906	-37,924	0,126	0,048
-152,891	-133,298	-0,090	0,008
-151,877	-15,943	0,090	-0,041
-150,862	-72,974	0,073	-0,019
-149,847	-124,647	-0,074	-0,008
-148,833	-200,000	-0,001	-0,031
-147,818	-124,702	0,027	0,003
-146,804	294,929	-0,070	-0,092
-145,789	-200,000	0,030	-0,099
-144,775	-200,000	-0,013	0,121
-143,760	-28,969	0,066	-0,027
-142,745	331,129	-0,049	0,069
-141,731	-151,268	0,158	0,008
-140,716	-200,000	0,007	-0,038
-139,702	-200,000	0,015	0,099
-138,687	231,937	0,065	0,077
-137,672	235,294	-0,041	0,049
-136,658	-200,000	-0,009	-0,036
-135,643	-200,000	-0,000	-0,080
-134,629	37,621	-0,048	0,031
-133,614	-116,390	-0,064	0,008
-132,599	-200,000	-0,019	-0,060
-131,585	148,627	-0,065	-0,064
-130,570	116,057	-0,097	-0,085
-129,556	-200,000	0,015	0,106
-128,541	-200,000	0,001	-0,035
-127,526	800,000	0,022	0,066
-126,512	20,799	-0,018	0,010
-125,497	296,290	-0,064	-0,084
-124,483	41,171	0,089	-0,058
-123,468	-200,000	0,017	-0,081
-122,453	82,624	-0,100	-0,078
-121,439	112,137	-0,100	-0,087
-120,424	800,000	0,036	-0,111
-119,410	-114,911	-0,048	-0,007
