DTS Sentinel unit serial number:	SN410029Multiplexer serial number:	ORYXHardware model number:	OX2-SRSoftware version number:	ORYX F/W v4,00 Oryx Data Collector v3.7.2.0data status	okinstallation	B5 Nyhavnadifferential loss correction	single-endedforward channel	channel 2reverse channel	N/Adate	2023/12/14time	16:47:13forward acquisition time	300,00reverse acquisition time	0,00gamma	499,1914k internal	0,3157k external	0,3157temperature offset calibration	1,0000default loss term (dB/km)	0,3820temperature slope calibration	1,0000multiplexer offset coefficient	1,0000multiplexer slope coefficient	1,0000fibre end	0,00T internal ref (°C)	8,06T ext. ref 1 (°C)	-7,39T ext. ref 2 (°C)	-7,45length (m)	temperature (°C)	Stokes	anti-Stokes-744,400	86,587	0,124	0,101
-743,385	-143,227	-0,474	0,033
-742,371	-113,075	0,185	0,027
-741,356	-3,926	-0,277	-0,141
-740,342	30,726	0,094	0,059
-739,327	-78,615	-0,415	-0,104
-738,312	40,691	0,120	0,080
-737,298	-92,618	-0,402	-0,082
-736,283	4,439	0,112	0,060
-735,269	-112,914	-0,365	-0,053
-734,254	486,556	0,091	0,154
-733,239	-26,545	-0,528	-0,227
-732,225	-82,683	0,153	-0,036
-731,210	209,605	0,019	0,022
-730,196	-137,706	0,026	0,002
-729,181	-167,546	-0,137	0,004
-728,167	-18,504	0,106	-0,049
-727,152	-85,290	-0,081	-0,018
-726,137	-18,446	-0,114	-0,052
-725,123	-179,068	-0,043	-0,001
-724,108	-69,866	-0,175	-0,049
-723,094	793,654	-0,065	-0,132
-722,079	-27,872	-0,210	-0,089
-721,064	465,674	-0,026	-0,044
-720,050	-147,135	-0,029	0,002
-719,035	-200,000	0,025	-0,092
-718,021	-149,209	-0,092	-0,005
-717,006	77,861	-0,150	-0,117
-715,991	800,000	-0,037	-0,110
-714,977	800,000	-0,031	0,074
-713,962	-54,718	0,199	0,066
-712,948	-161,881	0,099	-0,004
-711,933	55,199	0,109	0,077
-710,918	791,797	0,036	0,072
-709,904	-143,518	0,084	0,006
-708,889	-200,000	0,014	-0,146
-707,875	-200,000	-0,008	0,062
-706,860	101,247	0,056	0,048
-705,845	-200,000	0,003	0,011
-704,831	189,438	-0,026	-0,029
-703,816	692,969	0,033	0,065
-702,802	-35,487	0,048	-0,019
-701,787	193,409	0,090	-0,101
-700,772	-200,000	-0,005	-0,113
-699,758	697,460	0,034	0,066
-698,743	258,197	-0,021	-0,027
-697,729	-30,312	0,088	-0,036
-696,714	-157,856	0,175	-0,008
-695,699	191,559	0,083	-0,092
-694,685	96,137	-0,066	-0,056
-693,670	131,569	-0,102	-0,096
-692,656	-200,000	-0,029	0,116
-691,641	-200,000	-0,005	0,080
-690,627	13,625	-0,052	0,030
-689,612	-3,497	0,073	-0,037
-688,597	800,000	-0,033	-0,089
-687,583	800,000	-0,044	-0,103
-686,568	93,914	0,026	-0,021
-685,554	-200,000	0,060	0,000
-684,539	-35,267	-0,048	-0,019
-683,524	-101,864	0,117	-0,021
-682,510	-0,172	0,112	-0,058
-681,495	-39,370	-0,059	-0,023
-680,481	-28,358	-0,037	0,016
-679,466	66,997	-0,084	-0,063
-678,451	-111,379	-0,096	-0,014
-677,437	220,633	-0,050	0,059
-676,422	216,975	-0,052	0,061
-675,408	-200,000	-0,052	0,182
-674,393	-32,191	0,066	0,027
-673,378	-109,679	-0,083	-0,013
-672,364	-47,725	0,157	0,056
-671,349	-200,000	-0,005	-0,087
-670,335	662,952	0,014	-0,027
-669,320	-200,000	-0,011	-0,137
-668,305	-75,160	0,094	-0,025
-667,291	21,846	-0,158	-0,094
-666,276	800,000	-0,050	0,131
-665,262	81,397	-0,120	-0,095
-664,247	-148,430	-0,026	0,002
-663,232	800,000	-0,012	0,027
-662,218	84,628	0,076	0,061
-661,203	-200,000	-0,002	-0,050
-660,189	515,874	0,049	-0,084
-659,174	-28,059	-0,044	0,018
-658,159	-120,774	-0,135	-0,017
-657,145	800,000	-0,060	-0,153
-656,130	-200,000	0,038	0,156
-655,116	410,260	-0,054	-0,084
-654,101	-200,000	-0,014	0,140
-653,086	104,021	-0,011	-0,009
-652,072	448,497	-0,085	-0,138
-651,057	-76,425	-0,088	-0,023
-650,043	91,187	-0,118	-0,097
-649,028	-40,543	0,100	-0,038
-648,014	37,414	-0,055	-0,036
-646,999	-200,000	0,004	0,131
-645,984	366,080	0,033	0,050
-644,970	-200,000	0,002	0,028
-643,955	58,247	0,065	-0,047
-642,941	-89,449	0,019	0,004
-641,926	414,126	-0,013	-0,020
-640,911	5,410	0,043	0,023
-639,897	-122,252	-0,123	-0,015
-638,882	-200,000	0,003	0,069
-637,868	109,077	-0,012	-0,011
-636,853	-23,784	0,015	0,007
-635,838	-66,701	-0,170	0,049
-634,824	27,156	0,086	0,053
-633,809	133,664	0,060	-0,057
-632,795	623,448	0,060	0,111
-631,780	-27,599	0,066	0,028
-630,765	778,372	-0,039	-0,078
-629,751	577,602	-0,055	-0,099
-628,736	-45,779	0,031	0,011
-627,722	121,838	-0,026	0,024
-626,707	800,000	-0,015	-0,035
-625,692	305,019	-0,083	0,113
-624,678	-200,000	-0,017	-0,177
-623,663	242,445	0,031	-0,038
-622,649	416,940	-0,045	0,071
-621,634	-200,000	0,007	-0,072
-620,619	-23,689	-0,033	0,014
-619,605	800,000	-0,037	0,097
-618,590	426,781	-0,078	0,124
-617,576	724,544	-0,013	0,026
-616,561	-70,811	-0,123	0,034
-615,546	192,464	-0,093	-0,103
-614,532	-49,555	-0,055	-0,019
-613,517	126,351	-0,122	-0,113
-612,503	402,591	-0,052	-0,080
-611,488	800,000	0,024	-0,057
-610,474	-200,000	-0,035	0,159
-609,459	-21,071	0,162	-0,073
-608,444	222,425	-0,073	0,086
-607,430	-200,000	0,003	-0,033
-606,415	18,589	0,093	0,054
-605,401	335,449	-0,064	0,091
-604,386	44,513	0,097	0,065
-603,371	57,370	-0,113	0,081
-602,357	89,463	0,005	-0,004
-601,342	800,000	0,017	0,051
-600,328	-200,000	-0,007	-0,222
-599,313	172,757	-0,083	-0,087
-598,298	500,878	-0,033	-0,056
-597,284	-79,977	0,029	-0,007
-596,269	21,282	-0,102	-0,061
-595,255	-169,354	-0,039	0,001
-594,240	278,781	-0,091	-0,120
-593,225	-156,963	-0,062	-0,003
-592,211	-28,600	-0,067	0,028
-591,196	234,097	0,114	-0,138
-590,182	-123,143	0,128	-0,015
-589,167	121,155	-0,054	-0,049
-588,152	-200,000	-0,042	-0,144
-587,138	59,734	-0,102	-0,074
-586,123	711,827	-0,066	-0,129
-585,109	800,000	0,023	0,060
-584,094	800,000	-0,009	0,025
-583,079	762,827	-0,027	0,054
-582,065	-5,741	-0,049	0,024
-581,050	268,118	-0,060	-0,077
-580,036	800,000	-0,026	-0,056
-579,021	-105,999	-0,152	0,025
-578,006	-200,000	-0,026	0,139
-576,992	2,193	0,099	-0,052
-575,977	79,064	0,006	-0,005
-574,963	59,426	-0,108	0,078
-573,948	-12,852	0,064	0,030
-572,934	-34,745	-0,107	-0,043
-571,919	-200,000	0,010	-0,040
-570,904	-9,280	-0,114	0,055
-569,890	-67,283	0,111	0,032
-568,875	800,000	0,036	0,089
-567,861	5,201	-0,030	-0,016
-566,846	-50,977	0,175	-0,060
-565,831	49,028	0,090	-0,062
-564,817	277,087	-0,060	-0,079
-563,802	800,000	-0,035	-0,099
-562,788	-89,670	-0,107	-0,023
-561,773	44,244	-0,035	0,024
-560,758	294,796	-0,027	0,036
-559,744	271,239	0,038	-0,049
-558,729	-121,364	-0,183	-0,022
-557,715	46,552	0,131	-0,089
-556,700	137,748	0,038	-0,037
-555,685	234,183	-0,085	-0,103
-554,671	-91,809	0,209	-0,043
-553,656	-200,000	0,029	0,099
-552,642	161,373	0,064	0,066
-551,627	-44,674	0,079	0,029
-550,612	-200,000	0,018	0,113
-549,598	-117,120	-0,181	-0,024
-548,583	-200,000	0,003	0,060
-547,569	-200,000	0,020	-0,074
-546,554	315,323	-0,035	0,049
-545,539	-200,000	-0,006	0,095
-544,525	-59,398	-0,077	0,024
-543,510	-200,000	-0,013	0,074
-542,496	310,616	-0,084	0,115
-541,481	276,459	0,034	0,044
-540,466	800,000	0,011	-0,030
-539,452	639,165	0,060	0,112
-538,437	800,000	-0,010	0,024
-537,423	71,222	0,026	0,019
-536,408	-200,000	-0,031	-0,102
-535,393	790,720	0,028	0,056
-534,379	131,817	0,078	0,074
-533,364	-49,478	0,036	0,013
-532,350	147,887	0,053	0,052
-531,335	625,678	0,055	-0,102
-530,321	-23,976	-0,034	-0,015
-529,306	305,855	-0,074	0,100
-528,291	80,199	-0,109	-0,086
-527,277	46,677	-0,038	-0,026
-526,262	-200,000	-0,007	0,059
-525,248	-130,383	0,089	0,009
-524,233	407,841	0,040	0,062
-523,218	800,000	0,025	0,064
-522,204	29,707	-0,052	0,032
-521,189	137,797	-0,014	0,013
-520,175	18,681	-0,087	-0,051
-519,160	27,299	0,057	-0,035
-518,145	-200,000	-0,065	0,247
-517,131	-54,887	-0,021	0,007
-516,116	-49,011	0,109	-0,038
-515,102	800,000	-0,038	-0,121
-514,087	800,000	-0,058	-0,140
-513,072	-92,168	-0,125	-0,026
-512,058	-200,000	-0,012	0,081
-511,043	-90,291	0,113	0,024
-510,029	-200,000	-0,013	0,158
-509,014	393,031	0,066	-0,100
-507,999	-200,000	-0,003	-0,027
-506,985	-39,759	0,023	0,009
-505,970	213,683	0,015	-0,018
-504,956	-44,536	0,191	0,070
-503,941	800,000	0,058	-0,170
-502,926	-34,281	0,103	0,041
-501,912	-200,000	-0,019	0,107
-500,897	12,463	-0,071	-0,040
-499,883	-55,427	0,035	0,011
-498,868	70,433	-0,098	-0,074
-497,853	-200,000	0,003	-0,103
-496,839	800,000	0,038	0,082
-495,824	-156,694	0,162	-0,007
-494,810	-14,337	-0,134	-0,063
-493,795	-200,000	-0,012	0,046
-492,781	-79,285	-0,030	-0,007
-491,766	14,086	-0,083	-0,047
-490,751	-200,000	0,015	-0,141
-489,737	207,427	0,030	-0,035
-488,722	-24,593	0,056	-0,024
-487,708	70,305	-0,032	0,024
-486,693	742,324	-0,057	0,113
-485,678	185,555	0,052	0,057
-484,664	261,121	-0,115	-0,146
-483,649	520,138	-0,061	-0,105
-482,635	107,659	0,035	0,031
-481,620	-28,809	0,196	0,082
-480,605	285,888	-0,069	0,091
-479,591	126,743	0,077	-0,071
-478,576	-127,747	0,098	-0,010
-477,562	-157,024	0,092	-0,004
-476,547	800,000	0,093	-0,201
-475,532	347,897	-0,048	0,069
-474,518	84,919	0,080	0,064
-473,503	106,179	0,067	-0,058
-472,489	-30,749	-0,090	0,037
-471,474	800,000	-0,033	0,072
-470,459	-68,938	0,127	-0,035
-469,445	-200,000	-0,015	-0,068
-468,430	59,754	0,129	0,093
-467,416	-101,745	-0,076	0,013
-466,401	480,892	0,042	0,070
-465,386	118,442	0,081	0,073
-464,372	-139,963	0,083	0,006
-463,357	30,092	-0,154	0,096
-462,343	-200,000	0,008	-0,084
-461,328	2,915	-0,126	0,066
-460,313	131,512	0,182	0,170
-459,299	800,000	-0,062	0,163
-458,284	36,085	0,084	-0,054
-457,270	800,000	-0,044	0,116
-456,255	338,169	0,003	0,004
-455,241	204,931	0,016	-0,018
-454,226	187,453	0,076	-0,082
-453,211	-134,953	0,085	-0,007
-452,197	451,955	0,109	0,176
-451,182	6,034	-0,103	0,055
-450,168	223,178	0,091	-0,107
-449,153	-84,537	0,057	-0,013
-448,138	-200,000	0,006	-0,066
-447,124	-200,000	-0,003	0,013
-446,109	-4,250	-0,063	0,032
-445,095	21,904	0,170	0,100
-444,080	-13,678	0,065	0,031
-443,065	800,000	-0,015	0,034
-442,051	-200,000	-0,034	0,139
-441,036	800,000	-0,055	-0,158
-440,022	-200,000	-0,011	-0,039
-439,007	121,899	-0,073	-0,067
-437,992	43,225	0,027	-0,018
-436,978	-11,419	-0,005	0,002
-435,963	-73,882	-0,128	0,034
-434,949	199,379	-0,067	0,075
-433,934	151,307	-0,103	-0,102
-432,919	-13,268	-0,069	-0,033
-431,905	-200,000	-0,017	0,092
-430,890	337,668	0,053	-0,075
-429,876	-78,119	0,048	-0,012
-428,861	25,122	-0,052	0,031
-427,846	315,096	0,049	0,068
-426,832	-147,522	0,092	0,006
-425,817	-88,367	0,081	0,018
-424,803	800,000	-0,040	-0,082
-423,788	800,000	0,017	0,051
-422,773	390,376	-0,036	0,054
-421,759	-35,450	0,106	-0,042
-420,744	-189,803	0,114	-0,001
-419,730	365,956	-0,111	-0,164
-418,715	191,831	-0,038	0,042
-417,701	-200,000	-0,006	-0,045
-416,686	105,663	0,065	0,056
-415,671	-9,666	0,088	0,043
-414,657	60,271	-0,102	-0,073
-413,642	35,284	0,080	0,051
-412,628	-200,000	0,000	-0,035
-411,613	485,056	-0,045	-0,075
-410,598	77,097	0,047	-0,037
-409,584	-118,735	0,081	-0,010
-408,569	185,886	0,077	-0,084
-407,555	-200,000	0,007	0,110
-406,540	354,320	0,046	-0,066
-405,525	427,417	-0,006	0,010
-404,511	143,122	-0,026	-0,025
-403,496	-200,000	-0,013	0,070
-402,482	47,997	0,052	0,035
-401,467	-200,000	0,023	0,158
-400,452	-200,000	-0,002	-0,065
-399,438	-200,000	-0,004	-0,033
-398,423	80,760	-0,083	0,065
-397,409	-3,080	0,035	-0,018
-396,394	-158,145	-0,092	0,004
-395,379	608,672	0,048	-0,087
-394,365	-200,000	0,009	0,126
-393,350	-37,120	0,061	0,024
-392,336	-200,000	-0,026	0,126
-391,321	-200,000	-0,004	0,024
-390,306	800,000	-0,065	-0,144
-389,292	-66,521	0,031	-0,009
-388,277	-90,531	0,111	0,023
-387,263	-200,000	-0,005	-0,036
-386,248	202,326	0,121	0,136
-385,233	-49,474	0,052	-0,018
-384,219	532,924	0,044	0,075
-383,204	20,028	-0,093	-0,054
-382,190	-1,135	0,158	0,081
-381,175	-6,796	-0,080	-0,039
-380,160	11,931	-0,032	-0,018
-379,146	800,000	0,039	0,079
-378,131	340,951	0,030	0,043
-377,117	34,793	-0,065	-0,041
-376,102	-200,000	-0,007	-0,179
-375,088	-200,000	0,011	0,055
-374,073	-200,000	0,021	-0,101
-373,058	800,000	0,018	-0,043
-372,044	-178,932	0,111	0,002
-371,029	-155,709	0,107	-0,005
-370,015	15,166	-0,101	0,057
-369,000	-37,529	-0,106	-0,041
-367,985	477,741	-0,045	-0,074
-366,971	-189,979	-0,089	0,001
-365,956	-140,266	-0,054	-0,004
-364,942	631,780	0,052	0,097
-363,927	-200,000	0,056	0,000
-362,912	-143,844	-0,148	0,010
-361,898	-200,000	0,014	0,056
-360,883	-200,000	-0,004	0,020
-359,869	-200,000	0,007	0,045
-358,854	-200,000	0,007	0,085
-357,839	446,835	-0,024	-0,039
-356,825	669,952	0,069	-0,130
-355,810	800,000	0,039	-0,119
-354,796	-200,000	0,003	0,038
-353,781	-200,000	-0,000	-0,025
-352,766	130,311	0,096	0,089
-351,752	12,515	0,113	0,063
-350,737	-200,000	0,006	0,056
-349,723	800,000	-0,046	-0,113
-348,708	39,697	0,126	0,082
-347,693	160,175	-0,129	0,131
-346,679	-200,000	-0,007	0,028
-345,664	33,940	-0,076	-0,048
-344,650	51,966	0,040	-0,027
-343,635	-200,000	0,019	0,094
-342,620	80,854	-0,065	0,051
-341,606	-72,387	-0,140	0,037
-340,591	-200,000	0,017	0,056
-339,577	-56,417	0,081	0,026
-338,562	-88,810	-0,107	-0,023
-337,548	-126,160	-0,084	0,009
-336,533	-36,442	-0,151	-0,059
-335,518	17,939	0,051	0,030
-334,504	425,700	-0,055	0,086
-333,489	-20,472	-0,062	-0,028
-332,475	800,000	-0,044	-0,091
-331,460	-73,950	0,127	-0,033
-330,445	4,473	-0,136	-0,072
-329,431	800,000	0,018	-0,052
-328,416	-98,764	0,033	-0,006
-327,402	599,269	0,029	-0,052
-326,387	102,996	-0,019	0,016
-325,372	133,674	-0,082	-0,077
-324,358	-61,809	-0,154	0,047
-323,343	-37,505	-0,058	0,022
-322,329	-117,948	0,083	0,011
-321,314	183,035	0,098	0,105
-320,299	-41,737	-0,103	0,038
-319,285	-200,000	0,017	0,131
-318,270	177,193	-0,098	0,104
-317,256	-124,137	0,095	0,011
-316,241	234,690	0,043	-0,051
-315,226	143,248	-0,033	-0,032
-314,212	800,000	0,036	-0,076
-313,197	196,645	0,008	-0,008
-312,183	506,751	-0,058	-0,098
-311,168	800,000	-0,027	-0,065
-310,153	-200,000	-0,034	-0,193
-309,139	770,463	0,024	-0,048
-308,124	-200,000	-0,003	-0,013
-307,110	-2,088	0,166	0,084
-306,095	-54,225	-0,038	-0,012
-305,080	193,400	-0,091	0,100
-304,066	251,710	-0,091	-0,113
-303,051	754,925	-0,061	-0,121
-302,037	-41,046	-0,143	-0,053
-301,022	151,551	-0,066	-0,066
-300,008	-168,055	0,131	-0,004
-298,993	82,807	0,087	0,068
-297,978	-126,897	0,076	0,008
-296,964	800,000	0,075	-0,153
-295,949	176,027	0,082	-0,087
-294,935	-200,000	0,001	0,015
-293,920	238,923	0,039	-0,047
-292,905	-200,000	0,021	0,080
-291,891	126,238	0,160	0,147
-290,876	800,000	-0,017	-0,048
-289,862	-182,979	-0,141	-0,002
-288,847	31,060	-0,047	-0,029
-287,832	297,919	-0,044	0,059
-286,818	-56,073	0,061	0,020
-285,803	15,974	0,025	0,014
-284,789	-200,000	-0,011	0,127
-283,774	800,000	-0,057	0,144
-282,759	144,975	-0,075	-0,073
-281,745	-87,575	0,139	0,030
-280,730	2,954	-0,113	-0,059
-279,716	-200,000	0,045	-0,163
-278,701	508,577	0,071	0,120
-277,686	-29,277	0,094	-0,039
-276,672	-200,000	0,005	-0,031
-275,657	-127,641	0,070	-0,007
-274,643	147,710	-0,039	-0,038
-273,628	481,045	-0,024	-0,039
-272,613	80,448	0,088	-0,069
-271,599	800,000	-0,042	-0,106
-270,584	800,000	-0,051	-0,139
-269,570	147,704	-0,064	0,063
-268,555	800,000	0,027	0,073
-267,540	9,847	-0,132	-0,072
-266,526	-85,798	-0,167	-0,037
-265,511	-38,769	-0,106	0,040
-264,497	53,154	0,062	-0,043
-263,482	-15,899	0,055	0,025
-262,467	-200,000	0,059	0,198
-261,453	-108,773	-0,013	0,002
-260,438	-200,000	-0,002	-0,069
-259,424	-126,896	0,060	0,006
-258,409	800,000	0,019	0,047
-257,395	-62,117	-0,116	0,035
-256,380	62,506	0,120	0,087
-255,365	-200,000	0,016	-0,105
-254,351	-200,000	-0,003	-0,047
-253,336	-200,000	0,024	-0,100
-252,322	43,794	0,102	-0,067
-251,307	184,943	-0,103	-0,111
-250,292	197,084	-0,083	-0,092
-249,278	-32,447	0,169	-0,068
-248,263	-66,798	0,161	-0,046
-247,249	4,594	-0,050	-0,027
-246,234	-200,000	0,002	-0,051
-245,219	-200,000	0,034	-0,141
-244,205	800,000	-0,066	-0,159
-243,190	-200,000	0,030	-0,106
-242,176	53,601	0,102	-0,071
-241,161	566,929	0,037	0,066
-240,146	391,240	0,099	-0,150
-239,132	626,562	-0,041	-0,076
-238,117	800,000	-0,032	-0,094
-237,103	188,999	-0,079	-0,086
-236,088	800,000	0,052	0,140
-235,073	196,277	0,047	-0,052
-234,059	77,865	-0,090	0,070
-233,044	-200,000	-0,026	0,111
-232,030	-52,828	0,042	-0,014
-231,015	88,734	0,017	-0,014
-230,000	-142,033	-0,060	-0,004
-228,986	-4,589	-0,179	0,089
-227,971	-58,416	0,111	-0,035
-226,957	-140,482	-0,117	0,009
-225,942	53,726	0,014	-0,010
-224,927	210,465	-0,043	0,049
-223,913	-200,000	0,023	-0,082
-222,898	800,000	0,041	0,102
-221,884	223,075	-0,101	0,118
-220,869	-200,000	0,014	0,054
-219,855	-61,220	0,066	-0,020
-218,840	-105,363	0,051	0,008
-217,825	80,200	0,124	0,096
-216,811	-86,686	-0,111	0,024
-215,796	145,581	-0,114	-0,110
-214,782	752,658	0,076	0,149
-213,767	115,762	0,058	-0,051
-212,752	214,354	0,055	-0,063
-211,738	75,260	0,064	0,049
-210,723	-200,000	-0,028	0,297
-209,709	36,792	-0,114	0,073
-208,694	-200,000	-0,013	-0,079
-207,679	127,052	0,046	0,042
-206,665	-103,063	-0,048	0,008
-205,650	73,840	-0,035	0,026
-204,636	-7,639	0,084	0,041
-203,621	115,165	-0,038	-0,033
-202,606	-88,521	-0,180	0,038
-201,592	643,023	-0,044	0,082
-200,577	-129,407	-0,079	-0,008
-199,563	85,746	0,058	0,046
-198,548	-85,596	0,179	0,040
-197,533	678,022	-0,019	-0,036
-196,519	-121,206	-0,045	-0,005
-195,504	-200,000	0,004	-0,019
-194,490	-200,000	-0,024	-0,086
-193,475	-44,072	0,149	0,054
-192,460	35,212	-0,077	-0,048
-191,446	-13,633	0,141	0,066
-190,431	-75,529	-0,153	0,039
-189,417	-200,000	-0,013	-0,139
-188,402	193,198	-0,077	0,084
-187,387	-56,978	-0,086	0,027
-186,373	-13,244	0,111	-0,052
-185,358	111,980	-0,084	-0,074
-184,344	-81,026	0,135	0,032
-183,329	308,517	-0,044	0,059
-182,315	800,000	-0,047	-0,109
-181,300	63,061	-0,113	-0,082
-180,285	46,549	0,024	-0,016
-179,271	800,000	-0,052	-0,152
-178,256	511,839	0,064	0,108
-177,242	-57,521	0,116	0,036
-176,227	316,982	-0,013	-0,018
-175,212	800,000	0,062	0,127
-174,198	14,953	-0,028	0,016
-173,183	-200,000	-0,009	-0,082
-172,169	64,356	-0,082	-0,059
-171,154	-200,000	0,008	-0,027
-170,139	-73,154	-0,072	-0,019
-169,125	-200,000	-0,007	0,031
-168,110	561,917	-0,070	0,122
-167,096	-200,000	0,015	0,159
-166,081	-9,861	-0,036	-0,017
-165,066	800,000	-0,028	0,087
-164,052	96,140	-0,080	-0,066
-163,037	-36,219	0,189	0,073
-162,023	32,002	0,124	0,077
-161,008	800,000	0,017	-0,037
-159,993	-200,000	0,012	0,105
-158,979	-150,040	0,072	0,004
-157,964	-65,980	0,073	-0,021
-156,950	-36,763	-0,005	-0,002
-155,935	227,486	-0,013	0,016
-154,920	89,711	0,001	-0,001
-153,906	-100,582	-0,063	-0,011
-152,891	38,788	0,167	-0,107
-151,877	-200,000	-0,007	-0,193
-150,862	465,854	-0,084	-0,136
-149,847	47,667	-0,056	0,038
-148,833	-43,761	0,025	-0,009
-147,818	526,378	0,043	-0,074
-146,804	519,198	0,056	0,095
-145,789	-18,412	0,080	0,036
-144,775	800,000	0,054	-0,117
-143,760	67,284	0,023	0,017
-142,745	800,000	-0,023	-0,057
-141,731	35,928	0,066	0,042
-140,716	-129,522	0,046	0,004
-139,702	800,000	0,026	-0,059
-138,687	114,325	-0,065	0,057
-137,672	-200,000	-0,021	0,079
-136,658	-99,356	-0,119	-0,021
-135,643	800,000	-0,053	-0,139
-134,629	221,983	-0,015	0,018
-133,614	800,000	0,036	0,111
-132,599	335,340	0,028	0,039
-131,585	-200,000	0,033	0,127
-130,570	-200,000	0,002	-0,152
-129,556	349,411	-0,077	-0,109
-128,541	-200,000	0,000	0,068
-127,526	20,477	-0,127	-0,074
-126,512	-200,000	-0,007	-0,030
-125,497	3,995	0,116	0,061
-124,483	-200,000	-0,018	0,079
-123,468	-11,762	0,032	0,015
-122,453	-72,565	0,139	-0,037
-121,439	63,925	-0,058	-0,042
-120,424	330,403	-0,048	-0,067
-119,410	-12,332	0,122	0,057
-118,395	-71,419	0,057	0,015
