DTS Sentinel unit serial number:	SN410029Multiplexer serial number:	ORYXHardware model number:	OX2-SRSoftware version number:	ORYX F/W v4,00 Oryx Data Collector v3.7.2.0data status	okinstallation	B5 Nyhavnadifferential loss correction	single-endedforward channel	channel 2reverse channel	N/Adate	2023/12/11time	19:37:13forward acquisition time	300,00reverse acquisition time	0,00gamma	499,1914k internal	0,3159k external	0,3159temperature offset calibration	1,0000default loss term (dB/km)	0,3820temperature slope calibration	1,0000multiplexer offset coefficient	1,0000multiplexer slope coefficient	1,0000fibre end	0,00T internal ref (°C)	15,69T ext. ref 1 (°C)	-0,04T ext. ref 2 (°C)	-0,26length (m)	temperature (°C)	Stokes	anti-Stokes-744,400	800,000	-0,027	-0,064
-743,385	-93,749	-0,280	-0,056
-742,371	-15,745	0,116	0,054
-741,356	191,166	-0,120	0,134
-740,342	-6,906	0,110	0,055
-739,327	-87,962	-0,212	-0,047
-738,312	-28,657	0,129	0,055
-737,298	-153,871	-0,278	-0,014
-736,283	-200,000	0,012	0,043
-735,269	-104,886	-0,186	0,031
-734,254	-200,000	0,001	0,041
-733,239	-89,883	-0,536	-0,114
-732,225	-100,092	0,183	0,033
-731,210	-200,000	0,015	0,082
-730,196	-136,244	-0,139	-0,012
-729,181	-75,775	0,019	-0,005
-728,167	800,000	0,036	0,093
-727,152	100,925	0,144	0,123
-726,137	75,630	-0,114	-0,088
-725,123	560,355	0,021	0,038
-724,108	-7,469	-0,161	-0,080
-723,094	187,072	-0,169	-0,185
-722,079	104,576	-0,096	-0,083
-721,064	4,884	-0,057	-0,031
-720,050	-200,000	-0,004	0,029
-719,035	239,787	-0,079	0,097
-718,021	800,000	-0,028	0,086
-717,006	800,000	-0,036	-0,096
-715,991	68,386	-0,129	-0,097
-714,977	-200,000	0,014	-0,075
-713,962	-200,000	-0,008	-0,058
-712,948	1,365	-0,104	-0,055
-711,933	-10,889	0,038	0,019
-710,918	-105,484	0,028	0,005
-709,904	-43,699	-0,040	-0,015
-708,889	-20,979	0,029	-0,013
-707,875	800,000	-0,064	-0,185
-706,860	-200,000	-0,001	0,039
-705,845	150,921	0,019	-0,019
-704,831	-200,000	0,021	0,130
-703,816	-32,252	0,087	0,035
-702,802	-200,000	0,004	0,113
-701,787	65,843	0,046	0,034
-700,772	800,000	0,052	0,135
-699,758	626,275	-0,020	-0,037
-698,743	-111,248	0,050	-0,007
-697,729	-93,170	-0,096	-0,019
-696,714	623,944	0,045	0,084
-695,699	-182,664	-0,120	0,002
-694,685	-200,000	-0,007	-0,101
-693,670	800,000	-0,028	0,075
-692,656	85,840	-0,094	-0,076
-691,641	800,000	0,031	-0,065
-690,627	-200,000	0,006	0,043
-689,612	-149,579	0,063	0,004
-688,597	-106,842	-0,106	0,017
-687,583	-190,323	-0,090	0,001
-686,568	-135,716	0,076	0,007
-685,554	434,183	-0,019	0,030
-684,539	151,434	0,112	-0,112
-683,524	12,328	0,042	-0,024
-682,510	41,679	0,060	-0,040
-681,495	-200,000	0,044	-0,164
-680,481	91,062	-0,024	-0,019
-679,466	62,460	-0,100	-0,073
-678,451	-18,509	-0,069	-0,032
-677,437	-200,000	0,004	-0,039
-676,422	437,578	-0,010	0,016
-675,408	-200,000	0,013	-0,056
-674,393	-31,933	0,045	0,018
-673,378	-200,000	0,011	-0,152
-672,364	800,000	-0,082	-0,179
-671,349	36,689	0,049	0,032
-670,335	172,217	-0,047	0,050
-669,320	355,557	0,048	-0,071
-668,305	463,377	0,031	0,050
-667,291	-200,000	-0,030	-0,135
-666,276	180,120	0,126	-0,136
-665,262	-24,013	-0,036	-0,016
-664,247	673,403	-0,059	-0,114
-663,232	-37,492	0,065	-0,026
-662,218	251,927	-0,021	0,026
-661,203	158,606	-0,030	-0,030
-660,189	-200,000	-0,003	0,080
-659,174	52,255	-0,072	0,050
-658,159	-14,286	-0,174	0,082
-657,145	-200,000	-0,030	-0,126
-656,130	-200,000	0,000	0,062
-655,116	800,000	-0,064	0,154
-654,101	251,944	0,053	0,067
-653,086	-200,000	0,018	0,071
-652,072	-24,698	-0,073	0,032
-651,057	19,662	-0,045	-0,027
-650,043	-74,281	-0,085	0,022
-649,028	-200,000	-0,014	-0,153
-648,014	-172,862	-0,052	0,001
-646,999	-71,840	0,123	-0,034
-645,984	-41,344	-0,074	-0,028
-644,970	-200,000	-0,039	-0,235
-643,955	372,157	-0,076	-0,114
-642,941	447,771	0,026	-0,043
-641,926	-96,506	0,045	0,009
-640,911	-200,000	0,018	0,129
-639,897	-108,722	0,085	-0,013
-638,882	-200,000	0,001	-0,101
-637,868	-104,166	0,146	0,025
-636,853	-200,000	0,007	-0,164
-635,838	-128,696	-0,070	-0,007
-634,824	663,805	-0,085	-0,161
-633,809	800,000	0,049	0,100
-632,795	577,145	0,022	-0,039
-631,780	-200,000	-0,002	0,039
-630,765	-200,000	0,003	0,076
-629,751	124,803	-0,096	-0,089
-628,736	279,523	-0,015	-0,020
-627,722	800,000	-0,039	-0,098
-626,707	-200,000	0,014	0,100
-625,692	800,000	0,015	0,041
-624,678	294,155	-0,061	-0,082
-623,663	-200,000	-0,007	0,137
-622,649	-200,000	-0,005	-0,022
-621,634	-29,744	-0,100	-0,042
-620,619	384,738	0,024	-0,036
-619,605	-200,000	-0,047	-0,189
-618,590	-200,000	0,034	0,120
-617,576	788,875	-0,029	0,060
-616,561	-200,000	0,007	0,060
-615,546	-26,264	0,051	0,022
-614,532	-99,809	0,051	0,009
-613,517	30,611	0,064	-0,040
-612,503	83,825	0,089	-0,071
-611,488	-200,000	0,000	0,048
-610,474	323,063	0,011	-0,015
-609,459	507,270	0,004	0,007
-608,444	-21,228	-0,027	0,012
-607,430	780,217	-0,032	0,064
-606,415	-11,874	-0,035	0,017
-605,401	-152,632	0,075	0,004
-604,386	163,067	0,097	0,100
-603,371	255,894	-0,103	0,130
-602,357	303,426	-0,031	-0,042
-601,342	350,929	0,092	-0,134
-600,328	103,843	-0,119	0,102
-599,313	10,689	-0,065	-0,036
-598,298	-200,000	0,003	0,058
-597,284	-200,000	-0,003	0,046
-596,269	-200,000	-0,032	0,174
-595,255	246,622	0,059	-0,073
-594,240	491,482	-0,033	0,055
-593,225	200,245	-0,022	0,025
-592,211	30,985	0,053	-0,033
-591,196	800,000	-0,039	-0,089
-590,182	150,069	0,032	0,032
-589,167	41,377	-0,021	0,014
-588,152	201,894	-0,045	-0,051
-587,138	800,000	0,030	-0,087
-586,123	39,907	0,050	-0,033
-585,109	28,166	-0,054	-0,033
-584,094	-118,915	-0,076	-0,010
-583,079	-13,356	0,046	0,022
-582,065	115,836	0,126	0,113
-581,050	-200,000	0,015	0,086
-580,036	118,400	-0,088	0,079
-579,021	645,502	0,024	-0,045
-578,006	257,641	0,032	-0,041
-576,992	-56,308	-0,049	0,016
-575,977	-200,000	0,015	0,092
-574,963	82,669	0,143	0,114
-573,948	252,666	-0,041	0,051
-572,934	-59,141	-0,055	-0,017
-571,919	197,118	0,044	-0,049
-570,904	646,233	0,055	-0,104
-569,890	-110,374	-0,093	0,014
-568,875	193,408	-0,075	0,083
-567,861	551,614	-0,026	0,046
-566,846	581,409	-0,046	0,083
-565,831	-20,689	0,124	0,056
-564,817	-200,000	-0,013	-0,044
-563,802	23,351	0,119	0,072
-562,788	-152,099	-0,053	0,003
-561,773	-200,000	-0,023	-0,110
-560,758	250,590	0,034	0,043
-559,744	-200,000	-0,016	-0,086
-558,729	228,057	-0,082	-0,098
-557,715	-200,000	0,000	0,093
-556,700	67,621	-0,093	-0,069
-555,685	774,472	0,056	-0,113
-554,671	146,769	0,031	0,030
-553,656	-200,000	0,018	-0,099
-552,642	-200,000	0,002	-0,154
-551,627	24,678	0,016	0,010
-550,612	-90,161	-0,172	0,036
-549,598	-200,000	0,025	-0,134
-548,583	-49,658	-0,040	-0,014
-547,569	-116,409	-0,045	0,006
-546,554	-200,000	-0,026	-0,105
-545,539	-63,701	-0,073	0,022
-544,525	81,471	0,021	0,016
-543,510	800,000	0,013	-0,033
-542,496	-171,777	-0,073	0,002
-541,481	-200,000	0,006	0,068
-540,466	148,918	-0,054	-0,054
-539,452	157,624	0,011	0,011
-538,437	-200,000	0,004	0,051
-537,423	-200,000	0,013	0,057
-536,408	667,988	-0,034	-0,065
-535,393	-14,243	-0,088	-0,041
-534,379	-200,000	-0,007	-0,100
-533,364	-200,000	0,000	-0,065
-532,350	-97,327	0,111	-0,021
-531,335	299,277	-0,048	-0,065
-530,321	-200,000	-0,012	-0,043
-529,306	-126,519	-0,024	0,003
-528,291	-21,582	0,058	-0,026
-527,277	33,108	-0,050	0,032
-526,262	800,000	0,020	-0,049
-525,248	-200,000	0,004	0,030
-524,233	-200,000	0,005	0,113
-523,218	373,990	-0,034	0,050
-522,204	200,445	-0,057	-0,064
-521,189	-200,000	-0,031	-0,114
-520,175	271,989	-0,116	-0,150
-519,160	155,060	-0,034	-0,034
-518,145	43,317	-0,097	-0,065
-517,131	-200,000	-0,001	-0,056
-516,116	323,155	0,042	-0,059
-515,102	-65,423	0,022	-0,007
-514,087	3,752	-0,036	-0,019
-513,072	-200,000	-0,025	-0,092
-512,058	174,895	0,048	-0,051
-511,043	-124,048	0,025	-0,003
-510,029	-200,000	0,003	-0,131
-509,014	284,478	-0,024	-0,032
-507,999	-200,000	-0,066	-0,267
-506,985	-169,047	0,152	-0,004
-505,970	28,644	-0,060	-0,037
-504,956	-105,008	-0,040	0,007
-503,941	-31,618	-0,108	0,044
-502,926	-97,189	0,107	-0,020
-501,912	-200,000	-0,002	0,084
-500,897	-83,887	-0,086	0,020
-499,883	765,960	0,032	0,064
-498,868	-69,171	-0,191	-0,053
-497,853	15,500	0,076	-0,044
-496,839	-48,467	0,097	-0,034
-495,824	-7,535	0,100	0,049
-494,810	677,514	-0,075	0,142
-493,795	105,111	0,056	0,049
-492,781	678,666	0,042	0,080
-491,766	-200,000	-0,004	-0,028
-490,751	-6,225	-0,056	0,028
-489,737	94,812	0,060	0,050
-488,722	-111,776	0,056	0,008
-487,708	23,892	0,046	-0,028
-486,693	182,424	-0,047	-0,051
-485,678	-99,924	0,038	-0,007
-484,664	-200,000	0,014	-0,057
-483,649	34,601	-0,090	0,057
-482,635	52,702	-0,085	-0,059
-481,620	-40,488	0,051	-0,019
-480,605	25,658	0,037	0,023
-479,591	-200,000	-0,004	0,131
-478,576	276,815	-0,057	-0,074
-477,562	-27,821	0,134	0,057
-476,547	399,522	0,022	0,034
-475,532	-44,927	-0,048	0,017
-474,518	-153,682	-0,049	-0,002
-473,503	62,910	0,096	0,070
-472,489	10,233	0,111	0,061
-471,474	800,000	-0,041	0,115
-470,459	193,487	0,072	-0,079
-469,445	800,000	0,024	-0,063
-468,430	80,810	-0,093	-0,073
-467,416	301,625	0,076	-0,102
-466,401	-200,000	0,000	-0,096
-465,386	408,571	-0,041	0,064
-464,372	-200,000	0,030	0,118
-463,357	-200,000	0,009	-0,039
-462,343	10,412	-0,028	-0,016
-461,328	-92,255	-0,081	0,016
-460,313	57,115	-0,090	0,064
-459,299	-200,000	0,013	0,143
-458,284	101,411	-0,113	0,096
-457,270	-106,409	0,078	0,013
-456,255	-200,000	-0,009	0,067
-455,241	744,021	0,009	-0,017
-454,226	-57,159	-0,056	-0,018
-453,211	4,442	0,038	0,020
-452,197	-200,000	0,006	-0,047
-451,182	-200,000	0,028	0,199
-450,168	771,226	0,037	0,074
-449,153	-200,000	-0,003	0,111
-448,138	-41,513	-0,054	0,020
-447,124	270,382	-0,029	0,038
-446,109	-82,507	0,093	-0,022
-445,095	-160,089	0,165	-0,006
-444,080	56,690	0,074	-0,052
-443,065	-200,000	-0,019	-0,066
-442,051	-12,954	0,142	0,067
-441,036	800,000	0,024	-0,053
-440,022	-200,000	-0,023	0,144
-439,007	800,000	-0,037	-0,092
-437,992	-200,000	-0,028	0,165
-436,978	-40,224	0,104	0,039
-435,963	221,926	-0,034	0,040
-434,949	-200,000	-0,009	0,036
-433,934	-20,357	-0,080	-0,036
-432,919	-200,000	-0,001	-0,087
-431,905	800,000	-0,013	0,041
-430,890	-141,848	0,023	-0,002
-429,876	-74,979	-0,049	-0,013
-428,861	-132,820	0,053	0,005
-427,846	14,057	-0,043	0,024
-426,832	-200,000	-0,015	-0,129
-425,817	800,000	-0,068	-0,155
-424,803	-76,959	-0,096	-0,024
-423,788	301,451	0,045	-0,061
-422,773	800,000	0,023	0,071
-421,759	255,452	-0,105	-0,131
-420,744	53,375	0,091	0,063
-419,730	-2,922	-0,143	0,072
-418,715	800,000	-0,029	0,089
-417,701	265,704	0,074	-0,094
-416,686	-142,375	0,078	-0,006
-415,671	128,278	-0,074	0,068
-414,657	8,198	0,038	-0,020
-413,642	-130,272	-0,131	0,013
-412,628	800,000	-0,024	0,060
-411,613	-52,895	-0,054	-0,018
-410,598	523,928	-0,054	0,093
-409,584	-118,085	0,025	-0,003
-408,569	121,898	0,077	0,070
-407,555	73,665	0,101	0,077
-406,540	-200,000	-0,008	-0,065
-405,525	245,200	-0,062	-0,075
-404,511	-102,932	-0,054	0,009
-403,496	79,944	-0,179	0,139
-402,482	268,186	-0,073	-0,093
-401,467	-200,000	-0,026	0,119
-400,452	-200,000	-0,024	0,087
-399,438	76,095	-0,021	-0,016
-398,423	-200,000	0,003	-0,067
-397,409	499,012	-0,015	-0,026
-396,394	800,000	0,063	-0,158
-395,379	-196,778	0,126	-0,001
-394,365	800,000	0,027	0,059
-393,350	69,859	-0,038	-0,029
-392,336	-146,234	0,115	0,007
-391,321	315,563	0,029	-0,040
-390,306	85,744	-0,069	-0,055
-389,292	-132,707	0,068	0,006
-388,277	-4,238	0,044	-0,022
-387,263	-84,544	-0,129	-0,029
-386,248	-200,000	0,016	0,063
-385,233	38,134	0,087	-0,056
-384,219	-98,213	-0,028	0,005
-383,204	446,776	0,071	-0,114
-382,190	623,692	-0,083	-0,153
-381,175	-28,471	0,071	-0,029
-380,160	800,000	0,036	0,101
-379,146	800,000	0,056	0,135
-378,131	603,326	0,045	-0,082
-377,117	2,591	-0,031	-0,016
-376,102	-109,739	0,036	-0,005
-375,088	-150,449	-0,017	-0,001
-374,073	246,369	0,069	0,084
-373,058	-200,000	0,008	0,045
-372,044	-139,035	-0,085	-0,007
-371,029	135,828	0,070	0,066
-370,015	-200,000	-0,019	0,095
-369,000	-188,840	0,045	0,000
-367,985	158,542	-0,093	-0,093
-366,971	1,555	-0,008	-0,004
-365,956	31,813	0,020	0,012
-364,942	605,362	-0,004	-0,008
-363,927	202,854	0,138	-0,155
-362,912	-16,608	-0,055	0,025
-361,898	210,266	0,016	0,018
-360,883	-200,000	-0,056	-0,231
-359,869	-162,435	-0,175	-0,006
-358,854	533,233	-0,043	-0,075
-357,839	-200,000	-0,004	0,056
-356,825	-200,000	0,008	-0,035
-355,810	-101,102	0,015	-0,003
-354,796	-10,496	0,068	-0,033
-353,781	-200,000	-0,002	-0,049
-352,766	624,561	-0,020	0,037
-351,752	-18,696	0,060	0,027
-350,737	149,148	-0,063	0,062
-349,723	-11,451	0,024	0,011
-348,708	-200,000	0,006	0,021
-347,693	83,630	-0,062	-0,049
-346,679	-200,000	-0,008	0,037
-345,664	-200,000	-0,003	0,108
-344,650	66,136	-0,135	0,100
-343,635	-120,323	0,079	-0,010
-342,620	-28,806	0,116	-0,048
-341,606	-5,997	0,056	-0,028
-340,591	-200,000	-0,030	0,146
-339,577	-200,000	-0,028	-0,131
-338,562	-200,000	0,013	-0,138
-337,548	800,000	-0,047	0,138
-336,533	240,906	0,072	0,088
-335,518	79,281	0,066	-0,052
-334,504	-21,256	0,085	0,037
-333,489	-25,374	-0,057	0,024
-332,475	-126,920	0,076	-0,008
-331,460	260,165	-0,055	0,070
-330,445	-200,000	-0,008	0,029
-329,431	172,268	-0,094	0,098
-328,416	-200,000	-0,011	0,074
-327,402	24,999	0,064	-0,038
-326,387	-17,585	0,165	0,075
-325,372	94,253	-0,054	0,044
-324,358	-91,622	-0,030	-0,006
-323,343	645,999	-0,027	-0,050
-322,329	-195,942	0,053	-0,000
-321,314	-200,000	0,023	0,093
-320,299	292,339	0,040	-0,053
-319,285	-17,342	0,070	-0,032
-318,270	800,000	0,061	-0,183
-317,256	301,781	-0,014	0,018
-316,241	324,374	-0,051	0,070
-315,226	-200,000	-0,009	0,036
-314,212	800,000	0,040	0,086
-313,197	800,000	-0,026	0,082
-312,183	-55,779	0,080	0,026
-311,168	249,540	-0,095	-0,117
-310,153	142,237	-0,071	0,069
-309,139	-200,000	-0,009	0,172
-308,124	-78,574	-0,043	0,011
-307,110	-200,000	-0,001	0,162
-306,095	93,748	0,039	0,032
-305,080	-49,293	-0,058	-0,020
-304,066	-200,000	0,010	-0,043
-303,051	800,000	0,011	-0,034
-302,037	800,000	-0,018	0,050
-301,022	68,068	0,040	0,029
-300,008	185,460	0,034	-0,037
-298,993	-92,886	0,059	0,012
-297,978	-55,465	0,138	0,045
-296,964	344,167	0,043	-0,062
-295,949	302,142	-0,098	-0,131
-294,935	206,424	0,129	0,146
-293,920	504,280	0,076	-0,129
-292,905	482,609	0,033	-0,055
-291,891	126,526	0,039	-0,035
-290,876	-200,000	0,029	0,097
-289,862	-115,651	0,107	0,014
-288,847	388,287	-0,029	-0,043
-287,832	-178,021	0,068	0,001
-286,818	-200,000	0,002	-0,023
-285,803	-200,000	0,007	-0,076
-284,789	143,524	-0,042	0,041
-283,774	-200,000	0,002	-0,026
-282,759	-107,680	-0,050	0,008
-281,745	800,000	-0,013	0,032
-280,730	260,016	0,022	0,027
-279,716	-22,446	-0,019	0,008
-278,701	54,080	0,065	-0,045
-277,686	-56,326	-0,079	0,025
-276,672	51,615	-0,074	0,051
-275,657	-14,364	-0,067	0,031
-274,643	319,664	-0,027	-0,037
-273,628	662,517	-0,057	-0,108
-272,613	-200,000	0,020	-0,096
-271,599	-200,000	-0,020	0,109
-270,584	-200,000	-0,007	-0,026
-269,570	336,227	-0,012	0,017
-268,555	105,603	-0,068	0,058
-267,540	800,000	0,009	0,024
-266,526	183,140	-0,048	0,052
-265,511	-200,000	0,025	-0,092
-264,497	31,878	-0,025	0,015
-263,482	800,000	-0,052	-0,116
-262,467	-200,000	0,002	-0,006
-261,453	214,751	0,066	0,076
-260,438	140,774	0,066	-0,064
-259,424	800,000	-0,039	-0,079
-258,409	228,707	-0,085	-0,101
-257,395	730,314	-0,032	-0,061
-256,380	29,971	0,167	-0,103
-255,365	-200,000	0,012	0,091
-254,351	-110,097	0,080	-0,012
-253,336	232,344	-0,067	0,079
-252,322	-74,059	-0,124	0,032
-251,307	258,404	0,089	0,111
-250,292	-50,480	0,030	0,010
-249,278	-200,000	0,011	0,099
-248,263	-55,069	-0,056	0,018
-247,249	-161,273	0,019	0,001
-246,234	105,459	-0,026	0,022
-245,219	12,608	-0,038	0,021
-244,205	-60,864	-0,136	0,041
-243,190	-200,000	-0,049	0,167
-242,176	-200,000	0,005	0,123
-241,161	-125,075	0,263	-0,029
-240,146	-34,746	-0,136	0,053
-239,132	800,000	0,063	-0,160
-238,117	-200,000	-0,007	-0,051
-237,103	335,651	0,048	0,068
-236,088	354,011	0,037	-0,053
-235,073	652,487	-0,030	-0,056
-234,059	-11,061	0,129	-0,061
-233,044	-47,234	0,043	-0,015
-232,030	84,015	-0,047	-0,037
-231,015	-150,771	0,095	0,005
-230,000	-10,004	-0,093	-0,045
-228,986	-200,000	-0,014	-0,082
-227,971	-200,000	-0,007	0,148
-226,957	-200,000	-0,036	0,147
-225,942	-200,000	0,023	0,167
-224,927	-45,806	0,086	-0,030
-223,913	800,000	0,047	0,147
-222,898	-67,981	0,040	-0,011
-221,884	-20,507	-0,107	0,047
-220,869	134,024	0,107	0,100
-219,855	-200,000	-0,000	0,041
-218,840	800,000	-0,046	0,131
-217,825	159,364	-0,086	0,087
-216,811	-82,100	0,099	-0,023
-215,796	171,022	-0,056	-0,058
-214,782	-200,000	0,006	-0,146
-213,767	-4,482	-0,021	0,011
-212,752	14,550	-0,146	-0,082
-211,738	82,201	0,164	0,128
-210,723	-200,000	0,017	-0,100
-209,709	800,000	-0,005	0,012
-208,694	-200,000	0,011	-0,102
-207,679	221,111	0,038	0,044
-206,665	-122,191	0,164	0,019
-205,650	24,518	0,075	0,044
-204,636	-72,978	-0,091	0,024
-203,621	800,000	0,035	-0,093
-202,606	800,000	-0,028	-0,068
-201,592	-41,487	-0,078	-0,029
-200,577	405,120	-0,039	-0,059
-199,563	532,103	0,064	-0,109
-198,548	800,000	0,043	0,119
-197,533	-88,498	0,142	-0,030
-196,519	-62,490	-0,095	-0,028
-195,504	-200,000	-0,018	-0,122
-194,490	457,478	0,063	0,101
-193,475	36,994	-0,141	-0,090
-192,460	119,973	-0,055	0,050
-191,446	-200,000	0,013	0,042
-190,431	721,493	-0,028	0,055
-189,417	122,003	0,121	0,109
-188,402	-2,804	-0,098	0,049
-187,387	-200,000	-0,036	-0,123
-186,373	104,519	-0,082	-0,070
-185,358	161,555	0,060	0,061
-184,344	35,109	0,069	-0,043
-183,329	-3,035	0,041	-0,020
-182,315	-88,164	-0,040	-0,009
-181,300	-171,557	0,105	0,002
-180,285	-13,373	-0,111	-0,052
-179,271	-200,000	-0,031	-0,103
-178,256	-200,000	-0,013	-0,113
-177,242	-200,000	0,006	0,173
-176,227	14,207	0,052	0,029
-175,212	-200,000	0,010	-0,105
-174,198	-200,000	0,004	0,039
-173,183	-11,861	-0,064	-0,030
-172,169	800,000	0,016	0,033
-171,154	-21,122	-0,105	0,046
-170,139	-16,515	0,091	0,041
-169,125	-200,000	-0,008	0,000
-168,110	-200,000	-0,018	0,091
-167,096	-200,000	-0,015	0,063
-166,081	-85,417	-0,151	-0,034
-165,066	87,168	0,108	-0,086
-164,052	-29,112	0,045	-0,019
-163,037	-200,000	0,013	-0,166
-162,023	674,070	0,049	0,093
-161,008	-200,000	-0,009	0,103
-159,993	356,149	-0,028	0,040
-158,979	54,517	-0,119	-0,082
-157,964	-200,000	-0,006	-0,119
-156,950	287,421	0,074	-0,096
-155,935	81,038	-0,068	0,053
-154,920	140,748	0,105	0,100
-153,906	-200,000	-0,021	0,102
-152,891	-200,000	0,016	0,116
-151,877	104,751	-0,046	-0,039
-150,862	-200,000	0,001	0,032
-149,847	800,000	0,049	-0,103
-148,833	-99,632	-0,030	-0,005
-147,818	54,584	0,068	0,047
-146,804	720,536	-0,034	-0,065
-145,789	286,905	0,016	-0,021
-144,775	-72,992	0,129	0,034
-143,760	96,901	0,041	-0,034
-142,745	-62,817	-0,107	-0,032
-141,731	-106,565	0,102	-0,016
-140,716	23,118	-0,051	0,030
-139,702	34,599	-0,127	-0,080
-138,687	-0,857	0,168	0,085
-137,672	4,683	-0,072	-0,038
-136,658	244,453	-0,056	-0,068
-135,643	-90,661	-0,156	0,032
-134,629	122,951	0,046	-0,041
-133,614	-28,270	-0,068	0,028
-132,599	-200,000	-0,018	-0,149
-131,585	-200,000	0,014	0,073
-130,570	-200,000	-0,014	0,052
-129,556	64,074	-0,084	-0,061
-128,541	-181,405	0,088	-0,001
-127,526	-200,000	-0,010	-0,097
-126,512	32,553	0,065	-0,041
-125,497	-200,000	-0,013	0,062
-124,483	800,000	-0,080	0,166
-123,468	800,000	0,064	0,160
-122,453	32,942	-0,038	0,023
-121,439	-200,000	-0,039	-0,163
-120,424	-150,412	0,108	-0,006
