DTS Sentinel unit serial number:	SN410029Multiplexer serial number:	ORYXHardware model number:	OX2-SRSoftware version number:	ORYX F/W v4,00 Oryx Data Collector v3.7.2.0data status	okinstallation	B5 Nyhavnadifferential loss correction	single-endedforward channel	channel 2reverse channel	N/Adate	2023/12/11time	19:12:13forward acquisition time	300,00reverse acquisition time	0,00gamma	499,1914k internal	0,3160k external	0,3160temperature offset calibration	1,0000default loss term (dB/km)	0,3820temperature slope calibration	1,0000multiplexer offset coefficient	1,0000multiplexer slope coefficient	1,0000fibre end	0,00T internal ref (°C)	15,53T ext. ref 1 (°C)	-0,19T ext. ref 2 (°C)	-0,42length (m)	temperature (°C)	Stokes	anti-Stokes-744,400	46,630	0,065	0,045
-743,385	-99,383	-0,247	0,045
-742,371	190,977	0,087	0,096
-741,356	-72,452	-0,297	0,080
-740,342	-96,314	0,050	0,010
-739,327	-122,946	-0,280	-0,033
-738,312	305,761	-0,016	0,021
-737,298	-114,793	-0,285	0,040
-736,283	96,876	0,128	0,108
-735,269	-50,911	-0,190	0,065
-734,254	20,714	0,066	0,039
-733,239	-90,959	-0,436	-0,092
-732,225	60,137	0,198	0,144
-731,210	800,000	0,041	0,106
-730,196	26,652	-0,027	0,017
-729,181	37,552	-0,093	0,060
-728,167	-200,000	-0,015	0,113
-727,152	215,971	-0,040	0,047
-726,137	397,756	0,070	-0,108
-725,123	-2,841	-0,077	0,040
-724,108	800,000	0,046	-0,149
-723,094	380,910	0,015	0,022
-722,079	54,618	-0,105	-0,074
-721,064	255,259	0,067	0,085
-720,050	-110,254	0,090	-0,014
-719,035	-27,248	-0,043	0,018
-718,021	36,436	0,055	0,036
-717,006	-200,000	-0,011	-0,126
-715,991	800,000	-0,082	-0,177
-714,977	-56,436	-0,186	-0,060
-713,962	97,980	0,034	0,029
-712,948	-9,354	0,080	-0,039
-711,933	-200,000	0,021	0,079
-710,918	-133,549	-0,129	0,012
-709,904	397,477	0,046	-0,071
-708,889	555,995	-0,030	-0,054
-707,875	-53,848	-0,083	-0,028
-706,860	-101,096	-0,168	-0,030
-705,845	282,233	0,065	-0,086
-704,831	550,926	-0,036	0,063
-703,816	208,026	0,119	-0,137
-702,802	164,174	-0,073	0,075
-701,787	-14,548	0,134	0,063
-700,772	-200,000	0,025	0,132
-699,758	423,354	-0,062	-0,098
-698,743	-91,556	-0,072	0,015
-697,729	-10,668	-0,039	0,019
-696,714	644,846	0,023	0,043
-695,699	100,206	-0,121	0,103
-694,685	800,000	0,024	-0,051
-693,670	249,297	-0,063	-0,079
-692,656	-58,303	0,047	0,015
-691,641	258,170	0,115	-0,146
-690,627	212,483	-0,054	0,063
-689,612	800,000	-0,019	-0,048
-688,597	-22,365	-0,037	-0,016
-687,583	-200,000	-0,004	-0,057
-686,568	-56,918	-0,089	0,029
-685,554	234,391	0,039	0,047
-684,539	81,751	0,022	0,017
-683,524	789,459	0,006	0,013
-682,510	443,117	0,042	0,068
-681,495	-25,335	0,086	-0,037
-680,481	-200,000	-0,040	-0,163
-679,466	172,441	-0,063	-0,067
-678,451	-16,470	0,030	-0,014
-677,437	-108,737	0,203	0,032
-676,422	-36,736	0,124	-0,049
-675,408	-73,686	-0,154	0,041
-674,393	62,385	-0,117	0,086
-673,378	56,943	0,058	0,041
-672,364	279,180	-0,092	-0,120
-671,349	-142,432	-0,109	0,008
-670,335	-71,511	0,026	0,007
-669,320	-200,000	0,000	0,051
-668,305	407,554	0,059	0,092
-667,291	-200,000	-0,007	0,042
-666,276	-141,173	-0,103	0,008
-665,262	-200,000	-0,032	-0,117
-664,247	-200,000	0,009	0,032
-663,232	-200,000	0,003	0,062
-662,218	157,283	0,061	0,062
-661,203	-200,000	-0,022	0,129
-660,189	-200,000	-0,026	0,197
-659,174	-200,000	-0,005	-0,113
-658,159	514,100	0,041	0,070
-657,145	-50,596	0,142	0,049
-656,130	-200,000	-0,001	-0,093
-655,116	6,276	0,037	0,020
-654,101	-9,496	-0,035	0,017
-653,086	-46,222	-0,148	0,053
-652,072	122,473	0,090	0,083
-651,057	-200,000	-0,008	0,042
-650,043	-125,803	0,130	0,014
-649,028	-200,000	0,028	0,122
-648,014	-143,183	-0,050	0,003
-646,999	-133,468	0,089	0,008
-645,984	668,817	-0,042	0,081
-644,970	204,526	-0,153	-0,174
-643,955	800,000	-0,036	-0,102
-642,941	800,000	-0,022	-0,062
-641,926	24,418	0,034	-0,021
-640,911	-1,165	0,070	-0,036
-639,897	-52,710	-0,039	0,013
-638,882	-101,333	0,107	-0,019
-637,868	-68,330	0,104	-0,029
-636,853	-191,798	-0,125	-0,001
-635,838	85,734	-0,069	0,056
-634,824	-24,967	0,032	0,014
-633,809	283,218	0,046	0,061
-632,795	-145,600	-0,127	0,008
-631,780	-200,000	0,005	-0,045
-630,765	240,487	-0,046	-0,056
-629,751	800,000	0,010	0,022
-628,736	425,539	-0,030	-0,047
-627,722	283,328	0,103	-0,136
-626,707	96,029	0,058	-0,048
-625,692	-25,123	0,048	-0,021
-624,678	123,773	0,049	0,045
-623,663	25,361	-0,035	-0,021
-622,649	591,301	0,020	-0,037
-621,634	439,787	-0,065	-0,104
-620,619	65,044	-0,073	-0,054
-619,605	800,000	-0,055	-0,115
-618,590	-19,558	0,108	-0,049
-617,576	397,982	0,027	0,041
-616,561	800,000	-0,025	-0,063
-615,546	-200,000	-0,024	-0,085
-614,532	-200,000	-0,003	0,047
-613,517	-111,694	-0,109	-0,016
-612,503	709,110	-0,040	-0,078
-611,488	158,336	0,070	0,071
-610,474	800,000	-0,031	-0,097
-609,459	800,000	0,037	0,094
-608,444	307,103	-0,092	-0,126
-607,430	-107,678	-0,174	-0,028
-606,415	-108,471	-0,135	0,021
-605,401	180,696	0,055	0,060
-604,386	-29,050	0,082	0,034
-603,371	465,880	-0,018	0,030
-602,357	53,887	-0,040	0,028
-601,342	158,204	-0,064	0,065
-600,328	-200,000	-0,023	-0,180
-599,313	-200,000	-0,013	-0,115
-598,298	-40,852	-0,054	0,020
-597,284	-46,702	-0,171	0,061
-596,269	231,333	-0,058	0,070
-595,255	-71,846	-0,071	-0,019
-594,240	510,330	-0,026	0,044
-593,225	237,280	-0,062	-0,076
-592,211	-200,000	-0,014	-0,087
-591,196	-200,000	0,018	-0,098
-590,182	-95,606	0,132	0,026
-589,167	-10,106	0,188	-0,091
-588,152	209,612	-0,040	0,046
-587,138	739,124	0,095	0,187
-586,123	-56,795	-0,106	0,034
-585,109	-200,000	0,021	-0,105
-584,094	-76,035	0,187	0,048
-583,079	-52,185	-0,018	-0,006
-582,065	43,428	0,100	0,067
-581,050	129,403	0,120	-0,112
-580,036	800,000	0,047	-0,108
-579,021	800,000	0,015	-0,037
-578,006	-200,000	0,003	-0,053
-576,992	145,158	-0,083	-0,081
-575,977	325,776	-0,058	0,081
-574,963	567,345	-0,016	0,029
-573,948	800,000	-0,011	-0,036
-572,934	-50,875	-0,131	0,045
-571,919	-122,275	-0,148	-0,018
-570,904	-200,000	0,051	0,171
-569,890	-111,211	-0,014	-0,002
-568,875	-200,000	-0,008	-0,173
-567,861	-200,000	-0,010	-0,050
-566,846	800,000	-0,010	-0,027
-565,831	800,000	-0,017	0,039
-564,817	-116,239	-0,054	0,007
-563,802	-52,204	-0,172	0,058
-562,788	-76,341	-0,023	-0,006
-561,773	180,899	-0,057	-0,062
-560,758	-73,420	0,134	0,036
-559,744	-200,000	-0,005	0,097
-558,729	800,000	-0,034	0,076
-557,715	-200,000	-0,002	0,034
-556,700	-144,095	-0,047	0,003
-555,685	-200,000	0,027	0,128
-554,671	-200,000	-0,002	0,101
-553,656	-200,000	-0,007	0,150
-552,642	-50,925	-0,050	0,017
-551,627	-65,548	0,038	-0,011
-550,612	-200,000	0,015	-0,053
-549,598	356,723	-0,045	-0,066
-548,583	-200,000	0,068	-0,220
-547,569	3,637	-0,117	0,062
-546,554	65,220	-0,034	0,025
-545,539	-106,819	0,087	0,014
-544,525	-200,000	0,028	-0,111
-543,510	-200,000	-0,004	-0,014
-542,496	366,861	-0,061	-0,090
-541,481	230,670	-0,107	-0,128
-540,466	293,506	0,037	-0,050
-539,452	-200,000	-0,010	0,099
-538,437	-26,673	-0,100	0,043
-537,423	-200,000	0,007	0,048
-536,408	268,975	0,045	0,058
-535,393	-200,000	-0,003	-0,065
-534,379	-200,000	0,011	0,048
-533,364	711,119	-0,022	0,043
-532,350	800,000	0,019	0,059
-531,335	-200,000	-0,002	0,007
-530,321	381,538	0,012	0,018
-529,306	-166,237	0,071	0,002
-528,291	61,487	-0,013	0,009
-527,277	800,000	0,023	-0,061
-526,262	-63,719	0,067	-0,020
-525,248	-136,289	0,125	0,010
-524,233	-95,861	0,017	0,003
-523,218	-65,527	0,025	0,007
-522,204	-109,343	-0,038	0,006
-521,189	758,593	-0,050	-0,099
-520,175	29,700	-0,049	-0,030
-519,160	641,079	0,029	-0,054
-518,145	85,581	0,092	0,074
-517,131	136,796	0,062	0,059
-516,116	781,376	-0,063	0,126
-515,102	-132,776	-0,080	0,007
-514,087	-21,493	-0,064	-0,028
-513,072	-200,000	0,022	-0,137
-512,058	-152,604	0,123	0,006
-511,043	-200,000	-0,002	-0,015
-510,029	-200,000	-0,017	0,165
-509,014	-0,924	0,013	0,007
-507,999	800,000	0,040	-0,087
-506,985	-200,000	0,006	0,062
-505,970	-200,000	-0,001	-0,038
-504,956	588,787	-0,086	-0,155
-503,941	-123,581	0,104	-0,012
-502,926	-200,000	0,003	-0,027
-501,912	-200,000	0,031	0,103
-500,897	-135,273	-0,111	0,010
-499,883	249,312	0,035	-0,044
-498,868	724,487	-0,076	-0,148
-497,853	-200,000	0,023	-0,075
-496,839	40,010	-0,102	0,067
-495,824	219,755	0,041	0,048
-494,810	411,120	-0,060	0,093
-493,795	-200,000	0,013	0,165
-492,781	119,392	-0,014	-0,013
-491,766	800,000	0,029	-0,092
-490,751	491,601	-0,046	-0,077
-489,737	-200,000	0,004	0,027
-488,722	509,760	0,041	0,071
-487,708	-200,000	0,104	0,000
-486,693	81,283	0,064	-0,050
-485,678	250,287	0,032	0,040
-484,664	435,876	0,069	-0,110
-483,649	27,985	0,016	-0,010
-482,635	800,000	-0,045	-0,103
-481,620	-100,753	-0,157	0,028
-480,605	73,607	0,074	-0,056
-479,591	-200,000	0,022	0,108
-478,576	-200,000	0,077	0,273
-477,562	153,829	-0,098	0,098
-476,547	169,995	0,094	-0,098
-475,532	-72,577	-0,116	-0,031
-474,518	-52,707	-0,030	0,010
-473,503	-43,561	0,147	0,054
-472,489	-42,467	-0,186	-0,069
-471,474	48,560	0,060	-0,041
-470,459	-200,000	-0,022	0,073
-469,445	-200,000	0,007	0,031
-468,430	-114,109	0,039	-0,005
-467,416	-200,000	-0,016	0,063
-466,401	-0,809	-0,110	0,057
-465,386	-153,706	-0,106	0,005
-464,372	-24,708	-0,049	-0,021
-463,357	77,498	-0,051	0,040
-462,343	800,000	0,024	-0,052
-461,328	36,088	-0,084	-0,054
-460,313	95,853	-0,052	-0,043
-459,299	-200,000	0,011	0,113
-458,284	61,728	0,220	0,159
-457,270	48,843	0,016	0,011
-456,255	-180,314	-0,030	-0,000
-455,241	800,000	-0,040	-0,086
-454,226	45,431	-0,123	-0,083
-453,211	-200,000	-0,024	-0,093
-452,197	800,000	0,078	0,217
-451,182	6,081	0,066	0,036
-450,168	34,049	0,041	-0,026
-449,153	800,000	-0,039	0,084
-448,138	421,282	-0,066	-0,103
-447,124	-81,486	-0,060	0,014
-446,109	-200,000	0,004	0,141
-445,095	489,095	0,107	0,179
-444,080	-42,910	0,082	-0,030
-443,065	111,986	-0,114	0,100
-442,051	-97,907	-0,081	-0,015
-441,036	-76,098	-0,288	-0,074
-440,022	195,243	-0,060	-0,066
-439,007	493,338	-0,053	0,089
-437,992	-96,408	0,069	0,013
-436,978	232,033	-0,127	-0,152
-435,963	121,169	-0,054	0,049
-434,949	-200,000	0,002	0,031
-433,934	-200,000	0,028	0,111
-432,919	334,168	-0,059	0,084
-431,905	47,655	0,116	0,079
-430,890	497,623	0,037	-0,063
-429,876	800,000	-0,050	-0,102
-428,861	216,120	0,054	0,063
-427,846	-114,977	0,115	0,016
-426,832	800,000	-0,046	-0,119
-425,817	-200,000	0,019	-0,067
-424,803	-200,000	-0,029	-0,151
-423,788	425,076	-0,006	-0,010
-422,773	-200,000	-0,002	0,032
-421,759	-200,000	-0,006	0,035
-420,744	-200,000	-0,041	-0,171
-419,730	-128,793	-0,131	-0,013
-418,715	800,000	0,012	-0,030
-417,701	117,419	0,057	-0,051
-416,686	-200,000	0,000	-0,074
-415,671	-200,000	0,024	0,163
-414,657	217,779	-0,101	-0,117
-413,642	-24,845	-0,172	-0,074
-412,628	-121,723	-0,211	-0,025
-411,613	-102,039	0,027	-0,005
-410,598	-119,577	-0,050	-0,006
-409,584	494,268	0,027	-0,046
-408,569	-22,796	0,090	0,040
-407,555	-72,759	-0,063	0,017
-406,540	36,271	-0,067	0,043
-405,525	561,863	0,037	-0,065
-404,511	-200,000	-0,049	-0,172
-403,496	-7,338	-0,035	0,017
-402,482	-200,000	0,006	-0,060
-401,467	800,000	0,062	0,190
-400,452	29,460	-0,136	0,084
-399,438	495,894	-0,068	0,114
-398,423	554,347	-0,066	-0,115
-397,409	-3,228	-0,124	-0,063
-396,394	793,148	0,065	0,131
-395,379	-200,000	0,010	-0,066
-394,365	-58,940	0,100	0,031
-393,350	-93,048	0,069	-0,014
-392,336	800,000	0,027	-0,067
-391,321	-114,515	0,043	0,006
-390,306	-200,000	0,005	0,182
-389,292	-29,322	0,045	0,019
-388,277	135,024	-0,048	0,046
-387,263	-200,000	0,056	0,216
-386,248	-200,000	-0,016	0,170
-385,233	214,822	0,054	0,062
-384,219	-69,345	-0,106	-0,029
-383,204	-134,876	-0,064	-0,006
-382,190	2,167	-0,056	0,030
-381,175	516,042	-0,080	-0,137
-380,160	-200,000	0,017	0,069
-379,146	-75,076	0,063	0,016
-378,131	800,000	-0,035	0,112
-377,117	-200,000	-0,011	-0,041
-376,102	-50,631	-0,027	-0,009
-375,088	-61,437	0,049	-0,015
-374,073	-77,482	0,093	0,023
-373,058	0,226	0,141	0,073
-372,044	-200,000	0,014	0,147
-371,029	-200,000	-0,018	0,156
-370,015	-129,886	-0,141	0,014
-369,000	691,924	0,051	0,098
-367,985	664,073	0,088	-0,165
-366,971	-200,000	-0,025	-0,111
-365,956	-1,299	0,043	-0,022
-364,942	-56,643	0,073	-0,023
-363,927	163,891	0,069	0,070
-362,912	-200,000	-0,023	0,100
-361,898	-24,070	0,080	0,034
-360,883	-89,290	-0,099	-0,021
-359,869	97,435	0,050	-0,042
-358,854	398,348	-0,048	0,074
-357,839	-200,000	-0,016	0,098
-356,825	94,113	-0,055	0,046
-355,810	-109,885	0,081	-0,012
-354,796	-136,875	0,017	0,001
-353,781	683,628	0,052	-0,100
-352,766	-60,565	0,055	0,017
-351,752	800,000	0,006	-0,019
-350,737	-17,526	0,087	-0,039
-349,723	-157,038	0,162	0,007
-348,708	-200,000	-0,013	0,071
-347,693	800,000	-0,038	-0,092
-346,679	800,000	0,032	-0,082
-345,664	-6,666	0,110	-0,054
-344,650	138,215	0,014	-0,013
-343,635	430,566	0,015	0,024
-342,620	-200,000	0,020	0,082
-341,606	-200,000	-0,030	0,134
-340,591	107,505	-0,026	-0,022
-339,577	-200,000	0,003	-0,143
-338,562	584,971	-0,057	-0,102
-337,548	-200,000	-0,005	0,030
-336,533	-0,390	0,068	-0,035
-335,518	655,327	-0,036	0,067
-334,504	800,000	0,045	0,101
-333,489	-8,521	0,093	-0,045
-332,475	-78,259	0,070	0,017
-331,460	-94,907	-0,075	0,015
-330,445	38,243	-0,056	0,036
-329,431	102,113	0,080	0,068
-328,416	86,976	-0,098	0,079
-327,402	-200,000	-0,026	0,130
-326,387	341,256	0,069	-0,098
-325,372	-200,000	0,026	0,135
-324,358	163,920	-0,133	-0,136
-323,343	529,498	0,020	-0,034
-322,329	1,125	0,096	0,050
-321,314	-200,000	0,025	0,196
-320,299	800,000	0,014	0,032
-319,285	800,000	0,049	0,145
-318,270	5,918	-0,159	-0,085
-317,256	-200,000	-0,037	-0,165
-316,241	3,060	-0,035	0,018
-315,226	237,774	0,034	0,040
-314,212	-200,000	0,026	-0,091
-313,197	-200,000	-0,027	-0,168
-312,183	-20,802	0,123	-0,054
-311,168	4,775	-0,039	0,021
-310,153	-200,000	0,023	-0,141
-309,139	-2,045	-0,039	0,020
-308,124	321,357	0,043	-0,059
-307,110	800,000	-0,040	0,091
-306,095	123,403	-0,056	0,051
-305,080	-156,972	-0,120	0,005
-304,066	176,455	-0,131	0,138
-303,051	-200,000	0,029	-0,111
-302,037	163,796	-0,012	-0,012
-301,022	159,176	-0,050	-0,051
-300,008	-16,365	0,104	-0,048
-298,993	143,775	-0,062	0,060
-297,978	33,235	-0,106	0,067
-296,964	-200,000	-0,004	-0,018
-295,949	38,186	0,146	-0,094
-294,935	184,229	0,049	-0,052
-293,920	-143,955	-0,050	0,003
-292,905	133,088	-0,013	0,012
-291,891	165,414	0,098	0,101
-290,876	105,262	-0,079	-0,067
-289,862	494,071	0,038	-0,063
-288,847	-200,000	0,008	-0,102
-287,832	47,402	0,098	-0,066
-286,818	-200,000	0,004	-0,098
-285,803	-200,000	-0,012	-0,060
-284,789	10,681	0,151	-0,083
-283,774	440,675	0,066	0,104
-282,759	54,957	0,071	-0,050
-281,745	172,751	0,111	-0,115
-280,730	93,757	-0,119	0,098
-279,716	-32,581	0,128	0,051
-278,701	138,739	0,114	-0,108
-277,686	800,000	-0,019	-0,052
-276,672	152,766	-0,035	-0,034
-275,657	800,000	-0,023	0,050
-274,643	638,579	0,070	0,128
-273,628	-71,765	-0,041	0,011
-272,613	-37,067	0,081	0,031
-271,599	-200,000	0,006	-0,026
-270,584	-15,430	-0,008	0,004
-269,570	-200,000	-0,027	0,197
-268,555	-58,373	0,035	0,011
-267,540	-200,000	-0,007	-0,147
-266,526	-200,000	-0,010	0,050
-265,511	-200,000	-0,010	-0,050
-264,497	-63,947	-0,014	0,004
-263,482	-149,866	0,124	0,007
-262,467	280,826	0,023	-0,030
-261,453	-41,977	0,030	-0,011
-260,438	-200,000	-0,035	-0,155
-259,424	-40,512	-0,074	-0,028
-258,409	800,000	-0,023	-0,068
-257,395	800,000	0,020	-0,047
-256,380	-134,598	0,102	0,009
-255,365	800,000	-0,010	0,027
-254,351	714,549	-0,075	-0,143
-253,336	-159,485	-0,043	0,002
-252,322	161,511	0,081	-0,082
-251,307	107,425	-0,145	-0,125
-250,292	375,940	0,073	-0,108
-249,278	237,833	-0,007	0,008
-248,263	12,331	0,097	0,054
-247,249	-125,485	-0,111	0,012
-246,234	191,257	0,044	0,048
-245,219	22,603	-0,167	-0,099
-244,205	244,026	0,062	-0,075
-243,190	142,870	-0,032	-0,031
-242,176	127,362	0,071	0,065
-241,161	20,903	0,061	0,036
-240,146	91,005	0,064	0,052
-239,132	149,718	-0,084	0,082
-238,117	178,247	0,080	-0,084
-237,103	33,393	0,144	0,090
-236,088	-200,000	-0,014	0,044
-235,073	-86,694	0,141	0,031
-234,059	-200,000	0,026	0,095
-233,044	62,590	0,128	-0,092
-232,030	28,373	-0,104	-0,063
-231,015	-4,962	-0,071	-0,035
-230,000	-137,365	-0,094	0,008
-228,986	-63,926	-0,071	-0,021
-227,971	-104,219	-0,050	0,008
-226,957	106,075	0,115	-0,098
-225,942	-69,837	0,022	-0,006
-224,927	698,250	0,044	0,085
-223,913	-200,000	0,003	-0,079
-222,898	800,000	0,019	0,045
-221,884	-14,849	0,047	0,022
-220,869	-134,122	0,082	-0,007
-219,855	191,991	0,046	0,050
-218,840	800,000	0,047	0,126
-217,825	277,905	-0,045	0,058
-216,811	-63,791	-0,075	0,022
-215,796	-200,000	0,027	0,126
-214,782	-200,000	-0,017	0,103
-213,767	5,833	-0,122	0,065
-212,752	-160,066	-0,081	0,003
-211,738	800,000	0,013	-0,032
-210,723	800,000	0,031	-0,091
-209,709	-200,000	-0,003	-0,188
-208,694	-200,000	-0,004	-0,037
-207,679	-79,914	0,054	0,013
-206,665	-200,000	0,016	0,211
-205,650	-192,399	0,045	-0,000
-204,636	-173,451	0,055	0,001
-203,621	-128,833	0,045	-0,005
-202,606	800,000	-0,025	0,067
-201,592	273,785	-0,013	0,017
-200,577	-110,988	-0,114	-0,017
-199,563	293,154	-0,015	0,020
-198,548	92,029	0,099	0,080
-197,533	-200,000	0,001	0,092
-196,519	156,986	-0,043	0,043
-195,504	800,000	0,034	-0,084
-194,490	-200,000	0,044	-0,170
-193,475	71,739	0,050	-0,037
-192,460	261,602	0,032	0,040
-191,446	800,000	0,035	0,078
-190,431	-200,000	-0,013	0,100
-189,417	-200,000	0,025	-0,103
-188,402	-200,000	-0,001	-0,077
-187,387	-154,583	0,107	-0,005
-186,373	91,213	0,029	-0,024
-185,358	-200,000	-0,004	0,077
-184,344	-200,000	-0,006	0,070
-183,329	443,267	-0,056	0,088
-182,315	-200,000	-0,003	0,105
-181,300	-200,000	0,014	-0,100
-180,285	-200,000	0,027	0,110
-179,271	30,552	0,024	0,015
-178,256	-200,000	-0,032	0,105
-177,242	103,385	0,036	-0,031
-176,227	57,405	0,068	0,048
-175,212	-200,000	-0,049	0,173
-174,198	204,256	-0,081	-0,090
-173,183	437,415	-0,061	-0,097
-172,169	-51,052	-0,149	-0,050
-171,154	800,000	-0,029	0,063
-170,139	83,903	-0,084	-0,066
-169,125	-113,932	0,102	0,014
-168,110	-130,001	-0,047	0,005
-167,096	-200,000	0,012	-0,052
-166,081	-63,224	0,091	-0,027
-165,066	-200,000	0,021	-0,092
-164,052	800,000	0,029	-0,059
-163,037	-200,000	0,013	0,248
-162,023	48,251	0,145	0,097
-161,008	-200,000	0,003	-0,068
-159,993	-200,000	-0,014	-0,109
-158,979	-181,864	-0,066	0,001
-157,964	373,201	0,067	-0,099
-156,950	779,859	0,066	-0,130
-155,935	-58,504	0,124	0,039
-154,920	2,627	0,093	0,048
-153,906	-46,881	0,165	0,058
-152,891	-112,595	-0,056	0,008
-151,877	203,300	0,022	0,025
-150,862	-73,501	-0,052	-0,014
-149,847	800,000	0,065	-0,176
-148,833	8,578	-0,083	0,045
-147,818	-200,000	-0,020	-0,203
-146,804	12,419	0,052	0,029
-145,789	11,844	0,177	0,098
-144,775	-104,029	0,068	0,011
-143,760	-200,000	0,011	0,036
-142,745	-200,000	-0,010	0,085
-141,731	-76,630	0,127	0,032
-140,716	-79,981	-0,098	-0,023
-139,702	-200,000	0,033	0,110
-138,687	186,479	0,065	0,070
-137,672	800,000	-0,009	0,020
-136,658	62,666	-0,054	0,039
-135,643	-139,090	0,046	0,004
-134,629	800,000	0,047	0,099
-133,614	496,969	-0,056	0,093
-132,599	-200,000	-0,012	0,109
-131,585	193,900	0,065	0,071
-130,570	-200,000	-0,038	-0,131
-129,556	-21,489	-0,039	0,017
-128,541	553,023	-0,051	-0,088
-127,526	316,587	0,055	0,075
-126,512	-200,000	0,014	-0,195
-125,497	-12,740	0,048	0,022
-124,483	-200,000	0,002	-0,092
-123,468	250,698	-0,079	0,097
-122,453	238,639	-0,125	0,150
-121,439	-200,000	0,041	0,148
-120,424	-88,142	0,107	-0,023
-119,410	232,033	-0,028	0,033
-118,395	227,979	-0,038	0,045
