DTS Sentinel unit serial number:	SN410029Multiplexer serial number:	ORYXHardware model number:	OX2-SRSoftware version number:	ORYX F/W v4,00 Oryx Data Collector v3.7.2.0data status	okinstallation	B5 Nyhavnadifferential loss correction	single-endedforward channel	channel 2reverse channel	N/Adate	2023/12/13time	16:47:13forward acquisition time	300,00reverse acquisition time	0,00gamma	499,1914k internal	0,3159k external	0,3159temperature offset calibration	1,0000default loss term (dB/km)	0,3820temperature slope calibration	1,0000multiplexer offset coefficient	1,0000multiplexer slope coefficient	1,0000fibre end	0,00T internal ref (°C)	14,51T ext. ref 1 (°C)	-2,67T ext. ref 2 (°C)	-2,74length (m)	temperature (°C)	Stokes	anti-Stokes-744,400	280,220	0,104	0,137
-743,385	-97,677	-0,343	0,065
-742,371	-41,977	0,162	0,061
-741,356	-109,030	-0,229	-0,036
-740,342	77,762	0,138	-0,108
-739,327	-89,531	-0,399	0,086
-738,312	-60,223	0,206	0,064
-737,298	-119,699	-0,259	0,033
-736,283	222,231	0,075	-0,089
-735,269	-89,422	-0,285	0,061
-734,254	151,471	0,124	0,125
-733,239	-63,790	-0,574	-0,172
-732,225	-24,000	0,122	-0,053
-731,210	-25,293	-0,071	0,031
-730,196	40,139	-0,053	-0,035
-729,181	-200,000	0,031	-0,147
-728,167	-99,855	0,055	0,010
-727,152	800,000	-0,031	-0,081
-726,137	653,997	-0,064	0,122
-725,123	-108,730	0,107	-0,017
-724,108	-200,000	0,040	-0,159
-723,094	-47,834	-0,184	-0,065
-722,079	729,076	-0,049	-0,097
-721,064	-200,000	0,017	-0,177
-720,050	389,860	0,072	0,111
-719,035	-102,921	0,090	0,016
-718,021	-81,218	-0,068	0,016
-717,006	311,050	-0,114	-0,157
-715,991	82,459	-0,144	-0,115
-714,977	-200,000	0,000	0,009
-713,962	200,658	-0,032	0,036
-712,948	425,437	0,082	-0,130
-711,933	27,577	-0,099	0,061
-710,918	-200,000	0,001	-0,028
-709,904	734,534	-0,010	0,020
-708,889	-128,541	0,152	-0,016
-707,875	87,829	-0,201	-0,163
-706,860	800,000	0,045	0,126
-705,845	-200,000	-0,003	0,047
-704,831	-200,000	-0,009	-0,031
-703,816	-200,000	-0,008	-0,043
-702,802	422,228	0,019	0,030
-701,787	139,663	0,024	-0,023
-700,772	-115,842	0,050	0,007
-699,758	559,463	0,106	-0,189
-698,743	16,650	0,084	0,049
-697,729	-71,305	0,037	0,010
-696,714	-200,000	-0,003	0,089
-695,699	-200,000	0,009	-0,072
-694,685	-200,000	-0,012	0,134
-693,670	-200,000	-0,008	-0,144
-692,656	-200,000	-0,028	-0,211
-691,641	-200,000	-0,023	0,149
-690,627	800,000	0,052	0,148
-689,612	369,119	-0,036	0,054
-688,597	-110,246	-0,139	-0,021
-687,583	-200,000	-0,019	-0,069
-686,568	-39,450	-0,063	-0,024
-685,554	27,996	-0,092	-0,057
-684,539	-170,097	0,124	0,003
-683,524	-2,813	-0,062	-0,032
-682,510	91,233	0,051	0,042
-681,495	-114,097	-0,094	-0,013
-680,481	-200,000	0,006	-0,147
-679,466	-139,712	-0,124	0,010
-678,451	78,532	0,074	-0,058
-677,437	-146,083	-0,036	-0,002
-676,422	-18,190	0,119	-0,055
-675,408	340,000	0,103	-0,148
-674,393	201,731	0,054	-0,062
-673,378	32,356	-0,041	-0,026
-672,364	-200,000	-0,013	-0,134
-671,349	-77,549	-0,084	-0,021
-670,335	102,216	0,030	0,026
-669,320	-200,000	0,012	0,081
-668,305	-169,838	0,116	-0,003
-667,291	800,000	-0,025	-0,071
-666,276	0,917	-0,040	-0,021
-665,262	-5,497	0,023	0,012
-664,247	-2,655	-0,117	0,060
-663,232	83,128	0,096	0,077
-662,218	53,976	0,044	0,031
-661,203	646,036	0,045	-0,084
-660,189	-49,974	0,103	-0,036
-659,174	170,136	0,050	-0,053
-658,159	-200,000	0,018	-0,082
-657,145	800,000	0,041	-0,093
-656,130	44,123	-0,092	-0,062
-655,116	189,864	0,024	-0,027
-654,101	-200,000	0,003	-0,103
-653,086	-47,528	0,117	-0,042
-652,072	376,658	-0,084	-0,126
-651,057	491,350	-0,054	-0,092
-650,043	637,377	-0,041	-0,077
-649,028	-200,000	0,004	0,052
-648,014	-90,624	0,122	-0,026
-646,999	62,577	-0,117	-0,086
-645,984	-121,652	0,087	0,010
-644,970	151,840	0,011	-0,011
-643,955	-67,852	0,037	-0,011
-642,941	-50,670	-0,070	-0,024
-641,926	106,728	0,114	0,099
-640,911	800,000	0,019	-0,050
-639,897	260,605	0,034	0,043
-638,882	-39,320	0,101	0,039
-637,868	6,476	-0,142	-0,077
-636,853	-200,000	-0,038	-0,168
-635,838	81,349	-0,029	0,023
-634,824	-200,000	-0,005	0,086
-633,809	-67,693	0,114	-0,032
-632,795	-200,000	-0,001	0,019
-631,780	575,321	-0,061	0,110
-630,765	234,298	-0,108	-0,131
-629,751	-200,000	-0,004	-0,033
-628,736	-200,000	0,048	-0,163
-627,722	800,000	-0,021	-0,051
-626,707	-147,980	0,118	0,007
-625,692	278,591	0,036	0,047
-624,678	228,392	0,045	0,054
-623,663	800,000	0,038	-0,086
-622,649	-114,354	-0,069	0,010
-621,634	-200,000	-0,002	-0,117
-620,619	-200,000	0,000	-0,021
-619,605	-200,000	0,010	-0,037
-618,590	-16,910	0,080	0,037
-617,576	-9,823	0,078	0,038
-616,561	-78,680	0,088	-0,022
-615,546	545,666	-0,011	-0,019
-614,532	-59,341	-0,036	0,011
-613,517	-54,792	0,109	-0,036
-612,503	-200,000	-0,011	0,110
-611,488	313,192	-0,089	-0,122
-610,474	-85,461	-0,099	0,022
-609,459	-200,000	0,030	-0,113
-608,444	-2,893	0,143	-0,073
-607,430	-173,970	-0,070	-0,001
-606,415	621,072	-0,027	-0,050
-605,401	-111,971	-0,066	-0,010
-604,386	-200,000	0,026	-0,087
-603,371	476,031	0,029	0,049
-602,357	-104,329	-0,029	-0,005
-601,342	-200,000	0,000	0,035
-600,328	-38,312	-0,151	-0,058
-599,313	284,756	-0,055	0,072
-598,298	-200,000	-0,004	-0,100
-597,284	33,726	0,195	0,124
-596,269	800,000	0,012	0,033
-595,255	800,000	0,055	-0,134
-594,240	140,683	-0,113	0,109
-593,225	-139,196	-0,095	-0,007
-592,211	800,000	-0,043	0,105
-591,196	-54,945	-0,094	0,031
-590,182	-114,805	0,082	-0,011
-589,167	800,000	0,089	0,215
-588,152	-42,610	-0,088	-0,033
-587,138	-200,000	0,012	0,041
-586,123	-200,000	0,003	-0,013
-585,109	202,917	0,074	-0,084
-584,094	-43,674	-0,082	0,030
-583,079	-116,359	0,146	0,020
-582,065	-90,365	-0,041	0,009
-581,050	259,934	0,129	-0,164
-580,036	800,000	0,014	0,035
-579,021	-200,000	-0,005	-0,211
-578,006	-71,576	-0,086	-0,023
-576,992	63,169	-0,045	0,033
-575,977	-165,671	0,123	-0,004
-574,963	218,642	0,072	0,084
-573,948	-9,363	-0,124	0,060
-572,934	-200,000	-0,020	0,066
-571,919	-200,000	-0,013	-0,136
-570,904	4,486	-0,133	0,071
-569,890	-108,989	0,051	0,008
-568,875	255,026	0,034	-0,043
-567,861	-200,000	-0,029	0,173
-566,846	751,006	-0,067	0,133
-565,831	-200,000	0,012	0,047
-564,817	-174,257	-0,165	-0,003
-563,802	-200,000	0,004	0,123
-562,788	-200,000	0,023	-0,111
-561,773	-51,255	-0,101	-0,034
-560,758	-200,000	-0,007	0,092
-559,744	-200,000	0,004	0,061
-558,729	500,223	-0,055	0,092
-557,715	-200,000	-0,035	-0,138
-556,700	-139,219	-0,120	0,009
-555,685	421,846	-0,023	-0,037
-554,671	82,403	-0,128	-0,101
-553,656	-147,039	0,067	-0,004
-552,642	278,190	-0,040	0,053
-551,627	-200,000	0,027	-0,089
-550,612	-51,268	0,090	0,030
-549,598	6,102	-0,061	-0,033
-548,583	-200,000	0,010	-0,043
-547,569	-91,602	0,146	0,030
-546,554	-137,841	0,085	-0,007
-545,539	-108,926	-0,061	0,009
-544,525	-200,000	0,026	0,097
-543,510	-200,000	-0,003	-0,021
-542,496	-22,870	-0,041	-0,018
-541,481	122,925	-0,046	0,042
-540,466	-200,000	-0,013	0,057
-539,452	73,768	-0,077	-0,059
-538,437	55,697	-0,049	-0,035
-537,423	800,000	-0,048	-0,105
-536,408	-200,000	-0,006	0,042
-535,393	-95,927	-0,076	0,015
-534,379	-200,000	0,006	-0,054
-533,364	800,000	-0,075	-0,166
-532,350	-200,000	0,012	-0,104
-531,335	346,207	0,050	0,072
-530,321	-79,409	-0,207	0,051
-529,306	317,235	-0,028	-0,039
-528,291	-50,625	-0,037	-0,013
-527,277	-200,000	-0,026	-0,106
-526,262	-124,183	-0,067	-0,008
-525,248	-200,000	0,013	-0,148
-524,233	189,363	0,083	0,091
-523,218	31,361	-0,108	0,068
-522,204	800,000	0,036	-0,101
-521,189	277,004	0,041	-0,053
-520,175	157,631	-0,043	-0,043
-519,160	-200,000	0,015	-0,053
-518,145	-42,409	-0,089	-0,033
-517,131	800,000	-0,032	0,103
-516,116	-200,000	0,011	0,145
-515,102	225,658	0,065	0,078
-514,087	-68,874	-0,022	0,006
-513,072	206,946	0,092	-0,105
-512,058	-106,038	-0,033	0,005
-511,043	154,261	0,055	0,055
-510,029	-99,213	0,084	0,015
-509,014	-200,000	0,026	0,134
-507,999	447,959	-0,019	-0,031
-506,985	-200,000	0,017	0,069
-505,970	-133,785	0,188	0,017
-504,956	722,027	0,072	-0,141
-503,941	-200,000	0,036	-0,155
-502,926	169,396	-0,041	-0,043
-501,912	246,936	0,056	-0,069
-500,897	117,998	-0,054	0,048
-499,883	-69,337	0,032	0,009
-498,868	131,128	-0,128	-0,120
-497,853	-61,928	-0,073	-0,022
-496,839	-62,311	-0,039	0,012
-495,824	-55,540	-0,104	0,034
-494,810	-200,000	0,010	-0,054
-493,795	-200,000	-0,044	0,161
-492,781	306,319	-0,024	0,033
-491,766	-162,292	-0,116	0,004
-490,751	26,254	-0,074	0,045
-489,737	-26,382	-0,125	0,053
-488,722	-111,871	0,069	0,010
-487,708	-134,053	-0,114	0,010
-486,693	-200,000	-0,024	-0,114
-485,678	56,887	-0,092	-0,066
-484,664	316,055	-0,046	-0,063
-483,649	-200,000	0,000	0,027
-482,635	-200,000	0,008	0,042
-481,620	316,336	-0,038	-0,052
-480,605	-87,059	-0,153	-0,034
-479,591	-200,000	-0,006	0,021
-478,576	129,463	-0,053	-0,049
-477,562	-200,000	0,016	-0,115
-476,547	197,853	-0,042	0,047
-475,532	800,000	0,021	-0,043
-474,518	-200,000	0,005	0,148
-473,503	574,727	-0,098	0,175
-472,489	87,084	0,049	-0,039
-471,474	-137,620	0,023	0,002
-470,459	-200,000	0,006	-0,030
-469,445	-200,000	-0,017	-0,069
-468,430	800,000	-0,060	-0,126
-467,416	550,181	-0,030	-0,052
-466,401	-200,000	-0,014	-0,126
-465,386	800,000	0,024	-0,052
-464,372	277,565	0,035	0,045
-463,357	-112,042	-0,082	-0,012
-462,343	-200,000	0,016	0,082
-461,328	80,388	-0,048	0,038
-460,313	181,842	0,082	0,088
-459,299	133,436	0,090	0,085
-458,284	-200,000	-0,002	-0,012
-457,270	141,339	-0,070	0,067
-456,255	128,765	0,029	-0,027
-455,241	-91,752	0,033	0,007
-454,226	-39,515	-0,106	-0,040
-453,211	800,000	0,006	-0,018
-452,197	50,131	-0,105	0,072
-451,182	-106,056	0,062	-0,010
-450,168	-35,227	0,111	-0,044
-449,153	-24,209	0,067	0,029
-448,138	-142,185	-0,113	-0,008
-447,124	-75,603	-0,078	0,020
-446,109	-19,600	-0,046	0,021
-445,095	-35,444	0,151	-0,060
-444,080	400,328	-0,048	0,074
-443,065	800,000	0,011	-0,031
-442,051	65,260	0,041	0,031
-441,036	68,097	-0,248	-0,185
-440,022	-175,820	-0,184	-0,003
-439,007	419,085	0,019	-0,030
-437,992	-200,000	-0,089	0,000
-436,978	-170,508	0,082	-0,002
-435,963	-139,756	0,046	0,004
-434,949	-66,383	-0,174	0,050
-433,934	800,000	0,052	0,112
-432,919	286,173	-0,073	0,096
-431,905	-85,536	0,058	-0,013
-430,890	26,064	0,064	0,039
-429,876	-58,266	0,122	0,038
-428,861	344,579	0,093	-0,133
-427,846	-93,344	0,114	-0,023
-426,832	800,000	-0,027	0,063
-425,817	-107,820	-0,072	0,011
-424,803	22,729	-0,064	-0,038
-423,788	800,000	0,004	0,009
-422,773	266,681	0,040	0,051
-421,759	800,000	0,020	0,061
-420,744	455,376	-0,043	0,070
-419,730	-13,257	-0,131	-0,061
-418,715	800,000	0,040	-0,090
-417,701	350,317	-0,077	-0,110
-416,686	283,914	-0,012	-0,015
-415,671	800,000	0,021	-0,066
-414,657	79,956	0,073	0,057
-413,642	171,178	-0,092	0,096
-412,628	800,000	0,013	0,037
-411,613	95,637	0,045	0,038
-410,598	299,560	-0,129	-0,174
-409,584	694,420	-0,021	-0,040
-408,569	-200,000	0,007	0,043
-407,555	584,900	0,083	-0,149
-406,540	-70,252	0,041	0,011
-405,525	158,882	-0,047	0,048
-404,511	-200,000	0,010	0,083
-403,496	800,000	-0,032	0,101
-402,482	-114,455	-0,078	-0,011
-401,467	437,897	0,045	0,071
-400,452	-160,854	0,061	0,002
-399,438	-200,000	-0,019	0,210
-398,423	46,415	-0,050	0,034
-397,409	409,537	0,062	-0,096
-396,394	-200,000	0,016	-0,136
-395,379	-178,089	0,176	-0,003
-394,365	-82,984	0,070	-0,016
-393,350	63,564	-0,094	0,068
-392,336	234,429	0,038	0,046
-391,321	38,531	-0,156	0,101
-390,306	-200,000	-0,033	-0,132
-389,292	712,598	-0,077	-0,149
-388,277	517,110	0,022	0,038
-387,263	-70,019	0,081	0,022
-386,248	-54,579	-0,093	-0,030
-385,233	-17,607	-0,036	-0,016
-384,219	388,673	-0,059	-0,089
-383,204	-200,000	-0,011	-0,095
-382,190	334,618	-0,027	-0,038
-381,175	1,455	-0,047	-0,024
-380,160	-200,000	0,003	0,081
-379,146	-9,007	0,148	0,072
-378,131	-94,301	0,134	0,026
-377,117	57,016	-0,023	0,016
-376,102	-200,000	0,004	-0,113
-375,088	-200,000	0,001	0,020
-374,073	-200,000	0,022	-0,078
-373,058	326,575	0,072	0,100
-372,044	-68,437	-0,020	-0,006
-371,029	2,383	0,154	0,081
-370,015	69,525	-0,061	0,046
-369,000	-2,750	0,057	-0,029
-367,985	800,000	0,029	-0,076
-366,971	800,000	-0,053	0,108
-365,956	124,010	0,027	0,025
-364,942	195,019	0,086	0,095
-363,927	-200,000	-0,019	0,065
-362,912	200,343	0,109	0,122
-361,898	-49,556	0,066	-0,023
-360,883	-52,074	-0,047	-0,016
-359,869	800,000	0,033	-0,101
-358,854	-200,000	0,023	0,092
-357,839	-137,273	0,262	0,021
-356,825	-200,000	-0,005	-0,052
-355,810	-175,551	0,080	0,002
-354,796	260,136	-0,119	-0,150
-353,781	-43,925	0,130	0,047
-352,766	71,416	0,030	0,022
-351,752	-200,000	0,023	0,113
-350,737	-200,000	-0,029	-0,098
-349,723	157,803	0,092	0,092
-348,708	-17,294	0,097	0,044
-347,693	-83,285	-0,078	-0,018
-346,679	-200,000	0,002	-0,028
-345,664	490,786	-0,046	-0,077
-344,650	-124,839	-0,035	-0,004
-343,635	185,648	0,039	-0,042
-342,620	800,000	0,058	0,174
-341,606	-190,422	0,116	0,001
-340,591	257,051	-0,044	-0,056
-339,577	65,501	-0,089	-0,065
-338,562	-71,348	-0,222	-0,060
-337,548	800,000	0,052	0,153
-336,533	37,799	0,081	-0,052
-335,518	-200,000	-0,002	0,115
-334,504	7,865	-0,085	-0,046
-333,489	72,552	0,080	0,061
-332,475	800,000	0,065	-0,169
-331,460	14,722	0,046	-0,026
-330,445	-200,000	0,004	-0,074
-329,431	264,563	0,129	0,163
-328,416	-37,528	0,049	0,019
-327,402	13,522	0,127	0,071
-326,387	552,299	0,053	0,093
-325,372	-84,547	-0,059	-0,013
-324,358	-160,322	0,109	0,004
-323,343	-200,000	-0,016	0,134
-322,329	49,498	-0,013	0,009
-321,314	-41,800	0,070	-0,026
-320,299	514,550	-0,048	0,082
-319,285	-54,604	0,026	0,009
-318,270	-64,040	0,061	-0,018
-317,256	-200,000	-0,055	-0,204
-316,241	-200,000	0,009	0,030
-315,226	-200,000	0,003	0,064
-314,212	-181,574	0,076	0,001
-313,197	-200,000	0,048	0,156
-312,183	243,579	-0,095	-0,116
-311,168	64,105	-0,085	-0,062
-310,153	729,891	0,019	0,037
-309,139	313,868	-0,071	-0,097
-308,124	360,622	0,073	-0,107
-307,110	-4,662	-0,170	0,085
-306,095	800,000	-0,023	0,051
-305,080	800,000	-0,041	-0,111
-304,066	355,017	-0,067	-0,097
-303,051	-52,293	-0,045	-0,015
-302,037	-200,000	-0,023	0,080
-301,022	191,326	-0,009	-0,010
-300,008	429,883	0,026	-0,040
-298,993	0,800	0,033	0,017
-297,978	-200,000	0,022	0,074
-296,964	-47,179	-0,167	-0,059
-295,949	198,179	0,059	-0,065
-294,935	476,187	-0,056	-0,092
-293,920	97,053	0,066	-0,055
-292,905	20,321	0,116	0,068
-291,891	17,183	0,051	0,029
-290,876	-93,656	-0,041	0,008
-289,862	178,085	-0,078	-0,083
-288,847	800,000	0,055	-0,153
-287,832	-200,000	-0,015	-0,057
-286,818	22,730	-0,040	-0,024
-285,803	-200,000	0,032	0,102
-284,789	92,525	-0,083	0,068
-283,774	-16,999	0,150	-0,068
-282,759	800,000	-0,028	-0,058
-281,745	206,381	-0,058	-0,065
-280,730	-200,000	-0,011	-0,083
-279,716	-200,000	-0,011	0,082
-278,701	800,000	-0,039	-0,078
-277,686	53,287	-0,058	0,040
-276,672	800,000	0,055	0,119
-275,657	577,402	0,026	0,047
-274,643	194,756	-0,015	-0,017
-273,628	-200,000	0,020	-0,177
-272,613	-142,503	0,099	0,007
-271,599	-108,921	-0,131	-0,020
-270,584	-174,428	0,092	0,002
-269,570	-200,000	0,030	0,160
-268,555	93,720	0,113	-0,093
-267,540	41,409	0,092	-0,060
-266,526	82,308	-0,123	-0,097
-265,511	-200,000	-0,037	0,121
-264,497	-200,000	0,002	0,028
-263,482	-200,000	-0,003	0,101
-262,467	393,328	0,039	0,060
-261,453	-200,000	-0,020	-0,129
-260,438	85,537	-0,077	-0,061
-259,424	-200,000	0,042	-0,154
-258,409	-77,734	-0,101	0,025
-257,395	-109,046	-0,025	0,004
-256,380	-9,880	0,096	0,046
-255,365	-153,352	-0,012	0,001
-254,351	-42,973	0,125	0,046
-253,336	-200,000	-0,011	-0,056
-252,322	800,000	0,018	-0,054
-251,307	5,889	0,045	0,024
-250,292	30,242	0,083	-0,051
-249,278	22,610	0,104	0,062
-248,263	-63,487	0,087	-0,026
-247,249	486,675	0,032	-0,053
-246,234	127,966	-0,064	0,059
-245,219	73,463	-0,103	0,078
-244,205	-200,000	0,020	-0,124
-243,190	800,000	-0,028	-0,064
-242,176	-126,444	0,144	0,015
-241,161	800,000	0,021	-0,050
-240,146	-200,000	-0,004	-0,085
-239,132	122,953	0,029	-0,026
-238,117	800,000	-0,037	-0,077
-237,103	-55,108	-0,088	0,029
-236,088	401,731	0,058	0,089
-235,073	686,630	0,028	0,053
-234,059	-200,000	0,020	0,086
-233,044	800,000	-0,031	0,081
-232,030	-161,035	0,040	-0,001
-231,015	-200,000	0,022	-0,115
-230,000	148,106	-0,106	0,104
-228,986	-112,368	0,162	0,023
-227,971	61,502	-0,026	0,019
-226,957	-200,000	-0,008	-0,027
-225,942	314,902	-0,069	0,094
-224,927	-49,447	0,080	-0,027
-223,913	111,409	-0,100	-0,087
-222,898	-200,000	-0,024	-0,168
-221,884	-49,253	0,081	0,028
-220,869	-200,000	0,008	0,100
-219,855	717,646	0,057	0,110
-218,840	-2,417	0,101	0,051
-217,825	800,000	0,029	-0,061
-216,811	-29,065	-0,027	0,011
-215,796	-86,703	-0,136	0,030
-214,782	-20,952	-0,088	0,039
-213,767	729,665	0,069	0,133
-212,752	193,631	-0,048	0,053
-211,738	576,650	0,021	0,037
-210,723	215,530	-0,046	0,053
-209,709	800,000	-0,040	-0,094
-208,694	-200,000	-0,001	-0,144
-207,679	-115,860	0,103	-0,014
-206,665	-62,381	0,028	0,008
-205,650	173,489	0,034	0,035
-204,636	-190,211	0,065	0,000
-203,621	7,607	0,051	-0,028
-202,606	-108,089	-0,120	0,019
-201,592	-99,333	0,088	-0,016
-200,577	800,000	0,022	0,050
-199,563	115,849	-0,068	-0,060
-198,548	218,430	0,129	0,149
-197,533	-180,552	-0,091	0,001
-196,519	213,328	0,047	0,054
-195,504	-200,000	-0,010	0,044
-194,490	268,466	-0,050	-0,064
-193,475	-48,428	-0,034	-0,012
-192,460	61,954	-0,037	0,026
-191,446	-200,000	-0,016	-0,097
-190,431	31,061	0,131	0,081
-189,417	-200,000	0,024	0,105
-188,402	490,893	0,008	0,013
-187,387	279,015	-0,043	-0,055
-186,373	15,111	-0,053	-0,030
-185,358	-120,479	-0,091	0,011
-184,344	-200,000	0,006	0,080
-183,329	-138,152	0,035	0,003
-182,315	-93,928	0,153	-0,030
-181,300	13,187	-0,161	-0,090
-180,285	169,703	0,061	0,062
-179,271	-200,000	-0,002	0,026
-178,256	-76,809	0,165	-0,041
-177,242	-200,000	-0,034	0,117
-176,227	176,769	0,038	0,040
-175,212	554,241	0,022	0,039
-174,198	-1,146	0,031	-0,016
-173,183	-200,000	0,021	-0,145
-172,169	67,990	0,080	-0,059
-171,154	800,000	-0,034	-0,092
-170,139	247,326	0,066	-0,080
-169,125	-200,000	-0,005	0,074
-168,110	-200,000	0,003	0,055
-167,096	-108,771	0,073	-0,011
-166,081	-2,124	-0,159	0,080
-165,066	800,000	-0,026	0,076
-164,052	-33,242	-0,040	0,016
-163,037	-117,347	-0,079	0,010
-162,023	435,222	0,082	0,129
-161,008	-200,000	-0,036	0,197
-159,993	-200,000	-0,003	0,052
-158,979	-144,894	-0,063	-0,004
-157,964	102,835	-0,097	0,082
-156,950	52,160	-0,015	0,011
-155,935	214,958	0,087	0,099
-154,920	-102,167	0,090	0,015
-153,906	-62,912	0,030	0,009
-152,891	395,982	0,084	0,127
-151,877	-200,000	0,003	0,064
-150,862	189,433	0,124	0,134
-149,847	-103,273	-0,033	0,006
-148,833	-200,000	0,020	-0,074
-147,818	158,090	0,059	0,059
-146,804	800,000	0,041	0,119
-145,789	-5,290	0,073	-0,036
-144,775	-164,794	-0,129	-0,004
-143,760	-200,000	0,037	-0,135
-142,745	-200,000	-0,023	0,082
-141,731	-200,000	-0,004	0,016
-140,716	220,817	0,064	0,074
-139,702	363,118	-0,072	0,105
-138,687	-200,000	0,033	-0,124
-137,672	-200,000	0,012	0,043
-136,658	85,278	0,154	-0,121
-135,643	-48,343	-0,073	-0,025
-134,629	87,795	0,112	0,089
-133,614	478,651	0,046	0,076
-132,599	-200,000	-0,003	0,029
-131,585	378,218	0,053	0,078
-130,570	175,164	-0,023	0,024
-129,556	-200,000	-0,001	0,032
-128,541	-137,654	-0,078	-0,006
-127,526	-200,000	0,003	-0,056
-126,512	119,911	0,120	0,107
-125,497	278,464	0,117	0,151
-124,483	-148,931	-0,088	-0,005
-123,468	205,273	0,060	0,067
-122,453	-109,840	0,038	-0,006
-121,439	-200,000	0,013	0,051
-120,424	-200,000	0,041	-0,144
-119,410	-9,721	0,078	0,037
