DTS Sentinel unit serial number:	SN410029Multiplexer serial number:	ORYXHardware model number:	OX2-SRSoftware version number:	ORYX F/W v4,00 Oryx Data Collector v3.7.2.0data status	okinstallation	B5 Nyhavnadifferential loss correction	single-endedforward channel	channel 2reverse channel	N/Adate	2023/12/14time	16:32:13forward acquisition time	300,00reverse acquisition time	0,00gamma	499,1914k internal	0,3157k external	0,3157temperature offset calibration	1,0000default loss term (dB/km)	0,3820temperature slope calibration	1,0000multiplexer offset coefficient	1,0000multiplexer slope coefficient	1,0000fibre end	0,00T internal ref (°C)	8,00T ext. ref 1 (°C)	-7,47T ext. ref 2 (°C)	-7,51length (m)	temperature (°C)	Stokes	anti-Stokes-744,400	199,481	0,227	0,257
-743,385	-51,382	-0,386	-0,132
-742,371	185,077	0,150	0,164
-741,356	-112,785	-0,330	0,048
-740,342	-34,150	0,164	0,066
-739,327	-128,409	-0,335	-0,035
-738,312	392,598	0,054	0,084
-737,298	15,092	-0,285	-0,164
-736,283	-32,181	0,108	0,044
-735,269	-35,231	-0,406	-0,162
-734,254	-1,893	0,318	0,164
-733,239	-24,361	-0,670	-0,293
-732,225	-102,308	0,203	0,036
-731,210	97,373	0,099	0,084
-730,196	156,459	-0,111	-0,113
-729,181	93,948	-0,073	0,061
-728,167	393,373	0,070	0,108
-727,152	565,786	0,060	0,107
-726,137	-57,497	-0,077	-0,025
-725,123	338,144	-0,081	-0,116
-724,108	32,318	-0,087	-0,055
-723,094	89,401	0,151	-0,124
-722,079	22,936	-0,102	-0,061
-721,064	800,000	-0,011	-0,025
-720,050	800,000	0,070	-0,154
-719,035	-200,000	0,024	-0,136
-718,021	6,039	-0,183	-0,100
-717,006	5,509	-0,139	-0,075
-715,991	185,269	0,043	0,047
-714,977	78,436	-0,125	-0,099
-713,962	77,154	-0,038	-0,030
-712,948	-108,582	0,056	-0,009
-711,933	-161,191	-0,158	0,006
-710,918	-143,306	-0,109	0,008
-709,904	88,186	0,095	-0,078
-708,889	307,230	0,006	-0,009
-707,875	274,455	-0,065	0,085
-706,860	-58,729	0,096	0,030
-705,845	-116,359	-0,032	-0,004
-704,831	218,451	-0,034	-0,041
-703,816	-24,027	-0,143	0,063
-702,802	744,211	-0,062	0,124
-701,787	235,088	-0,126	-0,153
-700,772	-77,646	-0,087	0,022
-699,758	-200,000	0,007	-0,186
-698,743	-31,816	0,089	0,037
-697,729	-24,226	0,029	0,013
-696,714	-92,279	-0,142	0,029
-695,699	69,396	0,063	-0,048
-694,685	-6,752	-0,023	0,011
-693,670	236,271	0,016	0,019
-692,656	-47,025	-0,119	0,043
-691,641	800,000	0,014	0,044
-690,627	800,000	-0,035	0,085
-689,612	266,099	-0,060	-0,077
-688,597	800,000	0,039	0,105
-687,583	-77,571	-0,044	0,011
-686,568	44,537	-0,115	-0,078
-685,554	283,261	0,040	-0,053
-684,539	-128,123	-0,088	-0,009
-683,524	-200,000	0,005	0,093
-682,510	106,421	-0,056	-0,049
-681,495	-50,960	0,027	0,009
-680,481	-132,148	-0,152	0,014
-679,466	745,117	-0,045	0,090
-678,451	73,647	0,051	0,040
-677,437	247,783	-0,127	-0,158
-676,422	-200,000	0,009	-0,109
-675,408	-44,725	0,043	-0,016
-674,393	-200,000	0,010	0,056
-673,378	-10,949	-0,251	-0,121
-672,364	83,980	-0,039	0,031
-671,349	-59,857	-0,121	-0,038
-670,335	-200,000	0,016	-0,052
-669,320	370,172	0,057	-0,085
-668,305	-27,316	0,096	-0,041
-667,291	-31,609	-0,179	-0,074
-666,276	800,000	-0,018	-0,042
-665,262	-169,611	-0,186	0,005
-664,247	-39,530	0,058	-0,022
-663,232	444,974	0,059	0,095
-662,218	-21,205	-0,127	0,057
-661,203	-75,798	0,074	0,019
-660,189	-200,000	-0,010	0,135
-659,174	-54,050	-0,147	-0,049
-658,159	800,000	0,008	-0,018
-657,145	-128,074	-0,122	-0,013
-656,130	-200,000	-0,001	0,026
-655,116	-200,000	-0,002	0,048
-654,101	-141,667	-0,036	-0,003
-653,086	-37,598	0,035	-0,014
-652,072	233,002	-0,118	-0,142
-651,057	-36,015	-0,150	-0,059
-650,043	-42,361	-0,031	-0,011
-649,028	800,000	-0,027	-0,079
-648,014	-115,210	0,194	0,027
-646,999	337,147	-0,028	0,040
-645,984	-200,000	-0,012	-0,065
-644,970	-200,000	0,009	-0,176
-643,955	256,664	0,009	0,011
-642,941	92,320	-0,120	-0,099
-641,926	25,444	0,092	0,056
-640,911	800,000	0,032	-0,098
-639,897	588,547	0,024	0,044
-638,882	-92,835	-0,156	-0,032
-637,868	-46,038	0,062	-0,022
-636,853	223,395	0,042	-0,050
-635,838	-76,079	0,049	-0,013
-634,824	-200,000	0,014	-0,084
-633,809	614,867	0,048	-0,088
-632,795	210,669	-0,085	0,098
-631,780	-117,869	-0,203	0,026
-630,765	-200,000	0,005	-0,038
-629,751	-33,874	-0,081	0,033
-628,736	-200,000	0,003	-0,088
-627,722	2,941	0,054	-0,029
-626,707	800,000	0,043	0,123
-625,692	-91,033	-0,108	0,023
-624,678	12,907	-0,092	-0,052
-623,663	-200,000	-0,002	0,052
-622,649	85,270	-0,107	0,086
-621,634	13,716	0,040	-0,023
-620,619	102,892	0,035	-0,030
-619,605	-200,000	0,025	-0,093
-618,590	-86,271	0,144	0,032
-617,576	1,965	-0,104	0,055
-616,561	-73,657	0,053	-0,014
-615,546	-94,836	-0,171	-0,034
-614,532	-200,000	0,001	-0,098
-613,517	-60,309	-0,187	0,058
-612,503	123,888	0,045	0,041
-611,488	5,919	0,059	-0,032
-610,474	297,920	-0,086	0,116
-609,459	-200,000	0,006	-0,066
-608,444	-79,257	-0,033	0,008
-607,430	114,272	-0,067	0,060
-606,415	111,528	0,056	-0,049
-605,401	-200,000	0,008	0,063
-604,386	-200,000	0,001	-0,046
-603,371	800,000	-0,026	0,072
-602,357	800,000	0,025	0,062
-601,342	181,153	0,013	0,014
-600,328	59,202	-0,074	0,053
-599,313	54,397	0,054	0,038
-598,298	225,266	-0,074	-0,088
-597,284	800,000	-0,060	-0,133
-596,269	-200,000	-0,004	-0,085
-595,255	121,942	-0,045	0,041
-594,240	291,791	-0,152	-0,203
-593,225	-19,453	0,083	0,037
-592,211	800,000	-0,049	0,123
-591,196	690,300	0,020	0,038
-590,182	-45,786	-0,066	-0,024
-589,167	800,000	-0,044	0,101
-588,152	-120,309	-0,085	0,010
-587,138	228,228	-0,029	-0,034
-586,123	-200,000	-0,013	0,064
-585,109	800,000	0,038	-0,078
-584,094	257,213	0,108	0,136
-583,079	734,019	-0,099	0,196
-582,065	541,309	-0,013	-0,022
-581,050	108,708	-0,105	0,092
-580,036	331,476	-0,013	-0,019
-579,021	-200,000	-0,020	-0,075
-578,006	536,995	-0,097	-0,170
-576,992	-165,062	-0,068	-0,002
-575,977	149,355	-0,103	0,102
-574,963	53,223	0,094	0,066
-573,948	-100,780	0,054	0,010
-572,934	-200,000	-0,030	0,171
-571,919	45,246	-0,057	-0,039
-570,904	-119,441	-0,160	-0,020
-569,890	228,534	0,060	-0,071
-568,875	757,289	-0,062	-0,124
-567,861	-110,821	0,081	0,012
-566,846	497,555	0,040	-0,068
-565,831	322,335	0,048	-0,067
-564,817	3,900	-0,067	-0,036
-563,802	-104,242	0,064	-0,011
-562,788	800,000	-0,047	0,125
-561,773	-200,000	0,005	0,057
-560,758	-60,498	-0,084	0,026
-559,744	-55,743	-0,057	-0,018
-558,729	546,528	-0,053	-0,094
-557,715	-85,684	0,193	-0,044
-556,700	262,430	-0,017	-0,022
-555,685	163,699	-0,048	0,050
-554,671	-130,358	0,007	0,001
-553,656	84,067	-0,018	0,015
-552,642	-200,000	-0,013	0,077
-551,627	294,030	-0,097	-0,130
-550,612	67,718	-0,118	-0,088
-549,598	15,533	-0,034	-0,019
-548,583	217,021	0,125	-0,146
-547,569	800,000	-0,031	-0,098
-546,554	-200,000	-0,002	-0,017
-545,539	-17,960	0,077	0,035
-544,525	89,356	0,087	-0,071
-543,510	800,000	-0,057	0,127
-542,496	-32,606	-0,032	0,013
-541,481	74,720	0,063	-0,048
-540,466	345,145	0,041	-0,059
-539,452	-200,000	0,018	-0,069
-538,437	303,338	-0,048	-0,065
-537,423	126,612	0,096	0,089
-536,408	-86,387	-0,120	0,027
-535,393	523,268	-0,086	-0,149
-534,379	-176,036	-0,177	-0,003
-533,364	-200,000	-0,022	-0,081
-532,350	-200,000	0,012	0,180
-531,335	-31,839	0,101	0,041
-530,321	-30,658	-0,072	0,029
-529,306	800,000	-0,053	0,155
-528,291	-141,588	-0,153	0,011
-527,277	800,000	0,025	0,070
-526,262	-103,420	0,022	-0,004
-525,248	-151,862	0,127	-0,007
-524,233	378,269	-0,052	-0,078
-523,218	175,237	0,043	-0,046
-522,204	-200,000	0,005	0,095
-521,189	-200,000	-0,018	-0,077
-520,175	-174,535	-0,063	0,001
-519,160	-200,000	-0,012	0,054
-518,145	65,856	0,048	-0,036
-517,131	800,000	-0,022	-0,048
-516,116	284,441	0,021	0,027
-515,102	800,000	-0,054	0,123
-514,087	800,000	0,059	0,132
-513,072	1,702	-0,209	0,110
-512,058	-117,748	0,038	0,005
-511,043	74,223	0,066	0,050
-510,029	64,058	-0,074	-0,055
-509,014	-84,914	-0,008	-0,002
-507,999	-200,000	0,020	0,112
-506,985	-76,139	-0,164	-0,042
-505,970	800,000	0,033	-0,071
-504,956	430,327	0,142	-0,226
-503,941	122,810	0,036	0,033
-502,926	75,314	0,070	-0,054
-501,912	800,000	-0,027	0,074
-500,897	-102,054	0,091	0,016
-499,883	-38,085	-0,055	-0,021
-498,868	-200,000	0,008	0,029
-497,853	-200,000	0,002	-0,201
-496,839	-58,265	0,113	-0,036
-495,824	92,680	0,070	-0,057
-494,810	800,000	-0,018	-0,057
-493,795	350,837	0,052	0,075
-492,781	-164,708	-0,124	0,004
-491,766	151,033	0,081	0,081
-490,751	77,228	-0,086	-0,067
-489,737	-69,760	0,119	0,033
-488,722	800,000	-0,042	0,109
-487,708	-200,000	-0,009	0,098
-486,693	-22,941	0,127	-0,056
-485,678	6,799	-0,087	-0,047
-484,664	239,521	-0,121	-0,147
-483,649	-200,000	-0,057	0,199
-482,635	490,775	-0,071	0,120
-481,620	-98,489	0,112	0,021
-480,605	16,606	-0,032	0,018
-479,591	-200,000	0,008	-0,031
-478,576	-200,000	0,030	0,108
-477,562	-1,334	-0,103	-0,053
-476,547	800,000	-0,061	-0,140
-475,532	277,035	-0,106	-0,138
-474,518	391,660	-0,053	0,081
-473,503	8,148	0,075	-0,041
-472,489	800,000	-0,037	0,090
-471,474	-42,769	-0,057	0,021
-470,459	-69,442	-0,164	0,046
-469,445	-29,032	-0,158	-0,066
-468,430	-200,000	0,019	-0,190
-467,416	74,965	0,033	0,026
-466,401	168,318	0,044	-0,046
-465,386	288,456	-0,056	0,074
-464,372	-200,000	-0,022	-0,092
-463,357	86,916	0,035	0,028
-462,343	91,138	-0,049	-0,040
-461,328	-200,000	-0,000	0,046
-460,313	-200,000	-0,022	-0,072
-459,299	51,792	0,062	-0,043
-458,284	220,606	0,011	0,013
-457,270	-200,000	-0,029	0,121
-456,255	800,000	-0,017	0,052
-455,241	-86,032	-0,048	-0,011
-454,226	-200,000	0,019	0,180
-453,211	226,849	0,030	0,035
-452,197	-14,470	0,120	0,056
-451,182	74,086	0,073	0,056
-450,168	614,920	-0,054	-0,099
-449,153	-200,000	0,034	-0,194
-448,138	143,385	-0,061	-0,059
-447,124	222,928	-0,006	0,007
-446,109	134,876	0,156	-0,147
-445,095	-81,604	0,089	0,021
-444,080	-140,459	0,214	0,016
-443,065	-91,095	-0,051	0,011
-442,051	-200,000	-0,006	0,073
-441,036	-105,216	-0,160	-0,026
-440,022	-119,843	0,084	-0,010
-439,007	-42,044	0,062	0,023
-437,992	19,344	0,086	-0,050
-436,978	514,133	0,047	0,080
-435,963	800,000	-0,023	-0,061
-434,949	18,832	-0,034	0,020
-433,934	123,459	0,086	0,078
-432,919	-200,000	0,006	-0,150
-431,905	-139,349	0,118	0,009
-430,890	-98,071	-0,148	-0,027
-429,876	129,571	0,076	0,071
-428,861	-64,496	0,120	0,035
-427,846	18,398	-0,142	-0,082
-426,832	140,675	0,111	0,107
-425,817	-200,000	0,001	0,097
-424,803	-3,913	0,019	0,010
-423,788	248,083	0,065	0,081
-422,773	-185,470	0,040	-0,000
-421,759	311,897	-0,039	-0,053
-420,744	-62,575	-0,080	-0,024
-419,730	-200,000	0,004	-0,054
-418,715	110,148	-0,068	-0,059
-417,701	698,725	-0,067	-0,129
-416,686	-200,000	0,000	-0,158
-415,671	-200,000	-0,003	0,064
-414,657	182,489	0,142	0,153
-413,642	-88,458	0,248	0,053
-412,628	-48,827	-0,085	-0,030
-411,613	14,891	-0,045	-0,025
-410,598	-88,259	-0,037	0,008
-409,584	-23,274	0,154	0,067
-408,569	-200,000	-0,004	-0,055
-407,555	-200,000	-0,034	0,172
-406,540	-200,000	0,026	0,114
-405,525	-41,323	-0,063	0,024
-404,511	800,000	0,036	0,089
-403,496	-84,896	-0,121	0,027
-402,482	800,000	-0,015	0,031
-401,467	133,152	0,165	0,156
-400,452	-97,345	0,124	0,023
-399,438	-200,000	-0,002	-0,107
-398,423	-11,107	0,016	-0,008
-397,409	72,982	-0,048	-0,037
-396,394	640,911	0,035	-0,065
-395,379	167,246	-0,038	0,039
-394,365	-109,040	0,207	-0,032
-393,350	-84,867	-0,041	0,009
-392,336	516,932	-0,034	0,058
-391,321	-135,394	-0,106	-0,009
-390,306	776,059	0,029	-0,057
-389,292	-19,499	-0,096	-0,043
-388,277	362,656	-0,056	0,082
-387,263	74,211	0,050	-0,038
-386,248	118,820	0,050	-0,044
-385,233	-200,000	-0,005	0,113
-384,219	236,890	-0,090	0,109
-383,204	-57,285	-0,062	-0,020
-382,190	-65,732	0,097	0,028
-381,175	-110,449	-0,039	0,006
-380,160	-200,000	0,032	0,105
-379,146	-62,025	0,197	-0,059
-378,131	717,583	-0,030	0,058
-377,117	-200,000	0,003	0,037
-376,102	-55,650	0,032	0,010
-375,088	-200,000	0,011	0,086
-374,073	-23,883	-0,042	0,018
-373,058	-200,000	-0,004	-0,175
-372,044	-120,911	0,108	-0,013
-371,029	-200,000	0,004	0,021
-370,015	-200,000	0,023	0,094
-369,000	-200,000	0,015	-0,098
-367,985	423,121	-0,068	-0,107
-366,971	2,665	-0,017	0,009
-365,956	10,280	0,096	0,053
-364,942	421,124	-0,075	0,117
-363,927	-133,805	0,046	-0,004
-362,912	-200,000	-0,007	-0,040
-361,898	-200,000	-0,001	-0,011
-360,883	-127,565	-0,018	0,002
-359,869	211,544	0,078	-0,089
-358,854	800,000	-0,035	-0,072
-357,839	50,359	-0,054	0,037
-356,825	330,459	0,154	0,216
-355,810	800,000	-0,017	0,054
-354,796	800,000	-0,033	0,084
-353,781	-146,787	-0,028	0,002
-352,766	-15,584	-0,013	0,006
-351,752	-140,951	0,149	-0,011
-350,737	340,470	-0,125	0,178
-349,723	-200,000	0,007	0,031
-348,708	61,029	-0,070	0,051
-347,693	464,127	0,014	-0,023
-346,679	144,235	-0,065	-0,063
-345,664	132,881	-0,035	-0,033
-344,650	800,000	-0,047	0,134
-343,635	-46,716	0,056	-0,020
-342,620	-180,506	0,235	-0,003
-341,606	40,465	-0,057	-0,037
-340,591	-56,701	-0,091	-0,029
-339,577	-200,000	-0,009	-0,041
-338,562	36,886	0,075	-0,048
-337,548	800,000	-0,022	-0,069
-336,533	-157,702	0,112	0,005
-335,518	599,530	0,082	0,149
-334,504	800,000	0,027	0,060
-333,489	107,665	0,048	-0,041
-332,475	-80,695	-0,229	-0,055
-331,460	800,000	0,031	0,073
-330,445	800,000	-0,044	-0,114
-329,431	594,820	-0,033	0,060
-328,416	-106,385	0,021	0,003
-327,402	499,672	0,058	-0,098
-326,387	-200,000	0,181	0,000
-325,372	67,757	-0,083	-0,061
-324,358	800,000	-0,016	-0,051
-323,343	66,747	-0,115	-0,085
-322,329	800,000	0,043	-0,108
-321,314	250,593	0,053	-0,065
-320,299	-200,000	-0,012	0,039
-319,285	800,000	0,024	-0,061
-318,270	-59,003	-0,058	-0,018
-317,256	800,000	-0,043	0,116
-316,241	195,024	0,142	0,156
-315,226	-11,849	0,136	0,064
-314,212	-200,000	-0,004	-0,136
-313,197	324,593	0,012	-0,017
-312,183	68,228	-0,027	-0,020
-311,168	232,027	-0,170	-0,203
-310,153	-200,000	0,015	0,048
-309,139	-97,787	0,117	0,022
-308,124	800,000	0,021	0,053
-307,110	-85,342	0,012	0,003
-306,095	46,405	-0,070	0,047
-305,080	-200,000	0,011	-0,093
-304,066	19,685	-0,120	0,070
-303,051	-200,000	0,020	-0,111
-302,037	800,000	-0,028	-0,077
-301,022	800,000	-0,040	-0,082
-300,008	-200,000	0,044	0,217
-298,993	-95,273	-0,052	-0,010
-297,978	-10,519	-0,156	0,075
-296,964	160,734	0,106	0,108
-295,949	-126,660	0,144	0,015
-294,935	138,302	0,048	0,045
-293,920	104,890	0,058	0,050
-292,905	-200,000	0,008	0,043
-291,891	47,341	-0,046	-0,031
-290,876	-200,000	0,004	0,113
-289,862	-200,000	0,001	0,037
-288,847	-138,285	0,049	-0,004
-287,832	130,073	-0,020	0,018
-286,818	354,929	0,032	0,046
-285,803	-19,707	0,087	0,039
-284,789	-125,899	0,159	0,017
-283,774	31,918	-0,046	-0,029
-282,759	-200,000	-0,003	0,096
-281,745	529,100	0,063	0,109
-280,730	-200,000	0,004	-0,066
-279,716	495,953	-0,055	-0,092
-278,701	97,687	-0,060	-0,050
-277,686	-200,000	0,013	-0,046
-276,672	-25,981	0,027	-0,011
-275,657	4,328	0,069	-0,037
-274,643	-200,000	-0,036	-0,127
-273,628	800,000	0,006	-0,018
-272,613	230,101	-0,056	-0,066
-271,599	225,760	-0,015	0,018
-270,584	-5,319	-0,015	-0,008
-269,570	-200,000	0,005	0,034
-268,555	547,451	0,045	0,078
-267,540	-25,168	-0,134	-0,057
-266,526	-200,000	0,020	-0,071
-265,511	-200,000	0,001	0,048
-264,497	-9,728	0,010	-0,005
-263,482	180,370	0,094	0,099
-262,467	14,743	-0,068	0,038
-261,453	800,000	-0,032	-0,073
-260,438	800,000	-0,039	0,116
-259,424	389,110	-0,019	0,028
-258,409	-106,007	0,102	0,016
-257,395	181,422	0,093	0,099
-256,380	-14,362	0,019	-0,009
-255,365	141,854	0,089	0,085
-254,351	800,000	0,025	-0,065
-253,336	-200,000	-0,015	0,078
-252,322	-200,000	0,003	-0,024
-251,307	-200,000	-0,004	0,063
-250,292	-79,816	-0,062	0,015
-249,278	-200,000	-0,025	-0,132
-248,263	800,000	0,030	-0,087
-247,249	184,457	-0,017	-0,018
-246,234	214,869	0,022	0,025
-245,219	800,000	-0,034	-0,100
-244,205	60,683	0,056	-0,040
-243,190	-115,502	0,148	-0,020
-242,176	800,000	-0,039	0,105
-241,161	-116,840	0,036	0,005
-240,146	5,455	0,245	-0,130
-239,132	-200,000	-0,041	-0,172
-238,117	143,180	0,033	-0,032
-237,103	-20,697	0,136	-0,060
-236,088	124,130	-0,046	-0,042
-235,073	20,487	-0,155	0,090
-234,059	-1,689	0,082	0,042
-233,044	-63,886	-0,038	-0,011
-232,030	-36,006	-0,044	0,017
-231,015	2,819	0,078	-0,041
-230,000	89,143	-0,048	-0,038
-228,986	27,002	-0,124	0,075
-227,971	-200,000	-0,026	0,230
-226,957	-200,000	-0,001	0,038
-225,942	-200,000	-0,010	0,102
-224,927	144,763	0,054	-0,052
-223,913	-200,000	-0,014	-0,108
-222,898	4,311	0,125	-0,066
-221,884	138,174	0,061	-0,058
-220,869	-200,000	0,021	0,118
-219,855	184,394	0,035	0,038
-218,840	-15,862	0,171	0,079
-217,825	182,452	0,027	-0,029
-216,811	800,000	-0,044	0,103
-215,796	-197,840	-0,130	-0,001
-214,782	-79,887	-0,048	0,011
-213,767	-200,000	-0,003	-0,050
-212,752	-113,952	0,150	-0,021
-211,738	-113,808	-0,008	-0,001
-210,723	800,000	-0,002	0,005
-209,709	800,000	-0,029	-0,071
-208,694	-101,362	-0,112	0,020
-207,679	800,000	-0,057	-0,130
-206,665	-200,000	0,017	-0,153
-205,650	-155,078	0,102	-0,005
-204,636	-41,451	0,040	-0,015
-203,621	-125,406	0,065	0,007
-202,606	-200,000	0,007	0,144
-201,592	-200,000	0,001	-0,054
-200,577	800,000	-0,002	-0,005
-199,563	-200,000	0,022	-0,180
-198,548	-124,044	-0,037	-0,004
-197,533	-200,000	-0,004	0,137
-196,519	73,772	0,137	-0,104
-195,504	123,957	-0,077	-0,069
-194,490	-200,000	0,001	-0,103
-193,475	15,397	-0,087	-0,049
-192,460	493,097	0,100	0,166
-191,446	800,000	0,068	-0,162
-190,431	-200,000	-0,008	0,033
-189,417	-105,103	0,040	-0,006
-188,402	800,000	0,057	-0,125
-187,387	-129,197	-0,065	0,006
-186,373	437,233	0,035	-0,056
-185,358	56,112	0,017	-0,012
-184,344	300,585	-0,084	-0,112
-183,329	194,661	0,014	-0,015
-182,315	10,523	-0,019	-0,010
-181,300	800,000	0,024	0,066
-180,285	-9,286	-0,070	-0,033
-179,271	-134,962	0,095	0,008
-178,256	800,000	0,032	-0,069
-177,242	800,000	0,013	-0,032
-176,227	-200,000	0,006	0,049
-175,212	502,053	0,012	-0,021
-174,198	-68,095	-0,125	0,035
-173,183	25,705	-0,059	0,035
-172,169	196,197	-0,007	-0,008
-171,154	81,493	-0,009	-0,007
-170,139	-200,000	0,024	0,082
-169,125	800,000	0,037	0,088
-168,110	-200,000	-0,022	0,086
-167,096	477,902	0,023	0,037
-166,081	-132,097	-0,101	0,009
-165,066	-62,077	-0,029	0,009
-164,052	800,000	0,030	0,063
-163,037	800,000	-0,010	-0,032
-162,023	800,000	0,004	0,012
-161,008	128,802	-0,028	-0,026
-159,993	800,000	-0,036	-0,081
-158,979	142,318	-0,038	-0,037
-157,964	428,726	0,015	0,023
-156,950	341,204	-0,043	-0,061
-155,935	-200,000	-0,008	0,095
-154,920	15,931	0,025	0,014
-153,906	164,875	-0,035	0,035
-152,891	800,000	0,019	0,044
-151,877	800,000	0,019	-0,050
-150,862	-200,000	0,010	0,060
-149,847	-200,000	-0,015	-0,064
-148,833	481,208	-0,008	0,014
-147,818	-122,866	-0,045	-0,005
-146,804	487,173	0,053	0,088
-145,789	-68,459	-0,028	0,008
-144,775	80,647	0,029	0,023
-143,760	-108,827	-0,110	0,017
-142,745	345,260	0,101	-0,143
-141,731	-48,620	-0,112	0,039
-140,716	-75,637	0,181	-0,046
-139,702	800,000	-0,025	0,077
-138,687	265,385	-0,053	-0,067
-137,672	-24,041	-0,156	-0,067
-136,658	291,798	-0,058	-0,076
-135,643	90,811	0,032	0,026
-134,629	-5,771	0,054	-0,026
-133,614	303,630	-0,051	-0,068
-132,599	-39,501	-0,153	0,057
-131,585	100,907	0,067	0,056
-130,570	367,882	0,109	-0,159
-129,556	90,041	0,021	-0,017
-128,541	800,000	0,059	-0,152
-127,526	-63,312	0,099	-0,029
-126,512	-64,746	0,072	0,021
-125,497	800,000	0,063	0,138
-124,483	244,093	0,042	-0,051
-123,468	-200,000	0,017	-0,085
-122,453	-200,000	-0,119	0,000
-121,439	726,852	-0,052	0,101
-120,424	128,900	-0,054	-0,050
-119,410	-198,689	0,136	-0,001
-118,395	-200,000	0,000	0,155
