DTS Sentinel unit serial number:	SN410029Multiplexer serial number:	ORYXHardware model number:	OX2-SRSoftware version number:	ORYX F/W v4,00 Oryx Data Collector v3.7.2.0data status	okinstallation	B5 Nyhavnadifferential loss correction	single-endedforward channel	channel 2reverse channel	N/Adate	2023/12/11time	16:47:13forward acquisition time	300,00reverse acquisition time	0,00gamma	499,1914k internal	0,3165k external	0,3165temperature offset calibration	1,0000default loss term (dB/km)	0,3820temperature slope calibration	1,0000multiplexer offset coefficient	1,0000multiplexer slope coefficient	1,0000fibre end	0,00T internal ref (°C)	14,26T ext. ref 1 (°C)	-0,73T ext. ref 2 (°C)	-0,82length (m)	temperature (°C)	Stokes	anti-Stokes-744,400	-104,668	0,067	-0,011
-743,385	-123,946	-0,231	-0,026
-742,371	-33,361	0,116	0,047
-741,356	-172,300	-0,191	0,004
-740,342	61,991	0,097	0,071
-739,327	-55,756	-0,287	0,094
-738,312	-164,701	0,137	-0,004
-737,298	-106,292	-0,404	0,066
-736,283	139,752	0,182	-0,177
-735,269	-77,434	-0,317	0,080
-734,254	-200,000	0,019	0,129
-733,239	-45,379	-0,447	-0,162
-732,225	4,407	0,235	0,127
-731,210	335,919	0,052	0,074
-730,196	-2,719	-0,038	0,020
-729,181	19,185	-0,043	-0,025
-728,167	5,618	-0,065	0,035
-727,152	-101,962	-0,033	-0,006
-726,137	77,605	-0,108	-0,085
-725,123	-200,000	-0,007	-0,057
-724,108	395,424	0,035	-0,053
-723,094	112,116	-0,117	-0,104
-722,079	-200,000	-0,005	-0,059
-721,064	54,854	-0,064	0,045
-720,050	-28,718	-0,022	0,009
-719,035	-52,150	0,046	0,016
-718,021	-149,088	-0,066	0,004
-717,006	800,000	-0,030	-0,068
-715,991	-200,000	-0,010	-0,116
-714,977	215,718	-0,084	-0,098
-713,962	24,846	0,027	-0,016
-712,948	322,316	0,025	-0,036
-711,933	-200,000	0,001	0,022
-710,918	226,501	-0,019	0,023
-709,904	24,462	0,115	0,070
-708,889	72,342	0,013	0,010
-707,875	-200,000	-0,006	0,022
-706,860	-200,000	-0,002	0,092
-705,845	15,813	-0,054	-0,031
-704,831	-87,443	0,091	0,020
-703,816	221,244	-0,009	-0,010
-702,802	800,000	0,011	0,030
-701,787	-200,000	-0,007	-0,024
-700,772	-13,758	-0,104	-0,049
-699,758	-200,000	-0,001	0,185
-698,743	33,302	0,097	-0,061
-697,729	-195,874	-0,122	0,001
-696,714	-200,000	0,001	-0,089
-695,699	129,841	-0,150	-0,141
-694,685	800,000	-0,051	-0,108
-693,670	800,000	-0,076	-0,170
-692,656	-3,086	0,085	0,044
-691,641	-139,042	-0,051	-0,004
-690,627	-127,700	0,056	0,006
-689,612	-8,188	-0,008	-0,004
-688,597	167,300	0,106	-0,111
-687,583	800,000	-0,051	0,137
-686,568	102,981	-0,061	-0,052
-685,554	510,328	0,065	-0,112
-684,539	455,719	-0,060	-0,098
-683,524	304,003	-0,059	0,080
-682,510	-63,699	-0,058	0,017
-681,495	162,490	0,138	0,142
-680,481	7,547	-0,042	-0,023
-679,466	-78,830	-0,114	-0,028
-678,451	165,321	-0,067	0,070
-677,437	-200,000	-0,004	-0,042
-676,422	-57,502	0,115	-0,037
-675,408	-200,000	0,001	-0,053
-674,393	800,000	0,032	-0,082
-673,378	-200,000	-0,014	-0,164
-672,364	-0,729	-0,060	-0,031
-671,349	-43,613	0,051	0,019
-670,335	800,000	-0,028	-0,075
-669,320	271,031	0,054	-0,069
-668,305	-200,000	-0,044	0,193
-667,291	551,022	0,044	0,077
-666,276	-179,683	-0,095	0,001
-665,262	-37,840	-0,161	-0,063
-664,247	241,572	-0,152	-0,187
-663,232	116,267	-0,140	-0,125
-662,218	463,747	0,089	0,146
-661,203	-200,000	0,030	0,099
-660,189	-200,000	-0,016	-0,072
-659,174	-111,993	-0,118	0,017
-658,159	-200,000	0,021	-0,075
-657,145	40,513	-0,097	-0,064
-656,130	800,000	0,026	0,069
-655,116	-200,000	0,065	0,000
-654,101	147,423	-0,086	-0,085
-653,086	217,736	0,047	-0,055
-652,072	258,793	-0,016	0,020
-651,057	140,820	0,059	-0,058
-650,043	-200,000	0,019	-0,069
-649,028	-200,000	-0,014	-0,058
-648,014	800,000	-0,053	-0,126
-646,999	800,000	0,057	0,166
-645,984	-117,283	-0,118	0,016
-644,970	-200,000	0,040	0,156
-643,955	458,392	0,025	-0,041
-642,941	-200,000	-0,008	0,044
-641,926	-37,247	0,182	-0,071
-640,911	800,000	0,020	0,056
-639,897	163,450	0,110	-0,113
-638,882	14,796	-0,085	0,048
-637,868	-135,162	-0,092	-0,008
-636,853	-104,124	-0,097	-0,016
-635,838	-200,000	-0,010	0,048
-634,824	16,486	-0,163	0,094
-633,809	800,000	0,003	0,009
-632,795	-121,386	-0,033	0,004
-631,780	335,614	-0,016	0,023
-630,765	800,000	0,014	-0,031
-629,751	-73,299	-0,124	-0,033
-628,736	800,000	-0,044	-0,121
-627,722	800,000	-0,020	0,055
-626,707	-80,025	-0,102	-0,025
-625,692	800,000	-0,053	0,128
-624,678	272,097	0,037	0,048
-623,663	-200,000	-0,007	0,156
-622,649	800,000	0,025	0,073
-621,634	800,000	-0,024	-0,064
-620,619	-12,852	-0,071	-0,034
-619,605	424,198	0,050	0,079
-618,590	640,315	-0,016	-0,030
-617,576	-134,569	0,070	-0,006
-616,561	-130,232	-0,084	0,008
-615,546	196,841	-0,101	-0,112
-614,532	561,167	-0,024	0,043
-613,517	154,659	0,010	-0,010
-612,503	-120,077	-0,022	0,003
-611,488	-44,108	-0,051	0,019
-610,474	-200,000	-0,012	-0,048
-609,459	-200,000	-0,016	-0,078
-608,444	48,032	-0,093	-0,063
-607,430	800,000	-0,026	-0,070
-606,415	800,000	0,070	-0,147
-605,401	-45,601	0,067	0,024
-604,386	-200,000	-0,004	0,093
-603,371	-125,582	-0,044	0,005
-602,357	476,140	0,117	-0,194
-601,342	175,156	-0,055	-0,059
-600,328	65,019	-0,094	-0,069
-599,313	800,000	-0,051	-0,154
-598,298	489,753	0,012	-0,021
-597,284	800,000	0,033	-0,081
-596,269	557,554	0,055	-0,097
-595,255	799,349	0,043	-0,086
-594,240	-200,000	0,013	-0,131
-593,225	-200,000	-0,009	-0,114
-592,211	-112,095	-0,090	0,013
-591,196	-41,094	-0,089	-0,034
-590,182	-57,341	0,068	0,022
-589,167	-83,502	0,043	0,010
-588,152	-112,171	-0,092	0,013
-587,138	-80,492	0,047	0,011
-586,123	494,553	-0,047	-0,080
-585,109	304,867	-0,041	-0,055
-584,094	-200,000	-0,004	-0,033
-583,079	-200,000	-0,002	0,072
-582,065	126,932	0,073	0,068
-581,050	-200,000	-0,007	0,153
-580,036	184,185	-0,079	-0,085
-579,021	-200,000	0,020	-0,068
-578,006	-200,000	-0,009	-0,030
-576,992	101,735	0,042	0,036
-575,977	-65,785	0,032	-0,009
-574,963	-200,000	0,021	0,072
-573,948	-112,191	0,106	0,015
-572,934	800,000	-0,005	0,014
-571,919	-200,000	0,021	-0,163
-570,904	800,000	0,028	-0,090
-569,890	-69,881	-0,135	0,037
-568,875	-200,000	0,026	0,109
-567,861	-112,629	0,086	0,012
-566,846	-7,667	-0,087	0,043
-565,831	240,012	-0,070	0,086
-564,817	-64,344	0,055	0,016
-563,802	109,942	0,059	0,052
-562,788	35,909	-0,141	-0,090
-561,773	62,879	0,037	0,027
-560,758	-115,400	-0,062	-0,008
-559,744	800,000	-0,023	-0,061
-558,729	249,739	-0,160	0,199
-557,715	-23,539	-0,031	-0,014
-556,700	69,952	0,032	-0,024
-555,685	293,268	0,091	-0,121
-554,671	433,080	0,047	0,075
-553,656	118,678	0,064	0,058
-552,642	800,000	-0,026	0,057
-551,627	140,392	-0,054	0,052
-550,612	54,916	-0,036	-0,026
-549,598	-45,864	0,014	0,005
-548,583	800,000	0,005	0,012
-547,569	-39,234	-0,104	0,040
-546,554	-200,000	0,029	0,096
-545,539	-51,870	0,045	-0,015
-544,525	-200,000	-0,002	0,052
-543,510	571,790	-0,034	0,061
-542,496	380,436	-0,028	0,043
-541,481	385,677	-0,024	-0,036
-540,466	-200,000	-0,021	-0,101
-539,452	108,997	0,085	-0,074
-538,437	-200,000	-0,010	-0,116
-537,423	-127,588	0,129	-0,013
-536,408	314,588	-0,009	0,012
-535,393	132,390	-0,117	-0,110
-534,379	26,694	-0,050	-0,030
-533,364	102,069	0,036	0,031
-532,350	152,570	-0,058	0,058
-531,335	468,359	-0,046	-0,076
-530,321	-140,140	-0,045	0,003
-529,306	81,576	-0,152	-0,120
-528,291	-80,785	0,141	0,034
-527,277	800,000	-0,034	0,087
-526,262	148,185	0,081	-0,080
-525,248	476,853	0,027	0,044
-524,233	-112,157	0,049	-0,007
-523,218	-200,000	0,007	0,033
-522,204	-200,000	-0,020	-0,130
-521,189	-94,964	-0,131	-0,026
-520,175	800,000	0,024	-0,068
-519,160	-141,413	0,016	0,001
-518,145	34,295	0,092	0,058
-517,131	-200,000	0,011	0,062
-516,116	307,064	0,084	-0,114
-515,102	586,811	0,035	-0,063
-514,087	-185,364	-0,033	-0,000
-513,072	136,811	-0,029	0,028
-512,058	-60,778	-0,102	0,031
-511,043	20,540	0,175	-0,103
-510,029	-200,000	0,004	0,019
-509,014	-98,784	0,108	-0,020
-507,999	-200,000	0,022	-0,097
-506,985	-48,759	-0,078	0,027
-505,970	800,000	0,052	-0,107
-504,956	800,000	0,014	-0,042
-503,941	-200,000	-0,005	-0,104
-502,926	384,185	-0,064	0,097
-501,912	-14,139	0,095	-0,045
-500,897	-200,000	-0,020	0,079
-499,883	331,688	-0,044	0,062
-498,868	-91,774	0,100	-0,021
-497,853	39,637	-0,146	-0,095
-496,839	-54,396	0,098	-0,032
-495,824	424,927	0,098	-0,155
-494,810	-41,048	0,189	-0,071
-493,795	-200,000	0,014	0,058
-492,781	17,123	0,075	-0,043
-491,766	37,531	0,105	-0,068
-490,751	60,424	-0,109	-0,078
-489,737	28,413	-0,024	0,015
-488,722	106,803	0,047	-0,041
-487,708	65,737	-0,092	0,068
-486,693	295,065	0,124	0,165
-485,678	-130,724	0,042	0,004
-484,664	-200,000	0,010	0,077
-483,649	61,221	-0,071	-0,051
-482,635	800,000	-0,052	-0,132
-481,620	-200,000	0,014	0,065
-480,605	-82,758	-0,040	-0,009
-479,591	-200,000	0,021	0,088
-478,576	-61,840	-0,056	0,017
-477,562	-200,000	0,000	0,061
-476,547	273,433	-0,017	-0,022
-475,532	-200,000	-0,019	0,162
-474,518	800,000	0,080	0,247
-473,503	-200,000	0,009	-0,096
-472,489	-70,661	-0,055	-0,015
-471,474	226,812	-0,039	0,046
-470,459	583,255	-0,051	-0,091
-469,445	493,970	-0,038	0,063
-468,430	27,393	0,014	0,008
-467,416	159,049	0,052	0,053
-466,401	-5,480	0,111	-0,055
-465,386	163,783	-0,058	0,060
-464,372	-200,000	-0,007	0,024
-463,357	-200,000	-0,018	-0,096
-462,343	430,459	-0,105	-0,166
-461,328	483,989	-0,054	-0,090
-460,313	59,053	0,139	0,099
-459,299	-109,115	-0,083	-0,013
-458,284	188,076	0,029	-0,032
-457,270	-15,278	0,082	0,038
-456,255	-3,109	-0,075	-0,038
-455,241	-200,000	0,025	0,110
-454,226	61,365	0,060	-0,043
-453,211	-186,749	0,094	0,001
-452,197	388,445	0,090	0,135
-451,182	800,000	-0,095	0,236
-450,168	-200,000	0,020	-0,098
-449,153	35,848	-0,121	0,077
-448,138	242,192	0,032	-0,038
-447,124	-33,087	-0,064	0,026
-446,109	22,523	0,076	0,045
-445,095	46,270	0,171	-0,115
-444,080	324,682	-0,082	0,115
-443,065	-200,000	-0,024	0,125
-442,051	-200,000	0,004	-0,045
-441,036	85,516	-0,097	-0,078
-440,022	-200,000	0,009	0,071
-439,007	-9,920	-0,072	-0,035
-437,992	-200,000	0,003	-0,016
-436,978	-1,900	0,037	0,019
-435,963	185,666	-0,053	0,058
-434,949	800,000	0,013	0,030
-433,934	-200,000	-0,022	-0,074
-432,919	-34,361	-0,085	0,034
-431,905	-200,000	0,031	-0,104
-430,890	-22,928	0,089	-0,039
-429,876	800,000	0,072	0,164
-428,861	-74,707	-0,150	0,039
-427,846	-45,678	-0,029	0,010
-426,832	-200,000	-0,001	0,014
-425,817	-57,379	0,030	0,009
-424,803	-156,237	0,092	-0,004
-423,788	-200,000	-0,005	0,102
-422,773	9,405	-0,063	0,035
-421,759	800,000	0,013	0,035
-420,744	31,900	-0,095	0,059
-419,730	-150,659	-0,053	0,003
-418,715	229,940	0,123	0,146
-417,701	28,357	-0,086	-0,053
-416,686	395,558	0,019	0,029
-415,671	-78,944	0,179	-0,044
-414,657	-49,094	0,030	-0,011
-413,642	297,086	-0,031	-0,041
-412,628	-125,993	-0,084	-0,009
-411,613	689,170	-0,032	0,062
-410,598	-45,653	-0,060	-0,021
-409,584	800,000	0,049	-0,132
-408,569	63,730	0,113	-0,083
-407,555	474,796	0,049	0,081
-406,540	-28,595	-0,048	0,020
-405,525	-200,000	0,019	0,097
-404,511	800,000	0,024	-0,059
-403,496	-91,193	-0,187	-0,038
-402,482	26,472	0,143	-0,087
-401,467	62,036	0,054	0,039
-400,452	-38,109	-0,043	-0,017
-399,438	-200,000	-0,014	-0,093
-398,423	277,884	-0,120	-0,156
-397,409	-2,797	-0,124	0,063
-396,394	52,474	-0,159	-0,110
-395,379	-200,000	-0,003	0,128
-394,365	-49,411	-0,056	0,019
-393,350	235,556	0,100	0,120
-392,336	69,177	0,023	-0,017
-391,321	-47,495	-0,111	-0,039
-390,306	124,208	-0,041	0,038
-389,292	-151,371	-0,071	0,004
-388,277	-200,000	-0,049	0,168
-387,263	-200,000	0,019	0,117
-386,248	-91,820	-0,042	0,009
-385,233	-36,484	0,152	-0,059
-384,219	-41,191	0,074	0,028
-383,204	54,397	0,039	-0,027
-382,190	800,000	0,049	-0,110
-381,175	84,950	-0,108	-0,086
-380,160	-200,000	-0,022	-0,080
-379,146	-200,000	0,038	0,158
-378,131	-200,000	0,006	-0,074
-377,117	-200,000	-0,002	0,042
-376,102	64,525	-0,078	0,057
-375,088	-31,584	-0,049	-0,020
-374,073	800,000	0,039	-0,093
-373,058	599,779	0,089	0,162
-372,044	-200,000	-0,003	0,077
-371,029	-200,000	-0,020	-0,065
-370,015	294,296	0,014	-0,019
-369,000	608,387	-0,019	0,035
-367,985	163,159	0,066	0,068
-366,971	-200,000	-0,025	0,151
-365,956	-27,897	-0,060	-0,025
-364,942	460,692	0,074	-0,121
-363,927	-171,950	0,251	0,006
-362,912	755,676	-0,052	0,102
-361,898	-37,248	0,086	0,033
-360,883	-115,485	-0,192	-0,026
-359,869	1,313	0,098	0,051
-358,854	-200,000	-0,046	-0,174
-357,839	800,000	0,033	0,087
-356,825	-71,245	0,109	0,029
-355,810	184,795	0,069	0,074
-354,796	-25,435	-0,189	-0,081
-353,781	-200,000	-0,026	-0,174
-352,766	-55,403	-0,135	0,044
-351,752	253,395	0,049	-0,061
-350,737	-200,000	0,009	-0,047
-349,723	94,877	-0,047	-0,039
-348,708	188,766	-0,051	-0,056
-347,693	800,000	-0,019	0,050
-346,679	290,048	0,086	-0,113
-345,664	-200,000	0,011	-0,163
-344,650	264,814	-0,038	-0,048
-343,635	89,080	0,089	0,071
-342,620	18,162	0,064	0,037
-341,606	-128,476	-0,070	0,007
-340,591	613,902	0,027	-0,049
-339,577	35,943	-0,168	-0,107
-338,562	-200,000	0,009	-0,064
-337,548	-143,918	0,152	-0,010
-336,533	-146,405	-0,007	-0,000
-335,518	-200,000	-0,018	0,091
-334,504	-27,820	-0,041	-0,017
-333,489	800,000	-0,029	0,083
-332,475	-98,724	-0,042	0,008
-331,460	108,035	0,041	-0,036
-330,445	-47,111	0,058	0,020
-329,431	800,000	-0,019	-0,049
-328,416	-153,169	-0,038	0,002
-327,402	612,617	0,054	0,097
-326,387	13,905	0,092	0,052
-325,372	800,000	-0,025	-0,078
-324,358	-99,839	-0,098	0,018
-323,343	241,101	0,063	0,076
-322,329	97,373	0,063	-0,052
-321,314	492,987	0,088	0,146
-320,299	-80,033	-0,105	-0,025
-319,285	272,427	0,093	0,120
-318,270	-127,734	-0,076	-0,008
-317,256	-92,497	-0,117	0,024
-316,241	207,819	0,017	-0,019
-315,226	-200,000	0,018	-0,155
-314,212	639,570	0,093	-0,171
-313,197	593,105	-0,044	0,078
-312,183	84,576	0,082	-0,065
-311,168	-46,753	0,050	-0,018
-310,153	394,121	0,007	-0,011
-309,139	297,665	0,047	0,062
-308,124	294,819	-0,154	0,205
-307,110	-37,125	0,102	-0,039
-306,095	-61,498	0,093	0,028
-305,080	86,837	-0,090	-0,072
-304,066	66,483	-0,087	0,064
-303,051	-50,998	-0,033	-0,011
-302,037	-3,515	0,048	0,024
-301,022	-200,000	-0,004	0,038
-300,008	-148,607	0,091	0,005
-298,993	795,461	-0,046	0,092
-297,978	53,237	-0,012	-0,009
-296,964	401,842	0,056	-0,086
-295,949	163,745	-0,100	-0,102
-294,935	-60,702	0,137	-0,042
-293,920	61,503	0,035	0,025
-292,905	-45,607	-0,024	-0,008
-291,891	10,349	0,154	0,084
-290,876	100,721	0,117	-0,099
-289,862	199,067	0,085	-0,095
-288,847	-200,000	-0,003	0,107
-287,832	71,635	-0,029	0,022
-286,818	632,369	-0,043	0,078
-285,803	-25,047	0,054	0,023
-284,789	67,919	0,015	0,011
-283,774	-4,938	-0,135	-0,067
-282,759	-20,449	-0,016	-0,007
-281,745	-200,000	0,034	-0,141
-280,730	62,199	-0,115	0,083
-279,716	-149,489	0,038	0,002
-278,701	-200,000	-0,001	0,027
-277,686	-200,000	-0,001	0,067
-276,672	122,226	0,061	0,055
-275,657	113,697	-0,052	0,046
-274,643	-16,221	0,127	0,058
-273,628	-25,215	0,066	0,028
-272,613	573,226	0,009	-0,016
-271,599	174,856	0,090	0,094
-270,584	-75,096	0,037	0,010
-269,570	247,038	-0,060	0,073
-268,555	470,608	-0,026	0,043
-267,540	93,303	-0,112	-0,091
-266,526	293,400	-0,105	-0,139
-265,511	-115,059	0,079	-0,011
-264,497	-200,000	0,005	0,022
-263,482	288,051	0,011	-0,015
-262,467	63,045	0,129	0,093
-261,453	467,789	-0,031	0,050
-260,438	-40,824	-0,164	-0,061
-259,424	611,319	-0,040	0,073
-258,409	120,438	-0,016	0,015
-257,395	45,565	0,044	0,029
-256,380	-90,844	-0,025	0,005
-255,365	169,972	0,079	-0,081
-254,351	43,936	0,100	-0,066
-253,336	-200,000	0,023	-0,172
-252,322	-151,898	-0,092	-0,005
-251,307	-1,677	0,084	-0,043
-250,292	800,000	-0,042	0,114
-249,278	71,413	0,104	0,078
-248,263	-3,649	0,089	0,044
-247,249	160,393	-0,100	-0,101
-246,234	-200,000	-0,024	-0,167
-245,219	-159,742	0,056	-0,002
-244,205	-200,000	0,003	-0,142
-243,190	-200,000	-0,018	0,068
-242,176	347,856	0,070	0,100
-241,161	-200,000	0,006	0,095
-240,146	-200,000	0,005	0,061
-239,132	116,854	-0,023	0,020
-238,117	-200,000	0,021	0,089
-237,103	41,155	-0,088	-0,057
-236,088	33,008	0,055	-0,035
-235,073	232,101	0,123	0,146
-234,059	-200,000	-0,008	0,115
-233,044	-96,629	-0,033	0,006
-232,030	68,766	-0,061	-0,045
-231,015	800,000	0,024	0,073
-230,000	678,822	0,066	-0,125
-228,986	187,141	-0,034	0,037
-227,971	-200,000	0,029	0,179
-226,957	-165,419	0,102	-0,003
-225,942	-200,000	-0,007	0,113
-224,927	302,221	-0,060	-0,080
-223,913	493,049	-0,042	0,069
-222,898	402,658	-0,078	0,119
-221,884	53,445	-0,092	-0,063
-220,869	-83,264	-0,031	-0,007
-219,855	-200,000	0,003	-0,058
-218,840	-200,000	-0,009	0,096
-217,825	-25,558	0,053	0,022
-216,811	-200,000	-0,020	-0,120
-215,796	-200,000	-0,013	0,060
-214,782	-200,000	-0,003	0,031
-213,767	800,000	0,021	0,047
-212,752	158,826	0,063	-0,063
-211,738	245,389	0,041	0,049
-210,723	-133,152	-0,057	0,005
-209,709	-18,170	0,039	-0,018
-208,694	-200,000	-0,055	-0,000
-207,679	-200,000	-0,001	0,051
-206,665	97,412	-0,046	-0,038
-205,650	-200,000	-0,004	0,178
-204,636	244,447	-0,010	0,012
-203,621	-142,281	0,082	-0,006
-202,606	421,322	-0,055	0,085
-201,592	-127,874	-0,015	0,002
-200,577	150,292	-0,130	-0,127
-199,563	272,877	-0,047	-0,060
-198,548	-200,000	-0,050	0,160
-197,533	-200,000	0,020	-0,071
-196,519	-99,212	0,224	0,040
-195,504	204,047	-0,076	0,085
-194,490	800,000	-0,033	-0,067
-193,475	165,521	-0,047	-0,048
-192,460	-152,647	0,036	0,002
-191,446	386,159	0,029	0,043
-190,431	159,071	-0,086	0,086
-189,417	-148,549	-0,003	-0,000
-188,402	800,000	0,046	0,101
-187,387	-9,300	-0,195	-0,094
-186,373	-111,472	0,176	0,025
-185,358	-200,000	0,009	-0,049
-184,344	39,054	0,132	-0,085
-183,329	-90,013	0,116	0,024
-182,315	-57,646	-0,072	-0,022
-181,300	-62,355	0,048	-0,014
-180,285	800,000	0,022	-0,063
-179,271	41,471	-0,139	-0,090
-178,256	800,000	0,057	0,128
-177,242	-200,000	-0,010	-0,088
-176,227	77,187	0,050	0,038
-175,212	145,172	0,076	0,074
-174,198	-200,000	-0,025	-0,112
-173,183	-200,000	-0,044	-0,146
-172,169	800,000	-0,056	-0,167
-171,154	-200,000	0,009	-0,132
-170,139	56,713	0,057	0,040
-169,125	-200,000	0,039	0,129
-168,110	-113,252	0,108	-0,015
-167,096	-71,500	0,067	-0,018
-166,081	277,397	-0,031	-0,040
-165,066	22,796	-0,078	0,046
-164,052	373,515	-0,025	0,037
-163,037	183,284	-0,040	0,042
-162,023	-47,826	0,071	0,025
-161,008	-96,643	0,006	0,001
-159,993	72,445	-0,132	0,099
-158,979	466,749	0,094	-0,151
-157,964	800,000	-0,055	-0,149
-156,950	-153,776	0,039	-0,002
-155,935	800,000	0,043	0,090
-154,920	99,528	0,057	-0,047
-153,906	-200,000	0,027	0,106
-152,891	800,000	0,015	-0,046
-151,877	-141,619	-0,064	-0,005
-150,862	57,877	-0,076	-0,053
-149,847	52,658	-0,030	0,021
-148,833	-101,240	-0,079	0,014
-147,818	-2,200	0,122	0,061
-146,804	61,722	0,039	0,028
-145,789	115,880	0,029	0,026
-144,775	800,000	-0,011	-0,022
-143,760	-108,411	0,114	0,017
-142,745	230,114	0,080	-0,094
-141,731	-200,000	0,012	0,099
-140,716	400,583	-0,093	0,141
-139,702	-200,000	0,027	0,130
-138,687	755,993	0,062	-0,121
-137,672	79,727	-0,149	-0,114
-136,658	82,320	-0,108	0,084
-135,643	-200,000	-0,006	0,031
-134,629	-26,459	-0,025	-0,011
-133,614	800,000	0,020	-0,059
-132,599	309,890	0,044	0,060
-131,585	303,266	-0,056	0,074
-130,570	-200,000	-0,036	0,116
-129,556	-94,798	-0,080	0,016
-128,541	-40,206	-0,045	0,017
-127,526	-200,000	-0,015	0,144
-126,512	-1,890	0,079	-0,040
-125,497	800,000	-0,049	0,127
-124,483	-200,000	-0,001	-0,004
-123,468	178,093	0,068	0,071
-122,453	-121,873	-0,111	-0,013
-121,439	16,270	0,055	-0,031
-120,424	-68,822	0,156	-0,043
-119,410	800,000	0,063	0,192
