DTS Sentinel unit serial number:	SN410029Multiplexer serial number:	ORYXHardware model number:	OX2-SRSoftware version number:	ORYX F/W v4,00 Oryx Data Collector v3.7.2.0data status	okinstallation	B5 Nyhavnadifferential loss correction	single-endedforward channel	channel 2reverse channel	N/Adate	2023/12/13time	21:22:13forward acquisition time	300,00reverse acquisition time	0,00gamma	499,1914k internal	0,3156k external	0,3156temperature offset calibration	1,0000default loss term (dB/km)	0,3820temperature slope calibration	1,0000multiplexer offset coefficient	1,0000multiplexer slope coefficient	1,0000fibre end	0,00T internal ref (°C)	10,05T ext. ref 1 (°C)	-6,83T ext. ref 2 (°C)	-6,86length (m)	temperature (°C)	Stokes	anti-Stokes-744,400	-173,157	0,201	0,004
-743,385	10,606	-0,318	-0,178
-742,371	441,696	0,044	0,071
-741,356	-79,672	-0,337	0,083
-740,342	100,763	0,062	-0,053
-739,327	-193,156	-0,429	0,003
-738,312	383,811	0,029	-0,044
-737,298	-124,086	-0,318	0,036
-736,283	-143,735	0,220	-0,015
-735,269	-116,245	-0,306	-0,041
-734,254	-177,469	0,183	-0,003
-733,239	-84,607	-0,587	-0,135
-732,225	-49,348	0,261	0,091
-731,210	-45,550	-0,273	0,099
-730,196	-145,242	-0,120	0,008
-729,181	-37,253	-0,132	-0,052
-728,167	800,000	0,034	0,101
-727,152	148,111	-0,041	0,041
-726,137	-200,000	-0,028	-0,143
-725,123	-59,955	0,054	-0,017
-724,108	-200,000	0,015	-0,078
-723,094	-42,576	-0,051	-0,019
-722,079	74,396	-0,121	-0,094
-721,064	-163,868	-0,042	0,001
-720,050	-200,000	0,012	-0,048
-719,035	125,629	-0,113	0,106
-718,021	-200,000	-0,009	-0,125
-717,006	-119,863	-0,052	-0,007
-715,991	800,000	-0,079	-0,167
-714,977	-107,425	-0,101	-0,016
-713,962	-6,999	-0,049	-0,024
-712,948	16,118	0,090	0,052
-711,933	-2,847	-0,157	0,081
-710,918	441,242	0,051	0,082
-709,904	-0,566	-0,035	-0,018
-708,889	16,579	-0,097	0,056
-707,875	-200,000	-0,020	0,081
-706,860	-28,674	-0,052	0,022
-705,845	399,703	0,073	0,113
-704,831	47,456	0,116	0,079
-703,816	-200,000	-0,008	0,029
-702,802	164,306	-0,102	-0,106
-701,787	-153,612	-0,086	-0,004
-700,772	92,582	0,098	-0,082
-699,758	560,943	-0,037	0,066
-698,743	24,267	0,040	-0,024
-697,729	-200,000	0,017	0,123
-696,714	800,000	-0,024	-0,077
-695,699	26,959	-0,088	-0,054
-694,685	222,218	-0,087	0,103
-693,670	-200,000	0,001	0,011
-692,656	21,709	-0,079	-0,047
-691,641	559,156	0,028	-0,050
-690,627	-200,000	-0,011	0,078
-689,612	800,000	-0,037	-0,082
-688,597	-77,486	-0,025	-0,006
-687,583	106,195	-0,095	-0,083
-686,568	-73,830	-0,040	0,010
-685,554	-200,000	0,008	-0,035
-684,539	-4,193	-0,119	0,060
-683,524	800,000	0,022	-0,065
-682,510	92,087	-0,135	0,111
-681,495	-147,473	-0,087	0,005
-680,481	40,841	-0,049	0,033
-679,466	38,316	-0,166	0,109
-678,451	788,612	-0,043	0,088
-677,437	-127,900	-0,047	0,005
-676,422	247,067	-0,082	-0,102
-675,408	178,286	0,102	-0,109
-674,393	48,763	-0,104	0,072
-673,378	590,577	-0,041	0,074
-672,364	-94,281	-0,266	-0,053
-671,349	234,249	-0,068	-0,083
-670,335	-200,000	0,004	0,053
-669,320	-14,648	-0,098	0,046
-668,305	-32,563	0,130	-0,053
-667,291	-103,429	-0,094	-0,016
-666,276	10,351	-0,142	-0,079
-665,262	-200,000	-0,028	-0,103
-664,247	-200,000	0,004	-0,028
-663,232	603,473	-0,040	-0,073
-662,218	113,287	-0,047	-0,042
-661,203	-200,000	-0,015	0,064
-660,189	800,000	-0,064	0,150
-659,174	800,000	0,034	-0,072
-658,159	4,008	-0,095	-0,051
-657,145	-200,000	-0,027	-0,130
-656,130	242,183	-0,030	-0,037
-655,116	-68,927	0,081	0,023
-654,101	-49,906	0,068	0,024
-653,086	73,116	0,122	-0,094
-652,072	-65,912	-0,066	0,019
-651,057	-200,000	0,033	-0,238
-650,043	149,353	-0,132	-0,132
-649,028	-119,256	0,084	0,011
-648,014	-200,000	-0,003	-0,027
-646,999	-63,457	-0,054	-0,016
-645,984	226,862	-0,115	0,138
-644,970	160,584	0,033	0,034
-643,955	-114,200	0,034	-0,005
-642,941	-16,192	-0,053	0,025
-641,926	-75,136	-0,045	-0,012
-640,911	125,411	-0,096	0,089
-639,897	-200,000	0,010	0,136
-638,882	-200,000	-0,015	0,049
-637,868	389,308	-0,039	-0,060
-636,853	-200,000	0,004	0,077
-635,838	133,235	0,045	-0,043
-634,824	574,098	-0,079	-0,141
-633,809	236,457	0,033	0,040
-632,795	253,654	0,052	-0,065
-631,780	-200,000	-0,013	0,051
-630,765	-37,635	-0,077	-0,030
-629,751	-98,743	-0,088	0,016
-628,736	-27,988	0,166	-0,070
-627,722	800,000	-0,051	-0,110
-626,707	21,302	-0,076	0,045
-625,692	23,190	0,015	0,009
-624,678	-200,000	0,025	0,080
-623,663	-112,060	-0,057	-0,008
-622,649	-200,000	0,010	-0,081
-621,634	-200,000	0,003	-0,033
-620,619	253,087	-0,038	-0,048
-619,605	-134,501	-0,125	-0,011
-618,590	-200,000	0,018	0,086
-617,576	188,319	0,119	-0,131
-616,561	103,471	-0,025	0,021
-615,546	-58,470	0,169	-0,054
-614,532	-13,106	-0,195	-0,093
-613,517	-200,000	0,006	0,088
-612,503	800,000	-0,064	-0,190
-611,488	-200,000	0,021	0,162
-610,474	382,740	0,033	-0,051
-609,459	191,844	-0,081	0,089
-608,444	-200,000	-0,005	0,165
-607,430	-132,152	-0,115	-0,011
-606,415	-71,891	-0,165	0,045
-605,401	788,103	0,019	0,038
-604,386	-200,000	0,002	0,122
-603,371	-57,449	0,075	0,024
-602,357	-151,240	0,096	0,005
-601,342	210,413	-0,071	-0,082
-600,328	800,000	-0,019	-0,057
-599,313	268,452	-0,034	0,044
-598,298	131,058	-0,060	-0,056
-597,284	-18,134	0,169	0,077
-596,269	72,499	-0,111	0,085
-595,255	156,760	-0,044	-0,045
-594,240	391,444	-0,114	-0,174
-593,225	9,744	0,096	-0,053
-592,211	22,642	-0,050	-0,030
-591,196	-155,036	0,100	-0,005
-590,182	117,994	-0,045	0,040
-589,167	100,190	0,093	0,079
-588,152	90,536	-0,087	0,071
-587,138	-37,964	-0,105	0,041
-586,123	-200,000	-0,026	0,120
-585,109	344,941	-0,050	-0,072
-584,094	-200,000	-0,019	-0,077
-583,079	5,554	0,056	-0,030
-582,065	160,415	-0,042	0,043
-581,050	697,339	-0,047	-0,091
-580,036	78,374	-0,074	0,058
-579,021	-45,066	-0,067	-0,024
-578,006	-200,000	0,010	-0,072
-576,992	341,368	-0,019	-0,027
-575,977	-200,000	-0,017	0,105
-574,963	-200,000	0,009	0,032
-573,948	-98,023	-0,165	-0,031
-572,934	542,209	-0,046	-0,081
-571,919	-89,823	-0,082	-0,017
-570,904	800,000	0,029	-0,083
-569,890	371,060	0,026	-0,039
-568,875	114,055	-0,026	-0,023
-567,861	800,000	0,030	0,092
-566,846	206,996	-0,109	0,125
-565,831	-50,473	-0,082	-0,028
-564,817	-60,182	0,087	0,027
-563,802	-52,024	-0,039	0,013
-562,788	238,510	-0,067	-0,082
-561,773	-46,402	0,099	-0,036
-560,758	283,731	-0,038	-0,051
-559,744	202,963	0,083	0,094
-558,729	-168,310	0,114	0,003
-557,715	5,901	-0,080	-0,043
-556,700	-200,000	0,006	0,080
-555,685	-90,490	-0,169	-0,036
-554,671	-90,091	-0,114	-0,024
-553,656	800,000	-0,028	0,089
-552,642	29,473	0,052	-0,032
-551,627	350,623	0,062	0,090
-550,612	-167,436	-0,151	0,004
-549,598	-200,000	0,003	-0,234
-548,583	-62,759	-0,071	0,022
-547,569	291,138	0,097	-0,130
-546,554	800,000	0,036	0,117
-545,539	307,610	0,036	-0,050
-544,525	800,000	-0,022	0,066
-543,510	-200,000	-0,169	0,000
-542,496	-200,000	-0,026	-0,097
-541,481	-200,000	-0,006	-0,137
-540,466	-200,000	-0,022	-0,090
-539,452	331,878	0,061	0,086
-538,437	-51,267	0,082	0,028
-537,423	150,843	-0,050	-0,050
-536,408	800,000	0,042	0,092
-535,393	800,000	-0,013	0,038
-534,379	-153,694	-0,096	-0,005
-533,364	187,932	-0,027	-0,030
-532,350	120,628	0,014	0,013
-531,335	1,921	-0,090	0,047
-530,321	201,397	0,052	-0,059
-529,306	800,000	-0,072	-0,146
-528,291	-200,000	0,017	-0,160
-527,277	-200,000	0,017	-0,071
-526,262	-200,000	-0,008	-0,062
-525,248	-200,000	0,044	-0,151
-524,233	-52,786	-0,031	0,010
-523,218	800,000	0,060	0,154
-522,204	42,076	-0,135	-0,089
-521,189	-200,000	-0,041	0,144
-520,175	108,383	0,032	-0,028
-519,160	-39,462	-0,057	-0,022
-518,145	31,766	-0,077	0,048
-517,131	-54,329	0,068	0,022
-516,116	619,882	-0,044	-0,081
-515,102	-200,000	0,004	0,016
-514,087	-200,000	0,006	-0,134
-513,072	124,304	-0,101	-0,092
-512,058	40,273	-0,008	0,006
-511,043	6,416	0,040	-0,022
-510,029	-154,699	0,090	-0,004
-509,014	47,622	0,100	0,068
-507,999	0,442	-0,122	0,064
-506,985	800,000	0,020	-0,064
-505,970	199,084	-0,102	-0,115
-504,956	266,531	0,007	0,008
-503,941	529,541	-0,032	-0,056
-502,926	406,913	0,060	-0,093
-501,912	196,837	0,117	0,131
-500,897	800,000	0,032	-0,084
-499,883	212,465	-0,097	-0,112
-498,868	800,000	0,039	-0,097
-497,853	149,135	-0,052	-0,052
-496,839	7,339	0,116	-0,063
-495,824	-74,949	0,144	0,037
-494,810	-37,751	0,034	0,013
-493,795	-200,000	-0,002	-0,060
-492,781	-200,000	-0,022	-0,126
-491,766	-200,000	0,020	0,099
-490,751	800,000	0,036	-0,106
-489,737	-40,506	-0,114	-0,043
-488,722	-200,000	0,005	0,161
-487,708	141,724	-0,052	-0,050
-486,693	800,000	-0,025	0,071
-485,678	-60,100	0,033	0,010
-484,664	-67,698	-0,034	0,010
-483,649	350,241	0,037	0,053
-482,635	-68,483	-0,076	-0,021
-481,620	-200,000	-0,036	0,140
-480,605	349,369	0,095	0,137
-479,591	203,162	0,077	0,087
-478,576	189,906	-0,020	-0,022
-477,562	311,803	-0,056	-0,077
-476,547	800,000	-0,029	-0,076
-475,532	755,034	0,028	-0,055
-474,518	327,007	0,067	0,094
-473,503	-63,208	0,126	-0,038
-472,489	266,706	0,029	0,037
-471,474	221,852	-0,079	0,093
-470,459	-200,000	-0,027	0,185
-469,445	-200,000	-0,007	-0,077
-468,430	501,493	-0,006	-0,009
-467,416	-200,000	0,020	0,120
-466,401	13,065	0,080	0,045
-465,386	242,118	0,039	-0,047
-464,372	-100,047	0,076	-0,014
-463,357	384,561	0,055	0,083
-462,343	-46,239	-0,086	-0,031
-461,328	-200,000	0,005	-0,033
-460,313	-72,221	0,168	-0,045
-459,299	-200,000	0,014	0,111
-458,284	-200,000	-0,021	0,077
-457,270	595,788	-0,016	0,029
-456,255	800,000	-0,047	0,108
-455,241	-200,000	-0,006	-0,063
-454,226	46,866	-0,105	0,071
-453,211	75,243	0,049	0,038
-452,197	761,897	0,018	0,036
-451,182	261,115	0,048	0,061
-450,168	-200,000	0,002	-0,051
-449,153	-200,000	0,001	0,091
-448,138	-61,152	-0,132	-0,040
-447,124	50,399	0,041	-0,028
-446,109	-200,000	-0,005	-0,084
-445,095	-200,000	0,016	-0,087
-444,080	367,162	0,029	0,044
-443,065	103,825	-0,029	-0,025
-442,051	-48,516	0,068	0,024
-441,036	-50,739	-0,049	0,017
-440,022	715,957	-0,030	-0,059
-439,007	59,702	-0,115	0,082
-437,992	-200,000	-0,004	0,049
-436,978	-99,422	-0,059	0,011
-435,963	-200,000	0,025	0,096
-434,949	-116,451	-0,192	0,026
-433,934	155,963	-0,057	-0,058
-432,919	-127,511	-0,022	0,002
-431,905	-200,000	0,033	-0,232
-430,890	-69,774	0,135	-0,037
-429,876	-79,599	-0,119	0,029
-428,861	61,406	-0,007	0,005
-427,846	-200,000	0,010	0,086
-426,832	-148,645	-0,091	0,005
-425,817	-200,000	0,008	0,110
-424,803	202,170	0,039	-0,043
-423,788	-200,000	0,013	0,044
-422,773	-200,000	0,028	-0,110
-421,759	194,138	0,010	-0,011
-420,744	-57,412	-0,086	-0,027
-419,730	333,115	0,003	-0,005
-418,715	-65,645	-0,107	-0,031
-417,701	-119,297	-0,079	0,010
-416,686	483,460	0,040	-0,067
-415,671	-52,685	0,016	0,005
-414,657	103,517	-0,027	0,023
-413,642	32,930	0,048	0,030
-412,628	25,796	-0,152	0,092
-411,613	800,000	0,041	-0,131
-410,598	169,608	-0,054	-0,057
-409,584	-200,000	-0,021	0,092
-408,569	-200,000	-0,004	0,098
-407,555	-200,000	0,023	0,138
-406,540	341,401	-0,092	0,131
-405,525	65,424	-0,025	0,019
-404,511	228,121	0,053	0,063
-403,496	-40,795	-0,079	-0,030
-402,482	-158,693	0,186	-0,008
-401,467	39,140	0,044	0,029
-400,452	10,021	0,059	-0,033
-399,438	-52,983	0,126	-0,042
-398,423	-96,394	-0,063	0,012
-397,409	-127,825	0,023	-0,002
-396,394	-162,899	-0,016	0,001
-395,379	-200,000	-0,002	-0,067
-394,365	-155,355	-0,066	0,003
-393,350	18,953	0,146	-0,085
-392,336	800,000	-0,075	0,168
-391,321	-81,650	0,016	-0,004
-390,306	-9,282	-0,057	-0,028
-389,292	235,186	-0,024	-0,029
-388,277	171,460	0,033	-0,034
-387,263	-146,780	0,014	-0,001
-386,248	-200,000	0,017	0,168
-385,233	800,000	0,073	0,168
-384,219	30,365	-0,045	0,028
-383,204	-149,679	-0,058	0,003
-382,190	43,854	-0,139	0,092
-381,175	-21,936	0,014	0,006
-380,160	465,374	-0,052	0,084
-379,146	-102,749	0,089	-0,015
-378,131	800,000	0,042	0,112
-377,117	46,749	-0,030	0,021
-376,102	-2,535	-0,074	0,038
-375,088	-170,512	0,044	0,001
-374,073	-1,765	0,092	0,047
-373,058	-63,259	0,180	-0,054
-372,044	366,314	0,043	0,064
-371,029	143,877	0,028	0,027
-370,015	-124,288	0,108	-0,012
-369,000	284,066	-0,051	0,067
-367,985	-164,797	-0,023	-0,001
-366,971	31,208	-0,092	-0,057
-365,956	-200,000	-0,007	-0,026
-364,942	246,347	0,085	-0,104
-363,927	-200,000	-0,022	-0,077
-362,912	-200,000	0,001	-0,094
-361,898	-130,618	0,127	-0,012
-360,883	225,651	-0,055	0,065
-359,869	254,977	-0,054	0,068
-358,854	-200,000	-0,044	0,226
-357,839	-6,178	-0,104	-0,051
-356,825	29,906	-0,077	0,048
-355,810	-147,888	0,183	0,011
-354,796	-11,082	-0,029	-0,014
-353,781	-70,291	-0,132	0,036
-352,766	431,924	-0,073	-0,115
-351,752	59,792	0,156	-0,112
-350,737	-200,000	0,007	0,100
-349,723	-200,000	0,033	0,171
-348,708	263,604	0,072	0,091
-347,693	47,793	-0,037	0,025
-346,679	-35,281	0,111	0,044
-345,664	-28,868	0,060	0,025
-344,650	800,000	-0,038	-0,098
-343,635	800,000	0,018	0,048
-342,620	56,933	0,072	0,051
-341,606	-91,127	0,092	-0,019
-340,591	-30,273	0,133	-0,055
-339,577	23,850	-0,082	-0,049
-338,562	-200,000	0,022	0,114
-337,548	786,070	0,020	0,040
-336,533	800,000	-0,023	0,068
-335,518	-200,000	0,009	0,211
-334,504	530,890	0,029	0,050
-333,489	50,087	-0,048	-0,033
-332,475	-44,629	0,148	0,053
-331,460	800,000	0,041	-0,101
-330,445	-46,085	0,065	-0,023
-329,431	-200,000	-0,003	0,100
-328,416	-200,000	-0,006	-0,085
-327,402	-71,828	0,114	-0,031
-326,387	800,000	-0,031	-0,064
-325,372	62,372	0,020	-0,015
-324,358	-200,000	-0,014	0,045
-323,343	-50,039	-0,051	-0,018
-322,329	33,684	0,131	0,083
-321,314	63,700	-0,085	-0,062
-320,299	-7,086	0,060	-0,030
-319,285	-109,445	0,044	-0,007
-318,270	114,073	-0,041	-0,037
-317,256	432,848	-0,044	0,070
-316,241	800,000	-0,051	-0,131
-315,226	-200,000	0,023	0,118
-314,212	62,018	-0,024	0,017
-313,197	552,310	0,059	0,104
-312,183	-38,059	-0,171	-0,066
-311,168	426,809	0,079	-0,124
-310,153	800,000	0,019	-0,043
-309,139	-59,316	0,071	-0,022
-308,124	-200,000	-0,005	-0,017
-307,110	-200,000	-0,001	0,012
-306,095	-13,344	0,064	0,030
-305,080	261,153	0,034	0,042
-304,066	-200,000	-0,003	0,053
-303,051	800,000	0,007	-0,020
-302,037	-163,553	0,060	-0,002
-301,022	-200,000	0,002	0,036
-300,008	-200,000	0,014	0,087
-298,993	-200,000	-0,008	-0,041
-297,978	-200,000	-0,005	-0,050
-296,964	59,722	-0,037	0,027
-295,949	596,528	0,050	-0,090
-294,935	-200,000	-0,002	-0,089
-293,920	506,846	0,055	-0,093
-292,905	-100,347	-0,156	-0,028
-291,891	-200,000	0,033	0,180
-290,876	599,761	0,014	0,025
-289,862	97,214	-0,023	-0,019
-288,847	692,959	-0,032	-0,061
-287,832	-21,144	0,101	-0,044
-286,818	-139,899	-0,175	0,013
-285,803	756,753	0,022	0,043
-284,789	-200,000	0,016	0,067
-283,774	800,000	-0,055	0,152
-282,759	-200,000	-0,016	0,058
-281,745	-200,000	-0,052	-0,242
-280,730	56,568	-0,045	0,032
-279,716	-102,327	-0,011	-0,002
-278,701	113,464	-0,040	-0,036
-277,686	-200,000	-0,035	0,140
-276,672	800,000	0,035	0,091
-275,657	-21,219	-0,089	-0,039
-274,643	-19,763	0,047	0,021
-273,628	-200,000	0,009	-0,116
-272,613	800,000	0,021	-0,052
-271,599	79,368	-0,055	0,043
-270,584	-47,075	-0,019	0,007
-269,570	144,558	0,074	0,071
-268,555	596,942	-0,058	-0,105
-267,540	800,000	-0,016	-0,045
-266,526	-55,213	0,054	-0,017
-265,511	10,288	-0,010	-0,005
-264,497	-180,293	-0,096	0,001
-263,482	-95,110	0,040	-0,008
-262,467	-200,000	0,016	-0,092
-261,453	-55,632	-0,050	0,016
-260,438	140,307	0,038	0,037
-259,424	64,789	-0,063	0,046
-258,409	736,939	0,064	0,125
-257,395	49,068	0,149	0,101
-256,380	-91,267	0,060	0,012
-255,365	-47,158	-0,058	0,020
-254,351	-82,809	0,096	0,022
-253,336	-91,966	-0,063	-0,013
-252,322	-200,000	0,002	-0,041
-251,307	-97,039	0,017	-0,003
-250,292	-119,036	0,093	0,012
-249,278	148,852	0,071	0,070
-248,263	54,426	-0,065	-0,046
-247,249	97,051	0,048	-0,040
-246,234	11,614	0,058	0,032
-245,219	-200,000	0,003	-0,126
-244,205	-200,000	-0,008	-0,097
-243,190	-70,721	-0,016	-0,004
-242,176	-4,654	0,149	0,074
-241,161	151,328	0,031	-0,031
-240,146	-146,470	-0,091	0,006
-239,132	13,003	0,118	-0,066
-238,117	94,443	-0,092	0,076
-237,103	-200,000	-0,017	0,073
-236,088	-200,000	-0,001	-0,079
-235,073	-25,784	-0,148	-0,063
-234,059	144,651	0,022	0,021
-233,044	576,416	0,086	0,153
-232,030	45,753	0,074	-0,049
-231,015	14,158	-0,105	0,059
-230,000	-68,198	-0,174	-0,049
-228,986	273,702	0,023	-0,030
-227,971	511,619	0,089	-0,151
-226,957	98,088	0,107	-0,089
-225,942	-200,000	-0,010	0,171
-224,927	66,795	0,082	0,060
-223,913	-73,884	-0,102	-0,027
-222,898	-200,000	0,016	-0,097
-221,884	800,000	-0,008	-0,019
-220,869	-141,419	0,021	-0,001
-219,855	-138,357	0,152	-0,012
-218,840	169,033	0,041	0,042
-217,825	-200,000	-0,004	-0,048
-216,811	-70,071	-0,216	0,059
-215,796	800,000	-0,076	-0,171
-214,782	800,000	0,023	-0,066
-213,767	-79,153	0,200	-0,049
-212,752	116,356	0,096	0,085
-211,738	118,821	-0,069	-0,061
-210,723	-41,739	-0,062	-0,023
-209,709	-110,352	-0,047	0,007
-208,694	127,128	0,112	-0,102
-207,679	800,000	0,026	-0,076
-206,665	800,000	0,024	-0,060
-205,650	81,010	0,129	0,100
-204,636	89,411	0,072	0,058
-203,621	327,661	0,014	-0,020
-202,606	-200,000	-0,017	0,103
-201,592	-200,000	0,000	-0,155
-200,577	800,000	-0,042	-0,121
-199,563	-200,000	0,006	-0,048
-198,548	-200,000	-0,015	0,075
-197,533	21,972	-0,021	0,012
-196,519	-200,000	-0,005	-0,030
-195,504	208,414	0,039	-0,044
-194,490	34,076	-0,077	0,049
-193,475	295,553	-0,033	0,044
-192,460	-89,753	-0,149	-0,031
-191,446	800,000	0,047	0,099
-190,431	-58,618	0,145	0,045
-189,417	-21,420	0,061	0,027
-188,402	384,806	0,043	0,064
-187,387	-200,000	-0,033	-0,107
-186,373	447,955	0,065	-0,104
-185,358	37,166	0,121	-0,077
-184,344	-111,914	0,180	-0,026
-183,329	82,193	0,023	-0,018
-182,315	-133,543	-0,043	-0,004
-181,300	800,000	0,017	-0,053
-180,285	96,362	-0,143	-0,118
-179,271	-200,000	0,017	-0,097
-178,256	-36,995	-0,114	-0,044
-177,242	87,002	0,059	-0,047
-176,227	-152,267	-0,057	-0,003
-175,212	103,049	0,058	0,049
-174,198	800,000	-0,008	0,025
-173,183	-200,000	-0,037	-0,124
-172,169	-112,355	0,110	-0,016
-171,154	-200,000	0,025	0,080
-170,139	41,937	0,012	-0,008
-169,125	-97,089	0,053	-0,010
-168,110	156,586	0,098	0,097
-167,096	348,396	-0,085	0,121
-166,081	-200,000	0,040	-0,169
-165,066	-200,000	-0,040	-0,160
-164,052	101,390	-0,026	-0,022
-163,037	-11,843	-0,012	-0,006
-162,023	139,229	0,044	0,042
-161,008	-200,000	0,014	0,090
-159,993	800,000	0,035	-0,100
-158,979	192,018	0,090	-0,098
-157,964	800,000	-0,024	-0,073
-156,950	-82,044	0,155	0,036
-155,935	-200,000	-0,034	0,126
-154,920	-137,909	0,145	-0,012
-153,906	-200,000	0,009	0,135
-152,891	800,000	0,029	-0,064
-151,877	425,245	-0,024	-0,038
-150,862	586,568	0,048	-0,086
-149,847	385,556	-0,084	-0,125
-148,833	800,000	0,062	-0,175
-147,818	346,179	-0,047	-0,067
-146,804	-200,000	0,003	0,081
-145,789	382,176	0,054	-0,080
-144,775	-119,828	0,061	-0,008
-143,760	-200,000	-0,024	-0,173
-142,745	-200,000	0,024	0,000
-141,731	-101,374	-0,086	0,015
-140,716	-200,000	0,003	0,051
-139,702	-10,570	-0,042	-0,020
-138,687	53,755	0,025	0,017
-137,672	10,386	-0,117	-0,064
-136,658	-71,906	0,068	-0,018
-135,643	179,567	-0,041	0,043
-134,629	596,307	0,010	0,017
-133,614	-141,263	-0,030	-0,002
-132,599	15,943	0,119	-0,067
-131,585	-200,000	-0,000	0,002
-130,570	469,698	0,037	-0,060
-129,556	574,839	-0,023	0,041
-128,541	6,431	-0,037	-0,020
-127,526	-200,000	0,021	0,081
-126,512	-103,149	-0,126	0,021
-125,497	479,793	0,044	-0,073
-124,483	-200,000	-0,024	0,096
-123,468	317,848	0,053	-0,072
-122,453	-200,000	0,008	0,039
-121,439	-7,550	0,073	0,035
-120,424	410,037	-0,058	0,089
