DTS Sentinel unit serial number:	SN410029Multiplexer serial number:	ORYXHardware model number:	OX2-SRSoftware version number:	ORYX F/W v4,00 Oryx Data Collector v3.7.2.0data status	okinstallation	B5 Nyhavnadifferential loss correction	single-endedforward channel	channel 2reverse channel	N/Adate	2023/12/11time	17:52:13forward acquisition time	300,00reverse acquisition time	0,00gamma	499,1914k internal	0,3163k external	0,3163temperature offset calibration	1,0000default loss term (dB/km)	0,3820temperature slope calibration	1,0000multiplexer offset coefficient	1,0000multiplexer slope coefficient	1,0000fibre end	0,00T internal ref (°C)	14,92T ext. ref 1 (°C)	-0,58T ext. ref 2 (°C)	-0,84length (m)	temperature (°C)	Stokes	anti-Stokes-744,400	43,318	0,087	-0,058
-743,385	-50,139	-0,214	-0,074
-742,371	545,881	0,120	0,211
-741,356	-114,630	-0,277	0,039
-740,342	115,432	0,159	0,143
-739,327	-22,855	-0,134	0,059
-738,312	800,000	0,064	0,137
-737,298	-37,920	-0,193	0,075
-736,283	-71,530	0,171	0,047
-735,269	-51,716	-0,227	0,077
-734,254	189,971	0,065	0,072
-733,239	-102,555	-0,339	-0,059
-732,225	379,077	0,065	0,098
-731,210	800,000	0,031	0,099
-730,196	-64,332	-0,111	-0,033
-729,181	-134,226	0,035	-0,003
-728,167	-200,000	-0,012	0,048
-727,152	72,417	-0,099	0,076
-726,137	96,628	0,055	0,046
-725,123	-83,062	-0,100	-0,023
-724,108	62,278	-0,134	-0,098
-723,094	-200,000	-0,024	-0,135
-722,079	72,340	-0,136	-0,104
-721,064	800,000	-0,036	-0,078
-720,050	800,000	-0,014	0,037
-719,035	-173,702	-0,101	-0,002
-718,021	800,000	-0,057	0,123
-717,006	-60,047	-0,132	-0,041
-715,991	-200,000	0,015	-0,062
-714,977	-200,000	0,001	-0,032
-713,962	712,050	-0,038	-0,075
-712,948	-73,591	-0,043	-0,011
-711,933	-169,629	0,046	0,001
-710,918	-200,000	-0,003	-0,114
-709,904	800,000	-0,089	-0,185
-708,889	-200,000	-0,022	0,084
-707,875	171,850	-0,078	-0,082
-706,860	-200,000	-0,026	-0,088
-705,845	114,470	-0,037	-0,033
-704,831	164,987	-0,054	0,056
-703,816	490,454	0,092	-0,156
-702,802	101,244	-0,083	-0,071
-701,787	-200,000	-0,042	-0,236
-700,772	191,197	-0,059	0,065
-699,758	97,453	-0,042	0,035
-698,743	57,304	0,082	-0,058
-697,729	505,596	-0,002	-0,004
-696,714	-87,345	0,048	-0,011
-695,699	-174,052	-0,076	-0,002
-694,685	-200,000	-0,012	-0,061
-693,670	-30,621	0,089	0,037
-692,656	-151,248	0,110	-0,006
-691,641	-20,617	-0,102	0,046
-690,627	-153,517	-0,061	-0,003
-689,612	-200,000	-0,017	0,109
-688,597	-200,000	-0,030	-0,108
-687,583	-121,697	-0,104	-0,013
-686,568	28,611	-0,097	-0,060
-685,554	151,240	-0,062	-0,062
-684,539	224,482	-0,055	-0,065
-683,524	-200,000	0,017	0,127
-682,510	-42,619	0,029	0,011
-681,495	-144,748	-0,058	-0,004
-680,481	-199,500	-0,061	-0,000
-679,466	-200,000	-0,008	-0,128
-678,451	-94,278	-0,069	-0,014
-677,437	25,692	0,079	-0,048
-676,422	-65,431	0,078	0,023
-675,408	496,058	0,049	0,083
-674,393	800,000	-0,008	-0,017
-673,378	129,935	-0,101	-0,095
-672,364	129,127	-0,109	-0,102
-671,349	800,000	-0,058	-0,145
-670,335	-200,000	0,003	0,057
-669,320	38,951	-0,120	-0,078
-668,305	-164,610	0,060	-0,002
-667,291	57,625	-0,059	-0,042
-666,276	49,419	-0,093	-0,064
-665,262	644,614	0,025	-0,047
-664,247	-52,492	0,049	0,016
-663,232	114,783	0,053	0,048
-662,218	50,836	-0,106	-0,074
-661,203	34,930	0,199	-0,127
-660,189	41,749	-0,013	-0,009
-659,174	46,874	-0,051	-0,035
-658,159	-200,000	-0,023	-0,101
-657,145	504,194	0,058	-0,098
-656,130	512,845	0,068	0,117
-655,116	67,067	0,177	0,133
-654,101	39,202	-0,023	0,015
-653,086	304,451	-0,049	-0,067
-652,072	-47,151	0,026	-0,009
-651,057	800,000	0,006	-0,015
-650,043	70,192	-0,127	-0,096
-649,028	-200,000	0,046	-0,175
-648,014	-37,154	0,058	-0,023
-646,999	22,984	-0,035	-0,021
-645,984	-200,000	-0,024	-0,099
-644,970	-200,000	0,008	-0,089
-643,955	-101,731	0,045	0,008
-642,941	-200,000	0,028	-0,143
-641,926	25,248	0,021	0,013
-640,911	272,546	-0,017	-0,022
-639,897	117,122	0,019	-0,017
-638,882	800,000	0,011	0,030
-637,868	101,781	-0,056	-0,048
-636,853	800,000	0,040	-0,097
-635,838	3,162	-0,102	0,054
-634,824	-40,709	0,015	0,006
-633,809	249,794	0,073	0,091
-632,795	372,778	0,079	0,118
-631,780	156,486	0,117	0,118
-630,765	40,843	-0,082	0,054
-629,751	307,887	-0,058	-0,079
-628,736	-42,476	0,091	0,034
-627,722	-78,184	-0,070	0,018
-626,707	-95,130	-0,156	-0,031
-625,692	-30,730	0,105	0,044
-624,678	-200,000	-0,014	0,103
-623,663	800,000	-0,043	-0,103
-622,649	-200,000	0,011	0,057
-621,634	275,326	-0,122	-0,159
-620,619	203,859	0,038	-0,043
-619,605	-162,778	0,061	0,002
-618,590	41,049	0,035	0,023
-617,576	74,527	0,041	0,032
-616,561	388,235	0,016	-0,024
-615,546	117,916	-0,046	-0,041
-614,532	-116,620	-0,057	-0,008
-613,517	220,452	-0,113	0,133
-612,503	60,868	0,070	-0,051
-611,488	767,648	-0,044	0,087
-610,474	-59,427	-0,165	0,052
-609,459	-21,927	0,032	0,014
-608,444	5,050	0,071	-0,038
-607,430	-200,000	-0,063	0,000
-606,415	-200,000	-0,038	-0,131
-605,401	-18,608	0,112	0,051
-604,386	125,568	0,072	0,066
-603,371	698,975	0,041	0,079
-602,357	-35,416	0,052	0,021
-601,342	-200,000	0,009	0,054
-600,328	52,769	-0,055	-0,039
-599,313	-200,000	0,034	-0,126
-598,298	800,000	0,050	-0,126
-597,284	-13,744	-0,056	-0,027
-596,269	-18,521	0,049	-0,022
-595,255	-29,917	-0,007	-0,003
-594,240	143,802	-0,076	-0,074
-593,225	-28,275	-0,048	0,020
-592,211	-200,000	0,010	0,056
-591,196	-200,000	0,036	0,125
-590,182	0,123	-0,020	0,011
-589,167	-200,000	-0,012	0,069
-588,152	260,684	0,015	0,019
-587,138	192,629	-0,065	0,072
-586,123	800,000	-0,036	0,112
-585,109	-16,471	0,076	0,035
-584,094	-13,203	-0,037	0,018
-583,079	-140,415	-0,021	0,002
-582,065	800,000	-0,013	0,036
-581,050	-200,000	-0,007	0,070
-580,036	414,284	0,049	0,076
-579,021	-200,000	-0,005	0,034
-578,006	378,072	-0,074	-0,110
-576,992	-200,000	0,039	-0,172
-575,977	174,343	-0,102	-0,108
-574,963	178,891	-0,016	-0,017
-573,948	-78,569	-0,173	-0,043
-572,934	86,871	0,069	0,056
-571,919	-158,718	-0,092	0,004
-570,904	-149,941	-0,150	0,008
-569,890	-69,574	-0,023	-0,006
-568,875	-26,296	0,019	-0,008
-567,861	693,975	0,015	0,029
-566,846	432,754	0,062	-0,099
-565,831	489,834	0,029	0,049
-564,817	-55,226	-0,142	-0,046
-563,802	800,000	-0,005	0,012
-562,788	-200,000	0,004	-0,105
-561,773	245,099	-0,044	0,055
-560,758	254,611	0,054	-0,068
-559,744	-200,000	-0,019	0,134
-558,729	-200,000	0,018	0,101
-557,715	800,000	0,011	-0,035
-556,700	-151,414	0,014	-0,001
-555,685	-91,940	0,006	0,001
-554,671	779,603	-0,089	0,179
-553,656	612,189	-0,079	0,145
-552,642	-138,863	0,106	0,008
-551,627	-96,310	0,138	-0,027
-550,612	-200,000	-0,005	-0,032
-549,598	21,754	-0,050	-0,030
-548,583	262,495	0,039	-0,050
-547,569	666,495	0,012	-0,023
-546,554	-200,000	0,006	0,023
-545,539	-80,918	-0,014	0,003
-544,525	800,000	0,029	0,089
-543,510	51,589	-0,139	-0,097
-542,496	-200,000	0,013	-0,102
-541,481	55,984	-0,087	-0,062
-540,466	800,000	-0,014	0,032
-539,452	-200,000	-0,003	0,163
-538,437	100,319	0,149	0,126
-537,423	-11,378	0,037	-0,018
-536,408	245,857	0,117	0,144
-535,393	-200,000	-0,009	0,076
-534,379	-200,000	-0,018	-0,182
-533,364	-101,097	-0,052	-0,009
-532,350	-200,000	-0,016	0,112
-531,335	390,333	0,067	0,101
-530,321	61,398	0,077	0,056
-529,306	390,335	0,122	0,185
-528,291	-200,000	-0,017	0,112
-527,277	-200,000	-0,007	-0,172
-526,262	191,657	0,070	-0,077
-525,248	-103,838	0,118	-0,020
-524,233	-19,059	0,110	0,050
-523,218	-89,046	-0,130	0,028
-522,204	-71,729	-0,057	-0,015
-521,189	-93,412	-0,099	0,020
-520,175	-200,000	-0,033	-0,194
-519,160	-200,000	-0,014	0,081
-518,145	411,779	0,038	0,060
-517,131	-200,000	-0,020	0,115
-516,116	77,042	-0,036	0,028
-515,102	-200,000	-0,001	0,003
-514,087	-93,442	-0,133	-0,027
-513,072	232,122	0,028	0,033
-512,058	-61,695	0,106	0,032
-511,043	800,000	0,019	-0,048
-510,029	-88,182	0,121	0,026
-509,014	135,284	0,032	-0,031
-507,999	800,000	0,018	-0,046
-506,985	-200,000	0,001	-0,107
-505,970	181,363	-0,089	-0,095
-504,956	-109,915	-0,030	-0,005
-503,941	397,706	0,022	-0,033
-502,926	21,487	-0,068	0,040
-501,912	0,721	0,060	0,031
-500,897	-184,151	-0,017	-0,000
-499,883	-46,951	-0,111	-0,039
-498,868	-167,503	0,076	0,002
-497,853	-200,000	0,009	-0,037
-496,839	464,002	-0,090	0,147
-495,824	-200,000	0,023	0,111
-494,810	-200,000	-0,009	0,155
-493,795	342,728	-0,050	-0,072
-492,781	-200,000	-0,007	-0,114
-491,766	-200,000	-0,023	-0,153
-490,751	-43,185	-0,049	0,018
-489,737	126,380	-0,101	-0,093
-488,722	-73,655	0,088	-0,023
-487,708	41,432	-0,035	-0,023
-486,693	800,000	-0,035	-0,072
-485,678	-13,213	-0,246	-0,116
-484,664	-200,000	0,035	0,187
-483,649	-102,242	0,081	0,014
-482,635	-127,926	-0,050	-0,005
-481,620	-69,205	0,085	0,024
-480,605	79,762	0,127	0,099
-479,591	441,448	0,043	-0,068
-478,576	259,095	0,094	-0,119
-477,562	244,555	0,053	0,065
-476,547	-52,027	-0,054	0,018
-475,532	-159,328	0,062	0,002
-474,518	204,823	0,063	0,071
-473,503	-22,313	-0,040	0,018
-472,489	800,000	-0,055	-0,145
-471,474	57,193	-0,042	-0,030
-470,459	791,775	-0,047	-0,095
-469,445	-79,157	-0,123	-0,030
-468,430	-123,807	0,097	-0,011
-467,416	263,905	0,009	-0,012
-466,401	-11,915	0,038	0,018
-465,386	-200,000	-0,001	0,062
-464,372	318,790	-0,100	0,139
-463,357	-200,000	-0,007	-0,038
-462,343	50,505	-0,092	-0,063
-461,328	101,150	-0,017	-0,015
-460,313	-41,810	0,065	-0,024
-459,299	-10,051	-0,092	-0,044
-458,284	-170,459	-0,213	0,005
-457,270	69,351	0,069	0,052
-456,255	294,760	-0,015	0,020
-455,241	800,000	-0,014	-0,041
-454,226	800,000	0,017	0,041
-453,211	-124,483	-0,079	-0,009
-452,197	-74,983	0,074	-0,019
-451,182	-200,000	-0,002	-0,011
-450,168	171,041	0,046	0,048
-449,153	800,000	0,076	0,217
-448,138	254,751	0,080	-0,100
-447,124	251,933	-0,055	-0,068
-446,109	800,000	0,012	0,038
-445,095	625,222	0,038	0,071
-444,080	-123,813	-0,109	-0,012
-443,065	-200,000	-0,000	-0,084
-442,051	-68,857	-0,029	0,008
-441,036	105,052	0,069	-0,059
-440,022	800,000	-0,037	-0,111
-439,007	-200,000	0,008	0,079
-437,992	800,000	0,028	-0,075
-436,978	237,519	0,086	-0,104
-435,963	87,259	-0,094	0,076
-434,949	-200,000	0,004	0,203
-433,934	-200,000	0,002	-0,118
-432,919	37,503	-0,098	-0,063
-431,905	-85,986	-0,089	0,020
-430,890	-120,197	0,215	0,026
-429,876	374,180	0,077	0,114
-428,861	-8,428	0,086	0,042
-427,846	-200,000	0,030	-0,102
-426,832	-200,000	0,001	-0,061
-425,817	137,939	-0,064	0,061
-424,803	-200,000	0,016	-0,079
-423,788	800,000	-0,031	0,096
-422,773	163,369	0,036	-0,037
-421,759	66,824	0,048	0,036
-420,744	25,763	-0,018	-0,011
-419,730	-133,006	-0,099	0,009
-418,715	189,628	-0,151	0,164
-417,701	-200,000	-0,022	0,075
-416,686	-200,000	-0,018	0,167
-415,671	-200,000	-0,016	0,064
-414,657	18,453	-0,124	0,072
-413,642	165,156	0,034	-0,035
-412,628	367,051	-0,071	-0,104
-411,613	122,902	0,032	-0,029
-410,598	-200,000	-0,015	-0,056
-409,584	79,577	0,066	0,051
-408,569	-85,630	0,131	0,029
-407,555	30,938	0,094	0,059
-406,540	-200,000	-0,005	0,025
-405,525	800,000	0,024	-0,063
-404,511	-200,000	-0,032	-0,181
-403,496	272,298	0,070	-0,090
-402,482	-49,791	-0,107	0,037
-401,467	185,079	0,126	0,136
-400,452	800,000	0,012	-0,034
-399,438	205,602	0,097	0,109
-398,423	69,067	-0,079	-0,059
-397,409	-112,741	-0,093	0,013
-396,394	-100,973	0,053	0,009
-395,379	800,000	-0,024	-0,061
-394,365	-200,000	0,007	-0,031
-393,350	286,190	-0,136	0,179
-392,336	800,000	-0,012	-0,028
-391,321	800,000	-0,042	0,104
-390,306	-55,927	0,051	-0,017
-389,292	-139,061	-0,094	0,007
-388,277	-25,969	0,032	-0,014
-387,263	800,000	0,029	-0,081
-386,248	-200,000	-0,012	0,146
-385,233	4,551	-0,073	-0,039
-384,219	-129,082	-0,076	0,008
-383,204	-200,000	0,037	0,178
-382,190	800,000	0,020	-0,053
-381,175	-200,000	-0,000	-0,130
-380,160	496,817	0,056	0,094
-379,146	455,267	0,041	-0,067
-378,131	72,119	-0,090	0,068
-377,117	-71,878	-0,037	0,010
-376,102	737,058	-0,041	0,081
-375,088	-86,031	-0,112	-0,025
-374,073	217,693	0,041	-0,047
-373,058	-76,148	-0,063	0,016
-372,044	-141,178	0,107	-0,008
-371,029	-154,823	-0,074	0,003
-370,015	261,987	-0,067	0,085
-369,000	377,557	-0,032	-0,047
-367,985	-200,000	-0,020	-0,107
-366,971	-200,000	0,005	-0,054
-365,956	-200,000	0,004	-0,062
-364,942	10,255	0,054	0,030
-363,927	-167,006	0,127	-0,004
-362,912	623,382	-0,033	-0,061
-361,898	-6,278	-0,076	-0,037
-360,883	306,961	-0,061	-0,083
-359,869	38,941	0,120	-0,078
-358,854	-200,000	0,010	-0,041
-357,839	428,136	0,084	-0,132
-356,825	-200,000	0,020	0,098
-355,810	-200,000	0,087	0,000
-354,796	123,063	-0,100	-0,091
-353,781	174,321	-0,023	-0,024
-352,766	-107,922	-0,060	-0,009
-351,752	-52,675	0,029	0,010
-350,737	-110,117	-0,112	0,017
-349,723	8,439	0,049	0,027
-348,708	-4,807	-0,113	-0,056
-347,693	-91,625	-0,108	0,022
-346,679	-91,257	0,062	0,013
-345,664	-170,229	-0,078	-0,002
-344,650	-7,292	-0,138	-0,067
-343,635	-2,683	-0,005	-0,003
-342,620	-200,000	0,012	0,134
-341,606	166,506	-0,086	0,088
-340,591	800,000	0,020	0,059
-339,577	564,119	-0,017	-0,030
-338,562	-94,450	0,046	-0,009
-337,548	-200,000	-0,002	-0,031
-336,533	71,460	0,181	-0,136
-335,518	313,840	-0,038	0,052
-334,504	-200,000	-0,033	0,119
-333,489	233,547	0,067	-0,079
-332,475	-200,000	-0,058	-0,206
-331,460	800,000	-0,039	-0,105
-330,445	800,000	0,020	0,046
-329,431	-3,078	-0,037	-0,019
-328,416	222,158	0,135	-0,157
-327,402	-158,462	0,118	0,005
-326,387	-42,806	0,147	0,054
-325,372	65,855	-0,136	-0,099
-324,358	-60,474	-0,088	0,027
-323,343	27,210	-0,009	0,005
-322,329	-41,264	-0,158	0,059
-321,314	-73,383	0,044	-0,012
-320,299	-40,385	0,042	-0,016
-319,285	-55,091	-0,032	-0,010
-318,270	690,400	-0,075	-0,143
-317,256	98,803	-0,087	-0,073
-316,241	-15,701	-0,073	-0,033
-315,226	654,198	-0,031	-0,057
-314,212	-62,134	-0,025	0,008
-313,197	-200,000	0,028	0,124
-312,183	-200,000	0,002	0,132
-311,168	-200,000	0,003	-0,102
-310,153	69,574	0,129	-0,096
-309,139	78,530	0,071	0,055
-308,124	135,114	0,048	0,045
-307,110	800,000	-0,031	0,071
-306,095	800,000	0,067	0,202
-305,080	800,000	-0,017	0,047
-304,066	-164,308	0,099	-0,003
-303,051	440,475	-0,053	0,084
-302,037	718,437	0,048	-0,093
-301,022	-200,000	-0,003	-0,122
-300,008	-63,898	0,081	-0,024
-298,993	541,606	0,085	0,146
-297,978	-82,438	-0,088	-0,021
-296,964	49,914	-0,048	0,033
-295,949	-200,000	-0,009	-0,054
-294,935	438,272	0,113	0,178
-293,920	-72,672	0,042	-0,011
-292,905	38,900	-0,083	-0,053
-291,891	403,904	0,050	0,076
-290,876	-128,527	0,147	-0,015
-289,862	800,000	0,031	-0,071
-288,847	-200,000	-0,007	-0,110
-287,832	800,000	0,027	0,086
-286,818	234,322	-0,071	0,085
-285,803	-200,000	0,003	0,092
-284,789	800,000	-0,028	-0,072
-283,774	-186,641	-0,045	0,000
-282,759	410,410	-0,041	0,063
-281,745	-115,911	0,154	-0,021
-280,730	-7,155	-0,080	0,039
-279,716	-200,000	-0,010	0,060
-278,701	651,135	0,011	0,020
-277,686	285,342	0,073	-0,096
-276,672	-200,000	0,026	0,133
-275,657	325,579	-0,024	-0,033
-274,643	65,126	-0,080	-0,058
-273,628	-200,000	0,003	-0,178
-272,613	251,580	0,102	-0,126
-271,599	2,795	-0,147	-0,077
-270,584	298,065	0,024	-0,032
-269,570	-44,745	0,126	-0,045
-268,555	343,829	-0,092	-0,131
-267,540	4,066	0,033	-0,017
-266,526	282,802	-0,044	0,057
-265,511	154,675	0,114	0,113
-264,497	-200,000	-0,010	0,061
-263,482	129,848	-0,093	-0,086
-262,467	-153,733	0,142	0,007
-261,453	-200,000	-0,026	0,115
-260,438	530,871	-0,042	-0,073
-259,424	44,768	0,098	-0,065
-258,409	-35,639	0,150	-0,058
-257,395	184,336	0,080	0,086
-256,380	-70,646	0,058	0,016
-255,365	290,933	0,016	-0,021
-254,351	-48,241	0,060	-0,021
-253,336	-1,062	0,026	-0,013
-252,322	800,000	0,006	0,018
-251,307	-141,788	-0,123	0,009
-250,292	800,000	0,026	-0,063
-249,278	-13,380	0,103	-0,048
-248,263	225,604	-0,118	0,138
-247,249	137,378	0,090	0,085
-246,234	800,000	0,062	-0,148
-245,219	-107,566	-0,130	-0,020
-244,205	231,556	-0,054	0,064
-243,190	109,028	0,082	-0,071
-242,176	-28,146	-0,032	-0,013
-241,161	-200,000	0,035	0,150
-240,146	800,000	-0,040	-0,084
-239,132	-200,000	0,009	-0,099
-238,117	-63,327	-0,087	0,026
-237,103	252,283	-0,028	0,034
-236,088	269,199	-0,063	-0,080
-235,073	-184,660	0,161	-0,002
-234,059	205,939	0,135	-0,152
-233,044	-51,577	0,032	-0,011
-232,030	76,864	-0,037	0,028
-231,015	228,524	0,036	-0,043
-230,000	-91,922	-0,174	0,035
-228,986	-28,749	-0,046	0,019
-227,971	-117,307	-0,045	0,006
-226,957	-200,000	-0,033	-0,136
-225,942	94,566	0,064	-0,053
-224,927	6,983	-0,024	-0,013
-223,913	-200,000	0,006	0,112
-222,898	373,827	0,031	-0,046
-221,884	86,091	0,050	-0,040
-220,869	634,742	0,010	-0,018
-219,855	-200,000	0,011	0,173
-218,840	-5,274	-0,045	-0,022
-217,825	-95,526	0,023	0,004
-216,811	-200,000	0,014	-0,121
-215,796	785,906	0,081	-0,162
-214,782	-200,000	0,012	-0,130
-213,767	800,000	-0,038	0,119
-212,752	-200,000	0,038	0,133
-211,738	494,235	0,032	0,053
-210,723	-5,483	0,113	-0,056
-209,709	750,610	-0,034	-0,066
-208,694	-44,273	0,067	-0,024
-207,679	584,117	-0,102	-0,182
-206,665	-200,000	0,001	-0,092
-205,650	56,005	0,151	-0,106
-204,636	-200,000	0,008	0,032
-203,621	800,000	0,017	-0,041
-202,606	800,000	0,022	0,055
-201,592	-130,221	0,071	0,007
-200,577	199,031	0,049	-0,054
-199,563	800,000	-0,089	-0,195
-198,548	-32,479	0,025	-0,010
-197,533	346,052	0,168	0,238
-196,519	-62,101	0,049	0,015
-195,504	-24,650	0,107	0,046
-194,490	-200,000	0,054	-0,186
-193,475	353,350	-0,041	-0,058
-192,460	686,412	-0,071	0,135
-191,446	-40,109	0,144	-0,054
-190,431	141,919	0,042	0,040
-189,417	-200,000	0,005	0,027
-188,402	-88,190	0,021	0,004
-187,387	-55,902	-0,068	0,022
-186,373	44,755	-0,069	0,046
-185,358	-200,000	0,003	0,069
-184,344	7,994	-0,050	-0,027
-183,329	112,876	0,054	-0,048
-182,315	751,013	-0,005	0,010
-181,300	10,848	-0,157	-0,086
-180,285	-11,967	-0,054	-0,026
-179,271	-22,468	-0,135	0,059
-178,256	-200,000	0,004	0,016
-177,242	47,850	-0,051	0,034
-176,227	49,304	0,042	0,028
-175,212	-200,000	0,005	0,130
-174,198	-25,651	-0,058	-0,025
-173,183	196,115	-0,047	0,052
-172,169	-14,397	-0,092	-0,042
-171,154	-200,000	0,006	0,134
-170,139	-46,307	-0,011	-0,004
-169,125	-118,529	0,075	0,009
-168,110	117,662	0,065	0,057
-167,096	-200,000	-0,015	0,069
-166,081	-44,329	-0,032	0,012
-165,066	-110,595	-0,126	-0,019
-164,052	-86,116	0,100	0,022
-163,037	-200,000	0,015	-0,057
-162,023	565,660	0,082	-0,144
-161,008	265,047	0,018	-0,023
-159,993	800,000	-0,043	0,088
-158,979	-200,000	0,015	0,049
-157,964	800,000	0,072	0,181
-156,950	-200,000	0,008	0,053
-155,935	143,509	-0,051	0,049
-154,920	17,560	0,029	0,016
-153,906	639,350	0,068	0,124
-152,891	-200,000	-0,022	0,105
-151,877	-144,677	-0,172	0,011
-150,862	23,880	-0,212	0,125
-149,847	800,000	0,020	-0,053
-148,833	109,001	0,040	-0,034
-147,818	-141,896	0,027	-0,002
-146,804	-200,000	-0,045	0,227
-145,789	152,601	0,041	-0,040
-144,775	-129,369	-0,061	-0,006
-143,760	-130,465	-0,057	-0,005
-142,745	-38,856	-0,063	0,024
-141,731	-103,250	0,068	0,011
-140,716	640,582	-0,056	-0,103
-139,702	-76,308	0,026	0,006
-138,687	-124,753	0,103	0,011
-137,672	22,540	0,077	0,045
-136,658	46,740	-0,052	-0,035
-135,643	800,000	-0,012	-0,029
-134,629	-172,631	-0,117	0,003
-133,614	-99,141	0,077	-0,014
-132,599	304,588	-0,106	0,142
-131,585	-200,000	0,015	0,108
-130,570	-56,739	-0,091	0,029
-129,556	-96,371	-0,200	0,038
-128,541	516,789	-0,019	0,032
-127,526	103,216	-0,043	0,036
-126,512	78,323	-0,079	0,061
-125,497	-200,000	0,031	-0,111
-124,483	497,532	-0,029	0,048
-123,468	50,491	0,091	0,062
-122,453	-200,000	-0,008	0,032
-121,439	-15,502	-0,116	0,053
-120,424	-200,000	-0,009	-0,119
-119,410	-200,000	-0,008	-0,063
