DTS Sentinel unit serial number:	SN410029Multiplexer serial number:	ORYXHardware model number:	OX2-SRSoftware version number:	ORYX F/W v4,00 Oryx Data Collector v3.7.2.0data status	okinstallation	B5 Nyhavnadifferential loss correction	single-endedforward channel	channel 2reverse channel	N/Adate	2023/12/11time	18:02:13forward acquisition time	300,00reverse acquisition time	0,00gamma	499,1914k internal	0,3162k external	0,3162temperature offset calibration	1,0000default loss term (dB/km)	0,3820temperature slope calibration	1,0000multiplexer offset coefficient	1,0000multiplexer slope coefficient	1,0000fibre end	0,00T internal ref (°C)	15,00T ext. ref 1 (°C)	-0,52T ext. ref 2 (°C)	-0,76length (m)	temperature (°C)	Stokes	anti-Stokes-744,400	-10,536	0,122	-0,059
-743,385	-163,373	-0,255	0,009
-742,371	488,717	0,084	0,143
-741,356	57,548	-0,250	0,180
-740,342	800,000	0,056	0,141
-739,327	-200,000	-0,345	0,000
-738,312	-115,206	0,112	0,015
-737,298	-162,761	-0,247	-0,009
-736,283	24,519	-0,070	0,043
-735,269	-73,701	-0,179	0,048
-734,254	54,466	-0,087	0,062
-733,239	-126,553	-0,500	-0,054
-732,225	10,177	0,171	0,095
-731,210	-22,602	0,061	-0,027
-730,196	-200,000	-0,010	-0,052
-729,181	-200,000	0,033	-0,127
-728,167	703,926	-0,072	-0,141
-727,152	-83,199	-0,144	0,034
-726,137	131,070	0,059	-0,056
-725,123	195,977	-0,039	0,044
-724,108	-96,802	-0,029	0,006
-723,094	32,201	-0,125	0,079
-722,079	-200,000	0,035	-0,183
-721,064	-200,000	-0,005	0,064
-720,050	-200,000	0,012	-0,115
-719,035	-39,894	0,065	-0,025
-718,021	-124,787	-0,123	-0,014
-717,006	-60,297	-0,136	-0,042
-715,991	-89,781	-0,019	0,004
-714,977	186,657	-0,072	-0,079
-713,962	178,846	-0,075	-0,080
-712,948	117,135	-0,028	-0,025
-711,933	55,536	0,093	-0,066
-710,918	-200,000	0,029	0,110
-709,904	-176,343	-0,180	-0,003
-708,889	-144,532	-0,127	-0,008
-707,875	382,561	-0,136	-0,206
-706,860	800,000	-0,040	-0,103
-705,845	72,461	-0,049	0,038
-704,831	-200,000	0,016	0,085
-703,816	800,000	-0,038	-0,080
-702,802	781,729	0,064	0,130
-701,787	-168,671	0,055	0,001
-700,772	-25,948	-0,046	0,020
-699,758	-200,000	-0,007	-0,026
-698,743	-154,620	0,060	-0,003
-697,729	-200,000	0,029	-0,171
-696,714	-200,000	-0,007	-0,091
-695,699	800,000	0,047	0,131
-694,685	800,000	-0,043	0,093
-693,670	422,230	0,026	0,042
-692,656	-130,697	0,190	0,019
-691,641	-41,102	0,084	-0,032
-690,627	-37,667	-0,057	0,022
-689,612	800,000	0,012	0,029
-688,597	-125,864	0,135	-0,015
-687,583	-200,000	-0,007	-0,134
-686,568	144,626	-0,088	-0,086
-685,554	-33,193	0,034	-0,014
-684,539	-40,663	0,045	0,017
-683,524	143,786	-0,030	0,030
-682,510	-200,000	0,005	0,095
-681,495	800,000	-0,016	0,052
-680,481	-20,470	-0,157	0,071
-679,466	-43,589	0,033	0,012
-678,451	73,821	-0,129	-0,099
-677,437	37,611	0,125	-0,081
-676,422	-69,039	-0,147	0,041
-675,408	-200,000	0,040	0,162
-674,393	-200,000	-0,001	-0,025
-673,378	-200,000	-0,005	0,030
-672,364	-141,628	-0,097	0,007
-671,349	28,182	-0,109	0,068
-670,335	52,669	-0,088	0,062
-669,320	681,135	-0,062	-0,118
-668,305	7,130	-0,087	0,048
-667,291	800,000	0,033	0,097
-666,276	313,107	0,106	-0,146
-665,262	-65,710	-0,031	-0,009
-664,247	-44,233	-0,091	0,033
-663,232	280,509	-0,094	-0,123
-662,218	566,243	0,076	0,136
-661,203	241,430	0,082	0,100
-660,189	154,296	-0,083	0,084
-659,174	58,539	0,118	0,085
-658,159	32,004	-0,136	-0,086
-657,145	-200,000	0,058	-0,000
-656,130	113,813	-0,078	0,069
-655,116	-200,000	0,009	0,037
-654,101	392,488	0,020	-0,031
-653,086	-177,618	0,057	-0,001
-652,072	-132,008	-0,075	0,007
-651,057	147,663	0,091	-0,090
-650,043	-145,502	-0,087	0,006
-649,028	-115,541	-0,054	0,007
-648,014	473,334	-0,062	0,103
-646,999	-36,214	-0,127	0,050
-645,984	-200,000	-0,001	0,031
-644,970	179,858	-0,099	0,106
-643,955	205,766	-0,050	-0,058
-642,941	40,201	0,126	-0,083
-641,926	246,549	-0,025	0,031
-640,911	-0,729	0,114	0,059
-639,897	-46,359	-0,092	-0,033
-638,882	-131,347	-0,039	0,004
-637,868	-173,357	0,043	-0,001
-636,853	800,000	-0,062	-0,130
-635,838	-88,074	-0,060	0,013
-634,824	-200,000	-0,041	-0,144
-633,809	-70,371	0,041	-0,011
-632,795	350,661	0,035	-0,051
-631,780	-147,030	0,097	0,006
-630,765	-188,968	-0,086	0,001
-629,751	-48,328	0,071	0,025
-628,736	-200,000	-0,009	-0,043
-627,722	36,152	-0,025	-0,016
-626,707	650,331	-0,043	0,082
-625,692	-44,075	0,082	-0,030
-624,678	569,126	-0,028	-0,049
-623,663	226,948	-0,091	-0,109
-622,649	32,034	-0,047	-0,030
-621,634	-22,261	-0,056	-0,025
-620,619	416,246	-0,127	-0,199
-619,605	-200,000	0,023	-0,082
-618,590	-200,000	0,008	-0,059
-617,576	-200,000	-0,033	0,151
-616,561	-200,000	-0,006	0,024
-615,546	34,010	-0,174	-0,111
-614,532	-200,000	-0,003	-0,057
-613,517	800,000	0,027	0,063
-612,503	-180,234	0,037	-0,001
-611,488	-26,747	-0,033	0,014
-610,474	124,345	0,025	-0,023
-609,459	800,000	-0,072	-0,220
-608,444	-151,522	0,119	0,006
-607,430	-200,000	0,015	-0,149
-606,415	141,392	-0,098	-0,095
-605,401	-30,373	-0,130	0,054
-604,386	-49,202	0,081	0,028
-603,371	-121,602	0,096	0,011
-602,357	405,803	0,043	0,066
-601,342	-200,000	0,000	0,041
-600,328	41,055	-0,042	0,027
-599,313	-200,000	-0,012	-0,050
-598,298	-29,830	-0,036	0,015
-597,284	-24,676	0,077	-0,033
-596,269	379,027	-0,031	0,047
-595,255	446,150	-0,077	0,125
-594,240	-200,000	-0,025	0,082
-593,225	-200,000	0,003	0,044
-592,211	164,754	-0,052	0,054
-591,196	789,021	-0,064	0,129
-590,182	-91,291	0,064	0,013
-589,167	51,716	-0,031	-0,021
-588,152	-8,306	-0,036	-0,018
-587,138	-94,630	-0,171	-0,034
-586,123	182,040	-0,084	-0,091
-585,109	70,570	-0,042	-0,032
-584,094	-8,393	-0,110	0,054
-583,079	-200,000	0,017	0,216
-582,065	-182,948	0,151	0,002
-581,050	-111,927	0,101	0,015
-580,036	-92,929	-0,094	0,019
-579,021	-200,000	0,022	0,142
-578,006	133,687	-0,078	-0,074
-576,992	92,079	-0,057	-0,047
-575,977	1,126	0,156	0,082
-574,963	61,627	0,078	0,057
-573,948	-200,000	0,013	0,050
-572,934	89,225	0,082	-0,067
-571,919	-27,934	-0,035	-0,015
-570,904	-200,000	0,011	-0,082
-569,890	208,326	0,095	0,109
-568,875	-98,880	0,134	-0,025
-567,861	57,464	0,143	0,102
-566,846	616,912	0,045	0,083
-565,831	-200,000	-0,020	-0,090
-564,817	21,345	-0,070	-0,041
-563,802	800,000	-0,048	-0,102
-562,788	-200,000	0,002	0,063
-561,773	-44,649	-0,067	0,024
-560,758	45,140	0,139	0,093
-559,744	800,000	0,010	0,025
-558,729	-156,219	0,114	-0,005
-557,715	-181,780	0,078	0,001
-556,700	192,277	-0,016	0,017
-555,685	187,694	-0,187	-0,204
-554,671	-200,000	0,011	-0,062
-553,656	-150,357	0,073	-0,004
-552,642	362,118	0,015	0,022
-551,627	-177,120	0,128	-0,002
-550,612	179,035	0,036	-0,038
-549,598	12,080	-0,074	-0,041
-548,583	-24,693	0,048	-0,021
-547,569	235,673	0,052	0,063
-546,554	-200,000	0,032	0,111
-545,539	800,000	0,028	0,058
-544,525	-200,000	0,007	0,090
-543,510	-46,283	-0,128	0,046
-542,496	-200,000	0,003	-0,116
-541,481	-200,000	0,009	-0,089
-540,466	257,315	-0,082	-0,104
-539,452	166,186	-0,091	-0,094
-538,437	16,457	0,130	-0,075
-537,423	480,331	-0,054	0,091
-536,408	-61,260	0,031	-0,009
-535,393	-144,223	-0,091	0,006
-534,379	-71,088	-0,074	-0,020
-533,364	361,496	-0,045	-0,066
-532,350	526,850	0,106	-0,184
-531,335	800,000	0,023	0,066
-530,321	-200,000	0,001	-0,070
-529,306	-200,000	-0,002	0,107
-528,291	307,375	0,091	-0,125
-527,277	-126,335	-0,051	0,005
-526,262	-200,000	0,007	-0,043
-525,248	797,569	0,024	0,049
-524,233	403,449	0,068	0,105
-523,218	78,483	-0,036	0,028
-522,204	108,218	0,028	-0,025
-521,189	40,383	-0,091	-0,060
-520,175	-200,000	0,013	0,108
-519,160	46,241	-0,099	0,067
-518,145	179,026	0,061	0,065
-517,131	-26,269	-0,076	0,033
-516,116	91,217	0,156	0,128
-515,102	271,486	-0,027	0,035
-514,087	-17,733	0,086	-0,039
-513,072	47,855	0,118	-0,080
-512,058	30,149	-0,121	0,075
-511,043	-85,093	0,217	0,049
-510,029	-200,000	-0,001	-0,028
-509,014	-200,000	-0,018	0,119
-507,999	-200,000	-0,051	0,211
-506,985	269,178	0,034	0,043
-505,970	286,621	-0,067	-0,089
-504,956	800,000	0,059	-0,128
-503,941	756,218	-0,019	-0,038
-502,926	-200,000	0,005	-0,034
-501,912	710,680	0,015	-0,030
-500,897	-142,220	0,078	-0,006
-499,883	-4,148	-0,086	0,043
-498,868	-200,000	0,046	-0,197
-497,853	-167,703	-0,048	-0,001
-496,839	459,442	-0,040	0,066
-495,824	279,251	-0,068	-0,089
-494,810	65,933	-0,057	-0,042
-493,795	66,538	0,050	0,037
-492,781	-200,000	0,039	-0,175
-491,766	-38,397	-0,096	-0,037
-490,751	-69,939	-0,101	-0,028
-489,737	-83,847	0,109	0,025
-488,722	508,792	-0,073	0,125
-487,708	-200,000	-0,020	0,124
-486,693	-200,000	0,019	0,089
-485,678	-200,000	-0,024	-0,084
-484,664	-136,363	-0,038	-0,003
-483,649	-22,149	0,062	-0,027
-482,635	-200,000	-0,032	-0,146
-481,620	-200,000	-0,007	0,031
-480,605	45,157	-0,003	0,002
-479,591	32,902	0,045	0,028
-478,576	800,000	-0,033	0,069
-477,562	-118,707	0,036	0,005
-476,547	-200,000	-0,011	0,067
-475,532	154,705	-0,067	0,067
-474,518	-200,000	-0,005	-0,042
-473,503	430,529	0,082	0,130
-472,489	269,641	0,069	-0,089
-471,474	477,237	-0,046	0,076
-470,459	800,000	0,052	0,112
-469,445	65,381	0,082	0,061
-468,430	667,075	-0,068	0,128
-467,416	-200,000	0,014	0,063
-466,401	-108,201	0,071	0,011
-465,386	-13,331	0,146	0,069
-464,372	282,404	0,033	-0,043
-463,357	-200,000	-0,003	-0,034
-462,343	26,711	-0,054	-0,033
-461,328	17,538	0,055	-0,032
-460,313	800,000	-0,016	0,039
-459,299	-5,626	0,072	-0,036
-458,284	-24,820	-0,063	-0,027
-457,270	-7,299	0,103	0,050
-456,255	359,806	-0,072	-0,105
-455,241	419,156	-0,044	-0,069
-454,226	-10,771	-0,074	-0,036
-453,211	155,820	-0,036	-0,037
-452,197	-200,000	-0,009	-0,082
-451,182	-200,000	0,039	0,132
-450,168	307,312	0,051	-0,070
-449,153	52,047	-0,044	-0,030
-448,138	248,497	0,060	-0,074
-447,124	-200,000	-0,023	-0,118
-446,109	47,122	0,052	-0,035
-445,095	-79,368	0,078	0,019
-444,080	217,221	-0,040	0,047
-443,065	-30,246	-0,151	-0,062
-442,051	-34,320	-0,122	-0,049
-441,036	800,000	-0,027	-0,066
-440,022	232,592	-0,088	-0,105
-439,007	373,019	-0,081	-0,120
-437,992	54,216	0,105	0,073
-436,978	-200,000	0,023	0,137
-435,963	-200,000	0,018	-0,065
-434,949	-200,000	0,008	0,027
-433,934	292,582	-0,088	-0,117
-432,919	-200,000	-0,015	0,165
-431,905	800,000	-0,065	0,188
-430,890	339,444	-0,086	-0,122
-429,876	-172,833	0,043	0,001
-428,861	96,373	-0,112	0,093
-427,846	-70,272	-0,078	0,021
-426,832	-27,888	0,050	-0,021
-425,817	-126,245	-0,147	-0,016
-424,803	-160,203	0,110	0,004
-423,788	-200,000	-0,014	0,074
-422,773	302,857	-0,046	0,063
-421,759	77,773	0,061	-0,047
-420,744	528,981	-0,021	-0,036
-419,730	800,000	-0,057	-0,159
-418,715	243,127	-0,128	0,157
-417,701	575,720	-0,051	0,091
-416,686	-200,000	0,057	-0,191
-415,671	-184,106	0,047	-0,001
-414,657	94,143	0,022	0,018
-413,642	-200,000	-0,009	-0,083
-412,628	398,951	-0,034	0,051
-411,613	-200,000	-0,009	-0,038
-410,598	-200,000	0,006	-0,107
-409,584	-200,000	0,043	0,221
-408,569	-13,723	0,054	-0,025
-407,555	123,650	0,092	-0,084
-406,540	-70,398	0,063	0,017
-405,525	800,000	-0,021	-0,056
-404,511	-135,132	-0,086	-0,007
-403,496	-40,078	-0,099	-0,037
-402,482	800,000	-0,022	0,059
-401,467	360,786	-0,016	0,023
-400,452	-47,475	-0,029	-0,010
-399,438	-200,000	-0,009	-0,081
-398,423	292,072	-0,130	0,172
-397,409	-141,825	0,168	-0,012
-396,394	-200,000	-0,038	-0,127
-395,379	160,069	0,053	0,054
-394,365	-200,000	0,011	0,065
-393,350	143,157	0,093	0,090
-392,336	201,985	0,084	-0,094
-391,321	127,633	-0,103	-0,095
-390,306	800,000	0,037	0,086
-389,292	765,382	-0,037	-0,073
-388,277	800,000	-0,052	-0,115
-387,263	-200,000	0,012	0,081
-386,248	-97,570	-0,059	-0,011
-385,233	-200,000	-0,011	-0,041
-384,219	-180,957	-0,131	0,002
-383,204	800,000	-0,016	-0,037
-382,190	-3,193	0,044	-0,022
-381,175	-54,037	-0,088	0,029
-380,160	12,104	0,097	0,054
-379,146	-5,243	0,172	0,085
-378,131	167,221	0,057	0,059
-377,117	293,502	-0,032	0,042
-376,102	800,000	-0,044	-0,114
-375,088	115,879	0,114	-0,101
-374,073	418,952	-0,062	0,096
-373,058	72,441	-0,026	0,020
-372,044	800,000	0,030	0,079
-371,029	-200,000	-0,011	-0,063
-370,015	800,000	0,032	0,088
-369,000	169,299	-0,045	0,047
-367,985	-94,803	-0,170	0,033
-366,971	-54,153	-0,066	-0,022
-365,956	-200,000	-0,013	-0,041
-364,942	-200,000	-0,009	-0,080
-363,927	-79,315	0,119	-0,029
-362,912	-200,000	-0,024	0,137
-361,898	-101,649	-0,114	-0,020
-360,883	45,290	0,050	0,034
-359,869	800,000	-0,038	0,111
-358,854	202,280	0,047	-0,053
-357,839	-200,000	-0,007	0,050
-356,825	-138,298	-0,030	-0,002
-355,810	-38,304	0,017	-0,007
-354,796	-200,000	-0,054	0,196
-353,781	584,284	0,028	-0,050
-352,766	-200,000	0,031	-0,104
-351,752	-156,979	0,043	0,002
-350,737	156,950	-0,047	0,047
-349,723	800,000	-0,014	-0,033
-348,708	643,356	-0,048	0,089
-347,693	-200,000	-0,019	-0,120
-346,679	-200,000	-0,023	-0,110
-345,664	51,888	0,040	-0,027
-344,650	171,617	-0,102	-0,107
-343,635	-71,340	0,091	0,025
-342,620	243,863	0,053	-0,064
-341,606	-109,145	0,089	0,014
-340,591	-200,000	-0,010	-0,064
-339,577	-200,000	-0,023	-0,177
-338,562	-200,000	-0,028	-0,120
-337,548	-112,081	-0,092	0,013
-336,533	36,796	0,106	0,068
-335,518	104,715	0,069	0,059
-334,504	176,069	-0,013	-0,014
-333,489	245,596	0,062	0,075
-332,475	-108,088	0,036	0,006
-331,460	33,584	-0,107	-0,067
-330,445	-115,624	0,104	-0,014
-329,431	702,913	0,061	-0,118
-328,416	287,900	0,050	0,066
-327,402	-33,771	-0,096	-0,038
-326,387	227,335	0,042	-0,049
-325,372	-41,813	-0,080	0,030
-324,358	-106,643	0,077	-0,012
-323,343	-78,376	0,116	0,029
-322,329	-200,000	-0,009	0,160
-321,314	-52,757	0,068	0,023
-320,299	341,877	-0,068	0,097
-319,285	-34,294	0,096	-0,038
-318,270	42,921	-0,064	0,042
-317,256	-49,111	-0,044	-0,015
-316,241	92,359	0,099	-0,080
-315,226	204,677	0,062	0,070
-314,212	800,000	-0,011	-0,023
-313,197	-200,000	-0,003	0,011
-312,183	397,263	0,030	-0,046
-311,168	-200,000	0,006	-0,128
-310,153	800,000	0,026	-0,070
-309,139	48,839	0,096	-0,065
-308,124	-200,000	0,002	-0,091
-307,110	448,128	-0,041	0,065
-306,095	70,051	0,142	0,106
-305,080	519,190	0,043	-0,073
-304,066	38,725	0,094	0,061
-303,051	-78,021	0,107	0,026
-302,037	800,000	-0,050	-0,148
-301,022	-122,491	0,030	-0,004
-300,008	-200,000	0,017	0,112
-298,993	-200,000	0,016	0,061
-297,978	516,556	0,063	0,107
-296,964	-48,513	-0,083	-0,029
-295,949	800,000	-0,019	0,042
-294,935	800,000	0,025	0,066
-293,920	218,630	0,096	0,111
-292,905	-0,984	0,180	0,092
-291,891	800,000	-0,008	0,019
-290,876	162,854	0,090	0,092
-289,862	800,000	0,040	0,116
-288,847	-18,497	-0,129	-0,058
-287,832	-104,540	0,047	-0,008
-286,818	-31,304	-0,091	-0,037
-285,803	-138,069	0,034	-0,003
-284,789	800,000	0,045	-0,097
-283,774	-200,000	-0,007	0,273
-282,759	396,288	-0,084	0,127
-281,745	553,629	0,038	-0,066
-280,730	59,438	0,051	0,036
-279,716	-19,677	0,093	0,041
-278,701	37,946	-0,070	-0,045
-277,686	500,398	0,045	-0,075
-276,672	-153,132	-0,146	0,007
-275,657	-56,872	0,056	0,018
-274,643	-14,399	-0,075	0,035
-273,628	-200,000	0,001	0,030
-272,613	-200,000	-0,034	0,129
-271,599	-37,447	0,092	0,035
-270,584	-200,000	0,002	0,017
-269,570	-70,549	-0,074	-0,020
-268,555	85,838	-0,065	-0,052
-267,540	800,000	0,030	0,075
-266,526	800,000	-0,077	-0,177
-265,511	24,990	0,034	0,020
-264,497	581,167	-0,058	0,103
-263,482	572,071	0,034	-0,060
-262,467	332,897	0,062	-0,087
-261,453	71,926	-0,099	-0,075
-260,438	-27,053	0,056	0,023
-259,424	800,000	0,015	-0,033
-258,409	-200,000	0,001	-0,048
-257,395	-200,000	-0,009	-0,070
-256,380	21,813	0,091	0,053
-255,365	-104,870	0,054	-0,009
-254,351	-200,000	-0,003	0,025
-253,336	-159,093	-0,180	0,007
-252,322	-200,000	-0,007	0,051
-251,307	148,692	0,040	0,039
-250,292	-55,159	-0,109	-0,035
-249,278	167,855	0,090	0,093
-248,263	800,000	-0,015	0,036
-247,249	111,289	-0,102	0,089
-246,234	800,000	-0,025	0,068
-245,219	-40,680	-0,026	0,010
-244,205	-57,259	-0,083	-0,026
-243,190	43,821	-0,111	0,073
-242,176	-118,106	0,126	-0,016
-241,161	-200,000	-0,011	0,038
-240,146	-91,163	0,097	0,020
-239,132	8,331	0,081	0,044
-238,117	88,074	-0,073	-0,058
-237,103	800,000	-0,058	0,140
-236,088	378,599	0,046	-0,068
-235,073	-52,563	0,198	0,066
-234,059	117,879	-0,069	0,061
-233,044	-50,064	0,194	0,066
-232,030	-200,000	0,021	-0,137
-231,015	17,206	0,084	-0,048
-230,000	800,000	-0,047	-0,107
-228,986	-200,000	0,000	-0,154
-227,971	-103,228	-0,105	-0,018
-226,957	-122,457	0,047	-0,005
-225,942	-200,000	-0,004	-0,024
-224,927	-200,000	-0,012	-0,056
-223,913	-79,965	-0,118	-0,028
-222,898	-30,617	0,055	-0,022
-221,884	236,187	-0,036	-0,043
-220,869	-125,213	0,110	-0,012
-219,855	-200,000	-0,012	-0,088
-218,840	18,219	-0,049	0,028
-217,825	-200,000	-0,001	0,041
-216,811	767,804	-0,045	-0,089
-215,796	693,813	0,040	-0,075
-214,782	800,000	-0,008	0,015
-213,767	58,563	0,094	0,067
-212,752	-153,968	0,076	0,004
-211,738	-49,038	-0,075	-0,026
-210,723	-122,601	-0,123	0,014
-209,709	71,288	0,114	-0,085
-208,694	-200,000	0,016	-0,109
-207,679	-200,000	0,004	0,041
-206,665	566,287	-0,044	0,078
-205,650	9,472	0,061	0,033
-204,636	718,137	-0,023	0,044
-203,621	-12,933	-0,042	-0,019
-202,606	18,557	-0,100	0,058
-201,592	-200,000	-0,009	0,127
-200,577	298,448	-0,118	-0,157
-199,563	530,592	0,070	-0,120
-198,548	-200,000	0,015	0,075
-197,533	-67,333	-0,072	0,020
-196,519	381,064	0,041	0,061
-195,504	5,163	0,117	-0,062
-194,490	593,760	0,029	-0,052
-193,475	-84,746	0,213	0,048
-192,460	-200,000	-0,012	-0,066
-191,446	-200,000	0,028	-0,092
-190,431	281,218	0,066	0,085
-189,417	2,418	-0,123	-0,064
-188,402	118,195	-0,149	0,132
-187,387	122,740	0,066	-0,059
-186,373	590,706	0,064	0,115
-185,358	-68,946	-0,040	0,011
-184,344	-200,000	-0,006	0,042
-183,329	-35,275	-0,093	0,036
-182,315	26,416	0,049	0,030
-181,300	-200,000	0,016	0,156
-180,285	-63,296	-0,176	-0,052
-179,271	81,491	-0,100	-0,078
-178,256	-200,000	-0,020	-0,092
-177,242	341,535	-0,047	-0,066
-176,227	79,472	0,171	0,132
-175,212	-200,000	-0,020	-0,089
-174,198	800,000	-0,034	-0,078
-173,183	-86,771	-0,060	0,013
-172,169	800,000	0,060	-0,143
-171,154	-200,000	-0,001	-0,019
-170,139	-130,520	0,092	0,009
-169,125	443,673	-0,060	0,094
-168,110	-200,000	0,015	0,052
-167,096	171,119	0,048	0,049
-166,081	703,546	-0,032	-0,061
-165,066	148,909	-0,065	-0,063
-164,052	-88,654	-0,104	0,022
-163,037	-0,366	0,056	0,028
-162,023	-200,000	-0,024	0,077
-161,008	-200,000	-0,007	0,055
-159,993	-74,857	-0,085	0,022
-158,979	-200,000	0,008	-0,069
-157,964	-200,000	0,027	-0,109
-156,950	-200,000	-0,000	0,135
-155,935	-139,406	0,161	-0,012
-154,920	15,009	0,071	-0,040
-153,906	-165,898	0,040	-0,001
-152,891	-132,213	-0,061	0,006
-151,877	-200,000	-0,005	-0,100
-150,862	800,000	-0,078	-0,192
-149,847	281,038	0,084	0,108
-148,833	358,616	-0,050	-0,072
-147,818	-118,831	0,108	0,013
-146,804	124,891	-0,028	0,025
-145,789	-32,600	-0,142	0,056
-144,775	-200,000	0,034	0,120
-143,760	-162,009	-0,094	0,003
-142,745	-187,693	-0,157	0,001
-141,731	37,397	-0,090	0,057
-140,716	45,724	-0,192	-0,127
-139,702	-200,000	-0,023	-0,091
-138,687	-105,242	-0,044	-0,007
-137,672	-89,835	-0,101	0,021
-136,658	800,000	0,040	-0,091
-135,643	-140,980	-0,025	0,002
-134,629	-200,000	-0,003	-0,046
-133,614	-161,637	0,098	0,004
-132,599	-12,856	0,047	-0,022
-131,585	224,464	0,058	-0,067
-130,570	800,000	0,034	-0,091
-129,556	-58,300	-0,072	-0,022
-128,541	-173,039	-0,126	0,003
-127,526	544,455	0,040	-0,068
-126,512	-200,000	-0,001	0,047
-125,497	-119,000	-0,075	0,009
-124,483	146,042	-0,070	0,067
-123,468	106,104	0,053	0,045
-122,453	800,000	-0,021	-0,059
-121,439	800,000	-0,028	-0,069
-120,424	-200,000	-0,004	0,080
