DTS Sentinel unit serial number:	SN410029Multiplexer serial number:	ORYXHardware model number:	OX2-SRSoftware version number:	ORYX F/W v4,00 Oryx Data Collector v3.7.2.0data status	okinstallation	B5 Nyhavnadifferential loss correction	single-endedforward channel	channel 2reverse channel	N/Adate	2023/12/12time	22:52:13forward acquisition time	300,00reverse acquisition time	0,00gamma	499,1914k internal	0,3158k external	0,3158temperature offset calibration	1,0000default loss term (dB/km)	0,3820temperature slope calibration	1,0000multiplexer offset coefficient	1,0000multiplexer slope coefficient	1,0000fibre end	0,00T internal ref (°C)	14,56T ext. ref 1 (°C)	-1,98T ext. ref 2 (°C)	-2,28length (m)	temperature (°C)	Stokes	anti-Stokes-744,400	-200,000	0,019	0,149
-743,385	-72,898	-0,307	0,083
-742,371	260,107	0,087	0,111
-741,356	-29,799	-0,282	-0,118
-740,342	115,985	0,059	-0,054
-739,327	-177,362	-0,348	0,006
-738,312	800,000	0,070	0,184
-737,298	-79,128	-0,399	-0,099
-736,283	-37,679	0,095	-0,037
-735,269	-145,699	-0,480	-0,031
-734,254	271,146	0,112	0,145
-733,239	-42,129	-0,518	-0,194
-732,225	-45,386	0,117	0,043
-731,210	529,646	-0,060	-0,104
-730,196	340,392	0,023	0,033
-729,181	461,416	0,062	-0,103
-728,167	58,926	-0,039	0,028
-727,152	-116,241	-0,077	0,010
-726,137	280,661	-0,061	0,080
-725,123	16,062	0,089	-0,052
-724,108	-34,957	-0,180	0,072
-723,094	100,116	-0,171	-0,146
-722,079	277,987	-0,096	-0,127
-721,064	-59,451	-0,090	0,028
-720,050	-146,845	0,048	-0,003
-719,035	-200,000	-0,010	-0,097
-718,021	-54,881	-0,104	-0,034
-717,006	142,083	-0,063	0,062
-715,991	-200,000	0,013	0,065
-714,977	-80,035	0,034	0,008
-713,962	178,936	-0,048	0,052
-712,948	-200,000	-0,011	-0,069
-711,933	375,494	-0,045	-0,068
-710,918	62,434	0,095	0,070
-709,904	-200,000	-0,015	0,057
-708,889	-116,817	-0,172	-0,023
-707,875	-200,000	-0,029	-0,157
-706,860	686,789	-0,028	-0,054
-705,845	52,007	0,051	-0,036
-704,831	-42,475	-0,062	0,023
-703,816	388,218	-0,044	-0,068
-702,802	172,017	-0,088	-0,093
-701,787	-200,000	0,026	-0,135
-700,772	-139,365	-0,167	-0,013
-699,758	-200,000	-0,018	-0,062
-698,743	-90,912	0,030	0,006
-697,729	-51,717	0,053	-0,018
-696,714	-97,932	-0,101	0,019
-695,699	354,719	-0,126	-0,185
-694,685	-200,000	-0,022	0,085
-693,670	-200,000	-0,007	0,049
-692,656	174,496	0,083	0,088
-691,641	123,238	-0,035	0,032
-690,627	7,763	0,087	-0,048
-689,612	38,486	0,043	-0,028
-688,597	633,986	-0,051	-0,095
-687,583	-200,000	0,002	-0,098
-686,568	-200,000	0,006	-0,037
-685,554	-174,454	-0,063	-0,001
-684,539	479,671	0,027	-0,045
-683,524	-92,081	0,235	0,048
-682,510	3,241	-0,087	0,046
-681,495	252,560	0,128	0,160
-680,481	-59,733	-0,058	0,018
-679,466	-13,952	-0,105	0,050
-678,451	199,272	-0,103	-0,116
-677,437	532,139	-0,051	-0,089
-676,422	72,637	0,055	0,042
-675,408	800,000	-0,004	-0,011
-674,393	181,481	-0,087	0,094
-673,378	-200,000	0,021	-0,130
-672,364	-200,000	-0,007	-0,129
-671,349	-116,220	-0,155	0,021
-670,335	-107,982	0,106	-0,017
-669,320	255,023	-0,088	0,110
-668,305	101,632	0,023	0,020
-667,291	-36,468	0,052	0,020
-666,276	67,957	0,061	0,046
-665,262	20,686	-0,035	0,021
-664,247	194,051	0,067	0,075
-663,232	72,660	-0,111	-0,085
-662,218	-5,387	-0,015	0,008
-661,203	382,725	-0,065	0,098
-660,189	123,734	0,038	-0,035
-659,174	508,329	-0,018	-0,032
-658,159	409,022	0,031	-0,048
-657,145	-82,376	-0,047	-0,011
-656,130	-90,841	0,033	0,007
-655,116	-83,378	0,017	0,004
-654,101	283,460	0,059	0,078
-653,086	-103,907	0,036	-0,006
-652,072	800,000	-0,023	0,056
-651,057	-125,491	-0,119	-0,013
-650,043	800,000	-0,041	-0,114
-649,028	-95,703	0,043	-0,008
-648,014	-24,458	-0,087	0,038
-646,999	-200,000	0,010	0,092
-645,984	31,210	0,061	-0,039
-644,970	-2,024	0,114	-0,059
-643,955	-200,000	-0,014	-0,125
-642,941	-200,000	0,019	-0,168
-641,926	800,000	-0,046	-0,107
-640,911	800,000	-0,013	-0,034
-639,897	-200,000	0,025	0,115
-638,882	333,279	0,082	0,117
-637,868	305,215	0,007	0,010
-636,853	34,749	-0,039	-0,025
-635,838	-4,930	-0,092	-0,046
-634,824	-3,441	0,106	0,054
-633,809	-106,165	0,024	-0,004
-632,795	658,846	0,005	-0,009
-631,780	-13,662	-0,093	-0,044
-630,765	334,305	-0,100	-0,143
-629,751	-200,000	0,004	-0,120
-628,736	391,073	-0,095	-0,146
-627,722	306,554	-0,024	0,033
-626,707	240,366	-0,080	0,098
-625,692	-200,000	-0,011	0,080
-624,678	-200,000	-0,020	0,152
-623,663	114,018	-0,087	0,077
-622,649	-200,000	-0,020	-0,064
-621,634	800,000	0,008	-0,026
-620,619	425,780	0,070	-0,110
-619,605	326,878	-0,051	-0,072
-618,590	-104,626	0,030	-0,005
-617,576	-68,135	0,143	-0,041
-616,561	50,390	-0,086	-0,059
-615,546	-200,000	0,002	-0,178
-614,532	657,555	-0,046	-0,087
-613,517	-53,288	-0,086	-0,029
-612,503	-172,236	0,141	0,003
-611,488	-119,821	-0,149	-0,019
-610,474	-200,000	0,005	-0,053
-609,459	403,900	-0,014	0,021
-608,444	245,123	-0,006	-0,008
-607,430	5,911	-0,094	0,051
-606,415	46,978	-0,007	0,005
-605,401	-125,862	-0,040	0,004
-604,386	800,000	-0,018	-0,053
-603,371	-175,929	-0,117	-0,002
-602,357	-92,166	0,066	0,013
-601,342	800,000	0,050	-0,130
-600,328	198,326	-0,021	-0,024
-599,313	83,921	-0,073	-0,059
-598,298	460,907	0,065	-0,107
-597,284	-200,000	-0,022	-0,086
-596,269	-200,000	-0,002	0,031
-595,255	-200,000	0,038	0,126
-594,240	-157,325	-0,132	-0,006
-593,225	139,411	0,026	-0,025
-592,211	-200,000	-0,010	-0,062
-591,196	-66,368	0,145	-0,042
-590,182	150,011	0,018	0,018
-589,167	64,128	-0,036	0,026
-588,152	30,918	-0,039	0,024
-587,138	66,331	0,016	0,012
-586,123	285,305	-0,059	0,078
-585,109	-200,000	-0,006	-0,131
-584,094	-25,484	-0,135	-0,058
-583,079	15,390	0,222	0,128
-582,065	412,062	0,031	-0,049
-581,050	-200,000	-0,028	-0,110
-580,036	-67,744	-0,121	0,034
-579,021	-115,334	-0,171	-0,023
-578,006	-102,879	-0,132	0,023
-576,992	538,541	0,028	0,050
-575,977	-69,407	0,014	0,004
-574,963	-200,000	0,009	0,034
-573,948	-121,651	0,074	0,009
-572,934	-53,233	0,098	-0,033
-571,919	75,257	-0,107	0,083
-570,904	1,988	-0,036	-0,019
-569,890	649,478	-0,033	-0,062
-568,875	800,000	0,020	0,041
-567,861	256,728	-0,018	-0,022
-566,846	-49,277	-0,038	0,013
-565,831	188,042	0,026	0,029
-564,817	-200,000	0,001	-0,130
-563,802	604,657	0,025	-0,046
-562,788	800,000	-0,030	-0,088
-561,773	710,072	-0,004	0,009
-560,758	276,278	-0,042	-0,054
-559,744	-79,552	-0,018	0,005
-558,729	-131,999	0,070	0,007
-557,715	188,416	-0,034	-0,037
-556,700	50,452	-0,119	-0,082
-555,685	-26,018	0,017	0,007
-554,671	-70,800	0,115	0,032
-553,656	-80,830	0,111	0,027
-552,642	174,917	0,068	0,072
-551,627	555,714	-0,042	0,074
-550,612	331,739	-0,045	-0,064
-549,598	442,835	-0,084	0,135
-548,583	-31,080	0,131	-0,054
-547,569	800,000	-0,014	-0,039
-546,554	258,083	-0,039	0,050
-545,539	-200,000	-0,019	0,105
-544,525	-200,000	0,002	0,068
-543,510	-53,187	-0,151	-0,050
-542,496	800,000	-0,053	0,122
-541,481	246,028	0,081	-0,100
-540,466	-150,597	0,056	0,003
-539,452	-200,000	-0,037	0,172
-538,437	63,076	-0,035	0,026
-537,423	150,769	-0,040	-0,040
-536,408	344,177	-0,062	0,090
-535,393	392,376	0,023	-0,035
-534,379	-200,000	0,006	0,041
-533,364	-200,000	0,017	0,072
-532,350	-106,492	0,027	-0,004
-531,335	800,000	0,031	0,095
-530,321	94,418	-0,044	-0,036
-529,306	8,244	-0,069	-0,038
-528,291	-72,222	0,024	-0,006
-527,277	-200,000	-0,004	0,053
-526,262	356,140	0,014	-0,020
-525,248	21,439	-0,036	-0,021
-524,233	71,902	0,167	0,127
-523,218	-200,000	-0,015	0,088
-522,204	-62,808	-0,025	0,008
-521,189	285,641	-0,027	0,036
-520,175	-147,367	-0,141	-0,009
-519,160	-73,863	0,012	0,003
-518,145	-153,793	0,071	0,003
-517,131	67,967	0,116	-0,087
-516,116	-94,839	0,107	-0,021
-515,102	-200,000	0,003	-0,059
-514,087	800,000	0,042	-0,130
-513,072	182,889	0,069	0,075
-512,058	-94,870	0,033	0,007
-511,043	12,121	0,022	-0,012
-510,029	-143,830	-0,115	0,008
-509,014	133,944	-0,110	-0,105
-507,999	89,459	0,095	-0,077
-506,985	579,274	-0,055	-0,099
-505,970	800,000	-0,054	-0,121
-504,956	800,000	-0,031	0,085
-503,941	-200,000	-0,089	-0,000
-502,926	-200,000	0,002	0,084
-501,912	-200,000	-0,069	0,245
-500,897	800,000	0,096	0,200
-499,883	449,252	0,054	-0,087
-498,868	262,700	-0,086	-0,110
-497,853	484,082	-0,033	-0,056
-496,839	-200,000	-0,009	-0,058
-495,824	680,584	-0,013	0,026
-494,810	-132,812	-0,071	-0,006
-493,795	69,254	0,082	0,061
-492,781	800,000	0,027	0,061
-491,766	-200,000	0,008	-0,140
-490,751	-29,730	0,157	0,065
-489,737	115,372	0,053	0,047
-488,722	56,883	-0,037	-0,026
-487,708	168,086	-0,068	-0,071
-486,693	-132,638	0,040	0,004
-485,678	82,578	0,132	-0,105
-484,664	-65,912	0,031	0,009
-483,649	167,271	0,044	0,045
-482,635	-23,062	0,068	0,030
-481,620	-200,000	-0,001	-0,037
-480,605	-149,300	0,064	-0,004
-479,591	-75,143	0,109	0,028
-478,576	-200,000	-0,002	0,010
-477,562	-31,324	0,069	-0,028
-476,547	-200,000	0,002	0,051
-475,532	90,219	-0,077	0,063
-474,518	-200,000	-0,010	-0,042
-473,503	-3,957	-0,141	0,071
-472,489	32,504	0,141	0,089
-471,474	607,311	0,034	-0,062
-470,459	800,000	0,101	-0,225
-469,445	-200,000	0,022	-0,071
-468,430	-92,319	0,178	-0,036
-467,416	800,000	0,022	0,064
-466,401	114,678	0,156	0,139
-465,386	650,590	-0,055	0,103
-464,372	800,000	0,059	-0,132
-463,357	-27,460	-0,083	0,035
-462,343	-147,606	-0,084	-0,005
-461,328	-200,000	0,006	0,062
-460,313	74,347	-0,083	-0,063
-459,299	-200,000	0,040	0,130
-458,284	72,612	0,087	0,066
-457,270	-200,000	-0,003	-0,052
-456,255	540,031	-0,042	-0,073
-455,241	800,000	0,010	0,026
-454,226	-170,926	-0,049	-0,001
-453,211	-200,000	-0,028	-0,096
-452,197	132,934	0,020	0,019
-451,182	800,000	0,020	0,057
-450,168	19,114	-0,047	-0,028
-449,153	-3,545	0,034	-0,017
-448,138	63,187	-0,144	0,105
-447,124	800,000	-0,074	-0,160
-446,109	-200,000	0,008	0,035
-445,095	96,530	0,064	0,054
-444,080	-13,251	-0,014	0,006
-443,065	-200,000	0,025	-0,085
-442,051	104,690	0,099	-0,085
-441,036	800,000	0,072	0,154
-440,022	-55,152	-0,063	0,020
-439,007	-200,000	-0,020	0,067
-437,992	-42,372	-0,071	0,026
-436,978	588,896	0,001	-0,002
-435,963	302,734	-0,019	0,025
-434,949	49,128	-0,116	0,079
-433,934	800,000	-0,004	0,011
-432,919	-200,000	-0,036	-0,199
-431,905	14,655	-0,100	0,057
-430,890	-152,963	0,079	-0,004
-429,876	-167,964	0,108	-0,003
-428,861	800,000	0,016	-0,040
-427,846	800,000	-0,044	0,097
-426,832	-69,023	0,047	-0,013
-425,817	-24,679	-0,042	-0,018
-424,803	112,603	0,093	-0,082
-423,788	-117,847	0,061	0,008
-422,773	511,826	-0,056	0,095
-421,759	75,671	-0,058	0,045
-420,744	527,616	0,031	0,053
-419,730	121,581	0,048	-0,043
-418,715	-200,000	-0,010	-0,109
-417,701	800,000	0,026	0,055
-416,686	566,148	-0,033	0,059
-415,671	-200,000	0,005	0,107
-414,657	800,000	0,032	0,100
-413,642	-68,469	0,070	-0,020
-412,628	15,462	0,200	0,114
-411,613	-150,192	-0,107	-0,006
-410,598	-200,000	0,007	-0,064
-409,584	62,921	0,049	-0,036
-408,569	215,927	-0,074	0,085
-407,555	34,921	0,049	0,031
-406,540	-136,532	0,075	-0,006
-405,525	800,000	-0,015	-0,033
-404,511	-200,000	-0,024	-0,096
-403,496	628,545	-0,072	-0,134
-402,482	800,000	-0,046	0,099
-401,467	-9,219	0,076	0,037
-400,452	-200,000	0,003	0,061
-399,438	117,819	-0,088	0,079
-398,423	-112,310	0,165	0,024
-397,409	-200,000	-0,000	0,041
-396,394	800,000	0,017	-0,051
-395,379	800,000	0,040	0,089
-394,365	38,303	0,090	0,058
-393,350	35,139	-0,023	-0,015
-392,336	800,000	0,023	-0,051
-391,321	-115,237	0,023	0,003
-390,306	800,000	0,019	-0,057
-389,292	-63,514	0,066	0,020
-388,277	83,250	0,153	0,121
-387,263	379,014	0,021	0,031
-386,248	-197,667	-0,069	-0,000
-385,233	-200,000	-0,007	0,049
-384,219	390,970	-0,058	0,088
-383,204	-200,000	0,022	0,105
-382,190	-200,000	0,032	-0,117
-381,175	115,471	-0,041	-0,036
-380,160	-44,426	-0,074	-0,027
-379,146	-85,232	0,107	0,024
-378,131	-131,591	-0,118	-0,011
-377,117	-200,000	0,017	0,055
-376,102	-200,000	0,001	-0,055
-375,088	800,000	-0,022	-0,049
-374,073	-182,347	-0,051	0,001
-373,058	-181,418	0,046	0,001
-372,044	122,726	0,081	0,073
-371,029	465,448	0,062	0,102
-370,015	226,672	-0,085	0,100
-369,000	-200,000	0,023	-0,099
-367,985	551,701	-0,025	-0,044
-366,971	-200,000	-0,012	-0,052
-365,956	33,316	0,082	-0,051
-364,942	154,692	0,061	-0,061
-363,927	-73,818	-0,019	0,005
-362,912	-44,750	-0,058	0,021
-361,898	134,277	0,024	0,023
-360,883	800,000	-0,031	-0,073
-359,869	436,077	-0,056	0,089
-358,854	-200,000	0,002	0,020
-357,839	38,548	-0,075	0,049
-356,825	-142,327	0,060	0,004
-355,810	-200,000	-0,026	0,100
-354,796	98,190	0,088	-0,074
-353,781	152,535	0,035	-0,035
-352,766	-200,000	0,004	-0,046
-351,752	-200,000	0,012	0,047
-350,737	45,004	-0,078	0,052
-349,723	-200,000	-0,029	0,157
-348,708	209,049	0,119	0,135
-347,693	800,000	0,031	0,066
-346,679	-21,500	-0,036	0,016
-345,664	-30,157	-0,143	-0,059
-344,650	-200,000	0,043	-0,205
-343,635	115,107	0,023	0,020
-342,620	-101,009	0,173	0,031
-341,606	800,000	0,025	0,060
-340,591	243,752	-0,050	0,060
-339,577	-62,492	-0,045	-0,014
-338,562	54,320	-0,059	-0,041
-337,548	-200,000	0,001	-0,009
-336,533	-200,000	0,022	-0,090
-335,518	-76,638	-0,087	-0,022
-334,504	-65,184	0,031	-0,009
-333,489	513,957	-0,038	-0,064
-332,475	90,157	-0,104	-0,084
-331,460	-93,199	0,160	0,032
-330,445	-200,000	-0,001	-0,131
-329,431	120,440	-0,016	0,014
-328,416	-114,308	0,154	0,021
-327,402	-200,000	-0,001	-0,068
-326,387	-200,000	-0,008	0,043
-325,372	216,635	-0,122	-0,140
-324,358	800,000	-0,043	-0,097
-323,343	229,484	-0,105	0,125
-322,329	800,000	0,012	0,026
-321,314	-200,000	-0,008	0,049
-320,299	42,337	0,130	0,086
-319,285	307,095	0,026	-0,035
-318,270	-200,000	0,010	-0,073
-317,256	-200,000	-0,032	-0,121
-316,241	565,300	0,013	-0,022
-315,226	-43,936	-0,054	-0,019
-314,212	55,923	-0,055	-0,038
-313,197	800,000	-0,032	-0,072
-312,183	21,221	0,113	0,067
-311,168	-200,000	-0,022	0,274
-310,153	800,000	-0,044	0,105
-309,139	-79,756	-0,088	0,021
-308,124	147,998	-0,138	0,135
-307,110	235,741	0,072	-0,087
-306,095	417,777	-0,018	-0,028
-305,080	160,791	0,102	0,104
-304,066	551,818	-0,056	-0,097
-303,051	221,606	-0,023	0,027
-302,037	567,539	0,049	-0,086
-301,022	-29,164	-0,160	0,066
-300,008	-200,000	-0,020	0,082
-298,993	107,216	-0,164	0,141
-297,978	-155,472	-0,127	-0,006
-296,964	162,271	-0,053	-0,054
-295,949	12,872	-0,060	0,033
-294,935	500,898	-0,056	-0,094
-293,920	-51,512	-0,144	0,048
-292,905	-37,670	0,088	-0,034
-291,891	-64,082	-0,075	0,022
-290,876	77,872	0,052	-0,040
-289,862	-200,000	0,017	-0,256
-288,847	-53,214	0,013	-0,004
-287,832	44,465	0,080	0,053
-286,818	-67,302	-0,068	0,019
-285,803	113,566	-0,066	0,058
-284,789	683,260	0,026	0,050
-283,774	-200,000	0,002	-0,006
-282,759	-200,000	-0,013	0,066
-281,745	-88,629	0,003	0,001
-280,730	-200,000	-0,004	0,065
-279,716	800,000	-0,004	-0,011
-278,701	-200,000	0,004	0,035
-277,686	-190,849	-0,088	-0,001
-276,672	-200,000	0,008	0,123
-275,657	39,883	0,064	0,041
-274,643	-200,000	0,009	0,174
-273,628	237,082	-0,063	-0,076
-272,613	-5,015	0,090	0,045
-271,599	-86,593	0,104	-0,023
-270,584	212,454	-0,032	0,037
-269,570	6,700	-0,016	0,009
-268,555	135,836	-0,113	-0,106
-267,540	800,000	-0,017	-0,044
-266,526	-46,284	-0,074	0,026
-265,511	-21,789	0,038	0,017
-264,497	326,148	0,096	-0,134
-263,482	114,670	-0,154	0,136
-262,467	3,386	0,073	-0,038
-261,453	272,185	-0,021	-0,027
-260,438	-9,805	0,064	-0,031
-259,424	14,493	-0,111	-0,063
-258,409	-51,404	-0,051	0,017
-257,395	-121,565	0,060	-0,007
-256,380	5,358	0,217	0,116
-255,365	41,772	0,095	-0,062
-254,351	81,970	-0,084	-0,065
-253,336	-200,000	-0,038	-0,184
-252,322	-78,226	-0,108	-0,027
-251,307	30,821	-0,114	0,070
-250,292	-125,931	0,117	0,013
-249,278	2,071	-0,052	0,027
-248,263	-23,596	0,061	0,026
-247,249	-200,000	-0,023	-0,093
-246,234	287,825	0,058	-0,076
-245,219	-200,000	-0,060	0,200
-244,205	629,433	-0,063	-0,116
-243,190	-30,081	-0,076	-0,031
-242,176	60,478	0,109	0,078
-241,161	800,000	0,056	0,149
-240,146	-200,000	-0,030	0,146
-239,132	-200,000	-0,005	-0,142
-238,117	-68,178	0,046	0,013
-237,103	224,108	0,056	-0,065
-236,088	292,416	-0,059	0,078
-235,073	152,723	0,126	0,125
-234,059	-200,000	0,025	0,146
-233,044	-112,530	-0,023	0,003
-232,030	192,585	0,012	-0,013
-231,015	-200,000	-0,003	-0,031
-230,000	800,000	-0,042	-0,111
-228,986	-200,000	-0,004	-0,040
-227,971	13,623	0,075	-0,042
-226,957	99,385	0,047	-0,039
-225,942	799,862	0,043	-0,087
-224,927	160,533	0,075	0,075
-223,913	474,685	0,074	-0,121
-222,898	-200,000	0,058	-0,207
-221,884	41,383	-0,068	-0,044
-220,869	-131,237	-0,019	-0,002
-219,855	-20,442	-0,029	-0,013
-218,840	-91,602	-0,166	-0,034
-217,825	28,746	0,102	-0,062
-216,811	-149,644	-0,137	0,008
-215,796	218,082	0,075	-0,086
-214,782	350,272	0,008	-0,011
-213,767	38,465	-0,042	0,027
-212,752	201,256	0,087	0,097
-211,738	-117,427	0,095	-0,012
-210,723	-200,000	0,001	-0,042
-209,709	108,664	0,050	-0,043
-208,694	156,982	0,065	-0,065
-207,679	320,600	0,030	-0,041
-206,665	-200,000	-0,006	0,171
-205,650	86,633	0,074	-0,059
-204,636	-4,734	0,026	-0,013
-203,621	80,498	-0,080	0,062
-202,606	271,683	-0,096	-0,122
-201,592	800,000	0,019	0,049
-200,577	349,075	-0,037	0,053
-199,563	16,666	-0,058	-0,033
-198,548	-200,000	0,029	0,099
-197,533	40,091	0,083	0,054
-196,519	800,000	0,043	-0,101
-195,504	800,000	0,034	-0,073
-194,490	661,614	0,042	0,079
-193,475	-200,000	-0,002	0,043
-192,460	433,370	0,033	0,053
-191,446	-43,871	0,057	-0,021
-190,431	-63,761	0,072	0,021
-189,417	278,980	-0,058	0,075
-188,402	-84,043	0,061	0,014
-187,387	19,066	-0,020	0,011
-186,373	150,886	0,022	-0,022
-185,358	-7,763	-0,060	0,029
-184,344	467,654	-0,051	-0,082
-183,329	-200,000	0,022	0,161
-182,315	345,662	-0,040	0,057
-181,300	-200,000	0,007	-0,031
-180,285	-200,000	-0,029	0,192
-179,271	-200,000	-0,011	-0,053
-178,256	54,256	0,066	0,046
-177,242	-200,000	0,005	0,032
-176,227	-200,000	0,013	0,098
-175,212	130,395	0,053	-0,049
-174,198	-156,496	0,191	-0,008
-173,183	134,338	0,032	0,030
-172,169	391,980	0,029	-0,044
-171,154	300,757	-0,051	-0,068
-170,139	325,448	-0,016	0,022
-169,125	-200,000	0,005	-0,020
-168,110	80,515	0,092	0,072
-167,096	422,460	-0,065	-0,101
-166,081	-200,000	0,001	-0,171
-165,066	83,336	-0,101	-0,079
-164,052	120,334	-0,034	-0,030
-163,037	131,249	-0,089	0,083
-162,023	-200,000	-0,019	-0,062
-161,008	435,500	-0,023	0,035
-159,993	12,386	-0,093	0,052
-158,979	559,480	-0,048	-0,084
-157,964	649,700	-0,024	-0,045
-156,950	-105,365	-0,064	-0,010
-155,935	94,305	-0,071	0,058
-154,920	185,928	0,096	-0,103
-153,906	-57,661	0,025	-0,008
-152,891	66,988	0,103	0,075
-151,877	151,425	-0,139	-0,137
-150,862	-46,837	-0,109	-0,038
-149,847	-40,637	-0,055	-0,020
-148,833	-200,000	-0,015	0,084
-147,818	-94,321	0,085	-0,017
-146,804	55,385	-0,017	-0,012
-145,789	800,000	0,071	0,154
-144,775	116,136	-0,031	-0,027
-143,760	121,303	0,025	0,022
-142,745	575,625	0,031	-0,055
-141,731	-53,822	-0,048	0,016
-140,716	113,075	-0,074	0,065
-139,702	499,193	0,048	0,079
-138,687	39,213	0,066	-0,042
-137,672	69,279	-0,128	0,095
-136,658	272,537	0,084	-0,107
-135,643	459,422	0,042	-0,067
-134,629	58,339	-0,014	-0,010
-133,614	-20,155	0,005	-0,002
-132,599	-200,000	-0,055	0,192
-131,585	-174,386	0,032	0,001
-130,570	39,951	-0,115	0,074
-129,556	-200,000	-0,008	0,149
-128,541	-200,000	0,037	0,168
-127,526	-200,000	-0,001	0,024
-126,512	72,366	-0,190	0,142
-125,497	-200,000	-0,015	0,140
-124,483	-77,828	0,098	0,024
-123,468	412,704	-0,034	0,052
-122,453	-43,518	0,084	-0,030
-121,439	-21,353	-0,017	-0,008
-120,424	800,000	-0,051	-0,131
-119,410	212,213	-0,043	0,049
-118,395	-40,181	0,132	-0,049
