DTS Sentinel unit serial number:	SN410029Multiplexer serial number:	ORYXHardware model number:	OX2-SRSoftware version number:	ORYX F/W v4,00 Oryx Data Collector v3.7.2.0data status	okinstallation	B5 Nyhavnadifferential loss correction	single-endedforward channel	channel 2reverse channel	N/Adate	2023/12/11time	20:32:13forward acquisition time	300,00reverse acquisition time	0,00gamma	499,1914k internal	0,3157k external	0,3157temperature offset calibration	1,0000default loss term (dB/km)	0,3820temperature slope calibration	1,0000multiplexer offset coefficient	1,0000multiplexer slope coefficient	1,0000fibre end	0,00T internal ref (°C)	16,00T ext. ref 1 (°C)	0,17T ext. ref 2 (°C)	-0,08length (m)	temperature (°C)	Stokes	anti-Stokes-744,400	208,647	-0,032	-0,037
-743,385	-148,797	-0,218	-0,013
-742,371	-118,974	0,029	-0,004
-741,356	14,166	-0,292	0,167
-740,342	-88,411	0,111	0,024
-739,327	-119,593	-0,192	0,024
-738,312	-101,261	0,105	-0,019
-737,298	-85,125	-0,166	0,038
-736,283	-200,000	0,004	-0,066
-735,269	-11,845	-0,228	-0,110
-734,254	1,561	0,243	0,128
-733,239	-30,392	-0,479	-0,199
-732,225	-175,032	0,128	-0,003
-731,210	-109,607	0,065	-0,010
-730,196	61,108	-0,064	-0,046
-729,181	800,000	-0,008	-0,022
-728,167	-157,393	-0,080	0,003
-727,152	163,569	-0,102	-0,105
-726,137	-41,427	0,123	-0,047
-725,123	-156,495	-0,051	0,002
-724,108	-128,711	-0,161	-0,017
-723,094	-200,000	-0,013	-0,132
-722,079	-97,475	-0,133	-0,025
-721,064	413,385	-0,020	0,032
-720,050	800,000	-0,047	0,129
-719,035	426,180	0,029	-0,046
-718,021	370,314	-0,073	-0,110
-717,006	800,000	-0,037	-0,118
-715,991	800,000	-0,052	-0,141
-714,977	-64,143	0,046	-0,014
-713,962	800,000	-0,048	0,106
-712,948	-157,654	0,108	0,005
-711,933	-200,000	0,022	0,108
-710,918	464,362	-0,060	-0,099
-709,904	429,040	0,041	0,066
-708,889	-154,592	-0,065	-0,003
-707,875	341,562	-0,077	-0,111
-706,860	0,745	0,109	0,057
-705,845	-65,488	-0,116	0,034
-704,831	-200,000	0,016	0,057
-703,816	318,354	-0,030	-0,041
-702,802	120,617	-0,147	-0,134
-701,787	24,714	-0,052	-0,031
-700,772	240,890	-0,081	-0,100
-699,758	-79,690	0,059	-0,015
-698,743	-200,000	0,004	-0,059
-697,729	-200,000	0,026	0,171
-696,714	12,580	0,061	0,035
-695,699	-200,000	0,020	0,122
-694,685	-200,000	-0,136	0,000
-693,670	712,023	-0,016	0,031
-692,656	-60,074	0,073	-0,023
-691,641	-86,930	0,096	-0,021
-690,627	800,000	-0,008	-0,025
-689,612	106,586	0,030	0,026
-688,597	-167,927	-0,057	-0,002
-687,583	389,062	-0,057	-0,087
-686,568	-93,006	-0,034	0,007
-685,554	-200,000	-0,033	-0,152
-684,539	-200,000	0,017	0,147
-683,524	222,130	-0,076	0,090
-682,510	-200,000	-0,039	-0,132
-681,495	-200,000	0,012	0,094
-680,481	-200,000	-0,028	-0,104
-679,466	280,097	-0,108	0,143
-678,451	-56,469	-0,161	0,052
-677,437	-200,000	-0,015	-0,078
-676,422	-0,527	0,051	-0,027
-675,408	-168,567	0,024	0,001
-674,393	189,872	0,092	-0,102
-673,378	-82,042	0,035	-0,008
-672,364	-127,535	-0,115	-0,012
-671,349	-45,323	-0,087	-0,032
-670,335	23,588	-0,040	0,024
-669,320	-200,000	0,008	0,116
-668,305	-35,017	-0,116	0,046
-667,291	35,392	-0,076	-0,049
-666,276	88,049	0,021	0,017
-665,262	551,487	-0,056	-0,099
-664,247	5,528	-0,060	0,032
-663,232	-88,833	0,033	0,007
-662,218	720,547	-0,051	0,100
-661,203	800,000	-0,029	0,094
-660,189	-185,073	-0,098	0,001
-659,174	-61,470	-0,028	-0,009
-658,159	-200,000	-0,006	-0,099
-657,145	-200,000	-0,022	-0,089
-656,130	800,000	0,028	0,084
-655,116	373,815	-0,065	0,098
-654,101	800,000	0,033	-0,092
-653,086	-144,724	0,099	-0,007
-652,072	97,763	-0,093	0,079
-651,057	640,730	-0,038	-0,071
-650,043	239,437	0,068	-0,083
-649,028	-36,709	0,026	0,010
-648,014	32,583	0,150	0,095
-646,999	72,202	-0,040	-0,030
-645,984	800,000	-0,056	0,125
-644,970	-77,511	0,044	-0,011
-643,955	173,808	-0,099	-0,105
-642,941	-67,593	0,031	-0,009
-641,926	-179,160	0,053	-0,001
-640,911	405,098	0,049	-0,076
-639,897	636,809	-0,030	0,056
-638,882	-200,000	-0,003	-0,075
-637,868	-2,315	0,127	-0,065
-636,853	800,000	-0,050	-0,156
-635,838	-153,769	-0,037	0,002
-634,824	-160,399	-0,080	-0,003
-633,809	800,000	-0,015	0,045
-632,795	-200,000	-0,030	0,173
-631,780	476,892	0,114	-0,191
-630,765	-33,638	-0,029	0,012
-629,751	800,000	0,026	0,058
-628,736	800,000	-0,008	-0,021
-627,722	195,352	0,077	0,086
-626,707	0,247	-0,074	0,039
-625,692	446,686	0,087	0,141
-624,678	332,091	0,083	0,118
-623,663	99,254	0,059	0,050
-622,649	9,216	-0,127	-0,070
-621,634	268,403	-0,042	-0,055
-620,619	-200,000	0,054	0,000
-619,605	171,192	0,052	-0,054
-618,590	-200,000	-0,009	0,044
-617,576	312,889	0,027	-0,037
-616,561	800,000	-0,010	0,023
-615,546	214,938	-0,155	-0,181
-614,532	-82,572	-0,111	-0,026
-613,517	78,493	0,053	0,042
-612,503	-121,868	-0,052	-0,006
-611,488	376,268	0,082	0,122
-610,474	-127,717	-0,064	-0,007
-609,459	456,094	-0,039	0,063
-608,444	-6,384	-0,123	-0,061
-607,430	-200,000	-0,029	-0,125
-606,415	800,000	0,046	-0,106
-605,401	-48,788	0,083	0,029
-604,386	282,506	0,036	-0,047
-603,371	14,679	0,162	0,093
-602,357	288,863	0,091	-0,121
-601,342	24,717	-0,080	0,049
-600,328	66,437	-0,062	0,046
-599,313	-104,551	-0,044	-0,007
-598,298	-200,000	-0,027	-0,107
-597,284	585,456	-0,033	-0,060
-596,269	-115,587	0,099	0,014
-595,255	-200,000	-0,019	0,145
-594,240	81,088	-0,054	0,043
-593,225	-84,026	-0,087	0,020
-592,211	-10,428	-0,066	-0,032
-591,196	-200,000	0,014	0,153
-590,182	800,000	0,030	-0,088
-589,167	238,020	-0,094	0,114
-588,152	-99,017	0,043	0,008
-587,138	800,000	0,046	-0,106
-586,123	253,855	-0,104	-0,131
-585,109	254,440	-0,019	0,024
-584,094	140,163	0,023	-0,022
-583,079	800,000	0,037	-0,093
-582,065	-200,000	0,003	-0,054
-581,050	13,875	-0,072	-0,041
-580,036	205,064	-0,073	-0,083
-579,021	-200,000	-0,038	-0,125
-578,006	629,690	-0,106	-0,197
-576,992	-200,000	-0,007	0,050
-575,977	-200,000	0,011	0,100
-574,963	140,785	-0,056	0,054
-573,948	-81,022	0,177	-0,043
-572,934	-55,036	-0,088	-0,029
-571,919	564,374	-0,062	-0,111
-570,904	-46,205	-0,056	-0,020
-569,890	800,000	0,014	-0,034
-568,875	-200,000	-0,018	-0,078
-567,861	346,223	-0,049	0,070
-566,846	492,424	-0,063	0,107
-565,831	-200,000	0,051	0,204
-564,817	641,229	-0,021	-0,039
-563,802	112,051	-0,103	-0,091
-562,788	-200,000	0,022	0,083
-561,773	800,000	0,052	-0,138
-560,758	-152,388	-0,060	-0,003
-559,744	48,694	0,063	0,043
-558,729	800,000	0,040	-0,110
-557,715	514,750	0,006	0,011
-556,700	156,600	-0,080	0,081
-555,685	302,347	-0,036	-0,048
-554,671	800,000	0,020	-0,054
-553,656	152,386	-0,033	0,033
-552,642	-200,000	0,022	0,099
-551,627	170,787	-0,052	0,055
-550,612	800,000	-0,024	0,053
-549,598	157,953	-0,063	-0,064
-548,583	54,180	0,047	0,033
-547,569	688,799	-0,024	0,046
-546,554	24,054	-0,073	0,044
-545,539	86,021	0,048	0,039
-544,525	-200,000	-0,012	-0,098
-543,510	343,484	-0,080	-0,116
-542,496	271,912	-0,085	-0,110
-541,481	332,625	0,050	-0,071
-540,466	239,097	-0,017	-0,021
-539,452	800,000	0,022	0,065
-538,437	113,544	-0,113	0,101
-537,423	693,326	0,059	-0,113
-536,408	-112,003	-0,053	-0,008
-535,393	-200,000	-0,013	-0,147
-534,379	-200,000	-0,039	-0,167
-533,364	10,175	0,057	-0,032
-532,350	16,128	0,048	0,028
-531,335	185,806	0,042	-0,045
-530,321	249,065	-0,025	-0,031
-529,306	-3,087	-0,071	0,036
-528,291	42,008	-0,065	-0,043
-527,277	-46,268	-0,236	-0,085
-526,262	800,000	0,058	-0,127
-525,248	-173,543	0,051	0,001
-524,233	52,457	0,099	-0,069
-523,218	-126,210	-0,135	0,015
-522,204	245,109	0,061	-0,075
-521,189	183,436	-0,108	-0,117
-520,175	68,499	0,006	0,005
-519,160	102,778	-0,117	-0,100
-518,145	-200,000	0,032	-0,125
-517,131	-28,630	-0,035	0,014
-516,116	-148,863	0,060	0,003
-515,102	-200,000	-0,018	0,082
-514,087	-200,000	-0,013	0,081
-513,072	21,849	0,067	0,040
-512,058	35,707	0,025	0,016
-511,043	3,215	0,054	-0,029
-510,029	-2,233	-0,126	0,064
-509,014	800,000	-0,013	-0,035
-507,999	-135,977	0,055	0,005
-506,985	514,655	-0,025	0,043
-505,970	501,571	-0,060	0,101
-504,956	-200,000	-0,016	-0,058
-503,941	632,508	-0,068	-0,127
-502,926	273,724	-0,055	-0,071
-501,912	758,699	0,004	0,009
-500,897	-200,000	-0,012	0,075
-499,883	800,000	-0,015	-0,045
-498,868	57,759	0,017	-0,012
-497,853	-200,000	0,006	0,044
-496,839	25,220	-0,134	-0,081
-495,824	-200,000	0,007	0,078
-494,810	41,546	0,064	-0,042
-493,795	800,000	0,012	-0,029
-492,781	55,366	0,094	0,066
-491,766	82,018	-0,145	-0,115
-490,751	25,467	0,113	0,068
-489,737	367,438	0,024	-0,035
-488,722	800,000	-0,085	-0,206
-487,708	162,257	0,016	-0,016
-486,693	246,641	-0,043	0,054
-485,678	263,282	0,018	-0,023
-484,664	-83,853	-0,050	0,011
-483,649	110,764	-0,085	-0,074
-482,635	34,798	0,097	0,062
-481,620	348,287	0,025	-0,036
-480,605	800,000	0,063	-0,175
-479,591	-200,000	0,013	-0,092
-478,576	-37,010	-0,138	0,054
-477,562	304,832	0,046	0,063
-476,547	-200,000	-0,018	-0,095
-475,532	21,430	-0,097	0,057
-474,518	-200,000	-0,007	0,038
-473,503	34,702	0,104	0,066
-472,489	32,377	-0,103	0,065
-471,474	-200,000	0,013	0,094
-470,459	131,875	-0,075	-0,071
-469,445	-35,600	0,096	-0,038
-468,430	-200,000	0,007	-0,052
-467,416	-200,000	-0,014	-0,078
-466,401	-57,832	0,080	0,025
-465,386	-200,000	0,015	0,090
-464,372	114,507	0,045	-0,040
-463,357	800,000	-0,044	0,094
-462,343	203,239	-0,046	-0,052
-461,328	10,434	-0,073	-0,041
-460,313	-200,000	-0,009	0,035
-459,299	60,902	0,079	0,057
-458,284	514,429	0,056	0,096
-457,270	-200,000	0,024	0,133
-456,255	99,815	-0,066	0,056
-455,241	-112,175	-0,073	0,011
-454,226	199,207	0,059	-0,066
-453,211	59,086	-0,006	0,004
-452,197	65,539	0,044	0,032
-451,182	-200,000	-0,027	0,159
-450,168	5,621	0,099	0,053
-449,153	-200,000	-0,001	0,025
-448,138	107,975	-0,088	-0,077
-447,124	800,000	-0,064	-0,166
-446,109	-148,493	-0,068	-0,004
-445,095	218,099	0,105	0,123
-444,080	-200,000	0,004	0,092
-443,065	-200,000	0,000	0,030
-442,051	560,084	-0,028	0,050
-441,036	800,000	0,014	0,043
-440,022	800,000	0,007	0,016
-439,007	-165,772	0,108	-0,003
-437,992	111,610	-0,012	-0,010
-436,978	46,325	0,095	0,064
-435,963	241,437	0,119	0,145
-434,949	250,533	0,014	-0,018
-433,934	-14,052	-0,082	0,038
-432,919	-58,441	0,023	-0,007
-431,905	-200,000	0,032	-0,116
-430,890	113,507	0,069	-0,061
-429,876	-200,000	0,007	0,068
-428,861	-200,000	0,023	0,160
-427,846	800,000	-0,053	0,109
-426,832	800,000	-0,021	0,061
-425,817	-200,000	-0,025	-0,093
-424,803	-51,355	0,062	0,021
-423,788	-200,000	0,039	-0,218
-422,773	-100,003	-0,011	-0,002
-421,759	1,867	0,103	0,054
-420,744	196,754	0,098	0,109
-419,730	-22,363	-0,184	0,081
-418,715	-200,000	-0,019	0,087
-417,701	800,000	-0,018	-0,055
-416,686	1,866	0,063	0,033
-415,671	46,873	0,147	-0,099
-414,657	214,011	-0,073	-0,085
-413,642	54,798	-0,032	0,023
-412,628	-200,000	0,008	-0,105
-411,613	-200,000	0,000	-0,003
-410,598	-200,000	0,008	-0,054
-409,584	-29,162	-0,029	0,012
-408,569	-140,940	-0,138	0,010
-407,555	800,000	0,009	0,025
-406,540	-200,000	0,011	-0,041
-405,525	-139,521	-0,071	0,005
-404,511	-143,997	-0,234	-0,016
-403,496	154,866	0,049	0,049
-402,482	-89,694	0,111	0,023
-401,467	147,803	0,096	0,094
-400,452	150,720	0,015	-0,015
-399,438	800,000	-0,006	0,014
-398,423	257,412	-0,023	-0,028
-397,409	-200,000	0,001	0,018
-396,394	30,316	-0,108	-0,067
-395,379	299,959	0,011	0,014
-394,365	-57,528	-0,098	0,031
-393,350	800,000	-0,014	-0,031
-392,336	-200,000	-0,008	0,062
-391,321	-200,000	-0,005	-0,056
-390,306	-121,022	-0,065	-0,008
-389,292	322,519	0,051	-0,071
-388,277	-128,925	-0,069	0,007
-387,263	-200,000	-0,000	0,066
-386,248	-200,000	-0,006	-0,086
-385,233	-39,648	0,114	0,043
-384,219	-200,000	-0,009	0,044
-383,204	800,000	-0,039	0,101
-382,190	76,116	-0,061	-0,047
-381,175	184,855	0,078	0,084
-380,160	-39,093	0,104	0,040
-379,146	376,394	0,035	-0,052
-378,131	511,364	-0,034	0,058
-377,117	-145,254	0,142	0,009
-376,102	-124,187	-0,185	-0,021
-375,088	-200,000	0,007	0,029
-374,073	-3,617	0,108	0,054
-373,058	274,877	-0,030	-0,039
-372,044	433,123	-0,030	0,048
-371,029	169,936	0,079	-0,082
-370,015	-200,000	0,021	0,078
-369,000	-68,199	-0,093	-0,026
-367,985	-200,000	-0,006	0,079
-366,971	104,171	0,094	0,080
-365,956	107,323	-0,060	-0,052
-364,942	-200,000	0,018	0,063
-363,927	158,295	0,045	-0,045
-362,912	130,640	0,069	-0,065
-361,898	-40,307	0,082	0,031
-360,883	381,716	-0,028	-0,043
-359,869	-200,000	0,003	0,025
-358,854	233,910	0,066	-0,079
-357,839	-35,384	0,147	-0,058
-356,825	800,000	-0,016	0,044
-355,810	129,154	0,048	0,044
-354,796	381,833	0,068	-0,102
-353,781	10,311	0,083	0,045
-352,766	-53,939	-0,093	-0,031
-351,752	-200,000	-0,021	-0,082
-350,737	800,000	-0,011	0,036
-349,723	-103,767	0,131	0,022
-348,708	800,000	0,039	-0,102
-347,693	800,000	-0,066	-0,148
-346,679	-97,602	-0,085	0,016
-345,664	168,820	0,039	0,040
-344,650	46,141	0,063	-0,043
-343,635	203,425	-0,009	-0,010
-342,620	-117,859	0,206	0,027
-341,606	609,801	0,051	0,093
-340,591	800,000	-0,023	0,047
-339,577	-200,000	-0,009	-0,107
-338,562	156,608	0,039	-0,039
-337,548	81,728	0,085	-0,066
-336,533	175,736	-0,027	-0,029
-335,518	-200,000	-0,036	-0,125
-334,504	171,752	0,018	0,019
-333,489	-70,995	0,068	-0,018
-332,475	706,350	0,044	-0,085
-331,460	-200,000	-0,023	-0,086
-330,445	-200,000	0,012	0,041
-329,431	308,156	0,052	0,070
-328,416	-77,173	0,026	0,006
-327,402	28,742	0,087	0,053
-326,387	12,834	0,021	0,012
-325,372	-135,607	0,097	0,008
-324,358	108,168	-0,153	0,133
-323,343	-200,000	0,006	-0,096
-322,329	-138,678	0,142	0,011
-321,314	-200,000	-0,005	-0,062
-320,299	358,577	0,056	0,082
-319,285	-200,000	-0,009	-0,076
-318,270	-200,000	-0,004	-0,017
-317,256	71,178	0,053	-0,040
-316,241	-79,748	0,068	-0,017
-315,226	-200,000	0,006	-0,075
-314,212	-92,813	0,131	0,026
-313,197	-98,283	0,127	0,023
-312,183	191,923	-0,068	0,074
-311,168	104,413	0,052	-0,044
-310,153	144,764	-0,078	0,075
-309,139	542,952	-0,036	-0,062
-308,124	-200,000	-0,003	0,040
-307,110	800,000	0,033	-0,071
-306,095	800,000	0,062	0,160
-305,080	-82,723	0,027	0,006
-304,066	-66,768	-0,140	0,040
-303,051	-117,530	-0,075	0,010
-302,037	-76,808	0,057	-0,014
-301,022	37,052	-0,103	-0,066
-300,008	24,644	0,141	0,084
-298,993	86,290	-0,108	0,086
-297,978	394,259	0,086	0,131
-296,964	-200,000	-0,012	0,043
-295,949	13,639	0,111	-0,062
-294,935	-200,000	0,017	-0,158
-293,920	-55,089	0,084	0,027
-292,905	800,000	0,032	0,078
-291,891	121,237	0,048	0,043
-290,876	-68,763	-0,102	-0,028
-289,862	-200,000	0,006	-0,051
-288,847	-7,605	-0,090	-0,044
-287,832	-38,725	-0,107	0,041
-286,818	39,597	0,092	0,059
-285,803	374,072	0,033	0,049
-284,789	137,190	-0,079	0,075
-283,774	84,636	-0,089	0,071
-282,759	-72,458	0,048	-0,013
-281,745	-48,231	0,119	-0,041
-280,730	-135,709	0,019	-0,002
-279,716	-66,001	0,077	-0,022
-278,701	334,261	0,044	-0,061
-277,686	-129,750	0,068	-0,007
-276,672	-200,000	-0,017	0,059
-275,657	129,738	0,027	0,025
-274,643	-200,000	0,009	-0,151
-273,628	800,000	0,054	-0,113
-272,613	800,000	-0,045	0,094
-271,599	89,097	0,101	-0,081
-270,584	77,593	-0,057	-0,044
-269,570	106,508	0,101	0,087
-268,555	-119,759	0,025	0,003
-267,540	-200,000	0,014	0,091
-266,526	800,000	-0,028	-0,060
-265,511	-200,000	0,014	-0,083
-264,497	-170,367	0,138	-0,003
-263,482	-17,892	0,083	0,037
-262,467	377,096	-0,033	0,049
-261,453	-92,927	-0,154	0,031
-260,438	-200,000	0,021	0,097
-259,424	-43,708	-0,024	-0,009
-258,409	-44,971	0,071	0,025
-257,395	52,392	-0,129	0,089
-256,380	-112,547	0,051	-0,007
-255,365	233,832	-0,069	-0,082
-254,351	577,082	0,061	-0,109
-253,336	-200,000	-0,035	0,135
-252,322	-89,822	-0,065	-0,014
-251,307	104,417	0,091	0,078
-250,292	-200,000	-0,013	0,070
-249,278	141,982	0,040	-0,038
-248,263	-112,827	0,178	0,025
-247,249	-200,000	0,005	0,077
-246,234	-161,956	-0,048	-0,002
-245,219	121,814	-0,040	0,036
-244,205	-75,664	-0,039	0,010
-243,190	653,092	0,067	-0,125
-242,176	543,959	0,050	-0,087
-241,161	118,902	0,023	0,021
-240,146	131,235	-0,043	0,040
-239,132	90,606	-0,082	0,066
-238,117	33,414	-0,168	-0,105
-237,103	-200,000	0,022	-0,092
-236,088	-193,597	-0,039	0,000
-235,073	124,866	0,037	-0,034
-234,059	-37,242	0,078	0,030
-233,044	142,710	0,018	0,018
-232,030	286,009	-0,125	-0,163
-231,015	-200,000	-0,005	0,055
-230,000	113,283	-0,038	-0,034
-228,986	178,114	-0,095	0,101
-227,971	45,352	0,134	0,089
-226,957	26,818	0,239	0,144
-225,942	-200,000	-0,021	0,163
-224,927	800,000	-0,017	-0,044
-223,913	426,409	0,005	-0,008
-222,898	24,310	0,118	-0,070
-221,884	-175,587	0,101	-0,002
-220,869	-78,934	-0,035	0,008
-219,855	-200,000	-0,049	0,168
-218,840	800,000	-0,012	0,025
-217,825	-81,959	-0,069	0,016
-216,811	19,361	-0,061	-0,036
-215,796	-52,624	-0,125	-0,042
-214,782	-39,985	-0,058	-0,022
-213,767	319,371	-0,035	-0,048
-212,752	-200,000	-0,041	0,152
-211,738	-80,958	0,112	-0,027
-210,723	-134,976	-0,088	-0,008
-209,709	79,590	-0,067	0,052
-208,694	79,710	-0,117	0,091
-207,679	-121,356	-0,093	-0,011
-206,665	-96,149	-0,028	-0,005
-205,650	-66,234	0,093	-0,027
-204,636	-69,190	-0,152	0,042
-203,621	-69,798	-0,109	-0,030
-202,606	536,109	0,047	0,081
-201,592	-200,000	0,030	-0,151
-200,577	800,000	0,026	-0,080
-199,563	-200,000	0,007	-0,045
-198,548	12,349	0,042	-0,024
-197,533	139,629	-0,034	0,032
-196,519	53,118	0,044	0,031
-195,504	713,917	-0,026	0,051
-194,490	511,694	0,028	-0,047
-193,475	259,528	-0,069	0,087
-192,460	-200,000	0,015	-0,071
-191,446	-200,000	-0,067	0,226
-190,431	80,492	-0,026	-0,020
-189,417	800,000	0,041	0,086
-188,402	-200,000	-0,020	-0,132
-187,387	42,752	-0,080	-0,053
-186,373	-59,579	-0,157	0,048
-185,358	214,964	0,102	-0,117
-184,344	-200,000	-0,008	-0,033
-183,329	-200,000	0,040	0,141
-182,315	11,843	-0,095	0,052
-181,300	800,000	0,027	-0,071
-180,285	372,903	-0,050	0,074
-179,271	128,415	0,025	-0,023
-178,256	-200,000	-0,005	-0,058
-177,242	-139,823	0,143	-0,011
-176,227	-41,388	0,117	0,043
-175,212	800,000	-0,043	0,108
-174,198	-82,553	0,098	0,023
-173,183	-200,000	-0,009	-0,064
-172,169	219,159	-0,071	0,082
-171,154	-200,000	0,003	-0,071
-170,139	306,968	0,012	0,016
-169,125	438,131	0,079	0,124
-168,110	132,679	-0,068	0,064
-167,096	9,377	-0,038	0,021
-166,081	-59,081	0,060	-0,018
-165,066	-65,153	-0,061	0,018
-164,052	800,000	-0,044	0,091
-163,037	424,984	0,071	0,110
-162,023	503,941	-0,056	0,094
-161,008	38,738	0,119	0,076
-159,993	800,000	0,017	0,040
-158,979	-3,893	-0,162	-0,081
-157,964	398,955	0,038	0,058
-156,950	800,000	0,040	-0,110
-155,935	152,446	-0,065	-0,064
-154,920	-200,000	-0,019	-0,091
-153,906	-200,000	0,023	0,108
-152,891	-200,000	0,006	-0,066
-151,877	-200,000	-0,031	-0,133
-150,862	510,301	0,063	-0,106
-149,847	73,928	0,110	-0,083
-148,833	-200,000	-0,018	0,129
-147,818	800,000	-0,040	-0,087
-146,804	-200,000	-0,008	0,129
-145,789	524,114	-0,041	-0,070
-144,775	-200,000	-0,007	-0,029
-143,760	-36,938	-0,072	0,028
-142,745	50,605	0,055	-0,037
-141,731	194,270	-0,060	-0,066
-140,716	78,094	0,028	-0,022
-139,702	-200,000	0,028	0,098
-138,687	10,720	0,064	-0,035
-137,672	-24,932	0,133	0,057
-136,658	89,745	-0,040	0,032
-135,643	-200,000	-0,008	-0,129
-134,629	785,343	0,030	0,059
-133,614	333,768	-0,023	0,032
-132,599	800,000	-0,025	-0,078
-131,585	107,182	0,108	0,092
-130,570	605,870	0,016	0,029
-129,556	-200,000	0,014	0,099
-128,541	-156,891	-0,082	-0,004
-127,526	-156,797	-0,039	-0,002
-126,512	-129,345	0,127	0,013
-125,497	-86,646	0,136	-0,030
-124,483	800,000	-0,040	-0,126
-123,468	-24,413	0,086	-0,037
-122,453	-108,654	-0,049	0,007
-121,439	47,657	-0,052	-0,035
-120,424	-2,744	0,048	-0,024
-119,410	761,217	0,037	0,073
