DTS Sentinel unit serial number:	SN410029Multiplexer serial number:	ORYXHardware model number:	OX2-SRSoftware version number:	ORYX F/W v4,00 Oryx Data Collector v3.7.2.0data status	okinstallation	B5 Nyhavnadifferential loss correction	single-endedforward channel	channel 2reverse channel	N/Adate	2023/12/14time	05:12:13forward acquisition time	300,00reverse acquisition time	0,00gamma	499,1914k internal	0,3156k external	0,3156temperature offset calibration	1,0000default loss term (dB/km)	0,3820temperature slope calibration	1,0000multiplexer offset coefficient	1,0000multiplexer slope coefficient	1,0000fibre end	0,00T internal ref (°C)	7,82T ext. ref 1 (°C)	-8,74T ext. ref 2 (°C)	-8,82length (m)	temperature (°C)	Stokes	anti-Stokes-744,400	-98,192	0,134	-0,025
-743,385	-21,375	-0,283	-0,127
-742,371	-9,386	0,129	-0,063
-741,356	-174,078	-0,459	0,010
-740,342	83,824	0,053	0,043
-739,327	22,807	-0,373	-0,225
-738,312	-55,617	0,221	0,073
-737,298	-44,518	-0,420	-0,154
-736,283	-136,317	0,100	-0,009
-735,269	-150,509	-0,375	-0,021
-734,254	-113,373	0,191	-0,027
-733,239	-30,537	-0,535	-0,223
-732,225	800,000	0,119	0,253
-731,210	635,991	-0,081	0,153
-730,196	66,944	-0,081	-0,061
-729,181	163,633	0,053	-0,055
-728,167	-156,257	-0,112	0,005
-727,152	-200,000	-0,014	0,066
-726,137	-31,194	-0,180	-0,074
-725,123	-13,047	-0,151	-0,072
-724,108	168,120	0,175	-0,184
-723,094	159,326	-0,083	-0,085
-722,079	421,978	-0,027	-0,043
-721,064	105,085	-0,111	-0,096
-720,050	-70,748	-0,090	0,025
-719,035	-76,826	0,133	-0,034
-718,021	175,246	-0,150	-0,160
-717,006	-200,000	-0,002	-0,206
-715,991	-200,000	-0,026	-0,146
-714,977	800,000	-0,040	-0,095
-713,962	134,085	-0,025	-0,024
-712,948	-58,819	-0,071	-0,022
-711,933	-200,000	-0,006	0,115
-710,918	21,711	0,042	-0,025
-709,904	170,900	0,069	-0,072
-708,889	237,007	-0,058	-0,071
-707,875	800,000	-0,036	-0,099
-706,860	-200,000	0,006	-0,065
-705,845	-200,000	0,007	-0,074
-704,831	191,747	-0,044	-0,049
-703,816	-27,589	-0,056	0,024
-702,802	-158,254	0,056	0,002
-701,787	111,237	0,031	-0,027
-700,772	186,618	0,053	0,058
-699,758	800,000	0,051	-0,147
-698,743	-127,405	-0,087	-0,009
-697,729	-148,175	0,101	-0,006
-696,714	153,981	0,107	0,108
-695,699	800,000	-0,046	0,100
-694,685	5,694	-0,064	0,035
-693,670	39,948	-0,050	-0,033
-692,656	800,000	-0,061	0,186
-691,641	169,368	0,079	-0,083
-690,627	800,000	-0,029	0,075
-689,612	143,254	-0,116	-0,114
-688,597	800,000	0,049	0,119
-687,583	800,000	-0,071	-0,147
-686,568	-101,338	-0,174	0,031
-685,554	73,889	-0,072	0,056
-684,539	-42,989	0,119	0,044
-683,524	800,000	0,052	-0,113
-682,510	59,889	0,044	0,032
-681,495	-54,755	0,092	-0,030
-680,481	-82,286	-0,076	0,018
-679,466	182,612	-0,123	-0,134
-678,451	-200,000	0,010	-0,130
-677,437	-153,173	0,071	0,004
-676,422	-200,000	0,016	0,119
-675,408	295,503	-0,067	-0,090
-674,393	103,283	-0,146	0,126
-673,378	-136,739	-0,095	0,008
-672,364	300,084	-0,060	-0,082
-671,349	-200,000	0,003	-0,016
-670,335	-120,539	-0,053	-0,007
-669,320	192,455	0,092	-0,102
-668,305	-200,000	0,011	0,053
-667,291	367,599	-0,060	-0,089
-666,276	290,422	-0,060	0,080
-665,262	-124,466	0,067	-0,008
-664,247	-68,180	-0,063	0,018
-663,232	78,594	0,053	-0,042
-662,218	-26,339	-0,042	-0,018
-661,203	388,044	0,087	-0,132
-660,189	371,211	-0,031	-0,047
-659,174	55,899	-0,030	0,022
-658,159	-52,687	-0,095	-0,032
-657,145	-200,000	0,010	0,089
-656,130	-91,890	0,063	0,013
-655,116	-23,103	0,064	0,028
-654,101	-200,000	-0,024	0,111
-653,086	-56,639	0,075	-0,024
-652,072	800,000	-0,054	-0,170
-651,057	-200,000	-0,023	-0,093
-650,043	-132,357	0,096	-0,009
-649,028	-126,396	0,089	-0,010
-648,014	11,842	0,061	-0,034
-646,999	255,119	-0,053	0,067
-645,984	-44,133	-0,024	0,009
-644,970	-121,606	0,066	0,008
-643,955	-13,788	-0,038	0,018
-642,941	-164,430	-0,145	0,005
-641,926	-200,000	0,028	0,096
-640,911	-114,585	-0,070	0,010
-639,897	-133,860	0,023	0,002
-638,882	-200,000	0,013	0,159
-637,868	-125,251	-0,183	-0,020
-636,853	-81,519	-0,134	0,032
-635,838	-200,000	0,024	-0,157
-634,824	165,860	0,071	0,074
-633,809	-32,892	-0,116	0,047
-632,795	458,408	0,120	0,197
-631,780	800,000	-0,054	-0,117
-630,765	-200,000	0,008	-0,191
-629,751	800,000	-0,085	-0,221
-628,736	-200,000	0,025	-0,131
-627,722	-30,238	0,083	0,034
-626,707	26,569	-0,092	0,057
-625,692	703,669	-0,018	-0,035
-624,678	-200,000	-0,019	-0,088
-623,663	800,000	-0,023	-0,058
-622,649	800,000	-0,033	-0,082
-621,634	138,576	0,036	0,035
-620,619	56,118	0,032	-0,023
-619,605	-200,000	0,004	0,114
-618,590	800,000	-0,020	-0,049
-617,576	-200,000	0,024	0,173
-616,561	487,195	-0,107	0,179
-615,546	-142,208	0,021	0,001
-614,532	-53,611	0,121	-0,040
-613,517	800,000	-0,052	-0,155
-612,503	754,253	-0,067	0,133
-611,488	87,633	0,064	0,052
-610,474	245,517	-0,068	-0,084
-609,459	100,112	0,083	0,071
-608,444	-98,252	-0,046	-0,009
-607,430	-1,526	0,106	-0,055
-606,415	-115,913	-0,071	-0,010
-605,401	-0,512	-0,120	0,062
-604,386	83,965	0,039	-0,032
-603,371	618,259	-0,095	0,175
-602,357	83,196	-0,037	-0,029
-601,342	-27,186	0,110	0,047
-600,328	164,185	-0,071	-0,073
-599,313	-200,000	0,000	-0,036
-598,298	614,385	0,055	0,101
-597,284	201,174	0,083	-0,094
-596,269	35,468	-0,052	-0,034
-595,255	-65,183	-0,076	-0,022
-594,240	-200,000	-0,021	-0,085
-593,225	-102,257	-0,088	-0,015
-592,211	-20,490	-0,174	-0,078
-591,196	13,849	0,164	0,093
-590,182	426,158	0,085	0,135
-589,167	-66,743	0,096	-0,028
-588,152	-200,000	0,015	-0,097
-587,138	-149,595	0,085	0,005
-586,123	-129,186	-0,105	0,011
-585,109	204,247	-0,030	0,034
-584,094	371,574	0,073	-0,109
-583,079	-200,000	-0,010	-0,042
-582,065	88,119	0,072	0,059
-581,050	-89,024	0,089	0,019
-580,036	-89,500	-0,011	0,002
-579,021	-146,952	-0,124	-0,008
-578,006	7,551	-0,076	0,041
-576,992	-200,000	-0,009	0,116
-575,977	60,795	0,142	-0,103
-574,963	-200,000	-0,000	-0,020
-573,948	-143,570	0,137	0,009
-572,934	100,327	-0,039	-0,033
-571,919	-23,672	0,017	-0,008
-570,904	142,892	-0,123	-0,119
-569,890	-157,712	0,084	0,004
-568,875	-200,000	0,009	0,097
-567,861	800,000	0,015	0,036
-566,846	-200,000	0,003	-0,147
-565,831	303,968	0,040	-0,054
-564,817	-200,000	-0,017	-0,073
-563,802	395,531	-0,078	-0,120
-562,788	-115,404	-0,014	-0,002
-561,773	-200,000	-0,007	-0,074
-560,758	340,651	0,045	-0,065
-559,744	-92,835	0,118	-0,024
-558,729	52,830	-0,111	0,077
-557,715	-145,896	-0,198	0,013
-556,700	-31,366	-0,107	-0,044
-555,685	-200,000	-0,046	-0,166
-554,671	635,798	0,035	0,064
-553,656	130,291	0,072	0,068
-552,642	8,521	-0,179	-0,098
-551,627	-47,400	0,017	0,006
-550,612	430,853	-0,023	-0,037
-549,598	-200,000	0,002	0,040
-548,583	-91,884	0,184	0,038
-547,569	68,900	0,082	0,062
-546,554	175,409	-0,032	0,034
-545,539	-125,410	0,189	-0,021
-544,525	-200,000	0,009	0,030
-543,510	-182,926	0,091	-0,001
-542,496	-200,000	0,004	-0,091
-541,481	148,194	0,027	-0,027
-540,466	-185,187	0,076	0,001
-539,452	-168,769	-0,067	-0,002
-538,437	-53,252	0,081	-0,027
-537,423	800,000	-0,040	0,091
-536,408	257,248	-0,105	-0,133
-535,393	95,368	-0,080	-0,067
-534,379	-94,895	-0,043	0,008
-533,364	7,930	0,025	0,014
-532,350	204,696	0,134	0,152
-531,335	73,640	0,036	-0,028
-530,321	310,719	0,132	0,182
-529,306	-73,102	-0,107	-0,028
-528,291	-200,000	-0,007	-0,103
-527,277	356,636	0,054	0,080
-526,262	-200,000	-0,015	0,087
-525,248	-53,711	-0,108	-0,036
-524,233	-200,000	0,003	0,175
-523,218	187,297	0,074	0,080
-522,204	205,952	-0,077	0,087
-521,189	-121,392	-0,163	0,020
-520,175	-200,000	0,015	-0,067
-519,160	-36,601	-0,061	-0,024
-518,145	566,440	0,023	0,040
-517,131	-200,000	-0,005	0,022
-516,116	-200,000	0,000	0,024
-515,102	588,156	-0,036	-0,065
-514,087	353,255	0,033	-0,048
-513,072	-88,429	-0,146	-0,032
-512,058	182,867	-0,035	-0,038
-511,043	-69,120	-0,068	0,019
-510,029	201,915	0,056	0,063
-509,014	28,221	-0,050	0,031
-507,999	723,688	0,037	-0,073
-506,985	-157,552	-0,219	0,009
-505,970	800,000	-0,032	-0,080
-504,956	-200,000	0,006	0,096
-503,941	496,650	0,093	-0,157
-502,926	101,878	-0,159	0,135
-501,912	29,373	0,074	0,046
-500,897	800,000	-0,069	0,158
-499,883	-60,878	-0,079	-0,024
-498,868	178,360	-0,045	-0,048
-497,853	-200,000	0,030	-0,186
-496,839	85,376	-0,092	0,074
-495,824	800,000	-0,041	0,118
-494,810	698,379	0,086	0,165
-493,795	364,756	0,069	0,102
-492,781	256,671	0,017	0,022
-491,766	-61,551	-0,057	-0,018
-490,751	-200,000	-0,006	-0,081
-489,737	305,871	0,079	-0,107
-488,722	271,523	0,085	0,109
-487,708	800,000	0,008	0,019
-486,693	13,082	0,098	-0,055
-485,678	137,513	-0,077	0,074
-484,664	-200,000	-0,001	-0,066
-483,649	23,781	-0,045	-0,027
-482,635	800,000	0,049	-0,131
-481,620	800,000	0,018	-0,043
-480,605	17,572	0,071	-0,041
-479,591	32,578	0,142	-0,090
-478,576	531,732	0,026	0,045
-477,562	800,000	0,024	-0,070
-476,547	-33,851	-0,092	0,037
-475,532	488,143	-0,036	0,060
-474,518	-200,000	0,012	-0,109
-473,503	-96,101	0,112	0,022
-472,489	-200,000	-0,024	-0,099
-471,474	144,269	0,023	-0,023
-470,459	-11,814	-0,040	-0,019
-469,445	455,261	-0,056	-0,091
-468,430	163,335	-0,038	-0,039
-467,416	-200,000	-0,008	0,053
-466,401	555,011	-0,058	0,102
-465,386	800,000	-0,059	0,137
-464,372	800,000	0,029	-0,063
-463,357	-200,000	0,026	0,148
-462,343	-33,459	-0,050	-0,020
-461,328	-200,000	0,013	-0,087
-460,313	-200,000	0,006	-0,129
-459,299	29,510	-0,100	0,062
-458,284	216,745	-0,058	-0,068
-457,270	251,788	-0,045	-0,056
-456,255	113,789	0,057	-0,051
-455,241	-18,172	0,037	0,017
-454,226	-112,220	-0,015	-0,002
-453,211	154,944	-0,051	0,051
-452,197	52,010	0,054	0,038
-451,182	-112,618	-0,041	-0,006
-450,168	191,192	0,022	-0,024
-449,153	124,476	0,060	0,055
-448,138	-70,606	-0,115	-0,032
-447,124	156,479	-0,074	-0,075
-446,109	-200,000	0,020	-0,077
-445,095	-200,000	-0,003	0,064
-444,080	-200,000	-0,015	0,078
-443,065	800,000	-0,039	-0,080
-442,051	-107,412	0,165	-0,026
-441,036	-200,000	-0,007	-0,078
-440,022	191,025	-0,012	0,013
-439,007	-200,000	0,010	-0,036
-437,992	-110,433	-0,044	0,007
-436,978	-200,000	0,000	0,083
-435,963	-200,000	-0,016	0,110
-434,949	-63,515	0,013	0,004
-433,934	49,879	-0,096	-0,066
-432,919	125,983	-0,100	-0,092
-431,905	65,304	0,190	0,140
-430,890	125,021	-0,038	0,035
-429,876	-200,000	0,018	0,157
-428,861	-200,000	-0,052	0,172
-427,846	-154,607	0,038	-0,002
-426,832	372,970	0,081	-0,120
-425,817	-6,233	0,040	-0,020
-424,803	800,000	-0,052	-0,157
-423,788	445,598	0,040	-0,065
-422,773	-25,360	-0,026	-0,011
-421,759	77,697	0,043	-0,033
-420,744	62,375	0,091	-0,066
-419,730	486,054	0,025	-0,042
-418,715	-200,000	0,015	0,049
-417,701	15,808	-0,024	-0,013
-416,686	-200,000	0,006	-0,029
-415,671	-200,000	0,002	0,096
-414,657	457,045	0,094	0,152
-413,642	-68,109	-0,065	0,018
-412,628	159,751	0,047	-0,048
-411,613	23,152	-0,123	-0,073
-410,598	4,477	0,036	0,019
-409,584	59,952	0,092	0,066
-408,569	-59,486	0,088	0,027
-407,555	-45,875	0,154	0,055
-406,540	-113,247	0,040	0,006
-405,525	-200,000	0,000	0,060
-404,511	-200,000	0,029	-0,138
-403,496	-200,000	-0,001	-0,102
-402,482	-14,889	0,073	0,034
-401,467	-7,658	0,111	0,054
-400,452	-200,000	-0,004	0,092
-399,438	800,000	-0,017	0,054
-398,423	-124,306	-0,036	-0,004
-397,409	-200,000	-0,009	-0,054
-396,394	232,698	0,047	0,056
-395,379	1,253	0,144	-0,075
-394,365	37,238	0,034	0,022
-393,350	438,797	0,075	0,120
-392,336	348,126	0,078	0,113
-391,321	48,519	0,057	-0,039
-390,306	-146,819	-0,077	0,005
-389,292	593,812	-0,103	0,186
-388,277	-44,647	0,083	0,030
-387,263	-74,768	0,056	0,015
-386,248	-200,000	-0,043	0,247
-385,233	800,000	-0,007	0,024
-384,219	800,000	-0,036	0,078
-383,204	174,135	-0,117	0,123
-382,190	-77,641	-0,110	-0,027
-381,175	614,911	0,059	-0,108
-380,160	-200,000	0,089	0,000
-379,146	264,108	-0,075	0,096
-378,131	800,000	0,054	-0,137
-377,117	14,413	0,016	0,009
-376,102	235,974	0,070	-0,084
-375,088	-200,000	0,002	-0,120
-374,073	-200,000	0,007	-0,052
-373,058	800,000	-0,016	0,051
-372,044	6,570	0,089	0,048
-371,029	-200,000	0,010	0,041
-370,015	54,332	-0,076	0,053
-369,000	64,711	-0,075	-0,055
-367,985	296,014	-0,099	-0,132
-366,971	-200,000	-0,007	-0,022
-365,956	241,248	0,133	-0,161
-364,942	-200,000	-0,000	0,044
-363,927	-200,000	0,005	0,043
-362,912	-200,000	-0,023	0,241
-361,898	-200,000	0,013	0,067
-360,883	800,000	-0,035	-0,102
-359,869	-143,913	0,051	0,003
-358,854	128,287	0,008	0,007
-357,839	-200,000	0,008	-0,196
-356,825	-79,511	-0,097	0,024
-355,810	-200,000	0,013	-0,066
-354,796	97,489	-0,091	-0,076
-353,781	-200,000	-0,015	-0,097
-352,766	-116,140	-0,086	0,011
-351,752	419,811	-0,036	0,055
-350,737	2,692	0,039	0,020
-349,723	-200,000	0,006	0,116
-348,708	800,000	0,034	0,095
-347,693	-200,000	-0,006	0,186
-346,679	800,000	-0,046	-0,122
-345,664	-99,987	-0,027	-0,005
-344,650	178,507	0,060	-0,063
-343,635	-68,600	0,191	-0,053
-342,620	794,373	0,004	-0,008
-341,606	-38,274	0,054	0,021
-340,591	186,406	0,109	0,118
-339,577	331,321	-0,115	-0,161
-338,562	59,137	-0,033	0,024
-337,548	-114,922	-0,074	0,010
-336,533	-29,123	0,135	-0,056
-335,518	173,387	-0,061	-0,064
-334,504	171,196	-0,128	0,134
-333,489	56,409	-0,084	-0,060
-332,475	-200,000	0,001	-0,028
-331,460	800,000	0,057	-0,129
-330,445	-200,000	-0,003	-0,182
-329,431	144,564	0,109	-0,106
-328,416	-26,902	0,188	-0,079
-327,402	800,000	0,034	0,076
-326,387	-37,354	-0,054	-0,021
-325,372	-36,257	0,085	-0,033
-324,358	80,159	-0,153	-0,119
-323,343	402,950	0,039	0,060
-322,329	-200,000	-0,028	0,133
-321,314	43,118	0,038	0,025
-320,299	-128,345	-0,066	-0,007
-319,285	317,528	-0,052	-0,072
-318,270	11,731	-0,039	-0,022
-317,256	-8,343	-0,140	-0,068
-316,241	139,296	0,100	-0,096
-315,226	800,000	0,017	0,053
-314,212	800,000	0,120	0,243
-313,197	-54,076	-0,201	0,066
-312,183	75,368	0,086	0,065
-311,168	32,307	0,093	-0,058
-310,153	-11,086	-0,087	-0,042
-309,139	286,705	0,041	-0,053
-308,124	131,861	0,082	0,076
-307,110	-200,000	0,014	0,129
-306,095	-91,066	0,155	-0,032
-305,080	800,000	0,013	-0,035
-304,066	-200,000	-0,013	0,077
-303,051	313,176	0,058	-0,079
-302,037	-200,000	-0,047	-0,174
-301,022	9,942	0,055	-0,030
-300,008	-119,799	0,083	0,010
-298,993	-200,000	0,003	0,039
-297,978	-162,249	0,024	-0,001
-296,964	-200,000	-0,012	0,087
-295,949	-79,995	-0,092	0,022
-294,935	9,582	0,038	-0,021
-293,920	-200,000	0,018	0,098
-292,905	-200,000	0,018	0,086
-291,891	-2,142	0,120	0,061
-290,876	238,290	-0,009	-0,011
-289,862	800,000	0,019	0,040
-288,847	-44,377	-0,046	-0,017
-287,832	103,999	0,055	-0,047
-286,818	-23,275	-0,049	0,021
-285,803	522,272	-0,055	-0,094
-284,789	-200,000	-0,013	0,052
-283,774	59,899	-0,106	0,075
-282,759	3,788	0,098	0,052
-281,745	8,443	0,065	0,035
-280,730	-71,634	-0,147	0,039
-279,716	446,772	-0,029	0,047
-278,701	-200,000	0,038	-0,169
-277,686	-200,000	-0,031	0,120
-276,672	-200,000	0,011	0,279
-275,657	-91,114	0,060	0,012
-274,643	103,154	-0,057	0,049
-273,628	255,320	0,134	-0,166
-272,613	709,886	-0,042	-0,080
-271,599	26,434	0,082	-0,050
-270,584	-108,075	0,071	-0,011
-269,570	800,000	0,019	0,049
-268,555	182,063	-0,041	-0,044
-267,540	-84,016	0,098	-0,022
-266,526	468,899	0,048	0,078
-265,511	-200,000	0,006	-0,020
-264,497	60,085	-0,060	-0,043
-263,482	-33,775	-0,074	-0,030
-262,467	-32,850	0,037	-0,015
-261,453	800,000	-0,057	-0,121
-260,438	29,269	-0,010	-0,006
-259,424	-98,164	0,065	-0,012
-258,409	228,639	-0,029	0,034
-257,395	-200,000	0,015	-0,154
-256,380	800,000	0,027	0,064
-255,365	-41,783	-0,147	0,054
-254,351	219,087	-0,057	0,067
-253,336	-72,963	0,123	-0,032
-252,322	-200,000	-0,008	-0,049
-251,307	-111,706	-0,130	0,019
-250,292	141,024	0,004	-0,004
-249,278	-200,000	0,012	0,080
-248,263	800,000	0,035	-0,105
-247,249	800,000	-0,027	-0,081
-246,234	87,068	-0,113	-0,091
-245,219	-51,244	-0,048	0,016
-244,205	406,615	0,055	-0,085
-243,190	-40,366	0,033	-0,012
-242,176	92,060	-0,089	-0,073
-241,161	-24,291	0,150	-0,064
-240,146	602,621	0,016	0,030
-239,132	154,976	0,052	0,052
-238,117	-200,000	0,007	-0,057
-237,103	69,051	0,057	-0,043
-236,088	-200,000	0,030	0,100
-235,073	800,000	0,041	0,097
-234,059	-153,956	0,162	0,008
-233,044	-40,832	-0,105	-0,039
-232,030	203,796	0,019	-0,022
-231,015	-59,006	-0,021	0,007
-230,000	364,375	-0,052	-0,075
-228,986	-55,245	-0,038	-0,012
-227,971	-111,666	-0,151	0,022
-226,957	-72,207	0,025	-0,007
-225,942	-0,588	0,048	0,024
-224,927	-200,000	0,005	-0,029
-223,913	-200,000	-0,014	-0,104
-222,898	-200,000	-0,007	-0,060
-221,884	-153,341	-0,054	0,003
-220,869	589,353	-0,059	-0,105
-219,855	228,875	-0,096	-0,114
-218,840	-45,414	0,047	0,017
-217,825	-200,000	-0,001	0,130
-216,811	-9,699	-0,082	-0,039
-215,796	-200,000	0,022	-0,105
-214,782	11,264	-0,111	0,061
-213,767	-82,408	-0,139	0,032
-212,752	438,937	0,068	-0,108
-211,738	453,679	0,049	0,079
-210,723	-200,000	-0,025	0,110
-209,709	172,335	-0,080	0,083
-208,694	-200,000	0,005	-0,116
-207,679	-98,793	-0,124	0,023
-206,665	77,539	-0,048	-0,037
-205,650	662,149	-0,041	-0,077
-204,636	73,674	0,076	-0,057
-203,621	-200,000	0,018	0,066
-202,606	-200,000	0,017	0,126
-201,592	-200,000	-0,004	-0,121
-200,577	-143,144	0,055	-0,004
-199,563	-200,000	0,026	-0,082
-198,548	64,541	-0,069	0,050
-197,533	-200,000	-0,012	0,071
-196,519	261,908	0,092	0,115
-195,504	168,598	-0,084	-0,086
-194,490	-125,388	-0,108	-0,012
-193,475	-41,073	0,038	-0,014
-192,460	-132,845	-0,161	0,015
-191,446	740,092	0,075	0,146
-190,431	-101,172	0,163	-0,029
-189,417	27,829	-0,045	0,027
-188,402	-200,000	-0,015	-0,102
-187,387	-9,493	0,075	0,036
-186,373	31,448	-0,108	-0,067
-185,358	-129,712	-0,060	-0,006
-184,344	-128,889	0,205	0,021
-183,329	-200,000	0,015	-0,115
-182,315	410,833	-0,034	0,053
-181,300	-66,032	0,006	0,002
-180,285	-200,000	0,001	-0,008
-179,271	-146,009	0,111	0,007
-178,256	800,000	0,029	0,079
-177,242	130,569	0,068	0,063
-176,227	297,797	-0,041	0,054
-175,212	359,837	-0,027	0,039
-174,198	477,398	0,037	0,061
-173,183	-200,000	-0,011	-0,051
-172,169	470,192	0,069	-0,113
-171,154	502,692	-0,060	-0,101
-170,139	-164,341	-0,106	-0,003
-169,125	800,000	0,076	0,156
-168,110	57,012	0,122	0,085
-167,096	-65,891	0,091	-0,026
-166,081	-200,000	-0,015	-0,066
-165,066	800,000	-0,023	-0,066
-164,052	800,000	-0,026	-0,069
-163,037	-200,000	0,009	0,158
-162,023	132,093	-0,091	0,084
-161,008	-78,834	-0,194	0,047
-159,993	-186,912	0,041	-0,000
-158,979	-200,000	-0,028	0,227
-157,964	800,000	0,033	-0,082
-156,950	-200,000	-0,021	0,158
-155,935	177,627	0,040	-0,042
-154,920	121,954	0,071	0,064
-153,906	-69,802	0,068	0,018
-152,891	17,941	-0,099	-0,057
-151,877	-68,938	-0,195	-0,054
-150,862	800,000	0,018	-0,051
-149,847	800,000	-0,044	-0,124
-148,833	-200,000	0,011	0,069
-147,818	-200,000	0,000	-0,075
-146,804	50,436	-0,053	0,036
-145,789	-200,000	-0,025	-0,122
-144,775	655,615	-0,034	-0,063
-143,760	-41,335	-0,092	-0,034
-142,745	-80,887	-0,107	0,025
-141,731	106,362	0,111	-0,095
-140,716	-134,997	0,058	-0,005
-139,702	-200,000	0,002	-0,016
-138,687	-114,346	0,115	-0,016
-137,672	380,644	-0,055	0,082
-136,658	-200,000	0,005	0,048
-135,643	-58,127	0,013	-0,004
-134,629	170,825	0,031	-0,032
-133,614	-69,405	0,089	-0,024
-132,599	-55,808	0,155	-0,049
-131,585	-200,000	-0,037	0,169
-130,570	-146,669	-0,109	0,007
-129,556	-124,382	0,009	-0,001
-128,541	-200,000	-0,009	-0,087
-127,526	62,390	0,066	0,047
-126,512	66,924	-0,056	0,041
-125,497	-81,920	-0,034	-0,008
-124,483	-60,133	0,151	-0,046
-123,468	-200,000	0,001	-0,194
-122,453	-112,276	0,020	0,003
-121,439	-48,692	-0,230	-0,079
-120,424	-15,284	-0,071	0,033
