DTS Sentinel unit serial number:	SN410029Multiplexer serial number:	ORYXHardware model number:	OX2-SRSoftware version number:	ORYX F/W v4,00 Oryx Data Collector v3.7.2.0data status	okinstallation	B5 Nyhavnadifferential loss correction	single-endedforward channel	channel 2reverse channel	N/Adate	2023/12/12time	16:02:13forward acquisition time	300,00reverse acquisition time	0,00gamma	499,1914k internal	0,3156k external	0,3156temperature offset calibration	1,0000default loss term (dB/km)	0,3820temperature slope calibration	1,0000multiplexer offset coefficient	1,0000multiplexer slope coefficient	1,0000fibre end	0,00T internal ref (°C)	15,90T ext. ref 1 (°C)	-0,58T ext. ref 2 (°C)	-0,85length (m)	temperature (°C)	Stokes	anti-Stokes-744,400	-200,000	0,013	0,109
-743,385	-139,550	-0,165	0,013
-742,371	174,111	0,096	0,102
-741,356	-87,614	-0,329	-0,073
-740,342	-199,737	0,145	0,001
-739,327	-169,214	-0,244	0,007
-738,312	386,667	-0,063	-0,096
-737,298	-22,149	-0,208	0,093
-736,283	11,969	0,057	-0,032
-735,269	-200,000	-0,045	0,157
-734,254	25,288	-0,119	0,073
-733,239	5,394	-0,643	-0,349
-732,225	31,872	0,106	0,067
-731,210	-200,000	-0,025	0,170
-730,196	434,614	0,076	0,122
-729,181	-32,954	-0,170	0,069
-728,167	800,000	0,029	-0,072
-727,152	-113,581	-0,090	0,013
-726,137	-156,661	-0,070	0,003
-725,123	-200,000	-0,017	-0,166
-724,108	-99,067	-0,242	0,045
-723,094	-100,464	0,046	-0,008
-722,079	125,115	-0,060	-0,056
-721,064	-49,226	0,120	-0,042
-720,050	800,000	0,055	0,115
-719,035	800,000	-0,017	0,053
-718,021	-200,000	0,002	0,037
-717,006	-200,000	-0,011	-0,075
-715,991	-153,976	-0,195	0,010
-714,977	23,857	0,080	0,049
-713,962	-50,555	-0,116	-0,040
-712,948	800,000	-0,028	-0,060
-711,933	707,186	-0,022	0,042
-710,918	-104,719	-0,054	0,009
-709,904	1,913	-0,090	-0,048
-708,889	202,140	-0,069	-0,079
-707,875	800,000	0,070	-0,194
-706,860	-108,609	-0,064	0,010
-705,845	759,415	0,016	0,032
-704,831	4,275	-0,073	0,039
-703,816	-200,000	-0,003	-0,029
-702,802	90,772	-0,055	-0,046
-701,787	-200,000	0,006	-0,066
-700,772	-200,000	-0,018	0,084
-699,758	-200,000	-0,013	0,093
-698,743	800,000	0,011	0,031
-697,729	112,164	0,093	0,083
-696,714	-73,544	-0,031	0,008
-695,699	-148,274	-0,143	-0,009
-694,685	-27,354	-0,173	0,074
-693,670	222,463	-0,046	-0,055
-692,656	728,568	-0,053	0,105
-691,641	84,728	0,058	0,047
-690,627	-200,000	0,010	0,104
-689,612	-153,446	-0,133	0,007
-688,597	95,458	-0,036	0,030
-687,583	374,585	-0,013	-0,019
-686,568	-200,000	0,013	-0,107
-685,554	276,362	0,018	-0,024
-684,539	800,000	0,044	-0,135
-683,524	390,615	0,055	0,084
-682,510	538,424	0,038	-0,067
-681,495	417,400	-0,062	0,098
-680,481	19,344	0,144	-0,085
-679,466	-157,885	-0,056	-0,002
-678,451	-200,000	0,001	-0,042
-677,437	75,173	-0,074	-0,057
-676,422	-181,387	-0,089	-0,001
-675,408	-200,000	0,010	-0,103
-674,393	50,053	-0,030	0,021
-673,378	800,000	-0,051	-0,162
-672,364	270,996	-0,049	-0,064
-671,349	800,000	0,030	0,077
-670,335	800,000	0,022	-0,064
-669,320	-64,093	0,033	-0,010
-668,305	132,962	-0,104	0,098
-667,291	-63,577	-0,044	-0,013
-666,276	-79,790	-0,073	-0,018
-665,262	212,487	-0,073	-0,085
-664,247	116,039	-0,065	0,059
-663,232	-55,453	-0,051	0,017
-662,218	147,115	0,056	0,056
-661,203	-17,724	-0,047	0,021
-660,189	-200,000	0,003	0,017
-659,174	171,133	-0,056	-0,059
-658,159	322,870	-0,030	-0,042
-657,145	141,519	0,028	0,027
-656,130	-200,000	0,009	-0,058
-655,116	-145,616	0,192	0,012
-654,101	236,836	0,075	0,092
-653,086	-114,143	0,078	-0,011
-652,072	104,117	0,050	0,043
-651,057	337,412	-0,049	-0,070
-650,043	28,211	-0,054	0,033
-649,028	291,345	0,134	0,180
-648,014	-200,000	0,007	0,057
-646,999	800,000	0,044	-0,094
-645,984	255,731	0,033	0,041
-644,970	-121,370	-0,106	-0,013
-643,955	100,812	-0,093	0,080
-642,941	232,458	-0,067	-0,080
-641,926	-200,000	0,037	-0,120
-640,911	-200,000	-0,016	0,058
-639,897	-103,189	0,055	-0,009
-638,882	-200,000	0,017	-0,144
-637,868	800,000	-0,059	0,160
-636,853	-162,608	-0,095	-0,003
-635,838	800,000	0,074	-0,153
-634,824	800,000	0,030	-0,063
-633,809	800,000	-0,022	0,061
-632,795	-200,000	0,026	-0,095
-631,780	-155,280	-0,077	0,004
-630,765	-101,148	-0,056	-0,010
-629,751	-121,982	-0,096	-0,011
-628,736	37,250	-0,078	-0,050
-627,722	800,000	0,031	0,086
-626,707	281,757	0,085	0,112
-625,692	-0,092	0,082	0,043
-624,678	-200,000	-0,012	0,047
-623,663	674,685	0,026	0,051
-622,649	323,070	-0,055	-0,078
-621,634	171,074	0,054	0,057
-620,619	659,946	-0,104	-0,197
-619,605	46,905	-0,035	0,024
-618,590	-70,974	0,124	0,034
-617,576	-200,000	0,002	0,028
-616,561	65,092	-0,061	-0,045
-615,546	800,000	0,007	-0,017
-614,532	-115,238	0,041	-0,006
-613,517	399,648	0,016	0,025
-612,503	800,000	-0,027	0,075
-611,488	82,794	0,061	-0,049
-610,474	429,043	-0,013	-0,021
-609,459	-61,417	0,016	0,005
-608,444	-65,912	0,146	0,042
-607,430	-72,307	-0,146	0,039
-606,415	6,874	-0,082	0,045
-605,401	800,000	-0,034	-0,074
-604,386	-112,739	0,042	0,006
-603,371	800,000	-0,014	0,039
-602,357	-200,000	-0,021	0,154
-601,342	78,534	-0,094	0,074
-600,328	-200,000	-0,037	-0,128
-599,313	-190,217	-0,064	-0,001
-598,298	8,692	-0,029	-0,016
-597,284	21,664	0,198	0,118
-596,269	-200,000	-0,004	-0,072
-595,255	-200,000	-0,038	0,139
-594,240	330,555	0,018	0,025
-593,225	-96,605	-0,054	-0,010
-592,211	-200,000	-0,007	-0,062
-591,196	81,395	-0,078	0,062
-590,182	-200,000	-0,001	0,038
-589,167	800,000	0,033	0,077
-588,152	-200,000	-0,018	0,104
-587,138	-39,557	-0,115	0,044
-586,123	-200,000	0,013	-0,129
-585,109	505,541	-0,105	-0,180
-584,094	-154,875	-0,068	-0,003
-583,079	331,464	0,026	0,037
-582,065	-200,000	0,010	-0,070
-581,050	-57,526	-0,156	0,050
-580,036	-200,000	-0,007	-0,109
-579,021	-200,000	0,011	-0,171
-578,006	-200,000	-0,113	0,000
-576,992	-200,000	-0,002	0,056
-575,977	233,417	0,056	0,067
-574,963	-200,000	0,014	-0,061
-573,948	-132,525	0,076	-0,007
-572,934	-22,111	-0,083	-0,037
-571,919	-200,000	-0,024	0,089
-570,904	-200,000	0,001	0,088
-569,890	-111,171	-0,085	-0,013
-568,875	56,815	0,113	-0,080
-567,861	549,070	-0,048	-0,084
-566,846	127,755	-0,074	0,069
-565,831	110,367	-0,077	0,068
-564,817	-200,000	-0,007	-0,059
-563,802	271,531	-0,090	0,117
-562,788	-27,754	0,160	0,068
-561,773	106,467	0,065	0,057
-560,758	98,014	0,134	-0,113
-559,744	-79,943	0,078	-0,019
-558,729	216,114	-0,043	0,050
-557,715	-200,000	-0,015	-0,095
-556,700	800,000	-0,036	0,097
-555,685	-39,598	-0,069	-0,026
-554,671	-200,000	0,016	0,108
-553,656	-61,593	0,059	-0,018
-552,642	-32,787	-0,017	0,007
-551,627	-93,803	-0,008	0,002
-550,612	-200,000	-0,002	-0,042
-549,598	84,713	0,042	0,034
-548,583	26,162	-0,033	-0,020
-547,569	118,262	-0,165	-0,149
-546,554	-200,000	0,014	0,086
-545,539	800,000	0,023	0,068
-544,525	261,085	-0,048	-0,061
-543,510	219,682	-0,044	0,052
-542,496	-200,000	-0,019	0,148
-541,481	35,329	-0,097	-0,062
-540,466	-51,276	0,056	-0,019
-539,452	126,165	0,030	-0,027
-538,437	-110,022	0,048	0,007
-537,423	187,464	-0,097	0,106
-536,408	-200,000	0,004	-0,022
-535,393	-200,000	-0,002	-0,040
-534,379	800,000	0,040	-0,119
-533,364	-200,000	0,087	0,000
-532,350	-200,000	0,016	0,113
-531,335	-200,000	-0,006	0,031
-530,321	-132,112	0,066	0,006
-529,306	-9,297	0,097	-0,047
-528,291	73,171	-0,072	-0,055
-527,277	-200,000	0,016	-0,102
-526,262	375,743	0,082	-0,123
-525,248	222,481	0,104	-0,122
-524,233	135,628	-0,083	-0,079
-523,218	800,000	0,042	0,113
-522,204	-15,668	-0,044	-0,021
-521,189	146,570	0,129	-0,127
-520,175	-200,000	0,006	-0,094
-519,160	138,002	-0,070	0,067
-518,145	-200,000	0,003	0,073
-517,131	243,755	0,067	0,082
-516,116	-200,000	-0,015	0,166
-515,102	-200,000	-0,007	-0,187
-514,087	-200,000	0,033	-0,109
-513,072	-103,575	0,188	0,032
-512,058	142,819	0,051	0,050
-511,043	-116,511	0,157	0,021
-510,029	463,985	-0,089	0,146
-509,014	-195,220	0,099	0,001
-507,999	154,657	-0,068	0,069
-506,985	272,262	0,079	-0,103
-505,970	-200,000	0,028	-0,113
-504,956	-137,791	0,115	-0,009
-503,941	290,219	0,098	0,130
-502,926	-164,581	0,147	-0,005
-501,912	-200,000	0,001	-0,082
-500,897	314,544	-0,046	0,063
-499,883	-77,383	-0,099	0,025
-498,868	-200,000	-0,021	-0,069
-497,853	5,830	-0,086	-0,046
-496,839	194,995	-0,071	-0,079
-495,824	-78,158	-0,120	0,030
-494,810	3,054	0,039	0,021
-493,795	575,146	0,030	0,053
-492,781	356,297	-0,088	-0,128
-491,766	85,885	0,063	-0,051
-490,751	800,000	0,036	-0,096
-489,737	-64,416	0,075	-0,022
-488,722	-79,976	0,150	-0,037
-487,708	245,795	-0,037	-0,045
-486,693	-200,000	0,020	-0,122
-485,678	81,929	-0,075	-0,059
-484,664	64,591	0,087	-0,064
-483,649	173,829	-0,059	0,062
-482,635	163,668	0,078	0,080
-481,620	45,637	0,121	0,082
-480,605	-200,000	0,029	0,126
-479,591	-108,518	0,070	-0,011
-478,576	-200,000	0,002	-0,017
-477,562	-200,000	-0,004	0,139
-476,547	-65,937	0,136	-0,040
-475,532	238,515	0,061	0,074
-474,518	800,000	0,019	0,051
-473,503	800,000	0,048	0,113
-472,489	-148,366	0,053	-0,003
-471,474	-200,000	-0,023	-0,085
-470,459	800,000	0,029	-0,064
-469,445	82,050	0,025	-0,020
-468,430	75,447	-0,026	-0,020
-467,416	107,785	-0,050	-0,043
-466,401	-200,000	-0,008	0,045
-465,386	125,173	-0,066	-0,061
-464,372	90,063	-0,053	-0,043
-463,357	133,024	-0,071	-0,067
-462,343	75,109	-0,167	-0,128
-461,328	-159,763	-0,150	-0,006
-460,313	-200,000	0,000	0,009
-459,299	169,269	-0,037	-0,038
-458,284	-72,201	0,051	-0,014
-457,270	371,144	0,055	0,082
-456,255	231,338	-0,027	0,032
-455,241	328,804	-0,019	-0,027
-454,226	76,703	-0,069	-0,053
-453,211	-17,507	0,094	0,043
-452,197	28,331	0,150	0,092
-451,182	312,745	0,028	0,039
-450,168	-200,000	-0,006	-0,062
-449,153	160,487	-0,089	0,090
-448,138	-200,000	0,019	-0,129
-447,124	111,701	0,054	-0,047
-446,109	800,000	-0,010	-0,026
-445,095	-200,000	0,020	0,068
-444,080	528,578	-0,051	0,089
-443,065	-8,332	0,049	-0,024
-442,051	800,000	0,031	0,081
-441,036	467,006	-0,055	-0,089
-440,022	-84,298	-0,108	0,025
-439,007	79,208	0,034	0,027
-437,992	-95,552	0,135	0,026
-436,978	800,000	0,067	0,178
-435,963	-200,000	0,011	0,082
-434,949	198,132	-0,115	-0,128
-433,934	332,264	0,026	-0,036
-432,919	-200,000	0,004	-0,063
-431,905	305,389	0,036	-0,049
-430,890	78,458	0,042	-0,033
-429,876	322,407	-0,062	0,087
-428,861	800,000	0,044	-0,133
-427,846	-46,466	0,055	0,020
-426,832	-200,000	0,004	-0,048
-425,817	-200,000	0,001	0,094
-424,803	-176,718	0,038	0,001
-423,788	800,000	-0,036	0,074
-422,773	502,701	0,021	0,036
-421,759	-3,226	-0,048	0,024
-420,744	48,298	0,100	0,068
-419,730	69,198	-0,090	0,068
-418,715	148,415	0,020	-0,020
-417,701	-200,000	-0,010	0,032
-416,686	-145,654	-0,063	-0,004
-415,671	-108,277	0,122	0,019
-414,657	455,163	-0,057	-0,093
-413,642	28,532	0,092	-0,056
-412,628	-33,792	-0,037	0,015
-411,613	-111,077	-0,288	-0,043
-410,598	18,907	0,130	-0,075
-409,584	-200,000	-0,025	0,117
-408,569	-200,000	0,021	0,081
-407,555	158,181	-0,080	-0,081
-406,540	-169,851	0,077	0,002
-405,525	-5,950	0,105	-0,052
-404,511	-200,000	0,000	-0,059
-403,496	84,736	-0,072	-0,058
-402,482	-200,000	-0,001	0,004
-401,467	-9,700	0,120	-0,058
-400,452	315,899	-0,005	0,007
-399,438	6,919	-0,052	-0,028
-398,423	132,445	-0,028	0,026
-397,409	-11,972	-0,097	0,046
-396,394	203,888	0,112	0,127
-395,379	-93,339	-0,036	-0,007
-394,365	187,621	0,024	-0,026
-393,350	800,000	0,034	0,082
-392,336	422,493	0,080	0,125
-391,321	19,255	-0,100	0,058
-390,306	800,000	-0,039	-0,096
-389,292	29,485	0,083	0,051
-388,277	-128,905	0,047	0,005
-387,263	-36,116	-0,039	0,015
-386,248	53,896	0,070	-0,049
-385,233	651,039	-0,039	0,074
-384,219	-90,310	-0,158	-0,033
-383,204	342,600	-0,043	-0,062
-382,190	-200,000	0,007	-0,102
-381,175	42,849	0,076	-0,050
-380,160	-135,099	0,070	0,006
-379,146	370,407	0,126	0,187
-378,131	87,930	-0,084	0,068
-377,117	-25,100	0,015	0,006
-376,102	800,000	-0,030	-0,085
-375,088	4,153	0,060	0,032
-374,073	43,095	-0,055	-0,036
-373,058	800,000	0,052	0,109
-372,044	-94,755	-0,117	-0,023
-371,029	800,000	-0,048	0,123
-370,015	-165,094	0,093	0,003
-369,000	53,623	-0,083	-0,058
-367,985	143,251	-0,066	-0,064
-366,971	306,461	-0,010	-0,014
-365,956	-91,904	0,119	-0,024
-364,942	-200,000	0,001	0,050
-363,927	135,082	0,041	-0,039
-362,912	23,192	-0,083	-0,049
-361,898	-200,000	-0,050	-0,172
-360,883	-135,056	-0,054	0,005
-359,869	188,514	0,023	-0,025
-358,854	210,993	-0,026	-0,030
-357,839	77,071	-0,095	0,074
-356,825	800,000	-0,007	0,015
-355,810	800,000	0,049	0,120
-354,796	-39,210	-0,047	0,018
-353,781	-76,724	-0,043	-0,011
-352,766	-200,000	-0,034	-0,108
-351,752	62,757	0,167	-0,121
-350,737	-36,934	0,072	0,028
-349,723	800,000	0,066	0,163
-348,708	-45,686	0,036	0,013
-347,693	-200,000	-0,018	-0,083
-346,679	-32,383	-0,075	0,030
-345,664	590,119	-0,015	-0,027
-344,650	-200,000	0,002	0,063
-343,635	467,779	0,065	0,107
-342,620	-68,666	-0,084	-0,024
-341,606	35,178	-0,060	0,038
-340,591	-7,719	0,043	0,021
-339,577	-163,598	0,134	-0,004
-338,562	-200,000	0,001	-0,064
-337,548	-157,123	0,094	-0,004
-336,533	-42,896	0,198	0,073
-335,518	800,000	0,039	-0,108
-334,504	-66,660	0,100	0,029
-333,489	189,042	-0,118	-0,128
-332,475	-95,030	-0,162	0,032
-331,460	93,986	0,035	-0,029
-330,445	419,653	-0,023	-0,035
-329,431	120,480	0,073	0,066
-328,416	800,000	0,023	0,062
-327,402	-200,000	-0,012	0,109
-326,387	593,567	0,045	-0,080
-325,372	255,486	0,069	-0,086
-324,358	-44,901	-0,205	-0,074
-323,343	-200,000	-0,024	-0,109
-322,329	-48,559	0,139	-0,048
-321,314	-200,000	0,027	0,102
-320,299	334,282	0,064	0,090
-319,285	-97,574	-0,054	0,010
-318,270	-101,082	0,101	0,018
-317,256	69,971	-0,077	-0,057
-316,241	-200,000	0,005	-0,027
-315,226	-80,394	0,212	-0,051
-314,212	-200,000	-0,017	0,145
-313,197	-64,432	-0,059	0,017
-312,183	10,172	-0,039	-0,021
-311,168	776,855	0,019	-0,037
-310,153	-200,000	-0,004	-0,056
-309,139	-72,761	-0,130	-0,035
-308,124	800,000	-0,032	0,073
-307,110	-200,000	0,068	0,000
-306,095	342,129	0,076	0,108
-305,080	800,000	-0,042	0,104
-304,066	-109,847	-0,149	-0,022
-303,051	591,946	0,052	-0,094
-302,037	-200,000	0,010	0,090
-301,022	27,649	0,109	0,066
-300,008	256,792	-0,100	0,125
-298,993	-74,849	0,181	-0,047
-297,978	225,872	-0,052	0,061
-296,964	478,024	-0,021	0,035
-295,949	-61,407	0,141	0,043
-294,935	800,000	-0,053	-0,140
-293,920	-133,141	0,081	-0,007
-292,905	327,855	0,060	-0,084
-291,891	688,509	-0,047	0,090
-290,876	-40,658	-0,026	0,010
-289,862	741,954	0,050	-0,098
-288,847	-56,712	-0,139	-0,044
-287,832	447,698	-0,028	-0,045
-286,818	-200,000	-0,030	0,099
-285,803	-84,152	0,151	0,034
-284,789	207,030	-0,041	-0,047
-283,774	172,761	0,025	0,026
-282,759	-200,000	0,002	-0,059
-281,745	800,000	0,031	-0,075
-280,730	-66,699	0,103	0,029
-279,716	-200,000	0,003	0,063
-278,701	-200,000	-0,038	0,138
-277,686	193,040	0,064	0,071
-276,672	800,000	0,061	0,168
-275,657	134,878	0,080	0,075
-274,643	-200,000	-0,035	-0,123
-273,628	-200,000	-0,034	-0,152
-272,613	800,000	-0,042	-0,119
-271,599	23,305	0,105	-0,062
-270,584	-200,000	0,011	0,087
-269,570	672,731	0,052	0,099
-268,555	520,934	0,062	0,105
-267,540	-200,000	-0,002	0,053
-266,526	-91,242	-0,025	0,005
-265,511	490,374	-0,034	-0,056
-264,497	-23,363	-0,107	0,046
-263,482	800,000	0,039	0,090
-262,467	-200,000	-0,011	0,045
-261,453	-200,000	0,028	-0,119
-260,438	56,312	0,041	-0,029
-259,424	-200,000	0,006	0,034
-258,409	-110,272	-0,050	0,007
-257,395	-68,070	-0,145	-0,041
-256,380	47,018	0,059	0,039
-255,365	-200,000	0,036	0,125
-254,351	-106,483	-0,096	-0,015
-253,336	-200,000	-0,015	-0,209
-252,322	403,818	-0,056	-0,085
-251,307	-200,000	-0,014	-0,130
-250,292	385,955	-0,064	0,096
-249,278	-39,983	0,011	0,004
-248,263	36,556	0,046	-0,029
-247,249	98,727	-0,081	0,067
-246,234	-16,074	0,013	-0,006
-245,219	22,396	-0,077	-0,045
-244,205	-143,404	-0,097	0,007
-243,190	800,000	0,064	0,136
-242,176	441,601	-0,093	-0,148
-241,161	680,782	0,020	-0,038
-240,146	800,000	-0,048	-0,097
-239,132	800,000	-0,007	0,014
-238,117	800,000	0,040	-0,102
-237,103	-200,000	0,022	-0,125
-236,088	4,192	0,015	-0,008
-235,073	99,578	0,162	0,136
-234,059	800,000	-0,045	0,123
-233,044	282,613	-0,063	0,082
-232,030	-200,000	-0,022	-0,076
-231,015	142,745	-0,165	-0,159
-230,000	-30,028	-0,137	0,056
-228,986	63,594	-0,045	0,033
-227,971	67,902	-0,067	-0,050
-226,957	34,663	-0,123	-0,078
-225,942	154,721	0,053	-0,052
-224,927	126,620	0,088	-0,080
-223,913	-200,000	0,020	-0,177
-222,898	318,021	-0,089	-0,122
-221,884	-200,000	-0,005	-0,130
-220,869	-103,806	0,044	0,007
-219,855	35,624	-0,055	0,035
-218,840	-55,054	0,073	0,024
-217,825	-200,000	0,005	0,023
-216,811	-78,601	-0,028	0,007
-215,796	800,000	-0,031	-0,080
-214,782	-200,000	0,014	0,048
-213,767	-200,000	0,010	0,095
-212,752	735,300	-0,068	0,133
-211,738	137,175	0,061	0,058
-210,723	800,000	-0,042	-0,104
-209,709	-157,603	0,077	0,003
-208,694	-200,000	0,019	-0,077
-207,679	239,466	-0,042	0,050
-206,665	36,021	-0,070	-0,045
-205,650	-85,093	0,015	-0,003
-204,636	-200,000	0,020	0,143
-203,621	25,865	-0,075	-0,045
-202,606	-7,389	0,115	0,056
-201,592	26,965	-0,107	-0,065
-200,577	-149,311	-0,134	-0,008
-199,563	-112,049	0,141	-0,020
-198,548	125,697	0,057	-0,052
-197,533	192,901	-0,113	0,124
-196,519	800,000	0,028	0,078
-195,504	-54,855	-0,066	0,021
-194,490	-200,000	-0,015	0,055
-193,475	-60,529	0,080	-0,024
-192,460	2,017	0,068	-0,036
-191,446	-200,000	-0,008	-0,037
-190,431	179,769	-0,113	0,120
-189,417	-200,000	0,018	0,090
-188,402	-113,980	-0,089	0,012
-187,387	-78,230	0,077	-0,019
-186,373	506,790	-0,077	-0,129
-185,358	-69,467	0,088	-0,024
-184,344	-79,238	-0,052	0,013
-183,329	151,228	0,071	0,069
-182,315	800,000	0,033	-0,075
-181,300	-17,380	-0,092	0,042
-180,285	-200,000	-0,026	-0,094
-179,271	602,479	0,036	-0,065
-178,256	-200,000	-0,017	0,120
-177,242	800,000	0,014	0,040
-176,227	132,438	0,029	-0,027
-175,212	-200,000	0,007	0,111
-174,198	367,937	-0,028	0,041
-173,183	800,000	-0,038	-0,110
-172,169	-149,496	-0,040	0,002
-171,154	-53,860	-0,019	0,006
-170,139	-200,000	-0,004	0,102
-169,125	-200,000	0,054	0,227
-168,110	49,666	-0,018	0,012
-167,096	-71,986	0,076	0,020
-166,081	800,000	-0,030	0,069
-165,066	-200,000	0,039	-0,126
-164,052	-56,907	0,043	0,013
-163,037	-55,170	-0,153	-0,049
-162,023	-200,000	0,005	-0,087
-161,008	362,281	-0,020	-0,029
-159,993	21,215	-0,224	0,131
-158,979	758,157	0,051	0,100
-157,964	598,236	-0,115	-0,206
-156,950	-200,000	-0,005	-0,036
-155,935	-200,000	0,008	0,117
-154,920	-200,000	0,014	-0,111
-153,906	-159,183	0,046	0,002
-152,891	-20,879	0,061	-0,027
-151,877	256,339	0,040	-0,049
-150,862	181,525	-0,053	-0,056
-149,847	-87,251	0,194	-0,042
-148,833	586,023	0,071	0,126
-147,818	-168,547	0,033	-0,001
-146,804	12,881	0,083	0,046
-145,789	-153,960	0,031	0,001
-144,775	-31,101	0,083	0,034
-143,760	-200,000	-0,025	-0,121
-142,745	800,000	0,041	-0,105
-141,731	800,000	-0,016	0,046
-140,716	800,000	-0,052	0,112
-139,702	800,000	-0,045	0,104
-138,687	-19,445	-0,023	-0,010
-137,672	233,090	0,123	0,146
-136,658	20,235	-0,106	0,061
-135,643	800,000	-0,066	-0,139
-134,629	-41,450	0,134	-0,050
-133,614	-200,000	0,000	-0,093
-132,599	26,833	0,058	0,035
-131,585	5,822	0,098	-0,052
-130,570	-200,000	0,001	-0,063
-129,556	800,000	-0,031	-0,074
-128,541	-51,903	-0,154	0,051
-127,526	61,849	-0,049	0,035
-126,512	92,889	-0,090	-0,073
-125,497	84,818	-0,074	-0,058
-124,483	800,000	0,018	0,053
-123,468	53,911	-0,121	0,084
-122,453	366,667	0,030	-0,043
-121,439	168,451	0,015	-0,015
-120,424	49,655	0,106	-0,072
-119,410	-200,000	-0,014	0,094
