DTS Sentinel unit serial number:	SN410029Multiplexer serial number:	ORYXHardware model number:	OX2-SRSoftware version number:	ORYX F/W v4,00 Oryx Data Collector v3.7.2.0data status	okinstallation	B5 Nyhavnadifferential loss correction	single-endedforward channel	channel 2reverse channel	N/Adate	2023/12/12time	23:12:13forward acquisition time	300,00reverse acquisition time	0,00gamma	499,1914k internal	0,3158k external	0,3158temperature offset calibration	1,0000default loss term (dB/km)	0,3820temperature slope calibration	1,0000multiplexer offset coefficient	1,0000multiplexer slope coefficient	1,0000fibre end	0,00T internal ref (°C)	14,50T ext. ref 1 (°C)	-2,05T ext. ref 2 (°C)	-2,37length (m)	temperature (°C)	Stokes	anti-Stokes-744,400	81,699	0,086	-0,068
-743,385	-67,370	-0,304	-0,087
-742,371	-123,487	0,261	0,030
-741,356	-118,235	-0,135	0,018
-740,342	-200,000	-0,011	0,137
-739,327	-128,401	-0,404	-0,042
-738,312	-44,186	0,115	0,042
-737,298	-183,699	-0,508	0,006
-736,283	143,259	0,071	0,070
-735,269	-98,272	-0,280	0,052
-734,254	-200,000	-0,004	0,154
-733,239	-41,713	-0,389	-0,146
-732,225	-88,725	0,147	0,032
-731,210	800,000	0,042	0,106
-730,196	-86,205	-0,079	-0,018
-729,181	224,930	-0,046	-0,054
-728,167	2,545	0,066	0,035
-727,152	-75,960	-0,092	-0,024
-726,137	692,711	-0,042	0,082
-725,123	-142,802	-0,086	-0,006
-724,108	800,000	0,050	-0,139
-723,094	439,799	-0,032	-0,051
-722,079	-200,000	-0,022	0,111
-721,064	-102,278	0,087	-0,015
-720,050	-4,676	-0,122	-0,062
-719,035	-21,145	0,007	0,003
-718,021	-200,000	-0,010	0,048
-717,006	-200,000	0,010	-0,043
-715,991	-200,000	0,003	-0,092
-714,977	53,087	-0,103	0,072
-713,962	800,000	-0,026	-0,060
-712,948	152,443	0,057	0,058
-711,933	408,273	0,066	-0,104
-710,918	-107,531	-0,066	-0,011
-709,904	-99,102	-0,025	0,005
-708,889	15,620	-0,015	0,009
-707,875	800,000	0,050	-0,121
-706,860	217,212	0,039	0,046
-705,845	-17,409	0,128	-0,059
-704,831	-131,862	0,077	0,007
-703,816	233,376	0,024	-0,029
-702,802	-73,517	-0,084	0,022
-701,787	223,711	-0,045	-0,053
-700,772	-200,000	0,007	-0,179
-699,758	-200,000	0,008	-0,081
-698,743	53,757	-0,124	-0,088
-697,729	-200,000	-0,001	0,104
-696,714	40,794	-0,027	-0,018
-695,699	23,913	-0,016	0,010
-694,685	36,776	-0,066	0,043
-693,670	-73,911	-0,075	0,020
-692,656	3,319	0,052	-0,028
-691,641	-89,383	0,138	0,030
-690,627	-200,000	0,008	0,096
-689,612	121,871	0,067	-0,061
-688,597	800,000	0,034	0,100
-687,583	-200,000	-0,019	-0,064
-686,568	174,887	0,187	-0,199
-685,554	-200,000	-0,012	-0,043
-684,539	-62,186	-0,101	0,031
-683,524	255,708	0,129	0,162
-682,510	148,263	0,020	-0,020
-681,495	278,607	-0,085	-0,111
-680,481	-200,000	-0,003	-0,092
-679,466	-33,032	-0,125	0,051
-678,451	-200,000	0,022	-0,088
-677,437	-200,000	-0,004	-0,102
-676,422	36,094	0,039	-0,025
-675,408	2,473	0,087	0,046
-674,393	119,925	-0,066	-0,060
-673,378	365,854	0,047	-0,070
-672,364	-117,097	0,041	0,005
-671,349	17,902	-0,051	-0,030
-670,335	16,746	0,094	-0,055
-669,320	-62,710	0,133	0,040
-668,305	-200,000	-0,014	0,053
-667,291	662,372	-0,112	-0,214
-666,276	-32,089	-0,124	-0,051
-665,262	136,735	-0,045	-0,043
-664,247	219,607	-0,038	0,044
-663,232	-63,377	-0,103	0,031
-662,218	59,462	0,056	-0,041
-661,203	800,000	0,026	0,063
-660,189	800,000	0,026	0,057
-659,174	-38,157	0,028	-0,011
-658,159	-200,000	0,005	0,023
-657,145	-200,000	-0,000	-0,046
-656,130	632,140	0,046	-0,086
-655,116	329,105	0,065	0,092
-654,101	431,486	0,019	0,031
-653,086	-78,729	-0,123	-0,031
-652,072	501,812	0,048	-0,081
-651,057	72,787	-0,138	0,106
-650,043	800,000	-0,011	-0,030
-649,028	800,000	0,030	-0,085
-648,014	468,867	0,077	0,128
-646,999	321,867	0,100	-0,140
-645,984	-11,724	-0,044	0,021
-644,970	-3,673	-0,146	0,074
-643,955	315,689	-0,025	-0,035
-642,941	-200,000	-0,026	-0,091
-641,926	-149,994	-0,091	-0,005
-640,911	172,633	0,029	0,031
-639,897	77,021	-0,059	-0,046
-638,882	-79,193	-0,112	0,028
-637,868	800,000	-0,020	0,041
-636,853	-127,242	-0,018	0,002
-635,838	-158,685	0,097	-0,004
-634,824	8,189	-0,092	-0,051
-633,809	800,000	0,036	-0,091
-632,795	-15,393	0,117	0,055
-631,780	-200,000	-0,018	0,063
-630,765	-124,747	-0,114	-0,013
-629,751	-200,000	-0,024	-0,102
-628,736	-11,655	0,106	0,051
-627,722	800,000	0,039	-0,125
-626,707	-200,000	-0,022	-0,109
-625,692	483,859	0,047	0,079
-624,678	-74,097	-0,080	0,021
-623,663	130,504	-0,080	-0,076
-622,649	555,761	-0,032	-0,057
-621,634	-78,747	-0,062	0,015
-620,619	-200,000	-0,004	-0,056
-619,605	142,275	-0,084	-0,082
-618,590	15,867	-0,031	-0,018
-617,576	-86,960	-0,170	-0,038
-616,561	300,169	0,030	0,041
-615,546	-200,000	-0,010	-0,045
-614,532	-53,040	-0,116	-0,039
-613,517	800,000	-0,013	-0,034
-612,503	-200,000	0,036	-0,183
-611,488	-126,193	0,208	0,023
-610,474	-99,590	-0,117	-0,021
-609,459	324,142	0,038	-0,053
-608,444	262,381	-0,041	0,052
-607,430	-138,643	-0,048	-0,004
-606,415	-53,246	-0,088	0,029
-605,401	-200,000	0,007	-0,085
-604,386	157,373	-0,053	0,054
-603,371	800,000	-0,040	0,119
-602,357	-200,000	-0,013	-0,064
-601,342	155,119	-0,117	-0,118
-600,328	571,080	0,034	-0,061
-599,313	-200,000	0,003	-0,089
-598,298	800,000	0,053	-0,129
-597,284	2,786	-0,092	-0,049
-596,269	-200,000	0,003	-0,078
-595,255	172,883	-0,097	-0,102
-594,240	800,000	-0,020	-0,054
-593,225	800,000	-0,021	-0,052
-592,211	211,644	-0,067	-0,077
-591,196	4,550	-0,027	0,014
-590,182	-65,264	-0,027	0,008
-589,167	800,000	-0,035	0,106
-588,152	-74,579	-0,063	-0,016
-587,138	423,939	0,043	0,069
-586,123	-16,047	-0,127	-0,059
-585,109	394,993	0,046	0,071
-584,094	-28,343	-0,132	-0,056
-583,079	58,557	0,085	0,061
-582,065	-46,956	0,137	0,049
-581,050	-95,884	0,101	-0,020
-580,036	-200,000	-0,016	0,084
-579,021	92,058	-0,122	-0,100
-578,006	279,251	-0,034	0,045
-576,992	-40,572	-0,055	0,021
-575,977	594,152	0,015	0,027
-574,963	134,747	-0,051	-0,049
-573,948	800,000	0,023	0,070
-572,934	-4,011	-0,046	-0,023
-571,919	295,966	-0,063	-0,085
-570,904	70,358	-0,089	0,067
-569,890	-104,908	-0,137	0,023
-568,875	-200,000	-0,001	0,061
-567,861	-106,377	-0,014	0,002
-566,846	-155,284	0,106	0,005
-565,831	800,000	-0,021	0,044
-564,817	800,000	-0,034	-0,097
-563,802	28,212	-0,058	-0,036
-562,788	-127,965	0,102	-0,011
-561,773	-200,000	-0,053	0,189
-560,758	275,640	0,077	0,101
-559,744	800,000	-0,027	-0,078
-558,729	800,000	0,021	0,046
-557,715	438,760	-0,065	-0,104
-556,700	51,329	0,082	-0,057
-555,685	696,343	-0,021	0,040
-554,671	544,367	0,008	-0,014
-553,656	3,309	-0,087	-0,046
-552,642	-200,000	-0,015	0,179
-551,627	800,000	0,022	0,047
-550,612	-200,000	0,004	-0,094
-549,598	22,634	-0,058	-0,035
-548,583	-200,000	-0,005	0,063
-547,569	440,462	-0,046	-0,073
-546,554	-200,000	0,015	0,105
-545,539	-200,000	0,007	0,027
-544,525	131,328	0,086	0,081
-543,510	-2,867	-0,070	0,036
-542,496	83,293	-0,019	-0,015
-541,481	-200,000	-0,010	-0,057
-540,466	-200,000	-0,010	-0,067
-539,452	-200,000	-0,033	0,131
-538,437	116,768	0,141	0,127
-537,423	-194,618	0,047	-0,000
-536,408	-66,360	-0,091	0,026
-535,393	800,000	0,038	-0,086
-534,379	800,000	0,031	-0,080
-533,364	800,000	0,021	0,063
-532,350	739,754	0,048	0,094
-531,335	-144,389	0,025	0,002
-530,321	155,336	0,027	-0,027
-529,306	230,745	-0,058	-0,070
-528,291	800,000	0,039	-0,098
-527,277	422,374	-0,059	-0,092
-526,262	-200,000	-0,005	0,037
-525,248	288,679	0,031	0,041
-524,233	-81,049	0,069	0,017
-523,218	-200,000	0,001	-0,032
-522,204	800,000	-0,033	-0,091
-521,189	183,070	0,063	0,068
-520,175	104,200	-0,077	0,066
-519,160	-200,000	-0,019	-0,111
-518,145	157,031	0,041	0,042
-517,131	800,000	0,025	-0,068
-516,116	-83,336	0,120	-0,028
-515,102	-43,436	-0,212	-0,078
-514,087	272,754	-0,072	-0,093
-513,072	-200,000	0,019	0,075
-512,058	-200,000	0,031	-0,141
-511,043	-59,094	-0,083	0,026
-510,029	155,714	-0,058	-0,058
-509,014	-200,000	-0,015	0,105
-507,999	-107,251	0,067	0,011
-506,985	208,557	-0,101	0,115
-505,970	-200,000	-0,035	-0,156
-504,956	-95,567	0,036	0,007
-503,941	-200,000	0,013	0,061
-502,926	-8,083	-0,044	0,022
-501,912	800,000	0,065	0,138
-500,897	800,000	0,037	0,097
-499,883	-200,000	0,016	-0,131
-498,868	-129,580	-0,062	0,006
-497,853	-81,993	0,060	0,014
-496,839	-200,000	-0,042	0,194
-495,824	429,906	-0,064	0,101
-494,810	26,173	0,119	0,072
-493,795	-25,314	-0,046	-0,020
-492,781	-143,483	0,032	0,002
-491,766	-22,235	0,052	-0,023
-490,751	-10,071	-0,100	-0,049
-489,737	-200,000	-0,016	0,065
-488,722	-200,000	0,012	0,173
-487,708	-131,065	0,141	0,014
-486,693	739,473	0,032	0,063
-485,678	431,114	-0,119	0,189
-484,664	800,000	0,036	-0,078
-483,649	640,748	-0,028	0,053
-482,635	64,635	-0,083	-0,061
-481,620	-20,313	0,105	-0,047
-480,605	-10,433	0,045	-0,022
-479,591	-126,789	-0,063	0,007
-478,576	197,095	-0,070	-0,078
-477,562	-200,000	-0,025	-0,080
-476,547	-200,000	0,108	-0,000
-475,532	9,531	0,101	-0,056
-474,518	-96,268	0,189	-0,036
-473,503	256,878	0,099	0,125
-472,489	-3,530	-0,046	-0,023
-471,474	407,456	0,075	-0,116
-470,459	-136,777	-0,089	0,007
-469,445	800,000	0,054	0,128
-468,430	138,201	-0,074	-0,071
-467,416	149,290	0,064	-0,063
-466,401	-200,000	0,023	-0,080
-465,386	-200,000	0,015	-0,081
-464,372	611,117	0,037	0,068
-463,357	448,239	-0,055	-0,089
-462,343	-71,885	-0,056	-0,015
-461,328	158,170	-0,048	0,049
-460,313	-40,814	0,038	-0,014
-459,299	-200,000	-0,003	-0,018
-458,284	255,067	0,064	0,080
-457,270	-200,000	-0,010	0,068
-456,255	-47,436	-0,100	-0,035
-455,241	-200,000	-0,014	-0,131
-454,226	154,572	0,098	0,099
-453,211	150,211	0,045	-0,045
-452,197	-134,389	0,120	0,011
-451,182	-95,251	-0,056	-0,011
-450,168	-24,152	-0,035	-0,015
-449,153	-72,012	-0,136	0,037
-448,138	-200,000	0,021	0,098
-447,124	-200,000	0,003	0,231
-446,109	800,000	-0,037	0,076
-445,095	140,951	0,108	-0,104
-444,080	41,264	0,046	-0,030
-443,065	246,192	0,034	-0,041
-442,051	-117,924	0,201	-0,026
-441,036	3,199	-0,061	0,032
-440,022	162,155	0,013	0,013
-439,007	-31,525	-0,090	-0,037
-437,992	-200,000	-0,014	-0,074
-436,978	800,000	0,045	0,123
-435,963	171,786	-0,086	0,090
-434,949	-111,957	-0,105	0,015
-433,934	317,785	0,080	-0,110
-432,919	-56,266	-0,190	-0,061
-431,905	240,761	0,039	-0,047
-430,890	66,765	0,105	-0,078
-429,876	385,339	0,040	-0,061
-428,861	-139,343	-0,061	0,005
-427,846	-200,000	0,009	-0,098
-426,832	-200,000	-0,004	0,022
-425,817	-20,218	-0,151	0,067
-424,803	42,186	-0,056	-0,037
-423,788	-200,000	-0,000	-0,134
-422,773	-200,000	0,017	0,093
-421,759	49,345	-0,040	0,027
-420,744	-200,000	-0,011	0,046
-419,730	-200,000	0,006	-0,022
-418,715	-200,000	-0,018	-0,118
-417,701	793,107	-0,021	-0,043
-416,686	-86,440	0,043	-0,010
-415,671	-6,636	0,122	-0,060
-414,657	129,775	0,065	0,061
-413,642	325,548	-0,051	-0,071
-412,628	160,567	-0,104	-0,106
-411,613	144,255	-0,037	-0,035
-410,598	-63,093	-0,094	0,028
-409,584	525,143	0,072	0,124
-408,569	-200,000	0,034	0,140
-407,555	-80,843	0,080	0,019
-406,540	438,727	-0,027	-0,043
-405,525	-145,082	-0,027	-0,002
-404,511	-38,383	0,132	0,051
-403,496	156,939	-0,112	-0,112
-402,482	-200,000	0,010	-0,044
-401,467	564,709	0,052	0,092
-400,452	539,430	-0,067	0,117
-399,438	-200,000	0,017	0,068
-398,423	-15,795	-0,111	0,051
-397,409	-200,000	0,001	0,012
-396,394	84,691	-0,085	-0,067
-395,379	78,420	0,103	0,080
-394,365	800,000	-0,025	0,062
-393,350	-200,000	-0,017	-0,061
-392,336	109,081	-0,080	-0,069
-391,321	246,774	0,007	-0,008
-390,306	-92,003	-0,081	0,017
-389,292	-103,697	-0,128	0,022
-388,277	-34,688	0,169	-0,067
-387,263	194,539	0,058	0,064
-386,248	-200,000	0,014	0,099
-385,233	504,968	-0,045	0,076
-384,219	-196,006	-0,081	0,000
-383,204	800,000	-0,037	-0,095
-382,190	800,000	-0,033	0,070
-381,175	-151,187	0,068	0,004
-380,160	2,507	-0,061	-0,032
-379,146	-27,908	0,129	0,054
-378,131	7,102	-0,111	0,060
-377,117	-72,655	0,105	-0,028
-376,102	-200,000	-0,036	-0,121
-375,088	-200,000	0,029	-0,154
-374,073	800,000	0,027	0,068
-373,058	-142,592	0,190	0,013
-372,044	70,818	0,025	-0,019
-371,029	-43,603	-0,028	-0,010
-370,015	497,440	0,058	0,097
-369,000	278,416	-0,082	-0,107
-367,985	-93,173	-0,158	-0,032
-366,971	30,970	0,081	-0,051
-365,956	-146,777	0,102	-0,006
-364,942	-18,056	-0,080	-0,036
-363,927	800,000	-0,045	0,121
-362,912	-200,000	-0,043	0,149
-361,898	11,135	-0,022	-0,012
-360,883	321,161	-0,050	0,069
-359,869	-200,000	0,006	-0,076
-358,854	-176,690	0,116	-0,002
-357,839	95,712	0,026	-0,022
-356,825	-200,000	0,037	0,136
-355,810	168,616	-0,062	0,064
-354,796	-22,304	0,037	-0,016
-353,781	-200,000	-0,011	-0,092
-352,766	345,334	0,061	-0,087
-351,752	-200,000	0,002	0,113
-350,737	192,048	0,013	-0,014
-349,723	96,040	-0,042	-0,035
-348,708	-74,875	-0,068	0,018
-347,693	133,290	0,116	-0,109
-346,679	-175,747	-0,144	-0,003
-345,664	800,000	0,015	-0,030
-344,650	613,666	0,069	0,126
-343,635	95,981	0,079	-0,065
-342,620	83,649	-0,024	0,019
-341,606	-200,000	0,002	0,120
-340,591	-38,345	0,051	0,020
-339,577	79,332	0,057	0,044
-338,562	-74,216	-0,117	-0,031
-337,548	-123,287	0,021	0,002
-336,533	11,351	0,114	0,063
-335,518	-89,912	0,084	0,018
-334,504	-200,000	-0,014	-0,046
-333,489	-200,000	-0,019	0,140
-332,475	63,491	0,062	0,045
-331,460	492,646	0,098	-0,164
-330,445	-100,859	-0,182	-0,032
-329,431	499,537	0,072	0,120
-328,416	77,103	0,089	0,069
-327,402	290,582	-0,082	-0,108
-326,387	86,349	-0,033	-0,026
-325,372	-17,938	-0,055	-0,025
-324,358	83,678	-0,085	-0,067
-323,343	-12,284	-0,051	-0,024
-322,329	335,929	0,099	-0,140
-321,314	-30,854	-0,059	0,024
-320,299	800,000	-0,056	0,161
-319,285	28,089	-0,069	0,042
-318,270	-48,983	-0,049	-0,017
-317,256	800,000	-0,043	-0,104
-316,241	800,000	0,030	-0,091
-315,226	-97,585	0,065	0,012
-314,212	-107,759	0,040	0,006
-313,197	-200,000	0,029	0,151
-312,183	-63,236	-0,019	-0,006
-311,168	-95,023	-0,043	0,008
-310,153	800,000	0,003	-0,007
-309,139	101,074	-0,049	0,041
-308,124	-200,000	0,005	-0,027
-307,110	800,000	-0,013	0,028
-306,095	483,778	0,072	0,119
-305,080	33,164	-0,050	-0,031
-304,066	800,000	-0,022	-0,048
-303,051	543,231	-0,033	0,057
-302,037	472,704	-0,066	0,108
-301,022	58,356	-0,020	0,014
-300,008	-180,681	0,137	-0,002
-298,993	-200,000	-0,005	0,032
-297,978	228,866	-0,047	0,055
-296,964	52,231	0,065	-0,045
-295,949	189,585	0,026	-0,029
-294,935	31,888	0,132	0,082
-293,920	48,237	-0,039	0,026
-292,905	-150,393	0,087	-0,005
-291,891	176,606	-0,029	0,031
-290,876	-200,000	0,005	0,066
-289,862	800,000	0,041	-0,085
-288,847	111,527	-0,106	0,092
-287,832	-121,308	0,119	0,014
-286,818	79,629	0,069	-0,054
-285,803	-200,000	-0,022	-0,097
-284,789	68,193	0,114	-0,085
-283,774	38,831	0,065	0,042
-282,759	289,079	-0,039	-0,051
-281,745	-200,000	0,011	-0,064
-280,730	-33,091	-0,031	-0,012
-279,716	-200,000	-0,005	0,017
-278,701	725,459	-0,013	0,025
-277,686	800,000	0,036	0,107
-276,672	249,912	0,050	0,061
-275,657	-132,299	0,037	0,003
-274,643	-200,000	0,001	0,153
-273,628	-29,598	-0,135	-0,056
-272,613	-12,349	0,060	0,028
-271,599	-146,337	0,113	-0,007
-270,584	-74,355	0,073	0,019
-269,570	800,000	0,031	0,085
-268,555	30,241	0,056	-0,035
-267,540	739,153	0,052	-0,102
-266,526	-200,000	0,025	-0,089
-265,511	-132,834	0,102	-0,009
-264,497	125,904	0,038	-0,035
-263,482	-200,000	-0,007	0,117
-262,467	-200,000	-0,023	-0,132
-261,453	-109,844	-0,013	0,002
-260,438	-200,000	-0,008	0,040
-259,424	725,124	0,035	0,068
-258,409	-168,705	0,059	0,002
-257,395	800,000	0,023	-0,073
-256,380	-120,972	0,098	-0,012
-255,365	800,000	-0,040	0,095
-254,351	-146,922	0,091	0,006
-253,336	-98,790	-0,091	-0,017
-252,322	-124,260	-0,044	0,005
-251,307	30,877	0,038	0,023
-250,292	27,220	-0,088	-0,053
-249,278	-200,000	-0,017	-0,082
-248,263	-200,000	-0,018	0,085
-247,249	-68,129	0,169	0,047
-246,234	-200,000	-0,031	-0,130
-245,219	-48,821	-0,083	0,029
-244,205	-158,730	-0,128	-0,005
-243,190	-18,243	0,120	-0,054
-242,176	-32,846	-0,068	-0,027
-241,161	-200,000	0,002	0,024
-240,146	-91,994	0,106	0,022
-239,132	185,259	0,039	0,042
-238,117	414,649	-0,027	-0,042
-237,103	104,634	0,139	-0,118
-236,088	800,000	0,017	-0,045
-235,073	-79,181	0,141	0,034
-234,059	334,098	0,027	0,038
-233,044	396,190	-0,069	0,104
-232,030	-56,301	0,038	-0,012
-231,015	-200,000	0,010	-0,078
-230,000	164,846	0,046	-0,047
-228,986	743,419	0,044	0,086
-227,971	800,000	-0,033	-0,105
-226,957	398,208	0,066	0,100
-225,942	677,928	0,036	0,067
-224,927	-200,000	-0,002	0,148
-223,913	156,274	0,052	-0,052
-222,898	-200,000	-0,028	-0,119
-221,884	-195,012	-0,126	-0,001
-220,869	-11,689	0,067	0,031
-219,855	525,259	0,099	0,169
-218,840	25,249	-0,017	0,010
-217,825	11,176	-0,086	-0,047
-216,811	-200,000	-0,011	0,042
-215,796	2,527	-0,058	0,030
-214,782	-54,110	-0,077	-0,025
-213,767	154,469	-0,092	0,091
-212,752	800,000	0,055	0,118
-211,738	-55,861	0,079	0,025
-210,723	-200,000	-0,006	0,119
-209,709	95,659	0,082	-0,068
-208,694	-200,000	-0,006	-0,205
-207,679	138,728	-0,093	-0,088
-206,665	-20,392	0,051	-0,022
-205,650	-100,625	0,108	-0,019
-204,636	-178,492	0,069	-0,001
-203,621	383,869	0,006	-0,009
-202,606	198,474	-0,102	-0,112
-201,592	55,511	-0,137	-0,095
-200,577	112,970	0,087	0,076
-199,563	-200,000	0,011	-0,148
-198,548	800,000	-0,048	0,109
-197,533	-117,411	-0,050	0,006
-196,519	-200,000	0,013	-0,048
-195,504	-158,737	-0,053	0,002
-194,490	800,000	-0,043	-0,103
-193,475	-7,909	-0,080	-0,039
-192,460	505,472	0,105	-0,176
-191,446	-66,371	-0,060	-0,017
-190,431	-135,891	0,017	-0,001
-189,417	1,144	-0,060	0,031
-188,402	-200,000	-0,028	0,166
-187,387	-200,000	0,012	-0,112
-186,373	-176,223	-0,103	0,002
-185,358	-71,878	0,066	-0,018
-184,344	800,000	0,018	-0,045
-183,329	268,197	0,045	-0,057
-182,315	-36,693	0,147	-0,057
-181,300	-72,379	-0,151	-0,040
-180,285	-200,000	0,009	-0,070
-179,271	800,000	0,059	0,183
-178,256	-109,125	-0,098	-0,015
-177,242	-121,011	0,087	0,010
-176,227	-200,000	-0,004	-0,061
-175,212	124,252	-0,057	0,052
-174,198	-200,000	-0,042	0,168
-173,183	-200,000	0,003	-0,012
-172,169	17,171	-0,132	0,075
-171,154	368,417	0,016	0,023
-170,139	-200,000	0,011	-0,046
-169,125	-200,000	-0,019	-0,062
-168,110	-176,292	0,049	-0,001
-167,096	-74,547	0,072	-0,018
-166,081	107,146	0,036	0,031
-165,066	21,722	0,061	0,036
-164,052	146,807	-0,027	-0,026
-163,037	42,644	0,082	0,054
-162,023	-200,000	-0,038	0,133
-161,008	-77,864	0,074	-0,018
-159,993	-200,000	-0,001	0,119
-158,979	299,862	-0,079	0,106
-157,964	234,993	0,070	-0,083
-156,950	594,615	-0,075	0,134
-155,935	-161,607	0,124	0,004
-154,920	-118,834	0,161	-0,020
-153,906	169,975	0,047	0,049
-152,891	-103,951	0,148	0,025
-151,877	-196,187	0,121	-0,001
-150,862	-62,723	-0,165	-0,049
-149,847	113,902	0,100	0,088
-148,833	-21,476	0,076	-0,033
-147,818	-157,578	0,042	-0,002
-146,804	-200,000	0,010	-0,036
-145,789	375,656	0,026	-0,039
-144,775	-183,026	0,058	0,001
-143,760	800,000	-0,018	0,038
-142,745	13,958	0,083	0,046
-141,731	-200,000	-0,022	0,172
-140,716	800,000	0,089	0,179
-139,702	-200,000	0,019	0,083
-138,687	-68,242	-0,057	-0,016
-137,672	-47,178	-0,042	-0,015
-136,658	-200,000	-0,009	-0,036
-135,643	85,485	-0,164	-0,130
-134,629	800,000	0,089	-0,198
-133,614	-50,521	0,053	-0,018
-132,599	120,904	-0,050	0,045
-131,585	-25,836	-0,058	-0,025
-130,570	160,108	-0,021	-0,022
-129,556	-9,563	-0,035	-0,017
-128,541	800,000	0,035	-0,074
-127,526	331,083	-0,120	-0,167
-126,512	800,000	0,033	-0,082
-125,497	-200,000	-0,018	0,145
-124,483	125,564	0,059	0,053
-123,468	-87,839	-0,129	0,028
-122,453	6,685	0,037	-0,020
-121,439	800,000	-0,035	-0,096
-120,424	-200,000	-0,030	-0,116
