DTS Sentinel unit serial number:	SN410029Multiplexer serial number:	ORYXHardware model number:	OX2-SRSoftware version number:	ORYX F/W v4,00 Oryx Data Collector v3.7.2.0data status	okinstallation	B5 Nyhavnadifferential loss correction	single-endedforward channel	channel 2reverse channel	N/Adate	2023/12/12time	14:52:13forward acquisition time	300,00reverse acquisition time	0,00gamma	499,1914k internal	0,3157k external	0,3157temperature offset calibration	1,0000default loss term (dB/km)	0,3820temperature slope calibration	1,0000multiplexer offset coefficient	1,0000multiplexer slope coefficient	1,0000fibre end	0,00T internal ref (°C)	15,90T ext. ref 1 (°C)	-0,34T ext. ref 2 (°C)	-0,59length (m)	temperature (°C)	Stokes	anti-Stokes-744,400	-73,735	0,182	-0,048
-743,385	-69,746	-0,282	-0,079
-742,371	55,244	0,149	0,106
-741,356	-108,118	-0,328	0,052
-740,342	-96,277	0,147	0,029
-739,327	-63,529	-0,279	0,084
-738,312	800,000	0,058	-0,131
-737,298	-119,194	-0,274	-0,035
-736,283	6,206	0,215	0,117
-735,269	41,837	-0,334	0,223
-734,254	114,339	0,084	0,075
-733,239	-129,245	-0,514	-0,052
-732,225	-116,956	0,119	0,016
-731,210	394,492	-0,013	-0,020
-730,196	800,000	0,024	-0,056
-729,181	-123,864	0,062	0,007
-728,167	-101,513	-0,087	0,015
-727,152	-68,111	0,095	0,027
-726,137	241,649	-0,008	0,010
-725,123	74,374	-0,050	0,038
-724,108	800,000	-0,038	-0,111
-723,094	-44,898	-0,194	-0,071
-722,079	-49,210	-0,163	0,057
-721,064	732,251	-0,011	-0,022
-720,050	-109,895	-0,141	0,022
-719,035	-102,936	-0,089	-0,015
-718,021	41,892	-0,045	-0,030
-717,006	39,451	-0,128	-0,084
-715,991	230,771	-0,071	-0,086
-714,977	800,000	-0,049	-0,123
-713,962	199,342	0,065	0,073
-712,948	459,966	0,043	-0,071
-711,933	-200,000	-0,003	-0,035
-710,918	123,251	-0,065	-0,060
-709,904	-39,663	-0,034	-0,013
-708,889	-121,815	0,065	-0,008
-707,875	800,000	-0,061	-0,153
-706,860	-94,500	0,089	-0,018
-705,845	-142,632	-0,038	-0,003
-704,831	20,081	-0,033	0,020
-703,816	-200,000	-0,004	-0,058
-702,802	180,362	-0,032	-0,034
-701,787	204,417	0,040	-0,046
-700,772	-136,011	0,221	0,019
-699,758	-200,000	-0,004	0,078
-698,743	270,354	0,046	0,060
-697,729	21,542	0,055	0,033
-696,714	-92,036	0,028	-0,006
-695,699	71,115	-0,130	-0,099
-694,685	800,000	-0,025	0,056
-693,670	800,000	0,013	0,029
-692,656	-200,000	-0,002	-0,053
-691,641	17,500	-0,016	0,009
-690,627	-61,636	-0,027	0,008
-689,612	800,000	0,013	-0,040
-688,597	51,459	-0,072	-0,050
-687,583	800,000	-0,021	-0,059
-686,568	-119,886	0,079	-0,010
-685,554	686,614	0,040	-0,077
-684,539	-40,192	0,105	0,040
-683,524	-3,178	0,119	0,061
-682,510	35,941	-0,107	0,069
-681,495	151,900	0,077	0,078
-680,481	-74,474	-0,039	-0,010
-679,466	242,715	-0,066	0,081
-678,451	-200,000	0,048	0,163
-677,437	-119,614	0,138	-0,017
-676,422	8,187	0,086	-0,048
-675,408	-200,000	0,010	-0,071
-674,393	262,967	0,040	0,051
-673,378	125,423	-0,067	-0,062
-672,364	83,001	0,021	-0,017
-671,349	117,590	-0,053	-0,048
-670,335	-29,520	0,066	-0,028
-669,320	436,413	0,048	0,077
-668,305	-104,306	-0,105	0,018
-667,291	-127,405	0,073	-0,008
-666,276	-192,984	-0,100	0,001
-665,262	-89,918	0,216	-0,046
-664,247	687,728	-0,077	-0,148
-663,232	-44,109	0,103	-0,038
-662,218	-200,000	0,024	0,077
-661,203	-200,000	-0,003	-0,045
-660,189	800,000	0,016	-0,032
-659,174	-50,102	-0,196	0,068
-658,159	168,223	-0,155	-0,163
-657,145	260,181	0,068	-0,087
-656,130	-161,788	0,083	-0,003
-655,116	-200,000	0,015	0,134
-654,101	164,753	-0,057	0,059
-653,086	-138,625	0,014	0,001
-652,072	613,167	-0,078	-0,144
-651,057	800,000	-0,012	-0,025
-650,043	32,212	0,093	-0,059
-649,028	-200,000	0,014	-0,051
-648,014	129,172	-0,028	-0,026
-646,999	800,000	0,020	0,063
-645,984	800,000	-0,029	-0,070
-644,970	-128,039	0,044	-0,005
-643,955	392,618	-0,068	-0,104
-642,941	31,936	-0,097	-0,061
-641,926	291,952	-0,037	0,050
-640,911	-73,179	-0,122	-0,033
-639,897	422,692	-0,015	-0,024
-638,882	-12,457	-0,047	0,022
-637,868	398,930	0,046	-0,070
-636,853	-200,000	-0,032	-0,147
-635,838	800,000	-0,052	-0,129
-634,824	800,000	-0,010	0,026
-633,809	56,367	0,062	0,044
-632,795	-74,777	0,052	-0,014
-631,780	-88,762	-0,098	-0,021
-630,765	-200,000	-0,003	0,077
-629,751	-99,832	-0,048	-0,009
-628,736	-200,000	-0,023	-0,097
-627,722	80,352	-0,105	-0,083
-626,707	291,414	0,054	-0,073
-625,692	-200,000	-0,009	-0,174
-624,678	590,202	0,086	-0,156
-623,663	54,089	0,060	-0,043
-622,649	-200,000	-0,044	-0,155
-621,634	-27,079	-0,102	-0,044
-620,619	3,152	-0,128	-0,068
-619,605	-71,957	0,025	-0,007
-618,590	800,000	0,045	-0,124
-617,576	800,000	-0,055	0,116
-616,561	-158,303	-0,087	-0,004
-615,546	-84,284	-0,089	0,021
-614,532	-200,000	-0,008	0,077
-613,517	-130,913	0,089	0,009
-612,503	800,000	-0,033	0,072
-611,488	188,133	0,152	0,167
-610,474	714,567	-0,030	0,059
-609,459	-1,509	0,058	0,030
-608,444	45,296	-0,059	-0,040
-607,430	-200,000	-0,027	-0,121
-606,415	-200,000	-0,019	-0,077
-605,401	-55,026	0,148	0,049
-604,386	-51,414	0,038	0,013
-603,371	800,000	-0,025	-0,065
-602,357	-68,381	-0,215	0,061
-601,342	800,000	-0,028	-0,074
-600,328	-70,637	-0,218	-0,060
-599,313	800,000	-0,056	-0,118
-598,298	800,000	0,068	-0,160
-597,284	-65,396	0,087	-0,025
-596,269	274,317	-0,062	0,081
-595,255	-200,000	-0,008	0,037
-594,240	800,000	-0,049	-0,106
-593,225	179,732	0,063	-0,068
-592,211	-200,000	-0,004	-0,170
-591,196	-200,000	-0,021	-0,108
-590,182	-146,476	-0,106	-0,007
-589,167	-200,000	-0,011	0,093
-588,152	-63,236	0,128	-0,038
-587,138	232,874	0,013	0,015
-586,123	-82,139	-0,097	-0,023
-585,109	81,959	-0,035	0,027
-584,094	-200,000	0,011	-0,041
-583,079	89,927	0,145	-0,119
-582,065	121,367	-0,026	0,024
-581,050	100,424	0,051	-0,044
-580,036	328,776	0,012	-0,016
-579,021	-141,469	-0,072	0,005
-578,006	-7,819	0,092	-0,045
-576,992	492,860	0,032	-0,054
-575,977	10,210	0,099	-0,055
-574,963	-200,000	0,017	0,061
-573,948	61,152	0,048	0,035
-572,934	-138,552	-0,206	0,016
-571,919	57,202	-0,138	-0,098
-570,904	39,826	0,068	-0,045
-569,890	57,163	0,022	-0,016
-568,875	370,814	-0,080	0,119
-567,861	800,000	0,052	0,129
-566,846	-200,000	-0,014	0,065
-565,831	-107,699	-0,084	0,013
-564,817	243,383	0,065	-0,080
-563,802	-138,593	-0,041	-0,003
-562,788	800,000	0,013	-0,041
-561,773	-87,514	-0,015	0,003
-560,758	-200,000	0,008	0,040
-559,744	-34,338	-0,082	0,033
-558,729	155,414	0,064	-0,065
-557,715	-200,000	-0,007	0,046
-556,700	273,648	-0,094	-0,122
-555,685	333,245	0,043	-0,062
-554,671	48,447	-0,042	0,029
-553,656	416,914	0,090	0,141
-552,642	-39,044	-0,111	0,043
-551,627	442,275	-0,036	-0,058
-550,612	-9,167	-0,058	0,028
-549,598	800,000	0,028	0,072
-548,583	592,343	0,026	0,047
-547,569	86,188	0,153	-0,123
-546,554	800,000	0,021	0,061
-545,539	726,791	-0,022	0,042
-544,525	-200,000	0,010	0,071
-543,510	302,721	-0,055	-0,075
-542,496	614,745	0,056	-0,103
-541,481	-200,000	-0,017	0,079
-540,466	285,316	0,057	-0,075
-539,452	132,526	0,052	0,049
-538,437	800,000	0,064	0,134
-537,423	-200,000	0,006	0,150
-536,408	565,716	-0,016	0,028
-535,393	-19,287	0,051	-0,023
-534,379	-200,000	-0,019	0,067
-533,364	161,271	0,084	-0,086
-532,350	95,463	0,085	-0,071
-531,335	659,479	0,085	0,161
-530,321	37,622	-0,035	0,023
-529,306	-200,000	0,031	0,101
-528,291	470,257	-0,066	-0,109
-527,277	-200,000	-0,025	-0,159
-526,262	-200,000	0,056	-0,206
-525,248	800,000	0,040	0,090
-524,233	-200,000	0,049	0,172
-523,218	-50,439	0,117	0,040
-522,204	91,112	-0,095	-0,078
-521,189	89,779	-0,064	-0,052
-520,175	756,936	-0,073	-0,146
-519,160	196,334	-0,100	-0,112
-518,145	415,263	-0,088	0,138
-517,131	12,117	0,164	0,092
-516,116	253,386	0,066	-0,083
-515,102	64,545	-0,134	0,098
-514,087	1,323	-0,023	-0,012
-513,072	800,000	-0,046	-0,096
-512,058	200,588	-0,105	-0,119
-511,043	145,108	0,048	-0,047
-510,029	-200,000	-0,034	0,130
-509,014	58,425	0,100	-0,072
-507,999	-200,000	-0,030	0,123
-506,985	800,000	-0,052	0,161
-505,970	-200,000	-0,012	0,120
-504,956	442,038	0,032	-0,052
-503,941	-142,033	-0,110	0,008
-502,926	800,000	0,058	0,163
-501,912	251,027	0,100	0,124
-500,897	-200,000	0,024	0,116
-499,883	-8,942	-0,156	-0,076
-498,868	-24,266	0,071	-0,031
-497,853	143,316	0,059	-0,057
-496,839	-200,000	-0,012	-0,140
-495,824	-91,831	0,085	0,017
-494,810	-200,000	-0,029	0,117
-493,795	-200,000	-0,025	0,099
-492,781	-200,000	0,027	0,122
-491,766	800,000	-0,056	0,130
-490,751	-200,000	0,001	-0,019
-489,737	80,592	0,116	0,091
-488,722	-200,000	-0,003	-0,023
-487,708	800,000	-0,015	0,048
-486,693	87,015	0,070	0,056
-485,678	-138,468	-0,078	0,006
-484,664	-73,600	0,101	0,027
-483,649	79,966	0,087	-0,069
-482,635	-167,115	0,027	0,001
-481,620	23,197	0,067	0,040
-480,605	-101,261	-0,104	-0,018
-479,591	-200,000	-0,013	0,108
-478,576	351,994	-0,062	0,090
-477,562	-200,000	0,027	-0,148
-476,547	800,000	-0,050	-0,106
-475,532	-200,000	-0,009	0,031
-474,518	406,536	0,007	0,011
-473,503	179,487	-0,070	-0,075
-472,489	-200,000	0,028	-0,092
-471,474	41,423	0,074	-0,049
-470,459	230,190	-0,073	-0,087
-469,445	708,060	0,032	0,063
-468,430	-69,005	0,091	0,025
-467,416	173,641	0,088	0,093
-466,401	-197,977	0,082	0,000
-465,386	341,530	0,034	-0,048
-464,372	800,000	0,067	-0,166
-463,357	263,055	-0,028	0,036
-462,343	-105,292	0,046	0,008
-461,328	-200,000	-0,041	-0,160
-460,313	-94,505	0,117	0,023
-459,299	-200,000	0,018	0,147
-458,284	492,551	-0,059	0,099
-457,270	800,000	-0,057	0,139
-456,255	-200,000	0,018	-0,100
-455,241	-108,812	-0,087	-0,014
-454,226	-200,000	-0,010	0,039
-453,211	56,387	-0,018	-0,013
-452,197	-200,000	0,006	-0,042
-451,182	464,582	0,038	0,062
-450,168	-147,921	0,054	-0,003
-449,153	108,169	0,048	0,042
-448,138	46,492	-0,141	-0,095
-447,124	558,581	-0,030	-0,053
-446,109	-73,132	0,146	-0,039
-445,095	-18,942	0,043	0,019
-444,080	800,000	-0,045	0,120
-443,065	201,812	-0,060	0,068
-442,051	-200,000	-0,017	-0,099
-441,036	7,520	-0,063	0,034
-440,022	423,195	0,087	0,137
-439,007	800,000	0,039	-0,092
-437,992	475,571	-0,056	-0,092
-436,978	-200,000	0,017	-0,072
-435,963	800,000	0,010	-0,022
-434,949	-0,219	0,036	0,018
-433,934	138,449	-0,093	0,089
-432,919	124,318	-0,084	0,077
-431,905	-200,000	0,008	0,118
-430,890	-69,834	0,115	-0,032
-429,876	-200,000	-0,011	0,081
-428,861	-135,345	-0,080	0,007
-427,846	92,334	-0,061	-0,050
-426,832	800,000	0,025	-0,057
-425,817	372,247	-0,060	-0,089
-424,803	537,244	-0,048	-0,083
-423,788	800,000	-0,032	-0,068
-422,773	47,663	0,090	-0,061
-421,759	-200,000	0,003	0,094
-420,744	-200,000	-0,025	0,111
-419,730	-45,789	0,151	-0,054
-418,715	10,200	-0,159	0,088
-417,701	-45,626	-0,080	-0,029
-416,686	-200,000	-0,005	-0,057
-415,671	-200,000	0,003	0,073
-414,657	-102,179	0,052	-0,009
-413,642	65,869	0,110	0,081
-412,628	-200,000	-0,039	-0,139
-411,613	-77,271	-0,026	0,007
-410,598	274,467	-0,082	-0,106
-409,584	800,000	0,043	0,129
-408,569	-200,000	-0,028	-0,089
-407,555	-95,488	-0,095	0,018
-406,540	65,014	0,047	0,034
-405,525	-200,000	-0,010	-0,094
-404,511	680,192	0,017	-0,032
-403,496	-95,106	-0,075	-0,015
-402,482	464,888	-0,063	-0,104
-401,467	-200,000	-0,015	-0,113
-400,452	317,612	-0,082	0,113
-399,438	-200,000	-0,007	-0,048
-398,423	39,888	0,089	0,058
-397,409	301,997	-0,043	-0,059
-396,394	-4,809	0,062	0,031
-395,379	-200,000	0,001	-0,051
-394,365	251,940	0,110	0,137
-393,350	800,000	-0,055	0,123
-392,336	117,828	-0,007	-0,006
-391,321	-104,475	-0,033	0,005
-390,306	-200,000	-0,025	0,112
-389,292	402,776	-0,063	-0,097
-388,277	-122,753	0,044	0,005
-387,263	146,402	0,084	-0,082
-386,248	-54,231	-0,045	0,015
-385,233	-200,000	0,009	-0,033
-384,219	-200,000	0,028	0,108
-383,204	-200,000	-0,035	-0,126
-382,190	35,145	0,147	0,094
-381,175	-139,023	-0,035	0,003
-380,160	-119,230	-0,101	-0,013
-379,146	-200,000	0,016	0,095
-378,131	-69,563	0,122	0,034
-377,117	131,155	-0,047	-0,044
-376,102	109,226	0,049	-0,043
-375,088	-140,195	0,047	-0,004
-374,073	-54,584	-0,064	0,021
-373,058	-200,000	0,034	0,140
-372,044	-200,000	0,037	0,142
-371,029	-200,000	0,016	0,058
-370,015	16,242	-0,018	0,010
-369,000	-59,803	-0,104	-0,032
-367,985	216,444	-0,062	0,072
-366,971	800,000	-0,025	0,078
-365,956	-200,000	-0,042	-0,135
-364,942	505,353	0,114	0,193
-363,927	437,683	0,095	0,151
-362,912	-200,000	-0,008	-0,034
-361,898	760,741	-0,079	-0,156
-360,883	110,482	-0,044	-0,038
-359,869	-46,165	0,095	0,034
-358,854	-200,000	-0,007	0,100
-357,839	12,124	0,156	0,087
-356,825	-117,504	-0,065	0,008
-355,810	92,238	0,136	0,111
-354,796	303,970	0,066	-0,089
-353,781	423,344	0,076	-0,119
-352,766	271,324	-0,058	0,075
-351,752	103,669	-0,121	-0,103
-350,737	65,674	0,049	-0,036
-349,723	29,245	0,105	-0,065
-348,708	-200,000	-0,036	-0,125
-347,693	-200,000	-0,012	0,048
-346,679	-42,272	-0,026	0,010
-345,664	123,746	0,046	-0,042
-344,650	129,932	-0,051	-0,048
-343,635	-27,671	-0,088	0,037
-342,620	-77,459	0,113	0,028
-341,606	696,583	-0,016	0,030
-340,591	-200,000	0,167	-0,000
-339,577	268,835	-0,060	-0,077
-338,562	800,000	-0,004	-0,011
-337,548	328,478	-0,098	0,137
-336,533	53,872	0,050	-0,035
-335,518	800,000	-0,038	0,083
-334,504	800,000	-0,030	0,071
-333,489	-58,606	-0,087	-0,027
-332,475	60,838	0,027	-0,020
-331,460	-135,982	0,030	-0,002
-330,445	118,402	0,051	0,046
-329,431	214,842	0,070	0,080
-328,416	-37,956	0,157	0,060
-327,402	684,328	-0,067	-0,128
-326,387	34,844	0,074	-0,047
-325,372	800,000	-0,044	0,105
-324,358	-131,696	-0,124	0,012
-323,343	-117,563	0,080	-0,010
-322,329	483,819	0,116	0,191
-321,314	-200,000	0,017	0,057
-320,299	-200,000	0,002	0,048
-319,285	-115,710	-0,039	0,005
-318,270	134,588	0,081	-0,076
-317,256	154,796	-0,125	-0,125
-316,241	147,741	0,066	0,064
-315,226	-30,075	-0,087	-0,036
-314,212	-146,690	0,121	0,007
-313,197	332,313	0,036	-0,051
-312,183	-200,000	-0,019	0,104
-311,168	-200,000	-0,001	-0,030
-310,153	-200,000	-0,017	-0,172
-309,139	174,411	-0,087	-0,092
-308,124	-200,000	-0,013	0,131
-307,110	-6,824	0,136	0,067
-306,095	800,000	0,038	0,089
-305,080	22,043	-0,085	0,050
-304,066	243,387	-0,049	0,060
-303,051	-200,000	0,006	0,150
-302,037	-196,166	-0,084	-0,000
-301,022	484,714	0,009	-0,015
-300,008	400,862	-0,082	-0,124
-298,993	231,019	0,022	-0,027
-297,978	250,072	-0,080	0,098
-296,964	-49,248	0,159	-0,055
-295,949	800,000	0,014	-0,043
-294,935	338,045	-0,066	-0,093
-293,920	-157,111	-0,153	0,007
-292,905	-200,000	0,052	0,000
-291,891	152,882	-0,040	0,040
-290,876	671,078	0,035	0,066
-289,862	575,427	-0,032	0,057
-288,847	-200,000	0,035	-0,118
-287,832	-129,728	-0,132	0,013
-286,818	-27,046	0,031	-0,013
-285,803	255,582	-0,036	0,044
-284,789	-18,448	0,021	0,009
-283,774	-200,000	0,017	-0,084
-282,759	41,648	-0,166	-0,108
-281,745	-200,000	0,006	-0,093
-280,730	-30,632	-0,062	0,025
-279,716	32,450	-0,062	-0,039
-278,701	800,000	-0,042	0,085
-277,686	-200,000	-0,005	0,075
-276,672	-200,000	0,002	0,044
-275,657	92,212	-0,018	0,015
-274,643	-200,000	0,005	0,036
-273,628	-58,181	-0,134	0,042
-272,613	72,048	-0,165	-0,124
-271,599	13,811	0,114	-0,064
-270,584	610,894	0,061	0,111
-269,570	-160,023	0,119	-0,005
-268,555	330,872	0,017	0,024
-267,540	-200,000	-0,037	-0,149
-266,526	800,000	-0,067	-0,151
-265,511	-120,008	-0,071	0,009
-264,497	800,000	0,038	0,116
-263,482	-200,000	0,036	0,130
-262,467	-69,422	-0,072	-0,020
-261,453	-164,750	0,101	-0,003
-260,438	145,080	0,106	-0,103
-259,424	-200,000	-0,011	-0,093
-258,409	800,000	0,023	0,065
-257,395	-61,227	-0,034	0,010
-256,380	317,342	0,038	0,053
-255,365	-54,174	0,061	0,020
-254,351	-200,000	0,020	-0,155
-253,336	-151,058	0,027	0,001
-252,322	-200,000	-0,000	-0,047
-251,307	-26,428	-0,158	-0,067
-250,292	800,000	0,010	-0,026
-249,278	308,682	0,049	0,066
-248,263	306,347	0,094	-0,127
-247,249	186,390	0,071	-0,077
-246,234	800,000	0,013	-0,032
-245,219	-94,446	-0,107	0,021
-244,205	-108,304	-0,048	0,007
-243,190	-112,931	0,014	0,002
-242,176	-26,828	-0,069	-0,029
-241,161	-46,027	0,022	-0,008
-240,146	235,723	-0,056	0,067
-239,132	109,122	-0,101	0,087
-238,117	136,664	-0,087	0,083
-237,103	-200,000	0,004	-0,141
-236,088	284,869	-0,101	0,131
-235,073	-17,528	0,067	0,030
-234,059	-34,203	0,050	0,020
-233,044	85,930	0,084	0,067
-232,030	81,938	0,159	0,125
-231,015	-40,097	-0,120	-0,045
-230,000	111,442	0,110	0,096
-228,986	-98,308	0,110	-0,020
-227,971	800,000	-0,042	0,107
-226,957	122,235	0,073	0,066
-225,942	800,000	0,008	-0,025
-224,927	800,000	-0,040	0,126
-223,913	-200,000	-0,033	-0,123
-222,898	-200,000	-0,010	0,138
-221,884	800,000	-0,067	-0,156
-220,869	-138,597	0,070	-0,005
-219,855	488,524	-0,054	0,090
-218,840	778,219	-0,022	-0,043
-217,825	584,939	0,059	-0,105
-216,811	-200,000	0,019	-0,108
-215,796	-200,000	-0,000	-0,036
-214,782	199,517	-0,007	0,007
-213,767	-188,872	0,012	0,000
-212,752	61,081	0,031	-0,023
-211,738	-78,439	0,121	-0,030
-210,723	-58,596	0,175	0,054
-209,709	-90,473	0,066	0,014
-208,694	-80,274	-0,050	-0,012
-207,679	385,161	-0,080	0,120
-206,665	-200,000	-0,006	0,023
-205,650	800,000	0,048	-0,102
-204,636	620,998	0,060	-0,109
-203,621	13,741	0,041	-0,023
-202,606	-57,084	-0,233	-0,074
-201,592	263,710	0,023	0,029
-200,577	-69,763	-0,049	0,013
-199,563	-97,031	-0,067	0,013
-198,548	-200,000	0,004	0,084
-197,533	-88,806	-0,014	-0,003
-196,519	17,622	0,125	0,072
-195,504	-200,000	-0,008	0,108
-194,490	-200,000	0,006	-0,123
-193,475	238,276	0,015	-0,018
-192,460	105,824	0,128	0,109
-191,446	-55,012	0,035	-0,011
-190,431	366,710	0,043	0,062
-189,417	9,275	0,061	0,033
-188,402	551,207	0,050	-0,087
-187,387	187,150	-0,078	-0,084
-186,373	218,022	-0,051	0,058
-185,358	-200,000	-0,007	-0,075
-184,344	-75,889	-0,095	-0,024
-183,329	800,000	0,053	-0,123
-182,315	58,455	0,072	-0,051
-181,300	24,469	-0,027	-0,016
-180,285	38,086	0,012	-0,008
-179,271	182,178	0,044	-0,047
-178,256	-200,000	0,015	-0,166
-177,242	55,779	0,075	0,052
-176,227	198,338	-0,047	0,052
-175,212	-200,000	0,007	0,106
-174,198	-200,000	0,009	-0,035
-173,183	315,875	-0,082	-0,112
-172,169	-200,000	0,015	-0,067
-171,154	-200,000	0,048	0,157
-170,139	425,235	0,045	-0,070
-169,125	800,000	-0,048	0,100
-168,110	-200,000	0,061	0,217
-167,096	367,729	0,051	-0,074
-166,081	-200,000	0,032	-0,112
-165,066	5,496	0,095	0,050
-164,052	132,222	-0,081	0,075
-163,037	8,123	0,130	-0,070
-162,023	800,000	0,029	0,074
-161,008	237,950	-0,066	0,079
-159,993	-93,526	-0,086	0,017
-158,979	-200,000	0,012	-0,159
-157,964	-200,000	0,011	0,100
-156,950	-200,000	0,006	0,039
-155,935	150,766	-0,067	0,066
-154,920	800,000	0,111	0,243
-153,906	-200,000	0,033	0,114
-152,891	20,413	-0,107	-0,062
-151,877	-73,452	-0,119	-0,031
-150,862	7,053	-0,123	-0,066
-149,847	-56,784	-0,059	-0,019
-148,833	342,639	0,027	0,038
-147,818	335,328	0,013	0,018
-146,804	800,000	-0,029	-0,079
-145,789	-200,000	0,017	0,119
-144,775	-63,021	-0,069	-0,020
-143,760	-170,331	-0,030	-0,001
-142,745	160,548	-0,054	-0,054
-141,731	-110,439	-0,064	-0,009
-140,716	-3,958	0,097	-0,048
-139,702	-200,000	0,009	0,033
-138,687	-50,202	-0,122	0,041
-137,672	193,142	-0,072	0,078
-136,658	-200,000	-0,016	-0,062
-135,643	-200,000	-0,028	0,108
-134,629	-13,435	-0,093	0,043
-133,614	138,891	0,120	0,114
-132,599	235,221	0,072	-0,086
-131,585	41,116	-0,051	0,033
-130,570	-200,000	0,020	0,068
-129,556	-200,000	-0,003	0,045
-128,541	-200,000	0,005	0,041
-127,526	166,172	-0,036	0,036
-126,512	-16,182	0,170	-0,077
-125,497	69,624	0,099	-0,073
-124,483	-200,000	-0,015	0,151
-123,468	-43,800	0,028	0,010
-122,453	103,041	-0,026	-0,022
-121,439	800,000	-0,058	-0,142
-120,424	696,016	-0,048	-0,091
-119,410	-36,564	0,076	0,029
