DTS Sentinel unit serial number:	SN410029Multiplexer serial number:	ORYXHardware model number:	OX2-SRSoftware version number:	ORYX F/W v4,00 Oryx Data Collector v3.7.2.0data status	okinstallation	B5 Nyhavnadifferential loss correction	single-endedforward channel	channel 2reverse channel	N/Adate	2023/12/12time	04:12:13forward acquisition time	300,00reverse acquisition time	0,00gamma	499,1914k internal	0,3157k external	0,3157temperature offset calibration	1,0000default loss term (dB/km)	0,3820temperature slope calibration	1,0000multiplexer offset coefficient	1,0000multiplexer slope coefficient	1,0000fibre end	0,00T internal ref (°C)	15,56T ext. ref 1 (°C)	-0,83T ext. ref 2 (°C)	-1,08length (m)	temperature (°C)	Stokes	anti-Stokes-744,400	800,000	0,041	0,115
-743,385	-110,703	-0,341	-0,051
-742,371	776,442	-0,062	0,126
-741,356	-76,062	-0,304	0,079
-740,342	-200,000	0,005	-0,036
-739,327	-38,464	-0,388	0,151
-738,312	147,133	0,102	-0,101
-737,298	-6,429	-0,301	0,151
-736,283	261,933	0,052	-0,066
-735,269	-103,599	-0,300	0,051
-734,254	-55,939	-0,028	-0,009
-733,239	2,777	-0,372	-0,198
-732,225	4,597	0,164	0,088
-731,210	-200,000	0,019	0,073
-730,196	800,000	0,042	-0,118
-729,181	-40,769	-0,109	0,041
-728,167	-7,560	0,086	-0,043
-727,152	-15,205	0,009	-0,004
-726,137	67,226	-0,049	-0,037
-725,123	73,508	-0,077	0,059
-724,108	170,741	-0,028	0,030
-723,094	156,090	-0,081	0,082
-722,079	-143,237	-0,084	0,006
-721,064	-200,000	0,023	-0,209
-720,050	-200,000	0,029	-0,171
-719,035	208,901	0,064	0,073
-718,021	230,048	-0,019	0,023
-717,006	-121,209	-0,045	0,005
-715,991	75,870	-0,034	-0,026
-714,977	-68,135	-0,101	-0,029
-713,962	800,000	0,009	-0,019
-712,948	-76,217	-0,159	0,041
-711,933	-74,931	0,029	0,008
-710,918	-47,682	-0,093	0,033
-709,904	62,247	-0,045	-0,033
-708,889	151,188	-0,066	-0,067
-707,875	225,821	0,117	-0,140
-706,860	-50,130	-0,085	0,030
-705,845	800,000	0,020	0,051
-704,831	800,000	-0,017	-0,036
-703,816	-200,000	-0,033	-0,133
-702,802	138,217	-0,138	-0,133
-701,787	71,119	0,055	0,042
-700,772	-170,190	-0,019	-0,000
-699,758	-39,504	0,107	0,041
-698,743	329,670	-0,097	0,138
-697,729	82,762	0,040	-0,032
-696,714	800,000	0,060	-0,169
-695,699	574,953	-0,029	0,053
-694,685	245,681	-0,049	-0,060
-693,670	-27,504	-0,106	0,045
-692,656	800,000	0,024	-0,070
-691,641	-27,755	-0,126	0,053
-690,627	800,000	-0,035	-0,114
-689,612	-200,000	0,018	-0,121
-688,597	-200,000	0,009	0,135
-687,583	-121,356	-0,178	-0,022
-686,568	-85,573	-0,094	-0,021
-685,554	-43,445	0,118	-0,044
-684,539	800,000	-0,024	-0,059
-683,524	-180,485	0,006	0,000
-682,510	-200,000	0,033	0,162
-681,495	-26,041	-0,072	-0,031
-680,481	97,953	-0,035	-0,030
-679,466	40,037	-0,100	-0,066
-678,451	308,269	0,037	0,050
-677,437	-25,773	-0,092	-0,040
-676,422	365,130	0,044	-0,065
-675,408	26,358	-0,110	-0,068
-674,393	-200,000	0,008	0,086
-673,378	-200,000	-0,024	0,083
-672,364	72,944	-0,060	-0,046
-671,349	542,539	-0,038	-0,067
-670,335	-72,017	0,016	0,004
-669,320	449,244	0,047	0,076
-668,305	-98,081	0,052	0,010
-667,291	800,000	-0,062	0,163
-666,276	141,571	-0,160	-0,156
-665,262	583,842	-0,047	-0,086
-664,247	173,228	0,063	0,066
-663,232	95,744	-0,107	-0,090
-662,218	-112,637	0,050	0,007
-661,203	-200,000	-0,006	0,024
-660,189	559,367	-0,064	0,114
-659,174	-8,729	0,052	0,025
-658,159	150,380	0,053	-0,053
-657,145	195,915	-0,060	-0,067
-656,130	-102,749	0,010	-0,002
-655,116	396,092	0,112	0,173
-654,101	16,157	-0,080	0,046
-653,086	87,093	-0,056	0,045
-652,072	800,000	-0,041	-0,123
-651,057	-200,000	0,013	-0,079
-650,043	-179,391	0,106	0,002
-649,028	91,223	-0,060	0,050
-648,014	-2,392	0,076	-0,039
-646,999	800,000	-0,008	-0,019
-645,984	-200,000	0,008	0,040
-644,970	-200,000	0,022	-0,122
-643,955	-200,000	-0,032	-0,182
-642,941	101,625	0,087	-0,074
-641,926	-200,000	-0,005	0,099
-640,911	387,775	0,039	0,060
-639,897	800,000	-0,034	0,075
-638,882	104,032	0,156	-0,135
-637,868	-200,000	-0,011	-0,092
-636,853	800,000	-0,065	-0,143
-635,838	212,268	-0,066	-0,077
-634,824	764,906	-0,016	0,032
-633,809	-77,095	0,071	-0,018
-632,795	-112,960	0,069	-0,010
-631,780	531,718	-0,091	0,159
-630,765	92,442	-0,064	-0,053
-629,751	50,953	-0,038	-0,027
-628,736	-44,587	-0,093	-0,034
-627,722	-200,000	0,005	0,105
-626,707	-109,453	-0,023	0,004
-625,692	800,000	-0,062	0,173
-624,678	28,461	-0,129	0,080
-623,663	83,340	0,174	0,139
-622,649	6,126	-0,099	0,054
-621,634	800,000	0,026	0,066
-620,619	-200,000	0,006	-0,036
-619,605	282,607	-0,071	-0,093
-618,590	758,856	0,011	0,021
-617,576	284,188	-0,076	-0,100
-616,561	66,406	-0,058	0,043
-615,546	-165,530	-0,115	0,004
-614,532	800,000	-0,049	-0,140
-613,517	-200,000	-0,032	-0,174
-612,503	271,509	-0,049	0,063
-611,488	91,796	0,075	0,062
-610,474	-200,000	0,007	0,079
-609,459	-73,845	-0,124	0,033
-608,444	-70,652	-0,079	0,022
-607,430	-200,000	-0,011	-0,173
-606,415	-200,000	0,009	-0,033
-605,401	-115,540	-0,089	-0,012
-604,386	-109,386	0,147	0,023
-603,371	-124,441	0,168	0,019
-602,357	-65,272	-0,085	-0,025
-601,342	-154,021	-0,087	-0,004
-600,328	360,411	-0,062	-0,091
-599,313	-13,266	-0,107	-0,051
-598,298	269,616	-0,025	-0,032
-597,284	-200,000	0,016	-0,059
-596,269	-200,000	-0,004	0,025
-595,255	-200,000	0,001	0,057
-594,240	-144,936	0,091	-0,006
-593,225	44,297	-0,077	0,052
-592,211	230,864	0,082	-0,099
-591,196	41,390	-0,148	0,098
-590,182	-95,899	-0,062	-0,012
-589,167	-200,000	-0,000	0,064
-588,152	-200,000	-0,000	0,030
-587,138	112,345	0,081	0,071
-586,123	227,195	-0,034	-0,041
-585,109	-200,000	0,010	-0,092
-584,094	97,324	0,076	0,064
-583,079	800,000	-0,028	0,082
-582,065	480,936	0,041	-0,069
-581,050	-22,614	0,093	-0,041
-580,036	-200,000	-0,013	-0,190
-579,021	212,267	-0,032	-0,037
-578,006	303,521	-0,015	-0,020
-576,992	-70,217	-0,056	-0,016
-575,977	133,432	0,103	-0,098
-574,963	-93,137	-0,008	-0,002
-573,948	39,456	-0,049	0,032
-572,934	800,000	-0,053	-0,132
-571,919	-200,000	-0,007	-0,072
-570,904	-113,253	-0,112	0,016
-569,890	-27,778	-0,096	-0,040
-568,875	-200,000	0,022	-0,091
-567,861	13,355	0,100	0,057
-566,846	-140,346	-0,206	-0,015
-565,831	-70,224	0,054	-0,015
-564,817	732,069	-0,034	0,067
-563,802	535,005	0,061	-0,106
-562,788	-200,000	-0,005	-0,146
-561,773	-58,470	0,055	-0,017
-560,758	66,680	0,099	0,074
-559,744	125,933	-0,041	0,038
-558,729	-30,894	0,085	-0,035
-557,715	147,098	0,034	0,033
-556,700	468,431	-0,009	-0,015
-555,685	-130,747	0,146	0,014
-554,671	-19,844	0,037	0,017
-553,656	-200,000	-0,000	-0,026
-552,642	-30,319	0,115	0,048
-551,627	361,977	0,051	0,075
-550,612	-200,000	0,011	-0,073
-549,598	-4,894	-0,168	0,084
-548,583	-56,098	-0,040	0,013
-547,569	-90,537	0,063	-0,013
-546,554	125,774	0,075	0,070
-545,539	-28,730	-0,037	-0,015
-544,525	-200,000	-0,017	0,066
-543,510	-109,675	-0,034	0,005
-542,496	800,000	-0,031	-0,070
-541,481	-40,768	0,068	-0,026
-540,466	-16,120	0,011	0,005
-539,452	215,453	0,032	0,037
-538,437	-89,705	0,042	-0,009
-537,423	13,495	-0,106	0,060
-536,408	-200,000	-0,016	0,091
-535,393	-200,000	-0,007	0,113
-534,379	800,000	0,052	0,106
-533,364	113,966	-0,086	0,076
-532,350	-59,889	0,078	0,024
-531,335	-200,000	-0,028	-0,188
-530,321	800,000	-0,051	-0,111
-529,306	-13,263	-0,055	-0,026
-528,291	79,777	-0,065	-0,051
-527,277	800,000	-0,057	-0,127
-526,262	800,000	-0,030	0,085
-525,248	161,998	0,129	-0,132
-524,233	-6,768	0,076	-0,038
-523,218	34,213	-0,023	-0,014
-522,204	-127,010	-0,008	-0,001
-521,189	-200,000	-0,009	0,063
-520,175	-122,910	-0,077	0,009
-519,160	-109,305	0,022	-0,003
-518,145	98,034	0,030	-0,026
-517,131	89,622	-0,157	0,128
-516,116	-200,000	-0,022	0,077
-515,102	94,868	0,120	-0,100
-514,087	105,292	-0,113	-0,097
-513,072	183,272	-0,094	-0,102
-512,058	-112,818	-0,018	0,003
-511,043	-73,011	0,150	0,040
-510,029	-200,000	-0,003	0,164
-509,014	-133,507	0,027	0,002
-507,999	-165,829	0,124	0,004
-506,985	800,000	0,026	0,065
-505,970	-56,016	-0,035	-0,011
-504,956	-35,976	-0,090	0,035
-503,941	-144,127	-0,070	0,005
-502,926	172,389	0,059	0,062
-501,912	141,622	-0,021	-0,021
-500,897	800,000	0,070	0,196
-499,883	-16,893	-0,048	-0,022
-498,868	313,067	-0,144	-0,198
-497,853	535,905	0,026	-0,045
-496,839	-133,494	0,199	0,018
-495,824	24,133	-0,074	0,044
-494,810	-119,841	0,018	0,002
-493,795	145,060	-0,049	-0,048
-492,781	260,137	-0,049	0,062
-491,766	800,000	0,036	-0,082
-490,751	249,770	0,069	-0,085
-489,737	152,937	0,080	-0,080
-488,722	-31,084	-0,040	0,016
-487,708	91,668	0,056	0,046
-486,693	800,000	0,048	0,112
-485,678	403,637	0,045	0,069
-484,664	-200,000	-0,022	0,086
-483,649	150,015	-0,062	0,061
-482,635	-200,000	0,007	-0,028
-481,620	-16,033	0,012	-0,005
-480,605	-167,742	0,056	-0,002
-479,591	-112,044	0,081	0,012
-478,576	-200,000	0,015	0,087
-477,562	-200,000	0,030	0,133
-476,547	525,524	-0,025	-0,044
-475,532	512,438	0,052	-0,088
-474,518	4,917	0,033	0,018
-473,503	9,556	0,069	0,038
-472,489	-200,000	-0,038	0,137
-471,474	157,476	-0,058	-0,058
-470,459	361,396	0,063	0,093
-469,445	-52,980	0,121	0,040
-468,430	113,027	-0,051	-0,045
-467,416	341,177	0,032	-0,045
-466,401	-123,489	0,119	-0,014
-465,386	-200,000	-0,031	0,107
-464,372	-200,000	-0,009	0,213
-463,357	-61,500	-0,178	0,054
-462,343	-83,392	-0,062	0,014
-461,328	-57,099	-0,074	-0,023
-460,313	173,464	-0,103	-0,108
-459,299	-200,000	0,015	0,067
-458,284	164,107	0,089	-0,091
-457,270	-119,885	0,122	0,015
-456,255	800,000	-0,061	-0,158
-455,241	-200,000	-0,036	-0,154
-454,226	-46,733	-0,057	-0,020
-453,211	-26,149	-0,102	-0,044
-452,197	25,844	0,134	0,081
-451,182	116,163	0,063	-0,057
-450,168	-24,308	-0,079	0,034
-449,153	193,935	0,074	0,082
-448,138	410,530	0,049	-0,076
-447,124	296,039	-0,066	-0,088
-446,109	556,814	-0,057	0,100
-445,095	800,000	0,023	-0,062
-444,080	539,225	0,051	0,088
-443,065	-31,268	0,161	-0,066
-442,051	236,842	-0,027	-0,032
-441,036	-200,000	0,027	-0,171
-440,022	40,435	-0,046	0,030
-439,007	7,904	-0,069	0,038
-437,992	-12,610	0,041	-0,020
-436,978	139,846	0,051	-0,049
-435,963	118,686	0,040	0,036
-434,949	-200,000	-0,004	0,028
-433,934	-200,000	-0,010	-0,096
-432,919	38,184	0,033	0,022
-431,905	800,000	-0,031	0,086
-430,890	146,381	0,074	-0,073
-429,876	26,007	-0,080	0,048
-428,861	-53,687	0,024	-0,008
-427,846	-95,701	-0,118	0,023
-426,832	8,756	0,007	-0,004
-425,817	19,099	-0,082	0,048
-424,803	28,393	-0,064	0,039
-423,788	-200,000	-0,007	0,081
-422,773	96,407	0,097	0,081
-421,759	60,961	0,158	0,114
-420,744	225,048	-0,085	-0,101
-419,730	7,691	-0,115	0,063
-418,715	-200,000	0,007	-0,039
-417,701	-95,454	-0,131	-0,025
-416,686	167,430	-0,091	0,094
-415,671	53,984	-0,037	0,026
-414,657	-12,848	0,112	0,053
-413,642	339,028	0,062	0,089
-412,628	-30,387	-0,021	-0,009
-411,613	-173,897	-0,096	-0,002
-410,598	800,000	0,012	-0,031
-409,584	53,614	-0,034	0,024
-408,569	350,647	0,051	0,074
-407,555	-200,000	-0,004	-0,034
-406,540	-200,000	-0,013	-0,095
-405,525	-65,402	-0,012	0,004
-404,511	-165,530	0,120	-0,004
-403,496	-83,979	0,130	-0,030
-402,482	29,654	0,123	0,076
-401,467	42,878	-0,079	-0,053
-400,452	15,496	-0,097	0,056
-399,438	234,062	0,081	-0,097
-398,423	134,642	0,048	-0,045
-397,409	774,344	-0,067	0,133
-396,394	-25,880	0,097	0,041
-395,379	-43,898	-0,085	0,031
-394,365	418,203	0,040	0,062
-393,350	91,291	-0,049	0,040
-392,336	-51,598	0,055	0,019
-391,321	800,000	-0,035	0,095
-390,306	605,789	-0,045	-0,082
-389,292	97,131	-0,034	-0,028
-388,277	20,408	-0,025	0,015
-387,263	209,077	0,124	-0,141
-386,248	800,000	0,069	0,155
-385,233	68,008	-0,072	0,053
-384,219	373,302	0,057	-0,085
-383,204	-200,000	-0,021	-0,150
-382,190	74,666	0,078	-0,060
-381,175	306,294	-0,111	0,151
-380,160	86,992	0,093	-0,075
-379,146	800,000	0,049	-0,119
-378,131	-200,000	-0,005	0,079
-377,117	186,385	-0,060	0,065
-376,102	-200,000	-0,019	-0,147
-375,088	-200,000	-0,022	-0,142
-374,073	-200,000	0,004	0,032
-373,058	124,507	0,033	-0,030
-372,044	-78,632	-0,092	0,023
-371,029	-22,000	0,167	-0,073
-370,015	-200,000	-0,014	-0,096
-369,000	-82,886	0,053	0,012
-367,985	-20,029	0,033	0,015
-366,971	-104,960	-0,114	0,019
-365,956	-49,717	0,043	0,015
-364,942	522,229	0,063	0,108
-363,927	18,645	-0,045	0,026
-362,912	-152,097	-0,035	-0,002
-361,898	69,948	0,079	0,059
-360,883	693,160	0,045	-0,085
-359,869	255,087	0,099	-0,123
-358,854	262,522	0,064	0,081
-357,839	18,988	0,067	0,039
-356,825	-200,000	-0,024	0,108
-355,810	26,390	-0,063	0,038
-354,796	46,491	-0,101	0,068
-353,781	-200,000	-0,007	-0,048
-352,766	584,878	0,005	-0,008
-351,752	320,175	0,036	-0,049
-350,737	546,506	0,049	-0,085
-349,723	800,000	0,016	-0,038
-348,708	-33,450	-0,067	0,027
-347,693	-52,107	0,066	0,022
-346,679	-90,980	-0,064	-0,013
-345,664	-4,461	-0,100	-0,050
-344,650	223,747	0,098	0,115
-343,635	181,714	0,028	-0,030
-342,620	-6,556	0,085	0,042
-341,606	172,521	-0,098	0,103
-340,591	507,955	0,034	-0,058
-339,577	3,109	-0,120	-0,063
-338,562	35,353	0,127	0,080
-337,548	67,896	-0,046	-0,034
-336,533	800,000	-0,016	0,038
-335,518	-54,944	-0,041	-0,013
-334,504	800,000	-0,041	0,093
-333,489	800,000	0,014	-0,043
-332,475	589,048	0,019	-0,034
-331,460	-90,923	0,109	-0,023
-330,445	72,033	0,097	-0,073
-329,431	102,448	-0,142	-0,121
-328,416	800,000	-0,027	-0,076
-327,402	-102,201	-0,148	-0,026
-326,387	485,136	0,026	0,044
-325,372	325,726	-0,056	-0,077
-324,358	800,000	0,008	-0,024
-323,343	-200,000	-0,003	0,076
-322,329	-116,857	-0,119	-0,016
-321,314	116,788	0,090	-0,080
-320,299	72,326	0,121	0,091
-319,285	-42,994	0,067	0,025
-318,270	-110,739	-0,133	-0,020
-317,256	638,582	0,056	-0,104
-316,241	130,950	0,040	0,037
-315,226	18,037	0,029	-0,017
-314,212	-190,536	0,074	0,001
-313,197	-42,015	0,092	0,034
-312,183	-45,038	-0,055	0,020
-311,168	337,018	-0,024	0,034
-310,153	-105,356	-0,077	0,013
-309,139	50,955	0,117	0,080
-308,124	-200,000	0,013	0,109
-307,110	800,000	0,064	0,145
-306,095	-5,991	-0,043	-0,021
-305,080	-50,373	0,132	-0,045
-304,066	-25,917	-0,078	-0,033
-303,051	609,592	-0,032	-0,057
-302,037	-8,149	-0,083	-0,040
-301,022	-80,101	0,040	0,010
-300,008	-57,724	0,122	0,039
-298,993	112,190	0,031	0,027
-297,978	576,015	-0,024	0,043
-296,964	-200,000	0,013	0,078
-295,949	59,241	-0,073	-0,052
-294,935	660,973	0,059	-0,110
-293,920	-122,626	0,044	0,005
-292,905	-68,640	-0,096	0,027
-291,891	800,000	0,038	0,089
-290,876	-200,000	-0,015	0,225
-289,862	-1,722	0,068	0,035
-288,847	57,942	-0,080	0,057
-287,832	125,160	-0,079	0,072
-286,818	-132,773	0,077	0,007
-285,803	44,423	-0,027	0,018
-284,789	212,347	0,060	0,068
-283,774	-200,000	-0,009	0,141
-282,759	503,092	0,089	-0,149
-281,745	-200,000	0,014	-0,050
-280,730	800,000	0,030	0,062
-279,716	194,843	0,090	-0,099
-278,701	-35,757	0,036	0,014
-277,686	-200,000	-0,002	0,014
-276,672	-151,359	-0,119	-0,006
-275,657	118,757	-0,038	-0,034
-274,643	-152,964	0,016	0,001
-273,628	30,331	0,126	0,078
-272,613	84,468	-0,145	-0,115
-271,599	-46,511	0,101	0,036
-270,584	-23,948	0,092	0,040
-269,570	-119,606	-0,146	-0,018
-268,555	-200,000	-0,011	0,086
-267,540	-43,599	0,031	-0,011
-266,526	-77,015	-0,151	-0,038
-265,511	447,428	-0,030	0,049
-264,497	-200,000	0,003	0,148
-263,482	-105,905	0,044	0,007
-262,467	435,491	-0,005	0,008
-261,453	-122,117	0,012	0,001
-260,438	-200,000	0,018	-0,110
-259,424	800,000	0,016	-0,034
-258,409	800,000	-0,016	0,034
-257,395	800,000	0,020	-0,059
-256,380	800,000	-0,038	0,110
-255,365	596,759	0,029	0,052
-254,351	800,000	0,045	0,119
-253,336	800,000	0,025	0,067
-252,322	-200,000	0,008	-0,102
-251,307	-40,104	0,043	-0,016
-250,292	-200,000	-0,013	0,071
-249,278	-184,961	-0,235	0,003
-248,263	800,000	0,021	0,064
-247,249	361,148	0,047	-0,069
-246,234	203,036	-0,065	-0,073
-245,219	800,000	-0,037	-0,080
-244,205	76,129	-0,051	-0,039
-243,190	285,214	-0,055	-0,072
-242,176	-150,259	0,162	-0,009
-241,161	-35,423	0,078	0,030
-240,146	800,000	-0,036	0,096
-239,132	440,862	0,050	0,079
-238,117	800,000	-0,039	-0,090
-237,103	125,404	0,078	-0,071
-236,088	-200,000	-0,007	-0,036
-235,073	-35,493	0,096	-0,038
-234,059	326,149	0,047	0,066
-233,044	-50,591	0,130	-0,044
-232,030	497,983	-0,042	0,070
-231,015	-200,000	0,026	-0,124
-230,000	177,377	0,059	-0,062
-228,986	-200,000	0,002	-0,022
-227,971	272,494	0,065	-0,083
-226,957	-64,483	-0,108	0,031
-225,942	105,513	0,041	0,035
-224,927	30,987	0,021	0,013
-223,913	-200,000	-0,037	0,000
-222,898	117,921	0,074	0,066
-221,884	67,061	-0,029	0,021
-220,869	-200,000	0,005	0,044
-219,855	109,482	-0,089	0,077
-218,840	800,000	-0,019	-0,043
-217,825	-200,000	-0,012	0,116
-216,811	112,850	0,013	-0,011
-215,796	221,868	-0,123	-0,143
-214,782	197,651	0,090	-0,099
-213,767	1,254	-0,082	0,043
-212,752	-200,000	-0,003	-0,169
-211,738	360,704	0,048	-0,070
-210,723	-200,000	-0,020	0,120
-209,709	-81,634	-0,156	0,037
-208,694	800,000	-0,044	-0,106
-207,679	706,350	0,056	-0,107
-206,665	0,099	-0,034	-0,018
-205,650	-126,012	-0,071	-0,008
-204,636	160,263	0,035	0,035
-203,621	-200,000	-0,029	-0,109
-202,606	163,955	0,059	0,060
-201,592	800,000	0,008	-0,019
-200,577	-200,000	-0,011	-0,049
-199,563	-200,000	0,028	-0,115
-198,548	54,458	0,140	0,097
-197,533	-200,000	-0,013	0,218
-196,519	-152,873	-0,105	-0,005
-195,504	311,175	0,059	0,080
-194,490	306,088	0,052	-0,070
-193,475	-118,980	-0,262	-0,033
-192,460	380,883	-0,120	-0,178
-191,446	-95,307	0,279	0,054
-190,431	108,982	0,110	0,095
-189,417	-134,140	-0,090	-0,008
-188,402	50,819	-0,142	0,097
-187,387	-200,000	-0,020	0,148
-186,373	-75,805	-0,110	-0,028
-185,358	-76,053	0,130	-0,033
-184,344	-15,877	-0,038	0,017
-183,329	-200,000	0,004	0,021
-182,315	214,380	-0,064	0,073
-181,300	800,000	0,028	0,076
-180,285	43,292	-0,129	-0,085
-179,271	-121,073	-0,074	-0,009
-178,256	58,457	-0,060	-0,042
-177,242	-91,644	0,093	0,019
-176,227	105,366	0,057	-0,048
-175,212	-122,522	0,069	0,008
-174,198	-133,013	0,038	-0,003
-173,183	4,822	-0,137	-0,072
-172,169	275,953	-0,059	-0,076
-171,154	-200,000	0,004	-0,077
-170,139	-123,179	0,141	-0,016
-169,125	-200,000	0,001	0,019
-168,110	121,956	0,087	0,078
-167,096	-50,813	-0,073	-0,025
-166,081	-73,035	-0,061	-0,016
-165,066	800,000	-0,042	0,094
-164,052	-31,795	-0,051	0,020
-163,037	414,556	0,034	-0,052
-162,023	-169,414	0,172	0,004
-161,008	-153,216	-0,123	0,006
-159,993	23,020	0,031	-0,018
-158,979	-200,000	-0,002	-0,024
-157,964	800,000	-0,019	-0,060
-156,950	-200,000	0,037	-0,193
-155,935	-200,000	0,025	0,092
-154,920	-200,000	0,049	0,167
-153,906	-200,000	-0,021	-0,108
-152,891	-139,187	-0,037	0,003
-151,877	-100,034	-0,123	0,022
-150,862	29,476	-0,075	0,046
-149,847	117,051	-0,042	0,037
-148,833	-43,007	-0,107	0,039
-147,818	-148,828	0,119	0,007
-146,804	29,554	-0,061	-0,037
-145,789	94,569	0,035	0,029
-144,775	61,163	0,080	-0,058
-143,760	174,535	-0,104	-0,109
-142,745	446,803	0,011	-0,018
-141,731	-200,000	0,039	0,188
-140,716	98,042	0,121	-0,100
-139,702	800,000	0,032	-0,084
-138,687	9,493	0,124	-0,068
-137,672	361,434	-0,052	-0,076
-136,658	-200,000	-0,009	0,037
-135,643	-200,000	-0,018	0,111
-134,629	-200,000	0,009	-0,044
-133,614	178,474	0,056	0,059
-132,599	800,000	0,020	0,058
-131,585	-138,082	0,117	0,009
-130,570	346,035	0,017	0,023
-129,556	-136,705	-0,056	-0,005
-128,541	-110,785	-0,014	-0,002
-127,526	61,450	0,127	0,091
-126,512	-91,428	-0,021	0,004
-125,497	-27,935	0,057	-0,024
-124,483	170,469	0,069	0,072
-123,468	-200,000	-0,006	-0,118
-122,453	77,290	-0,095	-0,072
-121,439	435,034	-0,022	-0,035
-120,424	47,983	-0,090	-0,060
-119,410	-67,565	0,240	-0,067
-118,395	36,953	0,073	0,047
