DTS Sentinel unit serial number:	SN410029Multiplexer serial number:	ORYXHardware model number:	OX2-SRSoftware version number:	ORYX F/W v4,00 Oryx Data Collector v3.7.2.0data status	okinstallation	B5 Nyhavnadifferential loss correction	single-endedforward channel	channel 2reverse channel	N/Adate	2023/12/14time	12:47:13forward acquisition time	300,00reverse acquisition time	0,00gamma	499,1914k internal	0,3157k external	0,3157temperature offset calibration	1,0000default loss term (dB/km)	0,3820temperature slope calibration	1,0000multiplexer offset coefficient	1,0000multiplexer slope coefficient	1,0000fibre end	0,00T internal ref (°C)	7,93T ext. ref 1 (°C)	-7,54T ext. ref 2 (°C)	-7,57length (m)	temperature (°C)	Stokes	anti-Stokes-744,400	-23,085	0,169	0,075
-743,385	-108,376	-0,249	0,039
-742,371	40,169	0,287	0,190
-741,356	-90,574	-0,499	-0,105
-740,342	137,406	0,067	0,065
-739,327	150,863	-0,340	-0,341
-738,312	-89,673	0,161	0,035
-737,298	-60,107	-0,441	-0,138
-736,283	-44,023	0,139	0,051
-735,269	-118,053	-0,262	0,034
-734,254	-135,846	0,295	0,025
-733,239	-36,756	-0,555	-0,219
-732,225	-83,966	0,134	0,031
-731,210	-200,000	0,009	0,055
-730,196	-200,000	0,064	-0,277
-729,181	-200,000	0,020	-0,105
-728,167	800,000	0,023	0,071
-727,152	59,038	-0,073	-0,053
-726,137	30,909	-0,034	-0,021
-725,123	253,887	-0,057	0,072
-724,108	-200,000	0,021	-0,174
-723,094	-145,551	0,152	-0,010
-722,079	-117,949	-0,078	-0,010
-721,064	-56,281	-0,044	0,014
-720,050	724,287	-0,036	-0,072
-719,035	12,045	-0,166	0,094
-718,021	-43,988	-0,090	-0,033
-717,006	-128,923	-0,119	-0,012
-715,991	800,000	0,046	-0,103
-714,977	-16,238	-0,229	-0,107
-713,962	-200,000	0,008	-0,083
-712,948	800,000	0,018	0,043
-711,933	-110,555	-0,110	0,017
-710,918	357,033	-0,031	0,046
-709,904	-200,000	0,038	-0,151
-708,889	602,384	-0,047	0,087
-707,875	800,000	0,008	0,026
-706,860	66,708	0,153	-0,114
-705,845	-131,383	0,075	0,007
-704,831	-82,158	0,059	-0,014
-703,816	-200,000	0,044	-0,147
-702,802	-200,000	0,026	0,086
-701,787	-32,350	0,085	-0,035
-700,772	35,661	-0,141	-0,091
-699,758	602,497	-0,033	0,060
-698,743	-200,000	-0,033	0,134
-697,729	131,949	0,120	-0,113
-696,714	10,275	-0,045	-0,025
-695,699	-190,608	0,112	-0,001
-694,685	408,678	0,038	-0,059
-693,670	-200,000	0,006	0,124
-692,656	-144,468	-0,065	-0,004
-691,641	326,889	0,020	0,028
-690,627	-121,696	0,124	-0,015
-689,612	-87,110	-0,056	-0,013
-688,597	-114,845	-0,110	0,015
-687,583	402,011	-0,031	0,049
-686,568	369,230	-0,014	0,021
-685,554	57,509	0,050	0,036
-684,539	-37,526	0,098	0,038
-683,524	-200,000	0,027	0,102
-682,510	-50,699	-0,105	-0,036
-681,495	-96,597	0,094	-0,018
-680,481	474,929	-0,075	0,125
-679,466	342,848	-0,109	-0,157
-678,451	-200,000	0,012	-0,113
-677,437	-134,489	0,069	-0,006
-676,422	145,480	0,046	-0,046
-675,408	-200,000	0,004	-0,101
-674,393	-200,000	-0,004	-0,047
-673,378	-200,000	0,014	-0,154
-672,364	-10,740	0,089	0,043
-671,349	563,037	0,036	-0,064
-670,335	6,114	0,052	0,028
-669,320	762,876	-0,055	-0,110
-668,305	141,114	0,037	-0,036
-667,291	-100,871	-0,078	-0,014
-666,276	-200,000	0,001	-0,071
-665,262	-176,366	-0,133	-0,002
-664,247	-200,000	-0,003	-0,083
-663,232	800,000	0,012	0,027
-662,218	-200,000	0,008	0,055
-661,203	800,000	-0,026	0,056
-660,189	-176,678	-0,226	-0,004
-659,174	-92,604	-0,146	-0,030
-658,159	-199,959	0,078	0,000
-657,145	54,933	0,195	0,138
-656,130	4,383	-0,022	0,012
-655,116	190,143	-0,003	-0,003
-654,101	-200,000	-0,011	0,108
-653,086	203,449	0,036	0,041
-652,072	87,364	-0,064	0,052
-651,057	366,657	-0,047	-0,071
-650,043	672,034	-0,031	-0,060
-649,028	543,750	-0,033	0,058
-648,014	-91,974	0,026	-0,005
-646,999	-56,062	0,129	0,042
-645,984	-24,092	-0,042	-0,019
-644,970	-110,592	-0,158	-0,024
-643,955	687,609	-0,012	-0,024
-642,941	138,425	0,044	0,043
-641,926	-200,000	-0,008	-0,091
-640,911	119,062	-0,013	0,012
-639,897	-187,384	0,141	0,001
-638,882	688,910	-0,074	0,143
-637,868	800,000	0,011	-0,031
-636,853	-200,000	-0,010	-0,141
-635,838	713,599	0,029	-0,056
-634,824	343,146	-0,047	0,068
-633,809	191,245	0,057	0,063
-632,795	97,987	-0,096	-0,081
-631,780	453,277	-0,017	-0,028
-630,765	-200,000	0,007	0,048
-629,751	-200,000	-0,021	-0,070
-628,736	288,858	0,013	0,017
-627,722	-9,760	-0,064	-0,031
-626,707	171,054	0,039	0,041
-625,692	800,000	0,012	-0,034
-624,678	-62,050	0,105	-0,032
-623,663	671,207	0,011	-0,021
-622,649	-200,000	-0,016	-0,067
-621,634	-200,000	0,002	-0,069
-620,619	169,225	-0,015	0,016
-619,605	-131,755	-0,065	-0,006
-618,590	-98,978	0,189	-0,035
-617,576	187,087	-0,093	-0,102
-616,561	800,000	0,013	0,039
-615,546	800,000	0,011	-0,031
-614,532	-200,000	0,036	-0,127
-613,517	6,778	-0,066	-0,036
-612,503	317,055	0,068	-0,095
-611,488	128,895	-0,089	-0,083
-610,474	370,054	-0,065	0,096
-609,459	-114,454	0,075	0,010
-608,444	-200,000	-0,011	-0,056
-607,430	-181,971	-0,059	-0,001
-606,415	163,771	-0,094	0,098
-605,401	-98,295	0,165	0,031
-604,386	-200,000	-0,014	-0,081
-603,371	-56,815	0,076	-0,024
-602,357	-200,000	-0,002	0,106
-601,342	61,939	0,013	0,010
-600,328	250,985	-0,061	-0,077
-599,313	-63,061	-0,104	-0,031
-598,298	31,626	0,100	-0,063
-597,284	-183,071	0,158	0,002
-596,269	225,630	0,070	-0,083
-595,255	209,408	-0,114	-0,131
-594,240	-23,478	-0,047	0,021
-593,225	800,000	0,040	-0,089
-592,211	164,805	-0,156	-0,161
-591,196	245,210	-0,028	0,035
-590,182	778,356	0,062	0,125
-589,167	-82,450	0,133	0,031
-588,152	-118,586	-0,126	-0,016
-587,138	-200,000	0,017	0,091
-586,123	-200,000	-0,031	0,101
-585,109	677,742	-0,065	-0,125
-584,094	800,000	0,043	-0,140
-583,079	199,174	0,061	0,068
-582,065	-200,000	-0,005	-0,077
-581,050	-79,276	0,041	0,010
-580,036	7,098	-0,045	-0,025
-579,021	793,383	0,064	0,129
-578,006	-200,000	0,011	-0,050
-576,992	-37,689	-0,053	0,020
-575,977	348,653	0,112	0,162
-574,963	-24,492	0,066	0,028
-573,948	-200,000	-0,005	0,067
-572,934	-200,000	-0,010	0,054
-571,919	-115,627	-0,098	-0,013
-570,904	349,031	0,065	-0,094
-569,890	-200,000	0,000	0,048
-568,875	60,946	-0,151	0,109
-567,861	50,461	0,089	-0,062
-566,846	800,000	0,037	0,076
-565,831	87,070	-0,036	0,029
-564,817	-200,000	0,016	-0,182
-563,802	-110,623	-0,067	-0,010
-562,788	487,661	0,058	0,098
-561,773	351,847	-0,040	-0,058
-560,758	-200,000	0,003	-0,024
-559,744	-52,818	-0,105	0,035
-558,729	-200,000	-0,014	0,078
-557,715	31,992	0,119	0,075
-556,700	-99,565	-0,149	0,027
-555,685	300,747	0,029	-0,039
-554,671	800,000	-0,047	-0,101
-553,656	-200,000	-0,024	-0,093
-552,642	800,000	0,013	-0,043
-551,627	-200,000	-0,028	0,132
-550,612	14,173	-0,088	-0,050
-549,598	800,000	-0,058	-0,120
-548,583	420,065	-0,087	0,137
-547,569	-200,000	0,016	-0,076
-546,554	-71,326	0,049	0,013
-545,539	-200,000	0,010	0,112
-544,525	800,000	0,037	0,086
-543,510	-200,000	-0,005	-0,020
-542,496	334,329	-0,051	0,073
-541,481	-200,000	0,024	-0,134
-540,466	249,232	-0,088	-0,109
-539,452	-92,435	0,047	0,010
-538,437	-200,000	0,008	0,120
-537,423	391,095	0,058	0,088
-536,408	-200,000	0,017	0,061
-535,393	24,936	-0,082	-0,049
-534,379	158,808	0,050	-0,051
-533,364	622,826	-0,033	0,062
-532,350	-200,000	0,017	0,064
-531,335	183,059	-0,041	0,045
-530,321	-76,200	-0,119	-0,031
-529,306	3,179	-0,141	-0,075
-528,291	-87,366	0,121	0,027
-527,277	76,279	-0,118	-0,091
-526,262	800,000	-0,059	0,142
-525,248	800,000	0,036	0,110
-524,233	28,227	0,088	-0,054
-523,218	199,226	-0,044	-0,049
-522,204	-200,000	-0,015	0,096
-521,189	-200,000	-0,026	-0,174
-520,175	412,568	-0,080	-0,125
-519,160	-200,000	0,004	0,028
-518,145	635,456	-0,024	0,046
-517,131	-200,000	0,014	0,085
-516,116	185,777	0,100	0,109
-515,102	56,981	0,029	0,020
-514,087	-30,928	-0,039	-0,016
-513,072	-40,569	-0,030	-0,011
-512,058	800,000	0,039	-0,092
-511,043	800,000	0,038	-0,084
-510,029	-200,000	-0,011	-0,072
-509,014	76,347	0,115	0,089
-507,999	262,316	-0,027	0,034
-506,985	9,560	0,122	-0,067
-505,970	-200,000	0,008	-0,121
-504,956	800,000	-0,057	-0,129
-503,941	19,507	0,052	-0,030
-502,926	-26,342	0,140	-0,060
-501,912	327,347	0,097	0,136
-500,897	452,378	-0,022	-0,036
-499,883	-181,911	0,115	-0,002
-498,868	800,000	-0,062	-0,127
-497,853	546,333	0,068	-0,120
-496,839	800,000	0,011	0,031
-495,824	-153,882	0,043	0,002
-494,810	-19,626	0,189	0,085
-493,795	-134,560	-0,099	0,009
-492,781	30,559	0,094	0,059
-491,766	-168,090	-0,196	-0,005
-490,751	13,173	0,109	0,062
-489,737	140,709	0,053	-0,051
-488,722	-51,033	0,140	0,048
-487,708	248,258	0,073	0,091
-486,693	-145,859	0,081	0,005
-485,678	311,258	0,014	0,019
-484,664	-200,000	-0,001	0,072
-483,649	800,000	0,036	-0,081
-482,635	-123,819	-0,140	-0,016
-481,620	800,000	0,052	0,128
-480,605	-177,587	0,106	0,002
-479,591	146,251	-0,042	-0,042
-478,576	377,514	0,071	0,107
-477,562	-200,000	0,029	0,126
-476,547	208,124	-0,051	0,058
-475,532	-66,440	-0,156	0,045
-474,518	-200,000	-0,028	0,092
-473,503	-66,677	0,096	-0,028
-472,489	249,885	0,055	0,068
-471,474	-141,974	-0,051	0,004
-470,459	800,000	-0,039	0,085
-469,445	-80,510	0,062	-0,015
-468,430	-141,621	-0,037	0,003
-467,416	50,434	0,115	-0,079
-466,401	-200,000	-0,007	-0,049
-465,386	-143,261	0,046	-0,003
-464,372	459,701	0,018	0,030
-463,357	-175,962	0,094	0,002
-462,343	361,699	-0,046	0,068
-461,328	20,080	-0,108	0,063
-460,313	800,000	-0,031	-0,076
-459,299	-156,794	0,053	0,002
-458,284	194,142	0,072	-0,080
-457,270	599,246	-0,022	0,041
-456,255	800,000	-0,026	-0,071
-455,241	-14,085	-0,070	-0,033
-454,226	533,941	0,035	0,060
-453,211	-200,000	0,001	0,073
-452,197	-126,672	0,125	0,013
-451,182	-200,000	-0,003	0,128
-450,168	-59,389	-0,120	0,037
-449,153	130,318	-0,070	0,065
-448,138	800,000	-0,039	-0,091
-447,124	800,000	0,033	-0,104
-446,109	800,000	-0,029	-0,059
-445,095	-35,495	-0,075	-0,030
-444,080	-200,000	-0,015	-0,132
-443,065	542,671	0,009	0,016
-442,051	-31,175	-0,029	0,012
-441,036	-67,772	-0,179	0,051
-440,022	151,272	0,055	-0,054
-439,007	337,967	0,009	0,013
-437,992	-62,672	0,065	0,019
-436,978	96,936	0,080	0,067
-435,963	-101,179	-0,076	-0,013
-434,949	-200,000	-0,031	-0,125
-433,934	585,952	-0,123	-0,221
-432,919	-105,946	-0,107	0,017
-431,905	-101,301	-0,134	-0,024
-430,890	-200,000	0,002	0,048
-429,876	258,261	0,130	-0,164
-428,861	158,361	-0,040	-0,040
-427,846	-200,000	0,031	-0,117
-426,832	457,886	-0,026	-0,043
-425,817	-200,000	-0,003	-0,031
-424,803	214,539	-0,032	-0,037
-423,788	-50,388	0,129	-0,044
-422,773	118,651	-0,039	0,035
-421,759	-200,000	-0,002	-0,040
-420,744	-80,917	-0,135	-0,032
-419,730	-53,995	0,085	-0,028
-418,715	-79,259	0,034	0,008
-417,701	-200,000	0,001	-0,119
-416,686	258,949	0,073	-0,092
-415,671	642,934	-0,034	0,064
-414,657	389,311	0,008	0,013
-413,642	-200,000	-0,002	-0,084
-412,628	-105,867	-0,109	0,018
-411,613	-8,052	0,086	0,042
-410,598	616,144	-0,061	0,113
-409,584	-162,962	-0,091	0,003
-408,569	-106,207	-0,038	0,006
-407,555	-42,425	0,047	0,017
-406,540	798,314	0,008	0,015
-405,525	725,244	-0,043	0,083
-404,511	-47,648	0,119	-0,042
-403,496	50,494	-0,093	0,064
-402,482	77,804	0,076	-0,059
-401,467	119,095	0,138	0,124
-400,452	61,921	0,038	0,028
-399,438	-116,213	0,130	0,017
-398,423	-60,016	-0,053	-0,016
-397,409	-129,198	-0,078	-0,008
-396,394	176,302	-0,085	0,090
-395,379	-14,506	0,076	0,035
-394,365	-21,751	0,098	-0,043
-393,350	282,159	0,056	0,073
-392,336	79,557	-0,100	0,078
-391,321	-81,003	0,077	0,018
-390,306	-7,766	-0,079	-0,039
-389,292	14,030	-0,070	0,040
-388,277	800,000	-0,025	0,060
-387,263	10,327	0,095	-0,052
-386,248	-89,515	-0,027	-0,006
-385,233	-200,000	-0,022	0,128
-384,219	-136,028	-0,030	-0,003
-383,204	-200,000	-0,047	-0,151
-382,190	189,766	-0,099	-0,108
-381,175	-200,000	0,010	-0,063
-380,160	777,654	0,049	0,098
-379,146	504,659	0,046	0,078
-378,131	54,164	-0,061	0,043
-377,117	80,091	0,136	0,107
-376,102	-64,648	-0,127	-0,037
-375,088	-40,945	-0,109	0,041
-374,073	-6,139	0,071	-0,035
-373,058	-27,574	-0,039	0,017
-372,044	444,483	-0,092	0,147
-371,029	-13,509	0,059	0,028
-370,015	17,862	0,113	-0,065
-369,000	800,000	-0,031	-0,072
-367,985	24,592	-0,028	0,017
-366,971	448,692	-0,059	0,094
-365,956	246,296	0,028	-0,034
-364,942	8,285	0,074	-0,040
-363,927	-200,000	-0,002	0,120
-362,912	130,082	0,064	0,060
-361,898	634,190	-0,081	-0,150
-360,883	89,615	0,078	0,063
-359,869	-113,577	-0,175	0,025
-358,854	63,092	0,064	-0,047
-357,839	-3,639	0,038	-0,019
-356,825	-200,000	0,019	-0,087
-355,810	75,206	0,076	-0,058
-354,796	-200,000	-0,035	0,121
-353,781	-200,000	0,008	-0,161
-352,766	-40,213	0,051	-0,019
-351,752	16,070	-0,102	-0,058
-350,737	708,751	0,055	-0,106
-349,723	-200,000	-0,004	-0,027
-348,708	-200,000	0,005	0,084
-347,693	-94,786	-0,029	0,006
-346,679	-200,000	-0,000	-0,115
-345,664	-169,122	0,145	-0,004
-344,650	448,377	-0,064	0,102
-343,635	-200,000	-0,002	-0,085
-342,620	798,815	-0,043	0,086
-341,606	421,624	0,054	0,084
-340,591	766,200	0,028	0,055
-339,577	63,287	0,087	-0,064
-338,562	149,453	-0,086	-0,085
-337,548	-51,907	0,126	0,042
-336,533	800,000	0,028	0,064
-335,518	-151,072	0,063	-0,003
-334,504	300,326	-0,052	-0,070
-333,489	-65,172	0,059	-0,017
-332,475	-200,000	0,005	-0,107
-331,460	800,000	0,007	0,021
-330,445	18,350	0,067	-0,039
-329,431	-146,888	0,043	-0,003
-328,416	-200,000	-0,011	0,117
-327,402	-42,247	0,125	0,046
-326,387	182,994	0,108	-0,116
-325,372	191,698	-0,085	-0,093
-324,358	495,282	-0,048	-0,080
-323,343	112,548	-0,036	-0,032
-322,329	768,511	0,048	0,095
-321,314	-24,713	0,039	-0,017
-320,299	91,422	0,082	0,067
-319,285	27,907	-0,064	-0,039
-318,270	-200,000	-0,007	-0,133
-317,256	-200,000	-0,011	-0,071
-316,241	-29,345	-0,056	-0,023
-315,226	800,000	-0,039	0,089
-314,212	-122,109	-0,096	-0,011
-313,197	-200,000	0,006	0,039
-312,183	-135,831	0,045	-0,004
-311,168	-194,553	-0,086	-0,000
-310,153	-165,763	-0,215	-0,007
-309,139	48,461	-0,032	0,022
-308,124	-200,000	0,005	0,045
-307,110	800,000	0,017	0,053
-306,095	-200,000	0,007	0,077
-305,080	362,633	0,068	0,099
-304,066	234,093	-0,080	-0,095
-303,051	800,000	0,011	0,030
-302,037	-58,300	-0,123	-0,039
-301,022	310,739	-0,026	-0,036
-300,008	-200,000	-0,006	0,093
-298,993	38,300	0,236	0,152
-297,978	-30,683	-0,102	0,042
-296,964	-117,083	-0,068	-0,009
-295,949	-136,225	-0,110	-0,009
-294,935	21,620	-0,079	0,046
-293,920	375,951	-0,038	0,057
-292,905	498,114	0,051	0,086
-291,891	800,000	-0,058	0,118
-290,876	25,898	0,108	0,065
-289,862	-200,000	-0,006	0,068
-288,847	800,000	0,046	-0,145
-287,832	465,242	-0,033	-0,054
-286,818	800,000	-0,038	0,108
-285,803	71,437	-0,065	0,049
-284,789	-91,888	0,021	-0,004
-283,774	-172,190	-0,128	0,003
-282,759	77,901	-0,089	0,069
-281,745	-13,757	-0,180	-0,084
-280,730	-200,000	0,002	-0,028
-279,716	-41,549	-0,053	-0,020
-278,701	262,884	0,098	-0,123
-277,686	800,000	-0,022	0,055
-276,672	800,000	-0,038	-0,119
-275,657	311,466	0,043	-0,058
-274,643	24,118	-0,051	0,030
-273,628	517,605	0,079	-0,135
-272,613	7,861	-0,141	-0,076
-271,599	69,742	0,099	0,074
-270,584	800,000	-0,018	0,048
-269,570	-174,619	0,075	0,002
-268,555	800,000	-0,049	-0,101
-267,540	475,518	-0,091	-0,149
-266,526	-200,000	-0,024	-0,085
-265,511	65,491	0,025	0,018
-264,497	313,992	-0,033	0,045
-263,482	-25,273	0,114	-0,049
-262,467	800,000	-0,032	0,092
-261,453	-181,974	-0,065	0,001
-260,438	21,144	0,054	0,031
-259,424	-200,000	-0,015	-0,130
-258,409	-200,000	-0,002	-0,140
-257,395	174,566	-0,068	0,071
-256,380	-200,000	0,006	0,246
-255,365	800,000	0,032	0,091
-254,351	-36,473	0,009	-0,004
-253,336	-200,000	-0,001	0,076
-252,322	800,000	0,016	0,034
-251,307	68,473	-0,119	-0,088
-250,292	-68,561	0,091	0,025
-249,278	396,529	0,072	-0,110
-248,263	-185,036	0,170	-0,002
-247,249	-200,000	0,009	0,084
-246,234	800,000	-0,054	0,113
-245,219	-71,878	0,187	-0,050
-244,205	-70,213	0,096	-0,026
-243,190	-200,000	0,012	0,113
-242,176	131,404	0,113	0,105
-241,161	-79,698	-0,134	0,033
-240,146	-200,000	0,008	-0,064
-239,132	171,096	-0,114	0,119
-238,117	548,957	0,077	-0,135
-237,103	-56,355	-0,125	0,040
-236,088	800,000	-0,028	0,073
-235,073	118,187	-0,091	0,082
-234,059	-200,000	0,079	0,000
-233,044	-200,000	-0,008	-0,085
-232,030	-140,101	0,076	0,006
-231,015	800,000	-0,012	0,028
-230,000	-178,808	-0,017	0,000
-228,986	-200,000	-0,010	-0,083
-227,971	149,561	0,106	0,104
-226,957	-104,226	-0,230	0,038
-225,942	-90,019	-0,038	0,008
-224,927	-200,000	0,007	0,090
-223,913	-99,098	-0,045	-0,008
-222,898	-156,192	0,167	-0,007
-221,884	-41,435	0,050	-0,018
-220,869	-200,000	-0,011	0,072
-219,855	172,636	0,012	-0,013
-218,840	-112,038	0,053	0,008
-217,825	-200,000	0,000	0,062
-216,811	215,358	-0,111	0,127
-215,796	17,515	0,060	-0,034
-214,782	-58,736	-0,057	-0,018
-213,767	-27,265	0,091	-0,038
-212,752	149,423	0,054	0,053
-211,738	800,000	0,006	0,016
-210,723	-200,000	0,034	0,126
-209,709	-200,000	-0,012	-0,053
-208,694	35,925	-0,074	0,047
-207,679	-82,559	0,028	0,007
-206,665	-200,000	-0,047	0,166
-205,650	-200,000	0,032	0,162
-204,636	-200,000	0,009	0,160
-203,621	-146,877	-0,098	-0,006
-202,606	-143,625	-0,056	-0,004
-201,592	588,563	0,049	-0,087
-200,577	410,972	-0,135	-0,208
-199,563	-161,469	-0,096	0,004
-198,548	-37,078	0,183	0,070
-197,533	278,932	0,051	-0,065
-196,519	209,191	0,104	0,118
-195,504	-35,649	-0,041	0,016
-194,490	42,484	-0,092	0,061
-193,475	36,300	0,052	0,033
-192,460	-200,000	0,047	-0,155
-191,446	671,133	-0,063	0,118
-190,431	31,572	0,182	-0,113
-189,417	76,551	-0,066	-0,050
-188,402	-200,000	-0,014	0,140
-187,387	-200,000	0,012	0,089
-186,373	539,765	0,060	-0,104
-185,358	-129,377	-0,046	0,005
-184,344	-200,000	0,014	-0,102
-183,329	93,872	0,015	0,012
-182,315	800,000	0,019	-0,041
-181,300	-76,672	-0,067	-0,017
-180,285	-88,425	0,146	0,031
-179,271	-186,482	-0,112	-0,001
-178,256	135,094	0,043	-0,040
-177,242	-54,957	0,040	-0,013
-176,227	-40,999	0,045	0,017
-175,212	103,982	-0,081	-0,068
-174,198	335,433	0,069	-0,097
-173,183	646,416	-0,086	-0,159
-172,169	-200,000	-0,004	-0,016
-171,154	-200,000	0,007	-0,101
-170,139	55,597	0,105	-0,073
-169,125	-80,156	0,061	0,015
-168,110	572,899	-0,043	0,075
-167,096	800,000	-0,033	-0,100
-166,081	-200,000	-0,030	-0,143
-165,066	-53,064	-0,138	-0,045
-164,052	582,280	-0,075	0,133
-163,037	-200,000	0,030	0,111
-162,023	-44,902	0,112	0,040
-161,008	12,444	0,055	0,031
-159,993	-62,059	-0,120	0,036
-158,979	800,000	0,016	-0,038
-157,964	-200,000	-0,021	-0,128
-156,950	-200,000	-0,016	-0,077
-155,935	-73,598	0,094	0,025
-154,920	41,564	0,030	0,019
-153,906	-200,000	0,008	0,099
-152,891	204,248	0,015	0,017
-151,877	-200,000	-0,005	-0,037
-150,862	-20,346	0,053	0,023
-149,847	-200,000	0,129	-0,000
-148,833	-85,585	-0,124	-0,027
-147,818	-200,000	0,022	0,101
-146,804	-200,000	0,002	0,080
-145,789	-108,743	0,092	0,014
-144,775	-120,551	-0,103	0,012
-143,760	358,055	0,068	0,098
-142,745	-200,000	0,002	0,026
-141,731	-133,352	-0,074	-0,007
-140,716	-12,961	0,019	0,009
-139,702	346,995	-0,072	0,102
-138,687	800,000	0,064	0,144
-137,672	13,205	-0,063	-0,035
-136,658	-200,000	0,025	-0,108
-135,643	-145,281	-0,211	-0,013
-134,629	-13,086	0,030	0,014
-133,614	-200,000	0,016	0,080
-132,599	523,785	0,085	0,144
-131,585	-200,000	-0,026	0,203
-130,570	12,731	0,104	0,057
-129,556	-200,000	-0,027	0,166
-128,541	279,701	-0,044	-0,057
-127,526	316,242	0,095	0,130
-126,512	-200,000	-0,002	-0,007
-125,497	800,000	0,047	0,104
-124,483	94,843	0,074	0,060
-123,468	800,000	0,059	-0,138
-122,453	141,809	0,090	-0,086
-121,439	-127,079	0,004	-0,000
-120,424	-109,545	-0,037	-0,006
-119,410	105,342	0,085	-0,072
